DTS Sentinel unit serial number:	SN413079Multiplexer serial number:	ORYXHardware model number:	OX4-SRSoftware version number:	ORYX F/W v4.00 Oryx Data Collector v3.7.2.0data status	okinstallation	princeton_trtdifferential loss correction	single-endedforward channel	channel 3reverse channel	N/Adate	2019/09/12time	05:26:11forward acquisition time	60.00reverse acquisition time	0.00gamma	496.2192k internal	0.2322k external	0.2322temperature offset calibration	1.0034default loss term (dB/km)	0.3790temperature slope calibration	1.0000multiplexer offset coefficient	1.0000multiplexer slope coefficient	1.0000fibre end	0.00T internal ref (°C)	31.92T ext. ref 1 (°C)	1.62T ext. ref 2 (°C)	27.37length (m)	temperature (°C)	Stokes	anti-Stokes-747.200	-80.438	-0.110	-0.037
-746.185	-92.820	0.260	0.073
-745.171	-68.264	0.135	0.053
-744.156	73.520	-0.235	0.248
-743.142	28.304	0.200	-0.171
-742.127	-200.000	0.059	-0.345
-741.112	154.460	-0.104	-0.144
-740.098	200.334	0.225	0.349
-739.083	-141.537	-0.052	-0.005
-738.069	3.355	-0.204	0.150
-737.054	36.236	0.046	0.041
-736.039	-200.000	-0.016	-0.074
-735.025	-116.104	-0.315	-0.059
-734.010	408.269	-0.160	-0.343
-732.996	800.000	-0.058	-0.235
-731.981	-61.974	0.215	-0.091
-730.966	800.000	0.152	0.474
-729.952	488.562	0.046	-0.106
-728.937	-40.590	0.163	-0.086
-727.923	800.000	0.066	0.218
-726.908	-139.830	-0.159	-0.017
-725.894	-30.455	0.221	0.126
-724.879	243.229	-0.086	-0.145
-723.864	-78.984	-0.149	-0.051
-722.850	23.070	0.129	0.107
-721.835	-67.172	-0.109	-0.043
-720.821	-148.092	-0.148	-0.012
-719.806	286.988	-0.120	-0.219
-718.791	373.126	-0.136	0.278
-717.777	-19.136	-0.152	-0.095
-716.762	-52.896	0.317	-0.147
-715.748	67.183	0.174	0.179
-714.733	-95.007	-0.305	-0.083
-713.718	33.155	-0.222	0.194
-712.704	-200.000	-0.008	-0.050
-711.689	-98.451	0.323	-0.083
-710.675	-99.914	-0.339	0.085
-709.660	229.075	-0.159	-0.261
-708.645	66.929	-0.202	-0.207
-707.631	-137.953	-0.269	-0.030
-706.616	53.419	0.268	0.259
-705.602	135.683	-0.181	0.238
-704.587	87.075	0.089	-0.100
-703.572	800.000	0.093	-0.311
-702.558	-9.839	-0.257	-0.173
-701.543	123.856	0.137	-0.173
-700.529	529.184	-0.135	-0.321
-699.514	689.056	0.164	-0.432
-698.499	800.000	-0.076	0.243
-697.485	-200.000	-0.015	-0.137
-696.470	-179.964	-0.052	0.001
-695.456	-200.000	-0.015	0.125
-694.441	-36.405	-0.463	0.251
-693.426	475.101	0.108	0.247
-692.412	-66.265	0.166	0.067
-691.397	529.211	-0.089	-0.212
-690.383	-154.792	0.101	-0.007
-689.368	-200.000	0.011	-0.080
-688.354	87.823	-0.188	-0.210
-687.339	25.299	0.183	0.153
-686.324	-200.000	0.028	0.218
-685.310	800.000	0.091	-0.346
-684.295	-67.287	0.232	0.092
-683.281	-79.768	-0.107	0.036
-682.266	31.247	-0.168	0.145
-681.251	157.533	-0.060	0.084
-680.237	176.298	-0.069	-0.101
-679.222	-131.847	0.187	0.025
-678.208	103.773	-0.142	-0.168
-677.193	111.917	-0.117	0.142
-676.178	48.762	0.051	-0.048
-675.164	357.574	0.113	-0.228
-674.149	-76.938	0.066	-0.023
-673.135	-200.000	0.052	-0.285
-672.120	68.190	-0.330	-0.340
-671.105	-144.790	-0.178	0.016
-670.091	800.000	0.107	-0.319
-669.076	10.670	0.239	-0.184
-668.062	198.420	-0.032	0.049
-667.047	-200.000	0.028	0.202
-666.032	212.118	-0.104	0.165
-665.018	-140.107	-0.441	-0.047
-664.003	204.494	0.161	0.252
-662.989	-75.291	0.057	0.021
-661.974	176.691	-0.138	0.203
-660.959	-200.000	-0.059	0.556
-659.945	-13.593	-0.207	-0.135
-658.930	-200.000	-0.015	0.087
-657.916	354.987	0.161	-0.323
-656.901	46.580	0.270	0.252
-655.886	16.490	0.016	0.013
-654.872	-23.441	0.059	0.036
-653.857	-200.000	0.019	0.088
-652.843	29.366	-0.053	-0.045
-651.828	-99.972	0.275	-0.069
-650.814	-74.650	-0.389	-0.141
-649.799	18.001	0.190	-0.153
-648.784	139.898	-0.178	-0.237
-647.770	-200.000	-0.006	0.048
-646.755	-200.000	0.027	-0.282
-645.741	-200.000	0.113	0.517
-644.726	38.562	-0.077	0.069
-643.711	282.772	-0.208	0.376
-642.697	-123.414	-0.330	0.053
-641.682	800.000	-0.048	-0.202
-640.668	800.000	-0.024	0.091
-639.653	-27.934	-0.024	0.014
-638.638	196.357	-0.127	-0.195
-637.624	-42.207	-0.167	-0.086
-636.609	75.943	0.019	0.020
-635.595	71.348	0.028	0.029
-634.580	-93.335	-0.047	0.013
-633.565	-94.604	0.192	0.053
-632.551	-200.000	0.100	-0.447
-631.536	11.126	-0.148	-0.114
-630.522	-143.888	0.153	0.015
-629.507	-9.169	-0.056	-0.038
-628.492	-200.000	0.013	-0.364
-627.478	-134.516	0.337	-0.041
-626.463	146.383	-0.157	-0.212
-625.449	85.420	-0.377	0.417
-624.434	24.788	0.125	-0.105
-623.419	-36.840	-0.282	-0.152
-622.405	-200.000	0.021	-0.530
-621.390	30.261	0.214	0.184
-620.376	-9.843	0.131	-0.088
-619.361	-105.477	-0.142	-0.033
-618.346	683.788	0.144	-0.378
-617.332	-59.466	-0.243	0.105
-616.317	-99.700	-0.128	0.032
-615.303	-96.993	-0.137	0.036
-614.288	-200.000	0.028	-0.124
-613.273	-27.497	-0.176	-0.103
-612.259	-200.000	0.009	-0.222
-611.244	-173.922	0.052	-0.002
-610.230	15.660	-0.184	0.145
-609.215	498.645	-0.057	0.133
-608.201	6.407	0.125	-0.093
-607.186	-10.005	-0.097	-0.065
-606.171	-200.000	0.023	-0.428
-605.157	-41.550	-0.099	0.051
-604.142	-127.428	0.207	0.030
-603.128	129.656	-0.026	-0.033
-602.113	212.186	-0.140	0.222
-601.098	-200.000	0.008	0.099
-600.084	-98.528	0.195	-0.050
-599.069	-61.158	0.037	-0.016
-598.055	-126.199	-0.342	-0.051
-597.040	309.450	-0.082	-0.153
-596.025	232.212	0.131	-0.216
-595.011	-77.765	-0.173	-0.060
-593.996	-157.857	-0.404	-0.024
-592.982	800.000	0.097	0.280
-591.967	-181.296	-0.224	-0.004
-590.952	428.345	0.025	0.053
-589.938	44.264	-0.309	0.285
-588.923	76.097	0.154	0.164
-587.909	800.000	-0.042	-0.135
-586.894	800.000	0.145	-0.435
-585.879	-145.862	-0.353	0.031
-584.865	121.389	-0.161	-0.201
-583.850	-200.000	0.047	-0.242
-582.836	-49.296	-0.197	0.095
-581.821	-119.815	0.171	0.030
-580.806	-88.474	-0.227	0.068
-579.792	242.921	0.197	0.331
-578.777	212.367	-0.169	0.267
-577.763	94.494	-0.148	0.168
-576.748	-133.269	-0.122	-0.015
-575.733	115.597	-0.079	-0.098
-574.719	-87.042	0.193	0.059
-573.704	159.219	-0.035	-0.049
-572.690	180.601	-0.126	-0.186
-571.675	800.000	0.101	-0.321
-570.661	800.000	0.045	-0.147
-569.646	800.000	-0.101	0.328
-568.631	192.437	-0.105	0.159
-567.617	11.912	0.113	0.087
-566.602	-1.640	0.332	-0.235
-565.588	145.416	0.029	-0.039
-564.573	-40.292	0.367	0.192
-563.558	800.000	0.098	0.312
-562.544	-200.000	0.003	-0.154
-561.529	-156.258	0.143	-0.009
-560.515	-200.000	-0.037	0.306
-559.500	49.459	-0.218	-0.206
-558.485	-67.433	0.270	-0.106
-557.471	-200.000	-0.024	-0.131
-556.456	139.583	0.362	-0.478
-555.442	625.586	-0.033	-0.083
-554.427	-77.787	0.187	-0.065
-553.412	-121.798	-0.062	0.010
-552.398	56.544	0.083	0.081
-551.383	-179.810	-0.323	0.007
-550.369	-120.126	-0.270	-0.046
-549.354	-16.383	0.231	0.147
-548.339	742.847	0.031	-0.083
-547.325	14.628	-0.212	0.166
-546.310	267.260	-0.064	0.112
-545.296	-98.650	-0.092	0.023
-544.281	546.141	0.073	0.175
-543.266	800.000	-0.105	-0.418
-542.252	275.685	0.043	-0.076
-541.237	-200.000	-0.027	-0.235
-540.223	-174.131	-0.347	0.010
-539.208	147.422	0.112	0.152
-538.193	800.000	-0.021	-0.092
-537.179	800.000	0.041	-0.159
-536.164	800.000	0.083	0.238
-535.150	800.000	-0.013	0.036
-534.135	98.119	-0.172	-0.199
-533.121	8.024	-0.380	0.285
-532.106	196.467	0.121	-0.185
-531.091	-66.185	0.146	0.058
-530.077	45.603	-0.174	-0.161
-529.062	159.887	-0.297	-0.414
-528.048	-73.570	0.289	0.106
-527.033	-200.000	-0.006	0.173
-526.018	-74.907	-0.171	-0.061
-525.004	800.000	0.032	-0.090
-523.989	-200.000	0.058	-0.330
-522.975	337.481	0.127	0.247
-521.960	-72.222	-0.172	-0.064
-520.945	-64.080	-0.365	0.149
-519.931	-200.000	0.010	-0.049
-518.916	-143.755	0.336	-0.032
-517.902	-53.053	-0.108	-0.050
-516.887	-138.238	0.494	0.055
-515.872	-200.000	0.244	-0.001
-514.858	-43.879	0.330	0.166
-513.843	-154.288	0.104	0.007
-512.829	800.000	-0.068	0.271
-511.814	125.436	0.140	0.177
-510.799	-200.000	-0.053	0.326
-509.785	-43.987	0.041	0.021
-508.770	92.878	-0.224	-0.254
-507.756	10.088	0.107	-0.081
-506.741	-25.395	0.205	0.121
-505.726	73.249	-0.157	-0.164
-504.712	24.033	0.161	0.133
-503.697	90.690	-0.091	0.102
-502.683	219.548	-0.117	-0.188
-501.668	-4.512	0.498	-0.344
-500.653	14.902	0.218	-0.170
-499.639	-86.300	-0.185	-0.057
-498.624	-200.000	0.041	-0.320
-497.610	800.000	0.042	-0.157
-496.595	218.787	-0.150	0.240
-495.581	472.273	0.071	-0.161
-494.566	-170.850	0.225	0.008
-493.551	81.266	-0.208	-0.225
-492.537	-95.492	-0.447	-0.120
-491.522	-50.443	-0.179	0.084
-490.508	148.621	-0.106	-0.143
-489.493	26.244	0.209	0.175
-488.478	-200.000	0.003	0.052
-487.464	79.918	-0.203	-0.218
-486.449	-200.000	-0.028	-0.208
-485.435	-200.000	0.026	-0.128
-484.420	25.483	0.203	-0.169
-483.405	-190.435	-0.225	0.002
-482.391	800.000	0.041	-0.129
-481.376	-200.000	-0.051	0.401
-480.362	-200.000	-0.066	-0.289
-479.347	785.244	0.147	-0.402
-478.332	158.842	0.077	-0.107
-477.318	114.342	-0.269	0.328
-476.303	800.000	-0.123	0.399
-475.289	-31.383	0.156	-0.088
-474.274	-200.000	-0.003	0.249
-473.259	-15.582	-0.216	0.138
-472.245	263.778	0.036	0.063
-471.230	-48.080	-0.328	-0.158
-470.216	-149.502	-0.318	-0.025
-469.201	-97.865	-0.262	0.068
-468.186	-200.000	-0.004	-0.230
-467.172	220.654	-0.212	-0.340
-466.157	420.476	-0.138	0.296
-465.143	-131.238	-0.145	-0.019
-464.128	187.419	0.138	0.206
-463.113	77.526	-0.058	-0.061
-462.099	-25.169	-0.130	0.077
-461.084	-11.835	-0.121	0.079
-460.070	271.871	-0.089	-0.157
-459.055	800.000	0.035	0.111
-458.040	203.575	0.039	0.061
-457.026	281.039	-0.071	-0.128
-456.011	103.533	0.038	-0.044
-454.997	40.266	0.148	0.133
-453.982	135.633	0.210	0.274
-452.968	-161.449	0.099	-0.005
-451.953	-186.320	-0.288	0.004
-450.938	23.256	-0.079	0.065
-449.924	184.503	0.151	0.224
-448.909	14.981	0.115	-0.090
-447.895	-200.000	0.054	-0.278
-446.880	-200.000	0.047	-0.251
-445.865	416.641	-0.109	0.233
-444.851	210.613	-0.047	0.074
-443.836	-123.899	0.133	0.021
-442.822	-138.001	-0.265	0.029
-441.807	-61.307	-0.251	0.105
-440.792	365.208	0.121	0.243
-439.778	-200.000	0.001	0.039
-438.763	-170.700	0.209	-0.007
-437.749	-8.126	0.217	0.146
-436.734	-34.494	-0.326	0.178
-435.719	108.867	0.051	0.061
-434.705	123.896	0.029	0.037
-433.690	37.562	-0.022	-0.020
-432.676	291.739	-0.083	-0.150
-431.661	-200.000	0.030	-0.215
-430.646	37.153	0.277	-0.244
-429.632	-200.000	-0.001	0.135
-428.617	800.000	-0.073	-0.305
-427.603	-8.692	0.312	0.209
-426.588	499.329	-0.067	-0.154
-425.573	-200.000	-0.007	0.225
-424.559	14.632	0.066	-0.052
-423.544	800.000	-0.061	0.188
-422.530	316.302	-0.075	0.142
-421.515	-10.452	-0.266	-0.176
-420.500	-137.597	-0.088	0.010
-419.486	294.567	-0.084	0.154
-418.471	96.700	0.082	0.094
-417.457	270.349	-0.088	-0.154
-416.442	-117.919	0.292	0.052
-415.428	-1.921	-0.194	-0.136
-414.413	261.902	-0.071	-0.123
-413.398	-97.245	-0.246	0.064
-412.384	-6.436	0.233	-0.158
-411.369	35.029	-0.250	-0.218
-410.355	121.746	0.147	-0.183
-409.340	-74.192	-0.219	0.079
-408.325	79.526	0.210	-0.225
-407.311	-71.025	0.066	-0.025
-406.296	-70.366	-0.097	-0.037
-405.282	97.099	-0.349	-0.400
-404.267	270.611	0.083	0.145
-403.252	34.106	0.113	0.098
-402.238	-126.645	0.223	-0.033
-401.223	13.814	-0.264	0.205
-400.209	-114.497	-0.225	0.043
-399.194	-133.267	-0.262	-0.033
-398.179	-200.000	0.027	0.302
-397.165	-200.000	0.027	0.173
-396.150	786.562	-0.090	-0.246
-395.136	-200.000	0.037	0.309
-394.121	-20.896	-0.206	-0.126
-393.106	724.320	0.081	0.215
-392.092	60.799	-0.015	0.015
-391.077	-53.031	-0.139	0.063
-390.063	-200.000	-0.083	-0.425
-389.048	-200.000	0.009	-0.099
-388.033	-200.000	0.080	0.403
-387.019	-16.828	-0.534	0.336
-386.004	-51.708	-0.268	0.124
-384.990	-200.000	0.043	-0.395
-383.975	124.767	-0.059	-0.074
-382.960	-25.727	0.325	0.191
-381.946	220.422	0.027	0.043
-380.931	-59.463	-0.231	-0.099
-379.917	-200.000	0.017	-0.463
-378.902	-200.000	0.035	-0.189
-377.888	-104.197	-0.149	0.034
-376.873	219.181	-0.071	-0.114
-375.858	-200.000	-0.056	0.495
-374.844	92.813	0.159	-0.179
-373.829	800.000	0.098	0.309
-372.815	-99.113	-0.144	0.036
-371.800	670.517	-0.066	-0.170
-370.785	800.000	0.062	-0.219
-369.771	-22.444	0.102	0.062
-368.756	-27.033	0.199	0.116
-367.742	-113.245	0.280	0.055
-366.727	363.505	0.151	-0.302
-365.712	192.046	0.229	-0.343
-364.698	-38.923	0.113	0.059
-363.683	-200.000	0.048	-0.296
-362.669	-200.000	-0.002	-0.114
-361.654	-98.576	0.438	0.111
-360.639	-7.888	0.293	0.197
-359.625	-99.488	0.055	-0.014
-358.610	5.505	0.266	-0.195
-357.596	-55.177	0.347	-0.155
-356.581	-17.170	0.148	0.093
-355.566	-95.436	0.036	-0.010
-354.552	57.801	0.129	-0.126
-353.537	311.055	0.252	-0.471
-352.523	-200.000	-0.018	-0.128
-351.508	22.437	0.141	0.114
-350.493	-72.091	0.173	-0.064
-349.479	11.886	-0.094	0.072
-348.464	-123.833	0.236	-0.037
-347.450	18.349	-0.095	0.075
-346.435	57.127	-0.096	-0.093
-345.420	118.161	0.240	-0.295
-344.406	13.684	0.253	0.196
-343.391	-186.338	-0.346	0.005
-342.377	-94.169	0.095	0.026
-341.362	2.924	0.124	-0.090
-340.348	800.000	0.129	-0.374
-339.333	798.731	0.052	0.143
-338.318	-75.365	-0.267	-0.095
-337.304	800.000	0.032	0.117
-336.289	229.360	0.142	0.230
-335.275	-196.863	-0.125	-0.001
-334.260	141.145	0.090	-0.119
-333.245	-161.156	0.342	-0.018
-332.231	-95.192	0.597	0.160
-331.216	67.025	0.218	-0.221
-330.202	-70.148	-0.105	-0.040
-329.187	-200.000	0.044	-0.289
-328.172	800.000	0.078	-0.311
-327.158	30.074	-0.207	0.176
-326.143	40.451	-0.300	0.268
-325.129	-200.000	-0.030	0.318
-324.114	800.000	-0.051	0.178
-323.099	-100.810	0.091	0.022
-322.085	20.350	-0.088	0.071
-321.070	20.024	0.150	0.120
-320.056	38.102	0.088	0.078
-319.041	-90.720	0.304	0.087
-318.026	669.681	-0.158	0.407
-317.012	-31.239	0.056	0.031
-315.997	-146.372	-0.307	0.027
-314.983	800.000	-0.107	0.378
-313.968	-149.323	0.067	-0.005
-312.953	-138.900	0.341	0.037
-311.939	-45.401	0.051	-0.025
-310.924	-200.000	-0.014	-0.321
-309.910	-162.243	0.383	0.019
-308.895	800.000	-0.073	0.246
-307.880	383.230	-0.060	-0.123
-306.866	324.976	-0.107	0.203
-305.851	-134.980	-0.124	-0.015
-304.837	-200.000	-0.026	-0.116
-303.822	175.052	0.215	0.309
-302.807	-83.714	0.365	0.116
-301.793	600.321	0.157	-0.387
-300.778	-95.412	0.075	0.020
-299.764	47.497	0.112	0.103
-298.749	-81.448	0.222	-0.073
-297.735	3.465	0.091	0.066
-296.720	-200.000	0.009	-0.077
-295.705	250.718	0.109	-0.183
-294.691	-200.000	-0.013	-0.170
-293.676	105.551	-0.058	0.068
-292.662	-13.020	0.078	0.050
-291.647	-200.000	-0.033	0.165
-290.632	58.688	-0.210	0.204
-289.618	33.029	0.202	-0.173
-288.603	-139.633	-0.238	0.025
-287.589	-118.177	-0.124	-0.022
-286.574	800.000	-0.073	0.294
-285.559	-26.296	0.377	-0.220
-284.545	-178.303	-0.246	0.006
-283.530	174.177	-0.068	-0.097
-282.516	35.835	-0.148	-0.129
-281.501	-200.000	-0.007	-0.067
-280.486	-200.000	0.046	0.363
-279.472	128.699	-0.128	0.162
-278.457	-200.000	0.024	0.188
-277.443	-200.000	-0.024	0.244
-276.428	-200.000	0.008	0.116
-275.413	-143.049	-0.288	-0.028
-274.399	4.280	-0.127	-0.092
-273.384	800.000	0.034	-0.135
-272.370	800.000	0.036	-0.137
-271.355	-200.000	-0.025	-0.283
-270.340	-48.040	-0.198	0.095
-269.326	-59.084	0.176	0.075
-268.311	197.368	-0.154	-0.234
-267.297	-58.058	0.170	-0.073
-266.282	-200.000	-0.001	0.130
-265.267	-134.526	-0.086	-0.010
-264.253	-105.580	0.230	0.052
-263.238	-200.000	-0.012	0.384
-262.224	-91.425	-0.229	-0.065
-261.209	800.000	0.075	0.279
-260.195	298.352	0.041	0.075
-259.180	800.000	-0.019	-0.074
-258.165	93.596	0.189	-0.212
-257.151	242.612	-0.045	0.074
-256.136	-145.316	0.173	0.016
-255.122	197.824	0.056	-0.086
-254.107	-156.669	-0.248	-0.015
-253.092	74.993	-0.127	-0.132
-252.078	-53.795	-0.142	-0.064
-251.063	58.746	0.159	-0.154
-250.049	349.265	0.041	-0.081
-249.034	800.000	-0.072	0.199
-248.019	249.546	-0.177	-0.298
-247.005	133.172	0.118	-0.152
-245.990	145.878	-0.110	0.146
-244.976	-107.424	0.162	0.035
-243.961	41.701	0.207	0.186
-242.946	-55.703	-0.127	0.056
-241.932	-36.603	-0.317	0.169
-240.917	-103.840	0.310	0.072
-239.903	162.962	-0.157	0.219
-238.888	89.709	0.093	-0.102
-237.873	-71.879	-0.124	0.046
-236.859	-59.726	0.221	-0.094
-235.844	-37.503	0.075	-0.040
-234.830	-39.948	0.159	0.082
-233.815	-200.000	-0.029	-0.139
-232.800	800.000	-0.075	0.237
-231.786	800.000	-0.069	-0.207
-230.771	-101.875	0.062	0.015
-229.757	49.944	-0.199	-0.186
-228.742	234.751	0.029	-0.048
-227.727	-54.166	0.021	-0.010
-226.713	-200.000	-0.032	-0.162
-225.698	-74.134	0.232	0.083
-224.684	-65.497	-0.214	0.085
-223.669	465.471	0.094	-0.208
-222.655	-200.000	-0.012	-0.124
-221.640	-200.000	0.008	0.058
-220.625	-41.048	0.125	0.064
-219.611	55.931	-0.146	0.141
-218.596	-200.000	0.041	0.197
-217.582	-200.000	-0.009	0.045
-216.567	-82.515	-0.121	0.039
-215.552	-47.658	0.268	-0.129
-214.538	497.943	-0.093	-0.212
-213.523	-143.981	-0.057	0.005
-212.509	-67.289	-0.174	0.068
-211.494	-126.641	0.316	-0.046
-210.479	800.000	0.084	0.359
-209.465	514.121	0.052	0.121
-208.450	800.000	0.062	0.211
-207.436	-123.741	-0.077	0.012
-206.421	10.686	-0.063	0.048
-205.406	-115.738	0.212	0.039
-204.392	-200.000	-0.020	-0.320
-203.377	-100.063	0.348	-0.086
-202.363	49.025	0.328	0.305
-201.348	-200.000	0.024	0.191
-200.333	-200.000	0.036	0.185
-199.319	-114.527	-0.243	-0.046
-198.304	105.263	-0.184	-0.215
-197.290	182.928	0.241	0.351
-196.275	608.528	-0.081	-0.201
-195.260	-200.000	0.026	-0.166
-194.246	10.042	-0.194	0.146
-193.231	-200.000	-0.021	0.534
-192.217	-200.000	0.019	-0.104
-191.202	800.000	-0.049	-0.151
-190.187	-95.180	-0.036	0.010
-189.173	96.586	0.303	0.344
-188.158	800.000	0.077	-0.216
-187.144	119.651	0.165	0.202
-186.129	-200.000	-0.030	0.151
-185.114	56.441	0.148	0.142
-184.100	800.000	-0.043	0.169
-183.085	-109.759	-0.037	0.008
-182.071	800.000	0.036	-0.106
-181.056	154.047	-0.052	-0.071
-180.042	176.243	0.133	0.191
-179.027	217.143	0.036	-0.057
-178.012	800.000	0.082	0.262
-176.998	-27.706	-0.024	-0.014
-175.983	88.808	0.099	0.109
-174.969	-170.335	-0.271	-0.009
-173.954	-146.890	-0.080	-0.007
-172.939	427.554	-0.022	-0.048
-171.925	-136.680	0.190	-0.022
-170.910	-66.207	-0.254	0.100
-169.896	195.942	-0.085	-0.128
-168.881	-29.127	-0.295	-0.167
-167.866	-50.484	-0.226	0.105
-166.852	152.497	-0.214	0.289
-165.837	-26.522	-0.087	0.050
-164.823	134.616	-0.201	0.258
-163.808	467.042	-0.010	-0.023
-162.793	-57.032	-0.381	-0.166
-161.779	-27.760	-0.310	0.178
-160.764	272.983	0.059	-0.103
-159.750	-187.081	0.449	0.006
-158.735	-143.562	-0.078	0.007
-157.720	800.000	0.075	0.248
-156.706	-102.564	0.181	-0.043
-155.691	-200.000	0.020	0.285
-154.677	-35.837	0.321	0.172
-153.662	43.493	0.277	0.250
-152.647	253.159	0.131	0.221
-151.633	-41.425	0.083	0.042
-150.618	-29.076	0.370	-0.210
-149.604	87.342	0.042	0.046
-148.589	53.639	-0.139	-0.132
-147.574	-200.000	0.002	0.460
-146.560	355.142	-0.069	0.135
-145.545	800.000	0.091	0.254
-144.531	-132.822	0.375	-0.047
-143.516	-47.702	0.251	-0.120
-142.502	-86.596	-0.244	-0.074
-141.487	-80.241	0.335	-0.111
-140.472	51.298	-0.313	-0.293
-139.458	726.804	-0.046	-0.121
-138.443	42.715	0.282	0.254
-137.429	-55.606	0.100	0.044
-136.414	423.644	0.186	0.395
-135.399	-69.157	0.147	0.056
-134.385	174.309	0.116	0.166
-133.370	162.206	-0.126	-0.175
-132.356	800.000	0.093	0.314
-131.341	162.288	-0.192	-0.266
-130.326	800.000	0.054	-0.159
-129.312	-70.341	0.126	-0.047
-128.297	-104.328	0.284	-0.065
-127.283	29.881	0.093	0.078
-126.268	-40.019	-0.208	0.107
-125.253	-200.000	-0.002	-0.214
-124.239	-77.672	0.230	-0.078
-123.224	214.515	0.049	-0.077
-122.210	-200.000	0.028	-0.225
-121.195	800.000	0.076	-0.228
