DTS Sentinel unit serial number:	SN413079Multiplexer serial number:	ORYXHardware model number:	OX4-SRSoftware version number:	ORYX F/W v4.00 Oryx Data Collector v3.7.2.0data status	okinstallation	princeton_trtdifferential loss correction	single-endedforward channel	channel 3reverse channel	N/Adate	2019/09/13time	13:20:34forward acquisition time	60.00reverse acquisition time	0.00gamma	496.2192k internal	0.2303k external	0.2303temperature offset calibration	1.0148default loss term (dB/km)	0.3790temperature slope calibration	1.0000multiplexer offset coefficient	1.0000multiplexer slope coefficient	1.0000fibre end	0.00T internal ref (°C)	34.95T ext. ref 1 (°C)	4.56T ext. ref 2 (°C)	31.50length (m)	temperature (°C)	Stokes	anti-Stokes-747.200	-183.041	0.229	0.004
-746.185	800.000	0.093	0.330
-745.171	582.606	0.118	0.295
-744.156	10.772	-0.266	0.206
-743.142	-200.000	-0.066	-0.320
-742.127	179.095	-0.104	-0.155
-741.112	-107.776	0.275	0.061
-740.098	-25.177	0.125	0.075
-739.083	-76.527	0.181	-0.065
-738.069	800.000	-0.064	0.188
-737.054	541.660	0.075	0.181
-736.039	56.070	-0.147	0.146
-735.025	-34.203	-0.191	-0.107
-734.010	293.920	-0.117	-0.218
-732.996	800.000	0.125	-0.352
-731.981	800.000	0.048	-0.153
-730.966	61.800	0.107	-0.109
-729.952	-200.000	-0.020	-0.179
-728.937	9.566	0.036	-0.028
-727.923	-145.362	0.079	-0.007
-726.908	603.180	0.064	-0.163
-725.894	-53.879	-0.147	-0.068
-724.879	-200.000	-0.045	-0.226
-723.864	4.316	-0.083	-0.062
-722.850	20.839	0.074	0.061
-721.835	-200.000	-0.024	0.151
-720.821	-7.853	-0.060	-0.041
-719.806	-200.000	-0.003	-0.188
-718.791	800.000	-0.094	-0.331
-717.777	496.609	-0.098	0.230
-716.762	-137.100	-0.347	-0.040
-715.748	-125.078	-0.167	-0.026
-714.733	-137.500	-0.250	-0.029
-713.718	-86.430	0.276	0.086
-712.704	-109.540	0.222	-0.048
-711.689	800.000	0.065	-0.253
-710.675	519.072	-0.057	-0.135
-709.660	12.579	0.233	-0.183
-708.645	-200.000	0.047	0.223
-707.631	-8.996	-0.127	-0.086
-706.616	-86.399	0.138	-0.043
-705.602	-37.992	0.260	-0.141
-704.587	-13.944	0.173	-0.114
-703.572	151.331	0.153	-0.212
-702.558	-200.000	-0.006	0.034
-701.543	45.758	-0.142	0.134
-700.529	-200.000	0.022	0.109
-699.514	21.881	-0.213	0.176
-698.499	366.365	0.140	0.288
-697.485	800.000	-0.045	-0.157
-696.470	-200.000	-0.010	0.046
-695.456	102.192	-0.045	0.053
-694.441	800.000	-0.055	-0.161
-693.426	-147.180	-0.364	-0.032
-692.412	-200.000	-0.064	-0.309
-691.397	-39.882	0.035	-0.018
-690.383	141.082	0.051	0.068
-689.368	-83.629	-0.381	0.124
-688.354	-92.837	-0.303	-0.086
-687.339	-117.873	-0.370	-0.067
-686.324	-83.464	0.366	-0.119
-685.310	125.850	0.283	-0.363
-684.295	-200.000	-0.012	-0.217
-683.281	-106.528	0.115	0.026
-682.266	-200.000	0.037	-0.256
-681.251	73.379	-0.317	-0.337
-680.237	-96.829	0.323	-0.086
-679.222	-157.525	0.251	0.015
-678.208	65.444	0.132	-0.136
-677.193	107.675	0.065	-0.079
-676.178	-161.167	0.089	0.005
-675.164	800.000	-0.024	-0.078
-674.149	512.967	-0.086	0.205
-673.135	-80.149	0.207	0.071
-672.120	74.970	-0.067	0.072
-671.105	43.465	0.250	-0.233
-670.091	800.000	-0.147	-0.425
-669.076	-200.000	0.047	-0.299
-668.062	9.954	0.115	-0.088
-667.047	-16.081	-0.106	0.069
-666.032	564.226	-0.079	0.194
-665.018	-185.873	-0.157	-0.002
-664.003	-116.511	-0.396	0.074
-662.989	-81.369	-0.206	-0.069
-661.974	-92.153	0.347	-0.100
-660.959	72.873	-0.136	0.145
-659.945	-200.000	-0.030	0.135
-658.930	-200.000	-0.016	0.105
-657.916	-126.227	-0.118	-0.018
-656.901	0.085	0.147	0.107
-655.886	286.887	0.177	-0.324
-654.872	36.464	-0.208	-0.186
-653.857	800.000	-0.133	-0.493
-652.843	137.604	0.061	-0.081
-651.828	-34.518	0.474	0.264
-650.814	-75.716	0.085	0.031
-649.799	-191.456	-0.131	-0.001
-648.784	-77.516	-0.259	-0.091
-647.770	204.427	0.067	-0.106
-646.755	-3.742	-0.170	-0.120
-645.741	193.995	-0.079	0.121
-644.726	2.873	-0.449	-0.330
-643.711	-200.000	-0.033	0.282
-642.697	537.767	0.055	-0.133
-641.682	141.795	0.034	-0.046
-640.668	94.638	-0.183	-0.211
-639.653	-72.128	-0.254	-0.096
-638.638	800.000	0.051	-0.150
-637.624	-140.484	0.031	0.003
-636.609	-27.659	-0.174	-0.102
-635.595	-61.895	0.107	-0.045
-634.580	-200.000	-0.004	0.166
-633.565	-118.964	-0.479	-0.085
-632.551	-21.586	0.288	0.178
-631.536	143.042	-0.061	0.082
-630.522	295.862	-0.141	-0.262
-629.507	614.004	-0.150	-0.382
-628.492	800.000	-0.023	0.102
-627.478	133.196	0.269	-0.353
-626.463	531.020	-0.110	-0.263
-625.449	-88.291	0.098	-0.030
-624.434	-200.000	0.006	-0.077
-623.419	60.289	0.058	-0.058
-622.405	70.541	0.062	0.065
-621.390	382.307	0.068	0.141
-620.376	-200.000	0.003	-0.266
-619.361	-62.077	0.239	-0.101
-618.346	-56.314	-0.118	0.053
-617.332	391.851	-0.145	-0.305
-616.317	526.365	0.081	-0.192
-615.303	181.658	-0.158	0.235
-614.288	-103.137	0.396	-0.095
-613.273	-0.350	-0.129	-0.093
-612.259	-41.631	0.126	-0.066
-611.244	-146.359	-0.358	-0.032
-610.230	670.389	-0.119	0.311
-609.215	302.335	-0.230	-0.431
-608.201	10.438	-0.465	-0.359
-607.186	446.473	0.173	-0.385
-606.171	-123.405	-0.275	-0.044
-605.157	-200.000	-0.039	0.284
-604.142	800.000	-0.034	0.134
-603.128	554.456	-0.016	-0.039
-602.113	800.000	-0.082	0.353
-601.098	764.812	-0.045	-0.123
-600.084	-200.000	0.036	-0.191
-599.069	-200.000	0.031	0.162
-598.055	-48.055	-0.174	-0.085
-597.040	800.000	-0.031	0.108
-596.025	-68.686	0.217	-0.085
-595.011	-97.481	-0.136	0.036
-593.996	-71.288	0.036	-0.013
-592.982	120.186	-0.126	0.158
-591.967	-200.000	0.013	0.064
-590.952	-79.023	0.242	0.083
-589.938	-200.000	0.004	0.204
-588.923	-117.998	-0.055	-0.010
-587.909	31.078	-0.111	-0.096
-586.894	-63.358	0.039	0.016
-585.879	-200.000	0.012	0.476
-584.865	-67.055	0.289	-0.116
-583.850	-200.000	0.006	-0.044
-582.836	-200.000	-0.049	-0.272
-581.821	800.000	-0.019	0.056
-580.806	3.838	-0.119	0.088
-579.792	142.038	0.129	0.174
-578.777	-117.984	0.282	-0.051
-577.763	83.667	-0.239	-0.264
-576.748	226.975	-0.110	0.181
-575.733	306.025	-0.034	0.064
-574.719	49.537	-0.117	0.111
-573.704	-5.587	0.262	0.182
-572.690	-39.149	-0.162	0.086
-571.675	-93.001	0.289	-0.081
-570.661	24.866	-0.299	-0.251
-569.646	800.000	0.097	0.333
-568.631	-21.873	-0.316	0.195
-567.617	4.762	0.124	0.092
-566.602	800.000	0.071	0.224
-565.588	800.000	-0.032	0.133
-564.573	114.150	0.163	-0.201
-563.558	-200.000	-0.018	0.113
-562.544	259.976	0.161	0.281
-561.529	-151.161	-0.080	0.006
-560.515	-87.510	-0.366	0.112
-559.500	-200.000	-0.014	-0.220
-558.485	280.443	0.145	-0.262
-557.471	-69.216	0.493	-0.192
-556.456	-139.565	0.211	0.023
-555.442	-180.112	-0.208	0.004
-554.427	-129.163	-0.160	0.023
-553.412	-50.745	-0.207	0.099
-552.398	333.413	-0.080	-0.157
-551.383	499.492	-0.057	0.133
-550.369	-200.000	-0.019	0.198
-549.354	57.605	0.146	-0.144
-548.339	-200.000	-0.012	-0.062
-547.325	-75.421	0.283	0.102
-546.310	-68.654	0.109	0.043
-545.296	-100.366	0.249	-0.062
-544.281	-107.365	0.191	0.042
-543.266	-60.675	0.203	0.087
-542.252	-98.185	-0.253	0.066
-541.237	-200.000	0.040	-0.197
-540.223	-200.000	-0.028	0.210
-539.208	-200.000	-0.007	0.091
-538.193	404.530	-0.048	-0.102
-537.179	244.715	0.107	-0.182
-536.164	54.477	-0.068	-0.066
-535.150	-200.000	0.047	-0.437
-534.135	-11.554	0.264	0.175
-533.121	94.242	0.094	-0.108
-532.106	-0.982	0.100	0.072
-531.091	-24.227	0.178	-0.107
-530.077	-38.030	-0.085	-0.046
-529.062	204.679	-0.242	-0.380
-528.048	273.604	-0.164	-0.292
-527.033	800.000	0.060	-0.193
-526.018	34.252	0.229	-0.202
-525.004	372.044	-0.160	-0.329
-523.989	252.282	0.173	-0.298
-522.975	-142.003	0.128	-0.013
-521.960	20.806	-0.023	0.019
-520.945	-200.000	0.030	0.251
-519.931	131.923	0.123	-0.160
-518.916	-200.000	0.045	-0.256
-517.902	355.828	-0.096	0.193
-516.887	-200.000	0.001	-0.039
-515.872	-200.000	-0.053	-0.424
-514.858	258.865	-0.023	-0.041
-513.843	-26.115	0.239	-0.142
-512.829	-67.464	-0.111	-0.044
-511.814	216.462	0.118	0.190
-510.799	150.028	-0.148	0.202
-509.785	140.665	-0.174	0.232
-508.770	-17.243	0.172	-0.110
-507.756	129.750	-0.292	0.377
-506.741	21.058	-0.049	0.040
-505.726	-27.685	-0.294	-0.172
-504.712	9.297	0.146	0.112
-503.697	-127.851	-0.046	0.007
-502.683	-31.996	0.099	0.056
-501.668	101.751	-0.174	0.205
-500.653	67.675	0.098	-0.101
-499.639	216.709	0.131	-0.210
-498.624	-109.160	-0.038	0.008
-497.610	-9.999	-0.178	-0.120
-496.595	457.007	0.214	-0.479
-495.581	-57.010	0.190	-0.085
-494.566	40.911	-0.180	0.164
-493.551	4.801	0.174	0.129
-492.537	-200.000	0.047	-0.255
-491.522	-75.047	0.173	0.062
-490.508	599.059	-0.100	-0.251
-489.493	-96.787	-0.330	0.087
-488.478	-27.873	0.473	-0.276
-487.464	-200.000	-0.019	-0.371
-486.449	-200.000	0.016	-0.324
-485.435	343.078	0.069	-0.137
-484.420	40.869	0.141	-0.128
-483.405	481.631	0.039	0.088
-482.391	800.000	-0.015	0.058
-481.376	-98.573	-0.289	0.074
-480.362	1.163	0.069	0.050
-479.347	800.000	-0.088	0.252
-478.332	800.000	0.124	0.496
-477.318	-38.578	0.509	-0.271
-476.303	-47.464	-0.198	0.097
-475.289	258.268	-0.087	0.152
-474.274	319.194	-0.123	0.236
-473.259	383.822	-0.171	0.354
-472.245	561.361	0.131	-0.318
-471.230	-137.918	-0.361	0.041
-470.216	163.063	0.110	-0.156
-469.201	-200.000	-0.000	0.098
-468.186	26.856	0.050	-0.042
-467.172	-200.000	0.054	-0.320
-466.157	-175.057	-0.169	0.005
-465.143	-166.339	0.133	0.006
-464.128	-200.000	-0.035	-0.356
-463.113	-54.752	-0.224	0.102
-462.099	-46.289	-0.250	0.124
-461.084	-200.000	0.041	-0.196
-460.070	79.682	-0.152	0.164
-459.055	64.735	0.118	0.120
-458.040	-32.899	-0.242	0.136
-457.026	-200.000	0.005	-0.265
-456.011	-35.637	-0.219	-0.119
-454.997	-200.000	0.003	0.228
-453.982	-20.600	-0.235	-0.145
-452.968	201.276	0.062	0.096
-451.953	-180.348	0.078	-0.002
-450.938	131.485	0.097	-0.126
-449.924	800.000	-0.054	-0.185
-448.909	156.159	0.152	0.211
-447.895	-7.388	0.148	0.101
-446.880	-160.804	0.226	-0.012
-445.865	-200.000	-0.006	0.079
-444.851	301.890	-0.066	0.122
-443.836	-93.049	0.071	0.020
-442.822	-141.126	-0.239	0.025
-441.807	-200.000	-0.023	0.309
-440.792	-104.107	-0.115	-0.027
-439.778	233.912	-0.100	-0.167
-438.763	-199.595	0.113	0.001
-437.749	-200.000	-0.032	0.192
-436.734	450.958	-0.159	-0.353
-435.719	74.488	0.228	-0.241
-434.705	-108.021	-0.263	0.057
-433.690	-44.734	0.174	0.087
-432.676	-200.000	-0.044	-0.208
-431.661	-200.000	-0.071	0.374
-430.646	-200.000	0.071	0.537
-429.632	-62.045	-0.171	0.072
-428.617	19.747	-0.168	-0.136
-427.603	800.000	0.106	-0.307
-426.588	37.367	-0.067	0.060
-425.573	12.815	0.008	-0.007
-424.559	-118.722	0.106	0.019
-423.544	256.138	-0.101	-0.175
-422.530	137.999	0.079	0.104
-421.515	-127.910	-0.134	-0.019
-420.500	309.563	0.012	-0.023
-419.486	-13.059	-0.136	-0.089
-418.471	-126.194	0.346	0.052
-417.457	800.000	-0.032	-0.117
-416.442	-51.306	0.230	0.108
-415.428	27.110	-0.064	0.054
-414.413	19.675	0.086	0.070
-413.398	-26.756	0.196	-0.116
-412.384	470.692	0.130	-0.294
-411.369	64.482	0.503	0.510
-410.355	-73.475	-0.147	0.054
-409.340	-87.786	0.265	-0.080
-408.325	-200.000	0.024	-0.397
-407.311	-116.646	-0.188	-0.035
-406.296	-146.888	-0.180	-0.016
-405.282	-130.728	0.048	-0.007
-404.267	247.295	0.160	0.272
-403.252	800.000	-0.061	-0.230
-402.238	375.297	0.122	0.249
-401.223	-200.000	-0.001	0.030
-400.209	123.784	-0.176	-0.222
-399.194	-66.460	-0.181	0.072
-398.179	-200.000	0.030	0.191
-397.165	-45.197	0.188	-0.094
-396.150	800.000	0.047	-0.161
-395.136	162.716	-0.043	-0.061
-394.121	291.522	-0.253	-0.462
-393.106	372.015	0.139	-0.283
-392.092	756.618	-0.086	-0.235
-391.077	79.127	0.113	0.122
-390.063	622.636	0.041	0.104
-389.048	53.677	-0.269	0.259
-388.033	90.441	0.179	0.201
-387.019	18.969	0.401	0.323
-386.004	-28.563	0.075	0.044
-384.990	-155.989	0.079	0.005
-383.975	-35.959	0.332	0.181
-382.960	-200.000	-0.025	-0.257
-381.946	469.415	-0.051	0.116
-380.931	148.448	-0.243	0.330
-379.917	588.033	-0.116	-0.287
-378.902	-187.663	-0.268	0.004
-377.888	64.213	0.249	-0.251
-376.873	-200.000	-0.008	0.182
-375.858	-39.714	0.252	-0.132
-374.844	273.065	0.064	-0.113
-373.829	196.020	-0.086	0.132
-372.815	702.460	-0.171	0.453
-371.800	144.205	-0.132	0.177
-370.785	-200.000	0.024	-0.265
-369.771	-130.428	0.341	0.046
-368.756	404.509	-0.072	0.153
-367.742	122.045	-0.082	0.103
-366.727	51.453	0.149	-0.142
-365.712	510.452	-0.182	0.426
-364.698	800.000	-0.020	-0.074
-363.683	796.705	0.036	0.101
-362.669	469.665	0.105	0.236
-361.654	281.499	-0.109	-0.195
-360.639	800.000	0.068	-0.198
-359.625	-52.410	0.060	0.028
-358.610	13.416	-0.303	-0.235
-357.596	-200.000	-0.059	0.490
-356.581	-47.910	-0.080	-0.039
-355.566	11.887	-0.043	0.033
-354.552	-10.601	-0.312	0.207
-353.537	-82.808	0.150	-0.049
-352.523	541.235	-0.130	-0.310
-351.508	29.037	0.394	-0.335
-350.493	-200.000	0.005	0.178
-349.479	800.000	0.039	-0.128
-348.464	158.362	0.145	0.202
-347.450	-111.199	-0.071	0.015
-346.435	800.000	0.103	0.364
-345.420	-111.589	-0.259	0.053
-344.406	-69.990	-0.049	-0.019
-343.391	-166.316	0.028	-0.001
-342.377	127.566	-0.109	0.139
-341.362	403.510	0.096	0.202
-340.348	800.000	-0.064	-0.273
-339.333	1.737	-0.081	-0.059
-338.318	184.858	-0.064	-0.094
-337.304	-101.490	-0.345	-0.084
-336.289	5.601	-0.037	-0.027
-335.275	34.549	-0.154	-0.135
-334.260	388.758	0.029	-0.060
-333.245	91.732	0.014	-0.016
-332.231	499.698	-0.121	-0.280
-331.216	-184.147	-0.240	0.004
-330.202	582.497	-0.057	0.139
-329.187	4.612	-0.083	0.061
-328.172	-131.379	0.220	0.029
-327.158	800.000	-0.088	0.300
-326.143	382.286	-0.085	-0.175
-325.129	116.083	-0.108	0.132
-324.114	191.770	0.161	0.243
-323.099	611.192	0.051	0.127
-322.085	204.742	-0.073	0.114
-321.070	-200.000	0.013	0.249
-320.056	-165.631	0.280	-0.012
-319.041	62.243	-0.113	-0.113
-318.026	-200.000	0.013	-0.060
-317.012	-66.925	0.112	0.044
-315.997	266.929	0.069	0.120
-314.983	-44.480	-0.235	0.118
-313.968	-196.846	0.248	0.002
-312.953	-121.394	0.351	-0.059
-311.939	-5.065	-0.198	0.136
-310.924	-96.533	0.079	-0.021
-309.910	-3.606	0.336	-0.234
-308.895	-90.611	0.164	-0.048
-307.880	288.254	0.110	0.199
-306.866	-71.513	-0.244	0.091
-305.851	800.000	0.024	-0.099
-304.837	11.114	0.257	-0.197
-303.822	110.489	0.273	-0.329
-302.807	-22.166	0.180	-0.109
-301.793	-13.006	0.278	0.181
-300.778	800.000	-0.048	0.143
-299.764	299.910	-0.042	-0.078
-298.749	500.404	-0.046	-0.106
-297.735	-0.788	0.087	0.061
-296.720	319.351	-0.090	0.170
-295.705	-200.000	-0.015	-0.114
-294.691	-200.000	0.028	-0.209
-293.676	220.819	-0.091	-0.146
-292.662	-200.000	-0.011	-0.132
-291.647	-54.958	-0.092	-0.041
-290.632	-108.316	-0.139	-0.030
-289.618	-99.730	-0.403	0.101
-288.603	32.967	-0.155	-0.134
-287.589	800.000	0.040	-0.124
-286.574	-88.286	0.436	-0.131
-285.559	256.518	-0.073	-0.125
-284.545	-86.551	0.310	-0.095
-283.530	800.000	-0.054	0.160
-282.516	-66.015	0.215	0.086
-281.501	594.188	-0.040	-0.098
-280.486	318.650	0.195	0.370
-279.472	-200.000	-0.049	0.408
-278.457	-200.000	0.055	-0.431
-277.443	101.577	0.215	-0.250
-276.428	-75.280	0.086	-0.031
-275.413	27.015	0.091	-0.076
-274.399	800.000	0.078	-0.287
-273.384	-59.493	0.230	0.099
-272.370	91.012	-0.248	-0.279
-271.355	11.140	-0.275	0.210
-270.340	621.364	-0.060	0.151
-269.326	-169.267	-0.402	-0.015
-268.311	-126.882	-0.201	0.030
-267.297	192.875	-0.012	0.019
-266.282	-167.764	0.064	-0.003
-265.267	-75.462	0.324	0.115
-264.253	312.012	-0.236	-0.443
-263.238	17.490	-0.153	0.121
-262.224	800.000	0.028	0.099
-261.209	82.539	-0.027	0.029
-260.195	235.176	-0.198	0.327
-259.180	-75.228	0.118	-0.042
-258.165	-52.083	0.208	-0.097
-257.151	-200.000	0.014	0.070
-256.136	523.273	-0.124	0.292
-255.122	218.567	-0.100	0.159
-254.107	14.679	0.141	-0.110
-253.092	-77.058	0.289	0.101
-252.078	-200.000	0.007	-0.403
-251.063	37.764	-0.139	-0.123
-250.049	-128.622	0.266	0.038
-249.034	-200.000	-0.006	-0.271
-248.019	-139.331	-0.355	0.038
-247.005	-87.043	-0.227	-0.069
-245.990	15.267	0.188	0.148
-244.976	488.813	-0.022	-0.051
-243.961	-121.601	-0.166	-0.027
-242.946	738.639	0.127	0.339
-241.932	-157.153	-0.386	-0.023
-240.917	-26.944	0.021	-0.012
-239.903	800.000	0.017	-0.054
-238.888	141.163	-0.129	0.171
-237.873	-200.000	-0.080	0.415
-236.859	135.326	0.100	0.131
-235.844	-148.387	-0.257	0.021
-234.830	-164.544	-0.121	0.005
-233.815	-27.885	0.136	-0.079
-232.800	-5.579	-0.302	0.207
-231.786	800.000	0.068	0.240
-230.771	-142.510	0.126	0.012
-229.757	-134.170	0.300	0.037
-228.742	-91.816	-0.130	-0.037
-227.727	800.000	-0.027	-0.111
-226.713	406.045	-0.029	0.062
-225.698	-200.000	-0.006	-0.072
-224.684	-2.258	-0.264	0.185
-223.669	-10.113	-0.292	-0.194
-222.655	-95.782	-0.064	-0.017
-221.640	-73.171	-0.373	0.136
-220.625	220.467	0.228	0.364
-219.611	-200.000	-0.003	0.242
-218.596	265.990	0.155	-0.270
-217.582	-28.283	0.282	0.162
-216.567	40.961	0.162	-0.146
-215.552	-147.416	0.214	-0.018
-214.538	76.400	-0.069	-0.073
-213.523	-118.001	-0.139	0.025
-212.509	399.383	-0.095	-0.199
-211.494	-200.000	-0.042	-0.254
-210.479	-131.230	-0.368	0.049
-209.465	-67.224	0.255	-0.100
-208.450	220.939	-0.193	0.309
-207.436	-200.000	0.058	0.285
-206.421	-129.871	-0.251	-0.034
-205.406	-135.108	0.196	-0.024
-204.392	-15.087	-0.085	-0.054
-203.377	-200.000	0.012	-0.378
-202.363	116.673	0.171	0.209
-201.348	69.607	0.130	0.134
-200.333	800.000	0.017	0.063
-199.319	-200.000	-0.004	0.260
-198.304	-20.924	-0.383	-0.234
-197.290	-156.433	0.100	-0.006
-196.275	489.625	-0.114	0.260
-195.260	70.409	0.247	0.255
-194.246	-42.712	0.334	-0.170
-193.231	106.972	0.117	0.138
-192.217	159.509	-0.097	0.135
-191.202	-200.000	0.026	0.118
-190.187	31.875	0.329	0.282
-189.173	167.018	-0.146	0.206
-188.158	-81.933	0.457	0.149
-187.144	-200.000	0.039	-0.205
-186.129	-184.766	0.158	0.003
-185.114	-151.950	-0.077	0.006
-184.100	-109.662	0.406	-0.085
-183.085	-200.000	0.037	0.195
-182.071	-50.982	-0.364	-0.170
-181.056	-200.000	0.347	0.001
-180.042	-200.000	-0.096	0.516
-179.027	77.121	0.199	0.211
-178.012	-200.000	0.026	-0.163
-176.998	800.000	0.053	-0.146
-175.983	186.231	-0.106	0.157
-174.969	89.513	-0.119	-0.132
-173.954	-102.800	-0.257	-0.061
-172.939	-149.691	-0.165	-0.013
-171.925	-166.399	0.103	0.004
-170.910	-164.118	0.293	0.013
-169.896	136.735	0.067	-0.087
-168.881	335.838	-0.143	-0.276
-167.866	-16.185	0.069	0.044
-166.852	-200.000	-0.052	0.331
-165.837	-116.828	-0.141	-0.026
-164.823	-200.000	-0.001	-0.035
-163.808	308.665	-0.137	0.255
-162.793	-127.070	0.537	-0.078
-161.779	-200.000	-0.015	0.327
-160.764	-166.447	-0.057	-0.002
-159.750	93.943	0.226	0.255
-158.735	-17.727	0.176	-0.110
-157.720	-200.000	0.016	0.189
-156.706	58.351	-0.266	0.259
-155.691	99.480	0.128	0.148
-154.677	-28.827	-0.164	0.094
-153.662	99.371	0.291	-0.335
-152.647	-200.000	0.028	-0.219
-151.633	182.794	-0.174	0.256
-150.618	-25.833	-0.122	0.072
-149.604	800.000	0.034	-0.127
-148.589	94.060	-0.187	-0.211
-147.574	225.351	-0.068	-0.110
-146.560	800.000	-0.029	0.105
-145.545	-63.047	0.126	0.052
-144.531	-42.846	0.147	0.074
-143.516	223.317	0.173	-0.278
-142.502	-63.584	-0.317	0.129
-141.487	-183.811	-0.158	0.003
-140.472	-200.000	-0.000	0.010
-139.458	-114.176	0.235	-0.045
-138.443	-40.477	0.148	-0.077
-137.429	800.000	-0.071	0.238
-136.414	-146.462	-0.291	-0.025
-135.399	-131.760	-0.130	0.017
-134.385	-53.093	0.351	0.160
-133.370	230.616	0.087	0.142
-132.356	239.885	-0.033	-0.055
-131.341	-136.627	-0.192	0.022
-130.326	177.909	-0.042	-0.062
-129.312	156.315	-0.073	-0.100
-128.297	-95.153	-0.229	0.061
-127.283	800.000	-0.044	0.189
-126.268	54.738	0.222	-0.213
-125.253	-118.442	0.127	-0.022
-124.239	26.195	0.114	-0.095
-123.224	-28.289	0.220	-0.126
-122.210	370.607	-0.169	0.340
