DTS Sentinel unit serial number:	SN413079Multiplexer serial number:	ORYXHardware model number:	OX4-SRSoftware version number:	ORYX F/W v4.00 Oryx Data Collector v3.7.2.0data status	okinstallation	princeton_trtdifferential loss correction	single-endedforward channel	channel 3reverse channel	N/Adate	2019/09/16time	04:40:35forward acquisition time	60.00reverse acquisition time	0.00gamma	496.2192k internal	0.2336k external	0.2336temperature offset calibration	0.9956default loss term (dB/km)	0.3790temperature slope calibration	1.0000multiplexer offset coefficient	1.0000multiplexer slope coefficient	1.0000fibre end	0.00T internal ref (°C)	27.19T ext. ref 1 (°C)	10.90T ext. ref 2 (°C)	21.47length (m)	temperature (°C)	Stokes	anti-Stokes-747.200	-37.937	-0.117	-0.063
-746.185	800.000	0.047	0.183
-745.171	-22.688	0.249	-0.151
-744.156	182.655	-0.127	0.189
-743.142	-67.988	0.120	-0.047
-742.127	-150.720	-0.310	0.024
-741.112	-156.401	0.373	-0.023
-740.098	-16.167	-0.500	0.319
-739.083	62.072	0.135	0.135
-738.069	-26.555	-0.283	0.166
-737.054	9.197	-0.052	-0.039
-736.039	800.000	-0.051	-0.155
-735.025	-200.000	0.006	0.127
-734.010	27.539	-0.300	-0.253
-732.996	-200.000	-0.014	-0.133
-731.981	233.463	0.083	-0.137
-730.966	-100.390	0.226	-0.056
-729.952	800.000	-0.075	-0.230
-728.937	-32.847	-0.247	-0.138
-727.923	30.304	-0.040	0.034
-726.908	125.073	-0.185	-0.235
-725.894	137.539	-0.155	-0.204
-724.879	-138.826	-0.104	0.011
-723.864	98.493	-0.185	-0.214
-722.850	246.025	-0.096	-0.163
-721.835	-59.818	-0.175	-0.075
-720.821	186.388	0.112	0.167
-719.806	652.682	-0.047	-0.121
-718.791	715.452	-0.128	-0.340
-717.777	-49.922	-0.033	-0.016
-716.762	-152.036	-0.237	0.017
-715.748	-8.384	0.185	-0.125
-714.733	-200.000	-0.017	-0.096
-713.718	26.852	0.324	-0.272
-712.704	800.000	-0.034	-0.120
-711.689	-200.000	0.011	0.053
-710.675	23.521	-0.234	0.193
-709.660	-200.000	-0.039	0.293
-708.645	181.136	0.083	0.123
-707.631	387.038	-0.134	-0.278
-706.616	238.793	0.171	-0.285
-705.602	-200.000	0.024	0.180
-704.587	-98.534	0.384	-0.098
-703.572	39.442	-0.311	0.279
-702.558	-78.072	0.201	0.069
-701.543	214.986	0.137	0.217
-700.529	73.322	-0.033	0.035
-699.514	-85.981	0.138	-0.043
-698.499	-119.073	-0.174	0.031
-697.485	52.171	-0.104	0.099
-696.470	800.000	-0.085	-0.292
-695.456	283.262	-0.154	-0.277
-694.441	47.549	0.045	-0.042
-693.426	-80.180	-0.168	-0.056
-692.412	-112.983	-0.298	0.059
-691.397	-135.126	-0.163	-0.020
-690.383	-200.000	-0.054	-0.259
-689.368	-200.000	0.025	-0.180
-688.354	466.858	-0.070	-0.157
-687.339	800.000	-0.046	0.165
-686.324	413.308	-0.024	0.051
-685.310	130.286	-0.185	-0.237
-684.295	-135.119	-0.199	0.024
-683.281	729.370	0.121	0.323
-682.266	-81.245	0.111	-0.037
-681.251	325.992	-0.185	0.354
-680.237	23.850	-0.158	-0.130
-679.222	65.375	-0.054	0.055
-678.208	109.520	0.066	0.079
-677.193	163.757	-0.191	-0.270
-676.178	-7.776	0.377	0.255
-675.164	43.608	-0.061	-0.055
-674.149	235.035	0.095	0.156
-673.135	-200.000	0.015	0.223
-672.120	-93.703	-0.087	-0.024
-671.105	-39.100	0.144	-0.076
-670.091	135.431	-0.096	-0.125
-669.076	6.264	-0.131	-0.097
-668.062	211.459	-0.117	-0.184
-667.047	800.000	0.060	-0.231
-666.032	-183.821	-0.267	-0.005
-665.018	-158.130	0.034	-0.002
-664.003	7.880	0.278	-0.208
-662.989	210.124	-0.190	-0.299
-661.974	800.000	0.035	-0.126
-660.959	-159.514	-0.151	0.008
-659.945	-138.016	0.045	0.005
-658.930	264.929	-0.051	0.089
-657.916	120.505	0.248	-0.309
-656.901	-134.673	-0.245	-0.030
-655.886	-104.559	-0.387	0.089
-654.872	-59.199	0.105	-0.045
-653.857	-33.959	-0.309	0.170
-652.843	5.499	0.076	0.056
-651.828	3.538	0.319	0.233
-650.814	800.000	-0.081	0.349
-649.799	42.676	-0.109	-0.099
-648.784	421.038	-0.072	0.154
-647.770	19.334	-0.067	0.054
-646.755	-33.146	0.104	-0.058
-645.741	-105.999	0.406	-0.091
-644.726	345.401	-0.195	0.383
-643.711	142.128	0.077	-0.102
-642.697	-200.000	-0.046	-0.293
-641.682	412.420	0.125	0.266
-640.668	-200.000	-0.034	-0.407
-639.653	-200.000	-0.415	-0.001
-638.638	68.058	-0.119	0.122
-637.624	-200.000	0.056	0.369
-636.609	-161.223	-0.121	0.006
-635.595	65.569	-0.034	-0.035
-634.580	-200.000	0.039	-0.237
-633.565	59.496	0.134	-0.132
-632.551	-200.000	-0.004	0.164
-631.536	375.368	-0.032	-0.066
-630.522	-200.000	0.008	0.072
-629.507	800.000	-0.028	-0.104
-628.492	172.423	0.236	-0.340
-627.478	-200.000	0.041	-0.296
-626.463	-118.142	-0.086	0.015
-625.449	-122.715	0.311	-0.050
-624.434	-200.000	0.019	-0.108
-623.419	31.636	0.322	-0.276
-622.405	800.000	-0.118	0.426
-621.390	562.499	0.089	-0.215
-620.376	-127.844	0.188	-0.027
-619.361	88.217	-0.133	0.148
-618.346	172.693	-0.082	0.118
-617.332	-78.883	0.302	-0.103
-616.317	800.000	0.054	-0.220
-615.303	171.637	-0.125	-0.179
-614.288	-41.211	-0.272	0.140
-613.273	-151.620	0.124	0.009
-612.259	-139.100	0.087	-0.009
-611.244	163.907	-0.120	0.168
-610.230	120.817	-0.187	-0.233
-609.215	-200.000	-0.008	0.127
-608.201	-0.863	0.324	0.229
-607.186	276.798	-0.077	0.137
-606.171	-55.952	-0.253	-0.113
-605.157	84.913	-0.128	0.141
-604.142	54.115	0.245	0.235
-603.128	-200.000	0.001	0.055
-602.113	36.078	-0.166	0.146
-601.098	-21.497	-0.172	0.105
-600.084	22.093	-0.254	-0.207
-599.069	-147.281	-0.415	-0.035
-598.055	116.610	-0.093	0.114
-597.040	-142.969	-0.343	-0.033
-596.025	-15.253	0.092	0.059
-595.011	-80.230	0.265	0.088
-593.996	-31.749	0.131	-0.073
-592.982	800.000	-0.139	-0.400
-591.967	22.751	-0.163	0.133
-590.952	-59.146	0.132	0.057
-589.938	-200.000	0.010	0.178
-588.923	800.000	0.051	0.208
-587.909	64.313	0.321	-0.323
-586.894	238.488	0.095	-0.157
-585.879	651.395	0.169	-0.431
-584.865	42.320	0.192	-0.174
-583.850	-102.530	0.204	-0.049
-582.836	222.303	-0.237	-0.380
-581.821	-39.240	-0.032	0.017
-580.806	274.492	0.064	0.114
-579.792	-32.045	0.079	0.044
-578.777	-200.000	0.060	-0.393
-577.763	-120.870	-0.224	0.038
-576.748	-200.000	-0.013	-0.100
-575.733	-14.170	-0.301	0.194
-574.719	-93.686	0.271	0.075
-573.704	-56.336	0.143	0.063
-572.690	-74.780	-0.067	-0.024
-571.675	-200.000	-0.006	0.318
-570.661	800.000	-0.019	-0.054
-569.646	-42.835	-0.158	0.080
-568.631	2.482	-0.157	0.113
-567.617	105.159	-0.234	-0.276
-566.602	800.000	-0.068	-0.202
-565.588	-200.000	-0.011	0.062
-564.573	477.159	-0.080	0.181
-563.558	-200.000	0.004	0.359
-562.544	-76.876	0.271	-0.095
-561.529	-200.000	0.025	-0.211
-560.515	-59.832	-0.184	0.078
-559.500	424.054	0.066	-0.141
-558.485	151.394	-0.097	0.131
-557.471	800.000	0.078	0.228
-556.456	235.109	0.106	-0.174
-555.442	-86.647	-0.046	-0.014
-554.427	800.000	-0.089	0.282
-553.412	-200.000	-0.004	-0.175
-552.398	-20.480	0.263	0.161
-551.383	-1.625	-0.195	-0.137
-550.369	155.820	-0.079	-0.109
-549.354	551.485	-0.100	-0.238
-548.339	800.000	0.104	-0.296
-547.325	-40.404	-0.047	-0.024
-546.310	146.929	-0.141	-0.189
-545.296	800.000	-0.035	-0.108
-544.281	-140.836	0.284	-0.029
-543.266	800.000	-0.052	-0.171
-542.252	-93.069	0.250	-0.069
-541.237	106.405	-0.137	-0.162
-540.223	348.499	-0.037	0.073
-539.208	-200.000	-0.020	-0.191
-538.193	-149.299	-0.192	-0.015
-537.179	-80.398	0.134	-0.044
-536.164	-3.115	0.094	0.066
-535.150	-66.784	-0.248	-0.098
-534.135	21.750	0.204	-0.165
-533.121	70.304	0.328	-0.337
-532.106	354.482	0.067	0.132
-531.091	800.000	0.023	-0.101
-530.077	-200.000	-0.006	-0.293
-529.062	397.090	0.108	0.224
-528.048	29.870	-0.239	0.203
-527.033	-41.746	0.139	0.071
-526.018	695.099	0.074	0.193
-525.004	96.500	0.129	-0.147
-523.989	322.484	0.039	-0.074
-522.975	238.625	-0.127	0.210
-521.960	-2.480	-0.269	-0.188
-520.945	353.474	-0.208	0.411
-519.931	-87.003	-0.187	-0.057
-518.916	261.519	0.052	0.090
-517.902	-89.685	0.361	-0.105
-516.887	112.913	-0.127	-0.154
-515.872	800.000	-0.006	0.019
-514.858	266.660	-0.216	-0.376
-513.843	231.163	-0.104	-0.169
-512.829	162.501	-0.109	0.152
-511.814	-200.000	-0.004	0.179
-510.799	-119.434	-0.174	-0.030
-509.785	185.277	0.075	-0.111
-508.770	-200.000	0.015	0.093
-507.756	344.813	-0.081	0.159
-506.741	-163.813	-0.167	-0.008
-505.726	-36.788	0.195	0.104
-504.712	245.967	-0.186	-0.312
-503.697	-101.067	0.152	0.037
-502.683	17.138	0.114	0.090
-501.668	-128.083	0.168	-0.024
-500.653	-141.637	-0.276	-0.028
-499.639	34.207	0.286	-0.248
-498.624	-179.311	-0.246	0.005
-497.610	-91.339	0.318	0.090
-496.595	800.000	-0.005	-0.017
-495.581	-8.912	0.040	-0.027
-494.566	307.863	-0.044	0.081
-493.551	244.600	0.153	0.255
-492.537	617.073	0.061	-0.153
-491.522	-150.131	0.051	0.004
-490.508	-182.731	0.210	0.004
-489.493	60.781	0.302	0.298
-488.478	800.000	-0.048	-0.143
-487.464	800.000	-0.073	-0.284
-486.449	219.522	0.123	0.196
-485.435	-35.836	-0.199	-0.107
-484.420	84.707	-0.253	0.275
-483.405	144.885	-0.114	-0.151
-482.391	303.855	-0.154	-0.284
-481.376	800.000	-0.053	0.172
-480.362	5.603	0.197	-0.145
-479.347	287.389	0.067	0.121
-478.332	-33.395	-0.237	0.130
-477.318	595.205	-0.129	-0.317
-476.303	-100.720	0.174	-0.043
-475.289	374.955	0.088	0.178
-474.274	-111.957	0.303	0.061
-473.259	77.164	-0.053	0.056
-472.245	-200.000	0.019	0.150
-471.230	-150.197	0.240	-0.018
-470.216	715.148	-0.082	0.216
-469.201	-88.486	0.147	0.044
-468.186	-129.364	-0.101	0.014
-467.172	260.423	-0.269	0.463
-466.157	-200.000	-0.004	0.157
-465.143	800.000	0.093	0.316
-464.128	-145.033	0.173	-0.016
-463.113	800.000	-0.090	0.310
-462.099	-126.698	-0.148	-0.022
-461.084	-200.000	0.024	-0.197
-460.070	-200.000	0.175	0.001
-459.055	33.352	-0.108	0.093
-458.040	7.043	-0.191	-0.141
-457.026	-163.393	0.146	0.007
-456.011	204.165	-0.149	0.229
-454.997	800.000	-0.088	0.340
-453.982	125.791	-0.222	0.278
-452.968	-200.000	0.010	-0.258
-451.953	-14.021	-0.190	0.122
-450.938	-125.015	0.128	0.020
-449.924	157.155	0.079	0.108
-448.909	194.070	0.073	-0.110
-447.895	515.120	-0.180	0.417
-446.880	379.355	-0.042	0.085
-445.865	628.802	-0.031	-0.078
-444.851	221.299	-0.043	-0.068
-443.836	258.153	-0.130	0.222
-442.822	-162.321	0.170	-0.008
-441.807	9.759	-0.208	-0.157
-440.792	-200.000	-0.007	0.160
-439.778	109.561	-0.144	0.172
-438.763	-200.000	0.016	0.165
-437.749	-112.880	-0.342	0.067
-436.734	-200.000	0.028	0.261
-435.719	37.229	0.120	0.105
-434.705	-152.059	0.200	0.014
-433.690	-200.000	0.006	-0.212
-432.676	-116.393	-0.292	-0.054
-431.661	2.287	0.323	-0.232
-430.646	-14.556	-0.096	0.061
-429.632	-200.000	0.060	-0.278
-428.617	-112.068	-0.174	-0.035
-427.603	-5.870	-0.198	-0.135
-426.588	-200.000	0.005	-0.245
-425.573	-200.000	-0.011	0.168
-424.559	-77.857	-0.054	-0.018
-423.544	-200.000	0.044	0.223
-422.530	-18.788	0.155	-0.096
-421.515	127.587	0.230	0.290
-420.500	-23.209	0.159	0.095
-419.486	625.062	0.171	0.428
-418.471	-28.717	-0.119	0.068
-417.457	-94.967	0.176	-0.047
-416.442	-5.734	0.176	-0.119
-415.428	457.533	0.107	0.235
-414.413	46.008	-0.314	-0.288
-413.398	7.680	-0.131	0.097
-412.384	-135.094	0.090	0.011
-411.369	-178.997	-0.230	0.005
-410.355	145.618	0.148	-0.197
-409.340	-23.570	-0.054	-0.032
-408.325	-163.664	-0.173	0.008
-407.311	44.030	0.125	0.113
-406.296	84.479	0.102	-0.111
-405.282	-68.315	-0.230	-0.089
-404.267	44.058	-0.216	-0.196
-403.252	800.000	-0.062	-0.194
-402.238	100.850	-0.189	-0.218
-401.223	-200.000	-0.014	-0.069
-400.209	668.076	0.116	0.298
-399.194	-4.241	0.330	-0.226
-398.179	-14.414	-0.341	-0.217
-397.165	45.203	-0.220	-0.201
-396.150	800.000	0.095	-0.381
-395.136	-74.738	-0.321	-0.114
-394.121	332.506	-0.141	0.270
-393.106	-82.546	0.279	-0.090
-392.092	-85.847	-0.378	-0.116
-391.077	-38.654	0.254	0.133
-390.063	-90.858	-0.181	0.052
-389.048	78.794	0.143	0.151
-388.033	-172.041	-0.049	-0.002
-387.019	800.000	-0.021	-0.066
-386.004	2.085	-0.204	-0.146
-384.990	19.781	-0.172	0.137
-383.975	-119.085	-0.183	0.032
-382.960	-88.790	-0.116	0.034
-381.946	235.846	-0.104	0.171
-380.931	-112.820	-0.483	-0.095
-379.917	-70.180	0.268	0.101
-378.902	-69.589	-0.158	-0.060
-377.888	685.487	-0.017	0.043
-376.873	-121.877	0.343	-0.056
-375.858	177.489	-0.145	0.209
-374.844	-107.871	-0.520	-0.112
-373.829	-180.286	-0.448	-0.009
-372.815	-200.000	-0.019	0.123
-371.800	-200.000	-0.032	0.322
-370.785	-116.511	-0.070	0.013
-369.771	493.227	0.157	-0.357
-368.756	143.961	-0.098	-0.129
-367.742	281.621	0.267	0.474
-366.727	98.114	-0.066	0.075
-365.712	-55.863	-0.019	0.008
-364.698	-43.258	-0.244	0.122
-363.683	-164.705	-0.138	-0.006
-362.669	-137.006	-0.094	0.011
-361.654	-200.000	0.039	0.208
-360.639	92.700	0.177	0.198
-359.625	114.859	0.192	-0.232
-358.610	-200.000	-0.032	0.328
-357.596	40.269	-0.165	0.146
-356.581	196.360	0.093	-0.140
-355.566	242.749	0.098	0.163
-354.552	127.080	0.046	0.058
-353.537	176.196	0.125	0.179
-352.523	-56.139	-0.177	-0.078
-351.508	-19.447	0.130	-0.080
-350.493	-200.000	-0.002	0.136
-349.479	9.877	-0.091	-0.068
-348.464	-74.392	-0.362	0.129
-347.450	204.784	0.122	0.187
-346.435	341.667	0.246	-0.475
-345.420	-80.277	0.329	-0.109
-344.406	18.920	0.248	-0.196
-343.391	-163.767	-0.226	-0.010
-342.377	17.739	0.125	-0.098
-341.362	93.945	-0.130	0.146
-340.348	-71.104	-0.221	-0.082
-339.333	-200.000	0.013	0.271
-338.318	186.571	0.026	0.039
-337.304	312.296	-0.018	0.034
-336.289	116.209	-0.173	0.210
-335.275	800.000	-0.064	0.189
-334.260	26.422	0.202	0.167
-333.245	-155.085	0.081	-0.005
-332.231	-33.984	0.528	-0.287
-331.216	312.321	-0.151	-0.281
-330.202	320.188	0.078	-0.147
-329.187	-108.146	-0.337	-0.072
-328.172	-0.858	0.265	-0.186
-327.158	-72.677	0.151	-0.055
-326.143	97.287	0.129	-0.146
-325.129	-110.254	-0.143	0.029
-324.114	-200.000	0.028	-0.172
-323.099	-145.715	-0.348	-0.031
-322.085	-128.382	0.311	0.044
-321.070	800.000	-0.093	-0.261
-320.056	-3.253	0.052	0.036
-319.041	135.093	0.010	0.013
-318.026	32.472	0.027	-0.023
-317.012	-109.951	0.199	-0.041
-315.997	-185.065	0.263	-0.004
-314.983	-200.000	0.025	0.179
-313.968	800.000	-0.017	0.062
-312.953	-200.000	0.009	-0.127
-311.939	-130.291	-0.379	-0.051
-310.924	-200.000	0.019	0.144
-309.910	-147.018	-0.113	-0.010
-308.895	79.327	-0.289	0.306
-307.880	800.000	-0.007	0.029
-306.866	43.857	0.138	0.124
-305.851	112.246	-0.255	0.305
-304.837	83.295	0.030	-0.032
-303.822	-200.000	0.014	-0.079
-302.807	-106.699	0.167	0.037
-301.793	-200.000	0.017	-0.115
-300.778	-110.859	0.156	-0.032
-299.764	-200.000	-0.013	0.181
-298.749	197.893	0.193	-0.291
-297.735	800.000	-0.044	0.144
-296.720	30.181	-0.229	0.193
-295.705	-151.665	0.191	-0.014
-294.691	-94.341	0.134	0.036
-293.676	-72.301	0.232	-0.085
-292.662	88.371	-0.315	-0.345
-291.647	-74.794	0.027	0.009
-290.632	800.000	0.007	0.024
-289.618	-11.263	0.367	0.238
-288.603	5.092	-0.105	-0.077
-287.589	207.369	0.188	-0.290
-286.574	800.000	-0.109	-0.352
-285.559	-143.140	-0.263	0.025
-284.545	115.693	0.161	0.195
-283.530	190.501	0.145	-0.215
-282.516	62.144	-0.303	-0.298
-281.501	-21.598	0.102	0.061
-280.486	233.244	-0.090	0.146
-279.472	-146.065	-0.321	-0.028
-278.457	-87.078	0.231	-0.069
-277.443	52.999	-0.174	-0.164
-276.428	-122.804	0.309	-0.049
-275.413	-137.326	0.491	-0.055
-274.399	800.000	-0.087	-0.312
-273.384	-200.000	-0.017	0.176
-272.370	345.982	-0.117	0.227
-271.355	-111.309	0.121	0.024
-270.340	-200.000	-0.012	-0.203
-269.326	-1.297	0.134	0.093
-268.311	-200.000	0.070	-0.327
-267.297	-142.730	0.205	0.020
-266.282	-200.000	0.007	0.090
-265.267	-14.778	-0.322	0.204
-264.253	-200.000	0.022	-0.149
-263.238	-76.988	0.152	-0.052
-262.224	-44.964	-0.149	-0.073
-261.209	-200.000	0.025	-0.188
-260.195	-109.530	0.207	-0.043
-259.180	134.092	-0.296	0.377
-258.165	800.000	0.049	-0.184
-257.151	-200.000	-0.022	0.144
-256.136	-200.000	0.004	-0.086
-255.122	800.000	-0.040	-0.142
-254.107	152.444	0.108	0.145
-253.092	171.792	-0.211	0.298
-252.078	-200.000	-0.020	0.214
-251.063	-140.394	0.135	0.014
-250.049	-65.382	0.310	0.123
-249.034	-173.916	0.186	-0.005
-248.019	62.847	0.071	-0.070
-247.005	1.705	-0.116	-0.082
-245.990	-200.000	0.074	0.435
-244.976	-111.893	-0.343	0.068
-243.961	536.346	0.091	0.212
-242.946	-200.000	-0.025	0.113
-241.932	-200.000	0.001	0.014
-240.917	-200.000	-0.003	-0.222
-239.903	-29.071	0.264	-0.149
-238.888	-59.966	-0.083	-0.035
-237.873	-200.000	0.023	0.335
-236.859	143.998	-0.322	0.423
-235.844	800.000	0.079	0.226
-234.830	-54.818	0.194	0.086
-233.815	580.916	-0.050	0.121
-232.800	-31.742	0.302	-0.167
-231.786	224.735	0.135	0.216
-230.771	-64.200	0.097	0.039
-229.757	131.507	0.112	0.142
-228.742	-96.756	0.288	-0.075
-227.727	-12.836	0.081	-0.052
-226.713	-83.758	0.249	0.078
-225.698	9.726	-0.308	-0.230
-224.684	-144.166	0.167	-0.015
-223.669	88.667	0.288	-0.315
-222.655	264.767	-0.053	0.090
-221.640	-19.570	0.237	-0.144
-220.625	800.000	0.066	0.269
-219.611	800.000	-0.013	-0.051
-218.596	233.644	0.016	-0.026
-217.582	33.505	-0.085	-0.073
-216.567	-34.800	-0.260	0.140
-215.552	-42.711	-0.078	-0.039
-214.538	-22.739	0.169	0.100
-213.523	-200.000	-0.024	0.132
-212.509	-11.776	-0.089	-0.057
-211.494	-22.335	-0.090	-0.054
-210.479	0.318	-0.218	-0.153
-209.465	746.117	-0.103	-0.273
-208.450	-115.085	0.242	-0.045
-207.436	-190.711	0.205	-0.002
-206.421	25.414	0.348	0.285
-205.406	23.203	0.146	0.118
-204.392	-19.843	0.212	0.129
-203.377	-110.958	-0.224	0.045
-202.363	131.888	-0.046	0.058
-201.348	248.386	-0.121	0.201
-200.333	250.182	0.105	0.174
-199.319	51.477	0.236	0.220
-198.304	-42.180	0.075	-0.038
-197.290	-200.000	-0.016	0.390
-196.275	159.574	0.268	-0.367
-195.260	-120.579	-0.218	0.036
-194.246	-90.483	0.175	-0.050
-193.231	-34.495	0.077	0.041
-192.217	-100.505	0.154	-0.037
-191.202	800.000	-0.052	-0.194
-190.187	39.712	0.186	0.164
-189.173	-200.000	0.042	0.303
-188.158	-162.550	0.283	-0.014
-187.144	273.361	-0.166	-0.288
-186.129	195.471	-0.252	-0.376
-185.114	232.412	0.162	-0.261
-184.100	149.199	0.053	-0.071
-183.085	1.548	-0.171	0.121
-182.071	-200.000	-0.027	-0.211
-181.056	-200.000	0.003	0.119
-180.042	-200.000	-0.019	-0.312
-179.027	25.620	-0.229	0.187
-178.012	-81.475	-0.222	-0.072
-176.998	-108.332	-0.294	0.062
-175.983	71.744	0.136	-0.139
-174.969	143.193	0.123	-0.161
-173.954	800.000	0.058	0.243
-172.939	-52.331	-0.121	0.055
-171.925	-14.983	0.257	0.162
-170.910	800.000	-0.064	-0.186
-169.896	-73.056	-0.390	-0.140
-168.881	89.668	-0.034	-0.037
-167.866	-200.000	0.022	-0.148
-166.852	-119.079	0.076	0.013
-165.837	-20.151	0.343	-0.207
-164.823	-200.000	0.033	-0.150
-163.808	254.684	0.146	-0.245
-162.793	115.864	-0.021	0.025
-161.779	-149.313	-0.170	0.013
-160.764	-62.940	-0.250	0.101
-159.750	-133.713	-0.117	-0.014
-158.735	441.584	-0.082	0.175
-157.720	800.000	0.095	0.344
-156.706	231.411	0.019	-0.031
-155.691	251.064	0.185	-0.308
-154.677	329.665	-0.029	0.054
-153.662	-111.691	0.213	0.042
-152.647	174.905	-0.160	-0.227
-151.633	-200.000	-0.006	-0.182
-150.618	-97.270	-0.034	-0.009
-149.604	800.000	-0.081	-0.263
-148.589	800.000	-0.066	-0.189
-147.574	-64.297	-0.056	-0.022
-146.560	-136.812	-0.407	0.046
-145.545	800.000	0.068	0.193
-144.531	-200.000	-0.029	0.187
-143.516	436.825	-0.181	0.386
-142.502	-200.000	-0.026	-0.131
-141.487	-138.277	0.110	0.012
-140.472	59.969	0.286	0.277
-139.458	-29.475	-0.406	-0.227
-138.443	-200.000	0.028	-0.156
-137.429	-24.551	-0.295	-0.172
-136.414	-12.243	-0.154	-0.099
-135.399	-200.000	-0.036	0.000
-134.385	-94.235	0.273	0.073
-133.370	-130.528	-0.219	-0.029
-132.356	-129.473	-0.362	0.049
-131.341	137.693	0.023	-0.030
-130.326	309.896	0.020	0.037
-129.312	-101.290	0.082	-0.020
-128.297	-200.000	-0.004	-0.231
-127.283	82.231	0.308	-0.328
-126.268	-5.576	0.260	0.175
-125.253	120.048	-0.065	-0.078
-124.239	94.931	0.089	0.099
-123.224	800.000	0.080	-0.248
-122.210	167.343	0.151	-0.211
