DTS Sentinel unit serial number:	SN413079Multiplexer serial number:	ORYXHardware model number:	OX4-SRSoftware version number:	ORYX F/W v4.00 Oryx Data Collector v3.7.2.0data status	okinstallation	princeton_trtdifferential loss correction	single-endedforward channel	channel 3reverse channel	N/Adate	2019/09/16time	09:00:35forward acquisition time	60.00reverse acquisition time	0.00gamma	496.2192k internal	0.2324k external	0.2324temperature offset calibration	0.9954default loss term (dB/km)	0.3790temperature slope calibration	1.0000multiplexer offset coefficient	1.0000multiplexer slope coefficient	1.0000fibre end	0.00T internal ref (°C)	30.47T ext. ref 1 (°C)	12.05T ext. ref 2 (°C)	28.17length (m)	temperature (°C)	Stokes	anti-Stokes-747.200	-200.000	-0.016	-0.117
-746.185	188.887	0.205	0.310
-745.171	316.688	0.067	0.128
-744.156	106.870	-0.202	0.242
-743.142	12.895	-0.303	-0.236
-742.127	800.000	-0.059	0.212
-741.112	47.784	0.239	0.225
-740.098	17.239	0.234	0.187
-739.083	-62.139	-0.224	0.095
-738.069	-7.512	0.415	0.283
-737.054	-50.457	-0.235	-0.112
-736.039	-125.966	0.208	0.032
-735.025	44.878	-0.046	-0.043
-734.010	-15.405	0.202	0.130
-732.996	135.398	-0.165	-0.217
-731.981	206.520	-0.235	0.369
-730.966	800.000	-0.072	0.211
-729.952	-121.659	0.213	0.036
-728.937	748.057	0.025	-0.069
-727.923	-66.242	0.117	0.047
-726.908	358.195	0.082	0.166
-725.894	191.138	-0.114	-0.173
-724.879	-90.078	-0.294	0.087
-723.864	360.973	0.127	-0.257
-722.850	-77.623	0.340	0.119
-721.835	-99.069	0.254	0.065
-720.821	-200.000	0.031	0.205
-719.806	17.372	-0.221	-0.177
-718.791	800.000	-0.025	-0.102
-717.777	-200.000	0.027	0.257
-716.762	66.909	0.080	-0.082
-715.748	-105.261	-0.294	-0.068
-714.733	249.915	-0.180	0.308
-713.718	-107.565	-0.275	-0.061
-712.704	246.802	-0.137	-0.232
-711.689	-89.439	-0.283	-0.084
-710.675	-66.035	0.139	-0.056
-709.660	-200.000	0.014	0.335
-708.645	-200.000	-0.016	-0.099
-707.631	83.599	-0.094	0.104
-706.616	21.539	0.229	0.188
-705.602	-82.089	0.145	0.048
-704.587	576.519	-0.117	-0.288
-703.572	-44.724	0.041	-0.021
-702.558	-59.045	-0.176	-0.076
-701.543	-5.105	0.262	0.182
-700.529	-87.770	-0.289	-0.088
-699.514	481.997	-0.230	-0.525
-698.499	134.130	-0.143	-0.187
-697.485	-75.687	-0.162	-0.058
-696.470	3.711	-0.203	-0.149
-695.456	800.000	-0.052	-0.213
-694.441	800.000	-0.048	-0.201
-693.426	678.049	-0.074	-0.193
-692.412	-20.943	-0.220	0.136
-691.397	-40.073	-0.161	0.085
-690.383	-123.038	0.265	0.043
-689.368	-84.800	-0.187	0.059
-688.354	-17.523	-0.055	-0.035
-687.339	10.535	0.059	-0.045
-686.324	308.063	-0.080	-0.151
-685.310	271.592	-0.127	-0.226
-684.295	-41.521	-0.156	-0.081
-683.281	800.000	0.017	-0.049
-682.266	85.128	0.050	0.055
-681.251	414.622	0.063	0.136
-680.237	25.610	-0.220	-0.184
-679.222	145.617	-0.052	-0.070
-678.208	-41.731	0.182	-0.094
-677.193	-200.000	0.004	-0.077
-676.178	-147.551	-0.119	0.010
-675.164	16.511	0.159	0.126
-674.149	106.575	-0.144	-0.172
-673.135	-75.647	0.525	0.188
-672.120	238.125	0.231	-0.385
-671.105	-200.000	0.010	0.067
-670.091	8.708	-0.406	-0.308
-669.076	229.788	0.117	-0.192
-668.062	119.099	0.157	-0.196
-667.047	68.461	0.118	-0.122
-666.032	800.000	-0.071	-0.202
-665.018	162.589	-0.039	-0.055
-664.003	27.579	0.220	0.186
-662.989	33.339	0.180	-0.157
-661.974	287.913	-0.164	-0.299
-660.959	-24.086	0.061	-0.036
-659.945	716.524	-0.022	-0.059
-658.930	104.198	0.163	0.192
-657.916	-65.143	0.063	-0.025
-656.901	44.005	0.220	-0.203
-655.886	-7.494	-0.304	0.207
-654.872	800.000	0.050	0.165
-653.857	-200.000	0.018	0.369
-652.843	-62.066	-0.039	-0.017
-651.828	-150.859	-0.123	0.009
-650.814	-68.220	-0.346	0.135
-649.799	800.000	-0.036	-0.148
-648.784	112.474	0.108	-0.132
-647.770	-200.000	-0.014	0.073
-646.755	-50.195	-0.333	0.158
-645.741	-200.000	0.026	-0.161
-644.726	195.252	-0.208	0.317
-643.711	-108.827	0.358	-0.077
-642.697	225.891	0.029	0.047
-641.682	26.235	-0.182	-0.153
-640.668	247.761	-0.051	0.087
-639.653	-200.000	0.035	0.227
-638.638	784.634	-0.069	-0.191
-637.624	-200.000	-0.021	0.108
-636.609	464.754	0.183	0.412
-635.595	69.683	-0.123	0.127
-634.580	800.000	-0.060	-0.258
-633.565	-200.000	-0.022	0.134
-632.551	800.000	-0.054	-0.175
-631.536	-128.383	-0.362	-0.052
-630.522	-153.233	-0.385	0.027
-629.507	-160.149	-0.197	0.011
-628.492	800.000	0.086	-0.240
-627.478	177.253	-0.121	-0.178
-626.463	-127.818	0.214	0.031
-625.449	800.000	-0.056	-0.188
-624.434	81.780	0.137	0.149
-623.419	-38.763	0.482	0.255
-622.405	478.927	0.057	-0.131
-621.390	-47.188	0.199	-0.098
-620.376	356.267	0.134	0.268
-619.361	-110.087	-0.135	-0.028
-618.346	316.863	-0.061	0.115
-617.332	-68.361	0.270	0.105
-616.317	-200.000	-0.013	0.169
-615.303	16.737	-0.195	0.155
-614.288	-61.684	0.185	-0.078
-613.273	-72.207	0.046	0.017
-612.259	-200.000	0.031	0.177
-611.244	-177.497	0.231	0.006
-610.230	-200.000	-0.014	-0.116
-609.215	-99.642	-0.027	0.007
-608.201	458.292	-0.009	0.020
-607.186	189.362	-0.122	0.183
-606.171	-200.000	-0.045	0.219
-605.157	-150.942	0.211	-0.016
-604.142	369.850	-0.118	0.240
-603.128	-106.033	0.281	0.063
-602.113	-192.183	0.162	0.002
-601.098	13.425	0.199	-0.155
-600.084	97.376	-0.206	-0.238
-599.069	565.883	-0.168	-0.409
-598.055	-14.778	-0.103	0.067
-597.040	378.769	-0.100	-0.205
-596.025	800.000	0.093	-0.308
-595.011	311.182	-0.137	0.258
-593.996	-132.096	-0.150	-0.020
-592.982	209.432	0.091	-0.143
-591.967	308.273	0.118	0.221
-590.952	-200.000	0.017	0.437
-589.938	800.000	-0.062	0.250
-588.923	800.000	-0.017	-0.064
-587.909	-51.991	-0.179	-0.083
-586.894	-200.000	-0.025	0.313
-585.879	-138.441	-0.438	0.048
-584.865	18.365	0.192	-0.154
-583.850	119.359	-0.214	-0.266
-582.836	185.760	0.151	0.224
-581.821	-200.000	-0.029	0.321
-580.806	38.863	-0.107	-0.096
-579.792	-200.000	-0.011	0.135
-578.777	12.501	-0.283	0.219
-577.763	327.791	0.073	0.141
-576.748	-200.000	0.086	0.463
-575.733	573.234	-0.072	0.176
-574.719	-118.361	-0.414	-0.074
-573.704	530.772	0.143	0.339
-572.690	234.015	0.091	-0.151
-571.675	98.657	-0.118	-0.137
-570.661	-200.000	0.010	0.208
-569.646	-128.529	-0.135	-0.019
-568.631	-200.000	-0.044	-0.307
-567.617	246.236	0.174	-0.295
-566.602	51.934	-0.423	-0.404
-565.588	275.142	0.126	-0.223
-564.573	-100.414	-0.174	-0.043
-563.558	-168.237	0.258	0.010
-562.544	-200.000	0.010	-0.135
-561.529	88.727	-0.109	-0.121
-560.515	800.000	0.067	-0.197
-559.500	-57.690	0.113	0.050
-558.485	800.000	0.083	0.327
-557.471	-200.000	-0.025	0.130
-556.456	41.669	0.174	0.158
-555.442	175.430	-0.093	-0.135
-554.427	0.762	-0.074	-0.053
-553.412	-200.000	0.025	0.282
-552.398	-200.000	-0.037	0.296
-551.383	348.988	0.125	0.247
-550.369	95.953	-0.111	-0.127
-549.354	-200.000	-0.002	0.013
-548.339	-68.920	-0.202	0.078
-547.325	-40.968	0.140	-0.073
-546.310	800.000	-0.052	-0.175
-545.296	105.528	-0.027	0.032
-544.281	21.163	-0.355	-0.289
-543.266	599.035	-0.028	0.069
-542.252	80.738	0.209	0.225
-541.237	-58.824	-0.279	0.121
-540.223	-84.650	-0.303	-0.096
-539.208	9.405	0.081	-0.062
-538.193	-82.453	-0.179	-0.058
-537.179	-92.736	-0.310	0.087
-536.164	-42.322	-0.238	-0.122
-535.150	7.792	0.147	-0.110
-534.135	-75.417	0.199	-0.071
-533.121	-73.674	-0.339	-0.124
-532.106	-43.731	-0.166	-0.084
-531.091	-72.745	0.155	0.057
-530.077	583.749	0.067	-0.164
-529.062	-7.705	-0.134	0.091
-528.048	-167.095	-0.097	-0.004
-527.033	-120.903	0.287	-0.048
-526.018	-200.000	-0.047	-0.344
-525.004	-184.464	0.232	0.004
-523.989	-131.355	0.135	-0.018
-522.975	800.000	0.123	-0.364
-521.960	-126.069	-0.292	-0.044
-520.945	132.407	-0.211	0.272
-519.931	800.000	-0.094	-0.310
-518.916	-76.866	-0.352	-0.123
-517.902	320.514	0.131	-0.248
-516.887	-78.925	0.022	-0.007
-515.872	-200.000	-0.016	-0.270
-514.858	211.871	-0.077	-0.121
-513.843	800.000	0.120	0.346
-512.829	-80.442	0.227	0.076
-511.814	-200.000	-0.011	0.254
-510.799	-6.562	0.121	-0.082
-509.785	800.000	0.068	-0.251
-508.770	-200.000	0.030	-0.190
-507.756	668.741	-0.084	0.217
-506.741	431.071	-0.081	0.175
-505.726	-200.000	0.002	-0.106
-504.712	-63.121	0.594	0.245
-503.697	-130.386	-0.422	-0.057
-502.683	-44.779	0.204	-0.102
-501.668	-200.000	-0.054	-0.504
-500.653	-200.000	0.015	-0.148
-499.639	-102.150	-0.098	-0.024
-498.624	-22.290	-0.332	0.201
-497.610	429.157	0.064	0.139
-496.595	186.348	0.209	-0.311
-495.581	-93.355	0.184	0.051
-494.566	-98.343	-0.109	0.028
-493.551	-113.218	-0.332	0.065
-492.537	118.089	0.117	0.144
-491.522	-41.094	0.121	-0.062
-490.508	249.102	0.107	-0.181
-489.493	-70.671	0.118	0.045
-488.478	48.910	-0.074	-0.070
-487.464	800.000	0.062	-0.177
-486.449	327.972	-0.082	0.158
-485.435	800.000	0.099	0.355
-484.420	-200.000	-0.036	-0.164
-483.405	75.938	0.090	-0.095
-482.391	166.213	0.147	-0.207
-481.376	143.160	0.038	0.051
-480.362	-121.610	0.201	0.033
-479.347	800.000	-0.071	-0.205
-478.332	35.633	0.312	0.274
-477.318	-200.000	-0.006	0.154
-476.303	800.000	-0.069	-0.212
-475.289	-107.113	-0.429	-0.095
-474.274	63.309	0.124	-0.124
-473.259	-200.000	0.029	-0.184
-472.245	800.000	-0.069	0.256
-471.230	-36.738	-0.026	-0.014
-470.216	-200.000	0.065	0.421
-469.201	223.324	-0.062	0.100
-468.186	-131.879	-0.250	-0.033
-467.172	800.000	-0.058	-0.247
-466.157	-86.654	0.348	0.106
-465.143	800.000	0.058	-0.205
-464.128	-67.195	0.191	-0.075
-463.113	-66.151	0.187	-0.074
-462.099	399.502	0.106	-0.222
-461.084	328.353	0.058	0.110
-460.070	-121.737	-0.248	-0.041
-459.055	-139.152	-0.337	0.036
-458.040	45.555	-0.051	0.047
-457.026	260.349	0.071	-0.122
-456.011	800.000	-0.057	-0.210
-454.997	604.934	0.109	-0.271
-453.982	-142.227	0.209	-0.021
-452.968	-96.852	0.082	-0.021
-451.953	-169.981	0.277	0.010
-450.938	110.104	-0.267	-0.320
-449.924	-68.893	0.135	0.052
-448.909	-114.852	0.312	0.059
-447.895	-6.109	-0.266	0.181
-446.880	-25.262	0.008	0.004
-445.865	313.336	-0.125	-0.234
-444.851	-102.289	-0.118	0.028
-443.836	58.647	-0.081	0.079
-442.822	-21.731	0.072	-0.044
-441.807	9.903	0.206	0.156
-440.792	-172.899	0.171	-0.005
-439.778	-48.514	0.160	-0.077
-438.763	-150.051	-0.026	-0.002
-437.749	-200.000	-0.004	0.382
-436.734	-71.898	-0.386	0.143
-435.719	-138.601	0.094	0.010
-434.705	-143.999	-0.330	0.031
-433.690	7.035	-0.162	-0.120
-432.676	-51.613	-0.239	-0.111
-431.661	-36.701	-0.304	0.163
-430.646	-200.000	0.036	0.333
-429.632	-74.272	0.170	0.061
-428.617	-200.000	0.010	-0.089
-427.603	-9.552	0.261	0.173
-426.588	-87.417	0.195	0.059
-425.573	800.000	-0.073	-0.231
-424.559	800.000	0.038	-0.122
-423.544	48.496	-0.047	0.044
-422.530	337.200	-0.132	0.256
-421.515	259.377	0.194	-0.334
-420.500	-50.865	-0.208	-0.097
-419.486	800.000	-0.021	0.080
-418.471	-162.798	0.315	0.015
-417.457	-160.980	-0.316	-0.017
-416.442	13.075	-0.215	0.166
-415.428	223.673	-0.101	0.162
-414.413	-9.729	-0.226	0.150
-413.398	-193.652	0.305	0.003
-412.384	17.371	0.156	0.124
-411.369	-200.000	-0.021	-0.126
-410.355	-45.527	0.370	0.183
-409.340	-200.000	0.034	-0.161
-408.325	301.349	-0.092	-0.170
-407.311	133.804	0.017	-0.022
-406.296	58.450	-0.140	0.137
-405.282	10.447	-0.497	-0.377
-404.267	-40.933	0.630	-0.325
-403.252	800.000	-0.045	-0.162
-402.238	267.332	0.166	-0.289
-401.223	800.000	0.043	-0.127
-400.209	-200.000	-0.013	0.178
-399.194	7.916	0.177	0.132
-398.179	346.729	0.111	0.217
-397.165	-47.529	-0.299	0.145
-396.150	800.000	-0.105	-0.395
-395.136	-77.614	0.069	-0.024
-394.121	-89.909	-0.238	-0.069
-393.106	-200.000	-0.010	-0.135
-392.092	306.972	0.193	0.358
-391.077	-37.772	-0.133	0.070
-390.063	441.139	-0.198	0.431
-389.048	120.492	0.063	-0.078
-388.033	-64.729	0.179	-0.072
-387.019	22.838	0.138	0.112
-386.004	307.041	0.098	0.182
-384.990	112.949	0.164	-0.198
-383.975	17.179	0.055	-0.043
-382.960	8.781	-0.287	0.216
-381.946	800.000	0.078	0.261
-380.931	-85.719	-0.256	-0.079
-379.917	463.716	0.036	-0.080
-378.902	-122.334	-0.037	-0.006
-377.888	-26.759	0.128	-0.074
-376.873	22.945	0.086	-0.070
-375.858	377.059	0.081	0.166
-374.844	38.654	0.187	0.166
-373.829	-197.449	0.318	0.002
-372.815	-200.000	0.016	0.101
-371.800	171.206	-0.121	-0.173
-370.785	-200.000	-0.031	0.189
-369.771	-89.857	-0.027	-0.008
-368.756	800.000	-0.010	-0.039
-367.742	-200.000	-0.008	-0.094
-366.727	-23.767	-0.180	0.107
-365.712	-144.585	-0.065	0.006
-364.698	321.163	-0.063	-0.120
-363.683	-94.268	-0.325	0.088
-362.669	-181.833	0.230	-0.004
-361.654	229.532	0.217	-0.352
-360.639	335.613	0.131	0.252
-359.625	-173.287	-0.229	-0.007
-358.610	-200.000	0.029	-0.177
-357.596	-30.649	0.047	0.027
-356.581	800.000	-0.144	-0.520
-355.566	325.122	-0.214	-0.407
-354.552	-72.483	0.289	-0.106
-353.537	99.755	-0.090	-0.104
-352.523	-180.460	0.205	-0.004
-351.508	-89.392	0.307	-0.090
-350.493	800.000	0.035	-0.143
-349.479	-59.642	0.097	-0.041
-348.464	-22.849	0.070	-0.042
-347.450	-147.042	0.291	0.025
-346.435	-151.913	0.077	-0.006
-345.420	197.320	0.102	0.155
-344.406	149.788	-0.267	-0.359
-343.391	124.394	-0.160	-0.200
-342.377	-200.000	-0.020	-0.369
-341.362	-173.913	-0.074	-0.002
-340.348	-126.037	-0.310	0.046
-339.333	188.229	-0.092	-0.137
-338.318	-200.000	0.066	0.313
-337.304	-200.000	-0.060	0.497
-336.289	120.315	0.198	-0.245
-335.275	46.060	-0.116	-0.107
-334.260	114.704	-0.044	-0.054
-333.245	-105.295	-0.299	0.068
-332.231	-200.000	-0.028	-0.233
-331.216	100.240	0.063	0.073
-330.202	-93.093	-0.117	-0.032
-329.187	1.871	-0.228	0.163
-328.172	217.432	-0.159	-0.251
-327.158	84.635	0.125	-0.136
-326.143	-50.807	-0.372	-0.174
-325.129	-147.436	-0.124	0.010
-324.114	-123.418	-0.150	-0.024
-323.099	314.701	0.066	-0.124
-322.085	258.285	0.075	-0.128
-321.070	-48.150	-0.181	-0.087
-320.056	65.878	0.252	0.254
-319.041	-21.341	-0.102	0.062
-318.026	28.632	0.246	-0.206
-317.012	118.342	-0.146	0.178
-315.997	-137.614	0.461	0.052
-314.983	-200.000	0.010	0.122
-313.968	-200.000	0.029	-0.260
-312.953	18.233	0.204	-0.161
-311.939	238.381	0.087	-0.144
-310.924	-200.000	-0.029	0.142
-309.910	-0.783	-0.171	0.120
-308.895	-109.991	0.132	-0.027
-307.880	644.509	0.061	-0.154
-306.866	145.965	0.237	-0.315
-305.851	-117.420	0.327	-0.059
-304.837	352.990	-0.082	-0.162
-303.822	301.481	0.123	0.225
-302.807	-140.740	-0.193	0.020
-301.793	-200.000	0.035	-0.187
-300.778	263.669	0.194	0.335
-299.764	-149.540	-0.209	-0.016
-298.749	-12.001	0.274	-0.178
-297.735	141.338	0.099	0.130
-296.720	159.632	-0.061	-0.084
-295.705	7.860	-0.335	-0.249
-294.691	-69.129	0.227	0.087
-293.676	-200.000	0.025	0.383
-292.662	-200.000	-0.209	0.000
-291.647	-200.000	0.000	0.077
-290.632	-200.000	-0.002	0.336
-289.618	37.061	0.218	-0.191
-288.603	-26.461	-0.143	-0.083
-287.589	-116.227	-0.504	0.093
-286.574	800.000	0.076	-0.232
-285.559	293.886	0.145	-0.263
-284.545	-45.723	0.163	0.080
-283.530	-99.091	-0.299	0.075
-282.516	-200.000	-0.052	0.240
-281.501	-200.000	0.021	-0.160
-280.486	421.346	0.138	-0.294
-279.472	-71.430	0.113	-0.042
-278.457	-136.822	-0.299	-0.034
-277.443	-200.000	-0.029	0.155
-276.428	349.491	-0.027	-0.052
-275.413	40.415	-0.198	-0.177
-274.399	109.579	0.365	0.433
-273.384	-200.000	0.069	0.337
-272.370	-38.566	0.321	-0.168
-271.355	121.103	-0.055	-0.067
-270.340	513.186	0.074	0.170
-269.326	-90.100	0.388	-0.112
-268.311	268.676	0.153	0.266
-267.297	-75.596	-0.113	-0.040
-266.282	51.364	-0.049	0.046
-265.267	800.000	0.048	0.157
-264.253	-86.950	0.263	0.080
-263.238	-99.499	-0.207	0.052
-262.224	118.047	-0.174	-0.212
-261.209	376.750	-0.009	-0.018
-260.195	-200.000	0.029	0.135
-259.180	178.114	-0.062	-0.089
-258.165	-87.591	0.118	0.035
-257.151	-20.674	-0.205	0.125
-256.136	-105.954	0.175	0.039
-255.122	-14.563	0.138	-0.088
-254.107	-97.553	0.036	0.009
-253.092	-67.538	0.337	0.131
-252.078	800.000	-0.021	-0.060
-251.063	-200.000	0.019	-0.132
-250.049	-0.209	-0.050	-0.035
-249.034	-82.671	-0.151	-0.048
-248.019	-55.250	-0.099	-0.044
-247.005	586.186	0.151	-0.368
-245.990	-3.429	0.194	-0.134
-244.976	800.000	-0.040	-0.120
-243.961	-77.143	0.314	0.108
-242.946	-148.653	-0.430	-0.035
-241.932	800.000	0.085	0.255
-240.917	-200.000	0.029	0.186
-239.903	-200.000	0.028	-0.150
-238.888	347.855	-0.038	0.074
-237.873	-31.954	-0.304	0.169
-236.859	800.000	0.049	0.194
-235.844	-38.033	-0.175	-0.092
-234.830	61.919	0.179	0.176
-233.815	-26.990	-0.071	0.041
-232.800	-200.000	-0.013	-0.232
-231.786	111.010	0.122	-0.145
-230.771	218.403	-0.214	0.337
-229.757	-200.000	-0.005	0.028
-228.742	-103.762	-0.150	0.035
-227.727	-162.084	0.362	0.018
-226.713	296.173	0.134	-0.243
-225.698	-73.982	0.126	-0.045
-224.684	800.000	0.106	0.419
-223.669	726.562	0.085	0.224
-222.655	-26.524	-0.156	0.091
-221.640	-75.713	0.195	0.068
-220.625	-77.144	0.176	0.061
-219.611	20.891	0.156	-0.125
-218.596	-200.000	-0.031	-0.237
-217.582	-200.000	0.022	0.330
-216.567	129.618	-0.027	0.034
-215.552	457.974	-0.028	0.062
-214.538	197.433	0.087	0.131
-213.523	-44.372	0.073	-0.036
-212.509	32.289	-0.028	0.024
-211.494	95.219	-0.111	0.125
-210.479	-96.755	-0.277	0.072
-209.465	800.000	-0.079	0.334
-208.450	577.400	-0.158	0.382
-207.436	470.267	-0.071	0.157
-206.421	-5.082	0.277	0.188
-205.406	78.333	0.132	-0.140
-204.392	-184.815	-0.202	0.003
-203.377	-124.285	0.178	-0.028
-202.363	34.752	0.131	0.113
-201.348	-63.282	0.119	-0.048
-200.333	95.521	0.171	-0.192
-199.319	-200.000	0.032	-0.180
-198.304	-200.000	-0.006	-0.120
-197.290	18.078	0.336	-0.265
-196.275	-123.588	-0.080	0.013
-195.260	800.000	0.014	0.047
-194.246	-200.000	-0.012	0.275
-193.231	2.040	-0.144	0.103
-192.217	575.432	-0.107	-0.259
-191.202	800.000	-0.066	0.214
-190.187	-12.328	0.022	0.014
-189.173	-78.402	0.147	0.050
-188.158	-67.219	0.138	-0.054
-187.144	-140.382	-0.236	-0.024
-186.129	54.057	-0.100	-0.095
-185.114	672.387	-0.114	0.291
-184.100	506.402	-0.082	0.187
-183.085	-200.000	-0.018	0.270
-182.071	800.000	-0.057	0.201
-181.056	-154.922	0.074	0.005
-180.042	-52.941	-0.377	0.171
-179.027	800.000	0.035	-0.103
-178.012	-200.000	-0.001	-0.095
-176.998	-172.326	0.255	0.008
-175.983	-200.000	-0.048	-0.415
-174.969	-186.746	-0.275	-0.004
-173.954	-200.000	0.033	0.147
-172.939	54.880	-0.187	0.178
-171.925	51.839	0.061	-0.057
-170.910	-200.000	0.034	-0.209
-169.896	217.225	0.146	0.229
-168.881	-87.271	-0.397	0.119
-167.866	-175.083	0.284	-0.008
-166.852	-62.230	0.108	0.044
-165.837	-62.527	-0.196	0.080
-164.823	-140.738	-0.180	-0.018
-163.808	446.950	0.082	0.179
-162.793	-144.089	0.267	0.025
-161.779	34.399	-0.327	-0.281
-160.764	14.597	0.109	0.084
-159.750	261.184	0.079	-0.135
-158.735	-112.737	0.096	0.019
-157.720	800.000	0.079	0.297
-156.706	-200.000	-0.072	-0.499
-155.691	208.100	0.159	0.246
-154.677	176.064	-0.132	0.190
-153.662	426.059	0.067	-0.143
-152.647	-110.757	-0.057	0.012
-151.633	92.811	0.097	-0.108
-150.618	-92.283	-0.056	0.016
-149.604	-69.743	-0.275	-0.104
-148.589	-148.081	0.317	-0.026
-147.574	-63.593	-0.135	-0.055
-146.560	-0.819	0.222	0.155
-145.545	-200.000	-0.073	0.384
-144.531	-200.000	0.042	0.286
-143.516	-130.373	0.400	0.053
-142.502	-89.629	-0.223	-0.065
-141.487	-200.000	0.022	0.610
-140.472	358.798	0.122	-0.240
-139.458	-73.925	-0.391	-0.140
-138.443	188.584	-0.080	0.118
-137.429	589.755	0.066	-0.160
-136.414	484.747	0.106	0.237
-135.399	244.429	0.128	0.212
-134.385	-120.544	-0.127	-0.021
-133.370	-200.000	0.012	0.180
-132.356	130.445	-0.104	0.131
-131.341	-77.840	0.093	-0.032
-130.326	-9.647	-0.206	-0.135
-129.312	-200.000	-0.027	-0.133
-128.297	33.760	-0.135	-0.116
-127.283	114.425	-0.065	0.078
-126.268	800.000	0.075	0.273
-125.253	-98.216	-0.258	0.065
-124.239	-151.794	-0.250	-0.018
-123.224	-200.000	-0.030	0.164
-122.210	-25.663	0.177	0.103
