DTS Sentinel unit serial number:	SN413079Multiplexer serial number:	ORYXHardware model number:	OX4-SRSoftware version number:	ORYX F/W v4.00 Oryx Data Collector v3.7.2.0data status	okinstallation	princeton_trtdifferential loss correction	single-endedforward channel	channel 3reverse channel	N/Adate	2019/09/13time	20:28:35forward acquisition time	60.00reverse acquisition time	0.00gamma	496.2192k internal	0.2331k external	0.2331temperature offset calibration	1.0066default loss term (dB/km)	0.3790temperature slope calibration	1.0000multiplexer offset coefficient	1.0000multiplexer slope coefficient	1.0000fibre end	0.00T internal ref (°C)	29.12T ext. ref 1 (°C)	3.29T ext. ref 2 (°C)	23.69length (m)	temperature (°C)	Stokes	anti-Stokes-747.200	31.109	0.133	0.115
-746.185	13.759	-0.293	0.229
-745.171	-30.449	-0.038	-0.022
-744.156	-105.012	-0.169	-0.039
-743.142	-200.000	0.058	-0.328
-742.127	514.589	0.143	0.336
-741.112	-47.508	0.352	0.172
-740.098	-21.447	-0.174	-0.107
-739.083	44.583	0.232	0.214
-738.069	108.895	-0.267	0.321
-737.054	219.939	-0.022	-0.036
-736.039	-100.371	-0.269	-0.067
-735.025	-174.527	0.352	0.010
-734.010	800.000	0.010	0.036
-732.996	674.258	-0.098	0.256
-731.981	74.971	-0.022	0.023
-730.966	787.141	-0.089	-0.245
-729.952	335.245	0.082	0.161
-728.937	800.000	-0.039	0.155
-727.923	-187.365	-0.153	0.002
-726.908	-200.000	0.000	-0.190
-725.894	-93.844	-0.270	-0.075
-724.879	-129.752	-0.499	0.069
-723.864	89.290	0.186	-0.208
-722.850	-79.452	-0.068	0.023
-721.835	-66.364	0.196	0.078
-720.821	-108.729	-0.318	-0.069
-719.806	469.732	-0.142	-0.321
-718.791	12.422	0.190	-0.147
-717.777	-144.783	-0.257	-0.024
-716.762	-200.000	-0.016	-0.135
-715.748	504.265	0.175	-0.406
-714.733	-66.627	-0.435	-0.173
-713.718	-200.000	-0.028	-0.246
-712.704	-200.000	-0.001	0.278
-711.689	-98.114	0.152	-0.039
-710.675	-21.088	0.348	0.214
-709.660	-71.195	0.217	-0.082
-708.645	-123.793	0.445	-0.071
-707.631	800.000	-0.030	-0.100
-706.616	-98.081	-0.054	-0.014
-705.602	-67.660	-0.069	-0.027
-704.587	-152.742	0.185	0.013
-703.572	-61.828	0.191	0.080
-702.558	-150.734	-0.351	-0.027
-701.543	-95.638	0.194	-0.052
-700.529	281.048	-0.093	-0.167
-699.514	-18.423	-0.243	0.153
-698.499	168.145	0.075	-0.108
-697.485	-93.460	0.178	0.049
-696.470	216.509	-0.254	-0.406
-695.456	102.601	-0.183	0.215
-694.441	-105.121	-0.130	-0.030
-693.426	31.598	0.275	0.237
-692.412	-200.000	-0.003	-0.259
-691.397	485.593	-0.035	-0.081
-690.383	341.667	-0.138	-0.270
-689.368	-126.031	0.225	-0.034
-688.354	98.483	0.067	-0.078
-687.339	-200.000	-0.013	0.089
-686.324	208.858	0.125	-0.197
-685.310	-77.230	-0.293	0.102
-684.295	-0.592	0.061	-0.043
-683.281	-27.775	-0.186	-0.108
-682.266	-200.000	0.058	-0.369
-681.251	-53.370	0.132	-0.061
-680.237	-142.388	-0.075	-0.007
-679.222	800.000	-0.072	0.291
-678.208	29.096	0.039	-0.033
-677.193	-90.620	-0.244	-0.071
-676.178	-2.466	-0.069	0.048
-675.164	-34.796	0.167	-0.092
-674.149	22.358	0.134	0.110
-673.135	163.815	-0.125	0.177
-672.120	21.818	0.387	-0.316
-671.105	-200.000	0.039	-0.244
-670.091	800.000	0.012	-0.034
-669.076	-95.094	-0.162	-0.044
-668.062	-25.355	-0.286	-0.170
-667.047	-200.000	0.005	0.087
-666.032	124.298	-0.046	-0.058
-665.018	-200.000	0.003	0.121
-664.003	51.271	-0.004	0.004
-662.989	-66.990	0.184	-0.073
-661.974	-200.000	-0.019	-0.090
-660.959	-200.000	-0.010	0.099
-659.945	-115.066	0.132	-0.025
-658.930	-200.000	0.065	0.301
-657.916	14.243	-0.274	0.214
-656.901	21.787	-0.123	0.100
-655.886	-200.000	-0.061	0.399
-654.872	325.937	-0.109	-0.209
-653.857	-67.974	0.281	0.110
-652.843	-106.819	-0.469	0.104
-651.828	-73.180	0.212	-0.078
-650.814	-200.000	0.007	-0.343
-649.799	-64.169	0.126	0.052
-648.784	-47.807	0.162	0.079
-647.770	59.888	0.163	-0.161
-646.755	38.145	-0.303	-0.270
-645.741	135.668	-0.067	-0.087
-644.726	225.228	-0.033	-0.054
-643.711	-112.771	0.240	0.048
-642.697	84.775	0.036	-0.040
-641.682	-200.000	0.046	0.299
-640.668	-153.556	-0.296	-0.020
-639.653	-163.496	-0.243	-0.012
-638.638	-200.000	-0.006	-0.062
-637.624	-63.805	-0.338	-0.139
-636.609	675.069	0.085	-0.220
-635.595	-200.000	-0.022	-0.150
-634.580	-111.964	0.060	-0.012
-633.565	-112.604	-0.272	0.054
-632.551	800.000	0.076	-0.293
-631.536	97.509	0.149	0.171
-630.522	-200.000	0.044	0.270
-629.507	116.403	-0.031	0.038
-628.492	87.128	-0.090	-0.099
-627.478	-139.771	-0.355	0.038
-626.463	95.949	0.210	-0.240
-625.449	-19.759	0.089	0.055
-624.434	571.192	0.078	-0.191
-623.419	-48.513	0.243	-0.117
-622.405	30.350	0.154	0.132
-621.390	-200.000	0.053	0.463
-620.376	-151.693	0.286	-0.021
-619.361	-24.727	0.289	-0.172
-618.346	1.459	0.232	0.167
-617.332	63.581	-0.135	0.136
-616.317	10.718	-0.416	0.318
-615.303	126.608	0.215	0.273
-614.288	-97.492	0.467	0.122
-613.273	-200.000	0.066	-0.323
-612.259	256.418	-0.109	-0.187
-611.244	-200.000	0.007	0.151
-610.230	413.597	-0.035	-0.075
-609.215	800.000	0.040	-0.148
-608.201	-105.281	0.109	-0.025
-607.186	4.086	0.234	0.172
-606.171	784.798	-0.061	0.167
-605.157	-37.157	-0.046	0.025
-604.142	98.142	0.104	0.120
-603.128	10.060	-0.170	-0.129
-602.113	733.250	0.074	-0.199
-601.098	-200.000	0.029	0.172
-600.084	171.233	0.059	0.084
-599.069	181.326	-0.064	-0.095
-598.055	-72.123	-0.176	0.065
-597.040	-79.745	0.319	-0.108
-596.025	-35.474	0.186	0.101
-595.011	800.000	0.050	-0.200
-593.996	-91.070	-0.151	-0.043
-592.982	800.000	-0.051	-0.185
-591.967	76.939	0.162	0.172
-590.952	467.668	-0.100	-0.224
-589.938	-20.871	0.251	-0.154
-588.923	-132.789	0.087	0.011
-587.909	-127.525	0.012	-0.002
-586.894	-67.521	0.227	0.089
-585.879	800.000	0.084	0.299
-584.865	-40.601	0.304	-0.158
-583.850	97.223	0.123	0.141
-582.836	32.204	-0.454	0.391
-581.821	8.691	0.141	0.107
-580.806	-95.550	0.133	-0.036
-579.792	-153.999	-0.214	0.015
-578.777	114.574	-0.151	0.184
-577.763	54.943	0.051	-0.049
-576.748	153.862	0.159	-0.219
-575.733	81.764	0.058	-0.063
-574.719	96.695	-0.114	-0.130
-573.704	13.698	-0.133	0.103
-572.690	417.146	-0.089	-0.191
-571.675	-154.650	0.210	-0.014
-570.661	-148.461	-0.356	0.029
-569.646	-200.000	0.016	0.124
-568.631	800.000	0.092	-0.255
-567.617	91.299	-0.181	-0.203
-566.602	-3.117	-0.278	-0.194
-565.588	111.124	-0.087	0.105
-564.573	-43.712	0.386	0.194
-563.558	193.984	0.034	-0.052
-562.544	-200.000	0.003	-0.256
-561.529	-78.008	0.176	-0.061
-560.515	-23.502	-0.330	0.198
-559.500	379.871	-0.056	-0.114
-558.485	146.372	0.062	0.084
-557.471	403.240	0.114	-0.239
-556.456	-148.228	0.455	-0.038
-555.442	478.881	-0.093	0.211
-554.427	-200.000	-0.053	-0.480
-553.412	800.000	0.040	-0.134
-552.398	-147.696	0.226	-0.019
-551.383	-43.817	-0.204	0.102
-550.369	-46.100	-0.270	0.133
-549.354	36.617	-0.158	-0.140
-548.339	285.607	0.137	-0.247
-547.325	-200.000	-0.065	-0.299
-546.310	347.740	0.083	0.163
-545.296	-200.000	-0.002	-0.106
-544.281	12.559	-0.281	-0.216
-543.266	5.603	0.126	-0.093
-542.252	-119.686	-0.157	0.027
-541.237	-2.947	-0.279	-0.195
-540.223	-106.729	0.353	0.078
-539.208	-200.000	0.006	-0.135
-538.193	506.798	-0.134	-0.309
-537.179	-200.000	-0.008	-0.037
-536.164	-200.000	-0.010	-0.088
-535.150	-91.535	0.314	0.089
-534.135	83.136	-0.221	0.240
-533.121	137.249	0.115	0.150
-532.106	800.000	-0.069	-0.241
-531.091	253.878	-0.119	0.202
-530.077	101.589	-0.050	0.058
-529.062	256.666	0.124	0.213
-528.048	479.165	0.012	0.027
-527.033	147.059	0.061	0.081
-526.018	-38.816	0.184	0.097
-525.004	-120.198	-0.091	-0.016
-523.989	172.022	-0.135	-0.193
-522.975	-200.000	0.000	-0.110
-521.960	-104.535	0.293	-0.067
-520.945	280.475	-0.101	0.180
-519.931	-12.795	-0.229	-0.149
-518.916	-53.890	-0.194	0.088
-517.902	-200.000	-0.057	-0.000
-516.887	-132.115	-0.205	0.027
-515.872	800.000	-0.016	0.053
-514.858	-200.000	0.001	-0.168
-513.843	363.283	-0.073	-0.146
-512.829	-31.740	0.203	-0.114
-511.814	-126.804	-0.088	0.013
-510.799	285.515	-0.023	0.041
-509.785	-200.000	0.011	-0.221
-508.770	-64.806	0.072	0.029
-507.756	14.163	0.380	0.295
-506.741	327.418	0.071	0.136
-505.726	-140.269	-0.287	-0.030
-504.712	29.159	0.153	0.130
-503.697	-200.000	-0.029	-0.167
-502.683	-200.000	0.029	-0.279
-501.668	14.298	0.169	-0.131
-500.653	-200.000	-0.057	0.277
-499.639	640.871	0.077	-0.196
-498.624	-14.642	0.066	0.043
-497.610	28.343	0.144	-0.121
-496.595	20.651	0.113	-0.091
-495.581	-138.927	0.045	0.005
-494.566	4.309	0.177	0.129
-493.551	-135.930	-0.187	0.022
-492.537	800.000	-0.045	0.140
-491.522	55.318	-0.233	-0.224
-490.508	-34.595	0.093	-0.051
-489.493	16.201	0.208	-0.163
-488.478	517.307	0.204	0.475
-487.464	-200.000	0.020	-0.252
-486.449	800.000	0.061	-0.188
-485.435	86.534	-0.098	-0.108
-484.420	175.905	-0.169	0.244
-483.405	-89.933	-0.182	0.053
-482.391	-200.000	0.014	0.097
-481.376	77.292	-0.077	0.082
-480.362	331.428	-0.128	-0.245
-479.347	431.227	0.179	0.386
-478.332	800.000	-0.050	-0.187
-477.318	271.510	0.032	-0.056
-476.303	102.352	0.157	0.183
-475.289	-141.353	0.195	-0.020
-474.274	-21.049	0.197	-0.120
-473.259	367.988	-0.108	-0.218
-472.245	31.909	0.208	0.178
-471.230	-200.000	0.004	0.577
-470.216	-46.640	0.147	-0.072
-469.201	64.821	-0.012	-0.012
-468.186	-11.668	-0.324	-0.212
-467.172	-200.000	-0.005	0.094
-466.157	167.447	0.107	0.152
-465.143	-136.996	0.322	0.037
-464.128	121.435	-0.227	0.281
-463.113	-64.502	0.263	-0.106
-462.099	-52.540	-0.239	-0.110
-461.084	-67.674	-0.185	0.072
-460.070	7.848	0.276	-0.206
-459.055	-64.006	0.156	-0.064
-458.040	430.010	0.137	0.294
-457.026	188.897	-0.079	0.118
-456.011	168.355	-0.087	0.123
-454.997	-61.023	-0.218	-0.092
-453.982	-76.658	-0.267	-0.093
-452.968	-44.759	0.172	0.086
-451.953	-58.298	0.228	0.099
-450.938	-200.000	-0.066	0.412
-449.924	-200.000	-0.028	-0.200
-448.909	800.000	0.024	-0.073
-447.895	-200.000	0.015	-0.347
-446.880	-96.724	-0.327	0.086
-445.865	176.965	0.091	-0.132
-444.851	-200.000	0.068	0.301
-443.836	-161.996	-0.171	0.009
-442.822	-170.685	0.193	-0.007
-441.807	-38.952	0.038	-0.020
-440.792	-72.904	-0.301	-0.110
-439.778	-200.000	-0.031	0.256
-438.763	88.932	-0.133	-0.147
-437.749	-200.000	0.010	-0.211
-436.734	-200.000	-0.057	0.294
-435.719	-137.938	0.373	0.041
-434.705	-89.928	0.324	0.094
-433.690	800.000	-0.048	0.185
-432.676	-35.746	-0.433	-0.233
-431.661	-200.000	0.018	0.149
-430.646	569.902	-0.151	-0.365
-429.632	140.294	-0.197	-0.259
-428.617	-131.208	0.369	-0.049
-427.603	-200.000	-0.005	-0.198
-426.588	205.410	0.134	-0.207
-425.573	-115.470	-0.227	-0.042
-424.559	-135.839	-0.192	-0.023
-423.544	275.527	-0.045	0.078
-422.530	-33.785	-0.275	-0.151
-421.515	-200.000	0.085	-0.440
-420.500	-200.000	-0.015	-0.123
-419.486	376.284	0.133	-0.270
-418.471	94.670	-0.123	-0.139
-417.457	-5.416	0.092	0.063
-416.442	-6.442	-0.169	-0.114
-415.428	-179.938	0.237	0.005
-414.413	-35.839	0.119	-0.064
-413.398	-171.988	0.332	-0.011
-412.384	-96.750	-0.192	0.050
-411.369	-200.000	-0.126	0.000
-410.355	460.696	0.091	0.202
-409.340	287.116	0.180	0.322
-408.325	2.969	-0.365	0.263
-407.311	15.656	-0.150	-0.117
-406.296	218.943	0.076	-0.121
-405.282	-109.365	-0.288	-0.061
-404.267	787.371	-0.020	-0.055
-403.252	-81.180	0.112	-0.037
-402.238	97.449	0.048	0.055
-401.223	140.782	-0.024	0.032
-400.209	-50.565	-0.286	-0.134
-399.194	-200.000	-0.009	-0.080
-398.179	-38.713	0.105	-0.055
-397.165	-200.000	0.008	0.323
-396.150	-200.000	-0.002	0.035
-395.136	17.376	0.162	-0.128
-394.121	-10.227	-0.097	0.064
-393.106	-9.061	-0.328	-0.218
-392.092	-37.043	0.353	-0.188
-391.077	33.311	-0.172	-0.149
-390.063	366.175	0.112	0.224
-389.048	-200.000	-0.014	0.310
-388.033	176.048	0.117	-0.168
-387.019	-6.707	0.201	-0.135
-386.004	-200.000	-0.010	0.046
-384.990	271.232	0.074	0.129
-383.975	235.917	0.159	0.261
-382.960	-176.618	-0.426	-0.011
-381.946	90.933	0.057	-0.063
-380.931	-84.032	-0.249	-0.079
-379.917	-70.957	-0.170	-0.063
-378.902	-200.000	0.048	0.243
-377.888	86.053	0.102	-0.111
-376.873	167.978	0.043	-0.061
-375.858	-156.439	-0.187	0.012
-374.844	-73.636	-0.174	0.063
-373.829	-197.942	0.120	-0.001
-372.815	-33.832	0.099	0.054
-371.800	125.952	-0.033	-0.041
-370.785	65.005	-0.162	-0.162
-369.771	800.000	0.040	0.137
-368.756	650.499	-0.054	-0.138
-367.742	-162.099	0.407	-0.020
-366.727	125.839	-0.222	-0.279
-365.712	-86.393	0.323	-0.099
-364.698	642.757	-0.102	0.257
-363.683	351.966	0.141	0.278
-362.669	55.644	0.203	0.195
-361.654	133.449	-0.192	-0.246
-360.639	-105.392	0.130	-0.029
-359.625	93.139	0.097	0.108
-358.610	54.394	-0.198	0.189
-357.596	-200.000	-0.017	-0.110
-356.581	-54.734	-0.259	-0.116
-355.566	800.000	-0.039	0.127
-354.552	41.530	0.016	0.014
-353.537	90.629	-0.343	-0.380
-352.523	800.000	-0.120	-0.403
-351.508	-5.665	0.381	0.259
-350.493	194.836	0.058	0.087
-349.479	800.000	-0.028	-0.092
-348.464	-90.709	-0.129	-0.037
-347.450	-108.745	0.400	-0.085
-346.435	442.074	0.032	0.069
-345.420	800.000	-0.102	0.286
-344.406	395.044	0.018	-0.038
-343.391	-17.882	0.200	-0.124
-342.377	261.700	-0.059	-0.102
-341.362	15.045	-0.235	-0.182
-340.348	134.616	0.187	-0.240
-339.333	-200.000	0.004	-0.088
-338.318	529.338	-0.059	0.137
-337.304	23.100	0.013	0.011
-336.289	800.000	0.110	0.318
-335.275	-200.000	0.002	0.114
-334.260	336.237	0.114	0.220
-333.245	719.858	-0.028	-0.073
-332.231	-93.932	-0.240	0.065
-331.216	93.100	0.119	0.133
-330.202	-18.183	-0.229	0.142
-329.187	94.369	-0.051	0.057
-328.172	117.189	-0.118	0.144
-327.158	261.864	0.064	0.109
-326.143	-109.583	-0.234	0.049
-325.129	800.000	-0.121	0.439
-324.114	-200.000	-0.012	-0.232
-323.099	-5.775	-0.168	0.114
-322.085	61.834	0.160	0.158
-321.070	479.947	-0.058	0.130
-320.056	-37.849	0.275	-0.145
-319.041	-75.483	-0.131	0.046
-318.026	-143.512	0.049	-0.005
-317.012	109.911	-0.170	0.202
-315.997	286.629	-0.078	0.140
-314.983	357.297	-0.102	-0.202
-313.968	-200.000	0.025	0.399
-312.953	5.167	0.141	-0.103
-311.939	53.466	-0.227	-0.215
-310.924	-200.000	-0.016	-0.123
-309.910	-68.403	0.448	0.172
-308.895	-19.067	0.207	-0.127
-307.880	-55.681	0.083	0.037
-306.866	800.000	-0.096	0.272
-305.851	-1.681	0.277	-0.193
-304.837	131.027	-0.179	0.227
-303.822	-75.962	0.175	0.061
-302.807	-35.854	0.075	0.040
-301.793	80.007	0.136	-0.145
-300.778	41.265	-0.209	0.187
-299.764	334.658	-0.132	0.253
-298.749	262.574	-0.134	-0.230
-297.735	-69.174	-0.272	-0.103
-296.720	736.234	0.047	-0.124
-295.705	800.000	0.050	0.170
-294.691	-200.000	0.011	0.186
-293.676	-130.622	-0.261	-0.035
-292.662	-81.486	0.223	0.073
-291.647	1.377	-0.154	0.110
-290.632	-29.794	0.148	-0.083
-289.618	365.385	0.191	-0.381
-288.603	-200.000	0.001	-0.081
-287.589	4.283	0.156	0.113
-286.574	641.491	0.156	0.392
-285.559	-95.799	-0.079	0.021
-284.545	114.095	0.087	0.104
-283.530	-200.000	-0.045	-0.243
-282.516	-102.644	-0.226	-0.053
-281.501	-200.000	-0.010	0.045
-280.486	24.942	-0.125	-0.102
-279.472	-200.000	0.018	-0.088
-278.457	-155.286	-0.296	0.019
-277.443	-88.749	-0.049	-0.014
-276.428	459.129	-0.039	-0.085
-275.413	-113.131	0.110	0.022
-274.399	149.939	-0.170	-0.228
-273.384	-182.280	-0.162	-0.003
-272.370	154.072	-0.068	0.092
-271.355	108.375	-0.213	-0.251
-270.340	-33.920	0.361	-0.197
-269.326	637.233	0.215	-0.540
-268.311	-200.000	-0.012	0.146
-267.297	-77.551	-0.146	0.050
-266.282	-110.008	-0.295	-0.061
-265.267	-77.693	0.164	0.056
-264.253	-64.103	-0.282	-0.114
-263.238	-200.000	-0.008	-0.139
-262.224	37.742	0.302	-0.265
-261.209	-44.814	0.147	-0.072
-260.195	-162.105	-0.249	0.012
-259.180	-70.227	-0.068	0.026
-258.165	-61.613	0.394	0.163
-257.151	-64.507	0.293	0.117
-256.136	96.870	-0.131	0.148
-255.122	-120.249	-0.414	-0.070
-254.107	59.726	-0.119	-0.116
-253.092	-10.367	0.221	-0.145
-252.078	800.000	-0.105	0.366
-251.063	-29.615	-0.148	-0.083
-250.049	-61.371	-0.348	-0.145
-249.034	-39.548	0.280	-0.145
-248.019	55.632	-0.049	-0.047
-247.005	-68.557	-0.156	-0.060
-245.990	106.382	0.228	-0.267
-244.976	512.574	-0.042	0.097
-243.961	69.496	0.244	0.248
-242.946	-21.947	-0.224	0.134
-241.932	115.867	-0.225	0.272
-240.917	-114.521	-0.322	0.061
-239.903	-20.100	0.145	0.088
-238.888	-200.000	-0.003	-0.037
-237.873	-103.872	0.117	-0.027
-236.859	-43.404	-0.172	0.086
-235.844	-200.000	-0.035	-0.261
-234.830	-34.785	0.389	-0.210
-233.815	-53.717	-0.182	-0.082
-232.800	800.000	-0.072	0.210
-231.786	-82.344	0.225	0.072
-230.771	800.000	0.097	0.267
-229.757	205.482	0.061	0.093
-228.742	793.528	-0.081	0.219
-227.727	-200.000	0.014	-0.330
-226.713	26.413	-0.069	0.057
-225.698	341.235	0.130	0.250
-224.684	800.000	-0.054	0.224
-223.669	1.012	-0.071	0.050
-222.655	-106.343	0.077	-0.017
-221.640	112.485	0.103	0.122
-220.625	-200.000	-0.001	-0.169
-219.611	26.055	0.116	0.095
-218.596	-96.322	0.292	-0.076
-217.582	-148.191	-0.222	-0.018
-216.567	149.987	-0.144	-0.192
-215.552	103.776	-0.097	-0.112
-214.538	-200.000	-0.005	0.304
-213.523	30.049	0.057	-0.048
-212.509	-200.000	0.029	0.319
-211.494	16.601	0.110	-0.086
-210.479	112.104	-0.105	-0.125
-209.465	-176.067	0.372	0.010
-208.450	74.395	-0.129	-0.133
-207.436	-200.000	0.008	0.297
-206.421	-142.405	0.188	0.018
-205.406	18.846	-0.173	0.137
-204.392	-200.000	-0.012	-0.195
-203.377	800.000	0.013	-0.035
-202.363	438.349	0.075	-0.160
-201.348	125.628	-0.142	0.176
-200.333	-105.491	-0.261	0.058
-199.319	800.000	-0.070	0.268
-198.304	800.000	-0.098	0.338
-197.290	5.566	0.055	0.040
-196.275	155.947	-0.120	0.163
-195.260	29.090	-0.351	0.293
-194.246	-175.494	-0.122	0.003
-193.231	130.299	-0.106	-0.134
-192.217	-200.000	-0.029	-0.250
-191.202	-135.889	0.195	-0.023
-190.187	800.000	0.007	-0.025
-189.173	705.631	0.020	-0.052
-188.158	678.493	0.022	0.056
-187.144	31.783	0.054	0.046
-186.129	800.000	0.031	-0.123
-185.114	-200.000	-0.015	0.236
-184.100	-200.000	0.030	0.174
-183.085	-63.706	0.567	0.229
-182.071	800.000	0.115	-0.328
-181.056	-200.000	-0.031	0.148
-180.042	20.911	-0.094	0.075
-179.027	-48.710	0.213	0.101
-178.012	-88.958	0.167	-0.049
-176.998	-88.230	0.260	0.077
-175.983	-5.104	-0.199	0.135
-174.969	33.358	-0.115	-0.098
-173.954	-185.893	-0.417	-0.006
-172.939	401.537	0.112	-0.232
-171.925	178.873	0.149	0.214
-170.910	-138.525	-0.306	0.033
-169.896	-78.711	0.223	0.075
-168.881	800.000	0.068	0.276
-167.866	-200.000	0.040	-0.311
-166.852	800.000	-0.141	-0.503
-165.837	-34.119	0.280	-0.152
-164.823	-49.682	0.061	0.028
-163.808	474.347	-0.078	0.172
-162.793	800.000	-0.085	-0.355
-161.779	54.362	-0.062	0.059
-160.764	800.000	0.108	0.293
-159.750	-77.677	-0.049	-0.017
-158.735	-111.012	-0.009	0.002
-157.720	-61.712	-0.116	-0.048
-156.706	565.259	0.065	0.156
-155.691	-35.755	-0.135	0.072
-154.677	-125.040	-0.200	-0.030
-153.662	202.824	0.020	0.030
-152.647	-174.540	-0.247	-0.007
-151.633	-200.000	-0.055	0.277
-150.618	122.633	0.284	-0.350
-149.604	-86.194	-0.277	-0.084
-148.589	-167.240	0.366	0.015
-147.574	-132.865	0.076	-0.010
-146.560	-200.000	-0.101	-0.710
-145.545	-161.288	-0.256	0.013
-144.531	-179.258	-0.219	0.005
-143.516	-200.000	-0.061	-0.273
-142.502	-200.000	-0.034	0.233
-141.487	-200.000	-0.022	-0.429
-140.472	-39.988	0.117	-0.060
-139.458	690.270	0.173	0.444
-138.443	349.855	-0.048	0.092
-137.429	-55.293	0.268	0.118
-136.414	6.802	0.214	0.157
-135.399	69.295	-0.241	0.243
-134.385	-94.003	-0.110	-0.030
-133.370	-200.000	0.037	-0.357
-132.356	-113.434	0.236	0.045
-131.341	-147.387	0.242	-0.020
-130.326	-16.528	0.049	0.030
-129.312	-200.000	-0.003	0.130
-128.297	-200.000	0.045	0.453
-127.283	366.192	-0.305	0.604
-126.268	127.607	-0.075	0.094
-125.253	217.972	0.109	-0.170
-124.239	-5.356	0.119	0.080
-123.224	193.599	-0.028	-0.042
-122.210	273.501	0.032	-0.056
-121.195	-200.000	-0.013	-0.317
