DTS Sentinel unit serial number:	SN413079Multiplexer serial number:	ORYXHardware model number:	OX4-SRSoftware version number:	ORYX F/W v4.00 Oryx Data Collector v3.7.2.0data status	okinstallation	princeton_trtdifferential loss correction	single-endedforward channel	channel 3reverse channel	N/Adate	2019/09/13time	01:56:35forward acquisition time	60.00reverse acquisition time	0.00gamma	496.2192k internal	0.2334k external	0.2334temperature offset calibration	1.0122default loss term (dB/km)	0.3790temperature slope calibration	1.0000multiplexer offset coefficient	1.0000multiplexer slope coefficient	1.0000fibre end	0.00T internal ref (°C)	27.64T ext. ref 1 (°C)	3.83T ext. ref 2 (°C)	22.31length (m)	temperature (°C)	Stokes	anti-Stokes-747.200	-71.753	-0.092	-0.034
-746.185	-109.681	-0.154	0.033
-745.171	177.766	-0.165	-0.242
-744.156	-23.285	0.168	0.101
-743.142	-157.281	0.260	-0.016
-742.127	-178.825	-0.137	0.003
-741.112	427.303	-0.062	-0.134
-740.098	212.942	-0.033	-0.052
-739.083	295.287	0.101	0.185
-738.069	80.790	-0.207	-0.224
-737.054	-60.592	-0.164	-0.070
-736.039	-136.543	-0.097	-0.011
-735.025	107.627	0.069	0.082
-734.010	342.634	-0.190	-0.374
-732.996	22.732	-0.328	0.270
-731.981	74.978	-0.167	0.177
-730.966	99.687	-0.057	0.066
-729.952	-75.413	-0.380	0.136
-728.937	-112.895	-0.109	-0.022
-727.923	-43.654	-0.241	0.122
-726.908	148.906	0.007	0.009
-725.894	-200.000	0.000	-0.189
-724.879	-200.000	0.036	-0.434
-723.864	-140.419	0.145	0.015
-722.850	-63.200	-0.228	-0.094
-721.835	-95.578	-0.555	0.149
-720.821	-119.730	0.106	-0.018
-719.806	151.602	-0.130	-0.178
-718.791	-71.538	0.110	0.041
-717.777	-172.223	0.216	-0.007
-716.762	357.729	-0.079	0.158
-715.748	82.856	-0.304	-0.332
-714.733	-153.479	0.135	-0.009
-713.718	800.000	-0.164	-0.462
-712.704	-74.528	-0.215	0.078
-711.689	-32.859	-0.128	-0.071
-710.675	-100.072	0.092	-0.023
-709.660	-112.995	0.291	0.058
-708.645	-128.526	-0.323	-0.046
-707.631	34.825	0.103	0.090
-706.616	-126.465	-0.109	0.016
-705.602	-85.606	-0.284	0.089
-704.587	12.801	0.042	0.032
-703.572	-186.147	-0.386	0.006
-702.558	-68.896	0.237	0.092
-701.543	317.914	0.068	0.129
-700.529	-65.028	0.199	0.081
-699.514	-200.000	-0.011	-0.088
-698.499	89.243	0.081	0.091
-697.485	158.565	-0.112	0.156
-696.470	-200.000	0.014	-0.326
-695.456	211.176	-0.056	-0.089
-694.441	262.973	-0.140	0.244
-693.426	-13.687	0.316	-0.205
-692.412	711.526	0.126	0.335
-691.397	-97.923	0.199	0.052
-690.383	-63.388	-0.127	-0.052
-689.368	222.228	0.139	-0.225
-688.354	348.811	-0.268	-0.531
-687.339	15.840	0.107	-0.084
-686.324	-11.457	-0.265	-0.175
-685.310	59.248	-0.156	0.154
-684.295	319.843	-0.150	0.285
-683.281	423.626	-0.042	-0.091
-682.266	-103.835	-0.084	-0.020
-681.251	-156.565	-0.493	0.031
-680.237	1.354	-0.327	-0.236
-679.222	107.359	-0.106	-0.126
-678.208	-106.716	0.278	0.062
-677.193	-137.407	0.248	0.028
-676.178	-117.875	-0.268	-0.048
-675.164	113.226	-0.179	-0.218
-674.149	-8.935	0.450	-0.302
-673.135	26.563	-0.144	0.121
-672.120	114.966	0.075	0.092
-671.105	187.802	-0.120	0.179
-670.091	-154.664	-0.261	-0.017
-669.076	-60.726	-0.092	0.039
-668.062	288.412	-0.044	0.080
-667.047	147.635	0.007	-0.010
-666.032	-34.889	0.273	-0.149
-665.018	-200.000	0.003	-0.177
-664.003	-106.424	-0.134	-0.030
-662.989	40.387	-0.303	-0.273
-661.974	-159.174	0.183	0.010
-660.959	11.664	-0.228	-0.175
-659.945	-67.678	0.151	0.059
-658.930	-16.833	-0.218	-0.138
-657.916	63.999	-0.164	0.165
-656.901	-105.839	-0.240	0.054
-655.886	-57.639	-0.304	-0.133
-654.872	35.402	-0.206	-0.181
-653.857	-28.470	0.196	-0.113
-652.843	421.258	-0.058	-0.124
-651.828	-19.348	-0.249	0.155
-650.814	-93.839	-0.111	-0.031
-649.799	387.418	0.025	0.052
-648.784	-103.681	-0.138	-0.032
-647.770	257.498	-0.059	-0.101
-646.755	10.065	-0.190	-0.145
-645.741	-52.701	-0.190	0.088
-644.726	69.012	-0.255	-0.262
-643.711	-27.758	0.232	-0.135
-642.697	119.319	-0.066	0.081
-641.682	-118.806	0.144	-0.025
-640.668	163.148	-0.224	0.314
-639.653	436.171	-0.056	0.123
-638.638	-178.048	0.205	-0.005
-637.624	175.081	0.078	-0.114
-636.609	147.976	0.343	-0.463
-635.595	12.641	-0.146	0.113
-634.580	403.944	0.013	-0.027
-633.565	800.000	0.034	-0.097
-632.551	440.435	-0.110	0.241
-631.536	-95.712	-0.162	-0.043
-630.522	-25.344	-0.194	-0.115
-629.507	387.158	0.059	0.122
-628.492	800.000	-0.037	-0.117
-627.478	-87.659	-0.374	0.113
-626.463	-200.000	-0.052	-0.297
-625.449	-200.000	0.000	0.031
-624.434	726.712	0.101	0.269
-623.419	101.954	-0.158	-0.184
-622.405	800.000	0.080	0.268
-621.390	132.575	0.176	0.227
-620.376	134.156	-0.093	0.120
-619.361	-140.561	-0.042	-0.004
-618.346	-200.000	-0.023	-0.127
-617.332	800.000	0.045	-0.168
-616.317	227.497	0.120	-0.195
-615.303	-200.000	-0.166	0.000
-614.288	294.224	0.171	0.312
-613.273	21.433	0.156	-0.127
-612.259	226.332	-0.010	-0.016
-611.244	537.233	-0.118	-0.280
-610.230	324.824	0.073	-0.139
-609.215	6.334	0.162	-0.120
-608.201	-87.929	0.094	-0.028
-607.186	-197.334	0.271	-0.002
-606.171	800.000	-0.004	0.012
-605.157	-200.000	0.017	-0.082
-604.142	-51.075	-0.273	-0.128
-603.128	287.991	-0.109	0.197
-602.113	800.000	0.058	0.237
-601.098	117.202	-0.151	0.185
-600.084	800.000	-0.067	0.191
-599.069	135.461	0.047	-0.061
-598.055	-87.664	-0.085	-0.026
-597.040	800.000	0.101	0.364
-596.025	86.090	-0.131	-0.144
-595.011	249.669	-0.128	0.217
-593.996	362.638	-0.064	0.129
-592.982	14.488	-0.167	0.130
-591.967	-200.000	0.080	-0.360
-590.952	800.000	-0.064	0.274
-589.938	-59.553	0.184	-0.079
-588.923	-56.097	0.279	-0.124
-587.909	-111.474	-0.220	-0.045
-586.894	544.362	0.056	-0.134
-585.879	468.598	0.068	-0.153
-584.865	-71.304	0.206	-0.077
-583.850	-153.048	-0.059	-0.004
-582.836	44.679	-0.189	-0.173
-581.821	800.000	-0.041	0.171
-580.806	42.978	-0.138	-0.125
-579.792	800.000	-0.035	0.138
-578.777	91.639	0.075	0.084
-577.763	-200.000	-0.025	-0.156
-576.748	329.205	-0.070	-0.135
-575.733	89.944	-0.126	0.140
-574.719	1.204	0.189	-0.135
-573.704	780.993	0.030	-0.081
-572.690	-200.000	0.016	0.409
-571.675	-200.000	-0.007	-0.083
-570.661	800.000	0.097	-0.355
-569.646	643.864	0.093	-0.236
-568.631	-85.293	-0.226	0.070
-567.617	-10.635	0.287	-0.189
-566.602	-200.000	0.043	-0.360
-565.588	-52.425	-0.132	0.061
-564.573	-131.318	0.404	0.053
-563.558	451.043	0.063	-0.140
-562.544	141.703	-0.092	-0.121
-561.529	-200.000	0.041	-0.248
-560.515	-23.679	0.184	-0.110
-559.500	98.765	0.327	-0.376
-558.485	-98.059	-0.205	0.053
-557.471	-200.000	0.006	0.153
-556.456	225.704	-0.100	0.162
-555.442	14.852	-0.046	0.036
-554.427	-69.783	0.014	0.005
-553.412	800.000	0.053	0.154
-552.398	800.000	0.084	-0.316
-551.383	445.715	0.037	-0.082
-550.369	175.049	0.205	0.297
-549.354	-2.245	0.285	0.199
-548.339	455.432	-0.056	0.124
-547.325	-200.000	0.041	0.236
-546.310	-94.514	0.060	-0.016
-545.296	-88.104	0.119	0.036
-544.281	93.229	0.153	0.172
-543.266	-200.000	-0.002	0.251
-542.252	322.747	0.119	0.226
-541.237	381.360	0.142	-0.291
-540.223	-134.674	-0.125	0.015
-539.208	-82.533	-0.214	-0.069
-538.193	-41.118	-0.180	-0.092
-537.179	-101.356	0.421	-0.102
-536.164	-56.046	0.201	-0.089
-535.150	207.479	-0.147	0.229
-534.135	278.926	0.026	0.046
-533.121	800.000	-0.075	0.321
-532.106	423.398	-0.109	0.234
-531.091	-28.474	-0.173	0.099
-530.077	62.226	0.228	-0.226
-529.062	360.284	-0.051	-0.103
-528.048	-67.515	-0.010	-0.004
-527.033	-142.517	0.214	0.021
-526.018	792.490	0.106	-0.290
-525.004	-200.000	0.095	-0.576
-523.989	-60.480	0.066	0.028
-522.975	800.000	-0.050	0.141
-521.960	263.989	-0.190	0.329
-520.945	-42.179	0.091	0.046
-519.931	153.523	0.018	0.025
-518.916	184.286	0.067	0.098
-517.902	3.137	-0.308	-0.223
-516.887	800.000	0.075	-0.217
-515.872	-51.605	-0.043	-0.020
-514.858	-46.735	-0.144	0.070
-513.843	56.093	-0.152	-0.147
-512.829	-90.032	0.101	0.029
-511.814	-200.000	0.010	-0.055
-510.799	105.688	-0.188	0.221
-509.785	-139.793	-0.051	0.005
-508.770	-97.969	-0.251	0.064
-507.756	-200.000	0.023	0.310
-506.741	90.753	-0.174	0.194
-505.726	800.000	-0.043	-0.184
-504.712	-106.515	0.273	0.061
-503.697	800.000	0.059	0.201
-502.683	800.000	-0.038	-0.122
-501.668	-188.303	0.277	0.003
-500.653	-114.310	0.024	-0.005
-499.639	183.588	0.088	0.129
-498.624	290.215	0.052	0.094
-497.610	133.985	0.161	0.208
-496.595	290.217	0.129	0.233
-495.581	610.529	-0.080	-0.198
-494.566	-200.000	-0.013	0.076
-493.551	800.000	-0.051	-0.171
-492.537	-141.460	-0.147	-0.015
-491.522	-113.533	0.295	0.057
-490.508	473.708	-0.121	0.271
-489.493	-80.566	0.170	-0.056
-488.478	-200.000	-0.082	0.392
-487.464	-200.000	-0.004	-0.241
-486.449	-200.000	-0.017	-0.210
-485.435	-67.071	-0.114	0.045
-484.420	83.334	0.025	0.028
-483.405	-162.501	0.065	0.003
-482.391	800.000	-0.049	0.150
-481.376	-200.000	0.016	-0.214
-480.362	65.568	-0.059	0.060
-479.347	92.772	-0.134	-0.150
-478.332	79.320	-0.129	0.138
-477.318	-119.216	-0.252	-0.044
-476.303	-153.512	-0.155	-0.011
-475.289	800.000	0.052	-0.187
-474.274	-175.078	-0.237	0.007
-473.259	764.248	0.044	-0.119
-472.245	179.419	-0.203	0.296
-471.230	-44.303	-0.286	0.142
-470.216	-52.842	0.144	0.066
-469.201	32.532	0.009	0.007
-468.186	58.023	-0.125	0.122
-467.172	-40.184	-0.178	0.092
-466.157	800.000	-0.061	0.211
-465.143	214.340	0.238	-0.374
-464.128	800.000	-0.042	-0.157
-463.113	130.506	0.112	0.143
-462.099	800.000	-0.042	0.135
-461.084	244.870	0.115	0.192
-460.070	-81.528	-0.005	-0.002
-459.055	3.783	-0.061	-0.044
-458.040	-0.519	-0.312	0.220
-457.026	-74.892	0.108	0.039
-456.011	800.000	-0.057	0.189
-454.997	-193.789	-0.151	-0.001
-453.982	-200.000	-0.001	-0.201
-452.968	197.320	0.147	-0.222
-451.953	-28.241	-0.239	-0.137
-450.938	800.000	-0.056	-0.206
-449.924	29.311	0.150	0.127
-448.909	102.031	-0.134	0.155
-447.895	22.544	0.128	0.104
-446.880	-200.000	0.000	0.218
-445.865	188.403	-0.069	0.102
-444.851	104.602	0.244	-0.285
-443.836	800.000	0.077	-0.240
-442.822	99.918	-0.325	0.374
-441.807	14.599	0.148	-0.114
-440.792	-200.000	0.008	0.324
-439.778	165.673	-0.158	-0.222
-438.763	-101.589	0.067	-0.016
-437.749	-1.370	-0.099	0.070
-436.734	6.267	0.213	0.157
-435.719	-121.167	0.261	-0.043
-434.705	644.415	0.031	0.080
-433.690	-148.875	0.462	0.037
-432.676	81.948	-0.104	-0.112
-431.661	260.249	-0.104	-0.179
-430.646	-101.434	-0.415	-0.100
-429.632	-114.640	0.440	0.084
-428.617	119.019	-0.137	0.168
-427.603	-17.661	0.112	0.070
-426.588	-200.000	-0.014	-0.319
-425.573	7.499	-0.098	-0.073
-424.559	648.456	0.041	0.103
-423.544	-117.896	-0.069	0.012
-422.530	24.436	-0.243	-0.200
-421.515	128.151	-0.136	0.172
-420.500	-155.167	0.246	0.016
-419.486	149.036	0.304	-0.409
-418.471	21.689	0.242	0.196
-417.457	-7.122	0.022	-0.015
-416.442	308.120	0.187	0.346
-415.428	13.545	0.074	0.057
-414.413	95.266	-0.062	-0.070
-413.398	119.372	0.095	0.117
-412.384	-138.678	0.441	0.048
-411.369	55.532	0.135	-0.130
-410.355	99.713	0.166	0.191
-409.340	325.735	0.026	-0.049
-408.325	-200.000	-0.010	-0.088
-407.311	115.229	-0.199	0.241
-406.296	595.284	0.117	-0.287
-405.282	653.342	0.114	-0.291
-404.267	-66.388	0.219	0.086
-403.252	-147.680	-0.285	0.024
-402.238	-26.119	-0.189	-0.110
-401.223	198.841	0.321	0.488
-400.209	74.495	-0.182	0.189
-399.194	-200.000	0.014	-0.139
-398.179	800.000	0.077	-0.213
-397.165	800.000	0.083	0.282
-396.150	-168.488	-0.209	-0.008
-395.136	-68.820	0.232	0.089
-394.121	-128.327	-0.411	0.058
-393.106	439.723	-0.110	-0.239
-392.092	113.673	-0.067	-0.081
-391.077	-102.097	0.061	-0.015
-390.063	141.228	0.181	0.237
-389.048	-78.780	0.080	-0.027
-388.033	-67.955	-0.323	-0.125
-387.019	-120.466	0.073	0.012
-386.004	-51.314	0.022	-0.010
-384.990	-90.235	0.274	-0.079
-383.975	240.032	-0.176	-0.291
-382.960	673.505	0.039	-0.099
-381.946	-200.000	0.034	-0.301
-380.931	118.496	-0.077	-0.094
-379.917	-85.953	0.144	0.044
-378.902	-31.203	-0.265	0.148
-377.888	-19.062	-0.127	-0.078
-376.873	5.689	-0.144	-0.106
-375.858	800.000	-0.050	0.204
-374.844	-18.390	-0.127	0.078
-373.829	213.681	0.049	-0.077
-372.815	53.313	0.368	0.350
-371.800	-108.640	0.230	0.049
-370.785	653.649	-0.041	-0.103
-369.771	-200.000	0.040	-0.411
-368.756	-88.720	0.093	-0.027
-367.742	-200.000	0.059	-0.340
-366.727	-200.000	-0.003	-0.052
-365.712	118.196	-0.050	-0.062
-364.698	-200.000	0.005	0.105
-363.683	-200.000	0.003	0.267
-362.669	86.871	-0.193	0.211
-361.654	-166.702	-0.204	-0.008
-360.639	-133.864	-0.331	-0.041
-359.625	-200.000	-0.038	0.167
-358.610	-104.227	0.366	0.084
-357.596	-11.267	0.089	-0.058
-356.581	295.503	-0.132	0.240
-355.566	-104.381	0.252	0.058
-354.552	-110.964	0.299	0.061
-353.537	-96.760	0.166	0.043
-352.523	400.486	0.059	0.123
-351.508	-200.000	-0.063	0.301
-350.493	-88.968	0.280	0.082
-349.479	240.838	-0.170	0.281
-348.464	-78.239	0.530	0.180
-347.450	-8.283	0.323	0.215
-346.435	410.713	-0.101	0.213
-345.420	-98.550	0.293	-0.074
-344.406	-99.702	-0.245	0.061
-343.391	48.163	0.042	-0.039
-342.377	122.971	0.051	0.063
-341.362	-58.085	-0.076	0.033
-340.348	-147.267	-0.310	0.026
-339.333	-9.211	-0.047	-0.031
-338.318	-1.446	-0.044	0.031
-337.304	-167.320	-0.058	0.002
-336.289	-142.708	0.166	-0.016
-335.275	330.735	-0.172	0.327
-334.260	-93.179	0.202	0.056
-333.245	-135.002	0.194	0.023
-332.231	-200.000	-0.005	-0.144
-331.216	-101.300	-0.157	-0.038
-330.202	-1.320	0.450	-0.314
-329.187	177.772	0.077	0.111
-328.172	-125.084	-0.212	-0.032
-327.158	83.135	0.064	-0.069
-326.143	-132.059	0.179	-0.023
-325.129	-86.194	0.306	0.093
-324.114	-40.015	-0.123	0.064
-323.099	800.000	0.058	0.181
-322.085	-86.198	-0.180	0.055
-321.070	-79.839	-0.311	0.104
-320.056	-130.592	-0.172	-0.023
-319.041	430.265	-0.016	0.034
-318.026	-114.247	0.275	0.053
-317.012	800.000	0.052	-0.170
-315.997	-148.430	-0.191	0.015
-314.983	139.444	0.184	0.240
-313.968	-200.000	0.088	-0.455
-312.953	-72.827	-0.269	-0.098
-311.939	98.163	-0.149	-0.169
-310.924	82.116	0.126	0.135
-309.910	135.888	-0.042	0.054
-308.895	-8.941	-0.220	-0.145
-307.880	-33.021	-0.394	-0.216
-306.866	800.000	0.038	0.134
-305.851	-84.671	-0.169	-0.053
-304.837	-200.000	-0.019	-0.121
-303.822	-200.000	-0.026	-0.120
-302.807	-200.000	0.011	-0.331
-301.793	-75.551	-0.286	-0.101
-300.778	-96.470	0.096	-0.025
-299.764	-154.555	0.389	0.026
-298.749	158.022	-0.020	0.027
-297.735	-200.000	0.157	-0.000
-296.720	-200.000	-0.018	0.148
-295.705	-200.000	0.010	0.257
-294.691	-200.000	0.000	-0.082
-293.676	411.182	0.083	0.174
-292.662	-200.000	0.017	0.130
-291.647	-179.721	-0.383	0.008
-290.632	152.695	0.166	-0.224
-289.618	-159.903	0.241	-0.013
-288.603	114.647	-0.095	-0.114
-287.589	118.078	-0.125	-0.153
-286.574	257.070	-0.191	0.325
-285.559	-125.770	0.167	-0.025
-284.545	167.298	0.132	-0.185
-283.530	-122.310	-0.100	-0.016
-282.516	180.174	-0.137	-0.198
-281.501	-27.868	0.282	0.161
-280.486	-141.480	-0.134	0.013
-279.472	-153.832	-0.307	-0.021
-278.457	362.095	0.082	-0.163
-277.443	76.545	0.074	-0.077
-276.428	-200.000	-0.021	0.287
-275.413	70.512	-0.194	0.198
-274.399	18.940	0.520	-0.411
-273.384	-37.816	-0.143	0.075
-272.370	2.705	0.134	-0.096
-271.355	-48.239	-0.092	-0.044
-270.340	-200.000	0.007	-0.217
-269.326	16.506	-0.287	0.223
-268.311	101.570	-0.114	0.131
-267.297	-194.534	-0.073	-0.001
-266.282	800.000	0.107	0.346
-265.267	117.284	0.050	-0.061
-264.253	-93.605	-0.228	-0.062
-263.238	-200.000	-0.033	-0.230
-262.224	-86.802	0.132	-0.040
-261.209	25.363	0.187	-0.153
-260.195	241.466	0.147	0.242
-259.180	73.413	-0.186	-0.192
-258.165	304.948	0.062	0.113
-257.151	444.552	-0.109	-0.235
-256.136	-200.000	0.033	-0.224
-255.122	-38.186	-0.245	-0.128
-254.107	-71.505	-0.258	0.095
-253.092	-59.652	0.071	-0.030
-252.078	-162.028	0.395	0.020
-251.063	30.873	0.077	-0.065
-250.049	-28.805	-0.139	0.079
-249.034	78.125	-0.168	0.177
-248.019	-146.837	-0.322	-0.027
-247.005	-200.000	0.027	0.194
-245.990	-120.820	0.257	-0.043
-244.976	-128.534	-0.345	-0.048
-243.961	-61.118	-0.231	-0.096
-242.946	391.310	-0.058	-0.120
-241.932	800.000	0.031	0.086
-240.917	265.042	-0.119	0.204
-239.903	406.739	-0.077	-0.159
-238.888	-118.421	-0.145	0.025
-237.873	800.000	-0.158	-0.521
-236.859	72.124	0.168	0.173
-235.844	73.829	-0.207	-0.214
-234.830	19.134	-0.071	-0.056
-233.815	120.788	-0.243	-0.297
-232.800	-18.836	0.191	-0.117
-231.786	63.250	-0.116	0.115
-230.771	100.353	-0.090	-0.102
-229.757	548.761	-0.053	0.124
-228.742	800.000	-0.055	-0.198
-227.727	-100.013	0.162	0.040
-226.713	-200.000	0.021	-0.102
-225.698	-200.000	-0.022	-0.389
-224.684	-200.000	0.042	-0.324
-223.669	-63.791	0.294	-0.118
-222.655	616.252	0.138	0.340
-221.640	-139.486	-0.189	0.020
-220.625	800.000	-0.047	-0.199
-219.611	-71.726	0.380	0.140
-218.596	113.088	-0.185	0.221
-217.582	-39.964	0.163	0.084
-216.567	-200.000	0.022	0.358
-215.552	-200.000	-0.012	0.086
-214.538	-200.000	0.021	-0.152
-213.523	217.453	-0.114	0.179
-212.509	187.581	0.117	-0.172
-211.494	257.507	-0.223	0.378
-210.479	-74.378	0.409	-0.145
-209.465	201.235	0.115	0.174
-208.450	-198.603	0.450	-0.002
-207.436	-149.057	-0.082	-0.006
-206.421	-200.000	0.003	0.307
-205.406	270.747	0.078	0.135
-204.392	425.906	-0.177	-0.374
-203.377	800.000	0.099	-0.294
-202.363	-177.664	0.179	-0.004
-201.348	139.178	-0.103	-0.133
-200.333	-84.355	-0.143	-0.044
-199.319	-16.586	-0.139	-0.087
-198.304	-84.510	-0.256	-0.079
-197.290	-111.993	0.129	0.026
-196.275	-125.241	-0.149	-0.022
-195.260	-183.022	-0.352	-0.006
-194.246	-189.244	0.155	0.002
-193.231	-87.998	-0.128	-0.038
-192.217	173.020	0.138	-0.195
-191.202	-200.000	0.058	-0.338
-190.187	11.897	0.180	0.136
-189.173	163.169	-0.084	0.115
-188.158	-136.666	0.234	0.027
-187.144	341.214	-0.132	0.254
-186.129	112.717	-0.083	-0.099
-185.114	141.216	-0.067	-0.087
-184.100	-140.803	0.199	0.020
-183.085	800.000	-0.068	0.248
-182.071	72.075	0.261	0.267
-181.056	-29.653	0.109	0.061
-180.042	-19.052	-0.274	-0.168
-179.027	25.901	0.068	0.056
-178.012	291.680	0.026	0.046
-176.998	-73.798	0.090	-0.032
-175.983	56.311	0.197	0.189
-174.969	-164.295	-0.222	0.010
-173.954	-62.766	-0.308	0.126
-172.939	-45.943	-0.252	0.122
-171.925	-61.478	-0.346	-0.143
-170.910	800.000	0.031	0.118
-169.896	-68.056	0.247	-0.095
-168.881	343.037	-0.067	0.129
-167.866	466.193	-0.084	-0.184
-166.852	-15.261	0.254	0.159
-165.837	792.582	-0.055	-0.150
-164.823	-200.000	0.000	-0.143
-163.808	196.489	0.059	-0.089
-162.793	-65.265	-0.144	-0.057
-161.779	143.758	0.074	0.096
-160.764	-200.000	0.009	0.198
-159.750	-200.000	-0.021	-0.144
-158.735	-185.688	-0.055	-0.001
-157.720	-170.361	0.070	0.002
-156.706	316.080	-0.037	0.068
-155.691	346.934	0.077	0.148
-154.677	54.641	-0.137	-0.130
-153.662	78.762	-0.201	-0.211
-152.647	7.497	0.120	0.088
-151.633	206.472	-0.197	-0.302
-150.618	-93.528	-0.077	-0.021
-149.604	-200.000	-0.015	-0.241
-148.589	260.247	-0.073	0.124
-147.574	800.000	0.117	-0.407
-146.560	142.186	0.193	-0.251
-145.545	-38.722	0.135	-0.070
-144.531	-200.000	0.012	-0.260
-143.516	191.688	0.088	-0.130
-142.502	-200.000	0.072	0.349
-141.487	44.948	-0.061	-0.055
-140.472	-200.000	0.002	-0.219
-139.458	64.521	0.041	-0.041
-138.443	-18.949	-0.063	0.038
-137.429	-57.877	-0.199	0.086
-136.414	167.719	0.091	0.127
-135.399	30.890	-0.183	0.154
-134.385	99.128	-0.085	-0.097
-133.370	136.685	0.072	0.092
-132.356	-64.709	0.208	-0.083
-131.341	723.875	0.097	0.252
-130.326	-94.523	0.170	-0.045
-129.312	800.000	-0.041	0.125
-128.297	32.898	-0.074	-0.063
-127.283	152.778	-0.075	-0.100
-126.268	51.498	0.163	-0.152
-125.253	71.202	0.077	-0.078
-124.239	-62.463	-0.079	0.032
-123.224	86.494	0.227	-0.246
-122.210	3.873	0.153	-0.110
-121.195	-91.856	-0.341	0.095
