DTS Sentinel unit serial number:	SN413079Multiplexer serial number:	ORYXHardware model number:	OX4-SRSoftware version number:	ORYX F/W v4.00 Oryx Data Collector v3.7.2.0data status	okinstallation	princeton_trtdifferential loss correction	single-endedforward channel	channel 3reverse channel	N/Adate	2019/09/17time	22:56:35forward acquisition time	60.00reverse acquisition time	0.00gamma	496.2192k internal	0.2344k external	0.2344temperature offset calibration	0.9949default loss term (dB/km)	0.3790temperature slope calibration	1.0000multiplexer offset coefficient	1.0000multiplexer slope coefficient	1.0000fibre end	0.00T internal ref (°C)	24.84T ext. ref 1 (°C)	0.18T ext. ref 2 (°C)	18.01length (m)	temperature (°C)	Stokes	anti-Stokes-747.200	-63.120	0.136	0.056
-746.185	-200.000	-0.023	0.118
-745.171	-36.254	0.043	0.023
-744.156	-18.197	-0.295	0.185
-743.142	123.274	0.088	0.111
-742.127	-200.000	-0.030	0.313
-741.112	70.186	-0.440	0.454
-740.098	-200.000	0.011	0.177
-739.083	800.000	0.172	-0.478
-738.069	-200.000	0.010	0.104
-737.054	-112.766	-0.055	0.011
-736.039	-24.775	-0.443	-0.264
-735.025	-77.771	0.419	-0.145
-734.010	-105.060	-0.307	-0.070
-732.996	166.501	-0.115	-0.163
-731.981	317.433	-0.130	-0.246
-730.966	8.057	-0.400	-0.300
-729.952	-101.596	-0.293	0.071
-728.937	-200.000	-0.023	-0.194
-727.923	-46.153	-0.129	0.063
-726.908	800.000	-0.061	-0.250
-725.894	89.312	-0.095	-0.105
-724.879	800.000	-0.060	-0.212
-723.864	74.099	-0.211	0.222
-722.850	702.616	-0.063	0.167
-721.835	-200.000	-0.015	0.153
-720.821	-11.333	0.192	0.127
-719.806	-84.934	0.162	0.051
-718.791	-13.221	-0.130	-0.084
-717.777	-200.000	0.007	0.063
-716.762	32.188	-0.008	-0.007
-715.748	32.267	0.268	-0.231
-714.733	-18.530	-0.336	-0.210
-713.718	800.000	-0.120	-0.440
-712.704	-27.808	-0.265	-0.154
-711.689	-56.738	0.111	0.049
-710.675	65.769	-0.262	0.265
-709.660	-11.608	-0.142	-0.093
-708.645	-43.949	-0.020	-0.010
-707.631	286.054	-0.161	-0.290
-706.616	-96.099	-0.023	0.006
-705.602	-156.431	0.280	-0.017
-704.587	184.340	-0.048	-0.071
-703.572	95.767	-0.113	-0.129
-702.558	-72.212	0.263	0.097
-701.543	52.158	0.095	-0.091
-700.529	-83.416	-0.340	-0.109
-699.514	-200.000	-0.042	0.367
-698.499	-200.000	0.053	-0.345
-697.485	-198.601	0.098	-0.001
-696.470	59.084	-0.350	-0.344
-695.456	114.143	0.118	-0.144
-694.441	-106.185	-0.084	-0.019
-693.426	-200.000	-0.027	0.181
-692.412	564.749	0.109	0.265
-691.397	-130.474	-0.169	-0.023
-690.383	-67.914	-0.052	-0.020
-689.368	-3.349	0.454	0.316
-688.354	-42.650	0.310	-0.157
-687.339	224.580	-0.231	-0.373
-686.324	398.045	0.162	-0.338
-685.310	122.567	0.057	-0.071
-684.295	-59.170	-0.177	0.076
-683.281	30.224	0.102	-0.087
-682.266	29.174	0.102	-0.086
-681.251	-156.509	0.161	0.010
-680.237	28.443	0.109	-0.092
-679.222	57.505	0.153	-0.149
-678.208	-95.518	0.118	0.032
-677.193	-200.000	0.005	-0.072
-676.178	-200.000	-0.015	0.261
-675.164	-50.437	-0.188	0.089
-674.149	152.377	-0.088	0.119
-673.135	265.416	0.101	0.175
-672.120	166.439	0.123	-0.174
-671.105	-125.586	0.108	0.016
-670.091	-200.000	-0.016	-0.157
-669.076	-134.108	-0.129	-0.016
-668.062	800.000	-0.065	0.192
-667.047	800.000	0.100	0.297
-666.032	-200.000	-0.005	0.239
-665.018	-92.042	0.171	-0.048
-664.003	-200.000	-0.028	0.138
-662.989	178.799	-0.104	-0.152
-661.974	26.737	0.305	0.255
-660.959	-80.590	-0.203	-0.067
-659.945	800.000	0.008	-0.029
-658.930	271.418	0.180	-0.317
-657.916	-110.027	-0.343	-0.072
-656.901	2.122	0.109	-0.079
-655.886	-46.205	0.166	-0.081
-654.872	119.175	-0.128	0.157
-653.857	-113.573	0.199	0.039
-652.843	800.000	-0.137	-0.403
-651.828	800.000	0.078	-0.253
-650.814	-43.027	-0.063	0.032
-649.799	217.845	-0.066	-0.105
-648.784	318.717	0.040	-0.075
-647.770	601.260	0.096	-0.238
-646.755	19.464	0.143	-0.115
-645.741	800.000	-0.057	0.172
-644.726	239.433	-0.167	0.278
-643.711	-200.000	0.002	-0.287
-642.697	-64.369	-0.102	-0.041
-641.682	-116.626	0.237	-0.044
-640.668	-193.559	0.394	-0.003
-639.653	800.000	-0.041	-0.119
-638.638	-59.140	-0.270	-0.116
-637.624	-36.499	0.217	0.116
-636.609	469.332	-0.058	0.131
-635.595	-200.000	-0.010	-0.198
-634.580	-176.001	-0.109	0.003
-633.565	313.061	0.045	-0.084
-632.551	39.922	0.293	-0.262
-631.536	471.699	0.103	0.230
-630.522	-74.111	0.295	-0.106
-629.507	194.594	-0.114	-0.172
-628.492	312.801	-0.099	0.184
-627.478	-80.832	-0.119	0.039
-626.463	25.709	-0.263	-0.218
-625.449	368.043	0.111	-0.223
-624.434	135.393	-0.257	0.332
-623.419	355.956	-0.059	-0.117
-622.405	-126.838	-0.065	0.010
-621.390	-146.154	-0.115	0.010
-620.376	800.000	-0.116	-0.341
-619.361	-104.765	-0.104	0.024
-618.346	-16.268	-0.183	-0.116
-617.332	434.517	-0.054	-0.116
-616.317	-113.084	0.186	-0.037
-615.303	27.586	-0.143	-0.120
-614.288	-20.193	0.351	0.216
-613.273	276.858	-0.084	-0.148
-612.259	459.607	0.064	0.141
-611.244	206.262	-0.103	0.160
-610.230	75.049	-0.074	0.078
-609.215	800.000	-0.054	0.232
-608.201	-36.840	0.146	-0.078
-607.186	800.000	0.080	0.304
-606.171	800.000	-0.113	-0.462
-605.157	-166.455	-0.210	-0.009
-604.142	199.731	0.161	-0.246
-603.128	-34.183	-0.095	0.052
-602.113	40.354	-0.167	0.150
-601.098	118.707	-0.164	-0.202
-600.084	-38.620	0.239	0.126
-599.069	-200.000	-0.014	-0.294
-598.055	-70.102	0.223	0.084
-597.040	-200.000	0.032	0.212
-596.025	-200.000	-0.122	0.000
-595.011	-200.000	-0.016	-0.223
-593.996	-154.034	0.043	-0.003
-592.982	409.572	0.076	-0.159
-591.967	-50.171	-0.314	0.148
-590.952	-18.015	0.221	0.137
-589.938	93.935	0.098	0.110
-588.923	-200.000	0.008	0.233
-587.909	623.499	0.015	-0.038
-586.894	402.480	-0.063	0.131
-585.879	160.981	0.137	-0.190
-584.865	151.542	-0.078	-0.106
-583.850	-139.102	0.210	0.023
-582.836	293.217	0.143	-0.260
-581.821	25.449	-0.202	0.167
-580.806	-55.903	-0.218	-0.097
-579.792	-61.517	-0.366	0.153
-578.777	-27.518	-0.310	0.179
-577.763	121.264	0.107	-0.132
-576.748	-89.003	0.376	-0.111
-575.733	-105.417	-0.231	0.052
-574.719	-153.735	-0.417	-0.029
-573.704	465.611	-0.246	0.547
-572.690	57.355	0.225	0.218
-571.675	506.924	-0.047	-0.108
-570.661	800.000	0.050	-0.169
-569.646	-50.899	-0.057	-0.027
-568.631	-159.771	0.298	0.016
-567.617	41.928	-0.011	-0.010
-566.602	96.418	-0.033	0.038
-565.588	57.573	0.371	0.360
-564.573	-146.913	0.125	-0.011
-563.558	169.634	0.044	0.062
-562.544	676.636	-0.043	0.110
-561.529	117.826	-0.113	-0.138
-560.515	634.668	-0.045	0.112
-559.500	-200.000	0.051	0.283
-558.485	-134.309	-0.078	-0.010
-557.471	604.189	-0.060	0.149
-556.456	800.000	-0.078	-0.285
-555.442	800.000	0.025	-0.097
-554.427	173.273	0.131	0.188
-553.412	343.994	-0.077	0.151
-552.398	138.433	0.135	-0.176
-551.383	221.117	0.159	0.254
-550.369	-200.000	-0.010	0.130
-549.354	-18.181	-0.112	-0.070
-548.339	-190.114	0.121	-0.001
-547.325	95.773	-0.083	0.094
-546.310	732.396	-0.158	0.419
-545.296	-59.688	-0.182	-0.077
-544.281	-39.262	-0.093	-0.048
-543.266	-10.562	-0.218	0.143
-542.252	-200.000	0.014	0.075
-541.237	-34.715	0.097	-0.053
-540.223	6.696	-0.169	-0.125
-539.208	-200.000	0.021	0.243
-538.193	800.000	0.153	0.461
-537.179	-151.631	-0.351	0.026
-536.164	-69.356	0.049	0.019
-535.150	-85.603	0.079	0.024
-534.135	-200.000	0.003	-0.188
-533.121	-115.771	0.248	-0.046
-532.106	-200.000	-0.049	-0.249
-531.091	800.000	0.029	-0.109
-530.077	-18.889	-0.045	0.028
-529.062	58.190	0.289	-0.281
-528.048	26.665	-0.183	-0.152
-527.033	147.338	0.277	-0.369
-526.018	-95.012	0.129	0.035
-525.004	-127.924	-0.072	0.010
-523.989	206.054	-0.153	0.237
-522.975	-15.878	0.215	0.136
-521.960	800.000	0.006	0.017
-520.945	-96.259	0.225	-0.059
-519.931	4.216	0.225	0.163
-518.916	105.799	0.181	0.212
-517.902	-200.000	-0.021	0.202
-516.887	-133.182	-0.154	0.019
-515.872	349.197	0.019	-0.037
-514.858	358.954	0.056	-0.112
-513.843	-37.104	0.320	0.170
-512.829	-200.000	0.045	0.236
-511.814	-200.000	0.085	0.394
-510.799	-200.000	-0.032	-0.216
-509.785	-49.873	-0.323	0.152
-508.770	202.725	0.094	0.144
-507.756	800.000	-0.033	0.102
-506.741	47.670	0.168	0.156
-505.726	1.725	-0.068	0.048
-504.712	800.000	0.190	-0.686
-503.697	-60.848	0.268	0.113
-502.683	59.961	0.133	-0.130
-501.668	-61.532	0.167	-0.069
-500.653	14.485	0.278	0.215
-499.639	475.669	0.079	-0.176
-498.624	70.343	0.187	-0.191
-497.610	-27.464	0.217	-0.125
-496.595	-27.493	-0.386	0.222
-495.581	-112.953	0.196	0.038
-494.566	-14.462	0.204	-0.130
-493.551	-91.016	0.161	-0.046
-492.537	-68.960	-0.342	-0.131
-491.522	-89.079	-0.143	0.042
-490.508	-86.588	0.199	-0.061
-489.493	800.000	0.058	0.252
-488.478	224.766	-0.146	-0.233
-487.464	277.614	0.183	-0.323
-486.449	-75.636	-0.165	0.058
-485.435	-16.937	0.155	-0.097
-484.420	79.809	0.117	-0.124
-483.405	-24.258	-0.228	0.135
-482.391	-121.663	-0.178	0.029
-481.376	-70.838	-0.037	-0.014
-480.362	-200.000	-0.105	-0.459
-479.347	347.837	-0.055	0.106
-478.332	46.121	-0.150	0.137
-477.318	3.339	0.112	-0.080
-476.303	-111.804	0.205	0.041
-475.289	800.000	-0.036	-0.109
-474.274	269.094	0.047	-0.082
-473.259	-125.612	0.318	0.048
-472.245	-4.551	0.220	-0.150
-471.230	-55.198	0.121	-0.054
-470.216	38.319	0.067	-0.059
-469.201	-152.726	-0.143	0.010
-468.186	35.386	-0.186	-0.162
-467.172	-200.000	0.035	-0.173
-466.157	800.000	0.096	0.334
-465.143	-200.000	-0.026	0.382
-464.128	-200.000	0.006	-0.249
-463.113	312.795	0.058	0.109
-462.099	67.030	0.386	0.390
-461.084	114.024	-0.244	-0.294
-460.070	126.986	0.258	0.324
-459.055	225.654	-0.061	-0.098
-458.040	-85.507	0.198	-0.061
-457.026	16.534	0.017	0.014
-456.011	-200.000	-0.001	-0.279
-454.997	-111.153	0.374	-0.076
-453.982	-74.952	-0.418	-0.148
-452.968	-87.661	0.176	-0.053
-451.953	-73.775	0.022	-0.008
-450.938	52.462	-0.206	0.195
-449.924	-68.034	0.298	0.115
-448.909	125.092	-0.079	-0.098
-447.895	800.000	0.071	0.245
-446.880	1.076	-0.076	-0.054
-445.865	160.524	-0.099	-0.137
-444.851	800.000	-0.127	-0.438
-443.836	525.323	0.014	-0.033
-442.822	149.705	-0.090	-0.120
-441.807	800.000	-0.072	0.238
-440.792	108.637	-0.138	0.163
-439.778	-132.992	0.257	0.032
-438.763	-135.491	0.273	-0.032
-437.749	-134.172	-0.194	-0.024
-436.734	364.073	-0.035	0.070
-435.719	16.995	-0.053	-0.041
-434.705	-43.124	0.249	0.125
-433.690	-170.214	-0.069	0.002
-432.676	8.057	0.323	0.240
-431.661	588.412	0.033	0.080
-430.646	800.000	0.043	-0.183
-429.632	333.063	-0.048	-0.091
-428.617	-3.128	-0.348	0.240
-427.603	259.514	-0.078	0.133
-426.588	-104.779	0.404	0.092
-425.573	60.453	0.259	-0.254
-424.559	248.586	0.156	0.261
-423.544	800.000	0.098	-0.295
-422.530	-75.105	-0.154	-0.054
-421.515	677.974	-0.074	0.191
-420.500	-51.277	0.202	0.093
-419.486	-157.256	-0.323	0.019
-418.471	-83.141	-0.424	0.135
-417.457	-27.507	-0.256	0.147
-416.442	-65.961	-0.066	0.026
-415.428	-108.387	-0.454	-0.097
-414.413	-200.000	0.067	0.401
-413.398	-39.640	-0.153	0.079
-412.384	-76.247	0.191	0.066
-411.369	54.394	-0.108	0.103
-410.355	9.706	0.358	0.268
-409.340	800.000	0.056	0.153
-408.325	30.785	-0.163	-0.138
-407.311	-200.000	-0.003	-0.565
-406.296	25.450	-0.203	-0.167
-405.282	609.441	0.094	-0.232
-404.267	82.212	-0.083	-0.089
-403.252	-50.483	-0.382	-0.178
-402.238	-36.237	-0.344	-0.183
-401.223	116.103	-0.164	0.199
-400.209	-200.000	-0.042	0.207
-399.194	-200.000	0.101	0.485
-398.179	-189.652	0.288	0.003
-397.165	-84.835	-0.094	0.029
-396.150	-173.470	0.414	0.012
-395.136	206.740	-0.112	0.172
-394.121	88.545	-0.009	-0.010
-393.106	-49.842	-0.134	-0.063
-392.092	732.630	0.204	0.539
-391.077	49.747	0.229	0.213
-390.063	-44.501	0.395	0.195
-389.048	202.326	-0.139	-0.212
-388.033	-200.000	0.006	-0.289
-387.019	-59.328	0.258	-0.110
-386.004	800.000	-0.069	-0.217
-384.990	65.006	-0.093	-0.093
-383.975	-200.000	0.043	0.316
-382.960	-200.000	0.008	-0.266
-381.946	-95.951	-0.329	0.087
-380.931	800.000	0.120	0.421
-379.917	498.685	-0.050	-0.114
-378.902	-38.387	0.082	0.043
-377.888	-200.000	-0.029	-0.166
-376.873	-34.205	-0.161	-0.087
-375.858	-200.000	-0.022	0.117
-374.844	531.720	-0.057	-0.133
-373.829	10.832	-0.060	0.045
-372.815	78.642	0.056	-0.059
-371.800	-200.000	0.011	0.305
-370.785	101.579	-0.057	0.066
-369.771	5.102	0.167	0.122
-368.756	800.000	-0.076	0.274
-367.742	-96.931	0.282	0.073
-366.727	326.385	0.113	0.214
-365.712	-118.278	0.177	-0.031
-364.698	-200.000	0.023	-0.165
-363.683	12.473	-0.050	-0.038
-362.669	315.748	0.229	-0.426
-361.654	177.981	-0.012	0.017
-360.639	800.000	0.087	-0.301
-359.625	-162.437	0.158	-0.008
-358.610	-91.290	0.274	-0.077
-357.596	193.812	-0.314	0.469
-356.581	189.075	0.109	0.162
-355.566	4.482	-0.286	-0.207
-354.552	-34.529	-0.345	-0.186
-353.537	800.000	-0.068	0.249
-352.523	-200.000	-0.079	0.387
-351.508	-200.000	-0.033	-0.215
-350.493	-154.109	0.459	-0.031
-349.479	158.164	0.120	-0.164
-348.464	-75.122	-0.097	0.034
-347.450	79.574	0.192	0.203
-346.435	800.000	0.076	0.304
-345.420	38.017	0.157	0.137
-344.406	435.706	-0.147	-0.315
-343.391	-114.510	0.138	0.026
-342.377	-200.000	-0.066	-0.326
-341.362	-179.363	-0.089	0.002
-340.348	-200.000	0.040	0.188
-339.333	169.819	0.197	-0.277
-338.318	-200.000	-0.011	-0.083
-337.304	-200.000	0.007	-0.095
-336.289	539.027	-0.101	-0.236
-335.275	2.022	0.071	-0.051
-334.260	-46.835	-0.107	-0.051
-333.245	-42.866	-0.231	-0.116
-332.231	-152.407	-0.114	0.008
-331.216	-200.000	0.033	-0.188
-330.202	253.686	0.178	-0.300
-329.187	151.013	0.072	-0.096
-328.172	76.693	-0.190	-0.199
-327.158	-200.000	0.016	-0.224
-326.143	800.000	-0.084	0.315
-325.129	-200.000	-0.013	-0.143
-324.114	-156.330	0.168	-0.010
-323.099	-63.922	-0.098	-0.039
-322.085	-42.223	0.133	0.067
-321.070	-79.676	-0.307	0.102
-320.056	800.000	-0.101	0.355
-319.041	-9.775	0.058	0.038
-318.026	-120.541	-0.441	0.074
-317.012	-200.000	0.033	0.200
-315.997	-200.000	0.060	0.292
-314.983	-43.417	-0.064	-0.032
-313.968	47.334	-0.215	0.197
-312.953	8.140	0.135	-0.100
-311.939	-31.899	-0.178	-0.098
-310.924	-200.000	0.019	-0.180
-309.910	-200.000	0.009	-0.049
-308.895	-55.908	-0.109	-0.048
-307.880	703.598	0.120	-0.311
-306.866	-25.498	-0.318	-0.185
-305.851	-30.749	0.262	-0.146
-304.837	800.000	-0.062	-0.186
-303.822	-50.635	0.046	-0.021
-302.807	-200.000	0.024	-0.255
-301.793	18.873	-0.041	-0.032
-300.778	-0.123	-0.324	0.227
-299.764	-200.000	0.039	-0.203
-298.749	-200.000	0.009	0.123
-297.735	-200.000	0.007	-0.277
-296.720	800.000	-0.026	-0.083
-295.705	-100.941	-0.323	-0.078
-294.691	296.891	0.166	-0.300
-293.676	-78.268	-0.095	-0.032
-292.662	-9.422	0.337	-0.221
-291.647	509.185	-0.063	-0.144
-290.632	491.417	0.108	0.243
-289.618	-200.000	0.006	-0.211
-288.603	-158.071	0.085	-0.005
-287.589	-200.000	-0.005	-0.088
-286.574	16.701	0.397	-0.309
-285.559	-95.701	-0.116	-0.030
-284.545	800.000	-0.143	0.432
-283.530	30.597	0.205	-0.172
-282.516	546.638	-0.049	0.116
-281.501	800.000	0.027	-0.085
-280.486	95.557	-0.084	0.094
-279.472	-148.651	-0.186	0.015
-278.457	-46.611	-0.273	-0.131
-277.443	273.702	-0.053	-0.091
-276.428	7.453	-0.024	0.018
-275.413	-169.054	-0.115	0.004
-274.399	-200.000	0.030	-0.275
-273.384	30.251	0.102	0.086
-272.370	800.000	-0.031	0.129
-271.355	-69.858	-0.342	0.128
-270.340	-124.666	-0.139	-0.021
-269.326	-93.871	-0.291	-0.079
-268.311	-81.222	-0.344	-0.112
-267.297	800.000	-0.054	-0.228
-266.282	-106.154	-0.216	0.048
-265.267	-104.697	-0.123	-0.028
-264.253	-12.911	0.149	0.095
-263.238	-129.412	0.143	-0.020
-262.224	54.936	-0.368	-0.349
-261.209	-86.643	0.210	-0.063
-260.195	84.197	0.277	-0.297
-259.180	299.106	0.124	0.225
-258.165	-22.169	-0.084	-0.050
-257.151	-72.431	-0.068	0.025
-256.136	-129.000	0.177	0.024
-255.122	-103.228	0.324	-0.075
-254.107	-14.252	-0.159	-0.100
-253.092	82.619	0.292	-0.312
-252.078	-77.914	-0.043	-0.015
-251.063	130.542	0.154	0.194
-250.049	-62.250	-0.156	-0.064
-249.034	800.000	-0.150	0.425
-248.019	800.000	-0.046	-0.156
-247.005	-159.100	-0.279	0.015
-245.990	-200.000	-0.023	-0.187
-244.976	-132.876	-0.212	-0.027
-243.961	40.482	-0.170	0.151
-242.946	800.000	-0.035	0.099
-241.932	800.000	0.102	-0.319
-240.917	-200.000	0.006	0.054
-239.903	-33.376	-0.187	0.101
-238.888	23.807	0.398	-0.322
-237.873	-60.483	0.325	0.135
-236.859	-192.247	0.218	-0.002
-235.844	-26.046	0.259	0.149
-234.830	16.162	-0.197	-0.153
-233.815	-124.286	0.120	0.018
-232.800	-200.000	-0.041	-0.274
-231.786	-200.000	-0.016	-0.132
-230.771	-85.602	0.164	0.050
-229.757	-150.375	-0.250	-0.019
-228.742	-200.000	0.015	0.327
-227.727	158.819	0.198	-0.270
-226.713	296.023	-0.033	0.059
-225.698	173.497	0.088	0.124
-224.684	-7.756	-0.042	0.028
-223.669	800.000	0.063	-0.176
-222.655	800.000	0.107	0.427
-221.640	584.583	-0.187	0.452
-220.625	-139.379	-0.038	-0.004
-219.611	450.549	-0.024	-0.052
-218.596	108.105	0.101	0.118
-217.582	182.884	-0.227	0.328
-216.567	800.000	0.023	0.071
-215.552	-61.511	0.185	0.076
-214.538	800.000	-0.006	0.021
-213.523	-116.528	-0.202	-0.037
-212.509	-200.000	-0.025	0.354
-211.494	-144.505	-0.108	0.010
-210.479	320.592	0.132	0.246
-209.465	346.018	-0.016	0.030
-208.450	-200.000	-0.011	-0.142
-207.436	800.000	-0.038	0.110
-206.421	176.205	0.099	-0.141
-205.406	130.883	0.045	0.056
-204.392	626.855	-0.094	0.232
-203.377	370.471	-0.039	0.077
-202.363	-24.097	-0.120	-0.070
-201.348	800.000	-0.051	-0.192
-200.333	3.402	0.255	0.182
-199.319	-200.000	-0.037	-0.282
-198.304	215.416	0.062	-0.097
-197.290	-75.720	-0.148	-0.051
-196.275	343.267	-0.074	0.141
-195.260	341.183	0.011	-0.021
-194.246	800.000	0.067	0.248
-193.231	-132.540	0.221	-0.028
-192.217	-143.506	-0.321	-0.030
-191.202	94.717	0.160	0.178
-190.187	-71.849	-0.313	-0.114
-189.173	-48.465	0.287	0.135
-188.158	13.824	0.201	-0.153
-187.144	-200.000	0.016	-0.124
-186.129	146.041	-0.030	0.040
-185.114	-200.000	-0.048	0.285
-184.100	79.978	-0.078	0.082
-183.085	20.216	-0.091	0.072
-182.071	79.536	-0.050	-0.052
-181.056	-151.062	-0.107	0.008
-180.042	22.245	-0.157	0.125
-179.027	-80.191	-0.250	-0.082
-178.012	800.000	0.097	0.337
-176.998	348.310	-0.065	-0.126
-175.983	86.354	-0.236	-0.255
-174.969	-55.614	-0.124	-0.054
-173.954	-200.000	0.002	0.207
-172.939	-71.422	-0.272	-0.100
-171.925	200.703	0.122	-0.183
-170.910	51.513	-0.208	0.194
-169.896	800.000	-0.051	0.193
-168.881	324.581	0.098	0.183
-167.866	-200.000	0.010	0.343
-166.852	-181.003	-0.453	0.009
-165.837	193.463	-0.171	-0.253
-164.823	-39.198	-0.253	-0.130
-163.808	137.471	0.096	0.123
-162.793	-24.568	0.112	-0.065
-161.779	133.948	0.205	-0.260
-160.764	27.932	0.255	-0.210
-159.750	-80.393	0.369	-0.120
-158.735	-200.000	-0.008	0.037
-157.720	16.780	-0.088	0.068
-156.706	320.897	0.062	0.116
-155.691	-58.847	-0.230	0.097
-154.677	-200.000	-0.011	-0.104
-153.662	-87.701	0.065	-0.019
-152.647	473.299	0.030	-0.065
-151.633	-87.244	0.349	0.104
-150.618	62.059	0.164	-0.160
-149.604	-116.891	-0.095	0.017
-148.589	800.000	-0.032	-0.107
-147.574	100.296	0.120	-0.136
-146.560	-72.793	-0.310	0.112
-145.545	-8.417	-0.308	-0.202
-144.531	800.000	0.045	-0.139
-143.516	800.000	0.066	0.282
-142.502	-27.036	-0.349	0.199
-141.487	-86.879	0.319	-0.095
-140.472	-121.213	0.424	-0.069
-139.458	-82.600	-0.098	0.031
-138.443	94.109	0.070	0.078
-137.429	-153.252	-0.035	0.002
-136.414	255.454	0.140	-0.234
-135.399	800.000	-0.055	0.172
-134.385	-37.087	-0.098	0.051
-133.370	19.964	0.148	0.117
-132.356	52.904	0.308	0.288
-131.341	-160.874	-0.189	-0.010
-130.326	-107.687	0.341	0.073
-129.312	-91.239	0.264	-0.074
-128.297	-53.889	0.130	-0.058
-127.283	543.020	0.179	-0.418
-126.268	215.740	0.113	0.176
-125.253	246.060	-0.137	-0.226
-124.239	800.000	-0.028	-0.088
-123.224	800.000	0.074	-0.267
-122.210	384.707	-0.177	0.356
-121.195	586.558	-0.091	0.219
