DTS Sentinel unit serial number:	SN413079Multiplexer serial number:	ORYXHardware model number:	OX4-SRSoftware version number:	ORYX F/W v4.00 Oryx Data Collector v3.7.2.0data status	okinstallation	princeton_trtdifferential loss correction	single-endedforward channel	channel 3reverse channel	N/Adate	2019/09/14time	15:00:35forward acquisition time	60.00reverse acquisition time	0.00gamma	496.2192k internal	0.2293k external	0.2293temperature offset calibration	1.0055default loss term (dB/km)	0.3790temperature slope calibration	1.0000multiplexer offset coefficient	1.0000multiplexer slope coefficient	1.0000fibre end	0.00T internal ref (°C)	39.06T ext. ref 1 (°C)	5.05T ext. ref 2 (°C)	34.96length (m)	temperature (°C)	Stokes	anti-Stokes-747.200	-152.205	0.259	-0.019
-746.185	218.454	-0.341	0.558
-745.171	-90.093	-0.127	0.038
-744.156	215.766	-0.128	0.208
-743.142	-115.247	0.074	-0.014
-742.127	-200.000	-0.032	0.231
-741.112	-200.000	0.076	0.366
-740.098	800.000	0.121	0.411
-739.083	-185.419	-0.326	-0.005
-738.069	-200.000	0.082	0.642
-737.054	-48.201	0.306	0.151
-736.039	-21.513	0.154	0.096
-735.025	-200.000	-0.016	0.335
-734.010	-78.132	-0.202	-0.071
-732.996	677.551	0.010	-0.026
-731.981	-116.100	-0.275	-0.052
-730.966	-36.461	-0.441	0.243
-729.952	800.000	0.077	0.237
-728.937	121.488	-0.127	-0.162
-727.923	414.127	-0.071	0.154
-726.908	-200.000	0.018	-0.137
-725.894	-94.385	-0.114	0.032
-724.879	-109.062	0.345	0.075
-723.864	-200.000	-0.015	0.163
-722.850	271.014	-0.121	0.217
-721.835	36.855	0.211	-0.191
-720.821	-54.386	-0.104	0.048
-719.806	-6.714	-0.365	0.254
-718.791	800.000	0.107	-0.438
-717.777	-200.000	-0.067	0.000
-716.762	77.327	0.248	-0.270
-715.748	-95.402	0.148	-0.041
-714.733	59.258	0.174	0.175
-713.718	-82.725	-0.249	-0.082
-712.704	124.471	-0.229	-0.294
-711.689	-173.759	0.094	-0.003
-710.675	112.365	-0.181	-0.224
-709.660	119.271	-0.105	0.133
-708.645	33.254	-0.183	-0.162
-707.631	87.615	0.128	-0.145
-706.616	-200.000	-0.007	0.216
-705.602	-200.000	-0.054	0.315
-704.587	800.000	0.010	-0.041
-703.572	434.753	-0.075	-0.166
-702.558	7.006	0.150	0.114
-701.543	34.648	0.181	-0.162
-700.529	-184.244	0.180	-0.003
-699.514	-94.817	-0.353	0.098
-698.499	1.129	0.128	0.094
-697.485	-99.751	-0.074	0.019
-696.470	82.211	-0.085	0.094
-695.456	-98.723	-0.109	-0.028
-694.441	800.000	-0.112	-0.386
-693.426	-103.076	-0.041	-0.010
-692.412	-200.000	0.125	-0.000
-691.397	-98.856	0.284	-0.074
-690.383	-28.286	-0.173	0.102
-689.368	58.501	0.104	-0.105
-688.354	286.990	0.103	-0.190
-687.339	-16.785	0.278	0.180
-686.324	47.261	-0.131	0.125
-685.310	-126.990	-0.109	0.016
-684.295	90.473	0.092	0.105
-683.281	384.218	-0.144	0.302
-682.266	63.087	-0.255	0.261
-681.251	-200.000	-0.017	0.093
-680.237	2.002	0.192	0.142
-679.222	743.534	0.039	0.108
-678.208	565.820	-0.157	0.389
-677.193	-121.482	-0.223	0.038
-676.178	-185.446	-0.215	0.003
-675.164	-0.389	-0.223	-0.161
-674.149	-59.450	-0.097	-0.043
-673.135	-29.303	-0.188	-0.110
-672.120	112.378	0.096	0.118
-671.105	508.205	-0.054	0.127
-670.091	16.720	0.068	0.055
-669.076	-131.372	0.094	0.013
-668.062	286.171	0.126	-0.231
-667.047	5.228	-0.139	0.104
-666.032	-109.607	-0.101	0.022
-665.018	17.574	-0.048	-0.039
-664.003	527.329	-0.060	0.144
-662.989	800.000	0.083	-0.252
-661.974	-43.269	0.332	0.172
-660.959	-142.020	0.049	0.005
-659.945	-200.000	-0.017	-0.189
-658.930	356.991	0.161	0.327
-657.916	449.901	-0.115	-0.259
-656.901	800.000	-0.100	0.287
-655.886	52.843	-0.118	-0.115
-654.872	-100.070	-0.133	0.034
-653.857	-64.347	0.248	-0.103
-652.843	-52.185	0.020	0.010
-651.828	-200.000	0.037	-0.430
-650.814	-44.961	0.353	-0.179
-649.799	-21.287	-0.036	-0.022
-648.784	800.000	-0.039	0.122
-647.770	796.043	0.070	-0.197
-646.755	254.665	0.051	-0.090
-645.741	212.786	-0.012	-0.019
-644.726	85.280	-0.259	-0.290
-643.711	-29.469	-0.380	-0.221
-642.697	-79.976	-0.316	-0.108
-641.682	237.809	0.161	0.273
-640.668	-200.000	0.053	0.240
-639.653	29.714	0.172	0.149
-638.638	-17.280	-0.078	-0.050
-637.624	-100.070	-0.392	-0.100
-636.609	55.152	0.035	-0.034
-635.595	103.982	0.261	-0.313
-634.580	295.915	0.125	-0.234
-633.565	55.882	0.094	-0.093
-632.551	-40.253	-0.346	-0.183
-631.536	-6.282	-0.176	0.122
-630.522	-200.000	0.023	-0.113
-629.507	-128.577	-0.288	-0.042
-628.492	294.935	-0.049	0.091
-627.478	-70.400	0.279	-0.108
-626.463	271.669	0.163	-0.292
-625.449	-200.000	0.057	0.275
-624.434	-89.576	0.496	-0.148
-623.419	-200.000	0.019	0.094
-622.405	-200.000	-0.062	0.300
-621.390	775.756	0.133	0.371
-620.376	-200.000	0.038	0.260
-619.361	800.000	0.062	-0.241
-618.346	-89.912	0.241	-0.072
-617.332	-80.551	-0.190	0.064
-616.317	-51.202	-0.296	0.141
-615.303	319.271	0.037	0.071
-614.288	-92.661	-0.019	-0.005
-613.273	150.855	0.210	-0.291
-612.259	-123.184	-0.092	-0.015
-611.244	800.000	0.039	0.150
-610.230	-200.000	-0.073	-0.341
-609.215	-200.000	-0.054	-0.298
-608.201	150.082	0.168	0.232
-607.186	800.000	0.022	0.080
-606.171	-47.272	-0.269	-0.133
-605.157	-19.356	-0.213	-0.135
-604.142	104.527	0.212	0.254
-603.128	-81.688	-0.172	-0.058
-602.113	-67.369	-0.336	-0.134
-601.098	148.622	0.184	-0.253
-600.084	-166.026	0.316	-0.014
-599.069	-200.000	0.054	-0.337
-598.055	-153.397	0.282	-0.020
-597.040	-15.518	-0.372	0.242
-596.025	-75.116	-0.243	-0.088
-595.011	-64.870	-0.154	0.064
-593.996	-176.166	-0.302	-0.008
-592.982	-28.545	0.129	0.075
-591.967	-21.695	-0.526	-0.326
-590.952	163.609	-0.119	-0.170
-589.938	-14.864	0.294	0.192
-588.923	-200.000	0.002	-0.080
-587.909	17.839	-0.084	0.068
-586.894	-88.277	-0.245	-0.075
-585.879	130.554	-0.069	0.090
-584.865	793.664	0.107	-0.300
-583.850	-107.371	0.356	-0.080
-582.836	-200.000	0.035	0.159
-581.821	13.874	-0.326	0.258
-580.806	-3.538	-0.078	0.055
-579.792	104.155	-0.069	-0.083
-578.777	-36.187	-0.143	-0.078
-577.763	-200.000	-0.044	-0.290
-576.748	-118.308	-0.147	-0.027
-575.733	22.903	0.273	-0.228
-574.719	-164.536	0.268	-0.012
-573.704	631.136	-0.022	0.056
-572.690	58.533	-0.221	0.220
-571.675	-67.127	0.253	0.101
-570.661	5.735	0.159	0.119
-569.646	-12.176	0.145	0.097
-568.631	-200.000	0.018	0.296
-567.617	329.822	-0.154	-0.300
-566.602	-200.000	0.084	-0.378
-565.588	-200.000	-0.001	0.023
-564.573	-63.819	0.206	-0.086
-563.558	177.118	-0.198	-0.292
-562.544	800.000	0.028	-0.090
-561.529	416.490	0.032	0.069
-560.515	-200.000	-0.034	0.152
-559.500	-9.186	-0.112	0.076
-558.485	-72.581	-0.073	-0.027
-557.471	-129.429	-0.256	0.036
-556.456	-139.063	0.251	0.028
-555.442	-200.000	-0.032	-0.364
-554.427	-200.000	-0.013	-0.105
-553.412	389.051	-0.041	-0.087
-552.398	32.784	-0.186	0.163
-551.383	237.733	0.077	0.129
-550.369	-200.000	-0.021	0.115
-549.354	-76.822	0.182	-0.065
-548.339	-200.000	-0.008	0.303
-547.325	506.775	-0.024	-0.057
-546.310	188.734	0.042	-0.063
-545.296	-40.437	0.164	-0.087
-544.281	115.612	-0.034	0.042
-543.266	127.509	-0.138	0.178
-542.252	-78.832	0.124	0.043
-541.237	800.000	-0.037	0.147
-540.223	53.094	-0.103	0.100
-539.208	-121.698	0.284	-0.048
-538.193	-26.973	-0.420	-0.249
-537.179	94.030	0.212	-0.244
-536.164	413.808	-0.211	-0.457
-535.150	-89.160	-0.036	0.011
-534.135	-8.782	-0.063	0.043
-533.121	10.119	-0.201	-0.155
-532.106	17.982	-0.132	-0.107
-531.091	-22.537	-0.122	-0.075
-530.077	-200.000	-0.066	0.360
-529.062	-139.709	-0.259	-0.028
-528.048	303.236	-0.097	-0.183
-527.033	-200.000	-0.025	-0.148
-526.018	620.145	0.114	-0.291
-525.004	218.365	-0.054	-0.087
-523.989	-49.677	0.265	-0.128
-522.975	20.974	-0.034	0.028
-521.960	-114.216	-0.251	-0.049
-520.945	-53.156	0.405	-0.189
-519.931	-11.721	0.058	-0.039
-518.916	-54.790	0.016	-0.007
-517.902	-111.619	0.131	-0.027
-516.887	-81.581	-0.105	0.035
-515.872	-134.892	0.140	-0.017
-514.858	800.000	-0.024	0.086
-513.843	-89.186	0.280	-0.084
-512.829	800.000	0.027	0.106
-511.814	-158.879	0.104	-0.006
-510.799	-78.319	0.187	0.065
-509.785	800.000	0.043	0.140
-508.770	-155.326	0.102	-0.007
-507.756	-46.683	-0.248	-0.123
-506.741	800.000	-0.060	0.219
-505.726	-70.312	-0.319	-0.123
-504.712	296.253	-0.033	-0.061
-503.697	-62.669	-0.096	0.040
-502.683	-36.274	0.176	-0.096
-501.668	286.285	0.030	0.055
-500.653	-163.202	0.231	0.011
-499.639	-200.000	0.023	0.129
-498.624	-165.982	-0.263	0.011
-497.610	141.683	0.235	0.315
-496.595	185.750	-0.147	0.221
-495.581	228.125	-0.070	0.115
-494.566	-200.000	0.026	0.345
-493.551	500.929	-0.099	-0.232
-492.537	-148.892	-0.190	0.016
-491.522	-14.369	-0.211	0.137
-490.508	-200.000	-0.003	-0.255
-489.493	800.000	0.056	-0.194
-488.478	-102.030	-0.295	0.072
-487.464	-17.028	0.071	-0.045
-486.449	315.301	-0.056	0.106
-485.435	-75.423	-0.313	0.113
-484.420	-77.063	0.156	-0.055
-483.405	-131.866	0.218	0.029
-482.391	-15.294	-0.012	-0.008
-481.376	-53.038	0.223	-0.104
-480.362	-158.257	0.245	-0.014
-479.347	-178.703	-0.195	-0.005
-478.332	-85.146	-0.115	-0.036
-477.318	-27.293	0.025	0.015
-476.303	-57.549	0.279	0.124
-475.289	93.765	0.163	-0.187
-474.274	800.000	0.020	0.065
-473.259	-137.608	-0.278	-0.032
-472.245	45.340	0.194	0.181
-471.230	-200.000	-0.017	0.098
-470.216	271.111	-0.044	-0.079
-469.201	-136.280	0.219	-0.026
-468.186	521.617	0.101	-0.239
-467.172	-200.000	0.081	0.390
-466.157	800.000	-0.027	0.079
-465.143	-200.000	-0.017	0.187
-464.128	132.312	0.209	-0.272
-463.113	-169.415	-0.282	-0.010
-462.099	-200.000	0.009	0.318
-461.084	284.173	0.139	-0.254
-460.070	-200.000	-0.010	0.304
-459.055	800.000	-0.061	0.197
-458.040	233.644	0.083	0.139
-457.026	-40.216	0.231	0.122
-456.011	-155.425	-0.359	-0.024
-454.997	81.599	0.144	-0.157
-453.982	-95.854	-0.226	-0.061
-452.968	-194.580	0.285	-0.002
-451.953	60.366	-0.140	-0.140
-450.938	632.715	-0.087	-0.222
-449.924	31.682	-0.090	0.078
-448.909	-96.444	-0.290	-0.078
-447.895	-171.885	0.084	0.003
-446.880	-79.404	0.161	0.055
-445.865	81.400	-0.107	-0.117
-444.851	-200.000	0.028	-0.267
-443.836	55.811	0.209	-0.205
-442.822	-81.333	0.090	-0.030
-441.807	-64.636	-0.129	0.053
-440.792	199.353	0.061	0.095
-439.778	69.130	0.133	-0.139
-438.763	-95.531	-0.200	-0.054
-437.749	-200.000	-0.010	-0.096
-436.734	-200.000	-0.073	0.327
-435.719	-87.865	-0.313	-0.095
-434.705	765.171	0.116	-0.318
-433.690	586.988	0.131	-0.326
-432.676	-200.000	0.019	0.190
-431.661	148.994	0.251	-0.343
-430.646	-200.000	0.008	-0.150
-429.632	800.000	0.026	0.095
-428.617	257.460	0.201	0.350
-427.603	-200.000	-0.012	-0.065
-426.588	17.533	-0.106	-0.085
-425.573	-200.000	-0.008	-0.251
-424.559	80.039	0.164	-0.178
-423.544	-142.054	0.281	-0.028
-422.530	-55.592	0.036	-0.016
-421.515	14.346	-0.297	0.234
-420.500	513.383	-0.116	-0.274
-419.486	57.070	0.121	0.120
-418.471	-200.000	-0.033	-0.209
-417.457	-91.731	-0.206	0.059
-416.442	181.591	-0.011	0.016
-415.428	558.756	-0.054	0.133
-414.413	128.831	0.080	0.103
-413.398	-137.647	0.120	0.014
-412.384	-27.953	-0.237	-0.139
-411.369	-83.202	-0.162	-0.052
-410.355	-52.191	-0.061	0.028
-409.340	549.801	0.072	0.173
-408.325	-33.283	-0.187	-0.105
-407.311	800.000	-0.032	0.131
-406.296	2.211	-0.260	-0.190
-405.282	1.999	0.370	-0.269
-404.267	-123.570	0.265	0.042
-403.252	-17.600	0.139	-0.088
-402.238	1.919	0.031	-0.023
-401.223	800.000	0.027	-0.115
-400.209	10.316	0.044	-0.034
-399.194	-73.135	-0.231	0.086
-398.179	-15.426	-0.068	-0.044
-397.165	-43.484	0.294	-0.150
-396.150	-97.510	-0.261	0.069
-395.136	22.812	0.136	-0.113
-394.121	-27.728	-0.627	0.367
-393.106	162.850	-0.070	-0.099
-392.092	109.608	0.259	0.314
-391.077	27.264	-0.121	0.102
-390.063	-174.746	0.090	-0.003
-389.048	-112.416	0.230	-0.046
-388.033	-7.313	0.124	0.085
-387.019	-155.836	0.160	-0.010
-386.004	-112.807	0.144	0.029
-384.990	-13.782	0.090	0.059
-383.975	-37.797	-0.286	-0.153
-382.960	-71.534	-0.322	-0.122
-381.946	33.235	-0.151	0.132
-380.931	-137.807	0.033	-0.004
-379.917	-52.548	0.050	0.023
-378.902	-200.000	0.019	-0.140
-377.888	77.907	-0.377	-0.406
-376.873	-109.751	0.339	-0.072
-375.858	-10.195	0.217	0.145
-374.844	-4.868	0.248	0.172
-373.829	85.054	0.283	-0.312
-372.815	-46.925	-0.276	-0.136
-371.800	-123.219	0.121	-0.020
-370.785	-154.231	-0.023	0.002
-369.771	-38.598	-0.072	-0.038
-368.756	-63.611	-0.313	0.129
-367.742	221.264	-0.022	0.036
-366.727	161.689	-0.132	0.186
-365.712	-77.219	0.406	0.143
-364.698	35.637	0.290	0.257
-363.683	44.480	0.186	-0.173
-362.669	-41.205	0.288	-0.150
-361.654	-200.000	-0.035	-0.170
-360.639	-127.449	0.178	0.026
-359.625	-83.684	-0.151	-0.048
-358.610	-16.126	0.213	-0.136
-357.596	16.004	-0.118	0.094
-356.581	-200.000	0.005	0.195
-355.566	-85.346	0.251	-0.079
-354.552	-65.808	0.214	0.086
-353.537	370.778	-0.040	0.081
-352.523	-200.000	0.070	0.364
-351.508	152.102	-0.146	0.200
-350.493	12.521	0.075	0.059
-349.479	-28.654	0.276	-0.160
-348.464	-157.879	0.399	-0.024
-347.450	-15.688	0.176	-0.113
-346.435	394.114	-0.080	-0.167
-345.420	-200.000	-0.006	0.048
-344.406	18.159	0.353	0.283
-343.391	166.093	-0.081	-0.115
-342.377	-136.634	0.086	-0.010
-341.362	-200.000	-0.016	0.110
-340.348	3.572	-0.272	-0.200
-339.333	-67.710	-0.201	0.079
-338.318	-42.868	-0.399	0.204
-337.304	230.444	0.133	0.220
-336.289	-143.221	-0.156	0.015
-335.275	-39.026	0.017	-0.009
-334.260	800.000	0.047	0.135
-333.245	91.538	-0.190	0.215
-332.231	-200.000	-0.003	0.172
-331.216	-74.872	-0.171	-0.062
-330.202	33.270	0.185	0.161
-329.187	-200.000	-0.026	-0.132
-328.172	-19.503	-0.280	0.175
-327.158	-129.832	-0.174	-0.024
-326.143	-104.138	-0.110	-0.026
-325.129	-200.000	-0.032	0.220
-324.114	-20.633	-0.223	-0.138
-323.099	47.773	0.222	0.209
-322.085	-139.223	-0.078	-0.009
-321.070	-98.904	-0.292	-0.075
-320.056	-103.986	-0.127	0.030
-319.041	-121.617	-0.203	-0.034
-318.026	-0.556	-0.241	-0.172
-317.012	-92.308	-0.028	0.008
-315.997	718.153	-0.027	-0.073
-314.983	-200.000	0.023	-0.144
-313.968	185.750	-0.096	0.144
-312.953	-134.470	-0.237	-0.029
-311.939	800.000	-0.055	0.210
-310.924	-65.425	-0.369	-0.149
-309.910	41.286	-0.226	0.206
-308.895	-200.000	0.002	0.101
-307.880	-12.765	0.194	-0.127
-306.866	-139.122	0.162	-0.018
-305.851	-200.000	-0.040	0.222
-304.837	-200.000	0.009	0.246
-303.822	66.258	-0.195	-0.199
-302.807	60.623	-0.240	-0.239
-301.793	15.817	-0.162	-0.128
-300.778	-57.074	0.080	0.035
-299.764	555.779	-0.123	-0.297
-298.749	-14.838	0.269	0.174
-297.735	269.229	0.025	0.045
-296.720	-142.395	0.175	-0.017
-295.705	66.183	-0.194	-0.198
-294.691	-169.244	-0.122	0.005
-293.676	312.551	0.171	0.323
-292.662	448.997	-0.108	0.239
-291.647	-69.313	0.131	0.050
-290.632	-159.114	0.428	0.024
-289.618	-200.000	0.072	0.320
-288.603	-200.000	-0.007	0.244
-287.589	-200.000	0.054	0.260
-286.574	-170.215	-0.056	-0.002
-285.559	-200.000	0.002	-0.072
-284.545	250.743	0.093	-0.159
-283.530	536.870	0.084	0.201
-282.516	-80.111	-0.370	-0.125
-281.501	-19.364	-0.190	-0.118
-280.486	457.552	-0.116	-0.258
-279.472	-164.461	-0.196	-0.009
-278.457	178.060	-0.123	-0.180
-277.443	-145.040	0.275	-0.025
-276.428	168.263	-0.144	0.206
-275.413	-200.000	0.013	0.251
-274.399	800.000	-0.035	-0.127
-273.384	-116.905	0.184	0.034
-272.370	-8.164	0.200	-0.135
-271.355	-100.545	0.112	0.028
-270.340	-40.801	0.389	0.202
-269.326	-134.000	0.413	0.051
-268.311	-92.798	0.235	0.066
-267.297	20.984	-0.133	0.109
-266.282	-118.189	0.413	-0.074
-265.267	-200.000	0.068	0.000
-264.253	-200.000	0.057	-0.350
-263.238	-56.457	-0.398	-0.177
-262.224	-18.786	0.197	0.123
-261.209	-100.474	-0.290	0.072
-260.195	800.000	-0.023	-0.089
-259.180	-46.225	0.178	0.088
-258.165	176.716	0.224	0.327
-257.151	55.942	0.137	0.134
-256.136	-200.000	0.009	0.179
-255.122	-27.660	-0.201	-0.117
-254.107	181.314	0.045	0.067
-253.092	-51.867	-0.096	-0.045
-252.078	-103.582	0.165	-0.039
-251.063	162.223	0.124	-0.174
-250.049	-200.000	0.006	0.398
-249.034	-54.025	-0.008	-0.004
-248.019	-39.476	-0.297	-0.156
-247.005	800.000	-0.042	-0.144
-245.990	-29.903	0.216	0.123
-244.976	-163.155	0.109	-0.005
-243.961	130.586	0.156	0.201
-242.946	352.377	-0.129	0.257
-241.932	31.401	0.220	-0.190
-240.917	8.633	-0.214	0.161
-239.903	258.651	-0.146	-0.252
-238.888	135.109	-0.257	0.335
-237.873	362.190	0.042	0.086
-236.859	287.745	0.079	0.144
-235.844	-82.184	-0.217	-0.071
-234.830	-141.872	-0.129	-0.013
-233.815	-42.217	-0.119	0.061
-232.800	2.080	0.175	0.127
-231.786	125.482	0.267	0.338
-230.771	-200.000	0.034	-0.222
-229.757	40.811	0.074	-0.067
-228.742	-39.570	-0.146	-0.077
-227.727	-20.917	-0.113	0.069
-226.713	95.578	-0.072	-0.083
-225.698	-200.000	-0.028	-0.138
-224.684	-136.750	0.188	-0.022
-223.669	78.473	-0.389	0.417
-222.655	81.444	-0.078	-0.085
-221.640	-200.000	0.075	0.464
-220.625	800.000	-0.150	-0.429
-219.611	121.292	0.199	0.248
-218.596	-18.671	0.293	0.183
-217.582	-96.810	-0.154	0.041
-216.567	-20.196	0.135	-0.083
-215.552	24.109	-0.192	0.159
-214.538	-17.041	-0.117	-0.074
-213.523	-196.622	0.146	0.001
-212.509	-122.684	0.327	0.053
-211.494	-200.000	0.038	-0.359
-210.479	800.000	0.025	-0.077
-209.465	-200.000	-0.033	-0.153
-208.450	800.000	0.067	-0.209
-207.436	-98.915	0.062	0.016
-206.421	-200.000	-0.008	-0.140
-205.406	590.930	0.052	0.129
-204.392	-87.963	-0.099	0.030
-203.377	-169.886	0.222	0.008
-202.363	-59.346	-0.101	-0.043
-201.348	-40.490	-0.126	0.065
-200.333	-152.837	0.137	-0.010
-199.319	617.331	-0.063	0.160
-198.304	-122.411	0.086	-0.014
-197.290	-200.000	0.093	0.436
-196.275	141.577	-0.084	0.111
-195.260	-142.898	-0.178	-0.017
-194.246	71.926	0.184	0.192
-193.231	94.282	0.157	0.178
-192.217	-200.000	0.008	0.176
-191.202	220.691	0.062	0.100
-190.187	166.748	0.003	-0.004
-189.173	-200.000	0.007	0.212
-188.158	-200.000	0.010	0.223
-187.144	800.000	0.055	0.191
-186.129	-167.115	-0.176	-0.007
-185.114	10.735	-0.052	-0.040
-184.100	-200.000	0.048	0.000
-183.085	195.599	-0.041	0.063
-182.071	-78.984	-0.301	0.103
-181.056	800.000	-0.078	-0.220
-180.042	-81.841	0.060	0.020
-179.027	156.795	0.034	-0.047
-178.012	-200.000	0.003	0.014
-176.998	201.927	0.137	0.211
-175.983	591.865	0.088	0.218
-174.969	24.340	-0.083	-0.069
-173.954	-22.974	0.307	0.185
-172.939	-200.000	0.025	0.176
-171.925	-200.000	0.041	-0.212
-170.910	-200.000	-0.015	-0.131
-169.896	-60.376	-0.215	0.091
-168.881	-200.000	-0.011	-0.472
-167.866	-200.000	0.003	0.049
-166.852	-200.000	0.011	-0.321
-165.837	291.077	0.257	-0.467
-164.823	800.000	0.111	-0.415
-163.808	177.357	-0.028	0.041
-162.793	-51.101	0.241	-0.113
-161.779	-128.575	0.116	-0.016
-160.764	-60.336	-0.179	-0.076
-159.750	74.075	-0.257	-0.270
-158.735	800.000	-0.067	0.238
-157.720	126.619	0.207	0.262
-156.706	83.765	0.269	0.293
-155.691	-83.815	-0.238	0.076
-154.677	26.628	0.073	0.061
-153.662	388.955	-0.019	-0.039
-152.647	338.856	0.202	-0.393
-151.633	501.555	0.038	0.087
-150.618	800.000	0.094	-0.397
-149.604	-58.790	0.337	-0.146
-148.589	800.000	-0.116	-0.321
-147.574	-135.562	-0.060	-0.007
-146.560	-200.000	0.038	-0.193
-145.545	256.231	-0.067	0.115
-144.531	-200.000	0.012	0.086
-143.516	-47.114	-0.184	0.090
-142.502	-200.000	-0.034	0.157
-141.487	-83.343	0.160	-0.051
-140.472	73.246	0.064	-0.067
-139.458	-200.000	0.032	0.301
-138.443	-200.000	0.018	0.359
-137.429	-73.568	-0.156	-0.057
-136.414	-127.267	-0.227	-0.033
-135.399	310.295	0.104	-0.194
-134.385	799.505	-0.057	-0.156
-133.370	-96.728	0.098	0.026
-132.356	-200.000	0.011	-0.269
-131.341	-80.042	0.357	-0.119
-130.326	-84.044	0.131	0.042
-129.312	-99.490	-0.169	-0.042
-128.297	-98.408	-0.227	0.058
-127.283	159.601	-0.246	-0.342
-126.268	-200.000	0.021	0.205
-125.253	-200.000	0.022	-0.111
-124.239	388.659	-0.064	-0.133
-123.224	-93.369	0.407	-0.113
-122.210	800.000	0.015	-0.057
