DTS Sentinel unit serial number:	SN413079Multiplexer serial number:	ORYXHardware model number:	OX4-SRSoftware version number:	ORYX F/W v4.00 Oryx Data Collector v3.7.2.0data status	okinstallation	princeton_trtdifferential loss correction	single-endedforward channel	channel 3reverse channel	N/Adate	2019/09/16time	01:00:35forward acquisition time	60.00reverse acquisition time	0.00gamma	496.2192k internal	0.2338k external	0.2338temperature offset calibration	0.9951default loss term (dB/km)	0.3790temperature slope calibration	1.0000multiplexer offset coefficient	1.0000multiplexer slope coefficient	1.0000fibre end	0.00T internal ref (°C)	27.31T ext. ref 1 (°C)	9.75T ext. ref 2 (°C)	21.34length (m)	temperature (°C)	Stokes	anti-Stokes-747.200	407.287	0.048	-0.102
-746.185	798.487	0.146	0.403
-745.171	20.465	-0.168	0.136
-744.156	-122.589	-0.140	0.023
-743.142	189.020	-0.169	-0.254
-742.127	53.657	-0.065	0.063
-741.112	-16.347	0.188	0.120
-740.098	299.638	-0.082	0.151
-739.083	-200.000	-0.002	0.050
-738.069	-200.000	0.039	0.216
-737.054	-136.030	-0.465	-0.055
-736.039	72.369	-0.058	0.061
-735.025	-200.000	0.013	-0.102
-734.010	-159.820	-0.501	0.028
-732.996	-200.000	0.003	-0.215
-731.981	-38.099	-0.274	-0.146
-730.966	56.052	0.182	0.177
-729.952	244.460	-0.169	0.285
-728.937	-200.000	-0.022	0.177
-727.923	18.786	0.169	-0.136
-726.908	-200.000	0.047	0.303
-725.894	472.808	0.118	-0.267
-724.879	-75.771	-0.238	-0.084
-723.864	141.442	0.091	0.121
-722.850	226.802	0.181	-0.295
-721.835	800.000	-0.011	0.034
-720.821	3.667	0.027	0.020
-719.806	760.894	0.062	-0.169
-718.791	-59.910	0.086	-0.037
-717.777	-200.000	-0.007	-0.084
-716.762	-147.048	0.167	0.014
-715.748	-6.127	-0.112	-0.076
-714.733	-25.542	-0.207	0.123
-713.718	-200.000	-0.023	0.186
-712.704	210.499	-0.112	-0.177
-711.689	269.182	0.084	-0.147
-710.675	377.957	0.041	0.084
-709.660	-64.964	-0.104	0.042
-708.645	69.041	0.166	0.171
-707.631	-26.361	-0.188	0.111
-706.616	-86.196	-0.521	0.161
-705.602	-200.000	-0.051	0.272
-704.587	-124.250	-0.110	-0.017
-703.572	-56.059	-0.139	0.062
-702.558	-74.265	-0.228	0.083
-701.543	800.000	0.052	-0.200
-700.529	532.587	-0.115	-0.274
-699.514	-200.000	-0.021	0.300
-698.499	129.952	-0.137	-0.176
-697.485	49.559	0.136	0.128
-696.470	133.943	0.051	0.066
-695.456	800.000	0.027	-0.089
-694.441	44.804	0.250	-0.231
-693.426	56.777	0.054	0.053
-692.412	31.991	-0.263	-0.227
-691.397	-51.150	0.399	-0.187
-690.383	-4.798	-0.263	-0.182
-689.368	-1.615	-0.088	-0.062
-688.354	351.534	0.085	-0.169
-687.339	19.508	0.194	0.156
-686.324	267.276	-0.131	0.229
-685.310	-120.210	0.111	0.019
-684.295	-139.609	-0.066	0.007
-683.281	-8.658	-0.188	-0.127
-682.266	10.766	0.044	0.034
-681.251	-60.633	0.174	0.074
-680.237	-158.668	0.152	-0.009
-679.222	80.900	-0.139	-0.151
-678.208	-200.000	0.022	-0.136
-677.193	745.446	-0.148	-0.398
-676.178	-138.763	-0.061	-0.007
-675.164	513.486	-0.115	-0.269
-674.149	-200.000	0.039	0.434
-673.135	51.388	-0.117	0.112
-672.120	227.154	0.065	0.106
-671.105	-73.166	-0.113	-0.041
-670.091	-143.978	-0.244	-0.023
-669.076	-189.147	-0.375	-0.004
-668.062	365.044	-0.045	-0.090
-667.047	466.946	-0.016	-0.037
-666.032	765.636	0.070	-0.189
-665.018	-200.000	0.002	-0.046
-664.003	-181.917	-0.049	0.001
-662.989	27.722	0.060	-0.051
-661.974	-151.539	0.220	-0.016
-660.959	-200.000	-0.011	-0.091
-659.945	536.170	-0.190	-0.450
-658.930	-166.141	0.280	-0.012
-657.916	800.000	-0.084	0.242
-656.901	271.498	0.177	-0.312
-655.886	-11.475	-0.415	0.273
-654.872	800.000	-0.108	-0.331
-653.857	-96.375	0.070	0.018
-652.843	-200.000	0.003	-0.090
-651.828	-16.974	-0.335	0.212
-650.814	453.412	0.045	-0.099
-649.799	6.662	0.172	0.128
-648.784	63.615	0.080	0.081
-647.770	-200.000	-0.001	0.114
-646.755	18.443	-0.123	-0.098
-645.741	-200.000	0.001	0.080
-644.726	-182.491	0.106	-0.002
-643.711	-134.335	-0.169	-0.021
-642.697	267.591	-0.128	0.223
-641.682	-139.519	0.139	0.015
-640.668	-98.910	-0.459	0.117
-639.653	248.564	-0.141	0.239
-638.638	-162.453	0.303	0.015
-637.624	59.644	-0.172	-0.169
-636.609	-200.000	-0.079	0.578
-635.595	-59.549	-0.487	-0.209
-634.580	-106.720	0.315	0.070
-633.565	84.532	-0.262	-0.286
-632.551	-58.861	0.522	-0.226
-631.536	-141.628	-0.333	0.033
-630.522	-111.078	0.131	-0.027
-629.507	139.429	0.319	-0.420
-628.492	800.000	-0.117	0.324
-627.478	-172.388	0.181	-0.006
-626.463	-96.803	-0.350	0.092
-625.449	86.253	-0.110	-0.121
-624.434	-93.099	-0.253	0.070
-623.419	162.352	0.108	0.151
-622.405	-86.773	0.159	-0.048
-621.390	-184.437	-0.149	0.002
-620.376	153.725	0.203	-0.278
-619.361	-85.042	0.063	0.020
-618.346	473.812	-0.040	0.090
-617.332	-200.000	0.056	0.261
-616.317	-95.282	-0.179	-0.048
-615.303	-59.688	0.160	-0.069
-614.288	-54.744	0.071	0.032
-613.273	-21.931	0.078	-0.047
-612.259	-127.070	-0.144	0.021
-611.244	16.902	-0.113	-0.089
-610.230	8.493	0.087	-0.065
-609.215	83.453	-0.083	0.090
-608.201	9.379	-0.178	-0.135
-607.186	782.505	0.103	-0.283
-606.171	-200.000	0.040	-0.269
-605.157	-110.872	-0.261	-0.054
-604.142	-122.182	-0.187	0.031
-603.128	262.602	-0.156	-0.270
-602.113	-149.837	-0.125	0.010
-601.098	800.000	-0.083	0.249
-600.084	-200.000	-0.099	-0.000
-599.069	287.132	0.017	0.030
-598.055	78.442	-0.092	0.098
-597.040	-78.568	-0.241	0.082
-596.025	243.154	-0.183	-0.307
-595.011	-60.912	0.081	0.034
-593.996	800.000	-0.090	0.361
-592.982	156.736	-0.108	-0.149
-591.967	190.755	-0.141	0.211
-590.952	257.230	-0.114	-0.196
-589.938	-100.499	0.072	0.018
-588.923	18.457	0.100	-0.080
-587.909	240.271	-0.103	0.171
-586.894	-200.000	-0.008	0.146
-585.879	-153.298	0.324	0.023
-584.865	724.918	-0.063	0.167
-583.850	267.008	0.098	0.171
-582.836	567.971	-0.107	0.259
-581.821	-184.465	0.101	-0.002
-580.806	31.210	-0.143	0.122
-579.792	-32.141	-0.326	0.181
-578.777	-200.000	0.004	0.160
-577.763	323.283	-0.177	-0.337
-576.748	-47.566	-0.204	0.099
-575.733	-144.306	-0.323	0.030
-574.719	800.000	0.053	0.155
-573.704	-80.063	-0.260	-0.087
-572.690	94.895	-0.121	-0.137
-571.675	-200.000	0.023	-0.267
-570.661	-119.143	0.134	-0.023
-569.646	91.268	-0.090	-0.101
-568.631	-200.000	0.051	-0.319
-567.617	-200.000	-0.023	0.113
-566.602	-59.106	-0.161	0.069
-565.588	434.833	0.099	0.215
-564.573	469.494	-0.135	-0.302
-563.558	102.903	-0.251	0.293
-562.544	-179.619	-0.060	-0.001
-561.529	-200.000	0.015	-0.409
-560.515	109.341	0.195	-0.233
-559.500	146.258	0.034	-0.045
-558.485	-7.322	0.215	0.145
-557.471	79.564	0.254	-0.272
-556.456	52.623	-0.340	0.324
-555.442	-7.106	-0.102	-0.069
-554.427	-200.000	0.027	-0.313
-553.412	275.260	0.056	-0.099
-552.398	5.347	-0.097	0.071
-551.383	-168.291	0.132	-0.005
-550.369	195.449	0.071	-0.107
-549.354	36.595	0.059	-0.052
-548.339	-148.352	0.193	0.016
-547.325	53.324	-0.394	-0.376
-546.310	-200.000	0.014	-0.127
-545.296	58.684	0.208	-0.203
-544.281	-25.127	0.363	-0.214
-543.266	687.137	-0.104	0.271
-542.252	-97.828	-0.314	0.081
-541.237	126.804	-0.045	-0.057
-540.223	93.315	0.072	0.081
-539.208	166.595	0.056	-0.079
-538.193	-200.000	0.015	0.137
-537.179	108.821	0.098	0.116
-536.164	-2.147	-0.081	-0.057
-535.150	129.993	0.217	0.277
-534.135	800.000	-0.005	0.018
-533.121	-3.745	-0.149	-0.103
-532.106	-116.059	-0.198	0.037
-531.091	-109.844	-0.132	-0.027
-530.077	13.319	0.342	-0.264
-529.062	-12.922	-0.064	0.041
-528.048	-200.000	0.015	0.241
-527.033	-88.512	-0.242	0.072
-526.018	-133.911	-0.431	-0.053
-525.004	-104.579	0.234	-0.054
-523.989	214.387	-0.148	0.233
-522.975	-136.470	-0.077	-0.009
-521.960	56.757	-0.255	0.247
-520.945	-200.000	-0.026	-0.206
-519.931	-79.017	-0.220	-0.075
-518.916	40.922	0.287	-0.258
-517.902	59.710	0.121	-0.119
-516.887	-97.835	0.354	-0.091
-515.872	110.360	0.127	0.152
-514.858	-86.338	-0.254	0.078
-513.843	800.000	-0.120	0.460
-512.829	-165.823	0.288	0.012
-511.814	-200.000	-0.027	-0.129
-510.799	75.167	-0.064	0.067
-509.785	253.931	-0.147	-0.250
-508.770	518.483	0.062	-0.145
-507.756	800.000	-0.048	0.154
-506.741	149.165	-0.144	-0.194
-505.726	-200.000	-0.004	-0.191
-504.712	-200.000	0.027	-0.309
-503.697	248.049	0.136	0.229
-502.683	-123.257	-0.140	-0.022
-501.668	504.485	-0.089	-0.204
-500.653	800.000	-0.044	-0.191
-499.639	156.674	-0.104	0.143
-498.624	153.387	-0.123	-0.168
-497.610	-138.706	0.088	0.010
-496.595	18.610	-0.353	0.281
-495.581	301.190	-0.015	0.028
-494.566	-8.959	0.161	-0.107
-493.551	460.057	0.062	-0.137
-492.537	267.573	0.094	0.164
-491.522	-200.000	-0.040	0.354
-490.508	-200.000	0.011	-0.063
-489.493	658.577	0.101	-0.259
-488.478	216.198	-0.123	-0.194
-487.464	-61.509	0.283	0.118
-486.449	800.000	0.040	0.150
-485.435	-200.000	-0.373	0.001
-484.420	138.391	0.044	-0.057
-483.405	-200.000	0.024	-0.178
-482.391	-42.735	-0.242	0.122
-481.376	227.899	0.091	0.147
-480.362	206.099	-0.241	-0.372
-479.347	-79.905	0.446	0.149
-478.332	800.000	-0.097	0.324
-477.318	99.520	-0.139	-0.160
-476.303	800.000	0.084	0.282
-475.289	-43.222	0.323	0.162
-474.274	44.002	-0.056	-0.051
-473.259	278.076	-0.152	-0.270
-472.245	81.530	-0.064	0.069
-471.230	12.143	-0.125	-0.095
-470.216	145.032	-0.033	0.044
-469.201	-72.221	0.198	-0.073
-468.186	182.259	0.130	-0.190
-467.172	302.078	0.130	0.238
-466.157	-150.077	0.250	-0.019
-465.143	-200.000	-0.015	0.120
-464.128	613.801	0.151	-0.375
-463.113	55.084	-0.161	-0.154
-462.099	800.000	-0.036	0.111
-461.084	-29.391	-0.178	-0.101
-460.070	-200.000	0.016	-0.154
-459.055	800.000	-0.171	0.589
-458.040	-42.557	-0.284	-0.144
-457.026	150.322	0.099	0.134
-456.011	-60.400	-0.329	0.139
-454.997	151.974	-0.134	0.181
-453.982	-28.584	0.180	-0.103
-452.968	-200.000	-0.004	-0.250
-451.953	12.105	-0.087	-0.066
-450.938	800.000	0.136	0.448
-449.924	-50.415	0.103	-0.048
-448.909	533.776	0.077	0.181
-447.895	800.000	-0.020	-0.083
-446.880	-18.858	0.299	0.185
-445.865	-14.883	0.236	0.150
-444.851	-200.000	-0.025	-0.111
-443.836	60.887	0.192	0.189
-442.822	-67.372	0.113	0.044
-441.807	212.884	-0.180	-0.282
-440.792	-200.000	0.025	-0.132
-439.778	-86.498	-0.107	-0.033
-438.763	-79.920	-0.078	0.026
-437.749	-200.000	-0.008	-0.061
-436.734	-0.213	0.274	-0.193
-435.719	497.330	-0.069	-0.158
-434.705	-200.000	0.034	-0.275
-433.690	187.714	-0.223	-0.331
-432.676	590.264	0.103	0.253
-431.661	-200.000	-0.048	-0.585
-430.646	-62.394	0.199	-0.082
-429.632	-173.502	0.079	0.002
-428.617	0.018	0.143	0.101
-427.603	93.398	-0.116	-0.130
-426.588	800.000	-0.067	0.280
-425.573	800.000	0.073	0.249
-424.559	-120.515	0.097	0.016
-423.544	150.942	0.343	-0.462
-422.530	57.866	0.114	-0.110
-421.515	337.781	0.040	-0.078
-420.500	-200.000	-0.032	0.140
-419.486	-181.071	0.037	0.001
-418.471	404.543	-0.262	-0.547
-417.457	-118.281	-0.133	0.023
-416.442	-4.853	-0.273	0.187
-415.428	800.000	0.032	0.126
-414.413	-200.000	-0.037	-0.388
-413.398	-33.076	0.068	0.037
-412.384	4.802	0.245	-0.179
-411.369	-59.770	0.179	-0.076
-410.355	-40.954	0.101	-0.052
-409.340	326.214	-0.095	0.180
-408.325	-2.152	-0.148	0.103
-407.311	-200.000	0.015	0.296
-406.296	152.041	-0.263	-0.356
-405.282	-18.279	-0.319	0.197
-404.267	741.780	0.085	-0.226
-403.252	-24.095	0.257	0.152
-402.238	-18.584	-0.324	-0.200
-401.223	-200.000	-0.018	0.089
-400.209	-2.081	-0.092	0.064
-399.194	128.703	-0.119	-0.150
-398.179	-176.640	0.402	-0.010
-397.165	6.721	-0.135	0.099
-396.150	19.791	-0.290	-0.231
-395.136	298.236	0.114	0.207
-394.121	178.918	-0.049	0.071
-393.106	800.000	0.083	-0.297
-392.092	-200.000	0.007	-0.164
-391.077	-200.000	-0.012	-0.310
-390.063	-112.731	0.191	0.037
-389.048	527.693	-0.125	-0.292
-388.033	-200.000	-0.003	-0.165
-387.019	-200.000	-0.027	0.225
-386.004	6.041	-0.334	-0.245
-384.990	-13.268	0.162	-0.104
-383.975	-21.943	0.085	0.051
-382.960	72.769	0.195	-0.202
-381.946	800.000	0.101	0.313
-380.931	-25.010	0.255	0.150
-379.917	-200.000	0.042	-0.213
-378.902	611.698	-0.079	0.195
-377.888	79.628	0.049	0.052
-376.873	-92.937	0.173	-0.048
-375.858	800.000	0.044	-0.170
-374.844	175.900	-0.076	0.110
-373.829	133.653	-0.280	-0.358
-372.815	-108.164	-0.214	0.046
-371.800	-103.999	0.087	0.020
-370.785	-200.000	-0.010	0.130
-369.771	-139.351	0.259	0.028
-368.756	-34.435	-0.089	-0.048
-367.742	7.233	-0.102	-0.076
-366.727	-42.599	-0.150	-0.076
-365.712	211.959	-0.160	0.249
-364.698	151.182	0.099	0.134
-363.683	-157.769	0.069	0.004
-362.669	-15.368	0.126	-0.080
-361.654	800.000	0.058	-0.189
-360.639	-145.894	-0.140	0.012
-359.625	-200.000	0.016	0.165
-358.610	18.859	0.119	0.094
-357.596	-200.000	0.005	0.127
-356.581	-200.000	0.065	-0.420
-355.566	172.213	-0.128	0.182
-354.552	46.954	0.130	-0.119
-353.537	-70.981	0.031	-0.012
-352.523	-107.624	0.369	-0.080
-351.508	35.757	-0.259	0.225
-350.493	-200.000	-0.007	0.133
-349.479	516.281	0.010	0.024
-348.464	-91.099	0.222	0.063
-347.450	-200.000	-0.016	0.222
-346.435	-107.939	-0.284	-0.061
-345.420	198.740	-0.018	-0.027
-344.406	162.457	0.088	0.122
-343.391	61.332	0.083	-0.082
-342.377	641.797	0.056	0.140
-341.362	800.000	-0.049	0.199
-340.348	46.309	-0.229	0.210
-339.333	800.000	-0.088	0.274
-338.318	-103.455	-0.128	0.030
-337.304	-130.856	-0.110	-0.015
-336.289	83.378	-0.170	0.183
-335.275	-200.000	0.055	0.311
-334.260	-200.000	0.023	0.228
-333.245	-94.092	0.029	0.008
-332.231	-99.443	-0.119	0.030
-331.216	800.000	-0.016	0.052
-330.202	18.674	0.099	-0.078
-329.187	1.992	0.217	0.155
-328.172	132.880	0.207	0.263
-327.158	781.748	-0.058	-0.156
-326.143	30.714	0.151	-0.128
-325.129	-15.298	-0.292	0.184
-324.114	153.472	-0.143	-0.193
-323.099	-152.659	-0.065	-0.005
-322.085	-200.000	-0.010	-0.294
-321.070	294.924	-0.060	0.109
-320.056	-200.000	0.030	0.166
-319.041	-30.688	-0.130	0.073
-318.026	-97.474	-0.292	0.075
-317.012	126.015	-0.178	0.223
-315.997	800.000	-0.056	0.177
-314.983	-123.572	-0.070	0.011
-313.968	-167.586	-0.121	0.005
-312.953	-2.025	0.357	-0.247
-311.939	-126.677	-0.076	-0.011
-310.924	109.176	0.136	0.161
-309.910	445.824	0.056	-0.121
-308.895	-200.000	0.003	-0.184
-307.880	-64.858	-0.021	0.008
-306.866	-75.574	-0.273	-0.096
-305.851	311.238	0.134	0.247
-304.837	-85.380	0.283	0.087
-303.822	724.036	0.041	-0.106
-302.807	-200.000	-0.454	0.000
-301.793	-100.626	0.140	-0.034
-300.778	-126.831	0.260	-0.038
-299.764	348.985	0.188	0.365
-298.749	-200.000	-0.034	0.225
-297.735	-51.171	-0.171	0.079
-296.720	510.099	0.035	-0.081
-295.705	94.858	-0.062	0.069
-294.691	-38.546	0.245	0.128
-293.676	143.721	-0.115	-0.150
-292.662	-77.293	-0.186	-0.064
-291.647	-92.445	0.379	-0.105
-290.632	-70.666	-0.104	-0.039
-289.618	430.371	-0.075	0.161
-288.603	-22.134	-0.015	0.009
-287.589	136.532	-0.122	-0.157
-286.574	40.383	-0.054	0.048
-285.559	-147.543	-0.282	0.023
-284.545	-200.000	-0.028	-0.158
-283.530	-67.470	0.207	-0.080
-282.516	-51.262	0.174	0.080
-281.501	-133.259	0.018	0.002
-280.486	-200.000	0.008	-0.321
-279.472	13.896	0.123	-0.094
-278.457	40.964	0.150	0.133
-277.443	-200.000	0.054	-0.368
-276.428	-104.013	-0.238	-0.055
-275.413	800.000	0.028	0.107
-274.399	-53.931	0.121	0.054
-273.384	379.109	0.156	0.315
-272.370	-177.607	-0.184	-0.004
-271.355	-124.116	-0.652	-0.101
-270.340	209.387	0.073	-0.113
-269.326	285.583	-0.164	0.292
-268.311	43.861	0.192	0.173
-267.297	32.710	0.332	-0.283
-266.282	618.582	0.132	0.327
-265.267	-97.131	-0.156	-0.040
-264.253	70.883	0.088	-0.090
-263.238	92.067	-0.058	0.065
-262.224	-71.781	0.211	0.078
-261.209	800.000	0.099	-0.283
-260.195	-200.000	-0.011	0.063
-259.180	-34.034	0.373	0.202
-258.165	-93.318	0.110	-0.030
-257.151	-65.333	0.421	0.167
-256.136	-145.545	-0.127	-0.011
-255.122	-141.363	0.164	-0.016
-254.107	688.559	-0.048	0.122
-253.092	109.484	0.202	-0.238
-252.078	-200.000	-0.017	0.130
-251.063	-59.544	0.079	0.033
-250.049	-135.366	-0.174	-0.020
-249.034	134.792	0.203	-0.259
-248.019	458.155	-0.079	0.173
-247.005	67.153	0.135	0.136
-245.990	179.437	0.063	-0.090
-244.976	332.172	-0.156	0.296
-243.961	35.478	-0.164	-0.142
-242.946	67.164	0.055	-0.055
-241.932	96.556	-0.066	0.074
-240.917	-85.491	0.193	0.059
-239.903	-121.006	0.349	0.058
-238.888	-94.076	-0.189	-0.051
-237.873	-64.491	0.023	-0.009
-236.859	-187.611	0.215	0.003
-235.844	800.000	-0.021	-0.064
-234.830	142.714	0.113	0.147
-233.815	142.038	0.230	-0.300
-232.800	-66.847	-0.267	-0.104
-231.786	737.399	-0.062	0.162
-230.771	-200.000	0.017	0.110
-229.757	-200.000	-0.000	-0.046
-228.742	229.837	-0.113	-0.182
-227.727	8.346	0.112	0.083
-226.713	-26.949	0.194	-0.111
-225.698	241.459	-0.055	-0.091
-224.684	-160.360	-0.309	-0.016
-223.669	-200.000	-0.007	-0.181
-222.655	569.622	-0.068	-0.163
-221.640	-200.000	0.039	-0.254
-220.625	-147.757	0.148	-0.012
-219.611	29.783	0.031	-0.026
-218.596	-151.516	0.304	0.022
-217.582	-200.000	0.049	0.246
-216.567	-170.257	-0.317	0.011
-215.552	-200.000	-0.054	-0.257
-214.538	-9.479	0.211	0.139
-213.523	-200.000	-0.043	0.292
-212.509	-100.538	-0.116	-0.028
-211.494	800.000	-0.131	0.435
-210.479	-81.092	0.070	-0.023
-209.465	34.826	0.176	-0.151
-208.450	781.774	-0.089	0.239
-207.436	-134.708	0.143	0.017
-206.421	338.756	0.031	0.059
-205.406	-15.053	0.099	-0.063
-204.392	101.636	0.069	-0.079
-203.377	-200.000	0.057	-0.375
-202.363	121.387	0.121	-0.148
-201.348	-143.822	-0.265	0.025
-200.333	168.393	0.151	0.212
-199.319	1.878	0.084	0.060
-198.304	-200.000	-0.025	0.528
-197.290	-34.040	0.368	-0.199
-196.275	800.000	0.048	0.151
-195.260	69.802	0.128	-0.129
-194.246	-5.773	-0.165	-0.111
-193.231	-105.194	0.190	0.043
-192.217	-200.000	0.026	0.176
-191.202	-82.177	0.370	0.119
-190.187	-200.000	0.003	0.211
-189.173	800.000	-0.021	0.078
-188.158	-58.966	0.204	0.086
-187.144	-200.000	0.016	-0.140
-186.129	800.000	-0.126	0.394
-185.114	-126.268	0.349	0.051
-184.100	101.901	-0.082	0.094
-183.085	243.785	-0.214	-0.353
-182.071	-84.794	0.207	0.064
-181.056	-64.329	-0.183	0.073
-180.042	-200.000	-0.024	0.106
-179.027	427.422	-0.086	0.181
-178.012	-27.994	-0.026	0.015
-176.998	152.265	-0.107	0.144
-175.983	-114.950	0.187	0.035
-174.969	-23.511	-0.325	-0.192
-173.954	37.775	0.015	-0.013
-172.939	191.664	0.066	-0.098
-171.925	-70.766	0.057	0.021
-170.910	-15.679	0.254	-0.159
-169.896	-82.140	-0.246	0.079
-168.881	-200.000	-0.052	-0.256
-167.866	192.601	-0.193	0.286
-166.852	-86.811	0.397	-0.119
-165.837	-151.982	0.166	-0.012
-164.823	282.876	0.069	0.122
-163.808	-8.999	-0.055	-0.036
-162.793	-136.763	0.400	-0.045
-161.779	5.332	0.244	-0.176
-160.764	81.038	-0.085	-0.090
-159.750	519.648	-0.044	-0.102
-158.735	-39.925	0.211	0.108
-157.720	318.245	-0.067	0.124
-156.706	174.677	-0.040	0.057
-155.691	800.000	-0.052	0.199
-154.677	48.003	0.195	0.178
-153.662	800.000	0.053	-0.198
-152.647	800.000	-0.026	-0.090
-151.633	-200.000	-0.010	-0.307
-150.618	298.933	-0.106	-0.191
-149.604	115.493	-0.271	-0.325
-148.589	19.714	0.107	0.084
-147.574	89.142	-0.152	0.166
-146.560	7.595	0.167	0.122
-145.545	800.000	-0.088	0.330
-144.531	-12.922	-0.118	0.075
-143.516	42.753	-0.299	-0.267
-142.502	-200.000	-0.000	-0.388
-141.487	800.000	-0.087	-0.363
-140.472	329.924	0.004	0.008
-139.458	-200.000	-0.031	-0.251
-138.443	-200.000	0.028	-0.275
-137.429	-85.385	0.051	-0.016
-136.414	-132.692	0.303	0.038
-135.399	104.031	-0.176	0.202
-134.385	800.000	-0.053	0.148
-133.370	-200.000	0.029	-0.384
-132.356	-62.747	0.272	-0.110
-131.341	311.128	0.076	0.140
-130.326	-200.000	0.018	0.123
-129.312	-114.102	0.226	0.043
-128.297	-200.000	0.023	-0.140
-127.283	-39.046	-0.068	-0.035
-126.268	-76.072	-0.198	-0.069
-125.253	109.933	-0.073	0.086
-124.239	89.999	-0.172	0.188
-123.224	-79.323	0.386	-0.128
-122.210	-83.017	-0.028	-0.009
-121.195	-127.425	-0.419	0.060
