DTS Sentinel unit serial number:	SN413079Multiplexer serial number:	ORYXHardware model number:	OX4-SRSoftware version number:	ORYX F/W v4.00 Oryx Data Collector v3.7.2.0data status	okinstallation	princeton_trtdifferential loss correction	single-endedforward channel	channel 3reverse channel	N/Adate	2019/09/12time	12:50:10forward acquisition time	60.00reverse acquisition time	0.00gamma	496.2192k internal	0.2292k external	0.2292temperature offset calibration	1.0044default loss term (dB/km)	0.3790temperature slope calibration	1.0000multiplexer offset coefficient	1.0000multiplexer slope coefficient	1.0000fibre end	0.00T internal ref (°C)	40.69T ext. ref 1 (°C)	2.07T ext. ref 2 (°C)	37.04length (m)	temperature (°C)	Stokes	anti-Stokes-747.200	-17.906	-0.286	0.183
-746.185	-200.000	-0.011	0.121
-745.171	-200.000	-0.040	-0.230
-744.156	175.756	0.145	-0.215
-743.142	-160.478	-0.196	0.011
-742.127	800.000	-0.075	-0.222
-741.112	-1.466	-0.173	0.125
-740.098	-149.888	-0.223	0.018
-739.083	-170.221	0.280	-0.010
-738.069	-144.848	-0.131	-0.012
-737.054	-81.330	0.049	-0.017
-736.039	-200.000	-0.013	0.411
-735.025	199.599	0.067	0.105
-734.010	-48.740	0.267	-0.131
-732.996	774.477	-0.028	-0.079
-731.981	-200.000	-0.042	-0.264
-730.966	17.982	0.057	0.047
-729.952	-26.255	-0.134	0.081
-728.937	-57.177	0.017	-0.008
-727.923	-105.406	0.274	-0.064
-726.908	-32.025	-0.264	-0.151
-725.894	38.099	-0.414	0.377
-724.879	33.329	-0.328	0.292
-723.864	0.892	-0.160	0.118
-722.850	-41.959	-0.351	-0.184
-721.835	172.293	-0.085	-0.126
-720.821	-74.760	0.108	0.040
-719.806	394.600	-0.141	-0.301
-718.791	50.086	-0.144	-0.139
-717.777	-142.092	0.385	-0.039
-716.762	-39.687	0.221	0.118
-715.748	-182.770	0.142	-0.003
-714.733	26.493	0.177	0.151
-713.718	19.684	-0.123	0.101
-712.704	-75.326	-0.088	0.032
-711.689	120.203	0.067	-0.085
-710.675	71.979	-0.076	0.081
-709.660	-76.268	0.385	0.139
-708.645	606.070	0.161	-0.411
-707.631	-200.000	-0.009	-0.171
-706.616	-200.000	-0.008	-0.130
-705.602	-200.000	-0.028	-0.367
-704.587	-129.466	-0.221	-0.031
-703.572	366.202	-0.051	0.104
-702.558	-191.827	-0.024	0.000
-701.543	67.145	-0.122	-0.127
-700.529	-200.000	0.016	-0.156
-699.514	800.000	-0.060	-0.241
-698.499	-28.122	0.250	-0.148
-697.485	54.829	0.146	0.144
-696.470	326.387	0.157	0.307
-695.456	-106.514	-0.116	-0.026
-694.441	549.021	-0.168	-0.412
-693.426	441.286	-0.073	0.163
-692.412	465.423	-0.102	0.234
-691.397	-173.724	0.138	0.004
-690.383	-200.000	0.016	0.133
-689.368	-167.696	-0.145	-0.006
-688.354	-200.000	-0.033	-0.270
-687.339	15.856	-0.186	0.149
-686.324	-42.919	-0.097	0.050
-685.310	-135.805	0.073	-0.009
-684.295	-113.675	-0.204	0.041
-683.281	709.788	0.073	-0.197
-682.266	-132.931	0.160	-0.021
-681.251	57.112	-0.146	0.145
-680.237	-68.449	0.301	0.119
-679.222	59.344	0.037	0.037
-678.208	-165.388	-0.150	-0.007
-677.193	-133.076	-0.198	0.026
-676.178	-200.000	0.001	0.094
-675.164	59.697	0.278	-0.280
-674.149	-123.628	-0.118	-0.019
-673.135	270.052	-0.133	-0.239
-672.120	-84.868	0.319	-0.102
-671.105	165.577	0.141	-0.204
-670.091	-93.418	-0.012	0.003
-669.076	-94.954	-0.270	0.075
-668.062	-150.137	-0.046	-0.004
-667.047	80.155	0.173	-0.189
-666.032	-197.700	-0.467	0.003
-665.018	132.522	-0.140	0.185
-664.003	9.613	0.341	0.264
-662.989	227.138	-0.198	-0.329
-661.974	741.443	0.132	0.363
-660.959	-0.520	-0.264	-0.191
-659.945	800.000	0.034	-0.116
-658.930	-92.554	-0.095	0.027
-657.916	-116.501	-0.327	-0.062
-656.901	-115.767	0.127	0.024
-655.886	21.632	0.075	-0.062
-654.872	-153.254	-0.225	0.016
-653.857	447.076	0.013	0.029
-652.843	-84.419	-0.301	0.097
-651.828	345.958	0.070	0.140
-650.814	-68.446	0.170	-0.067
-649.799	8.809	-0.280	0.215
-648.784	800.000	0.021	0.089
-647.770	800.000	0.011	0.036
-646.755	-102.749	-0.185	-0.045
-645.741	-91.992	0.135	-0.039
-644.726	-200.000	0.038	0.344
-643.711	-123.655	-0.082	-0.013
-642.697	-0.115	-0.220	-0.160
-641.682	590.804	-0.137	-0.344
-640.668	-200.000	0.001	-0.170
-639.653	800.000	0.043	-0.188
-638.638	87.026	0.136	-0.153
-637.624	-52.916	0.134	-0.063
-636.609	800.000	-0.040	0.118
-635.595	-127.542	-0.381	-0.056
-634.580	-200.000	0.028	-0.187
-633.565	-200.000	-0.011	-0.117
-632.551	103.008	0.251	-0.300
-631.536	64.674	0.340	-0.350
-630.522	-200.000	0.015	0.199
-629.507	-115.504	-0.181	-0.035
-628.492	335.033	0.108	0.213
-627.478	8.060	-0.017	0.013
-626.463	25.043	-0.421	-0.356
-625.449	-100.168	-0.249	-0.063
-624.434	-200.000	-0.040	0.000
-623.419	-200.000	-0.008	0.102
-622.405	178.760	0.194	0.290
-621.390	-48.041	0.474	0.233
-620.376	29.067	-0.049	0.042
-619.361	17.106	-0.216	0.175
-618.346	-33.760	-0.238	-0.134
-617.332	-200.000	0.114	0.572
-616.317	-155.981	0.130	-0.008
-615.303	759.086	0.139	0.384
-614.288	11.171	-0.055	0.043
-613.273	-168.990	0.119	0.005
-612.259	16.496	0.113	-0.091
-611.244	-163.168	0.252	-0.012
-610.230	75.623	-0.060	-0.064
-609.215	-131.130	0.231	0.031
-608.201	30.025	-0.256	0.222
-607.186	10.419	-0.043	0.033
-606.171	3.078	-0.096	0.071
-605.157	157.043	-0.036	0.050
-604.142	412.596	-0.137	0.295
-603.128	-200.000	0.031	-0.148
-602.113	-101.017	0.228	0.057
-601.098	57.524	-0.094	0.093
-600.084	239.527	-0.081	0.137
-599.069	195.791	-0.064	-0.100
-598.055	800.000	-0.024	-0.105
-597.040	-81.575	0.157	0.052
-596.025	-200.000	-0.005	-0.069
-595.011	-18.876	-0.126	-0.080
-593.996	-44.453	-0.329	-0.167
-592.982	-141.619	-0.592	-0.061
-591.967	294.556	0.171	-0.318
-590.952	21.118	0.082	-0.068
-589.938	129.966	0.204	-0.265
-588.923	-200.000	-0.023	0.112
-587.909	800.000	-0.040	-0.145
-586.894	-183.758	0.091	0.002
-585.879	108.361	0.111	-0.134
-584.865	800.000	0.114	0.333
-583.850	-59.029	-0.296	-0.130
-582.836	62.983	-0.107	-0.109
-581.821	800.000	0.056	-0.208
-580.806	-200.000	-0.037	-0.181
-579.792	-58.974	0.168	-0.074
-578.777	800.000	0.118	0.406
-577.763	-200.000	0.003	0.322
-576.748	-173.735	-0.209	0.006
-575.733	800.000	-0.147	-0.427
-574.719	200.317	-0.094	-0.146
-573.704	-200.000	0.014	0.080
-572.690	101.743	-0.101	0.120
-571.675	-9.554	-0.295	-0.200
-570.661	-30.411	-0.194	-0.112
-569.646	746.355	0.076	-0.207
-568.631	-72.118	0.128	-0.048
-567.617	-51.558	-0.518	-0.246
-566.602	-45.133	-0.295	-0.149
-565.588	-36.021	0.100	0.055
-564.573	-89.388	0.248	-0.074
-563.558	70.896	0.118	-0.124
-562.544	-200.000	0.002	-0.141
-561.529	-13.786	0.098	-0.065
-560.515	389.069	0.049	0.102
-559.500	68.962	-0.215	0.224
-558.485	-27.270	0.343	-0.203
-557.471	-200.000	-0.102	0.488
-556.456	-56.468	0.276	0.124
-555.442	-75.223	-0.151	0.055
-554.427	21.117	0.245	-0.202
-553.412	-200.000	0.003	0.137
-552.398	-71.992	-0.272	-0.103
-551.383	-73.857	-0.171	-0.063
-550.369	133.588	-0.094	0.123
-549.354	20.126	-0.231	0.189
-548.339	-69.064	0.096	0.038
-547.325	-28.820	-0.348	-0.203
-546.310	90.847	-0.188	0.214
-545.296	-125.320	-0.242	-0.037
-544.281	46.250	-0.297	-0.279
-543.266	-200.000	0.017	-0.216
-542.252	598.351	-0.102	0.258
-541.237	276.899	0.168	0.303
-540.223	-118.315	-0.320	-0.058
-539.208	-200.000	-0.030	-0.145
-538.193	-186.456	-0.126	-0.002
-537.179	-123.580	-0.282	-0.045
-536.164	20.216	0.118	0.097
-535.150	36.330	0.088	0.079
-534.135	-89.722	0.077	-0.023
-533.121	386.457	0.019	-0.039
-532.106	444.853	-0.097	-0.216
-531.091	468.710	0.057	-0.131
-530.077	179.979	0.049	0.073
-529.062	-38.079	-0.238	0.128
-528.048	0.408	-0.221	0.160
-527.033	182.326	-0.164	-0.245
-526.018	105.268	-0.238	-0.285
-525.004	-173.569	-0.147	0.004
-523.989	-65.998	-0.274	-0.111
-522.975	43.384	0.244	0.226
-521.960	-54.837	-0.180	0.082
-520.945	255.024	-0.033	-0.057
-519.931	-50.153	-0.099	-0.048
-518.916	800.000	-0.030	-0.104
-517.902	-39.167	-0.125	0.067
-516.887	-200.000	0.006	-0.168
-515.872	-98.076	-0.395	-0.103
-514.858	-47.864	-0.270	0.133
-513.843	40.396	-0.177	0.161
-512.829	-66.782	0.063	-0.025
-511.814	21.006	0.149	-0.123
-510.799	800.000	-0.067	0.236
-509.785	178.456	0.189	-0.279
-508.770	137.906	0.181	0.240
-507.756	4.443	-0.214	0.159
-506.741	-91.758	-0.056	-0.016
-505.726	-15.351	-0.154	0.100
-504.712	-81.470	0.111	0.037
-503.697	465.849	0.067	0.151
-502.683	800.000	-0.043	0.121
-501.668	-200.000	0.047	0.223
-500.653	-130.870	0.253	-0.034
-499.639	495.832	-0.169	0.395
-498.624	101.827	0.096	-0.113
-497.610	90.149	0.274	-0.311
-496.595	-200.000	-0.027	-0.221
-495.581	-172.660	0.328	-0.010
-494.566	-61.343	0.016	0.007
-493.551	174.003	0.111	-0.162
-492.537	-28.328	-0.077	0.045
-491.522	169.631	0.060	0.087
-490.508	78.643	0.273	0.296
-489.493	93.028	0.147	-0.168
-488.478	106.232	0.104	0.125
-487.464	-200.000	0.004	0.130
-486.449	-14.530	0.173	0.113
-485.435	643.553	-0.136	0.351
-484.420	-198.497	0.136	0.001
-483.405	-40.281	-0.095	-0.050
-482.391	205.737	-0.100	-0.158
-481.376	800.000	0.037	0.123
-480.362	-73.497	-0.219	0.081
-479.347	128.882	0.077	-0.099
-478.332	287.814	-0.127	0.233
-477.318	24.287	0.181	0.151
-476.303	-26.818	0.204	0.121
-475.289	-200.000	0.014	0.120
-474.274	65.355	-0.105	-0.107
-473.259	-200.000	0.011	-0.193
-472.245	800.000	0.039	-0.144
-471.230	-169.504	0.239	0.009
-470.216	-40.677	-0.048	0.025
-469.201	76.712	0.200	-0.215
-468.186	-93.859	0.235	0.066
-467.172	-63.411	0.169	0.070
-466.157	499.376	-0.064	0.150
-465.143	-77.200	0.157	-0.055
-464.128	800.000	0.084	-0.355
-463.113	-33.347	0.193	0.108
-462.099	-144.169	-0.196	0.019
-461.084	-124.536	0.132	-0.021
-460.070	800.000	-0.072	0.239
-459.055	-156.770	-0.427	0.027
-458.040	-157.364	-0.134	0.008
-457.026	-135.100	-0.338	0.041
-456.011	-139.674	0.232	0.025
-454.997	44.825	0.266	-0.247
-453.982	-200.000	-0.044	0.299
-452.968	239.474	0.040	0.068
-451.953	800.000	0.041	0.142
-450.938	-176.499	0.280	-0.007
-449.924	-200.000	0.029	0.423
-448.909	-27.847	-0.330	-0.194
-447.895	263.298	-0.106	0.186
-446.880	-102.139	0.003	0.001
-445.865	-58.112	-0.334	-0.147
-444.851	445.131	-0.141	0.314
-443.836	-14.728	0.237	0.154
-442.822	3.464	-0.138	-0.102
-441.807	-114.157	-0.084	-0.016
-440.792	-200.000	-0.029	0.274
-439.778	-87.205	0.220	-0.068
-438.763	-130.185	-0.261	-0.036
-437.749	145.953	0.187	-0.254
-436.734	-40.992	0.103	-0.054
-435.719	-88.341	0.230	0.069
-434.705	-117.972	0.354	-0.064
-433.690	800.000	-0.018	0.050
-432.676	800.000	-0.047	0.153
-431.661	-60.688	0.180	0.077
-430.646	10.271	0.108	0.083
-429.632	15.608	-0.131	0.104
-428.617	629.899	0.042	0.108
-427.603	800.000	-0.062	0.181
-426.588	-200.000	0.034	0.193
-425.573	-69.889	-0.126	0.049
-424.559	206.671	-0.159	0.251
-423.544	260.861	-0.159	0.277
-422.530	90.742	-0.112	0.127
-421.515	800.000	0.025	-0.088
-420.500	-200.000	-0.010	0.047
-419.486	30.332	0.177	-0.153
-418.471	11.961	-0.071	0.055
-417.457	368.683	-0.081	-0.166
-416.442	59.345	-0.115	0.115
-415.428	386.860	0.099	0.206
-414.413	438.859	-0.084	-0.185
-413.398	-200.000	0.052	0.335
-412.384	-82.039	0.118	-0.039
-411.369	-55.521	-0.207	0.094
-410.355	-62.439	-0.369	0.155
-409.340	-200.000	0.012	-0.244
-408.325	-88.260	-0.081	-0.025
-407.311	-66.256	-0.239	-0.096
-406.296	50.092	-0.200	0.190
-405.282	401.408	0.048	-0.102
-404.267	326.544	0.013	-0.025
-403.252	-196.643	-0.477	-0.003
-402.238	41.929	0.154	-0.141
-401.223	-200.000	0.033	-0.309
-400.209	48.900	0.096	-0.091
-399.194	-80.128	0.213	0.072
-398.179	12.152	-0.229	-0.178
-397.165	650.816	-0.086	-0.222
-396.150	-106.279	0.255	-0.058
-395.136	-22.238	0.124	0.076
-394.121	38.928	0.114	0.103
-393.106	95.936	0.059	0.069
-392.092	-200.000	0.005	0.286
-391.077	-151.279	-0.212	-0.016
-390.063	-44.851	0.215	-0.108
-389.048	47.381	-0.104	-0.098
-388.033	-200.000	0.003	-0.344
-387.019	-82.857	0.373	0.122
-386.004	800.000	0.212	0.615
-384.990	-40.488	-0.062	0.033
-383.975	-40.569	0.080	-0.042
-382.960	269.754	0.036	0.064
-381.946	800.000	-0.049	-0.151
-380.931	213.973	-0.162	-0.259
-379.917	-200.000	0.018	0.193
-378.902	146.608	0.162	-0.220
-377.888	292.942	-0.158	-0.292
-376.873	7.848	-0.050	0.038
-375.858	55.923	0.227	0.222
-374.844	156.066	-0.202	-0.281
-373.829	-18.015	0.178	0.113
-372.815	-200.000	0.013	-0.366
-371.800	-139.766	0.229	-0.025
-370.785	-200.000	0.056	0.270
-369.771	-23.683	-0.340	0.206
-368.756	-143.987	0.104	0.010
-367.742	-200.000	-0.020	-0.322
-366.727	137.984	0.159	0.211
-365.712	-10.465	0.166	0.111
-364.698	-200.000	-0.040	-0.189
-363.683	-24.445	-0.126	0.076
-362.669	-200.000	0.005	0.096
-361.654	174.976	-0.102	0.149
-360.639	-163.689	-0.388	0.018
-359.625	476.264	0.134	0.306
-358.610	-200.000	-0.007	-0.172
-357.596	-109.097	-0.057	0.012
-356.581	394.532	-0.069	0.144
-355.566	-200.000	0.063	-0.298
-354.552	800.000	-0.062	0.192
-353.537	667.005	-0.130	-0.339
-352.523	-38.877	0.153	-0.081
-351.508	291.695	0.221	0.405
-350.493	-122.613	-0.211	-0.034
-349.479	39.011	0.185	0.167
-348.464	549.488	0.100	-0.243
-347.450	-188.450	0.345	-0.004
-346.435	591.832	0.106	-0.264
-345.420	281.190	-0.085	-0.154
-344.406	745.834	-0.075	-0.204
-343.391	185.450	0.118	-0.177
-342.377	-200.000	0.254	-0.001
-341.362	-200.000	-0.016	-0.264
-340.348	-200.000	-0.011	-0.217
-339.333	109.907	0.260	-0.314
-338.318	-23.433	-0.105	0.064
-337.304	46.587	-0.168	-0.157
-336.289	741.781	-0.079	-0.214
-335.275	122.201	-0.274	0.345
-334.260	40.236	0.244	0.221
-333.245	-28.399	0.194	0.113
-332.231	173.882	-0.157	0.229
-331.216	-60.130	0.255	-0.110
-330.202	-97.315	0.364	0.096
-329.187	170.567	0.136	-0.196
-328.172	334.994	-0.018	-0.034
-327.158	-0.274	-0.056	-0.040
-326.143	-32.287	-0.114	0.064
-325.129	57.422	-0.122	-0.120
-324.114	-28.836	0.325	-0.188
-323.099	33.659	-0.183	-0.160
-322.085	88.023	-0.136	0.152
-321.070	304.794	-0.148	0.277
-320.056	800.000	0.066	-0.185
-319.041	-157.054	0.206	-0.013
-318.026	-72.651	0.238	0.088
-317.012	-160.717	0.054	0.003
-315.997	-84.764	0.212	-0.067
-314.983	-14.205	-0.480	-0.312
-313.968	283.150	0.028	0.051
-312.953	124.632	-0.159	0.202
-311.939	-131.641	0.132	-0.017
-310.924	-200.000	0.044	-0.284
-309.910	-93.930	0.267	0.074
-308.895	719.706	0.072	-0.193
-307.880	434.566	-0.077	-0.168
-306.866	224.416	0.126	0.206
-305.851	797.102	0.125	-0.346
-304.837	17.398	-0.295	-0.236
-303.822	-100.268	-0.162	-0.041
-302.807	0.348	-0.225	-0.161
-301.793	-200.000	-0.004	0.134
-300.778	-60.235	-0.260	0.111
-299.764	800.000	0.047	-0.152
-298.749	-104.716	0.405	-0.094
-297.735	25.792	0.118	-0.099
-296.720	-118.340	-0.251	-0.045
-295.705	-200.000	0.044	0.303
-294.691	37.019	-0.041	-0.037
-293.676	-11.605	-0.102	0.067
-292.662	108.160	0.192	0.230
-291.647	-19.323	-0.418	-0.261
-290.632	389.511	0.048	0.101
-289.618	-45.382	0.339	-0.169
-288.603	475.647	-0.131	-0.298
-287.589	-14.594	0.237	-0.153
-286.574	-94.823	0.287	-0.078
-285.559	-86.117	-0.284	0.088
-284.545	-53.617	-0.157	0.072
-283.530	250.197	0.216	-0.369
-282.516	-140.255	0.180	0.019
-281.501	-200.000	0.056	0.344
-280.486	800.000	0.044	-0.174
-279.472	-6.071	0.059	0.040
-278.457	-93.704	-0.177	-0.049
-277.443	785.356	0.157	0.433
-276.428	-65.340	-0.188	0.076
-275.413	800.000	-0.020	-0.060
-274.399	-116.569	0.352	-0.065
-273.384	800.000	-0.033	-0.143
-272.370	234.810	-0.249	0.413
-271.355	792.211	0.059	-0.164
-270.340	-103.462	-0.352	0.083
-269.326	85.187	-0.038	0.042
-268.311	110.875	0.235	-0.284
-267.297	595.511	0.065	-0.161
-266.282	206.587	0.105	-0.164
-265.267	313.947	-0.165	-0.312
-264.253	-200.000	-0.007	0.116
-263.238	-65.772	0.213	-0.086
-262.224	209.607	-0.179	-0.282
-261.209	182.059	-0.170	0.251
-260.195	54.879	0.105	0.102
-259.180	-123.932	0.403	0.064
-258.165	-95.791	-0.294	0.079
-257.151	321.922	-0.064	0.122
-256.136	337.976	0.018	-0.036
-255.122	22.909	-0.057	-0.047
-254.107	-200.000	0.030	0.289
-253.092	-141.146	-0.323	0.033
-252.078	-58.147	0.298	0.131
-251.063	-200.000	0.031	0.448
-250.049	-44.208	-0.046	0.023
-249.034	-143.758	0.258	-0.025
-248.019	422.606	0.099	-0.214
-247.005	800.000	-0.067	-0.238
-245.990	-90.295	0.289	-0.084
-244.976	55.381	-0.246	-0.239
-243.961	-97.536	0.250	-0.065
-242.946	-200.000	0.063	0.368
-241.932	677.954	0.086	0.224
-240.917	366.166	0.026	-0.052
-239.903	284.251	-0.126	-0.228
-238.888	-59.892	-0.285	0.122
-237.873	760.671	0.023	-0.063
-236.859	109.694	0.056	-0.068
-235.844	-53.556	-0.080	-0.037
-234.830	-200.000	0.000	-0.189
-233.815	264.423	-0.124	-0.216
-232.800	-108.065	0.061	0.013
-231.786	-67.612	-0.209	0.082
-230.771	800.000	-0.139	0.480
-229.757	55.760	0.078	0.076
-228.742	-37.250	0.211	0.113
-227.727	-200.000	0.020	-0.318
-226.713	246.153	-0.017	-0.028
-225.698	-59.124	0.256	0.111
-224.684	-141.420	0.077	-0.008
-223.669	-35.793	0.095	-0.052
-222.655	-200.000	0.006	-0.140
-221.640	18.059	0.026	-0.021
-220.625	525.505	0.028	-0.066
-219.611	206.340	0.123	-0.192
-218.596	48.547	0.263	-0.248
-217.582	-200.000	-0.042	0.209
-216.567	-76.219	0.275	0.097
-215.552	97.513	-0.033	-0.038
-214.538	184.613	-0.210	-0.312
-213.523	-72.979	-0.318	-0.117
-212.509	481.883	0.026	0.059
-211.494	-167.055	-0.144	0.006
-210.479	-173.126	0.201	-0.006
-209.465	18.874	0.064	-0.051
-208.450	45.290	-0.092	0.085
-207.436	-200.000	-0.013	0.179
-206.421	-12.171	-0.152	0.100
-205.406	25.366	0.139	0.116
-204.392	-56.668	0.193	-0.086
-203.377	167.607	0.091	-0.129
-202.363	6.320	-0.210	0.156
-201.348	-36.925	0.138	-0.074
-200.333	-116.610	0.195	0.036
-199.319	-200.000	-0.058	0.355
-198.304	396.881	0.108	-0.226
-197.290	47.506	0.263	-0.246
-196.275	37.608	0.248	-0.220
-195.260	800.000	0.099	-0.292
-194.246	27.061	0.088	-0.074
-193.231	-200.000	0.010	0.046
-192.217	-80.948	-0.079	-0.026
-191.202	179.326	0.130	-0.190
-190.187	-187.081	-0.057	0.001
-189.173	-77.749	-0.204	0.071
-188.158	360.626	-0.068	0.137
-187.144	800.000	-0.026	0.074
-186.129	344.338	0.082	0.160
-185.114	77.348	0.199	0.212
-184.100	-74.128	0.182	0.066
-183.085	46.257	0.143	0.133
-182.071	800.000	0.121	0.448
-181.056	-69.574	-0.055	0.021
-180.042	-10.420	-0.163	0.108
-179.027	194.534	-0.079	-0.120
-178.012	-152.049	-0.200	0.015
-176.998	220.926	0.108	0.174
-175.983	-80.734	0.243	-0.081
-174.969	800.000	0.099	-0.387
-173.954	-13.456	-0.168	0.109
-172.939	-87.075	0.118	0.036
-171.925	183.277	-0.025	0.037
-170.910	-126.142	0.039	0.006
-169.896	264.913	-0.115	0.201
-168.881	-129.369	0.130	-0.018
-167.866	141.944	0.065	0.086
-166.852	137.856	0.146	0.192
-165.837	-57.564	-0.356	0.156
-164.823	4.311	-0.188	0.138
-163.808	272.505	0.143	0.253
-162.793	31.261	-0.095	0.082
-161.779	-180.523	0.414	-0.009
-160.764	-88.922	-0.112	0.033
-159.750	-200.000	-0.019	0.126
-158.735	-148.596	0.024	-0.002
-157.720	741.105	0.086	-0.232
-156.706	17.278	0.150	-0.119
-155.691	-81.149	0.018	0.006
-154.677	-23.142	0.074	-0.044
-153.662	310.282	-0.072	-0.134
-152.647	-60.622	-0.418	-0.177
-151.633	-5.391	0.139	0.096
-150.618	-10.625	0.077	0.051
-149.604	-69.604	0.230	0.088
-148.589	-74.837	0.089	-0.032
-147.574	-200.000	-0.068	0.371
-146.560	-47.540	0.106	-0.051
-145.545	-55.544	0.180	-0.081
-144.531	-175.324	-0.349	0.010
-143.516	226.839	-0.119	0.193
-142.502	123.805	0.208	-0.261
-141.487	708.272	-0.041	0.108
-140.472	137.749	-0.155	-0.203
-139.458	-128.713	-0.315	-0.044
-138.443	-53.129	-0.231	0.106
-137.429	-200.000	0.043	-0.236
-136.414	-200.000	-0.015	-0.103
-135.399	800.000	-0.051	-0.190
-134.385	800.000	-0.016	0.048
-133.370	72.586	0.325	0.339
-132.356	-81.346	-0.036	-0.012
-131.341	-87.106	-0.149	-0.045
-130.326	800.000	0.143	0.483
-129.312	72.814	0.048	-0.050
-128.297	-91.598	0.447	0.127
-127.283	-9.648	0.353	-0.235
-126.268	350.800	-0.085	0.168
-125.253	3.042	-0.160	0.116
-124.239	3.441	-0.124	0.090
-123.224	-200.000	-0.026	0.151
-122.210	112.355	0.061	-0.074
-121.195	-200.000	-0.007	-0.194
-120.180	-200.000	0.019	0.154
