DTS Sentinel unit serial number:	SN413079Multiplexer serial number:	ORYXHardware model number:	OX4-SRSoftware version number:	ORYX F/W v4.00 Oryx Data Collector v3.7.2.0data status	okinstallation	princeton_trtdifferential loss correction	single-endedforward channel	channel 3reverse channel	N/Adate	2019/09/19time	15:36:35forward acquisition time	60.00reverse acquisition time	0.00gamma	496.2192k internal	0.2308k external	0.2308temperature offset calibration	1.0010default loss term (dB/km)	0.3790temperature slope calibration	1.0000multiplexer offset coefficient	1.0000multiplexer slope coefficient	1.0000fibre end	0.00T internal ref (°C)	34.33T ext. ref 1 (°C)	1.15T ext. ref 2 (°C)	31.96length (m)	temperature (°C)	Stokes	anti-Stokes-747.200	-85.737	0.374	0.118
-746.185	800.000	0.126	0.442
-745.171	87.479	-0.065	-0.074
-744.156	119.847	0.141	0.178
-743.142	131.980	0.252	0.330
-742.127	484.153	-0.161	0.373
-741.112	233.373	-0.048	0.081
-740.098	-70.728	0.359	0.138
-739.083	268.801	-0.046	0.082
-738.069	539.999	-0.116	0.281
-737.054	216.492	0.093	-0.150
-736.039	-81.387	-0.210	-0.070
-735.025	289.362	0.149	0.275
-734.010	-200.000	-0.176	-0.001
-732.996	800.000	-0.164	-0.576
-731.981	-139.961	0.179	-0.019
-730.966	800.000	0.084	-0.296
-729.952	-200.000	-0.004	0.212
-728.937	-200.000	0.027	-0.120
-727.923	-200.000	-0.015	-0.075
-726.908	-9.769	-0.194	-0.131
-725.894	-117.311	-0.468	-0.086
-724.879	-53.846	-0.208	0.096
-723.864	117.003	0.103	-0.128
-722.850	-28.510	-0.114	0.067
-721.835	-94.413	0.021	0.006
-720.821	367.961	0.273	-0.560
-719.806	181.924	0.024	0.036
-718.791	-88.052	0.171	-0.052
-717.777	81.594	0.128	-0.141
-716.762	800.000	-0.038	0.109
-715.748	-105.437	-0.341	0.079
-714.733	800.000	-0.080	-0.235
-713.718	800.000	0.077	-0.291
-712.704	49.583	0.348	-0.332
-711.689	-200.000	-0.013	-0.232
-710.675	409.057	0.065	-0.140
-709.660	84.020	0.179	0.199
-708.645	-175.346	0.310	0.009
-707.631	800.000	0.055	-0.156
-706.616	726.827	-0.125	0.339
-705.602	36.163	0.113	-0.101
-704.587	-18.974	-0.287	-0.181
-703.572	114.120	-0.232	0.287
-702.558	-39.877	0.498	-0.264
-701.543	-72.901	-0.232	-0.086
-700.529	90.973	-0.040	-0.045
-699.514	-200.000	0.009	-0.239
-698.499	-134.022	0.159	-0.020
-697.485	127.362	-0.130	-0.168
-696.470	-155.541	-0.324	-0.021
-695.456	-23.369	0.231	-0.141
-694.441	-200.000	-0.018	0.226
-693.426	48.657	-0.233	-0.221
-692.412	-43.809	0.496	-0.254
-691.397	-200.000	-0.012	0.066
-690.383	60.559	-0.081	0.081
-689.368	-42.276	-0.101	0.052
-688.354	275.356	0.040	-0.072
-687.339	33.381	0.268	-0.236
-686.324	-37.613	-0.064	-0.035
-685.310	-92.400	-0.023	-0.006
-684.295	733.571	-0.083	-0.226
-683.281	-200.000	-0.006	0.190
-682.266	-200.000	0.004	0.262
-681.251	-71.001	0.242	0.092
-680.237	8.605	-0.057	0.044
-679.222	145.933	0.168	-0.228
-678.208	-157.595	-0.248	0.015
-677.193	-154.612	-0.071	-0.005
-676.178	-53.469	0.067	-0.031
-675.164	-83.420	-0.111	0.036
-674.149	-16.540	-0.236	0.152
-673.135	-76.428	0.458	-0.163
-672.120	-131.777	0.230	0.031
-671.105	5.997	0.025	0.019
-670.091	-109.269	-0.133	-0.029
-669.076	-14.018	-0.282	0.184
-668.062	-163.258	0.173	-0.008
-667.047	376.183	0.139	-0.288
-666.032	4.978	-0.161	-0.120
-665.018	-200.000	-0.048	0.307
-664.003	-138.779	-0.282	0.031
-662.989	3.349	-0.291	-0.215
-661.974	196.815	-0.128	0.197
-660.959	-30.239	-0.317	-0.182
-659.945	-68.280	0.288	-0.113
-658.930	420.346	0.083	-0.181
-657.916	-108.927	-0.161	0.035
-656.901	-41.519	-0.143	-0.075
-655.886	152.175	0.111	0.154
-654.872	-130.102	0.344	-0.048
-653.857	9.985	-0.019	-0.015
-652.843	-48.497	0.056	-0.027
-651.828	137.051	-0.158	0.210
-650.814	293.191	-0.078	-0.145
-649.799	31.975	0.352	-0.307
-648.784	-55.275	-0.116	-0.053
-647.770	-200.000	0.015	0.196
-646.755	5.230	0.351	0.262
-645.741	-148.700	0.150	0.012
-644.726	-54.594	-0.176	-0.081
-643.711	26.891	-0.162	-0.137
-642.697	-70.236	0.024	0.009
-641.682	8.825	-0.187	-0.143
-640.668	-174.153	0.556	-0.016
-639.653	-200.000	-0.015	-0.178
-638.638	86.956	0.186	-0.208
-637.624	-200.000	-0.019	0.315
-636.609	800.000	0.036	-0.100
-635.595	90.266	-0.092	-0.104
-634.580	2.129	-0.254	0.186
-633.565	-62.401	-0.060	0.025
-632.551	-200.000	0.008	-0.084
-631.536	-200.000	0.031	-0.262
-630.522	-5.817	0.220	0.153
-629.507	-152.540	-0.245	-0.018
-628.492	-78.854	0.259	-0.089
-627.478	-188.027	-0.424	0.006
-626.463	800.000	-0.032	-0.109
-625.449	-145.873	-0.241	-0.022
-624.434	-126.999	0.183	0.027
-623.419	-159.352	-0.150	0.008
-622.405	512.704	-0.038	-0.089
-621.390	-200.000	-0.006	0.205
-620.376	154.755	0.043	-0.060
-619.361	-127.400	0.230	-0.034
-618.346	95.922	0.046	-0.053
-617.332	-98.152	-0.207	0.054
-616.317	-111.785	-0.403	-0.083
-615.303	-16.218	0.136	0.087
-614.288	0.610	-0.224	-0.162
-613.273	-200.000	0.028	-0.228
-612.259	-200.000	0.013	0.088
-611.244	-26.690	0.242	0.143
-610.230	22.070	0.131	0.108
-609.215	-83.369	0.119	-0.039
-608.201	-200.000	0.027	-0.339
-607.186	199.615	-0.185	-0.287
-606.171	-32.968	0.238	0.134
-605.157	41.239	-0.144	0.131
-604.142	-200.000	-0.017	-0.160
-603.128	643.706	-0.095	-0.246
-602.113	-57.910	-0.143	0.063
-601.098	800.000	0.025	0.081
-600.084	800.000	0.048	-0.163
-599.069	69.416	-0.126	-0.131
-598.055	-200.000	-0.005	-0.212
-597.040	800.000	0.077	0.245
-596.025	800.000	0.053	-0.222
-595.011	706.075	0.044	0.117
-593.996	-150.336	-0.070	0.005
-592.982	-9.927	-0.075	0.051
-591.967	800.000	-0.123	-0.377
-590.952	-200.000	-0.031	-0.416
-589.938	-124.610	0.191	-0.030
-588.923	-6.426	-0.224	-0.154
-587.909	260.465	-0.162	-0.284
-586.894	-0.013	0.263	-0.189
-585.879	-30.674	-0.088	0.051
-584.865	-145.223	0.304	0.028
-583.850	-134.850	-0.116	-0.014
-582.836	-116.295	-0.148	0.028
-581.821	-200.000	-0.011	0.130
-580.806	-112.012	-0.353	0.072
-579.792	-58.382	-0.201	0.088
-578.777	414.302	0.100	-0.216
-577.763	-79.368	-0.346	-0.118
-576.748	167.547	0.070	-0.100
-575.733	-113.386	-0.282	-0.056
-574.719	29.588	-0.170	0.146
-573.704	800.000	-0.084	-0.266
-572.690	121.390	-0.147	0.185
-571.675	-34.750	0.067	0.037
-570.661	-108.136	-0.238	0.052
-569.646	652.918	-0.050	-0.130
-568.631	-117.331	-0.108	-0.020
-567.617	87.342	-0.126	0.141
-566.602	7.313	-0.203	-0.153
-565.588	18.092	-0.251	-0.202
-564.573	30.835	-0.335	0.290
-563.558	-200.000	-0.051	-0.357
-562.544	-200.000	-0.009	-0.525
-561.529	-132.492	0.215	0.028
-560.515	30.852	0.201	0.174
-559.500	-2.164	0.206	0.146
-558.485	-36.141	-0.271	-0.148
-557.471	-50.896	0.162	0.077
-556.456	-143.573	-0.227	-0.022
-555.442	-72.936	-0.181	-0.067
-554.427	-83.873	0.086	-0.028
-553.412	230.007	0.083	0.136
-552.398	-174.224	-0.350	0.010
-551.383	-43.213	0.183	0.094
-550.369	-200.000	0.003	-0.241
-549.354	-91.439	-0.124	0.036
-548.339	-145.045	-0.323	0.030
-547.325	-200.000	0.020	0.166
-546.310	-68.803	0.125	0.049
-545.296	800.000	-0.009	-0.037
-544.281	-83.334	0.166	-0.054
-543.266	-200.000	-0.006	-0.275
-542.252	-32.778	0.225	-0.126
-541.237	-12.215	0.124	0.082
-540.223	25.204	-0.062	-0.052
-539.208	-22.010	0.128	0.079
-538.193	-200.000	0.014	-0.109
-537.179	268.861	0.036	-0.063
-536.164	-112.408	0.350	-0.071
-535.150	-200.000	-0.025	-0.209
-534.135	-91.845	-0.238	-0.068
-533.121	-200.000	0.020	0.096
-532.106	34.284	0.026	0.023
-531.091	-200.000	0.011	0.083
-530.077	267.770	-0.099	-0.175
-529.062	-200.000	-0.013	-0.224
-528.048	62.165	-0.140	-0.141
-527.033	-108.476	-0.312	-0.068
-526.018	-0.816	0.271	0.194
-525.004	-18.010	0.135	-0.085
-523.989	-7.045	-0.219	-0.150
-522.975	-11.445	0.098	-0.065
-521.960	335.453	0.208	0.407
-520.945	200.725	-0.076	-0.118
-519.931	-71.178	-0.159	0.060
-518.916	-178.661	0.221	-0.005
-517.902	-200.000	0.003	0.390
-516.887	-92.013	0.137	0.039
-515.872	800.000	0.037	-0.150
-514.858	-66.877	0.308	-0.123
-513.843	800.000	-0.015	0.055
-512.829	-163.360	0.230	0.011
-511.814	-78.346	-0.100	-0.035
-510.799	-200.000	-0.117	0.544
-509.785	-197.501	0.232	-0.001
-508.770	165.021	0.156	0.222
-507.756	-121.322	-0.358	-0.060
-506.741	11.535	-0.098	0.076
-505.726	262.618	-0.114	-0.199
-504.712	-92.419	-0.213	0.060
-503.697	71.377	-0.146	-0.152
-502.683	800.000	0.118	-0.421
-501.668	113.850	-0.234	0.287
-500.653	116.230	-0.159	-0.196
-499.639	-58.664	-0.119	-0.052
-498.624	-129.112	-0.147	-0.021
-497.610	-99.167	0.078	0.020
-496.595	58.194	-0.274	0.270
-495.581	532.346	0.100	0.238
-494.566	8.507	-0.028	-0.021
-493.551	-200.000	0.005	-0.076
-492.537	-200.000	0.038	0.239
-491.522	-54.912	-0.198	0.090
-490.508	407.366	-0.063	0.133
-489.493	800.000	0.053	-0.220
-488.478	145.606	-0.110	-0.148
-487.464	230.448	0.128	-0.211
-486.449	-200.000	-0.141	0.667
-485.435	596.444	-0.202	0.504
-484.420	800.000	0.098	0.397
-483.405	-98.465	0.200	-0.052
-482.391	800.000	0.090	-0.278
-481.376	3.819	-0.086	0.063
-480.362	51.845	-0.244	-0.233
-479.347	-118.668	-0.047	0.008
-478.332	800.000	-0.081	0.292
-477.318	-9.159	0.147	-0.099
-476.303	75.712	0.329	0.350
-475.289	-200.000	-0.067	-0.311
-474.274	115.358	-0.065	0.080
-473.259	488.455	0.097	-0.222
-472.245	-102.479	0.066	0.016
-471.230	485.088	-0.115	0.262
-470.216	169.315	-0.136	-0.195
-469.201	95.075	0.110	-0.126
-468.186	-140.801	-0.124	-0.013
-467.172	131.485	-0.131	0.169
-466.157	474.822	-0.065	0.148
-465.143	-26.847	-0.214	-0.125
-464.128	39.607	-0.191	-0.172
-463.113	-68.384	-0.180	-0.070
-462.099	-200.000	0.050	-0.388
-461.084	-200.000	-0.004	0.313
-460.070	-26.817	0.050	-0.029
-459.055	-200.000	-0.009	-0.104
-458.040	-127.744	-0.027	0.004
-457.026	800.000	-0.115	0.344
-456.011	197.571	-0.042	0.064
-454.997	-200.000	-0.079	0.350
-453.982	-169.244	0.214	0.008
-452.968	800.000	0.018	0.054
-451.953	-71.616	0.098	-0.037
-450.938	84.244	0.179	-0.197
-449.924	639.116	0.140	-0.358
-448.909	-200.000	0.036	-0.192
-447.895	-125.348	0.432	-0.066
-446.880	800.000	0.025	-0.089
-445.865	-86.476	-0.119	-0.037
-444.851	-200.000	0.024	0.177
-443.836	224.916	-0.094	-0.153
-442.822	84.196	-0.148	0.162
-441.807	64.462	0.086	0.087
-440.792	248.547	0.107	0.183
-439.778	125.810	0.144	0.183
-438.763	38.129	0.183	-0.164
-437.749	-94.024	-0.433	-0.119
-436.734	170.281	-0.063	-0.091
-435.719	-156.002	0.239	-0.015
-434.705	72.092	-0.169	0.177
-433.690	-200.000	-0.013	0.252
-432.676	50.239	0.109	0.104
-431.661	38.356	0.020	-0.018
-430.646	-151.151	-0.227	0.017
-429.632	-129.768	0.269	-0.037
-428.617	-140.019	-0.009	0.001
-427.603	800.000	0.174	0.484
-426.588	800.000	0.034	0.148
-425.573	-133.077	0.093	0.012
-424.559	800.000	-0.073	0.228
-423.544	-189.199	-0.155	0.002
-422.530	599.949	0.073	-0.181
-421.515	-200.000	0.060	0.266
-420.500	117.062	-0.208	-0.257
-419.486	201.814	-0.155	-0.239
-418.471	-81.885	0.137	0.045
-417.457	800.000	0.130	-0.418
-416.442	-157.216	0.252	0.015
-415.428	25.865	-0.136	0.114
-414.413	-24.232	0.048	-0.028
-413.398	-9.850	-0.171	-0.114
-412.384	41.288	0.117	-0.106
-411.369	-200.000	0.002	0.044
-410.355	-87.683	0.317	-0.096
-409.340	-200.000	-0.028	0.381
-408.325	117.876	-0.138	0.170
-407.311	-59.567	-0.376	0.162
-406.296	-112.775	-0.098	-0.020
-405.282	-41.042	-0.088	-0.046
-404.267	-200.000	-0.019	-0.094
-403.252	-98.498	0.135	0.035
-402.238	13.650	0.296	-0.231
-401.223	223.437	0.193	0.312
-400.209	60.544	-0.141	0.140
-399.194	-66.347	-0.233	0.093
-398.179	-98.780	-0.195	-0.050
-397.165	37.609	-0.327	0.291
-396.150	-138.597	0.452	0.050
-395.136	-200.000	-0.005	-0.232
-394.121	-84.648	0.308	-0.097
-393.106	-24.781	-0.311	0.185
-392.092	195.415	-0.186	0.283
-391.077	-200.000	0.076	-0.355
-390.063	-64.321	-0.202	0.082
-389.048	-200.000	-0.014	-0.260
-388.033	-200.000	0.035	-0.222
-387.019	800.000	0.059	-0.226
-386.004	800.000	0.025	-0.090
-384.990	702.328	-0.066	-0.175
-383.975	-129.105	-0.256	-0.036
-382.960	-27.881	-0.331	0.192
-381.946	-86.984	-0.082	0.025
-380.931	730.094	-0.081	0.218
-379.917	-200.000	-0.021	0.432
-378.902	162.322	0.107	-0.150
-377.888	-123.292	0.269	-0.043
-376.873	-200.000	-0.032	-0.197
-375.858	-200.000	0.026	-0.361
-374.844	-146.735	0.271	0.024
-373.829	-151.346	0.134	0.010
-372.815	354.861	-0.169	0.336
-371.800	26.750	0.131	0.110
-370.785	69.041	0.197	-0.203
-369.771	-95.882	-0.070	-0.019
-368.756	-75.467	0.328	0.117
-367.742	-135.057	-0.129	0.016
-366.727	292.869	-0.025	-0.046
-365.712	745.882	-0.127	0.341
-364.698	-82.804	-0.128	0.041
-363.683	42.861	0.151	0.138
-362.669	-200.000	-0.052	-0.254
-361.654	-170.604	0.328	-0.011
-360.639	-156.112	0.243	-0.015
-359.625	800.000	-0.022	0.066
-358.610	2.909	0.121	-0.088
-357.596	800.000	0.105	0.321
-356.581	-158.136	-0.148	-0.009
-355.566	-200.000	-0.100	-0.481
-354.552	-200.000	0.005	0.037
-353.537	-94.742	-0.130	0.035
-352.523	-200.000	-0.014	0.091
-351.508	-200.000	0.065	-0.297
-350.493	57.611	0.164	0.160
-349.479	-112.473	0.074	-0.015
-348.464	-137.307	-0.549	-0.062
-347.450	132.919	0.224	0.289
-346.435	-70.220	-0.193	-0.074
-345.420	-138.544	0.218	0.024
-344.406	-137.589	0.209	0.024
-343.391	31.392	0.300	-0.258
-342.377	311.058	0.168	-0.314
-341.362	-200.000	-0.015	-0.161
-340.348	29.801	-0.130	-0.111
-339.333	303.457	0.074	0.138
-338.318	57.752	0.172	-0.168
-337.304	101.676	-0.170	-0.199
-336.289	-50.471	0.163	-0.077
-335.275	-200.000	-0.000	-0.041
-334.260	-200.000	-0.018	0.096
-333.245	-108.035	-0.100	-0.022
-332.231	-163.591	0.256	0.012
-331.216	-112.616	-0.131	0.026
-330.202	271.055	0.033	0.058
-329.187	-117.716	0.433	-0.078
-328.172	-93.648	0.257	0.071
-327.158	-63.561	0.161	-0.066
-326.143	441.570	0.112	0.244
-325.129	-79.821	0.329	0.111
-324.114	-85.416	-0.407	-0.127
-323.099	24.170	-0.124	0.102
-322.085	-200.000	-0.064	0.349
-321.070	-133.122	-0.110	-0.014
-320.056	800.000	-0.122	-0.343
-319.041	-107.378	-0.536	-0.118
-318.026	111.202	0.203	0.244
-317.012	86.090	0.232	0.255
-315.997	-64.764	0.182	0.074
-314.983	-200.000	0.031	-0.194
-313.968	800.000	-0.012	-0.041
-312.953	-44.178	-0.045	-0.023
-311.939	17.193	-0.260	-0.206
-310.924	-200.000	0.043	0.221
-309.910	97.584	0.157	0.180
-308.895	388.874	-0.079	0.164
-307.880	148.579	-0.191	-0.258
-306.866	65.050	0.120	-0.121
-305.851	-145.711	-0.292	-0.026
-304.837	-108.468	0.230	0.049
-303.822	-200.000	-0.008	-0.066
-302.807	-200.000	-0.021	0.282
-301.793	-200.000	-0.034	0.228
-300.778	-52.743	0.075	0.035
-299.764	142.565	0.142	-0.189
-298.749	-102.650	-0.352	0.084
-297.735	-200.000	0.011	0.140
-296.720	69.004	0.232	0.238
-295.705	-103.422	0.258	-0.061
-294.691	800.000	0.059	0.170
-293.676	215.832	0.141	0.224
-292.662	496.045	-0.144	0.330
-291.647	135.835	-0.187	0.243
-290.632	800.000	0.126	0.464
-289.618	82.646	-0.139	-0.150
-288.603	-200.000	-0.026	0.217
-287.589	289.439	-0.083	0.150
-286.574	-200.000	-0.005	0.156
-285.559	32.413	-0.215	0.186
-284.545	800.000	-0.071	0.259
-283.530	-90.582	0.090	-0.026
-282.516	-17.503	0.159	0.100
-281.501	30.919	-0.106	0.090
-280.486	141.643	0.121	-0.161
-279.472	204.392	-0.102	0.157
-278.457	-200.000	-0.014	0.090
-277.443	335.065	0.041	-0.080
-276.428	81.925	-0.067	0.072
-275.413	58.399	0.154	-0.151
-274.399	-35.040	0.351	-0.191
-273.384	-94.076	-0.117	-0.032
-272.370	79.301	0.080	-0.086
-271.355	400.647	0.090	-0.188
-270.340	211.338	-0.154	-0.241
-269.326	-3.417	-0.255	-0.177
-268.311	800.000	-0.062	-0.248
-267.297	91.760	0.085	0.095
-266.282	-93.940	-0.141	0.039
-265.267	-198.485	-0.091	0.001
-264.253	-111.975	0.102	0.021
-263.238	-95.381	-0.102	0.027
-262.224	-131.409	-0.241	0.032
-261.209	309.813	0.101	0.188
-260.195	19.941	-0.040	0.032
-259.180	93.439	-0.098	0.111
-258.165	658.290	0.068	0.174
-257.151	-174.879	0.310	-0.009
-256.136	-157.176	-0.211	0.013
-255.122	-200.000	-0.031	0.422
-254.107	-129.561	0.178	0.025
-253.092	-200.000	-0.024	0.177
-252.078	-128.783	0.086	-0.012
-251.063	-95.259	0.536	0.144
-250.049	214.315	-0.094	0.148
-249.034	-18.423	-0.074	-0.046
-248.019	256.261	0.081	0.139
-247.005	-64.220	-0.117	-0.048
-245.990	-200.000	0.001	-0.082
-244.976	800.000	0.092	0.320
-243.961	-157.965	0.117	0.007
-242.946	-105.358	-0.278	-0.063
-241.932	-134.447	0.267	-0.033
-240.917	-148.793	0.275	-0.022
-239.903	72.258	0.045	-0.047
-238.888	-46.438	0.162	-0.079
-237.873	214.242	0.071	-0.112
-236.859	87.448	0.038	-0.041
-235.844	184.321	-0.015	0.021
-234.830	32.706	0.165	-0.143
-233.815	-200.000	0.058	-0.319
-232.800	-59.115	-0.136	0.058
-231.786	-200.000	-0.024	-0.218
-230.771	30.561	0.289	0.246
-229.757	421.541	-0.154	-0.328
-228.742	-6.711	-0.158	-0.107
-227.727	3.660	-0.129	-0.094
-226.713	106.167	0.171	-0.202
-225.698	-76.412	0.268	-0.094
-224.684	60.491	-0.182	0.179
-223.669	800.000	-0.089	-0.286
-222.655	-70.749	-0.173	0.065
-221.640	-21.825	0.072	-0.044
-220.625	402.888	0.047	-0.097
-219.611	714.963	0.084	-0.222
-218.596	-95.663	0.256	0.068
-217.582	-200.000	0.017	-0.216
-216.567	-200.000	-0.031	0.197
-215.552	-200.000	0.007	-0.184
-214.538	-138.877	-0.176	-0.019
-213.523	124.098	0.144	-0.179
-212.509	-135.025	-0.129	-0.016
-211.494	-120.668	0.173	0.029
-210.479	-71.933	-0.180	-0.067
-209.465	-200.000	-0.010	-0.065
-208.450	-89.937	0.252	0.073
-207.436	71.967	-0.059	-0.061
-206.421	-200.000	-0.044	0.221
-205.406	298.431	-0.068	0.125
-204.392	-110.287	0.328	-0.068
-203.377	123.630	-0.151	-0.188
-202.363	518.939	-0.110	-0.256
-201.348	-17.699	0.140	0.087
-200.333	-105.769	0.216	-0.049
-199.319	88.143	0.148	-0.163
-198.304	300.197	-0.091	0.167
-197.290	97.418	-0.167	-0.190
-196.275	124.004	-0.118	0.148
-195.260	290.166	0.055	0.100
-194.246	335.992	-0.149	0.288
-193.231	15.595	0.183	0.143
-192.217	-60.359	0.236	-0.100
-191.202	800.000	-0.017	0.065
-190.187	29.663	0.358	-0.303
-189.173	211.377	-0.076	-0.119
-188.158	-103.354	-0.247	-0.058
-187.144	-23.403	0.127	-0.076
-186.129	-19.240	-0.343	0.211
-185.114	-200.000	0.009	0.126
-184.100	425.598	0.140	0.299
-183.085	-178.347	0.110	0.003
-182.071	-136.606	0.197	0.023
-181.056	156.406	-0.085	-0.116
-180.042	-118.826	-0.347	-0.061
-179.027	-126.493	0.169	0.025
-178.012	800.000	-0.046	-0.188
-176.998	-200.000	-0.078	0.460
-175.983	-200.000	-0.004	-0.110
-174.969	118.042	0.214	0.262
-173.954	-139.875	-0.204	0.021
-172.939	182.493	0.190	0.279
-171.925	-179.045	-0.222	0.005
-170.910	199.113	0.088	-0.133
-169.896	271.979	0.160	-0.280
-168.881	650.386	-0.054	-0.136
-167.866	-117.291	0.181	-0.033
-166.852	-41.703	0.154	0.079
-165.837	-73.045	-0.123	0.045
-164.823	-142.080	-0.180	-0.018
-163.808	-76.153	0.083	0.029
-162.793	135.395	0.096	0.125
-161.779	78.059	-0.107	0.113
-160.764	290.616	0.167	0.301
-159.750	16.061	0.076	0.060
-158.735	-34.622	-0.185	0.101
-157.720	-103.397	0.099	0.023
-156.706	28.200	-0.272	-0.228
-155.691	-200.000	-0.008	0.173
-154.677	19.565	0.146	0.117
-153.662	800.000	-0.038	-0.139
-152.647	800.000	0.055	0.208
-151.633	319.649	0.130	-0.244
-150.618	-125.377	-0.150	0.023
-149.604	-200.000	-0.012	0.180
-148.589	800.000	0.049	0.201
-147.574	-200.000	0.027	-0.339
-146.560	-51.306	0.268	0.125
-145.545	-65.549	-0.308	0.123
-144.531	-36.382	0.253	-0.136
-143.516	623.148	-0.080	-0.201
-142.502	-200.000	-0.046	0.305
-141.487	320.587	-0.119	0.224
-140.472	-119.486	0.204	-0.035
-139.458	-14.944	0.156	-0.099
-138.443	-200.000	-0.001	-0.009
-137.429	-126.802	0.100	-0.015
-136.414	-200.000	0.004	0.303
-135.399	309.403	0.110	-0.204
-134.385	2.133	0.139	0.100
-133.370	10.586	0.112	0.085
-132.356	-200.000	0.040	-0.302
-131.341	29.584	-0.040	0.034
-130.326	-135.576	-0.104	-0.012
-129.312	220.179	0.253	-0.402
-128.297	-100.119	0.438	-0.108
-127.283	259.515	-0.086	0.148
-126.268	-200.000	-0.032	0.184
-125.253	175.156	-0.072	-0.104
-124.239	-60.978	0.200	-0.084
-123.224	-200.000	-0.008	-0.097
-122.210	82.589	0.188	0.203
