DTS Sentinel unit serial number:	SN413079Multiplexer serial number:	ORYXHardware model number:	OX4-SRSoftware version number:	ORYX F/W v4.00 Oryx Data Collector v3.7.2.0data status	okinstallation	princeton_trtdifferential loss correction	single-endedforward channel	channel 3reverse channel	N/Adate	2019/09/15time	16:16:35forward acquisition time	60.00reverse acquisition time	0.00gamma	496.2192k internal	0.2288k external	0.2288temperature offset calibration	0.9930default loss term (dB/km)	0.3790temperature slope calibration	1.0000multiplexer offset coefficient	1.0000multiplexer slope coefficient	1.0000fibre end	0.00T internal ref (°C)	43.45T ext. ref 1 (°C)	5.45T ext. ref 2 (°C)	40.17length (m)	temperature (°C)	Stokes	anti-Stokes-747.200	-87.367	-0.247	0.077
-746.185	800.000	0.080	0.314
-745.171	-124.302	0.089	0.014
-744.156	300.558	0.166	0.313
-743.142	-200.000	0.035	-0.383
-742.127	314.074	-0.021	0.041
-741.112	800.000	0.026	-0.104
-740.098	-200.000	-0.043	0.378
-739.083	-97.137	0.162	-0.043
-738.069	-81.750	-0.090	0.030
-737.054	-32.688	-0.018	-0.010
-736.039	-51.618	-0.093	0.044
-735.025	-165.825	-0.075	0.003
-734.010	64.598	-0.112	0.116
-732.996	-200.000	-0.010	-0.072
-731.981	167.586	-0.051	0.074
-730.966	-95.231	-0.193	-0.053
-729.952	-126.817	-0.092	-0.014
-728.937	-200.000	0.204	0.000
-727.923	800.000	0.033	-0.117
-726.908	96.154	0.145	-0.170
-725.894	165.749	-0.114	-0.166
-724.879	-125.440	0.192	-0.030
-723.864	-75.243	0.219	0.080
-722.850	42.812	-0.041	-0.038
-721.835	-93.196	-0.273	-0.078
-720.821	-4.356	-0.202	-0.143
-719.806	263.859	0.014	-0.025
-718.791	65.974	-0.140	-0.145
-717.777	-11.794	0.142	0.096
-716.762	170.557	-0.115	-0.168
-715.748	7.411	-0.082	-0.063
-714.733	-200.000	0.028	-0.435
-713.718	-97.830	0.255	0.067
-712.704	50.689	-0.046	0.045
-711.689	-62.320	-0.363	0.155
-710.675	-106.501	0.389	-0.089
-709.660	-200.000	0.036	0.244
-708.645	-66.964	0.229	-0.093
-707.631	192.652	0.067	0.104
-706.616	-41.243	0.253	-0.134
-705.602	-95.902	0.389	0.106
-704.587	-79.024	0.137	-0.048
-703.572	-100.375	0.106	0.027
-702.558	-124.598	-0.392	-0.062
-701.543	326.595	-0.108	-0.213
-700.529	-85.050	0.130	-0.042
-699.514	-200.000	-0.032	-0.275
-698.499	67.390	0.196	-0.205
-697.485	-75.605	0.168	-0.061
-696.470	800.000	-0.048	-0.139
-695.456	513.662	0.124	0.296
-694.441	593.636	0.020	-0.051
-693.426	368.842	-0.070	0.145
-692.412	96.393	0.280	-0.328
-691.397	322.219	0.134	-0.260
-690.383	245.725	-0.095	0.163
-689.368	-200.000	-0.033	0.460
-688.354	-41.883	-0.113	-0.059
-687.339	-60.695	0.207	0.090
-686.324	-122.063	0.204	-0.034
-685.310	14.170	-0.263	-0.210
-684.295	251.481	0.035	-0.060
-683.281	28.230	-0.112	0.097
-682.266	-200.000	0.030	-0.198
-681.251	800.000	-0.036	-0.150
-680.237	0.867	0.165	0.121
-679.222	-135.635	0.214	0.026
-678.208	-200.000	-0.002	0.032
-677.193	800.000	-0.016	0.069
-676.178	-147.857	0.214	0.018
-675.164	223.308	-0.031	-0.051
-674.149	159.092	-0.153	0.217
-673.135	-161.876	-0.250	0.013
-672.120	800.000	0.060	0.223
-671.105	-200.000	0.037	-0.247
-670.091	-159.165	-0.284	-0.016
-669.076	-44.074	-0.217	-0.111
-668.062	-200.000	-0.012	0.113
-667.047	-200.000	-0.024	0.351
-666.032	-52.831	0.207	0.097
-665.018	782.470	-0.063	-0.177
-664.003	143.404	-0.061	0.082
-662.989	662.931	0.060	0.159
-661.974	-200.000	0.018	0.167
-660.959	800.000	0.109	-0.343
-659.945	62.821	0.183	-0.187
-658.930	-200.000	-0.024	-0.233
-657.916	-136.083	0.276	0.033
-656.901	235.158	0.154	-0.260
-655.886	-113.729	0.417	-0.083
-654.872	-97.560	-0.130	0.034
-653.857	451.113	-0.131	-0.296
-652.843	-200.000	0.008	0.111
-651.828	-140.816	0.091	0.010
-650.814	427.779	0.051	-0.112
-649.799	-7.826	-0.072	0.050
-648.784	637.182	-0.066	0.172
-647.770	-200.000	0.052	0.263
-646.755	1.824	0.167	0.123
-645.741	-83.275	0.290	0.095
-644.726	335.355	-0.152	-0.301
-643.711	-200.000	0.003	-0.359
-642.697	-27.084	-0.469	-0.280
-641.682	65.118	0.118	0.122
-640.668	-135.517	0.206	-0.025
-639.653	-200.000	0.003	-0.287
-638.638	258.890	0.090	-0.158
-637.624	731.276	-0.067	0.182
-636.609	76.251	0.056	0.061
-635.595	-77.215	-0.205	0.073
-634.580	-92.172	-0.256	-0.074
-633.565	-200.000	-0.003	0.109
-632.551	-103.858	-0.271	0.065
-631.536	-152.284	-0.297	-0.022
-630.522	65.533	-0.073	-0.076
-629.507	47.248	-0.052	0.050
-628.492	-97.440	-0.188	0.050
-627.478	800.000	0.069	0.233
-626.463	-105.426	-0.309	-0.072
-625.449	-56.696	0.116	-0.053
-624.434	-16.283	0.205	0.133
-623.419	-200.000	0.079	0.431
-622.405	499.101	-0.123	0.289
-621.390	-121.985	-0.388	-0.065
-620.376	116.874	0.168	-0.211
-619.361	567.400	0.119	-0.296
-618.346	-12.932	-0.101	-0.067
-617.332	131.962	0.131	-0.172
-616.317	-200.000	-0.032	0.195
-615.303	62.679	-0.072	-0.073
-614.288	-81.271	-0.105	0.035
-613.273	-200.000	-0.056	-0.271
-612.259	800.000	0.048	0.211
-611.244	482.382	0.050	-0.116
-610.230	-200.000	0.042	0.209
-609.215	-120.148	-0.297	-0.052
-608.201	323.712	-0.051	-0.100
-607.186	34.934	0.126	0.113
-606.171	-91.622	-0.371	0.108
-605.157	800.000	0.093	-0.286
-604.142	0.104	-0.133	-0.096
-603.128	-93.077	-0.329	-0.093
-602.113	-83.847	0.139	-0.045
-601.098	-55.527	0.458	-0.209
-600.084	-119.508	-0.478	0.085
-599.069	-79.343	-0.093	0.032
-598.055	-200.000	0.013	-0.170
-597.040	800.000	-0.013	0.052
-596.025	-117.489	-0.106	-0.020
-595.011	800.000	0.038	0.141
-593.996	68.792	0.028	-0.030
-592.982	-200.000	0.007	0.147
-591.967	-70.599	0.105	0.040
-590.952	58.786	-0.158	0.158
-589.938	-157.722	-0.260	0.016
-588.923	-152.983	0.129	0.009
-587.909	-79.493	0.355	-0.122
-586.894	-110.118	0.113	-0.024
-585.879	800.000	0.013	-0.051
-584.865	-118.485	-0.244	-0.044
-583.850	55.106	0.183	-0.180
-582.836	-200.000	-0.027	-0.351
-581.821	147.964	-0.117	-0.161
-580.806	-200.000	0.012	0.159
-579.792	-136.018	-0.169	-0.020
-578.777	180.519	-0.073	0.109
-577.763	-3.677	0.108	0.076
-576.748	800.000	0.065	-0.211
-575.733	-200.000	-0.051	-0.303
-574.719	-200.000	-0.035	-0.222
-573.704	-200.000	-0.037	-0.191
-572.690	-30.991	-0.288	0.166
-571.675	46.509	0.157	0.148
-570.661	8.703	0.125	0.096
-569.646	-174.895	-0.386	0.011
-568.631	-148.634	0.085	0.007
-567.617	-200.000	-0.012	-0.312
-566.602	94.184	-0.108	0.125
-565.588	-200.000	-0.046	0.314
-564.573	-200.000	-0.009	-0.394
-563.558	440.403	-0.109	-0.244
-562.544	800.000	0.051	0.183
-561.529	25.048	-0.097	0.082
-560.515	-128.802	-0.174	-0.025
-559.500	131.530	0.154	-0.201
-558.485	-94.763	-0.140	0.039
-557.471	-111.608	-0.463	0.096
-556.456	-35.797	-0.226	0.124
-555.442	-94.962	0.309	0.085
-554.427	-59.870	-0.192	-0.084
-553.412	34.380	-0.238	-0.211
-552.398	-128.086	-0.309	0.045
-551.383	-87.250	0.142	-0.044
-550.369	-9.795	0.149	0.101
-549.354	74.048	-0.084	0.089
-548.339	-63.252	-0.167	-0.070
-547.325	186.867	0.094	-0.142
-546.310	-200.000	0.025	0.146
-545.296	-200.000	0.004	-0.018
-544.281	-200.000	-0.025	-0.237
-543.266	-55.239	-0.292	-0.134
-542.252	239.156	-0.137	-0.232
-541.237	276.770	0.066	-0.120
-540.223	-72.325	-0.123	-0.046
-539.208	-117.052	0.225	0.042
-538.193	800.000	-0.065	0.262
-537.179	800.000	0.064	0.205
-536.164	218.808	-0.109	0.176
-535.150	17.835	-0.167	-0.135
-534.135	-51.329	-0.110	0.052
-533.121	-76.243	0.194	0.069
-532.106	27.152	0.164	0.140
-531.091	769.092	0.030	0.083
-530.077	800.000	-0.080	0.242
-529.062	-60.495	-0.335	-0.145
-528.048	-57.234	-0.237	0.106
-527.033	-128.424	-0.047	0.007
-526.018	49.581	0.192	0.184
-525.004	-76.888	0.086	0.031
-523.989	-200.000	0.003	0.058
-522.975	7.739	-0.093	0.071
-521.960	-26.439	-0.292	0.174
-520.945	132.500	-0.195	0.255
-519.931	-200.000	0.021	0.308
-518.916	-200.000	-0.222	0.001
-517.902	-96.920	0.115	-0.031
-516.887	-20.645	-0.300	0.187
-515.872	2.203	0.157	0.115
-514.858	699.868	-0.038	-0.101
-513.843	-15.327	-0.211	0.137
-512.829	-34.110	-0.152	0.085
-511.814	-0.139	0.224	0.162
-510.799	-200.000	-0.005	0.395
-509.785	800.000	-0.063	-0.208
-508.770	744.200	-0.086	-0.235
-507.756	-200.000	-0.074	-0.384
-506.741	-0.650	-0.213	-0.153
-505.726	-59.854	-0.128	-0.056
-504.712	134.093	0.068	-0.090
-503.697	578.352	0.040	0.099
-502.683	800.000	0.047	-0.164
-501.668	800.000	0.078	0.293
-500.653	800.000	0.041	0.124
-499.639	145.820	0.157	0.213
-498.624	-200.000	0.004	-0.257
-497.610	30.592	0.339	0.294
-496.595	800.000	-0.086	-0.255
-495.581	-63.775	0.028	0.012
-494.566	20.266	0.246	0.202
-493.551	800.000	0.192	-0.575
-492.537	39.999	0.079	-0.072
-491.522	22.184	0.151	-0.125
-490.508	-99.524	0.310	0.079
-489.493	-200.000	0.010	0.308
-488.478	-200.000	0.053	0.393
-487.464	-41.289	-0.199	-0.104
-486.449	-119.631	-0.109	0.019
-485.435	21.019	-0.182	-0.150
-484.420	-200.000	-0.056	0.277
-483.405	-22.543	-0.279	0.171
-482.391	154.711	0.099	0.138
-481.376	38.957	0.049	0.044
-480.362	343.010	0.139	0.276
-479.347	707.632	0.065	0.174
-478.332	-44.436	-0.053	0.027
-477.318	55.308	-0.210	0.206
-476.303	-98.530	0.055	-0.014
-475.289	137.207	-0.047	0.063
-474.274	-79.703	-0.284	0.097
-473.259	-200.000	0.014	0.211
-472.245	5.615	0.061	-0.046
-471.230	-152.399	0.139	0.010
-470.216	-200.000	-0.016	0.090
-469.201	-118.015	0.261	0.047
-468.186	-148.427	0.097	-0.008
-467.172	-22.613	-0.327	-0.201
-466.157	51.777	0.158	0.152
-465.143	441.149	0.072	0.159
-464.128	-55.419	-0.227	-0.103
-463.113	36.113	-0.200	-0.179
-462.099	-142.198	-0.194	-0.020
-461.084	-71.317	0.184	-0.070
-460.070	16.092	-0.200	-0.159
-459.055	144.473	0.146	-0.198
-458.040	-66.063	0.167	0.068
-457.026	8.416	-0.155	0.118
-456.011	315.918	0.097	0.186
-454.997	-200.000	0.005	-0.078
-453.982	-200.000	-0.051	-0.430
-452.968	-7.641	-0.092	0.063
-451.953	522.301	0.053	-0.127
-450.938	-113.956	0.070	0.014
-449.924	-117.608	0.150	0.027
-448.909	-42.029	-0.193	0.100
-447.895	-138.255	-0.178	-0.020
-446.880	-118.389	0.097	0.017
-445.865	123.251	0.136	-0.173
-444.851	142.600	-0.141	-0.190
-443.836	-200.000	0.039	-0.191
-442.822	537.967	0.064	0.154
-441.807	800.000	-0.030	0.089
-440.792	-118.277	0.204	0.037
-439.778	-200.000	0.001	-0.327
-438.763	-153.520	0.136	0.010
-437.749	-57.115	0.270	-0.121
-436.734	-109.602	0.091	-0.020
-435.719	422.796	0.078	-0.169
-434.705	800.000	0.026	0.107
-433.690	-200.000	-0.013	0.107
-432.676	401.161	0.177	-0.377
-431.661	53.983	-0.160	-0.156
-430.646	174.787	0.063	0.092
-429.632	-155.221	0.284	-0.019
-428.617	-155.074	-0.274	0.018
-427.603	456.415	-0.104	-0.235
-426.588	-200.000	-0.005	-0.230
-425.573	-200.000	-0.015	-0.314
-424.559	800.000	-0.088	-0.361
-423.544	115.942	-0.118	0.146
-422.530	74.299	-0.034	0.036
-421.515	-119.942	-0.123	0.021
-420.500	-78.164	0.208	0.073
-419.486	-152.228	-0.118	0.009
-418.471	-41.427	0.176	-0.092
-417.457	800.000	-0.052	-0.214
-416.442	-200.000	0.011	-0.181
-415.428	-200.000	-0.008	0.057
-414.413	-145.679	0.373	-0.034
-413.398	57.710	0.163	0.161
-412.384	551.985	-0.133	0.322
-411.369	-200.000	-0.010	-0.223
-410.355	800.000	0.074	-0.235
-409.340	-89.555	-0.224	-0.067
-408.325	-27.966	0.217	0.127
-407.311	225.080	0.081	-0.133
-406.296	57.605	0.326	-0.322
-405.282	800.000	0.071	0.296
-404.267	-45.860	-0.154	0.077
-403.252	800.000	0.067	-0.260
-402.238	-156.790	0.299	-0.019
-401.223	214.516	-0.100	0.161
-400.209	-50.161	0.174	-0.084
-399.194	9.228	-0.219	-0.167
-398.179	-200.000	-0.017	-0.113
-397.165	-200.000	-0.025	-0.225
-396.150	348.107	0.176	0.352
-395.136	21.769	0.166	0.137
-394.121	101.050	0.089	-0.104
-393.106	800.000	0.077	-0.268
-392.092	-78.255	-0.218	-0.076
-391.077	-200.000	0.005	0.135
-390.063	-81.585	-0.148	-0.049
-389.048	-200.000	0.015	0.163
-388.033	23.744	-0.139	0.116
-387.019	372.017	-0.138	-0.284
-386.004	-129.765	-0.294	0.041
-384.990	-11.476	0.190	-0.127
-383.975	41.997	-0.189	-0.173
-382.960	130.336	-0.065	0.084
-381.946	54.721	0.092	0.090
-380.931	5.674	0.300	0.224
-379.917	-143.041	0.151	-0.015
-378.902	-133.679	0.279	-0.035
-377.888	800.000	0.110	-0.456
-376.873	33.445	0.195	-0.171
-375.858	-150.737	0.059	0.005
-374.844	-131.520	0.113	-0.015
-373.829	-102.303	-0.494	-0.120
-372.815	800.000	0.099	-0.344
-371.800	-83.459	-0.129	-0.042
-370.785	-200.000	0.025	0.225
-369.771	736.410	-0.082	0.223
-368.756	137.365	-0.215	-0.284
-367.742	184.845	0.071	-0.107
-366.727	51.422	0.302	0.290
-365.712	-200.000	-0.005	-0.123
-364.698	-200.000	-0.051	-0.316
-363.683	-39.537	-0.097	-0.052
-362.669	249.478	-0.026	-0.044
-361.654	247.088	-0.049	-0.083
-360.639	63.166	-0.276	0.280
-359.625	800.000	0.090	-0.262
-358.610	523.054	0.046	-0.109
-357.596	-61.208	0.182	0.077
-356.581	-34.138	0.328	0.182
-355.566	-22.428	-0.115	-0.070
-354.552	20.645	0.249	-0.203
-353.537	800.000	-0.075	-0.242
-352.523	-107.849	-0.321	-0.071
-351.508	117.297	-0.141	-0.174
-350.493	230.082	-0.056	0.093
-349.479	800.000	-0.043	0.134
-348.464	311.339	-0.061	0.115
-347.450	-97.812	-0.127	0.033
-346.435	800.000	0.038	0.151
-345.420	-34.091	0.146	-0.081
-344.406	-26.541	-0.192	0.114
-343.391	-170.714	0.253	0.009
-342.377	-141.896	-0.343	-0.035
-341.362	14.202	0.063	0.049
-340.348	-185.675	0.374	0.006
-339.333	-57.550	0.612	0.271
-338.318	786.310	-0.084	0.232
-337.304	758.689	-0.089	-0.244
-336.289	-58.974	-0.119	-0.052
-335.275	37.045	-0.445	0.397
-334.260	-69.714	-0.230	0.089
-333.245	800.000	-0.024	-0.089
-332.231	216.316	0.177	0.283
-331.216	-200.000	-0.038	0.276
-330.202	24.980	0.196	0.164
-329.187	-200.000	0.012	0.077
-328.172	78.717	-0.025	-0.027
-327.158	69.408	-0.158	-0.164
-326.143	80.390	-0.199	-0.216
-325.129	800.000	-0.092	-0.273
-324.114	-54.820	0.220	0.100
-323.099	-23.351	-0.132	0.080
-322.085	-45.245	0.457	0.229
-321.070	-156.306	-0.463	0.029
-320.056	-124.369	-0.133	-0.021
-319.041	-34.465	0.232	-0.128
-318.026	-108.433	0.263	-0.057
-317.012	-112.907	0.254	0.051
-315.997	651.353	0.079	0.204
-314.983	218.884	-0.217	-0.349
-313.968	-43.105	-0.385	0.197
-312.953	-60.472	-0.397	0.170
-311.939	-20.755	-0.302	-0.187
-310.924	531.627	-0.056	0.134
-309.910	-113.400	0.037	0.007
-308.895	-171.685	-0.114	-0.004
-307.880	96.486	-0.036	0.041
-306.866	11.694	0.123	0.095
-305.851	121.578	-0.136	0.171
-304.837	169.400	-0.116	-0.167
-303.822	-158.186	0.356	0.021
-302.807	-200.000	-0.021	0.138
-301.793	-200.000	0.008	-0.300
-300.778	41.907	-0.176	-0.161
-299.764	266.492	0.191	0.336
-298.749	800.000	-0.089	0.375
-297.735	63.751	0.069	0.070
-296.720	350.351	-0.097	0.193
-295.705	800.000	0.080	0.283
-294.691	24.412	0.227	0.189
-293.676	225.087	-0.140	0.227
-292.662	-110.375	0.109	0.023
-291.647	800.000	0.100	0.398
-290.632	419.337	-0.048	0.104
-289.618	-71.453	0.285	-0.107
-288.603	-40.115	-0.204	-0.107
-287.589	6.341	-0.181	-0.135
-286.574	-200.000	-0.024	0.335
-285.559	-200.000	0.032	0.264
-284.545	-91.326	0.417	-0.120
-283.530	-200.000	-0.025	-0.218
-282.516	-200.000	0.021	-0.304
-281.501	-200.000	-0.020	0.249
-280.486	95.944	-0.021	-0.025
-279.472	46.680	-0.267	-0.250
-278.457	287.364	-0.116	-0.212
-277.443	-112.833	0.155	0.031
-276.428	800.000	0.023	-0.075
-275.413	726.228	0.055	-0.147
-274.399	-64.392	-0.203	0.083
-273.384	170.343	0.236	0.340
-272.370	-133.505	-0.098	0.012
-271.355	29.874	-0.218	0.187
-270.340	800.000	-0.094	0.321
-269.326	-19.206	0.253	0.158
-268.311	71.280	-0.188	-0.196
-267.297	424.083	-0.023	0.049
-266.282	458.479	0.129	0.288
-265.267	-87.163	0.065	-0.020
-264.253	-61.547	0.311	0.131
-263.238	97.256	0.268	0.309
-262.224	-200.000	0.009	-0.133
-261.209	-91.142	0.227	0.065
-260.195	-200.000	0.029	-0.233
-259.180	272.094	0.118	0.209
-258.165	800.000	0.016	0.055
-257.151	-74.904	0.056	-0.020
-256.136	88.915	0.232	0.259
-255.122	800.000	-0.035	0.144
-254.107	800.000	-0.111	-0.310
-253.092	327.265	0.159	0.308
-252.078	-54.416	-0.126	-0.057
-251.063	233.940	0.143	0.237
-250.049	-200.000	0.035	-0.250
-249.034	-38.845	0.131	0.069
-248.019	-104.563	0.276	0.064
-247.005	-160.926	-0.038	-0.002
-245.990	117.405	-0.060	0.075
-244.976	-24.173	0.230	0.138
-243.961	521.160	-0.066	0.156
-242.946	-158.358	0.073	-0.004
-241.932	65.233	-0.151	-0.153
-240.917	-131.433	0.108	0.014
-239.903	-98.664	0.133	0.034
-238.888	-200.000	-0.031	0.163
-237.873	184.503	0.102	-0.152
-236.859	-147.571	-0.159	-0.013
-235.844	-200.000	-0.053	0.378
-234.830	36.079	-0.197	0.174
-233.815	74.973	0.262	-0.277
-232.800	36.193	0.132	-0.117
-231.786	800.000	0.063	0.191
-230.771	249.707	-0.147	-0.250
-229.757	-21.653	0.169	-0.103
-228.742	-127.319	0.202	0.030
-227.727	800.000	-0.052	0.201
-226.713	800.000	-0.054	-0.210
-225.698	112.268	-0.087	0.106
-224.684	-200.000	0.005	0.167
-223.669	-134.992	0.032	-0.004
-222.655	-91.467	0.285	0.082
-221.640	409.844	0.147	-0.314
-220.625	42.869	-0.180	0.165
-219.611	-63.170	-0.221	-0.092
-218.596	-162.291	-0.170	0.009
-217.582	166.918	0.128	0.182
-216.567	-164.472	0.235	-0.011
-215.552	26.414	0.104	-0.087
-214.538	-200.000	-0.025	0.219
-213.523	-73.402	-0.184	-0.067
-212.509	-31.141	0.323	-0.183
-211.494	-62.558	0.347	0.145
-210.479	800.000	0.078	-0.236
-209.465	444.012	0.088	-0.195
-208.450	687.578	-0.067	0.176
-207.436	-200.000	-0.008	0.132
-206.421	703.584	-0.100	-0.264
-205.406	255.079	-0.199	-0.342
-204.392	-200.000	-0.037	-0.279
-203.377	-14.165	-0.244	-0.158
-202.363	800.000	-0.063	-0.197
-201.348	-152.922	0.059	0.004
-200.333	87.208	-0.235	-0.260
-199.319	37.135	0.274	-0.244
-198.304	-90.547	0.227	0.066
-197.290	800.000	-0.035	0.141
-196.275	30.063	-0.016	-0.014
-195.260	220.784	0.090	0.144
-194.246	-22.622	-0.168	0.102
-193.231	297.803	0.038	0.069
-192.217	-200.000	-0.032	-0.154
-191.202	130.630	0.074	0.096
-190.187	81.272	0.173	0.187
-189.173	622.714	-0.069	-0.174
-188.158	-200.000	-0.049	0.238
-187.144	-60.642	0.595	-0.253
-186.129	33.853	-0.157	0.137
-185.114	-200.000	-0.017	-0.203
-184.100	122.272	-0.121	0.151
-183.085	501.566	-0.046	-0.106
-182.071	-6.191	0.348	-0.238
-181.056	19.441	-0.150	0.121
-180.042	-200.000	-0.017	0.425
-179.027	193.742	-0.165	0.250
-178.012	29.481	0.360	-0.307
-176.998	-200.000	0.001	0.492
-175.983	99.754	-0.243	-0.283
-174.969	105.304	-0.118	-0.140
-173.954	-0.593	-0.106	-0.075
-172.939	-105.248	0.189	-0.043
-171.925	800.000	0.071	-0.310
-170.910	29.654	0.089	0.076
-169.896	-156.635	-0.309	-0.019
-168.881	-124.306	0.142	-0.022
-167.866	800.000	-0.016	0.044
-166.852	-154.243	0.238	0.016
-165.837	437.762	0.156	-0.341
-164.823	-55.721	0.172	0.077
-163.808	-36.213	0.042	0.023
-162.793	-142.165	0.058	-0.006
-161.779	-92.480	0.153	-0.043
-160.764	-49.532	-0.114	-0.054
-159.750	-72.609	0.226	0.084
-158.735	-123.250	0.476	0.076
-157.720	-200.000	0.002	0.107
-156.706	10.632	0.176	-0.135
-155.691	-200.000	-0.039	-0.413
-154.677	-44.111	0.123	0.062
-153.662	-127.290	0.276	-0.040
-152.647	80.480	-0.198	0.214
-151.633	-50.575	-0.133	-0.063
-150.618	-200.000	-0.020	0.425
-149.604	519.273	0.068	0.159
-148.589	-28.701	0.127	-0.073
-147.574	-104.342	0.400	-0.093
-146.560	-6.073	-0.281	0.192
-145.545	-200.000	0.077	0.360
-144.531	-22.216	-0.074	0.045
-143.516	183.144	-0.184	-0.272
-142.502	-187.416	-0.072	-0.001
-141.487	-177.870	0.342	0.008
-140.472	-87.068	-0.339	0.103
-139.458	-50.944	-0.078	0.037
-138.443	-19.386	0.190	-0.118
-137.429	-200.000	-0.014	-0.092
-136.414	524.664	-0.178	-0.419
-135.399	107.014	0.095	0.112
-134.385	-200.000	0.070	-0.459
-133.370	-139.217	0.083	-0.009
-132.356	330.327	-0.129	-0.249
-131.341	-200.000	-0.018	-0.173
-130.326	-28.132	0.180	-0.104
-129.312	-200.000	0.030	-0.188
-128.297	-200.000	-0.030	0.193
-127.283	28.579	-0.296	-0.250
-126.268	-200.000	0.005	-0.101
-125.253	-65.414	0.255	-0.102
-124.239	14.302	0.115	0.090
-123.224	445.191	0.094	0.206
-122.210	-12.657	0.306	0.199
-121.195	47.847	0.120	0.113
