DTS Sentinel unit serial number:	SN413079Multiplexer serial number:	ORYXHardware model number:	OX4-SRSoftware version number:	ORYX F/W v4.00 Oryx Data Collector v3.7.2.0data status	okinstallation	princeton_trtdifferential loss correction	single-endedforward channel	channel 3reverse channel	N/Adate	2019/09/13time	09:32:35forward acquisition time	60.00reverse acquisition time	0.00gamma	496.2192k internal	0.2324k external	0.2324temperature offset calibration	1.0137default loss term (dB/km)	0.3790temperature slope calibration	1.0000multiplexer offset coefficient	1.0000multiplexer slope coefficient	1.0000fibre end	0.00T internal ref (°C)	29.52T ext. ref 1 (°C)	4.42T ext. ref 2 (°C)	25.83length (m)	temperature (°C)	Stokes	anti-Stokes-747.200	-98.131	0.253	0.066
-746.185	-200.000	-0.041	0.194
-745.171	-64.294	-0.100	-0.041
-744.156	-41.792	-0.120	-0.062
-743.142	-200.000	-0.072	0.498
-742.127	77.631	0.126	0.136
-741.112	-35.662	0.174	-0.095
-740.098	-21.274	-0.280	0.173
-739.083	800.000	-0.146	0.440
-738.069	-165.219	-0.264	0.012
-737.054	661.659	0.132	-0.343
-736.039	49.532	0.202	0.192
-735.025	-48.799	-0.063	-0.031
-734.010	46.441	-0.325	0.304
-732.996	-47.331	-0.175	0.086
-731.981	107.038	-0.224	0.268
-730.966	-200.000	0.012	0.130
-729.952	-124.221	-0.104	-0.016
-728.937	-36.881	-0.124	0.067
-727.923	100.005	-0.226	0.264
-726.908	-99.478	-0.314	-0.080
-725.894	-21.805	-0.094	-0.058
-724.879	24.154	-0.105	0.088
-723.864	70.057	-0.255	0.265
-722.850	-200.000	-0.053	-0.262
-721.835	68.446	-0.098	-0.102
-720.821	409.214	0.069	0.148
-719.806	-197.311	-0.080	0.001
-718.791	-100.760	-0.225	-0.056
-717.777	-72.403	0.397	0.148
-716.762	37.621	-0.066	-0.059
-715.748	-154.641	-0.034	0.002
-714.733	486.004	-0.111	-0.255
-713.718	95.082	0.094	0.108
-712.704	-200.000	0.000	-0.051
-711.689	-68.447	-0.215	0.084
-710.675	272.782	0.132	-0.235
-709.660	-56.840	-0.351	-0.156
-708.645	425.478	-0.113	-0.245
-707.631	-19.736	-0.169	-0.105
-706.616	800.000	-0.052	0.188
-705.602	800.000	-0.128	-0.363
-704.587	278.171	0.143	-0.256
-703.572	275.886	-0.077	0.138
-702.558	130.791	0.026	-0.034
-701.543	800.000	0.105	0.449
-700.529	-39.086	-0.064	0.034
-699.514	-132.231	0.403	-0.053
-698.499	22.789	0.082	-0.068
-697.485	518.108	0.137	-0.322
-696.470	-81.416	-0.175	0.058
-695.456	-122.735	0.217	-0.035
-694.441	-143.645	0.193	0.018
-693.426	10.844	-0.091	-0.070
-692.412	295.401	0.100	-0.184
-691.397	-140.198	-0.208	0.022
-690.383	240.598	-0.115	-0.192
-689.368	6.523	-0.030	-0.022
-688.354	-140.635	-0.173	-0.018
-687.339	426.327	0.100	-0.217
-686.324	-200.000	0.008	0.200
-685.310	-144.283	0.352	-0.033
-684.295	599.510	-0.122	0.304
-683.281	-200.000	0.023	0.219
-682.266	-200.000	-0.021	-0.238
-681.251	-96.058	-0.101	-0.027
-680.237	-76.353	-0.269	-0.095
-679.222	-71.231	-0.238	0.090
-678.208	138.888	0.041	-0.054
-677.193	92.536	0.049	-0.056
-676.178	-200.000	-0.016	0.151
-675.164	-39.907	0.137	0.072
-674.149	-200.000	0.024	-0.122
-673.135	-61.283	0.299	-0.127
-672.120	93.544	-0.330	0.376
-671.105	-177.176	-0.287	0.007
-670.091	189.697	0.144	0.217
-669.076	-54.241	0.036	0.017
-668.062	-200.000	-0.048	0.281
-667.047	574.366	0.030	-0.073
-666.032	800.000	-0.094	-0.369
-665.018	159.880	-0.153	-0.215
-664.003	-36.042	0.103	-0.056
-662.989	229.945	-0.105	-0.173
-661.974	-51.993	-0.092	0.043
-660.959	276.652	-0.148	-0.264
-659.945	245.626	0.135	-0.229
-658.930	-129.499	0.256	0.036
-657.916	-200.000	-0.002	-0.320
-656.901	3.013	-0.044	0.032
-655.886	-93.185	-0.496	-0.139
-654.872	338.134	0.083	-0.163
-653.857	-200.000	-0.073	-0.326
-652.843	-115.692	0.368	-0.069
-651.828	-30.149	-0.136	-0.078
-650.814	-200.000	-0.016	-0.141
-649.799	800.000	0.108	-0.335
-648.784	439.704	-0.092	-0.203
-647.770	-3.148	0.161	0.113
-646.755	371.612	-0.139	0.284
-645.741	-164.318	0.140	-0.006
-644.726	-39.235	-0.121	-0.064
-643.711	60.112	-0.310	-0.308
-642.697	288.323	-0.027	-0.049
-641.682	195.029	0.088	0.135
-640.668	-200.000	-0.003	0.193
-639.653	-35.203	-0.084	-0.046
-638.638	-111.488	-0.039	0.008
-637.624	-200.000	0.011	0.368
-636.609	-157.028	0.064	0.004
-635.595	264.605	-0.097	-0.171
-634.580	184.277	0.257	0.382
-633.565	800.000	-0.048	0.162
-632.551	-185.868	-0.381	0.006
-631.536	410.089	0.071	0.152
-630.522	35.271	0.174	0.153
-629.507	-200.000	-0.063	-0.331
-628.492	185.463	0.107	-0.160
-627.478	-111.345	0.096	-0.020
-626.463	-44.673	-0.436	-0.219
-625.449	325.914	-0.169	0.325
-624.434	800.000	0.091	0.356
-623.419	-81.998	-0.177	-0.058
-622.405	-27.040	-0.165	-0.097
-621.390	-143.537	0.148	-0.014
-620.376	-100.933	0.159	0.039
-619.361	-200.000	-0.013	-0.176
-618.346	659.357	0.090	-0.233
-617.332	-111.205	-0.361	0.074
-616.317	-51.608	0.251	-0.118
-615.303	47.490	-0.295	-0.276
-614.288	-153.907	-0.230	0.016
-613.273	800.000	0.061	-0.217
-612.259	-200.000	-0.018	-0.290
-611.244	-200.000	0.064	-0.289
-610.230	200.228	0.052	0.080
-609.215	-33.823	-0.425	0.235
-608.201	-16.186	-0.454	0.290
-607.186	-200.000	0.010	-0.117
-606.171	-71.904	0.329	0.123
-605.157	91.446	0.066	-0.074
-604.142	155.682	-0.239	0.330
-603.128	-63.940	-0.361	-0.148
-602.113	800.000	0.084	0.308
-601.098	800.000	-0.099	-0.283
-600.084	107.168	0.197	0.235
-599.069	179.631	-0.105	0.154
-598.055	89.085	-0.207	-0.232
-597.040	-54.898	-0.393	0.178
-596.025	14.261	0.134	0.105
-595.011	66.587	-0.241	0.246
-593.996	76.058	-0.162	-0.172
-592.982	80.417	-0.111	0.120
-591.967	800.000	-0.043	-0.165
-590.952	357.785	0.086	0.173
-589.938	93.947	0.140	0.159
-588.923	800.000	0.043	0.160
-587.909	-73.725	0.073	-0.027
-586.894	-91.214	-0.287	0.082
-585.879	-200.000	0.029	0.265
-584.865	-142.456	-0.082	-0.008
-583.850	85.412	-0.134	-0.147
-582.836	-113.559	0.242	0.048
-581.821	-149.561	-0.078	-0.006
-580.806	-200.000	-0.026	-0.384
-579.792	120.744	0.033	-0.042
-578.777	383.525	0.037	-0.077
-577.763	103.453	-0.219	-0.257
-576.748	280.034	0.061	-0.110
-575.733	192.974	0.140	-0.211
-574.719	78.487	0.162	0.174
-573.704	517.451	-0.115	-0.269
-572.690	36.840	-0.143	-0.127
-571.675	409.422	0.074	-0.158
-570.661	385.424	0.117	0.241
-569.646	129.300	-0.061	0.077
-568.631	-200.000	-0.013	-0.249
-567.617	604.398	-0.085	-0.213
-566.602	800.000	-0.175	-0.536
-565.588	800.000	-0.039	-0.134
-564.573	-41.328	0.484	-0.250
-563.558	800.000	0.051	0.216
-562.544	629.513	-0.054	0.136
-561.529	-185.759	-0.281	0.004
-560.515	-46.685	-0.255	-0.125
-559.500	-200.000	-0.003	-0.021
-558.485	-66.952	-0.019	-0.007
-557.471	16.648	0.189	-0.150
-556.456	39.565	0.066	-0.059
-555.442	1.895	0.212	-0.153
-554.427	-200.000	-0.071	-0.405
-553.412	66.618	-0.121	-0.123
-552.398	-56.167	0.388	-0.173
-551.383	-52.122	-0.172	0.080
-550.369	-11.789	0.104	0.068
-549.354	138.392	-0.054	-0.072
-548.339	-200.000	-0.015	-0.254
-547.325	400.225	0.084	0.176
-546.310	-200.000	0.009	0.115
-545.296	35.007	-0.083	0.073
-544.281	7.225	0.159	-0.119
-543.266	-200.000	0.003	-0.058
-542.252	-126.989	-0.153	0.022
-541.237	220.391	0.100	-0.161
-540.223	73.384	-0.116	0.121
-539.208	-123.704	-0.336	0.053
-538.193	-163.491	0.423	0.020
-537.179	12.284	-0.025	0.019
-536.164	187.312	-0.197	-0.295
-535.150	52.366	0.107	-0.102
-534.135	148.142	-0.084	0.114
-533.121	368.169	0.050	-0.102
-532.106	171.627	0.109	0.156
-531.091	-38.651	0.201	-0.106
-530.077	-200.000	-0.028	-0.142
-529.062	3.159	0.161	-0.118
-528.048	199.940	0.205	0.315
-527.033	9.577	-0.296	-0.224
-526.018	93.336	0.257	0.291
-525.004	-138.297	-0.210	-0.023
-523.989	293.294	0.120	-0.219
-522.975	49.728	-0.113	-0.107
-521.960	800.000	0.082	0.257
-520.945	-146.097	0.206	-0.018
-519.931	-109.725	0.301	-0.063
-518.916	112.216	-0.032	0.039
-517.902	-91.322	-0.275	0.079
-516.887	9.567	0.058	0.044
-515.872	-120.528	0.077	-0.013
-514.858	800.000	-0.086	0.240
-513.843	44.678	-0.139	-0.127
-512.829	-200.000	-0.033	0.231
-511.814	450.889	-0.063	0.138
-510.799	171.179	-0.178	-0.255
-509.785	361.950	0.146	-0.292
-508.770	-61.772	-0.388	-0.162
-507.756	-85.517	-0.240	-0.075
-506.741	-200.000	-0.032	0.241
-505.726	221.823	-0.224	0.360
-504.712	2.965	-0.191	-0.139
-503.697	-200.000	0.011	-0.109
-502.683	-106.393	-0.535	-0.120
-501.668	-68.712	-0.272	-0.105
-500.653	198.676	0.143	0.219
-499.639	-10.101	0.340	0.226
-498.624	294.623	0.123	0.225
-497.610	172.535	0.181	0.260
-496.595	204.900	0.115	-0.179
-495.581	-200.000	-0.042	0.216
-494.566	27.470	0.184	0.154
-493.551	-200.000	0.066	-0.458
-492.537	-138.825	0.223	0.024
-491.522	35.603	0.215	0.189
-490.508	-26.539	-0.285	-0.167
-489.493	-8.382	0.108	-0.073
-488.478	71.584	-0.111	-0.115
-487.464	0.913	-0.025	-0.018
-486.449	-72.156	0.166	0.061
-485.435	82.995	-0.076	0.082
-484.420	185.117	-0.104	0.154
-483.405	-200.000	-0.068	0.434
-482.391	-69.631	0.269	0.103
-481.376	-83.945	-0.189	-0.060
-480.362	-200.000	0.052	0.246
-479.347	146.550	-0.046	-0.062
-478.332	259.171	-0.109	-0.187
-477.318	-43.862	-0.154	-0.077
-476.303	133.332	0.113	0.146
-475.289	-115.537	-0.330	-0.062
-474.274	-167.888	0.210	0.008
-473.259	-149.830	-0.160	0.013
-472.245	295.247	0.161	-0.294
-471.230	108.139	-0.180	-0.214
-470.216	-169.511	-0.279	-0.010
-469.201	119.147	-0.200	0.247
-468.186	-118.628	0.243	0.043
-467.172	-200.000	0.008	0.214
-466.157	88.074	-0.194	-0.215
-465.143	-200.000	-0.060	0.294
-464.128	-200.000	-0.019	0.235
-463.113	-115.362	0.316	0.060
-462.099	-200.000	0.042	0.235
-461.084	-151.978	0.211	0.015
-460.070	-63.335	0.142	-0.058
-459.055	428.859	-0.045	-0.097
-458.040	58.943	0.170	-0.167
-457.026	-200.000	0.060	-0.304
-456.011	-134.569	0.060	-0.007
-454.997	-200.000	0.090	0.436
-453.982	-52.760	0.346	0.159
-452.968	-25.532	0.193	-0.114
-451.953	-200.000	0.012	0.155
-450.938	-200.000	0.019	-0.383
-449.924	-200.000	0.006	-0.282
-448.909	-124.428	-0.039	0.006
-447.895	800.000	0.108	-0.333
-446.880	785.891	0.104	0.283
-445.865	340.856	0.098	0.191
-444.851	180.483	0.174	0.255
-443.836	-97.365	-0.211	0.055
-442.822	39.561	0.060	0.054
-441.807	60.936	-0.280	-0.277
-440.792	-105.231	0.065	-0.015
-439.778	-48.129	0.323	-0.156
-438.763	800.000	-0.102	-0.289
-437.749	-46.440	0.156	-0.076
-436.734	232.080	-0.084	0.138
-435.719	-17.201	-0.225	-0.141
-434.705	-54.440	-0.316	0.143
-433.690	-11.717	0.072	0.047
-432.676	-17.724	0.075	0.047
-431.661	7.072	0.016	0.012
-430.646	186.580	0.095	0.140
-429.632	-57.253	0.024	-0.010
-428.617	444.208	0.145	-0.317
-427.603	40.801	0.148	-0.133
-426.588	263.955	0.075	0.129
-425.573	800.000	0.041	-0.139
-424.559	-57.863	-0.058	-0.025
-423.544	-177.528	0.332	0.008
-422.530	-159.785	-0.142	0.008
-421.515	631.515	0.085	0.214
-420.500	800.000	-0.050	-0.185
-419.486	42.209	-0.115	0.104
-418.471	-48.020	0.253	-0.122
-417.457	-69.989	-0.514	0.195
-416.442	-200.000	0.005	0.212
-415.428	482.865	0.083	0.189
-414.413	-17.596	0.196	-0.123
-413.398	-200.000	0.021	0.369
-412.384	636.570	-0.079	-0.201
-411.369	-43.552	-0.079	-0.040
-410.355	-200.000	-0.027	0.326
-409.340	187.180	0.195	0.290
-408.325	37.826	-0.358	0.317
-407.311	-16.973	0.092	-0.058
-406.296	-130.759	-0.256	-0.034
-405.282	323.402	0.087	0.166
-404.267	250.068	0.080	0.135
-403.252	90.581	0.002	-0.002
-402.238	-200.000	0.028	0.233
-401.223	76.385	-0.243	0.256
-400.209	-8.868	0.170	0.114
-399.194	-200.000	-0.016	0.157
-398.179	-89.014	0.031	0.009
-397.165	725.663	-0.035	-0.093
-396.150	-200.000	-0.035	0.167
-395.136	-94.117	0.196	-0.054
-394.121	95.029	0.088	0.099
-393.106	-63.762	-0.341	0.139
-392.092	213.351	0.110	0.173
-391.077	-15.679	0.138	-0.088
-390.063	-200.000	-0.002	0.626
-389.048	148.194	0.301	-0.404
-388.033	94.048	-0.197	0.222
-387.019	-150.579	-0.227	0.017
-386.004	-200.000	0.004	0.041
-384.990	117.886	0.157	-0.192
-383.975	-200.000	0.028	0.206
-382.960	800.000	0.044	-0.148
-381.946	-6.173	0.112	0.076
-380.931	-167.417	-0.254	0.010
-379.917	19.591	0.379	-0.303
-378.902	800.000	0.039	0.120
-377.888	361.404	0.073	0.146
-376.873	380.554	0.196	0.401
-375.858	8.406	0.213	0.160
-374.844	-74.933	0.085	-0.030
-373.829	-200.000	-0.015	-0.326
-372.815	800.000	-0.058	0.232
-371.800	20.268	-0.224	0.180
-370.785	-200.000	0.024	0.223
-369.771	147.007	-0.096	0.128
-368.756	175.470	0.094	0.135
-367.742	2.250	-0.081	-0.058
-366.727	312.450	0.039	0.074
-365.712	-132.834	0.181	0.023
-364.698	-200.000	0.009	0.114
-363.683	62.313	0.067	-0.066
-362.669	74.667	-0.117	-0.122
-361.654	-8.382	0.166	-0.111
-360.639	32.350	-0.210	0.181
-359.625	228.965	-0.167	-0.271
-358.610	176.255	-0.198	0.286
-357.596	-192.264	0.167	0.002
-356.581	669.473	-0.130	-0.335
-355.566	800.000	0.072	-0.305
-354.552	80.726	0.190	-0.203
-353.537	228.710	0.096	0.155
-352.523	29.270	0.205	0.173
-351.508	14.235	0.238	0.185
-350.493	-0.157	-0.245	-0.174
-349.479	-200.000	0.010	0.103
-348.464	90.004	0.142	-0.158
-347.450	-84.082	0.116	0.037
-346.435	-200.000	0.009	0.062
-345.420	-97.327	-0.158	0.041
-344.406	-87.882	0.237	0.071
-343.391	-67.515	0.196	-0.077
-342.377	-22.533	0.225	-0.135
-341.362	48.775	-0.015	0.014
-340.348	-77.126	0.141	-0.049
-339.333	-96.844	0.081	0.021
-338.318	29.840	-0.171	-0.145
-337.304	-17.007	0.081	0.051
-336.289	800.000	0.028	-0.101
-335.275	553.561	0.050	0.119
-334.260	-200.000	-0.052	0.311
-333.245	-58.691	-0.105	-0.045
-332.231	-200.000	0.020	0.169
-331.216	-32.149	-0.226	-0.126
-330.202	428.276	-0.061	-0.130
-329.187	-123.315	0.129	0.020
-328.172	800.000	0.079	-0.332
-327.158	88.012	0.039	-0.043
-326.143	331.278	-0.022	0.043
-325.129	423.791	0.124	0.264
-324.114	800.000	-0.097	0.386
-323.099	558.116	-0.061	-0.146
-322.085	-200.000	0.005	0.076
-321.070	-200.000	0.012	-0.146
-320.056	122.817	-0.308	-0.383
-319.041	-67.899	0.066	0.025
-318.026	-46.132	-0.128	0.062
-317.012	-155.863	-0.234	0.015
-315.997	-48.415	0.253	0.121
-314.983	-76.792	-0.171	-0.060
-313.968	50.452	0.035	0.033
-312.953	-200.000	-0.004	-0.101
-311.939	224.068	0.239	-0.383
-310.924	-121.420	-0.110	0.018
-309.910	-68.189	-0.330	-0.128
-308.895	800.000	0.105	0.378
-307.880	-191.763	-0.206	-0.002
-306.866	800.000	0.120	-0.390
-305.851	-0.217	0.033	-0.023
-304.837	287.959	-0.018	-0.033
-303.822	-61.906	-0.102	-0.042
-302.807	-78.308	0.195	0.066
-301.793	103.744	0.344	0.400
-300.778	-104.514	-0.194	0.044
-299.764	497.153	0.086	0.195
-298.749	504.764	0.139	-0.319
-297.735	-40.716	0.129	-0.066
-296.720	-200.000	-0.008	0.080
-295.705	-200.000	0.002	0.157
-294.691	-124.369	0.244	0.038
-293.676	-178.824	-0.273	-0.006
-292.662	800.000	0.032	-0.129
-291.647	-102.819	-0.250	-0.059
-290.632	46.825	-0.345	0.318
-289.618	-200.000	0.092	-0.425
-288.603	-114.350	0.052	-0.010
-287.589	42.490	0.078	0.070
-286.574	-181.670	0.183	0.004
-285.559	-99.268	0.277	-0.069
-284.545	-200.000	0.078	-0.394
-283.530	250.251	-0.150	0.252
-282.516	16.001	-0.130	0.101
-281.501	-105.087	-0.306	-0.069
-280.486	224.400	0.116	0.185
-279.472	-79.787	0.255	0.085
-278.457	-72.697	0.124	-0.045
-277.443	-41.497	0.349	-0.178
-276.428	-92.115	0.289	-0.081
-275.413	-200.000	-0.012	0.092
-274.399	-82.327	0.277	-0.089
-273.384	375.925	-0.148	-0.298
-272.370	-39.547	0.478	-0.248
-271.355	-9.142	-0.025	0.017
-270.340	-121.010	0.124	-0.021
-269.326	800.000	0.074	-0.220
-268.311	-16.410	0.282	0.177
-267.297	-200.000	-0.006	0.038
-266.282	-75.700	-0.304	0.107
-265.267	34.979	-0.249	0.216
-264.253	-146.256	-0.268	-0.023
-263.238	-94.357	-0.364	-0.098
-262.224	-18.223	-0.167	0.103
-261.209	-200.000	-0.038	0.169
-260.195	285.287	-0.132	-0.236
-259.180	125.387	-0.142	-0.177
-258.165	21.975	-0.172	0.139
-257.151	-200.000	-0.287	-0.001
-256.136	-200.000	0.027	0.117
-255.122	93.836	0.105	-0.118
-254.107	-92.159	-0.154	-0.043
-253.092	13.234	0.099	-0.076
-252.078	-200.000	0.094	-0.409
-251.063	89.937	-0.079	0.087
-250.049	-59.224	0.064	-0.027
-249.034	-200.000	-0.040	-0.210
-248.019	115.853	-0.285	0.345
-247.005	-118.753	-0.296	-0.052
-245.990	29.670	-0.293	-0.247
-244.976	-53.902	0.121	-0.055
-243.961	-148.331	-0.165	-0.013
-242.946	117.462	0.216	-0.263
-241.932	132.642	-0.038	-0.048
-240.917	179.793	-0.168	0.243
-239.903	54.585	0.233	-0.222
-238.888	800.000	-0.103	0.309
-237.873	428.517	-0.036	-0.078
-236.859	39.911	0.245	0.218
-235.844	-45.998	-0.141	0.069
-234.830	-182.378	0.215	-0.004
-233.815	44.922	0.094	-0.085
-232.800	493.818	0.056	0.128
-231.786	-161.684	-0.198	-0.010
-230.771	-126.296	0.083	-0.012
-229.757	800.000	0.011	0.042
-228.742	116.761	0.142	-0.172
-227.727	0.949	-0.069	0.049
-226.713	-42.301	-0.246	0.124
-225.698	220.735	-0.035	-0.055
-224.684	420.687	0.128	0.270
-223.669	800.000	0.042	-0.135
-222.655	162.283	0.118	-0.163
-221.640	-110.360	-0.339	-0.070
-220.625	-32.456	0.188	-0.104
-219.611	226.819	0.160	0.257
-218.596	-153.139	0.275	-0.019
-217.582	-32.408	0.179	-0.099
-216.567	-200.000	-0.010	-0.043
-215.552	-31.425	-0.149	-0.083
-214.538	-200.000	0.003	-0.179
-213.523	-75.496	0.506	-0.178
-212.509	-141.288	-0.235	-0.024
-211.494	-25.659	0.037	-0.022
-210.479	-112.955	0.302	-0.059
-209.465	59.699	-0.101	-0.099
-208.450	800.000	0.057	-0.220
-207.436	-6.871	0.095	-0.064
-206.421	25.464	0.199	0.163
-205.406	10.136	-0.532	-0.399
-204.392	800.000	-0.060	-0.212
-203.377	-97.207	0.055	-0.014
-202.363	369.983	0.083	-0.166
-201.348	71.097	0.236	-0.242
-200.333	800.000	-0.046	0.126
-199.319	144.626	0.036	-0.047
-198.304	516.534	0.062	-0.144
-197.290	56.230	0.074	0.071
-196.275	-8.914	0.107	0.071
-195.260	-200.000	0.000	0.014
-194.246	800.000	0.094	0.273
-193.231	-200.000	0.019	0.326
-192.217	-58.072	-0.119	0.051
-191.202	17.536	-0.161	-0.127
-190.187	63.784	0.181	0.180
-189.173	-24.540	-0.186	-0.109
-188.158	-40.661	-0.252	0.129
-187.144	182.298	-0.175	0.254
-186.129	-26.444	0.274	-0.159
-185.114	-139.273	-0.143	-0.015
-184.100	-200.000	-0.001	0.237
-183.085	-31.601	0.083	-0.046
-182.071	-200.000	-0.018	-0.322
-181.056	800.000	-0.026	0.104
-180.042	52.370	0.098	0.092
-179.027	-78.379	0.137	-0.046
-178.012	-29.438	0.183	-0.103
-176.998	-84.005	0.196	-0.062
-175.983	-33.838	-0.218	-0.119
-174.969	800.000	0.070	0.192
-173.954	547.263	0.061	0.144
-172.939	-110.403	0.174	0.036
-171.925	-100.910	-0.304	0.074
-170.910	-6.586	0.142	-0.096
-169.896	141.902	0.108	-0.141
-168.881	-113.098	-0.226	0.044
-167.866	-45.563	0.109	-0.053
-166.852	-113.403	0.086	0.017
-165.837	179.335	-0.108	0.156
-164.823	-200.000	0.006	0.171
-163.808	-143.456	-0.415	-0.039
-162.793	-81.029	-0.099	0.032
-161.779	-200.000	-0.037	-0.270
-160.764	800.000	-0.049	-0.183
-159.750	75.378	0.155	-0.161
-158.735	-90.095	-0.278	0.080
-157.720	394.868	0.115	0.237
-156.706	285.941	0.066	0.117
-155.691	-200.000	0.013	0.153
-154.677	800.000	0.051	-0.206
-153.662	168.021	0.102	0.144
-152.647	592.047	0.102	0.248
-151.633	800.000	0.025	-0.082
-150.618	-106.240	0.298	0.066
-149.604	-67.859	-0.372	-0.143
-148.589	-14.208	0.394	0.251
-147.574	263.514	-0.297	-0.509
-146.560	165.413	0.044	0.062
-145.545	10.489	-0.178	0.134
-144.531	207.126	0.016	0.025
-143.516	51.727	0.258	-0.242
-142.502	541.928	0.129	0.303
-141.487	-200.000	0.054	-0.266
-140.472	15.515	-0.094	0.073
-139.458	-109.766	-0.223	0.046
-138.443	-123.347	0.120	-0.019
-137.429	524.617	0.069	0.159
-136.414	-101.749	0.219	-0.052
-135.399	-29.447	-0.252	0.142
-134.385	-66.566	-0.199	-0.078
-133.370	21.449	-0.172	-0.138
-132.356	158.717	0.234	-0.320
-131.341	43.064	0.253	0.227
-130.326	131.173	-0.207	0.262
-129.312	-30.995	-0.078	-0.043
-128.297	1.577	0.270	0.192
-127.283	800.000	0.033	0.097
-126.268	7.040	0.373	0.274
-125.253	-200.000	0.020	0.317
-124.239	180.311	0.152	-0.219
-123.224	-130.644	0.341	0.045
-122.210	-25.226	-0.094	-0.055
-121.195	-74.467	0.085	0.030
-120.180	482.973	0.123	0.275
