DTS Sentinel unit serial number:	SN413079Multiplexer serial number:	ORYXHardware model number:	OX4-SRSoftware version number:	ORYX F/W v4.00 Oryx Data Collector v3.7.2.0data status	okinstallation	princeton_trtdifferential loss correction	single-endedforward channel	channel 3reverse channel	N/Adate	2019/09/19time	06:20:34forward acquisition time	60.00reverse acquisition time	0.00gamma	496.2192k internal	0.2348k external	0.2348temperature offset calibration	0.9990default loss term (dB/km)	0.3790temperature slope calibration	1.0000multiplexer offset coefficient	1.0000multiplexer slope coefficient	1.0000fibre end	0.00T internal ref (°C)	19.06T ext. ref 1 (°C)	0.57T ext. ref 2 (°C)	12.73length (m)	temperature (°C)	Stokes	anti-Stokes-747.200	800.000	-0.024	-0.099
-746.185	741.153	-0.057	0.152
-745.171	800.000	-0.040	0.156
-744.156	231.206	0.159	0.260
-743.142	498.923	0.092	-0.213
-742.127	-150.675	0.226	-0.017
-741.112	106.560	-0.060	-0.071
-740.098	-68.043	-0.239	-0.093
-739.083	-68.176	0.144	0.056
-738.069	2.481	-0.317	0.229
-737.054	-200.000	0.022	-0.103
-736.039	-98.186	-0.111	-0.028
-735.025	-26.121	0.379	0.222
-734.010	-68.095	-0.381	-0.148
-732.996	-89.176	-0.068	-0.020
-731.981	170.523	-0.200	0.286
-730.966	11.057	-0.106	-0.081
-729.952	-125.741	-0.516	0.078
-728.937	-123.772	-0.239	0.038
-727.923	83.541	0.197	0.214
-726.908	-200.000	-0.038	-0.226
-725.894	800.000	0.054	-0.184
-724.879	800.000	0.047	0.159
-723.864	-29.018	-0.196	-0.112
-722.850	45.628	-0.012	0.011
-721.835	191.526	0.178	0.268
-720.821	800.000	0.025	0.086
-719.806	759.991	0.094	-0.255
-718.791	-46.743	-0.113	0.055
-717.777	-116.089	-0.356	0.066
-716.762	-78.231	-0.395	-0.136
-715.748	800.000	0.015	-0.058
-714.733	800.000	0.066	0.187
-713.718	66.909	-0.193	-0.196
-712.704	-87.188	-0.221	-0.067
-711.689	-200.000	-0.015	-0.130
-710.675	800.000	0.078	-0.270
-709.660	226.229	0.063	0.101
-708.645	246.408	-0.069	0.116
-707.631	-67.272	-0.235	0.092
-706.616	800.000	0.012	0.046
-705.602	-142.140	-0.313	-0.031
-704.587	800.000	-0.061	0.240
-703.572	-82.912	0.428	-0.138
-702.558	800.000	0.052	0.161
-701.543	-37.288	0.376	-0.201
-700.529	71.661	0.244	-0.252
-699.514	800.000	0.023	0.064
-698.499	382.140	-0.087	0.179
-697.485	-200.000	0.020	-0.340
-696.470	-22.017	0.325	-0.197
-695.456	-95.692	-0.292	0.078
-694.441	119.046	-0.173	0.213
-693.426	-9.661	0.044	0.029
-692.412	-200.000	-0.015	-0.070
-691.397	-178.333	-0.292	-0.007
-690.383	-49.065	-0.153	0.073
-689.368	16.409	-0.135	-0.106
-688.354	-127.020	-0.228	0.033
-687.339	-8.721	-0.320	0.214
-686.324	-123.628	0.011	-0.002
-685.310	-23.003	-0.180	0.108
-684.295	800.000	0.043	0.151
-683.281	-112.931	-0.264	-0.052
-682.266	288.281	0.027	-0.049
-681.251	-11.418	-0.263	-0.172
-680.237	609.157	-0.023	0.058
-679.222	-118.944	-0.366	-0.064
-678.208	-71.213	0.329	0.123
-677.193	800.000	-0.048	0.161
-676.178	-200.000	0.033	0.313
-675.164	-200.000	0.012	-0.076
-674.149	800.000	-0.067	-0.276
-673.135	75.174	-0.077	-0.081
-672.120	425.068	-0.075	-0.160
-671.105	148.682	0.034	0.046
-670.091	35.743	-0.054	0.047
-669.076	-200.000	-0.011	-0.199
-668.062	-114.127	0.052	0.010
-667.047	-107.341	-0.301	0.066
-666.032	-98.362	0.106	0.027
-665.018	1.239	-0.247	-0.177
-664.003	-60.394	-0.090	-0.038
-662.989	800.000	-0.042	-0.145
-661.974	-125.865	-0.240	0.036
-660.959	-62.504	-0.277	0.115
-659.945	800.000	0.069	0.228
-658.930	-200.000	0.004	-0.211
-657.916	-200.000	-0.027	-0.197
-656.901	-156.812	-0.225	-0.014
-655.886	-123.729	-0.255	-0.040
-654.872	-9.552	-0.217	-0.144
-653.857	-200.000	-0.014	0.324
-652.843	-9.859	-0.116	-0.077
-651.828	168.823	0.019	0.027
-650.814	671.046	0.081	0.209
-649.799	-125.716	0.339	0.051
-648.784	800.000	0.052	-0.183
-647.770	-68.922	0.207	0.079
-646.755	86.389	-0.205	-0.225
-645.741	-36.668	-0.290	-0.155
-644.726	-200.000	-0.046	-0.435
-643.711	-53.378	0.078	-0.036
-642.697	86.021	0.098	-0.107
-641.682	800.000	-0.024	-0.091
-640.668	-87.136	-0.084	-0.025
-639.653	-200.000	0.022	0.156
-638.638	351.869	0.082	-0.161
-637.624	-101.086	-0.457	0.111
-636.609	800.000	0.039	0.167
-635.595	-124.804	-0.225	0.035
-634.580	-15.746	0.081	-0.051
-633.565	-6.767	-0.233	-0.157
-632.551	186.584	0.102	-0.152
-631.536	221.751	-0.146	0.234
-630.522	-8.842	0.129	0.086
-629.507	-63.710	0.189	-0.077
-628.492	-36.174	0.084	-0.045
-627.478	-171.097	-0.286	0.010
-626.463	-47.250	-0.175	0.085
-625.449	-135.809	0.032	0.004
-624.434	85.296	-0.085	0.092
-623.419	-86.906	0.276	0.084
-622.405	37.493	-0.336	0.296
-621.390	-121.497	0.273	0.045
-620.376	59.115	0.234	-0.229
-619.361	800.000	-0.079	-0.255
-618.346	800.000	-0.078	0.274
-617.332	75.099	-0.163	-0.171
-616.317	800.000	0.025	0.080
-615.303	-40.380	-0.099	-0.051
-614.288	-39.015	-0.296	0.155
-613.273	367.778	0.058	-0.117
-612.259	800.000	-0.049	-0.198
-611.244	14.482	-0.189	-0.147
-610.230	-200.000	0.010	0.045
-609.215	189.677	-0.043	0.064
-608.201	-67.959	0.261	-0.101
-607.186	800.000	-0.074	-0.320
-606.171	464.051	0.107	-0.237
-605.157	14.682	0.069	-0.054
-604.142	-176.816	-0.183	0.005
-603.128	482.586	0.062	0.139
-602.113	-112.253	0.502	0.100
-601.098	-66.328	0.254	0.100
-600.084	-75.516	-0.047	-0.016
-599.069	-97.660	0.094	0.024
-598.055	800.000	0.057	0.201
-597.040	800.000	-0.056	0.237
-596.025	110.768	-0.198	-0.236
-595.011	-93.079	-0.102	-0.028
-593.996	79.049	0.053	-0.057
-592.982	242.896	-0.104	0.172
-591.967	238.635	-0.223	0.368
-590.952	800.000	-0.072	-0.247
-589.938	110.065	0.095	0.113
-588.923	497.838	-0.047	0.107
-587.909	-96.024	-0.213	0.056
-586.894	-29.093	-0.209	-0.119
-585.879	-200.000	0.008	0.171
-584.865	-54.122	-0.248	-0.112
-583.850	-200.000	-0.020	0.215
-582.836	650.411	0.055	0.141
-581.821	-200.000	-0.005	0.025
-580.806	-146.572	-0.216	-0.019
-579.792	800.000	0.037	0.129
-578.777	37.757	-0.289	0.254
-577.763	-19.993	-0.126	-0.077
-576.748	619.780	-0.097	-0.243
-575.733	78.160	-0.247	0.261
-574.719	-200.000	-0.030	-0.192
-573.704	785.223	0.034	-0.093
-572.690	36.455	0.515	-0.451
-571.675	800.000	0.056	-0.176
-570.661	58.706	0.119	0.116
-569.646	337.712	0.145	-0.281
-568.631	800.000	-0.041	-0.116
-567.617	-74.322	-0.521	-0.187
-566.602	334.840	-0.109	-0.209
-565.588	-0.477	-0.081	-0.057
-564.573	-200.000	0.031	0.182
-563.558	-30.366	0.212	-0.119
-562.544	24.853	0.260	0.213
-561.529	-73.918	-0.187	0.067
-560.515	236.108	0.118	-0.194
-559.500	-102.674	0.212	0.050
-558.485	25.276	0.270	-0.222
-557.471	50.410	0.152	-0.143
-556.456	-200.000	0.016	-0.241
-555.442	-200.000	-0.019	0.157
-554.427	-200.000	-0.004	0.109
-553.412	-128.315	0.350	-0.049
-552.398	-200.000	-0.052	0.299
-551.383	-85.377	0.139	0.043
-550.369	562.845	0.147	0.354
-549.354	-59.263	0.284	-0.121
-548.339	-102.510	-0.352	0.083
-547.325	221.399	0.114	-0.182
-546.310	-200.000	-0.030	-0.208
-545.296	-49.263	0.226	-0.107
-544.281	-200.000	0.009	-0.203
-543.266	-200.000	0.034	0.391
-542.252	56.277	-0.182	0.175
-541.237	800.000	-0.071	0.218
-540.223	-171.389	-0.184	0.006
-539.208	30.174	-0.156	-0.132
-538.193	-112.847	-0.137	0.027
-537.179	333.196	-0.096	-0.184
-536.164	503.620	0.056	-0.129
-535.150	-104.497	-0.188	0.043
-534.135	503.139	0.040	-0.091
-533.121	45.110	0.085	-0.078
-532.106	165.454	-0.101	0.141
-531.091	87.134	-0.070	-0.077
-530.077	419.414	0.048	0.103
-529.062	-125.976	-0.204	0.030
-528.048	373.293	-0.030	0.060
-527.033	-36.664	0.272	-0.145
-526.018	-126.261	-0.114	-0.017
-525.004	-116.199	-0.193	-0.035
-523.989	385.009	0.111	0.226
-522.975	-78.180	0.277	0.094
-521.960	420.648	-0.045	-0.095
-520.945	64.959	-0.110	-0.110
-519.931	-200.000	-0.010	-0.050
-518.916	161.580	-0.065	-0.091
-517.902	-83.211	-0.153	-0.049
-516.887	-164.252	0.316	0.014
-515.872	-46.192	-0.226	-0.110
-514.858	-200.000	0.012	0.148
-513.843	113.684	-0.108	-0.130
-512.829	66.328	0.288	0.289
-511.814	61.361	0.133	0.131
-510.799	-102.537	-0.364	-0.086
-509.785	-200.000	-0.001	-0.335
-508.770	800.000	0.052	-0.173
-507.756	70.247	-0.149	0.152
-506.741	-24.899	0.099	-0.058
-505.726	-110.403	-0.123	-0.025
-504.712	-59.077	0.093	0.040
-503.697	510.875	-0.106	0.245
-502.683	123.618	0.301	0.374
-501.668	36.630	0.201	0.176
-500.653	21.518	0.181	-0.146
-499.639	-122.622	0.068	0.011
-498.624	314.539	-0.195	0.364
-497.610	-143.031	0.237	-0.023
-496.595	50.830	-0.134	0.126
-495.581	282.107	-0.075	-0.133
-494.566	-83.879	-0.242	0.076
-493.551	-154.760	-0.176	-0.012
-492.537	646.634	0.048	-0.121
-491.522	285.308	-0.133	0.237
-490.508	800.000	0.152	-0.458
-489.493	34.364	0.195	0.169
-488.478	-128.479	-0.208	0.029
-487.464	-39.130	-0.139	-0.072
-486.449	-112.231	0.250	-0.050
-485.435	800.000	-0.194	-0.674
-484.420	-87.604	-0.218	0.065
-483.405	-67.826	0.245	-0.095
-482.391	-8.034	0.248	-0.165
-481.376	-200.000	0.055	0.364
-480.362	-200.000	0.108	-0.000
-479.347	-200.000	-0.012	0.085
-478.332	64.126	-0.280	0.278
-477.318	57.536	-0.076	0.074
-476.303	-128.488	-0.078	0.011
-475.289	21.958	-0.015	0.012
-474.274	-42.161	-0.178	-0.090
-473.259	23.232	-0.026	-0.021
-472.245	-37.098	-0.262	0.139
-471.230	-177.598	0.185	0.004
-470.216	495.577	-0.042	-0.095
-469.201	-160.993	0.303	-0.016
-468.186	170.447	-0.107	-0.151
-467.172	4.857	0.334	-0.243
-466.157	-120.813	-0.332	-0.055
-465.143	120.866	0.148	-0.182
-464.128	306.962	0.118	0.218
-463.113	800.000	-0.038	0.140
-462.099	-39.185	-0.140	0.073
-461.084	-28.010	0.356	-0.203
-460.070	23.343	-0.200	0.163
-459.055	165.004	0.161	0.225
-458.040	800.000	-0.084	0.236
-457.026	50.714	-0.134	0.125
-456.011	-103.457	-0.473	-0.110
-454.997	-31.813	0.213	0.118
-453.982	221.181	-0.036	0.058
-452.968	800.000	0.047	0.159
-451.953	195.531	-0.087	0.130
-450.938	-127.520	0.174	-0.025
-449.924	329.041	-0.056	0.107
-448.909	235.134	-0.078	0.127
-447.895	-90.371	0.195	0.056
-446.880	-200.000	-0.018	-0.298
-445.865	83.720	-0.033	-0.035
-444.851	6.241	-0.182	-0.133
-443.836	-99.975	0.250	-0.062
-442.822	-7.666	-0.276	-0.184
-441.807	-49.574	0.171	-0.081
-440.792	30.253	0.222	0.187
-439.778	-200.000	-0.013	0.151
-438.763	245.718	0.047	-0.078
-437.749	-157.857	-0.261	0.015
-436.734	-6.272	-0.173	-0.117
-435.719	-170.976	0.071	0.002
-434.705	-108.058	-0.137	0.029
-433.690	-200.000	-0.051	-0.263
-432.676	53.031	0.196	-0.186
-431.661	-70.747	-0.293	-0.109
-430.646	-64.639	-0.150	0.060
-429.632	307.223	0.132	-0.242
-428.617	358.138	0.079	-0.155
-427.603	-178.219	-0.077	0.002
-426.588	800.000	-0.059	-0.188
-425.573	-200.000	-0.016	0.077
-424.559	-200.000	-0.025	0.254
-423.544	222.628	-0.125	0.198
-422.530	-25.239	-0.190	0.111
-421.515	-109.078	-0.441	-0.093
-420.500	334.723	0.046	0.088
-419.486	-29.934	-0.029	-0.016
-418.471	-6.359	0.132	0.089
-417.457	800.000	0.096	-0.285
-416.442	400.530	-0.090	0.187
-415.428	-41.551	-0.261	-0.132
-414.413	-72.809	-0.339	-0.123
-413.398	-200.000	-0.017	0.181
-412.384	-8.889	-0.356	-0.235
-411.369	-200.000	0.062	0.343
-410.355	800.000	-0.061	0.179
-409.340	1.992	0.375	0.267
-408.325	250.897	-0.092	0.155
-407.311	200.726	-0.145	0.220
-406.296	800.000	0.097	0.380
-405.282	231.193	0.176	-0.284
-404.267	20.439	-0.290	-0.231
-403.252	-200.000	0.332	-0.001
-402.238	-142.656	0.186	0.018
-401.223	-46.901	0.187	0.090
-400.209	-98.512	-0.134	-0.034
-399.194	-107.052	0.177	-0.039
-398.179	179.843	-0.275	0.397
-397.165	-144.014	0.093	-0.009
-396.150	204.083	0.127	-0.195
-395.136	-96.592	-0.095	0.025
-394.121	602.438	0.132	-0.322
-393.106	51.111	0.052	0.049
-392.092	800.000	-0.077	-0.317
-391.077	-69.812	0.396	-0.149
-390.063	209.143	0.074	-0.114
-389.048	151.311	0.191	0.257
-388.033	59.707	0.161	0.157
-387.019	-200.000	0.044	0.222
-386.004	37.733	-0.062	-0.055
-384.990	658.286	-0.090	0.227
-383.975	-200.000	0.003	-0.184
-382.960	-64.856	-0.319	-0.127
-381.946	-159.150	-0.147	0.008
-380.931	-200.000	0.017	0.079
-379.917	800.000	-0.079	-0.296
-378.902	324.742	0.154	-0.291
-377.888	-188.879	0.135	-0.002
-376.873	136.736	0.124	0.159
-375.858	200.864	-0.094	0.142
-374.844	-200.000	-0.020	0.209
-373.829	146.732	-0.116	-0.153
-372.815	-200.000	-0.009	0.103
-371.800	-20.583	0.137	0.083
-370.785	-148.558	-0.391	0.031
-369.771	-152.035	0.060	-0.004
-368.756	-112.494	-0.214	-0.042
-367.742	-106.300	-0.511	-0.113
-366.727	-200.000	0.007	-0.124
-365.712	-200.000	-0.041	-0.261
-364.698	668.887	-0.071	0.180
-363.683	-115.642	-0.222	0.041
-362.669	118.675	0.248	-0.301
-361.654	245.760	-0.132	-0.219
-360.639	81.272	0.115	-0.122
-359.625	-5.846	-0.223	-0.151
-358.610	196.472	-0.117	-0.176
-357.596	537.378	-0.141	-0.328
-356.581	-200.000	0.041	0.261
-355.566	50.285	0.197	0.183
-354.552	-63.490	0.315	-0.128
-353.537	-31.531	0.082	0.046
-352.523	-66.755	-0.140	-0.055
-351.508	331.090	-0.133	-0.252
-350.493	167.872	-0.075	0.106
-349.479	-101.397	0.310	-0.074
-348.464	800.000	0.159	0.489
-347.450	275.570	-0.040	0.070
-346.435	800.000	0.019	0.072
-345.420	-80.286	-0.336	0.110
-344.406	422.281	0.089	0.188
-343.391	800.000	0.054	-0.213
-342.377	16.527	-0.127	0.099
-341.362	-142.462	0.238	-0.023
-340.348	-63.293	-0.460	-0.186
-339.333	338.194	0.190	-0.363
-338.318	800.000	0.012	-0.044
-337.304	77.696	0.043	0.045
-336.289	-200.000	-0.049	-0.225
-335.275	-147.715	-0.191	0.016
-334.260	-200.000	-0.060	-0.315
-333.245	-200.000	-0.044	-0.270
-332.231	-200.000	-0.042	0.282
-331.216	800.000	-0.102	0.439
-330.202	-83.037	0.658	0.208
-329.187	-200.000	-0.002	-0.213
-328.172	-116.585	-0.104	0.019
-327.158	95.661	-0.240	-0.269
-326.143	-30.623	-0.413	-0.230
-325.129	76.246	0.064	-0.067
-324.114	-200.000	-0.015	-0.258
-323.099	193.200	0.109	0.162
-322.085	-200.000	-0.026	-0.129
-321.070	85.973	0.101	-0.110
-320.056	54.969	-0.029	-0.027
-319.041	-200.000	0.032	-0.282
-318.026	-200.000	-0.041	0.349
-317.012	62.804	-0.091	0.089
-315.997	800.000	-0.098	-0.391
-314.983	-72.519	0.192	0.070
-313.968	183.029	-0.228	-0.331
-312.953	-200.000	0.067	0.293
-311.939	-25.592	-0.171	-0.099
-310.924	53.220	0.089	0.083
-309.910	136.838	0.106	0.136
-308.895	-120.213	0.499	0.084
-307.880	-200.000	-0.046	0.202
-306.866	-200.000	0.004	0.191
-305.851	-43.943	-0.226	-0.112
-304.837	293.931	0.230	0.412
-303.822	-122.035	0.220	0.035
-302.807	-22.349	0.218	-0.129
-301.793	-29.110	0.046	0.026
-300.778	800.000	0.069	-0.226
-299.764	-200.000	0.015	0.360
-298.749	78.620	-0.184	-0.193
-297.735	-200.000	0.000	-0.207
-296.720	325.929	-0.173	-0.324
-295.705	-65.738	0.341	0.134
-294.691	57.181	-0.100	0.095
-293.676	-40.792	-0.162	-0.082
-292.662	75.613	0.092	0.095
-291.647	272.817	0.127	0.219
-290.632	-36.552	0.192	-0.101
-289.618	319.133	0.080	0.148
-288.603	-100.897	0.097	0.023
-287.589	-21.726	0.353	-0.211
-286.574	-137.769	-0.252	-0.028
-285.559	-200.000	0.001	-0.120
-284.545	-200.000	-0.002	0.023
-283.530	382.951	-0.101	0.204
-282.516	245.649	-0.242	0.399
-281.501	-82.881	0.403	-0.128
-280.486	-54.623	0.165	0.073
-279.472	-200.000	0.036	-0.375
-278.457	-200.000	-0.055	0.487
-277.443	43.988	-0.025	-0.022
-276.428	-200.000	0.054	0.409
-275.413	677.029	-0.044	-0.112
-274.399	-16.917	0.186	0.115
-273.384	-200.000	-0.010	-0.126
-272.370	800.000	0.017	-0.066
-271.355	209.443	0.125	0.192
-270.340	-198.920	-0.108	-0.001
-269.326	-100.800	-0.065	-0.016
-268.311	203.299	-0.075	0.113
-267.297	-112.360	0.334	-0.066
-266.282	107.937	0.053	0.061
-265.267	-192.287	-0.287	-0.003
-264.253	59.780	0.199	0.193
-263.238	593.676	0.124	0.300
-262.224	-75.374	-0.099	-0.035
-261.209	-33.554	-0.224	-0.121
-260.195	-1.840	-0.080	0.055
-259.180	47.827	-0.156	0.142
-258.165	800.000	-0.042	-0.138
-257.151	-72.762	0.136	-0.049
-256.136	-19.969	0.043	0.026
-255.122	-65.594	0.253	-0.100
-254.107	-200.000	-0.040	-0.309
-253.092	-39.969	0.111	-0.057
-252.078	-62.965	-0.207	0.084
-251.063	538.557	-0.064	-0.150
-250.049	645.254	-0.014	0.036
-249.034	-91.552	-0.449	-0.125
-248.019	-83.725	0.232	0.073
-247.005	21.275	0.162	0.129
-245.990	441.776	-0.024	-0.052
-244.976	800.000	0.085	-0.264
-243.961	-200.000	-0.004	-0.316
-242.946	328.875	0.154	0.290
-241.932	-18.399	0.127	0.078
-240.917	-60.998	0.043	0.018
-239.903	79.465	-0.229	-0.241
-238.888	-62.508	-0.154	-0.063
-237.873	-127.378	0.369	-0.053
-236.859	-24.246	-0.088	-0.051
-235.844	-175.153	-0.088	0.002
-234.830	-15.775	-0.155	-0.097
-233.815	361.819	0.028	-0.056
-232.800	107.972	0.194	-0.226
-231.786	-200.000	0.016	-0.299
-230.771	-161.899	0.308	0.015
-229.757	201.420	0.161	0.242
-228.742	-200.000	0.023	0.189
-227.727	-200.000	0.012	-0.122
-226.713	-34.184	0.332	0.179
-225.698	-200.000	0.059	-0.626
-224.684	-118.378	-0.417	-0.073
-223.669	-99.761	0.162	0.040
-222.655	422.133	-0.119	-0.251
-221.640	504.402	0.026	-0.060
-220.625	-79.672	0.412	-0.136
-219.611	-127.916	-0.292	-0.041
-218.596	-59.203	-0.333	0.140
-217.582	45.194	0.284	-0.256
-216.567	-50.503	0.131	0.061
-215.552	-27.543	0.229	0.130
-214.538	-200.000	0.031	0.448
-213.523	295.474	0.052	-0.093
-212.509	450.862	-0.020	-0.044
-211.494	-142.495	-0.151	0.015
-210.479	797.741	-0.112	-0.301
-209.465	-200.000	0.007	0.355
-208.450	260.773	0.190	-0.322
-207.436	-200.000	-0.017	0.445
-206.421	-141.171	0.049	0.005
-205.406	-153.978	0.158	-0.011
-204.392	-23.265	-0.124	-0.073
-203.377	55.746	0.146	0.139
-202.363	-1.003	0.080	0.055
-201.348	32.014	0.187	0.158
-200.333	800.000	0.073	0.286
-199.319	60.250	-0.171	-0.165
-198.304	800.000	0.046	0.143
-197.290	69.257	-0.089	0.090
-196.275	-13.686	-0.146	0.092
-195.260	22.465	-0.205	0.164
-194.246	-200.000	-0.048	-0.241
-193.231	3.450	0.184	-0.131
-192.217	73.692	-0.188	-0.193
-191.202	237.384	-0.253	0.410
-190.187	-38.196	-0.171	0.089
-189.173	-8.682	0.128	0.084
-188.158	5.361	-0.182	-0.131
-187.144	377.588	0.186	0.373
-186.129	-162.734	0.264	0.013
-185.114	-134.587	-0.270	0.032
-184.100	-79.017	-0.188	0.063
-183.085	-135.251	0.135	-0.016
-182.071	134.861	0.081	-0.103
-181.056	635.826	0.163	0.404
-180.042	175.538	-0.083	0.117
-179.027	-200.000	0.003	-0.157
-178.012	125.129	-0.156	0.192
-176.998	41.236	0.240	0.212
-175.983	228.916	-0.007	-0.012
-174.969	-130.666	0.344	0.045
-173.954	-10.229	-0.078	-0.051
-172.939	-200.000	0.065	0.304
-171.925	13.844	-0.195	0.148
-170.910	-165.259	-0.127	-0.005
-169.896	-31.719	0.235	0.129
-168.881	-139.662	0.358	0.037
-167.866	800.000	-0.102	-0.393
-166.852	-67.753	-0.149	0.057
-165.837	-111.770	0.088	0.017
-164.823	-82.513	-0.365	0.116
-163.808	360.882	-0.020	-0.039
-162.793	-95.464	0.130	-0.034
-161.779	60.724	0.213	-0.206
-160.764	800.000	-0.073	-0.269
-159.750	173.582	-0.093	0.131
-158.735	800.000	-0.010	0.036
-157.720	-106.308	0.299	-0.065
-156.706	-81.130	0.202	0.065
-155.691	-23.768	0.190	0.111
-154.677	299.098	0.241	0.433
-153.662	136.766	0.149	0.191
-152.647	-200.000	0.029	0.148
-151.633	800.000	-0.015	0.053
-150.618	309.668	-0.071	-0.129
-149.604	334.101	-0.228	0.431
-148.589	392.992	-0.219	-0.445
-147.574	83.083	0.156	0.165
-146.560	-200.000	0.019	0.087
-145.545	51.697	0.233	-0.217
-144.531	111.270	0.047	-0.055
-143.516	-83.336	0.088	0.027
-142.502	-157.187	0.368	-0.022
-141.487	-200.000	-0.001	0.188
-140.472	375.101	-0.041	-0.082
-139.458	502.287	-0.118	-0.266
-138.443	-157.764	-0.095	0.005
-137.429	-22.234	0.123	0.073
-136.414	76.077	0.431	0.445
-135.399	-200.000	-0.035	-0.186
-134.385	-135.491	-0.163	-0.019
-133.370	-101.203	0.080	0.019
-132.356	-200.000	-0.080	0.000
-131.341	-200.000	0.019	-0.198
-130.326	-71.501	0.250	-0.091
-129.312	49.122	0.213	-0.195
-128.297	708.048	-0.019	-0.050
-127.283	175.716	0.010	0.014
-126.268	-106.339	-0.036	-0.008
-125.253	-29.175	0.234	0.131
-124.239	-41.186	-0.257	0.129
-123.224	300.254	-0.048	0.086
-122.210	-200.000	0.018	-0.103
