DTS Sentinel unit serial number:	SN413079Multiplexer serial number:	ORYXHardware model number:	OX4-SRSoftware version number:	ORYX F/W v4.00 Oryx Data Collector v3.7.2.0data status	okinstallation	princeton_trtdifferential loss correction	single-endedforward channel	channel 3reverse channel	N/Adate	2019/09/14time	20:00:35forward acquisition time	60.00reverse acquisition time	0.00gamma	496.2192k internal	0.2313k external	0.2313temperature offset calibration	1.0009default loss term (dB/km)	0.3790temperature slope calibration	1.0000multiplexer offset coefficient	1.0000multiplexer slope coefficient	1.0000fibre end	0.00T internal ref (°C)	34.06T ext. ref 1 (°C)	4.89T ext. ref 2 (°C)	28.33length (m)	temperature (°C)	Stokes	anti-Stokes-747.200	669.347	0.163	-0.429
-746.185	204.275	-0.099	0.155
-745.171	228.323	0.076	-0.125
-744.156	-28.391	-0.226	0.132
-743.142	-45.888	-0.206	-0.103
-742.127	800.000	-0.138	0.414
-741.112	-200.000	0.012	-0.156
-740.098	279.331	-0.029	0.053
-739.083	96.729	-0.119	0.139
-738.069	52.696	-0.258	0.250
-737.054	-181.987	-0.166	-0.003
-736.039	-200.000	-0.006	-0.236
-735.025	36.649	-0.084	-0.075
-734.010	-37.992	-0.202	-0.109
-732.996	-61.596	-0.398	0.169
-731.981	3.318	0.157	0.116
-730.966	14.591	-0.344	-0.273
-729.952	-23.640	-0.140	-0.085
-728.937	800.000	-0.056	-0.206
-727.923	-9.707	-0.127	0.086
-726.908	-200.000	0.002	-0.262
-725.894	0.232	-0.115	-0.083
-724.879	-179.415	0.237	-0.005
-723.864	256.113	-0.120	-0.209
-722.850	-200.000	0.015	0.100
-721.835	307.130	0.107	-0.201
-720.821	-110.283	-0.426	0.090
-719.806	128.539	0.135	-0.174
-718.791	-65.775	-0.081	0.033
-717.777	-200.000	-0.031	-0.141
-716.762	-134.452	0.173	-0.021
-715.748	14.207	0.027	-0.021
-714.733	-161.059	-0.063	0.003
-713.718	-131.132	-0.060	0.008
-712.704	188.501	0.084	-0.127
-711.689	68.238	-0.191	0.198
-710.675	800.000	0.062	0.176
-709.660	800.000	-0.031	-0.098
-708.645	119.744	-0.136	0.171
-707.631	332.729	0.073	-0.143
-706.616	-200.000	-0.009	-0.140
-705.602	17.120	-0.309	-0.248
-704.587	740.834	-0.050	-0.137
-703.572	-200.000	-0.001	0.104
-702.558	369.724	0.100	-0.204
-701.543	326.489	-0.043	-0.083
-700.529	223.285	0.108	0.177
-699.514	800.000	-0.032	-0.129
-698.499	-200.000	-0.001	0.090
-697.485	-27.478	-0.157	-0.093
-696.470	-35.933	-0.107	0.058
-695.456	-200.000	-0.025	-0.216
-694.441	800.000	0.044	-0.161
-693.426	-200.000	0.015	0.000
-692.412	-108.284	-0.142	0.031
-691.397	-27.706	0.104	0.061
-690.383	-200.000	-0.016	-0.084
-689.368	473.244	-0.052	-0.118
-688.354	13.193	0.208	-0.163
-687.339	-42.599	0.088	-0.045
-686.324	101.074	-0.188	-0.221
-685.310	657.553	-0.116	-0.303
-684.295	-200.000	0.057	-0.256
-683.281	-95.141	0.187	0.051
-682.266	-138.318	-0.140	0.016
-681.251	154.688	-0.047	0.065
-680.237	-200.000	0.014	0.089
-679.222	608.227	0.075	0.189
-678.208	348.725	0.079	0.157
-677.193	-91.484	-0.307	-0.089
-676.178	133.421	-0.131	-0.171
-675.164	32.715	-0.210	0.184
-674.149	-27.853	0.314	-0.184
-673.135	-200.000	0.052	0.419
-672.120	-31.851	-0.195	0.111
-671.105	-60.294	0.182	-0.078
-670.091	799.902	0.055	-0.153
-669.076	-90.551	0.143	0.042
-668.062	45.906	0.030	0.028
-667.047	-200.000	0.176	0.000
-666.032	-200.000	-0.042	-0.196
-665.018	-164.135	0.251	-0.012
-664.003	-4.959	0.078	0.054
-662.989	183.290	-0.169	-0.252
-661.974	-200.000	0.060	0.352
-660.959	-17.599	0.046	-0.029
-659.945	115.028	-0.127	-0.157
-658.930	-107.036	0.039	-0.009
-657.916	20.827	-0.100	-0.082
-656.901	-53.465	-0.151	0.070
-655.886	107.196	-0.277	-0.332
-654.872	-78.619	0.351	-0.121
-653.857	143.017	0.083	0.112
-652.843	-3.289	0.135	0.095
-651.828	-112.126	0.160	0.032
-650.814	-14.582	-0.267	-0.173
-649.799	-200.000	0.011	0.115
-648.784	-94.314	0.432	0.119
-647.770	-51.038	0.218	-0.104
-646.755	-169.446	-0.172	-0.006
-645.741	47.870	0.126	0.119
-644.726	-200.000	-0.021	-0.130
-643.711	-153.225	0.253	-0.018
-642.697	-200.000	0.061	0.321
-641.682	46.453	0.240	0.225
-640.668	-88.308	-0.293	0.088
-639.653	-67.772	0.091	-0.036
-638.638	405.610	0.183	0.390
-637.624	-200.000	-0.015	-0.268
-636.609	-200.000	-0.009	0.105
-635.595	-69.423	-0.323	0.125
-634.580	-101.045	0.124	-0.031
-633.565	54.704	0.210	0.205
-632.551	232.579	0.133	-0.220
-631.536	-200.000	-0.014	0.097
-630.522	263.745	-0.095	-0.167
-629.507	-129.323	0.336	-0.047
-628.492	301.553	0.056	0.104
-627.478	-200.000	-0.006	-0.209
-626.463	624.006	-0.157	-0.398
-625.449	118.790	0.012	-0.015
-624.434	365.969	0.088	0.179
-623.419	247.083	0.010	0.017
-622.405	14.065	-0.120	-0.094
-621.390	-116.015	-0.292	-0.055
-620.376	800.000	-0.146	0.477
-619.361	800.000	-0.079	0.313
-618.346	800.000	0.051	0.188
-617.332	-59.238	-0.063	-0.027
-616.317	232.506	0.200	0.332
-615.303	93.446	-0.059	0.068
-614.288	243.898	0.103	0.175
-613.273	-36.876	0.284	0.153
-612.259	229.803	0.183	0.302
-611.244	266.070	0.147	-0.259
-610.230	36.475	-0.075	-0.067
-609.215	-44.404	-0.347	-0.175
-608.201	0.032	-0.017	0.012
-607.186	-21.134	-0.255	0.157
-606.171	52.804	0.119	0.115
-605.157	-179.238	-0.579	0.013
-604.142	282.365	-0.069	-0.124
-603.128	-190.837	-0.258	0.003
-602.113	-101.218	0.472	-0.116
-601.098	286.709	0.132	0.241
-600.084	-112.442	-0.280	0.056
-599.069	30.975	0.212	-0.183
-598.055	-170.045	0.161	-0.006
-597.040	-200.000	0.013	0.217
-596.025	63.340	0.069	-0.070
-595.011	-108.253	-0.216	-0.047
-593.996	-88.557	0.133	0.040
-592.982	50.616	-0.136	0.130
-591.967	13.555	-0.107	-0.084
-590.952	421.135	0.061	-0.133
-589.938	677.447	-0.059	0.153
-588.923	-200.000	-0.023	0.159
-587.909	27.203	-0.181	-0.153
-586.894	27.941	0.017	-0.014
-585.879	687.712	-0.100	-0.262
-584.865	17.819	0.147	0.118
-583.850	800.000	0.083	0.336
-582.836	-200.000	-0.021	-0.142
-581.821	-42.132	0.152	0.078
-580.806	180.212	-0.089	-0.131
-579.792	-35.768	0.343	-0.187
-578.777	800.000	-0.110	-0.338
-577.763	-132.742	0.365	-0.047
-576.748	800.000	0.142	-0.395
-575.733	122.166	-0.006	0.007
-574.719	-200.000	-0.017	0.131
-573.704	201.540	0.087	0.135
-572.690	-200.000	-0.044	0.430
-571.675	-200.000	0.002	-0.065
-570.661	-200.000	0.051	-0.313
-569.646	46.547	-0.194	0.181
-568.631	-200.000	-0.032	0.213
-567.617	-200.000	0.028	0.224
-566.602	96.332	0.197	-0.226
-565.588	48.372	-0.226	0.213
-564.573	49.820	0.111	-0.105
-563.558	42.739	-0.117	-0.107
-562.544	197.928	0.153	-0.235
-561.529	-200.000	-0.002	-0.308
-560.515	-46.610	-0.225	0.111
-559.500	-104.858	-0.203	-0.047
-558.485	12.798	0.209	0.162
-557.471	51.632	-0.195	-0.187
-556.456	-80.397	-0.299	0.101
-555.442	800.000	-0.055	0.225
-554.427	800.000	0.073	-0.224
-553.412	168.321	-0.196	0.281
-552.398	-113.079	-0.275	0.055
-551.383	-200.000	0.001	0.199
-550.369	-200.000	-0.034	-0.152
-549.354	-173.602	0.360	0.011
-548.339	-118.061	-0.251	-0.045
-547.325	-149.550	-0.110	-0.009
-546.310	177.061	-0.071	0.103
-545.296	-200.000	0.036	-0.497
-544.281	-5.345	0.122	0.084
-543.266	99.850	-0.049	-0.057
-542.252	665.204	0.116	0.301
-541.237	41.703	-0.116	-0.106
-540.223	800.000	-0.069	-0.300
-539.208	-39.012	-0.171	0.091
-538.193	-128.256	0.125	0.018
-537.179	-160.670	-0.078	0.004
-536.164	57.339	-0.223	0.219
-535.150	800.000	0.034	-0.122
-534.135	587.830	-0.095	0.235
-533.121	-200.000	0.037	0.184
-532.106	-114.903	-0.194	0.037
-531.091	-200.000	-0.024	-0.280
-530.077	-60.192	-0.228	-0.098
-529.062	-200.000	0.020	0.149
-528.048	-200.000	0.007	-0.094
-527.033	-49.332	0.509	0.244
-526.018	236.793	-0.154	-0.256
-525.004	175.504	0.007	0.011
-523.989	800.000	0.030	0.087
-522.975	-50.677	0.433	-0.205
-521.960	67.766	0.216	-0.222
-520.945	-200.000	-0.056	-0.262
-519.931	-46.955	0.204	0.100
-518.916	-200.000	0.019	-0.158
-517.902	2.904	0.162	-0.118
-516.887	216.992	-0.092	0.148
-515.872	-125.104	-0.412	0.063
-514.858	800.000	0.028	-0.094
-513.843	-89.308	0.143	0.042
-512.829	104.982	0.249	0.295
-511.814	-200.000	-0.033	-0.174
-510.799	334.173	-0.012	0.023
-509.785	-136.678	0.233	0.027
-508.770	-169.279	-0.245	0.009
-507.756	28.217	0.148	-0.125
-506.741	245.354	0.126	-0.212
-505.726	-188.134	-0.434	-0.006
-504.712	33.244	0.100	0.087
-503.697	133.455	0.120	0.156
-502.683	-144.791	0.192	-0.018
-501.668	57.675	0.199	0.196
-500.653	117.754	-0.282	0.349
-499.639	52.638	0.257	-0.246
-498.624	-200.000	0.008	-0.316
-497.610	44.019	-0.092	-0.084
-496.595	800.000	0.051	0.166
-495.581	272.958	0.145	-0.256
-494.566	-129.091	-0.323	0.045
-493.551	98.344	0.088	0.102
-492.537	-83.253	-0.268	-0.087
-491.522	800.000	0.104	-0.332
-490.508	28.369	0.020	-0.017
-489.493	-82.530	-0.422	-0.138
-488.478	-63.672	-0.036	-0.015
-487.464	800.000	-0.088	-0.323
-486.449	800.000	-0.028	-0.099
-485.435	204.201	-0.053	-0.082
-484.420	-77.552	0.144	0.050
-483.405	15.991	0.184	0.146
-482.391	-112.706	0.158	0.031
-481.376	-11.478	-0.190	0.125
-480.362	-200.000	-0.017	0.208
-479.347	138.932	0.274	0.362
-478.332	-139.518	-0.142	-0.015
-477.318	40.760	0.177	0.160
-476.303	-94.526	-0.363	-0.099
-475.289	-7.026	0.036	-0.025
-474.274	128.810	0.169	-0.216
-473.259	173.457	-0.155	-0.224
-472.245	-16.072	0.196	-0.125
-471.230	657.670	-0.041	0.106
-470.216	-131.873	-0.081	0.011
-469.201	95.968	-0.093	-0.107
-468.186	-14.009	-0.149	-0.096
-467.172	24.615	0.108	-0.089
-466.157	-200.000	0.012	0.345
-465.143	30.650	-0.294	-0.253
-464.128	86.483	0.066	0.073
-463.113	-95.259	0.181	-0.049
-462.099	31.709	0.096	-0.083
-461.084	24.039	-0.075	-0.062
-460.070	512.486	-0.010	0.024
-459.055	-187.528	0.105	0.001
-458.040	-101.962	0.151	-0.037
-457.026	-55.182	0.282	0.127
-456.011	382.480	0.100	-0.207
-454.997	800.000	-0.032	0.105
-453.982	468.563	-0.044	0.098
-452.968	-200.000	0.039	0.429
-451.953	-200.000	-0.005	-0.260
-450.938	-75.314	-0.126	0.045
-449.924	-200.000	0.028	0.127
-448.909	-112.341	0.247	0.050
-447.895	-137.829	-0.131	-0.015
-446.880	188.321	0.112	-0.168
-445.865	176.994	0.174	0.253
-444.851	422.311	-0.042	-0.089
-443.836	-72.964	0.189	-0.069
-442.822	316.729	0.058	0.109
-441.807	-94.439	-0.142	0.039
-440.792	456.800	-0.073	-0.162
-439.778	652.487	0.050	0.128
-438.763	-200.000	0.011	0.094
-437.749	-58.571	-0.289	-0.126
-436.734	-200.000	0.026	-0.162
-435.719	230.067	-0.146	0.240
-434.705	800.000	0.038	0.130
-433.690	163.149	0.128	0.180
-432.676	130.351	0.116	-0.149
-431.661	-148.116	-0.141	-0.012
-430.646	-200.000	-0.045	-0.271
-429.632	800.000	-0.081	-0.277
-428.617	201.110	0.039	-0.060
-427.603	497.277	0.057	0.132
-426.588	-160.581	0.332	0.018
-425.573	190.726	0.282	-0.424
-424.559	109.765	-0.173	0.208
-423.544	-186.133	-0.244	0.004
-422.530	800.000	-0.040	-0.114
-421.515	-91.631	-0.409	0.117
-420.500	88.850	0.065	-0.073
-419.486	165.713	-0.055	0.077
-418.471	-81.108	-0.337	-0.112
-417.457	-119.432	0.164	-0.028
-416.442	-112.365	0.183	-0.037
-415.428	-110.544	-0.122	-0.025
-414.413	699.815	-0.067	0.177
-413.398	0.953	-0.380	-0.273
-412.384	633.203	-0.044	0.112
-411.369	33.788	-0.322	0.281
-410.355	175.064	-0.225	0.326
-409.340	-149.544	0.237	0.019
-408.325	98.704	0.157	0.182
-407.311	-58.132	-0.296	0.129
-406.296	-55.725	0.269	-0.121
-405.282	-5.465	0.273	0.188
-404.267	429.221	0.108	0.233
-403.252	-3.406	0.090	-0.062
-402.238	-138.967	-0.196	-0.021
-401.223	-200.000	-0.013	-0.220
-400.209	107.584	-0.138	-0.165
-399.194	-140.918	-0.151	-0.016
-398.179	195.306	-0.188	0.285
-397.165	104.855	0.077	-0.091
-396.150	764.183	0.070	0.191
-395.136	232.069	0.106	-0.174
-394.121	800.000	-0.085	-0.275
-393.106	-96.566	-0.065	0.017
-392.092	-100.150	-0.058	0.014
-391.077	2.956	-0.143	-0.104
-390.063	-163.325	-0.023	-0.001
-389.048	-39.248	0.340	0.178
-388.033	-131.596	0.028	-0.004
-387.019	-200.000	-0.036	-0.224
-386.004	-62.599	-0.333	-0.138
-384.990	135.836	0.193	-0.252
-383.975	158.868	-0.193	-0.269
-382.960	-32.667	0.113	-0.063
-381.946	119.388	-0.229	0.284
-380.931	800.000	0.036	0.157
-379.917	11.483	0.273	0.209
-378.902	97.791	0.106	0.121
-377.888	82.520	0.205	-0.223
-376.873	-22.683	0.281	0.170
-375.858	229.223	0.184	-0.301
-374.844	248.195	-0.133	-0.225
-373.829	199.575	0.022	0.033
-372.815	-200.000	-0.045	0.369
-371.800	-137.504	0.189	-0.021
-370.785	-200.000	0.034	0.200
-369.771	44.819	-0.216	0.199
-368.756	-64.576	0.238	0.097
-367.742	11.105	0.340	0.260
-366.727	135.390	-0.142	0.184
-365.712	117.795	0.203	0.250
-364.698	31.783	0.202	0.174
-363.683	697.453	0.082	-0.214
-362.669	-55.867	0.340	0.151
-361.654	-200.000	-0.016	0.102
-360.639	-47.874	0.321	0.155
-359.625	800.000	-0.098	0.274
-358.610	-4.696	0.322	-0.222
-357.596	-156.421	0.134	0.008
-356.581	800.000	0.065	0.219
-355.566	-6.969	0.172	-0.116
-354.552	-94.783	-0.263	-0.071
-353.537	-148.717	-0.158	-0.013
-352.523	86.503	-0.119	0.131
-351.508	64.600	0.238	0.240
-350.493	-200.000	0.017	-0.158
-349.479	248.627	-0.112	-0.189
-348.464	360.031	-0.030	0.060
-347.450	282.828	-0.145	-0.259
-346.435	354.764	-0.153	-0.305
-345.420	-83.824	-0.323	-0.103
-344.406	104.747	-0.089	-0.105
-343.391	-200.000	0.056	0.000
-342.377	71.881	0.060	0.062
-341.362	283.993	0.098	0.176
-340.348	-118.936	-0.444	0.078
-339.333	70.471	0.019	0.019
-338.318	122.449	-0.099	-0.124
-337.304	280.358	0.183	-0.327
-336.289	50.683	-0.460	-0.435
-335.275	47.402	-0.263	0.245
-334.260	-119.533	0.291	-0.050
-333.245	-98.800	-0.240	0.061
-332.231	-7.276	0.160	-0.108
-331.216	279.607	-0.058	-0.103
-330.202	131.150	-0.167	-0.214
-329.187	-82.335	-0.136	0.044
-328.172	-80.571	-0.350	0.116
-327.158	800.000	0.012	-0.048
-326.143	800.000	-0.041	-0.124
-325.129	800.000	-0.086	0.305
-324.114	-127.173	-0.411	0.060
-323.099	-98.049	-0.275	0.071
-322.085	67.224	-0.051	0.052
-321.070	75.820	-0.341	-0.360
-320.056	-106.469	-0.229	-0.051
-319.041	42.896	-0.095	-0.086
-318.026	-200.000	0.028	-0.262
-317.012	-117.536	0.176	-0.032
-315.997	206.810	-0.075	0.117
-314.983	287.060	-0.007	-0.013
-313.968	800.000	-0.035	-0.102
-312.953	-200.000	0.007	0.046
-311.939	-13.987	-0.167	-0.107
-310.924	-9.365	0.260	-0.173
-309.910	-131.827	-0.126	-0.016
-308.895	-20.651	-0.184	-0.112
-307.880	30.235	0.143	0.122
-306.866	33.615	0.098	-0.085
-305.851	150.359	0.250	0.339
-304.837	403.238	-0.204	0.427
-303.822	-52.971	-0.079	0.036
-302.807	-200.000	0.010	0.191
-301.793	-91.459	0.355	-0.101
-300.778	-200.000	-0.012	0.122
-299.764	-79.985	-0.239	0.080
-298.749	189.917	-0.173	-0.258
-297.735	690.118	-0.054	-0.140
-296.720	-3.476	0.127	-0.088
-295.705	-74.803	-0.158	0.057
-294.691	-200.000	0.029	0.391
-293.676	124.606	0.177	0.222
-292.662	592.174	0.053	0.130
-291.647	5.733	0.103	0.076
-290.632	800.000	0.030	-0.102
-289.618	57.176	0.173	-0.168
-288.603	58.060	0.079	-0.077
-287.589	-200.000	-0.039	0.266
-286.574	240.112	-0.178	0.295
-285.559	-200.000	0.001	-0.119
-284.545	-200.000	-0.049	-0.325
-283.530	-18.650	-0.186	-0.116
-282.516	-71.305	-0.041	-0.015
-281.501	107.514	-0.059	-0.070
-280.486	-104.637	0.148	0.034
-279.472	800.000	-0.113	-0.319
-278.457	-63.321	-0.200	0.082
-277.443	-124.922	-0.373	-0.057
-276.428	-39.289	0.204	0.107
-275.413	-3.456	-0.060	0.042
-274.399	-200.000	-0.007	0.101
-273.384	-131.014	0.250	-0.033
-272.370	-129.466	0.338	-0.047
-271.355	-200.000	-0.047	-0.265
-270.340	-44.430	-0.154	0.077
-269.326	-103.708	0.113	-0.026
-268.311	-89.747	-0.406	0.118
-267.297	-48.892	0.107	-0.051
-266.282	-64.871	0.209	0.084
-265.267	74.823	-0.102	-0.106
-264.253	25.698	0.181	0.150
-263.238	-8.230	-0.287	-0.192
-262.224	422.221	-0.140	-0.299
-261.209	221.629	-0.207	0.332
-260.195	305.537	0.069	0.127
-259.180	-51.298	0.090	0.042
-258.165	-200.000	-0.031	-0.151
-257.151	-62.682	0.118	-0.049
-256.136	-140.523	0.080	0.008
-255.122	-200.000	-0.006	0.321
-254.107	-10.295	0.031	-0.021
-253.092	138.600	-0.131	-0.171
-252.078	50.579	-0.091	0.086
-251.063	132.843	0.108	0.139
-250.049	699.162	-0.073	0.191
-249.034	-156.787	-0.460	-0.028
-248.019	94.275	0.243	-0.274
-247.005	-99.200	0.227	0.057
-245.990	-200.000	0.032	-0.221
-244.976	-92.631	0.227	-0.063
-243.961	33.357	-0.130	-0.112
-242.946	146.791	0.218	-0.291
-241.932	-183.484	0.185	0.003
-240.917	39.178	-0.008	-0.008
-239.903	-96.934	0.126	0.033
-238.888	-33.750	-0.096	-0.053
-237.873	-108.021	-0.308	0.066
-236.859	-127.161	0.127	0.018
-235.844	-177.325	0.214	0.005
-234.830	-200.000	-0.023	-0.132
-233.815	75.142	0.252	-0.264
-232.800	198.621	0.228	-0.347
-231.786	800.000	-0.133	0.424
-230.771	-200.000	0.018	-0.284
-229.757	-57.038	-0.315	0.138
-228.742	65.414	0.083	-0.083
-227.727	-200.000	0.033	0.341
-226.713	-200.000	0.015	-0.097
-225.698	447.872	0.072	0.157
-224.684	-200.000	0.005	0.340
-223.669	211.708	-0.067	-0.105
-222.655	240.133	0.150	-0.249
-221.640	-139.305	-0.133	0.014
-220.625	47.144	0.086	0.080
-219.611	-21.863	0.127	0.077
-218.596	-200.000	0.004	-0.247
-217.582	-200.000	0.027	-0.129
-216.567	800.000	-0.081	-0.238
-215.552	800.000	0.045	-0.124
-214.538	-145.037	-0.164	0.015
-213.523	223.115	-0.051	-0.081
-212.509	107.663	-0.135	0.160
-211.494	-25.192	0.145	-0.085
-210.479	11.255	0.205	0.156
-209.465	23.292	0.070	0.057
-208.450	800.000	0.037	-0.156
-207.436	88.477	-0.066	0.073
-206.421	25.920	-0.108	0.089
-205.406	17.053	0.116	-0.092
-204.392	-53.565	-0.033	-0.015
-203.377	-108.526	0.319	-0.068
-202.363	800.000	-0.066	0.209
-201.348	-102.053	0.363	0.087
-200.333	22.488	0.175	0.142
-199.319	-31.319	0.316	-0.177
-198.304	-57.295	-0.171	-0.075
-197.290	393.376	0.121	-0.250
-196.275	14.053	-0.035	0.027
-195.260	148.502	-0.057	-0.076
-194.246	541.809	0.112	0.265
-193.231	-200.000	-0.047	0.258
-192.217	-89.808	-0.261	-0.076
-191.202	800.000	-0.056	0.163
-190.187	-77.066	-0.280	-0.097
-189.173	153.476	0.329	-0.447
-188.158	800.000	0.099	-0.292
-187.144	97.006	-0.338	0.385
-186.129	188.141	0.048	0.071
-185.114	-200.000	0.029	-0.149
-184.100	-44.785	-0.253	-0.125
-183.085	-200.000	0.036	-0.192
-182.071	-3.745	0.250	0.172
-181.056	32.300	0.153	0.131
-180.042	349.767	0.083	0.162
-179.027	136.174	-0.030	-0.039
-178.012	-141.317	0.381	-0.038
-176.998	-74.980	-0.042	0.015
-175.983	-30.466	0.046	-0.026
-174.969	-74.876	0.285	0.101
-173.954	-127.006	0.102	-0.015
-172.939	220.868	-0.056	0.089
-171.925	-61.662	-0.069	-0.029
-170.910	229.402	-0.150	-0.242
-169.896	-50.127	0.187	0.088
-168.881	-62.629	-0.386	0.159
-167.866	259.498	-0.053	-0.090
-166.852	-12.621	0.174	-0.113
-165.837	-49.492	0.223	-0.106
-164.823	-200.000	0.003	-0.070
-163.808	698.442	-0.030	0.078
-162.793	-53.477	-0.080	0.036
-161.779	141.547	-0.167	0.219
-160.764	-47.154	-0.069	-0.033
-159.750	267.348	-0.049	-0.085
-158.735	-38.735	0.099	-0.052
-157.720	-72.311	0.178	-0.065
-156.706	-200.000	-0.012	0.210
-155.691	549.266	-0.112	0.267
-154.677	-91.473	-0.303	-0.086
-153.662	-200.000	0.004	0.036
-152.647	180.485	-0.108	-0.157
-151.633	151.423	-0.071	-0.096
-150.618	108.165	-0.096	-0.114
-149.604	459.251	-0.025	-0.055
-148.589	-200.000	0.044	0.195
-147.574	52.992	0.236	0.224
-146.560	61.353	0.271	-0.267
-145.545	-77.224	0.366	-0.126
-144.531	-42.260	-0.315	-0.159
-143.516	800.000	0.095	-0.288
-142.502	-200.000	0.017	-0.163
-141.487	-4.066	0.146	-0.100
-140.472	-138.409	-0.074	-0.008
-139.458	-87.764	-0.168	0.050
-138.443	-96.530	-0.305	-0.080
-137.429	302.194	-0.175	-0.321
-136.414	800.000	0.068	-0.228
-135.399	89.315	0.113	-0.125
-134.385	-136.443	0.097	-0.011
-133.370	-200.000	0.042	0.315
-132.356	250.870	0.101	0.171
-131.341	-111.956	-0.265	-0.053
-130.326	-92.158	-0.012	-0.003
-129.312	-124.934	0.151	-0.023
-128.297	6.457	-0.139	0.102
-127.283	125.751	0.088	0.110
-126.268	-159.686	-0.200	-0.011
-125.253	-114.055	-0.035	0.007
-124.239	-13.864	-0.178	0.114
-123.224	800.000	0.046	0.176
-122.210	70.901	0.066	-0.067
-121.195	-200.000	-0.031	0.211
