DTS Sentinel unit serial number:	SN413079Multiplexer serial number:	ORYXHardware model number:	OX4-SRSoftware version number:	ORYX F/W v4.00 Oryx Data Collector v3.7.2.0data status	okinstallation	princeton_trtdifferential loss correction	single-endedforward channel	channel 3reverse channel	N/Adate	2019/09/18time	23:36:34forward acquisition time	60.00reverse acquisition time	0.00gamma	496.2192k internal	0.2345k external	0.2345temperature offset calibration	0.9991default loss term (dB/km)	0.3790temperature slope calibration	1.0000multiplexer offset coefficient	1.0000multiplexer slope coefficient	1.0000fibre end	0.00T internal ref (°C)	23.56T ext. ref 1 (°C)	0.76T ext. ref 2 (°C)	16.45length (m)	temperature (°C)	Stokes	anti-Stokes-747.200	10.252	0.138	0.105
-746.185	-20.841	-0.322	0.198
-745.171	37.401	0.285	0.253
-744.156	177.212	-0.186	-0.271
-743.142	-186.630	0.432	-0.006
-742.127	800.000	-0.084	0.235
-741.112	45.038	-0.269	-0.247
-740.098	-200.000	0.002	0.282
-739.083	-200.000	0.021	0.106
-738.069	271.140	0.128	0.225
-737.054	-0.595	0.113	0.080
-736.039	-78.788	-0.267	-0.091
-735.025	691.407	0.018	0.047
-734.010	290.340	-0.132	-0.240
-732.996	-45.235	-0.223	-0.111
-731.981	-89.029	-0.411	-0.121
-730.966	16.156	-0.015	0.012
-729.952	-200.000	-0.021	0.152
-728.937	800.000	0.067	-0.213
-727.923	-144.019	-0.230	0.022
-726.908	24.528	-0.219	0.181
-725.894	-200.000	0.020	-0.158
-724.879	-103.575	-0.082	-0.019
-723.864	33.178	-0.164	0.142
-722.850	558.572	0.149	0.360
-721.835	60.352	0.238	-0.235
-720.821	-200.000	-0.015	0.101
-719.806	-88.014	-0.408	-0.123
-718.791	-131.237	0.038	-0.005
-717.777	-200.000	-0.004	-0.150
-716.762	-81.850	0.188	-0.062
-715.748	457.005	0.103	-0.228
-714.733	-200.000	0.018	-0.281
-713.718	-160.000	-0.179	0.010
-712.704	211.668	0.117	-0.185
-711.689	-140.119	0.139	-0.015
-710.675	22.161	-0.078	-0.063
-709.660	-38.092	-0.294	-0.156
-708.645	-200.000	0.024	0.337
-707.631	-45.634	0.095	-0.047
-706.616	800.000	-0.019	-0.069
-705.602	800.000	-0.081	-0.317
-704.587	133.269	-0.113	-0.145
-703.572	-200.000	0.042	0.422
-702.558	-147.817	-0.295	-0.025
-701.543	256.062	0.083	0.143
-700.529	800.000	0.138	0.387
-699.514	-200.000	0.063	-0.336
-698.499	-108.734	-0.329	-0.070
-697.485	-170.280	0.267	-0.009
-696.470	-200.000	0.024	-0.131
-695.456	204.293	-0.074	-0.115
-694.441	-51.860	-0.208	-0.096
-693.426	83.627	0.281	0.306
-692.412	-148.974	-0.185	-0.015
-691.397	-38.656	0.317	0.167
-690.383	3.619	-0.134	-0.097
-689.368	-70.626	0.102	0.039
-688.354	-123.016	-0.379	-0.061
-687.339	-137.114	0.279	-0.032
-686.324	132.140	-0.174	-0.224
-685.310	-98.402	-0.286	-0.073
-684.295	-200.000	0.036	-0.402
-683.281	218.571	-0.233	0.372
-682.266	-66.351	0.131	0.052
-681.251	151.235	0.109	-0.148
-680.237	-55.651	0.097	-0.043
-679.222	-124.272	-0.287	0.045
-678.208	-94.969	-0.142	0.038
-677.193	81.039	-0.189	-0.204
-676.178	104.151	0.105	-0.123
-675.164	-168.913	0.134	0.005
-674.149	44.098	-0.243	0.223
-673.135	-12.833	0.270	0.175
-672.120	-200.000	0.008	0.088
-671.105	-53.891	0.264	0.120
-670.091	486.497	-0.075	0.170
-669.076	-200.000	0.020	0.260
-668.062	167.704	0.208	-0.295
-667.047	53.247	0.041	0.039
-666.032	-200.000	-0.008	0.187
-665.018	-200.000	-0.004	0.291
-664.003	-97.912	0.369	-0.095
-662.989	-37.347	0.205	0.109
-661.974	-88.485	-0.403	-0.120
-660.959	-200.000	0.009	0.138
-659.945	-35.348	-0.089	0.048
-658.930	-117.417	-0.237	-0.043
-657.916	-52.637	0.164	-0.075
-656.901	-200.000	0.020	-0.194
-655.886	-35.483	-0.345	-0.187
-654.872	176.763	0.155	-0.224
-653.857	-200.000	0.060	-0.472
-652.843	-84.464	-0.212	-0.067
-651.828	-200.000	-0.006	0.087
-650.814	-13.156	0.186	0.120
-649.799	201.247	-0.079	-0.121
-648.784	-200.000	0.015	0.071
-647.770	800.000	-0.039	0.108
-646.755	111.344	0.194	-0.233
-645.741	-200.000	0.004	0.106
-644.726	435.049	-0.154	0.333
-643.711	143.005	-0.068	0.091
-642.697	-140.731	0.317	-0.033
-641.682	746.861	0.042	-0.112
-640.668	385.097	-0.037	0.076
-639.653	495.555	0.190	-0.434
-638.638	-200.000	-0.073	0.521
-637.624	174.371	0.139	-0.200
-636.609	107.639	0.079	-0.094
-635.595	389.150	0.077	-0.158
-634.580	33.161	0.121	-0.105
-633.565	36.938	-0.185	-0.163
-632.551	-200.000	0.023	-0.400
-631.536	-12.365	-0.117	-0.076
-630.522	800.000	0.054	-0.168
-629.507	71.347	-0.134	0.138
-628.492	-200.000	-0.051	0.423
-627.478	18.233	0.166	-0.132
-626.463	66.324	0.056	-0.057
-625.449	-133.781	0.265	-0.033
-624.434	-200.000	0.017	-0.136
-623.419	176.805	-0.193	-0.280
-622.405	522.179	-0.155	0.361
-621.390	92.130	0.186	-0.208
-620.376	-200.000	0.006	0.261
-619.361	-200.000	-0.020	-0.152
-618.346	-200.000	-0.005	0.047
-617.332	429.322	-0.100	0.215
-616.317	94.980	-0.163	0.184
-615.303	-112.846	0.356	-0.070
-614.288	-136.155	0.008	-0.001
-613.273	-200.000	-0.029	0.242
-612.259	-56.368	0.143	0.063
-611.244	81.234	-0.013	-0.014
-610.230	-100.279	0.303	-0.075
-609.215	163.807	0.225	0.316
-608.201	79.946	-0.159	-0.170
-607.186	-200.000	0.018	-0.230
-606.171	391.018	-0.143	0.294
-605.157	4.007	-0.249	0.181
-604.142	800.000	-0.021	0.070
-603.128	356.304	0.091	-0.180
-602.113	800.000	0.084	-0.310
-601.098	-47.080	-0.097	0.047
-600.084	470.419	-0.079	-0.176
-599.069	-138.397	-0.205	0.023
-598.055	68.742	0.184	0.188
-597.040	2.260	-0.021	0.015
-596.025	-46.294	0.231	-0.113
-595.011	-200.000	0.000	-0.007
-593.996	-200.000	0.007	-0.187
-592.982	-35.777	0.248	0.133
-591.967	800.000	-0.015	-0.042
-590.952	650.157	-0.069	0.175
-589.938	-169.528	-0.320	-0.012
-588.923	264.109	-0.141	-0.244
-587.909	-171.745	-0.171	0.006
-586.894	127.347	0.274	0.346
-585.879	-108.963	-0.117	0.025
-584.865	-200.000	-0.051	-0.342
-583.850	-105.398	0.112	0.025
-582.836	800.000	0.063	0.212
-581.821	120.839	0.152	-0.188
-580.806	73.334	-0.221	-0.230
-579.792	-22.074	-0.141	0.085
-578.777	475.498	-0.041	-0.091
-577.763	175.472	-0.058	-0.084
-576.748	-200.000	0.005	0.145
-575.733	-184.077	-0.137	-0.002
-574.719	-3.585	0.305	0.211
-573.704	-200.000	-0.004	-0.104
-572.690	-161.854	-0.030	-0.002
-571.675	-25.087	-0.042	0.025
-570.661	222.279	0.103	0.165
-569.646	-200.000	0.018	0.217
-568.631	464.609	-0.068	-0.151
-567.617	76.599	-0.310	0.327
-566.602	800.000	-0.018	-0.075
-565.588	288.247	0.118	-0.212
-564.573	405.949	-0.084	0.176
-563.558	-200.000	0.012	-0.395
-562.544	-28.365	-0.138	0.079
-561.529	10.694	0.211	0.160
-560.515	215.228	-0.106	0.166
-559.500	-200.000	-0.010	-0.248
-558.485	800.000	0.105	-0.326
-557.471	-200.000	0.016	-0.209
-556.456	165.498	0.170	-0.238
-555.442	-200.000	-0.004	-0.083
-554.427	53.763	0.230	-0.219
-553.412	-107.782	0.109	0.024
-552.398	-29.405	-0.103	0.059
-551.383	-200.000	0.005	0.121
-550.369	26.417	0.216	0.179
-549.354	-1.356	-0.338	0.237
-548.339	123.416	-0.084	-0.105
-547.325	-200.000	0.074	0.357
-546.310	-200.000	0.030	-0.141
-545.296	-148.906	-0.199	0.016
-544.281	-200.000	0.005	-0.170
-543.266	-43.458	0.205	-0.103
-542.252	504.241	0.108	0.248
-541.237	-58.734	-0.156	0.067
-540.223	-94.533	-0.257	0.069
-539.208	-84.329	0.066	0.021
-538.193	202.202	0.030	-0.047
-537.179	285.753	-0.250	-0.448
-536.164	800.000	-0.034	-0.146
-535.150	269.702	-0.115	0.200
-534.135	122.144	-0.165	0.204
-533.121	245.841	0.160	0.267
-532.106	-91.230	-0.341	0.097
-531.091	45.020	-0.181	0.165
-530.077	-200.000	0.017	-0.324
-529.062	-200.000	-0.100	-0.439
-528.048	420.403	-0.062	0.132
-527.033	-40.035	0.137	-0.071
-526.018	-89.219	-0.224	-0.065
-525.004	341.229	0.060	0.116
-523.989	194.396	0.119	0.179
-522.975	-177.961	-0.167	0.004
-521.960	67.325	0.107	0.109
-520.945	-141.153	-0.278	0.028
-519.931	155.694	0.056	-0.076
-518.916	800.000	-0.054	-0.155
-517.902	499.177	-0.093	-0.213
-516.887	253.969	0.142	-0.241
-515.872	540.294	-0.063	0.149
-514.858	-200.000	0.005	-0.187
-513.843	75.300	-0.159	0.167
-512.829	176.236	0.030	0.043
-511.814	-61.891	0.067	0.028
-510.799	33.970	-0.241	0.208
-509.785	-174.584	0.350	0.010
-508.770	85.071	-0.065	-0.071
-507.756	181.961	-0.188	0.275
-506.741	25.192	0.064	-0.053
-505.726	-200.000	-0.022	0.492
-504.712	350.816	0.159	-0.311
-503.697	-121.879	0.094	-0.015
-502.683	-79.285	-0.124	0.041
-501.668	-200.000	0.058	0.286
-500.653	378.491	0.152	0.307
-499.639	-200.000	0.020	0.299
-498.624	179.839	0.178	0.259
-497.610	361.955	-0.124	0.246
-496.595	-200.000	0.083	0.395
-495.581	-85.485	-0.206	-0.064
-494.566	-141.157	-0.174	0.018
-493.551	-86.146	0.191	0.058
-492.537	-0.478	0.125	0.088
-491.522	135.524	-0.134	-0.173
-490.508	-152.512	-0.047	0.003
-489.493	157.796	0.065	0.089
-488.478	-200.000	-0.013	-0.169
-487.464	-88.436	0.076	0.023
-486.449	-38.019	-0.213	0.112
-485.435	-200.000	0.063	0.332
-484.420	67.782	0.230	0.232
-483.405	54.860	0.114	-0.109
-482.391	-200.000	-0.042	-0.196
-481.376	293.470	0.028	-0.050
-480.362	-200.000	0.004	0.153
-479.347	-151.387	0.429	-0.032
-478.332	-200.000	0.010	-0.151
-477.318	-200.000	0.013	-0.079
-476.303	18.748	-0.088	0.070
-475.289	290.653	0.009	-0.016
-474.274	1.836	-0.208	0.149
-473.259	-200.000	-0.002	-0.061
-472.245	-200.000	0.010	0.128
-471.230	449.037	0.140	-0.304
-470.216	-57.775	-0.113	-0.049
-469.201	41.363	-0.306	-0.274
-468.186	-43.994	0.176	-0.088
-467.172	228.137	0.128	0.206
-466.157	26.256	0.128	0.106
-465.143	374.550	0.119	0.240
-464.128	-190.045	-0.023	0.000
-463.113	800.000	-0.049	0.136
-462.099	15.974	-0.150	-0.117
-461.084	-149.435	0.222	0.017
-460.070	-147.255	0.200	-0.017
-459.055	-200.000	0.005	0.105
-458.040	364.156	0.030	0.060
-457.026	-100.090	-0.417	-0.103
-456.011	663.702	0.166	-0.424
-454.997	-200.000	-0.009	-0.092
-453.982	-80.131	-0.277	0.092
-452.968	28.043	0.155	0.130
-451.953	-200.000	-0.004	-0.048
-450.938	134.764	-0.075	0.097
-449.924	-200.000	-0.038	-0.194
-448.909	800.000	-0.076	-0.237
-447.895	-8.843	0.152	-0.101
-446.880	-200.000	0.001	0.045
-445.865	-87.703	-0.251	-0.075
-444.851	93.251	-0.074	-0.082
-443.836	-17.563	-0.305	0.189
-442.822	-152.308	0.224	0.016
-441.807	-200.000	-0.084	-0.402
-440.792	-200.000	0.038	-0.251
-439.778	154.354	0.160	0.216
-438.763	-33.249	0.259	0.142
-437.749	-44.095	0.208	0.103
-436.734	800.000	0.066	0.217
-435.719	-200.000	-0.005	-0.080
-434.705	156.478	0.119	-0.163
-433.690	453.447	-0.065	0.143
-432.676	-31.383	-0.246	-0.137
-431.661	362.832	-0.036	-0.072
-430.646	-132.341	-0.311	0.040
-429.632	-121.950	-0.184	-0.030
-428.617	180.551	0.033	-0.048
-427.603	-181.045	-0.129	-0.003
-426.588	-84.052	0.180	0.057
-425.573	-200.000	-0.038	-0.181
-424.559	98.230	0.134	0.152
-423.544	129.730	-0.236	0.297
-422.530	57.333	-0.164	-0.158
-421.515	518.895	-0.094	-0.218
-420.500	16.585	-0.146	-0.114
-419.486	-200.000	-0.003	-0.159
-418.471	-189.867	0.110	-0.001
-417.457	236.988	0.025	0.041
-416.442	3.159	-0.224	-0.161
-415.428	610.510	0.042	0.103
-414.413	-64.353	0.061	-0.025
-413.398	-144.750	-0.240	0.022
-412.384	800.000	-0.080	0.303
-411.369	-185.093	-0.055	0.001
-410.355	-56.057	-0.363	0.160
-409.340	-200.000	0.007	-0.144
-408.325	-200.000	-0.018	-0.428
-407.311	-106.240	0.090	-0.020
-406.296	-200.000	0.027	-0.122
-405.282	-200.000	-0.049	-0.241
-404.267	403.968	0.059	0.122
-403.252	23.336	0.257	-0.209
-402.238	-75.627	-0.234	-0.082
-401.223	-60.768	0.143	0.060
-400.209	800.000	-0.047	0.160
-399.194	-200.000	-0.021	-0.361
-398.179	673.899	-0.061	-0.157
-397.165	-200.000	-0.021	0.131
-396.150	131.820	0.139	-0.176
-395.136	201.190	0.129	-0.196
-394.121	-135.222	0.138	-0.016
-393.106	167.274	0.315	0.442
-392.092	284.045	0.090	-0.160
-391.077	49.268	0.055	-0.051
-390.063	29.367	-0.176	0.148
-389.048	800.000	0.066	0.209
-388.033	-200.000	-0.055	0.341
-387.019	-37.630	0.097	0.051
-386.004	-128.041	-0.265	-0.037
-384.990	45.512	-0.113	-0.103
-383.975	22.701	0.230	-0.186
-382.960	133.242	0.148	-0.188
-381.946	137.442	-0.111	0.144
-380.931	-118.988	0.165	0.029
-379.917	-178.223	0.101	0.002
-378.902	-147.729	0.175	-0.014
-377.888	441.435	0.214	-0.462
-376.873	-71.487	0.348	0.128
-375.858	-8.620	-0.080	-0.053
-374.844	579.797	-0.061	-0.146
-373.829	-181.049	-0.265	-0.005
-372.815	-40.189	-0.292	-0.150
-371.800	800.000	-0.060	0.198
-370.785	521.388	-0.101	0.233
-369.771	800.000	-0.105	-0.355
-368.756	180.722	0.175	-0.253
-367.742	422.934	0.072	0.153
-366.727	-200.000	-0.008	0.037
-365.712	-42.099	-0.190	0.096
-364.698	-95.932	-0.268	0.070
-363.683	-134.064	-0.292	-0.036
-362.669	135.500	0.276	0.354
-361.654	-191.685	0.126	-0.001
-360.639	-87.690	0.287	0.085
-359.625	84.369	-0.067	0.072
-358.610	-200.000	-0.072	-0.380
-357.596	165.185	-0.254	0.354
-356.581	800.000	0.110	0.374
-355.566	504.654	0.029	0.066
-354.552	-154.604	-0.237	0.016
-353.537	72.710	0.190	-0.195
-352.523	306.687	-0.044	0.081
-351.508	-200.000	0.005	0.128
-350.493	160.026	-0.120	0.165
-349.479	200.936	0.081	-0.123
-348.464	-200.000	0.009	-0.074
-347.450	800.000	0.047	-0.140
-346.435	111.367	-0.256	-0.304
-345.420	128.098	-0.006	0.007
-344.406	-84.707	0.134	-0.041
-343.391	-200.000	-0.002	-0.064
-342.377	-17.533	-0.116	-0.072
-341.362	401.425	0.077	0.160
-340.348	-124.025	0.053	0.008
-339.333	473.300	0.098	-0.217
-338.318	612.760	0.107	-0.263
-337.304	744.112	-0.124	-0.329
-336.289	-200.000	0.023	-0.116
-335.275	-198.400	-0.060	-0.000
-334.260	734.270	0.047	-0.124
-333.245	-200.000	0.046	-0.219
-332.231	-103.578	-0.217	0.050
-331.216	-44.243	-0.402	0.198
-330.202	-200.000	-0.065	0.314
-329.187	-27.145	-0.327	-0.187
-328.172	800.000	-0.050	-0.161
-327.158	-22.895	0.147	-0.088
-326.143	16.515	-0.098	-0.077
-325.129	-13.897	-0.052	0.033
-324.114	-100.841	0.363	-0.088
-323.099	49.994	-0.100	-0.093
-322.085	146.162	-0.145	-0.191
-321.070	800.000	-0.110	-0.314
-320.056	675.743	-0.069	-0.175
-319.041	359.824	-0.148	0.291
-318.026	-74.215	-0.226	-0.080
-317.012	72.134	0.439	0.449
-315.997	800.000	0.091	-0.272
-314.983	-111.331	0.091	0.018
-313.968	448.470	0.079	0.171
-312.953	329.382	-0.173	-0.328
-311.939	26.781	0.166	-0.136
-310.924	60.538	0.146	0.142
-309.910	-188.135	-0.168	-0.002
-308.895	-200.000	0.098	0.497
-307.880	-65.606	-0.318	0.125
-306.866	351.838	-0.037	-0.072
-305.851	75.895	-0.055	0.057
-304.837	44.182	-0.222	0.200
-303.822	392.405	-0.127	0.259
-302.807	84.890	0.194	0.210
-301.793	549.643	0.049	-0.116
-300.778	-200.000	-0.043	0.191
-299.764	319.618	-0.206	0.384
-298.749	-72.085	0.159	0.058
-297.735	800.000	0.129	-0.495
-296.720	-69.422	0.175	0.066
-295.705	-200.000	-0.006	-0.045
-294.691	90.882	-0.061	0.067
-293.676	-55.381	-0.140	0.062
-292.662	310.957	0.121	-0.223
-291.647	-200.000	0.009	-0.274
-290.632	800.000	-0.134	-0.401
-289.618	-109.848	0.208	0.043
-288.603	800.000	0.131	0.362
-287.589	-137.340	-0.067	-0.007
-286.574	800.000	0.066	-0.256
-285.559	-109.250	0.131	0.027
-284.545	-200.000	0.001	-0.286
-283.530	189.085	-0.144	-0.212
-282.516	532.317	0.184	-0.429
-281.501	104.929	0.067	0.078
-280.486	-118.345	0.402	-0.070
-279.472	100.601	-0.007	-0.007
-278.457	-47.020	0.188	0.090
-277.443	-75.422	-0.418	-0.146
-276.428	-86.283	0.332	0.101
-275.413	47.237	-0.190	0.173
-274.399	-200.000	-0.001	0.267
-273.384	222.310	-0.101	-0.159
-272.370	-200.000	-0.032	0.146
-271.355	-200.000	0.031	0.239
-270.340	7.283	0.033	0.024
-269.326	800.000	0.131	0.517
-268.311	62.445	0.012	0.012
-267.297	198.433	-0.229	0.345
-266.282	-52.063	-0.488	0.223
-265.267	8.162	0.169	-0.125
-264.253	60.861	0.234	0.228
-263.238	800.000	0.039	-0.117
-262.224	800.000	-0.043	0.129
-261.209	53.644	-0.226	0.213
-260.195	-73.573	-0.245	0.088
-259.180	800.000	0.086	0.277
-258.165	144.275	-0.156	-0.204
-257.151	-200.000	-0.018	-0.270
-256.136	800.000	0.134	-0.370
-255.122	-200.000	-0.039	-0.249
-254.107	-153.987	0.354	0.024
-253.092	16.800	0.147	0.114
-252.078	-200.000	-0.016	-0.107
-251.063	-200.000	-0.050	0.271
-250.049	-200.000	0.033	-0.175
-249.034	-200.000	0.040	0.179
-248.019	-93.642	0.360	-0.097
-247.005	497.341	0.138	0.311
-245.990	-100.147	0.128	-0.031
-244.976	-200.000	-0.006	0.087
-243.961	-117.373	-0.091	-0.016
-242.946	84.348	-0.064	-0.068
-241.932	800.000	0.155	0.456
-240.917	-200.000	0.035	0.156
-239.903	146.444	-0.166	-0.219
-238.888	-154.597	0.238	0.016
-237.873	120.143	-0.199	0.242
-236.859	-200.000	0.011	-0.071
-235.844	70.492	0.213	-0.216
-234.830	800.000	0.052	-0.184
-233.815	321.432	-0.083	0.155
-232.800	-30.246	0.451	-0.251
-231.786	136.844	0.082	0.105
-230.771	55.822	-0.080	-0.076
-229.757	800.000	-0.080	0.280
-228.742	-200.000	-0.003	0.044
-227.727	-49.087	-0.127	0.060
-226.713	-117.285	0.188	-0.033
-225.698	155.119	0.178	-0.241
-224.684	-200.000	-0.038	-0.183
-223.669	139.759	0.093	-0.120
-222.655	149.462	0.089	-0.117
-221.640	-194.279	-0.154	-0.001
-220.625	-86.976	-0.183	-0.055
-219.611	800.000	0.064	-0.202
-218.596	-128.526	-0.440	-0.061
-217.582	73.411	-0.148	-0.152
-216.567	51.333	-0.186	0.173
-215.552	-186.709	0.476	-0.007
-214.538	438.065	0.145	-0.309
-213.523	-70.090	-0.353	0.131
-212.509	-200.000	-0.005	0.206
-211.494	112.198	-0.141	-0.167
-210.479	-27.215	0.200	-0.114
-209.465	49.186	0.038	0.035
-208.450	84.832	0.112	-0.120
-207.436	279.212	-0.146	-0.256
-206.421	-34.854	-0.116	0.062
-205.406	-70.937	-0.194	0.072
-204.392	73.051	-0.127	-0.130
-203.377	-200.000	-0.033	0.189
-202.363	35.943	-0.087	0.075
-201.348	44.911	0.068	-0.061
-200.333	178.954	-0.050	-0.071
-199.319	-24.548	-0.085	-0.049
-198.304	-34.094	-0.047	-0.026
-197.290	3.180	0.336	-0.239
-196.275	-43.397	-0.180	-0.089
-195.260	-200.000	-0.008	0.056
-194.246	-63.902	0.112	-0.045
-193.231	-49.915	0.284	0.132
-192.217	1.040	0.243	0.171
-191.202	-90.478	-0.200	-0.057
-190.187	219.252	0.299	0.468
-189.173	-138.832	0.305	-0.033
-188.158	241.509	0.092	0.150
-187.144	179.773	-0.101	-0.145
-186.129	73.989	0.196	-0.201
-185.114	800.000	-0.060	0.186
-184.100	326.342	-0.050	-0.095
-183.085	-140.387	-0.099	-0.010
-182.071	82.465	0.243	0.258
-181.056	122.815	-0.156	0.191
-180.042	177.549	0.162	-0.231
-179.027	750.164	-0.100	0.263
-178.012	-28.499	0.244	0.138
-176.998	191.738	-0.128	0.189
-175.983	33.039	0.428	0.363
-174.969	97.574	-0.236	0.265
-173.954	-115.249	-0.221	0.041
-172.939	34.799	-0.093	0.080
-171.925	800.000	0.011	0.034
-170.910	-100.021	0.197	-0.048
-169.896	-116.467	-0.063	-0.011
-168.881	227.164	-0.166	-0.264
-167.866	-56.369	0.210	0.091
-166.852	-200.000	0.040	-0.216
-165.837	-200.000	0.002	0.184
-164.823	-200.000	0.004	-0.032
-163.808	10.108	-0.261	-0.194
-162.793	-34.150	-0.268	0.144
-161.779	-149.566	0.235	0.018
-160.764	51.710	-0.055	0.051
-159.750	-18.734	0.205	0.125
-158.735	-73.006	-0.161	0.058
-157.720	-99.890	-0.163	-0.040
-156.706	-186.929	0.117	0.002
-155.691	164.660	0.067	-0.093
-154.677	-57.929	0.202	-0.086
-153.662	16.328	-0.136	0.105
-152.647	-97.414	0.109	-0.028
-151.633	611.740	0.080	-0.195
-150.618	7.270	-0.287	-0.210
-149.604	-200.000	-0.023	-0.172
-148.589	-200.000	0.037	-0.186
-147.574	-59.492	-0.137	-0.058
-146.560	800.000	-0.110	-0.405
-145.545	135.084	-0.079	-0.100
-144.531	-200.000	0.005	0.043
-143.516	-200.000	0.043	-0.253
-142.502	-73.455	-0.060	0.021
-141.487	-47.976	0.172	0.081
-140.472	-49.552	0.309	-0.144
-139.458	-119.040	0.093	0.016
-138.443	800.000	-0.092	-0.347
-137.429	-97.068	-0.232	-0.059
-136.414	186.425	0.161	0.234
-135.399	72.683	-0.098	0.099
-134.385	114.687	-0.384	-0.457
-133.370	268.188	-0.053	-0.090
-132.356	-138.550	-0.230	-0.025
-131.341	38.212	-0.101	0.088
-130.326	800.000	0.058	0.191
-129.312	-154.493	0.149	0.010
-128.297	-114.629	0.337	-0.063
-127.283	-112.592	-0.320	-0.062
-126.268	45.244	0.085	-0.076
-125.253	76.572	0.183	-0.189
-124.239	49.568	0.180	-0.166
-123.224	800.000	0.051	0.192
-122.210	-200.000	-0.011	-0.048
