DTS Sentinel unit serial number:	SN413079Multiplexer serial number:	ORYXHardware model number:	OX4-SRSoftware version number:	ORYX F/W v4.00 Oryx Data Collector v3.7.2.0data status	okinstallation	princeton_trtdifferential loss correction	single-endedforward channel	channel 3reverse channel	N/Adate	2019/09/14time	05:40:34forward acquisition time	60.00reverse acquisition time	0.00gamma	496.2192k internal	0.2337k external	0.2337temperature offset calibration	1.0055default loss term (dB/km)	0.3790temperature slope calibration	1.0000multiplexer offset coefficient	1.0000multiplexer slope coefficient	1.0000fibre end	0.00T internal ref (°C)	26.94T ext. ref 1 (°C)	3.39T ext. ref 2 (°C)	21.73length (m)	temperature (°C)	Stokes	anti-Stokes-747.200	-86.030	-0.057	-0.018
-746.185	323.174	-0.060	0.114
-745.171	-170.135	0.146	0.005
-744.156	-169.992	-0.330	0.012
-743.142	321.280	-0.044	0.084
-742.127	141.220	-0.131	0.174
-741.112	-83.333	0.121	-0.039
-740.098	-200.000	-0.008	0.271
-739.083	-45.406	0.150	-0.075
-738.069	-200.000	-0.035	0.400
-737.054	355.746	-0.116	-0.231
-736.039	-200.000	0.014	-0.063
-735.025	410.331	0.139	0.296
-734.010	265.481	-0.129	-0.225
-732.996	177.646	-0.036	0.052
-731.981	1.759	-0.357	-0.258
-730.966	64.418	0.182	-0.184
-729.952	-200.000	-0.004	-0.460
-728.937	185.666	0.259	-0.386
-727.923	-200.000	-0.054	-0.330
-726.908	-45.776	-0.274	0.136
-725.894	-41.669	-0.218	0.112
-724.879	800.000	-0.141	-0.419
-723.864	-69.804	-0.262	0.100
-722.850	692.415	0.027	0.070
-721.835	44.468	-0.034	-0.032
-720.821	-7.756	-0.239	0.162
-719.806	11.488	-0.212	-0.163
-718.791	-55.165	-0.221	0.100
-717.777	800.000	0.077	0.272
-716.762	-200.000	-0.002	-0.218
-715.748	-200.000	0.030	0.187
-714.733	-62.894	0.259	0.108
-713.718	-198.256	0.137	-0.001
-712.704	210.490	0.036	-0.057
-711.689	-101.895	0.460	0.111
-710.675	101.776	-0.031	0.037
-709.660	16.348	-0.138	0.110
-708.645	39.039	0.101	-0.091
-707.631	5.651	0.074	-0.055
-706.616	800.000	0.055	-0.190
-705.602	9.807	-0.078	0.059
-704.587	-153.053	0.008	0.001
-703.572	-163.271	-0.227	-0.011
-702.558	-85.723	-0.331	-0.103
-701.543	-200.000	0.011	0.118
-700.529	-200.000	-0.012	-0.312
-699.514	800.000	-0.023	0.071
-698.499	598.205	0.055	0.136
-697.485	9.114	0.128	-0.097
-696.470	65.513	-0.231	-0.234
-695.456	800.000	0.059	-0.209
-694.441	-200.000	-0.008	-0.211
-693.426	187.088	-0.128	0.191
-692.412	-200.000	-0.045	-0.245
-691.397	-106.886	-0.408	0.091
-690.383	-200.000	-0.036	-0.163
-689.368	220.897	0.121	-0.194
-688.354	-200.000	-0.007	-0.036
-687.339	-11.807	0.270	0.177
-686.324	-200.000	0.014	0.062
-685.310	2.523	-0.332	0.241
-684.295	-91.505	0.131	-0.038
-683.281	-200.000	-0.001	-0.118
-682.266	343.600	-0.009	0.017
-681.251	276.741	0.108	0.193
-680.237	-87.660	-0.274	0.083
-679.222	2.217	-0.328	0.238
-678.208	705.846	0.144	0.380
-677.193	776.621	0.074	0.202
-676.178	-97.063	-0.126	0.033
-675.164	-120.856	-0.237	0.040
-674.149	746.526	0.039	0.106
-673.135	-54.461	-0.512	-0.232
-672.120	-105.217	0.185	-0.042
-671.105	727.789	-0.078	-0.209
-670.091	800.000	-0.113	-0.433
-669.076	72.177	0.152	0.159
-668.062	-137.397	-0.332	-0.038
-667.047	-152.371	-0.256	0.018
-666.032	151.311	-0.135	0.184
-665.018	80.919	-0.127	0.137
-664.003	157.721	-0.051	-0.070
-662.989	430.856	0.017	0.036
-661.974	-32.014	0.048	0.027
-660.959	290.072	0.101	0.184
-659.945	-11.242	-0.296	-0.195
-658.930	37.196	0.159	-0.140
-657.916	-200.000	0.046	0.230
-656.901	-200.000	-0.202	-0.000
-655.886	228.910	-0.101	0.165
-654.872	-62.692	0.287	0.119
-653.857	-200.000	0.026	0.165
-652.843	-148.897	0.266	0.021
-651.828	800.000	-0.071	0.308
-650.814	-46.298	-0.297	0.146
-649.799	-200.000	-0.012	0.133
-648.784	18.833	-0.232	0.185
-647.770	-200.000	-0.008	0.152
-646.755	-113.916	-0.355	-0.069
-645.741	-114.915	-0.202	0.038
-644.726	-200.000	0.015	-0.121
-643.711	-31.791	-0.193	0.108
-642.697	-8.738	-0.082	0.055
-641.682	127.286	-0.198	0.251
-640.668	293.044	-0.221	-0.404
-639.653	-168.057	-0.323	0.013
-638.638	-200.000	-0.024	-0.193
-637.624	344.658	-0.016	0.032
-636.609	101.973	-0.274	0.320
-635.595	-44.458	0.123	-0.062
-634.580	163.570	0.048	-0.067
-633.565	-200.000	0.009	-0.203
-632.551	-12.065	0.166	0.109
-631.536	62.545	-0.203	-0.203
-630.522	800.000	-0.056	-0.216
-629.507	800.000	0.094	0.264
-628.492	147.866	-0.081	-0.109
-627.478	-164.943	-0.093	0.004
-626.463	-91.026	0.157	-0.045
-625.449	-200.000	0.033	-0.173
-624.434	33.161	0.040	0.034
-623.419	79.064	-0.076	-0.082
-622.405	-74.985	-0.189	-0.068
-621.390	166.648	0.115	0.163
-620.376	142.731	-0.160	0.212
-619.361	-131.262	0.167	0.022
-618.346	158.042	-0.109	-0.150
-617.332	261.371	-0.082	-0.141
-616.317	-25.208	0.177	-0.105
-615.303	93.036	0.067	-0.076
-614.288	87.507	0.027	-0.030
-613.273	90.502	0.073	-0.082
-612.259	-62.855	-0.209	-0.087
-611.244	800.000	0.040	-0.110
-610.230	-38.937	0.216	-0.114
-609.215	-200.000	0.000	-0.243
-608.201	358.304	0.172	-0.344
-607.186	24.525	0.215	-0.178
-606.171	-3.828	-0.429	0.298
-605.157	800.000	0.067	0.215
-604.142	800.000	-0.036	0.137
-603.128	65.612	0.150	0.152
-602.113	158.500	0.064	0.089
-601.098	-169.537	0.138	0.005
-600.084	-200.000	0.029	0.173
-599.069	-90.189	0.112	-0.033
-598.055	-176.517	-0.273	-0.007
-597.040	-200.000	0.016	-0.336
-596.025	-95.337	0.226	-0.061
-595.011	50.414	0.317	0.299
-593.996	189.126	0.127	-0.190
-592.982	-7.510	-0.138	0.093
-591.967	493.492	0.050	-0.115
-590.952	320.513	-0.144	-0.273
-589.938	-118.784	0.342	-0.060
-588.923	-200.000	-0.014	-0.251
-587.909	-153.361	0.234	-0.016
-586.894	-41.556	0.172	0.088
-585.879	-151.182	-0.241	-0.018
-584.865	51.597	0.140	0.133
-583.850	-138.970	-0.496	-0.054
-582.836	174.556	0.149	-0.216
-581.821	800.000	-0.087	-0.333
-580.806	-173.451	-0.330	-0.010
-579.792	38.855	-0.300	-0.267
-578.777	96.227	0.211	0.241
-577.763	-66.906	-0.080	0.032
-576.748	698.862	0.056	0.148
-575.733	-183.349	-0.167	0.003
-574.719	800.000	0.028	0.094
-573.704	-4.279	-0.203	-0.140
-572.690	800.000	0.086	-0.261
-571.675	27.298	0.092	0.077
-570.661	-38.441	0.049	0.026
-569.646	120.715	-0.105	-0.130
-568.631	-100.568	0.225	0.055
-567.617	-42.706	-0.520	0.264
-566.602	184.045	0.155	-0.228
-565.588	800.000	0.098	-0.426
-564.573	-120.124	-0.363	-0.062
-563.558	-81.492	0.159	0.052
-562.544	221.280	-0.129	-0.206
-561.529	-200.000	0.058	-0.271
-560.515	-200.000	-0.034	-0.291
-559.500	320.241	-0.162	0.306
-558.485	-125.368	0.105	-0.016
-557.471	-200.000	0.015	0.291
-556.456	-36.862	0.170	-0.091
-555.442	201.462	0.126	-0.193
-554.427	70.761	0.099	0.103
-553.412	87.657	-0.340	-0.375
-552.398	22.582	-0.394	-0.321
-551.383	800.000	-0.063	-0.200
-550.369	-149.363	-0.481	0.038
-549.354	36.830	-0.087	0.076
-548.339	121.870	0.129	-0.160
-547.325	397.576	-0.099	0.207
-546.310	800.000	0.048	0.164
-545.296	79.031	-0.120	-0.128
-544.281	263.120	0.026	-0.045
-543.266	12.548	0.092	0.071
-542.252	22.799	-0.195	0.159
-541.237	222.923	-0.219	0.351
-540.223	144.488	-0.112	-0.148
-539.208	-200.000	-0.014	-0.329
-538.193	-94.791	-0.211	-0.057
-537.179	-83.112	0.502	-0.161
-536.164	800.000	-0.085	-0.318
-535.150	97.820	-0.055	0.063
-534.135	-47.326	-0.106	-0.051
-533.121	257.795	-0.117	-0.201
-532.106	511.879	0.048	0.110
-531.091	800.000	-0.094	-0.325
-530.077	9.267	0.131	0.098
-529.062	-200.000	-0.086	0.515
-528.048	-32.447	-0.351	0.195
-527.033	-74.401	0.202	0.073
-526.018	663.986	0.013	0.034
-525.004	-200.000	0.058	-0.319
-523.989	172.940	-0.102	-0.146
-522.975	-200.000	-0.045	0.253
-521.960	-165.433	-0.320	0.014
-520.945	-172.967	0.104	0.003
-519.931	234.882	-0.222	-0.365
-518.916	-59.285	0.139	0.059
-517.902	175.740	0.163	0.235
-516.887	-82.397	-0.081	-0.026
-515.872	-6.179	0.160	-0.109
-514.858	800.000	-0.040	0.160
-513.843	33.554	-0.106	-0.092
-512.829	-109.891	0.126	-0.026
-511.814	238.859	0.130	0.216
-510.799	62.194	0.212	-0.210
-509.785	-18.935	-0.208	0.129
-508.770	800.000	-0.074	-0.284
-507.756	800.000	-0.024	0.086
-506.741	-154.491	0.151	0.010
-505.726	-200.000	-0.014	0.125
-504.712	316.876	-0.095	-0.179
-503.697	369.574	0.059	-0.118
-502.683	-98.223	-0.206	-0.053
-501.668	-163.437	0.878	-0.042
-500.653	755.944	0.069	-0.186
-499.639	800.000	0.051	-0.168
-498.624	-79.002	0.483	-0.163
-497.610	255.248	0.147	0.251
-496.595	-124.393	0.211	0.033
-495.581	-65.317	0.307	-0.123
-494.566	-181.428	0.132	-0.003
-493.551	-162.912	0.141	0.007
-492.537	55.794	-0.166	0.160
-491.522	-155.944	0.265	0.017
-490.508	800.000	-0.044	0.170
-489.493	-4.419	0.124	0.085
-488.478	109.765	-0.303	0.361
-487.464	-200.000	-0.024	0.289
-486.449	-48.485	0.344	0.165
-485.435	-142.665	0.218	0.021
-484.420	-148.832	-0.191	0.015
-483.405	43.451	-0.189	-0.171
-482.391	800.000	-0.101	0.297
-481.376	34.500	0.154	-0.134
-480.362	800.000	-0.039	-0.138
-479.347	24.458	-0.160	0.132
-478.332	129.051	0.125	0.158
-477.318	-52.193	0.194	-0.089
-476.303	-200.000	0.060	0.328
-475.289	-59.571	-0.151	0.064
-474.274	-30.455	-0.194	-0.109
-473.259	-93.698	-0.251	-0.069
-472.245	-200.000	-0.004	-0.112
-471.230	-60.811	0.258	0.109
-470.216	800.000	0.090	0.257
-469.201	64.801	0.153	-0.154
-468.186	46.772	-0.061	0.056
-467.172	462.237	-0.039	-0.087
-466.157	800.000	-0.043	-0.155
-465.143	11.990	0.192	0.146
-464.128	-47.441	-0.229	0.111
-463.113	217.060	0.035	0.055
-462.099	33.512	-0.273	0.235
-461.084	314.387	-0.106	0.197
-460.070	-18.144	0.115	0.072
-459.055	777.466	-0.043	-0.117
-458.040	71.617	0.181	-0.187
-457.026	-200.000	-0.002	0.060
-456.011	313.476	0.134	-0.249
-454.997	-46.050	-0.083	0.040
-453.982	-200.000	0.010	-0.156
-452.968	-40.392	0.104	0.053
-451.953	-90.416	-0.428	0.123
-450.938	102.894	-0.193	-0.225
-449.924	67.199	0.130	0.131
-448.909	-200.000	-0.041	-0.218
-447.895	-200.000	0.007	-0.096
-446.880	184.077	-0.035	-0.052
-445.865	800.000	-0.057	0.234
-444.851	98.559	0.023	0.026
-443.836	-47.860	-0.128	-0.061
-442.822	615.549	-0.085	-0.211
-441.807	-40.354	-0.178	0.092
-440.792	-75.483	0.254	-0.090
-439.778	-200.000	0.029	-0.262
-438.763	125.332	-0.252	0.316
-437.749	800.000	0.054	0.191
-436.734	800.000	0.087	0.282
-435.719	22.593	0.163	-0.132
-434.705	-59.013	0.321	-0.137
-433.690	-23.249	-0.262	-0.156
-432.676	88.385	-0.034	0.037
-431.661	-25.923	0.280	-0.163
-430.646	-27.347	-0.263	-0.152
-429.632	5.023	0.347	-0.253
-428.617	-64.276	-0.127	-0.051
-427.603	-9.565	0.157	-0.104
-426.588	-200.000	-0.032	0.154
-425.573	800.000	-0.109	0.300
-424.559	-66.800	0.125	0.049
-423.544	582.713	-0.088	-0.214
-422.530	25.007	0.027	-0.023
-421.515	86.417	0.063	0.069
-420.500	-94.037	0.445	-0.121
-419.486	-200.000	0.010	0.441
-418.471	306.899	0.175	-0.323
-417.457	-129.117	-0.333	0.046
-416.442	800.000	0.044	-0.152
-415.428	41.339	0.153	0.137
-414.413	104.533	-0.085	-0.100
-413.398	232.633	-0.136	0.221
-412.384	235.621	-0.060	-0.098
-411.369	-200.000	-0.007	-0.216
-410.355	8.272	-0.264	-0.197
-409.340	315.892	0.048	-0.090
-408.325	-57.554	-0.285	0.124
-407.311	800.000	0.115	-0.348
-406.296	-157.672	-0.218	0.013
-405.282	335.256	-0.116	0.223
-404.267	48.998	0.165	0.154
-403.252	55.714	0.166	-0.159
-402.238	154.570	-0.048	-0.065
-401.223	484.563	-0.016	-0.037
-400.209	29.839	0.288	-0.243
-399.194	194.726	-0.105	0.158
-398.179	800.000	0.055	0.214
-397.165	-130.871	0.392	0.052
-396.150	-200.000	-0.049	0.216
-395.136	-170.836	-0.094	0.003
-394.121	-76.459	-0.207	0.072
-393.106	58.253	0.114	0.111
-392.092	-200.000	0.006	-0.030
-391.077	800.000	-0.033	0.113
-390.063	144.100	-0.125	0.165
-389.048	800.000	-0.104	0.351
-388.033	5.676	0.031	-0.023
-387.019	-159.944	0.106	0.006
-386.004	28.028	-0.296	0.247
-384.990	-103.337	0.004	0.001
-383.975	359.425	-0.086	0.170
-382.960	-200.000	-0.026	-0.179
-381.946	-200.000	-0.013	0.171
-380.931	-43.744	0.204	0.102
-379.917	-200.000	-0.020	-0.268
-378.902	800.000	0.095	-0.292
-377.888	-200.000	-0.004	-0.320
-376.873	-200.000	0.002	-0.099
-375.858	2.444	-0.127	0.091
-374.844	-200.000	-0.029	0.206
-373.829	-200.000	-0.026	0.152
-372.815	55.337	0.134	-0.128
-371.800	-200.000	-0.027	-0.122
-370.785	179.569	0.217	-0.315
-369.771	216.654	-0.105	0.166
-368.756	-117.547	0.112	-0.020
-367.742	800.000	0.082	-0.301
-366.727	-200.000	-0.009	-0.075
-365.712	800.000	-0.068	0.206
-364.698	800.000	-0.022	-0.086
-363.683	-133.821	-0.403	-0.050
-362.669	-119.605	-0.151	0.026
-361.654	-200.000	-0.018	-0.149
-360.639	75.318	-0.134	0.140
-359.625	-200.000	-0.050	-0.239
-358.610	-177.915	0.165	-0.004
-357.596	-200.000	-0.022	-0.096
-356.581	-199.219	0.208	-0.001
-355.566	-13.258	0.211	0.136
-354.552	-200.000	-0.014	-0.350
-353.537	-166.392	-0.121	0.005
-352.523	-144.941	-0.188	-0.017
-351.508	-138.346	0.211	-0.023
-350.493	-124.809	-0.140	-0.021
-349.479	29.093	0.133	0.112
-348.464	-125.809	-0.189	-0.028
-347.450	-200.000	-0.018	-0.084
-346.435	118.918	0.066	-0.081
-345.420	800.000	0.068	0.265
-344.406	331.072	-0.057	0.108
-343.391	-129.394	0.312	-0.043
-342.377	29.612	-0.292	0.246
-341.362	34.782	0.122	0.106
-340.348	3.707	-0.182	-0.132
-339.333	-57.001	0.252	-0.110
-338.318	-91.641	-0.273	0.077
-337.304	596.030	0.055	-0.135
-336.289	-41.476	-0.158	0.080
-335.275	800.000	0.089	0.309
-334.260	-51.336	-0.066	-0.031
-333.245	448.369	-0.154	-0.334
-332.231	29.854	0.220	0.185
-331.216	-181.738	0.195	0.004
-330.202	124.279	0.208	0.258
-329.187	-143.375	-0.154	0.015
-328.172	800.000	0.055	-0.153
-327.158	217.013	-0.136	-0.213
-326.143	104.170	0.165	0.191
-325.129	56.102	-0.361	-0.346
-324.114	-149.322	-0.259	0.020
-323.099	30.306	0.284	0.239
-322.085	270.396	-0.075	-0.130
-321.070	-103.528	0.072	-0.017
-320.056	-113.901	-0.024	-0.005
-319.041	125.997	-0.121	0.151
-318.026	337.606	-0.167	0.320
-317.012	-150.124	0.170	0.013
-315.997	-200.000	-0.011	-0.126
-314.983	-200.000	0.032	0.177
-313.968	-142.899	0.389	0.037
-312.953	505.198	-0.077	-0.177
-311.939	-200.000	-0.010	-0.075
-310.924	74.641	0.202	0.210
-309.910	35.242	-0.018	0.015
-308.895	164.310	0.036	-0.050
-307.880	118.450	-0.063	-0.076
-306.866	-108.793	0.078	-0.016
-305.851	800.000	-0.043	0.173
-304.837	800.000	0.069	0.261
-303.822	216.209	-0.042	0.065
-302.807	3.313	-0.322	0.231
-301.793	135.077	0.249	0.319
-300.778	27.063	-0.235	0.195
-299.764	-121.176	0.387	-0.064
-298.749	-200.000	0.027	0.156
-297.735	172.571	-0.080	0.113
-296.720	42.897	-0.164	-0.148
-295.705	66.516	-0.097	-0.097
-294.691	800.000	-0.052	0.194
-293.676	16.596	-0.039	-0.030
-292.662	223.519	-0.222	-0.353
-291.647	223.723	-0.163	-0.259
-290.632	387.835	-0.124	0.252
-289.618	-200.000	-0.044	-0.196
-288.603	-30.188	-0.109	0.061
-287.589	-184.707	0.147	0.002
-286.574	580.772	0.125	0.302
-285.559	-119.132	-0.415	0.071
-284.545	-168.543	0.370	0.014
-283.530	-55.129	0.315	0.140
-282.516	-18.253	-0.327	-0.202
-281.501	449.685	-0.040	0.086
-280.486	13.247	0.141	0.108
-279.472	-107.852	0.111	-0.024
-278.457	-200.000	-0.022	0.196
-277.443	800.000	0.003	-0.013
-276.428	-82.651	-0.094	-0.030
-275.413	-144.950	0.152	-0.014
-274.399	82.548	-0.152	-0.163
-273.384	-200.000	0.026	-0.141
-272.370	475.539	0.042	-0.094
-271.355	744.052	0.188	-0.497
-270.340	73.486	0.132	0.136
-269.326	-200.000	-0.006	0.083
-268.311	-62.744	-0.070	0.029
-267.297	800.000	-0.065	0.213
-266.282	125.764	0.150	-0.187
-265.267	-5.009	0.044	-0.030
-264.253	-125.283	0.277	-0.042
-263.238	-40.086	0.402	-0.206
-262.224	-125.581	0.071	-0.011
-261.209	-15.425	-0.112	0.070
-260.195	304.672	-0.040	0.073
-259.180	-170.569	-0.237	0.008
-258.165	664.214	-0.062	0.157
-257.151	-33.924	0.217	-0.118
-256.136	332.521	0.182	0.347
-255.122	-200.000	0.046	0.306
-254.107	178.900	-0.109	0.157
-253.092	-151.227	0.202	-0.015
-252.078	12.482	0.204	0.155
-251.063	691.066	0.153	0.393
-250.049	155.976	-0.209	-0.283
-249.034	-200.000	0.031	0.176
-248.019	-200.000	-0.003	0.359
-247.005	397.303	-0.088	0.182
-245.990	339.914	0.098	0.188
-244.976	381.506	-0.228	0.461
-243.961	-44.212	0.173	-0.085
-242.946	800.000	-0.050	0.156
-241.932	76.576	-0.153	-0.160
-240.917	307.430	-0.076	-0.139
-239.903	-88.152	-0.285	-0.084
-238.888	800.000	-0.050	-0.170
-237.873	-171.662	0.147	-0.005
-236.859	-172.640	0.171	0.005
-235.844	-65.640	-0.276	-0.109
-234.830	379.035	-0.137	0.277
-233.815	-200.000	-0.092	0.406
-232.800	-172.851	-0.113	-0.003
-231.786	-62.022	-0.147	-0.060
-230.771	158.660	0.158	-0.216
-229.757	65.755	0.367	-0.366
-228.742	-80.625	-0.264	-0.086
-227.727	90.430	0.175	-0.193
-226.713	-125.331	0.398	-0.060
-225.698	28.881	-0.322	0.268
-224.684	800.000	0.154	0.472
-223.669	800.000	-0.115	0.450
-222.655	-200.000	0.095	0.417
-221.640	328.596	-0.218	0.412
-220.625	191.345	0.252	-0.372
-219.611	44.095	0.193	-0.174
-218.596	-122.400	0.179	0.029
-217.582	-189.570	0.195	0.002
-216.567	516.664	0.068	0.155
-215.552	-28.464	-0.131	-0.074
-214.538	-200.000	-0.021	-0.117
-213.523	386.064	0.056	0.114
-212.509	-15.387	0.120	0.075
-211.494	800.000	-0.060	-0.166
-210.479	-8.705	-0.183	0.121
-209.465	-200.000	-0.040	0.191
-208.450	636.352	0.140	-0.348
-207.436	-200.000	0.010	-0.282
-206.421	-200.000	-0.051	0.235
-205.406	53.168	0.030	-0.028
-204.392	-95.296	0.113	0.030
-203.377	-161.980	-0.362	0.018
-202.363	-200.000	-0.033	-0.170
-201.348	14.405	0.081	-0.062
-200.333	7.798	-0.084	0.062
-199.319	-116.534	0.102	-0.018
-198.304	800.000	-0.068	0.231
-197.290	41.339	-0.107	0.095
-196.275	-59.552	0.190	0.080
-195.260	-200.000	0.063	0.283
-194.246	800.000	0.065	-0.249
-193.231	-90.824	0.098	0.028
-192.217	80.580	-0.106	-0.112
-191.202	800.000	-0.059	0.242
-190.187	223.735	0.059	-0.093
-189.173	-56.222	-0.355	0.155
-188.158	35.715	0.232	0.200
-187.144	-200.000	-0.018	0.113
-186.129	129.052	0.169	-0.212
-185.114	-200.000	-0.046	0.197
-184.100	-200.000	-0.086	-0.448
-183.085	-140.453	0.116	-0.012
-182.071	-116.455	0.202	0.037
-181.056	-112.747	0.112	-0.022
-180.042	-88.417	-0.166	0.049
-179.027	-150.845	0.259	-0.019
-178.012	-200.000	-0.003	0.060
-176.998	-49.556	0.244	0.114
-175.983	78.628	-0.134	-0.141
-174.969	136.602	0.170	-0.218
-173.954	-1.581	-0.182	-0.126
-172.939	-200.000	-0.003	0.115
-171.925	800.000	-0.130	0.387
-170.910	-114.891	0.030	0.006
-169.896	-200.000	-0.049	0.309
-168.881	59.132	-0.061	-0.059
-167.866	-124.843	0.278	0.042
-166.852	800.000	-0.074	-0.211
-165.837	189.012	-0.255	0.375
-164.823	174.140	0.102	-0.144
-163.808	99.952	0.249	-0.283
-162.793	61.147	-0.272	-0.265
-161.779	55.942	0.181	-0.172
-160.764	-200.000	0.050	-0.368
-159.750	-120.034	-0.066	0.011
-158.735	-200.000	0.027	-0.130
-157.720	-200.000	0.025	0.180
-156.706	142.232	0.063	-0.082
-155.691	-150.763	0.064	-0.005
-154.677	199.382	0.062	0.093
-153.662	-12.168	0.143	-0.092
-152.647	158.809	-0.129	-0.176
-151.633	-88.522	0.197	-0.058
-150.618	-61.050	0.226	-0.094
-149.604	-200.000	-0.057	-0.269
-148.589	-77.851	0.093	0.032
-147.574	204.896	-0.300	0.456
-146.560	-136.074	0.023	-0.003
-145.545	126.175	0.333	0.413
-144.531	483.715	0.088	-0.196
-143.516	-200.000	-0.047	-0.329
-142.502	-196.247	-0.286	-0.002
-141.487	110.775	0.146	-0.173
-140.472	283.065	-0.106	-0.186
-139.458	-62.450	0.138	-0.056
-138.443	387.465	-0.066	0.134
-137.429	783.998	-0.016	-0.042
-136.414	-146.804	0.475	-0.040
-135.399	-18.129	-0.125	-0.077
-134.385	-27.656	0.145	-0.083
-133.370	37.534	0.372	0.324
-132.356	419.908	-0.095	0.199
-131.341	54.162	-0.255	-0.240
-130.326	148.097	-0.058	0.077
-129.312	470.757	0.173	0.380
-128.297	-56.917	0.164	-0.071
-127.283	-111.377	0.230	-0.046
-126.268	256.740	0.273	-0.460
-125.253	-112.142	-0.206	0.041
-124.239	166.450	0.032	0.045
-123.224	155.614	0.170	0.229
-122.210	49.793	0.137	0.127
-121.195	-70.300	0.321	-0.119
