DTS Sentinel unit serial number:	SN413079Multiplexer serial number:	ORYXHardware model number:	OX4-SRSoftware version number:	ORYX F/W v4.00 Oryx Data Collector v3.7.2.0data status	okinstallation	princeton_trtdifferential loss correction	single-endedforward channel	channel 3reverse channel	N/Adate	2019/09/18time	00:04:35forward acquisition time	60.00reverse acquisition time	0.00gamma	496.2192k internal	0.2344k external	0.2344temperature offset calibration	0.9947default loss term (dB/km)	0.3790temperature slope calibration	1.0000multiplexer offset coefficient	1.0000multiplexer slope coefficient	1.0000fibre end	0.00T internal ref (°C)	23.81T ext. ref 1 (°C)	0.16T ext. ref 2 (°C)	17.30length (m)	temperature (°C)	Stokes	anti-Stokes-747.200	139.404	-0.118	0.156
-746.185	-200.000	0.068	0.389
-745.171	-168.504	0.245	-0.009
-744.156	131.129	-0.071	-0.092
-743.142	-200.000	0.043	-0.333
-742.127	154.039	-0.132	0.181
-741.112	317.097	0.198	0.375
-740.098	174.104	-0.069	0.100
-739.083	-200.000	0.002	-0.498
-738.069	-23.920	-0.309	0.185
-737.054	642.958	0.136	0.346
-736.039	-66.839	-0.339	0.134
-735.025	14.504	0.232	0.181
-734.010	-179.176	-0.188	0.004
-732.996	277.808	-0.092	-0.164
-731.981	101.361	-0.175	-0.204
-730.966	23.262	-0.099	0.081
-729.952	-163.010	0.045	-0.002
-728.937	-200.000	-0.018	-0.417
-727.923	-200.000	0.036	-0.217
-726.908	-174.123	-0.314	0.009
-725.894	104.421	-0.022	0.026
-724.879	437.811	-0.038	0.083
-723.864	342.480	0.082	-0.161
-722.850	593.259	0.114	-0.282
-721.835	-200.000	0.032	0.167
-720.821	800.000	0.050	-0.172
-719.806	477.346	-0.043	-0.098
-718.791	-200.000	-0.002	0.187
-717.777	17.725	0.029	-0.023
-716.762	-94.147	-0.307	0.084
-715.748	213.166	-0.077	-0.122
-714.733	-12.980	0.385	-0.250
-713.718	-34.475	0.273	0.149
-712.704	230.898	0.126	0.206
-711.689	-139.702	-0.223	-0.024
-710.675	-69.814	-0.315	-0.120
-709.660	-15.758	0.134	-0.085
-708.645	-25.605	0.023	0.013
-707.631	77.353	0.251	-0.267
-706.616	-160.145	-0.135	-0.007
-705.602	2.992	0.165	-0.120
-704.587	-99.255	0.144	0.036
-703.572	-200.000	-0.038	-0.321
-702.558	-183.952	0.015	0.000
-701.543	-56.509	-0.310	0.138
-700.529	180.619	-0.013	-0.020
-699.514	-40.848	-0.286	-0.148
-698.499	-145.168	0.302	-0.027
-697.485	53.722	0.213	-0.204
-696.470	-6.682	0.229	-0.156
-695.456	90.198	0.228	-0.254
-694.441	800.000	-0.060	-0.234
-693.426	-200.000	-0.055	0.358
-692.412	-95.967	-0.290	-0.077
-691.397	-178.553	0.214	0.005
-690.383	-68.204	-0.156	0.060
-689.368	-63.789	-0.298	-0.122
-688.354	48.044	0.196	0.183
-687.339	3.807	0.215	-0.156
-686.324	-199.268	-0.049	0.000
-685.310	537.734	-0.093	0.221
-684.295	-28.088	-0.324	-0.187
-683.281	324.916	0.177	-0.338
-682.266	47.820	0.055	0.051
-681.251	-2.954	-0.281	0.196
-680.237	-29.634	0.223	-0.127
-679.222	31.083	-0.149	0.127
-678.208	-64.535	-0.141	0.057
-677.193	-200.000	-0.016	0.164
-676.178	-200.000	-0.027	-0.262
-675.164	-89.027	0.162	-0.048
-674.149	800.000	0.059	0.183
-673.135	-74.986	-0.208	-0.074
-672.120	800.000	0.034	-0.109
-671.105	-106.552	-0.080	0.018
-670.091	800.000	0.015	0.066
-669.076	-10.841	-0.056	-0.037
-668.062	-200.000	0.070	0.395
-667.047	-29.919	-0.397	-0.225
-666.032	39.497	0.034	-0.031
-665.018	-161.440	0.269	0.014
-664.003	12.393	-0.134	-0.103
-662.989	263.450	0.162	0.280
-661.974	50.299	0.154	-0.145
-660.959	-200.000	0.048	0.286
-659.945	-85.987	-0.323	0.100
-658.930	73.376	0.174	-0.182
-657.916	-77.395	0.317	-0.110
-656.901	-139.728	-0.113	-0.012
-655.886	203.689	-0.260	-0.402
-654.872	-92.846	-0.035	0.010
-653.857	-200.000	-0.029	0.130
-652.843	776.791	0.082	-0.224
-651.828	13.679	-0.216	-0.168
-650.814	800.000	0.102	0.297
-649.799	-200.000	-0.102	0.477
-648.784	32.420	0.147	0.127
-647.770	311.112	-0.081	-0.152
-646.755	-92.437	-0.242	0.068
-645.741	57.929	-0.245	-0.239
-644.726	-28.831	-0.157	-0.090
-643.711	216.215	-0.133	0.211
-642.697	-200.000	0.029	0.160
-641.682	190.587	-0.151	-0.226
-640.668	-90.987	-0.276	-0.079
-639.653	800.000	0.046	-0.171
-638.638	800.000	0.133	0.392
-637.624	-200.000	-0.029	0.203
-636.609	-200.000	-0.035	0.186
-635.595	31.236	0.428	0.366
-634.580	23.593	0.324	-0.265
-633.565	-176.181	0.242	0.006
-632.551	10.324	-0.124	-0.094
-631.536	-200.000	-0.023	0.151
-630.522	-63.386	0.161	0.066
-629.507	39.153	0.194	0.173
-628.492	-13.520	-0.407	0.263
-627.478	-200.000	-0.018	0.227
-626.463	-20.904	-0.258	-0.157
-625.449	59.300	0.052	-0.051
-624.434	16.834	0.186	-0.147
-623.419	-200.000	-0.041	0.373
-622.405	545.679	0.111	-0.264
-621.390	482.938	-0.025	0.056
-620.376	800.000	0.088	0.300
-619.361	800.000	-0.036	0.106
-618.346	-200.000	-0.011	0.109
-617.332	-71.579	-0.229	-0.085
-616.317	-102.636	0.508	0.121
-615.303	-200.000	-0.005	0.311
-614.288	456.636	0.163	0.361
-613.273	-103.377	0.231	0.054
-612.259	-200.000	-0.002	-0.184
-611.244	-53.840	-0.278	-0.126
-610.230	10.670	0.316	-0.240
-609.215	294.691	0.255	0.464
-608.201	-200.000	0.056	-0.442
-607.186	540.740	0.117	-0.277
-606.171	-182.252	-0.381	-0.007
-605.157	-88.269	0.116	0.035
-604.142	240.725	0.092	0.153
-603.128	800.000	0.170	0.475
-602.113	-170.871	-0.180	0.006
-601.098	328.621	-0.093	-0.177
-600.084	-36.429	0.283	0.152
-599.069	-151.001	-0.095	-0.007
-598.055	-24.011	0.298	0.177
-597.040	-200.000	-0.011	-0.171
-596.025	-200.000	-0.030	-0.269
-595.011	-98.649	0.041	0.010
-593.996	-151.134	-0.287	0.021
-592.982	800.000	0.099	0.302
-591.967	-200.000	-0.023	-0.174
-590.952	156.441	0.041	0.056
-589.938	719.947	0.043	-0.113
-588.923	103.779	-0.103	-0.120
-587.909	11.873	-0.177	0.135
-586.894	-51.634	-0.045	-0.021
-585.879	-200.000	-0.077	0.444
-584.865	-35.536	-0.107	0.058
-583.850	1.669	0.197	0.141
-582.836	40.061	0.133	-0.119
-581.821	800.000	0.126	-0.436
-580.806	-200.000	-0.034	-0.209
-579.792	326.263	0.076	0.145
-578.777	93.626	-0.279	0.315
-577.763	-104.597	-0.239	0.055
-576.748	91.039	0.194	-0.216
-575.733	-200.000	0.016	0.221
-574.719	111.316	0.185	-0.222
-573.704	-200.000	0.005	0.056
-572.690	109.131	0.066	-0.079
-571.675	-108.858	-0.216	-0.046
-570.661	517.532	0.043	-0.099
-569.646	-162.941	-0.085	-0.004
-568.631	48.595	0.100	0.093
-567.617	-6.599	0.091	-0.061
-566.602	-200.000	-0.010	0.153
-565.588	-24.614	-0.023	0.014
-564.573	-49.780	0.044	0.021
-563.558	-137.720	-0.091	0.010
-562.544	800.000	0.010	-0.044
-561.529	-98.941	-0.318	-0.080
-560.515	-200.000	0.032	0.300
-559.500	-23.193	0.298	0.178
-558.485	-76.822	-0.379	-0.132
-557.471	-122.329	-0.482	0.078
-556.456	-200.000	0.040	-0.192
-555.442	-189.530	0.042	0.000
-554.427	-26.296	-0.273	-0.159
-553.412	360.050	-0.051	0.101
-552.398	800.000	-0.052	-0.180
-551.383	8.270	-0.303	0.226
-550.369	-156.185	-0.183	-0.011
-549.354	70.771	0.195	0.200
-548.339	45.348	0.335	0.307
-547.325	71.946	0.154	-0.159
-546.310	800.000	0.061	-0.203
-545.296	120.718	-0.117	0.145
-544.281	-0.138	0.297	0.210
-543.266	208.918	-0.167	-0.260
-542.252	128.339	-0.064	-0.080
-541.237	-136.163	0.508	0.059
-540.223	-156.089	0.088	-0.006
-539.208	-59.693	-0.243	0.103
-538.193	-129.877	-0.165	-0.022
-537.179	438.305	-0.116	0.252
-536.164	-137.222	-0.080	-0.009
-535.150	800.000	-0.068	-0.241
-534.135	-19.389	-0.154	0.095
-533.121	15.274	-0.167	0.130
-532.106	-84.218	0.103	-0.032
-531.091	800.000	-0.071	-0.222
-530.077	490.917	-0.075	-0.171
-529.062	-200.000	-0.010	0.191
-528.048	-200.000	-0.048	0.272
-527.033	800.000	0.038	-0.132
-526.018	439.481	-0.090	-0.194
-525.004	0.398	0.035	-0.025
-523.989	-141.280	0.124	-0.012
-522.975	61.089	0.184	-0.181
-521.960	-123.086	0.118	0.019
-520.945	329.145	-0.075	0.144
-519.931	-200.000	0.030	0.190
-518.916	-200.000	0.029	-0.230
-517.902	800.000	0.053	-0.165
-516.887	-200.000	-0.011	-0.120
-515.872	-200.000	0.012	0.126
-514.858	-1.569	-0.176	0.123
-513.843	-40.073	0.174	-0.090
-512.829	-65.390	0.180	0.072
-511.814	-80.517	-0.179	0.059
-510.799	108.045	0.349	0.413
-509.785	-133.021	-0.178	0.022
-508.770	-64.457	0.148	-0.060
-507.756	-91.807	-0.302	0.085
-506.741	64.917	0.061	-0.061
-505.726	-78.880	0.044	-0.015
-504.712	-200.000	-0.005	0.053
-503.697	-24.695	-0.249	0.147
-502.683	-200.000	-0.010	-0.048
-501.668	72.928	0.142	0.147
-500.653	-200.000	0.012	-0.082
-499.639	184.391	-0.042	-0.062
-498.624	13.463	0.137	0.106
-497.610	26.539	-0.148	-0.122
-496.595	-71.869	-0.232	-0.086
-495.581	34.587	-0.082	-0.071
-494.566	-200.000	-0.003	-0.056
-493.551	-200.000	-0.007	0.238
-492.537	-96.977	0.064	-0.017
-491.522	-200.000	-0.018	-0.493
-490.508	13.988	0.058	-0.045
-489.493	800.000	0.075	-0.236
-488.478	-200.000	0.039	-0.240
-487.464	800.000	0.036	0.128
-486.449	35.516	-0.142	0.123
-485.435	-122.328	-0.118	-0.019
-484.420	-178.710	0.136	-0.003
-483.405	112.970	-0.336	-0.403
-482.391	-68.454	0.084	0.032
-481.376	-200.000	-0.035	0.167
-480.362	800.000	0.070	-0.303
-479.347	265.555	-0.070	-0.120
-478.332	-62.343	0.346	-0.143
-477.318	-44.684	-0.185	0.091
-476.303	-138.147	-0.116	0.013
-475.289	92.668	-0.027	-0.030
-474.274	-200.000	-0.003	-0.108
-473.259	-152.111	0.207	-0.015
-472.245	280.316	0.143	0.253
-471.230	-72.806	-0.309	-0.113
-470.216	-87.603	0.162	-0.048
-469.201	14.694	-0.185	-0.143
-468.186	-163.131	-0.161	-0.008
-467.172	499.400	-0.177	-0.403
-466.157	-83.059	-0.326	-0.104
-465.143	-8.068	-0.266	0.177
-464.128	399.758	-0.133	0.275
-463.113	99.355	0.038	-0.044
-462.099	-200.000	0.041	-0.368
-461.084	-200.000	0.011	0.104
-460.070	203.793	0.055	0.084
-459.055	-62.993	-0.269	0.110
-458.040	440.892	-0.090	-0.194
-457.026	-193.470	-0.481	0.004
-456.011	-96.007	-0.017	-0.005
-454.997	17.472	0.189	-0.149
-453.982	-200.000	-0.007	-0.119
-452.968	800.000	0.053	0.175
-451.953	-139.456	0.222	-0.024
-450.938	-200.000	0.007	-0.034
-449.924	-164.521	-0.312	-0.014
-448.909	-31.905	0.334	-0.185
-447.895	-186.533	-0.187	-0.003
-446.880	-133.646	-0.423	0.052
-445.865	-200.000	0.026	0.341
-444.851	-41.595	-0.250	-0.127
-443.836	-68.091	0.114	0.044
-442.822	-200.000	-0.049	-0.392
-441.807	-45.259	0.332	-0.163
-440.792	-116.734	0.300	0.054
-439.778	381.331	0.021	-0.042
-438.763	800.000	0.041	-0.159
-437.749	-73.359	0.146	-0.053
-436.734	-200.000	0.018	0.124
-435.719	-200.000	-0.010	-0.109
-434.705	436.573	-0.115	0.247
-433.690	-200.000	-0.033	-0.181
-432.676	-162.947	-0.123	0.006
-431.661	329.263	0.176	-0.335
-430.646	-200.000	-0.002	-0.093
-429.632	-37.928	-0.131	-0.069
-428.617	-10.582	0.256	0.167
-427.603	50.731	0.153	0.143
-426.588	800.000	0.117	0.407
-425.573	59.054	0.081	0.079
-424.559	185.512	0.067	0.098
-423.544	150.802	0.059	-0.080
-422.530	-10.410	-0.382	-0.250
-421.515	533.090	0.062	-0.145
-420.500	706.365	0.110	0.287
-419.486	157.116	-0.093	-0.127
-418.471	201.070	-0.097	0.148
-417.457	-30.047	-0.268	-0.151
-416.442	595.062	0.106	-0.260
-415.428	-22.704	-0.075	0.045
-414.413	-25.177	-0.191	-0.112
-413.398	75.839	-0.224	-0.234
-412.384	714.897	-0.023	-0.060
-411.369	-102.925	0.345	0.081
-410.355	184.140	0.086	-0.126
-409.340	-111.097	0.190	0.038
-408.325	-87.532	0.334	0.100
-407.311	-74.772	-0.229	0.081
-406.296	-200.000	0.013	0.070
-405.282	-200.000	0.023	-0.106
-404.267	706.405	-0.115	0.300
-403.252	396.689	-0.072	-0.148
-402.238	800.000	0.054	-0.153
-401.223	-31.705	-0.171	0.095
-400.209	-200.000	0.059	-0.497
-399.194	-200.000	-0.015	-0.204
-398.179	-156.455	0.107	-0.007
-397.165	-60.334	-0.159	-0.067
-396.150	359.896	-0.082	0.162
-395.136	-122.090	0.346	0.056
-394.121	7.325	-0.289	-0.213
-393.106	-200.000	0.019	-0.164
-392.092	-200.000	0.007	-0.060
-391.077	-87.823	0.245	0.073
-390.063	-2.091	-0.255	-0.177
-389.048	127.213	0.146	-0.182
-388.033	-200.000	0.024	-0.148
-387.019	800.000	0.028	-0.076
-386.004	-95.567	-0.133	-0.035
-384.990	-116.139	-0.143	0.026
-383.975	800.000	0.053	-0.222
-382.960	800.000	-0.023	-0.092
-381.946	-200.000	-0.004	-0.051
-380.931	-200.000	0.032	0.164
-379.917	-38.005	0.148	-0.077
-378.902	302.491	0.081	0.148
-377.888	-132.959	-0.353	-0.044
-376.873	-116.170	-0.054	0.010
-375.858	56.030	-0.059	-0.056
-374.844	-114.078	0.359	-0.069
-373.829	31.127	-0.073	0.062
-372.815	-200.000	-0.003	0.190
-371.800	-47.791	-0.096	0.046
-370.785	69.703	0.362	0.368
-369.771	-200.000	-0.045	-0.263
-368.756	-82.883	-0.473	0.150
-367.742	-56.417	0.182	0.079
-366.727	-139.325	0.169	-0.018
-365.712	-87.509	-0.212	0.063
-364.698	538.826	-0.130	-0.304
-363.683	-200.000	-0.006	0.100
-362.669	-104.378	-0.064	0.015
-361.654	87.833	0.104	0.114
-360.639	800.000	-0.071	0.206
-359.625	25.998	-0.360	0.296
-358.610	800.000	-0.032	-0.102
-357.596	68.484	0.264	0.267
-356.581	-57.780	-0.407	-0.176
-355.566	82.479	0.349	0.374
-354.552	-9.722	0.053	0.035
-353.537	-200.000	0.074	-0.479
-352.523	22.712	0.038	0.031
-351.508	-200.000	-0.019	-0.166
-350.493	3.479	0.042	-0.030
-349.479	-34.899	-0.276	0.149
-348.464	-34.042	-0.240	0.130
-347.450	-24.224	0.165	0.097
-346.435	-114.844	0.215	-0.040
-345.420	-50.741	0.240	-0.111
-344.406	161.607	-0.129	0.178
-343.391	-200.000	-0.063	-0.384
-342.377	63.044	0.106	-0.104
-341.362	91.662	0.189	-0.210
-340.348	374.344	0.030	-0.060
-339.333	-90.984	0.234	-0.066
-338.318	800.000	-0.105	-0.314
-337.304	166.117	0.182	0.254
-336.289	-60.534	-0.380	-0.159
-335.275	351.484	-0.008	0.015
-334.260	284.438	0.189	-0.334
-333.245	-115.916	-0.289	0.053
-332.231	467.043	0.073	-0.162
-331.216	94.060	0.249	-0.278
-330.202	-23.094	-0.221	-0.131
-329.187	800.000	-0.075	-0.278
-328.172	-100.590	-0.240	-0.058
-327.158	-44.269	-0.077	0.038
-326.143	103.327	0.223	-0.257
-325.129	-91.149	0.294	-0.083
-324.114	-102.684	0.174	-0.041
-323.099	-200.000	0.019	0.186
-322.085	-73.587	-0.501	-0.180
-321.070	-65.966	-0.304	0.120
-320.056	-79.483	-0.037	-0.012
-319.041	177.730	0.108	-0.155
-318.026	103.936	0.048	0.056
-317.012	-94.566	0.197	-0.053
-315.997	800.000	0.078	0.261
-314.983	-200.000	0.024	0.229
-313.968	14.447	-0.291	0.224
-312.953	681.835	-0.072	0.185
-311.939	800.000	-0.026	-0.092
-310.924	-200.000	-0.022	-0.120
-309.910	91.186	0.131	-0.145
-308.895	58.524	0.199	0.192
-307.880	12.716	0.137	-0.104
-306.866	284.096	0.091	0.160
-305.851	-200.000	-0.024	0.405
-304.837	-19.758	0.349	0.213
-303.822	571.852	-0.137	0.328
-302.807	498.269	0.055	-0.125
-301.793	-200.000	0.036	0.221
-300.778	-17.097	0.424	-0.263
-299.764	-35.089	0.184	0.099
-298.749	386.711	-0.033	-0.066
-297.735	800.000	0.078	-0.296
-296.720	-154.067	-0.168	0.011
-295.705	-59.569	-0.098	0.041
-294.691	-96.422	0.228	0.059
-293.676	-183.586	0.384	-0.006
-292.662	-200.000	-0.012	0.279
-291.647	98.291	-0.117	-0.133
-290.632	770.256	-0.098	-0.261
-289.618	-100.968	-0.050	0.012
-288.603	-165.643	-0.114	0.005
-287.589	-67.782	0.212	-0.081
-286.574	-141.216	-0.452	-0.045
-285.559	-64.984	0.184	-0.073
-284.545	517.078	0.055	0.126
-283.530	-5.368	0.265	0.179
-282.516	221.564	0.127	0.201
-281.501	-160.553	-0.282	-0.015
-280.486	228.407	0.031	0.049
-279.472	-133.027	0.271	-0.034
-278.457	800.000	-0.136	0.370
-277.443	-85.439	-0.229	0.070
-276.428	-65.342	0.076	0.030
-275.413	36.185	-0.109	0.094
-274.399	-95.584	-0.232	-0.061
-273.384	164.056	0.086	-0.120
-272.370	-200.000	0.014	0.195
-271.355	132.255	-0.196	0.248
-270.340	-111.042	-0.314	-0.063
-269.326	-124.426	-0.130	-0.020
-268.311	409.825	-0.097	0.203
-267.297	39.577	-0.040	-0.035
-266.282	294.805	-0.057	0.103
-265.267	-139.141	0.164	0.017
-264.253	-200.000	0.029	0.170
-263.238	-175.509	0.057	0.002
-262.224	787.042	0.055	-0.148
-261.209	239.281	-0.144	0.236
-260.195	57.868	-0.081	0.078
-259.180	-200.000	-0.031	0.248
-258.165	-69.370	0.116	-0.044
-257.151	-100.175	-0.178	0.044
-256.136	-135.004	0.216	0.026
-255.122	800.000	-0.162	0.545
-254.107	-200.000	0.012	-0.184
-253.092	800.000	0.029	0.106
-252.078	-24.793	0.199	-0.116
-251.063	6.585	-0.243	-0.177
-250.049	110.452	0.242	0.285
-249.034	536.634	-0.132	-0.307
-248.019	-200.000	-0.006	0.277
-247.005	800.000	0.081	0.228
-245.990	77.122	0.340	-0.355
-244.976	-18.121	0.235	0.145
-243.961	4.004	0.209	0.150
-242.946	461.793	0.061	0.134
-241.932	30.662	-0.190	0.160
-240.917	10.010	-0.105	-0.078
-239.903	97.788	0.065	-0.074
-238.888	800.000	0.057	0.232
-237.873	-200.000	0.014	-0.202
-236.859	-200.000	-0.033	-0.348
-235.844	-76.507	0.096	-0.033
-234.830	-200.000	0.056	-0.252
-233.815	-182.993	0.023	0.000
-232.800	-48.363	-0.074	-0.035
-231.786	86.500	0.111	0.120
-230.771	800.000	-0.094	0.356
-229.757	88.271	0.188	-0.204
-228.742	-160.947	0.196	0.010
-227.727	-200.000	0.075	-0.406
-226.713	97.918	0.304	-0.342
-225.698	-185.754	-0.285	-0.004
-224.684	-200.000	0.022	-0.125
-223.669	-23.542	0.037	-0.022
-222.655	651.658	-0.095	-0.240
-221.640	-109.772	-0.266	0.055
-220.625	-36.308	-0.204	0.108
-219.611	-115.391	-0.153	-0.028
-218.596	-200.000	0.004	-0.043
-217.582	84.348	-0.154	0.165
-216.567	-8.157	0.104	-0.069
-215.552	800.000	0.106	0.328
-214.538	800.000	-0.050	-0.166
-213.523	-9.760	-0.136	0.089
-212.509	19.863	-0.082	0.065
-211.494	800.000	0.119	-0.462
-210.479	-118.118	-0.161	-0.028
-209.465	-200.000	0.094	-0.520
-208.450	-149.836	0.308	0.024
-207.436	800.000	-0.037	0.137
-206.421	173.110	-0.125	-0.176
-205.406	192.126	0.204	-0.302
-204.392	1.533	-0.197	0.139
-203.377	-200.000	-0.012	-0.073
-202.363	-200.000	0.011	0.147
-201.348	310.036	-0.101	-0.186
-200.333	800.000	-0.030	0.117
-199.319	21.126	-0.078	0.062
-198.304	-200.000	-0.066	0.300
-197.290	-153.335	0.197	0.013
-196.275	800.000	-0.075	-0.208
-195.260	149.834	-0.190	-0.252
-194.246	574.809	0.050	0.120
-193.231	-200.000	-0.051	0.530
-192.217	-200.000	-0.019	0.250
-191.202	-177.641	-0.448	0.011
-190.187	91.907	-0.195	0.215
-189.173	-80.380	0.358	0.117
-188.158	-200.000	-0.012	0.257
-187.144	800.000	-0.082	-0.231
-186.129	154.582	-0.190	0.255
-185.114	-200.000	-0.021	0.127
-184.100	-170.474	-0.199	-0.007
-183.085	165.350	-0.039	-0.055
-182.071	108.458	-0.081	0.095
-181.056	800.000	0.049	0.141
-180.042	-200.000	-0.048	-0.241
-179.027	255.697	0.205	0.344
-178.012	-50.800	0.151	-0.070
-176.998	7.637	0.126	-0.092
-175.983	-200.000	0.018	-0.210
-174.969	49.236	0.245	0.226
-173.954	-47.657	0.141	-0.067
-172.939	-200.000	0.038	-0.185
-171.925	199.206	0.088	0.133
-170.910	800.000	0.013	0.037
-169.896	130.626	-0.126	0.158
-168.881	29.518	0.112	-0.093
-167.866	800.000	0.034	0.114
-166.852	168.582	0.098	-0.137
-165.837	-200.000	-0.019	-0.155
-164.823	169.837	-0.190	-0.266
-163.808	-42.141	0.048	-0.024
-162.793	-81.566	0.482	-0.155
-161.779	800.000	-0.085	-0.324
-160.764	245.253	0.110	0.182
-159.750	55.896	0.227	-0.215
-158.735	800.000	0.033	-0.129
-157.720	-145.638	0.225	-0.020
-156.706	237.280	-0.113	-0.183
-155.691	-127.305	0.166	0.024
-154.677	577.142	0.073	0.174
-153.662	319.162	0.039	0.072
-152.647	-23.668	0.168	0.099
-151.633	-59.892	0.292	0.122
-150.618	-200.000	-0.007	-0.075
-149.604	-168.148	-0.030	-0.001
-148.589	-200.000	0.020	0.183
-147.574	-200.000	-0.077	0.350
-146.560	800.000	-0.041	-0.152
-145.545	441.973	-0.083	-0.177
-144.531	-110.854	0.209	-0.042
-143.516	-199.519	0.242	0.001
-142.502	119.576	-0.094	0.114
-141.487	800.000	-0.082	0.311
-140.472	-164.587	-0.379	-0.017
-139.458	-95.366	-0.158	0.042
-138.443	-200.000	0.006	0.089
-137.429	-20.508	0.361	0.217
-136.414	-3.446	-0.057	-0.038
-135.399	-57.612	-0.174	-0.075
-134.385	800.000	-0.023	0.099
-133.370	-40.864	0.332	0.168
-132.356	-200.000	0.274	-0.001
-131.341	176.699	-0.256	0.363
-130.326	-115.818	0.426	0.078
-129.312	150.088	-0.143	0.190
-128.297	75.629	-0.128	0.132
-127.283	708.168	-0.162	-0.418
-126.268	-65.244	-0.232	-0.091
-125.253	100.212	-0.151	0.171
-124.239	56.880	-0.044	0.042
-123.224	-200.000	-0.053	0.234
-122.210	136.753	-0.153	0.195
