DTS Sentinel unit serial number:	SN413079Multiplexer serial number:	ORYXHardware model number:	OX4-SRSoftware version number:	ORYX F/W v4.00 Oryx Data Collector v3.7.2.0data status	okinstallation	princeton_trtdifferential loss correction	single-endedforward channel	channel 3reverse channel	N/Adate	2019/09/12time	12:18:10forward acquisition time	60.00reverse acquisition time	0.00gamma	496.2192k internal	0.2293k external	0.2293temperature offset calibration	1.0041default loss term (dB/km)	0.3790temperature slope calibration	1.0000multiplexer offset coefficient	1.0000multiplexer slope coefficient	1.0000fibre end	0.00T internal ref (°C)	40.62T ext. ref 1 (°C)	2.03T ext. ref 2 (°C)	35.29length (m)	temperature (°C)	Stokes	anti-Stokes-747.200	-20.703	-0.331	0.208
-746.185	800.000	-0.060	0.177
-745.171	101.031	-0.237	0.282
-744.156	14.633	0.209	0.167
-743.142	-106.155	0.364	-0.084
-742.127	132.506	-0.084	-0.111
-741.112	149.676	0.095	0.132
-740.098	800.000	-0.148	0.589
-739.083	-59.405	0.287	-0.126
-738.069	88.840	-0.102	0.117
-737.054	403.670	-0.069	-0.148
-736.039	384.277	-0.090	0.189
-735.025	309.973	0.119	0.228
-734.010	66.417	0.239	-0.248
-732.996	65.715	0.247	0.256
-731.981	-160.861	-0.484	-0.026
-730.966	392.445	-0.046	0.097
-729.952	800.000	0.099	-0.375
-728.937	37.079	-0.182	-0.165
-727.923	800.000	0.097	-0.345
-726.908	174.918	-0.207	-0.307
-725.894	347.977	-0.253	-0.510
-724.879	32.423	0.173	0.153
-723.864	-152.536	-0.450	-0.033
-722.850	23.520	-0.265	0.223
-721.835	-59.633	0.085	-0.037
-720.821	151.633	-0.041	-0.057
-719.806	-56.863	0.264	0.119
-718.791	226.066	-0.210	-0.348
-717.777	-77.182	-0.260	-0.092
-716.762	-200.000	0.006	-0.328
-715.748	224.689	-0.049	0.081
-714.733	-80.626	0.161	0.055
-713.718	16.799	0.258	0.209
-712.704	-113.001	0.207	-0.042
-711.689	-142.684	0.075	0.008
-710.675	-200.000	-0.001	-0.059
-709.660	800.000	-0.141	0.454
-708.645	525.712	0.046	0.110
-707.631	364.530	-0.026	0.054
-706.616	-133.422	-0.371	0.048
-705.602	-51.528	-0.132	-0.063
-704.587	80.602	-0.300	-0.330
-703.572	-145.564	-0.473	-0.043
-702.558	713.921	0.061	-0.166
-701.543	87.797	-0.229	-0.259
-700.529	-19.505	-0.315	0.199
-699.514	-17.159	-0.113	-0.073
-698.499	-200.000	-0.012	0.066
-697.485	-88.092	0.320	0.098
-696.470	118.729	0.105	0.133
-695.456	-139.318	-0.241	0.027
-694.441	-4.672	0.188	-0.133
-693.426	12.310	-0.147	0.116
-692.412	-49.755	-0.211	0.102
-691.397	348.268	0.185	-0.373
-690.383	800.000	0.081	0.277
-689.368	114.330	0.115	0.143
-688.354	112.123	-0.095	0.117
-687.339	800.000	-0.068	0.208
-686.324	61.999	0.164	0.167
-685.310	-59.546	-0.189	-0.083
-684.295	-23.019	0.083	0.051
-683.281	-200.000	0.018	0.168
-682.266	-161.878	-0.228	0.012
-681.251	-200.000	0.037	-0.313
-680.237	147.370	-0.202	-0.278
-679.222	-104.877	-0.136	-0.032
-678.208	121.171	-0.080	0.101
-677.193	178.558	-0.085	0.127
-676.178	637.121	0.108	-0.279
-675.164	-121.890	0.412	0.069
-674.149	-120.469	-0.230	-0.040
-673.135	23.260	-0.231	-0.194
-672.120	800.000	-0.070	-0.278
-671.105	800.000	-0.010	-0.037
-670.091	-77.472	-0.329	0.116
-669.076	292.242	0.162	0.301
-668.062	-199.026	0.150	-0.001
-667.047	460.393	0.135	-0.308
-666.032	-86.163	-0.088	-0.028
-665.018	-40.964	0.219	-0.115
-664.003	48.223	-0.081	0.077
-662.989	800.000	0.068	0.235
-661.974	464.990	-0.087	0.199
-660.959	-200.000	-0.030	-0.288
-659.945	142.590	-0.251	-0.340
-658.930	800.000	-0.074	0.267
-657.916	-139.685	-0.202	-0.022
-656.901	-81.261	0.056	0.019
-655.886	204.320	-0.157	0.249
-654.872	-60.245	-0.200	0.087
-653.857	-11.178	-0.119	-0.080
-652.843	341.650	0.122	0.242
-651.828	-63.023	0.234	0.099
-650.814	-177.807	-0.319	0.008
-649.799	-173.704	0.134	0.004
-648.784	187.026	-0.138	-0.209
-647.770	529.569	-0.111	-0.268
-646.755	-105.520	-0.240	-0.056
-645.741	75.008	-0.317	-0.341
-644.726	350.493	0.114	-0.229
-643.711	-83.112	-0.332	-0.109
-642.697	-97.146	0.130	0.035
-641.682	-64.185	0.201	-0.084
-640.668	127.164	0.067	0.087
-639.653	543.403	-0.113	0.275
-638.638	-155.110	0.262	0.017
-637.624	-124.831	0.168	0.026
-636.609	800.000	-0.047	-0.181
-635.595	-139.780	0.234	0.025
-634.580	133.959	-0.184	0.243
-633.565	666.004	-0.110	0.290
-632.551	-148.450	0.064	0.005
-631.536	10.087	-0.165	0.128
-630.522	-200.000	-0.004	-0.086
-629.507	509.981	0.142	0.337
-628.492	362.018	0.056	0.115
-627.478	-168.981	0.232	-0.009
-626.463	157.986	-0.163	0.230
-625.449	-46.726	-0.351	-0.175
-624.434	-146.312	0.315	0.028
-623.419	-114.250	-0.078	-0.015
-622.405	-200.000	0.045	-0.404
-621.390	164.841	0.085	-0.122
-620.376	-147.183	0.303	-0.026
-619.361	-88.143	0.160	-0.049
-618.346	-105.245	0.075	-0.017
-617.332	-103.635	-0.146	-0.035
-616.317	-73.537	-0.105	-0.039
-615.303	-200.000	0.002	-0.122
-614.288	-200.000	-0.013	-0.164
-613.273	-62.155	-0.286	-0.121
-612.259	136.747	0.065	0.087
-611.244	-110.621	-0.167	-0.035
-610.230	-200.000	-0.007	-0.187
-609.215	267.832	-0.122	0.218
-608.201	-20.370	0.120	-0.075
-607.186	52.304	0.266	0.259
-606.171	-184.992	0.252	-0.004
-605.157	-200.000	0.085	-0.430
-604.142	262.288	0.202	0.356
-603.128	-157.510	-0.067	-0.004
-602.113	375.158	-0.037	-0.077
-601.098	-200.000	-0.060	0.466
-600.084	-200.000	-0.048	-0.269
-599.069	-200.000	-0.026	-0.160
-598.055	-200.000	-0.021	0.128
-597.040	-25.284	0.189	0.114
-596.025	104.969	0.073	0.087
-595.011	-61.418	0.117	-0.050
-593.996	-13.878	0.254	0.167
-592.982	-60.255	0.229	0.099
-591.967	800.000	-0.030	0.093
-590.952	-135.195	-0.244	-0.030
-589.938	-200.000	0.033	-0.491
-588.923	167.647	0.260	-0.376
-587.909	-200.000	-0.026	-0.440
-586.894	800.000	-0.070	0.279
-585.879	7.122	-0.230	-0.174
-584.865	55.724	0.137	0.135
-583.850	-61.998	-0.347	-0.147
-582.836	68.162	-0.206	0.214
-581.821	547.465	0.060	-0.146
-580.806	332.995	-0.127	-0.249
-579.792	-26.550	0.088	0.052
-578.777	-200.000	-0.073	0.423
-577.763	-121.673	0.091	0.015
-576.748	33.305	-0.225	-0.199
-575.733	82.680	-0.153	-0.169
-574.719	-40.361	-0.112	-0.059
-573.704	-11.539	0.091	0.061
-572.690	-86.602	0.163	-0.051
-571.675	-76.847	0.262	0.093
-570.661	-30.869	-0.268	0.154
-569.646	-107.474	0.303	0.068
-568.631	185.299	-0.179	0.270
-567.617	-82.325	-0.291	0.096
-566.602	-200.000	-0.048	0.274
-565.588	-56.150	0.142	-0.064
-564.573	26.113	-0.300	0.254
-563.558	143.937	0.060	-0.081
-562.544	800.000	0.032	0.118
-561.529	707.186	0.114	0.307
-560.515	-57.091	-0.198	-0.088
-559.500	-83.282	-0.178	-0.058
-558.485	219.876	-0.097	0.159
-557.471	-27.093	-0.142	0.084
-556.456	4.946	0.053	-0.040
-555.442	-124.306	-0.132	0.021
-554.427	239.534	-0.163	-0.276
-553.412	-96.425	0.081	0.022
-552.398	-200.000	-0.061	0.315
-551.383	-200.000	0.022	0.164
-550.369	800.000	-0.055	-0.184
-549.354	800.000	-0.036	-0.106
-548.339	387.395	-0.143	0.301
-547.325	446.686	0.074	0.165
-546.310	800.000	-0.107	-0.354
-545.296	-57.632	-0.140	-0.062
-544.281	23.071	0.055	0.045
-543.266	35.282	-0.472	-0.420
-542.252	693.999	-0.089	-0.238
-541.237	198.781	-0.302	-0.469
-540.223	-200.000	-0.079	0.517
-539.208	-7.017	-0.116	-0.080
-538.193	-48.068	-0.166	-0.081
-537.179	-54.994	0.205	0.094
-536.164	800.000	0.017	0.070
-535.150	76.001	-0.236	0.254
-534.135	-27.229	0.217	-0.129
-533.121	4.656	0.308	-0.229
-532.106	-200.000	-0.003	0.072
-531.091	380.092	0.187	0.390
-530.077	-200.000	-0.036	0.433
-529.062	89.241	-0.134	0.152
-528.048	-200.000	0.009	0.050
-527.033	-56.238	0.321	-0.145
-526.018	-200.000	0.009	-0.158
-525.004	-200.000	0.014	-0.129
-523.989	422.071	-0.113	0.245
-522.975	-86.018	-0.195	0.061
-521.960	481.350	-0.005	-0.011
-520.945	467.591	-0.076	0.173
-519.931	119.323	0.145	-0.182
-518.916	-10.014	0.119	-0.081
-517.902	-115.067	0.138	-0.027
-516.887	-117.770	-0.264	0.048
-515.872	315.178	-0.104	-0.199
-514.858	-115.841	0.318	-0.060
-513.843	376.270	-0.187	-0.388
-512.829	62.978	-0.086	-0.087
-511.814	-48.153	-0.118	0.058
-510.799	800.000	-0.166	0.503
-509.785	235.086	-0.056	0.094
-508.770	800.000	0.056	0.172
-507.756	499.760	0.121	0.283
-506.741	-41.560	0.278	0.145
-505.726	-82.256	-0.084	-0.028
-504.712	-200.000	0.006	-0.028
-503.697	-99.564	0.163	0.042
-502.683	-37.131	0.391	-0.212
-501.668	478.937	0.053	0.122
-500.653	185.666	-0.179	0.270
-499.639	120.437	-0.177	-0.223
-498.624	-91.897	0.352	-0.101
-497.610	-79.941	-0.385	-0.131
-496.595	7.281	0.226	0.171
-495.581	-124.161	0.323	-0.051
-494.566	-86.075	0.335	0.105
-493.551	-86.122	0.207	0.065
-492.537	800.000	-0.081	0.336
-491.522	-91.065	0.300	0.087
-490.508	-75.374	-0.266	0.096
-489.493	242.449	-0.123	-0.209
-488.478	-64.628	-0.166	-0.068
-487.464	-200.000	-0.028	0.273
-486.449	800.000	-0.121	-0.425
-485.435	-200.000	-0.001	0.017
-484.420	-98.421	-0.166	0.043
-483.405	8.584	0.116	0.088
-482.391	-154.834	-0.136	-0.009
-481.376	-200.000	0.030	0.170
-480.362	-82.107	-0.047	-0.015
-479.347	-200.000	0.027	-0.129
-478.332	267.198	-0.108	-0.191
-477.318	40.539	0.168	-0.153
-476.303	500.298	0.073	0.170
-475.289	-10.818	0.358	0.240
-474.274	-200.000	-0.022	0.122
-473.259	176.643	0.111	-0.164
-472.245	-200.000	-0.095	0.527
-471.230	-95.324	0.126	-0.034
-470.216	141.396	-0.057	0.077
-469.201	200.178	-0.121	-0.188
-468.186	12.209	-0.085	-0.067
-467.172	-61.398	-0.154	0.066
-466.157	-56.446	-0.188	0.084
-465.143	-5.654	-0.311	-0.216
-464.128	800.000	0.020	0.069
-463.113	-44.591	0.095	-0.048
-462.099	-77.223	-0.112	0.039
-461.084	22.357	0.280	0.232
-460.070	276.040	-0.079	0.143
-459.055	499.783	-0.142	0.332
-458.040	-200.000	-0.009	0.167
-457.026	199.339	0.105	0.163
-456.011	-200.000	0.054	-0.593
-454.997	458.647	-0.103	-0.231
-453.982	-70.519	-0.189	-0.073
-452.968	42.926	0.029	-0.027
-451.953	74.719	-0.195	-0.207
-450.938	-200.000	0.033	-0.232
-449.924	169.699	0.182	-0.263
-448.909	-91.642	0.106	0.031
-447.895	17.504	0.419	0.337
-446.880	-66.129	0.067	0.027
-445.865	614.848	-0.079	0.200
-444.851	-86.635	0.191	-0.059
-443.836	-200.000	0.025	-0.449
-442.822	-28.721	-0.075	-0.044
-441.807	-200.000	-0.024	-0.276
-440.792	363.572	-0.050	-0.103
-439.778	-89.044	-0.421	0.126
-438.763	45.816	0.259	0.242
-437.749	-92.741	0.087	0.025
-436.734	-58.237	0.123	0.054
-435.719	101.603	-0.072	-0.085
-434.705	467.123	-0.058	0.131
-433.690	46.232	0.098	0.092
-432.676	2.064	0.227	-0.166
-431.661	-200.000	-0.030	0.152
-430.646	154.911	-0.148	0.205
-429.632	-1.350	-0.067	-0.048
-428.617	55.013	0.121	0.118
-427.603	800.000	0.093	0.338
-426.588	37.310	0.220	-0.197
-425.573	-76.767	0.091	-0.032
-424.559	78.867	0.149	-0.161
-423.544	-164.321	0.262	0.012
-422.530	-159.118	-0.163	-0.009
-421.515	-32.175	0.257	-0.145
-420.500	485.522	0.138	-0.317
-419.486	115.520	-0.183	-0.226
-418.471	-200.000	-0.024	-0.363
-417.457	800.000	0.029	-0.082
-416.442	194.896	0.064	-0.099
-415.428	-200.000	-0.035	0.157
-414.413	-78.116	-0.034	0.012
-413.398	-200.000	-0.335	-0.000
-412.384	-25.585	-0.096	-0.057
-411.369	-200.000	0.028	0.183
-410.355	358.725	0.098	0.198
-409.340	-25.153	-0.239	-0.143
-408.325	525.622	0.125	-0.296
-407.311	-58.249	-0.360	0.158
-406.296	-60.958	-0.443	-0.189
-405.282	-37.175	0.231	-0.125
-404.267	-101.077	-0.300	0.074
-403.252	488.363	0.102	0.234
-402.238	-13.775	0.194	0.127
-401.223	-75.730	0.138	0.049
-400.209	-200.000	-0.002	-0.021
-399.194	86.946	-0.046	-0.051
-398.179	-200.000	-0.015	-0.223
-397.165	-200.000	-0.017	0.438
-396.150	-76.805	-0.356	0.126
-395.136	77.300	-0.221	0.237
-394.121	-36.027	0.083	0.045
-393.106	274.236	-0.082	0.146
-392.092	-78.896	0.258	0.089
-391.077	64.290	0.069	-0.070
-390.063	240.881	-0.084	0.142
-389.048	9.846	-0.201	-0.154
-388.033	-185.452	-0.061	0.001
-387.019	-90.375	-0.074	0.022
-386.004	-6.141	0.279	-0.193
-384.990	-32.627	-0.255	-0.143
-383.975	-200.000	-0.019	0.231
-382.960	138.384	0.204	-0.269
-381.946	800.000	0.047	-0.153
-380.931	205.093	-0.134	0.209
-379.917	92.897	-0.133	-0.152
-378.902	115.569	-0.070	0.087
-377.888	13.119	0.230	-0.180
-376.873	-200.000	0.005	-0.070
-375.858	326.491	-0.019	-0.038
-374.844	-173.589	-0.156	0.005
-373.829	137.701	-0.145	0.192
-372.815	-200.000	0.020	-0.388
-371.800	-200.000	-0.064	-0.332
-370.785	800.000	0.020	0.064
-369.771	452.681	0.068	0.152
-368.756	80.706	-0.101	0.110
-367.742	-200.000	-0.067	-0.000
-366.727	54.376	-0.080	0.078
-365.712	121.134	-0.023	-0.029
-364.698	110.076	0.132	-0.159
-363.683	-200.000	0.025	0.148
-362.669	71.915	-0.124	-0.131
-361.654	236.862	0.122	-0.204
-360.639	800.000	0.102	0.381
-359.625	21.499	0.284	0.233
-358.610	53.282	0.204	0.197
-357.596	-144.591	-0.372	-0.035
-356.581	330.172	-0.126	-0.244
-355.566	-200.000	-0.035	0.163
-354.552	-0.026	0.099	0.071
-353.537	16.763	-0.149	0.119
-352.523	20.700	0.100	-0.082
-351.508	-75.428	0.473	-0.170
-350.493	76.821	-0.224	-0.239
-349.479	-81.690	-0.241	0.080
-348.464	800.000	-0.062	0.230
-347.450	-109.600	-0.140	0.030
-346.435	800.000	-0.040	-0.139
-345.420	-74.670	0.177	-0.064
-344.406	-124.568	-0.249	0.039
-343.391	-118.900	0.227	-0.040
-342.377	-92.640	-0.060	-0.017
-341.362	-200.000	-0.037	-0.262
-340.348	-74.816	-0.198	-0.072
-339.333	-200.000	0.024	-0.181
-338.318	-115.099	0.182	0.035
-337.304	800.000	-0.020	0.075
-336.289	-200.000	0.070	-0.440
-335.275	-40.594	0.068	-0.035
-334.260	107.769	-0.058	0.070
-333.245	287.711	-0.146	0.265
-332.231	3.226	0.252	0.184
-331.216	800.000	-0.036	0.148
-330.202	-5.041	0.252	0.175
-329.187	800.000	0.057	0.245
-328.172	292.985	-0.139	-0.255
-327.158	-200.000	-0.030	-0.317
-326.143	-108.595	-0.222	-0.048
-325.129	140.188	-0.072	0.095
-324.114	-69.901	0.402	-0.154
-323.099	330.269	-0.167	-0.324
-322.085	800.000	-0.137	-0.452
-321.070	-6.929	-0.219	-0.150
-320.056	800.000	-0.058	0.168
-319.041	396.298	-0.137	0.288
-318.026	-73.911	0.268	0.098
-317.012	-200.000	0.034	-0.284
-315.997	-71.567	0.341	0.128
-314.983	-6.562	-0.239	0.163
-313.968	-200.000	-0.010	0.113
-312.953	112.517	0.155	0.189
-311.939	83.175	0.217	-0.238
-310.924	-58.620	0.160	-0.070
-309.910	800.000	0.171	0.486
-308.895	-123.800	0.162	0.026
-307.880	800.000	0.055	0.230
-306.866	-10.945	-0.137	-0.091
-305.851	462.549	0.038	-0.085
-304.837	-40.257	0.185	-0.097
-303.822	-200.000	-0.039	0.216
-302.807	-11.967	-0.169	0.111
-301.793	116.403	0.033	0.040
-300.778	44.585	-0.084	0.078
-299.764	-12.862	-0.214	-0.140
-298.749	-183.903	0.082	0.001
-297.735	-159.399	-0.354	-0.020
-296.720	42.203	0.197	-0.180
-295.705	19.933	-0.169	-0.137
-294.691	2.544	-0.368	0.268
-293.676	-166.809	-0.239	0.010
-292.662	25.495	0.188	0.157
-291.647	-193.229	0.255	-0.002
-290.632	-200.000	-0.008	0.079
-289.618	-115.367	0.304	-0.058
-288.603	749.144	-0.002	0.006
-287.589	-10.101	0.136	0.091
-286.574	117.093	-0.172	0.212
-285.559	-49.104	0.152	-0.073
-284.545	800.000	0.113	-0.376
-283.530	38.742	-0.032	-0.029
-282.516	341.892	0.098	-0.192
-281.501	81.559	-0.072	0.079
-280.486	-41.885	-0.184	0.095
-279.472	-200.000	0.020	0.211
-278.457	-37.645	0.145	0.077
-277.443	-200.000	-0.025	0.174
-276.428	-157.532	0.348	0.021
-275.413	127.705	-0.210	-0.268
-274.399	612.765	0.107	-0.268
-273.384	357.489	-0.124	-0.249
-272.370	196.752	0.017	-0.026
-271.355	445.973	-0.019	0.041
-270.340	65.534	0.093	0.095
-269.326	-73.895	0.166	0.061
-268.311	748.137	-0.195	0.529
-267.297	-34.591	0.323	-0.178
-266.282	-175.562	-0.285	0.008
-265.267	-149.412	-0.303	0.024
-264.253	800.000	-0.045	-0.166
-263.238	800.000	0.039	-0.120
-262.224	-129.532	-0.289	-0.040
-261.209	-200.000	-0.052	0.327
-260.195	39.875	-0.221	0.199
-259.180	290.642	-0.155	-0.283
-258.165	800.000	-0.041	-0.150
-257.151	-87.135	0.166	-0.051
-256.136	800.000	-0.049	0.158
-255.122	-200.000	0.007	0.140
-254.107	-60.246	0.162	-0.069
-253.092	-151.455	-0.270	0.020
-252.078	-76.026	0.301	-0.107
-251.063	62.683	-0.140	0.140
-250.049	43.128	0.066	-0.060
-249.034	-200.000	0.001	0.312
-248.019	648.143	-0.120	0.308
-247.005	800.000	-0.088	0.358
-245.990	176.621	0.243	0.354
-244.976	800.000	0.084	0.239
-243.961	-86.875	0.230	0.070
-242.946	-200.000	-0.037	-0.292
-241.932	-200.000	0.026	-0.120
-240.917	-200.000	-0.039	-0.191
-239.903	-66.532	0.236	0.094
-238.888	108.961	0.074	-0.089
-237.873	84.969	0.113	0.124
-236.859	-190.352	0.146	0.002
-235.844	-25.468	-0.239	-0.142
-234.830	-65.938	-0.048	-0.019
-233.815	-47.788	-0.176	-0.086
-232.800	-200.000	-0.049	0.306
-231.786	-200.000	-0.034	0.166
-230.771	-200.000	-0.048	0.279
-229.757	-101.322	0.157	0.038
-228.742	296.016	0.100	-0.183
-227.727	800.000	0.059	0.215
-226.713	-159.845	0.011	-0.001
-225.698	135.656	-0.095	0.124
-224.684	24.470	-0.127	-0.105
-223.669	23.877	-0.265	-0.219
-222.655	-200.000	-0.072	-0.422
-221.640	-61.480	-0.132	0.056
-220.625	-200.000	-0.004	0.091
-219.611	294.221	0.030	0.055
-218.596	262.807	-0.017	0.030
-217.582	-57.797	-0.130	0.057
-216.567	18.176	-0.066	0.052
-215.552	71.792	0.243	-0.253
-214.538	800.000	-0.087	-0.298
-213.523	-69.527	-0.164	-0.063
-212.509	-62.199	0.088	-0.037
-211.494	-197.394	0.416	-0.003
-210.479	71.086	0.273	-0.284
-209.465	106.864	-0.225	-0.268
-208.450	-200.000	0.019	0.254
-207.436	317.158	0.097	-0.183
-206.421	32.784	-0.199	0.173
-205.406	800.000	-0.041	-0.120
-204.392	-134.597	-0.246	0.030
-203.377	-200.000	0.029	0.310
-202.363	-200.000	-0.014	0.085
-201.348	557.174	-0.158	-0.381
-200.333	800.000	0.097	-0.333
-199.319	-71.402	-0.161	0.060
-198.304	-200.000	0.042	-0.196
-197.290	303.317	-0.042	0.079
-196.275	-95.080	-0.164	0.044
-195.260	-200.000	0.007	-0.274
-194.246	61.228	-0.076	0.076
-193.231	256.506	0.147	-0.253
-192.217	292.687	0.134	-0.244
-191.202	444.071	0.038	0.083
-190.187	422.201	0.107	-0.230
-189.173	800.000	-0.035	-0.126
-188.158	-73.357	0.394	0.144
-187.144	-200.000	-0.013	0.264
-186.129	-78.463	-0.164	0.056
-185.114	800.000	0.053	0.212
-184.100	800.000	-0.064	0.279
-183.085	-99.968	-0.221	0.055
-182.071	-59.009	0.084	-0.037
-181.056	100.491	0.132	-0.154
-180.042	-106.615	0.281	-0.063
-179.027	-138.690	0.334	0.037
-178.012	-200.000	-0.019	0.349
-176.998	11.726	-0.154	0.118
-175.983	-124.875	-0.304	-0.047
-174.969	-138.386	0.339	-0.037
-173.954	-35.695	0.056	0.030
-172.939	-8.651	0.170	-0.114
-171.925	-200.000	0.033	-0.398
-170.910	383.638	-0.085	-0.174
-169.896	-200.000	-0.000	-0.066
-168.881	-101.863	0.199	0.048
-167.866	-191.382	0.289	0.003
-166.852	107.123	0.251	-0.299
-165.837	800.000	-0.079	0.240
-164.823	-55.318	0.221	-0.099
-163.808	-81.026	0.308	0.102
-162.793	-45.913	-0.215	0.106
-161.779	-200.000	-0.001	-0.146
-160.764	-101.919	0.108	-0.026
-159.750	800.000	0.019	0.058
-158.735	781.998	-0.102	-0.279
-157.720	-25.293	0.090	-0.053
-156.706	71.664	-0.153	-0.159
-155.691	-136.895	0.073	-0.008
-154.677	-133.042	0.304	0.039
-153.662	-74.396	-0.208	0.075
-152.647	277.344	-0.085	0.150
-151.633	-200.000	-0.040	0.240
-150.618	-200.000	0.004	0.110
-149.604	-54.996	0.238	0.107
-148.589	86.959	-0.034	0.038
-147.574	-71.355	-0.300	-0.112
-146.560	-157.602	-0.066	-0.004
-145.545	-80.089	-0.309	-0.103
-144.531	198.792	-0.101	-0.154
-143.516	218.114	0.053	-0.085
-142.502	715.004	-0.046	0.122
-141.487	-139.698	-0.210	0.022
-140.472	-66.041	-0.227	-0.090
-139.458	-200.000	-0.006	0.044
-138.443	-111.153	-0.208	0.042
-137.429	79.449	-0.284	-0.305
-136.414	800.000	-0.043	-0.168
-135.399	-148.250	0.397	0.033
-134.385	17.082	0.179	-0.142
-133.370	-102.295	-0.268	-0.064
-132.356	667.810	0.126	0.326
-131.341	-200.000	-0.044	-0.347
-130.326	-79.740	0.361	-0.121
-129.312	800.000	0.093	0.301
-128.297	86.439	0.025	-0.027
-127.283	24.936	0.017	0.014
-126.268	483.274	-0.056	0.128
-125.253	-85.136	-0.123	-0.038
-124.239	443.062	0.155	-0.339
-123.224	9.011	0.188	-0.142
-122.210	59.981	0.102	-0.100
-121.195	53.544	0.208	0.200
