DTS Sentinel unit serial number:	SN413079Multiplexer serial number:	ORYXHardware model number:	OX4-SRSoftware version number:	ORYX F/W v4.00 Oryx Data Collector v3.7.2.0data status	okinstallation	princeton_trtdifferential loss correction	single-endedforward channel	channel 3reverse channel	N/Adate	2019/09/19time	12:48:35forward acquisition time	60.00reverse acquisition time	0.00gamma	496.2192k internal	0.2331k external	0.2331temperature offset calibration	0.9990default loss term (dB/km)	0.3790temperature slope calibration	1.0000multiplexer offset coefficient	1.0000multiplexer slope coefficient	1.0000fibre end	0.00T internal ref (°C)	27.98T ext. ref 1 (°C)	0.90T ext. ref 2 (°C)	26.20length (m)	temperature (°C)	Stokes	anti-Stokes-747.200	309.272	-0.082	-0.153
-746.185	800.000	-0.076	0.248
-745.171	-134.618	0.228	0.028
-744.156	401.645	-0.063	0.134
-743.142	-200.000	-0.006	0.168
-742.127	-200.000	-0.043	0.244
-741.112	772.775	0.078	-0.215
-740.098	-37.122	0.171	-0.092
-739.083	504.666	-0.072	0.168
-738.069	34.663	-0.260	0.229
-737.054	-90.572	-0.307	-0.089
-736.039	-77.928	-0.216	0.075
-735.025	-3.959	0.105	0.073
-734.010	-141.498	-0.104	0.011
-732.996	800.000	0.013	-0.040
-731.981	8.954	-0.331	0.252
-730.966	65.319	-0.134	0.137
-729.952	675.080	-0.043	0.112
-728.937	-200.000	-0.005	0.304
-727.923	-3.534	-0.136	-0.095
-726.908	39.837	0.040	0.036
-725.894	-19.216	0.087	0.055
-724.879	106.223	-0.177	0.211
-723.864	-95.474	-0.436	0.118
-722.850	-200.000	0.033	-0.231
-721.835	-91.803	-0.300	0.086
-720.821	-200.000	-0.074	0.390
-719.806	-200.000	-0.029	0.192
-718.791	800.000	0.060	0.174
-717.777	-36.545	0.066	0.036
-716.762	515.817	-0.143	0.336
-715.748	-200.000	-0.007	-0.069
-714.733	800.000	-0.096	-0.325
-713.718	33.412	-0.078	-0.068
-712.704	509.040	-0.054	0.127
-711.689	58.020	-0.127	0.125
-710.675	-41.463	0.368	0.190
-709.660	308.865	-0.207	-0.389
-708.645	800.000	-0.099	0.317
-707.631	17.400	-0.186	-0.149
-706.616	16.093	0.272	-0.215
-705.602	-200.000	-0.002	0.198
-704.587	188.988	0.100	-0.150
-703.572	-68.247	0.217	-0.085
-702.558	-200.000	-0.032	0.237
-701.543	-94.263	-0.135	0.037
-700.529	-177.524	-0.402	0.010
-699.514	-200.000	-0.023	-0.168
-698.499	55.679	-0.102	-0.100
-697.485	-114.092	0.105	0.020
-696.470	-137.559	0.136	0.015
-695.456	593.765	0.035	0.086
-694.441	21.769	0.208	0.170
-693.426	-64.081	-0.161	-0.066
-692.412	800.000	0.012	0.042
-691.397	-200.000	0.020	0.148
-690.383	-55.358	-0.272	0.123
-689.368	130.492	-0.090	-0.115
-688.354	800.000	0.076	0.282
-687.339	-113.807	-0.362	0.071
-686.324	644.621	-0.121	-0.311
-685.310	-154.914	-0.264	0.017
-684.295	-108.234	-0.332	0.072
-683.281	207.185	0.106	-0.165
-682.266	140.524	0.141	-0.187
-681.251	296.362	-0.043	-0.078
-680.237	-200.000	-0.048	0.223
-679.222	-17.973	0.027	-0.017
-678.208	-200.000	0.045	-0.278
-677.193	430.899	-0.209	-0.454
-676.178	-41.654	-0.144	0.074
-675.164	-200.000	0.057	0.266
-674.149	800.000	0.058	-0.214
-673.135	800.000	-0.024	-0.099
-672.120	232.126	-0.028	-0.047
-671.105	622.162	0.094	-0.236
-670.091	39.188	0.107	0.096
-669.076	-27.593	-0.153	0.089
-668.062	-200.000	0.009	-0.247
-667.047	-139.496	-0.272	0.029
-666.032	-95.538	-0.314	0.084
-665.018	-200.000	0.048	0.290
-664.003	-200.000	0.004	-0.054
-662.989	-146.230	-0.104	0.009
-661.974	-55.953	0.230	0.103
-660.959	-0.205	-0.126	-0.090
-659.945	286.340	-0.183	0.332
-658.930	46.061	-0.055	0.051
-657.916	-41.496	0.228	0.118
-656.901	-127.293	-0.147	0.021
-655.886	321.801	-0.136	0.260
-654.872	87.061	0.273	0.302
-653.857	343.808	-0.097	-0.191
-652.843	-182.874	0.112	0.002
-651.828	800.000	-0.014	-0.049
-650.814	-200.000	0.031	0.168
-649.799	-200.000	0.030	-0.170
-648.784	210.643	-0.100	0.157
-647.770	-53.920	0.194	-0.089
-646.755	40.550	0.163	0.147
-645.741	-3.698	0.190	0.133
-644.726	284.756	-0.024	-0.044
-643.711	-71.470	-0.187	0.070
-642.697	-200.000	-0.041	0.238
-641.682	49.508	0.245	-0.231
-640.668	-129.091	-0.440	0.062
-639.653	800.000	0.113	-0.425
-638.638	-200.000	-0.012	0.229
-637.624	-92.424	0.346	0.097
-636.609	800.000	0.056	-0.199
-635.595	-200.000	-0.030	-0.265
-634.580	-155.728	0.093	-0.006
-633.565	552.048	0.051	0.122
-632.551	-0.795	-0.162	-0.115
-631.536	146.844	-0.163	-0.220
-630.522	-200.000	-0.004	-0.191
-629.507	-82.868	-0.318	0.103
-628.492	-9.587	-0.037	-0.025
-627.478	24.849	0.078	0.065
-626.463	-4.241	-0.264	0.183
-625.449	18.002	-0.292	0.233
-624.434	-49.851	0.057	0.027
-623.419	520.983	-0.021	-0.048
-622.405	-14.616	-0.162	-0.104
-621.390	-200.000	0.003	-0.046
-620.376	-55.358	-0.078	-0.035
-619.361	-200.000	-0.070	0.350
-618.346	185.236	-0.044	0.066
-617.332	49.884	-0.022	0.021
-616.317	-200.000	-0.045	-0.304
-615.303	405.397	-0.041	0.086
-614.288	-96.559	-0.149	-0.039
-613.273	-102.282	0.311	0.075
-612.259	-132.117	0.029	0.004
-611.244	-101.677	-0.102	0.025
-610.230	-19.785	0.121	-0.075
-609.215	318.179	-0.145	0.274
-608.201	8.923	-0.153	-0.116
-607.186	261.331	0.090	0.156
-606.171	800.000	-0.051	0.169
-605.157	-14.994	-0.374	0.240
-604.142	597.099	0.140	0.347
-603.128	-91.580	0.227	0.065
-602.113	800.000	0.039	0.153
-601.098	195.489	0.210	-0.320
-600.084	-200.000	-0.066	-0.329
-599.069	57.049	0.033	0.032
-598.055	-124.496	0.421	-0.065
-597.040	148.944	-0.083	0.112
-596.025	-111.048	-0.375	-0.077
-595.011	-200.000	0.034	-0.180
-593.996	-200.000	0.001	-0.077
-592.982	-179.881	0.066	0.001
-591.967	-3.412	0.125	0.087
-590.952	-18.973	0.231	0.144
-589.938	145.241	-0.139	-0.186
-588.923	-200.000	0.032	-0.238
-587.909	138.920	-0.186	-0.244
-586.894	354.663	-0.080	-0.158
-585.879	-53.209	0.306	-0.140
-584.865	-139.919	0.436	-0.046
-583.850	-200.000	-0.028	-0.170
-582.836	-70.583	-0.240	0.091
-581.821	37.192	-0.191	0.169
-580.806	122.196	-0.086	-0.107
-579.792	51.652	-0.200	0.190
-578.777	-118.227	0.175	0.031
-577.763	800.000	-0.007	-0.026
-576.748	-200.000	-0.029	0.221
-575.733	-200.000	0.079	0.403
-574.719	12.500	-0.236	0.182
-573.704	191.127	0.175	0.264
-572.690	-200.000	0.071	0.312
-571.675	-60.503	-0.023	0.010
-570.661	38.366	0.060	0.054
-569.646	21.969	-0.134	-0.109
-568.631	77.902	-0.097	0.103
-567.617	800.000	0.050	0.183
-566.602	-86.226	-0.115	0.036
-565.588	-200.000	0.046	-0.287
-564.573	-141.916	0.123	0.012
-563.558	-200.000	-0.020	0.225
-562.544	-200.000	0.049	0.267
-561.529	-31.768	-0.221	-0.124
-560.515	278.809	0.159	-0.283
-559.500	-200.000	-0.022	-0.266
-558.485	-103.288	0.180	-0.043
-557.471	-64.913	0.261	0.106
-556.456	-200.000	-0.004	-0.269
-555.442	800.000	-0.115	-0.412
-554.427	19.863	-0.167	-0.134
-553.412	-76.418	0.350	0.123
-552.398	-12.944	0.182	0.118
-551.383	601.821	0.100	-0.247
-550.369	207.758	0.121	0.189
-549.354	98.011	-0.060	0.069
-548.339	-61.420	0.122	-0.051
-547.325	-200.000	0.001	-0.029
-546.310	26.144	-0.160	0.133
-545.296	-200.000	-0.057	-0.281
-544.281	-200.000	-0.006	-0.056
-543.266	-200.000	-0.031	0.210
-542.252	-169.927	-0.189	-0.007
-541.237	128.045	-0.182	-0.231
-540.223	-19.710	-0.093	-0.057
-539.208	-154.440	0.298	-0.020
-538.193	-200.000	-0.018	-0.246
-537.179	717.226	-0.076	-0.202
-536.164	17.323	-0.132	0.104
-535.150	28.256	0.246	0.207
-534.135	-119.401	0.495	0.086
-533.121	-200.000	0.048	-0.253
-532.106	-92.847	-0.168	-0.047
-531.091	-166.527	-0.123	-0.005
-530.077	-200.000	-0.023	-0.127
-529.062	-140.771	-0.084	-0.009
-528.048	-22.497	0.208	0.126
-527.033	-28.259	-0.042	0.024
-526.018	-200.000	0.001	-0.236
-525.004	157.821	-0.065	0.090
-523.989	107.224	-0.165	-0.195
-522.975	161.558	0.121	-0.169
-521.960	121.626	-0.067	0.084
-520.945	-9.039	-0.168	0.112
-519.931	27.879	-0.054	-0.045
-518.916	584.826	-0.088	-0.215
-517.902	38.021	-0.401	-0.356
-516.887	-82.511	-0.234	-0.076
-515.872	95.501	-0.260	0.296
-514.858	91.041	0.126	0.141
-513.843	-181.522	-0.203	0.004
-512.829	-38.479	0.263	-0.139
-511.814	800.000	-0.100	-0.287
-510.799	196.578	-0.200	-0.303
-509.785	143.319	0.030	-0.039
-508.770	176.240	-0.162	0.234
-507.756	800.000	-0.035	-0.123
-506.741	-123.619	-0.182	-0.029
-505.726	-200.000	0.020	0.091
-504.712	-200.000	-0.031	-0.170
-503.697	-120.785	-0.109	-0.018
-502.683	33.028	-0.222	-0.192
-501.668	-31.284	-0.324	-0.182
-500.653	800.000	0.066	0.183
-499.639	34.643	0.111	0.097
-498.624	-200.000	0.002	0.143
-497.610	-163.844	0.450	0.021
-496.595	-87.355	0.286	0.086
-495.581	-114.813	-0.128	-0.024
-494.566	-136.788	0.212	0.024
-493.551	62.206	0.269	-0.268
-492.537	453.990	0.067	-0.149
-491.522	56.311	-0.286	0.277
-490.508	367.722	-0.143	-0.287
-489.493	-55.527	-0.328	-0.147
-488.478	-63.526	-0.112	0.046
-487.464	-26.308	-0.362	-0.211
-486.449	-42.483	0.431	0.219
-485.435	210.888	-0.147	-0.230
-484.420	-200.000	-0.023	-0.175
-483.405	-200.000	0.056	0.250
-482.391	142.543	-0.272	-0.360
-481.376	-200.000	-0.087	-0.402
-480.362	-200.000	-0.002	0.176
-479.347	-166.199	0.164	0.007
-478.332	800.000	-0.062	0.235
-477.318	58.244	0.134	0.130
-476.303	118.737	0.151	-0.185
-475.289	321.742	0.112	-0.212
-474.274	492.143	0.114	0.260
-473.259	101.047	-0.058	0.067
-472.245	-200.000	0.019	0.200
-471.230	-62.565	0.032	0.013
-470.216	-22.092	-0.242	-0.146
-469.201	-200.000	-0.022	-0.161
-468.186	-200.000	-0.003	-0.127
-467.172	-200.000	0.044	0.302
-466.157	800.000	-0.065	-0.180
-465.143	-61.543	-0.349	0.146
-464.128	-149.657	0.370	0.029
-463.113	800.000	0.056	-0.178
-462.099	-9.463	-0.265	0.176
-461.084	246.986	-0.045	0.076
-460.070	-200.000	-0.004	0.181
-459.055	-20.522	0.108	-0.066
-458.040	3.578	-0.219	-0.159
-457.026	101.743	-0.135	-0.156
-456.011	188.805	-0.154	-0.230
-454.997	48.317	0.025	0.023
-453.982	-73.228	0.064	0.023
-452.968	-45.520	-0.216	-0.107
-451.953	-74.874	-0.110	-0.039
-450.938	36.212	-0.182	0.159
-449.924	1.805	-0.157	0.112
-448.909	78.787	0.191	-0.203
-447.895	26.596	0.128	0.106
-446.880	800.000	0.025	0.073
-445.865	419.292	-0.063	0.134
-444.851	-9.274	-0.133	-0.088
-443.836	-200.000	0.020	-0.121
-442.822	-76.932	-0.079	0.028
-441.807	-57.843	0.200	0.087
-440.792	-136.126	0.155	0.018
-439.778	-24.968	-0.350	0.207
-438.763	-94.357	0.092	0.025
-437.749	217.715	-0.125	0.198
-436.734	800.000	-0.096	0.412
-435.719	321.291	-0.055	-0.105
-434.705	476.694	0.087	0.196
-433.690	800.000	0.108	0.363
-432.676	-112.285	-0.143	-0.029
-431.661	-46.374	-0.178	0.087
-430.646	-99.065	0.119	-0.030
-429.632	26.346	-0.292	-0.242
-428.617	59.819	0.273	-0.268
-427.603	-200.000	0.021	-0.092
-426.588	441.250	0.122	0.266
-425.573	264.962	0.170	0.295
-424.559	-106.941	0.233	0.051
-423.544	479.103	0.059	-0.134
-422.530	-72.459	-0.347	0.128
-421.515	13.667	-0.053	-0.041
-420.500	-130.515	-0.096	-0.013
-419.486	-66.209	0.201	0.080
-418.471	58.327	0.037	0.036
-417.457	26.631	-0.118	-0.098
-416.442	98.504	-0.035	0.040
-415.428	-157.015	-0.351	0.021
-414.413	800.000	-0.048	-0.131
-413.398	-58.420	0.296	0.128
-412.384	-79.624	0.160	0.053
-411.369	592.148	-0.037	0.090
-410.355	88.642	0.266	-0.293
-409.340	-68.822	-0.440	0.169
-408.325	-200.000	0.020	-0.347
-407.311	-152.393	-0.115	0.008
-406.296	67.238	0.332	-0.336
-405.282	-106.132	-0.116	-0.026
-404.267	-126.390	-0.043	-0.006
-403.252	4.652	0.240	0.175
-402.238	198.011	0.088	-0.134
-401.223	-20.765	0.103	-0.063
-400.209	598.119	-0.067	-0.164
-399.194	549.330	0.077	-0.182
-398.179	625.397	0.090	-0.225
-397.165	800.000	-0.040	0.165
-396.150	667.846	0.006	-0.016
-395.136	-0.048	-0.342	0.242
-394.121	-200.000	0.087	0.385
-393.106	-110.074	-0.123	-0.026
-392.092	-93.491	-0.167	-0.046
-391.077	800.000	0.074	0.279
-390.063	-59.029	-0.273	0.117
-389.048	-200.000	0.034	-0.270
-388.033	-200.000	-0.023	-0.146
-387.019	-200.000	-0.019	-0.187
-386.004	541.818	0.075	-0.178
-384.990	-81.723	0.182	0.059
-383.975	-43.758	-0.266	0.133
-382.960	-143.184	-0.245	0.023
-381.946	-14.927	0.223	0.142
-380.931	-74.985	-0.166	-0.059
-379.917	309.127	-0.107	-0.198
-378.902	-200.000	0.002	-0.098
-377.888	-127.847	0.173	-0.025
-376.873	28.696	-0.215	-0.181
-375.858	-111.013	0.256	0.052
-374.844	285.550	0.139	-0.248
-373.829	666.373	0.147	0.377
-372.815	-97.296	0.281	-0.073
-371.800	678.081	-0.085	0.218
-370.785	-52.923	-0.256	0.117
-369.771	-22.856	-0.240	0.144
-368.756	97.701	-0.221	-0.252
-367.742	-200.000	-0.023	-0.144
-366.727	-78.607	0.406	-0.138
-365.712	-81.520	0.100	-0.033
-364.698	-176.159	-0.083	0.002
-363.683	800.000	-0.091	0.282
-362.669	169.908	-0.112	-0.158
-361.654	-48.930	-0.068	0.032
-360.639	48.697	-0.140	-0.130
-359.625	182.710	0.060	-0.087
-358.610	-42.401	0.117	-0.059
-357.596	291.860	-0.119	0.216
-356.581	106.195	0.219	0.257
-355.566	-63.741	-0.267	0.108
-354.552	514.604	-0.034	0.079
-353.537	-200.000	-0.026	0.260
-352.523	-151.937	-0.241	0.017
-351.508	800.000	-0.099	0.282
-350.493	-200.000	-0.044	0.364
-349.479	-46.189	-0.216	-0.106
-348.464	-73.737	0.250	-0.090
-347.450	-139.895	-0.222	-0.023
-346.435	-109.486	-0.397	-0.083
-345.420	406.583	-0.166	-0.347
-344.406	598.787	-0.055	-0.135
-343.391	207.321	0.032	-0.050
-342.377	-91.721	-0.236	-0.067
-341.362	-112.027	0.385	0.077
-340.348	-40.668	0.220	-0.113
-339.333	154.452	0.132	0.179
-338.318	524.178	-0.092	0.215
-337.304	66.592	-0.072	-0.073
-336.289	800.000	-0.091	0.289
-335.275	152.119	0.096	-0.130
-334.260	-126.962	-0.146	0.021
-333.245	800.000	0.124	0.428
-332.231	800.000	-0.059	-0.224
-331.216	-200.000	-0.014	-0.141
-330.202	-200.000	0.039	0.173
-329.187	126.399	-0.128	-0.161
-328.172	-5.800	-0.079	-0.053
-327.158	800.000	0.065	-0.264
-326.143	-3.950	-0.061	0.042
-325.129	64.137	0.093	0.093
-324.114	-114.935	0.204	0.039
-323.099	61.049	0.242	0.238
-322.085	17.057	-0.228	-0.179
-321.070	-50.394	-0.480	-0.225
-320.056	-70.527	0.080	0.030
-319.041	-56.594	0.094	-0.041
-318.026	-142.811	0.321	0.031
-317.012	50.619	0.134	0.126
-315.997	88.832	-0.191	0.210
-314.983	378.351	0.107	0.217
-313.968	241.984	0.135	-0.223
-312.953	-200.000	0.038	0.365
-311.939	-26.615	-0.245	-0.142
-310.924	800.000	0.032	0.135
-309.910	-128.411	0.578	-0.081
-308.895	87.906	0.070	-0.076
-307.880	-200.000	0.043	-0.350
-306.866	-200.000	-0.014	0.158
-305.851	26.907	-0.315	-0.261
-304.837	184.295	0.122	0.179
-303.822	800.000	-0.094	0.363
-302.807	120.384	0.045	-0.055
-301.793	42.960	0.191	0.172
-300.778	90.412	-0.191	0.212
-299.764	2.180	-0.290	0.208
-298.749	-45.816	0.123	-0.060
-297.735	-65.151	-0.215	0.086
-296.720	-66.242	0.244	-0.096
-295.705	-39.467	0.087	0.045
-294.691	-179.312	0.247	-0.005
-293.676	59.857	0.101	0.099
-292.662	-93.705	0.185	0.050
-291.647	-72.011	0.250	-0.092
-290.632	-31.415	0.212	0.118
-289.618	-93.407	-0.312	-0.086
-288.603	-63.359	-0.291	-0.118
-287.589	-200.000	0.002	0.092
-286.574	18.567	0.119	-0.094
-285.559	-200.000	-0.072	0.331
-284.545	-193.505	-0.130	-0.001
-283.530	-85.275	0.180	-0.055
-282.516	23.469	0.187	-0.152
-281.501	-37.225	0.148	-0.078
-280.486	54.150	0.074	-0.070
-279.472	42.590	0.099	0.089
-278.457	-178.599	-0.231	-0.005
-277.443	131.529	0.024	-0.031
-276.428	-174.033	-0.156	-0.005
-275.413	-135.730	-0.085	-0.010
-274.399	255.288	-0.183	-0.309
-273.384	-56.808	0.125	-0.055
-272.370	-90.212	-0.235	-0.067
-271.355	-80.725	0.050	0.017
-270.340	-175.123	-0.349	-0.010
-269.326	38.235	0.291	0.256
-268.311	800.000	0.078	0.264
-267.297	-83.395	-0.121	-0.038
-266.282	-200.000	-0.044	0.202
-265.267	-56.720	0.174	-0.076
-264.253	321.865	-0.051	0.096
-263.238	-200.000	0.071	0.394
-262.224	-200.000	0.027	0.363
-261.209	11.390	0.377	-0.285
-260.195	800.000	-0.069	-0.244
-259.180	26.415	0.188	-0.155
-258.165	-34.063	0.353	-0.191
-257.151	-18.297	-0.068	-0.042
-256.136	-108.268	-0.190	-0.041
-255.122	-200.000	0.010	-0.206
-254.107	-200.000	-0.070	0.532
-253.092	-156.420	0.324	0.020
-252.078	549.052	0.044	0.104
-251.063	-200.000	0.071	0.373
-250.049	-103.641	0.439	0.102
-249.034	-66.078	-0.408	0.161
-248.019	-200.000	-0.008	-0.046
-247.005	59.111	-0.256	-0.248
-245.990	-125.447	-0.143	0.021
-244.976	800.000	0.006	-0.024
-243.961	697.459	-0.112	-0.290
-242.946	-200.000	-0.019	0.139
-241.932	-200.000	-0.024	-0.266
-240.917	-84.371	-0.146	-0.046
-239.903	-112.761	-0.371	-0.073
-238.888	-103.975	0.507	-0.117
-237.873	42.124	0.149	-0.133
-236.859	-200.000	0.001	0.216
-235.844	-112.077	0.363	0.072
-234.830	253.435	0.128	-0.216
-233.815	800.000	0.031	-0.112
-232.800	61.946	-0.137	-0.135
-231.786	-10.544	-0.323	-0.211
-230.771	-200.000	-0.012	0.172
-229.757	-142.444	-0.201	0.020
-228.742	-12.469	0.309	-0.199
-227.727	-90.207	0.081	-0.023
-226.713	338.852	0.071	-0.137
-225.698	85.811	-0.207	-0.224
-224.684	800.000	-0.076	-0.208
-223.669	103.804	-0.242	0.280
-222.655	-200.000	-0.018	0.103
-221.640	800.000	-0.027	-0.096
-220.625	-171.189	0.244	0.008
-219.611	-176.728	-0.428	-0.011
-218.596	-57.955	0.360	0.155
-217.582	-51.930	0.242	0.111
-216.567	800.000	0.045	0.179
-215.552	179.256	-0.125	0.181
-214.538	800.000	-0.045	-0.142
-213.523	196.978	0.232	0.349
-212.509	-58.921	-0.158	-0.067
-211.494	119.911	0.146	0.179
-210.479	-63.840	0.331	0.134
-209.465	121.477	-0.281	0.345
-208.450	-5.715	0.198	0.134
-207.436	800.000	-0.137	0.394
-206.421	50.760	0.112	-0.104
-205.406	55.894	-0.332	-0.317
-204.392	-200.000	0.017	0.328
-203.377	800.000	-0.070	0.193
-202.363	108.023	0.161	-0.190
-201.348	-200.000	-0.028	-0.144
-200.333	-2.376	0.408	0.282
-199.319	-54.392	0.159	-0.071
-198.304	-66.617	0.096	0.037
-197.290	92.001	-0.114	0.126
-196.275	-95.415	0.213	0.056
-195.260	-200.000	-0.052	-0.440
-194.246	563.999	0.060	0.142
-193.231	121.978	0.076	0.094
-192.217	-75.469	0.330	0.116
-191.202	-62.683	0.151	-0.061
-190.187	800.000	-0.039	0.117
-189.173	-94.802	0.135	0.036
-188.158	-29.430	0.197	-0.111
-187.144	800.000	0.061	0.238
-186.129	-101.621	0.144	0.034
-185.114	96.804	0.322	-0.363
-184.100	308.916	-0.148	-0.273
-183.085	-27.397	0.071	-0.041
-182.071	-104.732	0.097	0.022
-181.056	-48.569	0.496	-0.235
-180.042	-200.000	0.025	0.255
-179.027	81.855	0.078	-0.083
-178.012	-55.850	-0.191	-0.084
-176.998	151.407	-0.123	-0.165
-175.983	70.338	0.093	-0.094
-174.969	-200.000	0.026	0.206
-173.954	-96.948	-0.266	0.069
-172.939	23.920	0.321	0.261
-171.925	114.423	0.056	0.067
-170.910	-157.235	0.143	0.009
-169.896	-200.000	0.019	-0.224
-168.881	-33.851	0.335	-0.182
-167.866	-200.000	0.071	0.357
-166.852	800.000	0.049	-0.140
-165.837	75.970	-0.082	-0.085
-164.823	-200.000	0.072	0.377
-163.808	-200.000	0.073	0.372
-162.793	-5.807	-0.227	-0.153
-161.779	42.497	-0.269	-0.241
-160.764	386.818	-0.147	-0.299
-159.750	80.880	0.206	0.219
-158.735	388.189	0.112	-0.229
-157.720	118.082	0.125	-0.151
-156.706	65.177	0.135	0.135
-155.691	-55.324	-0.195	0.086
-154.677	358.389	0.084	-0.165
-153.662	-48.103	-0.101	0.048
-152.647	-80.202	-0.195	-0.064
-151.633	-200.000	0.014	-0.419
-150.618	-48.522	-0.149	-0.070
-149.604	-200.000	-0.046	-0.390
-148.589	-58.567	-0.124	0.053
-147.574	216.244	0.109	0.170
-146.560	32.901	-0.200	0.170
-145.545	671.756	-0.060	0.154
-144.531	800.000	-0.128	0.355
-143.516	-1.204	-0.143	0.099
-142.502	413.220	0.093	-0.194
-141.487	89.857	0.088	0.096
-140.472	-68.247	0.116	0.044
-139.458	92.485	0.019	0.021
-138.443	-165.503	-0.109	-0.005
-137.429	41.076	-0.146	0.129
-136.414	72.634	0.227	-0.233
-135.399	800.000	0.104	0.287
-134.385	-200.000	0.035	-0.265
-133.370	-97.532	0.133	0.034
-132.356	-200.000	0.003	-0.232
-131.341	800.000	0.081	-0.274
-130.326	800.000	0.086	0.271
-129.312	-200.000	0.013	0.168
-128.297	-200.000	-0.011	0.156
-127.283	284.993	0.063	0.112
-126.268	10.460	-0.238	-0.178
-125.253	79.514	0.300	0.316
-124.239	-43.623	-0.144	-0.071
-123.224	-11.456	-0.370	-0.239
-122.210	-76.168	0.523	0.181
-121.195	-200.000	0.008	-0.210
