DTS Sentinel unit serial number:	SN413079Multiplexer serial number:	ORYXHardware model number:	OX4-SRSoftware version number:	ORYX F/W v4.00 Oryx Data Collector v3.7.2.0data status	okinstallation	princeton_trtdifferential loss correction	single-endedforward channel	channel 3reverse channel	N/Adate	2019/09/19time	11:16:35forward acquisition time	60.00reverse acquisition time	0.00gamma	496.2192k internal	0.2342k external	0.2342temperature offset calibration	0.9984default loss term (dB/km)	0.3790temperature slope calibration	1.0000multiplexer offset coefficient	1.0000multiplexer slope coefficient	1.0000fibre end	0.00T internal ref (°C)	25.16T ext. ref 1 (°C)	0.78T ext. ref 2 (°C)	20.77length (m)	temperature (°C)	Stokes	anti-Stokes-747.200	-61.403	-0.175	-0.074
-746.185	11.372	-0.193	-0.148
-745.171	86.755	0.098	0.108
-744.156	316.626	-0.221	0.418
-743.142	207.812	0.051	0.080
-742.127	-200.000	-0.044	0.284
-741.112	-200.000	0.013	0.333
-740.098	-95.842	0.160	-0.043
-739.083	353.867	-0.123	0.244
-738.069	-200.000	-0.007	-0.066
-737.054	465.968	-0.145	-0.325
-736.039	-177.095	-0.415	0.010
-735.025	-200.000	-0.009	0.103
-734.010	20.384	-0.133	-0.108
-732.996	116.570	-0.189	-0.232
-731.981	-200.000	0.032	0.261
-730.966	800.000	-0.136	-0.554
-729.952	-200.000	0.083	0.445
-728.937	-200.000	0.004	-0.045
-727.923	650.656	0.150	-0.384
-726.908	266.646	0.194	-0.339
-725.894	800.000	0.102	-0.355
-724.879	520.531	-0.131	-0.307
-723.864	580.760	-0.117	0.287
-722.850	-171.122	-0.447	0.015
-721.835	270.907	0.032	0.057
-720.821	7.691	0.094	-0.070
-719.806	-164.987	-0.190	0.008
-718.791	-39.020	0.068	-0.036
-717.777	-166.895	0.130	-0.005
-716.762	35.412	0.327	-0.287
-715.748	800.000	-0.172	-0.654
-714.733	111.955	-0.097	-0.117
-713.718	-200.000	0.034	0.300
-712.704	-200.000	-0.029	-0.315
-711.689	-116.662	-0.281	0.052
-710.675	167.634	-0.066	0.094
-709.660	800.000	0.030	0.108
-708.645	-200.000	-0.050	0.305
-707.631	396.821	-0.077	-0.161
-706.616	283.295	0.091	-0.163
-705.602	106.427	-0.207	-0.245
-704.587	202.486	-0.054	-0.084
-703.572	-35.116	0.183	0.100
-702.558	284.658	0.027	-0.048
-701.543	-27.193	0.096	-0.056
-700.529	464.128	-0.059	-0.132
-699.514	-140.909	0.263	0.027
-698.499	363.631	0.102	-0.204
-697.485	151.105	0.085	-0.116
-696.470	-154.375	0.364	-0.024
-695.456	419.359	0.041	0.089
-694.441	-69.381	0.126	-0.048
-693.426	-106.452	0.171	0.038
-692.412	130.950	0.098	0.126
-691.397	107.029	-0.095	-0.113
-690.383	-200.000	-0.002	0.120
-689.368	-177.389	0.078	-0.002
-688.354	210.176	-0.047	0.073
-687.339	-200.000	-0.036	-0.200
-686.324	-12.032	-0.390	-0.255
-685.310	-123.981	-0.495	0.078
-684.295	134.399	0.243	-0.315
-683.281	-41.403	0.273	-0.140
-682.266	-14.058	-0.217	0.140
-681.251	168.801	0.149	0.212
-680.237	800.000	-0.096	-0.334
-679.222	-200.000	-0.055	-0.340
-678.208	-38.776	-0.314	0.166
-677.193	-118.227	-0.181	0.032
-676.178	-10.870	-0.256	0.169
-675.164	-133.188	0.356	0.045
-674.149	-60.045	-0.423	-0.180
-673.135	0.245	0.168	-0.120
-672.120	-124.703	-0.221	0.034
-671.105	18.534	0.234	-0.187
-670.091	75.469	-0.110	0.116
-669.076	42.830	0.334	-0.304
-668.062	595.836	0.039	-0.097
-667.047	-140.550	-0.176	-0.018
-666.032	800.000	-0.081	0.228
-665.018	-67.361	-0.121	-0.047
-664.003	25.179	-0.207	-0.172
-662.989	86.638	0.111	-0.122
-661.974	-12.663	-0.291	0.190
-660.959	-32.534	-0.044	-0.025
-659.945	250.447	-0.176	-0.298
-658.930	-126.128	-0.129	0.019
-657.916	337.336	0.098	-0.190
-656.901	-96.292	0.083	-0.022
-655.886	-151.675	-0.044	0.003
-654.872	800.000	-0.103	-0.408
-653.857	322.441	0.057	-0.109
-652.843	147.413	-0.044	-0.060
-651.828	-160.855	-0.284	0.015
-650.814	-200.000	0.008	0.317
-649.799	-161.953	0.191	0.010
-648.784	156.666	0.053	-0.073
-647.770	-14.567	0.100	-0.064
-646.755	-200.000	0.039	0.183
-645.741	73.969	-0.103	0.108
-644.726	9.330	-0.166	-0.126
-643.711	800.000	-0.122	-0.399
-642.697	131.858	-0.087	0.112
-641.682	313.268	-0.135	0.253
-640.668	-79.616	0.153	0.052
-639.653	-189.911	-0.211	0.002
-638.638	433.901	0.111	-0.240
-637.624	-104.426	0.128	0.030
-636.609	3.971	0.236	-0.172
-635.595	123.642	-0.095	-0.119
-634.580	-35.598	-0.217	-0.118
-633.565	-200.000	-0.048	0.236
-632.551	0.479	0.163	0.116
-631.536	-197.175	-0.350	0.002
-630.522	-97.135	0.209	0.054
-629.507	447.809	-0.118	-0.259
-628.492	-69.053	-0.320	-0.123
-627.478	-58.976	-0.386	-0.166
-626.463	261.797	0.118	-0.204
-625.449	150.120	-0.153	-0.207
-624.434	-150.966	0.235	0.018
-623.419	254.084	0.045	0.077
-622.405	-57.033	-0.308	-0.135
-621.390	-183.162	-0.134	-0.002
-620.376	-43.360	0.148	0.075
-619.361	2.834	-0.125	0.091
-618.346	-200.000	0.002	-0.449
-617.332	514.023	0.052	0.121
-616.317	-200.000	0.018	-0.195
-615.303	-119.657	0.122	0.021
-614.288	599.373	0.067	-0.165
-613.273	-161.914	-0.188	0.009
-612.259	198.109	0.035	0.053
-611.244	-200.000	-0.044	0.324
-610.230	800.000	-0.062	-0.241
-609.215	-144.431	-0.157	-0.015
-608.201	-56.637	-0.337	0.149
-607.186	37.038	0.282	0.248
-606.171	-200.000	0.038	-0.211
-605.157	800.000	-0.020	0.076
-604.142	337.039	0.090	-0.175
-603.128	-200.000	0.007	-0.250
-602.113	65.582	-0.270	0.272
-601.098	498.936	-0.116	0.266
-600.084	353.631	-0.073	0.144
-599.069	-49.201	-0.147	0.070
-598.055	-200.000	-0.042	-0.331
-597.040	-100.796	0.153	-0.038
-596.025	-90.909	0.338	-0.097
-595.011	-110.676	-0.103	-0.021
-593.996	140.192	0.118	0.155
-592.982	58.190	-0.455	0.444
-591.967	797.010	-0.064	-0.175
-590.952	-41.791	-0.335	-0.171
-589.938	-150.401	0.275	-0.021
-588.923	-200.000	0.002	-0.056
-587.909	12.982	0.012	0.009
-586.894	30.810	0.167	-0.142
-585.879	-164.341	0.250	-0.011
-584.865	555.547	0.056	0.135
-583.850	234.441	-0.177	-0.290
-582.836	-192.669	0.065	0.001
-581.821	800.000	0.029	0.084
-580.806	800.000	0.058	0.211
-579.792	121.882	-0.145	-0.180
-578.777	-200.000	0.009	-0.140
-577.763	-200.000	-0.022	-0.103
-576.748	-177.701	0.135	-0.003
-575.733	800.000	0.079	0.240
-574.719	25.665	0.156	-0.129
-573.704	-200.000	-0.019	-0.387
-572.690	-200.000	-0.023	0.261
-571.675	800.000	0.053	0.167
-570.661	-200.000	0.027	0.295
-569.646	96.200	-0.112	-0.127
-568.631	-68.645	-0.275	-0.106
-567.617	800.000	-0.076	-0.291
-566.602	-101.988	0.095	0.023
-565.588	78.998	-0.052	0.056
-564.573	-200.000	-0.006	0.127
-563.558	-200.000	0.013	-0.283
-562.544	-200.000	-0.034	-0.448
-561.529	365.690	-0.130	-0.260
-560.515	-8.671	0.160	-0.107
-559.500	304.477	0.058	0.106
-558.485	-129.952	-0.211	-0.029
-557.471	43.611	0.081	-0.073
-556.456	634.650	0.083	-0.210
-555.442	-166.665	-0.014	-0.001
-554.427	153.231	-0.144	-0.195
-553.412	-200.000	0.036	-0.265
-552.398	-58.709	-0.075	0.032
-551.383	189.940	-0.140	0.208
-550.369	-200.000	0.336	-0.001
-549.354	-179.451	-0.278	-0.006
-548.339	-35.464	0.123	0.067
-547.325	-200.000	0.001	-0.188
-546.310	-136.401	-0.301	-0.035
-545.296	310.789	0.193	-0.359
-544.281	153.900	-0.094	-0.128
-543.266	-77.021	0.281	0.097
-542.252	-98.567	0.061	-0.015
-541.237	-52.569	-0.157	-0.072
-540.223	42.287	-0.031	0.028
-539.208	408.703	-0.089	0.187
-538.193	800.000	0.046	-0.166
-537.179	131.448	-0.205	-0.262
-536.164	-200.000	0.004	-0.166
-535.150	93.181	0.089	-0.100
-534.135	-95.992	-0.108	-0.029
-533.121	800.000	-0.090	0.255
-532.106	-67.296	-0.201	-0.078
-531.091	-200.000	0.002	-0.024
-530.077	498.787	-0.035	-0.081
-529.062	-138.593	-0.101	0.011
-528.048	3.123	0.229	0.166
-527.033	151.206	-0.064	-0.086
-526.018	-153.438	0.086	-0.006
-525.004	135.195	0.104	0.134
-523.989	800.000	0.112	0.395
-522.975	-135.479	-0.394	-0.047
-521.960	309.642	0.172	-0.319
-520.945	-136.473	0.365	-0.042
-519.931	-106.929	0.185	0.041
-518.916	-105.967	-0.181	0.040
-517.902	752.479	-0.073	-0.195
-516.887	800.000	-0.058	0.228
-515.872	-157.442	0.204	-0.012
-514.858	79.577	0.208	-0.222
-513.843	-122.675	-0.230	0.037
-512.829	-200.000	0.001	-0.016
-511.814	116.833	0.092	-0.112
-510.799	450.426	-0.065	0.141
-509.785	-125.453	-0.154	-0.023
-508.770	-200.000	-0.009	0.362
-507.756	186.148	-0.074	0.109
-506.741	56.103	0.146	0.141
-505.726	130.693	-0.051	-0.065
-504.712	-22.996	0.061	0.037
-503.697	-139.853	0.255	0.027
-502.683	35.903	0.117	0.102
-501.668	313.797	-0.215	-0.402
-500.653	283.825	0.219	-0.391
-499.639	-28.243	-0.194	-0.111
-498.624	-200.000	0.028	-0.172
-497.610	-88.097	0.214	0.064
-496.595	-19.613	-0.170	-0.104
-495.581	7.248	-0.233	0.173
-494.566	634.882	-0.179	-0.451
-493.551	118.261	-0.100	0.122
-492.537	-200.000	0.052	0.347
-491.522	-33.483	0.149	0.081
-490.508	-117.846	0.047	0.008
-489.493	50.957	0.093	0.087
-488.478	136.695	-0.236	0.305
-487.464	-200.000	0.054	0.254
-486.449	128.719	-0.066	0.084
-485.435	-73.335	0.555	0.201
-484.420	-82.037	-0.064	-0.021
-483.405	-143.317	-0.103	0.010
-482.391	-200.000	0.024	-0.306
-481.376	115.551	0.063	-0.077
-480.362	482.193	-0.142	0.320
-479.347	800.000	-0.035	-0.152
-478.332	-177.058	0.268	-0.007
-477.318	-200.000	-0.013	0.062
-476.303	436.147	0.162	0.350
-475.289	93.918	0.132	0.149
-474.274	326.487	-0.025	0.047
-473.259	-160.302	0.108	-0.006
-472.245	-109.331	-0.253	-0.053
-471.230	-200.000	0.016	0.142
-470.216	-200.000	-0.012	0.120
-469.201	-67.199	0.135	-0.053
-468.186	515.800	0.024	0.056
-467.172	411.353	-0.016	0.033
-466.157	119.170	0.091	0.112
-465.143	-118.538	-0.205	0.036
-464.128	-67.419	0.197	0.077
-463.113	-150.836	-0.278	0.021
-462.099	-200.000	-0.080	-0.416
-461.084	-200.000	0.020	0.136
-460.070	-80.299	-0.124	-0.041
-459.055	-62.315	-0.352	-0.145
-458.040	-200.000	0.001	0.030
-457.026	-102.969	-0.269	0.063
-456.011	-200.000	-0.005	0.027
-454.997	124.423	0.101	0.126
-453.982	40.177	-0.216	-0.192
-452.968	65.729	0.102	-0.102
-451.953	422.421	0.081	-0.172
-450.938	-104.496	0.122	0.028
-449.924	-164.984	-0.386	-0.017
-448.909	119.792	-0.050	0.061
-447.895	8.600	-0.329	0.245
-446.880	-184.593	0.047	0.001
-445.865	-200.000	0.011	-0.054
-444.851	91.442	0.158	0.175
-443.836	800.000	0.053	0.221
-442.822	-52.776	-0.258	0.118
-441.807	379.041	0.169	-0.343
-440.792	-85.422	-0.071	-0.022
-439.778	-200.000	0.022	-0.167
-438.763	-200.000	-0.066	-0.365
-437.749	223.228	0.222	0.355
-436.734	69.657	0.071	-0.072
-435.719	88.289	0.133	-0.147
-434.705	20.969	-0.316	0.253
-433.690	68.211	-0.427	0.433
-432.676	231.728	0.168	-0.273
-431.661	-200.000	0.006	0.210
-430.646	-200.000	0.024	0.109
-429.632	100.009	-0.043	0.050
-428.617	107.339	0.269	0.316
-427.603	242.717	0.121	0.201
-426.588	-22.026	0.010	-0.006
-425.573	42.530	-0.074	-0.067
-424.559	239.583	0.135	-0.222
-423.544	261.737	-0.193	-0.330
-422.530	-21.028	0.107	-0.065
-421.515	66.566	-0.200	0.202
-420.500	291.704	-0.199	-0.359
-419.486	-103.775	0.308	0.071
-418.471	457.182	0.035	-0.076
-417.457	-200.000	0.006	-0.089
-416.442	-120.817	0.443	-0.074
-415.428	33.280	-0.213	-0.183
-414.413	-108.372	0.127	0.027
-413.398	509.656	-0.161	-0.371
-412.384	98.457	-0.293	-0.334
-411.369	800.000	0.122	-0.345
-410.355	-77.011	-0.156	-0.054
-409.340	487.246	0.174	0.393
-408.325	-89.753	-0.383	-0.111
-407.311	-200.000	-0.013	0.365
-406.296	-190.118	0.135	0.001
-405.282	-36.248	0.303	0.162
-404.267	-77.311	0.231	0.079
-403.252	125.448	-0.192	0.239
-402.238	-137.736	0.211	-0.023
-401.223	7.596	0.151	-0.112
-400.209	633.013	0.226	0.566
-399.194	-200.000	0.070	0.387
-398.179	379.029	-0.126	0.254
-397.165	51.373	0.323	0.304
-396.150	-152.598	-0.193	0.014
-395.136	100.031	0.181	-0.208
-394.121	-35.243	0.291	0.157
-393.106	800.000	-0.080	-0.329
-392.092	-200.000	-0.034	0.292
-391.077	-62.088	-0.079	0.033
-390.063	800.000	0.055	-0.200
-389.048	-125.122	0.254	-0.039
-388.033	-81.148	0.158	-0.052
-387.019	706.410	-0.034	-0.089
-386.004	-161.594	-0.211	0.011
-384.990	43.757	-0.172	0.155
-383.975	-200.000	-0.030	-0.170
-382.960	121.250	0.186	-0.228
-381.946	113.067	-0.133	0.159
-380.931	-200.000	0.037	0.355
-379.917	203.290	0.132	0.202
-378.902	325.976	0.208	-0.394
-377.888	-32.281	-0.290	-0.160
-376.873	137.162	-0.096	0.124
-375.858	800.000	-0.076	0.236
-374.844	-120.706	-0.443	0.074
-373.829	-122.088	-0.264	-0.043
-372.815	117.562	-0.035	0.042
-371.800	-200.000	0.005	0.131
-370.785	99.219	0.234	0.267
-369.771	609.388	-0.085	0.209
-368.756	800.000	0.061	-0.241
-367.742	127.762	0.312	0.391
-366.727	-170.070	-0.055	-0.002
-365.712	-4.511	0.254	-0.173
-364.698	-200.000	0.023	-0.104
-363.683	800.000	0.156	-0.466
-362.669	-111.037	-0.257	0.052
-361.654	800.000	0.093	-0.268
-360.639	52.214	0.113	0.106
-359.625	60.718	-0.296	0.289
-358.610	320.490	-0.019	-0.036
-357.596	-141.285	-0.362	0.036
-356.581	-24.645	-0.205	0.120
-355.566	639.137	0.073	-0.183
-354.552	267.054	0.102	0.176
-353.537	316.590	-0.055	-0.102
-352.523	156.450	0.124	-0.169
-351.508	18.736	0.062	0.049
-350.493	-200.000	0.022	-0.171
-349.479	652.202	-0.074	0.188
-348.464	24.164	0.128	0.104
-347.450	3.624	0.106	-0.076
-346.435	-200.000	0.017	0.155
-345.420	-200.000	-0.023	-0.350
-344.406	-110.549	0.362	-0.074
-343.391	670.286	0.107	0.273
-342.377	-200.000	0.009	0.146
-341.362	-98.921	-0.112	-0.028
-340.348	-68.077	-0.203	-0.078
-339.333	800.000	-0.054	0.155
-338.318	230.294	-0.128	-0.206
-337.304	-27.787	0.087	0.050
-336.289	-200.000	0.051	-0.274
-335.275	62.352	0.137	0.135
-334.260	-68.463	-0.350	-0.134
-333.245	-114.565	0.102	-0.019
-332.231	14.079	0.043	0.033
-331.216	800.000	-0.087	0.267
-330.202	125.464	-0.040	0.050
-329.187	35.002	0.060	-0.052
-328.172	-189.577	0.259	-0.003
-327.158	91.367	0.386	-0.427
-326.143	-66.275	-0.045	0.018
-325.129	49.920	0.344	0.320
-324.114	800.000	-0.059	0.231
-323.099	274.669	-0.185	-0.322
-322.085	608.732	0.205	0.503
-321.070	-12.038	-0.091	0.059
-320.056	-16.283	0.021	0.013
-319.041	139.101	0.170	-0.221
-318.026	299.201	0.054	-0.097
-317.012	-2.302	-0.349	0.241
-315.997	800.000	0.066	-0.272
-314.983	800.000	-0.012	0.046
-313.968	-145.826	-0.295	0.026
-312.953	-200.000	-0.055	-0.321
-311.939	201.225	0.126	-0.191
-310.924	-12.938	0.127	0.081
-309.910	-95.021	-0.422	-0.112
-308.895	-200.000	-0.048	-0.219
-307.880	-200.000	-0.070	0.317
-306.866	142.588	0.094	0.123
-305.851	-16.439	-0.150	0.093
-304.837	-111.105	0.322	-0.065
-303.822	51.838	0.092	0.086
-302.807	-200.000	-0.001	-0.064
-301.793	76.920	0.140	0.147
-300.778	-200.000	0.068	0.353
-299.764	-200.000	0.023	0.193
-298.749	-166.274	-0.168	0.007
-297.735	-61.033	0.243	0.101
-296.720	800.000	-0.031	0.093
-295.705	-68.765	0.295	-0.112
-294.691	-200.000	-0.015	-0.206
-293.676	-200.000	-0.011	0.369
-292.662	120.794	-0.192	-0.235
-291.647	-160.802	0.379	0.020
-290.632	-140.443	-0.253	-0.026
-289.618	-98.859	-0.068	0.017
-288.603	-116.969	0.254	-0.046
-287.589	-105.354	-0.083	-0.019
-286.574	30.198	0.082	0.069
-285.559	135.048	0.160	0.205
-284.545	-70.193	0.370	0.138
-283.530	-138.292	-0.158	0.017
-282.516	164.400	0.124	-0.172
-281.501	-168.142	0.050	-0.002
-280.486	-11.408	-0.163	-0.105
-279.472	-52.904	-0.146	0.066
-278.457	33.242	0.178	-0.152
-277.443	-200.000	-0.003	-0.212
-276.428	-41.426	0.399	-0.202
-275.413	-44.500	-0.326	-0.160
-274.399	88.341	0.154	0.168
-273.384	-200.000	0.019	0.303
-272.370	-44.420	-0.110	0.054
-271.355	-200.000	0.087	-0.403
-270.340	-200.000	-0.043	-0.225
-269.326	604.478	-0.118	0.289
-268.311	-188.194	-0.249	0.003
-267.297	800.000	0.091	-0.261
-266.282	-69.553	-0.108	-0.041
-265.267	54.232	-0.121	0.115
-264.253	-130.482	0.442	0.059
-263.238	-15.309	-0.355	-0.223
-262.224	-76.132	0.024	0.008
-261.209	-125.284	0.231	0.035
-260.195	288.921	-0.165	0.294
-259.180	173.082	0.033	0.046
-258.165	-200.000	-0.014	-0.188
-257.151	-24.630	0.218	0.127
-256.136	376.686	-0.151	0.303
-255.122	125.871	0.245	-0.305
-254.107	190.743	-0.240	-0.355
-253.092	-29.540	-0.291	0.164
-252.078	-200.000	-0.011	0.218
-251.063	800.000	-0.032	0.129
-250.049	-79.852	-0.116	-0.038
-249.034	-200.000	-0.005	0.030
-248.019	304.199	0.020	-0.037
-247.005	111.743	0.052	-0.061
-245.990	39.413	-0.117	0.103
-244.976	-133.692	0.152	0.019
-243.961	1.508	0.357	-0.252
-242.946	130.615	-0.242	-0.304
-241.932	324.311	0.198	-0.372
-240.917	611.752	0.055	0.134
-239.903	-200.000	0.020	-0.420
-238.888	-200.000	0.029	0.243
-237.873	256.525	-0.199	0.335
-236.859	-98.251	-0.196	0.049
-235.844	-122.429	-0.345	-0.055
-234.830	10.167	0.194	-0.145
-233.815	-200.000	0.088	-0.437
-232.800	-200.000	0.035	-0.389
-231.786	41.928	-0.037	0.033
-230.771	-23.788	-0.174	0.102
-229.757	-91.441	-0.276	0.077
-228.742	800.000	-0.073	0.244
-227.727	252.575	0.256	0.428
-226.713	-9.841	-0.328	0.214
-225.698	237.723	-0.020	-0.033
-224.684	348.153	-0.039	-0.076
-223.669	-200.000	-0.043	-0.187
-222.655	-125.865	0.043	0.006
-221.640	-35.801	-0.022	-0.012
-220.625	-200.000	0.004	0.126
-219.611	-19.993	0.212	0.129
-218.596	-200.000	0.025	-0.220
-217.582	-83.151	0.298	0.094
-216.567	-200.000	0.025	0.241
-215.552	340.940	-0.187	0.358
-214.538	462.220	-0.120	0.262
-213.523	-200.000	0.041	0.249
-212.509	-10.780	0.122	-0.079
-211.494	223.670	-0.181	-0.286
-210.479	464.350	0.138	0.303
-209.465	-189.592	-0.131	0.001
-208.450	-200.000	-0.001	0.105
-207.436	-38.530	-0.162	0.084
-206.421	-160.803	0.248	-0.013
-205.406	-200.000	-0.013	-0.089
-204.392	-72.408	0.139	0.051
-203.377	-200.000	0.054	-0.372
-202.363	245.229	-0.068	0.112
-201.348	319.507	0.040	0.075
-200.333	164.405	-0.137	0.189
-199.319	-1.116	-0.133	-0.092
-198.304	-15.493	0.107	-0.067
-197.290	83.083	0.138	-0.147
-196.275	42.518	-0.320	-0.286
-195.260	-12.931	0.283	0.180
-194.246	513.458	-0.136	0.312
-193.231	-200.000	-0.010	0.129
-192.217	800.000	0.058	0.246
-191.202	486.048	0.108	0.242
-190.187	-200.000	-0.034	-0.177
-189.173	32.394	0.223	0.189
-188.158	-75.990	-0.073	-0.025
-187.144	-200.000	-0.046	-0.243
-186.129	-141.418	0.300	-0.030
-185.114	-135.475	0.155	0.018
-184.100	249.960	0.105	-0.174
-183.085	-69.165	-0.150	0.057
-182.071	-200.000	0.042	0.224
-181.056	800.000	-0.071	0.256
-180.042	-200.000	-0.005	0.065
-179.027	-200.000	0.020	0.284
-178.012	225.778	0.039	-0.061
-176.998	-200.000	0.060	-0.258
-175.983	157.200	-0.206	0.279
-174.969	172.886	0.157	0.222
-173.954	615.580	-0.148	-0.362
-172.939	-200.000	0.082	0.370
-171.925	800.000	-0.009	-0.031
-170.910	-57.650	-0.299	-0.128
-169.896	-116.434	0.125	0.023
-168.881	500.639	0.096	-0.216
-167.866	-65.401	-0.242	-0.095
-166.852	-45.611	-0.081	-0.039
-165.837	16.691	0.085	0.066
-164.823	67.106	0.213	-0.212
-163.808	337.715	0.116	0.222
-162.793	371.562	0.141	0.280
-161.779	-86.438	0.173	0.052
-160.764	-88.980	0.200	0.058
-159.750	-200.000	0.021	0.119
-158.735	589.979	-0.047	0.114
-157.720	-103.369	0.101	-0.023
-156.706	800.000	0.065	-0.251
-155.691	-200.000	-0.019	-0.131
-154.677	800.000	-0.094	-0.289
-153.662	410.517	-0.051	-0.105
-152.647	131.889	-0.098	-0.124
-151.633	32.726	0.158	0.134
-150.618	174.763	0.140	0.198
-149.604	-114.838	0.041	0.008
-148.589	800.000	0.032	-0.088
-147.574	668.127	-0.116	-0.292
-146.560	-82.187	0.157	-0.050
-145.545	98.131	-0.102	0.115
-144.531	-66.452	-0.092	0.036
-143.516	34.704	-0.262	-0.224
-142.502	-73.890	-0.318	0.113
-141.487	-104.243	-0.233	0.053
-140.472	28.927	0.209	0.173
-139.458	-200.000	-0.004	0.045
-138.443	688.984	-0.044	-0.113
-137.429	-44.255	0.100	0.049
-136.414	612.130	0.093	-0.229
-135.399	-40.769	-0.213	0.108
-134.385	-81.438	0.120	0.039
-133.370	800.000	-0.058	-0.211
-132.356	-94.477	-0.188	-0.050
-131.341	800.000	0.097	-0.274
-130.326	-54.278	-0.247	-0.110
-129.312	387.255	-0.049	0.099
-128.297	11.144	-0.218	0.163
-127.283	-155.885	0.088	-0.005
-126.268	-33.162	-0.114	-0.062
-125.253	-20.649	0.178	0.107
-124.239	-141.342	-0.211	0.021
-123.224	-77.848	0.256	0.086
-122.210	179.565	-0.253	0.363
