DTS Sentinel unit serial number:	SN413079Multiplexer serial number:	ORYXHardware model number:	OX4-SRSoftware version number:	ORYX F/W v4.00 Oryx Data Collector v3.7.2.0data status	okinstallation	princeton_trtdifferential loss correction	single-endedforward channel	channel 3reverse channel	N/Adate	2019/09/13time	14:44:35forward acquisition time	60.00reverse acquisition time	0.00gamma	496.2192k internal	0.2300k external	0.2300temperature offset calibration	1.0143default loss term (dB/km)	0.3790temperature slope calibration	1.0000multiplexer offset coefficient	1.0000multiplexer slope coefficient	1.0000fibre end	0.00T internal ref (°C)	35.47T ext. ref 1 (°C)	4.68T ext. ref 2 (°C)	32.38length (m)	temperature (°C)	Stokes	anti-Stokes-747.200	-200.000	-0.036	-0.262
-746.185	-11.884	0.110	0.074
-745.171	-95.853	-0.149	-0.041
-744.156	-200.000	-0.000	0.060
-743.142	136.172	-0.175	-0.233
-742.127	736.941	0.085	0.232
-741.112	-200.000	0.058	-0.295
-740.098	23.286	-0.206	0.173
-739.083	-61.255	0.142	0.061
-738.069	247.120	0.191	0.329
-737.054	173.641	0.216	0.318
-736.039	143.800	0.122	-0.166
-735.025	-200.000	-0.016	-0.100
-734.010	-25.116	-0.457	-0.276
-732.996	-16.247	-0.274	0.178
-731.981	-45.782	-0.159	0.080
-730.966	56.955	0.116	-0.115
-729.952	289.690	-0.106	-0.197
-728.937	-109.796	0.152	-0.033
-727.923	-200.000	-0.044	0.218
-726.908	-137.952	-0.344	-0.039
-725.894	-200.000	0.050	-0.289
-724.879	-93.571	0.571	-0.161
-723.864	-199.403	0.249	0.001
-722.850	-200.000	0.004	-0.172
-721.835	228.843	-0.167	-0.277
-720.821	800.000	0.058	-0.192
-719.806	239.430	0.181	-0.307
-718.791	394.950	0.116	-0.246
-717.777	40.618	-0.216	0.199
-716.762	41.172	-0.147	-0.136
-715.748	36.309	-0.125	0.113
-714.733	238.651	0.012	-0.021
-713.718	-20.910	-0.172	0.107
-712.704	-44.702	-0.364	-0.185
-711.689	-53.615	0.107	-0.050
-710.675	267.086	-0.160	-0.286
-709.660	-56.230	0.443	0.201
-708.645	-200.000	0.009	-0.080
-707.631	-200.000	0.017	-0.287
-706.616	22.044	0.095	-0.079
-705.602	-200.000	0.336	-0.000
-704.587	687.437	0.103	-0.274
-703.572	16.296	0.145	0.116
-702.558	420.081	-0.066	-0.144
-701.543	-122.987	0.132	-0.022
-700.529	-200.000	-0.012	0.532
-699.514	-74.744	-0.192	-0.070
-698.499	16.465	-0.016	-0.013
-697.485	120.059	0.160	0.202
-696.470	800.000	0.089	-0.355
-695.456	-200.000	0.014	-0.274
-694.441	174.434	0.285	-0.420
-693.426	-124.608	0.292	0.046
-692.412	-102.064	-0.181	0.044
-691.397	-95.632	-0.421	-0.115
-690.383	84.482	-0.147	0.164
-689.368	-106.484	0.296	-0.067
-688.354	-200.000	-0.063	0.412
-687.339	800.000	0.098	0.280
-686.324	-17.571	0.148	-0.095
-685.310	-195.090	-0.154	-0.001
-684.295	-134.886	-0.149	-0.018
-683.281	-200.000	-0.027	-0.151
-682.266	360.581	-0.107	-0.218
-681.251	24.868	-0.180	-0.152
-680.237	-200.000	-0.021	-0.305
-679.222	-70.488	0.098	-0.038
-678.208	6.292	-0.071	-0.054
-677.193	-200.000	0.019	-0.220
-676.178	800.000	0.071	-0.215
-675.164	20.554	-0.208	0.171
-674.149	-26.474	-0.222	-0.132
-673.135	6.946	-0.211	-0.160
-672.120	-200.000	0.002	0.106
-671.105	-93.754	-0.137	-0.038
-670.091	-200.000	0.069	0.477
-669.076	-45.608	-0.353	-0.178
-668.062	181.519	0.204	0.306
-667.047	56.288	-0.035	0.035
-666.032	-200.000	0.016	0.090
-665.018	-200.000	0.068	-0.357
-664.003	-90.133	-0.271	0.080
-662.989	67.141	0.416	0.431
-661.974	560.264	0.064	0.158
-660.959	91.923	0.092	0.106
-659.945	-111.764	-0.422	-0.087
-658.930	473.591	0.162	-0.372
-657.916	154.378	-0.067	0.094
-656.901	-66.359	-0.101	-0.041
-655.886	-109.270	-0.171	-0.037
-654.872	435.688	0.103	0.227
-653.857	-134.283	-0.264	0.033
-652.843	82.396	-0.139	0.153
-651.828	-26.036	-0.323	-0.193
-650.814	-53.073	-0.043	0.020
-649.799	142.475	0.248	0.334
-648.784	133.873	0.170	-0.224
-647.770	800.000	0.043	-0.139
-646.755	51.027	0.164	0.158
-645.741	-67.727	-0.183	-0.073
-644.726	368.301	0.067	-0.138
-643.711	249.813	-0.064	-0.111
-642.697	-47.741	-0.068	-0.033
-641.682	313.110	-0.017	0.032
-640.668	-106.075	0.164	0.037
-639.653	540.438	0.101	-0.245
-638.638	-11.433	0.126	-0.084
-637.624	109.810	0.115	0.140
-636.609	-112.433	0.204	-0.041
-635.595	529.696	-0.188	0.452
-634.580	-138.073	-0.343	0.039
-633.565	-10.066	-0.108	-0.073
-632.551	-7.005	0.252	0.174
-631.536	403.751	0.043	0.091
-630.522	-200.000	0.008	0.043
-629.507	-200.000	0.058	0.359
-628.492	-146.384	-0.206	-0.018
-627.478	264.060	0.186	-0.329
-626.463	800.000	-0.061	0.179
-625.449	43.031	-0.246	-0.228
-624.434	598.477	0.116	-0.291
-623.419	793.171	0.120	0.336
-622.405	31.420	0.034	0.030
-621.390	130.806	-0.034	0.045
-620.376	678.671	0.029	-0.076
-619.361	-110.938	-0.280	0.058
-618.346	800.000	0.083	-0.341
-617.332	296.269	-0.059	0.110
-616.317	-112.278	-0.086	0.018
-615.303	-200.000	0.047	-0.224
-614.288	-191.436	-0.160	-0.002
-613.273	-200.000	0.045	-0.444
-612.259	14.839	0.184	-0.146
-611.244	-83.215	0.244	0.079
-610.230	-102.402	0.181	0.044
-609.215	-24.496	-0.122	0.074
-608.201	-200.000	0.011	0.300
-607.186	-101.167	-0.382	-0.095
-606.171	-14.934	-0.094	-0.061
-605.157	320.097	0.160	-0.309
-604.142	272.106	0.173	-0.310
-603.128	800.000	-0.023	-0.077
-602.113	118.413	0.144	-0.181
-601.098	-95.026	-0.084	0.023
-600.084	30.602	-0.119	0.103
-599.069	-200.000	-0.029	0.195
-598.055	-116.718	-0.290	0.054
-597.040	-200.000	0.000	-0.259
-596.025	82.157	0.240	-0.263
-595.011	652.879	-0.137	-0.357
-593.996	-7.501	-0.185	-0.127
-592.982	-72.872	-0.110	-0.041
-591.967	-126.313	0.381	-0.058
-590.952	177.811	-0.115	0.171
-589.938	-126.994	0.271	0.040
-588.923	480.795	-0.058	0.133
-587.909	-1.270	-0.170	0.122
-586.894	800.000	0.041	-0.119
-585.879	52.748	0.092	-0.089
-584.865	-39.014	-0.062	0.033
-583.850	-105.573	-0.211	0.048
-582.836	108.533	-0.180	0.218
-581.821	473.853	0.097	0.221
-580.806	776.543	0.052	-0.145
-579.792	151.251	0.127	0.176
-578.777	-10.342	0.144	-0.097
-577.763	135.880	-0.162	0.213
-576.748	87.547	-0.032	-0.036
-575.733	-54.393	0.347	-0.160
-574.719	150.547	0.067	0.092
-573.704	155.130	0.022	-0.031
-572.690	262.457	-0.138	0.242
-571.675	800.000	0.048	-0.137
-570.661	440.350	0.070	-0.155
-569.646	59.653	0.087	0.087
-568.631	498.303	0.214	0.499
-567.617	800.000	0.070	0.198
-566.602	51.110	-0.092	0.088
-565.588	200.412	-0.176	0.275
-564.573	800.000	0.044	0.184
-563.558	-161.266	-0.124	0.007
-562.544	678.507	-0.088	-0.231
-561.529	-42.560	-0.127	-0.066
-560.515	220.374	0.154	-0.250
-559.500	-189.804	-0.425	0.005
-558.485	7.933	-0.217	0.165
-557.471	-38.155	-0.205	-0.110
-556.456	2.788	-0.052	-0.038
-555.442	-82.869	0.095	-0.031
-554.427	383.851	-0.218	-0.454
-553.412	-91.293	0.164	0.048
-552.398	75.934	0.093	0.100
-551.383	254.910	0.067	0.116
-550.369	109.740	-0.051	-0.062
-549.354	-89.650	-0.119	-0.035
-548.339	-53.831	0.212	0.098
-547.325	-90.416	-0.221	0.065
-546.310	800.000	-0.081	0.328
-545.296	100.105	-0.091	-0.107
-544.281	68.665	0.158	-0.164
-543.266	800.000	0.107	0.317
-542.252	57.682	0.214	-0.212
-541.237	-146.772	0.095	0.008
-540.223	-113.679	0.257	0.051
-539.208	144.012	0.115	-0.156
-538.193	611.164	0.069	-0.175
-537.179	140.350	0.306	0.409
-536.164	800.000	0.076	-0.215
-535.150	747.129	0.018	0.050
-534.135	157.665	-0.194	0.271
-533.121	200.686	-0.025	0.039
-532.106	379.071	-0.165	0.343
-531.091	-114.964	0.249	-0.048
-530.077	-95.676	-0.337	-0.091
-529.062	572.554	-0.040	0.099
-528.048	171.065	-0.073	0.105
-527.033	-134.300	0.259	0.032
-526.018	-200.000	0.017	0.123
-525.004	-144.193	-0.115	-0.011
-523.989	76.209	-0.142	0.153
-522.975	-200.000	0.088	-0.399
-521.960	5.315	-0.215	-0.161
-520.945	211.402	-0.079	-0.125
-519.931	800.000	-0.033	-0.112
-518.916	-119.249	0.550	0.097
-517.902	-93.489	0.274	-0.077
-516.887	555.922	0.131	-0.318
-515.872	800.000	0.036	-0.131
-514.858	93.254	0.275	0.314
-513.843	-200.000	0.040	-0.391
-512.829	-40.105	-0.178	0.094
-511.814	12.934	-0.231	0.181
-510.799	-13.888	-0.017	0.011
-509.785	-200.000	0.039	-0.353
-508.770	-200.000	0.014	-0.064
-507.756	-200.000	-0.013	0.307
-506.741	-200.000	-0.012	0.148
-505.726	254.015	0.025	-0.043
-504.712	790.703	-0.063	-0.175
-503.697	-137.733	-0.085	0.010
-502.683	-200.000	-0.003	-0.066
-501.668	-200.000	0.000	0.266
-500.653	145.660	0.221	-0.299
-499.639	-200.000	-0.006	0.177
-498.624	23.936	0.174	-0.145
-497.610	-25.861	0.010	0.006
-496.595	-14.549	-0.101	-0.066
-495.581	182.040	0.104	-0.155
-494.566	353.544	-0.153	-0.306
-493.551	-96.341	-0.222	-0.059
-492.537	-120.883	0.191	0.033
-491.522	648.899	0.117	-0.301
-490.508	76.731	0.174	0.186
-489.493	-200.000	-0.103	0.545
-488.478	-113.218	-0.219	-0.044
-487.464	599.806	-0.058	0.146
-486.449	577.824	-0.084	0.206
-485.435	-99.056	-0.203	-0.052
-484.420	-199.808	-0.059	-0.000
-483.405	429.333	0.084	-0.183
-482.391	282.569	-0.216	-0.391
-481.376	-95.276	0.610	-0.166
-480.362	-62.682	-0.455	-0.191
-479.347	-61.838	0.509	-0.215
-478.332	-146.661	0.154	-0.014
-477.318	90.027	0.251	0.283
-476.303	-200.000	0.003	-0.140
-475.289	72.750	0.094	-0.099
-474.274	-72.277	-0.282	-0.105
-473.259	-66.261	0.221	-0.089
-472.245	38.960	-0.280	0.253
-471.230	46.478	-0.217	0.203
-470.216	606.309	0.143	0.360
-469.201	-109.381	0.363	0.078
-468.186	88.297	0.065	-0.073
-467.172	-200.000	0.027	-0.149
-466.157	225.936	-0.150	0.245
-465.143	800.000	-0.052	0.167
-464.128	-128.067	0.263	0.038
-463.113	-52.418	0.063	-0.029
-462.099	297.800	-0.077	0.142
-461.084	800.000	0.040	0.130
-460.070	-200.000	0.037	0.169
-459.055	-6.099	-0.115	0.079
-458.040	141.150	0.138	0.185
-457.026	315.042	-0.083	0.158
-456.011	800.000	0.024	0.087
-454.997	-23.873	0.050	0.030
-453.982	157.916	-0.217	-0.304
-452.968	800.000	-0.059	0.225
-451.953	800.000	0.041	0.119
-450.938	-200.000	0.021	-0.181
-449.924	34.465	-0.205	-0.180
-448.909	-200.000	0.016	0.119
-447.895	-26.188	-0.244	-0.145
-446.880	-90.526	0.373	0.109
-445.865	-200.000	0.041	-0.211
-444.851	254.884	-0.073	0.127
-443.836	284.826	-0.078	-0.141
-442.822	-79.773	-0.238	-0.081
-441.807	-200.000	-0.012	-0.189
-440.792	274.249	-0.020	-0.036
-439.778	-200.000	0.062	-0.429
-438.763	-156.603	-0.183	-0.011
-437.749	31.694	0.101	0.088
-436.734	-81.840	0.094	-0.031
-435.719	-127.308	-0.280	0.041
-434.705	-154.622	0.118	0.008
-433.690	-200.000	0.013	-0.089
-432.676	101.521	-0.030	-0.036
-431.661	-9.040	0.059	0.040
-430.646	120.262	-0.065	0.081
-429.632	126.761	-0.037	-0.047
-428.617	19.312	-0.176	0.142
-427.603	-48.334	-0.097	-0.047
-426.588	36.905	0.423	0.377
-425.573	-153.656	-0.169	0.012
-424.559	800.000	0.037	-0.157
-423.544	800.000	-0.042	0.130
-422.530	-13.793	-0.078	0.051
-421.515	-200.000	0.031	-0.242
-420.500	-71.967	-0.045	-0.017
-419.486	800.000	-0.103	0.328
-418.471	-88.176	-0.139	-0.042
-417.457	-18.228	0.167	0.105
-416.442	277.445	-0.070	-0.125
-415.428	652.182	0.019	-0.049
-414.413	366.304	0.133	0.269
-413.398	84.608	-0.124	0.136
-412.384	52.458	0.129	0.124
-411.369	359.582	0.048	0.096
-410.355	-31.259	0.090	0.051
-409.340	-119.370	0.152	0.027
-408.325	33.444	-0.343	0.300
-407.311	731.266	0.055	0.149
-406.296	-200.000	-0.006	0.229
-405.282	-200.000	-0.054	0.262
-404.267	-96.381	-0.483	-0.129
-403.252	-146.479	-0.384	0.034
-402.238	-200.000	-0.051	0.366
-401.223	7.101	-0.184	-0.138
-400.209	-200.000	0.007	-0.051
-399.194	-55.101	-0.204	0.092
-398.179	400.314	-0.224	0.472
-397.165	21.698	-0.075	0.061
-396.150	-58.896	-0.439	-0.191
-395.136	800.000	0.049	0.150
-394.121	52.750	-0.068	-0.065
-393.106	-7.637	-0.031	0.021
-392.092	-134.469	0.234	0.029
-391.077	-27.476	-0.172	0.101
-390.063	83.088	0.083	-0.091
-389.048	-22.335	0.189	0.115
-388.033	-89.443	-0.084	0.025
-387.019	-200.000	0.004	-0.142
-386.004	480.808	0.098	0.224
-384.990	-75.310	-0.303	0.109
-383.975	-200.000	-0.086	0.462
-382.960	-124.807	0.169	-0.026
-381.946	171.517	-0.164	-0.237
-380.931	-10.545	0.122	0.082
-379.917	-21.364	0.061	-0.038
-378.902	-105.452	0.085	-0.019
-377.888	800.000	-0.024	0.098
-376.873	110.459	-0.077	0.093
-375.858	84.671	-0.182	-0.200
-374.844	-200.000	-0.044	-0.223
-373.829	-149.095	-0.284	0.023
-372.815	-72.806	0.199	-0.074
-371.800	-185.355	0.191	-0.003
-370.785	13.493	-0.003	0.003
-369.771	-43.978	-0.126	0.064
-368.756	-200.000	0.030	0.137
-367.742	-107.588	0.307	-0.067
-366.727	-200.000	0.014	-0.139
-365.712	-41.202	0.184	-0.095
-364.698	-150.603	-0.205	-0.016
-363.683	-123.722	0.192	0.031
-362.669	-200.000	0.045	0.353
-361.654	800.000	-0.055	0.234
-360.639	-148.735	-0.391	0.032
-359.625	800.000	0.104	0.330
-358.610	-200.000	-0.007	0.133
-357.596	52.739	-0.114	-0.109
-356.581	800.000	0.025	0.110
-355.566	86.114	-0.095	0.105
-354.552	-52.448	0.392	-0.182
-353.537	-85.831	0.176	0.055
-352.523	211.431	0.054	-0.086
-351.508	-153.137	0.305	-0.022
-350.493	-200.000	0.009	0.250
-349.479	800.000	-0.078	-0.243
-348.464	502.887	0.091	-0.211
-347.450	495.949	-0.084	-0.195
-346.435	9.387	-0.156	-0.118
-345.420	-106.794	-0.443	0.099
-344.406	58.739	0.148	0.146
-343.391	800.000	-0.062	-0.192
-342.377	270.173	-0.101	-0.178
-341.362	-57.843	-0.059	-0.026
-340.348	-51.609	-0.367	0.172
-339.333	161.376	-0.295	0.414
-338.318	28.192	-0.116	-0.098
-337.304	-200.000	-0.032	0.239
-336.289	-200.000	-0.083	-0.418
-335.275	-200.000	0.000	-0.114
-334.260	17.274	-0.026	-0.021
-333.245	800.000	-0.143	-0.462
-332.231	85.835	-0.132	-0.145
-331.216	-122.800	0.137	0.022
-330.202	688.536	-0.050	0.132
-329.187	-90.637	-0.120	0.035
-328.172	-13.067	0.265	-0.173
-327.158	-150.346	-0.187	0.014
-326.143	-125.165	0.185	0.029
-325.129	-42.321	-0.381	-0.195
-324.114	275.037	0.150	-0.268
-323.099	791.962	0.043	-0.118
-322.085	-131.428	-0.320	0.042
-321.070	-59.969	0.184	-0.079
-320.056	17.755	-0.079	-0.063
-319.041	785.498	-0.092	-0.253
-318.026	-94.761	0.101	-0.028
-317.012	-200.000	0.015	-0.312
-315.997	-200.000	0.009	-0.044
-314.983	800.000	-0.105	0.431
-313.968	180.039	0.065	0.095
-312.953	-200.000	-0.078	-0.377
-311.939	138.987	-0.113	-0.149
-310.924	-69.784	-0.132	-0.050
-309.910	800.000	0.032	0.101
-308.895	3.350	0.135	0.099
-307.880	393.101	-0.028	-0.059
-306.866	281.619	-0.065	-0.117
-305.851	-200.000	-0.084	-0.542
-304.837	-110.590	0.340	-0.071
-303.822	800.000	-0.050	0.201
-302.807	-51.350	0.382	0.179
-301.793	-1.343	-0.150	-0.106
-300.778	509.889	0.065	0.152
-299.764	-200.000	0.014	-0.473
-298.749	800.000	0.062	-0.182
-297.735	575.421	0.095	-0.233
-296.720	556.295	-0.191	-0.462
-295.705	-61.651	0.102	0.043
-294.691	257.650	0.159	-0.274
-293.676	27.312	0.064	-0.054
-292.662	120.863	0.110	-0.138
-291.647	-87.279	-0.047	0.014
-290.632	54.470	0.181	-0.175
-289.618	-200.000	0.013	0.340
-288.603	110.785	0.204	-0.246
-287.589	-75.206	0.227	0.081
-286.574	85.942	0.076	0.084
-285.559	17.479	-0.125	0.100
-284.545	288.761	-0.108	-0.197
-283.530	-50.660	0.239	-0.113
-282.516	291.535	-0.013	-0.024
-281.501	-10.475	0.195	-0.130
-280.486	429.143	-0.091	0.198
-279.472	20.067	0.187	0.151
-278.457	-200.000	0.001	-0.311
-277.443	352.181	0.222	0.441
-276.428	-67.739	0.281	-0.110
-275.413	-200.000	-0.026	0.246
-274.399	-200.000	-0.022	-0.495
-273.384	-104.539	-0.071	0.016
-272.370	-50.283	-0.485	0.229
-271.355	-86.805	0.365	-0.112
-270.340	148.409	0.161	0.217
-269.326	-92.875	0.335	0.094
-268.311	-186.479	0.261	0.004
-267.297	-76.381	-0.376	-0.132
-266.282	-154.150	0.376	-0.026
-265.267	-14.072	0.211	-0.136
-264.253	-200.000	0.001	0.096
-263.238	324.215	-0.226	-0.431
-262.224	-174.063	0.136	-0.004
-261.209	331.251	0.069	-0.133
-260.195	-94.418	-0.208	0.057
-259.180	800.000	0.019	0.057
-258.165	-118.026	0.286	-0.051
-257.151	328.482	0.230	-0.443
-256.136	800.000	-0.089	-0.259
-255.122	800.000	0.065	-0.202
-254.107	95.298	-0.060	0.069
-253.092	-70.804	-0.118	-0.045
-252.078	503.680	-0.059	-0.137
-251.063	-200.000	-0.018	0.106
-250.049	-200.000	-0.039	-0.385
-249.034	-58.051	0.249	-0.109
-248.019	-200.000	-0.002	0.077
-247.005	-48.658	-0.192	0.092
-245.990	-200.000	0.011	-0.280
-244.976	-141.560	-0.528	0.053
-243.961	-200.000	0.035	0.247
-242.946	-17.275	-0.277	-0.175
-241.932	-157.394	0.101	0.006
-240.917	-95.181	-0.268	0.072
-239.903	-119.507	-0.293	-0.051
-238.888	800.000	-0.055	-0.164
-237.873	40.341	-0.113	0.102
-236.859	-200.000	0.001	-0.015
-235.844	-200.000	-0.026	0.172
-234.830	220.179	0.118	-0.190
-233.815	51.828	-0.077	0.073
-232.800	-23.508	-0.366	0.220
-231.786	-94.070	0.133	0.036
-230.771	-51.199	-0.075	-0.035
-229.757	-142.290	0.385	0.038
-228.742	-200.000	0.070	0.378
-227.727	11.538	0.186	-0.143
-226.713	300.043	0.105	0.193
-225.698	400.095	0.160	0.336
-224.684	53.713	0.263	-0.252
-223.669	-200.000	0.000	0.066
-222.655	-71.425	-0.169	-0.063
-221.640	123.376	0.094	-0.118
-220.625	8.573	0.067	-0.051
-219.611	-50.015	0.061	0.029
-218.596	-52.925	-0.117	-0.054
-217.582	174.133	0.177	-0.256
-216.567	50.678	0.058	-0.055
-215.552	-63.344	-0.021	-0.008
-214.538	92.170	0.104	0.117
-213.523	5.592	0.138	-0.102
-212.509	-200.000	0.037	0.259
-211.494	-146.097	0.162	-0.014
-210.479	-33.711	-0.171	-0.094
-209.465	-53.323	-0.157	-0.072
-208.450	800.000	-0.092	0.288
-207.436	-34.134	0.330	0.181
-206.421	-200.000	0.076	0.367
-205.406	9.094	-0.351	-0.265
-204.392	19.593	0.229	0.184
-203.377	176.690	-0.024	0.035
-202.363	357.240	-0.064	0.127
-201.348	176.871	0.068	0.098
-200.333	-0.810	0.217	-0.154
-199.319	28.191	-0.225	-0.189
-198.304	46.175	0.104	0.096
-197.290	-200.000	0.000	0.079
-196.275	-95.739	-0.188	0.050
-195.260	800.000	-0.054	0.191
-194.246	-200.000	-0.021	-0.169
-193.231	-73.041	0.218	-0.080
-192.217	666.495	-0.080	-0.207
-191.202	443.399	0.164	-0.359
-190.187	577.901	-0.046	0.111
-189.173	-95.326	0.262	0.070
-188.158	-200.000	-0.027	-0.131
-187.144	-200.000	-0.009	0.361
-186.129	40.662	-0.244	0.220
-185.114	712.890	-0.083	-0.220
-184.100	-200.000	-0.002	-0.368
-183.085	-169.094	-0.107	-0.004
-182.071	93.779	0.039	0.045
-181.056	17.223	0.206	0.163
-180.042	-200.000	-0.030	0.141
-179.027	-25.218	0.142	0.084
-178.012	-68.842	0.141	0.055
-176.998	800.000	0.053	0.228
-175.983	-200.000	-0.034	0.317
-174.969	-103.066	0.167	0.039
-173.954	-55.477	-0.336	0.150
-172.939	-150.073	0.042	-0.003
-171.925	200.337	0.130	-0.200
-170.910	120.698	-0.208	0.258
-169.896	-200.000	0.018	0.098
-168.881	-65.067	-0.152	0.061
-167.866	568.719	-0.063	-0.153
-166.852	-200.000	-0.069	-0.313
-165.837	-101.182	0.162	0.040
-164.823	-200.000	-0.023	-0.122
-163.808	-200.000	0.009	0.239
-162.793	-8.737	0.128	0.085
-161.779	-200.000	-0.051	0.331
-160.764	222.944	-0.097	-0.155
-159.750	103.347	0.152	0.178
-158.735	118.218	-0.102	0.126
-157.720	9.461	-0.232	0.175
-156.706	-111.406	-0.297	-0.060
-155.691	15.615	0.332	0.260
-154.677	-2.789	-0.276	0.193
-153.662	-75.964	-0.162	0.057
-152.647	-121.094	-0.150	0.025
-151.633	-78.246	0.167	0.057
-150.618	414.900	-0.127	0.270
-149.604	-64.628	0.101	-0.041
-148.589	47.073	-0.170	0.157
-147.574	68.532	-0.306	-0.312
-146.560	-40.698	-0.025	-0.013
-145.545	800.000	0.108	0.330
-144.531	-200.000	-0.043	0.291
-143.516	-152.483	0.081	0.006
-142.502	-75.228	0.516	0.184
-141.487	-200.000	0.008	-0.311
-140.472	7.302	-0.134	-0.099
-139.458	141.392	0.187	0.247
-138.443	-200.000	0.064	0.291
-137.429	-200.000	0.019	0.167
-136.414	92.404	0.090	0.101
-135.399	2.740	0.372	-0.269
-134.385	241.015	0.128	-0.213
-133.370	486.247	-0.029	-0.067
-132.356	-182.059	-0.117	-0.002
-131.341	-99.319	0.345	-0.087
-130.326	784.023	-0.107	0.291
-129.312	65.184	-0.182	0.183
-128.297	800.000	-0.040	0.113
-127.283	-156.742	-0.109	-0.007
-126.268	-200.000	0.014	-0.092
-125.253	-124.680	-0.084	0.013
-124.239	-28.005	-0.022	-0.013
-123.224	-20.067	0.351	-0.215
-122.210	-93.195	0.073	-0.020
-121.195	-184.304	0.227	0.004
