DTS Sentinel unit serial number:	SN413079Multiplexer serial number:	ORYXHardware model number:	OX4-SRSoftware version number:	ORYX F/W v4.00 Oryx Data Collector v3.7.2.0data status	okinstallation	princeton_trtdifferential loss correction	single-endedforward channel	channel 3reverse channel	N/Adate	2019/09/12time	21:24:34forward acquisition time	60.00reverse acquisition time	0.00gamma	496.2192k internal	0.2326k external	0.2326temperature offset calibration	1.0128default loss term (dB/km)	0.3790temperature slope calibration	1.0000multiplexer offset coefficient	1.0000multiplexer slope coefficient	1.0000fibre end	0.00T internal ref (°C)	30.50T ext. ref 1 (°C)	3.66T ext. ref 2 (°C)	25.13length (m)	temperature (°C)	Stokes	anti-Stokes-747.200	-200.000	0.009	-0.065
-746.185	150.417	-0.180	0.246
-745.171	37.628	0.168	-0.150
-744.156	-135.142	-0.216	0.026
-743.142	-200.000	-0.141	0.000
-742.127	17.137	0.050	0.040
-741.112	-200.000	0.007	0.156
-740.098	-200.000	0.053	0.334
-739.083	-152.663	0.159	-0.011
-738.069	800.000	-0.063	0.196
-737.054	85.237	-0.145	0.160
-736.039	-152.077	-0.427	0.031
-735.025	39.231	-0.206	0.186
-734.010	238.028	-0.177	-0.296
-732.996	-200.000	-0.089	0.477
-731.981	170.347	-0.128	-0.185
-730.966	-72.080	0.181	0.068
-729.952	38.152	-0.176	-0.158
-728.937	800.000	0.079	-0.341
-727.923	-34.651	0.305	0.168
-726.908	-148.632	-0.360	0.030
-725.894	-30.761	-0.061	-0.035
-724.879	-163.272	-0.215	-0.010
-723.864	11.830	-0.121	-0.094
-722.850	-73.996	-0.261	0.096
-721.835	-148.149	-0.136	0.011
-720.821	342.102	-0.135	-0.266
-719.806	187.495	-0.117	0.177
-718.791	-144.787	0.191	-0.018
-717.777	-38.107	-0.163	0.087
-716.762	114.802	-0.286	-0.351
-715.748	800.000	-0.055	-0.209
-714.733	800.000	-0.050	0.160
-713.718	-56.913	0.198	-0.088
-712.704	-161.720	0.023	-0.001
-711.689	-96.208	0.035	-0.009
-710.675	41.690	-0.177	-0.162
-709.660	-81.539	-0.203	0.067
-708.645	63.043	-0.200	-0.201
-707.631	-44.645	0.051	0.026
-706.616	69.584	-0.086	-0.090
-705.602	-102.349	-0.145	-0.035
-704.587	-121.776	-0.100	0.017
-703.572	-55.818	0.219	0.099
-702.558	-9.088	-0.236	-0.159
-701.543	-122.554	0.163	0.027
-700.529	133.605	0.108	0.141
-699.514	800.000	-0.085	0.281
-698.499	76.561	0.151	0.162
-697.485	128.953	0.419	-0.539
-696.470	46.324	-0.210	-0.196
-695.456	800.000	0.032	-0.092
-694.441	800.000	0.073	-0.290
-693.426	-38.118	-0.262	-0.140
-692.412	159.922	0.146	-0.204
-691.397	40.038	-0.358	0.324
-690.383	216.446	0.164	-0.262
-689.368	-156.987	-0.117	-0.007
-688.354	-3.591	0.250	0.175
-687.339	-200.000	0.027	-0.157
-686.324	54.722	-0.111	0.108
-685.310	9.436	-0.192	-0.146
-684.295	-11.783	-0.085	0.056
-683.281	800.000	-0.067	0.233
-682.266	182.018	0.046	0.067
-681.251	-70.042	0.528	0.202
-680.237	482.562	0.146	0.334
-679.222	317.788	0.095	0.181
-678.208	39.602	0.300	0.271
-677.193	-111.015	-0.373	0.077
-676.178	2.789	0.181	0.132
-675.164	121.734	-0.167	-0.209
-674.149	118.004	0.200	-0.248
-673.135	24.304	-0.187	0.156
-672.120	22.975	-0.246	-0.203
-671.105	-170.229	-0.285	0.010
-670.091	-80.937	-0.226	0.075
-669.076	230.953	-0.239	0.394
-668.062	48.242	0.229	-0.216
-667.047	517.366	0.043	-0.102
-666.032	-31.289	-0.446	-0.252
-665.018	-73.894	-0.453	-0.166
-664.003	194.043	0.072	-0.109
-662.989	190.728	-0.095	0.143
-661.974	-43.837	-0.234	0.118
-660.959	800.000	-0.016	0.048
-659.945	800.000	0.046	0.138
-658.930	223.589	0.127	-0.205
-657.916	367.428	-0.104	0.211
-656.901	-97.127	-0.070	-0.018
-655.886	407.483	-0.126	-0.268
-654.872	35.962	0.230	0.204
-653.857	1.484	0.155	-0.112
-652.843	-66.784	-0.445	-0.177
-651.828	-19.436	0.168	-0.105
-650.814	457.615	-0.106	0.236
-649.799	89.973	0.058	0.065
-648.784	77.028	0.132	-0.141
-647.770	216.838	0.045	0.072
-646.755	-200.000	-0.035	0.431
-645.741	-200.000	-0.011	-0.269
-644.726	103.232	0.101	-0.119
-643.711	-62.918	-0.093	0.039
-642.697	147.148	-0.092	-0.125
-641.682	-66.023	0.329	-0.132
-640.668	-38.035	0.193	-0.103
-639.653	-147.471	0.277	-0.024
-638.638	512.800	0.005	0.011
-637.624	-67.614	0.288	0.113
-636.609	-5.235	0.182	0.126
-635.595	-32.076	-0.147	0.082
-634.580	-200.000	0.007	-0.210
-633.565	800.000	-0.035	0.143
-632.551	253.629	0.186	0.319
-631.536	-200.000	-0.023	0.137
-630.522	55.911	-0.463	-0.451
-629.507	800.000	0.151	0.487
-628.492	-61.993	-0.287	-0.121
-627.478	-133.898	0.184	0.023
-626.463	800.000	-0.056	0.168
-625.449	105.714	-0.173	-0.206
-624.434	275.759	0.085	0.151
-623.419	263.876	-0.120	-0.209
-622.405	-3.795	0.205	0.143
-621.390	-30.734	0.069	-0.039
-620.376	-107.836	0.083	-0.018
-619.361	139.449	0.209	-0.276
-618.346	563.180	0.033	0.079
-617.332	259.203	0.141	0.245
-616.317	-135.845	-0.135	-0.016
-615.303	22.108	-0.054	0.044
-614.288	-47.864	-0.128	-0.062
-613.273	124.906	0.089	-0.113
-612.259	-200.000	-0.275	-0.001
-611.244	-140.554	0.094	-0.010
-610.230	-200.000	0.010	-0.069
-609.215	-96.330	0.022	-0.006
-608.201	119.745	0.060	-0.075
-607.186	81.652	-0.120	0.130
-606.171	-200.000	0.043	0.279
-605.157	-200.000	-0.052	0.299
-604.142	-200.000	0.009	-0.062
-603.128	-59.868	0.099	0.043
-602.113	15.006	0.368	-0.289
-601.098	28.246	-0.078	0.066
-600.084	-53.150	0.140	-0.064
-599.069	142.599	0.082	-0.110
-598.055	-4.410	0.030	0.021
-597.040	800.000	0.062	0.179
-596.025	-87.299	-0.200	0.061
-595.011	800.000	-0.059	0.199
-593.996	61.425	-0.116	0.116
-592.982	800.000	0.017	-0.065
-591.967	-33.344	0.081	-0.045
-590.952	800.000	-0.017	-0.053
-589.938	21.772	-0.322	-0.263
-588.923	30.875	0.195	0.168
-587.909	41.796	-0.139	0.126
-586.894	-200.000	-0.005	0.071
-585.879	-146.852	-0.140	0.012
-584.865	235.356	0.109	-0.181
-583.850	323.404	0.052	0.099
-582.836	-80.752	-0.127	0.042
-581.821	-68.487	0.337	0.131
-580.806	109.367	-0.102	0.122
-579.792	27.000	0.149	0.125
-578.777	203.898	-0.122	-0.190
-577.763	63.720	0.041	0.042
-576.748	24.947	-0.297	-0.247
-575.733	-200.000	0.018	-0.125
-574.719	-59.591	-0.228	-0.098
-573.704	-200.000	-0.019	0.178
-572.690	-29.198	-0.082	0.047
-571.675	-35.932	0.235	0.127
-570.661	-125.058	-0.454	0.070
-569.646	-138.113	0.275	0.031
-568.631	430.538	-0.033	-0.072
-567.617	-88.748	-0.536	0.160
-566.602	-88.790	-0.282	0.084
-565.588	-81.216	-0.089	0.030
-564.573	-43.821	-0.075	0.038
-563.558	256.917	-0.140	-0.241
-562.544	44.761	-0.054	0.050
-561.529	290.413	-0.021	0.038
-560.515	785.723	-0.077	-0.212
-559.500	-32.965	0.220	-0.122
-558.485	-9.780	-0.185	-0.123
-557.471	102.428	0.154	0.181
-556.456	800.000	0.046	0.191
-555.442	-15.876	-0.235	-0.150
-554.427	661.610	-0.050	-0.129
-553.412	800.000	0.088	0.255
-552.398	11.932	-0.194	-0.150
-551.383	103.142	0.211	-0.247
-550.369	367.019	0.048	-0.098
-549.354	-200.000	-0.003	0.229
-548.339	-174.500	-0.289	-0.008
-547.325	-200.000	-0.017	0.140
-546.310	142.806	-0.275	-0.365
-545.296	-88.288	-0.297	0.089
-544.281	-200.000	0.010	-0.137
-543.266	800.000	-0.112	0.356
-542.252	336.993	-0.038	-0.073
-541.237	-136.836	0.230	0.026
-540.223	194.784	-0.267	-0.406
-539.208	106.912	-0.103	0.122
-538.193	-126.780	-0.314	0.046
-537.179	-104.926	-0.133	0.030
-536.164	-157.159	0.368	-0.022
-535.150	-200.000	0.031	0.225
-534.135	160.199	0.051	0.072
-533.121	-200.000	0.023	0.124
-532.106	-87.548	-0.264	0.080
-531.091	-126.687	0.232	0.034
-530.077	391.029	0.076	0.157
-529.062	-101.116	-0.281	0.069
-528.048	342.366	-0.114	0.223
-527.033	15.240	-0.109	-0.086
-526.018	-200.000	0.027	0.203
-525.004	417.454	0.129	0.275
-523.989	-37.323	-0.242	0.129
-522.975	129.508	-0.087	-0.111
-521.960	10.858	0.320	0.244
-520.945	-88.842	-0.168	-0.050
-519.931	-200.000	0.011	-0.133
-518.916	28.004	-0.444	-0.374
-517.902	56.776	-0.209	-0.203
-516.887	-200.000	0.042	-0.345
-515.872	-141.813	0.238	-0.024
-514.858	173.965	-0.032	-0.046
-513.843	-59.427	0.363	0.156
-512.829	-138.220	-0.208	-0.023
-511.814	389.576	-0.060	0.125
-510.799	44.664	-0.149	0.137
-509.785	-146.535	0.304	0.026
-508.770	-104.768	-0.490	0.113
-507.756	-101.042	-0.168	0.041
-506.741	-13.972	-0.169	-0.109
-505.726	-84.642	0.227	0.071
-504.712	-84.973	0.339	-0.106
-503.697	84.424	0.321	-0.351
-502.683	-200.000	0.017	-0.118
-501.668	22.264	0.132	0.108
-500.653	555.156	-0.099	-0.237
-499.639	-200.000	-0.043	-0.477
-498.624	174.163	-0.022	0.032
-497.610	-147.195	-0.339	-0.029
-496.595	372.566	-0.038	-0.076
-495.581	-192.877	-0.211	-0.002
-494.566	-105.367	-0.095	0.022
-493.551	-200.000	0.019	-0.204
-492.537	-4.491	-0.264	-0.182
-491.522	-200.000	0.039	0.337
-490.508	800.000	0.114	0.360
-489.493	63.906	-0.108	-0.108
-488.478	-77.097	0.071	-0.025
-487.464	-27.674	0.077	0.044
-486.449	-35.033	-0.174	-0.095
-485.435	-200.000	0.031	-0.170
-484.420	-200.000	-0.021	0.268
-483.405	165.328	-0.248	0.350
-482.391	-8.781	-0.016	-0.010
-481.376	196.851	-0.105	0.160
-480.362	-62.320	-0.099	-0.041
-479.347	-133.104	0.258	0.033
-478.332	-102.717	-0.030	-0.007
-477.318	-99.937	0.244	0.061
-476.303	-176.225	0.019	0.000
-475.289	-17.000	0.240	-0.151
-474.274	-43.998	0.306	-0.154
-473.259	269.144	-0.131	-0.229
-472.245	74.061	0.126	-0.131
-471.230	800.000	0.094	0.284
-470.216	-200.000	-0.021	0.288
-469.201	-200.000	0.036	-0.244
-468.186	521.509	0.016	0.037
-467.172	111.101	0.187	0.224
-466.157	-126.839	-0.380	-0.056
-465.143	-12.169	0.264	0.172
-464.128	-52.058	-0.308	0.143
-463.113	-145.890	0.072	0.006
-462.099	-84.830	-0.071	-0.022
-461.084	-129.796	0.146	-0.020
-460.070	26.770	0.201	-0.168
-459.055	-13.193	0.105	0.068
-458.040	-200.000	-0.020	0.168
-457.026	-39.179	0.283	0.148
-456.011	800.000	-0.051	-0.142
-454.997	-77.040	0.341	-0.119
-453.982	-200.000	0.066	-0.400
-452.968	112.371	-0.101	0.122
-451.953	-38.397	-0.159	-0.084
-450.938	-200.000	0.018	0.155
-449.924	-200.000	-0.052	-0.283
-448.909	-94.923	-0.248	-0.067
-447.895	43.512	-0.237	-0.216
-446.880	-132.138	0.191	0.025
-445.865	359.933	-0.174	0.348
-444.851	275.732	-0.224	0.396
-443.836	-200.000	0.023	0.145
-442.822	65.273	0.051	-0.052
-441.807	-4.209	-0.080	0.055
-440.792	-200.000	-0.051	-0.351
-439.778	-89.084	0.163	-0.048
-438.763	-200.000	0.004	0.071
-437.749	129.323	-0.081	-0.103
-436.734	476.345	-0.027	-0.061
-435.719	94.604	0.071	-0.080
-434.705	-2.504	-0.172	-0.120
-433.690	-200.000	-0.003	0.020
-432.676	-42.489	0.164	-0.083
-431.661	-128.054	0.300	0.043
-430.646	-150.660	-0.186	0.014
-429.632	214.867	0.133	-0.211
-428.617	-121.710	0.205	0.034
-427.603	37.588	-0.176	0.155
-426.588	-170.677	0.318	-0.011
-425.573	-68.510	0.141	0.055
-424.559	177.184	-0.127	-0.184
-423.544	297.792	0.093	0.171
-422.530	9.051	0.143	0.108
-421.515	7.953	-0.386	0.289
-420.500	-200.000	0.121	0.599
-419.486	121.136	0.102	0.126
-418.471	-91.284	0.099	-0.028
-417.457	31.992	-0.201	0.173
-416.442	409.882	0.118	-0.249
-415.428	551.952	0.113	-0.270
-414.413	-118.863	-0.365	-0.064
-413.398	-71.067	0.163	0.061
-412.384	-200.000	0.002	-0.134
-411.369	-200.000	-0.002	0.172
-410.355	-87.568	0.125	0.038
-409.340	53.631	-0.086	-0.083
-408.325	-53.349	0.183	0.084
-407.311	-200.000	-0.008	0.072
-406.296	16.327	0.097	-0.076
-405.282	57.358	0.158	-0.153
-404.267	-97.555	0.116	-0.030
-403.252	-200.000	0.054	0.289
-402.238	28.072	-0.241	-0.202
-401.223	-25.580	-0.232	-0.136
-400.209	11.720	0.099	-0.075
-399.194	79.054	-0.144	0.153
-398.179	-167.818	0.174	0.007
-397.165	-200.000	-0.019	0.221
-396.150	-12.146	-0.086	0.056
-395.136	-200.000	-0.029	-0.166
-394.121	7.815	-0.295	-0.220
-393.106	-75.660	0.184	-0.065
-392.092	492.813	-0.164	-0.374
-391.077	-140.953	0.343	0.035
-390.063	30.330	-0.103	-0.087
-389.048	-34.082	0.308	0.169
-388.033	37.953	0.244	-0.216
-387.019	-172.143	0.094	0.003
-386.004	454.999	-0.059	-0.131
-384.990	23.016	0.040	0.033
-383.975	644.302	0.026	0.065
-382.960	42.559	0.064	0.058
-381.946	-52.129	-0.291	0.134
-380.931	157.460	0.064	0.088
-379.917	-21.241	-0.199	-0.121
-378.902	538.554	-0.116	-0.275
-377.888	73.020	-0.164	0.170
-376.873	-2.117	-0.190	-0.133
-375.858	-200.000	-0.028	-0.124
-374.844	-24.758	0.063	-0.037
-373.829	-200.000	0.043	-0.317
-372.815	435.511	0.072	0.156
-371.800	-200.000	0.021	0.179
-370.785	70.353	0.162	0.166
-369.771	800.000	-0.023	-0.094
-368.756	-200.000	0.001	0.079
-367.742	-200.000	-0.009	-0.161
-366.727	-11.921	-0.291	0.190
-365.712	21.528	-0.121	0.098
-364.698	170.958	0.234	-0.333
-363.683	390.706	0.083	-0.171
-362.669	-200.000	0.010	-0.065
-361.654	-14.666	0.177	0.113
-360.639	-161.053	0.065	-0.003
-359.625	47.205	-0.099	-0.092
-358.610	65.981	0.247	-0.249
-357.596	-18.134	-0.266	0.166
-356.581	204.459	-0.108	0.167
-355.566	-107.052	0.176	-0.039
-354.552	0.843	-0.098	-0.070
-353.537	-200.000	0.033	0.288
-352.523	-60.036	0.262	0.111
-351.508	105.272	0.139	0.163
-350.493	-131.609	0.275	0.036
-349.479	-200.000	0.001	-0.167
-348.464	-92.981	-0.078	0.022
-347.450	800.000	-0.046	-0.156
-346.435	484.765	0.182	0.411
-345.420	-53.762	0.062	0.028
-344.406	-57.574	0.263	0.115
-343.391	-16.699	-0.081	-0.051
-342.377	-200.000	-0.006	-0.048
-341.362	-106.582	0.275	0.061
-340.348	-200.000	-0.005	-0.138
-339.333	13.495	-0.054	-0.041
-338.318	23.327	-0.079	0.065
-337.304	800.000	0.083	0.256
-336.289	244.589	0.020	-0.034
-335.275	-117.622	-0.203	-0.036
-334.260	800.000	-0.101	-0.296
-333.245	-200.000	0.028	-0.181
-332.231	104.387	0.010	-0.012
-331.216	231.107	0.084	0.137
-330.202	-82.017	-0.363	-0.118
-329.187	800.000	-0.041	0.145
-328.172	-22.689	0.176	0.106
-327.158	131.447	-0.165	0.210
-326.143	-95.373	0.332	-0.089
-325.129	-200.000	-0.033	-0.155
-324.114	-24.609	0.046	0.027
-323.099	-65.274	0.302	0.121
-322.085	-108.474	-0.486	-0.104
-321.070	-79.174	-0.126	-0.043
-320.056	566.176	-0.118	-0.285
-319.041	83.172	0.178	-0.192
-318.026	-72.322	-0.139	0.051
-317.012	800.000	0.064	-0.261
-315.997	-40.297	0.083	-0.043
-314.983	-67.719	0.138	-0.054
-313.968	-67.573	-0.169	0.066
-312.953	28.413	-0.281	-0.236
-311.939	-134.900	0.247	-0.030
-310.924	800.000	0.070	0.231
-309.910	-200.000	0.031	-0.227
-308.895	13.605	-0.171	0.132
-307.880	-51.315	0.262	0.121
-306.866	20.819	-0.148	0.119
-305.851	-200.000	0.007	0.084
-304.837	126.076	-0.161	0.202
-303.822	360.522	-0.079	0.157
-302.807	-127.643	-0.328	-0.047
-301.793	-200.000	-0.064	-0.369
-300.778	-57.176	-0.087	0.038
-299.764	236.449	-0.185	0.304
-298.749	-200.000	0.005	0.170
-297.735	-200.000	0.020	-0.225
-296.720	-129.376	-0.254	-0.035
-295.705	-182.725	-0.088	-0.002
-294.691	-200.000	0.028	-0.208
-293.676	-132.116	-0.302	0.039
-292.662	1.850	-0.069	-0.049
-291.647	-115.178	-0.313	-0.059
-290.632	335.164	0.034	-0.066
-289.618	-42.809	-0.179	-0.090
-288.603	-74.837	-0.258	-0.092
-287.589	-2.944	0.244	0.169
-286.574	293.012	0.053	-0.095
-285.559	-200.000	0.025	-0.157
-284.545	43.802	-0.072	0.065
-283.530	-200.000	-0.029	0.249
-282.516	54.508	0.105	-0.101
-281.501	178.374	-0.142	-0.205
-280.486	-18.193	0.250	0.155
-279.472	-68.018	-0.178	-0.069
-278.457	-200.000	-0.052	-0.288
-277.443	800.000	0.063	-0.210
-276.428	508.516	0.022	-0.051
-275.413	-51.413	0.222	0.103
-274.399	119.634	-0.196	-0.241
-273.384	-127.000	-0.217	-0.032
-272.370	162.217	-0.145	0.201
-271.355	508.000	0.029	-0.067
-270.340	418.475	0.082	0.174
-269.326	-121.456	-0.335	0.055
-268.311	800.000	0.063	0.262
-267.297	-36.833	0.201	0.107
-266.282	-118.609	-0.059	0.010
-265.267	-120.117	0.225	-0.038
-264.253	-103.502	-0.182	-0.042
-263.238	800.000	-0.085	0.236
-262.224	-4.549	0.191	0.131
-261.209	-200.000	0.033	-0.149
-260.195	253.443	-0.158	0.267
-259.180	331.719	-0.106	-0.201
-258.165	-63.534	0.230	0.093
-257.151	-133.479	0.067	0.008
-256.136	297.337	-0.086	-0.156
-255.122	-123.945	-0.136	0.021
-254.107	-51.603	0.117	-0.054
-253.092	34.632	-0.095	0.082
-252.078	148.503	-0.178	0.238
-251.063	-115.619	-0.181	0.034
-250.049	-74.792	-0.343	-0.122
-249.034	-60.132	0.321	0.136
-248.019	296.685	-0.184	-0.334
-247.005	800.000	-0.130	-0.369
-245.990	-200.000	0.035	-0.174
-244.976	-100.378	-0.260	0.064
-243.961	-200.000	-0.006	-0.162
-242.946	-92.982	-0.332	-0.092
-241.932	40.113	-0.295	0.263
-240.917	204.610	0.112	0.172
-239.903	31.812	0.358	0.304
-238.888	219.020	0.040	-0.063
-237.873	630.955	0.108	-0.269
-236.859	-127.627	0.182	0.026
-235.844	59.428	0.023	0.022
-234.830	-200.000	-0.029	-0.430
-233.815	4.188	-0.274	-0.198
-232.800	-173.154	-0.219	-0.007
-231.786	-52.050	0.273	-0.126
-230.771	-2.845	0.185	0.128
-229.757	-90.156	-0.124	0.036
-228.742	-45.167	0.084	0.041
-227.727	-200.000	0.002	0.236
-226.713	-115.753	0.211	0.039
-225.698	216.131	0.076	-0.119
-224.684	-87.294	-0.173	0.052
-223.669	-139.483	0.411	-0.043
-222.655	19.422	0.038	0.030
-221.640	142.843	0.183	-0.241
-220.625	800.000	0.070	-0.247
-219.611	-200.000	0.046	-0.364
-218.596	800.000	-0.077	0.300
-217.582	800.000	0.183	0.563
-216.567	99.749	0.179	0.204
-215.552	-164.744	-0.424	0.019
-214.538	-14.136	0.223	0.142
-213.523	-92.761	0.185	0.051
-212.509	-74.882	0.015	-0.005
-211.494	-200.000	0.015	0.265
-210.479	145.578	0.259	0.343
-209.465	-7.750	-0.265	-0.177
-208.450	4.117	0.152	0.110
-207.436	102.262	0.104	0.120
-206.421	463.926	0.086	-0.190
-205.406	-147.375	-0.108	-0.009
-204.392	32.014	0.066	-0.056
-203.377	800.000	0.082	0.240
-202.363	-94.900	-0.303	0.081
-201.348	-200.000	0.019	-0.099
-200.333	-94.997	-0.222	0.059
-199.319	229.687	0.189	0.305
-198.304	-200.000	-0.105	-0.509
-197.290	-28.947	0.383	-0.217
-196.275	-116.274	0.113	0.021
-195.260	157.839	0.073	-0.100
-194.246	800.000	-0.030	-0.091
-193.231	-103.613	0.372	0.086
-192.217	265.700	-0.132	-0.227
-191.202	-114.165	-0.169	-0.032
-190.187	-69.456	0.234	-0.088
-189.173	800.000	-0.042	-0.127
-188.158	-51.900	0.336	-0.154
-187.144	-200.000	0.024	0.216
-186.129	-4.743	0.164	-0.112
-185.114	-65.828	0.194	0.077
-184.100	800.000	0.082	-0.247
-183.085	-100.900	-0.261	-0.063
-182.071	-75.222	0.252	-0.089
-181.056	-200.000	-0.023	-0.116
-180.042	185.439	-0.243	0.357
-179.027	188.903	0.105	-0.156
-178.012	397.414	0.192	0.397
-176.998	-200.000	0.041	0.192
-175.983	-107.927	0.289	0.062
-174.969	-136.586	0.052	-0.006
-173.954	467.568	-0.030	-0.067
-172.939	1.473	-0.210	-0.149
-171.925	-116.192	0.165	0.030
-170.910	450.899	-0.037	-0.080
-169.896	800.000	0.093	-0.336
-168.881	70.793	0.265	-0.271
-167.866	-98.194	0.164	-0.041
-166.852	159.012	0.230	0.315
-165.837	-53.745	-0.198	0.089
-164.823	13.548	0.265	0.203
-163.808	-200.000	0.023	0.236
-162.793	-51.699	-0.338	-0.156
-161.779	800.000	-0.037	-0.137
-160.764	800.000	-0.036	0.133
-159.750	16.448	0.105	0.081
-158.735	-64.059	-0.125	0.050
-157.720	-8.504	0.223	-0.148
-156.706	144.043	-0.119	0.157
-155.691	21.684	0.176	-0.141
-154.677	-200.000	0.025	0.125
-153.662	800.000	-0.073	0.245
-152.647	-200.000	-0.010	0.101
-151.633	-26.317	0.348	-0.201
-150.618	174.569	0.010	-0.015
-149.604	216.113	-0.130	0.203
-148.589	50.141	0.132	0.123
-147.574	309.923	0.137	0.253
-146.560	-200.000	0.055	0.240
-145.545	530.582	0.212	0.494
-144.531	-200.000	-0.028	0.127
-143.516	-111.379	-0.340	-0.068
-142.502	-153.749	0.149	-0.010
-141.487	-23.064	0.165	0.098
-140.472	-134.290	0.239	0.029
-139.458	-60.925	0.057	0.024
-138.443	254.343	-0.069	0.116
-137.429	94.425	-0.272	-0.304
-136.414	800.000	0.044	0.169
-135.399	132.867	0.098	0.125
-134.385	-164.815	-0.211	-0.009
-133.370	-36.697	0.186	0.098
-132.356	-72.157	-0.108	0.040
-131.341	800.000	-0.033	0.102
-130.326	-200.000	-0.043	0.238
-129.312	292.101	0.115	0.206
-128.297	-65.931	-0.157	0.062
-127.283	-56.733	0.162	-0.070
-126.268	-70.156	-0.057	-0.021
-125.253	470.241	0.063	-0.140
-124.239	163.321	-0.105	-0.145
-123.224	-103.674	-0.199	-0.046
-122.210	30.430	-0.332	0.279
-121.195	-200.000	0.031	-0.222
-120.180	32.167	0.318	0.270
