DTS Sentinel unit serial number:	SN413079Multiplexer serial number:	ORYXHardware model number:	OX4-SRSoftware version number:	ORYX F/W v4.00 Oryx Data Collector v3.7.2.0data status	okinstallation	princeton_trtdifferential loss correction	single-endedforward channel	channel 3reverse channel	N/Adate	2019/09/14time	13:56:35forward acquisition time	60.00reverse acquisition time	0.00gamma	496.2192k internal	0.2294k external	0.2294temperature offset calibration	1.0061default loss term (dB/km)	0.3790temperature slope calibration	1.0000multiplexer offset coefficient	1.0000multiplexer slope coefficient	1.0000fibre end	0.00T internal ref (°C)	37.87T ext. ref 1 (°C)	5.00T ext. ref 2 (°C)	35.45length (m)	temperature (°C)	Stokes	anti-Stokes-747.200	119.021	-0.136	-0.173
-746.185	-111.119	0.190	0.040
-745.171	252.847	-0.166	0.289
-744.156	-200.000	0.069	0.439
-743.142	800.000	0.022	0.080
-742.127	-30.245	-0.126	-0.073
-741.112	239.294	-0.177	-0.302
-740.098	218.209	0.169	0.275
-739.083	800.000	0.132	-0.578
-738.069	644.250	0.133	0.347
-737.054	-62.789	-0.332	0.141
-736.039	145.133	-0.070	-0.096
-735.025	-200.000	0.040	0.408
-734.010	-96.487	0.059	0.016
-732.996	44.870	-0.208	-0.196
-731.981	319.590	0.178	0.345
-730.966	-17.121	0.244	-0.157
-729.952	-200.000	-0.050	0.225
-728.937	-200.000	-0.003	0.387
-727.923	-118.187	0.330	-0.060
-726.908	-113.529	-0.190	-0.038
-725.894	800.000	0.092	-0.339
-724.879	501.427	-0.010	-0.023
-723.864	386.956	0.089	-0.188
-722.850	-200.000	0.036	-0.222
-721.835	-17.840	0.015	0.010
-720.821	-200.000	0.076	-0.380
-719.806	567.959	-0.131	-0.324
-718.791	-113.919	-0.185	0.037
-717.777	-194.243	-0.297	0.002
-716.762	611.521	0.048	-0.124
-715.748	-77.892	-0.135	-0.047
-714.733	172.000	-0.130	0.190
-713.718	231.211	0.135	-0.225
-712.704	800.000	0.063	0.279
-711.689	800.000	-0.038	-0.147
-710.675	71.857	-0.097	0.103
-709.660	-87.474	-0.062	0.019
-708.645	785.569	-0.034	-0.094
-707.631	-36.338	0.160	-0.088
-706.616	-200.000	0.010	0.089
-705.602	129.240	0.203	-0.265
-704.587	50.004	-0.085	-0.082
-703.572	-132.268	0.062	0.008
-702.558	149.017	-0.207	0.286
-701.543	-20.330	-0.241	0.151
-700.529	-200.000	0.062	-0.282
-699.514	800.000	0.040	-0.175
-698.499	149.259	0.075	-0.104
-697.485	-16.140	0.208	-0.135
-696.470	-116.985	0.100	-0.019
-695.456	-69.765	-0.402	-0.157
-694.441	-38.371	0.284	0.153
-693.426	800.000	-0.109	-0.326
-692.412	11.831	0.146	0.114
-691.397	-58.424	-0.397	0.176
-690.383	43.970	-0.076	0.071
-689.368	648.876	0.035	0.093
-688.354	-200.000	0.070	0.392
-687.339	-55.332	0.139	-0.063
-686.324	-146.607	-0.123	-0.011
-685.310	730.760	0.073	-0.199
-684.295	-32.127	0.073	0.041
-683.281	19.880	-0.117	0.096
-682.266	5.638	-0.084	0.063
-681.251	-200.000	-0.040	-0.233
-680.237	-200.000	-0.006	-0.060
-679.222	-85.314	0.082	-0.026
-678.208	33.800	0.157	0.139
-677.193	-47.515	-0.298	0.148
-676.178	-48.793	0.071	0.035
-675.164	96.320	0.269	-0.314
-674.149	-200.000	-0.018	-0.267
-673.135	800.000	0.084	0.257
-672.120	128.703	-0.162	-0.211
-671.105	432.112	0.058	-0.129
-670.091	-169.604	-0.257	-0.010
-669.076	-27.708	-0.121	0.072
-668.062	219.176	-0.074	-0.121
-667.047	-96.345	-0.130	0.035
-666.032	80.862	-0.168	0.185
-665.018	51.646	0.308	-0.298
-664.003	25.115	0.250	-0.211
-662.989	-68.724	0.370	0.146
-661.974	-123.556	-0.174	0.028
-660.959	-132.968	-0.287	-0.037
-659.945	-200.000	0.023	0.186
-658.930	-93.101	0.143	-0.040
-657.916	-84.035	-0.254	0.082
-656.901	-17.453	-0.108	0.069
-655.886	-87.944	-0.038	-0.012
-654.872	-141.357	0.342	-0.035
-653.857	400.165	0.083	0.177
-652.843	800.000	-0.049	0.140
-651.828	35.487	-0.082	-0.073
-650.814	-200.000	-0.025	-0.168
-649.799	201.464	-0.060	0.094
-648.784	800.000	0.011	-0.046
-647.770	238.692	-0.104	0.177
-646.755	381.920	-0.122	0.256
-645.741	-76.586	-0.269	0.096
-644.726	133.532	-0.073	0.096
-643.711	-200.000	-0.006	-0.159
-642.697	313.925	0.168	-0.322
-641.682	-95.107	-0.418	-0.115
-640.668	-200.000	-0.015	-0.397
-639.653	-140.014	-0.268	0.029
-638.638	-200.000	-0.057	0.254
-637.624	800.000	-0.041	-0.121
-636.609	-117.344	0.255	-0.047
-635.595	13.449	0.176	0.139
-634.580	1.542	-0.045	0.033
-633.565	560.812	0.088	-0.216
-632.551	44.793	-0.217	0.203
-631.536	800.000	0.037	0.135
-630.522	-106.254	-0.169	0.039
-629.507	-135.096	0.086	0.011
-628.492	-2.539	0.131	-0.093
-627.478	-200.000	-0.024	-0.178
-626.463	-200.000	0.056	0.368
-625.449	84.545	-0.172	-0.192
-624.434	800.000	-0.093	-0.396
-623.419	-148.722	0.140	-0.012
-622.405	355.305	0.100	-0.202
-621.390	-125.278	0.436	0.068
-620.376	-2.430	-0.257	-0.183
-619.361	-200.000	0.023	0.344
-618.346	157.577	0.049	-0.069
-617.332	557.529	-0.130	-0.318
-616.317	-200.000	0.014	-0.296
-615.303	178.882	0.134	-0.200
-614.288	-200.000	0.007	0.307
-613.273	-166.392	0.267	0.011
-612.259	18.632	-0.215	0.175
-611.244	464.539	-0.166	0.377
-610.230	-200.000	0.008	-0.144
-609.215	627.863	0.080	-0.207
-608.201	-119.985	0.195	-0.034
-607.186	281.181	-0.183	0.333
-606.171	98.543	0.095	0.112
-605.157	122.796	0.119	-0.152
-604.142	-200.000	0.036	-0.286
-603.128	-200.000	-0.099	-0.527
-602.113	-103.597	-0.252	0.060
-601.098	109.984	0.036	0.044
-600.084	387.722	-0.081	-0.171
-599.069	33.680	0.024	0.022
-598.055	77.646	0.032	0.034
-597.040	373.197	0.103	-0.212
-596.025	-70.657	-0.256	-0.098
-595.011	242.440	0.146	-0.248
-593.996	-58.852	0.275	-0.121
-592.982	-142.760	0.306	-0.030
-591.967	175.532	0.057	-0.083
-590.952	-200.000	0.020	-0.180
-589.938	346.601	0.145	0.291
-588.923	-179.555	-0.102	-0.002
-587.909	-45.239	0.299	0.151
-586.894	-44.003	-0.128	0.065
-585.879	36.370	-0.111	0.099
-584.865	-117.437	-0.100	-0.018
-583.850	83.899	-0.101	-0.112
-582.836	9.817	-0.134	0.104
-581.821	138.779	0.086	-0.115
-580.806	50.197	-0.393	-0.377
-579.792	-200.000	0.032	-0.205
-578.777	46.182	0.203	-0.191
-577.763	-200.000	-0.001	0.097
-576.748	-80.126	0.180	-0.061
-575.733	-90.082	-0.149	0.044
-574.719	114.694	0.122	0.151
-573.704	-200.000	-0.037	-0.266
-572.690	340.636	-0.141	-0.280
-571.675	-200.000	0.068	-0.455
-570.661	-73.130	-0.310	0.115
-569.646	800.000	-0.045	0.199
-568.631	352.649	-0.048	0.097
-567.617	-100.821	-0.274	0.069
-566.602	-200.000	-0.054	-0.267
-565.588	-158.525	-0.275	0.016
-564.573	800.000	-0.041	-0.172
-563.558	19.003	-0.229	0.186
-562.544	268.567	0.077	0.138
-561.529	716.546	-0.058	-0.156
-560.515	-2.981	0.075	0.053
-559.500	-176.325	-0.346	0.009
-558.485	387.097	0.083	-0.174
-557.471	-200.000	-0.006	-0.078
-556.456	800.000	-0.138	0.391
-555.442	-200.000	0.030	0.311
-554.427	184.954	-0.159	-0.240
-553.412	800.000	-0.036	0.115
-552.398	157.538	-0.114	-0.161
-551.383	-200.000	-0.003	0.098
-550.369	800.000	0.104	0.396
-549.354	-147.543	-0.075	-0.006
-548.339	239.254	-0.125	-0.212
-547.325	-189.555	0.308	-0.004
-546.310	421.737	-0.153	0.333
-545.296	-94.248	-0.201	-0.056
-544.281	262.653	0.071	0.124
-543.266	-131.490	-0.279	-0.037
-542.252	411.513	0.152	-0.328
-541.237	-44.185	0.165	-0.084
-540.223	-36.632	0.379	-0.207
-539.208	41.246	-0.112	0.103
-538.193	145.541	-0.136	-0.185
-537.179	-72.329	0.102	0.038
-536.164	-122.755	-0.347	0.057
-535.150	155.823	-0.059	-0.083
-534.135	-200.000	-0.012	-0.088
-533.121	55.960	-0.163	-0.160
-532.106	22.555	-0.090	0.075
-531.091	-200.000	-0.013	-0.079
-530.077	-13.224	0.220	-0.145
-529.062	-18.489	-0.168	-0.106
-528.048	-44.031	0.243	0.124
-527.033	216.227	0.127	0.204
-526.018	21.724	-0.205	-0.169
-525.004	800.000	0.048	0.138
-523.989	-59.454	-0.266	-0.116
-522.975	559.253	0.097	-0.237
-521.960	4.884	0.109	0.081
-520.945	-58.989	0.238	0.104
-519.931	-177.794	-0.068	-0.002
-518.916	-200.000	-0.012	-0.126
-517.902	-88.757	0.128	0.039
-516.887	-92.957	-0.204	0.058
-515.872	173.555	0.134	-0.196
-514.858	195.061	0.035	-0.053
-513.843	-200.000	0.019	0.121
-512.829	10.798	-0.027	0.021
-511.814	-200.000	0.014	0.085
-510.799	-56.142	-0.300	-0.135
-509.785	431.546	0.032	-0.071
-508.770	-29.463	-0.098	0.057
-507.756	-200.000	0.031	-0.209
-506.741	279.179	-0.051	0.093
-505.726	522.370	0.020	0.049
-504.712	-200.000	-0.004	-0.186
-503.697	-200.000	0.010	-0.084
-502.683	-200.000	-0.029	-0.271
-501.668	127.726	-0.202	-0.260
-500.653	-200.000	0.046	0.374
-499.639	-200.000	-0.019	-0.147
-498.624	71.720	-0.058	0.061
-497.610	-64.122	0.370	-0.153
-496.595	59.371	-0.113	-0.112
-495.581	-159.995	-0.136	0.008
-494.566	-67.128	-0.068	0.027
-493.551	-134.143	-0.293	-0.037
-492.537	-200.000	0.030	-0.163
-491.522	-200.000	0.022	-0.142
-490.508	-132.665	0.287	0.037
-489.493	-43.057	-0.090	-0.046
-488.478	-98.752	0.217	-0.056
-487.464	800.000	0.089	-0.261
-486.449	229.987	-0.127	0.210
-485.435	-178.249	0.142	0.003
-484.420	-105.222	-0.085	0.020
-483.405	17.718	-0.118	0.095
-482.391	193.638	0.006	0.009
-481.376	138.976	-0.119	-0.158
-480.362	188.843	-0.172	-0.261
-479.347	-39.910	-0.340	0.179
-478.332	800.000	0.089	-0.389
-477.318	-165.863	-0.163	0.007
-476.303	-200.000	-0.083	0.375
-475.289	-113.543	-0.336	-0.067
-474.274	-153.676	-0.171	-0.012
-473.259	800.000	0.098	0.318
-472.245	-83.428	0.145	-0.047
-471.230	436.477	0.164	0.361
-470.216	-200.000	-0.015	-0.219
-469.201	546.459	0.051	0.123
-468.186	164.033	0.153	-0.217
-467.172	510.984	0.053	0.124
-466.157	-200.000	-0.027	-0.131
-465.143	1.962	-0.090	-0.066
-464.128	-200.000	0.002	0.080
-463.113	-200.000	-0.032	-0.294
-462.099	-42.400	-0.243	0.125
-461.084	-40.318	-0.156	0.082
-460.070	163.981	-0.100	0.142
-459.055	17.918	-0.102	-0.082
-458.040	-71.344	0.221	0.084
-457.026	-200.000	-0.060	-0.334
-456.011	48.054	0.191	-0.180
-454.997	230.694	0.055	-0.091
-453.982	-200.000	0.007	0.125
-452.968	-58.842	0.184	-0.080
-451.953	157.981	-0.205	-0.287
-450.938	437.534	-0.084	0.186
-449.924	23.827	0.274	-0.229
-448.909	-46.138	0.235	0.117
-447.895	-129.762	-0.163	0.023
-446.880	-57.595	-0.314	0.139
-445.865	216.824	-0.210	-0.337
-444.851	-200.000	-0.032	0.245
-443.836	79.397	0.389	0.422
-442.822	-185.148	-0.111	0.002
-441.807	234.663	-0.215	0.358
-440.792	179.314	-0.151	-0.223
-439.778	800.000	-0.034	0.130
-438.763	636.137	-0.196	0.504
-437.749	279.019	-0.067	0.121
-436.734	-95.705	0.170	0.046
-435.719	-76.077	-0.179	-0.064
-434.705	-200.000	0.027	0.315
-433.690	-12.521	0.158	0.104
-432.676	-200.000	-0.003	0.235
-431.661	224.443	0.127	0.207
-430.646	-179.187	0.269	0.006
-429.632	-200.000	-0.031	-0.182
-428.617	-148.307	-0.182	-0.015
-427.603	-200.000	0.008	-0.080
-426.588	303.236	0.083	-0.156
-425.573	95.070	0.077	-0.088
-424.559	-91.892	-0.185	-0.053
-423.544	-42.107	-0.157	0.081
-422.530	50.094	-0.197	-0.187
-421.515	-200.000	0.035	0.299
-420.500	-200.000	0.021	0.104
-419.486	-60.230	0.182	-0.078
-418.471	298.376	-0.054	-0.100
-417.457	537.093	-0.092	0.220
-416.442	-163.588	0.324	-0.015
-415.428	-200.000	-0.007	0.040
-414.413	135.015	-0.113	-0.149
-413.398	-38.953	0.187	0.099
-412.384	764.853	-0.056	0.153
-411.369	148.167	0.171	0.233
-410.355	124.853	0.154	-0.196
-409.340	73.031	-0.052	-0.055
-408.325	-142.413	0.163	-0.016
-407.311	2.352	-0.012	-0.009
-406.296	321.656	0.109	0.209
-405.282	-143.268	0.240	-0.023
-404.267	106.498	-0.102	0.123
-403.252	-164.832	0.304	0.014
-402.238	242.159	0.114	-0.192
-401.223	800.000	0.026	0.080
-400.209	-200.000	-0.031	0.240
-399.194	12.887	-0.215	-0.168
-398.179	166.634	0.107	0.153
-397.165	166.498	0.039	0.055
-396.150	-107.862	-0.088	0.019
-395.136	33.377	-0.035	0.031
-394.121	-6.157	-0.153	0.105
-393.106	-84.513	0.260	-0.083
-392.092	27.344	-0.299	-0.253
-391.077	-28.060	0.248	-0.145
-390.063	150.295	0.135	0.185
-389.048	-200.000	0.042	-0.339
-388.033	509.935	0.061	-0.143
-387.019	-113.186	0.195	-0.039
-386.004	-106.014	-0.036	-0.008
-384.990	-200.000	0.037	0.581
-383.975	565.282	-0.017	0.040
-382.960	60.045	-0.100	0.100
-381.946	61.764	-0.075	-0.075
-380.931	89.955	0.182	0.205
-379.917	-81.672	-0.075	0.025
-378.902	150.245	-0.240	-0.328
-377.888	-200.000	-0.008	-0.161
-376.873	-13.988	-0.195	-0.127
-375.858	-120.546	0.111	-0.019
-374.844	800.000	-0.048	-0.191
-373.829	-72.113	-0.316	-0.118
-372.815	-171.518	0.068	-0.002
-371.800	800.000	0.028	-0.101
-370.785	-200.000	0.020	-0.103
-369.771	38.854	-0.237	0.213
-368.756	-27.925	0.199	0.116
-367.742	-200.000	0.005	0.228
-366.727	305.738	-0.157	-0.294
-365.712	-10.914	0.042	-0.028
-364.698	28.271	-0.135	0.115
-363.683	-36.617	0.147	-0.080
-362.669	-200.000	-0.043	0.279
-361.654	579.339	0.111	-0.275
-360.639	271.819	-0.165	-0.292
-359.625	-67.555	0.105	-0.041
-358.610	800.000	-0.045	-0.171
-357.596	-34.445	0.138	0.076
-356.581	-200.000	-0.034	-0.262
-355.566	154.542	-0.178	0.246
-354.552	800.000	0.081	0.301
-353.537	167.237	-0.085	0.121
-352.523	25.835	0.112	-0.094
-351.508	-200.000	0.011	-0.089
-350.493	118.373	-0.091	0.113
-349.479	-200.000	-0.001	-0.268
-348.464	242.211	0.059	0.100
-347.450	626.753	0.037	0.094
-346.435	-81.587	0.133	-0.044
-345.420	121.401	-0.217	0.272
-344.406	-95.469	-0.284	0.077
-343.391	222.640	0.167	0.271
-342.377	95.494	-0.053	0.061
-341.362	-165.282	0.076	0.003
-340.348	800.000	-0.030	0.090
-339.333	-200.000	0.040	0.342
-338.318	-121.263	0.180	-0.030
-337.304	139.131	-0.076	-0.101
-336.289	-42.720	-0.261	-0.133
-335.275	244.649	0.132	-0.224
-334.260	41.489	-0.162	0.148
-333.245	454.237	0.073	0.164
-332.231	27.131	-0.176	-0.148
-331.216	11.452	0.202	0.156
-330.202	-89.081	0.249	0.074
-329.187	169.380	0.165	-0.237
-328.172	-200.000	-0.008	-0.086
-327.158	239.434	0.049	-0.083
-326.143	226.119	-0.177	0.288
-325.129	518.893	-0.082	0.193
-324.114	-92.551	0.414	-0.117
-323.099	800.000	-0.100	-0.437
-322.085	-200.000	-0.035	-0.296
-321.070	-35.444	0.072	0.039
-320.056	428.457	0.105	0.228
-319.041	-145.039	0.294	-0.027
-318.026	-93.066	-0.238	-0.067
-317.012	800.000	0.055	-0.179
-315.997	4.869	-0.052	0.039
-314.983	62.252	0.102	-0.102
-313.968	800.000	-0.083	-0.278
-312.953	-145.586	-0.328	0.030
-311.939	9.358	-0.452	0.344
-310.924	800.000	0.030	0.100
-309.910	614.092	0.040	0.100
-308.895	466.000	0.189	0.426
-307.880	107.323	0.106	-0.127
-306.866	800.000	0.033	-0.092
-305.851	195.474	-0.043	0.066
-304.837	250.138	0.153	-0.262
-303.822	102.090	-0.241	-0.282
-302.807	800.000	-0.025	-0.087
-301.793	800.000	-0.057	0.228
-300.778	-200.000	-0.040	0.491
-299.764	97.415	-0.110	-0.127
-298.749	-29.747	-0.295	0.169
-297.735	-43.121	0.132	0.067
-296.720	31.205	-0.274	0.236
-295.705	87.143	0.159	-0.177
-294.691	106.029	0.252	0.300
-293.676	-200.000	-0.043	-0.246
-292.662	50.430	0.221	-0.210
-291.647	38.971	-0.079	0.071
-290.632	-25.447	-0.113	-0.067
-289.618	65.386	0.152	0.154
-288.603	-36.873	-0.194	0.104
-287.589	1.502	0.337	0.243
-286.574	-23.893	0.257	0.154
-285.559	-148.908	0.301	0.024
-284.545	-45.163	0.040	-0.020
-283.530	-200.000	-0.010	-0.494
-282.516	203.963	-0.023	0.036
-281.501	538.615	0.126	0.301
-280.486	112.772	0.181	-0.220
-279.472	-105.267	0.036	-0.008
-278.457	-61.048	-0.145	-0.062
-277.443	50.272	0.287	0.272
-276.428	-124.689	0.348	0.054
-275.413	-102.911	-0.337	-0.080
-274.399	-200.000	-0.014	0.123
-273.384	71.341	0.291	0.303
-272.370	192.154	-0.188	-0.285
-271.355	130.707	-0.094	-0.121
-270.340	211.175	0.108	-0.171
-269.326	411.732	0.142	-0.303
-268.311	-77.924	0.148	0.051
-267.297	800.000	-0.086	-0.285
-266.282	-27.942	0.160	-0.093
-265.267	-200.000	0.020	0.284
-264.253	91.390	-0.057	0.064
-263.238	800.000	0.052	-0.161
-262.224	-200.000	0.005	0.061
-261.209	7.585	0.347	0.260
-260.195	67.056	-0.103	0.106
-259.180	301.527	-0.192	-0.356
-258.165	-200.000	0.086	0.445
-257.151	-143.976	-0.119	-0.011
-256.136	-149.897	0.104	0.008
-255.122	174.837	-0.165	-0.239
-254.107	-10.478	0.122	-0.081
-253.092	-87.206	0.212	0.065
-252.078	-72.778	-0.312	0.115
-251.063	203.172	0.109	-0.168
-250.049	117.666	0.126	-0.155
-249.034	396.423	-0.055	-0.116
-248.019	-74.712	0.284	0.102
-247.005	-4.380	-0.180	0.125
-245.990	-200.000	0.035	-0.431
-244.976	29.567	0.118	0.101
-243.961	800.000	-0.093	0.304
-242.946	-88.696	0.208	0.062
-241.932	-104.489	-0.161	0.037
-240.917	409.812	0.080	0.169
-239.903	315.514	-0.125	-0.237
-238.888	800.000	0.027	0.089
-237.873	-200.000	-0.087	0.534
-236.859	-72.254	-0.098	0.036
-235.844	182.805	0.178	0.264
-234.830	-143.224	0.303	0.029
-233.815	-48.434	-0.058	0.028
-232.800	800.000	-0.068	0.290
-231.786	-44.878	0.221	-0.110
-230.771	-51.440	0.322	-0.151
-229.757	-200.000	-0.030	-0.270
-228.742	-200.000	0.001	-0.238
-227.727	-115.039	0.077	-0.015
-226.713	1.242	0.175	0.126
-225.698	-174.113	0.065	0.002
-224.684	290.614	0.158	0.287
-223.669	42.325	-0.211	-0.192
-222.655	-21.424	-0.150	0.092
-221.640	-109.115	0.037	0.008
-220.625	183.360	-0.187	-0.277
-219.611	250.558	0.099	-0.169
-218.596	-127.871	0.591	-0.085
-217.582	-79.454	0.174	-0.059
-216.567	-37.922	-0.008	-0.005
-215.552	-103.926	-0.074	-0.017
-214.538	298.513	-0.085	0.157
-213.523	-200.000	-0.017	0.088
-212.509	-200.000	0.018	0.381
-211.494	-54.258	-0.228	-0.104
-210.479	131.229	0.079	0.101
-209.465	77.992	0.132	-0.141
-208.450	100.848	0.118	-0.137
-207.436	23.707	0.193	-0.159
-206.421	-116.173	0.245	-0.045
-205.406	-200.000	0.022	0.097
-204.392	-65.143	-0.118	0.048
-203.377	800.000	-0.132	0.401
-202.363	86.927	-0.071	-0.078
-201.348	-70.857	0.063	-0.024
-200.333	117.595	0.076	0.094
-199.319	-107.066	0.258	0.057
-198.304	800.000	-0.102	0.307
-197.290	-200.000	0.019	-0.191
-196.275	-200.000	-0.005	-0.044
-195.260	77.171	-0.162	0.172
-194.246	56.037	-0.071	-0.069
-193.231	432.811	-0.143	0.311
-192.217	42.251	-0.139	-0.126
-191.202	-200.000	-0.018	-0.385
-190.187	126.071	-0.144	-0.182
-189.173	800.000	-0.098	0.276
-188.158	-45.650	-0.354	0.175
-187.144	170.360	-0.176	0.252
-186.129	-183.784	-0.101	0.002
-185.114	406.151	0.149	0.316
-184.100	-200.000	0.010	0.112
-183.085	-93.694	0.068	-0.019
-182.071	213.416	-0.081	-0.129
-181.056	800.000	0.060	-0.190
-180.042	-5.605	0.059	0.041
-179.027	-116.876	0.161	0.030
-178.012	-38.016	-0.133	-0.071
-176.998	-200.000	0.023	0.177
-175.983	31.266	0.190	-0.164
-174.969	47.791	0.264	0.246
-173.954	-68.862	-0.178	0.069
-172.939	-153.547	0.337	0.023
-171.925	214.103	0.147	0.233
-170.910	477.799	-0.044	-0.100
-169.896	-61.342	0.281	0.118
-168.881	-117.747	-0.150	0.027
-167.866	716.917	0.029	0.076
-166.852	357.886	0.025	0.049
-165.837	-37.018	0.142	0.076
-164.823	554.316	0.092	-0.222
-163.808	-76.086	0.225	0.080
-162.793	-200.000	0.004	-0.035
-161.779	86.095	-0.195	0.214
-160.764	786.192	-0.032	-0.089
-159.750	-178.407	-0.200	-0.005
-158.735	-61.101	0.370	0.156
-157.720	800.000	0.104	0.355
-156.706	440.086	-0.166	-0.363
-155.691	67.859	0.112	-0.115
-154.677	227.998	-0.148	0.240
-153.662	-200.000	-0.038	-0.322
-152.647	212.024	-0.187	0.294
-151.633	25.288	-0.277	0.230
-150.618	-200.000	0.021	0.295
-149.604	800.000	0.050	-0.158
-148.589	-200.000	0.007	0.173
-147.574	-109.127	0.395	-0.084
-146.560	-51.057	0.320	0.150
-145.545	-71.803	0.328	-0.122
-144.531	-131.961	0.409	0.053
-143.516	800.000	-0.064	-0.229
-142.502	276.152	0.107	-0.190
-141.487	-91.888	0.212	0.060
-140.472	-140.486	-0.396	0.041
-139.458	102.084	0.074	0.086
-138.443	245.063	-0.168	0.282
-137.429	2.028	-0.292	0.210
-136.414	-66.565	0.340	0.135
-135.399	35.013	-0.066	-0.058
-134.385	-59.370	-0.263	-0.113
-133.370	67.283	-0.124	-0.126
-132.356	95.416	0.151	-0.172
-131.341	-135.057	0.150	-0.018
-130.326	-94.518	-0.200	0.054
-129.312	-44.586	0.212	-0.106
-128.297	168.056	0.370	0.526
-127.283	86.525	-0.061	-0.067
-126.268	-200.000	0.017	-0.120
-125.253	-200.000	-0.041	-0.216
-124.239	-45.415	0.162	0.080
-123.224	-6.644	0.345	0.235
-122.210	-103.937	-0.325	-0.076
-121.195	134.208	-0.036	-0.047
