DTS Sentinel unit serial number:	SN413079Multiplexer serial number:	ORYXHardware model number:	OX4-SRSoftware version number:	ORYX F/W v4.00 Oryx Data Collector v3.7.2.0data status	okinstallation	princeton_trtdifferential loss correction	single-endedforward channel	channel 3reverse channel	N/Adate	2019/09/13time	16:20:35forward acquisition time	60.00reverse acquisition time	0.00gamma	496.2192k internal	0.2302k external	0.2302temperature offset calibration	1.0146default loss term (dB/km)	0.3790temperature slope calibration	1.0000multiplexer offset coefficient	1.0000multiplexer slope coefficient	1.0000fibre end	0.00T internal ref (°C)	34.94T ext. ref 1 (°C)	4.87T ext. ref 2 (°C)	31.24length (m)	temperature (°C)	Stokes	anti-Stokes-747.200	143.953	-0.104	0.141
-746.185	62.943	-0.111	0.113
-745.171	538.773	0.137	0.331
-744.156	-57.967	0.029	0.013
-743.142	119.599	-0.005	-0.006
-742.127	576.386	-0.166	0.413
-741.112	-59.853	0.165	-0.072
-740.098	-200.000	-0.028	0.142
-739.083	111.519	-0.053	0.066
-738.069	-117.796	-0.182	-0.033
-737.054	-7.128	0.098	0.067
-736.039	-145.432	-0.126	-0.012
-735.025	-200.000	-0.036	0.282
-734.010	-0.796	-0.234	-0.169
-732.996	61.719	-0.131	0.133
-731.981	-59.632	-0.213	-0.093
-730.966	-200.000	-0.021	-0.112
-729.952	-187.481	-0.273	-0.004
-728.937	800.000	0.038	-0.124
-727.923	29.101	-0.114	0.099
-726.908	377.170	-0.094	0.195
-725.894	50.305	-0.160	-0.154
-724.879	102.529	-0.170	0.202
-723.864	-9.457	-0.295	0.200
-722.850	800.000	-0.037	-0.108
-721.835	512.136	-0.141	-0.334
-720.821	-95.937	0.154	0.042
-719.806	39.005	0.145	-0.132
-718.791	-101.344	-0.094	-0.023
-717.777	-146.242	-0.254	-0.023
-716.762	193.249	-0.093	0.144
-715.748	-21.088	0.186	0.116
-714.733	748.130	-0.052	0.144
-713.718	-200.000	-0.039	-0.231
-712.704	36.059	0.101	-0.090
-711.689	-63.993	-0.364	-0.152
-710.675	-77.001	0.290	-0.103
-709.660	-67.042	0.197	0.079
-708.645	-130.986	-0.419	-0.057
-707.631	440.057	0.106	-0.235
-706.616	277.550	-0.137	0.249
-705.602	-125.945	0.263	-0.040
-704.587	-171.696	0.412	0.014
-703.572	-114.578	-0.169	-0.033
-702.558	-96.974	-0.138	-0.037
-701.543	-200.000	0.050	0.269
-700.529	-81.639	0.010	-0.003
-699.514	472.205	-0.160	-0.366
-698.499	109.423	0.090	-0.110
-697.485	-79.361	0.269	-0.093
-696.470	-182.288	-0.291	0.006
-695.456	-4.449	-0.124	0.087
-694.441	800.000	0.011	0.032
-693.426	178.595	0.109	0.163
-692.412	29.430	-0.206	0.178
-691.397	-33.799	-0.203	0.114
-690.383	125.263	-0.034	-0.043
-689.368	800.000	-0.106	0.313
-688.354	-126.662	-0.116	0.018
-687.339	27.656	-0.310	-0.265
-686.324	-152.881	-0.070	-0.005
-685.310	-176.017	-0.155	-0.004
-684.295	-50.240	-0.283	-0.136
-683.281	75.917	-0.036	0.039
-682.266	-66.633	0.044	-0.018
-681.251	-41.198	0.103	-0.054
-680.237	-105.357	0.170	-0.039
-679.222	-200.000	0.062	-0.369
-678.208	-121.397	-0.068	0.012
-677.193	-200.000	-0.001	-0.110
-676.178	575.705	-0.138	-0.343
-675.164	0.011	-0.229	0.166
-674.149	-80.423	-0.125	0.042
-673.135	6.401	0.068	-0.052
-672.120	-63.031	0.186	0.078
-671.105	-186.803	0.176	0.003
-670.091	23.340	-0.165	0.138
-669.076	-152.076	-0.586	-0.043
-668.062	-114.176	-0.107	-0.021
-667.047	351.803	-0.187	-0.375
-666.032	800.000	-0.046	0.148
-665.018	-58.478	0.255	-0.112
-664.003	-200.000	0.045	0.404
-662.989	-1.480	-0.357	0.256
-661.974	448.047	0.115	-0.256
-660.959	57.350	-0.406	-0.402
-659.945	800.000	0.052	0.174
-658.930	-18.949	0.196	0.124
-657.916	353.058	-0.079	0.160
-656.901	-200.000	0.045	-0.322
-655.886	-86.831	0.287	-0.089
-654.872	31.215	0.182	0.158
-653.857	-12.880	0.058	0.038
-652.843	800.000	-0.055	0.196
-651.828	104.635	-0.241	0.288
-650.814	-85.420	-0.516	0.163
-649.799	-200.000	0.046	-0.282
-648.784	-45.257	-0.336	0.170
-647.770	-200.000	-0.026	0.209
-646.755	-56.441	0.175	0.079
-645.741	193.081	-0.133	-0.204
-644.726	-200.000	-0.012	0.305
-643.711	-200.000	-0.002	0.022
-642.697	-200.000	-0.025	-0.180
-641.682	-200.000	-0.007	-0.038
-640.668	-145.448	0.318	0.029
-639.653	111.354	-0.055	-0.068
-638.638	18.156	-0.051	-0.041
-637.624	64.983	0.234	-0.240
-636.609	40.382	-0.154	-0.140
-635.595	-200.000	-0.024	-0.131
-634.580	-200.000	-0.004	-0.146
-633.565	-94.188	0.188	-0.052
-632.551	-75.588	-0.193	0.070
-631.536	-111.248	0.167	-0.035
-630.522	-94.686	-0.174	-0.048
-629.507	-200.000	-0.032	-0.452
-628.492	-112.568	-0.208	0.042
-627.478	-60.203	0.210	0.091
-626.463	349.003	0.113	-0.226
-625.449	22.916	0.252	-0.210
-624.434	453.253	-0.127	-0.285
-623.419	800.000	0.052	-0.180
-622.405	-63.993	-0.156	-0.065
-621.390	15.271	-0.217	0.173
-620.376	-200.000	0.029	0.183
-619.361	59.727	0.135	0.135
-618.346	-6.354	0.198	-0.137
-617.332	569.926	-0.021	0.053
-616.317	52.039	0.232	-0.224
-615.303	-200.000	-0.011	0.086
-614.288	-151.784	0.091	0.007
-613.273	-200.000	0.032	0.180
-612.259	121.353	-0.248	0.313
-611.244	-15.690	-0.244	0.158
-610.230	800.000	-0.074	0.248
-609.215	356.899	-0.155	-0.312
-608.201	-200.000	-0.020	-0.308
-607.186	-105.507	-0.238	-0.055
-606.171	181.522	0.106	-0.158
-605.157	328.178	0.151	-0.293
-604.142	22.090	-0.182	-0.151
-603.128	-118.234	0.073	-0.013
-602.113	-7.992	-0.376	-0.257
-601.098	-129.674	-0.025	0.003
-600.084	-200.000	-0.008	-0.209
-599.069	-30.259	0.203	0.117
-598.055	-130.640	0.177	0.024
-597.040	488.745	-0.044	0.102
-596.025	-149.795	0.232	-0.018
-595.011	706.439	-0.082	-0.220
-593.996	-111.063	0.152	0.032
-592.982	-200.000	-0.086	0.384
-591.967	800.000	-0.043	0.137
-590.952	379.549	-0.096	-0.199
-589.938	342.096	-0.146	-0.290
-588.923	33.252	0.083	-0.073
-587.909	67.557	-0.242	0.250
-586.894	661.770	-0.066	-0.172
-585.879	524.937	0.050	0.120
-584.865	-200.000	-0.023	-0.133
-583.850	-163.646	0.264	0.013
-582.836	82.365	-0.036	-0.040
-581.821	-26.704	0.288	-0.171
-580.806	457.424	-0.061	0.136
-579.792	-17.586	0.080	0.051
-578.777	-200.000	0.014	-0.202
-577.763	-200.000	0.015	-0.185
-576.748	-200.000	-0.009	-0.242
-575.733	210.588	-0.174	-0.277
-574.719	-200.000	0.082	0.447
-573.704	-200.000	-0.028	-0.155
-572.690	-200.000	-0.002	-0.054
-571.675	137.888	0.139	-0.184
-570.661	263.645	0.048	0.084
-569.646	-198.153	0.247	0.001
-568.631	150.138	0.354	-0.486
-567.617	-36.933	-0.236	0.128
-566.602	698.756	0.158	-0.421
-565.588	800.000	0.092	-0.393
-564.573	800.000	-0.049	-0.156
-563.558	-200.000	-0.028	-0.202
-562.544	0.098	-0.043	0.031
-561.529	-173.517	-0.190	-0.006
-560.515	-200.000	-0.040	-0.299
-559.500	515.867	-0.118	0.279
-558.485	736.013	-0.007	-0.018
-557.471	58.449	-0.295	-0.293
-556.456	-23.194	-0.188	0.114
-555.442	-38.087	0.251	0.134
-554.427	262.122	0.098	0.172
-553.412	-200.000	-0.066	-0.335
-552.398	800.000	0.054	-0.234
-551.383	-200.000	-0.032	0.158
-550.369	515.610	-0.125	-0.296
-549.354	-19.830	-0.137	0.086
-548.339	-66.926	-0.114	-0.046
-547.325	137.161	0.230	-0.304
-546.310	-200.000	-0.009	-0.110
-545.296	-163.170	-0.201	0.010
-544.281	60.752	-0.139	-0.140
-543.266	-200.000	-0.013	0.066
-542.252	49.650	-0.136	-0.130
-541.237	-102.704	-0.203	0.049
-540.223	-14.349	0.167	0.109
-539.208	131.219	-0.016	0.021
-538.193	122.351	-0.156	0.198
-537.179	-91.551	-0.149	-0.043
-536.164	-200.000	-0.029	-0.357
-535.150	-134.678	-0.385	-0.047
-534.135	-200.000	-0.170	-0.001
-533.121	401.998	-0.118	-0.251
-532.106	488.323	-0.134	0.310
-531.091	-25.967	-0.280	0.167
-530.077	800.000	-0.020	0.058
-529.062	20.480	-0.147	0.120
-528.048	-200.000	-0.004	0.166
-527.033	800.000	0.046	0.190
-526.018	179.896	0.079	-0.117
-525.004	-74.509	-0.062	-0.023
-523.989	20.062	-0.145	0.119
-522.975	-127.730	0.286	-0.042
-521.960	426.947	0.125	-0.273
-520.945	216.794	0.090	-0.144
-519.931	-179.866	0.232	-0.005
-518.916	-149.264	0.300	0.024
-517.902	-85.368	-0.230	0.073
-516.887	-81.035	0.066	0.022
-515.872	252.616	-0.181	0.312
-514.858	-9.482	0.121	-0.081
-513.843	-185.081	0.283	0.004
-512.829	-139.934	-0.127	-0.014
-511.814	98.454	-0.104	-0.121
-510.799	22.608	-0.239	-0.198
-509.785	-200.000	0.006	0.339
-508.770	564.592	0.048	0.118
-507.756	-150.844	0.248	0.019
-506.741	-200.000	-0.043	-0.265
-505.726	74.989	-0.106	-0.112
-504.712	78.728	-0.017	0.018
-503.697	-200.000	-0.018	-0.188
-502.683	-149.902	-0.210	0.017
-501.668	-100.731	-0.124	0.031
-500.653	-43.499	-0.077	0.039
-499.639	800.000	-0.033	0.139
-498.624	-200.000	-0.041	-0.203
-497.610	-188.299	-0.141	0.002
-496.595	93.874	0.116	0.133
-495.581	-112.098	-0.164	-0.033
-494.566	1.537	-0.087	-0.063
-493.551	-4.251	0.184	0.129
-492.537	-76.330	0.412	0.146
-491.522	102.130	-0.108	0.128
-490.508	154.094	-0.075	-0.104
-489.493	-200.000	0.027	0.287
-488.478	71.016	-0.105	0.109
-487.464	-200.000	0.037	-0.249
-486.449	-61.224	-0.179	-0.076
-485.435	800.000	-0.029	-0.123
-484.420	11.482	0.221	-0.171
-483.405	284.272	0.075	-0.137
-482.391	-188.953	0.206	0.003
-481.376	329.349	-0.158	-0.306
-480.362	800.000	-0.021	0.094
-479.347	5.293	-0.160	0.119
-478.332	800.000	0.029	-0.090
-477.318	-58.715	0.235	-0.102
-476.303	-200.000	-0.004	-0.226
-475.289	-88.982	-0.208	-0.062
-474.274	517.906	0.070	-0.166
-473.259	1.905	0.251	-0.182
-472.245	146.853	-0.087	-0.118
-471.230	-200.000	0.004	-0.197
-470.216	-46.169	0.163	-0.081
-469.201	800.000	0.075	-0.268
-468.186	-200.000	0.006	0.226
-467.172	279.582	0.104	0.186
-466.157	-89.320	-0.198	0.059
-465.143	-26.458	0.149	0.088
-464.128	-15.798	0.316	0.203
-463.113	515.939	0.150	0.353
-462.099	130.538	-0.045	-0.058
-461.084	-164.259	0.080	-0.004
-460.070	13.854	-0.305	-0.239
-459.055	8.062	0.107	-0.081
-458.040	100.366	-0.137	0.160
-457.026	141.081	-0.057	-0.076
-456.011	-158.776	0.314	-0.018
-454.997	92.831	-0.234	0.266
-453.982	28.033	-0.169	0.144
-452.968	-112.230	0.149	-0.030
-451.953	-70.622	0.326	-0.124
-450.938	-103.537	-0.322	-0.076
-449.924	-200.000	-0.008	0.057
-448.909	90.561	0.275	0.311
-447.895	-34.221	0.203	0.112
-446.880	39.307	0.180	0.162
-445.865	-27.651	-0.293	0.171
-444.851	-117.520	-0.110	0.020
-443.836	-175.882	-0.094	-0.003
-442.822	-200.000	-0.023	0.345
-441.807	-41.135	0.157	-0.081
-440.792	800.000	-0.035	0.129
-439.778	-8.926	0.193	0.130
-438.763	-69.948	-0.072	0.028
-437.749	-147.626	0.128	-0.011
-436.734	-163.280	-0.194	0.009
-435.719	104.426	-0.043	0.050
-434.705	85.597	-0.290	-0.321
-433.690	88.833	0.095	0.106
-432.676	-10.248	-0.184	-0.123
-431.661	5.466	-0.145	-0.108
-430.646	800.000	0.093	0.354
-429.632	-4.679	0.395	0.274
-428.617	343.174	0.093	0.183
-427.603	55.733	-0.088	-0.086
-426.588	-200.000	-0.006	0.190
-425.573	-200.000	0.000	-0.273
-424.559	800.000	-0.055	0.161
-423.544	-58.342	-0.266	-0.116
-422.530	-200.000	0.038	-0.352
-421.515	-82.095	0.247	0.081
-420.500	-193.357	0.318	-0.003
-419.486	-191.317	-0.204	-0.002
-418.471	-200.000	-0.027	0.277
-417.457	800.000	-0.025	0.108
-416.442	4.033	0.075	0.055
-415.428	548.644	-0.128	0.308
-414.413	-200.000	0.010	-0.086
-413.398	365.432	-0.114	0.231
-412.384	-200.000	0.023	-0.258
-411.369	-200.000	-0.019	-0.222
-410.355	54.211	0.191	0.185
-409.340	23.491	0.161	0.133
-408.325	800.000	0.040	0.129
-407.311	-67.085	0.356	0.141
-406.296	-82.559	-0.172	-0.056
-405.282	-200.000	0.012	-0.147
-404.267	-200.000	-0.026	0.122
-403.252	-60.346	0.401	-0.172
-402.238	330.368	0.106	0.206
-401.223	197.770	-0.035	-0.054
-400.209	-31.245	-0.311	0.176
-399.194	353.038	0.093	-0.186
-398.179	34.393	-0.139	-0.122
-397.165	-200.000	0.077	0.483
-396.150	-200.000	0.033	0.154
-395.136	-114.185	0.096	0.019
-394.121	-63.864	0.175	0.072
-393.106	-28.927	-0.026	0.015
-392.092	-153.498	-0.021	-0.001
-391.077	800.000	-0.052	0.222
-390.063	183.652	0.105	-0.156
-389.048	-20.417	0.361	-0.223
-388.033	114.382	0.038	0.046
-387.019	54.551	0.073	0.070
-386.004	800.000	-0.024	-0.089
-384.990	468.117	-0.109	0.245
-383.975	62.393	0.161	0.162
-382.960	-73.172	0.100	0.037
-381.946	-153.396	-0.051	-0.004
-380.931	-59.415	-0.086	-0.037
-379.917	-55.552	0.120	-0.054
-378.902	522.746	-0.075	-0.177
-377.888	-95.602	-0.262	-0.071
-376.873	316.746	-0.119	0.225
-375.858	800.000	0.084	0.268
-374.844	-200.000	0.002	0.168
-373.829	800.000	-0.038	0.128
-372.815	-33.081	0.120	0.067
-371.800	-109.236	-0.144	0.031
-370.785	120.233	-0.213	0.266
-369.771	154.196	-0.140	0.193
-368.756	-70.756	-0.360	-0.136
-367.742	-22.596	-0.314	-0.191
-366.727	-7.128	-0.058	0.040
-365.712	135.733	0.038	0.050
-364.698	-75.758	-0.175	0.062
-363.683	460.183	0.198	-0.444
-362.669	800.000	0.057	-0.192
-361.654	-26.635	-0.251	0.147
-360.639	-200.000	-0.023	-0.110
-359.625	-117.216	-0.353	-0.064
-358.610	95.943	-0.066	-0.076
-357.596	800.000	-0.040	0.123
-356.581	-200.000	0.035	-0.159
-355.566	-64.715	0.489	-0.199
-354.552	262.075	0.198	-0.345
-353.537	264.479	0.090	0.157
-352.523	-62.177	-0.173	0.072
-351.508	149.526	0.163	0.221
-350.493	-25.223	-0.162	-0.097
-349.479	-132.132	-0.453	0.059
-348.464	7.704	-0.209	0.157
-347.450	6.835	-0.161	-0.120
-346.435	-200.000	0.038	0.222
-345.420	91.924	0.092	-0.104
-344.406	448.844	0.172	0.380
-343.391	161.322	-0.073	-0.103
-342.377	-41.800	-0.083	-0.043
-341.362	18.790	0.249	0.200
-340.348	-200.000	-0.044	0.445
-339.333	188.679	0.037	-0.056
-338.318	-6.094	-0.131	-0.090
-337.304	-118.234	-0.044	0.008
-336.289	290.306	-0.088	-0.160
-335.275	-56.469	0.111	0.049
-334.260	-51.586	0.242	0.113
-333.245	-200.000	-0.005	-0.071
-332.231	-17.709	0.238	-0.150
-331.216	-56.824	0.197	0.088
-330.202	373.028	-0.049	-0.099
-329.187	310.353	-0.058	0.109
-328.172	-200.000	0.028	-0.162
-327.158	-107.412	-0.192	-0.042
-326.143	800.000	-0.055	0.160
-325.129	496.550	-0.115	0.264
-324.114	41.821	-0.255	0.232
-323.099	800.000	0.099	0.284
-322.085	1.190	0.164	0.118
-321.070	-200.000	0.055	0.379
-320.056	16.133	0.146	-0.115
-319.041	29.146	-0.236	-0.201
-318.026	90.840	0.159	0.179
-317.012	800.000	0.106	-0.336
-315.997	-200.000	-0.011	-0.115
-314.983	664.444	-0.113	-0.292
-313.968	-200.000	0.039	-0.188
-312.953	338.895	-0.135	0.264
-311.939	12.474	-0.049	-0.038
-310.924	-97.596	-0.185	-0.048
-309.910	193.579	0.094	-0.142
-308.895	82.151	-0.243	0.264
-307.880	-106.941	-0.053	-0.012
-306.866	-70.394	-0.145	0.055
-305.851	62.592	-0.284	-0.285
-304.837	-200.000	0.007	0.140
-303.822	236.374	-0.128	0.212
-302.807	800.000	-0.036	0.109
-301.793	800.000	0.029	-0.110
-300.778	108.321	0.246	0.294
-299.764	183.864	-0.061	-0.090
-298.749	-42.664	-0.105	0.054
-297.735	38.426	0.086	0.077
-296.720	-39.793	-0.104	0.054
-295.705	-52.490	0.430	0.199
-294.691	-144.406	0.381	0.035
-293.676	211.228	0.098	-0.155
-292.662	-35.641	0.157	-0.085
-291.647	-200.000	0.060	0.328
-290.632	-142.699	0.258	0.025
-289.618	-155.720	-0.307	0.020
-288.603	-200.000	0.031	0.299
-287.589	9.455	0.089	-0.067
-286.574	-200.000	-0.053	-0.379
-285.559	14.154	0.181	-0.141
-284.545	60.623	-0.079	0.079
-283.530	20.237	-0.115	-0.093
-282.516	-30.913	0.165	-0.093
-281.501	-146.794	-0.285	-0.025
-280.486	6.500	-0.066	-0.049
-279.472	800.000	-0.056	-0.156
-278.457	-200.000	0.055	-0.000
-277.443	-147.965	0.256	0.021
-276.428	784.442	-0.074	-0.202
-275.413	800.000	0.015	-0.055
-274.399	80.950	0.214	0.231
-273.384	-0.381	0.153	-0.109
-272.370	251.044	-0.157	0.268
-271.355	1.244	-0.273	0.196
-270.340	293.322	0.096	-0.175
-269.326	-6.001	-0.096	-0.066
-268.311	191.290	0.141	0.212
-267.297	-97.385	0.169	0.044
-266.282	-52.073	0.139	-0.065
-265.267	214.531	-0.037	0.058
-264.253	-85.977	-0.201	-0.062
-263.238	-200.000	-0.016	-0.131
-262.224	-131.447	-0.151	0.020
-261.209	172.586	0.258	0.371
-260.195	117.119	0.241	0.296
-259.180	-183.259	-0.168	0.003
-258.165	-160.556	-0.238	-0.013
-257.151	-129.064	0.156	-0.022
-256.136	-56.715	0.471	-0.208
-255.122	634.025	0.120	-0.305
-254.107	506.242	0.007	-0.017
-253.092	800.000	-0.061	0.250
-252.078	413.170	-0.055	-0.117
-251.063	-34.501	0.241	0.132
-250.049	800.000	0.078	0.323
-249.034	169.662	0.121	0.172
-248.019	98.484	-0.041	0.048
-247.005	199.123	0.066	0.101
-245.990	-143.510	0.271	0.026
-244.976	19.481	0.256	-0.206
-243.961	-200.000	0.021	-0.119
-242.946	-54.108	0.222	0.101
-241.932	55.602	0.135	0.131
-240.917	-95.678	0.086	-0.023
-239.903	48.361	-0.238	0.222
-238.888	118.642	0.025	0.030
-237.873	-200.000	-0.036	-0.235
-236.859	-200.000	-0.039	0.390
-235.844	-107.300	0.262	-0.058
-234.830	223.783	0.099	0.160
-233.815	44.962	-0.216	0.198
-232.800	-134.885	0.453	-0.055
-231.786	-118.628	0.225	0.040
-230.771	172.722	-0.153	-0.221
-229.757	800.000	-0.063	-0.257
-228.742	698.095	-0.082	-0.216
-227.727	314.514	0.056	0.105
-226.713	194.393	-0.257	0.388
-225.698	778.985	-0.096	0.262
-224.684	243.534	-0.178	0.298
-223.669	105.848	0.067	-0.080
-222.655	-200.000	0.001	-0.094
-221.640	800.000	0.090	-0.339
-220.625	-200.000	0.045	-0.226
-219.611	-54.810	-0.175	0.079
-218.596	-173.675	0.044	0.001
-217.582	439.034	-0.093	-0.203
-216.567	800.000	0.057	0.168
-215.552	-43.366	-0.375	0.189
-214.538	165.925	0.282	0.398
-213.523	-71.127	-0.112	0.042
-212.509	-42.871	-0.143	-0.073
-211.494	55.294	0.018	0.018
-210.479	148.682	-0.176	0.238
-209.465	448.178	0.128	0.282
-208.450	-200.000	0.034	-0.164
-207.436	338.708	0.112	-0.218
-206.421	-59.918	-0.390	-0.166
-205.406	-70.968	-0.086	-0.032
-204.392	-200.000	-0.000	-0.096
-203.377	603.187	0.032	0.079
-202.363	276.136	-0.067	0.118
-201.348	-200.000	0.061	0.408
-200.333	-139.401	0.065	-0.007
-199.319	-104.967	-0.130	0.030
-198.304	-130.740	-0.148	0.020
-197.290	800.000	-0.093	-0.339
-196.275	-200.000	0.020	-0.158
-195.260	530.821	0.101	-0.238
-194.246	800.000	0.148	-0.415
-193.231	-200.000	0.161	0.001
-192.217	154.397	-0.103	0.141
-191.202	-67.604	-0.199	0.078
-190.187	800.000	0.020	0.067
-189.173	-200.000	-0.030	-0.156
-188.158	778.491	-0.093	0.253
-187.144	155.591	0.178	-0.245
-186.129	-23.409	-0.146	-0.088
-185.114	168.312	-0.081	0.115
-184.100	-200.000	0.031	-0.182
-183.085	158.697	-0.137	-0.190
-182.071	800.000	-0.053	0.201
-181.056	800.000	0.032	-0.124
-180.042	209.885	0.048	0.075
-179.027	-117.920	0.162	0.029
-178.012	-153.265	-0.228	0.016
-176.998	59.386	0.220	-0.216
-175.983	55.034	-0.119	0.115
-174.969	706.526	-0.079	0.208
-173.954	590.058	-0.070	0.172
-172.939	-49.946	0.397	-0.188
-171.925	251.054	0.068	0.116
-170.910	800.000	0.075	0.223
-169.896	-115.390	0.332	0.062
-168.881	24.433	-0.379	0.313
-167.866	-200.000	-0.022	-0.105
-166.852	371.635	-0.125	-0.253
-165.837	-200.000	0.010	0.050
-164.823	-143.573	0.380	-0.036
-163.808	-161.704	-0.152	-0.008
-162.793	12.151	-0.079	-0.061
-161.779	112.116	-0.175	-0.210
-160.764	800.000	-0.045	-0.136
-159.750	-160.920	0.308	0.016
-158.735	-109.054	0.071	-0.015
-157.720	107.523	-0.130	0.154
-156.706	163.685	-0.147	0.206
-155.691	124.023	0.119	0.148
-154.677	800.000	0.049	-0.171
-153.662	-103.325	-0.079	0.019
-152.647	-41.752	-0.075	-0.038
-151.633	15.137	0.106	0.083
-150.618	69.308	-0.119	0.122
-149.604	569.352	-0.069	0.168
-148.589	165.820	-0.158	-0.223
-147.574	547.648	-0.078	-0.187
-146.560	-3.376	-0.058	0.040
-145.545	369.964	0.086	-0.174
-144.531	-107.711	-0.374	0.081
-143.516	-6.490	0.226	-0.154
-142.502	-58.144	-0.098	0.042
-141.487	200.329	-0.085	0.130
-140.472	-84.966	0.115	0.036
-139.458	-130.470	-0.152	-0.020
-138.443	220.500	0.095	-0.152
-137.429	-121.264	0.480	-0.080
-136.414	180.635	0.190	0.277
-135.399	152.463	0.175	0.238
-134.385	-126.389	-0.349	0.052
-133.370	-134.620	0.260	0.032
-132.356	800.000	0.009	0.030
-131.341	113.795	-0.132	0.160
-130.326	70.783	0.117	0.121
-129.312	-200.000	0.056	0.277
-128.297	-200.000	-0.044	-0.396
-127.283	-200.000	-0.006	-0.104
-126.268	131.379	0.059	-0.076
-125.253	-25.817	-0.396	-0.232
-124.239	800.000	-0.059	0.173
-123.224	-9.322	0.229	-0.152
-122.210	-119.354	0.208	0.036
