DTS Sentinel unit serial number:	SN413079Multiplexer serial number:	ORYXHardware model number:	OX4-SRSoftware version number:	ORYX F/W v4.00 Oryx Data Collector v3.7.2.0data status	okinstallation	princeton_trtdifferential loss correction	single-endedforward channel	channel 3reverse channel	N/Adate	2019/09/15time	09:52:34forward acquisition time	60.00reverse acquisition time	0.00gamma	496.2192k internal	0.2308k external	0.2308temperature offset calibration	0.9972default loss term (dB/km)	0.3790temperature slope calibration	1.0000multiplexer offset coefficient	1.0000multiplexer slope coefficient	1.0000fibre end	0.00T internal ref (°C)	34.05T ext. ref 1 (°C)	4.99T ext. ref 2 (°C)	29.82length (m)	temperature (°C)	Stokes	anti-Stokes-747.200	-22.886	0.178	0.109
-746.185	-200.000	0.068	0.312
-745.171	-148.228	-0.257	-0.022
-744.156	26.664	-0.093	0.079
-743.142	-200.000	-0.036	0.170
-742.127	-200.000	-0.018	0.266
-741.112	-180.520	-0.185	-0.004
-740.098	800.000	0.041	0.177
-739.083	8.241	-0.136	0.104
-738.069	675.936	-0.186	0.491
-737.054	64.575	-0.114	0.117
-736.039	-29.438	-0.164	0.095
-735.025	-200.000	0.035	0.169
-734.010	-114.697	-0.043	0.008
-732.996	-200.000	-0.008	-0.071
-731.981	-4.870	-0.065	-0.046
-730.966	-172.369	0.239	-0.008
-729.952	-91.038	0.150	0.044
-728.937	191.462	-0.126	-0.192
-727.923	145.607	-0.182	0.247
-726.908	723.980	-0.051	0.139
-725.894	75.064	0.234	-0.250
-724.879	18.862	-0.186	-0.151
-723.864	800.000	0.050	-0.142
-722.850	-171.999	-0.019	-0.001
-721.835	22.916	0.114	0.095
-720.821	2.853	-0.437	-0.322
-719.806	-63.902	0.032	-0.013
-718.791	7.358	-0.266	-0.202
-717.777	-106.660	-0.233	0.053
-716.762	134.180	-0.274	-0.361
-715.748	-111.837	-0.307	-0.063
-714.733	650.489	0.048	-0.124
-713.718	-15.706	-0.349	-0.226
-712.704	-200.000	0.038	-0.335
-711.689	28.998	-0.144	-0.124
-710.675	118.192	0.126	-0.157
-709.660	45.516	-0.371	0.347
-708.645	-150.980	0.048	0.004
-707.631	33.270	0.285	-0.251
-706.616	-41.279	-0.286	-0.150
-705.602	-9.780	0.253	0.171
-704.587	651.145	0.043	-0.113
-703.572	-48.942	-0.168	0.082
-702.558	-200.000	-0.006	-0.389
-701.543	-102.598	-0.203	0.049
-700.529	-85.555	0.371	0.117
-699.514	59.484	-0.152	0.152
-698.499	-26.561	-0.343	-0.204
-697.485	-37.591	0.191	-0.103
-696.470	153.980	0.108	0.150
-695.456	800.000	-0.141	0.440
-694.441	800.000	-0.119	-0.357
-693.426	301.260	-0.027	-0.052
-692.412	74.025	-0.184	0.196
-691.397	595.400	-0.045	0.114
-690.383	-82.514	-0.169	-0.056
-689.368	-200.000	-0.011	0.071
-688.354	111.745	0.302	-0.369
-687.339	44.022	-0.035	0.033
-686.324	-45.630	-0.098	-0.049
-685.310	-45.391	-0.147	0.074
-684.295	-200.000	-0.048	0.397
-683.281	-138.436	0.087	0.010
-682.266	310.945	-0.031	-0.058
-681.251	294.093	-0.155	-0.287
-680.237	-103.647	0.290	-0.069
-679.222	60.215	0.222	0.222
-678.208	-66.441	-0.538	0.217
-677.193	-113.494	0.030	0.006
-676.178	-5.657	-0.159	0.110
-675.164	542.884	0.126	0.306
-674.149	800.000	0.062	0.258
-673.135	149.304	-0.067	-0.092
-672.120	240.956	-0.260	0.440
-671.105	32.451	-0.194	0.170
-670.091	31.134	0.139	0.121
-669.076	-97.222	0.273	-0.072
-668.062	-14.303	-0.063	0.041
-667.047	-94.009	0.110	0.031
-666.032	-25.544	0.195	0.117
-665.018	-46.289	0.162	-0.081
-664.003	-130.471	-0.354	-0.049
-662.989	-200.000	-0.016	-0.251
-661.974	124.512	0.301	0.383
-660.959	800.000	0.090	-0.256
-659.945	28.720	0.235	0.202
-658.930	800.000	0.061	-0.196
-657.916	-161.090	0.011	0.001
-656.901	722.837	0.072	0.194
-655.886	-148.587	-0.277	-0.023
-654.872	216.308	0.170	0.274
-653.857	24.217	0.098	0.082
-652.843	61.537	-0.044	0.044
-651.828	-177.379	-0.298	-0.007
-650.814	73.537	0.029	-0.031
-649.799	800.000	0.062	-0.257
-648.784	252.424	0.029	0.050
-647.770	800.000	0.176	-0.521
-646.755	53.519	-0.104	-0.101
-645.741	-200.000	-0.006	0.059
-644.726	78.320	-0.060	-0.065
-643.711	-179.919	-0.131	-0.003
-642.697	-66.314	-0.054	-0.022
-641.682	-46.861	0.100	-0.049
-640.668	150.826	-0.200	-0.276
-639.653	-200.000	-0.021	-0.167
-638.638	800.000	0.060	0.229
-637.624	125.407	-0.246	0.314
-636.609	-135.696	0.253	-0.030
-635.595	-73.053	-0.267	0.099
-634.580	223.598	-0.131	-0.214
-633.565	-3.159	0.290	-0.205
-632.551	-79.329	0.129	-0.044
-631.536	800.000	-0.072	0.261
-630.522	-21.129	-0.284	0.176
-629.507	107.374	-0.173	0.209
-628.492	-200.000	0.022	0.473
-627.478	800.000	-0.020	0.063
-626.463	5.684	0.253	0.189
-625.449	77.774	0.219	-0.236
-624.434	2.296	0.029	-0.021
-623.419	84.230	-0.086	-0.095
-622.405	-162.264	0.272	0.014
-621.390	-1.626	-0.035	-0.025
-620.376	-200.000	0.025	-0.272
-619.361	800.000	-0.061	-0.171
-618.346	12.058	0.090	-0.070
-617.332	91.879	0.175	-0.199
-616.317	800.000	-0.049	-0.172
-615.303	-200.000	0.004	-0.253
-614.288	-42.465	0.072	-0.037
-613.273	80.354	0.109	-0.119
-612.259	-101.973	0.201	0.049
-611.244	77.656	0.035	-0.038
-610.230	-54.991	-0.097	0.044
-609.215	376.306	-0.031	-0.064
-608.201	29.353	0.087	0.075
-607.186	-147.548	0.059	-0.005
-606.171	-20.416	-0.153	0.095
-605.157	53.557	-0.070	0.068
-604.142	-138.591	0.132	0.015
-603.128	248.016	-0.097	0.166
-602.113	-200.000	-0.005	-0.053
-601.098	-140.082	0.110	0.012
-600.084	70.125	-0.126	-0.132
-599.069	-145.363	0.156	0.014
-598.055	800.000	0.085	-0.332
-597.040	773.177	0.131	0.360
-596.025	621.722	-0.164	-0.418
-595.011	2.757	0.147	-0.108
-593.996	-108.013	0.120	-0.026
-592.982	196.572	-0.050	-0.077
-591.967	338.170	0.024	0.048
-590.952	800.000	0.044	0.191
-589.938	111.485	-0.136	0.166
-588.923	-200.000	-0.044	-0.251
-587.909	-115.758	-0.155	-0.029
-586.894	-200.000	0.031	-0.150
-585.879	8.465	0.103	0.078
-584.865	271.121	-0.157	-0.280
-583.850	800.000	0.053	0.150
-582.836	5.247	-0.300	-0.223
-581.821	348.696	0.096	-0.191
-580.806	508.494	-0.097	-0.227
-579.792	141.316	-0.066	0.088
-578.777	1.442	-0.263	-0.191
-577.763	172.237	-0.132	0.192
-576.748	-42.008	-0.345	-0.179
-575.733	556.483	-0.123	0.300
-574.719	-200.000	-0.014	-0.094
-573.704	12.563	-0.230	-0.179
-572.690	297.371	0.163	-0.303
-571.675	-80.362	-0.249	-0.084
-570.661	800.000	-0.046	-0.173
-569.646	25.061	-0.083	0.069
-568.631	-81.389	-0.027	-0.009
-567.617	800.000	-0.016	0.053
-566.602	681.240	0.077	-0.203
-565.588	-106.753	-0.423	0.095
-564.573	-152.813	-0.243	-0.017
-563.558	72.230	-0.122	0.129
-562.544	-47.544	0.163	0.080
-561.529	125.418	-0.128	0.163
-560.515	-48.034	0.224	-0.109
-559.500	-200.000	0.022	0.157
-558.485	-200.000	0.006	0.117
-557.471	-68.172	0.142	-0.056
-556.456	-200.000	0.015	-0.145
-555.442	-149.154	-0.294	-0.024
-554.427	-200.000	0.025	0.300
-553.412	57.790	-0.100	0.098
-552.398	-76.985	-0.281	-0.099
-551.383	-200.000	0.010	0.294
-550.369	193.699	-0.154	0.235
-549.354	-163.982	0.369	0.017
-548.339	450.088	-0.048	-0.107
-547.325	-91.194	-0.142	0.041
-546.310	-200.000	0.033	0.285
-545.296	-95.239	-0.221	0.060
-544.281	-72.028	-0.431	0.161
-543.266	40.234	-0.314	0.285
-542.252	-10.495	-0.274	-0.183
-541.237	67.137	0.036	-0.037
-540.223	-42.366	0.174	-0.090
-539.208	800.000	-0.081	0.305
-538.193	206.452	-0.082	0.129
-537.179	-200.000	0.033	-0.202
-536.164	-161.260	-0.198	0.010
-535.150	-80.522	0.205	0.069
-534.135	99.196	0.136	0.159
-533.121	-93.598	0.195	0.054
-532.106	-200.000	-0.042	-0.408
-531.091	-200.000	-0.012	-0.133
-530.077	-111.491	-0.185	-0.038
-529.062	98.451	0.086	-0.100
-528.048	-73.695	-0.095	0.035
-527.033	-200.000	0.031	-0.293
-526.018	-106.118	-0.289	-0.065
-525.004	-200.000	0.017	-0.142
-523.989	219.557	0.133	-0.214
-522.975	-142.046	-0.075	-0.007
-521.960	-78.337	-0.278	-0.096
-520.945	-61.557	-0.189	0.080
-519.931	108.225	-0.120	0.144
-518.916	71.014	-0.188	-0.197
-517.902	75.497	-0.164	-0.174
-516.887	13.073	0.189	-0.148
-515.872	800.000	0.059	-0.240
-514.858	800.000	-0.030	-0.115
-513.843	231.162	-0.188	-0.310
-512.829	21.997	-0.199	-0.163
-511.814	75.000	-0.146	-0.155
-510.799	13.554	0.128	-0.100
-509.785	-22.212	0.158	0.097
-508.770	-53.405	0.313	0.145
-507.756	-7.506	0.112	-0.076
-506.741	800.000	-0.016	0.061
-505.726	-200.000	-0.018	0.110
-504.712	-67.854	-0.422	0.166
-503.697	-88.037	0.178	-0.054
-502.683	-200.000	0.053	0.238
-501.668	-51.095	-0.207	-0.098
-500.653	-200.000	-0.018	-0.081
-499.639	63.446	-0.092	-0.093
-498.624	-10.787	-0.252	0.168
-497.610	-200.000	0.015	-0.176
-496.595	249.792	-0.084	-0.144
-495.581	-200.000	0.007	-0.173
-494.566	61.088	-0.178	0.177
-493.551	109.837	-0.071	-0.086
-492.537	-70.717	-0.083	-0.032
-491.522	243.116	0.060	0.102
-490.508	322.165	0.067	-0.128
-489.493	-200.000	0.007	0.245
-488.478	-200.000	-0.017	0.163
-487.464	259.227	-0.100	0.173
-486.449	800.000	-0.080	-0.308
-485.435	-68.871	-0.273	-0.106
-484.420	800.000	-0.044	-0.132
-483.405	-113.789	-0.071	0.014
-482.391	-90.504	-0.051	0.015
-481.376	800.000	0.056	0.221
-480.362	81.537	-0.239	-0.260
-479.347	800.000	0.070	0.225
-478.332	-60.800	0.154	-0.066
-477.318	414.002	0.125	-0.269
-476.303	-51.584	0.191	-0.090
-475.289	168.836	-0.116	0.167
-474.274	421.543	-0.068	0.146
-473.259	800.000	0.029	0.102
-472.245	-77.970	-0.165	-0.057
-471.230	-200.000	-0.002	0.078
-470.216	101.058	0.109	0.128
-469.201	510.037	-0.230	0.537
-468.186	-38.591	-0.208	-0.110
-467.172	-34.570	0.045	0.025
-466.157	800.000	0.074	-0.233
-465.143	71.438	-0.116	-0.121
-464.128	-13.661	0.310	0.202
-463.113	-41.025	-0.074	-0.038
-462.099	-189.361	-0.369	-0.004
-461.084	-200.000	-0.057	0.262
-460.070	58.667	-0.125	0.124
-459.055	32.601	-0.122	-0.106
-458.040	-200.000	-0.006	-0.036
-457.026	181.615	0.164	0.243
-456.011	800.000	0.071	-0.209
-454.997	42.710	0.337	-0.309
-453.982	800.000	0.164	-0.501
-452.968	686.243	0.092	0.240
-451.953	139.035	-0.191	-0.253
-450.938	394.573	0.025	-0.053
-449.924	390.659	0.102	0.213
-448.909	232.715	-0.110	0.182
-447.895	-106.736	0.293	0.065
-446.880	800.000	0.137	0.459
-445.865	-200.000	0.322	0.001
-444.851	-200.000	0.005	0.300
-443.836	-152.606	-0.140	0.010
-442.822	6.163	-0.144	-0.107
-441.807	-30.896	-0.087	-0.049
-440.792	-200.000	0.090	-0.431
-439.778	-200.000	0.029	-0.191
-438.763	800.000	0.042	0.156
-437.749	800.000	-0.101	-0.357
-436.734	-200.000	-0.034	0.178
-435.719	490.192	0.069	-0.160
-434.705	-70.022	0.123	-0.047
-433.690	-128.024	0.389	0.056
-432.676	800.000	0.036	-0.136
-431.661	-24.843	0.122	-0.073
-430.646	-66.152	0.408	0.163
-429.632	-116.830	0.131	-0.024
-428.617	-48.591	0.173	0.084
-427.603	33.302	-0.204	-0.178
-426.588	-200.000	0.019	-0.163
-425.573	593.590	0.044	-0.110
-424.559	-117.984	0.349	-0.063
-423.544	7.098	0.232	-0.174
-422.530	60.844	0.256	-0.255
-421.515	29.931	0.215	0.184
-420.500	-69.448	-0.144	0.056
-419.486	28.569	0.263	0.224
-418.471	-52.604	0.030	-0.014
-417.457	72.365	-0.104	0.109
-416.442	-200.000	-0.010	0.257
-415.428	-130.804	-0.407	-0.055
-414.413	800.000	-0.021	-0.063
-413.398	44.867	0.023	0.021
-412.384	38.264	0.062	0.055
-411.369	-200.000	-0.030	-0.248
-410.355	800.000	-0.062	0.266
-409.340	-89.388	0.054	-0.016
-408.325	-44.345	0.431	0.216
-407.311	35.351	0.052	-0.046
-406.296	-99.216	-0.019	-0.005
-405.282	150.889	0.082	0.112
-404.267	113.367	0.176	-0.214
-403.252	312.051	0.049	-0.092
-402.238	-24.430	0.066	-0.040
-401.223	-155.157	0.221	0.014
-400.209	-94.035	-0.188	0.052
-399.194	-159.713	-0.205	0.011
-398.179	28.642	0.156	-0.132
-397.165	119.676	0.282	0.350
-396.150	23.085	0.353	0.290
-395.136	-200.000	-0.023	-0.311
-394.121	-110.781	0.026	0.005
-393.106	-46.138	0.127	-0.063
-392.092	-162.450	-0.093	-0.005
-391.077	177.726	0.137	0.201
-390.063	-200.000	-0.002	0.291
-389.048	680.521	0.160	0.418
-388.033	-30.002	-0.483	0.275
-387.019	-111.161	-0.185	0.038
-386.004	-166.095	-0.166	0.007
-384.990	284.401	0.179	0.323
-383.975	800.000	-0.046	-0.196
-382.960	-200.000	-0.080	0.373
-381.946	41.830	-0.159	-0.144
-380.931	10.104	-0.033	0.025
-379.917	659.796	-0.077	0.199
-378.902	-115.907	0.295	0.055
-377.888	800.000	-0.085	-0.240
-376.873	800.000	-0.009	-0.024
-375.858	-200.000	0.014	0.336
-374.844	629.581	0.112	-0.285
-373.829	78.388	0.077	-0.082
-372.815	-66.504	-0.384	-0.153
-371.800	98.367	0.185	-0.213
-370.785	-117.829	-0.293	0.053
-369.771	-52.032	-0.157	0.073
-368.756	-82.157	-0.260	0.085
-367.742	535.794	0.022	0.052
-366.727	-92.670	0.325	0.091
-365.712	-86.947	-0.251	-0.077
-364.698	96.321	0.149	0.170
-363.683	149.474	-0.219	0.297
-362.669	-2.568	-0.239	-0.167
-361.654	733.032	-0.046	-0.124
-360.639	-200.000	0.006	-0.111
-359.625	-200.000	-0.038	0.209
-358.610	800.000	-0.052	0.201
-357.596	-200.000	0.002	-0.093
-356.581	-200.000	-0.003	-0.268
-355.566	-112.891	-0.143	-0.028
-354.552	86.781	0.171	0.189
-353.537	800.000	0.070	-0.196
-352.523	77.960	-0.176	-0.188
-351.508	107.430	0.093	-0.111
-350.493	236.415	0.175	0.290
-349.479	232.111	-0.170	-0.279
-348.464	-94.303	0.149	0.041
-347.450	800.000	-0.041	-0.125
-346.435	-54.370	0.362	0.164
-345.420	0.133	0.319	0.228
-344.406	-51.913	0.267	0.124
-343.391	-200.000	-0.020	-0.374
-342.377	71.340	0.142	-0.148
-341.362	-200.000	0.032	-0.147
-340.348	492.743	-0.116	-0.266
-339.333	-200.000	0.009	-0.243
-338.318	52.958	0.146	-0.140
-337.304	-62.682	-0.186	-0.077
-336.289	172.168	-0.120	0.173
-335.275	108.941	-0.301	-0.360
-334.260	-134.495	-0.425	-0.052
-333.245	56.059	0.147	-0.142
-332.231	800.000	0.023	-0.102
-331.216	-200.000	0.006	0.098
-330.202	-181.854	-0.276	0.005
-329.187	557.887	-0.072	0.173
-328.172	-39.232	0.197	-0.104
-327.158	-19.780	-0.195	0.121
-326.143	146.344	-0.128	-0.171
-325.129	-53.983	0.118	0.054
-324.114	134.144	0.013	-0.017
-323.099	-30.738	0.195	-0.110
-322.085	188.285	0.144	0.216
-321.070	5.965	-0.181	-0.134
-320.056	418.793	-0.115	0.245
-319.041	-90.407	0.314	0.091
-318.026	112.087	0.183	0.221
-317.012	-200.000	0.026	0.247
-315.997	-56.226	0.208	0.092
-314.983	800.000	0.096	0.289
-313.968	-83.803	-0.186	0.059
-312.953	3.814	-0.157	-0.115
-311.939	115.548	-0.112	0.137
-310.924	-200.000	0.061	0.358
-309.910	14.574	-0.036	0.028
-308.895	-115.137	0.596	0.113
-307.880	-57.463	-0.346	0.152
-306.866	264.012	0.035	0.060
-305.851	-200.000	0.050	0.244
-304.837	243.764	-0.265	0.445
-303.822	-172.032	0.240	-0.008
-302.807	58.664	-0.061	-0.060
-301.793	-200.000	-0.007	-0.217
-300.778	-61.125	-0.200	0.085
-299.764	-6.681	-0.333	0.227
-298.749	45.097	0.116	0.107
-297.735	-200.000	-0.001	-0.184
-296.720	-140.216	-0.189	-0.020
-295.705	800.000	-0.014	0.043
-294.691	-200.000	-0.042	-0.221
-293.676	28.424	-0.229	-0.194
-292.662	169.119	-0.036	-0.051
-291.647	-200.000	0.007	-0.264
-290.632	293.257	-0.132	0.240
-289.618	-32.021	0.423	0.236
-288.603	-47.106	-0.168	0.082
-287.589	35.828	0.340	0.299
-286.574	152.176	0.344	0.468
-285.559	18.360	0.082	0.065
-284.545	-200.000	0.034	0.193
-283.530	-200.000	0.004	0.104
-282.516	30.251	0.259	0.221
-281.501	56.519	0.301	-0.293
-280.486	118.910	-0.180	0.222
-279.472	-61.260	0.263	-0.111
-278.457	-63.244	0.205	0.084
-277.443	-22.652	0.269	0.162
-276.428	-104.538	0.146	0.034
-275.413	-51.794	-0.214	-0.099
-274.399	-200.000	-0.018	-0.174
-273.384	268.493	0.131	-0.228
-272.370	-38.427	-0.115	-0.061
-271.355	-200.000	-0.338	0.000
-270.340	-106.073	0.464	0.104
-269.326	-75.309	-0.318	0.113
-268.311	-45.462	-0.115	-0.057
-267.297	138.262	0.112	-0.147
-266.282	378.548	0.036	-0.074
-265.267	800.000	-0.050	-0.165
-264.253	66.294	-0.100	0.101
-263.238	11.759	0.240	0.184
-262.224	193.189	0.309	0.466
-261.209	800.000	-0.095	-0.269
-260.195	800.000	0.087	-0.304
-259.180	-129.399	-0.150	0.021
-258.165	76.366	-0.165	0.174
-257.151	-128.181	0.079	0.011
-256.136	-200.000	0.092	0.416
-255.122	-70.311	-0.265	0.100
-254.107	-159.692	0.254	-0.014
-253.092	622.105	-0.021	-0.052
-252.078	-67.447	0.125	0.049
-251.063	58.777	-0.247	0.242
-250.049	800.000	-0.043	0.144
-249.034	-200.000	-0.031	-0.169
-248.019	364.786	-0.109	0.219
-247.005	15.606	-0.224	-0.175
-245.990	-39.351	0.134	0.070
-244.976	195.092	0.391	0.592
-243.961	312.308	0.094	-0.177
-242.946	25.931	-0.190	0.158
-241.932	108.170	-0.304	-0.361
-240.917	16.245	0.018	-0.014
-239.903	-200.000	-0.043	-0.313
-238.888	800.000	0.066	0.234
-237.873	-200.000	-0.009	0.105
-236.859	70.024	0.094	0.097
-235.844	460.998	0.046	0.102
-234.830	-88.571	0.265	0.079
-233.815	-62.970	0.112	-0.046
-232.800	63.527	0.226	-0.226
-231.786	-111.577	-0.147	-0.030
-230.771	800.000	-0.027	0.111
-229.757	-50.400	-0.092	-0.043
-228.742	674.873	0.081	-0.209
-227.727	56.957	-0.133	0.129
-226.713	-155.789	-0.095	0.006
-225.698	-137.063	-0.305	-0.035
-224.684	40.911	-0.019	0.017
-223.669	179.183	0.130	0.189
-222.655	-11.369	-0.151	0.099
-221.640	5.843	0.298	-0.220
-220.625	72.934	0.052	0.054
-219.611	71.567	0.315	0.325
-218.596	-53.484	0.210	0.096
-217.582	-47.107	-0.116	0.056
-216.567	-200.000	0.043	-0.303
-215.552	83.660	0.097	-0.105
-214.538	-80.197	-0.473	-0.158
-213.523	-83.301	0.149	-0.048
-212.509	36.075	0.143	-0.126
-211.494	800.000	0.067	0.187
-210.479	-100.402	0.124	0.031
-209.465	-50.657	-0.246	0.115
-208.450	-25.147	-0.252	-0.149
-207.436	-36.896	0.225	0.120
-206.421	-200.000	0.023	0.109
-205.406	-34.122	0.315	-0.172
-204.392	180.946	0.246	-0.360
-203.377	800.000	-0.011	0.035
-202.363	65.645	0.207	0.208
-201.348	47.704	-0.004	0.004
-200.333	-27.821	0.172	0.099
-199.319	150.145	0.166	0.225
-198.304	263.470	0.080	0.138
-197.290	-45.156	-0.157	-0.078
-196.275	16.261	0.083	0.065
-195.260	-19.269	-0.280	0.173
-194.246	-51.581	-0.357	0.166
-193.231	-185.685	0.556	-0.008
-192.217	74.468	-0.159	-0.166
-191.202	800.000	0.071	0.220
-190.187	-31.891	-0.033	-0.018
-189.173	-127.955	0.109	-0.016
-188.158	-200.000	0.032	-0.205
-187.144	-66.824	-0.235	0.093
-186.129	-98.715	-0.099	0.025
-185.114	-111.719	-0.102	0.021
-184.100	800.000	-0.102	-0.292
-183.085	-126.251	0.141	0.021
-182.071	109.627	-0.087	0.103
-181.056	-180.856	0.058	0.001
-180.042	-111.852	0.237	0.048
-179.027	800.000	-0.034	0.134
-178.012	-22.821	-0.319	0.192
-176.998	-21.293	0.271	0.165
-175.983	-200.000	0.082	0.446
-174.969	173.675	0.111	-0.159
-173.954	-200.000	0.074	-0.352
-172.939	-197.159	0.214	-0.001
-171.925	-99.066	0.450	0.113
-170.910	-200.000	-0.005	-0.026
-169.896	78.582	-0.174	0.185
-168.881	-200.000	-0.019	-0.494
-167.866	-200.000	0.024	-0.231
-166.852	-200.000	-0.042	-0.311
-165.837	-124.192	0.101	0.016
-164.823	-94.950	0.164	-0.044
-163.808	800.000	0.042	-0.115
-162.793	251.619	-0.190	-0.320
-161.779	800.000	-0.080	-0.223
-160.764	-104.302	-0.069	0.016
-159.750	-200.000	0.007	0.107
-158.735	-200.000	0.040	-0.327
-157.720	181.269	0.062	-0.091
-156.706	-200.000	0.032	-0.185
-155.691	-139.827	-0.011	0.001
-154.677	736.334	-0.024	0.063
-153.662	-80.521	-0.318	0.105
-152.647	-87.868	-0.330	-0.098
-151.633	18.438	0.182	-0.144
-150.618	-141.035	0.401	-0.041
-149.604	800.000	0.127	0.349
-148.589	-72.805	-0.101	-0.037
-147.574	800.000	-0.136	0.414
-146.560	-29.513	0.251	0.142
-145.545	206.477	0.080	0.123
-144.531	-29.813	-0.332	0.188
-143.516	159.645	-0.163	-0.226
-142.502	274.122	-0.126	-0.221
-141.487	780.862	-0.112	-0.304
-140.472	555.895	-0.058	0.140
-139.458	120.881	0.061	0.076
-138.443	-39.481	-0.068	-0.035
-137.429	-200.000	0.004	-0.334
-136.414	148.361	0.083	0.111
-135.399	-32.257	0.382	0.212
-134.385	-115.112	0.235	0.044
-133.370	-200.000	-0.036	0.399
-132.356	-128.442	-0.214	0.030
-131.341	-200.000	0.030	0.314
-130.326	800.000	-0.093	0.339
-129.312	-108.888	-0.348	0.074
-128.297	-112.479	-0.078	0.015
-127.283	138.976	0.107	-0.140
-126.268	-113.265	0.031	-0.006
-125.253	-119.909	-0.072	0.012
-124.239	98.277	0.046	-0.052
-123.224	800.000	0.047	0.149
-122.210	-75.297	0.049	0.017
-121.195	-8.595	-0.059	-0.039
-120.180	-102.281	0.245	-0.058
