DTS Sentinel unit serial number:	SN413079Multiplexer serial number:	ORYXHardware model number:	OX4-SRSoftware version number:	ORYX F/W v4.00 Oryx Data Collector v3.7.2.0data status	okinstallation	princeton_trtdifferential loss correction	single-endedforward channel	channel 3reverse channel	N/Adate	2019/09/15time	14:24:35forward acquisition time	60.00reverse acquisition time	0.00gamma	496.2192k internal	0.2291k external	0.2291temperature offset calibration	0.9955default loss term (dB/km)	0.3790temperature slope calibration	1.0000multiplexer offset coefficient	1.0000multiplexer slope coefficient	1.0000fibre end	0.00T internal ref (°C)	39.19T ext. ref 1 (°C)	4.96T ext. ref 2 (°C)	36.29length (m)	temperature (°C)	Stokes	anti-Stokes-747.200	-104.032	0.125	-0.030
-746.185	-200.000	-0.053	0.514
-745.171	-200.000	0.003	-0.164
-744.156	-18.895	0.293	0.187
-743.142	-124.397	-0.225	0.036
-742.127	545.891	-0.038	0.092
-741.112	222.678	0.119	0.196
-740.098	146.739	-0.211	0.291
-739.083	77.506	0.210	-0.229
-738.069	-94.984	-0.356	0.099
-737.054	-108.095	-0.477	-0.106
-736.039	-128.879	-0.427	-0.061
-735.025	-26.080	0.144	-0.086
-734.010	-58.852	-0.347	-0.154
-732.996	-60.647	-0.210	0.091
-731.981	800.000	-0.089	-0.366
-730.966	50.850	0.093	-0.090
-729.952	210.962	-0.256	-0.412
-728.937	-116.429	-0.137	0.026
-727.923	-200.000	-0.020	-0.219
-726.908	294.488	0.037	-0.070
-725.894	-200.000	0.048	0.309
-724.879	-165.531	-0.172	0.008
-723.864	315.537	-0.128	-0.247
-722.850	653.462	0.195	-0.511
-721.835	-165.062	-0.059	0.003
-720.821	-22.929	-0.204	0.126
-719.806	-80.903	-0.366	-0.124
-718.791	656.031	0.113	-0.296
-717.777	800.000	-0.029	-0.131
-716.762	-200.000	0.075	0.376
-715.748	-41.028	0.298	0.158
-714.733	77.519	-0.160	-0.175
-713.718	800.000	-0.014	0.057
-712.704	-11.813	0.124	-0.083
-711.689	-99.844	-0.158	-0.041
-710.675	-60.912	0.249	-0.108
-709.660	-108.472	0.067	-0.015
-708.645	-70.997	0.122	-0.047
-707.631	365.704	0.066	-0.135
-706.616	30.479	0.236	0.206
-705.602	-143.337	0.285	-0.028
-704.587	210.790	-0.073	0.117
-703.572	-101.373	0.185	-0.046
-702.558	-115.147	-0.369	0.071
-701.543	-2.440	-0.141	-0.101
-700.529	54.693	-0.124	0.122
-699.514	-200.000	0.003	0.140
-698.499	-87.186	0.261	-0.081
-697.485	91.227	-0.214	-0.246
-696.470	-56.819	-0.483	0.218
-695.456	-16.933	0.048	0.031
-694.441	-200.000	0.046	-0.274
-693.426	-200.000	0.020	0.210
-692.412	-45.649	-0.349	0.177
-691.397	-77.573	0.175	-0.062
-690.383	89.260	0.182	-0.207
-689.368	187.909	-0.103	0.157
-688.354	443.352	-0.065	0.145
-687.339	25.789	0.153	-0.130
-686.324	-200.000	0.025	-0.133
-685.310	41.444	-0.181	-0.168
-684.295	800.000	0.119	-0.481
-683.281	29.906	-0.103	-0.090
-682.266	-200.000	0.011	0.107
-681.251	245.717	0.124	0.212
-680.237	-57.286	-0.227	-0.102
-679.222	211.277	-0.061	0.097
-678.208	-87.456	-0.233	-0.072
-677.193	-144.921	0.467	0.044
-676.178	36.856	0.207	0.187
-675.164	322.721	-0.187	-0.364
-674.149	-99.044	-0.125	0.032
-673.135	-183.539	-0.110	0.002
-672.120	-200.000	-0.038	-0.000
-671.105	72.955	0.206	0.220
-670.091	378.465	-0.085	0.177
-669.076	105.190	0.058	-0.070
-668.062	167.582	-0.171	-0.248
-667.047	800.000	-0.171	-0.553
-666.032	299.795	-0.134	0.252
-665.018	-81.039	0.231	-0.078
-664.003	-84.121	-0.128	0.041
-662.989	800.000	-0.031	0.131
-661.974	16.432	0.153	-0.123
-660.959	83.879	-0.149	-0.166
-659.945	-65.717	-0.161	-0.066
-658.930	800.000	-0.056	0.249
-657.916	155.909	0.093	-0.130
-656.901	223.985	-0.149	-0.245
-655.886	83.941	-0.270	-0.301
-654.872	-200.000	-0.010	0.171
-653.857	-137.153	-0.146	0.017
-652.843	800.000	0.045	-0.145
-651.828	-134.532	-0.092	-0.011
-650.814	-25.595	-0.172	-0.104
-649.799	-200.000	-0.035	-0.179
-648.784	168.714	-0.161	-0.234
-647.770	30.017	0.177	-0.154
-646.755	220.194	0.014	0.023
-645.741	-200.000	-0.006	0.234
-644.726	-99.526	-0.246	0.063
-643.711	-150.589	-0.314	-0.025
-642.697	766.377	0.029	0.081
-641.682	-144.625	0.421	0.040
-640.668	-72.229	-0.325	0.123
-639.653	-0.975	0.045	-0.032
-638.638	-46.983	0.027	-0.013
-637.624	-110.584	-0.085	-0.018
-636.609	-28.122	0.254	-0.150
-635.595	167.820	-0.104	-0.151
-634.580	-5.288	0.243	-0.170
-633.565	-32.188	0.211	0.120
-632.551	62.436	-0.145	0.147
-631.536	-27.615	-0.120	-0.071
-630.522	-200.000	-0.025	0.349
-629.507	-75.702	-0.250	0.090
-628.492	5.745	-0.061	0.046
-627.478	-78.758	-0.271	-0.094
-626.463	-200.000	0.001	-0.049
-625.449	-8.163	0.121	0.083
-624.434	-200.000	0.002	0.066
-623.419	17.055	0.268	0.217
-622.405	-200.000	0.041	-0.214
-621.390	25.394	0.173	-0.146
-620.376	-200.000	-0.022	-0.306
-619.361	-63.822	0.186	-0.078
-618.346	-71.895	0.387	-0.147
-617.332	-200.000	-0.047	-0.292
-616.317	23.748	0.084	0.070
-615.303	-142.678	0.448	-0.045
-614.288	32.241	0.070	-0.061
-613.273	207.899	-0.183	-0.291
-612.259	-24.960	0.196	0.118
-611.244	167.686	0.134	-0.194
-610.230	-17.242	-0.127	-0.082
-609.215	-127.885	-0.050	0.007
-608.201	-200.000	0.029	-0.196
-607.186	29.684	-0.129	0.112
-606.171	12.892	-0.126	0.100
-605.157	800.000	0.126	-0.364
-604.142	-20.942	-0.057	-0.036
-603.128	243.066	0.110	-0.187
-602.113	233.844	0.049	0.082
-601.098	-200.000	-0.036	-0.252
-600.084	-28.446	0.011	0.007
-599.069	-53.283	-0.314	0.147
-598.055	-200.000	-0.058	-0.283
-597.040	22.903	-0.034	0.028
-596.025	-7.415	-0.051	0.035
-595.011	-55.326	-0.253	-0.115
-593.996	-200.000	0.000	0.190
-592.982	84.908	-0.077	-0.085
-591.967	-200.000	-0.004	-0.161
-590.952	-87.493	0.386	-0.119
-589.938	87.418	0.305	0.344
-588.923	428.821	0.010	-0.022
-587.909	381.841	-0.058	-0.121
-586.894	464.299	-0.069	-0.157
-585.879	-200.000	-0.041	-0.228
-584.865	-168.123	0.106	-0.004
-583.850	-29.097	0.131	-0.076
-582.836	-187.789	-0.209	0.003
-581.821	-77.922	-0.241	0.084
-580.806	800.000	0.036	0.135
-579.792	-2.963	-0.252	-0.179
-578.777	-200.000	-0.009	0.133
-577.763	40.346	-0.129	-0.118
-576.748	-200.000	-0.000	-0.107
-575.733	-80.716	0.209	0.071
-574.719	-129.382	-0.266	-0.038
-573.704	56.432	-0.111	-0.109
-572.690	-152.135	0.082	0.006
-571.675	-143.746	0.304	-0.029
-570.661	458.577	-0.060	0.135
-569.646	106.781	-0.251	-0.303
-568.631	101.843	-0.038	-0.045
-567.617	800.000	0.034	-0.132
-566.602	-112.266	0.287	0.059
-565.588	-95.130	0.157	-0.043
-564.573	59.761	0.059	0.059
-563.558	-115.988	0.081	0.015
-562.544	-147.420	0.100	0.009
-561.529	161.914	-0.088	0.126
-560.515	800.000	-0.028	0.100
-559.500	50.691	0.164	-0.158
-558.485	37.187	0.264	0.238
-557.471	-200.000	-0.027	0.152
-556.456	-26.238	0.315	-0.188
-555.442	-97.648	0.081	-0.021
-554.427	-200.000	0.025	-0.135
-553.412	-135.775	-0.495	0.059
-552.398	800.000	0.107	0.378
-551.383	800.000	-0.043	-0.177
-550.369	800.000	0.059	0.236
-549.354	-71.712	0.181	-0.069
-548.339	275.025	0.061	0.110
-547.325	139.645	-0.070	-0.093
-546.310	554.840	0.102	-0.248
-545.296	-28.167	0.214	-0.126
-544.281	-200.000	-0.026	-0.367
-543.266	36.812	-0.173	-0.156
-542.252	-69.921	0.103	0.040
-541.237	188.591	-0.061	-0.092
-540.223	-200.000	0.031	0.144
-539.208	37.169	-0.086	0.077
-538.193	184.329	-0.066	0.100
-537.179	15.826	-0.047	-0.037
-536.164	457.049	-0.019	0.043
-535.150	-41.383	0.224	0.117
-534.135	262.645	0.022	0.039
-533.121	15.023	0.139	0.110
-532.106	250.660	-0.093	0.161
-531.091	-200.000	-0.016	-0.111
-530.077	236.658	-0.090	-0.151
-529.062	114.118	-0.069	0.085
-528.048	-58.203	0.363	0.161
-527.033	800.000	-0.062	-0.236
-526.018	-200.000	-0.017	-0.206
-525.004	-149.956	-0.169	0.013
-523.989	-96.884	-0.329	-0.088
-522.975	-184.184	0.344	-0.006
-521.960	16.055	0.292	0.234
-520.945	460.392	-0.084	-0.191
-519.931	-200.000	-0.049	-0.317
-518.916	-84.506	0.239	0.077
-517.902	193.883	-0.052	0.080
-516.887	-60.667	-0.317	0.136
-515.872	280.893	0.174	-0.315
-514.858	-3.448	0.122	-0.086
-513.843	113.624	-0.129	-0.159
-512.829	-116.562	-0.285	-0.053
-511.814	11.764	-0.251	0.196
-510.799	291.966	0.059	-0.108
-509.785	-159.970	-0.251	0.014
-508.770	-63.600	-0.153	-0.064
-507.756	189.991	0.130	0.198
-506.741	18.446	-0.075	-0.061
-505.726	86.171	-0.017	0.019
-504.712	-100.523	0.314	-0.079
-503.697	-86.450	0.236	0.074
-502.683	-200.000	0.008	0.098
-501.668	-200.000	0.007	-0.166
-500.653	-110.574	-0.323	-0.068
-499.639	-26.624	-0.249	0.148
-498.624	-87.396	-0.352	-0.108
-497.610	47.022	0.136	-0.129
-496.595	-119.238	-0.489	-0.086
-495.581	-200.000	-0.013	0.124
-494.566	-200.000	-0.070	0.371
-493.551	-120.463	-0.334	-0.058
-492.537	-200.000	0.025	-0.240
-491.522	-85.751	-0.278	-0.087
-490.508	800.000	-0.043	-0.130
-489.493	676.026	-0.048	0.127
-488.478	-200.000	-0.007	-0.123
-487.464	7.840	0.279	0.212
-486.449	-4.678	-0.044	-0.031
-485.435	-17.554	0.126	-0.081
-484.420	800.000	-0.049	-0.215
-483.405	-106.942	-0.180	-0.040
-482.391	-76.633	-0.053	0.019
-481.376	11.869	0.086	0.067
-480.362	-85.522	0.250	-0.079
-479.347	-140.380	0.164	0.017
-478.332	-132.277	0.318	0.042
-477.318	532.369	0.079	0.190
-476.303	-112.107	-0.217	-0.044
-475.289	-84.649	-0.112	-0.036
-474.274	-187.527	-0.296	-0.004
-473.259	-200.000	0.008	0.090
-472.245	800.000	0.056	0.220
-471.230	-36.983	-0.064	0.035
-470.216	45.090	0.142	-0.132
-469.201	-52.388	0.231	-0.108
-468.186	128.045	-0.187	0.241
-467.172	-128.618	-0.210	-0.030
-466.157	470.541	-0.140	0.319
-465.143	-105.874	-0.102	0.023
-464.128	-158.066	0.090	-0.005
-463.113	234.993	-0.108	-0.181
-462.099	-25.178	-0.137	0.082
-461.084	-153.566	-0.093	0.006
-460.070	800.000	0.042	0.179
-459.055	6.182	-0.187	-0.140
-458.040	-123.503	0.359	-0.058
-457.026	-109.464	0.154	-0.033
-456.011	31.045	0.076	0.066
-454.997	-200.000	-0.030	0.178
-453.982	-44.912	0.124	-0.063
-452.968	-200.000	-0.024	-0.209
-451.953	201.349	-0.125	-0.195
-450.938	800.000	0.068	0.253
-449.924	-200.000	0.017	-0.113
-448.909	-149.205	-0.141	0.011
-447.895	-95.207	-0.225	0.061
-446.880	-200.000	-0.009	-0.319
-445.865	-200.000	-0.014	0.090
-444.851	593.287	0.055	0.137
-443.836	800.000	0.101	0.376
-442.822	-134.254	0.249	-0.031
-441.807	-200.000	-0.004	0.391
-440.792	65.536	-0.193	-0.198
-439.778	-137.624	-0.188	0.021
-438.763	114.272	0.166	0.205
-437.749	-33.678	0.238	-0.133
-436.734	149.260	0.119	0.164
-435.719	-176.756	0.351	0.009
-434.705	-77.381	-0.382	0.134
-433.690	-49.238	0.144	0.070
-432.676	-9.862	0.096	0.065
-431.661	135.117	-0.042	0.056
-430.646	-200.000	-0.014	-0.220
-429.632	400.564	-0.061	0.130
-428.617	800.000	0.045	0.198
-427.603	55.329	-0.097	0.095
-426.588	449.797	0.122	0.273
-425.573	90.945	-0.056	-0.064
-424.559	269.514	-0.266	-0.472
-423.544	91.812	-0.092	0.105
-422.530	800.000	-0.045	-0.178
-421.515	-82.512	0.194	-0.064
-420.500	-29.664	-0.126	0.073
-419.486	-62.640	0.151	-0.063
-418.471	146.259	0.167	-0.226
-417.457	-200.000	0.042	-0.204
-416.442	59.451	-0.252	-0.252
-415.428	800.000	-0.010	-0.031
-414.413	-36.498	-0.067	0.037
-413.398	119.237	-0.044	0.055
-412.384	800.000	-0.057	-0.221
-411.369	800.000	0.014	0.056
-410.355	505.010	0.168	0.393
-409.340	16.867	0.302	0.242
-408.325	306.995	-0.054	0.101
-407.311	87.473	0.142	-0.159
-406.296	167.289	0.164	0.235
-405.282	800.000	0.015	-0.042
-404.267	-45.596	0.118	0.059
-403.252	-121.252	-0.114	0.019
-402.238	-30.455	-0.071	0.041
-401.223	-200.000	0.019	0.224
-400.209	762.099	-0.107	-0.293
-399.194	-184.049	0.053	0.001
-398.179	-120.409	0.048	-0.008
-397.165	800.000	-0.105	0.322
-396.150	492.544	0.095	0.219
-395.136	109.025	-0.100	-0.121
-394.121	-40.650	-0.207	0.108
-393.106	-112.861	-0.445	0.089
-392.092	64.969	0.122	0.125
-391.077	21.530	0.256	0.210
-390.063	-200.000	-0.020	0.138
-389.048	-118.594	0.032	0.006
-388.033	-200.000	0.046	0.293
-387.019	383.851	-0.136	0.284
-386.004	307.760	0.106	-0.199
-384.990	-200.000	0.024	0.274
-383.975	-40.930	-0.245	-0.128
-382.960	-43.770	0.355	-0.180
-381.946	-146.319	-0.272	-0.024
-380.931	164.629	0.180	-0.256
-379.917	481.480	-0.155	0.354
-378.902	2.160	-0.249	-0.182
-377.888	-5.589	-0.185	0.128
-376.873	-117.495	0.341	0.062
-375.858	800.000	0.037	-0.150
-374.844	541.432	0.089	-0.214
-373.829	787.061	0.107	0.296
-372.815	-16.015	-0.317	0.203
-371.800	-188.715	0.290	-0.004
-370.785	170.428	-0.149	0.216
-369.771	-19.553	0.146	0.091
-368.756	29.553	-0.109	0.094
-367.742	-93.945	0.232	0.064
-366.727	-200.000	-0.024	0.000
-365.712	-51.712	-0.159	-0.075
-364.698	800.000	0.069	-0.219
-363.683	53.128	-0.128	-0.123
-362.669	551.466	0.118	0.286
-361.654	-77.278	0.108	-0.038
-360.639	-171.345	-0.387	-0.013
-359.625	-200.000	-0.018	0.117
-358.610	30.004	-0.124	0.107
-357.596	-159.568	-0.088	-0.005
-356.581	-57.127	0.237	-0.105
-355.566	-163.263	0.084	-0.004
-354.552	78.581	0.206	0.223
-353.537	-35.327	-0.051	0.028
-352.523	-50.267	-0.097	0.046
-351.508	-19.103	0.226	0.142
-350.493	57.736	0.188	-0.185
-349.479	-31.923	0.276	-0.156
-348.464	44.271	-0.294	0.272
-347.450	23.669	0.301	0.250
-346.435	-134.433	0.127	0.016
-345.420	-200.000	-0.056	0.289
-344.406	-200.000	0.010	-0.086
-343.391	-200.000	0.001	0.292
-342.377	46.894	-0.262	-0.245
-341.362	-109.737	0.202	0.043
-340.348	-156.121	0.233	-0.015
-339.333	340.278	0.084	0.166
-338.318	179.289	-0.198	0.292
-337.304	-120.095	-0.301	-0.052
-336.289	301.202	-0.110	-0.204
-335.275	44.093	-0.219	-0.202
-334.260	223.761	0.041	-0.067
-333.245	800.000	-0.022	-0.066
-332.231	-200.000	0.038	-0.262
-331.216	551.918	0.055	-0.132
-330.202	-123.481	0.205	-0.033
-329.187	-24.806	0.144	0.086
-328.172	117.171	0.114	0.142
-327.158	576.806	0.067	0.165
-326.143	-200.000	0.020	0.384
-325.129	106.592	-0.160	0.191
-324.114	-106.328	0.138	-0.031
-323.099	388.832	0.041	-0.085
-322.085	582.664	0.116	0.288
-321.070	-28.294	-0.074	0.043
-320.056	729.506	0.101	0.273
-319.041	800.000	0.069	-0.206
-318.026	-81.408	0.107	0.036
-317.012	10.729	-0.098	0.076
-315.997	-148.833	-0.359	-0.029
-314.983	-112.801	0.232	0.046
-313.968	102.867	0.049	-0.058
-312.953	-181.449	-0.126	0.002
-311.939	-88.595	0.389	-0.117
-310.924	48.482	-0.083	0.078
-309.910	97.827	0.087	0.101
-308.895	716.968	0.076	0.204
-307.880	-200.000	0.017	0.190
-306.866	248.558	-0.087	-0.148
-305.851	-29.988	-0.221	-0.127
-304.837	151.415	-0.124	0.170
-303.822	158.691	-0.050	0.070
-302.807	61.509	-0.027	0.027
-301.793	-76.903	0.202	0.071
-300.778	81.751	0.179	0.194
-299.764	800.000	0.059	-0.166
-298.749	172.413	0.220	-0.319
-297.735	800.000	0.027	-0.080
-296.720	-35.949	-0.317	0.173
-295.705	-109.645	0.214	-0.045
-294.691	138.808	0.069	0.091
-293.676	226.141	0.082	-0.134
-292.662	79.687	-0.191	0.207
-291.647	-152.386	-0.121	0.009
-290.632	-96.559	0.067	0.018
-289.618	110.420	0.017	-0.020
-288.603	-148.513	-0.274	0.023
-287.589	800.000	0.040	0.174
-286.574	800.000	-0.071	-0.254
-285.559	-200.000	-0.042	-0.272
-284.545	-129.420	-0.058	-0.008
-283.530	573.326	-0.105	0.258
-282.516	14.274	0.187	-0.146
-281.501	-114.639	-0.109	-0.021
-280.486	-200.000	-0.009	0.151
-279.472	-112.954	0.407	0.081
-278.457	24.949	0.262	-0.218
-277.443	-200.000	-0.012	-0.338
-276.428	405.316	0.079	-0.167
-275.413	-19.016	0.169	-0.106
-274.399	800.000	0.032	0.102
-273.384	-200.000	-0.030	0.302
-272.370	-20.371	0.128	-0.079
-271.355	-200.000	0.052	-0.393
-270.340	-17.152	0.207	0.131
-269.326	800.000	0.047	0.161
-268.311	-70.384	0.181	0.069
-267.297	-93.475	0.370	0.103
-266.282	-200.000	0.021	0.101
-265.267	-200.000	-0.014	-0.114
-264.253	-33.722	-0.367	-0.203
-263.238	452.411	0.042	0.093
-262.224	-182.447	0.346	-0.006
-261.209	-200.000	-0.039	0.289
-260.195	-162.445	-0.168	-0.008
-259.180	-137.142	0.375	-0.043
-258.165	7.569	0.121	0.091
-257.151	188.169	-0.183	0.274
-256.136	478.496	-0.068	0.154
-255.122	-74.553	-0.167	0.060
-254.107	31.392	-0.198	-0.171
-253.092	-200.000	-0.049	-0.386
-252.078	-86.319	0.044	-0.014
-251.063	511.943	-0.106	0.247
-250.049	-101.519	0.165	-0.040
-249.034	135.723	0.059	-0.077
-248.019	-33.154	-0.353	-0.196
-247.005	-109.524	0.230	-0.049
-245.990	434.374	-0.110	-0.240
-244.976	-200.000	0.075	-0.442
-243.961	-93.058	0.186	0.052
-242.946	38.347	-0.158	0.141
-241.932	-50.491	-0.051	-0.024
-240.917	800.000	0.050	-0.218
-239.903	-125.215	-0.078	-0.012
-238.888	800.000	-0.099	0.287
-237.873	-86.505	0.135	0.042
-236.859	145.888	0.061	0.082
-235.844	165.300	-0.229	-0.324
-234.830	-137.588	0.087	0.010
-233.815	-54.674	-0.191	0.087
-232.800	388.317	0.113	-0.235
-231.786	-7.367	0.140	-0.095
-230.771	-200.000	-0.017	-0.081
-229.757	299.226	-0.088	0.163
-228.742	303.747	0.093	0.172
-227.727	567.948	-0.077	0.188
-226.713	-90.252	-0.202	-0.059
-225.698	30.232	0.093	-0.080
-224.684	117.429	-0.193	-0.238
-223.669	-200.000	0.013	-0.164
-222.655	-200.000	0.007	0.045
-221.640	-25.359	0.125	-0.074
-220.625	800.000	-0.044	0.169
-219.611	800.000	-0.092	0.330
-218.596	-16.838	0.237	-0.151
-217.582	2.044	0.042	0.030
-216.567	-200.000	0.002	0.044
-215.552	294.510	-0.032	0.059
-214.538	264.511	0.055	-0.095
-213.523	800.000	-0.067	-0.190
-212.509	25.172	0.158	-0.131
-211.494	-20.261	0.143	0.089
-210.479	171.132	-0.059	0.084
-209.465	-24.488	0.131	0.078
-208.450	-102.030	-0.217	0.053
-207.436	551.089	0.099	0.238
-206.421	-98.900	-0.370	-0.094
-205.406	-200.000	0.008	-0.139
-204.392	-15.443	0.181	0.116
-203.377	64.766	-0.216	-0.218
-202.363	30.254	0.126	0.108
-201.348	402.288	-0.027	0.057
-200.333	-28.846	-0.332	-0.191
-199.319	-76.834	-0.426	-0.149
-198.304	316.577	-0.147	-0.278
-197.290	15.181	-0.138	-0.108
-196.275	800.000	-0.065	0.257
-195.260	-2.628	-0.163	0.114
-194.246	432.506	-0.022	0.047
-193.231	766.217	0.033	-0.091
-192.217	228.759	0.135	-0.220
-191.202	-20.350	-0.106	0.065
-190.187	123.577	0.299	-0.376
-189.173	153.418	-0.173	0.237
-188.158	800.000	-0.096	0.349
-187.144	-12.819	-0.058	-0.038
-186.129	800.000	-0.019	0.061
-185.114	-200.000	0.098	0.543
-184.100	-140.135	0.331	-0.035
-183.085	149.362	0.085	-0.115
-182.071	-84.047	0.221	0.070
-181.056	680.073	0.082	-0.215
-180.042	287.691	-0.284	-0.514
-179.027	99.789	-0.094	-0.109
-178.012	622.494	0.051	0.128
-176.998	199.657	0.075	0.115
-175.983	-123.422	0.096	0.015
-174.969	-103.554	0.122	-0.029
-173.954	305.649	0.144	0.268
-172.939	800.000	0.053	0.196
-171.925	47.412	-0.302	0.282
-170.910	31.016	-0.150	-0.129
-169.896	-106.457	0.121	-0.027
-168.881	207.121	-0.039	0.060
-167.866	-185.731	-0.355	-0.005
-166.852	56.277	-0.202	-0.196
-165.837	-116.363	-0.620	0.115
-164.823	-128.964	-0.572	-0.080
-163.808	-111.609	-0.088	-0.018
-162.793	-51.288	-0.219	-0.103
-161.779	213.149	-0.098	-0.154
-160.764	800.000	0.053	-0.214
-159.750	90.792	-0.233	0.261
-158.735	-106.161	0.426	-0.096
-157.720	-3.434	-0.089	0.062
-156.706	-75.447	0.262	0.093
-155.691	-9.395	0.061	0.041
-154.677	521.158	0.057	-0.133
-153.662	-99.824	-0.088	0.022
-152.647	27.011	0.234	-0.196
-151.633	-16.631	0.201	-0.128
-150.618	140.181	-0.288	-0.380
-149.604	-69.474	0.088	0.034
-148.589	177.953	-0.127	0.185
-147.574	-110.133	-0.295	-0.062
-146.560	-200.000	-0.063	0.283
-145.545	-200.000	0.037	0.350
-144.531	342.467	0.090	0.176
-143.516	70.712	0.107	0.111
-142.502	800.000	0.030	-0.121
-141.487	800.000	0.085	0.343
-140.472	-200.000	0.047	0.548
-139.458	137.258	-0.199	0.260
-138.443	148.600	-0.135	0.183
-137.429	-200.000	0.018	0.209
-136.414	362.997	0.209	-0.421
-135.399	45.312	0.337	0.311
-134.385	-11.846	0.046	-0.030
-133.370	57.632	-0.139	-0.136
-132.356	-32.684	0.256	-0.142
-131.341	-62.547	-0.128	-0.053
-130.326	203.281	0.108	-0.166
-129.312	-25.375	0.060	-0.036
-128.297	-72.032	-0.177	-0.066
-127.283	464.390	0.188	-0.421
-126.268	-88.117	0.172	0.052
-125.253	106.506	-0.063	0.075
-124.239	-76.021	-0.118	0.042
-123.224	-200.000	-0.048	-0.325
-122.210	-200.000	0.026	-0.142
-121.195	-89.985	-0.280	-0.082
