DTS Sentinel unit serial number:	SN413079Multiplexer serial number:	ORYXHardware model number:	OX4-SRSoftware version number:	ORYX F/W v4.00 Oryx Data Collector v3.7.2.0data status	okinstallation	princeton_trtdifferential loss correction	single-endedforward channel	channel 3reverse channel	N/Adate	2019/09/11time	21:58:11forward acquisition time	60.00reverse acquisition time	0.00gamma	496.2192k internal	0.2311k external	0.2311temperature offset calibration	1.0042default loss term (dB/km)	0.3790temperature slope calibration	1.0000multiplexer offset coefficient	1.0000multiplexer slope coefficient	1.0000fibre end	0.00T internal ref (°C)	35.55T ext. ref 1 (°C)	1.71T ext. ref 2 (°C)	29.71length (m)	temperature (°C)	Stokes	anti-Stokes-747.200	-20.114	-0.315	-0.197
-746.185	-200.000	0.007	0.184
-745.171	93.579	0.091	0.105
-744.156	-200.000	-0.012	0.324
-743.142	-46.732	-0.181	-0.090
-742.127	139.904	0.181	0.242
-741.112	-146.571	0.112	-0.010
-740.098	-59.586	-0.054	-0.023
-739.083	-200.000	-0.012	-0.149
-738.069	-200.000	-0.074	0.441
-737.054	-33.144	0.307	0.173
-736.039	-200.000	-0.019	-0.160
-735.025	-132.741	0.351	0.046
-734.010	10.069	-0.131	-0.101
-732.996	-200.000	-0.451	0.002
-731.981	240.876	0.162	-0.275
-730.966	-134.668	-0.106	0.013
-729.952	-100.623	-0.454	-0.114
-728.937	-200.000	-0.008	0.175
-727.923	159.865	0.051	-0.072
-726.908	-200.000	0.003	-0.054
-725.894	800.000	0.042	-0.126
-724.879	519.836	-0.016	-0.038
-723.864	-140.014	-0.243	-0.026
-722.850	800.000	-0.082	-0.341
-721.835	253.178	-0.033	0.057
-720.821	493.881	-0.113	-0.264
-719.806	-135.932	-0.281	-0.034
-718.791	98.564	0.079	0.092
-717.777	-153.671	-0.417	0.029
-716.762	-200.000	0.042	-0.267
-715.748	-165.703	-0.408	0.018
-714.733	-24.509	0.140	-0.085
-713.718	176.989	0.115	-0.170
-712.704	78.015	-0.096	0.104
-711.689	-55.642	-0.202	-0.092
-710.675	-200.000	-0.028	0.439
-709.660	-200.000	-0.045	0.208
-708.645	-138.777	0.501	0.055
-707.631	-200.000	-0.004	-0.385
-706.616	-200.000	-0.029	0.340
-705.602	-94.555	0.363	0.100
-704.587	-42.055	0.274	-0.142
-703.572	-200.000	-0.036	0.236
-702.558	-87.611	-0.185	-0.057
-701.543	-52.189	0.107	-0.050
-700.529	245.108	0.105	0.179
-699.514	-124.874	0.356	-0.056
-698.499	-62.536	-0.045	0.019
-697.485	557.864	-0.199	-0.486
-696.470	-102.491	-0.078	-0.019
-695.456	230.066	0.060	0.100
-694.441	-76.120	0.436	-0.156
-693.426	76.485	-0.066	-0.070
-692.412	-200.000	0.030	0.246
-691.397	33.571	-0.200	0.176
-690.383	130.925	0.112	-0.145
-689.368	163.230	-0.249	-0.354
-688.354	-119.359	-0.099	0.017
-687.339	-129.642	0.110	-0.015
-686.324	-33.530	0.241	-0.135
-685.310	65.490	0.179	-0.184
-684.295	-117.392	-0.207	-0.038
-683.281	-83.808	0.143	0.046
-682.266	-49.653	0.186	-0.090
-681.251	780.174	0.023	-0.064
-680.237	800.000	0.134	0.422
-679.222	-200.000	0.006	-0.091
-678.208	115.961	-0.223	-0.276
-677.193	-42.794	-0.285	0.147
-676.178	-58.784	0.127	0.056
-675.164	263.702	-0.048	0.084
-674.149	-200.000	0.008	-0.096
-673.135	-103.187	-0.086	0.021
-672.120	-135.296	-0.188	-0.023
-671.105	-1.834	0.131	0.093
-670.091	800.000	0.089	0.326
-669.076	-65.477	-0.021	-0.008
-668.062	-200.000	-0.007	0.039
-667.047	-167.744	-0.187	-0.007
-666.032	-200.000	0.049	-0.259
-665.018	-138.180	-0.280	0.031
-664.003	-48.391	-0.126	0.061
-662.989	-133.431	-0.153	-0.019
-661.974	54.350	0.346	0.337
-660.959	-2.972	-0.286	0.202
-659.945	800.000	-0.046	-0.160
-658.930	-98.416	0.179	-0.046
-657.916	-200.000	0.044	-0.345
-656.901	-50.345	0.304	-0.145
-655.886	-43.369	0.048	0.025
-654.872	-188.220	0.305	-0.004
-653.857	306.266	0.084	0.159
-652.843	-51.063	-0.224	-0.106
-651.828	19.046	-0.097	-0.079
-650.814	-66.273	0.174	-0.070
-649.799	60.091	-0.051	-0.051
-648.784	794.649	0.051	0.141
-647.770	-61.721	-0.097	-0.041
-646.755	-84.398	0.430	0.137
-645.741	-69.419	-0.252	0.098
-644.726	-62.306	-0.299	0.126
-643.711	-83.571	0.289	0.093
-642.697	-66.189	-0.188	0.076
-641.682	274.457	0.042	0.075
-640.668	122.101	-0.292	-0.369
-639.653	-154.817	-0.039	-0.003
-638.638	-200.000	0.020	0.256
-637.624	118.848	-0.163	-0.203
-636.609	144.744	-0.115	-0.156
-635.595	71.344	0.070	0.074
-634.580	98.780	0.161	0.188
-633.565	-200.000	-0.017	0.223
-632.551	-0.248	0.120	0.086
-631.536	18.847	0.433	-0.351
-630.522	58.224	-0.069	-0.068
-629.507	-71.855	-0.126	-0.047
-628.492	160.567	0.217	0.306
-627.478	-27.406	0.068	-0.040
-626.463	121.323	0.208	-0.262
-625.449	-28.024	-0.235	0.138
-624.434	-26.592	-0.248	0.147
-623.419	-24.323	-0.081	-0.049
-622.405	102.884	0.169	0.200
-621.390	-17.362	-0.333	-0.212
-620.376	-174.411	0.421	0.012
-619.361	-0.149	-0.153	-0.110
-618.346	800.000	-0.092	-0.402
-617.332	-70.266	-0.148	0.057
-616.317	141.745	-0.179	-0.240
-615.303	-70.970	0.205	0.078
-614.288	-13.400	0.191	-0.125
-613.273	800.000	-0.076	-0.290
-612.259	-200.000	0.009	0.156
-611.244	229.947	-0.070	0.115
-610.230	48.511	0.070	-0.067
-609.215	-200.000	0.001	-0.137
-608.201	264.567	-0.082	0.145
-607.186	660.000	-0.156	0.406
-606.171	800.000	0.033	0.133
-605.157	153.444	0.190	-0.263
-604.142	155.535	-0.121	0.168
-603.128	566.522	0.039	0.095
-602.113	256.306	0.175	-0.302
-601.098	240.251	-0.091	-0.152
-600.084	55.011	-0.121	-0.118
-599.069	-200.000	-0.036	-0.296
-598.055	-200.000	0.025	-0.156
-597.040	-139.521	0.257	0.028
-596.025	-200.000	-0.070	0.318
-595.011	-122.389	0.062	0.010
-593.996	-200.000	0.052	0.265
-592.982	-128.362	0.254	0.037
-591.967	231.209	-0.108	-0.179
-590.952	-101.950	-0.291	-0.071
-589.938	44.711	-0.207	-0.192
-588.923	584.008	-0.073	-0.181
-587.909	-200.000	-0.043	-0.353
-586.894	-44.667	0.044	-0.022
-585.879	-149.208	-0.211	0.017
-584.865	408.870	-0.132	0.282
-583.850	-3.793	-0.275	0.193
-582.836	800.000	-0.072	0.252
-581.821	-153.127	0.284	-0.020
-580.806	-200.000	0.003	-0.280
-579.792	-124.902	0.082	-0.013
-578.777	-27.337	0.269	0.158
-577.763	33.848	0.200	-0.175
-576.748	-52.114	-0.315	-0.147
-575.733	800.000	0.049	0.182
-574.719	-200.000	-0.012	0.141
-573.704	800.000	-0.040	-0.136
-572.690	-97.550	-0.171	0.045
-571.675	444.246	-0.061	0.136
-570.661	348.764	0.124	0.246
-569.646	-60.479	-0.103	0.044
-568.631	762.325	-0.107	0.293
-567.617	-45.376	-0.434	0.217
-566.602	-60.149	-0.233	0.100
-565.588	-148.722	-0.028	-0.002
-564.573	44.877	-0.106	0.098
-563.558	-142.785	-0.140	-0.014
-562.544	800.000	0.044	0.139
-561.529	-14.536	0.125	0.081
-560.515	115.748	-0.207	-0.255
-559.500	-142.590	0.274	0.027
-558.485	-34.989	0.178	-0.098
-557.471	454.827	0.015	0.034
-556.456	-75.484	0.174	-0.062
-555.442	-67.672	-0.396	-0.156
-554.427	-42.414	-0.264	0.136
-553.412	-162.704	-0.344	0.017
-552.398	3.343	0.021	0.015
-551.383	-89.611	-0.270	0.080
-550.369	-140.535	0.323	0.034
-549.354	-85.643	0.152	-0.048
-548.339	-31.545	0.108	0.061
-547.325	-50.638	0.172	0.082
-546.310	-200.000	-0.006	-0.109
-545.296	39.023	0.101	-0.091
-544.281	1.317	0.250	0.181
-543.266	84.606	-0.160	-0.177
-542.252	12.133	-0.078	0.061
-541.237	201.440	-0.120	0.186
-540.223	-73.835	0.078	0.029
-539.208	-200.000	-0.017	-0.184
-538.193	130.690	-0.229	-0.296
-537.179	333.328	0.155	-0.302
-536.164	-7.001	0.028	-0.019
-535.150	7.816	-0.269	0.203
-534.135	-95.646	-0.246	-0.066
-533.121	329.964	0.236	0.458
-532.106	-7.313	-0.151	0.103
-531.091	-10.849	0.257	-0.171
-530.077	800.000	0.133	0.461
-529.062	54.658	0.064	0.062
-528.048	5.045	0.040	-0.029
-527.033	-200.000	0.063	-0.314
-526.018	204.624	-0.087	0.135
-525.004	276.082	0.050	0.089
-523.989	-200.000	0.003	0.155
-522.975	-42.577	0.277	-0.142
-521.960	-111.717	0.163	-0.033
-520.945	392.696	-0.038	0.080
-519.931	-84.666	-0.099	0.031
-518.916	-200.000	0.003	0.098
-517.902	-0.008	0.252	-0.181
-516.887	-200.000	0.033	-0.220
-515.872	-121.800	-0.265	0.044
-514.858	-100.446	0.223	-0.056
-513.843	240.748	-0.183	-0.306
-512.829	-200.000	-0.016	-0.099
-511.814	-24.363	0.234	0.140
-510.799	195.710	-0.270	-0.413
-509.785	542.298	0.152	-0.364
-508.770	-200.000	-0.010	0.424
-507.756	54.376	0.113	0.109
-506.741	-3.002	-0.117	0.082
-505.726	800.000	0.049	0.147
-504.712	-200.000	-0.038	-0.437
-503.697	-172.887	-0.149	0.005
-502.683	47.846	-0.390	0.366
-501.668	-200.000	-0.023	0.219
-500.653	100.855	-0.219	0.256
-499.639	421.932	0.108	0.234
-498.624	-32.303	0.189	-0.106
-497.610	800.000	-0.125	-0.458
-496.595	165.914	-0.142	-0.201
-495.581	251.812	0.094	0.160
-494.566	-200.000	-0.020	0.139
-493.551	800.000	-0.087	0.274
-492.537	-160.930	-0.141	-0.007
-491.522	183.875	-0.052	-0.077
-490.508	-122.956	-0.056	-0.009
-489.493	-52.699	0.122	-0.057
-488.478	800.000	0.137	0.400
-487.464	678.062	0.065	0.169
-486.449	800.000	0.065	0.227
-485.435	-176.516	0.553	-0.014
-484.420	-200.000	-0.058	-0.376
-483.405	-3.227	-0.140	-0.098
-482.391	412.418	-0.022	0.046
-481.376	-107.096	-0.212	0.047
-480.362	-200.000	-0.052	0.285
-479.347	-172.097	-0.136	-0.004
-478.332	-200.000	-0.005	-0.108
-477.318	785.594	0.076	0.208
-476.303	-6.463	-0.202	0.139
-475.289	-200.000	0.014	-0.169
-474.274	13.157	-0.209	0.163
-473.259	-200.000	0.001	0.117
-472.245	274.294	-0.179	-0.318
-471.230	233.328	0.081	0.133
-470.216	-200.000	-0.004	0.368
-469.201	312.799	-0.091	-0.173
-468.186	-94.704	-0.238	-0.065
-467.172	-200.000	-0.026	-0.153
-466.157	-75.468	0.465	-0.166
-465.143	0.295	-0.107	-0.077
-464.128	-200.000	0.012	0.159
-463.113	-73.100	-0.246	-0.090
-462.099	113.483	0.202	-0.246
-461.084	-94.552	-0.242	0.066
-460.070	-31.747	0.311	-0.175
-459.055	-77.773	-0.106	-0.037
-458.040	539.042	-0.100	-0.238
-457.026	-200.000	0.001	0.258
-456.011	-200.000	0.015	-0.133
-454.997	-200.000	0.019	0.203
-453.982	584.352	-0.089	0.218
-452.968	800.000	-0.032	0.135
-451.953	-69.023	-0.126	-0.049
-450.938	-23.389	0.110	-0.066
-449.924	503.636	-0.055	0.127
-448.909	-120.469	0.348	0.059
-447.895	8.679	-0.382	-0.289
-446.880	7.793	-0.121	-0.091
-445.865	-123.171	0.369	-0.059
-444.851	-200.000	0.005	-0.111
-443.836	-41.535	0.009	0.005
-442.822	-54.254	0.324	0.148
-441.807	18.188	-0.147	-0.117
-440.792	657.676	0.097	0.251
-439.778	317.680	0.105	-0.200
-438.763	80.392	0.114	-0.123
-437.749	-61.153	0.364	-0.154
-436.734	54.302	-0.199	-0.192
-435.719	329.532	-0.228	0.440
-434.705	800.000	0.087	-0.254
-433.690	-32.439	0.213	0.119
-432.676	-200.000	-0.011	-0.124
-431.661	64.355	-0.158	-0.159
-430.646	163.010	-0.176	-0.249
-429.632	15.779	0.160	0.126
-428.617	-43.285	0.064	-0.032
-427.603	-57.665	0.319	-0.140
-426.588	-200.000	-0.017	-0.127
-425.573	60.114	-0.287	-0.284
-424.559	223.568	0.136	0.220
-423.544	-200.000	0.046	0.244
-422.530	11.631	-0.161	-0.123
-421.515	-60.167	-0.202	-0.086
-420.500	480.458	-0.061	-0.138
-419.486	458.384	0.061	0.135
-418.471	511.314	-0.072	-0.167
-417.457	255.587	0.127	-0.218
-416.442	-149.040	-0.167	-0.013
-415.428	-101.074	0.345	-0.085
-414.413	-200.000	-0.029	-0.205
-413.398	-165.241	0.190	0.008
-412.384	-200.000	0.035	-0.192
-411.369	-40.698	0.227	0.118
-410.355	32.791	-0.273	0.237
-409.340	-129.783	0.291	0.040
-408.325	-133.840	-0.460	-0.057
-407.311	-117.341	-0.253	0.046
-406.296	67.848	0.086	0.088
-405.282	-200.000	0.012	-0.135
-404.267	-17.353	-0.393	-0.248
-403.252	-200.000	-0.021	0.375
-402.238	235.460	0.067	-0.110
-401.223	55.997	0.245	0.238
-400.209	44.842	-0.281	0.259
-399.194	292.683	-0.070	-0.128
-398.179	282.022	-0.120	0.216
-397.165	-26.073	0.352	-0.207
-396.150	-200.000	-0.052	0.305
-395.136	35.798	0.392	0.345
-394.121	14.085	0.358	-0.279
-393.106	-58.806	0.261	-0.113
-392.092	142.521	0.124	-0.165
-391.077	-200.000	0.047	0.403
-390.063	-200.000	-0.002	-0.228
-389.048	800.000	0.077	-0.333
-388.033	-88.279	0.129	-0.039
-387.019	114.974	0.075	-0.091
-386.004	-200.000	-0.011	-0.051
-384.990	339.593	-0.116	0.227
-383.975	-145.045	-0.077	0.007
-382.960	516.426	0.055	-0.129
-381.946	618.612	-0.104	-0.261
-380.931	141.136	-0.091	0.121
-379.917	-124.353	0.296	0.046
-378.902	-95.655	0.350	-0.094
-377.888	48.429	0.213	-0.200
-376.873	-21.636	0.059	0.036
-375.858	66.101	-0.120	0.122
-374.844	-31.158	0.176	-0.099
-373.829	-128.630	-0.120	-0.017
-372.815	151.218	-0.143	0.194
-371.800	-200.000	0.020	0.438
-370.785	800.000	-0.047	0.196
-369.771	-61.109	0.228	0.096
-368.756	-33.974	0.151	0.083
-367.742	210.900	-0.224	0.352
-366.727	-153.632	-0.259	0.018
-365.712	175.030	-0.088	-0.127
-364.698	23.350	-0.271	-0.223
-363.683	-168.688	-0.249	-0.009
-362.669	242.991	-0.153	-0.256
-361.654	-120.505	0.312	-0.053
-360.639	-200.000	-0.054	-0.310
-359.625	540.525	0.079	0.187
-358.610	-88.168	0.199	0.060
-357.596	-50.165	0.171	-0.081
-356.581	174.231	0.018	-0.026
-355.566	-200.000	-0.017	0.501
-354.552	194.268	0.116	0.176
-353.537	351.735	-0.154	-0.305
-352.523	-165.855	-0.088	-0.004
-351.508	-39.881	0.221	0.115
-350.493	800.000	0.059	0.205
-349.479	88.029	0.182	-0.202
-348.464	-200.000	0.103	-0.525
-347.450	-200.000	0.025	-0.130
-346.435	-147.440	-0.169	0.014
-345.420	-30.820	0.121	-0.068
-344.406	-191.314	-0.516	-0.005
-343.391	-200.000	-0.004	-0.203
-342.377	-200.000	-0.004	0.136
-341.362	602.761	0.113	-0.280
-340.348	83.787	0.147	0.160
-339.333	-25.788	-0.166	0.098
-338.318	800.000	0.086	-0.297
-337.304	-200.000	0.008	-0.233
-336.289	27.591	0.113	0.095
-335.275	228.646	-0.062	-0.101
-334.260	-200.000	-0.031	0.222
-333.245	-154.753	0.100	-0.007
-332.231	-142.286	-0.235	0.023
-331.216	-103.039	0.322	-0.076
-330.202	-132.719	0.154	0.020
-329.187	207.992	-0.053	0.083
-328.172	210.539	0.176	-0.275
-327.158	-200.000	-0.023	-0.106
-326.143	-200.000	0.032	-0.152
-325.129	-68.363	0.176	0.068
-324.114	-84.962	0.166	-0.052
-323.099	-135.773	0.109	-0.013
-322.085	18.461	0.073	-0.058
-321.070	139.446	0.226	0.297
-320.056	-130.890	-0.095	0.013
-319.041	800.000	-0.091	0.305
-318.026	51.145	-0.035	0.033
-317.012	10.783	-0.257	-0.196
-315.997	165.540	0.056	-0.080
-314.983	-200.000	0.000	0.052
-313.968	-65.256	0.081	0.033
-312.953	800.000	0.055	0.178
-311.939	-200.000	0.032	0.271
-310.924	33.624	-0.098	0.085
-309.910	446.322	0.038	0.083
-308.895	-112.206	0.034	-0.007
-307.880	-62.373	-0.025	0.010
-306.866	-168.853	-0.211	0.008
-305.851	-38.651	0.058	0.030
-304.837	-10.318	0.073	-0.049
-303.822	800.000	-0.026	0.090
-302.807	800.000	0.012	0.042
-301.793	101.765	0.066	-0.076
-300.778	158.547	-0.149	0.207
-299.764	800.000	0.078	0.230
-298.749	-19.747	0.205	-0.127
-297.735	-0.265	-0.145	-0.103
-296.720	164.477	0.287	0.403
-295.705	800.000	0.079	0.338
-294.691	-200.000	0.008	0.046
-293.676	800.000	-0.021	0.063
-292.662	-17.603	0.308	0.193
-291.647	800.000	0.020	0.070
-290.632	-200.000	0.034	0.264
-289.618	-96.859	-0.237	0.062
-288.603	-79.372	0.115	0.039
-287.589	-55.978	0.252	-0.112
-286.574	-200.000	0.004	-0.571
-285.559	129.190	-0.029	-0.036
-284.545	-200.000	0.037	0.304
-283.530	4.657	-0.310	-0.227
-282.516	-146.389	-0.343	-0.030
-281.501	13.926	0.041	-0.032
-280.486	-200.000	-0.022	-0.287
-279.472	1.834	0.338	0.243
-278.457	-87.781	0.263	0.079
-277.443	16.321	-0.177	-0.139
-276.428	-8.591	-0.255	-0.171
-275.413	146.083	-0.175	-0.234
-274.399	38.364	0.260	-0.231
-273.384	800.000	0.071	-0.226
-272.370	-67.586	-0.342	-0.134
-271.355	-65.890	-0.249	-0.099
-270.340	-200.000	0.005	-0.337
-269.326	800.000	-0.084	-0.359
-268.311	-108.827	-0.137	0.029
-267.297	-141.159	-0.208	-0.021
-266.282	-9.321	0.274	-0.182
-265.267	269.097	0.112	0.196
-264.253	-200.000	-0.029	0.149
-263.238	-200.000	-0.003	0.167
-262.224	27.197	-0.173	0.144
-261.209	800.000	0.040	-0.136
-260.195	-177.093	0.186	0.005
-259.180	377.632	0.071	0.146
-258.165	40.629	0.205	0.184
-257.151	599.260	0.025	-0.061
-256.136	-200.000	-0.036	-0.284
-255.122	288.152	0.072	-0.130
-254.107	-140.944	-0.498	-0.051
-253.092	246.669	-0.085	0.142
-252.078	-96.357	-0.335	-0.088
-251.063	-188.530	-0.282	0.003
-250.049	-153.718	0.213	0.015
-249.034	47.434	-0.184	0.170
-248.019	-180.446	0.124	0.003
-247.005	-37.386	-0.239	-0.127
-245.990	65.119	-0.185	0.186
-244.976	-182.086	-0.036	0.001
-243.961	-150.256	-0.242	0.019
-242.946	-132.707	-0.297	0.038
-241.932	143.472	-0.032	-0.043
-240.917	-187.342	-0.160	-0.002
-239.903	119.776	-0.219	0.270
-238.888	-200.000	-0.001	0.008
-237.873	75.723	0.208	0.218
-236.859	-45.438	-0.098	0.048
-235.844	-122.400	0.255	0.041
-234.830	800.000	-0.059	-0.213
-233.815	293.819	-0.134	0.244
-232.800	800.000	-0.080	0.222
-231.786	7.504	0.263	-0.195
-230.771	-97.854	0.116	0.030
-229.757	119.191	-0.201	-0.248
-228.742	-200.000	0.009	-0.189
-227.727	-10.641	-0.123	0.081
-226.713	174.748	0.161	0.231
-225.698	5.361	0.184	-0.135
-224.684	104.091	-0.219	0.256
-223.669	53.281	0.151	0.144
-222.655	12.815	-0.094	-0.073
-221.640	342.867	-0.077	0.150
-220.625	258.478	0.158	-0.271
-219.611	800.000	0.057	-0.191
-218.596	-200.000	0.018	-0.112
-217.582	74.919	-0.153	-0.161
-216.567	-71.817	-0.082	-0.030
-215.552	-166.606	-0.191	0.008
-214.538	751.838	-0.023	-0.062
-213.523	-10.066	0.100	-0.066
-212.509	-40.644	0.147	-0.076
-211.494	800.000	0.111	-0.473
-210.479	230.510	-0.088	0.143
-209.465	9.685	-0.108	-0.082
-208.450	319.389	-0.178	0.336
-207.436	-200.000	0.012	0.140
-206.421	91.192	0.176	-0.197
-205.406	-151.201	-0.187	-0.014
-204.392	-69.638	0.175	-0.067
-203.377	-200.000	0.009	-0.115
-202.363	-200.000	0.047	-0.369
-201.348	-71.344	-0.171	-0.064
-200.333	-83.445	0.209	0.067
-199.319	26.120	0.080	-0.066
-198.304	-31.592	0.085	0.048
-197.290	305.552	0.116	0.215
-196.275	-160.950	-0.453	-0.024
-195.260	-148.845	0.395	0.032
-194.246	162.926	0.353	-0.492
-193.231	42.088	0.193	0.174
-192.217	450.731	-0.055	0.121
-191.202	776.805	0.085	-0.230
-190.187	22.592	0.188	-0.153
-189.173	-147.567	0.255	-0.021
-188.158	-24.082	-0.215	0.128
-187.144	-76.343	-0.107	-0.037
-186.129	-188.944	-0.352	0.004
-185.114	744.132	0.162	0.432
-184.100	-110.393	-0.102	0.021
-183.085	502.759	-0.107	0.245
-182.071	-200.000	-0.006	0.096
-181.056	-27.812	-0.144	0.083
-180.042	800.000	-0.023	0.089
-179.027	-43.657	0.053	0.026
-178.012	-73.230	-0.088	0.032
-176.998	67.543	0.232	-0.235
-175.983	-200.000	-0.097	0.566
-174.969	96.868	0.138	0.157
-173.954	-63.915	0.196	0.080
-172.939	-200.000	-0.001	0.077
-171.925	681.253	0.081	-0.208
-170.910	800.000	-0.047	-0.148
-169.896	668.920	0.161	-0.414
-168.881	638.195	-0.131	0.331
-167.866	-110.801	0.284	-0.058
-166.852	107.025	-0.023	-0.027
-165.837	49.566	0.239	-0.223
-164.823	-200.000	0.056	-0.256
-163.808	481.103	0.053	-0.118
-162.793	-110.505	0.179	-0.037
-161.779	-15.996	-0.219	0.138
-160.764	800.000	-0.069	0.293
-159.750	40.048	-0.093	0.083
-158.735	239.774	-0.034	-0.056
-157.720	800.000	0.140	0.591
-156.706	-68.425	0.303	0.117
-155.691	-185.348	-0.190	0.003
-154.677	-200.000	-0.025	-0.304
-153.662	211.323	-0.210	0.328
-152.647	-130.260	-0.153	0.021
-151.633	-117.059	0.338	-0.061
-150.618	-93.630	0.226	0.062
-149.604	800.000	-0.075	-0.231
-148.589	800.000	0.015	0.054
-147.574	-159.932	0.261	-0.014
-146.560	-200.000	-0.022	0.267
-145.545	800.000	0.099	-0.271
-144.531	38.829	0.211	0.187
-143.516	-92.946	0.266	-0.074
-142.502	-26.711	0.248	-0.144
-141.487	8.246	0.180	0.134
-140.472	-22.015	-0.281	0.169
-139.458	-200.000	0.005	-0.365
-138.443	162.573	-0.139	0.193
-137.429	25.043	0.178	0.147
-136.414	154.699	0.086	-0.117
-135.399	-177.021	0.313	-0.008
-134.385	68.993	-0.047	-0.048
-133.370	-87.941	-0.110	-0.033
-132.356	442.274	0.128	0.278
-131.341	-150.296	0.185	0.014
-130.326	341.116	-0.068	0.131
-129.312	-157.142	-0.129	0.008
-128.297	800.000	0.061	0.174
-127.283	117.631	0.208	0.254
-126.268	68.344	-0.219	0.222
-125.253	-33.898	0.111	0.060
-124.239	-115.562	-0.171	-0.032
-123.224	205.521	-0.110	-0.169
-122.210	17.227	-0.152	-0.119
