DTS Sentinel unit serial number:	SN413079Multiplexer serial number:	ORYXHardware model number:	OX4-SRSoftware version number:	ORYX F/W v4.00 Oryx Data Collector v3.7.2.0data status	okinstallation	princeton_trtdifferential loss correction	single-endedforward channel	channel 3reverse channel	N/Adate	2019/09/18time	17:52:35forward acquisition time	60.00reverse acquisition time	0.00gamma	496.2192k internal	0.2293k external	0.2293temperature offset calibration	0.9998default loss term (dB/km)	0.3790temperature slope calibration	1.0000multiplexer offset coefficient	1.0000multiplexer slope coefficient	1.0000fibre end	0.00T internal ref (°C)	40.09T ext. ref 1 (°C)	0.93T ext. ref 2 (°C)	31.33length (m)	temperature (°C)	Stokes	anti-Stokes-747.200	800.000	0.054	-0.190
-746.185	333.835	-0.086	0.171
-745.171	-167.084	-0.199	-0.008
-744.156	-200.000	0.004	-0.045
-743.142	-72.417	-0.321	-0.122
-742.127	-32.853	0.288	-0.164
-741.112	-177.631	0.292	0.007
-740.098	-106.938	-0.246	-0.056
-739.083	265.153	0.145	0.259
-738.069	-92.420	-0.204	0.059
-737.054	304.599	0.068	0.128
-736.039	-200.000	0.042	0.381
-735.025	76.649	0.196	-0.212
-734.010	-200.000	-0.103	-0.547
-732.996	-9.862	0.191	-0.130
-731.981	408.936	0.152	-0.328
-730.966	2.844	-0.265	0.197
-729.952	-174.590	0.053	0.002
-728.937	252.107	0.227	-0.396
-727.923	98.251	0.066	-0.077
-726.908	-110.114	-0.363	-0.078
-725.894	-120.979	-0.267	-0.046
-724.879	-200.000	0.034	-0.437
-723.864	336.338	0.110	-0.218
-722.850	-20.251	0.257	-0.162
-721.835	-8.176	-0.136	-0.094
-720.821	-200.000	0.053	-0.307
-719.806	-33.809	-0.280	-0.157
-718.791	-36.953	-0.329	-0.180
-717.777	-70.562	-0.069	0.027
-716.762	-72.073	-0.222	-0.084
-715.748	12.763	0.074	-0.059
-714.733	670.897	0.143	-0.378
-713.718	-68.250	0.039	-0.016
-712.704	82.898	-0.249	-0.277
-711.689	181.686	0.061	-0.091
-710.675	-92.833	0.145	0.042
-709.660	644.829	-0.026	-0.069
-708.645	800.000	0.018	-0.057
-707.631	-200.000	0.100	-0.511
-706.616	-200.000	-0.006	-0.246
-705.602	-121.176	-0.189	-0.032
-704.587	-82.162	0.220	-0.073
-703.572	-3.210	-0.245	-0.174
-702.558	1.853	-0.053	-0.039
-701.543	59.757	-0.133	0.134
-700.529	104.286	-0.186	0.223
-699.514	-200.000	-0.004	0.108
-698.499	-75.271	-0.144	-0.053
-697.485	800.000	0.047	0.143
-696.470	-43.253	-0.048	-0.025
-695.456	41.091	0.292	-0.270
-694.441	-125.422	-0.130	0.020
-693.426	-45.788	-0.144	-0.073
-692.412	27.434	0.145	-0.124
-691.397	79.378	-0.210	-0.230
-690.383	-200.000	-0.037	0.197
-689.368	-53.225	-0.111	-0.052
-688.354	-167.217	0.165	-0.007
-687.339	697.547	0.079	-0.211
-686.324	610.964	0.090	-0.229
-685.310	-18.357	0.239	0.152
-684.295	-152.615	0.326	-0.024
-683.281	-109.108	0.110	0.024
-682.266	384.549	-0.052	-0.109
-681.251	-200.000	-0.004	-0.131
-680.237	800.000	-0.091	-0.325
-679.222	65.646	-0.085	0.088
-678.208	178.675	0.059	0.088
-677.193	-184.602	0.167	0.003
-676.178	-200.000	-0.012	-0.225
-675.164	-164.197	0.166	0.008
-674.149	-12.945	0.193	0.128
-673.135	-200.000	0.080	-0.413
-672.120	-156.589	-0.201	0.013
-671.105	-55.579	0.372	0.170
-670.091	40.092	-0.125	-0.115
-669.076	250.616	0.126	0.218
-668.062	-129.410	-0.103	0.015
-667.047	800.000	0.092	-0.311
-666.032	-31.785	-0.099	-0.057
-665.018	800.000	-0.125	-0.428
-664.003	262.174	-0.086	0.152
-662.989	-200.000	0.032	-0.192
-661.974	-161.885	-0.034	0.002
-660.959	156.052	-0.105	-0.148
-659.945	-51.886	-0.122	0.058
-658.930	-93.085	0.054	-0.015
-657.916	-25.982	0.175	0.105
-656.901	219.525	-0.130	-0.212
-655.886	762.690	-0.142	-0.392
-654.872	40.719	-0.390	0.358
-653.857	-130.746	0.344	-0.047
-652.843	-200.000	0.036	-0.180
-651.828	-55.767	-0.171	-0.078
-650.814	-103.189	-0.096	0.023
-649.799	-48.882	0.119	0.058
-648.784	-80.229	-0.540	-0.184
-647.770	-48.938	0.180	0.088
-646.755	-200.000	-0.040	0.201
-645.741	-200.000	-0.084	-0.388
-644.726	74.962	-0.114	0.122
-643.711	-200.000	0.015	0.204
-642.697	800.000	-0.035	0.122
-641.682	-50.184	-0.197	-0.095
-640.668	-101.061	-0.200	-0.050
-639.653	-200.000	-0.059	0.349
-638.638	-200.000	0.015	-0.363
-637.624	3.628	-0.241	0.179
-636.609	241.731	0.229	0.390
-635.595	-88.535	0.304	-0.092
-634.580	800.000	-0.043	-0.142
-633.565	125.286	-0.114	0.146
-632.551	155.450	-0.019	0.027
-631.536	-90.978	-0.023	0.007
-630.522	-141.234	0.174	0.018
-629.507	-200.000	-0.014	0.074
-628.492	-57.946	-0.427	-0.190
-627.478	-95.965	-0.222	0.060
-626.463	800.000	0.035	-0.128
-625.449	33.959	-0.265	0.235
-624.434	-17.516	0.224	-0.144
-623.419	53.106	-0.238	-0.232
-622.405	493.203	-0.112	0.263
-621.390	-102.141	-0.235	-0.058
-620.376	-103.614	-0.250	0.060
-619.361	21.786	-0.319	0.265
-618.346	16.211	-0.049	-0.040
-617.332	-75.611	0.182	0.066
-616.317	246.502	0.063	-0.108
-615.303	-200.000	0.092	0.505
-614.288	17.493	0.296	-0.240
-613.273	-144.030	-0.309	-0.030
-612.259	800.000	0.025	0.083
-611.244	9.664	-0.175	-0.135
-610.230	-144.613	-0.122	0.011
-609.215	318.018	-0.156	-0.300
-608.201	98.102	-0.286	0.335
-607.186	216.315	0.084	-0.135
-606.171	800.000	-0.093	-0.392
-605.157	-200.000	-0.067	0.310
-604.142	-121.707	-0.071	0.012
-603.128	93.923	0.166	0.191
-602.113	800.000	0.062	0.201
-601.098	-67.040	0.247	0.099
-600.084	-117.961	-0.264	-0.048
-599.069	-200.000	-0.037	-0.182
-598.055	285.567	0.185	-0.339
-597.040	800.000	-0.080	-0.258
-596.025	-124.621	-0.112	0.018
-595.011	-99.415	-0.249	-0.064
-593.996	432.949	-0.105	-0.233
-592.982	-200.000	0.013	0.181
-591.967	-41.576	-0.262	-0.137
-590.952	-107.850	0.482	0.107
-589.938	-117.291	-0.082	0.015
-588.923	-200.000	-0.002	-0.428
-587.909	528.648	0.103	-0.246
-586.894	-38.242	0.135	0.073
-585.879	-86.113	0.397	0.125
-584.865	-200.000	0.037	0.311
-583.850	584.018	0.071	0.178
-582.836	-38.478	-0.189	-0.101
-581.821	36.392	0.141	-0.127
-580.806	-3.622	0.107	-0.076
-579.792	800.000	-0.042	0.188
-578.777	754.775	0.147	0.403
-577.763	-53.256	-0.206	0.096
-576.748	-74.389	-0.140	0.051
-575.733	201.388	-0.120	0.187
-574.719	-54.415	-0.125	-0.058
-573.704	-136.321	-0.074	-0.009
-572.690	-200.000	0.046	-0.314
-571.675	403.482	-0.171	-0.366
-570.661	-111.366	0.450	0.093
-569.646	-2.826	0.396	-0.281
-568.631	-135.337	0.033	0.004
-567.617	-12.955	-0.117	0.078
-566.602	-66.060	-0.141	-0.057
-565.588	-88.971	-0.102	0.031
-564.573	191.359	-0.094	0.144
-563.558	-200.000	0.011	0.380
-562.544	691.556	0.109	0.291
-561.529	-200.000	-0.161	0.000
-560.515	-78.809	0.204	0.071
-559.500	-42.877	-0.069	-0.036
-558.485	40.878	0.021	0.020
-557.471	800.000	0.102	0.339
-556.456	-133.671	-0.227	0.029
-555.442	-156.483	0.179	0.011
-554.427	43.054	0.125	-0.116
-553.412	-107.679	-0.323	-0.072
-552.398	-157.250	0.422	-0.026
-551.383	-95.824	-0.410	0.111
-550.369	-164.408	-0.233	0.011
-549.354	-200.000	-0.009	-0.041
-548.339	526.197	-0.072	-0.172
-547.325	574.461	0.088	0.218
-546.310	-17.072	-0.302	-0.193
-545.296	-200.000	-0.027	0.168
-544.281	180.377	-0.093	-0.138
-543.266	-200.000	0.051	-0.324
-542.252	-200.000	0.090	-0.619
-541.237	-142.818	-0.098	-0.010
-540.223	8.922	0.341	0.261
-539.208	-154.733	0.098	-0.007
-538.193	-119.099	-0.228	-0.041
-537.179	200.590	0.266	-0.415
-536.164	566.085	-0.065	0.160
-535.150	-200.000	0.021	-0.106
-534.135	176.647	-0.225	0.331
-533.121	-200.000	-0.072	-0.399
-532.106	-81.946	-0.166	-0.055
-531.091	-10.356	0.180	-0.121
-530.077	23.976	-0.184	0.154
-529.062	245.141	-0.039	0.067
-528.048	-193.191	-0.198	0.002
-527.033	-40.556	0.291	-0.153
-526.018	-58.339	0.269	-0.119
-525.004	-200.000	0.055	0.610
-523.989	-66.885	-0.184	0.074
-522.975	-200.000	0.008	0.208
-521.960	-13.818	-0.212	0.139
-520.945	99.768	0.130	0.153
-519.931	-20.978	-0.190	-0.118
-518.916	-20.804	-0.078	0.049
-517.902	59.523	-0.042	-0.042
-516.887	-86.450	-0.110	0.034
-515.872	239.394	0.066	-0.111
-514.858	69.277	-0.094	-0.098
-513.843	-111.551	0.189	0.039
-512.829	-32.694	-0.180	0.102
-511.814	-97.709	-0.206	0.054
-510.799	66.544	-0.088	-0.091
-509.785	-13.532	0.343	0.225
-508.770	-106.129	0.249	0.057
-507.756	66.167	-0.025	-0.026
-506.741	208.920	-0.126	0.200
-505.726	-200.000	-0.050	-0.238
-504.712	-111.760	-0.093	-0.019
-503.697	-106.842	-0.220	-0.050
-502.683	-37.560	0.030	0.016
-501.668	150.342	-0.153	0.210
-500.653	211.454	-0.015	-0.023
-499.639	75.734	-0.270	0.289
-498.624	338.797	-0.095	-0.187
-497.610	261.306	-0.054	-0.095
-496.595	37.369	-0.147	-0.132
-495.581	-6.056	-0.271	-0.188
-494.566	311.746	0.110	-0.208
-493.551	-200.000	-0.050	0.352
-492.537	-36.505	-0.023	-0.012
-491.522	491.913	-0.048	-0.112
-490.508	706.698	0.150	-0.400
-489.493	35.223	0.186	-0.165
-488.478	124.036	-0.027	0.034
-487.464	-200.000	0.016	0.094
-486.449	62.955	-0.046	0.047
-485.435	-4.779	0.127	0.089
-484.420	129.036	-0.040	-0.051
-483.405	-200.000	-0.073	0.435
-482.391	82.553	-0.125	0.138
-481.376	-200.000	-0.011	-0.186
-480.362	-107.614	0.265	0.059
-479.347	130.106	0.150	-0.194
-478.332	341.634	0.038	0.076
-477.318	800.000	-0.026	-0.078
-476.303	-200.000	0.039	0.215
-475.289	-16.345	0.191	0.122
-474.274	-70.813	-0.173	-0.066
-473.259	-60.294	0.301	-0.130
-472.245	561.833	-0.008	-0.020
-471.230	27.828	0.073	0.062
-470.216	-200.000	-0.018	0.190
-469.201	133.411	-0.065	0.085
-468.186	2.346	0.100	-0.073
-467.172	227.050	-0.140	0.230
-466.157	762.685	0.034	-0.094
-465.143	484.444	0.132	-0.304
-464.128	-200.000	-0.031	-0.198
-463.113	-130.945	0.158	0.021
-462.099	227.207	-0.059	-0.097
-461.084	65.230	-0.185	0.190
-460.070	542.410	-0.046	0.110
-459.055	145.286	0.283	-0.384
-458.040	74.643	-0.150	-0.160
-457.026	43.549	0.181	-0.167
-456.011	262.866	-0.035	-0.061
-454.997	77.706	0.208	0.224
-453.982	585.071	-0.064	-0.159
-452.968	-112.688	-0.194	0.039
-451.953	-100.564	0.184	-0.046
-450.938	62.821	0.184	0.186
-449.924	-120.666	0.211	-0.036
-448.909	-200.000	0.006	0.073
-447.895	-18.362	0.088	0.055
-446.880	-200.000	-0.021	-0.252
-445.865	309.105	0.181	-0.342
-444.851	345.391	0.011	-0.022
-443.836	26.351	0.217	-0.183
-442.822	-125.599	-0.464	0.071
-441.807	-200.000	0.056	-0.299
-440.792	-200.000	-0.013	0.065
-439.778	15.544	-0.119	0.095
-438.763	-76.862	0.105	-0.037
-437.749	448.641	-0.175	-0.389
-436.734	-31.621	-0.305	-0.173
-435.719	49.132	-0.058	0.055
-434.705	-0.491	0.195	-0.140
-433.690	468.281	-0.077	-0.175
-432.676	-80.294	-0.148	0.050
-431.661	189.626	-0.139	0.211
-430.646	42.033	-0.063	0.058
-429.632	800.000	0.046	-0.173
-428.617	131.975	-0.126	0.164
-427.603	-120.262	0.457	-0.079
-426.588	-129.944	-0.054	0.007
-425.573	-70.171	0.072	-0.028
-424.559	-172.545	0.339	-0.011
-423.544	70.077	0.074	0.078
-422.530	-54.844	-0.280	-0.128
-421.515	60.610	-0.191	0.191
-420.500	65.306	-0.210	0.215
-419.486	137.760	0.138	0.183
-418.471	234.930	-0.252	0.420
-417.457	54.631	0.134	-0.131
-416.442	-200.000	0.036	0.255
-415.428	477.731	0.047	0.106
-414.413	-18.632	-0.150	-0.094
-413.398	-200.000	-0.014	-0.180
-412.384	-68.981	0.301	-0.117
-411.369	-39.513	0.194	0.102
-410.355	-200.000	-0.009	0.046
-409.340	-101.729	0.241	0.059
-408.325	-151.428	0.093	0.007
-407.311	185.685	-0.101	-0.151
-406.296	46.495	-0.160	0.150
-405.282	-67.515	-0.347	0.137
-404.267	-119.786	-0.274	0.048
-403.252	100.660	0.161	-0.189
-402.238	-90.484	0.371	0.109
-401.223	-61.320	-0.205	0.087
-400.209	-200.000	0.038	-0.240
-399.194	114.551	0.153	0.189
-398.179	-51.341	-0.011	-0.005
-397.165	5.820	0.350	0.261
-396.150	34.314	0.206	0.182
-395.136	-13.908	-0.143	0.093
-394.121	-200.000	0.024	-0.405
-393.106	-200.000	-0.025	-0.113
-392.092	670.272	0.053	0.138
-391.077	800.000	0.081	0.247
-390.063	266.356	0.126	-0.223
-389.048	-61.568	-0.191	-0.081
-388.033	447.287	-0.156	-0.347
-387.019	-165.901	0.163	-0.007
-386.004	800.000	-0.083	0.233
-384.990	248.290	-0.175	-0.299
-383.975	43.346	-0.070	0.065
-382.960	38.466	0.158	0.142
-381.946	800.000	-0.091	-0.255
-380.931	349.803	0.134	0.268
-379.917	227.344	0.234	-0.384
-378.902	-89.890	0.217	-0.064
-377.888	145.509	0.157	-0.212
-376.873	800.000	0.067	0.239
-375.858	-77.593	-0.316	-0.111
-374.844	564.909	-0.093	-0.228
-373.829	-127.817	0.302	0.044
-372.815	-112.913	0.246	-0.049
-371.800	186.642	-0.124	-0.186
-370.785	-200.000	0.013	0.089
-369.771	74.629	0.037	0.039
-368.756	800.000	0.117	-0.389
-367.742	381.708	0.086	-0.178
-366.727	419.616	-0.122	0.263
-365.712	-175.631	-0.212	0.006
-364.698	-200.000	0.012	0.127
-363.683	-136.558	0.177	0.021
-362.669	-200.000	0.004	-0.020
-361.654	800.000	-0.088	0.295
-360.639	166.011	0.146	0.208
-359.625	-200.000	0.018	0.101
-358.610	-117.098	0.099	-0.018
-357.596	-1.516	0.059	0.042
-356.581	-87.122	0.128	0.039
-355.566	-200.000	-0.008	-0.160
-354.552	46.420	0.053	-0.050
-353.537	457.017	-0.022	-0.049
-352.523	800.000	-0.026	-0.102
-351.508	17.108	0.357	0.285
-350.493	-200.000	0.049	0.454
-349.479	79.851	0.120	0.130
-348.464	541.041	-0.042	0.101
-347.450	-26.814	0.144	-0.085
-346.435	-165.276	0.069	0.003
-345.420	769.036	0.046	-0.126
-344.406	800.000	-0.018	0.074
-343.391	-200.000	-0.011	-0.230
-342.377	-65.097	0.040	-0.016
-341.362	-66.433	0.144	0.058
-340.348	-200.000	-0.006	-0.033
-339.333	124.841	-0.114	0.145
-338.318	280.827	-0.023	0.041
-337.304	800.000	0.038	-0.153
-336.289	336.208	-0.182	0.356
-335.275	-27.789	-0.122	-0.071
-334.260	0.278	0.146	0.105
-333.245	41.291	-0.073	0.066
-332.231	-70.014	-0.323	-0.124
-331.216	-17.323	0.155	-0.099
-330.202	-180.932	0.311	-0.006
-329.187	56.815	0.191	0.187
-328.172	-200.000	-0.064	0.369
-327.158	30.846	-0.128	-0.111
-326.143	-1.569	-0.068	0.048
-325.129	800.000	-0.116	0.327
-324.114	800.000	0.055	-0.197
-323.099	-200.000	0.051	-0.238
-322.085	-42.755	0.127	0.065
-321.070	-33.018	0.414	-0.231
-320.056	-27.568	0.194	0.113
-319.041	108.161	-0.170	-0.204
-318.026	9.948	-0.117	0.090
-317.012	76.085	0.114	-0.122
-315.997	17.005	-0.188	-0.150
-314.983	336.969	-0.138	0.270
-313.968	19.439	-0.089	0.072
-312.953	-53.440	0.480	0.221
-311.939	128.551	0.067	0.086
-310.924	32.182	0.211	-0.183
-309.910	139.156	-0.173	0.229
-308.895	-28.178	-0.114	0.066
-307.880	-17.143	-0.356	0.226
-306.866	-80.251	0.232	0.078
-305.851	431.682	-0.121	0.263
-304.837	130.381	-0.072	0.093
-303.822	-1.838	-0.309	0.219
-302.807	-28.571	0.304	-0.176
-301.793	-200.000	-0.024	0.182
-300.778	432.728	0.118	0.258
-299.764	-13.247	-0.415	0.271
-298.749	-200.000	0.025	-0.140
-297.735	-6.714	0.261	0.179
-296.720	62.969	-0.201	-0.202
-295.705	-134.970	0.297	-0.036
-294.691	-200.000	0.019	0.277
-293.676	361.688	0.108	-0.218
-292.662	800.000	-0.038	0.161
-291.647	294.449	0.110	-0.202
-290.632	5.456	-0.135	0.100
-289.618	-108.832	-0.070	0.015
-288.603	103.285	0.025	-0.029
-287.589	-128.154	0.205	0.029
-286.574	3.928	-0.140	0.103
-285.559	-200.000	-0.039	-0.208
-284.545	-184.107	0.168	0.003
-283.530	118.442	-0.077	-0.096
-282.516	-140.101	0.070	0.007
-281.501	-25.220	0.121	0.072
-280.486	225.649	-0.184	0.300
-279.472	-59.880	-0.263	-0.113
-278.457	-47.338	-0.102	0.050
-277.443	800.000	-0.054	-0.230
-276.428	53.764	-0.216	0.208
-275.413	100.295	-0.152	-0.177
-274.399	800.000	0.015	0.046
-273.384	-187.531	0.127	0.002
-272.370	17.174	0.274	0.219
-271.355	-200.000	0.002	-0.025
-270.340	-26.868	-0.335	-0.196
-269.326	155.195	0.071	-0.099
-268.311	-108.420	0.108	0.023
-267.297	-143.336	0.095	0.009
-266.282	53.918	-0.175	-0.169
-265.267	-80.740	-0.373	-0.124
-264.253	21.025	-0.192	-0.156
-263.238	45.407	-0.084	0.078
-262.224	117.527	0.242	-0.299
-261.209	515.240	-0.073	0.171
-260.195	-128.490	0.206	-0.029
-259.180	31.870	0.116	-0.100
-258.165	265.008	0.079	0.138
-257.151	25.430	-0.140	0.117
-256.136	-200.000	0.041	0.202
-255.122	351.579	0.197	-0.393
-254.107	-29.607	-0.175	-0.100
-253.092	159.102	0.110	-0.153
-252.078	-58.483	0.252	0.110
-251.063	-16.058	-0.327	0.209
-250.049	800.000	0.046	-0.137
-249.034	36.420	-0.376	-0.333
-248.019	489.709	0.136	-0.313
-247.005	-116.197	0.305	0.057
-245.990	800.000	0.034	0.106
-244.976	-92.459	0.269	-0.076
-243.961	-200.000	-0.014	0.099
-242.946	34.757	0.097	0.085
-241.932	-200.000	0.060	-0.274
-240.917	-53.909	0.066	0.030
-239.903	-37.903	-0.122	0.065
-238.888	46.186	-0.111	0.103
-237.873	800.000	0.134	-0.454
-236.859	-69.421	-0.208	-0.080
-235.844	-54.878	-0.244	-0.110
-234.830	-80.721	0.224	-0.075
-233.815	151.488	0.130	0.178
-232.800	598.052	0.112	-0.278
-231.786	85.145	-0.074	0.081
-230.771	-96.574	0.174	-0.046
-229.757	-200.000	-0.011	-0.164
-228.742	-30.567	-0.184	0.104
-227.727	101.763	-0.184	-0.215
-226.713	-200.000	-0.043	-0.345
-225.698	-200.000	0.003	0.054
-224.684	345.693	0.162	0.320
-223.669	-97.480	-0.223	0.058
-222.655	91.702	-0.276	0.311
-221.640	778.598	0.146	0.401
-220.625	-200.000	0.011	-0.054
-219.611	-200.000	-0.029	-0.326
-218.596	316.876	-0.150	0.284
-217.582	-99.083	-0.315	0.080
-216.567	-16.424	-0.065	0.041
-215.552	228.077	0.105	-0.172
-214.538	-48.107	-0.099	0.048
-213.523	-143.012	0.274	-0.027
-212.509	-110.961	-0.086	-0.018
-211.494	800.000	-0.020	-0.056
-210.479	386.592	-0.096	0.199
-209.465	33.739	0.235	-0.204
-208.450	-200.000	-0.093	-0.420
-207.436	-51.112	0.157	-0.074
-206.421	598.814	0.032	-0.080
-205.406	-200.000	-0.012	0.059
-204.392	-200.000	-0.091	0.409
-203.377	800.000	0.099	0.277
-202.363	154.828	0.153	-0.211
-201.348	-35.398	0.138	0.075
-200.333	-200.000	0.025	0.211
-199.319	-200.000	0.041	0.184
-198.304	5.714	0.231	0.171
-197.290	142.107	0.082	-0.109
-196.275	800.000	0.107	0.341
-195.260	94.514	0.136	0.155
-194.246	800.000	-0.050	-0.164
-193.231	-57.998	-0.138	0.060
-192.217	-72.674	0.285	0.105
-191.202	-38.254	0.174	-0.093
-190.187	62.861	-0.104	-0.105
-189.173	313.406	-0.100	-0.188
-188.158	-34.323	0.209	-0.115
-187.144	96.961	-0.169	-0.193
-186.129	-170.588	-0.395	-0.014
-185.114	-12.496	-0.308	0.201
-184.100	-142.373	0.268	-0.026
-183.085	59.784	-0.200	-0.197
-182.071	366.405	0.123	-0.249
-181.056	-98.257	-0.491	-0.126
-180.042	-40.465	-0.164	0.085
-179.027	-76.263	0.186	0.066
-178.012	-13.060	0.128	-0.084
-176.998	137.422	-0.056	-0.073
-175.983	-114.710	0.121	0.023
-174.969	-97.114	-0.041	-0.011
-173.954	-119.676	0.322	0.056
-172.939	-43.428	0.278	0.140
-171.925	68.868	0.079	0.081
-170.910	79.956	0.167	0.180
-169.896	156.065	-0.050	0.069
-168.881	-17.494	0.195	0.123
-167.866	-200.000	-0.069	-0.410
-166.852	210.415	0.037	-0.058
-165.837	182.695	0.220	0.325
-164.823	-66.360	0.133	-0.053
-163.808	489.252	-0.081	-0.185
-162.793	500.062	0.103	-0.238
-161.779	800.000	-0.070	-0.296
-160.764	-20.296	0.085	0.052
-159.750	27.459	-0.117	-0.099
-158.735	166.411	0.159	0.226
-157.720	-200.000	0.016	-0.248
-156.706	158.916	-0.335	-0.466
-155.691	800.000	-0.047	0.196
-154.677	-45.007	-0.066	-0.033
-153.662	-43.168	0.460	0.233
-152.647	677.801	-0.054	-0.141
-151.633	109.352	-0.097	0.116
-150.618	-200.000	-0.005	0.124
-149.604	60.589	0.345	0.342
-148.589	-7.390	0.258	-0.174
-147.574	-81.228	0.234	-0.077
-146.560	280.018	-0.055	-0.099
-145.545	8.654	0.442	0.332
-144.531	-163.008	-0.101	-0.005
-143.516	544.282	-0.144	0.345
-142.502	288.072	0.074	-0.133
-141.487	-78.098	0.068	-0.023
-140.472	10.943	-0.223	-0.170
-139.458	-51.619	-0.171	0.080
-138.443	-200.000	-0.193	0.000
-137.429	800.000	-0.063	0.253
-136.414	-200.000	0.016	0.208
-135.399	6.690	0.093	-0.069
-134.385	-99.427	0.229	-0.058
-133.370	-200.000	0.003	0.222
-132.356	-101.958	-0.215	0.052
-131.341	287.787	0.173	-0.312
-130.326	800.000	0.145	-0.435
-129.312	-65.769	0.174	-0.070
-128.297	-105.920	0.134	0.030
-127.283	405.459	-0.057	0.121
-126.268	-200.000	-0.023	0.108
-125.253	-84.582	0.284	0.089
-124.239	-200.000	-0.032	-0.209
-123.224	800.000	-0.120	0.353
-122.210	-200.000	-0.020	-0.208
-121.195	123.307	-0.056	-0.070
