DTS Sentinel unit serial number:	SN413079Multiplexer serial number:	ORYXHardware model number:	OX4-SRSoftware version number:	ORYX F/W v4.00 Oryx Data Collector v3.7.2.0data status	okinstallation	princeton_trtdifferential loss correction	single-endedforward channel	channel 3reverse channel	N/Adate	2019/09/11time	10:18:11forward acquisition time	60.00reverse acquisition time	0.00gamma	496.2192k internal	0.2299k external	0.2299temperature offset calibration	0.9936default loss term (dB/km)	0.3790temperature slope calibration	1.0000multiplexer offset coefficient	1.0000multiplexer slope coefficient	1.0000fibre end	0.00T internal ref (°C)	36.02T ext. ref 1 (°C)	0.17T ext. ref 2 (°C)	33.57length (m)	temperature (°C)	Stokes	anti-Stokes-747.200	79.844	-0.171	0.188
-746.185	215.571	-0.175	0.283
-745.171	-106.456	0.377	0.086
-744.156	-200.000	0.051	0.522
-743.142	-71.918	0.232	0.088
-742.127	-200.000	-0.055	0.305
-741.112	364.363	0.101	0.207
-740.098	-84.989	-0.325	0.104
-739.083	-82.520	0.375	-0.124
-738.069	143.240	-0.157	-0.214
-737.054	-17.474	-0.128	0.082
-736.039	-64.687	-0.389	-0.161
-735.025	47.627	0.209	0.199
-734.010	118.428	-0.151	-0.190
-732.996	-34.071	-0.439	-0.246
-731.981	248.837	0.044	0.077
-730.966	473.403	-0.103	-0.236
-729.952	-118.557	0.132	-0.024
-728.937	1.475	0.309	-0.227
-727.923	327.415	-0.198	0.387
-726.908	14.057	0.065	0.051
-725.894	18.094	0.147	0.120
-724.879	-200.000	0.001	-0.019
-723.864	59.881	0.183	0.185
-722.850	-200.000	0.021	0.314
-721.835	319.475	-0.100	-0.194
-720.821	457.845	0.171	-0.387
-719.806	402.764	0.122	-0.261
-718.791	17.452	-0.281	-0.227
-717.777	41.574	0.213	-0.197
-716.762	-27.402	-0.048	-0.029
-715.748	140.599	-0.073	0.098
-714.733	-200.000	-0.051	0.444
-713.718	-157.827	-0.378	-0.023
-712.704	418.844	-0.063	0.137
-711.689	-200.000	0.019	-0.111
-710.675	37.305	0.106	-0.096
-709.660	151.385	-0.226	-0.313
-708.645	800.000	-0.042	-0.145
-707.631	213.493	-0.181	0.292
-706.616	0.902	0.251	0.183
-705.602	-200.000	0.021	-0.195
-704.587	-129.130	0.285	-0.041
-703.572	-164.873	-0.263	0.012
-702.558	800.000	-0.034	0.112
-701.543	-189.669	0.279	0.003
-700.529	128.221	0.247	0.320
-699.514	-200.000	0.042	0.187
-698.499	2.526	-0.135	-0.100
-697.485	-108.422	0.170	-0.037
-696.470	164.326	-0.135	0.194
-695.456	580.855	0.095	-0.237
-694.441	-3.252	-0.284	-0.202
-693.426	-101.042	0.169	0.042
-692.412	-185.030	0.443	-0.007
-691.397	-200.000	-0.024	0.322
-690.383	-130.580	0.093	0.013
-689.368	-200.000	0.009	-0.178
-688.354	-112.198	-0.030	-0.006
-687.339	-200.000	0.032	-0.370
-686.324	-71.008	-0.149	0.057
-685.310	-176.692	0.376	-0.010
-684.295	800.000	-0.026	-0.108
-683.281	-44.377	-0.182	-0.093
-682.266	-200.000	0.007	0.091
-681.251	107.623	0.040	-0.049
-680.237	43.093	-0.051	0.048
-679.222	-146.328	-0.323	-0.029
-678.208	220.561	-0.189	0.308
-677.193	-200.000	-0.009	-0.169
-676.178	-93.751	-0.245	-0.069
-675.164	-77.697	0.126	0.044
-674.149	-152.003	0.169	0.013
-673.135	-17.587	0.240	0.154
-672.120	800.000	0.043	-0.123
-671.105	204.060	0.033	-0.052
-670.091	-148.806	-0.133	-0.011
-669.076	-33.348	-0.310	-0.174
-668.062	-114.241	-0.257	-0.050
-667.047	-200.000	-0.020	0.139
-666.032	-164.634	0.278	0.013
-665.018	-169.228	-0.323	-0.012
-664.003	-124.217	-0.255	0.041
-662.989	135.282	-0.024	-0.031
-661.974	-34.555	0.169	0.094
-660.959	-200.000	0.090	-0.409
-659.945	-179.416	-0.181	0.004
-658.930	-200.000	-0.031	0.159
-657.916	-80.009	0.361	0.123
-656.901	-200.000	0.033	-0.176
-655.886	269.145	0.111	0.198
-654.872	73.238	0.058	0.061
-653.857	63.935	-0.131	-0.134
-652.843	-55.930	-0.143	-0.065
-651.828	-121.003	0.209	-0.036
-650.814	800.000	-0.070	-0.254
-649.799	-67.576	0.172	-0.069
-648.784	-77.799	-0.169	0.059
-647.770	75.543	0.221	-0.237
-646.755	648.971	0.119	-0.311
-645.741	91.785	0.101	-0.115
-644.726	-145.638	-0.274	0.025
-643.711	751.044	-0.095	-0.259
-642.697	176.573	-0.261	0.385
-641.682	464.301	-0.061	0.138
-640.668	523.414	-0.088	0.210
-639.653	420.620	0.148	0.323
-638.638	-124.665	-0.187	-0.029
-637.624	-149.798	0.109	-0.009
-636.609	300.994	-0.112	-0.211
-635.595	-200.000	0.088	-0.395
-634.580	-200.000	-0.028	-0.257
-633.565	-27.660	-0.274	0.162
-632.551	316.047	0.082	0.158
-631.536	-154.426	-0.110	-0.008
-630.522	-200.000	0.004	0.527
-629.507	-200.000	0.007	0.355
-628.492	800.000	-0.008	-0.034
-627.478	-143.736	0.374	0.036
-626.463	-160.045	0.196	0.011
-625.449	-200.000	-0.025	0.260
-624.434	-142.018	-0.342	-0.035
-623.419	145.828	0.173	-0.236
-622.405	152.143	0.077	0.107
-621.390	-85.146	-0.255	0.081
-620.376	583.280	0.115	0.285
-619.361	-111.931	-0.118	0.024
-618.346	-139.109	-0.246	0.027
-617.332	46.075	-0.117	-0.110
-616.317	59.755	-0.149	0.149
-615.303	-200.000	0.002	-0.139
-614.288	38.675	0.124	-0.112
-613.273	133.433	0.181	-0.237
-612.259	36.377	0.301	-0.270
-611.244	-200.000	-0.040	-0.272
-610.230	87.370	-0.232	-0.260
-609.215	99.714	0.421	-0.495
-608.201	171.250	-0.089	-0.129
-607.186	38.361	-0.190	-0.172
-606.171	-10.223	-0.157	0.106
-605.157	428.087	0.257	0.563
-604.142	-79.173	0.238	-0.082
-603.128	27.229	-0.279	-0.238
-602.113	800.000	0.029	0.109
-601.098	-200.000	0.006	-0.173
-600.084	-69.841	-0.215	-0.083
-599.069	800.000	0.059	-0.201
-598.055	-3.037	-0.178	0.126
-597.040	800.000	-0.065	-0.277
-596.025	-42.167	-0.124	0.064
-595.011	800.000	0.036	-0.129
-593.996	-12.355	-0.090	0.060
-592.982	-140.828	-0.225	-0.024
-591.967	701.410	0.037	-0.098
-590.952	800.000	0.033	-0.120
-589.938	800.000	-0.032	0.106
-588.923	-168.464	-0.331	-0.013
-587.909	732.659	-0.067	-0.182
-586.894	2.962	0.044	-0.032
-585.879	-84.085	-0.197	-0.064
-584.865	-200.000	-0.038	0.213
-583.850	25.087	-0.241	-0.203
-582.836	-191.022	0.024	-0.000
-581.821	84.716	0.342	0.380
-580.806	-93.873	-0.314	-0.088
-579.792	-113.461	-0.430	-0.086
-578.777	800.000	-0.060	0.216
-577.763	62.412	-0.144	0.146
-576.748	-200.000	0.017	-0.107
-575.733	-95.840	-0.302	0.082
-574.719	-136.165	-0.075	-0.009
-573.704	97.693	-0.170	-0.198
-572.690	800.000	-0.036	-0.136
-571.675	-200.000	0.008	0.194
-570.661	-58.549	0.144	0.063
-569.646	338.708	-0.179	-0.354
-568.631	-200.000	-0.004	0.286
-567.617	272.350	0.215	0.385
-566.602	-185.128	-0.016	-0.000
-565.588	-103.973	0.281	0.067
-564.573	39.210	-0.093	-0.084
-563.558	800.000	0.078	-0.316
-562.544	6.382	0.189	-0.142
-561.529	-200.000	0.030	-0.211
-560.515	-114.465	0.020	-0.004
-559.500	-44.946	0.202	0.102
-558.485	-200.000	-0.006	-0.173
-557.471	-72.629	-0.037	-0.014
-556.456	-119.985	0.303	0.053
-555.442	-54.860	-0.093	-0.043
-554.427	-174.671	0.256	-0.007
-553.412	615.590	0.087	-0.221
-552.398	-150.271	-0.130	-0.010
-551.383	-200.000	0.010	-0.074
-550.369	144.740	-0.144	0.195
-549.354	-81.947	-0.201	0.067
-548.339	346.669	-0.116	0.230
-547.325	-118.446	0.250	0.045
-546.310	-106.599	0.095	-0.021
-545.296	155.358	-0.030	-0.042
-544.281	95.539	-0.109	-0.126
-543.266	-63.774	-0.481	-0.199
-542.252	-159.996	0.165	0.009
-541.237	-126.990	0.127	-0.019
-540.223	146.999	0.097	-0.132
-539.208	-200.000	-0.003	0.227
-538.193	-200.000	0.026	0.181
-537.179	-64.648	-0.368	-0.151
-536.164	-200.000	-0.029	0.241
-535.150	54.103	0.098	-0.095
-534.135	-119.529	-0.130	0.023
-533.121	185.733	0.020	-0.030
-532.106	-124.161	-0.271	-0.043
-531.091	-200.000	-0.064	0.433
-530.077	-98.211	-0.250	0.065
-529.062	226.184	0.100	-0.164
-528.048	-147.049	0.114	0.010
-527.033	800.000	-0.076	-0.314
-526.018	-200.000	-0.046	-0.216
-525.004	-200.000	0.036	-0.278
-523.989	239.391	-0.113	0.191
-522.975	607.406	0.059	-0.148
-521.960	-64.172	-0.151	0.062
-520.945	-104.863	-0.247	0.057
-519.931	800.000	0.062	-0.225
-518.916	800.000	0.038	-0.118
-517.902	800.000	0.075	-0.271
-516.887	-139.203	0.033	0.004
-515.872	152.417	0.240	-0.331
-514.858	-1.036	-0.405	0.290
-513.843	-82.158	-0.012	-0.004
-512.829	-94.146	0.149	0.041
-511.814	79.877	0.228	0.248
-510.799	-200.000	0.033	0.154
-509.785	800.000	-0.073	0.271
-508.770	-84.526	0.246	-0.078
-507.756	58.791	0.256	0.254
-506.741	201.091	0.146	0.227
-505.726	-200.000	0.027	-0.196
-504.712	-89.153	0.332	0.099
-503.697	800.000	0.073	-0.213
-502.683	4.238	0.287	0.212
-501.668	179.473	0.126	-0.187
-500.653	-97.333	-0.238	-0.063
-499.639	206.211	0.079	-0.125
-498.624	-164.809	0.157	-0.007
-497.610	31.487	-0.238	-0.207
-496.595	-200.000	0.044	-0.241
-495.581	-200.000	0.039	-0.219
-494.566	382.446	0.129	-0.268
-493.551	-40.662	-0.255	-0.134
-492.537	-29.363	-0.189	0.109
-491.522	-51.385	0.180	0.085
-490.508	800.000	-0.016	0.069
-489.493	99.386	-0.071	-0.083
-488.478	-200.000	-0.061	0.322
-487.464	169.168	-0.178	-0.257
-486.449	299.552	-0.128	0.238
-485.435	479.768	0.114	0.260
-484.420	60.673	-0.029	-0.029
-483.405	800.000	-0.020	0.065
-482.391	-0.928	-0.179	0.128
-481.376	57.563	-0.169	0.167
-480.362	281.685	-0.205	-0.371
-479.347	47.723	0.171	0.161
-478.332	6.008	0.184	-0.137
-477.318	702.516	0.053	-0.142
-476.303	217.647	-0.111	-0.179
-475.289	502.898	0.012	-0.028
-474.274	-200.000	0.045	-0.237
-473.259	9.120	-0.106	0.081
-472.245	-59.927	0.223	-0.096
-471.230	-140.526	0.201	0.021
-470.216	191.116	0.116	0.176
-469.201	800.000	0.031	-0.137
-468.186	-113.181	-0.261	0.052
-467.172	-183.408	-0.107	-0.002
-466.157	-101.010	0.257	0.064
-465.143	-119.463	0.273	-0.048
-464.128	-200.000	0.017	0.312
-463.113	135.951	0.248	0.327
-462.099	17.590	-0.278	0.223
-461.084	-200.000	-0.003	0.245
-460.070	-63.359	0.308	0.128
-459.055	88.650	-0.125	0.140
-458.040	10.252	0.468	-0.359
-457.026	-200.000	-0.082	-0.542
-456.011	272.053	-0.052	-0.093
-454.997	247.642	-0.115	0.195
-453.982	-200.000	-0.037	0.373
-452.968	800.000	0.050	-0.152
-451.953	205.610	0.101	-0.159
-450.938	-4.173	-0.196	-0.137
-449.924	-200.000	0.011	0.069
-448.909	173.035	-0.246	-0.358
-447.895	-2.446	-0.227	0.160
-446.880	211.716	-0.085	0.134
-445.865	800.000	-0.070	0.199
-444.851	-128.809	0.179	0.025
-443.836	-134.277	0.068	-0.008
-442.822	800.000	-0.109	0.399
-441.807	201.289	0.146	0.227
-440.792	28.799	-0.414	0.354
-439.778	-133.589	-0.158	0.020
-438.763	-200.000	0.038	0.239
-437.749	-200.000	-0.032	0.194
-436.734	-121.827	0.206	0.034
-435.719	162.280	-0.091	0.129
-434.705	-112.552	0.147	-0.030
-433.690	-104.834	-0.192	0.044
-432.676	-11.380	0.220	0.146
-431.661	-55.266	0.116	0.052
-430.646	22.681	-0.121	-0.100
-429.632	-90.898	-0.271	-0.079
-428.617	384.575	-0.053	0.110
-427.603	265.275	0.055	-0.096
-426.588	152.455	-0.083	0.114
-425.573	-200.000	-0.026	-0.284
-424.559	800.000	-0.105	0.440
-423.544	233.726	0.154	0.256
-422.530	-99.844	-0.113	0.028
-421.515	191.553	-0.049	0.074
-420.500	385.948	-0.160	-0.332
-419.486	-200.000	0.027	-0.375
-418.471	-56.361	0.419	0.187
-417.457	216.154	-0.197	-0.315
-416.442	215.967	-0.224	-0.359
-415.428	259.483	0.078	-0.136
-414.413	219.372	-0.100	-0.161
-413.398	32.011	-0.106	0.092
-412.384	-79.030	0.085	0.029
-411.369	-63.460	0.369	0.153
-410.355	147.889	-0.228	0.310
-409.340	-7.614	-0.053	0.036
-408.325	-57.832	-0.229	0.101
-407.311	-43.983	-0.356	-0.180
-406.296	-182.179	0.183	0.003
-405.282	-104.708	-0.110	0.026
-404.267	-124.927	-0.277	-0.043
-403.252	34.723	0.050	-0.044
-402.238	238.969	0.122	0.205
-401.223	46.196	0.105	-0.098
-400.209	-118.966	-0.267	0.047
-399.194	-52.646	0.275	-0.128
-398.179	154.299	-0.126	-0.174
-397.165	65.629	0.134	0.136
-396.150	115.055	-0.139	0.170
-395.136	-169.599	-0.187	0.007
-394.121	-30.054	0.372	-0.213
-393.106	219.672	-0.384	-0.618
-392.092	-144.923	-0.334	0.031
-391.077	-14.440	0.057	0.037
-390.063	94.932	0.071	-0.081
-389.048	148.863	-0.175	0.238
-388.033	-22.855	0.198	-0.120
-387.019	206.415	0.257	0.403
-386.004	-200.000	0.007	-0.112
-384.990	535.636	0.125	-0.299
-383.975	-200.000	0.000	0.009
-382.960	-18.826	-0.166	0.104
-381.946	-200.000	-0.053	-0.251
-380.931	777.218	-0.034	0.093
-379.917	-200.000	0.010	0.145
-378.902	-177.909	0.358	0.009
-377.888	-49.404	0.132	-0.063
-376.873	200.215	0.236	-0.365
-375.858	-63.100	-0.351	0.146
-374.844	107.960	-0.164	0.196
-373.829	26.350	-0.194	0.164
-372.815	13.587	0.075	0.058
-371.800	-156.124	0.264	-0.017
-370.785	199.130	-0.032	0.050
-369.771	-115.967	0.128	0.024
-368.756	-39.534	-0.253	0.133
-367.742	0.907	-0.067	-0.048
-366.727	800.000	0.101	0.306
-365.712	34.593	0.147	-0.129
-364.698	-145.654	-0.073	0.007
-363.683	365.527	-0.080	-0.161
-362.669	-82.355	0.252	-0.082
-361.654	22.916	0.250	0.206
-360.639	-83.803	-0.219	0.070
-359.625	-55.157	0.326	0.147
-358.610	-35.853	0.305	0.166
-357.596	-200.000	0.010	-0.196
-356.581	539.991	0.066	0.158
-355.566	-200.000	-0.011	0.099
-354.552	-121.221	-0.205	0.034
-353.537	-71.196	0.095	-0.036
-352.523	23.927	-0.117	0.097
-351.508	800.000	0.024	-0.077
-350.493	14.844	0.122	0.096
-349.479	-154.788	0.193	0.013
-348.464	800.000	-0.094	0.317
-347.450	74.656	0.418	0.442
-346.435	-131.466	-0.118	0.016
-345.420	190.543	0.149	-0.225
-344.406	-200.000	-0.001	0.011
-343.391	51.569	-0.230	0.220
-342.377	243.829	-0.112	0.188
-341.362	-164.856	0.114	-0.005
-340.348	-200.000	0.023	-0.275
-339.333	85.826	0.131	-0.145
-338.318	347.895	-0.025	0.050
-337.304	-200.000	0.010	0.388
-336.289	-166.337	-0.140	-0.006
-335.275	-62.937	0.150	-0.062
-334.260	7.287	0.073	-0.055
-333.245	-60.451	0.193	0.083
-332.231	-200.000	0.018	-0.156
-331.216	-150.089	-0.197	0.015
-330.202	-184.731	0.046	-0.001
-329.187	557.715	0.075	-0.181
-328.172	-60.210	0.124	0.053
-327.158	37.996	-0.082	-0.073
-326.143	-118.990	0.257	0.045
-325.129	-52.654	0.138	-0.064
-324.114	218.337	0.173	-0.277
-323.099	-126.782	-0.161	-0.024
-322.085	311.513	-0.098	-0.184
-321.070	-92.282	0.184	-0.052
-320.056	-100.132	0.378	0.094
-319.041	-141.463	-0.292	-0.030
-318.026	186.645	0.211	-0.315
-317.012	106.262	0.022	-0.027
-315.997	-200.000	-0.004	0.035
-314.983	148.146	-0.041	-0.056
-313.968	26.049	0.200	0.168
-312.953	-200.000	0.126	0.653
-311.939	-160.884	0.171	-0.009
-310.924	357.006	0.117	-0.233
-309.910	336.879	0.107	-0.208
-308.895	800.000	0.017	0.074
-307.880	400.102	0.071	-0.149
-306.866	107.340	0.087	-0.104
-305.851	800.000	0.115	-0.343
-304.837	800.000	0.079	-0.228
-303.822	116.717	0.106	-0.131
-302.807	109.766	-0.188	-0.226
-301.793	-200.000	0.068	0.357
-300.778	-6.828	-0.169	-0.115
-299.764	67.057	-0.189	-0.194
-298.749	768.110	-0.091	-0.250
-297.735	-114.355	0.092	-0.018
-296.720	-86.023	-0.344	-0.107
-295.705	203.366	-0.072	-0.112
-294.691	-73.118	0.188	0.069
-293.676	-54.310	-0.363	0.165
-292.662	246.543	-0.072	0.121
-291.647	-130.419	0.310	0.042
-290.632	-112.022	0.216	0.044
-289.618	306.631	0.096	0.180
-288.603	-89.165	-0.133	-0.039
-287.589	446.822	-0.175	0.386
-286.574	-7.010	0.302	-0.205
-285.559	-113.709	0.265	-0.052
-284.545	-59.079	-0.148	0.064
-283.530	53.111	-0.077	-0.073
-282.516	78.201	0.156	-0.167
-281.501	750.006	0.112	0.304
-280.486	-95.260	-0.111	0.030
-279.472	537.772	0.094	0.223
-278.457	14.569	0.111	0.087
-277.443	-69.317	-0.307	-0.118
-276.428	208.952	0.039	0.062
-275.413	143.927	0.160	0.214
-274.399	-200.000	0.029	0.244
-273.384	85.308	0.239	-0.263
-272.370	-154.605	-0.237	-0.016
-271.355	191.292	-0.169	-0.255
-270.340	85.487	-0.147	0.162
-269.326	211.921	0.157	0.247
-268.311	152.055	-0.290	0.397
-267.297	-20.770	-0.272	-0.167
-266.282	-3.213	0.181	-0.127
-265.267	-135.032	-0.208	-0.025
-264.253	-79.504	0.359	-0.121
-263.238	444.409	-0.031	-0.068
-262.224	-105.164	-0.218	0.050
-261.209	800.000	-0.043	0.138
-260.195	-94.857	-0.183	0.050
-259.180	-39.133	0.190	-0.100
-258.165	-200.000	0.001	-0.197
-257.151	127.037	0.110	-0.140
-256.136	800.000	-0.082	-0.283
-255.122	144.665	-0.220	0.295
-254.107	-165.322	-0.183	0.008
-253.092	800.000	-0.084	-0.279
-252.078	-200.000	-0.000	0.299
-251.063	337.850	-0.046	-0.090
-250.049	-157.317	0.161	-0.010
-249.034	-200.000	0.028	0.332
-248.019	-200.000	0.011	-0.081
-247.005	-136.087	0.119	-0.014
-245.990	284.153	0.055	0.099
-244.976	156.383	-0.255	-0.353
-243.961	-106.782	0.108	0.024
-242.946	-66.187	0.258	-0.103
-241.932	67.427	-0.179	-0.182
-240.917	320.444	0.122	-0.232
-239.903	82.694	-0.082	0.090
-238.888	-159.868	0.160	0.009
-237.873	155.943	-0.126	0.174
-236.859	-19.054	0.068	0.042
-235.844	84.235	0.175	0.191
-234.830	-65.774	-0.091	0.036
-233.815	-40.439	0.155	-0.081
-232.800	-200.000	0.043	-0.424
-231.786	-31.051	-0.262	-0.148
-230.771	-43.683	0.084	0.042
-229.757	197.706	-0.172	-0.263
-228.742	69.261	-0.345	-0.355
-227.727	-182.646	-0.217	-0.004
-226.713	-63.104	-0.259	-0.107
-225.698	-20.840	0.086	0.053
-224.684	422.003	0.112	-0.241
-223.669	109.869	0.071	0.085
-222.655	244.085	-0.140	0.235
-221.640	-200.000	-0.004	-0.240
-220.625	324.216	-0.032	-0.061
-219.611	5.567	0.184	-0.136
-218.596	144.738	-0.156	0.209
-217.582	-121.468	-0.229	-0.038
-216.567	-200.000	0.037	0.251
-215.552	-200.000	-0.029	0.217
-214.538	-93.417	0.147	0.041
-213.523	250.566	-0.070	0.118
-212.509	-99.053	0.347	0.088
-211.494	-87.153	-0.302	0.092
-210.479	-90.929	0.312	0.090
-209.465	167.837	0.227	0.322
-208.450	800.000	0.016	-0.046
-207.436	-200.000	0.058	0.324
-206.421	-200.000	-0.028	0.170
-205.406	40.241	0.170	0.153
-204.392	800.000	0.026	-0.101
-203.377	130.589	-0.130	0.167
-202.363	535.153	0.089	-0.210
-201.348	-116.012	0.276	-0.051
-200.333	800.000	-0.060	-0.202
-199.319	-200.000	-0.027	0.122
-198.304	-56.286	0.144	0.064
-197.290	437.342	-0.076	-0.166
-196.275	-33.274	0.121	0.067
-195.260	-200.000	-0.007	0.165
-194.246	800.000	-0.070	-0.205
-193.231	800.000	0.041	-0.116
-192.217	-91.157	-0.344	-0.098
-191.202	-0.841	0.008	-0.006
-190.187	-132.202	0.345	0.045
-189.173	635.712	0.085	0.216
-188.158	-139.693	0.064	0.007
-187.144	22.564	-0.133	-0.109
-186.129	158.534	0.073	-0.101
-185.114	-15.558	0.022	0.014
-184.100	7.784	-0.093	0.070
-183.085	-56.782	-0.294	0.130
-182.071	-35.002	0.223	-0.121
-181.056	-97.709	-0.341	-0.088
-180.042	-106.300	0.276	0.062
-179.027	-200.000	0.003	-0.052
-178.012	67.288	-0.043	0.044
-176.998	-78.970	-0.196	0.066
-175.983	123.683	0.099	0.124
-174.969	424.335	0.205	0.440
-173.954	165.371	0.150	0.212
-172.939	-86.601	0.552	-0.169
-171.925	0.461	0.110	0.079
-170.910	38.546	-0.230	-0.204
-169.896	-118.216	0.094	0.017
-168.881	-200.000	0.001	-0.131
-167.866	-93.884	-0.140	-0.038
-166.852	800.000	0.033	-0.093
-165.837	-200.000	-0.003	-0.035
-164.823	243.109	0.041	0.069
-163.808	-149.495	-0.246	0.019
-162.793	-80.157	-0.243	-0.081
-161.779	800.000	0.005	0.021
-160.764	41.977	0.199	0.180
-159.750	337.969	-0.074	0.143
-158.735	-66.475	0.251	-0.100
-157.720	717.179	0.086	-0.228
-156.706	-23.668	0.327	0.195
-155.691	127.265	0.101	-0.128
-154.677	567.202	-0.111	0.269
-153.662	273.099	-0.113	0.199
-152.647	-200.000	-0.047	-0.221
-151.633	-114.169	-0.157	0.030
-150.618	800.000	-0.034	-0.107
-149.604	-200.000	0.037	0.168
-148.589	-122.151	-0.324	0.053
-147.574	-98.626	0.116	0.030
-146.560	715.905	0.166	0.439
-145.545	95.938	0.060	-0.068
-144.531	800.000	0.031	-0.134
-143.516	800.000	0.079	-0.255
-142.502	-50.033	-0.411	0.194
-141.487	126.835	0.187	0.236
-140.472	-200.000	-0.023	0.287
-139.458	218.224	0.030	0.047
-138.443	22.179	-0.103	0.084
-137.429	90.885	0.132	0.148
-136.414	-11.238	-0.043	-0.028
-135.399	-79.226	-0.164	0.055
-134.385	-61.145	0.089	-0.038
-133.370	770.221	0.044	0.119
-132.356	-200.000	-0.014	-0.403
-131.341	105.614	-0.270	0.318
-130.326	-200.000	0.025	0.144
-129.312	-67.256	0.208	0.082
-128.297	-197.622	-0.153	0.001
-127.283	-71.512	-0.260	-0.097
-126.268	-200.000	0.017	-0.181
-125.253	2.262	-0.171	0.123
-124.239	-18.569	0.290	0.180
-123.224	-200.000	0.059	-0.287
-122.210	122.603	0.254	-0.317
-121.195	102.818	-0.247	0.288
