DTS Sentinel unit serial number:	SN413079Multiplexer serial number:	ORYXHardware model number:	OX4-SRSoftware version number:	ORYX F/W v4.00 Oryx Data Collector v3.7.2.0data status	okinstallation	princeton_trtdifferential loss correction	single-endedforward channel	channel 3reverse channel	N/Adate	2019/09/16time	19:00:35forward acquisition time	60.00reverse acquisition time	0.00gamma	496.2192k internal	0.2310k external	0.2310temperature offset calibration	0.9934default loss term (dB/km)	0.3790temperature slope calibration	1.0000multiplexer offset coefficient	1.0000multiplexer slope coefficient	1.0000fibre end	0.00T internal ref (°C)	35.56T ext. ref 1 (°C)	0.08T ext. ref 2 (°C)	28.79length (m)	temperature (°C)	Stokes	anti-Stokes-747.200	-102.988	0.370	0.089
-746.185	95.610	-0.408	0.473
-745.171	32.093	0.207	0.181
-744.156	359.246	0.091	0.185
-743.142	186.794	-0.153	0.231
-742.127	-29.324	-0.238	0.138
-741.112	23.483	0.112	-0.093
-740.098	800.000	-0.056	0.173
-739.083	-79.457	0.362	0.124
-738.069	13.910	0.214	0.169
-737.054	-77.934	-0.209	-0.073
-736.039	79.374	-0.076	-0.083
-735.025	-48.828	0.285	-0.139
-734.010	390.799	0.031	0.066
-732.996	-114.219	-0.260	0.051
-731.981	85.982	0.114	0.127
-730.966	100.087	0.201	0.237
-729.952	-200.000	0.006	0.155
-728.937	-200.000	0.003	0.028
-727.923	-161.977	0.238	-0.012
-726.908	-133.409	-0.157	0.020
-725.894	-44.030	-0.130	0.067
-724.879	78.428	0.059	0.064
-723.864	-64.518	0.178	-0.073
-722.850	49.958	-0.193	0.184
-721.835	17.308	0.078	0.063
-720.821	-92.909	0.138	0.039
-719.806	-100.133	-0.402	0.102
-718.791	477.445	0.078	-0.179
-717.777	17.752	-0.217	-0.175
-716.762	83.364	-0.115	0.127
-715.748	-175.963	0.112	-0.003
-714.733	-19.185	0.165	0.104
-713.718	107.887	-0.271	0.327
-712.704	24.806	0.256	0.215
-711.689	131.274	-0.198	-0.258
-710.675	7.329	-0.169	-0.128
-709.660	-84.021	-0.135	0.043
-708.645	-141.666	0.252	-0.026
-707.631	-200.000	0.002	0.131
-706.616	7.614	0.082	0.062
-705.602	-200.000	0.038	-0.260
-704.587	673.040	-0.053	-0.140
-703.572	336.675	0.142	-0.280
-702.558	800.000	0.136	0.433
-701.543	-149.749	0.132	0.010
-700.529	-135.689	0.177	0.021
-699.514	-104.320	0.353	0.083
-698.499	-200.000	0.026	-0.242
-697.485	-64.942	0.034	0.014
-696.470	143.673	-0.088	0.119
-695.456	44.897	-0.287	-0.268
-694.441	150.706	-0.163	-0.224
-693.426	-200.000	0.052	-0.257
-692.412	-83.834	-0.143	0.046
-691.397	-188.591	-0.220	0.003
-690.383	46.455	0.043	-0.040
-689.368	-42.815	-0.096	0.049
-688.354	-35.955	-0.282	-0.155
-687.339	-200.000	0.022	0.142
-686.324	135.817	-0.118	-0.156
-685.310	800.000	0.078	-0.231
-684.295	70.463	0.111	-0.117
-683.281	-84.705	0.155	0.049
-682.266	-23.763	0.078	0.048
-681.251	-200.000	-0.029	0.222
-680.237	-170.272	0.357	0.013
-679.222	324.325	-0.105	-0.204
-678.208	-49.757	0.052	0.025
-677.193	152.860	-0.120	-0.166
-676.178	-180.394	0.086	-0.002
-675.164	800.000	0.081	0.262
-674.149	-87.380	-0.097	0.030
-673.135	-65.676	-0.047	0.019
-672.120	97.769	-0.218	-0.254
-671.105	800.000	0.007	-0.029
-670.091	-158.278	0.076	-0.004
-669.076	25.559	0.187	-0.158
-668.062	800.000	0.053	-0.188
-667.047	-145.945	0.037	-0.003
-666.032	-57.022	0.225	0.100
-665.018	86.965	-0.221	-0.247
-664.003	104.873	-0.289	-0.345
-662.989	-138.262	-0.365	-0.041
-661.974	-200.000	0.017	-0.130
-660.959	108.434	0.045	-0.054
-659.945	-71.403	-0.225	-0.085
-658.930	127.585	0.141	0.181
-657.916	-50.821	-0.101	0.048
-656.901	-80.257	-0.190	0.064
-655.886	551.376	-0.008	0.019
-654.872	43.257	0.136	-0.126
-653.857	800.000	0.060	-0.227
-652.843	800.000	-0.045	-0.127
-651.828	180.679	-0.237	-0.351
-650.814	-136.976	-0.370	-0.043
-649.799	-113.361	0.121	-0.024
-648.784	800.000	0.032	-0.101
-647.770	87.707	-0.058	0.065
-646.755	-159.604	-0.094	0.005
-645.741	24.583	0.076	0.064
-644.726	-52.497	0.265	-0.124
-643.711	800.000	0.050	-0.174
-642.697	291.943	-0.208	-0.383
-641.682	96.074	-0.072	0.083
-640.668	-200.000	0.020	0.132
-639.653	800.000	0.051	0.223
-638.638	-200.000	-0.037	-0.264
-637.624	11.224	0.116	-0.090
-636.609	690.264	0.147	-0.388
-635.595	61.859	-0.035	-0.035
-634.580	-103.433	-0.181	0.043
-633.565	-200.000	0.026	0.157
-632.551	157.843	-0.219	-0.307
-631.536	163.876	-0.117	-0.166
-630.522	-36.785	0.299	-0.162
-629.507	-29.945	-0.106	0.061
-628.492	70.269	0.242	-0.253
-627.478	-142.306	-0.231	-0.023
-626.463	800.000	0.077	-0.241
-625.449	75.042	-0.145	-0.155
-624.434	-200.000	0.010	0.314
-623.419	6.659	-0.330	0.248
-622.405	-113.026	0.383	0.076
-621.390	259.925	0.080	-0.139
-620.376	-132.064	-0.178	-0.023
-619.361	597.793	0.120	0.301
-618.346	-127.040	-0.173	0.026
-617.332	-200.000	-0.053	0.312
-616.317	136.341	-0.166	0.219
-615.303	-99.822	-0.110	-0.028
-614.288	-154.103	-0.069	0.005
-613.273	375.881	-0.129	0.265
-612.259	800.000	-0.041	-0.176
-611.244	800.000	-0.049	-0.140
-610.230	-81.872	-0.037	0.012
-609.215	200.959	-0.051	-0.079
-608.201	215.573	-0.076	-0.122
-607.186	-47.140	-0.381	-0.187
-606.171	440.031	-0.091	0.200
-605.157	-200.000	-0.016	0.124
-604.142	20.350	0.251	-0.205
-603.128	800.000	0.103	-0.307
-602.113	-200.000	0.026	-0.317
-601.098	-119.716	-0.059	0.010
-600.084	342.933	0.055	0.109
-599.069	23.510	-0.019	-0.015
-598.055	800.000	-0.034	0.151
-597.040	-86.763	0.261	-0.081
-596.025	539.123	0.061	-0.147
-595.011	81.193	-0.159	-0.173
-593.996	-126.289	-0.199	0.030
-592.982	-42.543	-0.150	-0.077
-591.967	653.755	0.111	-0.288
-590.952	800.000	-0.063	-0.200
-589.938	64.840	-0.286	-0.292
-588.923	-47.839	0.168	-0.082
-587.909	-4.867	-0.104	-0.072
-586.894	-156.216	-0.032	0.002
-585.879	-81.327	-0.088	-0.029
-584.865	-64.874	0.165	-0.067
-583.850	71.629	0.096	-0.100
-582.836	-64.356	0.156	0.064
-581.821	-94.733	-0.145	0.040
-580.806	-106.088	-0.253	-0.057
-579.792	229.374	-0.223	-0.368
-578.777	-22.532	-0.158	-0.097
-577.763	45.948	0.061	0.057
-576.748	187.276	-0.085	0.128
-575.733	-116.584	0.128	-0.024
-574.719	-10.176	-0.152	-0.102
-573.704	-200.000	-0.027	-0.265
-572.690	-132.410	-0.194	0.025
-571.675	800.000	-0.058	0.212
-570.661	147.115	0.065	0.088
-569.646	345.190	-0.036	-0.070
-568.631	-200.000	-0.034	0.209
-567.617	200.279	-0.052	0.080
-566.602	466.613	-0.023	-0.052
-565.588	223.955	-0.094	0.154
-564.573	26.090	0.207	-0.174
-563.558	50.503	0.255	-0.243
-562.544	800.000	-0.123	0.493
-561.529	349.594	-0.161	0.321
-560.515	800.000	0.038	0.125
-559.500	5.239	-0.039	0.029
-558.485	38.090	0.224	0.201
-557.471	-181.931	-0.250	-0.005
-556.456	-95.226	-0.133	-0.036
-555.442	-200.000	0.001	0.060
-554.427	-81.418	-0.141	-0.047
-553.412	124.651	0.155	-0.197
-552.398	-200.000	-0.041	0.219
-551.383	-154.206	-0.295	-0.020
-550.369	-87.336	0.213	0.065
-549.354	572.029	0.101	-0.248
-548.339	-138.637	0.075	0.008
-547.325	154.333	-0.184	0.254
-546.310	800.000	0.051	0.144
-545.296	800.000	-0.040	-0.122
-544.281	-16.140	-0.145	-0.093
-543.266	271.468	-0.070	-0.125
-542.252	82.349	0.101	0.110
-541.237	479.318	-0.113	0.257
-540.223	509.651	0.107	0.250
-539.208	-200.000	-0.032	-0.396
-538.193	-141.774	0.337	0.034
-537.179	-18.520	-0.319	0.201
-536.164	-102.441	-0.041	-0.010
-535.150	-200.000	0.030	-0.195
-534.135	-116.902	-0.212	0.039
-533.121	349.219	-0.109	-0.217
-532.106	11.600	-0.067	-0.051
-531.091	800.000	0.035	-0.117
-530.077	800.000	0.070	-0.292
-529.062	56.878	0.295	-0.289
-528.048	113.061	-0.084	-0.103
-527.033	-181.558	0.253	-0.005
-526.018	800.000	0.022	0.094
-525.004	-29.542	0.167	-0.096
-523.989	-31.103	-0.216	-0.123
-522.975	244.649	0.094	-0.159
-521.960	-119.243	0.330	0.058
-520.945	-200.000	0.084	0.560
-519.931	-200.000	-0.002	0.232
-518.916	139.694	-0.046	0.061
-517.902	-82.228	0.201	0.066
-516.887	800.000	0.025	-0.071
-515.872	31.314	-0.056	-0.048
-514.858	-79.900	-0.130	0.044
-513.843	-200.000	0.025	-0.136
-512.829	177.946	0.118	-0.174
-511.814	-12.965	-0.177	0.116
-510.799	312.837	-0.109	0.206
-509.785	175.011	-0.097	-0.141
-508.770	663.526	-0.100	0.258
-507.756	425.060	-0.070	0.151
-506.741	-200.000	-0.005	0.137
-505.726	-48.193	0.217	-0.106
-504.712	391.763	-0.086	-0.180
-503.697	304.479	-0.091	-0.170
-502.683	-65.837	0.177	-0.071
-501.668	524.700	0.205	-0.486
-500.653	105.460	-0.151	0.179
-499.639	-169.100	-0.203	-0.008
-498.624	-200.000	0.038	-0.188
-497.610	-168.050	0.150	0.006
-496.595	115.193	0.188	0.231
-495.581	-89.758	-0.057	-0.017
-494.566	253.495	-0.113	0.194
-493.551	17.306	-0.146	-0.116
-492.537	-13.494	0.100	0.065
-491.522	131.655	0.156	-0.202
-490.508	-200.000	0.061	0.331
-489.493	364.593	0.030	0.060
-488.478	800.000	0.031	-0.122
-487.464	-9.516	0.128	-0.086
-486.449	5.155	-0.140	0.103
-485.435	800.000	0.088	0.267
-484.420	-200.000	-0.020	-0.180
-483.405	800.000	-0.111	0.319
-482.391	-66.346	0.173	-0.069
-481.376	-66.939	0.140	0.055
-480.362	448.046	0.063	-0.140
-479.347	-105.144	0.137	0.032
-478.332	-30.381	-0.063	0.036
-477.318	-200.000	0.029	-0.241
-476.303	146.744	0.137	-0.185
-475.289	58.761	-0.120	-0.119
-474.274	-132.375	0.250	0.032
-473.259	-78.092	0.276	0.095
-472.245	152.846	-0.116	0.159
-471.230	800.000	-0.040	-0.124
-470.216	21.637	-0.158	-0.130
-469.201	68.678	-0.160	0.165
-468.186	-128.045	-0.133	-0.019
-467.172	-165.325	-0.058	-0.003
-466.157	94.877	-0.142	0.162
-465.143	-54.910	-0.331	0.150
-464.128	65.167	0.197	-0.200
-463.113	83.123	0.203	-0.222
-462.099	800.000	-0.014	-0.048
-461.084	-99.759	-0.209	0.053
-460.070	681.670	-0.067	0.177
-459.055	-90.298	0.306	-0.089
-458.040	-150.499	-0.286	0.022
-457.026	-89.885	0.425	-0.125
-456.011	-200.000	0.030	0.197
-454.997	-200.000	-0.020	-0.217
-453.982	-109.080	-0.212	0.045
-452.968	-200.000	0.015	0.206
-451.953	82.859	0.131	0.143
-450.938	110.833	-0.363	-0.438
-449.924	-139.831	0.164	-0.017
-448.909	-148.841	-0.165	-0.013
-447.895	-28.078	0.122	-0.071
-446.880	-200.000	-0.012	-0.065
-445.865	-72.259	-0.675	-0.251
-444.851	32.965	0.045	0.039
-443.836	429.256	0.076	0.164
-442.822	800.000	-0.043	-0.131
-441.807	13.291	0.077	-0.060
-440.792	412.042	0.061	0.129
-439.778	170.550	0.194	-0.278
-438.763	-20.798	-0.051	-0.032
-437.749	-97.512	-0.370	0.096
-436.734	394.625	-0.045	0.095
-435.719	-200.000	-0.057	0.264
-434.705	-53.227	-0.268	-0.123
-433.690	270.166	0.261	-0.461
-432.676	-200.000	-0.013	-0.199
-431.661	-200.000	-0.005	0.060
-430.646	800.000	0.125	0.403
-429.632	516.021	0.037	0.087
-428.617	173.554	-0.009	0.014
-427.603	-82.032	-0.112	0.037
-426.588	-140.141	0.120	-0.013
-425.573	-117.801	-0.055	0.010
-424.559	800.000	0.054	-0.187
-423.544	-13.574	-0.075	-0.049
-422.530	-200.000	-0.001	-0.336
-421.515	286.633	0.176	0.318
-420.500	13.821	-0.165	0.129
-419.486	-8.548	0.222	0.150
-418.471	62.527	-0.030	0.030
-417.457	102.661	0.118	0.138
-416.442	102.543	-0.108	0.126
-415.428	800.000	-0.110	-0.330
-414.413	-200.000	-0.000	0.341
-413.398	800.000	-0.035	0.128
-412.384	-200.000	0.012	0.173
-411.369	-62.424	-0.252	0.105
-410.355	-52.513	0.051	-0.024
-409.340	147.951	0.062	-0.083
-408.325	24.116	0.183	-0.152
-407.311	-58.249	-0.245	-0.107
-406.296	774.751	0.133	-0.365
-405.282	265.016	-0.035	-0.061
-404.267	-200.000	0.049	0.317
-403.252	111.040	-0.145	-0.175
-402.238	106.116	0.092	0.109
-401.223	-81.068	0.139	-0.046
-400.209	-56.267	0.252	0.112
-399.194	7.006	0.115	-0.086
-398.179	-200.000	0.067	-0.303
-397.165	-177.169	0.218	0.005
-396.150	269.250	-0.085	0.150
-395.136	-126.020	-0.188	-0.028
-394.121	-200.000	-0.016	0.095
-393.106	-200.000	-0.003	0.071
-392.092	-200.000	-0.006	-0.184
-391.077	745.480	-0.039	0.104
-390.063	-2.491	0.093	-0.065
-389.048	108.915	-0.024	-0.029
-388.033	-200.000	-0.002	-0.341
-387.019	372.523	0.219	-0.446
-386.004	-159.350	-0.120	-0.007
-384.990	-102.778	0.181	-0.043
-383.975	-17.647	0.114	0.072
-382.960	420.401	-0.062	-0.132
-381.946	800.000	0.121	-0.357
-380.931	272.221	0.109	-0.192
-379.917	172.178	-0.032	0.045
-378.902	-43.769	0.433	-0.218
-377.888	8.736	-0.084	0.063
-376.873	800.000	0.031	0.130
-375.858	152.957	0.064	0.088
-374.844	-19.179	-0.153	-0.095
-373.829	105.616	0.141	-0.166
-372.815	-200.000	0.020	0.222
-371.800	203.558	0.071	-0.110
-370.785	-79.286	0.299	0.101
-369.771	-85.177	-0.153	0.048
-368.756	393.664	0.063	0.132
-367.742	70.394	0.327	-0.338
-366.727	800.000	0.038	0.149
-365.712	-127.680	-0.149	-0.022
-364.698	-83.068	0.293	0.095
-363.683	-200.000	0.016	0.343
-362.669	800.000	-0.067	0.204
-361.654	5.030	0.261	0.192
-360.639	264.538	0.153	0.267
-359.625	-8.477	0.169	0.114
-358.610	-126.807	0.451	0.067
-357.596	800.000	-0.055	-0.164
-356.581	800.000	-0.093	-0.290
-355.566	71.516	0.020	0.021
-354.552	800.000	-0.034	-0.144
-353.537	-55.460	-0.189	-0.085
-352.523	-51.804	-0.104	-0.049
-351.508	800.000	-0.083	-0.340
-350.493	-106.474	0.066	0.015
-349.479	98.486	-0.032	0.037
-348.464	482.788	-0.062	-0.140
-347.450	83.179	0.195	0.212
-346.435	-88.529	0.240	0.071
-345.420	-200.000	-0.063	0.358
-344.406	-200.000	-0.008	0.118
-343.391	24.169	-0.069	-0.057
-342.377	48.104	-0.310	0.289
-341.362	-113.894	-0.310	0.060
-340.348	138.910	-0.050	0.066
-339.333	-200.000	-0.022	-0.186
-338.318	800.000	-0.039	0.124
-337.304	15.908	-0.254	0.200
-336.289	432.456	-0.086	0.187
-335.275	-87.185	-0.117	-0.035
-334.260	800.000	-0.040	0.160
-333.245	54.873	-0.202	-0.195
-332.231	-200.000	0.011	-0.117
-331.216	17.315	0.228	0.181
-330.202	-200.000	-0.098	0.462
-329.187	-22.098	-0.116	0.071
-328.172	-4.200	0.240	0.166
-327.158	800.000	-0.040	-0.118
-326.143	-125.049	0.049	0.008
-325.129	-68.760	-0.137	0.053
-324.114	-185.989	0.308	0.005
-323.099	-57.843	0.381	-0.167
-322.085	-2.958	-0.080	-0.056
-321.070	235.547	-0.064	-0.106
-320.056	606.683	-0.041	0.102
-319.041	-92.299	-0.248	0.070
-318.026	-109.910	0.119	-0.025
-317.012	800.000	0.026	0.082
-315.997	191.605	-0.131	-0.197
-314.983	222.284	0.089	0.143
-313.968	33.757	0.183	0.159
-312.953	16.406	0.215	-0.170
-311.939	88.776	-0.081	-0.090
-310.924	-114.298	0.238	0.046
-309.910	18.579	0.234	-0.187
-308.895	-87.670	-0.119	0.036
-307.880	54.076	-0.214	-0.206
-306.866	-200.000	-0.033	-0.194
-305.851	283.240	-0.211	0.378
-304.837	-121.127	0.342	-0.057
-303.822	-200.000	-0.013	-0.119
-302.807	-12.645	-0.054	-0.035
-301.793	-200.000	-0.023	-0.343
-300.778	-18.563	0.143	0.089
-299.764	242.155	0.034	-0.056
-298.749	-200.000	0.006	-0.082
-297.735	33.098	0.145	0.126
-296.720	34.815	-0.066	-0.057
-295.705	10.686	-0.075	-0.057
-294.691	-125.014	-0.092	-0.014
-293.676	-200.000	0.014	-0.199
-292.662	191.905	0.218	0.328
-291.647	-200.000	-0.090	0.450
-290.632	800.000	0.072	-0.225
-289.618	-50.847	-0.094	-0.044
-288.603	299.871	-0.107	0.196
-287.589	-145.740	0.363	0.032
-286.574	-200.000	-0.016	0.200
-285.559	-164.393	-0.248	-0.011
-284.545	800.000	-0.033	-0.117
-283.530	196.839	-0.101	-0.153
-282.516	-100.381	0.387	-0.096
-281.501	800.000	0.043	-0.163
-280.486	0.457	-0.031	0.022
-279.472	800.000	-0.082	0.289
-278.457	-12.955	0.338	-0.219
-277.443	-122.720	-0.177	-0.029
-276.428	-200.000	-0.002	-0.007
-275.413	788.936	-0.089	-0.243
-274.399	-139.795	0.449	-0.047
-273.384	-128.690	-0.077	-0.011
-272.370	138.624	-0.068	0.089
-271.355	366.578	-0.063	0.127
-270.340	-70.342	0.140	-0.053
-269.326	155.406	-0.168	-0.231
-268.311	-55.740	-0.224	0.100
-267.297	800.000	0.039	0.117
-266.282	429.486	-0.131	-0.283
-265.267	800.000	0.069	0.252
-264.253	-90.222	-0.351	-0.102
-263.238	34.438	0.320	0.278
-262.224	-200.000	0.005	0.188
-261.209	40.699	-0.085	0.076
-260.195	-148.071	-0.320	-0.026
-259.180	-138.438	0.193	0.021
-258.165	61.293	0.247	-0.244
-257.151	-84.546	-0.193	-0.061
-256.136	-97.259	-0.201	0.052
-255.122	-200.000	-0.056	0.382
-254.107	-44.496	-0.081	0.040
-253.092	579.518	-0.042	-0.102
-252.078	331.817	0.118	-0.226
-251.063	-65.251	0.227	0.091
-250.049	28.744	-0.260	-0.219
-249.034	-113.683	-0.035	0.007
-248.019	-128.119	-0.056	0.008
-247.005	800.000	-0.042	0.135
-245.990	800.000	-0.063	0.192
-244.976	-63.343	0.397	-0.163
-243.961	-140.091	0.241	-0.025
-242.946	-50.115	-0.233	-0.110
-241.932	-60.054	0.197	-0.084
-240.917	4.837	0.125	-0.092
-239.903	3.468	-0.173	0.126
-238.888	78.233	0.171	-0.182
-237.873	-83.924	-0.123	0.039
-236.859	800.000	0.110	0.332
-235.844	-200.000	0.023	-0.171
-234.830	-132.939	-0.503	0.064
-233.815	-33.777	0.167	-0.092
-232.800	800.000	0.019	-0.055
-231.786	602.209	0.079	-0.195
-230.771	41.991	-0.232	-0.210
-229.757	-200.000	-0.005	0.081
-228.742	-200.000	0.023	-0.115
-227.727	90.412	-0.058	-0.065
-226.713	-68.021	-0.084	0.033
-225.698	-66.818	0.107	-0.042
-224.684	-19.695	-0.153	-0.094
-223.669	-200.000	0.012	0.136
-222.655	-200.000	0.005	-0.047
-221.640	272.350	-0.042	0.074
-220.625	90.728	-0.104	0.116
-219.611	188.001	0.034	-0.051
-218.596	660.298	0.113	0.290
-217.582	-3.049	-0.080	-0.056
-216.567	-7.322	-0.169	-0.114
-215.552	101.758	-0.146	0.169
-214.538	179.011	-0.151	0.220
-213.523	-50.000	-0.148	0.070
-212.509	246.475	0.065	0.110
-211.494	-200.000	0.007	-0.076
-210.479	-200.000	0.066	0.352
-209.465	150.454	0.122	-0.164
-208.450	110.042	-0.083	-0.099
-207.436	51.985	-0.146	-0.139
-206.421	-200.000	0.062	-0.309
-205.406	-96.810	-0.047	-0.012
-204.392	-11.628	0.185	-0.121
-203.377	88.769	0.061	0.067
-202.363	800.000	0.059	-0.181
-201.348	800.000	-0.057	0.183
-200.333	11.068	-0.095	0.072
-199.319	51.974	0.236	0.223
-198.304	-169.385	0.371	-0.014
-197.290	-200.000	0.008	0.255
-196.275	-87.042	-0.355	-0.108
-195.260	-35.831	-0.140	0.075
-194.246	250.290	0.198	0.334
-193.231	-113.156	-0.177	-0.035
-192.217	411.267	0.176	-0.371
-191.202	-22.523	0.170	-0.102
-190.187	42.362	0.306	0.277
-189.173	-125.791	-0.396	-0.059
-188.158	83.534	0.176	0.191
-187.144	-200.000	0.016	0.115
-186.129	-148.087	0.163	-0.013
-185.114	149.814	-0.145	0.195
-184.100	-1.627	-0.290	0.203
-183.085	-125.146	0.293	-0.045
-182.071	170.388	0.022	-0.032
-181.056	800.000	0.090	0.259
-180.042	-1.329	-0.175	0.123
-179.027	-105.961	0.235	-0.053
-178.012	-143.573	0.059	-0.006
-176.998	-200.000	-0.071	0.334
-175.983	-150.921	-0.078	-0.006
-174.969	313.025	-0.095	-0.178
-173.954	800.000	0.044	0.183
-172.939	580.301	-0.059	-0.144
-171.925	-66.505	-0.331	0.131
-170.910	-55.253	0.303	0.135
-169.896	-34.798	-0.033	-0.018
-168.881	-129.427	-0.099	0.014
-167.866	153.501	-0.060	-0.082
-166.852	-200.000	0.012	0.193
-165.837	-132.917	-0.242	0.031
-164.823	-200.000	0.040	0.204
-163.808	800.000	-0.079	0.247
-162.793	-200.000	0.026	0.321
-161.779	108.939	0.172	0.204
-160.764	652.750	-0.047	-0.119
-159.750	-120.537	0.433	-0.073
-158.735	-37.776	-0.224	0.118
-157.720	-169.505	-0.333	-0.012
-156.706	142.964	0.121	-0.160
-155.691	-16.196	0.162	-0.102
-154.677	-152.332	0.015	-0.001
-153.662	-200.000	0.003	0.467
-152.647	-200.000	-0.038	0.171
-151.633	-24.852	0.238	0.140
-150.618	-26.534	0.190	0.110
-149.604	-149.859	-0.098	-0.008
-148.589	-10.958	-0.202	0.132
-147.574	271.081	0.162	0.284
-146.560	423.375	0.149	0.318
-145.545	-85.062	-0.081	-0.025
-144.531	10.263	-0.187	-0.141
-143.516	28.090	0.282	-0.236
-142.502	-59.850	0.345	0.146
-141.487	-55.482	0.142	0.063
-140.472	-200.000	-0.017	0.157
-139.458	54.911	-0.050	0.048
-138.443	-128.135	-0.089	-0.013
-137.429	372.016	-0.160	0.321
-136.414	-64.235	0.181	-0.073
-135.399	144.856	-0.231	0.306
-134.385	42.685	-0.032	0.028
-133.370	68.357	0.280	-0.285
-132.356	-103.691	-0.199	-0.046
-131.341	136.218	-0.069	-0.089
-130.326	-125.696	0.100	0.015
-129.312	122.370	0.145	-0.180
-128.297	-149.317	0.243	-0.019
-127.283	-200.000	-0.050	-0.264
-126.268	25.974	-0.031	0.026
-125.253	800.000	-0.074	0.223
-124.239	497.334	0.068	-0.155
-123.224	-160.863	0.322	0.017
-122.210	-96.821	0.140	-0.037
-121.195	576.949	0.061	0.148
