DTS Sentinel unit serial number:	SN413079Multiplexer serial number:	ORYXHardware model number:	OX4-SRSoftware version number:	ORYX F/W v4.00 Oryx Data Collector v3.7.2.0data status	okinstallation	princeton_trtdifferential loss correction	single-endedforward channel	channel 3reverse channel	N/Adate	2019/09/16time	19:36:34forward acquisition time	60.00reverse acquisition time	0.00gamma	496.2192k internal	0.2316k external	0.2316temperature offset calibration	0.9942default loss term (dB/km)	0.3790temperature slope calibration	1.0000multiplexer offset coefficient	1.0000multiplexer slope coefficient	1.0000fibre end	0.00T internal ref (°C)	34.25T ext. ref 1 (°C)	0.12T ext. ref 2 (°C)	27.21length (m)	temperature (°C)	Stokes	anti-Stokes-747.200	3.406	-0.015	-0.011
-746.185	-101.119	-0.278	-0.069
-745.171	-75.893	-0.121	-0.044
-744.156	-200.000	0.044	0.212
-743.142	15.620	0.117	0.093
-742.127	551.768	0.090	0.220
-741.112	65.748	0.017	-0.018
-740.098	1.544	0.209	0.152
-739.083	335.153	-0.106	-0.207
-738.069	-4.778	-0.252	-0.176
-737.054	800.000	-0.029	-0.115
-736.039	800.000	-0.112	-0.321
-735.025	800.000	0.069	-0.298
-734.010	25.100	-0.051	-0.043
-732.996	-13.881	-0.361	-0.236
-731.981	-94.037	-0.247	0.069
-730.966	-39.283	0.306	0.162
-729.952	-200.000	-0.036	-0.213
-728.937	-75.882	-0.210	-0.075
-727.923	180.625	-0.138	0.205
-726.908	-64.432	0.156	-0.064
-725.894	-38.367	0.098	-0.052
-724.879	-42.635	-0.178	-0.092
-723.864	-43.347	-0.036	0.018
-722.850	17.882	-0.121	-0.097
-721.835	-12.477	-0.241	-0.160
-720.821	2.877	-0.097	0.072
-719.806	800.000	0.068	0.209
-718.791	-200.000	0.008	-0.153
-717.777	19.029	-0.248	-0.201
-716.762	-135.390	-0.165	-0.020
-715.748	200.344	-0.048	0.075
-714.733	-200.000	0.021	-0.257
-713.718	-200.000	-0.005	-0.063
-712.704	304.922	0.095	-0.178
-711.689	122.422	-0.215	0.272
-710.675	-73.643	-0.226	-0.083
-709.660	-200.000	0.028	-0.256
-708.645	-154.806	-0.254	-0.017
-707.631	800.000	0.053	-0.183
-706.616	-76.216	0.256	-0.091
-705.602	-11.572	-0.163	0.108
-704.587	210.216	0.111	-0.177
-703.572	94.089	0.134	-0.154
-702.558	56.234	0.143	-0.140
-701.543	732.446	0.064	-0.173
-700.529	-7.240	0.174	-0.119
-699.514	4.581	-0.297	-0.220
-698.499	-75.569	-0.206	-0.074
-697.485	174.194	-0.069	-0.102
-696.470	35.439	-0.095	0.084
-695.456	-144.280	0.206	-0.019
-694.441	-200.000	-0.038	0.259
-693.426	-1.892	-0.097	-0.069
-692.412	-6.571	-0.200	-0.138
-691.397	-200.000	-0.009	0.590
-690.383	15.996	0.225	0.179
-689.368	800.000	-0.041	0.172
-688.354	253.778	-0.083	0.143
-687.339	456.328	-0.039	0.087
-686.324	290.044	0.112	-0.205
-685.310	-124.179	-0.335	0.053
-684.295	-200.000	0.034	0.176
-683.281	-34.388	-0.238	0.132
-682.266	-31.235	-0.450	0.256
-681.251	1.790	0.102	0.074
-680.237	-31.439	-0.038	-0.021
-679.222	72.005	0.209	-0.219
-678.208	369.640	-0.130	0.267
-677.193	227.743	-0.250	0.412
-676.178	-200.000	-0.017	-0.407
-675.164	295.765	-0.252	-0.466
-674.149	-81.532	-0.115	-0.038
-673.135	-90.158	-0.371	0.109
-672.120	-200.000	0.034	-0.255
-671.105	800.000	-0.155	-0.467
-670.091	-200.000	0.020	-0.122
-669.076	-122.122	-0.202	0.033
-668.062	-87.337	0.222	0.068
-667.047	140.528	-0.169	-0.225
-666.032	-117.815	-0.125	-0.023
-665.018	-122.910	0.438	0.071
-664.003	271.437	-0.050	-0.089
-662.989	-151.276	0.179	0.014
-661.974	618.909	-0.072	-0.183
-660.959	505.837	0.138	0.324
-659.945	-48.322	-0.111	0.054
-658.930	432.244	0.053	-0.117
-657.916	-200.000	0.051	-0.286
-656.901	-99.229	-0.194	-0.050
-655.886	-185.464	-0.148	0.002
-654.872	800.000	-0.030	0.131
-653.857	800.000	0.050	0.150
-652.843	-46.488	0.130	0.064
-651.828	-200.000	-0.073	-0.333
-650.814	-73.747	-0.316	-0.116
-649.799	-113.085	0.165	-0.033
-648.784	-200.000	-0.033	-0.175
-647.770	67.954	0.229	-0.236
-646.755	-23.896	-0.148	0.089
-645.741	512.969	0.040	-0.094
-644.726	186.397	-0.030	-0.045
-643.711	-88.672	0.217	-0.065
-642.697	-94.711	-0.164	-0.045
-641.682	651.151	0.138	-0.357
-640.668	293.469	-0.114	-0.209
-639.653	34.043	0.016	-0.014
-638.638	-200.000	-0.194	0.001
-637.624	-4.079	-0.272	-0.191
-636.609	-114.128	0.268	-0.052
-635.595	288.512	-0.036	0.065
-634.580	800.000	0.046	0.147
-633.565	591.745	0.052	0.131
-632.551	-200.000	0.033	-0.359
-631.536	-52.514	-0.363	-0.169
-630.522	-70.188	0.058	0.022
-629.507	136.472	-0.060	-0.079
-628.492	-1.504	0.232	0.165
-627.478	-1.623	-0.328	0.233
-626.463	96.297	-0.127	0.147
-625.449	-122.622	0.132	-0.022
-624.434	-9.611	0.167	0.112
-623.419	-38.040	-0.250	0.134
-622.405	188.275	0.118	-0.178
-621.390	113.229	-0.099	0.121
-620.376	9.029	-0.118	-0.090
-619.361	-200.000	-0.041	-0.181
-618.346	-170.787	-0.180	0.006
-617.332	800.000	-0.096	-0.385
-616.317	-69.340	-0.403	0.156
-615.303	-108.997	-0.213	0.046
-614.288	-93.796	0.284	-0.079
-613.273	-200.000	0.006	-0.069
-612.259	-84.208	-0.079	0.025
-611.244	800.000	-0.064	-0.210
-610.230	317.569	-0.137	-0.261
-609.215	124.355	-0.203	-0.257
-608.201	-87.261	-0.127	0.039
-607.186	-74.341	-0.156	-0.057
-606.171	-46.723	-0.283	0.140
-605.157	-98.785	-0.259	-0.067
-604.142	-200.000	-0.043	-0.423
-603.128	43.274	0.119	-0.109
-602.113	800.000	0.046	-0.201
-601.098	-16.379	-0.283	-0.181
-600.084	-200.000	0.061	0.564
-599.069	800.000	0.038	-0.157
-598.055	54.498	0.089	-0.086
-597.040	-22.584	0.189	0.115
-596.025	-32.141	0.156	0.088
-595.011	-91.117	-0.424	-0.123
-593.996	-51.107	0.187	0.088
-592.982	-45.576	-0.146	0.073
-591.967	800.000	0.107	-0.303
-590.952	-117.169	-0.289	-0.053
-589.938	-104.483	0.389	0.091
-588.923	-200.000	0.022	-0.447
-587.909	-167.906	-0.616	0.024
-586.894	-136.016	0.224	-0.026
-585.879	-52.274	-0.197	-0.092
-584.865	-200.000	0.017	0.206
-583.850	-128.729	-0.240	0.034
-582.836	-2.206	-0.093	0.066
-581.821	-91.525	-0.108	0.031
-580.806	423.165	0.129	-0.279
-579.792	263.390	-0.050	-0.087
-578.777	800.000	-0.089	-0.332
-577.763	230.960	-0.039	0.064
-576.748	-151.740	0.262	-0.019
-575.733	166.124	0.027	0.039
-574.719	-200.000	-0.010	-0.092
-573.704	-200.000	0.008	-0.406
-572.690	365.312	0.035	0.070
-571.675	-200.000	0.025	0.189
-570.661	181.299	0.168	-0.248
-569.646	-1.292	0.246	-0.175
-568.631	-63.795	-0.256	0.105
-567.617	-80.098	-0.111	-0.037
-566.602	107.136	-0.067	0.081
-565.588	-200.000	-0.014	0.169
-564.573	63.316	-0.140	-0.141
-563.558	-27.957	-0.111	-0.065
-562.544	-26.779	-0.157	0.092
-561.529	-56.491	0.161	0.072
-560.515	174.958	0.028	-0.040
-559.500	-64.205	0.393	0.161
-558.485	-200.000	0.040	0.206
-557.471	191.720	-0.146	0.222
-556.456	800.000	0.043	0.130
-555.442	-143.083	0.097	-0.009
-554.427	-119.258	-0.070	-0.012
-553.412	-31.812	-0.067	0.038
-552.398	-68.756	0.240	0.093
-551.383	800.000	-0.042	0.118
-550.369	-200.000	-0.002	-0.133
-549.354	800.000	0.030	0.132
-548.339	-10.202	0.392	-0.262
-547.325	-97.671	-0.278	0.073
-546.310	-52.647	0.157	-0.073
-545.296	61.246	0.182	-0.181
-544.281	-90.898	-0.114	0.033
-543.266	-0.644	0.184	0.131
-542.252	211.747	-0.153	0.243
-541.237	551.770	0.111	-0.269
-540.223	39.596	-0.300	0.270
-539.208	117.803	0.228	0.282
-538.193	800.000	-0.062	0.177
-537.179	-164.223	0.267	0.012
-536.164	-200.000	-0.005	0.269
-535.150	-200.000	0.081	0.407
-534.135	509.957	-0.196	0.457
-533.121	78.000	0.148	-0.159
-532.106	54.603	-0.108	-0.105
-531.091	-4.668	-0.095	-0.066
-530.077	-54.993	-0.331	-0.150
-529.062	-53.027	0.093	-0.043
-528.048	-173.784	0.376	-0.011
-527.033	-146.082	-0.260	0.023
-526.018	800.000	0.068	-0.232
-525.004	-66.287	-0.166	0.066
-523.989	-200.000	-0.041	-0.397
-522.975	-200.000	-0.042	-0.310
-521.960	195.463	0.079	0.121
-520.945	800.000	-0.059	-0.233
-519.931	21.074	-0.056	0.046
-518.916	-137.385	0.307	-0.035
-517.902	303.434	-0.085	0.158
-516.887	-200.000	-0.027	0.156
-515.872	251.736	-0.040	-0.068
-514.858	-200.000	-0.006	-0.132
-513.843	-200.000	-0.046	0.386
-512.829	-88.233	-0.193	-0.058
-511.814	800.000	0.045	0.179
-510.799	-107.175	0.142	-0.031
-509.785	-19.687	0.283	0.176
-508.770	262.891	-0.104	-0.181
-507.756	-78.522	-0.147	-0.051
-506.741	-136.645	-0.050	0.006
-505.726	-81.062	-0.308	0.102
-504.712	800.000	0.083	-0.309
-503.697	6.735	0.059	-0.044
-502.683	800.000	0.077	0.239
-501.668	-200.000	-0.001	0.139
-500.653	800.000	-0.010	0.037
-499.639	-33.378	0.011	0.006
-498.624	424.536	0.073	-0.157
-497.610	83.343	-0.250	0.274
-496.595	263.955	-0.086	-0.150
-495.581	800.000	-0.083	-0.350
-494.566	197.951	0.079	0.121
-493.551	28.646	-0.085	-0.072
-492.537	32.599	-0.036	-0.031
-491.522	656.179	0.096	-0.247
-490.508	113.386	0.154	0.187
-489.493	181.093	-0.237	0.349
-488.478	-200.000	-0.006	-0.051
-487.464	-101.721	-0.183	0.045
-486.449	44.434	0.198	0.182
-485.435	10.111	0.145	-0.111
-484.420	415.674	-0.139	-0.298
-483.405	-100.615	-0.235	0.058
-482.391	-163.721	0.268	0.013
-481.376	103.679	0.258	-0.303
-480.362	-27.844	0.225	-0.131
-479.347	-60.689	0.382	-0.162
-478.332	800.000	0.070	-0.243
-477.318	657.636	0.156	-0.403
-476.303	90.906	-0.025	0.028
-475.289	66.303	0.177	0.181
-474.274	-200.000	-0.001	-0.069
-473.259	-55.167	0.344	0.155
-472.245	-72.510	-0.100	-0.037
-471.230	-30.913	0.211	-0.120
-470.216	458.869	-0.071	0.158
-469.201	31.457	0.054	0.046
-468.186	4.671	0.318	-0.234
-467.172	13.887	-0.078	0.061
-466.157	-67.041	0.140	0.055
-465.143	73.350	0.119	0.124
-464.128	-200.000	-0.084	0.599
-463.113	50.430	0.203	-0.192
-462.099	-83.714	0.325	0.104
-461.084	518.285	0.064	0.150
-460.070	-79.224	0.247	0.084
-459.055	-180.023	0.185	-0.004
-458.040	-67.660	0.198	0.078
-457.026	-115.687	-0.226	0.042
-456.011	-104.994	-0.371	0.085
-454.997	-200.000	0.003	-0.128
-453.982	25.690	-0.125	0.104
-452.968	-200.000	-0.032	-0.213
-451.953	-192.727	0.164	0.002
-450.938	-200.000	-0.002	-0.092
-449.924	120.693	-0.068	0.084
-448.909	-69.193	0.116	-0.045
-447.895	-179.896	-0.289	-0.006
-446.880	317.159	-0.038	-0.072
-445.865	275.223	0.153	-0.272
-444.851	-62.878	-0.197	-0.082
-443.836	-200.000	0.005	-0.168
-442.822	749.325	0.011	-0.031
-441.807	-169.889	0.301	-0.011
-440.792	-68.352	0.264	-0.103
-439.778	-37.190	-0.242	-0.130
-438.763	-126.448	0.225	0.034
-437.749	-82.366	0.232	-0.075
-436.734	-104.163	-0.516	0.120
-435.719	173.037	0.095	0.137
-434.705	800.000	-0.029	-0.098
-433.690	92.597	-0.294	0.332
-432.676	-200.000	0.022	-0.102
-431.661	41.971	0.189	0.172
-430.646	-115.353	-0.169	-0.032
-429.632	-93.906	-0.470	-0.129
-428.617	13.350	-0.226	-0.175
-427.603	800.000	-0.032	-0.119
-426.588	800.000	0.063	0.180
-425.573	-155.129	0.193	0.013
-424.559	52.867	-0.044	-0.042
-423.544	-38.953	0.142	-0.075
-422.530	-75.807	-0.087	-0.031
-421.515	87.418	-0.165	-0.183
-420.500	73.840	-0.227	0.238
-419.486	257.460	0.206	-0.354
-418.471	800.000	0.059	-0.191
-417.457	61.235	0.036	-0.036
-416.442	80.923	0.301	0.325
-415.428	427.981	-0.072	-0.156
-414.413	-135.757	0.458	-0.054
-413.398	-101.393	0.170	0.042
-412.384	-2.737	-0.326	-0.228
-411.369	800.000	0.028	-0.098
-410.355	-20.876	-0.057	-0.035
-409.340	-89.052	-0.506	0.150
-408.325	-62.076	0.173	0.072
-407.311	-62.522	0.252	-0.105
-406.296	-100.975	0.267	0.065
-405.282	-200.000	0.009	-0.111
-404.267	-200.000	-0.018	-0.134
-403.252	-200.000	0.011	0.086
-402.238	-136.557	-0.120	-0.014
-401.223	-109.428	0.281	0.059
-400.209	693.470	-0.015	0.039
-399.194	800.000	-0.071	-0.226
-398.179	-200.000	0.043	-0.300
-397.165	-200.000	0.035	0.179
-396.150	-14.591	0.027	-0.017
-395.136	-91.943	0.072	0.020
-394.121	-200.000	0.043	0.232
-393.106	-15.014	-0.092	-0.059
-392.092	-3.093	0.268	0.187
-391.077	-78.630	0.273	0.093
-390.063	508.880	-0.050	0.115
-389.048	196.465	-0.206	0.313
-388.033	-45.205	0.599	-0.297
-387.019	-98.189	-0.121	0.031
-386.004	63.615	0.093	0.093
-384.990	741.306	-0.053	0.143
-383.975	21.795	0.210	0.171
-382.960	-200.000	0.037	0.256
-381.946	504.027	-0.027	0.063
-380.931	-200.000	-0.017	0.132
-379.917	218.889	0.008	-0.013
-378.902	-59.735	-0.137	0.059
-377.888	195.349	0.309	0.469
-376.873	-118.433	0.115	-0.020
-375.858	74.535	-0.155	-0.162
-374.844	184.598	-0.079	0.117
-373.829	-200.000	0.015	0.075
-372.815	156.230	0.041	-0.057
-371.800	800.000	0.030	-0.093
-370.785	-94.290	-0.143	-0.039
-369.771	800.000	-0.026	0.108
-368.756	-137.299	-0.201	-0.023
-367.742	-144.946	0.266	0.024
-366.727	309.410	-0.078	0.145
-365.712	357.444	0.112	0.224
-364.698	10.277	0.201	-0.153
-363.683	-200.000	0.025	-0.167
-362.669	-20.559	-0.097	-0.059
-361.654	800.000	0.053	0.185
-360.639	107.546	-0.168	0.199
-359.625	-79.823	-0.232	-0.078
-358.610	-92.517	0.187	0.053
-357.596	-200.000	-0.034	-0.306
-356.581	131.258	-0.349	-0.447
-355.566	142.283	-0.113	-0.150
-354.552	788.118	-0.056	-0.154
-353.537	253.561	0.089	0.152
-352.523	-200.000	0.039	0.237
-351.508	800.000	-0.060	-0.189
-350.493	146.938	-0.193	-0.259
-349.479	-62.736	-0.137	0.057
-348.464	137.927	0.074	-0.096
-347.450	137.815	-0.009	-0.012
-346.435	-200.000	-0.029	0.237
-345.420	269.057	-0.071	0.124
-344.406	442.874	0.049	0.107
-343.391	-35.012	-0.267	0.145
-342.377	-56.552	0.476	-0.210
-341.362	-52.484	0.154	0.071
-340.348	391.521	-0.049	-0.102
-339.333	-200.000	0.086	-0.433
-338.318	-200.000	-0.011	0.144
-337.304	-200.000	0.011	0.100
-336.289	-125.135	-0.096	0.015
-335.275	-164.964	0.025	0.001
-334.260	-143.960	0.217	0.020
-333.245	2.953	-0.109	0.079
-332.231	-200.000	0.064	-0.334
-331.216	-200.000	-0.012	0.055
-330.202	29.081	0.166	0.141
-329.187	-16.945	0.090	-0.056
-328.172	-102.500	-0.009	0.002
-327.158	-200.000	-0.044	0.195
-326.143	296.782	0.120	-0.219
-325.129	800.000	0.099	-0.322
-324.114	78.822	0.117	-0.125
-323.099	241.432	0.094	-0.156
-322.085	420.273	-0.187	0.399
-321.070	200.549	-0.196	-0.301
-320.056	-61.150	-0.207	-0.087
-319.041	-200.000	0.015	0.247
-318.026	19.168	-0.200	-0.160
-317.012	-29.029	-0.419	-0.240
-315.997	140.814	-0.109	-0.143
-314.983	-134.877	-0.277	-0.033
-313.968	-200.000	-0.001	-0.205
-312.953	-200.000	-0.011	0.302
-311.939	-200.000	-0.026	0.261
-310.924	205.760	0.121	0.187
-309.910	-109.950	-0.290	-0.060
-308.895	26.566	-0.243	0.203
-307.880	-200.000	-0.010	0.231
-306.866	-37.977	-0.319	-0.169
-305.851	-77.924	0.161	0.055
-304.837	-200.000	-0.003	-0.464
-303.822	-118.894	-0.164	-0.029
-302.807	-200.000	0.013	0.167
-301.793	800.000	-0.165	0.509
-300.778	800.000	-0.106	0.340
-299.764	377.225	-0.139	0.282
-298.749	-75.191	0.388	-0.138
-297.735	67.991	0.243	-0.248
-296.720	58.059	0.185	0.181
-295.705	4.275	0.151	0.110
-294.691	-200.000	-0.026	0.141
-293.676	-200.000	0.019	-0.180
-292.662	85.094	0.213	0.233
-291.647	180.955	-0.230	-0.337
-290.632	-114.551	0.278	-0.053
-289.618	27.451	0.106	-0.089
-288.603	-200.000	-0.053	0.324
-287.589	-8.029	0.078	-0.052
-286.574	29.118	0.445	0.376
-285.559	-114.656	0.300	0.057
-284.545	-125.554	0.161	0.024
-283.530	-139.472	-0.269	-0.029
-282.516	31.107	0.178	0.152
-281.501	562.012	-0.112	-0.270
-280.486	-88.603	-0.083	-0.025
-279.472	90.267	0.169	0.189
-278.457	-102.187	-0.365	0.087
-277.443	-200.000	-0.002	0.240
-276.428	800.000	-0.043	-0.142
-275.413	-200.000	0.065	0.342
-274.399	-13.992	0.148	0.095
-273.384	-200.000	-0.014	-0.120
-272.370	-114.788	-0.186	0.035
-271.355	-110.711	0.157	0.032
-270.340	-110.484	0.197	-0.041
-269.326	92.842	-0.236	-0.266
-268.311	73.293	0.170	-0.177
-267.297	710.649	0.115	0.301
-266.282	-121.776	-0.355	-0.058
-265.267	55.972	0.101	0.098
-264.253	238.111	-0.184	0.304
-263.238	-200.000	0.044	0.266
-262.224	800.000	0.079	0.236
-261.209	338.588	0.138	-0.267
-260.195	-200.000	-0.005	-0.138
-259.180	800.000	-0.119	0.408
-258.165	234.378	-0.063	0.104
-257.151	-2.427	-0.260	0.181
-256.136	800.000	-0.062	0.229
-255.122	-171.583	0.253	0.008
-254.107	54.783	-0.231	-0.221
-253.092	235.352	-0.127	-0.208
-252.078	640.049	0.107	-0.270
-251.063	-38.001	0.220	-0.116
-250.049	-49.885	0.236	-0.111
-249.034	-109.165	-0.136	0.029
-248.019	276.492	0.176	0.311
-247.005	800.000	0.049	-0.156
-245.990	800.000	0.087	-0.244
-244.976	97.544	-0.146	0.167
-243.961	721.346	-0.145	0.384
-242.946	-21.863	0.256	-0.155
-241.932	0.206	-0.230	-0.163
-240.917	-157.683	-0.371	0.022
-239.903	-102.511	-0.346	0.082
-238.888	-98.282	0.101	0.026
-237.873	741.347	0.052	0.140
-236.859	-144.093	0.154	-0.014
-235.844	111.436	-0.312	-0.373
-234.830	114.168	-0.240	-0.290
-233.815	-106.726	0.301	0.066
-232.800	85.838	0.200	-0.219
-231.786	-127.720	-0.561	-0.080
-230.771	134.497	0.219	-0.282
-229.757	421.656	0.200	-0.427
-228.742	-64.157	-0.191	0.077
-227.727	517.260	-0.058	0.134
-226.713	62.753	-0.164	-0.163
-225.698	-61.255	0.333	0.139
-224.684	-156.651	0.197	-0.012
-223.669	116.020	-0.093	0.113
-222.655	251.162	0.025	0.041
-221.640	631.129	0.078	0.197
-220.625	270.478	-0.118	0.207
-219.611	445.710	0.193	0.421
-218.596	-115.247	-0.108	0.020
-217.582	33.137	-0.094	0.081
-216.567	236.876	-0.093	-0.153
-215.552	-116.171	-0.088	0.016
-214.538	-16.689	-0.252	0.158
-213.523	29.805	0.107	-0.091
-212.509	-23.377	-0.215	0.128
-211.494	800.000	0.060	0.218
-210.479	800.000	0.009	0.033
-209.465	-200.000	-0.064	0.374
-208.450	7.190	-0.064	-0.047
-207.436	78.508	0.030	-0.032
-206.421	800.000	-0.152	-0.506
-205.406	-82.238	-0.360	-0.116
-204.392	-200.000	0.029	-0.188
-203.377	54.708	0.383	-0.367
-202.363	-200.000	-0.007	0.272
-201.348	112.345	-0.190	-0.228
-200.333	-91.555	0.116	0.033
-199.319	-125.875	0.355	0.053
-198.304	-200.000	0.001	-0.059
-197.290	80.375	-0.116	0.124
-196.275	-200.000	0.031	-0.149
-195.260	434.613	-0.044	-0.094
-194.246	-61.313	0.370	0.155
-193.231	-105.604	0.161	-0.036
-192.217	-186.968	-0.193	-0.003
-191.202	-61.980	-0.313	-0.130
-190.187	95.719	0.201	-0.228
-189.173	11.443	-0.119	0.091
-188.158	-85.388	0.438	0.135
-187.144	-200.000	-0.013	-0.066
-186.129	-200.000	-0.014	-0.112
-185.114	41.814	0.244	0.220
-184.100	-200.000	0.043	0.307
-183.085	84.297	0.138	0.150
-182.071	-200.000	-0.066	0.303
-181.056	-200.000	-0.003	-0.182
-180.042	-200.000	0.046	-0.413
-179.027	800.000	-0.115	-0.316
-178.012	-200.000	0.007	0.495
-176.998	85.499	-0.173	0.188
-175.983	602.455	-0.185	0.456
-174.969	-23.859	-0.234	-0.139
-173.954	-43.673	-0.304	0.152
-172.939	-1.687	0.234	0.163
-171.925	221.518	-0.117	0.187
-170.910	-79.333	0.291	0.098
-169.896	-25.320	-0.030	0.018
-168.881	35.447	0.103	0.090
-167.866	32.442	0.128	0.109
-166.852	-100.506	0.089	-0.022
-165.837	800.000	-0.099	-0.368
-164.823	501.983	0.072	0.165
-163.808	-50.534	0.148	-0.069
-162.793	4.463	0.116	0.084
-161.779	-165.030	-0.425	0.019
-160.764	-200.000	0.048	0.274
-159.750	-156.511	0.154	0.010
-158.735	-160.800	0.172	-0.009
-157.720	722.080	-0.104	0.274
-156.706	15.847	0.270	-0.210
-155.691	-106.257	-0.154	0.034
-154.677	-187.560	0.083	0.001
-153.662	800.000	-0.022	-0.067
-152.647	51.506	-0.253	0.238
-151.633	-9.000	0.067	-0.044
-150.618	-38.374	-0.318	-0.167
-149.604	-59.347	-0.413	0.176
-148.589	75.305	0.179	-0.187
-147.574	-44.257	-0.330	-0.164
-146.560	-168.475	0.175	-0.007
-145.545	-163.864	-0.198	-0.009
-144.531	698.411	0.132	-0.344
-143.516	-166.768	0.178	0.007
-142.502	-35.344	-0.266	-0.143
-141.487	800.000	0.122	-0.400
-140.472	800.000	-0.089	0.299
-139.458	800.000	0.075	0.245
-138.443	-126.723	0.012	-0.002
-137.429	800.000	0.064	0.236
-136.414	92.002	0.110	-0.122
-135.399	-200.000	-0.052	0.401
-134.385	398.852	-0.109	0.226
-133.370	800.000	-0.037	0.135
-132.356	620.881	-0.081	-0.201
-131.341	-200.000	-0.012	-0.286
-130.326	431.222	0.117	-0.251
-129.312	-200.000	0.008	0.445
-128.297	208.550	0.179	0.277
-127.283	497.957	0.133	0.303
-126.268	20.355	0.057	-0.045
-125.253	-72.833	-0.191	0.069
-124.239	-54.443	-0.125	-0.056
-123.224	-92.343	0.114	-0.032
-122.210	800.000	0.124	0.351
