DTS Sentinel unit serial number:	SN413079Multiplexer serial number:	ORYXHardware model number:	OX4-SRSoftware version number:	ORYX F/W v4.00 Oryx Data Collector v3.7.2.0data status	okinstallation	princeton_trtdifferential loss correction	single-endedforward channel	channel 3reverse channel	N/Adate	2019/09/18time	05:28:35forward acquisition time	60.00reverse acquisition time	0.00gamma	496.2192k internal	0.2343k external	0.2343temperature offset calibration	0.9952default loss term (dB/km)	0.3790temperature slope calibration	1.0000multiplexer offset coefficient	1.0000multiplexer slope coefficient	1.0000fibre end	0.00T internal ref (°C)	23.44T ext. ref 1 (°C)	0.19T ext. ref 2 (°C)	17.04length (m)	temperature (°C)	Stokes	anti-Stokes-747.200	800.000	0.037	-0.136
-746.185	-56.106	-0.229	-0.102
-745.171	-105.787	-0.045	-0.010
-744.156	-132.681	-0.306	-0.039
-743.142	144.610	-0.129	-0.172
-742.127	-200.000	-0.081	-0.395
-741.112	717.647	0.094	0.251
-740.098	-19.565	0.124	0.077
-739.083	-74.756	-0.079	-0.028
-738.069	-200.000	-0.006	0.267
-737.054	-0.536	-0.083	0.059
-736.039	-5.374	-0.108	-0.074
-735.025	316.143	-0.148	0.281
-734.010	-152.489	-0.265	0.019
-732.996	16.376	-0.165	-0.130
-731.981	141.055	-0.094	-0.124
-730.966	101.157	-0.132	-0.154
-729.952	800.000	0.059	0.181
-728.937	-68.629	-0.080	-0.031
-727.923	161.522	-0.146	0.204
-726.908	-104.431	0.234	0.054
-725.894	-112.817	0.257	0.051
-724.879	-0.029	-0.056	-0.040
-723.864	28.983	-0.074	0.063
-722.850	800.000	0.048	-0.139
-721.835	595.562	0.061	0.152
-720.821	-140.288	-0.162	0.017
-719.806	-23.405	-0.194	0.117
-718.791	6.327	-0.160	0.119
-717.777	55.837	-0.224	-0.217
-716.762	-110.834	0.318	0.066
-715.748	-4.008	0.081	-0.056
-714.733	5.114	-0.110	-0.081
-713.718	203.918	0.164	-0.253
-712.704	331.286	0.094	0.181
-711.689	68.426	0.299	0.306
-710.675	-124.642	-0.301	0.047
-709.660	27.592	0.139	0.117
-708.645	-125.681	-0.063	-0.010
-707.631	99.003	-0.218	-0.252
-706.616	-83.370	0.366	0.117
-705.602	13.774	-0.133	-0.103
-704.587	99.098	-0.227	-0.262
-703.572	155.262	0.156	0.215
-702.558	-147.681	0.038	-0.003
-701.543	71.320	0.202	-0.209
-700.529	592.225	-0.136	-0.336
-699.514	800.000	0.115	0.429
-698.499	-79.381	-0.212	0.072
-697.485	-200.000	0.003	0.125
-696.470	243.508	-0.025	-0.042
-695.456	-83.436	-0.486	0.156
-694.441	800.000	-0.036	0.157
-693.426	47.862	0.130	-0.121
-692.412	-21.551	0.256	-0.156
-691.397	4.933	-0.219	-0.161
-690.383	112.183	-0.094	-0.114
-689.368	167.717	0.115	0.163
-688.354	-147.592	0.223	0.019
-687.339	50.043	0.154	-0.145
-686.324	-85.558	-0.373	-0.116
-685.310	30.166	-0.229	-0.195
-684.295	-114.357	-0.371	0.071
-683.281	-22.664	0.170	0.103
-682.266	-110.630	0.244	0.050
-681.251	-169.070	-0.182	-0.007
-680.237	-174.864	-0.193	-0.005
-679.222	-87.015	0.160	0.049
-678.208	167.622	-0.107	-0.152
-677.193	-169.225	0.295	0.011
-676.178	-69.912	-0.574	0.219
-675.164	42.447	0.347	-0.315
-674.149	-43.819	0.208	0.105
-673.135	125.915	0.219	-0.277
-672.120	-200.000	0.024	-0.106
-671.105	-86.389	-0.540	0.166
-670.091	800.000	0.017	0.075
-669.076	-147.960	0.042	0.003
-668.062	-200.000	-0.013	0.519
-667.047	800.000	-0.045	-0.127
-666.032	-46.649	0.305	-0.149
-665.018	308.418	0.145	-0.270
-664.003	-64.676	-0.064	-0.026
-662.989	-146.921	0.338	-0.029
-661.974	289.011	0.100	-0.181
-660.959	-60.759	-0.299	0.126
-659.945	194.099	0.096	0.146
-658.930	245.680	-0.091	-0.153
-657.916	37.400	0.210	0.186
-656.901	-64.005	-0.130	-0.053
-655.886	12.794	-0.279	-0.215
-654.872	8.617	0.253	-0.190
-653.857	-51.481	0.321	-0.150
-652.843	576.203	-0.123	-0.299
-651.828	-39.919	0.027	0.014
-650.814	800.000	0.070	-0.211
-649.799	-200.000	0.023	-0.167
-648.784	161.452	0.103	-0.143
-647.770	-122.490	-0.214	0.035
-646.755	-144.333	-0.167	0.015
-645.741	-126.064	-0.266	-0.040
-644.726	5.186	0.128	0.094
-643.711	623.742	0.183	0.460
-642.697	523.589	0.049	0.115
-641.682	-114.295	-0.396	-0.076
-640.668	45.348	0.090	0.083
-639.653	-25.508	-0.110	-0.065
-638.638	-200.000	-0.007	0.058
-637.624	-162.574	0.237	0.012
-636.609	39.556	-0.192	0.172
-635.595	-101.107	-0.296	0.072
-634.580	148.837	-0.118	0.159
-633.565	-51.804	-0.183	0.085
-632.551	326.515	-0.162	-0.309
-631.536	-79.646	-0.243	0.082
-630.522	230.334	0.111	-0.181
-629.507	79.078	0.184	-0.197
-628.492	-200.000	-0.007	0.086
-627.478	-200.000	0.009	0.304
-626.463	-74.098	0.210	-0.076
-625.449	-200.000	0.051	0.240
-624.434	-159.280	-0.140	-0.008
-623.419	-97.508	-0.188	-0.049
-622.405	-62.678	0.126	0.052
-621.390	-71.595	-0.250	-0.093
-620.376	-200.000	-0.037	0.251
-619.361	5.583	-0.210	-0.155
-618.346	-170.084	0.275	-0.010
-617.332	-200.000	-0.002	-0.138
-616.317	367.368	-0.068	-0.136
-615.303	800.000	-0.056	-0.183
-614.288	-8.274	-0.168	0.113
-613.273	85.059	-0.227	0.247
-612.259	800.000	0.084	-0.246
-611.244	800.000	-0.050	0.172
-610.230	800.000	0.098	-0.426
-609.215	-17.320	0.316	-0.198
-608.201	-135.913	-0.262	0.031
-607.186	-200.000	-0.043	-0.331
-606.171	-127.862	0.196	-0.028
-605.157	-89.588	-0.087	-0.025
-604.142	-2.088	-0.088	-0.062
-603.128	350.563	-0.061	-0.120
-602.113	365.182	0.158	-0.316
-601.098	-200.000	0.011	-0.217
-600.084	380.992	0.153	-0.313
-599.069	-166.731	0.214	-0.009
-598.055	-31.392	0.309	-0.173
-597.040	-174.041	0.089	-0.003
-596.025	580.220	0.070	-0.170
-595.011	-151.001	-0.323	-0.024
-593.996	348.689	-0.085	0.167
-592.982	-66.121	0.336	-0.133
-591.967	-50.238	0.162	-0.076
-590.952	5.321	-0.091	0.067
-589.938	800.000	-0.054	0.203
-588.923	-9.383	-0.319	0.212
-587.909	381.850	0.066	0.134
-586.894	-121.532	0.209	-0.034
-585.879	-83.794	0.192	-0.061
-584.865	-115.058	0.099	0.019
-583.850	239.290	0.153	0.254
-582.836	16.531	-0.130	0.102
-581.821	-31.304	0.111	-0.062
-580.806	-200.000	-0.013	0.161
-579.792	-200.000	-0.005	0.222
-578.777	78.246	-0.110	0.117
-577.763	-118.093	-0.238	0.042
-576.748	315.728	-0.121	0.227
-575.733	165.116	-0.099	-0.139
-574.719	800.000	0.052	-0.181
-573.704	-126.221	-0.214	-0.032
-572.690	-200.000	-0.026	-0.151
-571.675	-16.668	0.122	-0.077
-570.661	800.000	-0.024	0.071
-569.646	222.584	0.073	0.117
-568.631	102.749	-0.109	-0.126
-567.617	800.000	-0.115	0.345
-566.602	271.690	0.187	0.328
-565.588	-168.344	-0.378	0.014
-564.573	800.000	0.037	0.131
-563.558	-34.087	0.437	0.239
-562.544	176.557	-0.140	-0.203
-561.529	172.446	0.087	-0.125
-560.515	21.499	0.188	-0.152
-559.500	-60.022	-0.260	-0.110
-558.485	-24.635	0.098	-0.058
-557.471	-108.197	-0.386	0.083
-556.456	59.464	0.132	-0.130
-555.442	110.240	0.177	0.212
-554.427	338.542	-0.090	0.174
-553.412	82.347	0.169	0.183
-552.398	-200.000	-0.436	0.001
-551.383	-169.604	-0.314	0.011
-550.369	-47.367	0.070	-0.034
-549.354	301.002	-0.099	-0.182
-548.339	-146.241	0.322	0.028
-547.325	-130.485	0.005	0.001
-546.310	-200.000	0.027	0.171
-545.296	-200.000	0.002	0.241
-544.281	-200.000	-0.053	0.337
-543.266	196.310	0.059	0.089
-542.252	-63.300	0.108	-0.044
-541.237	-90.735	0.384	-0.110
-540.223	800.000	0.087	-0.254
-539.208	800.000	0.100	0.293
-538.193	-33.538	0.172	0.094
-537.179	129.994	-0.162	-0.206
-536.164	233.769	0.055	-0.090
-535.150	-2.800	-0.074	0.051
-534.135	44.769	-0.062	0.056
-533.121	63.453	0.175	-0.174
-532.106	592.391	-0.112	0.275
-531.091	201.192	0.191	-0.292
-530.077	91.818	0.134	0.150
-529.062	-200.000	-0.054	0.358
-528.048	108.818	0.101	0.120
-527.033	143.832	-0.030	0.040
-526.018	-200.000	0.002	0.256
-525.004	-115.380	-0.239	-0.045
-523.989	59.977	-0.123	0.121
-522.975	-200.000	0.007	0.062
-521.960	89.930	0.022	-0.024
-520.945	-109.861	0.201	-0.042
-519.931	111.251	-0.014	-0.017
-518.916	44.724	-0.311	-0.284
-517.902	800.000	0.133	-0.379
-516.887	-200.000	0.030	-0.409
-515.872	-200.000	-0.015	0.128
-514.858	-78.675	0.309	0.105
-513.843	-90.752	-0.300	-0.086
-512.829	557.613	0.105	0.251
-511.814	-200.000	-0.020	0.222
-510.799	-117.404	0.284	-0.051
-509.785	-25.539	0.284	0.166
-508.770	800.000	-0.004	-0.014
-507.756	-200.000	0.024	0.175
-506.741	476.657	-0.056	0.126
-505.726	-200.000	-0.072	0.343
-504.712	-36.589	-0.098	-0.052
-503.697	758.281	-0.061	0.164
-502.683	316.328	0.221	-0.414
-501.668	365.870	-0.109	-0.219
-500.653	96.893	0.231	-0.262
-499.639	-200.000	0.103	-0.468
-498.624	84.441	-0.196	0.213
-497.610	105.999	-0.177	-0.208
-496.595	75.543	0.251	0.262
-495.581	-200.000	0.046	0.310
-494.566	222.540	0.184	-0.293
-493.551	-104.129	0.292	0.067
-492.537	51.490	0.068	0.064
-491.522	-120.864	0.351	-0.059
-490.508	161.375	0.092	0.127
-489.493	-123.962	-0.156	-0.024
-488.478	-178.347	-0.067	0.002
-487.464	-200.000	0.094	-0.438
-486.449	-125.214	-0.274	-0.042
-485.435	193.004	-0.062	-0.093
-484.420	237.461	0.055	-0.090
-483.405	-200.000	0.001	-0.015
-482.391	263.069	-0.176	0.303
-481.376	77.974	0.123	0.130
-480.362	-83.929	-0.106	-0.033
-479.347	-51.006	-0.263	-0.122
-478.332	-59.025	-0.289	0.124
-477.318	800.000	0.081	0.321
-476.303	-200.000	0.017	0.243
-475.289	-54.382	-0.141	-0.064
-474.274	-138.247	-0.212	0.023
-473.259	-32.488	0.283	-0.156
-472.245	-199.201	-0.381	-0.002
-471.230	612.285	0.070	0.174
-470.216	-64.002	0.182	-0.074
-469.201	-127.405	0.151	0.022
-468.186	-89.287	0.041	-0.012
-467.172	0.136	-0.235	-0.166
-466.157	-122.894	-0.069	0.011
-465.143	-59.493	0.219	-0.093
-464.128	-200.000	-0.019	0.214
-463.113	800.000	0.141	0.410
-462.099	-60.211	-0.180	0.076
-461.084	-142.365	0.132	0.013
-460.070	800.000	-0.090	-0.264
-459.055	-35.049	0.130	0.070
-458.040	-101.526	0.277	-0.067
-457.026	-200.000	-0.024	-0.201
-456.011	141.180	-0.121	-0.158
-454.997	-151.837	0.207	-0.015
-453.982	92.078	-0.135	0.150
-452.968	-69.749	-0.080	-0.030
-451.953	39.061	-0.103	-0.091
-450.938	800.000	0.082	-0.258
-449.924	-22.323	-0.073	-0.044
-448.909	-84.092	-0.111	0.035
-447.895	-137.287	0.175	-0.020
-446.880	7.042	0.075	0.055
-445.865	-84.810	0.186	0.058
-444.851	17.540	-0.166	-0.131
-443.836	800.000	-0.091	-0.327
-442.822	13.574	-0.374	0.287
-441.807	800.000	0.061	-0.184
-440.792	256.543	0.113	-0.191
-439.778	-94.599	0.085	0.023
-438.763	-119.248	0.243	-0.042
-437.749	800.000	0.075	-0.304
-436.734	17.990	-0.328	0.258
-435.719	-40.304	0.091	0.047
-434.705	592.649	-0.100	-0.244
-433.690	4.971	-0.061	0.045
-432.676	-108.075	-0.062	0.013
-431.661	-200.000	-0.014	-0.155
-430.646	162.606	0.143	0.199
-429.632	-200.000	-0.078	-0.366
-428.617	-200.000	0.037	0.204
-427.603	411.364	-0.113	0.237
-426.588	-46.650	-0.199	0.097
-425.573	-0.372	0.115	0.080
-424.559	-174.252	0.287	0.008
-423.544	231.303	-0.018	0.030
-422.530	-119.969	-0.197	0.033
-421.515	24.052	-0.237	-0.193
-420.500	-65.675	0.098	0.039
-419.486	-113.705	0.260	-0.050
-418.471	50.491	-0.217	-0.203
-417.457	-200.000	-0.092	0.443
-416.442	-37.946	-0.151	-0.079
-415.428	158.459	-0.044	-0.060
-414.413	-200.000	0.022	0.262
-413.398	-200.000	-0.046	-0.271
-412.384	210.805	0.083	0.129
-411.369	-145.309	-0.263	0.024
-410.355	706.021	0.056	-0.147
-409.340	73.863	0.112	0.116
-408.325	-106.100	0.189	0.042
-407.311	56.526	-0.411	-0.395
-406.296	-200.000	0.002	0.107
-405.282	-125.746	0.123	0.018
-404.267	-141.460	0.229	-0.023
-403.252	181.539	-0.228	0.332
-402.238	85.481	0.087	-0.094
-401.223	-43.860	-0.077	-0.038
-400.209	-35.193	0.187	-0.100
-399.194	-43.639	0.153	-0.076
-398.179	-152.922	0.262	-0.018
-397.165	374.544	0.047	-0.094
-396.150	10.725	-0.064	-0.048
-395.136	-200.000	0.017	-0.166
-394.121	301.510	-0.201	-0.368
-393.106	318.806	0.140	-0.262
-392.092	112.186	-0.226	0.270
-391.077	142.986	0.141	0.186
-390.063	23.154	-0.238	-0.193
-389.048	436.604	-0.076	-0.164
-388.033	220.077	-0.062	0.098
-387.019	-21.901	-0.150	0.090
-386.004	800.000	0.044	0.141
-384.990	-200.000	-0.008	-0.042
-383.975	182.173	-0.150	-0.219
-382.960	-99.383	-0.233	0.058
-381.946	-200.000	-0.007	0.084
-380.931	-200.000	0.054	0.240
-379.917	2.325	-0.148	0.106
-378.902	189.325	0.139	0.205
-377.888	-126.501	-0.299	0.044
-376.873	9.817	-0.242	0.181
-375.858	-80.454	-0.027	-0.009
-374.844	-38.077	-0.072	-0.038
-373.829	-85.039	-0.064	-0.020
-372.815	-200.000	-0.008	0.220
-371.800	7.940	-0.217	-0.161
-370.785	2.792	0.193	0.138
-369.771	206.537	0.112	-0.172
-368.756	-113.016	0.130	0.025
-367.742	-200.000	-0.029	0.348
-366.727	-87.779	0.250	-0.074
-365.712	-194.379	-0.064	-0.001
-364.698	284.168	-0.160	-0.283
-363.683	-67.346	-0.371	0.144
-362.669	-64.349	0.231	0.093
-361.654	-143.946	-0.079	-0.007
-360.639	290.775	0.101	0.180
-359.625	800.000	-0.047	0.201
-358.610	800.000	0.018	-0.054
-357.596	39.791	0.114	-0.101
-356.581	-200.000	-0.002	0.320
-355.566	-200.000	-0.018	-0.081
-354.552	-200.000	-0.066	-0.339
-353.537	674.010	-0.119	-0.304
-352.523	-200.000	0.051	-0.312
-351.508	-98.256	-0.068	0.017
-350.493	294.224	-0.089	0.160
-349.479	42.898	0.249	-0.224
-348.464	-200.000	0.060	-0.337
-347.450	-165.909	-0.240	-0.010
-346.435	-200.000	0.026	0.193
-345.420	-200.000	0.037	0.299
-344.406	-105.849	-0.126	-0.028
-343.391	765.026	0.097	-0.259
-342.377	-200.000	0.005	-0.032
-341.362	37.137	0.324	0.283
-340.348	470.940	-0.097	-0.215
-339.333	-200.000	0.002	-0.160
-338.318	-77.206	0.200	-0.069
-337.304	-112.357	0.127	0.025
-336.289	14.689	-0.068	-0.052
-335.275	-43.086	-0.253	-0.126
-334.260	347.559	-0.007	-0.013
-333.245	-200.000	0.002	0.038
-332.231	-200.000	-0.055	-0.255
-331.216	-200.000	-0.002	-0.158
-330.202	419.057	-0.046	0.096
-329.187	19.790	-0.365	-0.290
-328.172	-200.000	-0.008	0.241
-327.158	32.704	-0.102	-0.087
-326.143	-200.000	0.120	-0.549
-325.129	-144.580	-0.466	-0.042
-324.114	12.980	0.106	0.080
-323.099	13.644	0.456	0.349
-322.085	-200.000	0.014	0.166
-321.070	800.000	-0.009	0.035
-320.056	23.214	-0.153	-0.124
-319.041	21.981	0.017	0.014
-318.026	84.633	0.117	0.126
-317.012	-10.219	0.158	-0.103
-315.997	134.702	-0.188	0.240
-314.983	-96.266	0.446	0.116
-313.968	558.126	0.012	0.028
-312.953	-200.000	-0.024	0.150
-311.939	19.895	0.137	0.109
-310.924	-64.126	0.453	-0.182
-309.910	-200.000	-0.035	0.230
-308.895	-71.751	0.272	-0.100
-307.880	-102.014	-0.218	-0.052
-306.866	-2.542	-0.350	-0.241
-305.851	-61.117	0.488	-0.203
-304.837	-200.000	0.016	-0.112
-303.822	800.000	-0.034	0.135
-302.807	-200.000	-0.023	0.283
-301.793	800.000	0.054	0.207
-300.778	190.913	0.189	-0.279
-299.764	112.137	0.385	0.458
-298.749	529.984	-0.130	-0.301
-297.735	-200.000	-0.008	-0.041
-296.720	376.371	0.082	0.165
-295.705	800.000	-0.068	0.218
-294.691	-200.000	-0.017	0.114
-293.676	65.356	0.135	-0.135
-292.662	-200.000	-0.067	-0.455
-291.647	220.531	0.020	0.032
-290.632	170.153	0.189	0.266
-289.618	800.000	0.086	-0.334
-288.603	237.736	0.113	0.184
-287.589	-43.998	0.341	0.169
-286.574	89.361	0.098	-0.108
-285.559	-78.509	-0.194	0.065
-284.545	-200.000	-0.014	-0.074
-283.530	-72.205	-0.144	0.052
-282.516	-102.330	0.118	-0.028
-281.501	182.706	0.173	0.251
-280.486	688.013	-0.088	-0.226
-279.472	32.998	-0.132	-0.112
-278.457	-95.494	-0.136	0.036
-277.443	30.849	-0.118	0.099
-276.428	-200.000	0.030	0.159
-275.413	-182.006	0.124	-0.002
-274.399	-57.595	-0.327	0.141
-273.384	800.000	-0.032	-0.121
-272.370	-101.439	0.450	0.108
-271.355	-89.183	-0.159	-0.046
-270.340	183.295	-0.145	0.211
-269.326	340.925	0.211	-0.405
-268.311	-200.000	0.016	-0.183
-267.297	-179.819	-0.164	0.003
-266.282	339.132	0.084	0.162
-265.267	20.818	-0.119	-0.095
-264.253	622.250	0.055	0.136
-263.238	-69.724	-0.240	0.090
-262.224	117.180	-0.044	-0.053
-261.209	-156.418	-0.149	0.009
-260.195	91.423	-0.101	-0.112
-259.180	-22.227	-0.151	0.090
-258.165	-200.000	-0.269	0.000
-257.151	-117.033	0.109	-0.020
-256.136	-200.000	0.069	-0.389
-255.122	157.248	-0.108	0.147
-254.107	660.778	0.117	-0.296
-253.092	-200.000	-0.044	-0.240
-252.078	-43.846	0.097	0.048
-251.063	196.643	-0.024	-0.036
-250.049	-119.195	-0.114	0.020
-249.034	7.619	0.040	-0.030
-248.019	278.517	-0.101	-0.177
-247.005	152.174	-0.142	0.190
-245.990	-197.513	-0.330	0.002
-244.976	-66.841	0.332	0.129
-243.961	799.272	0.058	-0.157
-242.946	-200.000	0.034	0.161
-241.932	-200.000	0.003	-0.267
-240.917	-200.000	0.082	-0.540
-239.903	272.341	-0.184	0.318
-238.888	144.514	-0.122	-0.160
-237.873	6.564	-0.179	-0.131
-236.859	-200.000	-0.015	-0.178
-235.844	-200.000	0.009	0.086
-234.830	-200.000	-0.024	0.110
-233.815	-36.226	-0.400	0.212
-232.800	-93.526	0.170	-0.046
-231.786	-89.546	-0.300	0.087
-230.771	-200.000	-0.038	-0.214
-229.757	-1.230	0.285	0.198
-228.742	309.505	-0.109	0.201
-227.727	-125.717	-0.216	-0.032
-226.713	-104.762	0.178	0.040
-225.698	-200.000	0.014	-0.168
-224.684	-114.624	0.201	0.038
-223.669	42.951	0.319	0.286
-222.655	-46.083	-0.156	-0.075
-221.640	-200.000	-0.006	0.069
-220.625	317.293	0.116	0.215
-219.611	-200.000	-0.048	0.212
-218.596	112.090	-0.038	-0.045
-217.582	-45.864	0.172	0.083
-216.567	-6.756	-0.266	0.177
-215.552	117.669	0.208	-0.251
-214.538	-118.360	0.091	-0.016
-213.523	206.697	-0.108	0.165
-212.509	-42.022	-0.062	0.031
-211.494	-80.834	0.248	-0.081
-210.479	-6.719	0.288	0.192
-209.465	-146.944	0.165	0.014
-208.450	-71.075	-0.132	0.049
-207.436	384.637	0.090	-0.182
-206.421	800.000	-0.123	0.374
-205.406	-122.842	-0.229	0.036
-204.392	800.000	-0.152	-0.415
-203.377	-86.435	0.189	0.057
-202.363	-78.924	-0.295	-0.098
-201.348	-138.790	-0.356	0.038
-200.333	756.661	-0.091	0.241
-199.319	-200.000	0.077	0.475
-198.304	138.365	0.115	-0.148
-197.290	619.017	-0.112	-0.276
-196.275	-137.002	-0.017	-0.002
-195.260	-127.313	0.144	-0.021
-194.246	229.026	-0.137	0.219
-193.231	-35.325	0.341	-0.182
-192.217	193.680	0.132	0.196
-191.202	-126.623	0.166	-0.024
-190.187	-72.086	0.103	0.037
-189.173	18.653	-0.168	0.132
-188.158	731.933	0.047	0.123
-187.144	277.192	-0.078	-0.136
-186.129	-180.889	-0.177	-0.003
-185.114	42.896	0.053	-0.047
-184.100	-200.000	0.030	0.361
-183.085	-142.980	0.503	0.048
-182.071	2.097	0.170	0.120
-181.056	-70.041	0.241	0.090
-180.042	-31.877	-0.117	0.064
-179.027	800.000	-0.018	-0.056
-178.012	-29.025	-0.249	0.140
-176.998	285.013	0.151	0.267
-175.983	-149.525	-0.261	0.020
-174.969	-200.000	0.009	-0.080
-173.954	-200.000	-0.076	-0.413
-172.939	800.000	0.082	-0.288
-171.925	114.286	0.138	0.164
-170.910	44.699	0.165	0.149
-169.896	202.493	0.248	0.375
-168.881	-163.058	0.095	-0.005
-167.866	39.645	0.223	-0.196
-166.852	-200.000	-0.025	-0.149
-165.837	104.515	-0.156	0.179
-164.823	273.272	0.041	-0.072
-163.808	450.045	-0.072	-0.155
-162.793	-200.000	0.332	0.000
-161.779	-40.217	-0.235	-0.120
-160.764	-200.000	0.058	0.282
-159.750	-30.104	0.224	0.125
-158.735	659.823	0.094	-0.236
-157.720	-150.872	0.115	0.009
-156.706	-82.286	-0.702	-0.224
-155.691	-200.000	0.035	-0.420
-154.677	-74.622	0.216	0.076
-153.662	-200.000	-0.001	-0.029
-152.647	-119.716	0.165	0.028
-151.633	116.083	-0.149	-0.178
-150.618	-102.146	0.145	-0.034
-149.604	-200.000	-0.002	-0.079
-148.589	187.684	0.077	0.113
-147.574	-31.592	0.198	-0.109
-146.560	-97.988	0.046	0.012
-145.545	31.901	-0.137	0.116
-144.531	-42.567	0.275	-0.137
-143.516	34.148	-0.145	-0.124
-142.502	-119.481	-0.158	-0.027
-141.487	56.402	0.149	0.142
-140.472	445.609	0.029	0.061
-139.458	-47.468	0.211	0.100
-138.443	381.914	-0.091	-0.183
-137.429	69.368	-0.059	-0.059
-136.414	-59.459	0.072	0.030
-135.399	-200.000	-0.018	-0.138
-134.385	-32.815	0.162	0.088
-133.370	800.000	0.029	0.103
-132.356	199.633	-0.155	-0.232
-131.341	-128.985	0.319	0.044
-130.326	-132.450	0.319	0.040
-129.312	15.168	-0.109	0.083
-128.297	-118.869	0.237	0.041
-127.283	29.815	0.033	0.028
-126.268	-200.000	-0.001	0.032
-125.253	208.425	-0.265	-0.405
-124.239	-116.026	0.275	0.050
-123.224	800.000	0.069	-0.236
-122.210	24.752	-0.193	-0.156
