DTS Sentinel unit serial number:	SN413079Multiplexer serial number:	ORYXHardware model number:	OX4-SRSoftware version number:	ORYX F/W v4.00 Oryx Data Collector v3.7.2.0data status	okinstallation	princeton_trtdifferential loss correction	single-endedforward channel	channel 3reverse channel	N/Adate	2019/09/16time	13:20:35forward acquisition time	60.00reverse acquisition time	0.00gamma	496.2192k internal	0.2294k external	0.2294temperature offset calibration	0.9934default loss term (dB/km)	0.3790temperature slope calibration	1.0000multiplexer offset coefficient	1.0000multiplexer slope coefficient	1.0000fibre end	0.00T internal ref (°C)	41.37T ext. ref 1 (°C)	13.73T ext. ref 2 (°C)	39.31length (m)	temperature (°C)	Stokes	anti-Stokes-747.200	-181.160	-0.099	-0.002
-746.185	-200.000	0.009	0.256
-745.171	-74.639	0.074	-0.027
-744.156	246.518	0.039	-0.067
-743.142	-49.517	-0.153	0.075
-742.127	-55.395	-0.058	-0.027
-741.112	-200.000	0.011	-0.290
-740.098	800.000	-0.029	0.113
-739.083	-200.000	0.002	-0.009
-738.069	-49.832	0.127	0.062
-737.054	308.192	0.088	0.168
-736.039	-40.941	0.163	-0.086
-735.025	-144.209	0.027	0.003
-734.010	23.174	-0.412	-0.346
-732.996	792.895	-0.145	-0.407
-731.981	800.000	-0.037	-0.132
-730.966	129.029	0.079	-0.103
-729.952	-200.000	-0.028	0.168
-728.937	-35.919	-0.295	-0.163
-727.923	70.019	-0.106	0.112
-726.908	-200.000	-0.046	-0.298
-725.894	-200.000	0.043	-0.398
-724.879	5.318	-0.295	0.223
-723.864	365.391	0.077	0.158
-722.850	268.664	-0.098	-0.175
-721.835	12.144	0.162	-0.127
-720.821	-200.000	-0.052	-0.275
-719.806	-48.848	-0.224	-0.110
-718.791	-200.000	-0.006	0.293
-717.777	-200.000	0.013	-0.256
-716.762	-200.000	0.005	-0.025
-715.748	-28.424	0.037	-0.022
-714.733	76.715	-0.186	-0.202
-713.718	-5.900	-0.317	-0.222
-712.704	-26.149	-0.121	0.073
-711.689	-127.131	0.228	0.034
-710.675	256.877	-0.191	0.336
-709.660	-91.057	-0.156	0.046
-708.645	-200.000	-0.003	-0.215
-707.631	261.413	0.034	0.060
-706.616	185.732	0.085	0.130
-705.602	800.000	0.027	0.111
-704.587	102.867	0.064	0.076
-703.572	-120.656	0.181	0.031
-702.558	44.011	-0.261	0.244
-701.543	-200.000	0.035	0.235
-700.529	-200.000	-0.041	-0.319
-699.514	800.000	-0.093	0.385
-698.499	-200.000	0.000	0.081
-697.485	100.536	-0.356	-0.422
-696.470	-69.071	-0.355	-0.139
-695.456	800.000	0.061	-0.172
-694.441	-200.000	-0.030	0.229
-693.426	192.140	-0.172	-0.265
-692.412	8.574	-0.171	0.132
-691.397	11.188	0.092	-0.072
-690.383	-76.037	-0.219	0.079
-689.368	50.068	0.159	0.153
-688.354	-200.000	-0.009	-0.044
-687.339	23.114	-0.283	-0.237
-686.324	92.234	-0.295	-0.340
-685.310	27.127	-0.049	-0.042
-684.295	-52.051	0.191	-0.091
-683.281	-40.762	0.214	-0.113
-682.266	-200.000	0.007	0.240
-681.251	-47.646	0.135	-0.067
-680.237	304.659	-0.158	-0.299
-679.222	-165.233	0.376	-0.017
-678.208	-200.000	0.016	-0.473
-677.193	-106.132	-0.284	0.065
-676.178	-200.000	-0.049	-0.324
-675.164	90.097	-0.060	-0.068
-674.149	288.214	-0.174	-0.321
-673.135	114.693	0.185	0.229
-672.120	-157.588	0.232	0.014
-671.105	256.359	-0.222	-0.389
-670.091	139.735	0.141	-0.189
-669.076	-44.617	0.333	0.169
-668.062	-49.602	0.150	0.073
-667.047	175.966	0.223	-0.330
-666.032	-111.036	-0.211	0.044
-665.018	6.935	0.191	-0.145
-664.003	-122.667	-0.259	0.043
-662.989	-99.220	-0.137	-0.035
-661.974	-71.722	-0.241	0.092
-660.959	218.836	0.117	0.191
-659.945	-23.242	0.097	-0.059
-658.930	-81.627	0.181	-0.061
-657.916	-41.597	-0.192	-0.101
-656.901	800.000	-0.054	-0.189
-655.886	-131.334	0.128	-0.017
-654.872	-12.730	-0.217	0.144
-653.857	164.730	-0.300	-0.431
-652.843	-66.600	-0.094	0.038
-651.828	-40.211	-0.309	-0.164
-650.814	45.033	0.206	0.194
-649.799	-200.000	-0.001	-0.081
-648.784	40.187	0.185	0.169
-647.770	-200.000	-0.035	-0.185
-646.755	109.755	-0.236	-0.288
-645.741	-111.710	-0.232	-0.048
-644.726	195.585	-0.048	-0.074
-643.711	157.573	0.154	-0.217
-642.697	-108.146	-0.319	0.070
-641.682	-200.000	-0.010	-0.265
-640.668	185.957	0.196	0.296
-639.653	-200.000	0.005	-0.150
-638.638	-94.720	-0.276	0.076
-637.624	-17.229	-0.094	-0.060
-636.609	563.959	0.076	-0.189
-635.595	220.309	0.049	-0.081
-634.580	102.416	-0.091	0.109
-633.565	17.364	-0.085	-0.069
-632.551	-200.000	-0.020	-0.142
-631.536	8.973	-0.175	0.134
-630.522	-94.841	-0.154	-0.043
-629.507	-67.548	-0.194	-0.078
-628.492	18.762	0.176	0.143
-627.478	-200.000	0.008	-0.244
-626.463	-127.120	0.062	0.009
-625.449	-194.836	-0.140	0.001
-624.434	244.273	-0.055	0.094
-623.419	-129.431	0.149	-0.021
-622.405	-200.000	-0.012	-0.332
-621.390	-60.360	0.224	0.097
-620.376	100.723	0.256	-0.303
-619.361	800.000	0.065	0.281
-618.346	-23.492	0.163	0.099
-617.332	-200.000	-0.018	0.231
-616.317	-200.000	0.022	0.108
-615.303	-189.472	-0.093	0.001
-614.288	-80.487	0.291	0.099
-613.273	160.229	-0.189	0.268
-612.259	-96.363	-0.193	-0.052
-611.244	19.073	-0.271	-0.221
-610.230	-116.575	0.045	0.008
-609.215	49.560	0.078	0.075
-608.201	800.000	0.069	0.240
-607.186	-156.017	0.188	-0.012
-606.171	-66.465	-0.146	-0.059
-605.157	90.784	0.035	0.040
-604.142	58.571	-0.076	0.076
-603.128	-109.281	-0.118	-0.025
-602.113	-200.000	-0.047	-0.282
-601.098	279.538	0.103	-0.188
-600.084	162.529	0.220	0.314
-599.069	36.856	0.102	0.091
-598.055	93.169	-0.229	0.263
-597.040	-81.190	-0.365	0.123
-596.025	292.145	0.059	-0.109
-595.011	-200.000	0.005	-0.028
-593.996	49.325	0.139	-0.133
-592.982	-200.000	-0.010	0.239
-591.967	491.620	-0.009	-0.022
-590.952	-200.000	0.069	-0.423
-589.938	800.000	-0.091	-0.286
-588.923	-9.132	-0.201	-0.137
-587.909	800.000	-0.063	0.235
-586.894	-148.303	-0.315	-0.026
-585.879	-42.939	0.109	0.056
-584.865	800.000	-0.016	-0.045
-583.850	43.555	0.112	0.104
-582.836	43.406	-0.012	-0.011
-581.821	10.571	0.081	0.062
-580.806	88.156	0.250	0.282
-579.792	-126.623	0.147	0.022
-578.777	-143.075	-0.079	0.008
-577.763	27.604	-0.148	-0.126
-576.748	151.216	0.122	-0.168
-575.733	355.344	-0.144	0.291
-574.719	-29.742	0.183	-0.106
-573.704	-124.610	-0.174	0.027
-572.690	-116.055	-0.094	-0.018
-571.675	-62.598	0.131	-0.055
-570.661	800.000	0.050	0.155
-569.646	6.357	-0.032	0.024
-568.631	386.136	-0.052	-0.109
-567.617	-200.000	0.009	-0.065
-566.602	800.000	0.045	-0.144
-565.588	-31.882	-0.067	0.038
-564.573	61.409	-0.186	0.188
-563.558	158.811	-0.243	-0.342
-562.544	-41.480	0.239	-0.125
-561.529	149.240	0.167	0.230
-560.515	43.877	0.256	-0.238
-559.500	800.000	0.024	-0.073
-558.485	366.194	-0.179	-0.367
-557.471	-102.633	-0.212	-0.051
-556.456	88.915	0.225	-0.254
-555.442	72.859	0.088	-0.094
-554.427	-130.885	-0.243	0.033
-553.412	-70.034	0.216	0.083
-552.398	-200.000	-0.036	-0.297
-551.383	-1.860	0.232	0.165
-550.369	270.419	-0.091	-0.163
-549.354	260.879	0.100	0.175
-548.339	-150.570	-0.131	-0.010
-547.325	-7.524	-0.140	0.096
-546.310	-173.023	0.192	-0.006
-545.296	-200.000	0.007	-0.060
-544.281	-200.000	-0.002	-0.079
-543.266	67.307	-0.102	0.106
-542.252	-200.000	-0.006	0.278
-541.237	38.219	-0.309	-0.279
-540.223	-75.557	0.253	0.091
-539.208	164.176	-0.056	-0.080
-538.193	39.853	-0.134	-0.122
-537.179	504.356	-0.102	-0.240
-536.164	187.241	0.117	0.178
-535.150	-83.389	-0.195	-0.063
-534.135	617.743	-0.024	0.061
-533.121	-19.668	0.101	-0.063
-532.106	-1.413	0.155	-0.111
-531.091	147.437	-0.246	-0.336
-530.077	466.441	-0.189	0.430
-529.062	-52.170	-0.317	-0.149
-528.048	-200.000	-0.032	-0.277
-527.033	-64.583	0.329	-0.136
-526.018	-169.915	-0.276	-0.010
-525.004	80.527	0.269	0.294
-523.989	-157.509	0.191	0.012
-522.975	291.730	0.192	-0.355
-521.960	-200.000	0.014	-0.108
-520.945	289.509	-0.066	-0.122
-519.931	800.000	0.091	0.388
-518.916	26.654	0.112	-0.095
-517.902	84.592	-0.396	0.439
-516.887	-173.269	0.110	0.003
-515.872	-177.464	0.314	-0.008
-514.858	-110.753	0.345	-0.072
-513.843	0.697	0.345	-0.251
-512.829	-143.094	0.087	-0.008
-511.814	15.243	0.254	0.202
-510.799	-200.000	-0.001	0.265
-509.785	-139.793	0.263	0.028
-508.770	-113.848	-0.345	0.068
-507.756	139.411	0.073	-0.097
-506.741	-40.291	0.090	-0.048
-505.726	-200.000	0.035	-0.180
-504.712	3.822	-0.175	-0.129
-503.697	-74.027	-0.112	0.041
-502.683	800.000	-0.071	0.264
-501.668	-23.199	0.151	-0.092
-500.653	-27.821	0.193	-0.113
-499.639	65.690	-0.057	0.059
-498.624	-50.403	0.133	-0.064
-497.610	-131.046	-0.178	0.024
-496.595	-25.058	0.132	0.079
-495.581	-200.000	0.005	-0.241
-494.566	-200.000	0.013	-0.140
-493.551	8.151	0.023	-0.017
-492.537	-47.862	0.282	0.138
-491.522	800.000	-0.048	-0.177
-490.508	-159.376	0.145	-0.008
-489.493	506.244	-0.053	0.124
-488.478	-45.958	-0.119	0.060
-487.464	207.768	0.050	-0.079
-486.449	-200.000	-0.030	0.323
-485.435	-200.000	-0.006	0.191
-484.420	800.000	-0.048	-0.211
-483.405	237.211	0.147	0.246
-482.391	-19.451	0.138	0.087
-481.376	-66.003	0.040	-0.016
-480.362	800.000	0.105	0.370
-479.347	128.821	0.105	0.136
-478.332	32.200	-0.101	-0.088
-477.318	-28.437	-0.288	-0.168
-476.303	-76.181	0.234	-0.084
-475.289	-131.168	-0.126	0.017
-474.274	-200.000	-0.003	0.212
-473.259	184.125	0.234	-0.351
-472.245	-138.940	-0.126	-0.014
-471.230	278.266	-0.177	-0.318
-470.216	-78.355	0.166	-0.058
-469.201	-53.509	-0.157	-0.072
-468.186	31.441	0.344	0.299
-467.172	-75.469	0.059	-0.021
-466.157	-184.235	-0.416	0.007
-465.143	-6.570	-0.136	0.094
-464.128	631.985	0.072	0.185
-463.113	-115.451	0.146	0.028
-462.099	-73.349	-0.150	0.056
-461.084	-200.000	-0.051	0.488
-460.070	-200.000	-0.016	-0.106
-459.055	-191.248	0.336	0.003
-458.040	30.303	-0.191	-0.165
-457.026	-200.000	-0.048	0.266
-456.011	236.249	0.114	0.190
-454.997	50.124	-0.173	0.165
-453.982	-113.515	0.135	-0.027
-452.968	367.522	-0.084	-0.172
-451.953	56.463	-0.048	-0.047
-450.938	278.984	0.096	0.172
-449.924	-200.000	-0.019	-0.136
-448.909	800.000	0.041	-0.126
-447.895	-77.913	-0.221	-0.077
-446.880	384.034	0.095	-0.198
-445.865	800.000	-0.031	0.114
-444.851	430.090	-0.150	-0.328
-443.836	-140.196	-0.372	-0.039
-442.822	2.682	0.138	0.101
-441.807	-200.000	0.004	-0.402
-440.792	152.966	0.164	-0.227
-439.778	518.472	-0.220	-0.521
-438.763	-12.869	0.185	-0.122
-437.749	800.000	0.095	0.277
-436.734	-200.000	0.001	0.219
-435.719	142.669	-0.066	0.089
-434.705	800.000	0.080	0.245
-433.690	694.357	-0.054	-0.144
-432.676	97.556	-0.091	0.106
-431.661	-200.000	0.026	-0.161
-430.646	1.659	0.013	-0.009
-429.632	44.165	-0.169	0.157
-428.617	346.245	0.042	0.083
-427.603	79.445	0.071	-0.077
-426.588	-36.356	0.163	-0.089
-425.573	-200.000	-0.044	0.193
-424.559	2.264	-0.242	0.177
-423.544	34.371	-0.195	0.172
-422.530	-46.936	-0.073	0.036
-421.515	-155.790	-0.189	-0.012
-420.500	73.868	-0.177	0.187
-419.486	-200.000	0.008	0.128
-418.471	-16.558	-0.223	-0.143
-417.457	-200.000	0.049	-0.216
-416.442	-120.747	0.340	-0.058
-415.428	-165.526	-0.273	0.012
-414.413	235.201	-0.089	-0.148
-413.398	-142.667	-0.266	-0.026
-412.384	24.491	0.233	0.194
-411.369	2.117	0.191	0.140
-410.355	-200.000	0.017	-0.300
-409.340	-37.025	-0.138	-0.074
-408.325	214.411	0.054	-0.086
-407.311	-95.785	-0.184	0.050
-406.296	-59.398	0.024	0.011
-405.282	-117.609	-0.252	-0.046
-404.267	13.638	0.265	-0.207
-403.252	-149.611	-0.254	-0.020
-402.238	59.889	-0.081	0.081
-401.223	-113.750	0.118	-0.023
-400.209	708.318	0.183	0.487
-399.194	138.403	-0.079	0.104
-398.179	-200.000	-0.008	-0.090
-397.165	-33.692	0.434	-0.242
-396.150	356.295	0.160	0.322
-395.136	-98.554	0.433	0.112
-394.121	601.701	-0.215	0.540
-393.106	-92.881	-0.018	0.005
-392.092	43.275	-0.308	-0.284
-391.077	-112.175	0.166	-0.034
-390.063	347.079	-0.115	-0.228
-389.048	-179.414	0.059	0.001
-388.033	-200.000	-0.038	-0.185
-387.019	32.549	-0.237	-0.207
-386.004	-136.511	-0.238	0.028
-384.990	-156.816	0.101	-0.006
-383.975	-156.981	0.470	0.029
-382.960	160.449	-0.092	0.129
-381.946	-52.960	0.113	0.052
-380.931	6.402	0.048	0.036
-379.917	-200.000	-0.004	-0.046
-378.902	-200.000	-0.022	0.348
-377.888	404.755	0.186	0.396
-376.873	-95.728	0.357	0.096
-375.858	97.185	-0.045	-0.052
-374.844	93.968	0.143	-0.163
-373.829	160.943	-0.179	0.252
-372.815	-161.532	-0.455	0.024
-371.800	-53.619	-0.097	0.045
-370.785	-144.453	0.368	0.034
-369.771	-200.000	0.058	-0.262
-368.756	87.264	0.215	-0.240
-367.742	645.361	-0.116	-0.298
-366.727	-90.859	-0.280	0.081
-365.712	-109.194	0.259	0.055
-364.698	384.870	0.097	0.201
-363.683	-92.742	0.024	0.007
-362.669	-200.000	-0.051	0.241
-361.654	10.531	-0.143	-0.110
-360.639	196.544	-0.021	0.032
-359.625	25.412	0.312	-0.262
-358.610	-103.387	0.365	-0.087
-357.596	-95.613	-0.249	0.067
-356.581	-200.000	-0.001	0.153
-355.566	-57.375	0.103	0.046
-354.552	-80.501	-0.216	-0.073
-353.537	800.000	-0.050	0.158
-352.523	334.696	0.141	0.274
-351.508	-200.000	0.005	0.040
-350.493	-200.000	0.044	-0.195
-349.479	-67.131	-0.261	-0.104
-348.464	-200.000	-0.026	-0.212
-347.450	-200.000	0.054	-0.295
-346.435	-190.896	0.212	-0.002
-345.420	-76.948	0.215	-0.076
-344.406	-10.108	0.300	0.200
-343.391	800.000	0.065	-0.226
-342.377	71.806	-0.090	0.094
-341.362	11.644	-0.290	0.224
-340.348	376.522	-0.116	-0.238
-339.333	232.798	0.107	-0.177
-338.318	-134.047	0.100	0.012
-337.304	-9.047	0.186	-0.126
-336.289	78.461	-0.028	0.030
-335.275	-200.000	0.008	0.054
-334.260	642.723	0.047	-0.121
-333.245	-171.778	-0.272	-0.009
-332.231	-61.078	0.391	-0.166
-331.216	-41.476	0.051	0.026
-330.202	-18.670	0.185	0.116
-329.187	33.692	-0.281	0.246
-328.172	652.246	-0.057	-0.146
-327.158	234.251	0.188	-0.311
-326.143	800.000	-0.111	0.444
-325.129	113.624	0.056	0.068
-324.114	-200.000	-0.006	0.070
-323.099	-148.386	0.179	-0.015
-322.085	800.000	-0.088	0.261
-321.070	-200.000	-0.044	-0.393
-320.056	-4.460	-0.052	0.036
-319.041	-31.783	-0.084	0.047
-318.026	271.830	0.071	0.126
-317.012	-56.269	-0.352	-0.158
-315.997	59.784	-0.117	0.116
-314.983	-111.672	0.092	-0.019
-313.968	26.359	-0.058	0.049
-312.953	-200.000	0.026	0.183
-311.939	-200.000	-0.063	-0.312
-310.924	33.558	-0.255	-0.222
-309.910	643.518	0.035	0.089
-308.895	-11.226	0.094	0.062
-307.880	-200.000	0.140	0.000
-306.866	19.381	0.211	0.171
-305.851	800.000	-0.089	0.296
-304.837	243.195	0.146	0.246
-303.822	-200.000	-0.007	-0.229
-302.807	376.002	-0.102	-0.209
-301.793	-29.123	0.092	0.053
-300.778	-120.719	0.249	0.042
-299.764	-86.702	0.038	-0.012
-298.749	475.338	0.147	0.334
-297.735	800.000	0.048	-0.142
-296.720	-9.557	-0.163	0.109
-295.705	-15.020	-0.128	-0.082
-294.691	800.000	-0.033	0.127
-293.676	-200.000	-0.032	-0.182
-292.662	800.000	-0.034	-0.107
-291.647	-200.000	0.003	-0.217
-290.632	95.557	0.144	-0.165
-289.618	64.525	0.194	0.197
-288.603	-200.000	0.011	-0.103
-287.589	800.000	-0.127	0.370
-286.574	-200.000	-0.004	0.087
-285.559	-200.000	-0.006	-0.402
-284.545	-75.432	0.205	-0.073
-283.530	-200.000	0.022	0.236
-282.516	113.942	-0.256	-0.312
-281.501	112.416	-0.108	0.131
-280.486	-200.000	0.035	0.240
-279.472	-126.097	-0.411	0.062
-278.457	-79.296	0.098	0.033
-277.443	800.000	-0.111	-0.360
-276.428	-24.263	-0.068	0.041
-275.413	25.071	-0.232	0.193
-274.399	221.964	-0.028	-0.045
-273.384	-171.250	-0.316	0.011
-272.370	633.932	0.100	-0.254
-271.355	97.125	0.140	0.162
-270.340	-200.000	0.015	-0.128
-269.326	-164.909	-0.075	0.003
-268.311	632.979	-0.111	0.282
-267.297	-100.742	-0.351	0.087
-266.282	-148.873	0.273	-0.022
-265.267	-180.211	-0.132	0.003
-264.253	-50.084	-0.279	0.133
-263.238	800.000	-0.045	0.141
-262.224	65.650	0.234	-0.238
-261.209	-76.945	-0.197	0.069
-260.195	337.554	0.078	0.152
-259.180	-200.000	0.003	-0.092
-258.165	-92.692	-0.188	0.053
-257.151	184.432	0.096	-0.143
-256.136	122.505	-0.217	0.272
-255.122	-97.902	-0.200	0.052
-254.107	231.513	0.082	0.134
-253.092	182.974	0.099	0.146
-252.078	115.880	0.183	-0.225
-251.063	729.749	0.165	0.442
-250.049	-51.671	0.151	0.071
-249.034	34.646	0.269	-0.236
-248.019	379.863	0.027	0.056
-247.005	-0.786	-0.236	0.168
-245.990	-200.000	-0.050	0.333
-244.976	747.424	-0.070	-0.189
-243.961	-47.471	-0.108	-0.053
-242.946	-83.483	0.282	0.090
-241.932	-125.763	-0.167	0.025
-240.917	-200.000	0.054	-0.254
-239.903	58.347	-0.204	0.200
-238.888	-200.000	-0.019	-0.100
-237.873	800.000	-0.033	0.118
-236.859	-44.929	0.208	0.104
-235.844	7.126	-0.110	0.082
-234.830	-74.872	0.136	-0.049
-233.815	-150.026	-0.155	0.012
-232.800	800.000	-0.072	-0.211
-231.786	-200.000	0.028	0.200
-230.771	24.277	-0.203	-0.168
-229.757	-4.367	-0.111	0.077
-228.742	-3.691	0.231	-0.161
-227.727	97.100	-0.152	-0.175
-226.713	800.000	-0.102	0.292
-225.698	10.893	-0.137	0.105
-224.684	800.000	0.009	0.039
-223.669	-200.000	-0.035	0.302
-222.655	-80.215	0.345	-0.116
-221.640	-200.000	0.010	-0.067
-220.625	-200.000	0.010	0.127
-219.611	-200.000	-0.019	0.230
-218.596	-76.431	0.081	0.029
-217.582	181.032	-0.268	-0.394
-216.567	614.961	-0.037	-0.092
-215.552	-110.273	-0.227	-0.047
-214.538	-200.000	0.020	0.126
-213.523	19.067	0.015	0.012
-212.509	800.000	-0.189	-0.584
-211.494	-39.575	0.241	0.126
-210.479	69.660	-0.229	0.236
-209.465	800.000	-0.009	0.027
-208.450	-200.000	-0.024	-0.136
-207.436	-200.000	0.036	0.251
-206.421	6.956	-0.151	0.113
-205.406	45.434	0.147	0.136
-204.392	267.113	-0.077	-0.135
-203.377	80.067	-0.095	-0.103
-202.363	-200.000	-0.001	-0.079
-201.348	-132.337	-0.065	-0.008
-200.333	-200.000	0.010	-0.231
-199.319	264.395	0.080	-0.140
-198.304	111.248	0.258	-0.311
-197.290	-200.000	0.050	-0.256
-196.275	-17.992	0.147	0.092
-195.260	355.654	-0.099	0.198
-194.246	206.675	-0.081	-0.126
-193.231	-82.238	-0.206	-0.067
-192.217	-75.029	0.236	-0.085
-191.202	240.053	0.012	0.020
-190.187	-200.000	0.050	0.232
-189.173	-87.083	-0.282	0.086
-188.158	-200.000	-0.001	0.147
-187.144	800.000	0.012	0.041
-186.129	-90.482	-0.303	0.088
-185.114	-39.207	0.122	0.064
-184.100	-200.000	0.044	0.440
-183.085	800.000	-0.049	0.169
-182.071	800.000	-0.036	-0.126
-181.056	332.289	0.008	-0.015
-180.042	-28.908	-0.243	0.140
-179.027	-200.000	0.002	0.037
-178.012	-58.705	0.228	0.099
-176.998	33.097	0.157	-0.136
-175.983	-48.602	-0.193	0.093
-174.969	-141.488	0.250	-0.025
-173.954	90.976	0.102	-0.115
-172.939	186.756	-0.050	-0.074
-171.925	-127.538	-0.154	0.022
-170.910	385.141	-0.122	0.251
-169.896	-130.997	0.182	-0.024
-168.881	6.430	0.156	0.116
-167.866	-200.000	-0.018	-0.111
-166.852	-161.970	-0.172	0.009
-165.837	186.258	0.211	-0.314
-164.823	-17.811	0.192	-0.120
-163.808	136.850	0.108	-0.140
-162.793	-141.711	-0.101	0.010
-161.779	-2.719	0.292	-0.204
-160.764	-200.000	0.004	-0.270
-159.750	-133.143	0.102	0.013
-158.735	-49.689	0.177	0.084
-157.720	-200.000	-0.015	0.244
-156.706	140.252	0.073	-0.096
-155.691	59.646	0.047	0.047
-154.677	-45.854	-0.037	-0.018
-153.662	-200.000	-0.012	-0.273
-152.647	174.381	0.229	0.331
-151.633	11.674	-0.076	0.058
-150.618	742.591	0.116	0.311
-149.604	36.650	-0.225	-0.198
-148.589	-74.890	0.164	0.059
-147.574	-200.000	0.040	0.189
-146.560	-89.343	0.259	-0.076
-145.545	-181.501	-0.090	0.002
-144.531	184.291	0.179	0.265
-143.516	-200.000	0.054	0.340
-142.502	738.995	-0.048	0.128
-141.487	-183.121	0.091	0.002
-140.472	-75.554	0.320	0.114
-139.458	-169.999	-0.137	0.005
-138.443	800.000	-0.045	-0.154
-137.429	-73.548	0.306	-0.111
-136.414	132.319	0.063	0.081
-135.399	-47.229	-0.112	-0.054
-134.385	36.175	-0.228	0.200
-133.370	-73.571	0.153	0.056
-132.356	106.308	-0.134	0.158
-131.341	-200.000	0.030	0.262
-130.326	-162.239	0.433	-0.022
-129.312	33.746	-0.136	0.118
-128.297	-51.108	-0.299	0.140
-127.283	165.568	0.149	-0.210
-126.268	132.005	-0.051	-0.066
-125.253	150.364	-0.109	0.147
-124.239	800.000	0.113	0.387
-123.224	105.003	-0.255	0.300
-122.210	-90.812	0.377	-0.108
-121.195	337.595	0.181	-0.351
