DTS Sentinel unit serial number:	SN413079Multiplexer serial number:	ORYXHardware model number:	OX4-SRSoftware version number:	ORYX F/W v4.00 Oryx Data Collector v3.7.2.0data status	okinstallation	princeton_trtdifferential loss correction	single-endedforward channel	channel 3reverse channel	N/Adate	2019/09/12time	08:06:11forward acquisition time	60.00reverse acquisition time	0.00gamma	496.2192k internal	0.2313k external	0.2313temperature offset calibration	1.0039default loss term (dB/km)	0.3790temperature slope calibration	1.0000multiplexer offset coefficient	1.0000multiplexer slope coefficient	1.0000fibre end	0.00T internal ref (°C)	33.16T ext. ref 1 (°C)	1.69T ext. ref 2 (°C)	29.64length (m)	temperature (°C)	Stokes	anti-Stokes-747.200	-60.537	0.184	0.079
-746.185	0.363	0.012	0.009
-745.171	47.374	-0.055	-0.052
-744.156	800.000	0.063	-0.258
-743.142	49.205	-0.079	0.075
-742.127	-95.532	-0.179	0.049
-741.112	-52.818	-0.117	-0.054
-740.098	-200.000	0.047	0.379
-739.083	309.403	-0.167	0.317
-738.069	11.662	-0.045	-0.035
-737.054	-200.000	-0.090	-0.550
-736.039	530.983	-0.097	0.232
-735.025	-39.293	-0.181	-0.096
-734.010	193.486	0.097	0.149
-732.996	30.570	-0.212	-0.183
-731.981	-200.000	0.007	-0.051
-730.966	59.180	-0.281	0.280
-729.952	-55.726	0.162	0.073
-728.937	-200.000	-0.017	-0.208
-727.923	340.626	-0.096	-0.190
-726.908	-121.686	-0.233	-0.039
-725.894	-200.000	-0.035	0.183
-724.879	500.283	0.126	-0.295
-723.864	3.937	0.393	-0.291
-722.850	65.261	0.008	0.008
-721.835	17.330	-0.231	-0.186
-720.821	21.567	0.127	0.105
-719.806	174.174	-0.185	-0.270
-718.791	268.354	-0.074	-0.132
-717.777	45.123	-0.159	-0.149
-716.762	-200.000	-0.020	-0.093
-715.748	-36.563	-0.112	0.061
-714.733	100.965	-0.076	-0.090
-713.718	731.440	0.053	-0.144
-712.704	-41.473	-0.288	-0.150
-711.689	71.100	-0.280	0.294
-710.675	-144.004	0.329	-0.031
-709.660	398.485	-0.109	0.231
-708.645	225.964	0.115	0.189
-707.631	170.997	0.022	-0.032
-706.616	217.064	0.144	-0.232
-705.602	-38.424	-0.144	-0.077
-704.587	-200.000	-0.071	-0.371
-703.572	-133.351	0.248	0.032
-702.558	-153.860	-0.478	-0.033
-701.543	-107.231	0.339	-0.076
-700.529	-21.563	-0.158	-0.098
-699.514	-200.000	-0.055	-0.630
-698.499	-92.062	0.518	-0.148
-697.485	31.302	-0.140	-0.121
-696.470	20.706	0.264	-0.216
-695.456	-200.000	-0.038	-0.301
-694.441	30.584	0.294	-0.254
-693.426	-8.860	0.209	-0.142
-692.412	-200.000	-0.007	-0.186
-691.397	800.000	-0.066	-0.289
-690.383	43.009	-0.032	0.030
-689.368	-200.000	-0.048	0.328
-688.354	-83.007	-0.063	-0.021
-687.339	-101.243	0.139	-0.034
-686.324	-155.282	0.275	0.018
-685.310	-51.304	-0.229	-0.108
-684.295	272.431	0.108	0.193
-683.281	84.264	0.104	-0.115
-682.266	197.093	-0.058	-0.089
-681.251	-59.119	0.086	0.037
-680.237	87.247	0.157	-0.176
-679.222	219.641	0.121	0.196
-678.208	86.383	-0.083	0.092
-677.193	116.944	-0.216	0.268
-676.178	290.680	-0.163	-0.299
-675.164	-49.721	0.235	-0.113
-674.149	309.378	0.190	-0.360
-673.135	155.866	0.277	0.386
-672.120	276.350	0.155	-0.279
-671.105	-96.369	0.333	0.089
-670.091	800.000	-0.062	-0.240
-669.076	151.294	-0.270	-0.372
-668.062	-52.258	-0.199	0.093
-667.047	283.734	0.051	-0.092
-666.032	-200.000	0.013	-0.066
-665.018	-200.000	-0.017	0.270
-664.003	-81.124	-0.144	0.048
-662.989	37.116	0.211	0.189
-661.974	-92.901	-0.040	0.011
-660.959	79.478	0.084	-0.092
-659.945	535.116	0.041	0.098
-658.930	-36.047	0.046	-0.025
-657.916	-49.905	-0.118	-0.057
-656.901	-72.887	0.288	-0.107
-655.886	-200.000	0.009	-0.060
-654.872	413.546	0.117	0.252
-653.857	-200.000	0.068	-0.480
-652.843	60.787	-0.205	-0.206
-651.828	-3.965	0.275	-0.193
-650.814	-29.368	-0.086	0.050
-649.799	-46.141	-0.278	0.138
-648.784	9.278	-0.151	-0.115
-647.770	-111.802	-0.064	0.013
-646.755	-41.529	0.325	0.169
-645.741	-200.000	-0.066	-0.313
-644.726	-108.720	-0.117	0.025
-643.711	110.930	-0.193	0.235
-642.697	323.511	-0.132	-0.254
-641.682	-99.731	0.221	0.056
-640.668	27.765	-0.123	0.104
-639.653	-106.963	-0.044	0.010
-638.638	-152.053	-0.041	0.003
-637.624	3.977	-0.016	-0.012
-636.609	-200.000	0.026	0.123
-635.595	-127.822	-0.205	0.030
-634.580	-200.000	0.023	0.277
-633.565	2.498	-0.180	0.132
-632.551	31.246	-0.356	-0.308
-631.536	71.862	0.203	-0.213
-630.522	-87.605	-0.088	0.027
-629.507	42.244	0.166	-0.152
-628.492	800.000	0.130	-0.461
-627.478	36.007	0.258	-0.229
-626.463	-43.762	-0.066	-0.033
-625.449	376.587	0.148	-0.306
-624.434	-198.765	-0.386	-0.002
-623.419	800.000	-0.017	0.065
-622.405	105.370	-0.241	0.288
-621.390	-135.159	-0.113	-0.014
-620.376	110.146	-0.018	-0.022
-619.361	102.459	-0.084	0.099
-618.346	-91.425	-0.444	0.128
-617.332	-107.029	0.429	-0.096
-616.317	-147.235	-0.011	0.001
-615.303	-17.873	-0.241	-0.152
-614.288	-31.094	-0.062	-0.035
-613.273	72.453	0.142	-0.149
-612.259	148.999	-0.176	-0.240
-611.244	800.000	-0.069	-0.195
-610.230	-200.000	-0.091	-0.408
-609.215	-200.000	0.073	0.348
-608.201	609.721	0.176	0.443
-607.186	-11.875	0.155	0.102
-606.171	-87.852	0.270	-0.082
-605.157	21.212	0.205	-0.168
-604.142	-4.082	0.172	0.120
-603.128	-83.466	0.159	-0.051
-602.113	-144.406	0.291	0.027
-601.098	-6.053	-0.098	-0.068
-600.084	25.092	-0.360	-0.301
-599.069	369.575	0.131	-0.268
-598.055	-200.000	0.006	-0.257
-597.040	75.058	0.124	0.132
-596.025	35.100	0.249	-0.220
-595.011	800.000	-0.071	-0.211
-593.996	800.000	-0.153	-0.453
-592.982	130.873	-0.162	0.210
-591.967	-163.662	-0.154	0.007
-590.952	499.851	-0.176	-0.410
-589.938	80.775	-0.138	-0.150
-588.923	800.000	0.044	0.126
-587.909	-25.499	0.260	-0.155
-586.894	-200.000	-0.058	-0.268
-585.879	-33.387	-0.115	-0.064
-584.865	-87.922	0.170	-0.052
-583.850	-85.348	-0.338	-0.106
-582.836	-126.467	0.528	0.079
-581.821	277.505	-0.076	-0.136
-580.806	304.142	-0.037	-0.070
-579.792	-200.000	0.010	0.074
-578.777	-185.811	0.077	0.001
-577.763	-200.000	0.056	-0.330
-576.748	441.679	0.069	-0.152
-575.733	800.000	-0.088	-0.279
-574.719	-94.867	-0.297	-0.081
-573.704	-59.478	0.424	-0.183
-572.690	-16.513	0.164	-0.105
-571.675	-46.287	0.220	0.109
-570.661	-78.374	-0.268	0.093
-569.646	-11.489	0.184	-0.122
-568.631	-32.589	0.016	-0.009
-567.617	-200.000	0.013	-0.068
-566.602	-200.000	-0.039	-0.337
-565.588	59.400	0.056	-0.056
-564.573	-72.678	0.111	0.041
-563.558	-86.752	-0.203	-0.063
-562.544	354.935	-0.040	0.079
-561.529	-200.000	0.084	-0.507
-560.515	-159.549	-0.119	0.007
-559.500	-90.327	-0.175	-0.051
-558.485	251.407	-0.268	0.459
-557.471	16.640	-0.213	-0.169
-556.456	-122.346	-0.245	-0.040
-555.442	350.014	0.090	-0.179
-554.427	-144.839	-0.006	0.001
-553.412	297.246	0.164	-0.302
-552.398	167.697	0.082	-0.118
-551.383	141.049	0.140	-0.186
-550.369	81.030	-0.172	-0.187
-549.354	800.000	-0.014	0.057
-548.339	-53.764	-0.081	-0.037
-547.325	-200.000	0.067	-0.421
-546.310	-119.178	0.335	-0.059
-545.296	149.025	-0.137	0.187
-544.281	195.053	0.095	-0.145
-543.266	14.628	0.155	-0.122
-542.252	-200.000	0.027	-0.258
-541.237	-17.349	-0.122	-0.078
-540.223	125.077	-0.020	0.025
-539.208	-39.237	-0.110	0.058
-538.193	49.024	0.080	0.076
-537.179	800.000	0.026	0.076
-536.164	110.598	-0.130	0.157
-535.150	-20.018	-0.205	0.127
-534.135	-200.000	0.034	-0.230
-533.121	488.914	-0.028	0.065
-532.106	-130.809	-0.178	-0.024
-531.091	-123.555	-0.199	0.032
-530.077	-55.335	0.100	-0.045
-529.062	-27.555	0.272	0.159
-528.048	525.452	-0.064	0.153
-527.033	150.754	-0.119	0.162
-526.018	52.547	0.207	-0.199
-525.004	800.000	-0.038	-0.145
-523.989	-32.851	0.228	-0.127
-522.975	768.100	-0.013	0.036
-521.960	-122.860	-0.293	-0.048
-520.945	800.000	0.021	0.064
-519.931	204.297	-0.065	0.101
-518.916	299.059	0.189	0.349
-517.902	-101.309	-0.258	-0.063
-516.887	-22.513	0.056	0.034
-515.872	169.310	-0.111	0.159
-514.858	178.727	0.139	-0.204
-513.843	59.480	0.272	0.269
-512.829	165.221	0.177	0.251
-511.814	-44.755	-0.323	-0.162
-510.799	-127.231	-0.259	0.038
-509.785	-55.108	0.353	0.160
-508.770	65.129	0.021	-0.021
-507.756	195.335	-0.162	-0.247
-506.741	-187.646	-0.141	-0.002
-505.726	64.927	0.138	-0.140
-504.712	456.619	0.039	-0.087
-503.697	-175.381	-0.303	-0.008
-502.683	373.235	-0.066	0.135
-501.668	-18.768	-0.154	0.096
-500.653	-164.213	0.338	0.016
-499.639	281.329	-0.058	-0.105
-498.624	-200.000	0.010	0.123
-497.610	191.177	-0.044	0.066
-496.595	-1.078	0.082	-0.059
-495.581	68.667	0.065	0.067
-494.566	229.787	-0.107	0.176
-493.551	-165.924	0.239	-0.010
-492.537	-56.642	-0.167	-0.074
-491.522	-98.131	0.053	0.014
-490.508	607.149	-0.030	0.075
-489.493	-43.743	-0.097	-0.049
-488.478	-140.517	-0.147	0.015
-487.464	-47.286	-0.128	0.062
-486.449	220.685	0.043	0.070
-485.435	-103.818	-0.248	0.058
-484.420	-200.000	-0.112	-0.001
-483.405	175.708	0.119	-0.174
-482.391	800.000	-0.067	0.285
-481.376	40.190	0.150	-0.136
-480.362	-117.547	0.316	0.057
-479.347	-52.593	0.069	0.032
-478.332	145.551	-0.185	-0.248
-477.318	800.000	-0.066	0.195
-476.303	-200.000	0.010	-0.433
-475.289	-200.000	0.002	-0.192
-474.274	-164.785	0.051	0.002
-473.259	-27.002	0.075	0.044
-472.245	98.479	0.067	0.078
-471.230	-200.000	-0.027	-0.168
-470.216	-107.743	-0.070	-0.015
-469.201	63.876	-0.177	0.178
-468.186	491.194	0.027	0.061
-467.172	-200.000	-0.023	-0.177
-466.157	-44.195	-0.102	-0.051
-465.143	800.000	0.009	-0.029
-464.128	235.149	-0.166	-0.275
-463.113	316.546	0.053	-0.101
-462.099	-56.569	0.144	-0.064
-461.084	-73.418	0.109	-0.040
-460.070	22.272	-0.170	0.140
-459.055	-47.960	-0.193	-0.094
-458.040	-200.000	0.029	0.176
-457.026	-76.696	-0.182	0.064
-456.011	800.000	0.039	-0.143
-454.997	61.022	0.282	0.281
-453.982	-96.344	-0.201	0.053
-452.968	-119.183	-0.258	0.045
-451.953	-30.097	-0.097	0.055
-450.938	361.257	0.059	0.119
-449.924	-111.259	0.136	0.028
-448.909	-158.444	-0.233	-0.014
-447.895	-118.853	0.199	0.035
-446.880	-200.000	0.022	0.118
-445.865	13.183	-0.176	-0.137
-444.851	84.244	0.157	0.172
-443.836	212.182	-0.149	0.236
-442.822	172.689	0.103	-0.149
-441.807	-200.000	0.002	-0.046
-440.792	-35.919	-0.186	0.101
-439.778	800.000	-0.032	-0.130
-438.763	-137.344	0.146	-0.017
-437.749	22.101	0.173	0.141
-436.734	17.356	0.070	-0.056
-435.719	3.519	-0.240	-0.175
-434.705	-200.000	0.014	0.106
-433.690	770.118	-0.020	-0.054
-432.676	-200.000	-0.005	-0.126
-431.661	-3.602	-0.379	-0.264
-430.646	22.950	0.115	-0.095
-429.632	206.827	-0.045	-0.071
-428.617	121.759	0.143	-0.178
-427.603	254.894	0.071	-0.122
-426.588	539.850	0.050	0.119
-425.573	800.000	0.154	0.534
-424.559	84.734	-0.207	0.227
-423.544	-200.000	-0.004	-0.306
-422.530	-126.998	-0.180	-0.026
-421.515	-165.511	0.164	0.007
-420.500	216.072	-0.136	-0.216
-419.486	-130.682	0.177	-0.024
-418.471	219.365	0.124	0.198
-417.457	-200.000	-0.015	0.262
-416.442	800.000	-0.048	0.150
-415.428	-2.492	0.240	-0.168
-414.413	-168.496	-0.220	0.008
-413.398	-106.033	-0.240	-0.054
-412.384	239.718	-0.066	0.109
-411.369	-179.246	0.303	0.007
-410.355	271.730	0.056	0.099
-409.340	800.000	-0.116	-0.329
-408.325	-200.000	-0.044	-0.448
-407.311	-151.061	0.377	-0.028
-406.296	346.752	-0.100	0.197
-405.282	-49.412	-0.245	0.117
-404.267	-79.730	-0.115	0.039
-403.252	-151.748	-0.120	-0.009
-402.238	7.718	0.316	-0.237
-401.223	-200.000	0.036	0.174
-400.209	-200.000	0.022	0.097
-399.194	53.016	0.305	-0.292
-398.179	-109.213	-0.110	-0.023
-397.165	422.348	-0.141	0.304
-396.150	-96.784	-0.094	-0.025
-395.136	280.088	-0.105	0.187
-394.121	800.000	-0.053	0.184
-393.106	62.954	0.284	0.284
-392.092	-95.406	0.185	0.050
-391.077	-45.504	0.089	-0.044
-390.063	-200.000	-0.026	-0.213
-389.048	109.202	0.154	-0.184
-388.033	679.108	0.029	-0.075
-387.019	-111.064	0.135	0.028
-386.004	43.440	-0.160	0.147
-384.990	-96.692	0.067	-0.018
-383.975	-200.000	0.018	0.256
-382.960	-200.000	-0.018	0.303
-381.946	14.678	0.133	0.104
-380.931	-92.184	0.069	0.020
-379.917	-117.867	0.424	-0.076
-378.902	-129.193	-0.334	0.047
-377.888	292.338	0.026	0.047
-376.873	-36.497	0.344	0.185
-375.858	-200.000	0.041	0.360
-374.844	-171.038	-0.164	-0.006
-373.829	310.021	0.113	0.211
-372.815	-200.000	0.040	0.309
-371.800	-30.656	0.041	-0.023
-370.785	-78.296	-0.179	0.061
-369.771	-103.298	0.468	0.110
-368.756	16.895	0.208	0.164
-367.742	-83.136	0.433	0.139
-366.727	171.940	-0.154	0.221
-365.712	366.087	-0.126	0.254
-364.698	800.000	0.084	0.273
-363.683	800.000	-0.049	0.156
-362.669	100.923	-0.167	-0.194
-361.654	366.548	0.012	-0.024
-360.639	-115.825	0.069	-0.013
-359.625	-48.686	0.114	0.055
-358.610	-26.550	-0.137	0.080
-357.596	-200.000	-0.000	-0.070
-356.581	800.000	-0.040	0.144
-355.566	199.676	0.075	-0.115
-354.552	-200.000	-0.060	-0.488
-353.537	-200.000	0.378	-0.002
-352.523	800.000	-0.045	-0.164
-351.508	-23.138	-0.011	0.007
-350.493	19.402	0.061	-0.049
-349.479	209.552	-0.169	-0.265
-348.464	-200.000	0.104	0.000
-347.450	-79.033	0.422	-0.143
-346.435	-43.420	0.055	0.028
-345.420	-200.000	0.047	-0.343
-344.406	32.296	-0.173	-0.149
-343.391	-40.580	-0.128	0.066
-342.377	-89.738	-0.094	0.027
-341.362	-167.926	-0.273	-0.011
-340.348	-200.000	-0.010	-0.318
-339.333	223.867	0.170	0.274
-338.318	-82.780	0.270	-0.087
-337.304	-144.308	0.246	-0.023
-336.289	1.275	-0.118	0.084
-335.275	104.908	0.056	-0.066
-334.260	-200.000	-0.027	-0.167
-333.245	-54.753	-0.378	-0.171
-332.231	-200.000	-0.010	0.217
-331.216	0.890	-0.121	0.086
-330.202	-35.859	0.041	0.022
-329.187	174.586	-0.157	-0.227
-328.172	800.000	0.096	-0.402
-327.158	75.685	-0.114	-0.120
-326.143	-148.872	-0.354	-0.029
-325.129	152.785	-0.150	0.204
-324.114	-200.000	-0.004	-0.152
-323.099	719.783	-0.135	0.358
-322.085	-200.000	0.022	0.231
-321.070	235.742	0.224	0.369
-320.056	-200.000	0.033	0.185
-319.041	-22.500	-0.106	-0.064
-318.026	263.244	-0.081	-0.140
-317.012	129.563	-0.140	0.178
-315.997	-139.355	0.127	0.014
-314.983	198.523	-0.037	0.056
-313.968	137.954	0.258	-0.337
-312.953	-60.591	0.343	-0.145
-311.939	119.213	-0.218	0.269
-310.924	800.000	-0.065	0.231
-309.910	29.329	-0.217	-0.184
-308.895	143.001	-0.183	0.243
-307.880	-200.000	0.021	0.095
-306.866	3.286	-0.106	-0.077
-305.851	-200.000	0.038	-0.180
-304.837	-200.000	-0.045	-0.295
-303.822	-61.346	0.271	-0.114
-302.807	246.946	0.060	-0.100
-301.793	85.194	-0.190	-0.208
-300.778	-46.827	0.395	0.193
-299.764	-54.566	0.381	0.172
-298.749	5.024	-0.153	-0.112
-297.735	-37.429	-0.234	0.124
-296.720	75.741	0.180	-0.190
-295.705	-108.009	0.061	-0.013
-294.691	-45.481	-0.023	0.011
-293.676	-147.982	0.149	0.012
-292.662	-200.000	-0.467	0.002
-291.647	383.024	0.049	0.101
-290.632	18.811	0.221	-0.177
-289.618	-2.401	0.124	0.086
-288.603	-37.869	-0.263	-0.139
-287.589	-37.424	-0.431	-0.229
-286.574	13.584	-0.156	-0.121
-285.559	800.000	0.114	0.382
-284.545	53.510	0.128	-0.122
-283.530	-104.695	0.269	0.062
-282.516	-50.596	-0.078	-0.037
-281.501	-97.521	-0.228	0.059
-280.486	-119.604	0.137	-0.024
-279.472	7.075	-0.286	0.212
-278.457	-200.000	-0.036	0.210
-277.443	-200.000	-0.057	-0.305
-276.428	-100.952	-0.042	0.010
-275.413	261.570	-0.032	0.056
-274.399	-162.533	-0.114	0.006
-273.384	274.691	-0.175	0.309
-272.370	403.665	-0.072	0.151
-271.355	23.648	0.067	-0.055
-270.340	-37.174	0.192	-0.102
-269.326	153.354	-0.070	0.095
-268.311	3.998	0.095	0.069
-267.297	-156.608	-0.184	0.011
-266.282	736.894	-0.045	-0.120
-265.267	-153.172	0.324	0.023
-264.253	-83.981	0.085	-0.027
-263.238	-200.000	0.009	-0.054
-262.224	123.122	-0.099	0.123
-261.209	-200.000	-0.067	0.347
-260.195	584.675	-0.036	0.087
-259.180	467.492	-0.105	0.233
-258.165	28.735	-0.064	-0.054
-257.151	786.500	0.045	-0.123
-256.136	-61.931	-0.136	0.057
-255.122	9.589	0.080	0.060
-254.107	-53.257	0.423	0.193
-253.092	42.356	0.306	-0.277
-252.078	232.931	0.320	-0.523
-251.063	-16.096	-0.070	0.044
-250.049	-200.000	-0.012	0.116
-249.034	-89.900	0.112	0.032
-248.019	-10.488	-0.108	-0.071
-247.005	778.144	-0.135	0.367
-245.990	272.647	-0.220	0.386
-244.976	487.172	0.071	0.161
-243.961	-79.967	-0.210	0.070
-242.946	20.368	-0.181	0.145
-241.932	-58.693	0.330	-0.142
-240.917	-33.499	0.183	0.101
-239.903	170.323	-0.083	-0.118
-238.888	25.166	0.037	-0.031
-237.873	-102.794	0.182	0.043
-236.859	-90.075	0.079	0.023
-235.844	-140.943	-0.441	-0.045
-234.830	193.531	0.148	-0.222
-233.815	220.809	0.148	-0.237
-232.800	-200.000	0.010	-0.093
-231.786	97.417	0.265	0.303
-230.771	88.086	0.219	0.242
-229.757	-61.647	0.193	-0.081
-228.742	-200.000	-0.013	-0.388
-227.727	800.000	0.072	-0.248
-226.713	-200.000	0.345	-0.001
-225.698	800.000	0.091	0.341
-224.684	11.701	-0.095	0.072
-223.669	-81.896	-0.397	0.129
-222.655	-200.000	-0.014	-0.200
-221.640	257.721	0.117	-0.199
-220.625	-70.848	0.267	-0.100
-219.611	325.919	-0.196	0.372
-218.596	-200.000	-0.063	0.385
-217.582	-81.506	0.061	-0.020
-216.567	-200.000	-0.039	-0.195
-215.552	-143.745	-0.071	0.007
-214.538	152.207	0.107	0.145
-213.523	425.764	0.050	0.106
-212.509	-83.153	-0.107	-0.034
-211.494	248.719	-0.006	0.010
-210.479	-13.660	0.054	0.034
-209.465	-18.552	0.031	0.019
-208.450	-200.000	0.012	0.303
-207.436	-70.587	0.144	0.054
-206.421	-21.987	-0.223	-0.134
-205.406	78.542	-0.151	-0.160
-204.392	-61.475	-0.100	-0.042
-203.377	-89.431	-0.188	-0.055
-202.363	-200.000	-0.001	0.200
-201.348	-200.000	-0.202	0.000
-200.333	-81.678	-0.102	0.033
-199.319	-104.912	-0.151	0.034
-198.304	-200.000	0.050	0.317
-197.290	-77.767	-0.706	0.242
-196.275	182.146	0.192	0.281
-195.260	-53.297	0.010	-0.005
-194.246	59.789	-0.142	0.139
-193.231	-132.621	0.073	0.009
-192.217	800.000	0.020	-0.063
-191.202	-200.000	-0.081	-0.361
-190.187	222.435	0.090	0.144
-189.173	-53.423	-0.038	-0.017
-188.158	69.883	-0.157	-0.161
-187.144	-63.136	0.217	0.089
-186.129	-200.000	-0.083	0.726
-185.114	-200.000	-0.002	0.267
-184.100	-200.000	0.038	0.225
-183.085	-122.681	-0.219	0.035
-182.071	23.904	0.017	-0.014
-181.056	800.000	0.118	0.383
-180.042	800.000	0.071	0.301
-179.027	-5.494	0.124	-0.084
-178.012	7.052	0.087	-0.064
-176.998	-200.000	-0.008	0.080
-175.983	-132.943	-0.086	0.011
-174.969	-102.774	0.029	-0.007
-173.954	368.492	-0.036	-0.072
-172.939	104.740	0.163	0.190
-171.925	800.000	-0.021	-0.062
-170.910	800.000	-0.085	-0.278
-169.896	-121.027	0.442	0.074
-168.881	-200.000	0.010	0.213
-167.866	-65.259	0.092	-0.037
-166.852	-17.815	0.405	0.252
-165.837	-50.369	-0.155	0.072
-164.823	-101.073	-0.079	-0.019
-163.808	152.316	-0.114	-0.154
-162.793	-42.297	-0.294	0.149
-161.779	-51.846	-0.147	-0.068
-160.764	-159.689	-0.279	0.015
-159.750	-183.004	0.264	0.005
-158.735	-34.970	0.422	0.228
-157.720	-13.413	0.328	0.211
-156.706	111.622	0.128	-0.154
-155.691	-47.799	0.133	-0.064
-154.677	-50.856	0.137	0.064
-153.662	-165.686	-0.234	-0.010
-152.647	234.638	-0.173	-0.282
-151.633	123.549	0.191	0.237
-150.618	-77.983	0.156	-0.053
-149.604	-129.098	0.444	0.061
-148.589	-200.000	-0.052	-0.297
-147.574	-200.000	-0.044	-0.316
-146.560	-68.720	-0.254	0.097
-145.545	150.321	-0.150	0.202
-144.531	-75.111	0.129	-0.046
-143.516	267.407	0.051	-0.088
-142.502	-200.000	-0.085	0.381
-141.487	-159.381	0.237	0.013
-140.472	-133.191	0.233	0.029
-139.458	-46.976	0.357	0.173
-138.443	-169.134	-0.221	0.008
-137.429	-200.000	0.047	0.260
-136.414	710.886	0.034	0.089
-135.399	-165.210	0.457	-0.020
-134.385	-112.641	0.171	0.034
-133.370	533.689	-0.124	0.290
-132.356	-200.000	-0.050	-0.295
-131.341	177.789	-0.165	0.238
-130.326	-152.375	0.297	0.021
-129.312	423.870	-0.069	-0.148
-128.297	-200.000	-0.043	0.188
-127.283	27.408	0.094	0.078
-126.268	-200.000	0.003	-0.037
-125.253	-200.000	-0.019	-0.220
-124.239	143.723	-0.263	0.347
-123.224	-200.000	0.048	0.287
-122.210	175.141	-0.349	-0.500
