DTS Sentinel unit serial number:	SN413079Multiplexer serial number:	ORYXHardware model number:	OX4-SRSoftware version number:	ORYX F/W v4.00 Oryx Data Collector v3.7.2.0data status	okinstallation	princeton_trtdifferential loss correction	single-endedforward channel	channel 3reverse channel	N/Adate	2019/09/15time	16:28:34forward acquisition time	60.00reverse acquisition time	0.00gamma	496.2192k internal	0.2288k external	0.2288temperature offset calibration	0.9932default loss term (dB/km)	0.3790temperature slope calibration	1.0000multiplexer offset coefficient	1.0000multiplexer slope coefficient	1.0000fibre end	0.00T internal ref (°C)	43.84T ext. ref 1 (°C)	5.55T ext. ref 2 (°C)	40.69length (m)	temperature (°C)	Stokes	anti-Stokes-747.200	-200.000	-0.011	0.052
-746.185	-62.764	0.311	0.132
-745.171	-134.548	-0.053	-0.007
-744.156	-200.000	-0.011	0.332
-743.142	-0.277	-0.140	0.102
-742.127	-200.000	0.006	0.500
-741.112	67.649	-0.197	-0.206
-740.098	-200.000	-0.190	0.001
-739.083	-121.333	-0.156	0.027
-738.069	-200.000	0.086	0.394
-737.054	259.197	0.149	-0.263
-736.039	44.828	-0.118	0.111
-735.025	277.456	-0.078	0.142
-734.010	-109.395	-0.059	-0.013
-732.996	696.483	-0.040	-0.107
-731.981	665.435	0.169	0.448
-730.966	547.672	-0.031	0.076
-729.952	-54.929	-0.131	0.061
-728.937	139.016	-0.302	-0.406
-727.923	11.719	-0.058	0.045
-726.908	76.678	0.132	0.143
-725.894	-37.439	0.408	-0.223
-724.879	-115.509	-0.116	0.022
-723.864	-67.248	0.157	-0.063
-722.850	-200.000	-0.001	-0.212
-721.835	-69.536	0.212	0.083
-720.821	590.083	-0.095	0.240
-719.806	23.120	0.189	0.159
-718.791	-81.923	-0.090	0.030
-717.777	800.000	0.038	0.139
-716.762	-200.000	0.071	-0.322
-715.748	-200.000	-0.025	-0.311
-714.733	263.148	-0.165	-0.294
-713.718	46.915	-0.096	0.092
-712.704	77.519	0.106	-0.116
-711.689	800.000	-0.124	0.404
-710.675	-120.303	-0.231	0.040
-709.660	800.000	0.045	-0.138
-708.645	-17.685	0.209	0.134
-707.631	-13.908	-0.190	-0.126
-706.616	38.384	0.278	-0.254
-705.602	11.582	0.072	0.057
-704.587	167.154	-0.081	0.118
-703.572	-200.000	0.051	0.263
-702.558	177.154	0.074	0.110
-701.543	800.000	0.047	-0.179
-700.529	18.630	-0.199	-0.163
-699.514	194.162	0.087	0.135
-698.499	800.000	-0.052	-0.212
-697.485	66.466	0.108	0.112
-696.470	176.601	0.102	0.152
-695.456	-143.115	0.272	-0.027
-694.441	650.182	-0.074	-0.195
-693.426	2.097	-0.309	0.229
-692.412	-48.939	0.256	0.126
-691.397	395.325	0.040	-0.085
-690.383	158.842	-0.092	0.131
-689.368	800.000	-0.085	-0.282
-688.354	96.343	-0.182	0.213
-687.339	-166.101	-0.146	-0.006
-686.324	-128.127	0.076	-0.011
-685.310	398.336	0.035	0.075
-684.295	173.744	-0.171	-0.253
-683.281	-115.979	0.033	0.006
-682.266	595.087	-0.092	-0.233
-681.251	4.589	0.322	0.242
-680.237	-125.206	-0.093	-0.014
-679.222	-42.643	0.380	0.198
-678.208	-55.528	-0.212	0.097
-677.193	800.000	-0.050	0.155
-676.178	-113.076	-0.091	0.018
-675.164	242.834	0.194	0.333
-674.149	-24.965	-0.163	-0.099
-673.135	27.676	-0.039	-0.033
-672.120	-74.117	-0.098	0.036
-671.105	-200.000	-0.004	-0.188
-670.091	-96.468	-0.215	0.058
-669.076	-29.927	-0.326	-0.190
-668.062	-122.435	-0.214	-0.036
-667.047	14.434	0.180	0.144
-666.032	-200.000	0.021	-0.284
-665.018	800.000	-0.046	-0.201
-664.003	-67.300	-0.099	-0.040
-662.989	-40.081	0.341	0.182
-661.974	-175.583	0.073	-0.002
-660.959	-140.603	-0.147	-0.016
-659.945	-200.000	-0.026	0.290
-658.930	-200.000	-0.013	0.243
-657.916	151.510	-0.174	-0.242
-656.901	243.938	0.162	0.277
-655.886	115.921	-0.138	0.172
-654.872	800.000	-0.039	0.155
-653.857	56.157	-0.303	-0.300
-652.843	546.561	0.059	-0.143
-651.828	-64.934	0.218	0.090
-650.814	-200.000	-0.025	0.180
-649.799	-82.629	0.251	-0.083
-648.784	76.652	-0.288	-0.312
-647.770	-200.000	-0.007	-0.169
-646.755	215.185	0.075	-0.121
-645.741	-103.697	-0.169	0.041
-644.726	67.620	-0.195	0.203
-643.711	-75.225	-0.408	0.149
-642.697	202.554	0.104	0.164
-641.682	174.468	0.090	-0.133
-640.668	-90.171	-0.313	-0.093
-639.653	-159.468	0.189	0.011
-638.638	-115.811	0.054	0.010
-637.624	265.666	-0.022	-0.040
-636.609	-120.710	-0.173	0.030
-635.595	238.538	-0.028	0.048
-634.580	-200.000	-0.019	-0.251
-633.565	84.480	0.055	-0.062
-632.551	-154.731	-0.092	-0.006
-631.536	-95.455	-0.329	0.090
-630.522	-28.679	0.110	0.065
-629.507	-200.000	0.012	0.196
-628.492	800.000	0.087	0.267
-627.478	243.101	0.084	0.144
-626.463	65.940	-0.135	-0.139
-625.449	800.000	0.021	-0.088
-624.434	-200.000	-0.063	-0.302
-623.419	-38.306	-0.252	-0.136
-622.405	42.097	-0.109	0.101
-621.390	-29.622	0.156	0.091
-620.376	136.464	0.080	0.106
-619.361	679.019	-0.045	0.120
-618.346	188.336	-0.099	0.150
-617.332	-25.456	0.111	0.067
-616.317	-21.059	-0.126	0.079
-615.303	15.208	-0.116	-0.093
-614.288	379.691	-0.055	-0.116
-613.273	-73.717	0.183	0.068
-612.259	21.148	-0.206	-0.171
-611.244	-140.083	-0.266	0.029
-610.230	33.922	0.213	0.189
-609.215	-200.000	-0.019	-0.186
-608.201	75.982	0.319	0.344
-607.186	115.818	-0.098	0.122
-606.171	42.529	0.289	0.269
-605.157	-80.339	0.032	0.011
-604.142	-79.300	0.058	0.020
-603.128	97.194	-0.090	-0.105
-602.113	-69.590	0.228	0.089
-601.098	-62.536	-0.164	0.069
-600.084	-200.000	-0.007	0.224
-599.069	76.354	-0.126	-0.136
-598.055	-187.910	0.158	0.002
-597.040	450.197	0.180	-0.404
-596.025	26.685	0.241	-0.206
-595.011	188.086	-0.267	0.406
-593.996	-200.000	-0.092	0.483
-592.982	-25.757	0.220	-0.132
-591.967	-1.823	-0.216	-0.155
-590.952	-200.000	0.008	0.042
-589.938	48.353	0.148	0.141
-588.923	-143.411	-0.080	0.008
-587.909	226.315	-0.136	0.224
-586.894	-112.536	0.075	-0.015
-585.879	49.308	-0.086	-0.082
-584.865	-14.716	0.172	0.113
-583.850	-127.806	0.286	-0.042
-582.836	190.058	0.166	-0.254
-581.821	7.618	0.205	0.156
-580.806	-200.000	0.010	0.081
-579.792	-200.000	0.010	0.452
-578.777	-10.829	-0.342	0.230
-577.763	277.044	0.220	0.398
-576.748	128.142	-0.067	0.087
-575.733	-108.654	0.319	0.070
-574.719	-14.768	0.313	0.205
-573.704	-103.972	0.102	-0.024
-572.690	-200.000	0.026	-0.164
-571.675	52.607	-0.180	0.175
-570.661	-76.704	0.176	-0.063
-569.646	19.664	0.202	0.166
-568.631	-46.661	-0.099	-0.049
-567.617	-173.932	0.203	0.006
-566.602	37.940	0.118	-0.107
-565.588	185.052	0.072	-0.109
-564.573	-200.000	0.053	-0.344
-563.558	181.982	0.099	-0.149
-562.544	-200.000	0.089	0.453
-561.529	-73.983	-0.133	-0.049
-560.515	34.245	-0.173	-0.154
-559.500	-64.883	-0.261	-0.108
-558.485	225.418	-0.047	0.077
-557.471	-94.114	-0.233	-0.065
-556.456	-14.919	0.147	0.096
-555.442	800.000	-0.127	0.393
-554.427	-200.000	-0.012	-0.070
-553.412	50.238	0.157	-0.151
-552.398	800.000	0.100	-0.399
-551.383	58.358	-0.167	-0.167
-550.369	-48.992	0.355	-0.173
-549.354	-200.000	-0.001	0.074
-548.339	-200.000	0.055	-0.250
-547.325	13.171	-0.337	0.266
-546.310	-19.358	-0.126	0.079
-545.296	-68.082	0.341	0.135
-544.281	581.149	0.108	0.270
-543.266	14.177	-0.293	0.232
-542.252	-200.000	0.018	0.161
-541.237	24.301	-0.086	-0.072
-540.223	-200.000	-0.042	0.264
-539.208	-200.000	-0.030	-0.236
-538.193	-200.000	0.019	-0.270
-537.179	-163.023	0.326	0.016
-536.164	125.041	-0.174	-0.223
-535.150	35.114	-0.034	-0.031
-534.135	61.318	-0.062	0.063
-533.121	319.901	-0.140	0.270
-532.106	761.935	-0.030	0.083
-531.091	221.875	-0.148	-0.243
-530.077	657.491	-0.116	-0.303
-529.062	-22.840	-0.212	-0.130
-528.048	16.252	0.190	-0.152
-527.033	800.000	-0.089	-0.308
-526.018	31.571	-0.282	0.247
-525.004	251.257	-0.140	0.242
-523.989	800.000	0.091	-0.283
-522.975	-106.001	0.413	-0.094
-521.960	0.502	-0.136	0.099
-520.945	800.000	-0.033	0.143
-519.931	-200.000	0.004	0.100
-518.916	-130.332	-0.124	0.017
-517.902	-200.000	-0.051	-0.235
-516.887	369.753	-0.058	-0.119
-515.872	-67.894	-0.030	0.012
-514.858	800.000	0.056	0.215
-513.843	488.062	-0.085	0.196
-512.829	800.000	0.050	0.193
-511.814	792.104	0.054	0.151
-510.799	-117.762	0.312	-0.057
-509.785	-200.000	-0.037	0.195
-508.770	166.534	0.118	-0.170
-507.756	299.769	-0.051	0.096
-506.741	-161.605	0.111	-0.006
-505.726	800.000	0.065	0.254
-504.712	277.785	0.071	-0.128
-503.697	249.261	-0.077	0.133
-502.683	55.771	-0.107	-0.105
-501.668	-200.000	-0.061	-0.392
-500.653	711.269	-0.233	0.627
-499.639	70.934	0.160	0.168
-498.624	97.458	0.055	0.064
-497.610	-200.000	-0.008	0.295
-496.595	24.113	-0.311	0.260
-495.581	-11.645	0.192	0.128
-494.566	298.848	-0.039	0.072
-493.551	800.000	0.073	-0.255
-492.537	-111.533	-0.042	0.009
-491.522	124.586	-0.181	-0.231
-490.508	269.678	0.122	0.218
-489.493	375.281	-0.039	-0.080
-488.478	-200.000	-0.022	0.176
-487.464	139.592	0.110	0.147
-486.449	103.469	0.147	-0.175
-485.435	-200.000	0.006	-0.336
-484.420	-132.270	0.192	-0.025
-483.405	-200.000	-0.013	-0.311
-482.391	-30.541	0.172	-0.099
-481.376	-13.652	-0.213	0.140
-480.362	-90.118	-0.294	0.087
-479.347	-2.857	-0.085	0.061
-478.332	-100.454	0.055	-0.014
-477.318	35.487	-0.244	-0.218
-476.303	-73.043	-0.277	-0.103
-475.289	-200.000	0.023	-0.159
-474.274	-84.463	-0.293	-0.094
-473.259	-151.949	-0.165	-0.012
-472.245	426.957	-0.131	-0.288
-471.230	792.193	-0.105	0.294
-470.216	-96.201	-0.115	0.031
-469.201	34.837	0.179	0.159
-468.186	-19.759	0.153	0.096
-467.172	-200.000	0.052	-0.273
-466.157	-200.000	-0.017	0.190
-465.143	-152.737	-0.301	0.022
-464.128	-200.000	-0.002	-0.157
-463.113	-128.315	0.263	0.038
-462.099	-86.439	0.222	-0.069
-461.084	-93.318	0.271	0.076
-460.070	-200.000	-0.028	0.331
-459.055	-200.000	-0.041	-0.324
-458.040	-200.000	0.030	-0.587
-457.026	11.170	-0.269	0.208
-456.011	-119.252	0.181	-0.032
-454.997	-200.000	0.029	0.216
-453.982	800.000	-0.048	0.170
-452.968	-27.045	0.242	-0.143
-451.953	166.544	-0.059	-0.085
-450.938	281.562	0.046	-0.083
-449.924	-152.499	-0.196	0.014
-448.909	312.938	-0.115	-0.219
-447.895	-19.392	0.156	0.098
-446.880	-19.029	0.384	-0.242
-445.865	65.606	0.254	-0.261
-444.851	-66.057	-0.196	0.079
-443.836	-121.609	0.252	0.042
-442.822	386.526	-0.118	0.247
-441.807	800.000	-0.039	0.146
-440.792	-200.000	0.053	0.269
-439.778	404.493	-0.103	0.221
-438.763	-27.034	-0.064	-0.038
-437.749	61.833	0.114	-0.115
-436.734	-3.940	-0.204	-0.143
-435.719	17.308	-0.261	-0.210
-434.705	-97.524	0.252	0.066
-433.690	-181.773	-0.350	-0.007
-432.676	161.020	0.140	-0.198
-431.661	-116.143	0.284	-0.054
-430.646	-200.000	-0.032	-0.179
-429.632	-200.000	-0.031	-0.173
-428.617	155.602	0.145	0.202
-427.603	-152.295	0.209	0.015
-426.588	61.813	-0.300	0.303
-425.573	-166.750	0.290	-0.012
-424.559	76.799	0.244	-0.262
-423.544	305.095	-0.146	-0.275
-422.530	-17.052	-0.229	-0.146
-421.515	-106.640	-0.134	-0.030
-420.500	40.691	-0.206	-0.188
-419.486	266.570	-0.036	0.064
-418.471	452.925	-0.051	0.113
-417.457	-127.803	-0.200	-0.029
-416.442	10.002	0.192	0.148
-415.428	800.000	-0.093	-0.407
-414.413	213.049	-0.074	-0.118
-413.398	22.456	0.156	-0.129
-412.384	-131.456	0.286	-0.038
-411.369	-65.336	0.164	-0.067
-410.355	-29.667	-0.144	0.083
-409.340	-200.000	0.017	-0.189
-408.325	130.770	-0.116	-0.151
-407.311	-12.871	0.063	-0.042
-406.296	800.000	-0.007	-0.023
-405.282	-125.431	0.340	0.052
-404.267	190.648	0.229	0.348
-403.252	96.055	0.165	-0.191
-402.238	631.245	0.023	-0.058
-401.223	-57.696	-0.489	0.217
-400.209	-117.083	-0.212	0.039
-399.194	-46.848	-0.102	-0.050
-398.179	-112.522	0.153	0.031
-397.165	-200.000	-0.028	-0.171
-396.150	116.655	0.080	0.099
-395.136	-52.549	-0.057	0.027
-394.121	25.780	0.113	-0.095
-393.106	-200.000	-0.045	0.242
-392.092	225.007	-0.048	-0.078
-391.077	-106.957	0.157	-0.035
-390.063	-183.080	-0.060	0.001
-389.048	-200.000	-0.062	-0.299
-388.033	800.000	-0.063	0.239
-387.019	800.000	-0.069	-0.223
-386.004	-200.000	0.002	-0.019
-384.990	135.363	-0.069	-0.090
-383.975	367.041	-0.054	0.109
-382.960	-43.836	0.075	-0.038
-381.946	349.327	-0.144	-0.288
-380.931	-67.977	0.348	0.137
-379.917	-200.000	-0.020	-0.330
-378.902	269.575	0.221	-0.393
-377.888	800.000	-0.149	-0.439
-376.873	76.864	-0.116	0.124
-375.858	38.338	0.086	0.077
-374.844	568.411	-0.171	-0.421
-373.829	800.000	0.053	0.210
-372.815	232.617	0.129	-0.214
-371.800	-124.952	0.240	0.037
-370.785	800.000	-0.053	0.178
-369.771	163.249	-0.325	0.461
-368.756	427.166	0.057	0.125
-367.742	-14.704	0.239	0.155
-366.727	7.089	0.097	-0.073
-365.712	-128.324	0.299	-0.043
-364.698	290.246	-0.100	-0.183
-363.683	-200.000	-0.027	-0.143
-362.669	-6.506	0.095	0.065
-361.654	800.000	0.087	0.245
-360.639	800.000	0.081	-0.235
-359.625	251.155	0.084	0.143
-358.610	33.917	-0.197	-0.173
-357.596	-66.076	-0.221	-0.089
-356.581	-67.666	0.075	0.030
-355.566	-17.039	-0.182	-0.116
-354.552	-200.000	0.009	0.135
-353.537	327.023	0.156	0.303
-352.523	-200.000	-0.020	-0.108
-351.508	310.988	-0.042	0.079
-350.493	800.000	-0.044	0.159
-349.479	-200.000	0.048	0.315
-348.464	257.725	-0.132	0.229
-347.450	541.514	-0.119	0.286
-346.435	-192.699	-0.207	-0.002
-345.420	90.146	-0.026	0.029
-344.406	-89.039	-0.336	-0.100
-343.391	-67.032	0.100	-0.040
-342.377	773.593	-0.023	0.063
-341.362	-200.000	0.019	0.101
-340.348	-7.019	0.110	0.076
-339.333	-86.164	0.287	-0.089
-338.318	28.190	0.135	0.115
-337.304	-25.797	-0.056	0.033
-336.289	675.292	0.074	-0.193
-335.275	38.411	-0.050	-0.045
-334.260	-100.161	0.297	0.075
-333.245	-200.000	-0.054	-0.502
-332.231	349.151	0.205	0.409
-331.216	800.000	-0.081	-0.237
-330.202	-200.000	-0.014	-0.322
-329.187	-139.508	-0.466	-0.050
-328.172	63.046	-0.202	0.204
-327.158	355.965	0.147	-0.295
-326.143	241.605	-0.160	-0.270
-325.129	-12.817	-0.044	-0.029
-324.114	800.000	-0.067	-0.213
-323.099	62.202	0.287	0.289
-322.085	692.700	0.053	0.140
-321.070	42.913	0.312	0.287
-320.056	631.292	0.014	0.035
-319.041	800.000	0.032	-0.115
-318.026	800.000	-0.029	0.103
-317.012	158.246	-0.198	-0.276
-315.997	-2.747	0.069	0.049
-314.983	83.976	0.196	0.215
-313.968	86.545	0.123	-0.137
-312.953	-86.619	-0.238	-0.074
-311.939	-148.232	-0.255	0.021
-310.924	-200.000	-0.002	0.128
-309.910	-200.000	-0.036	-0.225
-308.895	173.921	-0.132	-0.193
-307.880	186.784	0.320	0.481
-306.866	-6.633	-0.205	0.141
-305.851	-30.863	-0.177	0.101
-304.837	20.395	-0.168	0.137
-303.822	318.994	0.099	-0.189
-302.807	-200.000	-0.052	-0.252
-301.793	5.375	0.146	-0.109
-300.778	800.000	-0.030	0.093
-299.764	145.440	-0.118	-0.160
-298.749	47.101	-0.048	-0.045
-297.735	9.440	-0.163	-0.124
-296.720	612.643	0.079	-0.199
-295.705	-58.552	0.118	-0.052
-294.691	60.968	-0.073	-0.073
-293.676	-92.336	0.058	0.016
-292.662	-200.000	0.006	0.138
-291.647	44.232	0.129	0.119
-290.632	-133.364	-0.286	0.036
-289.618	800.000	-0.053	0.166
-288.603	-85.371	0.291	-0.091
-287.589	27.710	-0.298	-0.253
-286.574	31.217	0.135	-0.117
-285.559	58.728	-0.156	-0.155
-284.545	797.608	0.094	-0.261
-283.530	21.789	-0.219	-0.180
-282.516	-47.240	-0.198	0.097
-281.501	800.000	0.043	0.179
-280.486	-200.000	0.028	-0.138
-279.472	-118.265	-0.508	0.091
-278.457	800.000	-0.110	0.384
-277.443	-62.153	-0.226	0.095
-276.428	284.743	0.164	-0.298
-275.413	41.857	-0.080	0.073
-274.399	5.600	0.084	0.062
-273.384	-41.189	-0.115	0.060
-272.370	-25.274	-0.070	0.041
-271.355	-200.000	-0.004	0.098
-270.340	4.489	0.412	-0.304
-269.326	80.740	0.209	-0.227
-268.311	-67.572	0.359	0.142
-267.297	92.334	-0.151	0.171
-266.282	112.140	-0.064	-0.078
-265.267	-25.370	0.203	0.121
-264.253	-55.345	0.185	0.084
-263.238	-200.000	0.053	-0.415
-262.224	-134.721	-0.210	0.026
-261.209	47.269	-0.172	-0.161
-260.195	44.222	0.139	0.128
-259.180	-6.854	-0.060	0.041
-258.165	-97.226	-0.351	-0.092
-257.151	-200.000	0.027	0.127
-256.136	-53.798	-0.075	-0.034
-255.122	2.466	0.182	-0.133
-254.107	10.563	0.152	-0.117
-253.092	-200.000	0.001	0.032
-252.078	131.570	0.215	0.278
-251.063	-91.327	-0.264	0.076
-250.049	13.457	0.235	-0.183
-249.034	330.064	0.059	-0.115
-248.019	-3.497	0.177	-0.123
-247.005	299.475	-0.097	-0.179
-245.990	-95.784	0.254	0.068
-244.976	84.329	-0.135	-0.149
-243.961	192.329	-0.126	0.191
-242.946	150.478	0.074	0.100
-241.932	364.824	0.089	-0.181
-240.917	-99.123	0.153	0.039
-239.903	155.048	-0.190	-0.263
-238.888	-200.000	0.008	0.306
-237.873	35.977	0.047	-0.041
-236.859	8.132	0.190	0.144
-235.844	112.995	0.237	0.289
-234.830	-200.000	-0.026	-0.122
-233.815	591.704	-0.037	0.093
-232.800	-151.464	-0.179	0.013
-231.786	687.271	0.045	-0.118
-230.771	221.176	-0.120	0.193
-229.757	800.000	0.046	-0.164
-228.742	140.127	-0.193	-0.256
-227.727	800.000	-0.090	-0.287
-226.713	235.896	0.100	-0.166
-225.698	-116.760	-0.126	-0.023
-224.684	800.000	-0.018	0.071
-223.669	-21.482	-0.079	0.048
-222.655	-36.695	0.287	0.155
-221.640	256.541	-0.192	0.330
-220.625	-76.586	0.149	-0.052
-219.611	420.182	-0.119	-0.257
-218.596	142.197	-0.124	-0.165
-217.582	523.311	-0.066	-0.156
-216.567	-57.392	-0.301	0.133
-215.552	265.895	0.075	-0.131
-214.538	-200.000	-0.017	0.122
-213.523	-137.499	-0.352	0.040
-212.509	-62.428	-0.398	0.166
-211.494	-34.899	0.221	0.121
-210.479	-141.508	0.316	-0.032
-209.465	59.218	0.175	-0.173
-208.450	-76.038	0.254	-0.090
-207.436	93.360	-0.175	0.199
-206.421	-69.147	0.136	0.052
-205.406	65.195	0.191	0.194
-204.392	-106.718	0.108	-0.024
-203.377	-49.973	0.265	0.126
-202.363	-200.000	0.001	0.085
-201.348	-200.000	-0.028	0.128
-200.333	312.916	-0.067	0.126
-199.319	800.000	0.144	0.604
-198.304	-200.000	0.233	0.000
-197.290	-39.989	0.099	0.052
-196.275	800.000	-0.035	0.105
-195.260	40.613	0.173	0.157
-194.246	-12.201	-0.005	0.003
-193.231	800.000	-0.024	-0.090
-192.217	14.553	0.281	0.221
-191.202	208.092	-0.070	0.110
-190.187	53.472	0.110	-0.106
-189.173	-200.000	-0.019	-0.207
-188.158	-86.703	0.202	0.062
-187.144	-103.267	-0.157	0.037
-186.129	-87.595	0.218	-0.066
-185.114	-69.009	-0.267	0.103
-184.100	5.532	0.130	0.096
-183.085	-16.760	0.113	-0.071
-182.071	-36.252	0.047	0.026
-181.056	-27.744	-0.194	0.113
-180.042	82.219	-0.113	-0.123
-179.027	114.590	0.103	0.126
-178.012	-200.000	0.004	0.133
-176.998	-78.322	0.228	-0.079
-175.983	-200.000	-0.058	-0.299
-174.969	-92.181	-0.294	-0.083
-173.954	800.000	0.073	-0.279
-172.939	-200.000	0.053	-0.264
-171.925	-200.000	-0.047	-0.210
-170.910	98.553	0.198	-0.229
-169.896	12.314	-0.207	0.160
-168.881	354.356	-0.118	0.235
-167.866	-28.392	-0.222	-0.128
-166.852	-130.977	0.229	-0.031
-165.837	568.715	0.036	0.088
-164.823	-200.000	-0.007	-0.222
-163.808	-101.557	0.195	0.048
-162.793	-153.005	0.125	-0.009
-161.779	535.751	0.097	-0.232
-160.764	269.579	0.024	-0.043
-159.750	105.421	0.078	-0.093
-158.735	222.575	-0.179	0.290
-157.720	-200.000	0.015	0.074
-156.706	-95.129	0.046	0.012
-155.691	-90.004	-0.143	-0.042
-154.677	259.898	-0.169	0.293
-153.662	94.279	-0.128	0.146
-152.647	-3.377	-0.406	0.283
-151.633	-60.603	0.124	0.053
-150.618	128.709	0.063	0.080
-149.604	144.445	-0.158	0.211
-148.589	286.913	0.096	0.173
-147.574	63.775	-0.371	-0.373
-146.560	-200.000	0.045	-0.202
-145.545	69.026	0.147	-0.152
-144.531	58.790	0.299	0.294
-143.516	-200.000	0.067	0.331
-142.502	800.000	-0.073	0.299
-141.487	-198.697	0.055	0.000
-140.472	9.802	0.218	0.166
-139.458	-200.000	-0.007	0.300
-138.443	226.193	0.035	0.056
-137.429	71.862	0.105	0.109
-136.414	-38.259	0.055	0.029
-135.399	582.068	0.054	0.132
-134.385	800.000	0.076	0.258
-133.370	-200.000	-0.008	-0.166
-132.356	-44.100	0.212	0.107
-131.341	-99.437	-0.291	0.073
-130.326	-172.980	0.051	-0.002
-129.312	521.920	0.125	0.293
-128.297	-138.440	0.333	-0.037
-127.283	641.131	0.015	0.038
-126.268	-3.902	-0.245	0.170
-125.253	-29.183	0.182	-0.105
-124.239	-200.000	-0.015	0.097
-123.224	-185.104	0.227	-0.004
-122.210	547.547	0.077	-0.185
-121.195	800.000	-0.111	0.410
-120.180	172.326	0.146	0.211
-119.166	47.480	0.160	0.150
