DTS Sentinel unit serial number:	SN413079Multiplexer serial number:	ORYXHardware model number:	OX4-SRSoftware version number:	ORYX F/W v4.00 Oryx Data Collector v3.7.2.0data status	okinstallation	princeton_trtdifferential loss correction	single-endedforward channel	channel 3reverse channel	N/Adate	2019/09/17time	20:28:34forward acquisition time	60.00reverse acquisition time	0.00gamma	496.2192k internal	0.2328k external	0.2328temperature offset calibration	0.9953default loss term (dB/km)	0.3790temperature slope calibration	1.0000multiplexer offset coefficient	1.0000multiplexer slope coefficient	1.0000fibre end	0.00T internal ref (°C)	30.78T ext. ref 1 (°C)	0.22T ext. ref 2 (°C)	21.37length (m)	temperature (°C)	Stokes	anti-Stokes-747.200	-200.000	0.080	0.448
-746.185	-200.000	0.055	0.377
-745.171	800.000	-0.132	0.433
-744.156	-142.182	-0.439	-0.044
-743.142	99.485	0.236	-0.275
-742.127	69.139	-0.104	0.107
-741.112	-200.000	-0.025	0.126
-740.098	143.737	-0.178	-0.240
-739.083	-102.901	0.347	-0.083
-738.069	-137.032	-0.273	0.032
-737.054	74.628	0.078	-0.083
-736.039	-118.416	-0.338	0.060
-735.025	442.900	0.079	0.174
-734.010	-200.000	-0.025	-0.135
-732.996	377.994	0.106	-0.219
-731.981	61.374	0.234	-0.235
-730.966	-200.000	-0.038	-0.258
-729.952	21.755	-0.040	-0.033
-728.937	168.211	-0.336	-0.482
-727.923	-2.309	0.059	-0.042
-726.908	-200.000	0.075	-0.357
-725.894	69.348	0.184	-0.191
-724.879	-200.000	0.006	-0.075
-723.864	-174.409	-0.213	-0.006
-722.850	366.048	-0.149	-0.303
-721.835	-85.669	0.254	0.080
-720.821	8.202	0.180	-0.136
-719.806	-150.625	-0.273	0.021
-718.791	-78.783	-0.364	0.125
-717.777	-79.010	0.154	-0.053
-716.762	500.444	-0.136	-0.316
-715.748	101.697	0.073	-0.086
-714.733	49.359	0.326	0.309
-713.718	-113.571	-0.336	-0.066
-712.704	-60.930	-0.297	-0.127
-711.689	-182.798	-0.371	0.007
-710.675	172.617	0.053	-0.077
-709.660	-112.615	0.391	0.078
-708.645	465.431	0.110	0.248
-707.631	6.131	-0.265	0.198
-706.616	800.000	0.073	0.211
-705.602	-86.257	-0.137	0.042
-704.587	31.359	0.224	0.193
-703.572	-139.067	-0.299	-0.033
-702.558	-12.656	-0.220	0.144
-701.543	395.584	0.026	-0.054
-700.529	75.686	0.092	0.098
-699.514	-56.714	-0.089	-0.040
-698.499	-129.238	-0.294	0.041
-697.485	93.319	-0.322	-0.366
-696.470	244.279	0.031	0.053
-695.456	54.700	0.114	-0.111
-694.441	-0.672	-0.078	-0.056
-693.426	-82.881	0.228	-0.074
-692.412	-96.844	-0.239	-0.063
-691.397	-200.000	0.393	0.000
-690.383	472.336	-0.091	-0.206
-689.368	-46.704	0.184	0.090
-688.354	22.130	-0.306	0.251
-687.339	-200.000	-0.019	-0.088
-686.324	101.744	0.148	-0.174
-685.310	-162.249	-0.344	0.017
-684.295	63.648	-0.119	0.120
-683.281	-20.438	0.131	0.081
-682.266	-200.000	0.017	0.151
-681.251	-200.000	0.052	0.291
-680.237	81.009	0.169	0.184
-679.222	-142.761	-0.385	0.038
-678.208	-105.036	0.014	-0.003
-677.193	136.284	0.061	0.081
-676.178	800.000	-0.028	0.101
-675.164	-200.000	-0.043	-0.266
-674.149	229.187	-0.055	0.090
-673.135	-200.000	0.006	0.234
-672.120	52.569	0.176	0.169
-671.105	-92.885	0.145	-0.041
-670.091	800.000	-0.069	0.273
-669.076	-89.456	0.328	-0.097
-668.062	-76.238	0.133	-0.047
-667.047	191.765	0.262	-0.397
-666.032	66.849	0.312	0.319
-665.018	19.767	-0.129	-0.104
-664.003	-99.872	-0.029	-0.007
-662.989	-200.000	0.000	0.302
-661.974	107.296	-0.158	0.188
-660.959	-200.000	-0.021	0.204
-659.945	-200.000	0.027	0.269
-658.930	-200.000	-0.034	-0.395
-657.916	-42.976	0.183	0.093
-656.901	-200.000	-0.011	0.186
-655.886	-16.950	0.068	-0.043
-654.872	458.910	-0.043	-0.096
-653.857	87.303	0.098	0.109
-652.843	81.285	-0.178	0.194
-651.828	-43.393	0.325	0.165
-650.814	124.595	-0.148	-0.187
-649.799	-200.000	-0.067	-0.400
-648.784	15.365	0.256	-0.201
-647.770	-52.467	-0.344	0.160
-646.755	-58.268	-0.147	0.064
-645.741	420.668	-0.064	0.138
-644.726	-200.000	-0.039	0.231
-643.711	451.716	-0.093	-0.207
-642.697	221.856	0.085	-0.137
-641.682	-200.000	0.036	0.160
-640.668	-160.679	-0.438	0.023
-639.653	-124.281	0.139	-0.022
-638.638	-200.000	0.001	-0.053
-637.624	-4.473	-0.210	0.145
-636.609	-200.000	0.025	0.340
-635.595	-139.292	-0.356	-0.038
-634.580	52.831	0.139	0.134
-633.565	-188.351	0.027	-0.000
-632.551	-55.079	0.028	-0.013
-631.536	381.023	-0.055	-0.114
-630.522	75.333	-0.255	0.270
-629.507	-120.478	0.070	0.012
-628.492	-43.667	0.058	-0.029
-627.478	-122.749	-0.214	-0.035
-626.463	800.000	0.043	-0.172
-625.449	-129.008	-0.424	0.060
-624.434	-103.039	0.302	0.072
-623.419	228.561	0.124	0.202
-622.405	526.465	0.090	-0.213
-621.390	-125.775	0.006	0.001
-620.376	-42.949	0.167	0.085
-619.361	-129.511	-0.017	-0.002
-618.346	-47.105	0.065	-0.032
-617.332	-70.729	-0.086	-0.033
-616.317	-41.949	0.436	0.224
-615.303	242.102	0.209	0.351
-614.288	-123.845	-0.137	0.022
-613.273	193.618	-0.047	0.071
-612.259	-200.000	0.069	0.477
-611.244	57.613	0.089	0.087
-610.230	105.980	0.232	-0.275
-609.215	-132.981	-0.362	-0.046
-608.201	-200.000	0.006	-0.278
-607.186	332.457	0.091	0.177
-606.171	-147.750	-0.077	0.006
-605.157	143.862	0.132	0.176
-604.142	-42.398	0.100	0.051
-603.128	-200.000	0.008	0.466
-602.113	-50.325	0.209	-0.099
-601.098	800.000	0.068	0.287
-600.084	800.000	0.033	-0.114
-599.069	-88.716	-0.249	-0.074
-598.055	119.060	-0.051	-0.063
-597.040	-121.006	-0.084	-0.014
-596.025	116.017	-0.170	0.209
-595.011	-200.000	-0.032	0.163
-593.996	-135.962	-0.300	0.035
-592.982	259.840	0.069	-0.120
-591.967	-149.332	0.248	0.020
-590.952	259.475	0.174	0.300
-589.938	-109.623	-0.282	-0.060
-588.923	-200.000	-0.033	0.147
-587.909	134.267	-0.163	0.212
-586.894	515.627	0.056	0.132
-585.879	128.167	-0.074	-0.095
-584.865	19.756	0.039	-0.031
-583.850	-4.376	0.217	-0.150
-582.836	-94.169	-0.271	-0.074
-581.821	114.705	-0.077	0.094
-580.806	50.234	0.307	-0.291
-579.792	-109.572	0.065	0.014
-578.777	538.823	0.111	0.264
-577.763	-95.559	-0.140	-0.037
-576.748	-21.414	-0.368	0.225
-575.733	36.351	0.109	0.096
-574.719	360.835	-0.154	0.308
-573.704	384.950	0.138	0.285
-572.690	800.000	-0.085	0.323
-571.675	180.703	0.107	0.158
-570.661	800.000	0.024	-0.084
-569.646	33.276	0.112	0.097
-568.631	800.000	0.038	-0.152
-567.617	-119.293	-0.253	-0.044
-566.602	800.000	-0.060	-0.177
-565.588	591.446	-0.166	0.411
-564.573	733.455	0.026	0.069
-563.558	-200.000	-0.007	-0.259
-562.544	-70.721	-0.309	-0.117
-561.529	394.541	0.156	-0.325
-560.515	-141.301	-0.218	0.022
-559.500	19.842	-0.118	-0.095
-558.485	78.325	0.153	-0.164
-557.471	55.854	0.149	0.145
-556.456	800.000	-0.047	0.169
-555.442	-23.784	-0.041	-0.025
-554.427	679.220	-0.168	-0.437
-553.412	800.000	0.114	0.349
-552.398	800.000	-0.068	0.203
-551.383	59.328	-0.139	0.136
-550.369	-3.332	-0.163	0.114
-549.354	-200.000	-0.017	-0.251
-548.339	-200.000	-0.031	-0.519
-547.325	-21.528	-0.077	0.047
-546.310	209.050	0.078	-0.123
-545.296	76.833	-0.201	0.214
-544.281	426.302	-0.170	0.366
-543.266	-63.175	-0.170	0.070
-542.252	-169.679	0.060	0.002
-541.237	-58.263	0.307	-0.134
-540.223	-82.991	-0.180	-0.058
-539.208	-83.253	-0.299	0.096
-538.193	656.594	0.051	-0.130
-537.179	-136.384	0.064	-0.007
-536.164	29.837	-0.163	0.139
-535.150	74.213	0.260	0.273
-534.135	551.244	0.041	0.097
-533.121	-26.211	0.293	-0.172
-532.106	800.000	0.109	0.378
-531.091	-200.000	0.077	-0.450
-530.077	245.080	0.099	-0.166
-529.062	-200.000	-0.011	-0.156
-528.048	94.251	-0.181	-0.206
-527.033	-76.576	0.084	0.030
-526.018	-159.465	0.304	-0.017
-525.004	-200.000	-0.017	0.139
-523.989	-200.000	0.015	0.089
-522.975	-55.773	-0.363	-0.162
-521.960	-200.000	-0.029	-0.151
-520.945	102.347	0.090	-0.105
-519.931	-87.270	0.098	-0.030
-518.916	-115.562	-0.071	0.013
-517.902	-200.000	-0.016	-0.143
-516.887	-98.098	0.161	-0.041
-515.872	800.000	-0.073	-0.266
-514.858	-79.410	0.314	0.106
-513.843	-65.398	-0.330	-0.133
-512.829	-200.000	-0.078	0.356
-511.814	-93.804	0.303	-0.083
-510.799	100.605	-0.227	-0.263
-509.785	-200.000	-0.026	-0.214
-508.770	-200.000	-0.042	0.199
-507.756	-38.565	-0.305	-0.161
-506.741	-132.058	0.079	-0.010
-505.726	-168.068	0.436	-0.017
-504.712	-200.000	-0.022	0.147
-503.697	-200.000	0.013	-0.396
-502.683	-74.247	-0.275	-0.099
-501.668	160.843	0.149	-0.208
-500.653	-57.441	0.111	0.049
-499.639	9.125	0.128	0.096
-498.624	779.638	0.032	0.086
-497.610	800.000	-0.071	-0.257
-496.595	-6.737	-0.176	0.119
-495.581	800.000	0.057	0.170
-494.566	-3.590	0.210	-0.146
-493.551	97.220	0.278	-0.318
-492.537	3.005	-0.335	-0.243
-491.522	420.866	-0.040	0.085
-490.508	661.123	-0.105	0.269
-489.493	-101.272	-0.452	0.110
-488.478	-44.023	0.192	0.096
-487.464	800.000	0.098	-0.362
-486.449	67.847	-0.090	0.092
-485.435	-158.397	-0.407	0.024
-484.420	14.600	0.217	-0.169
-483.405	-11.499	0.288	0.189
-482.391	-95.631	0.026	0.007
-481.376	-91.948	-0.051	-0.014
-480.362	49.424	-0.031	-0.029
-479.347	-13.196	0.237	0.153
-478.332	-135.774	-0.249	0.029
-477.318	-10.687	0.363	0.239
-476.303	94.081	-0.025	-0.028
-475.289	503.708	-0.221	-0.510
-474.274	-200.000	-0.002	-0.222
-473.259	800.000	-0.041	-0.147
-472.245	-200.000	-0.013	-0.182
-471.230	800.000	-0.152	0.495
-470.216	453.129	0.025	0.056
-469.201	98.772	0.152	0.175
-468.186	685.000	-0.092	0.240
-467.172	115.487	-0.015	0.019
-466.157	-200.000	-0.040	-0.302
-465.143	-111.357	-0.268	-0.054
-464.128	-182.077	-0.439	-0.008
-463.113	-53.806	-0.140	0.064
-462.099	800.000	0.031	0.092
-461.084	44.812	-0.195	-0.178
-460.070	800.000	0.067	-0.244
-459.055	-118.694	0.212	0.037
-458.040	-200.000	0.037	0.185
-457.026	674.756	0.078	0.203
-456.011	262.467	-0.245	0.424
-454.997	-161.850	0.357	0.018
-453.982	800.000	0.047	0.166
-452.968	-96.817	0.339	0.089
-451.953	-87.777	0.306	0.092
-450.938	-200.000	0.012	-0.304
-449.924	-158.253	-0.305	-0.018
-448.909	800.000	-0.104	-0.377
-447.895	800.000	0.089	-0.337
-446.880	-200.000	-0.004	0.230
-445.865	393.508	0.228	0.472
-444.851	42.782	0.206	-0.186
-443.836	-169.984	-0.173	0.006
-442.822	118.040	-0.231	0.284
-441.807	800.000	0.075	-0.214
-440.792	499.931	-0.086	0.197
-439.778	-95.417	0.061	-0.016
-438.763	-200.000	0.012	0.072
-437.749	55.227	0.048	-0.046
-436.734	-200.000	-0.005	0.050
-435.719	314.051	0.133	0.248
-434.705	-200.000	-0.038	0.182
-433.690	-200.000	-0.034	-0.178
-432.676	-101.331	0.223	0.054
-431.661	-200.000	-0.005	0.313
-430.646	461.094	-0.041	-0.092
-429.632	-200.000	-0.023	0.114
-428.617	-102.507	-0.059	-0.014
-427.603	-200.000	0.006	-0.101
-426.588	-149.132	-0.241	0.019
-425.573	-85.105	0.222	-0.069
-424.559	693.103	0.148	-0.386
-423.544	-200.000	-0.000	-0.074
-422.530	800.000	-0.076	0.326
-421.515	-200.000	0.011	-0.256
-420.500	282.627	-0.165	0.294
-419.486	283.187	0.069	0.123
-418.471	19.533	0.344	-0.276
-417.457	78.049	-0.012	0.013
-416.442	201.287	-0.072	0.111
-415.428	-200.000	0.018	-0.091
-414.413	-200.000	0.041	0.286
-413.398	-86.989	0.157	-0.048
-412.384	800.000	-0.053	-0.208
-411.369	237.624	-0.066	-0.110
-410.355	440.482	-0.056	-0.122
-409.340	106.266	-0.070	-0.083
-408.325	-200.000	-0.002	0.287
-407.311	-66.810	-0.281	-0.111
-406.296	-200.000	0.003	-0.209
-405.282	-200.000	-0.030	-0.342
-404.267	132.131	-0.096	-0.123
-403.252	-200.000	-0.004	-0.278
-402.238	403.657	-0.075	-0.157
-401.223	87.819	-0.091	-0.100
-400.209	-200.000	0.008	-0.138
-399.194	428.951	0.147	0.316
-398.179	-72.110	0.248	-0.091
-397.165	435.018	0.070	0.151
-396.150	144.176	-0.222	0.294
-395.136	574.683	0.066	0.161
-394.121	297.424	-0.104	-0.191
-393.106	-200.000	0.081	-0.740
-392.092	533.455	-0.078	-0.183
-391.077	-200.000	-0.037	-0.274
-390.063	-145.200	0.436	0.039
-389.048	136.911	0.213	-0.276
-388.033	-150.280	-0.222	0.017
-387.019	360.869	0.123	0.246
-386.004	-45.514	-0.159	0.078
-384.990	-200.000	-0.043	0.345
-383.975	201.957	-0.018	-0.028
-382.960	147.832	0.170	0.228
-381.946	156.946	-0.257	0.353
-380.931	-128.610	0.153	-0.021
-379.917	800.000	-0.030	-0.117
-378.902	-179.049	0.064	-0.001
-377.888	-77.938	0.107	-0.037
-376.873	128.333	-0.069	0.087
-375.858	160.510	-0.111	0.154
-374.844	268.384	0.045	-0.078
-373.829	190.296	0.201	-0.299
-372.815	66.102	-0.115	0.116
-371.800	130.560	-0.076	0.097
-370.785	113.817	-0.140	-0.169
-369.771	-200.000	-0.060	0.294
-368.756	397.100	-0.067	-0.139
-367.742	-146.863	0.372	0.032
-366.727	346.265	-0.176	0.344
-365.712	-37.842	-0.326	-0.172
-364.698	61.720	-0.215	-0.212
-363.683	21.137	0.203	-0.164
-362.669	-123.570	0.157	0.025
-361.654	-165.413	-0.482	-0.021
-360.639	-200.000	0.072	-0.341
-359.625	-78.880	-0.103	0.035
-358.610	-150.767	-0.225	0.017
-357.596	-193.519	0.265	-0.002
-356.581	65.028	0.162	0.163
-355.566	-200.000	0.023	0.303
-354.552	-200.000	0.005	0.062
-353.537	99.329	0.211	0.242
-352.523	-152.349	0.180	-0.013
-351.508	-124.053	0.166	-0.026
-350.493	370.646	-0.087	0.176
-349.479	-28.735	0.370	-0.211
-348.464	-200.000	0.010	0.050
-347.450	-147.529	0.310	0.026
-346.435	119.147	-0.043	-0.052
-345.420	649.060	0.058	-0.147
-344.406	-61.182	0.541	-0.226
-343.391	292.646	-0.027	-0.049
-342.377	-200.000	0.068	-0.310
-341.362	375.597	0.040	0.082
-340.348	-17.254	0.073	-0.046
-339.333	-165.112	-0.120	0.005
-338.318	-128.070	-0.263	0.037
-337.304	-54.529	0.213	-0.096
-336.289	307.861	-0.123	-0.228
-335.275	52.691	0.060	0.056
-334.260	-192.081	-0.100	0.001
-333.245	-200.000	-0.026	-0.145
-332.231	-200.000	0.012	-0.183
-331.216	731.727	-0.092	0.243
-330.202	-116.262	-0.284	0.052
-329.187	1.540	-0.102	-0.073
-328.172	140.114	-0.236	-0.308
-327.158	139.409	0.247	-0.322
-326.143	-200.000	0.087	-0.398
-325.129	-104.271	0.116	-0.027
-324.114	-80.100	-0.169	-0.056
-323.099	179.965	-0.171	-0.248
-322.085	-200.000	-0.014	0.241
-321.070	307.324	0.113	-0.208
-320.056	135.029	-0.115	0.147
-319.041	0.821	0.262	0.186
-318.026	-132.998	-0.310	-0.039
-317.012	40.579	-0.104	-0.093
-315.997	111.602	-0.279	-0.333
-314.983	-43.983	-0.218	0.108
-313.968	-200.000	-0.023	-0.196
-312.953	86.087	0.189	-0.206
-311.939	-62.121	-0.319	-0.132
-310.924	-200.000	-0.013	0.273
-309.910	-103.124	0.308	0.072
-308.895	-44.923	-0.202	0.100
-307.880	126.774	-0.103	0.129
-306.866	-200.000	0.023	0.278
-305.851	242.335	0.048	0.080
-304.837	-31.931	0.245	0.136
-303.822	-200.000	-0.008	0.034
-302.807	-37.301	-0.112	0.059
-301.793	272.364	0.151	0.263
-300.778	295.607	0.113	-0.205
-299.764	135.172	0.125	0.161
-298.749	132.208	0.221	0.282
-297.735	-200.000	0.022	-0.368
-296.720	-200.000	-0.038	-0.364
-295.705	-59.923	0.136	0.058
-294.691	-20.574	0.068	-0.042
-293.676	-108.140	-0.082	0.018
-292.662	128.175	0.016	-0.020
-291.647	-200.000	-0.024	-0.116
-290.632	-200.000	0.039	-0.322
-289.618	-117.851	0.182	0.032
-288.603	-6.014	0.129	0.088
-287.589	-147.190	-0.303	0.026
-286.574	35.169	-0.178	-0.154
-285.559	-200.000	0.017	0.134
-284.545	-55.267	0.381	0.169
-283.530	178.480	0.196	-0.283
-282.516	81.681	-0.200	0.214
-281.501	14.957	0.138	0.107
-280.486	115.794	-0.110	-0.133
-279.472	548.416	-0.106	-0.251
-278.457	-200.000	-0.008	-0.127
-277.443	-182.455	-0.509	-0.009
-276.428	-30.846	0.200	0.112
-275.413	800.000	-0.066	0.195
-274.399	137.626	0.051	-0.066
-273.384	800.000	0.111	0.447
-272.370	88.483	-0.277	-0.305
-271.355	-200.000	0.009	0.263
-270.340	-70.777	-0.291	-0.108
-269.326	-46.507	-0.315	0.153
-268.311	6.305	-0.207	-0.152
-267.297	259.914	-0.209	0.356
-266.282	-61.993	0.168	0.069
-265.267	440.819	-0.072	-0.156
-264.253	-65.264	0.071	-0.028
-263.238	-86.465	0.043	-0.013
-262.224	800.000	0.033	0.106
-261.209	800.000	0.191	-0.540
-260.195	800.000	0.042	-0.137
-259.180	-144.722	0.126	0.011
-258.165	-25.917	-0.109	0.064
-257.151	17.391	-0.136	-0.107
-256.136	446.772	-0.105	-0.227
-255.122	-146.099	-0.239	-0.021
-254.107	-9.273	0.149	0.099
-253.092	245.449	0.160	0.266
-252.078	-200.000	-0.032	-0.263
-251.063	800.000	0.059	0.196
-250.049	-200.000	0.007	0.034
-249.034	132.346	0.188	0.240
-248.019	-200.000	-0.016	0.267
-247.005	85.557	0.192	0.208
-245.990	104.182	0.189	-0.220
-244.976	-110.980	-0.282	0.057
-243.961	-50.336	0.256	-0.120
-242.946	-200.000	-0.075	-0.407
-241.932	85.023	0.080	0.087
-240.917	122.860	0.298	0.369
-239.903	401.346	0.034	0.071
-238.888	169.889	0.061	-0.086
-237.873	-76.463	0.185	-0.064
-236.859	-51.266	-0.178	-0.082
-235.844	19.135	-0.231	-0.183
-234.830	17.072	0.135	-0.106
-233.815	453.790	0.210	-0.459
-232.800	-200.000	0.021	-0.198
-231.786	242.331	-0.187	-0.309
-230.771	-60.175	0.186	0.078
-229.757	206.447	0.087	-0.134
-228.742	-15.400	0.111	-0.070
-227.727	-56.336	-0.061	0.027
-226.713	788.559	0.108	0.292
-225.698	34.899	0.139	0.120
-224.684	800.000	0.041	0.120
-223.669	712.209	0.058	0.152
-222.655	800.000	0.061	-0.196
-221.640	-119.827	-0.532	0.090
-220.625	800.000	0.036	-0.108
-219.611	48.655	0.139	0.129
-218.596	-69.538	-0.309	-0.117
-217.582	-200.000	0.025	0.138
-216.567	617.051	0.116	0.288
-215.552	-86.578	0.221	0.067
-214.538	-179.813	0.317	0.007
-213.523	-142.167	-0.284	0.028
-212.509	-38.174	-0.053	0.027
-211.494	160.268	0.098	0.135
-210.479	-147.713	0.279	-0.023
-209.465	-200.000	-0.056	0.413
-208.450	96.553	-0.191	-0.216
-207.436	-3.840	0.058	-0.039
-206.421	-200.000	-0.020	-0.091
-205.406	236.584	-0.114	-0.186
-204.392	58.180	-0.174	0.168
-203.377	-200.000	-0.007	0.162
-202.363	98.183	0.220	0.250
-201.348	-31.118	-0.295	0.164
-200.333	-31.946	0.132	0.073
-199.319	-200.000	0.014	-0.261
-198.304	505.353	0.034	0.077
-197.290	-128.626	0.092	0.013
-196.275	-200.000	-0.064	-0.367
-195.260	-123.293	0.118	0.019
-194.246	187.890	-0.227	-0.334
-193.231	126.325	0.175	-0.218
-192.217	-95.510	0.182	0.048
-191.202	-51.833	0.082	0.038
-190.187	-200.000	-0.006	0.171
-189.173	800.000	-0.054	-0.195
-188.158	-95.959	-0.464	0.122
-187.144	-58.985	-0.167	-0.071
-186.129	54.197	0.139	0.132
-185.114	28.801	0.009	-0.008
-184.100	-59.457	0.191	0.081
-183.085	-200.000	-0.035	0.319
-182.071	300.429	0.064	0.116
-181.056	-8.990	0.152	0.100
-180.042	179.576	0.145	0.209
-179.027	-200.000	-0.008	0.254
-178.012	421.026	-0.051	0.108
-176.998	227.080	-0.043	0.069
-175.983	44.364	0.187	-0.169
-174.969	-136.451	-0.240	-0.027
-173.954	790.027	-0.091	0.245
-172.939	-144.783	0.023	-0.002
-171.925	-53.343	0.265	-0.119
-170.910	207.820	0.179	-0.275
-169.896	129.580	-0.037	0.046
-168.881	189.282	0.171	0.252
-167.866	-177.065	-0.057	0.001
-166.852	231.922	0.086	0.138
-165.837	235.914	-0.247	-0.402
-164.823	294.632	0.121	0.217
-163.808	-75.762	0.016	-0.005
-162.793	109.098	-0.155	-0.182
-161.779	800.000	0.050	-0.169
-160.764	-61.875	0.080	-0.033
-159.750	-85.665	-0.162	0.050
-158.735	800.000	-0.020	-0.062
-157.720	-200.000	-0.022	0.114
-156.706	800.000	0.115	0.467
-155.691	-31.556	0.216	-0.120
-154.677	235.090	0.092	-0.149
-153.662	-131.602	-0.225	0.029
-152.647	-60.364	0.312	-0.131
-151.633	-200.000	0.016	-0.245
-150.618	75.402	-0.139	0.145
-149.604	-33.494	0.232	-0.126
-148.589	-82.403	0.197	0.063
-147.574	-120.380	-0.057	-0.010
-146.560	477.641	-0.058	0.130
-145.545	98.340	-0.210	-0.239
-144.531	-200.000	0.021	-0.101
-143.516	-200.000	0.010	-0.125
-142.502	-24.628	-0.060	-0.035
-141.487	-200.000	-0.010	0.372
-140.472	800.000	-0.008	0.025
-139.458	448.644	-0.117	0.254
-138.443	-59.475	-0.213	0.090
-137.429	136.877	0.061	0.079
-136.414	-200.000	-0.009	0.081
-135.399	-200.000	0.008	-0.040
-134.385	800.000	0.098	-0.280
-133.370	212.888	-0.102	0.158
-132.356	-21.525	0.347	-0.208
-131.341	25.985	-0.304	-0.249
-130.326	136.438	0.028	0.036
-129.312	26.077	-0.203	0.166
-128.297	13.484	-0.063	-0.048
-127.283	27.265	-0.164	0.135
-126.268	800.000	-0.059	0.172
-125.253	67.571	0.093	0.093
-124.239	225.473	-0.236	0.376
-123.224	-200.000	0.007	0.190
-122.210	-108.578	-0.279	-0.059
