DTS Sentinel unit serial number:	SN413079Multiplexer serial number:	ORYXHardware model number:	OX4-SRSoftware version number:	ORYX F/W v4.00 Oryx Data Collector v3.7.2.0data status	okinstallation	princeton_trtdifferential loss correction	single-endedforward channel	channel 3reverse channel	N/Adate	2019/09/15time	19:48:35forward acquisition time	60.00reverse acquisition time	0.00gamma	496.2192k internal	0.2310k external	0.2310temperature offset calibration	0.9933default loss term (dB/km)	0.3790temperature slope calibration	1.0000multiplexer offset coefficient	1.0000multiplexer slope coefficient	1.0000fibre end	0.00T internal ref (°C)	36.80T ext. ref 1 (°C)	7.45T ext. ref 2 (°C)	26.94length (m)	temperature (°C)	Stokes	anti-Stokes-747.200	-200.000	0.006	0.147
-746.185	38.793	-0.198	0.179
-745.171	-200.000	0.040	0.262
-744.156	-200.000	0.052	0.248
-743.142	-79.023	0.155	-0.053
-742.127	140.898	-0.032	0.043
-741.112	-200.000	-0.023	-0.230
-740.098	-14.269	-0.017	-0.011
-739.083	-16.066	0.113	-0.073
-738.069	202.770	-0.293	0.460
-737.054	-160.912	-0.339	-0.018
-736.039	800.000	0.062	-0.178
-735.025	800.000	-0.057	-0.163
-734.010	-34.629	-0.268	0.149
-732.996	438.879	-0.089	-0.198
-731.981	-39.942	-0.223	0.118
-730.966	-200.000	0.006	0.220
-729.952	131.695	0.235	0.306
-728.937	-16.810	-0.080	0.052
-727.923	426.518	-0.125	0.273
-726.908	403.098	-0.079	0.168
-725.894	-72.830	0.359	0.134
-724.879	155.602	-0.116	-0.162
-723.864	-72.897	0.278	-0.104
-722.850	-200.000	-0.014	-0.151
-721.835	-66.813	-0.105	0.042
-720.821	-32.785	0.051	0.029
-719.806	-200.000	0.013	-0.118
-718.791	112.620	-0.334	-0.410
-717.777	7.745	-0.150	0.114
-716.762	-200.000	-0.081	0.374
-715.748	-74.890	0.416	-0.151
-714.733	-29.923	-0.213	-0.123
-713.718	-73.589	0.231	-0.086
-712.704	8.969	0.202	-0.155
-711.689	-78.672	-0.171	0.059
-710.675	-200.000	0.007	0.086
-709.660	105.536	-0.085	0.101
-708.645	800.000	-0.041	-0.146
-707.631	-109.393	0.078	0.017
-706.616	-77.623	0.303	-0.106
-705.602	172.761	-0.037	-0.055
-704.587	-26.878	0.161	0.095
-703.572	800.000	-0.104	-0.345
-702.558	-63.718	0.107	-0.044
-701.543	-68.611	0.030	0.012
-700.529	18.925	-0.051	0.042
-699.514	-171.597	0.367	-0.012
-698.499	40.574	-0.293	-0.268
-697.485	-105.923	-0.398	-0.091
-696.470	156.009	-0.139	0.194
-695.456	-119.215	-0.418	0.074
-694.441	-11.638	-0.028	-0.019
-693.426	-27.605	-0.113	0.066
-692.412	-92.179	0.174	-0.050
-691.397	92.363	-0.211	-0.241
-690.383	376.592	-0.090	0.185
-689.368	111.089	-0.156	0.190
-688.354	-200.000	0.035	-0.384
-687.339	-200.000	0.043	-0.221
-686.324	258.730	0.192	-0.335
-685.310	-200.000	0.002	0.213
-684.295	654.564	0.069	0.179
-683.281	-58.050	-0.076	-0.034
-682.266	259.119	0.122	-0.214
-681.251	-99.189	-0.167	0.043
-680.237	447.066	-0.069	-0.153
-679.222	-41.638	0.169	-0.088
-678.208	4.000	-0.222	0.164
-677.193	343.897	0.086	0.172
-676.178	68.897	-0.170	-0.177
-675.164	-200.000	-0.558	0.000
-674.149	-133.203	0.060	0.008
-673.135	-97.370	0.268	-0.071
-672.120	-95.535	-0.106	-0.029
-671.105	-68.484	-0.083	0.033
-670.091	255.852	-0.081	-0.140
-669.076	-121.293	-0.179	-0.030
-668.062	186.573	0.096	0.144
-667.047	-120.524	-0.212	-0.036
-666.032	-39.872	-0.205	-0.108
-665.018	1.231	-0.054	0.039
-664.003	-200.000	0.032	-0.183
-662.989	-82.125	-0.055	0.018
-661.974	800.000	-0.122	-0.515
-660.959	82.617	-0.203	-0.223
-659.945	410.325	0.074	-0.160
-658.930	-200.000	0.009	-0.120
-657.916	682.539	0.026	0.070
-656.901	-200.000	-0.022	-0.144
-655.886	-157.710	-0.187	-0.011
-654.872	-200.000	0.015	0.152
-653.857	-87.244	0.300	-0.092
-652.843	156.069	-0.098	0.136
-651.828	-53.427	0.196	0.091
-650.814	-110.110	-0.398	-0.084
-649.799	-146.546	0.272	0.024
-648.784	105.974	-0.137	0.164
-647.770	-71.366	-0.329	-0.125
-646.755	-54.486	0.317	0.145
-645.741	-27.346	-0.159	0.094
-644.726	90.984	-0.146	0.165
-643.711	-200.000	-0.033	-0.252
-642.697	-35.895	0.088	0.048
-641.682	609.469	0.158	-0.400
-640.668	399.458	-0.090	-0.190
-639.653	-51.627	0.011	0.005
-638.638	279.233	0.097	-0.175
-637.624	-15.286	-0.256	0.166
-636.609	-200.000	-0.006	0.222
-635.595	9.505	0.260	-0.199
-634.580	-56.051	-0.225	-0.101
-633.565	29.177	0.184	0.158
-632.551	-41.506	-0.334	-0.174
-631.536	192.484	0.034	0.052
-630.522	41.357	0.178	-0.163
-629.507	-200.000	-0.012	0.297
-628.492	572.252	-0.048	-0.118
-627.478	180.391	-0.148	-0.219
-626.463	479.347	0.054	0.124
-625.449	-9.577	0.359	-0.242
-624.434	800.000	-0.049	-0.182
-623.419	-96.898	0.153	0.041
-622.405	589.250	0.042	-0.104
-621.390	800.000	-0.083	-0.273
-620.376	300.058	0.052	-0.096
-619.361	191.326	-0.117	0.178
-618.346	-102.497	0.034	0.008
-617.332	212.300	-0.024	-0.038
-616.317	394.819	0.091	-0.192
-615.303	-43.138	-0.150	-0.077
-614.288	57.858	0.177	-0.175
-613.273	-200.000	0.043	0.422
-612.259	-5.670	0.125	-0.086
-611.244	14.405	-0.218	-0.172
-610.230	70.125	-0.213	-0.223
-609.215	-200.000	0.017	-0.103
-608.201	19.499	-0.157	-0.127
-607.186	-5.707	-0.156	0.108
-606.171	-172.438	0.116	0.004
-605.157	-62.922	-0.057	0.024
-604.142	99.349	-0.115	0.134
-603.128	-88.228	0.191	0.058
-602.113	299.995	-0.049	-0.092
-601.098	107.204	0.043	-0.051
-600.084	-129.742	-0.095	-0.013
-599.069	-200.000	-0.014	0.070
-598.055	800.000	-0.052	0.155
-597.040	531.885	-0.113	-0.269
-596.025	-16.839	0.033	0.021
-595.011	118.142	-0.123	0.154
-593.996	-171.136	0.162	0.006
-592.982	-100.553	-0.232	0.058
-591.967	163.230	0.208	-0.295
-590.952	-200.000	-0.034	-0.253
-589.938	-47.135	0.208	-0.102
-588.923	-11.908	-0.151	-0.100
-587.909	-49.342	0.183	0.088
-586.894	135.653	-0.157	-0.207
-585.879	143.229	0.261	0.351
-584.865	46.633	-0.304	0.285
-583.850	3.801	-0.044	-0.033
-582.836	-1.729	0.250	0.178
-581.821	71.190	0.143	0.150
-580.806	-200.000	0.003	-0.116
-579.792	800.000	-0.042	-0.169
-578.777	-14.968	0.241	-0.156
-577.763	57.614	0.232	-0.228
-576.748	106.395	0.038	0.045
-575.733	-130.626	-0.247	-0.034
-574.719	-200.000	-0.015	0.395
-573.704	422.752	0.216	0.469
-572.690	-102.882	-0.220	0.053
-571.675	-97.492	0.247	-0.065
-570.661	-34.471	-0.068	-0.038
-569.646	800.000	-0.110	-0.429
-568.631	-57.855	0.212	0.093
-567.617	-81.767	0.286	-0.095
-566.602	-200.000	-0.053	-0.307
-565.588	-200.000	-0.024	-0.188
-564.573	-104.244	0.150	0.035
-563.558	123.963	-0.179	0.227
-562.544	123.768	-0.126	0.160
-561.529	73.726	0.101	-0.107
-560.515	13.341	-0.222	-0.174
-559.500	-2.815	-0.318	-0.224
-558.485	800.000	-0.055	0.165
-557.471	-200.000	-0.003	-0.018
-556.456	25.581	0.298	0.250
-555.442	-80.130	0.060	-0.020
-554.427	-66.356	-0.279	-0.112
-553.412	105.457	-0.055	0.066
-552.398	800.000	0.091	-0.277
-551.383	84.705	0.217	-0.240
-550.369	164.046	-0.156	-0.222
-549.354	288.860	0.107	0.196
-548.339	245.443	-0.113	0.192
-547.325	18.248	0.129	0.104
-546.310	-200.000	0.004	-0.213
-545.296	-37.238	-0.195	0.105
-544.281	-14.534	-0.172	0.112
-543.266	-7.193	-0.114	0.078
-542.252	20.879	0.226	0.185
-541.237	286.792	-0.156	-0.284
-540.223	224.574	-0.155	-0.252
-539.208	-125.582	-0.213	0.033
-538.193	156.952	-0.160	-0.224
-537.179	800.000	0.029	0.085
-536.164	800.000	0.053	0.209
-535.150	306.597	0.039	-0.072
-534.135	10.972	-0.373	-0.287
-533.121	-122.206	0.301	-0.050
-532.106	126.993	0.055	-0.070
-531.091	329.480	0.237	0.458
-530.077	157.462	0.079	-0.110
-529.062	-100.868	-0.087	-0.022
-528.048	-200.000	0.010	-0.277
-527.033	-175.247	-0.434	0.012
-526.018	-130.260	-0.292	0.040
-525.004	177.808	-0.007	-0.010
-523.989	-21.650	0.097	0.060
-522.975	169.260	-0.066	-0.095
-521.960	-200.000	-0.005	0.104
-520.945	-128.486	-0.283	-0.040
-519.931	-139.175	-0.180	-0.020
-518.916	-59.906	0.340	0.146
-517.902	138.461	-0.089	-0.117
-516.887	-148.227	-0.049	0.004
-515.872	800.000	-0.066	0.251
-514.858	-132.773	0.078	0.010
-513.843	-112.450	-0.145	0.029
-512.829	-173.606	0.365	0.011
-511.814	-127.344	-0.296	0.043
-510.799	-150.663	0.256	0.020
-509.785	-23.265	-0.205	-0.124
-508.770	-38.821	-0.408	-0.216
-507.756	549.720	-0.038	0.093
-506.741	-151.322	-0.085	0.006
-505.726	-30.912	-0.220	-0.125
-504.712	-160.077	-0.100	-0.005
-503.697	-76.509	-0.183	0.065
-502.683	207.771	-0.157	-0.246
-501.668	104.732	-0.129	-0.153
-500.653	800.000	-0.046	-0.185
-499.639	34.464	-0.261	-0.229
-498.624	800.000	0.071	0.307
-497.610	-142.949	0.164	-0.016
-496.595	181.973	-0.100	-0.148
-495.581	173.376	-0.069	0.100
-494.566	-124.196	-0.295	0.047
-493.551	-200.000	0.001	-0.182
-492.537	57.187	0.223	-0.219
-491.522	-200.000	0.039	-0.249
-490.508	-34.248	-0.057	-0.031
-489.493	-200.000	0.026	-0.174
-488.478	-143.222	0.246	-0.024
-487.464	-21.055	-0.346	-0.213
-486.449	256.283	0.152	0.262
-485.435	-200.000	-0.017	-0.117
-484.420	800.000	-0.036	-0.118
-483.405	31.061	-0.181	0.156
-482.391	-26.233	-0.326	0.192
-481.376	171.164	-0.142	-0.204
-480.362	561.512	0.063	0.154
-479.347	40.923	0.098	0.089
-478.332	-135.714	0.307	0.037
-477.318	-88.853	0.048	0.014
-476.303	415.665	-0.132	0.284
-475.289	-142.073	0.257	0.026
-474.274	-200.000	0.006	-0.226
-473.259	184.668	0.122	0.181
-472.245	-74.782	-0.276	0.100
-471.230	719.687	0.080	0.214
-470.216	718.836	-0.022	-0.057
-469.201	-118.520	0.256	0.046
-468.186	206.075	-0.175	0.273
-467.172	-44.541	-0.135	-0.068
-466.157	-20.638	0.060	0.037
-465.143	-57.137	0.095	-0.042
-464.128	58.083	0.363	0.357
-463.113	-127.566	0.059	0.009
-462.099	-125.410	0.033	0.005
-461.084	71.568	-0.142	0.148
-460.070	-59.229	0.287	-0.124
-459.055	37.003	-0.189	0.168
-458.040	83.416	-0.111	0.121
-457.026	108.769	0.314	0.377
-456.011	618.366	0.063	0.158
-454.997	-70.792	0.190	-0.072
-453.982	-99.316	0.080	-0.020
-452.968	643.871	0.050	0.128
-451.953	-127.230	0.295	0.043
-450.938	-90.553	0.344	-0.100
-449.924	136.822	-0.070	-0.092
-448.909	112.941	-0.071	-0.086
-447.895	-190.186	-0.042	0.000
-446.880	-200.000	-0.030	0.295
-445.865	-116.067	0.093	0.017
-444.851	-119.091	-0.113	0.020
-443.836	-137.413	0.313	-0.036
-442.822	97.505	0.234	-0.270
-441.807	-86.847	-0.298	-0.091
-440.792	-193.245	-0.370	0.003
-439.778	-33.920	-0.150	0.083
-438.763	-200.000	0.009	-0.096
-437.749	233.749	-0.061	0.101
-436.734	93.423	0.080	0.090
-435.719	249.267	-0.067	0.114
-434.705	-200.000	-0.034	0.174
-433.690	728.444	0.075	0.201
-432.676	245.720	-0.123	-0.207
-431.661	-200.000	-0.003	-0.025
-430.646	-14.149	0.154	-0.100
-429.632	-200.000	-0.037	0.171
-428.617	-33.907	0.178	-0.098
-427.603	104.853	0.088	0.104
-426.588	262.320	-0.042	0.074
-425.573	-129.127	-0.283	0.040
-424.559	800.000	0.023	0.094
-423.544	-81.746	0.141	0.046
-422.530	-33.508	0.271	0.150
-421.515	410.122	-0.100	0.212
-420.500	792.137	0.038	0.105
-419.486	195.381	-0.197	-0.300
-418.471	-94.776	-0.056	0.015
-417.457	800.000	-0.079	-0.271
-416.442	-109.026	-0.151	0.032
-415.428	-31.655	0.332	0.187
-414.413	-200.000	-0.003	-0.186
-413.398	-160.926	0.411	0.022
-412.384	-200.000	0.024	-0.222
-411.369	-200.000	0.059	-0.477
-410.355	-29.623	-0.237	-0.136
-409.340	-26.232	-0.166	0.098
-408.325	219.561	-0.100	-0.160
-407.311	663.203	-0.044	0.114
-406.296	124.556	-0.125	-0.157
-405.282	-123.336	-0.241	-0.039
-404.267	-141.081	0.181	0.019
-403.252	15.160	0.146	-0.114
-402.238	-50.435	0.172	0.081
-401.223	800.000	-0.025	0.109
-400.209	-128.317	-0.176	-0.025
-399.194	-158.692	0.248	0.014
-398.179	59.568	-0.071	-0.070
-397.165	-49.443	-0.085	0.041
-396.150	322.526	0.126	0.241
-395.136	284.164	0.200	-0.360
-394.121	148.094	0.123	-0.166
-393.106	28.287	0.081	0.069
-392.092	-200.000	0.012	0.147
-391.077	492.036	-0.064	-0.147
-390.063	-9.893	-0.053	0.035
-389.048	-13.051	0.080	-0.052
-388.033	11.878	0.130	-0.100
-387.019	788.387	-0.070	0.192
-386.004	800.000	0.058	-0.176
-384.990	-66.121	0.045	-0.018
-383.975	800.000	0.006	-0.024
-382.960	-122.466	-0.186	-0.030
-381.946	93.802	-0.180	-0.204
-380.931	800.000	-0.111	-0.372
-379.917	-200.000	-0.015	-0.319
-378.902	79.116	-0.051	-0.055
-377.888	650.032	0.091	-0.233
-376.873	316.878	0.095	-0.180
-375.858	-200.000	0.017	-0.218
-374.844	-86.495	0.187	-0.058
-373.829	-200.000	-0.018	-0.299
-372.815	-142.405	0.173	0.017
-371.800	-200.000	0.024	0.392
-370.785	228.476	-0.058	0.095
-369.771	-173.406	0.299	-0.009
-368.756	26.681	0.086	0.072
-367.742	126.195	0.033	-0.042
-366.727	800.000	0.066	0.231
-365.712	-88.270	-0.166	-0.050
-364.698	7.675	-0.181	-0.135
-363.683	-90.303	0.383	0.111
-362.669	-75.107	0.233	-0.083
-361.654	800.000	0.057	0.176
-360.639	59.594	-0.236	-0.233
-359.625	412.992	-0.010	0.022
-358.610	109.382	-0.217	-0.260
-357.596	-116.864	0.310	0.057
-356.581	-79.134	-0.513	-0.174
-355.566	-130.116	-0.282	0.038
-354.552	267.634	0.151	0.264
-353.537	130.782	-0.143	-0.184
-352.523	-98.906	0.123	0.031
-351.508	82.757	-0.117	-0.127
-350.493	-48.926	0.134	-0.064
-349.479	-101.774	-0.155	0.038
-348.464	-34.349	-0.258	0.141
-347.450	149.893	0.168	-0.227
-346.435	800.000	0.046	-0.155
-345.420	-200.000	0.032	-0.185
-344.406	-41.052	-0.042	0.022
-343.391	800.000	-0.066	0.198
-342.377	3.911	0.112	-0.082
-341.362	-161.326	0.330	-0.017
-340.348	-200.000	-0.050	-0.262
-339.333	295.847	0.097	0.177
-338.318	75.754	-0.198	0.209
-337.304	300.775	-0.067	-0.124
-336.289	-200.000	-0.019	0.456
-335.275	408.260	0.148	0.314
-334.260	140.954	0.103	-0.136
-333.245	-200.000	0.024	-0.172
-332.231	32.999	0.339	-0.294
-331.216	-200.000	-0.140	0.000
-330.202	166.400	-0.166	0.235
-329.187	2.953	-0.387	0.281
-328.172	-49.986	0.178	0.085
-327.158	65.279	0.080	-0.080
-326.143	-55.577	-0.161	0.072
-325.129	-194.297	-0.275	-0.002
-324.114	-105.295	0.016	-0.004
-323.099	104.570	0.231	-0.271
-322.085	-200.000	-0.039	-0.176
-321.070	127.904	0.260	-0.330
-320.056	668.723	-0.026	-0.066
-319.041	-38.824	-0.341	-0.180
-318.026	-50.671	0.193	0.091
-317.012	53.624	-0.121	0.116
-315.997	172.363	-0.134	0.193
-314.983	145.927	-0.071	0.095
-313.968	117.894	-0.026	-0.033
-312.953	573.983	0.063	0.155
-311.939	97.780	-0.166	0.191
-310.924	69.575	-0.262	0.269
-309.910	-17.668	0.109	0.068
-308.895	-54.786	-0.225	-0.101
-307.880	800.000	-0.019	-0.066
-306.866	183.905	-0.127	0.188
-305.851	-200.000	0.047	0.295
-304.837	72.493	0.118	0.123
-303.822	44.289	-0.223	0.204
-302.807	77.062	-0.239	-0.253
-301.793	5.872	0.046	-0.034
-300.778	-181.917	0.149	0.003
-299.764	-18.347	0.141	-0.088
-298.749	800.000	-0.023	0.097
-297.735	-48.257	0.255	0.123
-296.720	800.000	0.021	0.059
-295.705	49.183	0.149	-0.140
-294.691	-22.325	-0.251	0.152
-293.676	307.897	0.087	0.162
-292.662	80.386	0.077	-0.083
-291.647	18.013	-0.196	0.156
-290.632	-200.000	0.019	0.139
-289.618	78.411	-0.068	0.073
-288.603	343.004	-0.188	0.367
-287.589	242.190	-0.042	0.071
-286.574	-40.031	-0.145	0.075
-285.559	19.072	0.121	0.097
-284.545	-200.000	0.005	0.204
-283.530	63.628	0.071	-0.071
-282.516	-200.000	0.010	-0.134
-281.501	184.932	0.022	0.032
-280.486	26.114	-0.065	0.054
-279.472	131.998	-0.050	0.065
-278.457	207.058	-0.076	0.118
-277.443	-159.998	0.120	0.007
-276.428	-68.567	-0.392	0.151
-275.413	18.860	0.138	0.110
-274.399	-133.240	0.371	-0.047
-273.384	47.715	-0.180	-0.167
-272.370	68.616	0.082	0.084
-271.355	-60.000	0.153	0.065
-270.340	468.315	0.076	-0.170
-269.326	114.307	0.227	0.276
-268.311	-34.388	0.332	-0.181
-267.297	67.826	-0.149	0.152
-266.282	9.950	0.161	0.122
-265.267	-61.579	-0.170	-0.071
-264.253	331.535	-0.010	-0.020
-263.238	173.010	-0.174	0.250
-262.224	160.166	-0.143	0.199
-261.209	-93.204	0.194	0.054
-260.195	510.316	0.044	-0.101
-259.180	-30.540	-0.385	-0.217
-258.165	81.997	0.102	0.110
-257.151	-200.000	-0.001	-0.015
-256.136	-200.000	0.011	0.136
-255.122	-135.059	-0.318	-0.038
-254.107	5.814	0.144	0.106
-253.092	-200.000	0.056	-0.314
-252.078	-84.485	0.183	0.058
-251.063	51.118	-0.181	-0.171
-250.049	-14.714	0.064	0.041
-249.034	-71.411	0.156	-0.058
-248.019	342.557	-0.080	0.157
-247.005	-200.000	-0.039	-0.262
-245.990	-23.746	0.224	0.134
-244.976	800.000	-0.045	0.140
-243.961	-200.000	-0.009	-0.129
-242.946	-200.000	-0.009	-0.146
-241.932	740.786	0.085	0.227
-240.917	71.166	0.237	0.244
-239.903	498.038	-0.050	0.114
-238.888	34.242	-0.155	0.135
-237.873	257.440	0.208	-0.355
-236.859	-200.000	0.012	-0.076
-235.844	-200.000	0.034	0.174
-234.830	-91.155	-0.087	-0.025
-233.815	-99.852	0.418	-0.104
-232.800	52.970	-0.038	-0.036
-231.786	53.823	0.157	0.151
-230.771	-35.066	0.203	-0.110
-229.757	-6.848	0.272	-0.184
-228.742	75.597	-0.327	-0.344
-227.727	-46.315	-0.005	-0.002
-226.713	-142.300	-0.286	0.028
-225.698	693.439	-0.079	-0.206
-224.684	-18.438	-0.273	0.169
-223.669	-105.778	-0.098	0.022
-222.655	18.483	0.274	0.218
-221.640	-197.736	0.246	0.001
-220.625	5.539	-0.214	0.157
-219.611	-165.645	0.513	-0.022
-218.596	125.618	-0.139	-0.174
-217.582	76.725	-0.204	-0.215
-216.567	-200.000	0.035	0.236
-215.552	12.515	-0.101	0.077
-214.538	-153.827	0.164	0.011
-213.523	540.505	0.064	0.151
-212.509	800.000	0.019	0.079
-211.494	-20.526	0.205	0.125
-210.479	52.540	-0.124	-0.118
-209.465	-126.696	-0.101	0.015
-208.450	132.796	-0.208	0.267
-207.436	19.789	-0.109	0.087
-206.421	-1.359	0.042	0.030
-205.406	457.543	0.060	0.132
-204.392	-32.480	0.040	-0.022
-203.377	0.556	0.210	-0.150
-202.363	-200.000	-0.024	-0.147
-201.348	191.049	-0.090	0.135
-200.333	24.277	-0.026	-0.021
-199.319	179.571	-0.076	-0.110
-198.304	-93.601	-0.175	-0.048
-197.290	-109.824	0.321	-0.067
-196.275	-157.453	0.182	0.011
-195.260	-200.000	0.005	0.026
-194.246	-4.024	0.197	0.136
-193.231	800.000	0.051	-0.215
-192.217	-171.235	0.172	-0.006
-191.202	428.342	-0.061	0.132
-190.187	-67.010	-0.259	-0.101
-189.173	-200.000	0.021	0.200
-188.158	177.424	0.129	0.187
-187.144	-59.249	-0.028	0.012
-186.129	-143.914	-0.097	-0.009
-185.114	-4.621	0.131	0.090
-184.100	800.000	-0.035	-0.127
-183.085	-200.000	-0.016	0.071
-182.071	31.401	-0.221	-0.189
-181.056	-146.589	-0.188	-0.016
-180.042	-37.716	0.142	-0.075
-179.027	-200.000	0.031	0.186
-178.012	-46.774	0.287	-0.140
-176.998	-185.941	0.152	0.002
-175.983	139.521	0.033	0.043
-174.969	24.104	-0.052	0.042
-173.954	-200.000	-0.085	0.462
-172.939	707.288	-0.069	0.181
-171.925	-84.258	0.197	-0.062
-170.910	800.000	0.072	0.206
-169.896	-200.000	-0.010	-0.104
-168.881	-41.282	-0.034	0.017
-167.866	183.407	0.162	0.238
-166.852	-105.578	0.373	-0.084
-165.837	-36.955	-0.140	-0.074
-164.823	17.783	-0.223	0.176
-163.808	-47.049	-0.413	0.200
-162.793	-125.613	0.190	-0.029
-161.779	134.902	0.099	-0.128
-160.764	0.120	0.139	-0.098
-159.750	203.202	0.054	-0.083
-158.735	165.852	-0.178	0.250
-157.720	-200.000	-0.018	0.208
-156.706	-45.031	0.275	0.136
-155.691	-82.778	-0.189	0.061
-154.677	800.000	0.041	-0.147
-153.662	-200.000	-0.014	-0.212
-152.647	781.595	0.060	0.162
-151.633	-200.000	0.014	-0.228
-150.618	-15.558	0.166	0.105
-149.604	257.457	-0.213	0.363
-148.589	-200.000	-0.003	0.101
-147.574	4.616	-0.052	0.038
-146.560	-17.715	0.300	0.187
-145.545	67.864	0.110	-0.111
-144.531	-200.000	-0.004	0.157
-143.516	-124.792	-0.017	0.003
-142.502	598.482	0.128	-0.314
-141.487	800.000	0.014	-0.052
-140.472	-116.255	0.117	-0.022
-139.458	-62.528	-0.205	0.084
-138.443	223.323	-0.122	-0.195
-137.429	-200.000	0.006	0.160
-136.414	-68.039	-0.114	0.044
-135.399	31.001	-0.086	0.073
-134.385	800.000	-0.116	0.381
-133.370	-125.294	-0.191	-0.029
-132.356	-111.438	-0.359	-0.073
-131.341	-173.900	-0.057	0.002
-130.326	-152.181	0.320	0.023
-129.312	-86.562	0.099	-0.030
-128.297	119.102	-0.162	0.198
-127.283	-97.960	-0.236	-0.060
-126.268	-116.943	-0.288	0.052
-125.253	157.922	-0.184	-0.253
-124.239	-21.089	0.053	-0.032
-123.224	800.000	0.084	0.254
-122.210	-200.000	0.035	-0.160
-121.195	-200.000	-0.010	0.093
