DTS Sentinel unit serial number:	SN413079Multiplexer serial number:	ORYXHardware model number:	OX4-SRSoftware version number:	ORYX F/W v4.00 Oryx Data Collector v3.7.2.0data status	okinstallation	princeton_trtdifferential loss correction	single-endedforward channel	channel 3reverse channel	N/Adate	2019/09/16time	21:56:34forward acquisition time	60.00reverse acquisition time	0.00gamma	496.2192k internal	0.2325k external	0.2325temperature offset calibration	0.9938default loss term (dB/km)	0.3790temperature slope calibration	1.0000multiplexer offset coefficient	1.0000multiplexer slope coefficient	1.0000fibre end	0.00T internal ref (°C)	31.19T ext. ref 1 (°C)	0.06T ext. ref 2 (°C)	25.51length (m)	temperature (°C)	Stokes	anti-Stokes-747.200	800.000	-0.120	0.378
-746.185	11.551	0.476	0.368
-745.171	800.000	0.068	0.257
-744.156	-36.237	-0.149	-0.081
-743.142	800.000	-0.025	-0.104
-742.127	-149.670	0.171	-0.014
-741.112	-200.000	0.056	-0.341
-740.098	-21.095	-0.215	0.133
-739.083	-92.895	-0.176	0.050
-738.069	-200.000	0.023	-0.286
-737.054	164.130	0.126	0.179
-736.039	-200.000	-0.020	-0.197
-735.025	-82.727	0.283	0.092
-734.010	560.408	0.039	0.094
-732.996	337.059	-0.150	-0.293
-731.981	390.829	-0.022	0.045
-730.966	331.458	0.104	-0.202
-729.952	800.000	-0.059	0.175
-728.937	800.000	-0.133	-0.383
-727.923	496.803	0.101	-0.235
-726.908	-124.894	-0.153	-0.024
-725.894	338.133	0.081	-0.159
-724.879	-4.254	0.271	-0.189
-723.864	-200.000	0.072	-0.355
-722.850	233.594	-0.140	-0.232
-721.835	-200.000	-0.014	-0.338
-720.821	-200.000	0.003	0.142
-719.806	800.000	-0.077	-0.315
-718.791	-27.629	0.064	0.037
-717.777	-155.248	-0.368	0.024
-716.762	219.067	-0.190	-0.306
-715.748	20.924	0.193	0.158
-714.733	800.000	-0.024	-0.066
-713.718	666.376	0.077	0.200
-712.704	517.120	-0.069	-0.163
-711.689	-147.589	0.119	0.010
-710.675	5.141	-0.239	-0.177
-709.660	-138.459	0.146	0.016
-708.645	-200.000	-0.006	0.207
-707.631	-165.241	-0.077	0.003
-706.616	248.813	0.137	0.233
-705.602	-155.894	0.377	-0.024
-704.587	13.194	0.093	-0.073
-703.572	91.309	0.150	-0.170
-702.558	-77.012	-0.142	0.050
-701.543	66.146	0.140	0.143
-700.529	117.667	0.134	0.167
-699.514	800.000	-0.105	0.375
-698.499	316.610	-0.016	0.031
-697.485	307.156	-0.107	-0.200
-696.470	-35.888	-0.197	0.107
-695.456	800.000	0.050	0.158
-694.441	-200.000	-0.020	-0.145
-693.426	-126.518	0.181	0.027
-692.412	108.322	0.186	-0.223
-691.397	397.847	-0.126	-0.265
-690.383	-49.737	-0.478	0.229
-689.368	242.528	0.257	-0.432
-688.354	-44.997	-0.143	-0.071
-687.339	341.727	0.102	-0.202
-686.324	772.519	-0.070	-0.192
-685.310	3.067	-0.137	0.100
-684.295	-4.663	-0.245	-0.170
-683.281	4.399	0.084	0.062
-682.266	-104.508	-0.075	0.017
-681.251	96.592	0.106	-0.122
-680.237	-25.079	-0.161	-0.096
-679.222	88.732	0.113	-0.127
-678.208	-38.445	-0.087	0.046
-677.193	-148.200	-0.166	-0.014
-676.178	115.111	0.243	-0.298
-675.164	500.868	-0.067	0.156
-674.149	227.664	-0.066	-0.108
-673.135	14.525	-0.046	0.036
-672.120	-135.688	-0.367	-0.044
-671.105	-45.336	0.059	0.029
-670.091	-21.422	0.125	0.077
-669.076	-7.674	0.225	-0.153
-668.062	32.894	0.040	0.035
-667.047	-123.597	-0.202	-0.032
-666.032	-62.388	-0.153	-0.064
-665.018	800.000	-0.125	-0.387
-664.003	360.314	0.112	-0.225
-662.989	-108.721	0.245	-0.053
-661.974	-200.000	-0.005	0.235
-660.959	-67.332	0.014	-0.006
-659.945	-200.000	0.006	-0.099
-658.930	9.803	0.259	0.198
-657.916	562.004	0.081	0.198
-656.901	800.000	-0.157	0.456
-655.886	-86.399	-0.211	-0.065
-654.872	28.160	0.094	-0.080
-653.857	112.808	-0.065	0.080
-652.843	82.807	0.066	-0.072
-651.828	350.302	0.140	-0.278
-650.814	-172.195	0.276	0.009
-649.799	-129.782	0.165	-0.023
-648.784	46.516	-0.262	-0.244
-647.770	3.790	-0.067	-0.049
-646.755	63.706	0.291	-0.294
-645.741	-8.465	-0.104	-0.070
-644.726	83.127	0.103	0.113
-643.711	-167.283	-0.219	0.009
-642.697	-49.940	-0.430	0.205
-641.682	44.629	0.202	0.187
-640.668	-39.515	-0.038	-0.020
-639.653	89.315	-0.259	0.290
-638.638	-53.825	-0.236	-0.108
-637.624	148.514	0.177	-0.240
-636.609	246.031	0.076	0.128
-635.595	-85.571	-0.082	-0.026
-634.580	-4.589	0.236	-0.164
-633.565	-91.886	0.228	-0.065
-632.551	-18.736	-0.278	0.174
-631.536	-31.556	-0.157	-0.089
-630.522	-200.000	0.001	0.007
-629.507	605.826	-0.132	-0.330
-628.492	-32.684	-0.097	-0.054
-627.478	-95.008	-0.158	0.043
-626.463	-109.116	0.121	0.026
-625.449	-186.413	0.217	-0.003
-624.434	-94.584	0.115	-0.032
-623.419	459.532	0.037	-0.082
-622.405	-118.126	-0.406	0.073
-621.390	-52.612	0.418	-0.194
-620.376	126.492	0.072	0.092
-619.361	-139.303	-0.226	0.024
-618.346	474.895	0.101	-0.230
-617.332	80.477	-0.326	-0.353
-616.317	-71.180	0.140	-0.053
-615.303	-29.172	-0.295	0.170
-614.288	443.604	0.077	0.169
-613.273	-100.231	-0.170	0.043
-612.259	-82.990	-0.136	-0.044
-611.244	-100.344	0.301	-0.075
-610.230	-93.885	-0.405	0.112
-609.215	22.474	-0.083	0.068
-608.201	800.000	-0.062	0.198
-607.186	23.677	0.200	0.166
-606.171	-91.952	0.075	0.021
-605.157	-7.323	0.084	-0.057
-604.142	129.388	-0.028	-0.036
-603.128	-43.187	0.224	-0.114
-602.113	148.750	0.308	0.418
-601.098	-49.470	0.262	0.125
-600.084	800.000	-0.125	0.478
-599.069	-3.501	-0.063	-0.044
-598.055	-109.771	-0.117	-0.025
-597.040	800.000	0.071	-0.257
-596.025	-200.000	-0.073	0.467
-595.011	220.449	-0.040	-0.065
-593.996	58.647	0.198	0.195
-592.982	95.638	-0.059	-0.067
-591.967	-200.000	0.006	-0.063
-590.952	-117.856	0.151	-0.027
-589.938	52.050	-0.108	-0.103
-588.923	227.166	-0.102	-0.166
-587.909	-68.639	0.127	-0.050
-586.894	-70.213	0.067	-0.026
-585.879	-106.056	0.056	-0.013
-584.865	-200.000	0.023	0.126
-583.850	5.918	-0.089	0.066
-582.836	-67.787	-0.285	0.112
-581.821	-85.532	-0.271	-0.085
-580.806	-200.000	0.084	-0.000
-579.792	-200.000	-0.079	0.530
-578.777	308.907	0.081	-0.152
-577.763	-200.000	-0.021	-0.404
-576.748	-27.515	0.141	0.082
-575.733	-144.062	0.107	-0.010
-574.719	28.349	0.256	0.216
-573.704	166.822	-0.105	0.149
-572.690	366.704	0.043	-0.087
-571.675	566.541	0.071	0.172
-570.661	800.000	-0.057	-0.199
-569.646	800.000	-0.072	-0.270
-568.631	-63.063	0.100	0.042
-567.617	-200.000	-0.034	0.263
-566.602	-162.326	-0.074	0.004
-565.588	-29.753	0.358	0.205
-564.573	523.276	-0.063	0.149
-563.558	437.572	0.017	-0.038
-562.544	-115.478	0.259	-0.049
-561.529	800.000	0.063	-0.228
-560.515	156.181	-0.029	0.040
-559.500	-200.000	0.056	0.380
-558.485	231.056	-0.021	0.034
-557.471	6.125	0.110	-0.082
-556.456	117.383	-0.113	-0.140
-555.442	90.706	0.132	-0.148
-554.427	16.137	0.146	0.115
-553.412	800.000	0.063	-0.181
-552.398	-29.094	0.294	-0.169
-551.383	123.682	-0.219	-0.275
-550.369	-47.890	0.245	-0.119
-549.354	100.482	-0.164	-0.191
-548.339	-200.000	0.009	0.178
-547.325	-73.268	-0.087	-0.032
-546.310	-108.493	0.127	0.027
-545.296	-68.054	-0.064	0.025
-544.281	174.758	-0.142	0.205
-543.266	-1.765	0.339	-0.239
-542.252	-200.000	0.016	-0.232
-541.237	-60.956	-0.046	-0.019
-540.223	-200.000	0.102	0.722
-539.208	303.972	-0.078	-0.145
-538.193	800.000	-0.107	-0.424
-537.179	800.000	-0.073	-0.291
-536.164	252.147	-0.107	-0.182
-535.150	-62.296	0.214	-0.089
-534.135	800.000	-0.033	-0.099
-533.121	681.553	0.069	-0.179
-532.106	-133.589	-0.092	0.012
-531.091	800.000	0.006	-0.022
-530.077	800.000	-0.097	-0.277
-529.062	389.946	-0.124	0.258
-528.048	259.044	-0.099	-0.171
-527.033	-55.943	-0.224	0.100
-526.018	-137.653	-0.128	-0.014
-525.004	-127.627	0.098	-0.014
-523.989	-200.000	0.005	0.051
-522.975	40.449	0.169	-0.152
-521.960	-94.560	0.203	-0.055
-520.945	-67.229	-0.144	-0.057
-519.931	766.847	-0.099	-0.268
-518.916	84.872	-0.160	-0.175
-517.902	90.330	-0.109	0.121
-516.887	-53.365	0.329	0.151
-515.872	-76.173	-0.134	0.047
-514.858	800.000	-0.112	-0.370
-513.843	-107.932	0.456	-0.099
-512.829	-200.000	-0.011	-0.102
-511.814	-200.000	0.000	0.020
-510.799	-200.000	-0.079	-0.428
-509.785	-79.705	0.096	-0.032
-508.770	-88.281	0.423	0.127
-507.756	-200.000	-0.008	-0.043
-506.741	-44.867	-0.342	-0.170
-505.726	-193.057	-0.048	0.000
-504.712	69.109	-0.084	-0.086
-503.697	-125.223	0.527	-0.081
-502.683	423.924	-0.105	0.225
-501.668	-154.743	-0.118	0.008
-500.653	-107.775	-0.113	0.025
-499.639	-107.346	-0.328	-0.072
-498.624	800.000	0.099	0.290
-497.610	499.964	0.039	0.090
-496.595	42.293	-0.064	-0.058
-495.581	800.000	0.040	-0.159
-494.566	251.357	0.086	0.147
-493.551	-143.313	-0.494	-0.047
-492.537	366.137	0.196	0.395
-491.522	-22.968	-0.148	0.089
-490.508	44.311	0.207	0.190
-489.493	123.856	-0.123	-0.155
-488.478	-20.683	0.123	0.076
-487.464	-101.600	-0.112	0.027
-486.449	800.000	-0.050	0.162
-485.435	161.953	0.162	0.227
-484.420	-136.778	-0.282	-0.032
-483.405	-80.213	0.162	0.054
-482.391	-200.000	0.011	-0.235
-481.376	394.190	-0.030	0.063
-480.362	-9.065	0.186	0.125
-479.347	89.987	-0.040	-0.045
-478.332	-200.000	-0.008	0.221
-477.318	0.145	0.196	0.140
-476.303	-49.644	0.387	0.184
-475.289	-85.919	-0.340	0.105
-474.274	-96.102	0.016	0.004
-473.259	-51.800	-0.370	0.172
-472.245	-30.658	0.208	0.118
-471.230	110.209	0.162	0.194
-470.216	244.182	0.089	0.149
-469.201	-200.000	0.015	0.106
-468.186	-24.883	0.316	-0.187
-467.172	-117.983	0.155	-0.028
-466.157	-3.939	0.205	-0.142
-465.143	-200.000	-0.030	-0.173
-464.128	800.000	0.027	-0.083
-463.113	-200.000	-0.039	-0.281
-462.099	-83.566	0.354	-0.113
-461.084	-44.220	-0.204	-0.102
-460.070	321.483	-0.082	0.156
-459.055	-24.296	0.136	-0.081
-458.040	-174.225	0.057	0.002
-457.026	-0.834	-0.328	0.232
-456.011	44.629	-0.200	-0.183
-454.997	800.000	0.058	-0.203
-453.982	-101.667	0.137	-0.033
-452.968	88.068	-0.160	-0.177
-451.953	580.988	0.112	0.274
-450.938	-200.000	-0.022	-0.115
-449.924	367.686	-0.179	-0.360
-448.909	-200.000	0.001	-0.137
-447.895	800.000	-0.073	0.213
-446.880	-200.000	-0.031	0.260
-445.865	800.000	-0.036	-0.106
-444.851	-114.198	-0.195	0.038
-443.836	-143.192	-0.244	0.023
-442.822	-200.000	-0.022	0.309
-441.807	-160.551	-0.242	0.013
-440.792	293.701	-0.119	-0.218
-439.778	103.399	0.174	0.204
-438.763	-45.361	0.225	-0.111
-437.749	-84.327	0.224	0.071
-436.734	96.771	-0.234	-0.267
-435.719	-126.780	0.253	-0.037
-434.705	-170.540	-0.123	0.004
-433.690	-20.351	-0.098	-0.060
-432.676	-159.725	0.416	-0.023
-431.661	-59.688	0.340	0.145
-430.646	289.253	-0.168	-0.304
-429.632	767.461	-0.010	-0.026
-428.617	40.476	0.138	0.124
-427.603	169.895	0.093	-0.132
-426.588	219.219	-0.117	-0.187
-425.573	-174.644	0.267	0.008
-424.559	390.459	-0.056	-0.117
-423.544	-124.593	-0.211	-0.033
-422.530	-200.000	-0.071	0.000
-421.515	800.000	0.048	0.196
-420.500	800.000	-0.059	0.191
-419.486	3.695	-0.339	-0.246
-418.471	68.413	-0.198	-0.202
-417.457	100.448	-0.092	0.106
-416.442	-81.388	0.009	-0.003
-415.428	-174.438	-0.165	-0.005
-414.413	61.887	-0.092	-0.092
-413.398	-173.940	-0.430	0.013
-412.384	800.000	0.069	0.206
-411.369	-118.229	-0.194	-0.034
-410.355	496.857	0.167	0.383
-409.340	-103.828	-0.101	0.024
-408.325	-200.000	0.014	-0.221
-407.311	-148.241	0.471	0.039
-406.296	268.361	-0.053	-0.093
-405.282	-13.798	0.256	0.165
-404.267	21.050	0.444	-0.359
-403.252	-128.431	0.198	0.028
-402.238	200.407	-0.198	0.304
-401.223	-46.147	0.305	-0.150
-400.209	284.140	-0.120	-0.215
-399.194	-2.308	-0.044	-0.031
-398.179	-200.000	0.001	-0.180
-397.165	-200.000	0.024	0.155
-396.150	-155.946	0.333	-0.021
-395.136	-10.922	0.178	0.117
-394.121	-5.922	0.228	-0.156
-393.106	-200.000	-0.060	-0.329
-392.092	265.490	0.123	0.213
-391.077	800.000	-0.053	-0.157
-390.063	-200.000	-0.014	-0.140
-389.048	-60.771	-0.268	0.113
-388.033	-181.099	0.307	-0.006
-387.019	-67.423	0.201	0.078
-386.004	800.000	0.027	0.079
-384.990	385.177	-0.073	-0.149
-383.975	194.941	0.077	0.117
-382.960	800.000	0.032	0.091
-381.946	-80.324	-0.147	-0.049
-380.931	-200.000	-0.008	-0.037
-379.917	-200.000	0.002	-0.069
-378.902	800.000	0.018	-0.060
-377.888	246.101	-0.060	-0.101
-376.873	-68.496	0.085	0.033
-375.858	-4.574	0.116	-0.080
-374.844	188.553	0.080	0.119
-373.829	-42.179	0.227	-0.115
-372.815	271.663	-0.127	0.223
-371.800	-97.305	-0.119	-0.031
-370.785	4.643	-0.392	-0.286
-369.771	618.950	-0.091	0.229
-368.756	-159.466	0.171	-0.009
-367.742	358.341	-0.027	0.053
-366.727	-173.595	0.080	0.002
-365.712	778.606	0.085	0.230
-364.698	137.012	-0.205	0.266
-363.683	800.000	-0.076	-0.236
-362.669	-176.277	0.370	-0.010
-361.654	76.151	0.172	-0.181
-360.639	444.169	-0.166	0.362
-359.625	-200.000	-0.004	0.121
-358.610	419.593	0.110	-0.235
-357.596	-200.000	-0.003	0.047
-356.581	800.000	0.081	0.294
-355.566	218.407	-0.207	0.329
-354.552	111.143	0.335	-0.401
-353.537	712.335	-0.123	0.324
-352.523	-121.689	-0.102	-0.017
-351.508	-147.798	0.464	0.039
-350.493	376.025	-0.111	0.226
-349.479	-26.375	0.458	-0.267
-348.464	27.169	-0.213	-0.178
-347.450	50.317	0.147	0.138
-346.435	-99.332	-0.134	0.034
-345.420	-127.984	0.224	0.032
-344.406	124.251	0.184	0.229
-343.391	5.925	0.075	-0.055
-342.377	-5.860	0.199	0.135
-341.362	-45.407	0.216	0.106
-340.348	800.000	-0.086	0.316
-339.333	-55.516	0.041	0.018
-338.318	38.295	0.349	0.309
-337.304	-101.832	-0.257	-0.062
-336.289	-139.076	-0.123	0.013
-335.275	-61.880	-0.154	0.064
-334.260	-70.539	0.168	-0.063
-333.245	181.285	-0.144	0.210
-332.231	157.302	0.200	-0.275
-331.216	-200.000	-0.010	-0.202
-330.202	356.451	-0.120	-0.238
-329.187	800.000	-0.046	0.151
-328.172	22.747	0.037	0.030
-327.158	-31.652	0.077	-0.043
-326.143	800.000	0.062	0.216
-325.129	188.352	0.034	0.050
-324.114	15.553	-0.318	-0.248
-323.099	180.718	-0.114	-0.166
-322.085	140.775	0.126	-0.165
-321.070	800.000	0.091	0.295
-320.056	-200.000	0.035	-0.201
-319.041	-1.045	0.225	0.158
-318.026	-90.599	0.310	-0.089
-317.012	205.614	-0.172	0.265
-315.997	-36.025	0.191	-0.103
-314.983	-45.735	-0.208	-0.102
-313.968	-46.246	-0.037	0.018
-312.953	800.000	0.044	-0.140
-311.939	-119.247	-0.229	0.040
-310.924	-200.000	0.015	0.340
-309.910	-127.455	-0.244	-0.035
-308.895	-27.980	0.456	0.262
-307.880	-200.000	-0.012	-0.060
-306.866	-87.743	0.203	0.061
-305.851	-200.000	0.005	-0.223
-304.837	-200.000	-0.002	0.203
-303.822	-200.000	-0.038	0.281
-302.807	-179.018	-0.220	-0.005
-301.793	63.737	-0.085	0.085
-300.778	-46.237	0.332	-0.162
-299.764	39.180	-0.195	0.173
-298.749	-200.000	-0.014	0.189
-297.735	635.893	-0.174	0.439
-296.720	220.347	0.014	-0.022
-295.705	800.000	-0.070	0.286
-294.691	68.219	-0.135	0.138
-293.676	-200.000	0.023	0.119
-292.662	-120.900	0.251	-0.042
-291.647	-25.906	0.124	0.073
-290.632	5.698	-0.117	0.085
-289.618	800.000	0.106	-0.294
-288.603	121.222	-0.177	0.219
-287.589	32.332	0.159	0.136
-286.574	-200.000	-0.070	0.316
-285.559	800.000	-0.061	-0.177
-284.545	-58.962	0.099	0.042
-283.530	145.535	-0.167	-0.222
-282.516	266.548	0.135	-0.233
-281.501	-101.748	-0.292	-0.070
-280.486	-19.942	-0.207	-0.126
-279.472	-114.076	-0.137	0.026
-278.457	89.064	-0.174	0.192
-277.443	-200.000	-0.001	-0.010
-276.428	225.867	-0.108	0.173
-275.413	689.224	0.192	-0.499
-274.399	-200.000	-0.042	-0.408
-273.384	-200.000	0.008	0.082
-272.370	173.586	-0.058	-0.083
-271.355	531.359	-0.106	-0.248
-270.340	260.193	0.131	0.225
-269.326	-118.802	-0.244	0.043
-268.311	-77.262	-0.257	0.089
-267.297	701.873	-0.066	-0.173
-266.282	-127.513	0.304	-0.044
-265.267	-175.901	-0.237	0.006
-264.253	239.573	-0.115	0.190
-263.238	-103.196	0.075	-0.018
-262.224	800.000	-0.096	0.321
-261.209	-200.000	-0.025	0.211
-260.195	302.155	0.024	0.045
-259.180	800.000	-0.103	-0.305
-258.165	-17.257	-0.103	0.064
-257.151	-96.205	-0.287	0.076
-256.136	557.899	0.214	-0.512
-255.122	-200.000	0.035	0.194
-254.107	-200.000	-0.042	0.431
-253.092	-79.184	-0.194	0.065
-252.078	-121.762	0.096	0.016
-251.063	-200.000	0.009	0.184
-250.049	-200.000	-0.017	0.191
-249.034	50.187	0.370	-0.346
-248.019	449.620	0.105	0.229
-247.005	-200.000	-0.033	-0.198
-245.990	800.000	0.087	-0.280
-244.976	-137.661	0.191	0.021
-243.961	183.589	-0.085	0.125
-242.946	-200.000	0.016	0.374
-241.932	100.565	0.094	-0.108
-240.917	-72.427	0.253	0.092
-239.903	-51.077	-0.546	-0.254
-238.888	31.251	-0.198	-0.168
-237.873	800.000	-0.084	-0.344
-236.859	-77.534	-0.348	0.119
-235.844	-121.827	0.007	0.001
-234.830	32.014	-0.161	-0.138
-233.815	-200.000	-0.024	-0.189
-232.800	-119.086	0.278	-0.048
-231.786	-200.000	-0.004	-0.035
-230.771	-20.946	-0.130	0.079
-229.757	-117.171	-0.411	0.074
-228.742	-87.595	-0.333	-0.100
-227.727	608.573	0.020	0.050
-226.713	-52.514	0.225	-0.103
-225.698	714.671	0.070	-0.183
-224.684	800.000	0.045	0.144
-223.669	-200.000	-0.023	-0.117
-222.655	-200.000	-0.020	-0.203
-221.640	308.632	-0.075	0.138
-220.625	-200.000	-0.023	0.147
-219.611	97.021	-0.081	-0.092
-218.596	-81.875	0.265	-0.086
-217.582	397.875	0.082	0.169
-216.567	-200.000	-0.011	0.109
-215.552	15.308	-0.071	0.055
-214.538	64.416	-0.184	0.183
-213.523	-170.080	0.401	-0.014
-212.509	-83.925	-0.220	-0.069
-211.494	49.806	-0.171	-0.159
-210.479	23.316	-0.263	0.214
-209.465	-60.055	-0.087	-0.037
-208.450	-90.639	0.105	0.030
-207.436	172.168	-0.218	0.309
-206.421	-200.000	0.001	0.174
-205.406	-200.000	-0.054	-0.318
-204.392	-200.000	-0.022	-0.368
-203.377	377.939	0.055	-0.111
-202.363	-116.315	0.393	0.072
-201.348	-88.027	0.337	-0.100
-200.333	560.988	0.203	-0.485
-199.319	-67.751	-0.048	-0.019
-198.304	800.000	-0.067	0.278
-197.290	-200.000	0.013	-0.459
-196.275	-200.000	-0.054	-0.248
-195.260	-57.342	-0.320	0.139
-194.246	335.703	0.075	0.143
-193.231	397.088	-0.075	0.155
-192.217	250.945	-0.126	-0.212
-191.202	259.001	-0.104	-0.177
-190.187	227.557	0.073	-0.117
-189.173	324.729	0.159	-0.300
-188.158	308.360	0.085	-0.156
-187.144	800.000	-0.095	0.343
-186.129	59.219	0.169	0.164
-185.114	114.244	-0.119	0.143
-184.100	202.323	-0.085	-0.130
-183.085	55.026	-0.201	0.192
-182.071	-54.824	-0.168	0.075
-181.056	-64.666	-0.224	-0.090
-180.042	-51.113	0.139	0.064
-179.027	-56.438	-0.348	-0.152
-178.012	-93.866	0.048	0.013
-176.998	757.351	0.231	0.617
-175.983	-46.065	-0.109	0.053
-174.969	-200.000	0.028	-0.135
-173.954	150.366	-0.148	-0.198
-172.939	515.813	-0.077	0.177
-171.925	18.288	0.224	-0.176
-170.910	-200.000	0.004	-0.127
-169.896	-105.705	-0.230	0.051
-168.881	-200.000	-0.020	0.107
-167.866	119.195	0.112	-0.137
-166.852	-200.000	-0.017	0.175
-165.837	-200.000	0.004	-0.220
-164.823	730.418	0.037	0.098
-163.808	-100.859	-0.230	0.056
-162.793	-128.400	-0.138	-0.019
-161.779	-200.000	-0.012	0.190
-160.764	495.186	0.117	0.266
-159.750	800.000	-0.027	-0.077
-158.735	-200.000	0.036	-0.173
-157.720	800.000	0.050	-0.180
-156.706	2.779	0.146	-0.104
-155.691	99.358	-0.170	0.194
-154.677	800.000	-0.108	0.297
-153.662	-39.951	-0.104	-0.054
-152.647	-97.912	0.164	-0.042
-151.633	-200.000	0.029	-0.126
-150.618	-113.472	-0.036	0.007
-149.604	800.000	-0.067	-0.197
-148.589	800.000	0.034	-0.110
-147.574	-154.636	-0.106	-0.007
-146.560	-140.666	0.151	-0.015
-145.545	381.674	0.093	-0.187
-144.531	-35.334	-0.041	0.022
-143.516	399.583	-0.053	-0.109
-142.502	-112.745	0.069	-0.014
-141.487	660.104	0.049	-0.124
-140.472	800.000	0.049	0.153
-139.458	-10.336	0.277	-0.181
-138.443	-97.150	0.330	-0.085
-137.429	-200.000	-0.058	0.290
-136.414	800.000	-0.033	-0.132
-135.399	42.507	0.255	-0.229
-134.385	-97.642	-0.411	-0.105
-133.370	334.583	-0.072	0.137
-132.356	105.153	-0.330	0.383
-131.341	-100.967	0.156	0.038
-130.326	-62.181	-0.334	-0.137
-129.312	-109.292	0.129	0.027
-128.297	-145.621	-0.319	0.028
-127.283	51.964	0.249	-0.234
-126.268	800.000	-0.050	-0.200
-125.253	32.153	-0.167	-0.142
-124.239	-66.952	0.164	-0.064
-123.224	766.096	-0.067	0.180
-122.210	-200.000	-0.025	-0.363
