DTS Sentinel unit serial number:	SN413079Multiplexer serial number:	ORYXHardware model number:	OX4-SRSoftware version number:	ORYX F/W v4.00 Oryx Data Collector v3.7.2.0data status	okinstallation	princeton_trtdifferential loss correction	single-endedforward channel	channel 3reverse channel	N/Adate	2019/09/12time	11:26:11forward acquisition time	60.00reverse acquisition time	0.00gamma	496.2192k internal	0.2294k external	0.2294temperature offset calibration	1.0040default loss term (dB/km)	0.3790temperature slope calibration	1.0000multiplexer offset coefficient	1.0000multiplexer slope coefficient	1.0000fibre end	0.00T internal ref (°C)	39.25T ext. ref 1 (°C)	1.98T ext. ref 2 (°C)	36.59length (m)	temperature (°C)	Stokes	anti-Stokes-747.200	377.158	0.096	0.200
-746.185	-8.946	-0.033	0.022
-745.171	365.446	0.142	0.294
-744.156	-200.000	-0.003	-0.077
-743.142	119.584	0.141	-0.179
-742.127	323.512	0.065	-0.127
-741.112	-200.000	0.015	0.091
-740.098	274.030	0.107	0.193
-739.083	91.261	-0.074	0.085
-738.069	-83.241	0.049	-0.016
-737.054	232.058	0.215	0.361
-736.039	56.060	-0.105	0.104
-735.025	800.000	-0.111	0.429
-734.010	-8.488	-0.044	0.030
-732.996	-200.000	0.007	-0.244
-731.981	95.370	-0.172	-0.200
-730.966	-167.569	-0.061	-0.002
-729.952	0.198	-0.027	0.020
-728.937	-95.595	0.149	0.041
-727.923	216.288	0.125	-0.203
-726.908	-118.060	-0.153	-0.028
-725.894	-200.000	-0.004	-0.337
-724.879	-11.871	-0.440	-0.295
-723.864	81.185	-0.253	0.279
-722.850	800.000	0.061	0.184
-721.835	-200.000	0.037	0.246
-720.821	-97.353	0.379	-0.101
-719.806	-57.123	0.056	0.025
-718.791	426.918	-0.158	-0.349
-717.777	-9.847	0.179	-0.122
-716.762	299.988	-0.062	0.117
-715.748	-14.736	-0.189	0.124
-714.733	87.440	-0.249	-0.281
-713.718	-200.000	0.034	-0.403
-712.704	-135.801	-0.310	0.037
-711.689	468.744	-0.141	-0.324
-710.675	134.475	-0.022	-0.029
-709.660	-200.000	-0.040	-0.500
-708.645	-46.561	-0.198	-0.099
-707.631	18.772	0.157	-0.129
-706.616	-55.805	-0.405	-0.185
-705.602	84.608	0.178	0.198
-704.587	-60.331	-0.137	0.059
-703.572	222.098	0.078	-0.128
-702.558	275.906	0.250	-0.453
-701.543	-90.702	0.188	-0.055
-700.529	-39.932	-0.287	-0.153
-699.514	-200.000	0.021	0.203
-698.499	800.000	0.033	0.117
-697.485	-21.764	-0.164	-0.102
-696.470	45.766	0.090	-0.085
-695.456	800.000	-0.082	0.268
-694.441	198.158	-0.120	0.187
-693.426	228.341	0.129	0.214
-692.412	38.852	-0.092	0.084
-691.397	-200.000	0.058	0.261
-690.383	-0.835	-0.208	0.150
-689.368	326.310	0.022	-0.043
-688.354	378.274	0.175	-0.366
-687.339	800.000	-0.035	-0.141
-686.324	-45.776	-0.204	0.103
-685.310	-200.000	0.004	-0.199
-684.295	161.218	0.122	0.174
-683.281	67.543	0.300	-0.313
-682.266	-161.847	-0.181	0.009
-681.251	258.435	0.071	-0.124
-680.237	-168.742	-0.128	0.005
-679.222	-135.566	-0.232	-0.028
-678.208	34.707	0.088	-0.078
-677.193	118.325	0.095	-0.120
-676.178	-200.000	-0.371	-0.001
-675.164	-117.007	0.057	0.011
-674.149	-104.066	0.190	-0.045
-673.135	201.530	-0.115	-0.180
-672.120	-200.000	0.010	-0.189
-671.105	115.204	0.136	-0.170
-670.091	-155.540	-0.358	-0.024
-669.076	-12.791	0.042	0.028
-668.062	-7.010	0.222	0.154
-667.047	-134.151	0.217	0.027
-666.032	-152.136	0.177	0.013
-665.018	-200.000	0.001	0.371
-664.003	-18.163	-0.197	0.126
-662.989	-36.378	-0.056	-0.031
-661.974	-200.000	-0.023	0.154
-660.959	800.000	0.055	0.156
-659.945	-50.107	-0.184	-0.089
-658.930	-115.583	0.361	-0.069
-657.916	214.324	-0.058	-0.093
-656.901	-200.000	-0.010	0.434
-655.886	800.000	-0.028	0.080
-654.872	680.940	-0.149	-0.395
-653.857	800.000	-0.023	-0.075
-652.843	-200.000	0.002	-0.373
-651.828	353.578	-0.163	0.329
-650.814	77.509	-0.036	0.039
-649.799	-100.037	-0.078	-0.020
-648.784	-137.096	0.130	0.015
-647.770	-85.665	0.102	-0.032
-646.755	131.568	-0.116	-0.152
-645.741	800.000	-0.076	-0.306
-644.726	800.000	-0.093	-0.304
-643.711	133.864	0.058	0.076
-642.697	13.602	-0.207	0.163
-641.682	520.252	-0.140	0.335
-640.668	537.248	0.058	0.140
-639.653	-133.937	-0.126	-0.016
-638.638	-44.010	-0.183	-0.093
-637.624	273.993	-0.139	0.251
-636.609	-200.000	0.012	0.160
-635.595	314.763	0.100	0.193
-634.580	23.729	-0.090	-0.075
-633.565	-200.000	-0.067	0.450
-632.551	63.593	-0.064	0.065
-631.536	42.327	0.025	0.023
-630.522	287.398	0.104	-0.191
-629.507	57.997	-0.166	-0.165
-628.492	71.948	-0.197	0.209
-627.478	-8.402	0.035	0.024
-626.463	163.264	0.038	-0.054
-625.449	-81.604	0.058	-0.020
-624.434	-109.212	0.209	0.045
-623.419	-200.000	-0.034	0.381
-622.405	-200.000	-0.008	-0.301
-621.390	-126.830	-0.430	-0.065
-620.376	800.000	-0.098	0.361
-619.361	-102.789	0.072	-0.017
-618.346	279.963	-0.191	0.347
-617.332	-168.982	0.336	0.013
-616.317	-60.191	0.258	-0.112
-615.303	-200.000	-0.007	-0.333
-614.288	-200.000	0.014	-0.168
-613.273	-78.162	0.045	0.016
-612.259	-102.675	0.323	-0.078
-611.244	-49.507	-0.319	-0.155
-610.230	-80.947	0.118	-0.040
-609.215	-200.000	-0.013	0.152
-608.201	-200.000	0.025	0.115
-607.186	121.547	0.231	0.293
-606.171	281.456	-0.028	0.052
-605.157	-91.487	0.388	-0.113
-604.142	600.688	0.151	0.381
-603.128	-44.836	-0.085	-0.043
-602.113	-110.656	-0.166	0.035
-601.098	-80.767	0.156	0.053
-600.084	-42.941	0.153	-0.079
-599.069	-68.458	-0.166	0.066
-598.055	58.546	-0.192	0.192
-597.040	-139.332	-0.356	0.039
-596.025	257.707	-0.121	0.211
-595.011	26.208	-0.261	0.222
-593.996	-200.000	0.007	0.255
-592.982	-3.522	0.251	0.177
-591.967	42.105	-0.150	-0.138
-590.952	-116.288	-0.154	0.029
-589.938	-200.000	0.001	0.047
-588.923	31.454	-0.223	-0.195
-587.909	70.375	0.093	-0.097
-586.894	235.991	-0.202	-0.339
-585.879	-67.811	-0.237	-0.094
-584.865	-124.184	-0.196	-0.031
-583.850	800.000	0.054	-0.187
-582.836	740.732	0.063	0.172
-581.821	-91.362	-0.339	-0.099
-580.806	12.919	-0.201	0.158
-579.792	800.000	-0.040	0.173
-578.777	-105.800	0.316	0.072
-577.763	-128.619	0.201	0.029
-576.748	-57.002	0.109	0.049
-575.733	-62.760	-0.300	0.126
-574.719	-173.855	0.056	0.002
-573.704	13.674	0.109	-0.086
-572.690	-57.942	0.192	0.085
-571.675	326.226	0.058	-0.114
-570.661	-90.592	-0.059	-0.017
-569.646	-200.000	0.030	-0.325
-568.631	221.178	-0.097	-0.158
-567.617	68.870	0.143	-0.150
-566.602	-200.000	-0.016	-0.240
-565.588	-117.110	0.347	0.064
-564.573	408.258	0.087	-0.188
-563.558	-82.014	-0.285	-0.095
-562.544	11.544	0.077	-0.060
-561.529	-93.407	-0.179	-0.050
-560.515	595.381	0.094	0.236
-559.500	23.144	-0.087	-0.073
-558.485	-200.000	-0.001	0.155
-557.471	800.000	-0.049	-0.140
-556.456	-200.000	-0.053	0.361
-555.442	-0.474	0.146	0.105
-554.427	-156.312	-0.313	0.020
-553.412	51.821	-0.130	-0.126
-552.398	100.999	-0.081	0.095
-551.383	800.000	-0.027	0.115
-550.369	486.051	0.072	0.166
-549.354	75.238	0.136	-0.146
-548.339	667.735	-0.126	-0.331
-547.325	-200.000	0.015	0.141
-546.310	-136.922	0.221	0.026
-545.296	220.000	0.113	-0.183
-544.281	-200.000	0.020	0.103
-543.266	800.000	0.012	0.045
-542.252	-115.794	-0.218	-0.041
-541.237	-114.383	0.046	0.009
-540.223	91.794	-0.053	-0.060
-539.208	521.710	-0.029	0.068
-538.193	324.038	-0.054	0.104
-537.179	-52.840	-0.121	-0.056
-536.164	-154.589	0.279	0.019
-535.150	-85.183	0.208	-0.066
-534.135	-48.363	0.106	0.052
-533.121	175.135	0.053	-0.078
-532.106	-134.926	-0.170	0.021
-531.091	-137.175	0.259	-0.030
-530.077	-146.270	0.251	0.022
-529.062	11.568	-0.158	0.123
-528.048	-200.000	-0.003	-0.233
-527.033	800.000	-0.087	-0.269
-526.018	588.517	0.080	-0.201
-525.004	-7.750	0.203	0.139
-523.989	-75.239	0.121	-0.044
-522.975	121.895	0.244	0.309
-521.960	-102.775	-0.067	-0.016
-520.945	-200.000	0.052	-0.410
-519.931	-200.000	-0.007	-0.561
-518.916	800.000	-0.060	0.201
-517.902	800.000	0.081	0.242
-516.887	800.000	-0.071	0.238
-515.872	-152.881	-0.452	-0.032
-514.858	326.821	0.055	0.106
-513.843	39.795	0.065	0.059
-512.829	-40.184	0.215	-0.114
-511.814	-97.738	-0.139	0.036
-510.799	67.052	-0.073	-0.076
-509.785	-200.000	-0.014	-0.076
-508.770	30.102	-0.060	-0.052
-507.756	-200.000	0.026	-0.133
-506.741	558.892	-0.123	0.301
-505.726	-58.896	0.219	-0.096
-504.712	-200.000	-0.078	-0.476
-503.697	63.455	-0.249	-0.254
-502.683	87.424	0.359	-0.402
-501.668	537.499	-0.099	-0.238
-500.653	-200.000	-0.001	-0.189
-499.639	-39.782	-0.304	0.161
-498.624	-200.000	-0.000	-0.378
-497.610	-200.000	-0.012	0.130
-496.595	-11.690	-0.059	0.039
-495.581	51.175	0.055	0.053
-494.566	-69.554	-0.050	0.019
-493.551	-7.110	0.081	0.056
-492.537	141.099	0.071	0.095
-491.522	79.436	-0.134	-0.145
-490.508	800.000	0.127	-0.388
-489.493	408.183	0.061	-0.130
-488.478	162.362	0.133	-0.189
-487.464	51.476	-0.334	0.322
-486.449	-34.120	-0.278	0.155
-485.435	800.000	-0.070	-0.234
-484.420	-71.396	0.124	-0.047
-483.405	21.750	0.265	-0.219
-482.391	78.922	-0.179	0.194
-481.376	-79.869	0.320	-0.109
-480.362	73.702	0.116	-0.123
-479.347	-54.256	-0.155	0.071
-478.332	19.104	-0.260	0.211
-477.318	-200.000	-0.012	0.097
-476.303	118.934	-0.118	0.148
-475.289	532.088	-0.027	-0.065
-474.274	-120.043	0.214	0.037
-473.259	-200.000	0.021	0.151
-472.245	-124.014	0.351	0.056
-471.230	-200.000	-0.001	-0.295
-470.216	-200.000	0.028	0.153
-469.201	800.000	-0.073	-0.290
-468.186	-200.000	0.013	-0.214
-467.172	261.128	-0.179	0.313
-466.157	-56.082	0.078	-0.035
-465.143	-200.000	-0.046	-0.223
-464.128	372.401	-0.097	0.199
-463.113	-73.248	0.407	-0.151
-462.099	474.535	0.031	0.072
-461.084	800.000	-0.036	0.106
-460.070	-103.309	-0.305	0.073
-459.055	-70.444	0.206	0.079
-458.040	14.718	0.214	-0.169
-457.026	-200.000	0.010	-0.292
-456.011	-37.688	-0.117	-0.063
-454.997	344.259	-0.063	0.125
-453.982	235.756	-0.118	0.197
-452.968	-93.889	-0.245	0.068
-451.953	-115.047	-0.195	-0.037
-450.938	-83.397	0.170	-0.055
-449.924	-118.005	-0.170	0.031
-448.909	800.000	0.035	0.128
-447.895	2.253	0.078	-0.057
-446.880	-130.324	-0.169	0.023
-445.865	-200.000	0.052	-0.283
-444.851	43.364	-0.177	-0.164
-443.836	622.237	0.147	0.375
-442.822	-49.527	0.104	0.050
-441.807	-62.662	-0.197	0.083
-440.792	471.560	-0.117	0.267
-439.778	-133.240	-0.276	-0.035
-438.763	-76.996	-0.259	0.091
-437.749	-54.180	0.250	-0.115
-436.734	-106.282	-0.217	0.049
-435.719	-32.748	0.042	0.024
-434.705	146.587	-0.217	-0.295
-433.690	197.245	0.105	-0.162
-432.676	171.226	0.032	-0.046
-431.661	800.000	0.062	0.195
-430.646	416.574	-0.100	-0.216
-429.632	-200.000	0.068	0.313
-428.617	-200.000	0.004	-0.041
-427.603	-25.631	-0.099	-0.059
-426.588	-96.418	0.350	0.093
-425.573	-142.499	0.172	0.017
-424.559	13.867	0.355	0.279
-423.544	-33.920	-0.234	0.130
-422.530	-179.588	-0.153	-0.003
-421.515	800.000	0.082	-0.241
-420.500	800.000	0.069	-0.210
-419.486	-92.944	0.221	-0.062
-418.471	655.647	0.074	-0.191
-417.457	87.105	-0.236	-0.263
-416.442	299.096	0.107	0.199
-415.428	38.055	0.287	0.257
-414.413	208.791	-0.145	0.229
-413.398	155.367	0.034	0.047
-412.384	-200.000	-0.040	-0.246
-411.369	-200.000	0.001	-0.184
-410.355	151.990	0.250	-0.344
-409.340	-27.870	0.168	-0.098
-408.325	800.000	0.039	-0.121
-407.311	-133.460	-0.384	-0.049
-406.296	-93.369	0.318	0.089
-405.282	31.188	-0.052	-0.045
-404.267	17.911	0.235	-0.189
-403.252	-57.761	0.259	-0.114
-402.238	421.252	0.148	0.321
-401.223	-71.601	0.120	0.045
-400.209	-37.932	-0.066	0.036
-399.194	-112.041	-0.405	0.082
-398.179	-44.961	-0.343	-0.173
-397.165	76.561	-0.131	0.140
-396.150	-78.738	-0.220	-0.076
-395.136	127.676	0.171	-0.219
-394.121	14.311	0.208	-0.164
-393.106	-145.583	-0.468	0.042
-392.092	-200.000	0.033	-0.272
-391.077	-68.802	0.322	0.125
-390.063	639.094	-0.068	-0.173
-389.048	-200.000	-0.014	-0.089
-388.033	-93.773	-0.258	0.072
-387.019	-200.000	-0.041	-0.185
-386.004	708.724	-0.035	0.093
-384.990	-52.863	-0.095	0.044
-383.975	240.679	0.133	0.224
-382.960	-200.000	-0.024	0.295
-381.946	0.139	0.097	-0.070
-380.931	119.807	0.061	0.076
-379.917	188.675	0.082	0.124
-378.902	-96.903	-0.342	-0.090
-377.888	96.391	-0.090	0.104
-376.873	-39.248	-0.091	-0.048
-375.858	-20.558	0.050	0.031
-374.844	800.000	-0.103	0.366
-373.829	65.565	0.134	0.137
-372.815	800.000	0.017	0.053
-371.800	-200.000	0.013	0.241
-370.785	800.000	0.074	-0.260
-369.771	-69.950	0.270	0.104
-368.756	800.000	-0.046	-0.132
-367.742	-200.000	-0.028	-0.212
-366.727	-16.947	-0.016	0.010
-365.712	251.595	0.112	0.192
-364.698	74.303	-0.186	-0.196
-363.683	144.427	-0.150	-0.202
-362.669	225.620	0.096	0.157
-361.654	-74.472	0.426	-0.155
-360.639	800.000	0.040	-0.165
-359.625	32.975	-0.227	0.198
-358.610	-200.000	-0.027	-0.276
-357.596	-4.532	-0.179	0.124
-356.581	-174.492	0.189	-0.005
-355.566	-81.284	-0.154	-0.051
-354.552	800.000	0.035	0.148
-353.537	493.209	0.094	0.217
-352.523	800.000	0.037	0.154
-351.508	800.000	-0.120	0.437
-350.493	-146.554	0.397	0.035
-349.479	226.189	-0.077	-0.126
-348.464	267.989	-0.031	-0.055
-347.450	80.147	0.108	0.117
-346.435	-81.918	-0.202	-0.066
-345.420	-200.000	-0.003	0.021
-344.406	-161.823	0.061	0.003
-343.391	-200.000	0.048	-0.244
-342.377	-141.659	0.098	0.010
-341.362	147.074	-0.102	-0.139
-340.348	48.170	0.079	0.074
-339.333	92.554	0.091	0.104
-338.318	324.949	0.096	0.185
-337.304	-28.991	0.250	0.144
-336.289	-14.218	-0.050	-0.032
-335.275	-200.000	0.015	0.255
-334.260	-4.946	0.073	0.050
-333.245	-52.047	-0.238	-0.111
-332.231	-149.058	-0.351	0.028
-331.216	40.299	0.133	-0.121
-330.202	-200.000	-0.041	-0.187
-329.187	381.988	-0.188	0.388
-328.172	-200.000	0.027	0.250
-327.158	800.000	0.020	0.056
-326.143	-1.568	0.206	0.146
-325.129	28.564	0.299	-0.254
-324.114	800.000	-0.076	0.249
-323.099	43.002	0.153	-0.140
-322.085	-90.915	0.390	-0.113
-321.070	119.219	0.189	-0.235
-320.056	-118.605	0.418	-0.074
-319.041	-200.000	0.029	-0.196
-318.026	75.309	0.034	0.036
-317.012	-69.432	-0.178	-0.069
-315.997	-54.929	-0.102	0.046
-314.983	800.000	-0.046	-0.141
-313.968	116.319	0.043	0.053
-312.953	56.895	-0.108	0.106
-311.939	-88.900	-0.096	0.029
-310.924	-200.000	0.012	-0.056
-309.910	342.725	-0.196	0.386
-308.895	170.246	0.150	0.216
-307.880	-132.517	-0.211	0.027
-306.866	55.565	-0.150	0.146
-305.851	-106.569	0.138	-0.031
-304.837	-81.615	0.059	-0.019
-303.822	-200.000	0.014	0.133
-302.807	-7.742	0.106	0.072
-301.793	800.000	-0.163	0.494
-300.778	108.156	0.241	-0.288
-299.764	-75.335	-0.228	0.082
-298.749	800.000	0.086	0.272
-297.735	800.000	0.048	0.162
-296.720	321.907	-0.047	-0.090
-295.705	-137.106	0.110	-0.013
-294.691	-66.501	0.237	0.095
-293.676	-65.537	-0.157	-0.063
-292.662	21.556	-0.140	0.114
-291.647	800.000	-0.049	0.176
-290.632	-59.406	-0.146	-0.063
-289.618	51.345	-0.262	0.250
-288.603	147.257	0.090	0.121
-287.589	5.010	0.124	-0.091
-286.574	99.350	0.238	-0.276
-285.559	94.204	-0.055	0.062
-284.545	-100.562	0.262	0.065
-283.530	153.566	-0.153	-0.210
-282.516	-112.428	0.115	0.023
-281.501	102.547	-0.126	0.148
-280.486	800.000	-0.034	0.138
-279.472	174.595	0.073	0.106
-278.457	800.000	-0.058	-0.240
-277.443	-200.000	-0.037	-0.218
-276.428	-200.000	-0.007	0.039
-275.413	-200.000	0.000	-0.323
-274.399	-3.428	-0.055	0.038
-273.384	607.075	-0.070	-0.174
-272.370	441.490	-0.136	-0.298
-271.355	483.640	-0.056	-0.127
-270.340	579.476	0.133	-0.326
-269.326	-0.071	0.340	-0.243
-268.311	-40.034	0.211	-0.111
-267.297	18.028	-0.114	-0.091
-266.282	125.250	-0.143	0.181
-265.267	289.660	0.146	-0.267
-264.253	107.961	-0.192	-0.229
-263.238	-200.000	-0.033	-0.146
-262.224	-81.412	0.224	0.074
-261.209	-105.577	-0.316	0.072
-260.195	-95.408	-0.240	-0.065
-259.180	-84.305	-0.111	-0.035
-258.165	-200.000	0.013	-0.200
-257.151	-4.650	0.088	0.061
-256.136	108.050	0.149	-0.178
-255.122	760.653	-0.075	-0.204
-254.107	-3.356	0.227	0.158
-253.092	-8.326	0.216	-0.145
-252.078	-9.540	-0.238	0.159
-251.063	276.965	0.092	-0.163
-250.049	-200.000	0.053	-0.400
-249.034	72.275	-0.133	-0.139
-248.019	-114.338	0.362	-0.070
-247.005	-108.648	-0.098	0.021
-245.990	74.916	-0.241	0.254
-244.976	-60.514	-0.304	-0.129
-243.961	460.620	0.144	0.321
-242.946	-29.761	0.169	-0.097
-241.932	800.000	-0.045	-0.147
-240.917	-27.491	0.204	-0.119
-239.903	304.662	-0.024	-0.045
-238.888	14.981	0.195	-0.153
-237.873	492.791	0.044	0.101
-236.859	640.849	-0.044	0.112
-235.844	20.463	-0.198	0.160
-234.830	291.168	0.083	-0.151
-233.815	-8.258	0.021	0.014
-232.800	-131.049	0.173	0.023
-231.786	-85.461	0.219	-0.068
-230.771	-200.000	-0.008	0.053
-229.757	-200.000	0.027	0.184
-228.742	-200.000	0.044	0.234
-227.727	800.000	-0.101	0.296
-226.713	-123.728	0.074	0.012
-225.698	-71.922	-0.097	0.036
-224.684	-156.562	0.191	0.012
-223.669	18.365	-0.156	-0.125
-222.655	-68.668	0.101	0.039
-221.640	800.000	-0.020	0.065
-220.625	97.657	0.127	0.146
-219.611	52.920	-0.306	0.293
-218.596	139.638	-0.071	0.094
-217.582	-16.135	-0.329	0.209
-216.567	-20.995	-0.086	0.053
-215.552	-34.116	0.148	-0.081
-214.538	-200.000	-0.022	0.197
-213.523	-37.533	0.373	0.199
-212.509	-86.567	0.169	-0.052
-211.494	364.483	-0.028	0.057
-210.479	800.000	-0.060	-0.177
-209.465	-200.000	0.054	-0.281
-208.450	184.704	0.163	-0.242
-207.436	12.424	0.196	0.151
-206.421	800.000	0.073	0.205
-205.406	-66.792	0.138	0.055
-204.392	-20.645	-0.148	0.091
-203.377	-200.000	-0.043	-0.235
-202.363	794.099	-0.097	-0.266
-201.348	40.369	0.282	-0.254
-200.333	108.530	0.138	0.165
-199.319	80.477	-0.128	-0.138
-198.304	-200.000	-0.043	0.297
-197.290	-70.116	-0.287	-0.109
-196.275	-116.766	0.091	-0.017
-195.260	226.927	0.104	0.169
-194.246	-97.642	-0.153	0.040
-193.231	-200.000	0.034	-0.285
-192.217	65.278	-0.211	-0.214
-191.202	430.511	-0.043	-0.093
-190.187	-200.000	0.030	0.244
-189.173	136.592	0.024	-0.031
-188.158	2.350	0.327	0.236
-187.144	-200.000	0.109	0.506
-186.129	-200.000	0.004	0.180
-185.114	655.988	-0.129	0.332
-184.100	-133.410	-0.066	-0.008
-183.085	800.000	-0.131	-0.491
-182.071	800.000	-0.072	-0.217
-181.056	800.000	0.060	-0.221
-180.042	-85.238	-0.095	0.030
-179.027	360.363	-0.113	0.225
-178.012	-134.899	-0.095	0.011
-176.998	-83.047	-0.134	-0.043
-175.983	76.059	0.062	-0.066
-174.969	193.124	0.097	0.146
-173.954	-198.835	0.129	-0.001
-172.939	800.000	0.055	0.196
-171.925	-200.000	0.080	0.360
-170.910	-90.301	0.339	-0.099
-169.896	-24.521	-0.137	0.081
-168.881	57.518	-0.294	0.288
-167.866	555.778	0.037	0.089
-166.852	-200.000	0.017	-0.263
-165.837	707.933	-0.085	-0.224
-164.823	-23.890	-0.262	0.157
-163.808	-8.448	-0.113	-0.076
-162.793	-200.000	-0.000	0.338
-161.779	-22.359	0.140	-0.085
-160.764	277.252	-0.147	-0.261
-159.750	136.573	-0.115	0.150
-158.735	-200.000	0.018	0.145
-157.720	-200.000	-0.015	-0.141
-156.706	671.181	0.054	-0.139
-155.691	348.055	-0.072	-0.141
-154.677	113.764	0.089	0.108
-153.662	35.571	0.240	0.210
-152.647	-200.000	0.014	-0.296
-151.633	-22.989	-0.243	0.147
-150.618	88.471	-0.194	0.216
-149.604	-131.586	-0.364	0.048
-148.589	-168.484	0.263	-0.010
-147.574	109.350	0.106	-0.127
-146.560	-14.425	0.198	-0.127
-145.545	125.541	-0.051	-0.064
-144.531	9.309	0.180	-0.136
-143.516	-117.721	-0.358	-0.064
-142.502	-91.909	0.153	0.043
-141.487	54.422	-0.223	-0.214
-140.472	12.763	-0.172	-0.133
-139.458	360.968	0.102	0.204
-138.443	472.753	0.090	0.201
-137.429	247.026	-0.123	0.208
-136.414	113.277	0.193	0.234
-135.399	-110.343	-0.269	0.056
-134.385	244.961	-0.120	0.202
-133.370	-74.563	-0.211	0.076
-132.356	-118.555	0.160	-0.028
-131.341	463.241	-0.074	-0.165
-130.326	62.317	-0.067	-0.067
-129.312	-200.000	0.009	-0.100
-128.297	-117.596	-0.123	0.022
-127.283	-51.194	-0.083	-0.039
-126.268	-200.000	0.034	0.151
-125.253	-169.513	-0.168	0.006
-124.239	133.097	-0.170	0.220
-123.224	-200.000	-0.009	0.106
-122.210	29.931	-0.031	-0.027
-121.195	67.272	-0.095	0.097
-120.180	800.000	-0.028	0.078
