DTS Sentinel unit serial number:	SN413079Multiplexer serial number:	ORYXHardware model number:	OX4-SRSoftware version number:	ORYX F/W v4.00 Oryx Data Collector v3.7.2.0data status	okinstallation	princeton_trtdifferential loss correction	single-endedforward channel	channel 3reverse channel	N/Adate	2019/09/13time	23:08:35forward acquisition time	60.00reverse acquisition time	0.00gamma	496.2192k internal	0.2338k external	0.2338temperature offset calibration	1.0062default loss term (dB/km)	0.3790temperature slope calibration	1.0000multiplexer offset coefficient	1.0000multiplexer slope coefficient	1.0000fibre end	0.00T internal ref (°C)	27.19T ext. ref 1 (°C)	3.20T ext. ref 2 (°C)	21.19length (m)	temperature (°C)	Stokes	anti-Stokes-747.200	-105.542	-0.254	0.058
-746.185	-28.712	-0.368	0.213
-745.171	-64.851	-0.071	-0.029
-744.156	27.160	-0.048	-0.040
-743.142	-87.730	0.313	-0.095
-742.127	169.875	-0.209	0.299
-741.112	-36.008	-0.180	0.098
-740.098	68.089	0.166	0.170
-739.083	17.183	-0.210	-0.167
-738.069	637.609	0.071	0.181
-737.054	3.967	0.083	0.061
-736.039	800.000	-0.068	0.193
-735.025	-200.000	-0.008	-0.101
-734.010	-168.474	-0.060	-0.002
-732.996	647.393	0.033	-0.086
-731.981	277.877	0.078	0.139
-730.966	-157.788	-0.090	-0.005
-729.952	-142.049	0.106	-0.011
-728.937	-139.019	-0.157	-0.017
-727.923	-200.000	-0.003	-0.100
-726.908	800.000	-0.042	-0.119
-725.894	290.960	-0.104	-0.190
-724.879	-50.092	-0.081	-0.039
-723.864	-119.211	0.111	0.019
-722.850	-27.116	-0.145	-0.085
-721.835	800.000	0.057	0.208
-720.821	18.167	-0.279	-0.223
-719.806	800.000	0.039	0.114
-718.791	46.774	-0.118	-0.110
-717.777	-200.000	0.023	-0.188
-716.762	35.372	0.156	0.138
-715.748	76.641	0.056	-0.060
-714.733	695.721	-0.049	0.130
-713.718	-200.000	0.055	0.247
-712.704	232.883	-0.049	-0.081
-711.689	-27.578	-0.138	-0.080
-710.675	88.741	0.075	-0.084
-709.660	-149.871	0.253	0.020
-708.645	153.583	0.198	-0.272
-707.631	-140.147	-0.188	0.020
-706.616	-200.000	0.050	-0.344
-705.602	-75.797	-0.149	-0.053
-704.587	-200.000	-0.080	-0.371
-703.572	-200.000	0.003	0.275
-702.558	90.642	-0.139	-0.156
-701.543	-124.201	0.238	-0.037
-700.529	117.928	0.127	0.156
-699.514	583.565	-0.015	-0.036
-698.499	-134.535	0.012	0.001
-697.485	-200.000	-0.017	-0.309
-696.470	-144.220	-0.303	-0.028
-695.456	-111.089	-0.231	-0.047
-694.441	800.000	0.059	0.205
-693.426	800.000	0.098	0.333
-692.412	-121.324	0.066	-0.011
-691.397	-200.000	0.030	0.364
-690.383	175.512	-0.264	-0.383
-689.368	32.388	-0.187	-0.162
-688.354	-15.843	-0.161	0.103
-687.339	-200.000	-0.016	0.102
-686.324	89.552	0.158	-0.176
-685.310	-118.910	-0.049	0.009
-684.295	-7.741	0.160	0.108
-683.281	-200.000	-0.054	0.415
-682.266	224.300	-0.141	-0.229
-681.251	114.870	-0.111	-0.135
-680.237	373.964	-0.009	0.017
-679.222	25.007	0.231	-0.192
-678.208	800.000	-0.050	-0.145
-677.193	-44.918	-0.082	-0.041
-676.178	58.193	-0.074	-0.073
-675.164	800.000	-0.101	0.380
-674.149	-155.437	0.314	-0.020
-673.135	89.230	-0.193	0.215
-672.120	377.084	0.012	0.024
-671.105	694.147	-0.138	0.363
-670.091	-68.527	-0.283	-0.110
-669.076	409.999	-0.086	-0.182
-668.062	248.904	-0.088	-0.149
-667.047	235.735	-0.057	-0.095
-666.032	30.491	-0.089	0.076
-665.018	354.015	0.155	-0.308
-664.003	478.544	0.125	-0.283
-662.989	-100.976	0.307	0.075
-661.974	344.716	-0.064	0.125
-660.959	-82.010	0.284	0.093
-659.945	-48.192	0.458	-0.221
-658.930	12.441	-0.168	-0.130
-657.916	-193.513	0.175	-0.002
-656.901	800.000	0.010	-0.029
-655.886	174.343	-0.128	0.185
-654.872	800.000	0.033	-0.096
-653.857	-40.111	-0.140	-0.073
-652.843	83.816	0.286	-0.312
-651.828	26.925	-0.131	-0.110
-650.814	77.080	0.059	-0.063
-649.799	-200.000	0.021	-0.098
-648.784	800.000	-0.064	0.247
-647.770	142.065	-0.032	0.042
-646.755	-200.000	0.006	0.129
-645.741	-169.781	-0.234	0.008
-644.726	231.212	-0.216	0.354
-643.711	-74.038	0.311	0.113
-642.697	-145.475	0.204	-0.018
-641.682	-2.975	-0.073	-0.051
-640.668	-82.109	0.288	-0.094
-639.653	193.284	-0.152	-0.230
-638.638	-102.817	0.216	0.051
-637.624	-93.666	-0.200	-0.055
-636.609	48.518	0.177	-0.166
-635.595	800.000	0.014	0.051
-634.580	-135.060	-0.232	0.028
-633.565	-8.693	-0.156	0.104
-632.551	124.219	0.054	0.068
-631.536	692.017	-0.071	0.185
-630.522	2.491	-0.290	0.210
-629.507	-26.461	0.256	-0.150
-628.492	-100.528	0.285	-0.071
-627.478	345.302	-0.095	-0.187
-626.463	-175.775	-0.142	0.004
-625.449	36.883	0.139	0.122
-624.434	-40.953	0.265	0.137
-623.419	17.635	-0.238	-0.189
-622.405	-200.000	-0.022	-0.197
-621.390	-39.321	0.059	-0.031
-620.376	-200.000	-0.024	0.154
-619.361	7.135	-0.297	-0.222
-618.346	-60.309	0.042	-0.018
-617.332	3.630	0.222	-0.162
-616.317	130.276	0.175	0.224
-615.303	-146.435	-0.378	-0.033
-614.288	-187.445	-0.138	-0.002
-613.273	-45.171	-0.081	0.040
-612.259	260.865	-0.123	0.213
-611.244	-155.056	0.175	-0.011
-610.230	12.934	-0.192	-0.149
-609.215	-95.202	0.081	-0.022
-608.201	-36.954	-0.253	-0.135
-607.186	-52.548	0.284	-0.131
-606.171	386.572	-0.048	0.099
-605.157	615.772	0.019	-0.047
-604.142	23.248	-0.126	0.103
-603.128	-200.000	0.043	-0.222
-602.113	68.669	0.067	-0.069
-601.098	382.971	-0.095	-0.195
-600.084	6.256	-0.124	0.092
-599.069	-200.000	0.001	-0.119
-598.055	54.052	-0.160	0.153
-597.040	-187.188	-0.231	-0.003
-596.025	-200.000	0.040	-0.260
-595.011	151.203	-0.047	0.064
-593.996	-64.084	-0.333	-0.135
-592.982	70.559	-0.203	-0.209
-591.967	234.371	0.181	-0.297
-590.952	-104.205	0.123	0.029
-589.938	-135.029	0.184	0.022
-588.923	-200.000	-0.074	0.337
-587.909	174.418	0.323	0.465
-586.894	-95.290	-0.556	-0.149
-585.879	25.068	-0.108	-0.090
-584.865	402.610	0.087	-0.183
-583.850	-200.000	-0.026	-0.186
-582.836	-60.608	0.181	0.076
-581.821	-200.000	-0.076	0.358
-580.806	241.517	0.128	0.214
-579.792	65.936	0.094	0.095
-578.777	58.194	-0.230	-0.225
-577.763	-68.165	0.145	0.056
-576.748	180.785	-0.094	0.138
-575.733	-165.928	0.133	-0.006
-574.719	-200.000	-0.003	0.235
-573.704	-17.720	-0.329	-0.206
-572.690	23.668	-0.129	0.106
-571.675	-200.000	0.042	0.196
-570.661	99.564	0.090	0.103
-569.646	-200.000	0.061	0.293
-568.631	-200.000	-0.033	0.201
-567.617	272.988	0.105	-0.185
-566.602	345.051	-0.155	-0.304
-565.588	82.547	0.342	-0.370
-564.573	102.078	-0.166	0.193
-563.558	56.588	0.306	-0.296
-562.544	126.811	0.115	0.145
-561.529	655.159	0.031	0.079
-560.515	-86.235	0.091	0.028
-559.500	80.719	0.036	-0.038
-558.485	-55.751	0.050	0.022
-557.471	64.479	0.109	-0.109
-556.456	-56.529	0.112	-0.049
-555.442	-52.681	-0.232	0.107
-554.427	-200.000	0.046	0.502
-553.412	733.717	0.069	0.185
-552.398	262.768	0.184	-0.318
-551.383	123.182	-0.098	-0.123
-550.369	-19.352	0.068	0.042
-549.354	-52.891	-0.191	-0.087
-548.339	-102.409	0.243	0.058
-547.325	-200.000	-0.017	-0.198
-546.310	20.996	0.221	0.179
-545.296	-200.000	0.002	-0.038
-544.281	-51.406	-0.175	-0.081
-543.266	74.225	-0.042	-0.044
-542.252	-79.988	0.194	-0.065
-541.237	32.209	0.212	-0.182
-540.223	83.354	0.186	0.202
-539.208	-142.535	-0.230	-0.022
-538.193	-80.715	0.156	-0.051
-537.179	-200.000	-0.038	-0.198
-536.164	353.600	-0.072	0.143
-535.150	75.700	0.075	0.079
-534.135	-108.227	-0.196	0.042
-533.121	25.678	-0.143	0.119
-532.106	644.287	-0.104	-0.264
-531.091	160.828	-0.108	0.150
-530.077	-68.935	-0.226	-0.087
-529.062	9.605	-0.081	-0.061
-528.048	-82.161	-0.062	-0.020
-527.033	20.088	-0.244	-0.196
-526.018	-71.496	0.552	-0.205
-525.004	90.013	0.281	-0.313
-523.989	800.000	-0.035	-0.141
-522.975	-65.931	-0.212	-0.084
-521.960	-200.000	-0.016	0.167
-520.945	222.198	0.178	-0.286
-519.931	220.349	0.082	0.130
-518.916	-81.472	-0.498	0.163
-517.902	-146.156	0.193	-0.017
-516.887	-32.688	-0.187	0.104
-515.872	-35.179	0.186	-0.101
-514.858	-55.979	-0.176	0.078
-513.843	800.000	0.113	-0.347
-512.829	652.768	0.063	-0.160
-511.814	-100.185	-0.453	-0.112
-510.799	-79.545	-0.241	-0.081
-509.785	55.159	0.179	-0.172
-508.770	-200.000	-0.036	0.287
-507.756	-43.777	0.134	-0.067
-506.741	-200.000	-0.005	0.227
-505.726	167.955	-0.128	-0.181
-504.712	-120.123	0.279	0.047
-503.697	-53.214	0.162	0.074
-502.683	477.021	0.162	0.364
-501.668	800.000	-0.061	0.227
-500.653	17.870	-0.198	0.156
-499.639	541.873	0.038	-0.090
-498.624	-127.413	-0.476	-0.069
-497.610	77.614	0.310	0.328
-496.595	-50.224	-0.124	0.059
-495.581	-200.000	-0.010	0.264
-494.566	-96.064	0.282	0.074
-493.551	35.140	-0.262	0.229
-492.537	22.419	-0.158	-0.128
-491.522	-200.000	-0.010	-0.066
-490.508	79.353	0.007	0.007
-489.493	243.061	-0.018	0.029
-488.478	11.915	-0.290	0.221
-487.464	-118.414	-0.482	0.085
-486.449	-131.990	0.416	-0.054
-485.435	447.809	0.121	-0.264
-484.420	121.027	-0.046	0.057
-483.405	-200.000	-0.023	-0.177
-482.391	752.930	-0.061	-0.163
-481.376	-184.786	0.242	0.004
-480.362	122.482	-0.165	-0.205
-479.347	-51.999	0.234	-0.108
-478.332	800.000	-0.056	-0.204
-477.318	-2.249	-0.312	-0.218
-476.303	175.066	-0.072	-0.104
-475.289	31.024	0.177	0.150
-474.274	150.097	0.063	0.085
-473.259	38.874	-0.271	-0.240
-472.245	-4.493	0.170	0.117
-471.230	-115.563	0.286	-0.053
-470.216	-145.423	-0.271	0.024
-469.201	184.135	-0.048	0.071
-468.186	60.640	-0.160	0.158
-467.172	378.687	-0.062	0.126
-466.157	-176.888	-0.051	0.001
-465.143	61.831	-0.178	-0.176
-464.128	125.157	-0.157	-0.196
-463.113	-81.140	-0.032	0.011
-462.099	-200.000	-0.034	-0.225
-461.084	-148.146	-0.085	-0.007
-460.070	800.000	0.094	0.292
-459.055	6.207	0.314	0.231
-458.040	-27.607	0.285	-0.164
-457.026	-200.000	0.006	-0.033
-456.011	-103.331	0.090	-0.021
-454.997	-12.098	0.162	0.105
-453.982	-123.512	0.184	-0.029
-452.968	-89.730	0.194	0.056
-451.953	-200.000	-0.008	-0.094
-450.938	-37.668	-0.187	0.099
-449.924	-200.000	-0.027	0.282
-448.909	800.000	-0.101	-0.302
-447.895	-98.096	0.343	0.088
-446.880	-17.000	0.100	0.063
-445.865	227.598	0.014	-0.022
-444.851	-21.921	0.108	-0.065
-443.836	-83.717	-0.099	0.031
-442.822	187.617	-0.137	0.203
-441.807	163.352	-0.142	-0.197
-440.792	-200.000	-0.007	0.097
-439.778	-108.200	0.181	-0.039
-438.763	44.462	0.189	-0.172
-437.749	145.720	-0.024	-0.032
-436.734	122.987	-0.127	0.158
-435.719	-31.740	-0.108	-0.060
-434.705	108.509	-0.094	-0.111
-433.690	-66.898	0.122	-0.048
-432.676	800.000	-0.058	-0.199
-431.661	-181.940	-0.091	0.002
-430.646	103.159	0.281	0.327
-429.632	-34.943	0.307	-0.166
-428.617	-72.749	-0.325	0.119
-427.603	153.909	0.131	0.179
-426.588	-114.623	-0.212	-0.040
-425.573	-115.108	0.130	-0.024
-424.559	-78.753	0.086	-0.029
-423.544	138.000	0.149	0.194
-422.530	-14.930	0.220	0.140
-421.515	-52.942	0.114	0.052
-420.500	-62.484	-0.430	-0.177
-419.486	155.517	-0.181	-0.247
-418.471	512.703	0.045	0.105
-417.457	-200.000	0.039	-0.185
-416.442	321.828	-0.085	-0.159
-415.428	126.880	-0.193	0.243
-414.413	344.602	0.081	0.157
-413.398	-200.000	0.005	0.051
-412.384	800.000	0.088	-0.301
-411.369	-200.000	0.012	-0.161
-410.355	97.260	-0.272	-0.309
-409.340	-167.769	0.320	-0.013
-408.325	800.000	0.076	0.327
-407.311	-13.531	0.179	0.115
-406.296	112.994	0.113	-0.135
-405.282	800.000	-0.079	0.262
-404.267	21.130	-0.288	-0.232
-403.252	-185.643	-0.083	-0.001
-402.238	-116.059	0.274	-0.050
-401.223	-85.348	0.134	-0.041
-400.209	593.999	-0.114	0.279
-399.194	-200.000	0.003	0.049
-398.179	-35.538	0.308	-0.166
-397.165	-59.694	0.082	0.035
-396.150	-200.000	0.005	0.199
-395.136	-82.483	-0.407	-0.131
-394.121	-67.151	-0.052	0.020
-393.106	491.243	0.075	-0.171
-392.092	-200.000	0.023	0.158
-391.077	800.000	0.016	0.046
-390.063	-139.957	-0.176	0.018
-389.048	-200.000	0.047	0.273
-388.033	296.021	0.209	0.379
-387.019	-115.312	0.169	0.032
-386.004	-135.683	-0.206	0.024
-384.990	-21.413	-0.145	-0.088
-383.975	-124.812	0.345	-0.053
-382.960	386.885	-0.120	-0.246
-381.946	-189.580	-0.438	0.005
-380.931	-200.000	-0.029	-0.229
-379.917	-135.072	0.062	-0.007
-378.902	359.814	-0.093	0.184
-377.888	800.000	0.036	0.138
-376.873	3.893	0.174	-0.126
-375.858	-71.803	-0.237	-0.087
-374.844	-13.278	-0.126	-0.081
-373.829	-15.495	0.095	-0.060
-372.815	-38.330	-0.368	-0.193
-371.800	-64.940	0.140	-0.056
-370.785	-51.774	0.151	0.070
-369.771	200.122	0.125	0.190
-368.756	-200.000	0.003	0.154
-367.742	-200.000	-0.027	0.162
-366.727	-200.000	0.020	-0.185
-365.712	8.692	0.338	0.252
-364.698	800.000	0.152	-0.417
-363.683	-23.134	-0.165	-0.098
-362.669	-200.000	0.036	0.189
-361.654	760.903	-0.093	0.248
-360.639	-200.000	0.020	-0.125
-359.625	800.000	0.054	-0.180
-358.610	15.542	0.094	0.073
-357.596	236.378	0.100	0.163
-356.581	73.638	0.171	-0.177
-355.566	-136.411	0.237	0.027
-354.552	800.000	-0.083	0.343
-353.537	800.000	0.049	0.156
-352.523	767.385	0.022	-0.059
-351.508	800.000	-0.049	-0.153
-350.493	46.910	0.062	0.057
-349.479	117.780	-0.118	-0.144
-348.464	450.108	-0.038	-0.084
-347.450	-200.000	-0.001	0.227
-346.435	-47.963	-0.217	-0.104
-345.420	31.725	0.100	0.085
-344.406	-108.867	0.262	0.055
-343.391	800.000	-0.055	-0.214
-342.377	-47.591	0.086	-0.041
-341.362	-200.000	0.012	0.147
-340.348	283.628	-0.091	-0.161
-339.333	265.404	0.103	-0.178
-338.318	276.610	0.102	0.179
-337.304	-24.135	-0.092	0.054
-336.289	-200.000	-0.024	0.291
-335.275	-136.924	0.208	-0.024
-334.260	-107.792	-0.040	-0.009
-333.245	-155.483	0.145	-0.009
-332.231	421.078	0.046	-0.097
-331.216	33.255	0.278	-0.238
-330.202	-200.000	0.011	-0.140
-329.187	-200.000	-0.015	-0.209
-328.172	785.422	0.118	0.319
-327.158	-9.414	-0.221	0.146
-326.143	-70.324	-0.294	0.110
-325.129	18.535	-0.264	-0.208
-324.114	-147.640	0.060	-0.005
-323.099	-66.368	-0.250	-0.098
-322.085	368.344	-0.167	-0.333
-321.070	-72.343	-0.123	-0.045
-320.056	-98.631	0.041	-0.010
-319.041	-130.595	-0.238	-0.032
-318.026	-200.000	0.012	0.127
-317.012	-94.066	-0.130	0.035
-315.997	-39.910	-0.289	0.149
-314.983	205.214	-0.129	0.198
-313.968	-20.110	-0.081	0.049
-312.953	-89.521	0.129	0.037
-311.939	261.001	0.147	-0.252
-310.924	13.333	-0.247	-0.189
-309.910	0.669	0.206	-0.145
-308.895	-200.000	0.065	0.446
-307.880	138.068	0.226	0.292
-306.866	494.264	-0.058	0.131
-305.851	11.231	0.126	0.095
-304.837	170.106	-0.248	0.350
-303.822	4.350	-0.156	-0.113
-302.807	257.991	0.038	0.064
-301.793	-200.000	0.003	0.040
-300.778	-3.908	-0.234	0.160
-299.764	-73.911	-0.065	0.023
-298.749	-88.897	0.135	0.039
-297.735	423.931	-0.095	0.201
-296.720	800.000	-0.078	-0.223
-295.705	-66.093	0.050	0.020
-294.691	800.000	0.050	-0.160
-293.676	170.254	-0.081	0.115
-292.662	35.702	0.168	0.145
-291.647	-72.109	-0.234	-0.086
-290.632	268.030	-0.018	0.032
-289.618	559.069	0.042	-0.100
-288.603	170.630	0.088	0.124
-287.589	-128.196	-0.182	-0.026
-286.574	376.019	-0.043	0.087
-285.559	-51.955	-0.139	-0.064
-284.545	-132.154	-0.081	0.010
-283.530	-17.310	0.120	0.075
-282.516	-160.066	0.063	0.003
-281.501	-200.000	0.014	0.147
-280.486	-136.623	-0.190	-0.022
-279.472	56.447	-0.208	-0.200
-278.457	142.856	0.044	0.058
-277.443	210.025	0.038	0.058
-276.428	-51.839	0.316	0.145
-275.413	-98.498	0.215	-0.054
-274.399	-58.786	0.205	-0.088
-273.384	19.159	-0.129	0.102
-272.370	-92.798	0.045	0.012
-271.355	-200.000	-0.020	0.308
-270.340	-172.141	-0.144	0.005
-269.326	107.459	0.166	-0.195
-268.311	236.848	-0.202	-0.329
-267.297	134.134	0.056	0.071
-266.282	-74.108	0.141	-0.050
-265.267	-31.544	-0.079	0.044
-264.253	-200.000	-0.005	0.043
-263.238	545.961	0.150	0.354
-262.224	-119.621	-0.402	-0.069
-261.209	-75.280	0.418	-0.147
-260.195	19.250	-0.116	-0.092
-259.180	21.765	-0.285	0.229
-258.165	273.987	0.138	0.241
-257.151	800.000	0.067	-0.233
-256.136	800.000	0.036	0.112
-255.122	727.133	0.072	-0.189
-254.107	-32.886	-0.251	-0.137
-253.092	-116.814	-0.196	-0.035
-252.078	-12.373	0.025	0.016
-251.063	129.033	0.164	0.206
-250.049	-200.000	-0.007	0.211
-249.034	2.619	0.198	0.141
-248.019	256.009	0.034	0.057
-247.005	800.000	0.045	-0.135
-245.990	-86.584	0.023	0.007
-244.976	-15.496	0.180	0.113
-243.961	0.336	-0.153	0.107
-242.946	247.564	0.107	0.178
-241.932	-20.865	0.150	-0.090
-240.917	-200.000	-0.184	-0.001
-239.903	260.311	0.134	-0.228
-238.888	512.598	0.111	-0.254
-237.873	-49.749	0.152	0.071
-236.859	-42.804	-0.229	0.114
-235.844	63.788	0.118	0.117
-234.830	-200.000	-0.026	0.190
-233.815	-155.341	0.075	-0.005
-232.800	205.829	-0.080	-0.123
-231.786	478.035	0.124	0.275
-230.771	25.122	-0.344	0.281
-229.757	-59.804	-0.117	0.049
-228.742	-95.609	0.138	0.036
-227.727	27.170	0.180	-0.149
-226.713	800.000	-0.102	-0.369
-225.698	-61.909	-0.130	-0.053
-224.684	141.526	-0.231	0.301
-223.669	-89.132	0.280	0.081
-222.655	-107.039	-0.204	-0.044
-221.640	-200.000	-0.052	-0.320
-220.625	-83.402	0.150	-0.047
-219.611	-85.248	-0.095	-0.029
-218.596	25.665	0.165	0.135
-217.582	95.509	0.129	-0.144
-216.567	5.349	0.109	0.079
-215.552	42.427	0.075	-0.067
-214.538	149.498	0.072	-0.096
-213.523	55.253	-0.163	-0.155
-212.509	29.652	-0.120	-0.101
-211.494	-147.308	0.277	-0.023
-210.479	301.270	0.025	-0.045
-209.465	-200.000	0.011	-0.081
-208.450	-53.492	-0.245	-0.110
-207.436	-160.998	0.457	0.024
-206.421	-200.000	-0.023	0.118
-205.406	93.322	0.048	-0.053
-204.392	800.000	-0.070	-0.280
-203.377	201.812	-0.145	-0.220
-202.363	498.765	-0.110	-0.249
-201.348	531.259	-0.098	-0.228
-200.333	97.472	-0.053	0.060
-199.319	800.000	0.074	0.233
-198.304	189.925	0.114	-0.167
-197.290	-44.573	0.015	-0.007
-196.275	-48.350	-0.285	-0.135
-195.260	-200.000	-0.008	0.113
-194.246	15.895	0.225	0.174
-193.231	800.000	0.048	0.155
-192.217	-40.196	0.146	-0.075
-191.202	113.438	0.129	0.153
-190.187	-197.171	-0.298	0.002
-189.173	-8.455	-0.060	-0.039
-188.158	-72.326	-0.288	-0.105
-187.144	-200.000	0.024	0.218
-186.129	800.000	0.047	-0.188
-185.114	54.566	0.270	-0.256
-184.100	-199.318	0.417	0.002
-183.085	800.000	-0.136	-0.493
-182.071	268.437	-0.128	-0.220
-181.056	-30.725	-0.079	0.044
-180.042	800.000	-0.057	-0.240
-179.027	-154.841	-0.146	0.009
-178.012	-40.785	0.110	-0.056
-176.998	463.143	0.042	-0.093
-175.983	-3.625	0.198	-0.135
-174.969	-122.327	-0.159	-0.025
-173.954	105.996	-0.058	0.067
-172.939	358.936	0.059	0.115
-171.925	-74.963	0.326	0.115
-170.910	-15.675	-0.271	0.169
-169.896	-200.000	-0.016	0.319
-168.881	800.000	0.056	0.197
-167.866	441.598	0.105	0.226
-166.852	339.538	-0.018	0.035
-165.837	-74.042	0.343	0.122
-164.823	-200.000	-0.060	0.359
-163.808	373.364	-0.207	0.413
-162.793	49.057	0.237	-0.219
-161.779	103.439	-0.319	-0.367
-160.764	118.864	-0.107	-0.130
-159.750	-69.463	0.169	0.064
-158.735	-200.000	-0.010	0.073
-157.720	-53.017	0.169	-0.076
-156.706	-200.000	0.008	-0.042
-155.691	-15.543	0.178	-0.112
-154.677	182.544	-0.135	-0.195
-153.662	-200.000	-0.011	-0.089
-152.647	-70.710	0.192	-0.071
-151.633	-115.921	0.167	0.030
-150.618	63.779	0.049	-0.048
-149.604	-107.816	-0.364	-0.078
-148.589	10.562	-0.165	-0.123
-147.574	-95.630	-0.329	-0.086
-146.560	-185.018	0.445	-0.007
-145.545	-88.092	0.224	0.066
-144.531	624.984	-0.119	-0.295
-143.516	-115.333	0.220	-0.041
-142.502	-148.129	0.243	0.020
-141.487	214.397	-0.044	0.069
-140.472	-200.000	-0.002	0.197
-139.458	-104.828	0.360	-0.081
-138.443	-71.833	-0.065	-0.024
-137.429	145.613	0.145	-0.190
-136.414	-152.014	0.245	-0.018
-135.399	197.306	-0.219	-0.328
-134.385	143.863	0.107	-0.140
-133.370	-115.090	-0.207	0.038
-132.356	-34.879	-0.246	0.132
-131.341	193.880	0.098	-0.146
-130.326	-200.000	0.007	-0.066
-129.312	-158.471	-0.185	0.010
-128.297	-72.042	-0.074	-0.027
-127.283	-45.845	-0.164	0.079
-126.268	-200.000	0.029	-0.130
-125.253	-200.000	0.007	0.165
-124.239	-43.430	-0.422	-0.209
-123.224	-200.000	-0.003	-0.044
-122.210	114.504	0.126	0.150
-121.195	45.783	0.118	0.106
