DTS Sentinel unit serial number:	SN413079Multiplexer serial number:	ORYXHardware model number:	OX4-SRSoftware version number:	ORYX F/W v4.00 Oryx Data Collector v3.7.2.0data status	okinstallation	princeton_trtdifferential loss correction	single-endedforward channel	channel 3reverse channel	N/Adate	2019/09/17time	08:08:35forward acquisition time	60.00reverse acquisition time	0.00gamma	496.2192k internal	0.2334k external	0.2334temperature offset calibration	0.9938default loss term (dB/km)	0.3790temperature slope calibration	1.0000multiplexer offset coefficient	1.0000multiplexer slope coefficient	1.0000fibre end	0.00T internal ref (°C)	27.31T ext. ref 1 (°C)	0.12T ext. ref 2 (°C)	22.58length (m)	temperature (°C)	Stokes	anti-Stokes-747.200	242.516	-0.103	0.174
-746.185	56.313	-0.235	-0.229
-745.171	-19.657	0.083	0.051
-744.156	93.632	-0.213	0.242
-743.142	-153.450	0.376	0.026
-742.127	800.000	0.077	0.219
-741.112	-195.126	-0.297	-0.002
-740.098	108.986	-0.116	0.140
-739.083	-145.968	-0.240	0.021
-738.069	-200.000	0.015	0.130
-737.054	-16.396	0.098	0.062
-736.039	-200.000	-0.068	0.335
-735.025	-200.000	0.117	0.587
-734.010	-156.544	-0.324	-0.020
-732.996	-200.000	-0.002	-0.204
-731.981	-200.000	0.066	0.000
-730.966	-110.719	-0.416	-0.086
-729.952	122.427	-0.099	0.124
-728.937	-42.827	-0.226	-0.115
-727.923	800.000	0.052	-0.216
-726.908	20.463	-0.083	0.067
-725.894	360.148	0.105	-0.212
-724.879	800.000	-0.090	0.287
-723.864	167.096	-0.072	-0.103
-722.850	-94.362	-0.384	0.105
-721.835	-200.000	0.001	0.102
-720.821	-200.000	-0.014	-0.098
-719.806	-2.289	0.289	0.203
-718.791	-179.018	0.192	-0.004
-717.777	800.000	0.102	0.412
-716.762	350.138	0.075	-0.150
-715.748	612.963	0.079	-0.198
-714.733	-55.740	0.357	-0.160
-713.718	-38.878	0.188	-0.100
-712.704	117.546	0.080	0.098
-711.689	229.021	0.131	0.215
-710.675	787.325	0.032	-0.087
-709.660	800.000	-0.054	0.155
-708.645	38.556	-0.148	0.133
-707.631	42.636	0.123	0.112
-706.616	-144.750	-0.152	0.014
-705.602	-101.876	0.259	-0.063
-704.587	-137.140	-0.168	0.019
-703.572	-38.866	-0.262	0.139
-702.558	26.487	0.037	0.031
-701.543	800.000	-0.058	0.254
-700.529	-127.325	0.214	-0.031
-699.514	74.611	-0.156	0.165
-698.499	410.177	0.166	0.352
-697.485	-26.527	0.041	-0.024
-696.470	168.217	-0.117	-0.167
-695.456	65.331	0.166	0.169
-694.441	-49.585	0.202	0.097
-693.426	26.101	-0.138	0.116
-692.412	-117.127	-0.260	0.048
-691.397	-36.007	0.221	-0.120
-690.383	800.000	0.056	0.207
-689.368	-49.250	0.260	-0.125
-688.354	2.697	-0.282	0.205
-687.339	-96.643	-0.238	0.063
-686.324	-23.783	-0.166	0.099
-685.310	800.000	0.085	0.249
-684.295	-2.246	-0.052	-0.036
-683.281	-200.000	0.026	-0.341
-682.266	116.130	-0.148	0.182
-681.251	-48.376	-0.085	-0.041
-680.237	-88.121	0.283	0.085
-679.222	-116.380	0.073	0.014
-678.208	64.611	-0.280	-0.283
-677.193	-93.500	-0.247	-0.068
-676.178	-39.601	-0.117	0.061
-675.164	-49.944	0.143	-0.068
-674.149	555.596	-0.076	-0.185
-673.135	45.439	-0.418	0.386
-672.120	-200.000	-0.016	0.080
-671.105	-44.138	-0.283	-0.142
-670.091	-10.762	-0.229	-0.152
-669.076	-26.173	-0.172	0.101
-668.062	800.000	-0.094	0.278
-667.047	71.089	-0.226	-0.235
-666.032	-126.295	-0.150	-0.022
-665.018	236.794	-0.092	0.152
-664.003	-143.595	-0.196	-0.019
-662.989	-30.848	-0.136	-0.077
-661.974	21.211	0.009	-0.007
-660.959	-200.000	0.067	0.403
-659.945	-200.000	-0.028	-0.235
-658.930	-80.745	-0.036	0.012
-657.916	333.504	-0.053	0.102
-656.901	-72.451	0.175	-0.065
-655.886	-142.785	0.158	0.015
-654.872	30.588	0.246	-0.211
-653.857	78.904	0.048	0.051
-652.843	-200.000	-0.014	-0.257
-651.828	-200.000	0.004	-0.393
-650.814	-91.772	-0.059	-0.017
-649.799	-4.741	0.101	-0.070
-648.784	-200.000	0.029	-0.234
-647.770	135.485	0.141	0.183
-646.755	16.252	0.062	0.049
-645.741	-55.935	-0.344	-0.154
-644.726	-200.000	-0.005	-0.039
-643.711	32.156	-0.324	0.280
-642.697	-200.000	0.026	0.308
-641.682	58.391	0.222	0.218
-640.668	123.079	0.062	0.078
-639.653	-103.783	-0.383	-0.090
-638.638	-119.813	-0.331	-0.057
-637.624	-15.854	-0.080	-0.051
-636.609	-0.256	0.181	-0.129
-635.595	-21.865	-0.043	-0.026
-634.580	283.447	0.136	0.244
-633.565	266.796	0.106	0.186
-632.551	-200.000	-0.064	0.424
-631.536	-200.000	-0.031	0.235
-630.522	16.513	-0.166	-0.131
-629.507	12.050	0.067	0.051
-628.492	-53.202	0.058	0.027
-627.478	-200.000	0.064	-0.366
-626.463	96.399	-0.199	0.228
-625.449	-54.236	-0.333	0.152
-624.434	21.315	0.226	-0.184
-623.419	-200.000	-0.005	0.388
-622.405	-129.212	0.216	-0.030
-621.390	-200.000	-0.023	0.170
-620.376	-112.382	0.234	-0.047
-619.361	65.961	-0.186	0.189
-618.346	168.893	0.134	0.191
-617.332	-101.622	-0.319	0.078
-616.317	110.216	-0.279	-0.335
-615.303	-8.330	-0.178	0.119
-614.288	94.991	-0.116	0.132
-613.273	-200.000	0.017	0.077
-612.259	-74.314	0.145	0.052
-611.244	-28.823	-0.081	0.047
-610.230	231.050	-0.234	0.383
-609.215	-36.380	0.382	-0.206
-608.201	-200.000	0.034	0.256
-607.186	57.909	0.148	-0.145
-606.171	-3.158	-0.376	0.262
-605.157	-61.693	0.215	0.090
-604.142	156.950	-0.194	-0.267
-603.128	-80.397	-0.088	0.029
-602.113	800.000	-0.100	-0.325
-601.098	427.728	0.072	0.156
-600.084	-89.296	0.282	-0.083
-599.069	158.527	0.112	-0.155
-598.055	-9.745	-0.043	-0.029
-597.040	-101.414	0.341	-0.083
-596.025	-140.937	-0.033	0.003
-595.011	-87.517	-0.506	-0.153
-593.996	-58.453	-0.245	0.106
-592.982	165.051	-0.133	-0.188
-591.967	-42.332	0.134	0.068
-590.952	365.086	0.027	-0.054
-589.938	800.000	-0.047	-0.153
-588.923	-38.189	-0.167	-0.088
-587.909	-66.253	-0.162	0.065
-586.894	125.915	-0.058	-0.073
-585.879	-85.524	-0.359	-0.112
-584.865	49.990	0.077	0.072
-583.850	27.447	-0.258	-0.217
-582.836	800.000	0.078	0.307
-581.821	-110.838	-0.204	0.042
-580.806	-200.000	-0.055	-0.259
-579.792	-113.819	-0.173	-0.034
-578.777	-144.236	0.118	-0.011
-577.763	-0.367	-0.079	-0.056
-576.748	-75.926	-0.160	-0.057
-575.733	71.488	0.452	-0.469
-574.719	-85.219	0.044	-0.014
-573.704	-50.319	0.156	-0.074
-572.690	159.759	-0.054	-0.075
-571.675	-200.000	-0.034	0.269
-570.661	-200.000	0.013	-0.209
-569.646	-145.216	-0.285	0.026
-568.631	151.300	-0.177	-0.241
-567.617	589.463	0.072	-0.177
-566.602	4.628	-0.151	-0.111
-565.588	14.655	-0.165	0.129
-564.573	800.000	0.067	-0.233
-563.558	-139.806	0.239	-0.025
-562.544	49.355	0.147	0.138
-561.529	103.184	-0.077	-0.090
-560.515	2.209	-0.252	-0.182
-559.500	512.507	0.040	-0.093
-558.485	146.476	0.162	-0.217
-557.471	237.437	-0.170	-0.282
-556.456	760.255	0.049	0.133
-555.442	14.972	0.408	0.318
-554.427	-50.679	0.325	0.153
-553.412	-65.787	-0.198	-0.079
-552.398	80.671	0.114	-0.122
-551.383	-199.010	0.427	0.002
-550.369	-155.309	0.195	-0.013
-549.354	121.925	-0.321	-0.400
-548.339	-0.538	0.242	0.171
-547.325	215.852	-0.109	-0.172
-546.310	223.486	-0.162	-0.260
-545.296	31.496	-0.120	0.103
-544.281	-200.000	0.009	0.132
-543.266	98.860	-0.182	-0.209
-542.252	32.771	-0.013	-0.011
-541.237	122.406	0.104	-0.129
-540.223	-200.000	0.040	0.280
-539.208	-200.000	-0.006	0.161
-538.193	-200.000	0.021	-0.495
-537.179	-157.305	0.193	-0.012
-536.164	94.955	-0.220	-0.249
-535.150	74.861	0.210	0.221
-534.135	9.543	0.316	0.239
-533.121	-200.000	0.003	-0.090
-532.106	691.761	-0.098	0.256
-531.091	-50.037	0.181	-0.085
-530.077	-81.419	-0.169	0.055
-529.062	-200.000	-0.004	-0.356
-528.048	362.269	0.128	-0.256
-527.033	-4.096	-0.190	-0.131
-526.018	11.125	0.074	0.056
-525.004	-99.567	-0.315	-0.079
-523.989	-32.353	0.227	0.126
-522.975	11.315	-0.217	-0.166
-521.960	800.000	-0.098	0.276
-520.945	-16.636	0.175	0.110
-519.931	246.166	0.140	0.235
-518.916	79.835	0.130	0.139
-517.902	-200.000	-0.061	-0.326
-516.887	-106.977	-0.164	-0.036
-515.872	-60.756	-0.267	0.113
-514.858	-139.227	0.309	-0.033
-513.843	-200.000	0.004	-0.246
-512.829	701.404	0.108	-0.282
-511.814	-60.551	0.166	-0.070
-510.799	215.467	-0.158	-0.250
-509.785	-200.000	-0.023	0.117
-508.770	20.913	-0.226	-0.182
-507.756	17.024	0.080	-0.063
-506.741	-200.000	0.029	0.572
-505.726	149.231	-0.134	0.181
-504.712	21.543	-0.117	-0.095
-503.697	33.316	0.207	0.179
-502.683	800.000	-0.046	0.177
-501.668	119.722	-0.072	0.089
-500.653	-143.433	0.211	0.020
-499.639	-200.000	0.008	0.131
-498.624	800.000	0.069	0.292
-497.610	800.000	0.018	-0.074
-496.595	-99.485	0.107	0.027
-495.581	-200.000	-0.029	-0.154
-494.566	-63.798	-0.341	0.139
-493.551	-200.000	0.018	0.118
-492.537	370.047	-0.050	0.100
-491.522	-200.000	0.005	-0.170
-490.508	272.687	-0.090	0.158
-489.493	-200.000	0.004	0.114
-488.478	43.500	0.322	0.293
-487.464	800.000	-0.068	-0.198
-486.449	-93.675	0.137	0.038
-485.435	-52.973	0.313	-0.143
-484.420	621.655	0.133	0.332
-483.405	-147.088	0.483	-0.041
-482.391	-200.000	0.301	0.001
-481.376	-30.468	0.069	0.039
-480.362	-58.997	0.044	0.019
-479.347	34.821	0.041	0.036
-478.332	800.000	-0.031	0.097
-477.318	800.000	-0.057	0.184
-476.303	-39.906	0.032	0.016
-475.289	83.552	0.156	-0.169
-474.274	800.000	-0.028	-0.116
-473.259	51.653	-0.183	0.173
-472.245	-200.000	0.015	0.085
-471.230	192.444	-0.067	-0.101
-470.216	-113.400	-0.260	0.051
-469.201	85.299	-0.083	0.091
-468.186	-11.713	0.418	-0.273
-467.172	-74.175	0.233	-0.084
-466.157	388.169	-0.056	0.114
-465.143	164.541	-0.106	-0.149
-464.128	-133.935	0.104	0.013
-463.113	-200.000	-0.005	-0.104
-462.099	-97.809	0.077	-0.020
-461.084	212.631	-0.105	-0.165
-460.070	-10.929	-0.174	-0.114
-459.055	-192.373	0.202	0.002
-458.040	281.208	0.031	-0.056
-457.026	800.000	-0.125	-0.400
-456.011	-117.187	-0.371	0.067
-454.997	97.688	-0.159	0.182
-453.982	-79.946	-0.403	-0.134
-452.968	153.224	0.074	-0.100
-451.953	-55.118	0.257	0.115
-450.938	800.000	0.140	0.397
-449.924	-52.020	-0.112	0.052
-448.909	398.403	-0.130	0.270
-447.895	272.763	0.142	0.249
-446.880	-131.539	0.192	-0.025
-445.865	5.056	-0.052	0.038
-444.851	25.635	-0.071	-0.059
-443.836	-139.768	0.127	0.013
-442.822	-13.498	0.181	-0.116
-441.807	-20.118	0.195	0.120
-440.792	-39.310	0.236	-0.123
-439.778	7.389	-0.103	-0.076
-438.763	800.000	-0.113	0.421
-437.749	-62.906	-0.125	0.052
-436.734	125.808	-0.053	0.067
-435.719	-200.000	-0.008	-0.365
-434.705	-200.000	-0.018	0.149
-433.690	-103.485	0.148	-0.034
-432.676	-14.650	0.238	-0.152
-431.661	-103.766	0.094	0.022
-430.646	-70.930	-0.268	0.100
-429.632	8.998	-0.125	0.094
-428.617	-77.786	-0.176	0.060
-427.603	9.929	0.211	0.159
-426.588	44.183	-0.250	-0.227
-425.573	-76.136	0.105	-0.037
-424.559	150.067	0.116	0.156
-423.544	-33.855	-0.166	-0.091
-422.530	-109.099	0.330	0.070
-421.515	91.949	-0.276	-0.309
-420.500	-159.529	-0.307	-0.017
-419.486	-200.000	0.068	-0.299
-418.471	164.618	0.109	-0.152
-417.457	-74.208	-0.185	-0.066
-416.442	-200.000	0.059	0.324
-415.428	12.091	-0.146	0.112
-414.413	-200.000	0.069	-0.515
-413.398	-172.104	-0.142	0.005
-412.384	159.556	-0.162	-0.224
-411.369	-60.581	-0.278	-0.117
-410.355	-57.403	0.221	-0.096
-409.340	-41.410	0.020	-0.010
-408.325	-36.873	-0.094	0.050
-407.311	265.490	0.010	0.017
-406.296	800.000	0.042	0.176
-405.282	-200.000	-0.023	0.187
-404.267	84.173	0.060	-0.065
-403.252	-104.240	0.052	0.012
-402.238	-124.892	-0.038	0.006
-401.223	218.436	-0.180	0.285
-400.209	40.601	0.160	0.143
-399.194	2.773	-0.122	0.088
-398.179	-200.000	-0.006	-0.051
-397.165	240.648	0.202	0.334
-396.150	28.915	0.206	0.173
-395.136	-119.388	0.250	-0.043
-394.121	206.906	0.047	-0.073
-393.106	258.190	0.214	-0.365
-392.092	-73.912	0.131	0.047
-391.077	-200.000	-0.065	0.309
-390.063	5.429	0.053	0.039
-389.048	159.752	0.140	0.193
-388.033	-128.512	-0.240	-0.034
-387.019	-200.000	-0.015	0.107
-386.004	-52.007	0.254	-0.117
-384.990	-147.806	-0.087	-0.007
-383.975	800.000	-0.131	0.438
-382.960	-200.000	0.005	0.266
-381.946	137.305	0.165	0.214
-380.931	273.658	-0.081	0.141
-379.917	-200.000	0.049	0.227
-378.902	-133.247	-0.110	0.014
-377.888	-200.000	-0.018	-0.138
-376.873	181.153	0.155	0.225
-375.858	800.000	0.099	-0.281
-374.844	800.000	-0.057	0.200
-373.829	-200.000	0.044	0.239
-372.815	-200.000	0.021	-0.120
-371.800	-3.435	0.102	0.070
-370.785	136.501	0.159	0.206
-369.771	31.914	-0.297	-0.253
-368.756	-200.000	-0.008	0.044
-367.742	-76.761	0.050	0.017
-366.727	-19.533	0.212	-0.130
-365.712	-200.000	-0.008	-0.150
-364.698	48.699	0.182	-0.169
-363.683	339.232	0.044	-0.085
-362.669	-158.895	-0.133	0.008
-361.654	-188.562	-0.521	-0.006
-360.639	56.183	0.241	0.232
-359.625	616.385	0.096	0.238
-358.610	-14.442	0.196	-0.125
-357.596	717.299	-0.137	0.359
-356.581	-98.598	-0.152	0.038
-355.566	-3.949	-0.216	-0.149
-354.552	-123.347	0.150	0.024
-353.537	141.113	-0.012	0.015
-352.523	112.272	-0.113	0.136
-351.508	174.890	0.295	-0.423
-350.493	-200.000	-0.002	-0.205
-349.479	186.758	-0.182	0.269
-348.464	16.126	-0.171	0.133
-347.450	-38.391	0.174	-0.091
-346.435	800.000	-0.046	0.165
-345.420	116.019	0.319	-0.386
-344.406	-200.000	0.003	0.232
-343.391	-2.232	0.114	0.079
-342.377	-74.845	-0.044	-0.015
-341.362	-200.000	-0.022	-0.402
-340.348	-55.294	-0.137	0.061
-339.333	-82.079	-0.294	-0.095
-338.318	-1.662	0.156	0.109
-337.304	-200.000	0.040	0.196
-336.289	-134.400	-0.156	0.019
-335.275	69.891	0.294	0.300
-334.260	-200.000	0.029	0.134
-333.245	-19.676	0.260	-0.159
-332.231	-99.250	0.140	0.035
-331.216	92.965	-0.111	-0.124
-330.202	-47.810	-0.268	-0.128
-329.187	10.800	-0.072	0.055
-328.172	-82.771	-0.264	0.084
-327.158	606.900	0.015	-0.038
-326.143	-62.140	-0.170	-0.070
-325.129	-23.169	0.290	-0.172
-324.114	47.703	-0.126	-0.116
-323.099	-64.714	-0.161	0.064
-322.085	9.301	0.140	0.105
-321.070	-119.684	0.119	-0.020
-320.056	-74.974	-0.054	0.019
-319.041	75.141	-0.270	-0.281
-318.026	-200.000	0.050	-0.280
-317.012	-25.984	-0.112	0.065
-315.997	115.868	0.065	-0.079
-314.983	-78.529	-0.201	-0.068
-313.968	-200.000	-0.022	-0.313
-312.953	-92.162	-0.040	-0.011
-311.939	-89.807	-0.048	-0.014
-310.924	-200.000	-0.038	-0.252
-309.910	-200.000	-0.000	-0.087
-308.895	-106.074	0.220	-0.049
-307.880	-159.805	0.113	-0.006
-306.866	348.282	0.083	-0.161
-305.851	366.297	0.068	0.135
-304.837	-200.000	0.003	-0.026
-303.822	800.000	-0.098	0.331
-302.807	138.218	0.072	-0.093
-301.793	-200.000	-0.027	-0.178
-300.778	33.867	-0.191	-0.164
-299.764	56.561	0.256	0.246
-298.749	109.295	-0.137	0.162
-297.735	-34.275	0.043	0.023
-296.720	-103.388	-0.224	0.052
-295.705	-48.312	0.459	-0.218
-294.691	-200.000	-0.001	-0.105
-293.676	-200.000	-0.046	-0.282
-292.662	-59.562	0.191	0.081
-291.647	-44.141	0.287	0.142
-290.632	-200.000	0.007	-0.156
-289.618	11.844	-0.158	-0.120
-288.603	674.267	0.099	0.254
-287.589	10.907	-0.144	0.108
-286.574	-10.405	-0.107	-0.070
-285.559	-124.154	0.313	0.048
-284.545	-200.000	0.044	-0.236
-283.530	800.000	0.166	-0.485
-282.516	-200.000	0.061	-0.274
-281.501	77.846	0.107	0.113
-280.486	69.734	-0.142	-0.145
-279.472	-200.000	0.027	0.192
-278.457	800.000	0.115	0.413
-277.443	-126.619	-0.245	-0.036
-276.428	800.000	0.031	-0.090
-275.413	124.074	-0.217	-0.268
-274.399	-200.000	0.049	0.249
-273.384	-63.261	-0.563	0.229
-272.370	-23.919	0.314	0.185
-271.355	-86.995	-0.114	0.034
-270.340	51.836	0.082	0.077
-269.326	794.372	0.075	0.203
-268.311	-15.229	-0.425	0.268
-267.297	-127.795	0.446	0.063
-266.282	-87.507	-0.293	0.087
-265.267	76.063	0.164	-0.171
-264.253	-38.686	0.197	-0.102
-263.238	430.540	-0.013	0.027
-262.224	44.629	-0.297	0.270
-261.209	800.000	0.039	-0.122
-260.195	-25.682	-0.062	0.036
-259.180	-121.663	0.100	0.016
-258.165	-115.579	0.231	-0.043
-257.151	197.216	-0.245	-0.368
-256.136	-200.000	0.197	0.001
-255.122	-43.599	-0.262	0.130
-254.107	-200.000	0.009	0.138
-253.092	-66.767	0.268	0.105
-252.078	684.093	-0.072	-0.186
-251.063	167.221	0.067	0.093
-250.049	-29.439	0.032	-0.018
-249.034	800.000	-0.062	0.186
-248.019	-85.733	0.283	0.087
-247.005	-200.000	-0.031	-0.289
-245.990	74.704	0.209	-0.217
-244.976	385.406	0.203	-0.413
-243.961	84.517	-0.061	0.066
-242.946	-139.623	0.261	0.027
-241.932	-200.000	-0.002	0.123
-240.917	-76.641	-0.319	0.110
-239.903	448.002	-0.070	-0.152
-238.888	-94.528	-0.538	-0.145
-237.873	-41.152	-0.155	-0.079
-236.859	258.363	0.137	-0.232
-235.844	-200.000	0.013	-0.158
-234.830	149.859	-0.275	0.367
-233.815	-11.725	-0.240	0.155
-232.800	190.017	0.070	-0.104
-231.786	-200.000	-0.066	0.327
-230.771	-68.153	-0.127	-0.049
-229.757	800.000	0.032	0.129
-228.742	-145.213	0.111	0.010
-227.727	-200.000	0.043	-0.319
-226.713	800.000	0.042	-0.160
-225.698	119.562	0.077	0.094
-224.684	-162.222	-0.077	-0.004
-223.669	124.792	-0.161	0.200
-222.655	239.354	-0.068	0.112
-221.640	78.652	0.223	-0.235
-220.625	-15.468	-0.215	-0.135
-219.611	-188.001	-0.312	0.004
-218.596	-200.000	-0.029	-0.147
-217.582	327.792	0.168	0.318
-216.567	50.614	0.062	0.057
-215.552	-200.000	-0.031	-0.173
-214.538	800.000	0.146	0.591
-213.523	-200.000	-0.041	-0.257
-212.509	48.036	0.170	-0.157
-211.494	-123.920	-0.369	-0.057
-210.479	-200.000	0.051	-0.252
-209.465	600.290	-0.026	0.064
-208.450	800.000	0.093	0.339
-207.436	711.721	-0.032	0.084
-206.421	27.278	0.181	0.150
-205.406	-124.062	-0.221	0.034
-204.392	800.000	-0.105	-0.376
-203.377	-158.272	0.335	0.019
-202.363	-200.000	-0.064	-0.292
-201.348	-52.524	0.159	0.072
-200.333	-38.725	-0.132	0.068
-199.319	-134.392	-0.148	-0.018
-198.304	-200.000	-0.006	-0.246
-197.290	-200.000	0.078	0.382
-196.275	-150.345	-0.038	-0.003
-195.260	-188.263	-0.241	-0.003
-194.246	800.000	-0.053	-0.204
-193.231	-200.000	-0.075	0.339
-192.217	-116.874	0.224	0.040
-191.202	-30.965	-0.127	0.071
-190.187	90.569	0.189	0.209
-189.173	28.884	-0.104	0.087
-188.158	-200.000	0.004	0.023
-187.144	-82.134	0.094	-0.030
-186.129	82.396	-0.241	0.258
-185.114	-62.984	-0.217	-0.088
-184.100	-88.389	-0.077	0.022
-183.085	800.000	-0.093	-0.300
-182.071	545.865	-0.107	-0.252
-181.056	120.264	0.293	0.357
-180.042	-39.709	0.140	-0.072
-179.027	-63.202	0.317	-0.128
-178.012	85.294	0.130	-0.140
-176.998	-75.050	-0.017	-0.006
-175.983	38.970	0.136	-0.120
-174.969	-109.711	-0.084	0.017
-173.954	-200.000	0.015	0.088
-172.939	-82.645	0.234	-0.075
-171.925	-2.480	-0.139	0.096
-170.910	800.000	0.084	0.301
-169.896	-38.819	0.240	-0.124
-168.881	178.391	-0.264	0.378
-167.866	-152.659	0.185	0.013
-166.852	-200.000	-0.015	-0.267
-165.837	-200.000	0.014	-0.120
-164.823	800.000	-0.053	-0.198
-163.808	-38.483	0.110	0.057
-162.793	-11.426	-0.062	-0.040
-161.779	53.102	0.181	0.170
-160.764	-86.334	-0.038	-0.011
-159.750	37.414	0.281	-0.245
-158.735	-56.930	-0.097	0.042
-157.720	90.982	0.109	0.120
-156.706	579.990	-0.093	-0.224
-155.691	-200.000	-0.001	-0.056
-154.677	145.399	0.132	-0.174
-153.662	16.680	-0.101	0.079
-152.647	-48.488	-0.237	-0.112
-151.633	800.000	0.069	-0.198
-150.618	800.000	0.078	0.236
-149.604	-84.311	0.156	-0.048
-148.589	630.302	0.106	0.263
-147.574	-200.000	0.063	0.291
-146.560	-139.578	0.145	-0.015
-145.545	314.009	0.182	0.336
-144.531	-200.000	-0.292	0.001
-143.516	-68.813	0.187	0.071
-142.502	341.703	0.123	-0.236
-141.487	68.780	0.253	-0.255
-140.472	594.452	0.043	-0.105
-139.458	-39.144	-0.324	0.167
-138.443	-105.276	0.165	0.037
-137.429	93.131	0.152	0.169
-136.414	263.272	0.188	0.321
-135.399	129.544	0.091	0.114
-134.385	-28.575	-0.289	-0.163
-133.370	54.746	-0.060	-0.057
-132.356	167.555	-0.070	-0.097
-131.341	-70.035	0.380	0.142
-130.326	146.989	0.091	0.120
-129.312	355.193	0.159	0.310
-128.297	-91.714	-0.096	-0.027
-127.283	-7.572	0.095	-0.063
-126.268	-76.489	0.139	-0.048
-125.253	-200.000	0.020	0.242
-124.239	800.000	-0.066	0.182
-123.224	164.315	0.106	0.147
-122.210	-200.000	-0.055	0.399
-121.195	14.460	0.098	0.075
-120.180	42.116	-0.083	-0.074
