DTS Sentinel unit serial number:	SN413079Multiplexer serial number:	ORYXHardware model number:	OX4-SRSoftware version number:	ORYX F/W v4.00 Oryx Data Collector v3.7.2.0data status	okinstallation	princeton_trtdifferential loss correction	single-endedforward channel	channel 3reverse channel	N/Adate	2019/09/12time	20:44:34forward acquisition time	60.00reverse acquisition time	0.00gamma	496.2192k internal	0.2324k external	0.2324temperature offset calibration	1.0127default loss term (dB/km)	0.3790temperature slope calibration	1.0000multiplexer offset coefficient	1.0000multiplexer slope coefficient	1.0000fibre end	0.00T internal ref (°C)	31.06T ext. ref 1 (°C)	3.63T ext. ref 2 (°C)	25.60length (m)	temperature (°C)	Stokes	anti-Stokes-747.200	-149.955	0.168	0.013
-746.185	-57.886	-0.085	0.038
-745.171	142.696	0.073	0.098
-744.156	249.514	-0.212	0.362
-743.142	136.102	-0.131	0.172
-742.127	-68.515	0.292	0.114
-741.112	130.023	-0.130	-0.168
-740.098	-80.803	-0.272	0.091
-739.083	276.384	-0.050	-0.089
-738.069	109.317	0.358	0.433
-737.054	-8.009	0.173	0.118
-736.039	271.537	0.018	0.032
-735.025	-200.000	0.016	0.227
-734.010	-101.347	0.278	0.068
-732.996	-86.944	-0.155	-0.048
-731.981	-170.172	-0.331	0.012
-730.966	282.074	-0.138	-0.249
-729.952	-51.404	-0.316	-0.149
-728.937	-161.380	0.371	-0.019
-727.923	110.199	-0.191	-0.231
-726.908	-200.000	0.013	-0.197
-725.894	12.257	-0.264	-0.205
-724.879	-37.640	0.178	0.096
-723.864	-174.611	0.138	0.004
-722.850	-200.000	0.020	0.348
-721.835	-200.000	0.055	0.264
-720.821	-48.920	0.134	0.065
-719.806	-114.557	-0.150	0.029
-718.791	93.567	0.211	-0.241
-717.777	-14.610	0.177	-0.115
-716.762	-131.486	0.240	-0.032
-715.748	800.000	0.060	-0.212
-714.733	800.000	-0.055	-0.177
-713.718	161.742	-0.117	-0.165
-712.704	-200.000	0.010	0.155
-711.689	228.879	0.120	-0.197
-710.675	-200.000	-0.035	-0.329
-709.660	265.654	-0.163	-0.287
-708.645	26.369	0.080	0.067
-707.631	-97.000	0.132	-0.035
-706.616	-182.102	0.081	0.002
-705.602	-200.000	0.013	0.259
-704.587	-200.000	0.039	-0.210
-703.572	655.092	0.062	0.160
-702.558	-200.000	-0.005	0.028
-701.543	-8.302	-0.190	0.129
-700.529	-200.000	0.007	0.459
-699.514	-26.012	0.104	0.062
-698.499	-1.577	0.231	0.164
-697.485	126.306	0.199	-0.254
-696.470	314.632	-0.067	0.127
-695.456	34.705	0.263	0.231
-694.441	-41.938	-0.142	-0.074
-693.426	404.026	-0.009	0.020
-692.412	-3.260	0.048	0.034
-691.397	-200.000	0.016	0.154
-690.383	-200.000	0.052	-0.233
-689.368	-32.881	-0.205	0.114
-688.354	186.606	0.080	-0.121
-687.339	10.463	0.141	-0.108
-686.324	-200.000	-0.074	-0.363
-685.310	33.961	0.024	0.021
-684.295	723.679	-0.120	-0.323
-683.281	68.211	0.196	-0.202
-682.266	334.748	0.126	-0.246
-681.251	-90.839	-0.257	-0.074
-680.237	-124.822	0.219	-0.034
-679.222	245.461	-0.116	0.196
-678.208	-42.484	-0.168	-0.086
-677.193	2.607	0.078	-0.057
-676.178	-19.429	-0.196	0.123
-675.164	-139.688	-0.222	-0.024
-674.149	-77.840	0.166	-0.058
-673.135	97.790	0.057	-0.066
-672.120	-200.000	0.035	0.221
-671.105	-200.000	-0.009	0.096
-670.091	638.611	0.110	-0.282
-669.076	-200.000	-0.016	-0.114
-668.062	-98.776	0.113	-0.029
-667.047	30.791	0.198	-0.171
-666.032	-200.000	-0.275	-0.001
-665.018	142.701	-0.083	-0.111
-664.003	-11.903	0.158	-0.104
-662.989	-191.956	-0.254	0.002
-661.974	25.108	-0.224	-0.187
-660.959	-200.000	0.011	0.071
-659.945	-22.235	-0.187	0.114
-658.930	800.000	-0.055	-0.183
-657.916	292.100	-0.081	-0.149
-656.901	15.466	-0.203	-0.160
-655.886	-136.040	-0.294	0.035
-654.872	-35.213	0.300	0.164
-653.857	197.774	0.056	-0.087
-652.843	-77.395	-0.225	0.079
-651.828	119.012	0.078	0.097
-650.814	-158.535	0.209	0.012
-649.799	-79.469	-0.244	0.083
-648.784	51.119	-0.148	-0.141
-647.770	-168.824	-0.304	-0.012
-646.755	-67.683	0.335	-0.132
-645.741	158.272	0.148	-0.207
-644.726	-76.366	-0.327	0.116
-643.711	113.347	-0.008	0.010
-642.697	800.000	-0.085	-0.240
-641.682	-147.171	-0.323	-0.028
-640.668	48.905	0.139	-0.131
-639.653	-33.960	-0.141	-0.078
-638.638	-84.224	-0.587	0.187
-637.624	-154.525	-0.191	0.013
-636.609	29.876	-0.013	0.011
-635.595	-74.474	0.126	0.046
-634.580	-200.000	0.007	-0.257
-633.565	-126.953	-0.065	0.010
-632.551	25.587	-0.227	0.190
-631.536	-200.000	-0.022	0.101
-630.522	485.527	-0.088	-0.202
-629.507	217.657	-0.066	-0.106
-628.492	31.730	0.179	0.155
-627.478	-54.706	-0.184	0.083
-626.463	257.735	0.172	-0.298
-625.449	-67.722	0.261	-0.103
-624.434	-200.000	0.013	-0.216
-623.419	800.000	0.106	-0.314
-622.405	15.356	0.327	0.258
-621.390	-159.048	-0.179	-0.010
-620.376	-89.978	0.459	0.134
-619.361	11.574	0.109	-0.084
-618.346	7.716	0.125	0.094
-617.332	293.594	-0.120	-0.220
-616.317	800.000	0.068	-0.244
-615.303	-46.066	-0.314	0.156
-614.288	107.252	-0.265	-0.317
-613.273	-59.420	-0.249	-0.107
-612.259	800.000	0.066	-0.229
-611.244	36.482	0.150	0.133
-610.230	-157.288	-0.222	0.013
-609.215	800.000	0.036	0.147
-608.201	-200.000	0.007	-0.132
-607.186	-88.281	-0.143	0.043
-606.171	-53.284	0.188	-0.087
-605.157	26.650	-0.505	-0.425
-604.142	131.717	-0.204	0.264
-603.128	104.016	-0.222	-0.262
-602.113	-95.023	-0.299	0.081
-601.098	167.318	0.193	-0.275
-600.084	-27.373	-0.089	0.052
-599.069	225.075	0.176	-0.286
-598.055	800.000	-0.084	-0.318
-597.040	-13.688	0.202	-0.131
-596.025	-59.204	-0.191	0.082
-595.011	-89.587	-0.244	0.072
-593.996	-200.000	0.077	0.356
-592.982	684.526	0.092	0.241
-591.967	396.805	0.094	0.196
-590.952	15.591	0.036	-0.028
-589.938	53.336	0.032	0.030
-588.923	-42.527	-0.273	0.139
-587.909	-123.882	-0.240	0.038
-586.894	-68.369	0.170	-0.066
-585.879	61.329	-0.122	0.121
-584.865	504.118	-0.123	-0.285
-583.850	456.362	0.109	0.242
-582.836	9.086	0.156	0.118
-581.821	135.924	-0.085	-0.111
-580.806	27.126	-0.023	0.020
-579.792	-200.000	0.043	-0.360
-578.777	-200.000	-0.008	-0.201
-577.763	800.000	-0.031	0.121
-576.748	-103.034	-0.385	-0.092
-575.733	-167.956	0.254	-0.010
-574.719	-200.000	-0.051	-0.301
-573.704	-147.855	-0.437	0.037
-572.690	197.222	0.034	-0.053
-571.675	161.783	-0.258	-0.362
-570.661	800.000	0.057	0.235
-569.646	71.934	-0.133	0.139
-568.631	-19.740	-0.302	-0.187
-567.617	-200.000	0.020	-0.264
-566.602	70.939	0.137	0.142
-565.588	-135.668	0.219	-0.026
-564.573	423.496	-0.062	-0.133
-563.558	315.498	-0.068	-0.128
-562.544	-134.643	0.234	-0.029
-561.529	-28.371	-0.288	0.167
-560.515	-71.257	-0.032	-0.012
-559.500	-200.000	0.008	0.137
-558.485	108.101	0.125	-0.150
-557.471	-200.000	0.023	0.226
-556.456	-185.013	0.474	0.007
-555.442	-121.616	-0.334	0.055
-554.427	800.000	-0.079	0.289
-553.412	-63.757	-0.151	0.062
-552.398	-52.978	-0.157	0.072
-551.383	-132.073	-0.568	0.074
-550.369	800.000	0.109	-0.311
-549.354	-103.314	0.483	-0.114
-548.339	362.013	-0.127	-0.256
-547.325	-200.000	0.033	-0.201
-546.310	-63.922	-0.100	0.041
-545.296	-56.952	-0.166	-0.073
-544.281	-74.601	0.091	-0.033
-543.266	756.784	0.038	-0.102
-542.252	-114.982	0.173	-0.033
-541.237	-200.000	-0.011	0.051
-540.223	-64.345	0.224	0.091
-539.208	81.685	0.102	0.111
-538.193	201.432	-0.079	-0.121
-537.179	357.090	0.110	-0.220
-536.164	-92.263	0.304	-0.086
-535.150	29.837	0.238	0.203
-534.135	-200.000	-0.020	0.160
-533.121	-16.775	0.091	0.058
-532.106	-60.548	-0.213	-0.090
-531.091	3.992	-0.244	-0.179
-530.077	421.235	0.097	0.208
-529.062	800.000	-0.089	0.386
-528.048	30.819	-0.124	-0.106
-527.033	-133.195	0.085	0.011
-526.018	162.929	-0.080	-0.113
-525.004	294.308	-0.163	0.298
-523.989	-200.000	-0.005	-0.224
-522.975	107.241	0.191	-0.227
-521.960	-188.289	-0.379	0.005
-520.945	-173.141	0.385	0.012
-519.931	298.072	-0.198	0.363
-518.916	95.704	0.083	-0.095
-517.902	-1.645	0.117	-0.082
-516.887	128.528	-0.100	0.128
-515.872	800.000	-0.042	0.126
-514.858	-200.000	0.004	-0.019
-513.843	239.927	0.021	0.035
-512.829	-200.000	-0.020	-0.235
-511.814	-147.290	-0.145	0.012
-510.799	-200.000	0.016	-0.107
-509.785	91.486	-0.199	-0.224
-508.770	-65.088	-0.074	-0.030
-507.756	233.954	0.201	0.331
-506.741	0.406	-0.363	-0.260
-505.726	-200.000	0.041	0.314
-504.712	-149.116	0.055	0.004
-503.697	28.872	-0.023	-0.019
-502.683	800.000	0.038	0.150
-501.668	54.135	0.145	-0.139
-500.653	-7.727	-0.047	-0.032
-499.639	-200.000	0.001	0.098
-498.624	15.361	-0.023	-0.018
-497.610	-104.408	0.360	0.083
-496.595	215.161	0.138	-0.219
-495.581	800.000	0.090	-0.289
-494.566	-147.102	0.180	0.015
-493.551	92.496	0.055	0.062
-492.537	-200.000	0.024	-0.136
-491.522	275.262	-0.200	0.354
-490.508	-18.646	-0.218	-0.136
-489.493	366.352	0.123	-0.248
-488.478	-89.610	0.323	-0.095
-487.464	377.433	-0.134	-0.274
-486.449	-200.000	0.059	0.282
-485.435	-104.295	-0.280	0.065
-484.420	-51.373	0.260	0.121
-483.405	-42.283	0.269	-0.137
-482.391	-40.427	-0.164	-0.085
-481.376	220.004	-0.042	-0.067
-480.362	800.000	-0.048	-0.159
-479.347	65.634	0.198	-0.200
-478.332	-47.760	-0.285	-0.138
-477.318	-114.488	0.096	-0.018
-476.303	-93.883	0.203	0.056
-475.289	-109.689	0.267	-0.056
-474.274	596.603	-0.080	-0.197
-473.259	-71.836	-0.365	-0.136
-472.245	29.141	0.426	0.362
-471.230	800.000	0.029	-0.087
-470.216	-200.000	-0.022	-0.132
-469.201	-139.860	-0.182	-0.019
-468.186	-200.000	0.037	-0.352
-467.172	800.000	-0.022	-0.075
-466.157	-200.000	-0.026	-0.146
-465.143	94.583	0.144	-0.163
-464.128	-19.850	-0.149	-0.092
-463.113	-115.835	0.559	0.104
-462.099	800.000	-0.122	0.371
-461.084	-200.000	0.036	-0.362
-460.070	800.000	0.013	0.038
-459.055	-73.027	0.272	-0.100
-458.040	-29.073	-0.178	0.102
-457.026	-200.000	0.016	0.104
-456.011	1.644	-0.182	0.131
-454.997	158.406	-0.166	0.229
-453.982	-78.212	0.224	-0.077
-452.968	275.355	0.284	0.502
-451.953	-39.246	0.186	-0.098
-450.938	65.272	-0.164	0.166
-449.924	241.243	-0.060	0.100
-448.909	-22.411	-0.164	-0.099
-447.895	111.820	0.046	0.055
-446.880	159.068	-0.105	-0.146
-445.865	-14.868	-0.144	0.092
-444.851	332.285	-0.181	0.349
-443.836	567.511	-0.102	0.246
-442.822	-132.496	0.280	0.036
-441.807	-13.414	-0.419	0.271
-440.792	94.020	0.149	0.169
-439.778	800.000	-0.107	0.299
-438.763	21.525	0.157	-0.127
-437.749	39.186	0.200	0.179
-436.734	800.000	0.085	0.241
-435.719	-5.403	0.237	0.162
-434.705	75.704	0.219	0.231
-433.690	800.000	0.046	-0.127
-432.676	-98.642	0.369	-0.094
-431.661	-200.000	0.083	-0.452
-430.646	386.989	0.205	0.423
-429.632	217.811	0.228	0.363
-428.617	-106.138	0.093	-0.021
-427.603	-56.304	0.131	-0.058
-426.588	-95.472	0.236	-0.063
-425.573	-42.469	0.068	0.035
-424.559	-40.132	-0.165	-0.086
-423.544	-70.820	0.268	0.101
-422.530	-197.128	-0.317	-0.002
-421.515	800.000	-0.053	0.154
-420.500	-30.489	0.184	-0.104
-419.486	145.324	0.061	-0.081
-418.471	-123.216	-0.479	-0.076
-417.457	307.537	-0.098	-0.182
-416.442	24.666	0.319	-0.263
-415.428	110.255	-0.197	-0.236
-414.413	-200.000	0.078	0.371
-413.398	-112.034	0.205	0.041
-412.384	0.698	0.223	-0.159
-411.369	-58.039	0.411	-0.179
-410.355	-200.000	-0.024	0.273
-409.340	310.262	-0.193	0.359
-408.325	-21.229	-0.065	-0.040
-407.311	-74.142	-0.117	-0.042
-406.296	-189.455	0.132	0.002
-405.282	523.647	0.128	-0.299
-404.267	-51.492	0.264	-0.123
-403.252	-200.000	-0.052	0.263
-402.238	-5.332	0.203	-0.139
-401.223	-97.562	0.160	0.041
-400.209	196.276	-0.032	0.049
-399.194	205.471	-0.149	-0.230
-398.179	152.962	0.107	0.146
-397.165	-20.115	-0.275	-0.169
-396.150	132.331	0.087	-0.112
-395.136	155.749	0.092	0.126
-394.121	552.438	-0.103	-0.247
-393.106	-38.328	0.230	0.121
-392.092	128.318	0.106	0.135
-391.077	217.874	0.174	0.277
-390.063	-200.000	-0.057	-0.437
-389.048	216.384	-0.184	-0.292
-388.033	-34.818	0.210	0.114
-387.019	23.125	-0.214	0.175
-386.004	37.557	0.149	0.132
-384.990	78.296	-0.207	0.220
-383.975	-107.667	0.419	-0.091
-382.960	-200.000	0.006	-0.103
-381.946	-200.000	0.003	0.178
-380.931	800.000	-0.070	-0.230
-379.917	-85.364	-0.154	0.048
-378.902	226.835	0.167	0.270
-377.888	345.750	-0.127	0.249
-376.873	-118.736	-0.135	0.024
-375.858	503.339	0.036	-0.084
-374.844	-96.359	0.014	-0.004
-373.829	-25.005	-0.139	0.082
-372.815	-95.060	-0.154	-0.041
-371.800	-93.646	-0.326	-0.090
-370.785	-22.512	-0.120	-0.072
-369.771	271.514	0.009	0.015
-368.756	-200.000	0.024	-0.259
-367.742	-200.000	-0.008	0.099
-366.727	70.228	0.121	-0.124
-365.712	-56.920	0.450	0.198
-364.698	177.514	-0.256	0.371
-363.683	-140.497	-0.518	0.054
-362.669	90.590	-0.173	0.193
-361.654	135.581	0.161	0.208
-360.639	92.333	0.274	-0.307
-359.625	-182.046	-0.042	0.001
-358.610	194.524	-0.067	0.101
-357.596	-20.534	-0.269	0.164
-356.581	-44.519	-0.043	0.021
-355.566	-163.732	-0.018	-0.001
-354.552	416.635	-0.297	0.629
-353.537	351.642	-0.141	-0.277
-352.523	-200.000	-0.006	0.076
-351.508	-49.143	-0.298	-0.141
-350.493	-12.459	-0.331	0.215
-349.479	-200.000	-0.001	0.304
-348.464	273.133	-0.144	-0.253
-347.450	7.166	0.057	-0.042
-346.435	373.758	0.169	-0.342
-345.420	-27.389	-0.224	0.130
-344.406	282.752	-0.161	0.286
-343.391	-200.000	0.037	0.332
-342.377	-79.084	-0.238	-0.080
-341.362	-33.764	-0.111	0.061
-340.348	195.051	-0.198	-0.299
-339.333	-125.688	0.172	-0.026
-338.318	-79.810	-0.226	-0.076
-337.304	-60.565	-0.171	-0.072
-336.289	-26.212	-0.164	0.095
-335.275	138.979	0.132	0.172
-334.260	-116.476	-0.172	-0.032
-333.245	117.540	-0.019	0.024
-332.231	-66.389	0.151	0.059
-331.216	800.000	0.074	-0.254
-330.202	32.040	0.361	0.309
-329.187	-128.946	0.082	0.011
-328.172	800.000	0.062	0.231
-327.158	262.098	-0.095	-0.163
-326.143	61.693	0.191	-0.189
-325.129	74.628	0.165	0.172
-324.114	141.881	0.120	0.158
-323.099	73.887	-0.073	-0.076
-322.085	104.329	-0.125	0.147
-321.070	41.514	0.339	-0.305
-320.056	-48.588	-0.061	-0.029
-319.041	-200.000	-0.006	0.032
-318.026	170.206	0.205	0.292
-317.012	-117.860	-0.099	-0.018
-315.997	29.708	-0.131	0.110
-314.983	408.608	-0.115	-0.242
-313.968	-96.239	0.270	-0.071
-312.953	-22.399	0.126	-0.076
-311.939	-200.000	0.024	0.196
-310.924	800.000	0.085	0.235
-309.910	-61.713	0.165	0.068
-308.895	-200.000	0.010	-0.062
-307.880	-200.000	0.012	-0.115
-306.866	658.546	0.057	0.146
-305.851	-109.046	-0.189	0.040
-304.837	14.026	-0.118	-0.091
-303.822	-129.696	0.194	0.027
-302.807	-200.000	0.017	-0.249
-301.793	-140.650	-0.223	0.023
-300.778	-108.941	-0.183	0.039
-299.764	23.672	-0.242	0.197
-298.749	-112.615	-0.117	0.023
-297.735	-120.666	-0.393	-0.066
-296.720	-129.113	0.108	0.015
-295.705	127.134	0.034	-0.043
-294.691	-152.594	-0.267	-0.019
-293.676	-142.918	0.253	-0.024
-292.662	-200.000	0.034	0.379
-291.647	-61.515	0.234	-0.098
-290.632	357.864	-0.108	0.213
-289.618	-200.000	-0.019	0.288
-288.603	800.000	-0.099	0.385
-287.589	2.240	-0.293	0.210
-286.574	-200.000	-0.008	0.137
-285.559	-52.831	-0.039	0.018
-284.545	-71.598	0.276	-0.102
-283.530	-92.282	-0.355	0.099
-282.516	800.000	0.062	-0.269
-281.501	134.635	-0.107	-0.138
-280.486	-117.884	0.245	-0.044
-279.472	-85.944	-0.136	-0.042
-278.457	-12.972	-0.051	0.033
-277.443	114.089	-0.074	-0.090
-276.428	-200.000	-0.010	0.261
-275.413	558.867	0.032	-0.076
-274.399	-95.527	0.080	-0.021
-273.384	10.859	0.145	-0.110
-272.370	-8.925	0.263	-0.175
-271.355	-106.522	0.322	0.071
-270.340	2.831	-0.215	0.155
-269.326	-98.032	-0.279	0.071
-268.311	800.000	-0.143	0.554
-267.297	-200.000	-0.010	0.204
-266.282	-200.000	-0.006	0.098
-265.267	-200.000	0.027	-0.212
-264.253	-88.140	-0.074	-0.022
-263.238	800.000	-0.100	0.348
-262.224	99.654	-0.161	0.184
-261.209	-140.256	0.193	-0.020
-260.195	-62.966	0.269	-0.110
-259.180	-93.664	-0.293	0.080
-258.165	0.567	0.183	-0.129
-257.151	55.906	0.134	-0.129
-256.136	-20.670	0.216	0.131
-255.122	466.947	0.186	0.412
-254.107	186.148	0.087	0.129
-253.092	144.994	0.176	-0.233
-252.078	-148.818	-0.298	0.024
-251.063	22.703	0.234	-0.190
-250.049	-200.000	0.030	0.236
-249.034	-32.865	0.140	-0.077
-248.019	-93.124	-0.250	-0.069
-247.005	-146.792	0.076	0.006
-245.990	-200.000	-0.029	0.317
-244.976	-79.697	0.143	-0.048
-243.961	-34.030	0.079	-0.043
-242.946	-200.000	-0.035	-0.477
-241.932	63.352	-0.258	0.256
-240.917	17.891	0.114	0.090
-239.903	-41.707	0.131	-0.067
-238.888	-193.494	0.221	0.002
-237.873	-43.958	0.157	0.078
-236.859	-200.000	0.029	0.221
-235.844	800.000	-0.104	0.310
-234.830	49.422	-0.168	-0.156
-233.815	800.000	-0.029	-0.102
-232.800	-14.840	0.073	-0.047
-231.786	800.000	-0.048	-0.157
-230.771	800.000	-0.096	-0.315
-229.757	736.834	-0.050	-0.132
-228.742	50.596	0.149	0.139
-227.727	-46.299	0.084	-0.041
-226.713	176.798	-0.019	0.028
-225.698	170.672	0.198	-0.281
-224.684	800.000	0.117	-0.403
-223.669	-84.502	0.352	0.110
-222.655	332.189	-0.074	0.142
-221.640	211.307	0.118	-0.183
-220.625	800.000	0.058	-0.221
-219.611	-58.958	0.050	0.021
-218.596	-68.685	0.211	-0.081
-217.582	-60.641	-0.093	0.039
-216.567	800.000	0.042	0.146
-215.552	44.141	0.257	-0.233
-214.538	-83.948	-0.114	-0.036
-213.523	31.026	-0.107	0.091
-212.509	637.580	0.150	-0.378
-211.494	23.878	-0.090	-0.074
-210.479	800.000	0.026	-0.073
-209.465	-200.000	0.028	-0.152
-208.450	-200.000	-0.011	-0.182
-207.436	15.499	0.107	-0.083
-206.421	-100.152	0.128	-0.031
-205.406	-200.000	0.039	0.235
-204.392	-200.000	0.043	-0.240
-203.377	-52.264	-0.215	0.098
-202.363	-149.876	0.179	-0.014
-201.348	800.000	-0.052	-0.174
-200.333	-65.638	0.310	0.123
-199.319	73.946	0.140	0.145
-198.304	-79.613	-0.118	0.039
-197.290	-123.245	-0.176	0.028
-196.275	267.518	0.125	-0.216
-195.260	-153.679	-0.028	-0.002
-194.246	-17.134	0.263	0.164
-193.231	-200.000	0.085	-0.403
-192.217	74.927	0.054	0.057
-191.202	153.470	0.158	-0.213
-190.187	-64.938	0.065	-0.026
-189.173	800.000	-0.135	0.405
-188.158	119.142	0.103	-0.125
-187.144	800.000	0.022	-0.075
-186.129	-89.345	-0.057	0.017
-185.114	280.778	-0.146	0.257
-184.100	-118.320	-0.222	-0.039
-183.085	-200.000	-0.002	0.022
-182.071	-27.585	0.080	-0.046
-181.056	-76.873	-0.280	-0.097
-180.042	220.004	0.174	0.275
-179.027	-200.000	-0.019	0.449
-178.012	800.000	0.062	0.251
-176.998	72.221	-0.149	-0.153
-175.983	-73.541	-0.263	-0.095
-174.969	378.804	0.107	-0.217
-173.954	77.989	0.063	-0.066
-172.939	40.703	0.067	0.059
-171.925	800.000	0.111	0.329
-170.910	-73.045	0.352	0.128
-169.896	403.479	-0.133	-0.275
-168.881	402.342	0.056	-0.116
-167.866	-200.000	0.061	-0.284
-166.852	-200.000	-0.026	-0.157
-165.837	36.276	0.221	-0.192
-164.823	-52.249	-0.163	0.074
-163.808	-42.978	0.061	0.031
-162.793	335.019	0.019	-0.035
-161.779	117.061	-0.137	0.166
-160.764	-133.030	-0.505	-0.063
-159.750	-58.876	0.153	-0.065
-158.735	-200.000	0.013	-0.095
-157.720	504.864	0.119	0.273
-156.706	121.473	-0.189	0.232
-155.691	-200.000	0.295	-0.000
-154.677	-61.368	-0.093	0.039
-153.662	-39.092	-0.053	-0.027
-152.647	-200.000	-0.059	-0.321
-151.633	800.000	-0.066	0.211
-150.618	800.000	-0.130	-0.384
-149.604	-64.684	0.177	0.071
-148.589	21.409	-0.276	-0.221
-147.574	-4.223	0.184	-0.126
-146.560	8.023	-0.234	0.173
-145.545	124.348	0.043	0.053
-144.531	-200.000	-0.003	0.086
-143.516	800.000	0.060	0.219
-142.502	110.038	-0.029	0.035
-141.487	-67.115	-0.323	-0.126
-140.472	96.959	-0.225	-0.254
-139.458	-200.000	-0.001	0.056
-138.443	-49.221	-0.148	-0.070
-137.429	266.187	0.172	-0.296
-136.414	-200.000	-0.028	-0.215
-135.399	-86.087	0.441	0.134
-134.385	-142.120	-0.269	-0.026
-133.370	616.645	0.084	0.208
-132.356	167.845	0.085	0.119
-131.341	575.854	-0.138	-0.332
-130.326	-200.000	-0.011	-0.262
-129.312	-122.570	0.369	0.059
-128.297	-130.122	-0.281	-0.038
-127.283	-200.000	-0.013	-0.200
-126.268	450.817	-0.052	-0.113
-125.253	-99.895	0.078	-0.019
-124.239	-177.888	-0.172	0.004
-123.224	258.583	0.199	-0.337
-122.210	-94.229	-0.224	-0.060
-121.195	800.000	-0.073	0.281
