DTS Sentinel unit serial number:	SN413079Multiplexer serial number:	ORYXHardware model number:	OX4-SRSoftware version number:	ORYX F/W v4.00 Oryx Data Collector v3.7.2.0data status	okinstallation	princeton_trtdifferential loss correction	single-endedforward channel	channel 3reverse channel	N/Adate	2019/09/16time	15:32:34forward acquisition time	60.00reverse acquisition time	0.00gamma	496.2192k internal	0.2292k external	0.2292temperature offset calibration	0.9941default loss term (dB/km)	0.3790temperature slope calibration	1.0000multiplexer offset coefficient	1.0000multiplexer slope coefficient	1.0000fibre end	0.00T internal ref (°C)	41.14T ext. ref 1 (°C)	14.68T ext. ref 2 (°C)	37.02length (m)	temperature (°C)	Stokes	anti-Stokes-747.200	369.402	0.124	0.256
-746.185	-200.000	0.024	0.387
-745.171	179.878	-0.099	-0.148
-744.156	-200.000	0.006	0.242
-743.142	-29.340	0.083	0.049
-742.127	-200.000	-0.025	0.684
-741.112	-51.439	-0.236	0.113
-740.098	-26.832	-0.253	0.152
-739.083	-161.899	0.029	0.002
-738.069	-48.132	-0.187	0.093
-737.054	-34.768	-0.081	-0.045
-736.039	41.230	-0.300	0.278
-735.025	-75.570	0.105	-0.038
-734.010	-200.000	0.076	-0.408
-732.996	532.911	-0.132	0.319
-731.981	800.000	0.052	0.229
-730.966	-200.000	-0.056	0.398
-729.952	462.496	-0.106	0.241
-728.937	15.996	-0.319	-0.257
-727.923	50.972	0.100	0.097
-726.908	242.332	0.050	0.085
-725.894	-102.297	0.044	0.011
-724.879	59.435	0.162	0.163
-723.864	-200.000	-0.053	-0.376
-722.850	800.000	0.048	-0.189
-721.835	-200.000	0.017	-0.084
-720.821	-87.098	0.201	0.062
-719.806	-200.000	0.067	-0.361
-718.791	-57.458	-0.507	-0.228
-717.777	-52.000	-0.048	-0.023
-716.762	-22.533	-0.088	-0.055
-715.748	29.704	0.157	-0.136
-714.733	-200.000	-0.000	0.036
-713.718	-96.053	-0.188	0.051
-712.704	217.782	-0.075	-0.122
-711.689	-87.465	0.209	0.065
-710.675	-23.451	-0.202	-0.124
-709.660	-105.709	-0.087	0.020
-708.645	77.130	-0.214	-0.232
-707.631	-95.604	0.117	-0.032
-706.616	-162.194	-0.243	-0.012
-705.602	183.446	-0.144	-0.218
-704.587	-200.000	-0.031	0.208
-703.572	320.554	-0.048	-0.092
-702.558	-39.570	-0.186	0.099
-701.543	-70.192	0.213	0.083
-700.529	291.057	0.155	-0.288
-699.514	665.419	0.101	0.266
-698.499	266.456	0.093	0.166
-697.485	69.485	0.034	-0.036
-696.470	95.223	-0.066	0.077
-695.456	-22.414	0.224	-0.139
-694.441	-44.120	-0.196	0.101
-693.426	216.791	-0.091	0.148
-692.412	232.293	-0.104	-0.175
-691.397	-41.276	0.425	-0.224
-690.383	-88.168	-0.199	0.061
-689.368	-72.061	-0.096	0.037
-688.354	76.606	0.076	0.083
-687.339	49.222	-0.088	-0.084
-686.324	-44.944	-0.145	-0.074
-685.310	289.396	0.116	0.216
-684.295	-188.255	-0.192	-0.002
-683.281	-24.566	0.237	-0.144
-682.266	-69.060	0.202	-0.079
-681.251	-48.864	-0.261	0.128
-680.237	-90.840	-0.068	-0.020
-679.222	204.138	-0.092	0.145
-678.208	-200.000	-0.001	-0.364
-677.193	-200.000	0.024	0.189
-676.178	-200.000	0.079	-0.354
-675.164	-200.000	0.026	-0.152
-674.149	45.793	0.115	-0.109
-673.135	800.000	0.142	-0.457
-672.120	176.314	0.051	-0.076
-671.105	-65.329	0.171	-0.070
-670.091	1.306	0.230	-0.169
-669.076	-152.389	0.285	0.021
-668.062	-200.000	-0.006	0.059
-667.047	-34.609	0.114	0.064
-666.032	-130.031	0.052	-0.007
-665.018	-200.000	-0.015	0.072
-664.003	-173.295	-0.075	-0.002
-662.989	-164.974	0.102	0.005
-661.974	168.440	0.101	-0.147
-660.959	22.746	-0.143	-0.120
-659.945	-144.963	0.290	0.027
-658.930	800.000	-0.081	0.248
-657.916	250.780	-0.054	-0.093
-656.901	-11.977	0.427	-0.286
-655.886	-127.085	-0.198	-0.030
-654.872	37.475	0.277	0.251
-653.857	-10.478	-0.256	-0.173
-652.843	-146.924	-0.227	0.020
-651.828	-200.000	0.032	-0.358
-650.814	-145.939	0.411	0.037
-649.799	-193.457	-0.147	-0.001
-648.784	-111.632	-0.089	-0.018
-647.770	800.000	0.095	-0.369
-646.755	-101.460	-0.061	0.015
-645.741	-63.798	-0.144	0.060
-644.726	-45.936	0.072	0.036
-643.711	70.491	0.163	0.172
-642.697	160.416	0.102	0.145
-641.682	-173.415	0.441	-0.014
-640.668	-28.628	-0.114	0.067
-639.653	800.000	-0.076	-0.239
-638.638	525.048	-0.101	0.243
-637.624	39.746	0.174	0.159
-636.609	342.939	-0.250	-0.500
-635.595	-200.000	-0.007	-0.223
-634.580	-83.713	-0.187	-0.061
-633.565	-200.000	-0.039	0.194
-632.551	70.555	-0.140	0.148
-631.536	18.934	-0.177	0.144
-630.522	558.060	-0.100	0.245
-629.507	-200.000	-0.004	0.432
-628.492	-117.239	0.135	-0.025
-627.478	-200.000	-0.005	0.045
-626.463	800.000	-0.054	0.158
-625.449	34.448	0.220	0.196
-624.434	-113.501	0.250	-0.050
-623.419	122.263	0.038	0.049
-622.405	-127.972	-0.381	0.056
-621.390	156.250	0.201	0.282
-620.376	-104.690	0.053	-0.013
-619.361	-3.841	-0.106	-0.075
-618.346	162.174	-0.102	-0.145
-617.332	228.946	0.153	-0.255
-616.317	-92.765	-0.124	-0.035
-615.303	276.254	-0.140	-0.252
-614.288	-39.378	-0.236	-0.126
-613.273	-200.000	0.002	-0.084
-612.259	39.177	0.310	-0.283
-611.244	-66.249	-0.235	0.095
-610.230	-147.619	-0.234	0.020
-609.215	-143.662	-0.145	-0.014
-608.201	-13.661	-0.272	-0.179
-607.186	45.538	-0.135	0.127
-606.171	-51.299	-0.153	0.073
-605.157	267.143	-0.084	0.150
-604.142	-200.000	-0.004	-0.128
-603.128	152.673	0.075	0.105
-602.113	15.219	0.217	0.173
-601.098	800.000	0.041	-0.117
-600.084	-140.006	0.161	-0.017
-599.069	-200.000	-0.009	0.422
-598.055	-92.871	-0.254	0.072
-597.040	-18.741	-0.038	-0.024
-596.025	-200.000	-0.002	0.346
-595.011	-102.624	-0.150	0.036
-593.996	279.977	-0.194	-0.352
-592.982	176.059	0.045	-0.067
-591.967	5.139	0.067	0.050
-590.952	502.286	-0.101	0.238
-589.938	67.681	0.220	0.228
-588.923	89.753	0.198	0.225
-587.909	-129.354	-0.170	-0.024
-586.894	800.000	-0.118	0.363
-585.879	-68.539	0.043	-0.017
-584.865	7.883	-0.058	0.044
-583.850	17.478	-0.129	0.104
-582.836	-26.996	-0.326	-0.194
-581.821	-200.000	0.008	-0.076
-580.806	-113.807	-0.134	0.027
-579.792	765.468	-0.165	-0.456
-578.777	-21.482	-0.358	-0.222
-577.763	800.000	-0.037	-0.112
-576.748	-146.674	0.216	0.019
-575.733	-200.000	-0.033	0.274
-574.719	-110.968	0.088	0.018
-573.704	-124.185	0.528	0.084
-572.690	800.000	-0.110	-0.405
-571.675	800.000	0.024	-0.082
-570.661	-111.081	-0.260	0.054
-569.646	-200.000	0.011	-0.416
-568.631	194.580	0.044	-0.068
-567.617	-48.552	-0.091	0.044
-566.602	82.155	-0.468	-0.516
-565.588	-200.000	0.001	-0.137
-564.573	-135.044	0.561	-0.069
-563.558	-62.332	-0.125	-0.053
-562.544	-200.000	-0.001	-0.116
-561.529	-134.168	-0.032	0.004
-560.515	800.000	0.059	0.178
-559.500	-13.093	-0.118	0.078
-558.485	147.722	-0.036	0.050
-557.471	-17.192	0.408	0.261
-556.456	-200.000	-0.036	-0.184
-555.442	-200.000	0.009	0.095
-554.427	-100.383	-0.167	0.042
-553.412	800.000	0.028	-0.081
-552.398	-200.000	-0.012	-0.149
-551.383	644.856	-0.012	-0.031
-550.369	800.000	-0.085	-0.354
-549.354	342.556	0.189	0.377
-548.339	-130.408	-0.114	-0.016
-547.325	203.899	-0.088	-0.139
-546.310	-200.000	0.040	-0.249
-545.296	654.194	0.043	0.113
-544.281	-5.307	-0.146	-0.102
-543.266	-48.505	0.046	0.023
-542.252	289.135	0.172	0.317
-541.237	-200.000	-0.006	-0.065
-540.223	-14.120	0.070	0.046
-539.208	192.190	-0.097	-0.149
-538.193	66.003	-0.290	0.299
-537.179	-70.632	0.521	-0.200
-536.164	-22.109	-0.187	0.115
-535.150	63.036	-0.223	0.227
-534.135	-67.523	-0.031	0.012
-533.121	-18.380	-0.176	0.112
-532.106	-29.615	-0.262	-0.152
-531.091	232.468	-0.133	0.221
-530.077	-56.743	-0.297	0.133
-529.062	356.583	0.047	-0.095
-528.048	403.803	0.058	0.123
-527.033	-111.851	-0.182	0.037
-526.018	79.316	-0.129	0.141
-525.004	-63.982	0.076	-0.032
-523.989	-158.983	0.082	-0.005
-522.975	31.106	0.125	-0.109
-521.960	800.000	-0.028	-0.107
-520.945	356.016	0.187	0.378
-519.931	-27.922	-0.068	0.040
-518.916	505.932	0.098	-0.229
-517.902	189.288	-0.066	0.100
-516.887	344.035	-0.040	-0.080
-515.872	-177.024	0.191	-0.005
-514.858	-5.888	-0.285	-0.198
-513.843	-43.541	-0.290	-0.149
-512.829	149.736	0.094	-0.129
-511.814	-62.652	-0.177	-0.074
-510.799	-142.521	-0.355	0.035
-509.785	58.166	-0.188	-0.187
-508.770	767.381	-0.052	-0.144
-507.756	98.167	-0.040	0.046
-506.741	18.692	-0.381	-0.309
-505.726	-200.000	0.003	0.093
-504.712	98.435	-0.210	-0.246
-503.697	-36.783	-0.152	0.083
-502.683	5.642	-0.183	0.137
-501.668	91.302	0.027	-0.031
-500.653	800.000	0.038	0.120
-499.639	197.203	0.090	-0.140
-498.624	-45.196	-0.377	-0.190
-497.610	529.063	-0.078	-0.186
-496.595	-36.728	0.128	0.070
-495.581	800.000	0.024	0.078
-494.566	-36.776	0.073	-0.040
-493.551	428.621	0.140	-0.306
-492.537	96.666	0.040	-0.046
-491.522	49.842	-0.174	0.167
-490.508	-200.000	0.020	0.249
-489.493	36.937	0.125	0.112
-488.478	307.996	-0.096	0.182
-487.464	-67.133	-0.175	0.070
-486.449	780.836	-0.040	0.111
-485.435	-114.715	0.168	-0.033
-484.420	-200.000	-0.107	0.492
-483.405	75.422	0.113	0.121
-482.391	-200.000	-0.003	0.371
-481.376	17.801	-0.260	0.210
-480.362	-21.926	0.185	-0.114
-479.347	-200.000	-0.033	-0.150
-478.332	800.000	-0.038	-0.131
-477.318	363.707	0.187	-0.381
-476.303	-123.760	-0.097	-0.016
-475.289	138.189	-0.023	0.030
-474.274	-200.000	0.007	-0.043
-473.259	-38.935	-0.058	-0.031
-472.245	141.417	-0.068	0.091
-471.230	67.752	0.039	-0.041
-470.216	-200.000	0.001	-0.017
-469.201	523.202	0.045	-0.107
-468.186	584.743	-0.053	0.133
-467.172	-200.000	-0.048	-0.307
-466.157	-2.111	0.122	-0.087
-465.143	-43.519	-0.166	-0.085
-464.128	118.441	-0.102	0.127
-463.113	-77.863	-0.384	-0.134
-462.099	-200.000	0.055	-0.402
-461.084	-200.000	-0.064	-0.443
-460.070	-66.970	-0.398	-0.159
-459.055	55.283	0.343	-0.336
-458.040	-200.000	0.001	0.149
-457.026	35.482	0.141	0.125
-456.011	265.875	0.116	0.205
-454.997	99.050	-0.029	0.034
-453.982	-11.256	0.309	0.206
-452.968	-18.516	0.146	-0.092
-451.953	193.486	-0.123	-0.189
-450.938	551.234	-0.155	0.376
-449.924	-106.400	0.153	-0.034
-448.909	-86.288	-0.143	-0.045
-447.895	166.554	0.011	-0.016
-446.880	-103.811	-0.187	-0.044
-445.865	-43.488	0.136	0.069
-444.851	-197.379	0.262	0.002
-443.836	-33.829	-0.306	-0.171
-442.822	-100.389	0.072	0.018
-441.807	-2.531	-0.165	-0.117
-440.792	-200.000	0.004	-0.080
-439.778	-200.000	-0.059	-0.412
-438.763	130.014	0.052	-0.067
-437.749	74.122	-0.212	0.225
-436.734	-85.658	-0.335	-0.105
-435.719	-33.830	0.422	-0.235
-434.705	18.440	0.088	-0.071
-433.690	-64.988	0.286	0.117
-432.676	-102.724	0.117	-0.028
-431.661	613.439	0.133	-0.336
-430.646	800.000	-0.040	-0.123
-429.632	195.078	0.213	-0.327
-428.617	800.000	0.079	0.235
-427.603	-200.000	-0.016	0.207
-426.588	116.381	-0.300	0.372
-425.573	66.633	0.098	0.100
-424.559	-90.061	0.262	-0.077
-423.544	51.073	0.163	0.156
-422.530	-200.000	0.002	0.312
-421.515	-200.000	-0.077	0.356
-420.500	9.339	-0.032	-0.024
-419.486	159.150	-0.128	-0.180
-418.471	64.515	-0.209	-0.213
-417.457	281.487	-0.036	-0.065
-416.442	216.701	0.093	-0.150
-415.428	-58.559	0.273	-0.120
-414.413	386.243	0.062	-0.129
-413.398	84.471	0.281	0.310
-412.384	800.000	-0.047	-0.133
-411.369	-12.930	0.117	0.077
-410.355	-107.535	-0.115	0.026
-409.340	800.000	0.066	0.185
-408.325	800.000	0.059	-0.245
-407.311	-7.215	0.050	0.034
-406.296	-136.926	-0.188	0.022
-405.282	152.516	0.251	0.347
-404.267	-38.674	0.114	0.061
-403.252	-200.000	0.040	0.187
-402.238	-37.367	-0.141	-0.076
-401.223	374.300	0.071	0.145
-400.209	-135.380	-0.329	-0.040
-399.194	-27.975	0.215	-0.126
-398.179	-123.918	0.237	0.038
-397.165	-64.814	-0.309	0.126
-396.150	65.828	-0.052	-0.053
-395.136	229.147	-0.103	-0.170
-394.121	800.000	-0.036	-0.151
-393.106	-115.240	-0.125	-0.024
-392.092	141.769	0.152	0.203
-391.077	-37.741	0.197	-0.106
-390.063	-200.000	-0.028	-0.395
-389.048	-119.216	-0.110	0.019
-388.033	566.562	-0.041	-0.101
-387.019	4.355	0.156	0.115
-386.004	-68.538	-0.109	-0.043
-384.990	-200.000	-0.013	0.060
-383.975	499.886	-0.094	-0.219
-382.960	28.069	0.222	-0.189
-381.946	-11.119	-0.014	0.009
-380.931	10.649	-0.280	-0.216
-379.917	-115.119	-0.408	-0.078
-378.902	245.275	0.212	-0.360
-377.888	62.425	-0.205	0.207
-376.873	-83.226	0.118	-0.038
-375.858	358.478	-0.090	0.181
-374.844	-85.703	-0.337	-0.106
-373.829	5.963	-0.071	0.053
-372.815	-89.500	0.303	-0.090
-371.800	-23.500	0.123	-0.074
-370.785	800.000	0.067	-0.295
-369.771	262.913	0.195	0.341
-368.756	-98.940	0.213	-0.055
-367.742	255.027	-0.096	0.165
-366.727	-5.115	0.108	-0.075
-365.712	-33.314	-0.096	-0.053
-364.698	800.000	0.085	0.245
-363.683	-121.457	0.163	-0.027
-362.669	800.000	-0.104	0.373
-361.654	-94.517	0.110	0.030
-360.639	395.437	-0.045	-0.094
-359.625	466.417	-0.200	-0.452
-358.610	-64.654	0.213	-0.087
-357.596	-200.000	-0.002	-0.012
-356.581	-87.886	0.080	-0.024
-355.566	-80.190	0.139	-0.047
-354.552	331.890	-0.162	-0.315
-353.537	-200.000	0.017	-0.202
-352.523	111.008	0.055	-0.067
-351.508	-77.053	0.265	0.093
-350.493	-100.018	0.237	-0.060
-349.479	-151.030	-0.165	0.012
-348.464	-181.051	-0.054	0.001
-347.450	-200.000	0.035	-0.157
-346.435	150.216	0.076	-0.104
-345.420	800.000	0.062	0.238
-344.406	-121.104	0.171	0.029
-343.391	552.747	-0.067	-0.162
-342.377	-54.465	-0.328	0.150
-341.362	-49.022	0.358	0.173
-340.348	-144.104	-0.258	0.024
-339.333	235.800	-0.028	0.047
-338.318	-43.785	0.510	-0.259
-337.304	124.485	0.198	-0.251
-336.289	800.000	-0.032	0.132
-335.275	91.642	0.124	-0.141
-334.260	329.453	-0.113	-0.219
-333.245	-3.149	0.367	0.258
-332.231	44.477	-0.033	-0.030
-331.216	-139.401	0.291	-0.031
-330.202	800.000	0.021	-0.085
-329.187	42.331	0.153	0.140
-328.172	-195.435	-0.352	-0.003
-327.158	81.204	-0.206	0.224
-326.143	-200.000	0.023	0.123
-325.129	151.749	0.183	0.252
-324.114	-200.000	-0.004	-0.019
-323.099	-200.000	0.071	-0.377
-322.085	-111.542	-0.101	-0.021
-321.070	119.464	-0.278	-0.347
-320.056	800.000	0.034	-0.142
-319.041	800.000	-0.065	-0.182
-318.026	-200.000	-0.042	-0.400
-317.012	-104.840	0.316	0.073
-315.997	-82.530	-0.067	0.022
-314.983	43.273	0.246	0.226
-313.968	-200.000	-0.040	-0.183
-312.953	800.000	-0.072	0.201
-311.939	800.000	0.111	-0.482
-310.924	-75.777	0.177	0.063
-309.910	463.217	0.129	-0.291
-308.895	-200.000	0.017	0.270
-307.880	-135.847	-0.339	0.040
-306.866	-157.059	0.203	0.012
-305.851	158.868	-0.158	0.220
-304.837	207.737	-0.133	0.208
-303.822	357.950	0.051	0.103
-302.807	800.000	-0.010	-0.028
-301.793	-76.406	-0.256	-0.091
-300.778	250.094	0.052	-0.088
-299.764	-200.000	0.005	0.142
-298.749	-108.224	-0.270	0.059
-297.735	-200.000	-0.001	0.210
-296.720	269.854	0.019	-0.033
-295.705	-200.000	-0.022	0.183
-294.691	-200.000	-0.005	0.235
-293.676	-187.197	-0.310	-0.004
-292.662	-17.511	0.207	0.131
-291.647	65.427	-0.136	0.138
-290.632	203.679	0.063	-0.098
-289.618	287.332	0.207	-0.377
-288.603	-113.736	0.247	-0.048
-287.589	150.704	0.136	0.186
-286.574	-85.328	0.086	-0.027
-285.559	437.043	-0.158	0.346
-284.545	203.582	0.224	0.348
-283.530	-108.523	0.454	0.098
-282.516	-200.000	-0.009	-0.299
-281.501	28.804	-0.231	0.196
-280.486	108.803	-0.046	0.055
-279.472	-200.000	0.052	-0.326
-278.457	-99.037	-0.293	-0.075
-277.443	31.177	-0.218	-0.188
-276.428	-69.079	-0.253	-0.098
-275.413	800.000	0.016	0.055
-274.399	-86.180	-0.110	-0.034
-273.384	200.342	0.095	-0.146
-272.370	102.012	0.073	0.086
-271.355	144.694	0.074	-0.099
-270.340	-200.000	0.021	-0.183
-269.326	259.500	0.089	-0.154
-268.311	71.391	0.162	0.169
-267.297	-200.000	0.042	-0.199
-266.282	115.455	0.066	0.081
-265.267	-40.669	-0.119	0.062
-264.253	292.784	0.108	-0.197
-263.238	800.000	-0.063	-0.266
-262.224	800.000	-0.037	-0.106
-261.209	383.332	0.111	0.229
-260.195	-93.082	-0.370	0.103
-259.180	-84.489	0.228	0.072
-258.165	61.785	-0.187	-0.187
-257.151	374.880	-0.097	-0.198
-256.136	-13.221	0.021	0.014
-255.122	-74.442	-0.075	0.027
-254.107	-200.000	0.003	0.314
-253.092	-141.647	0.108	0.011
-252.078	341.245	0.108	0.211
-251.063	225.048	-0.059	0.096
-250.049	-117.568	-0.195	-0.035
-249.034	-95.862	-0.165	-0.044
-248.019	21.927	-0.131	-0.107
-247.005	11.659	-0.217	0.167
-245.990	800.000	-0.034	0.128
-244.976	-18.681	0.108	-0.068
-243.961	-170.284	-0.097	0.003
-242.946	800.000	-0.093	-0.267
-241.932	-50.657	0.193	-0.091
-240.917	800.000	0.054	-0.194
-239.903	-200.000	-0.019	0.221
-238.888	-71.769	0.198	-0.074
-237.873	800.000	0.126	0.409
-236.859	485.761	0.063	-0.143
-235.844	-72.519	0.315	0.117
-234.830	800.000	0.042	0.174
-233.815	93.925	-0.141	-0.161
-232.800	-158.809	-0.164	0.009
-231.786	-200.000	0.022	0.243
-230.771	-121.913	-0.264	-0.044
-229.757	-46.718	0.135	-0.066
-228.742	45.565	0.162	-0.150
-227.727	8.498	0.189	0.143
-226.713	271.608	-0.269	0.476
-225.698	133.043	0.203	-0.263
-224.684	-150.794	0.284	-0.022
-223.669	800.000	-0.016	-0.061
-222.655	800.000	-0.103	0.323
-221.640	101.501	0.190	0.222
-220.625	800.000	-0.049	0.165
-219.611	800.000	0.035	-0.107
-218.596	-83.773	0.119	0.038
-217.582	-158.974	0.283	-0.016
-216.567	137.695	-0.065	0.086
-215.552	87.771	0.185	-0.205
-214.538	529.849	-0.053	0.126
-213.523	170.193	-0.240	0.344
-212.509	79.013	0.128	0.138
-211.494	-23.544	-0.132	-0.079
-210.479	-102.255	-0.212	-0.051
-209.465	-75.037	-0.170	-0.061
-208.450	-200.000	0.037	0.321
-207.436	-101.990	-0.312	0.076
-206.421	-11.787	-0.137	-0.090
-205.406	-119.360	-0.123	-0.021
-204.392	-200.000	-0.037	0.407
-203.377	220.849	0.106	0.171
-202.363	42.033	0.080	-0.073
-201.348	19.868	0.080	-0.064
-200.333	-195.047	0.110	-0.001
-199.319	-36.173	0.161	-0.087
-198.304	-200.000	-0.012	-0.197
-197.290	467.500	0.184	-0.413
-196.275	6.534	-0.056	-0.042
-195.260	-180.263	0.358	-0.008
-194.246	-167.621	0.251	0.010
-193.231	91.295	-0.173	0.195
-192.217	376.067	-0.179	0.366
-191.202	157.427	-0.078	-0.108
-190.187	800.000	0.087	-0.245
-189.173	-72.214	0.069	-0.025
-188.158	148.025	-0.140	-0.189
-187.144	590.452	0.173	0.426
-186.129	800.000	-0.057	0.163
-185.114	-35.368	-0.207	0.113
-184.100	-21.132	0.239	-0.146
-183.085	-86.310	0.254	-0.078
-182.071	800.000	0.009	0.029
-181.056	-84.723	0.207	-0.065
-180.042	-130.858	0.227	-0.030
-179.027	-73.164	0.233	0.085
-178.012	264.927	0.131	0.228
-176.998	89.956	-0.129	-0.145
-175.983	-14.219	0.122	-0.079
-174.969	512.707	0.010	-0.024
-173.954	-114.077	0.191	0.037
-172.939	-108.964	0.231	0.049
-171.925	800.000	-0.108	0.376
-170.910	16.176	0.047	-0.037
-169.896	-49.394	-0.087	0.042
-168.881	436.513	-0.074	0.161
-167.866	-65.154	-0.061	0.025
-166.852	162.256	0.175	0.246
-165.837	-71.318	0.076	0.029
-164.823	-4.670	0.218	0.151
-163.808	-90.867	0.448	0.129
-162.793	-73.373	0.229	-0.084
-161.779	800.000	0.025	-0.103
-160.764	-200.000	-0.033	-0.182
-159.750	54.840	-0.025	0.025
-158.735	800.000	0.060	0.215
-157.720	800.000	-0.069	0.226
-156.706	-200.000	0.011	-0.100
-155.691	-109.070	0.140	-0.030
-154.677	-200.000	-0.003	-0.084
-153.662	112.565	0.157	0.190
-152.647	800.000	-0.087	0.257
-151.633	285.336	0.116	0.210
-150.618	-73.550	-0.417	0.152
-149.604	-97.439	0.127	-0.033
-148.589	35.595	-0.171	-0.151
-147.574	-78.021	0.372	-0.128
-146.560	-200.000	-0.016	0.080
-145.545	-135.011	-0.213	-0.026
-144.531	42.600	-0.033	-0.030
-143.516	40.436	0.219	0.197
-142.502	120.829	-0.129	0.160
-141.487	-200.000	-0.007	0.108
-140.472	-152.348	0.101	0.007
-139.458	510.341	-0.047	-0.108
-138.443	-200.000	0.011	0.101
-137.429	81.655	0.307	-0.332
-136.414	-200.000	0.025	-0.115
-135.399	-200.000	0.066	0.329
-134.385	139.794	-0.140	-0.184
-133.370	147.768	0.126	0.170
-132.356	-33.657	0.042	0.023
-131.341	27.165	0.110	-0.092
-130.326	-79.880	0.353	-0.119
-129.312	-64.482	0.237	0.096
-128.297	25.046	0.069	-0.057
-127.283	107.447	0.257	-0.305
-126.268	28.100	-0.085	0.072
-125.253	-200.000	0.029	0.158
-124.239	-200.000	-0.002	-0.218
-123.224	800.000	-0.095	-0.311
-122.210	554.659	0.035	0.085
