DTS Sentinel unit serial number:	SN413079Multiplexer serial number:	ORYXHardware model number:	OX4-SRSoftware version number:	ORYX F/W v4.00 Oryx Data Collector v3.7.2.0data status	okinstallation	princeton_trtdifferential loss correction	single-endedforward channel	channel 3reverse channel	N/Adate	2019/09/12time	18:23:03forward acquisition time	15.00reverse acquisition time	0.00gamma	496.2192k internal	0.2317k external	0.2317temperature offset calibration	1.0093default loss term (dB/km)	0.3790temperature slope calibration	1.0000multiplexer offset coefficient	1.0000multiplexer slope coefficient	1.0000fibre end	0.00T internal ref (°C)	33.37T ext. ref 1 (°C)	2.90T ext. ref 2 (°C)	28.03length (m)	temperature (°C)	Stokes	anti-Stokes-747.200	147.673	0.035	0.048
-746.185	346.406	-0.094	0.188
-745.171	72.284	-0.309	-0.326
-744.156	167.237	0.462	-0.665
-743.142	-75.300	0.335	-0.121
-742.127	108.400	0.564	-0.681
-741.112	642.748	-0.329	-0.849
-740.098	-5.337	-0.574	-0.399
-739.083	-186.089	0.822	-0.012
-738.069	-57.455	-1.211	-0.538
-737.054	800.000	-0.214	-0.774
-736.039	-63.994	0.334	0.138
-735.025	612.107	-0.064	0.161
-734.010	110.584	-0.298	-0.363
-732.996	-200.000	-0.069	-0.647
-731.981	-193.530	-0.185	0.002
-730.966	-94.437	-0.539	-0.149
-729.952	60.657	0.373	0.374
-728.937	800.000	0.201	0.631
-727.923	-52.723	0.440	-0.206
-726.908	800.000	-0.083	-0.255
-725.894	578.302	-0.152	-0.377
-724.879	-29.623	0.174	0.100
-723.864	12.578	-0.450	0.351
-722.850	800.000	0.132	-0.567
-721.835	-161.940	-0.364	0.019
-720.821	-84.793	0.279	0.089
-719.806	150.017	-0.245	0.336
-718.791	-28.076	-0.291	-0.170
-717.777	19.278	0.300	-0.243
-716.762	-154.018	0.361	0.025
-715.748	-33.063	-0.114	-0.064
-714.733	-200.000	0.044	0.793
-713.718	-50.247	0.201	0.096
-712.704	207.777	-0.041	-0.065
-711.689	-149.136	-0.811	0.066
-710.675	11.273	0.412	-0.319
-709.660	308.232	-0.073	0.138
-708.645	282.359	0.459	-0.832
-707.631	-106.424	-0.409	0.092
-706.616	-130.178	0.256	0.035
-705.602	-106.858	0.420	0.094
-704.587	253.957	-0.497	0.858
-703.572	69.519	0.678	-0.706
-702.558	128.561	-0.074	0.095
-701.543	-200.000	0.065	-0.401
-700.529	800.000	-0.122	-0.383
-699.514	-200.000	0.088	-0.797
-698.499	365.091	0.236	-0.481
-697.485	-45.410	0.486	-0.243
-696.470	-0.689	-0.600	0.430
-695.456	311.896	-0.151	0.286
-694.441	-172.450	-0.994	0.032
-693.426	-132.746	0.883	-0.114
-692.412	20.072	-0.187	0.153
-691.397	-61.001	-0.506	-0.216
-690.383	53.524	-0.542	0.525
-689.368	221.327	-0.100	-0.163
-688.354	119.763	-0.405	-0.507
-687.339	-96.509	0.253	-0.067
-686.324	-200.000	0.040	0.503
-685.310	800.000	-0.099	0.315
-684.295	2.055	-0.683	-0.498
-683.281	-48.592	-0.314	0.153
-682.266	-10.999	-0.322	-0.215
-681.251	800.000	0.154	0.460
-680.237	-200.000	-0.006	-0.538
-679.222	420.716	0.091	-0.197
-678.208	-200.000	-0.148	0.750
-677.193	-38.781	-0.597	-0.318
-676.178	-21.277	-0.334	-0.206
-675.164	-61.955	-0.454	-0.192
-674.149	-137.267	0.778	-0.089
-673.135	-134.351	0.441	-0.055
-672.120	183.150	-0.409	0.610
-671.105	-116.350	-0.276	-0.051
-670.091	-200.000	-0.003	-0.453
-669.076	681.554	-0.282	-0.742
-668.062	-200.000	0.048	-0.660
-667.047	229.990	-0.096	0.158
-666.032	184.467	0.341	0.510
-665.018	321.289	0.341	-0.654
-664.003	-88.326	-0.445	-0.134
-662.989	172.032	-0.138	-0.200
-661.974	-99.953	-0.554	-0.140
-660.959	-15.750	-0.706	-0.454
-659.945	-127.183	0.521	-0.077
-658.930	800.000	0.234	-0.687
-657.916	518.807	0.119	-0.281
-656.901	90.366	0.234	0.264
-655.886	800.000	0.146	0.426
-654.872	-23.156	0.259	0.158
-653.857	-200.000	0.048	-0.382
-652.843	800.000	-0.188	-0.562
-651.828	-200.000	-0.095	0.504
-650.814	9.261	-0.568	-0.433
-649.799	196.325	0.117	0.179
-648.784	-50.205	0.270	-0.129
-647.770	66.207	-0.332	0.340
-646.755	-115.573	0.425	-0.081
-645.741	800.000	-0.063	-0.233
-644.726	800.000	0.148	-0.420
-643.711	800.000	-0.111	-0.349
-642.697	-100.262	0.806	-0.202
-641.682	800.000	-0.219	0.628
-640.668	704.222	-0.107	-0.285
-639.653	-71.517	-1.056	0.398
-638.638	-74.022	0.803	-0.293
-637.624	701.417	0.114	-0.301
-636.609	-200.000	-0.906	0.002
-635.595	800.000	0.116	-0.417
-634.580	-40.833	-0.901	0.470
-633.565	206.973	-0.383	0.602
-632.551	-131.562	-0.428	0.057
-631.536	21.411	-0.310	0.254
-630.522	156.173	0.513	0.713
-629.507	-32.596	-0.621	0.348
-628.492	226.774	-0.288	0.471
-627.478	49.906	-0.308	0.293
-626.463	47.716	-0.482	0.453
-625.449	800.000	0.172	-0.525
-624.434	-30.698	-0.711	-0.405
-623.419	158.910	0.162	-0.226
-622.405	-18.809	0.575	0.361
-621.390	-200.000	0.043	-0.641
-620.376	27.313	0.382	0.324
-619.361	528.308	0.135	-0.322
-618.346	569.601	-0.285	-0.699
-617.332	44.495	-0.386	-0.357
-616.317	-148.285	-1.058	0.088
-615.303	800.000	0.289	0.964
-614.288	-200.000	0.331	1.477
-613.273	78.510	-0.815	0.877
-612.259	-90.155	0.851	-0.249
-611.244	-200.000	0.001	-0.041
-610.230	800.000	-0.295	-1.002
-609.215	13.263	-0.066	0.051
-608.201	-83.011	0.056	0.018
-607.186	-96.880	0.842	-0.223
-606.171	-200.000	0.074	0.514
-605.157	30.411	-0.377	-0.325
-604.142	175.164	-0.082	-0.119
-603.128	-91.465	0.648	0.186
-602.113	720.023	0.282	0.754
-601.098	800.000	-0.146	0.516
-600.084	21.001	-0.669	-0.546
-599.069	-73.097	0.131	0.048
-598.055	-90.140	-0.265	-0.078
-597.040	-183.246	0.645	0.011
-596.025	107.032	-0.055	0.066
-595.011	408.870	0.082	0.174
-593.996	-4.724	-0.218	-0.152
-592.982	-122.858	-0.924	-0.150
-591.967	57.304	0.170	-0.167
-590.952	135.245	0.440	0.576
-589.938	800.000	-0.167	-0.466
-588.923	32.859	0.643	0.560
-587.909	614.320	0.314	0.790
-586.894	13.880	-0.536	0.419
-585.879	-41.565	-0.482	0.249
-584.865	-200.000	0.118	-0.655
-583.850	620.962	-0.103	-0.260
-582.836	299.704	-0.434	0.804
-581.821	-200.000	0.027	-0.369
-580.806	131.321	0.198	-0.256
-579.792	-200.000	-0.031	0.159
-578.777	-14.925	-1.012	0.653
-577.763	-200.000	-0.011	-0.471
-576.748	17.998	1.023	-0.820
-575.733	-14.721	-0.341	0.220
-574.719	-80.118	-0.843	-0.284
-573.704	54.179	-0.501	-0.485
-572.690	-200.000	-0.071	0.358
-571.675	109.817	0.178	0.214
-570.661	276.578	-0.358	-0.639
-569.646	239.190	-0.206	0.344
-568.631	13.619	-0.508	-0.397
-567.617	-83.166	0.554	0.179
-566.602	-200.000	0.045	0.565
-565.588	748.420	-0.256	0.694
-564.573	53.332	0.472	0.455
-563.558	693.564	-0.126	0.332
-562.544	-89.793	0.348	0.102
-561.529	86.417	-0.296	0.328
-560.515	-200.000	0.018	0.354
-559.500	-159.322	0.398	0.022
-558.485	-200.000	0.009	-0.406
-557.471	-10.195	0.354	0.236
-556.456	216.162	0.279	-0.446
-555.442	-200.000	0.032	0.605
-554.427	4.912	-0.594	0.439
-553.412	-67.772	-0.198	-0.078
-552.398	35.578	-0.119	-0.105
-551.383	355.398	0.350	-0.700
-550.369	107.480	0.411	-0.491
-549.354	800.000	0.188	0.681
-548.339	-146.043	0.322	-0.029
-547.325	-124.954	-0.526	0.081
-546.310	-63.457	0.508	0.210
-545.296	430.504	0.211	-0.460
-544.281	-148.618	0.664	0.054
-543.266	747.943	0.219	-0.594
-542.252	-80.506	-0.373	0.125
-541.237	-111.245	-0.934	0.192
-540.223	-200.000	-0.001	-0.641
-539.208	-200.000	0.095	-0.670
-538.193	318.164	-0.054	0.103
-537.179	-89.652	-0.437	0.129
-536.164	-107.091	0.196	0.043
-535.150	-200.000	-0.126	0.580
-534.135	-2.247	-0.341	-0.240
-533.121	-92.655	0.268	-0.075
-532.106	-94.184	0.483	0.133
-531.091	9.319	0.526	-0.400
-530.077	-43.686	0.347	0.175
-529.062	-200.000	0.015	-0.407
-528.048	-82.295	-0.273	-0.089
-527.033	800.000	-0.120	0.378
-526.018	-55.802	0.871	-0.391
-525.004	424.746	-0.203	0.438
-523.989	-200.000	0.012	0.943
-522.975	-200.000	0.151	-0.975
-521.960	111.270	0.571	-0.691
-520.945	770.746	0.142	0.388
-519.931	-200.000	0.017	0.281
-518.916	33.072	-0.630	0.548
-517.902	352.568	-0.410	0.815
-516.887	-72.601	-0.544	0.202
-515.872	622.759	0.295	0.745
-514.858	-10.786	-0.340	0.226
-513.843	443.045	0.213	-0.468
-512.829	29.261	-0.638	0.544
-511.814	-94.794	-0.797	0.217
-510.799	22.036	-0.171	0.140
-509.785	-175.971	-0.541	0.014
-508.770	53.607	-0.178	0.172
-507.756	800.000	0.082	0.284
-506.741	754.459	-0.158	-0.427
-505.726	-200.000	0.038	0.278
-504.712	-200.000	-0.086	-0.417
-503.697	287.716	-0.181	0.328
-502.683	-136.553	0.448	-0.052
-501.668	33.400	-0.457	-0.398
-500.653	-200.000	0.004	0.133
-499.639	-116.575	0.783	-0.145
-498.624	218.600	0.184	-0.294
-497.610	155.808	0.355	0.490
-496.595	226.746	0.565	0.920
-495.581	224.019	-0.522	0.845
-494.566	392.040	-0.340	0.709
-493.551	35.984	-0.653	0.576
-492.537	105.661	0.527	0.624
-491.522	625.188	0.197	0.499
-490.508	288.718	-0.050	-0.090
-489.493	-62.174	0.503	0.210
-488.478	92.425	0.245	-0.276
-487.464	-74.568	-0.807	0.291
-486.449	-21.075	-0.745	0.457
-485.435	318.956	0.220	0.418
-484.420	-85.239	-0.799	0.250
-483.405	-112.522	-0.270	-0.054
-482.391	-42.668	0.618	0.315
-481.376	123.962	0.050	0.063
-480.362	55.859	-0.094	0.091
-479.347	162.150	-0.075	-0.105
-478.332	-90.408	-0.300	0.087
-477.318	-108.206	1.127	-0.244
-476.303	-6.501	-0.393	0.268
-475.289	163.871	0.201	-0.284
-474.274	39.234	0.510	0.457
-473.259	373.498	-0.077	-0.158
-472.245	-91.405	-0.295	-0.085
-471.230	-41.381	0.606	0.313
-470.216	-200.000	-0.013	-0.070
-469.201	800.000	0.123	-0.468
-468.186	151.114	0.159	-0.217
-467.172	-161.664	-0.042	0.002
-466.157	-200.000	-0.142	0.797
-465.143	-200.000	0.306	-0.001
-464.128	44.356	-0.590	-0.543
-463.113	49.089	0.609	0.573
-462.099	-50.717	0.467	-0.220
-461.084	800.000	-0.358	-1.265
-460.070	295.742	0.241	-0.442
-459.055	122.079	-0.265	-0.331
-458.040	-200.000	-0.041	0.254
-457.026	-196.595	-0.852	0.006
-456.011	800.000	0.015	-0.062
-454.997	-102.136	0.177	0.043
-453.982	314.670	0.326	0.614
-452.968	-32.697	-0.273	0.152
-451.953	130.762	0.468	-0.601
-450.938	17.940	0.119	0.095
-449.924	-79.937	-0.790	0.266
-448.909	-117.330	-0.833	-0.151
-447.895	-200.000	-0.047	-0.516
-446.880	472.281	0.178	0.402
-445.865	-53.241	0.450	-0.207
-444.851	-24.013	-0.232	0.139
-443.836	36.508	0.638	-0.563
-442.822	-102.119	-0.587	0.141
-441.807	-200.000	0.120	0.762
-440.792	142.857	0.685	-0.911
-439.778	81.303	-0.090	0.097
-438.763	-25.209	0.532	0.315
-437.749	-62.512	-0.484	0.201
-436.734	-154.608	0.582	0.039
-435.719	-200.000	-0.013	-0.073
-434.705	-30.079	0.292	0.166
-433.690	800.000	-0.114	0.489
-432.676	568.241	-0.184	0.448
-431.661	-179.489	0.688	0.015
-430.646	47.829	1.002	0.935
-429.632	89.743	0.368	-0.411
-428.617	336.574	-0.393	0.763
-427.603	-200.000	0.062	-0.606
-426.588	-200.000	0.040	0.694
-425.573	146.823	-0.395	-0.531
-424.559	-200.000	-0.052	0.419
-423.544	800.000	-0.094	0.391
-422.530	218.917	0.330	0.528
-421.515	-200.000	0.036	-0.640
-420.500	-43.217	0.366	-0.185
-419.486	-167.516	-0.472	0.019
-418.471	19.079	-0.054	0.043
-417.457	53.162	-0.676	0.647
-416.442	-97.545	0.237	0.062
-415.428	551.913	0.130	0.313
-414.413	800.000	0.161	-0.568
-413.398	360.582	-0.169	-0.338
-412.384	-90.169	-0.063	0.018
-411.369	252.932	0.086	-0.146
-410.355	-200.000	-0.009	-0.797
-409.340	186.065	0.257	0.382
-408.325	152.136	0.343	-0.468
-407.311	36.414	0.421	-0.371
-406.296	786.716	-0.067	-0.183
-405.282	800.000	0.280	-0.872
-404.267	800.000	-0.228	0.651
-403.252	107.386	0.264	0.313
-402.238	-56.821	0.794	0.351
-401.223	800.000	0.065	-0.278
-400.209	-200.000	-0.078	-0.407
-399.194	-70.040	-0.708	0.269
-398.179	-156.304	-0.170	-0.011
-397.165	-200.000	0.184	-0.887
-396.150	-62.298	-0.596	0.248
-395.136	250.429	0.135	-0.230
-394.121	800.000	-0.095	0.324
-393.106	124.191	0.817	1.025
-392.092	29.241	-0.361	-0.306
-391.077	-155.050	-1.140	-0.075
-390.063	329.339	0.030	-0.058
-389.048	634.511	0.155	-0.392
-388.033	93.358	0.425	0.480
-387.019	800.000	-0.169	0.538
-386.004	616.930	-0.227	-0.568
-384.990	413.470	0.410	0.871
-383.975	-200.000	-0.042	-0.271
-382.960	800.000	0.260	-1.025
-381.946	-144.256	0.252	0.023
-380.931	-111.676	0.066	-0.013
-379.917	-81.255	0.352	0.116
-378.902	-10.910	-0.321	-0.212
-377.888	800.000	-0.099	0.385
-376.873	-43.842	-0.187	0.094
-375.858	335.600	-0.447	-0.866
-374.844	-95.161	0.394	-0.106
-373.829	-180.341	-0.735	-0.015
-372.815	-200.000	-0.044	0.784
-371.800	78.831	0.313	0.335
-370.785	-159.728	-0.096	0.005
-369.771	-163.833	0.979	-0.046
-368.756	-200.000	0.070	-0.484
-367.742	278.292	0.284	0.504
-366.727	571.212	0.167	0.405
-365.712	800.000	0.180	0.775
-364.698	-52.821	0.506	0.232
-363.683	-200.000	-0.014	-0.445
-362.669	-108.908	0.958	-0.204
-361.654	-7.037	0.268	-0.181
-360.639	-200.000	-0.025	0.160
-359.625	-200.000	0.045	-0.459
-358.610	113.099	0.187	-0.226
-357.596	-12.599	-0.220	-0.143
-356.581	17.064	-0.152	0.120
-355.566	-117.881	-0.605	0.108
-354.552	-81.391	0.759	-0.249
-353.537	-43.408	0.418	-0.211
-352.523	-200.000	0.017	0.325
-351.508	-146.419	0.359	-0.031
-350.493	612.189	-0.125	0.311
-349.479	236.699	0.261	-0.430
-348.464	309.283	-0.225	0.420
-347.450	13.795	-0.442	-0.342
-346.435	309.023	-0.184	-0.343
-345.420	593.233	0.185	-0.455
-344.406	-142.294	0.393	0.039
-343.391	-200.000	0.004	-0.214
-342.377	-11.686	-0.690	-0.452
-341.362	33.455	0.591	-0.512
-340.348	418.286	0.087	-0.186
-339.333	283.772	0.286	-0.512
-338.318	88.229	-0.435	-0.481
-337.304	-125.808	-0.627	0.094
-336.289	800.000	0.286	-0.939
-335.275	394.813	-0.148	0.307
-334.260	800.000	-0.147	0.494
-333.245	-131.876	0.090	-0.012
-332.231	378.145	-0.335	0.683
-331.216	435.088	0.335	-0.726
-330.202	118.249	0.452	-0.555
-329.187	-4.332	-0.416	0.286
-328.172	31.568	0.388	-0.333
-327.158	-200.000	0.016	0.209
-326.143	-200.000	-0.011	-0.105
-325.129	-38.970	0.917	-0.481
-324.114	188.787	0.482	-0.718
-323.099	674.324	0.254	-0.656
-322.085	130.904	-0.376	-0.480
-321.070	-87.392	0.141	0.043
-320.056	-36.059	-0.469	-0.253
-319.041	-121.126	-0.430	-0.072
-318.026	139.686	-0.076	-0.099
-317.012	-85.525	0.548	-0.170
-315.997	-200.000	0.016	0.225
-314.983	201.196	-0.329	0.505
-313.968	338.055	0.406	-0.787
-312.953	25.730	0.184	0.152
-311.939	-200.000	-0.004	0.139
-310.924	-200.000	-0.020	0.225
-309.910	-53.769	0.932	0.423
-308.895	73.106	-0.058	-0.060
-307.880	118.130	0.333	-0.409
-306.866	-200.000	0.048	-0.234
-305.851	-16.017	-0.497	-0.315
-304.837	269.934	0.306	-0.535
-303.822	-28.747	-0.259	-0.148
-302.807	800.000	-0.148	0.527
-301.793	-95.805	-0.601	0.160
-300.778	24.533	-0.422	-0.348
-299.764	-114.794	-0.044	0.008
-298.749	-22.795	0.435	-0.261
-297.735	40.979	-0.749	-0.673
-296.720	-30.371	0.556	0.314
-295.705	51.169	-0.301	0.284
-294.691	-68.540	-0.468	0.180
-293.676	191.487	-0.250	0.375
-292.662	-96.498	0.190	0.050
-291.647	334.415	0.286	-0.550
-290.632	186.642	-0.428	-0.635
-289.618	-147.108	0.797	0.068
-288.603	-47.860	-0.252	-0.122
-287.589	-68.690	-0.639	0.246
-286.574	76.068	0.242	-0.254
-285.559	-98.078	-0.324	-0.083
-284.545	41.023	0.380	0.341
-283.530	-163.969	-0.735	0.034
-282.516	-95.060	-0.409	-0.110
-281.501	-42.154	-0.318	-0.162
-280.486	180.252	-0.426	-0.622
-279.472	-143.447	0.188	0.018
-278.457	-200.000	-0.069	-0.727
-277.443	-164.212	1.180	-0.054
-276.428	139.301	0.370	0.483
-275.413	-93.120	0.301	0.083
-274.399	-57.393	0.983	0.429
-273.384	210.211	0.258	0.402
-272.370	-200.000	0.054	0.594
-271.355	-200.000	-0.078	-0.407
-270.340	-115.116	0.427	-0.081
-269.326	45.795	0.361	0.332
-268.311	-52.700	-0.717	0.329
-267.297	35.457	0.186	0.162
-266.282	386.294	0.308	-0.631
-265.267	-176.752	-0.605	0.015
-264.253	-16.687	-0.202	0.127
-263.238	107.057	-0.062	-0.074
-262.224	-128.312	-0.416	-0.059
-261.209	-142.831	-0.412	0.040
-260.195	-0.849	-0.914	-0.643
-259.180	-130.787	0.487	0.065
-258.165	125.903	0.269	-0.338
-257.151	95.798	0.645	-0.731
-256.136	39.617	-0.169	0.151
-255.122	101.212	0.272	-0.314
-254.107	134.111	-0.118	-0.152
-253.092	-121.081	-0.728	0.121
-252.078	800.000	0.205	0.701
-251.063	800.000	0.047	-0.184
-250.049	-200.000	-0.059	0.324
-249.034	-200.000	-0.018	-0.245
-248.019	-75.567	0.724	0.256
-247.005	46.949	-0.195	-0.180
-245.990	-200.000	0.007	-0.238
-244.976	-200.000	0.041	-0.349
-243.961	-138.142	0.438	0.048
-242.946	481.223	0.431	-0.972
-241.932	-200.000	-0.139	-1.089
-240.917	205.846	-0.344	0.531
-239.903	258.305	0.345	-0.590
-238.888	-126.147	0.206	-0.031
-237.873	-160.124	0.573	0.031
-236.859	-24.672	0.759	0.448
-235.844	-30.903	-0.774	-0.434
-234.830	-115.282	-0.344	-0.065
-233.815	2.490	-0.314	-0.226
-232.800	-20.215	0.302	0.184
-231.786	-105.424	0.268	-0.061
-230.771	-62.528	0.535	0.220
-229.757	-59.793	0.353	0.150
-228.742	-103.868	-0.226	0.052
-227.727	49.482	-0.691	0.646
-226.713	-92.234	0.347	0.097
-225.698	800.000	-0.100	0.388
-224.684	-161.758	0.226	-0.011
-223.669	-26.496	0.597	-0.347
-222.655	800.000	0.116	0.427
-221.640	-200.000	0.112	-0.536
-220.625	800.000	-0.052	-0.216
-219.611	-108.839	0.141	0.030
-218.596	-200.000	0.104	0.524
-217.582	-200.000	0.064	0.392
-216.567	-126.499	-0.374	0.055
-215.552	-50.107	-0.836	0.393
-214.538	-79.179	-0.354	0.119
-213.523	20.168	0.552	0.441
-212.509	-130.075	0.555	0.075
-211.494	-17.221	0.177	0.110
-210.479	383.779	0.179	0.366
-209.465	-200.000	-0.121	-0.675
-208.450	-160.599	0.273	-0.014
-207.436	525.218	-0.295	-0.688
-206.421	29.394	-0.565	-0.476
-205.406	388.893	0.229	-0.470
-204.392	-58.639	-0.354	0.152
-203.377	-200.000	-0.007	-0.635
-202.363	-18.677	-0.094	-0.058
-201.348	-109.143	-1.099	-0.232
-200.333	800.000	-0.030	-0.114
-199.319	47.905	-0.553	0.512
-198.304	-200.000	-0.080	-0.803
-197.290	478.854	-0.316	-0.709
-196.275	-117.180	0.649	0.117
-195.260	800.000	-0.161	-0.665
-194.246	760.371	-0.157	-0.421
-193.231	169.001	0.253	-0.358
-192.217	-160.497	0.591	0.031
-191.202	-104.608	0.563	0.129
-190.187	-66.367	-0.631	-0.248
-189.173	-151.486	0.070	0.005
-188.158	-99.167	0.494	-0.124
-187.144	181.800	0.370	-0.539
-186.129	-200.000	0.178	0.946
-185.114	-84.030	-0.522	0.164
-184.100	-51.696	0.142	0.065
-183.085	-48.028	-1.065	-0.510
-182.071	262.493	-0.262	-0.451
-181.056	800.000	0.352	1.044
-180.042	-200.000	0.021	0.535
-179.027	-200.000	-0.181	0.918
-178.012	158.173	-0.317	-0.435
-176.998	-132.009	0.663	-0.085
-175.983	-200.000	-0.077	-0.384
-174.969	525.768	-0.345	0.803
-173.954	-28.777	-0.572	0.326
-172.939	-150.358	-1.084	0.083
-171.925	27.878	0.417	-0.348
-170.910	-200.000	0.045	0.463
-169.896	419.142	-0.080	-0.170
-168.881	-200.000	-0.020	-0.800
-167.866	47.997	-0.469	-0.433
-166.852	-53.614	-0.408	0.185
-165.837	695.229	-0.017	-0.043
-164.823	-93.525	0.219	0.060
-163.808	12.863	-0.255	0.195
-162.793	800.000	0.130	-0.379
-161.779	-84.623	0.734	0.229
-160.764	-180.016	-0.198	0.004
-159.750	-200.000	0.125	0.631
-158.735	-99.308	-1.277	0.319
-157.720	111.343	0.551	0.657
-156.706	673.529	0.381	-0.979
-155.691	-200.000	0.016	0.089
-154.677	-4.698	-0.219	-0.150
-153.662	115.529	-0.585	-0.707
-152.647	113.892	-0.133	-0.160
-151.633	-126.845	0.475	0.069
-150.618	-81.391	0.455	-0.148
-149.604	-200.000	-0.075	1.085
-148.589	141.301	-0.378	-0.495
-147.574	163.201	-0.072	0.100
-146.560	-34.191	-0.654	0.355
-145.545	28.974	0.618	-0.518
-144.531	-24.944	-0.541	0.317
-143.516	-45.117	-1.209	-0.595
-142.502	-143.810	0.493	-0.046
-141.487	-60.233	0.531	-0.224
-140.472	-112.779	-0.377	-0.074
-139.458	-103.960	-0.293	0.068
-138.443	-81.851	0.201	0.065
-137.429	688.527	0.020	-0.052
-136.414	11.896	-0.590	0.448
-135.399	8.546	-0.289	-0.215
-134.385	-200.000	-0.015	-0.448
-133.370	184.883	-0.272	0.399
-132.356	-64.076	1.348	0.544
-131.341	800.000	-0.104	-0.385
-130.326	80.778	-0.416	-0.444
-129.312	-35.891	-0.642	0.343
-128.297	48.871	-0.328	-0.305
-127.283	107.028	-0.609	-0.715
-126.268	-155.963	-0.347	0.022
-125.253	-109.005	0.476	0.100
-124.239	340.915	0.117	-0.226
-123.224	-135.121	1.022	-0.121
-122.210	-200.000	-0.053	-0.729
