DTS Sentinel unit serial number:	SN413079Multiplexer serial number:	ORYXHardware model number:	OX4-SRSoftware version number:	ORYX F/W v4.00 Oryx Data Collector v3.7.2.0data status	okinstallation	princeton_trtdifferential loss correction	single-endedforward channel	channel 3reverse channel	N/Adate	2019/09/14time	21:16:35forward acquisition time	60.00reverse acquisition time	0.00gamma	496.2192k internal	0.2317k external	0.2317temperature offset calibration	1.0000default loss term (dB/km)	0.3790temperature slope calibration	1.0000multiplexer offset coefficient	1.0000multiplexer slope coefficient	1.0000fibre end	0.00T internal ref (°C)	33.00T ext. ref 1 (°C)	4.77T ext. ref 2 (°C)	27.78length (m)	temperature (°C)	Stokes	anti-Stokes-747.200	214.721	0.118	-0.189
-746.185	-75.440	0.268	0.097
-745.171	-166.607	-0.265	0.011
-744.156	-58.072	-0.319	0.141
-743.142	-200.000	-0.055	-0.324
-742.127	-121.670	-0.130	0.022
-741.112	-200.000	-0.005	-0.109
-740.098	-62.651	0.209	0.088
-739.083	415.477	-0.093	-0.201
-738.069	800.000	-0.044	0.190
-737.054	-95.008	0.122	-0.033
-736.039	-195.554	-0.204	-0.002
-735.025	53.364	-0.046	0.045
-734.010	7.479	-0.262	-0.198
-732.996	800.000	-0.094	0.355
-731.981	-38.685	-0.199	-0.106
-730.966	53.936	-0.201	0.196
-729.952	30.039	0.201	0.173
-728.937	-18.951	-0.236	0.148
-727.923	191.204	-0.175	-0.266
-726.908	99.119	-0.166	-0.193
-725.894	-11.368	-0.243	-0.162
-724.879	50.160	-0.397	-0.379
-723.864	-200.000	0.027	-0.360
-722.850	134.452	-0.054	-0.071
-721.835	-200.000	-0.008	0.066
-720.821	65.718	-0.289	-0.296
-719.806	57.889	0.106	0.105
-718.791	78.020	-0.349	0.376
-717.777	-200.000	-0.093	-0.429
-716.762	31.170	0.215	-0.187
-715.748	45.142	0.081	0.076
-714.733	119.383	0.183	0.229
-713.718	233.923	-0.081	0.135
-712.704	-143.146	0.433	0.042
-711.689	-200.000	-0.001	-0.262
-710.675	689.524	0.025	0.067
-709.660	-71.900	-0.065	0.024
-708.645	-114.967	-0.187	0.036
-707.631	25.072	-0.283	-0.237
-706.616	-200.000	-0.096	0.535
-705.602	-200.000	-0.009	0.074
-704.587	-140.131	0.349	-0.037
-703.572	49.365	0.069	-0.066
-702.558	-114.026	-0.133	-0.026
-701.543	-95.885	-0.121	0.032
-700.529	-143.962	0.211	-0.020
-699.514	26.499	-0.331	0.280
-698.499	239.925	0.100	0.169
-697.485	7.340	-0.136	-0.102
-696.470	-200.000	0.003	-0.332
-695.456	-61.778	-0.113	0.048
-694.441	800.000	0.084	0.246
-693.426	-5.290	-0.226	-0.157
-692.412	433.050	0.063	0.139
-691.397	186.094	-0.072	-0.108
-690.383	162.808	-0.122	0.173
-689.368	537.828	0.015	-0.036
-688.354	-200.000	0.028	-0.286
-687.339	-77.446	0.239	-0.084
-686.324	-4.430	-0.109	-0.076
-685.310	-200.000	0.016	0.330
-684.295	41.668	-0.241	-0.220
-683.281	800.000	-0.078	-0.223
-682.266	-183.919	-0.382	-0.007
-681.251	-92.587	-0.342	0.097
-680.237	70.449	0.406	-0.424
-679.222	226.285	-0.180	-0.295
-678.208	-24.725	0.028	-0.017
-677.193	89.650	-0.071	0.080
-676.178	800.000	0.119	-0.341
-675.164	16.721	-0.110	-0.088
-674.149	16.312	0.200	0.159
-673.135	-13.878	0.194	-0.127
-672.120	-15.337	0.322	-0.208
-671.105	136.960	-0.123	-0.162
-670.091	-200.000	-0.021	0.232
-669.076	90.726	0.182	0.206
-668.062	-200.000	0.040	-0.248
-667.047	626.056	0.032	0.082
-666.032	-60.282	0.323	-0.139
-665.018	-200.000	-0.004	0.246
-664.003	-200.000	-0.036	-0.314
-662.989	58.210	-0.215	-0.213
-661.974	-200.000	-0.020	-0.438
-660.959	-200.000	-0.044	-0.408
-659.945	800.000	0.100	-0.394
-658.930	-39.848	0.155	-0.082
-657.916	-43.169	0.067	-0.034
-656.901	-54.369	-0.142	0.065
-655.886	-200.000	-0.024	-0.109
-654.872	43.491	0.214	-0.197
-653.857	-119.209	-0.317	0.056
-652.843	-136.989	-0.223	-0.026
-651.828	39.994	0.050	-0.046
-650.814	-119.774	-0.075	0.013
-649.799	-51.375	-0.013	-0.006
-648.784	13.154	0.185	-0.145
-647.770	-29.032	0.247	-0.143
-646.755	-66.364	0.288	0.116
-645.741	-47.400	0.260	-0.127
-644.726	-104.634	-0.239	0.056
-643.711	-54.464	-0.109	0.050
-642.697	-200.000	0.022	0.185
-641.682	-83.637	-0.111	-0.036
-640.668	316.250	0.096	-0.182
-639.653	97.140	-0.049	-0.056
-638.638	-200.000	0.015	0.222
-637.624	800.000	-0.058	-0.207
-636.609	381.464	0.049	-0.101
-635.595	397.219	-0.093	0.197
-634.580	116.548	0.121	-0.149
-633.565	-36.544	0.331	-0.180
-632.551	430.329	-0.124	0.271
-631.536	-66.369	0.194	0.078
-630.522	-150.427	-0.138	-0.011
-629.507	800.000	-0.062	-0.264
-628.492	-6.154	-0.131	0.090
-627.478	-105.522	0.025	-0.006
-626.463	-77.651	0.164	0.057
-625.449	-155.230	-0.047	-0.003
-624.434	-200.000	0.045	0.273
-623.419	23.495	-0.240	-0.199
-622.405	-72.770	-0.091	-0.034
-621.390	-32.638	0.112	0.063
-620.376	-48.687	0.164	0.079
-619.361	800.000	0.022	-0.079
-618.346	-8.384	0.267	-0.181
-617.332	-58.629	-0.226	0.098
-616.317	-200.000	0.057	-0.384
-615.303	-125.791	0.177	-0.027
-614.288	127.131	0.078	0.100
-613.273	800.000	-0.081	-0.318
-612.259	-127.251	0.322	0.047
-611.244	-136.046	-0.066	0.008
-610.230	92.109	-0.134	-0.152
-609.215	188.630	-0.213	-0.322
-608.201	-24.839	-0.143	-0.085
-607.186	-48.079	0.084	0.041
-606.171	-136.595	0.168	0.020
-605.157	-18.354	-0.195	-0.123
-604.142	-171.099	0.353	-0.012
-603.128	-76.524	0.136	-0.048
-602.113	534.275	-0.071	-0.170
-601.098	-26.251	-0.257	-0.152
-600.084	390.218	-0.073	0.152
-599.069	-116.310	0.565	-0.105
-598.055	-33.120	0.237	0.132
-597.040	57.072	-0.187	0.183
-596.025	151.830	-0.114	0.157
-595.011	-16.085	-0.171	0.109
-593.996	499.012	0.034	-0.080
-592.982	86.591	0.205	-0.228
-591.967	-99.826	-0.431	-0.108
-590.952	701.969	-0.100	0.266
-589.938	25.984	-0.059	-0.049
-588.923	-82.551	-0.100	-0.033
-587.909	26.795	-0.117	0.099
-586.894	-8.317	0.179	-0.121
-585.879	50.679	-0.116	0.110
-584.865	-67.274	0.100	0.040
-583.850	-0.972	0.093	-0.066
-582.836	-69.760	-0.359	0.138
-581.821	-65.421	0.202	-0.082
-580.806	800.000	0.046	-0.139
-579.792	694.842	0.144	0.379
-578.777	-200.000	-0.031	-0.239
-577.763	-200.000	-0.049	-0.323
-576.748	-65.244	-0.249	-0.101
-575.733	-200.000	-0.001	0.272
-574.719	-4.739	-0.167	0.116
-573.704	-86.335	-0.206	0.064
-572.690	-200.000	-0.007	-0.072
-571.675	99.888	0.287	-0.334
-570.661	-15.429	-0.168	0.108
-569.646	70.883	-0.028	0.029
-568.631	477.391	-0.053	0.120
-567.617	-150.032	0.071	-0.006
-566.602	-3.596	0.070	0.049
-565.588	338.591	-0.140	0.274
-564.573	-181.786	0.175	-0.003
-563.558	-200.000	0.003	0.123
-562.544	800.000	0.022	0.085
-561.529	-54.543	0.224	-0.102
-560.515	364.900	0.099	-0.200
-559.500	800.000	0.056	-0.246
-558.485	-100.453	-0.346	0.086
-557.471	-124.140	-0.308	-0.049
-556.456	-79.832	0.227	-0.077
-555.442	-121.103	-0.142	-0.024
-554.427	199.779	-0.124	0.191
-553.412	243.749	-0.028	-0.047
-552.398	16.149	0.058	-0.046
-551.383	-107.454	0.471	-0.104
-550.369	-81.362	0.225	0.075
-549.354	25.979	-0.209	-0.175
-548.339	87.510	-0.261	-0.291
-547.325	-22.962	-0.135	-0.082
-546.310	20.499	-0.159	-0.129
-545.296	-24.071	0.065	-0.039
-544.281	-200.000	0.041	-0.312
-543.266	800.000	0.058	0.202
-542.252	638.606	0.053	0.136
-541.237	-100.337	0.374	-0.093
-540.223	-20.540	-0.051	0.032
-539.208	-87.069	0.040	-0.012
-538.193	-200.000	-0.039	0.203
-537.179	-11.439	0.272	-0.180
-536.164	196.042	-0.108	0.166
-535.150	35.568	-0.117	-0.103
-534.135	139.321	0.189	0.250
-533.121	586.866	0.050	0.123
-532.106	446.914	-0.038	-0.083
-531.091	111.270	-0.076	0.091
-530.077	-36.359	0.255	0.138
-529.062	130.614	0.083	0.107
-528.048	-83.067	0.187	0.060
-527.033	83.348	-0.157	0.172
-526.018	-25.314	0.317	-0.188
-525.004	-184.797	-0.360	0.006
-523.989	50.282	0.188	0.178
-522.975	-152.027	-0.154	0.011
-521.960	175.021	0.147	0.213
-520.945	447.959	-0.120	0.266
-519.931	800.000	-0.075	0.255
-518.916	-152.040	0.280	0.020
-517.902	-8.181	-0.127	-0.086
-516.887	110.341	0.181	-0.218
-515.872	3.627	0.240	-0.176
-514.858	203.203	-0.111	-0.172
-513.843	-200.000	0.003	-0.127
-512.829	-150.636	-0.115	-0.009
-511.814	781.793	-0.020	-0.056
-510.799	800.000	-0.102	0.347
-509.785	59.217	0.173	0.171
-508.770	-69.358	-0.180	0.069
-507.756	800.000	0.102	0.311
-506.741	116.959	-0.083	0.102
-505.726	-77.209	0.124	-0.043
-504.712	-92.363	0.285	0.081
-503.697	-200.000	0.025	0.211
-502.683	47.946	-0.113	0.106
-501.668	-86.317	0.282	0.087
-500.653	-200.000	-0.025	0.122
-499.639	-90.063	0.374	-0.109
-498.624	-200.000	-0.012	-0.289
-497.610	285.248	-0.218	-0.394
-496.595	258.648	0.074	-0.127
-495.581	379.264	-0.059	0.122
-494.566	-200.000	0.009	-0.162
-493.551	25.039	0.104	0.086
-492.537	-200.000	0.015	-0.330
-491.522	-169.545	-0.375	0.014
-490.508	38.216	-0.239	0.213
-489.493	256.195	-0.164	0.283
-488.478	81.688	-0.097	-0.105
-487.464	-43.704	0.465	-0.235
-486.449	-70.314	-0.435	0.165
-485.435	-164.643	-0.255	-0.012
-484.420	259.994	-0.125	-0.216
-483.405	-165.444	0.216	-0.009
-482.391	-98.516	0.146	0.037
-481.376	-200.000	0.016	0.117
-480.362	-102.471	0.251	0.060
-479.347	-200.000	0.004	0.120
-478.332	578.870	-0.065	0.160
-477.318	191.915	0.135	0.204
-476.303	-24.585	-0.095	-0.057
-475.289	63.167	0.105	0.105
-474.274	-127.810	-0.146	0.021
-473.259	-92.370	0.142	0.040
-472.245	-135.253	-0.040	-0.005
-471.230	82.267	0.109	0.119
-470.216	800.000	-0.035	-0.138
-469.201	800.000	0.073	0.294
-468.186	5.672	0.164	0.121
-467.172	-4.646	0.184	0.127
-466.157	564.409	-0.098	-0.239
-465.143	-116.449	0.364	-0.067
-464.128	24.145	0.098	-0.081
-463.113	280.628	-0.141	-0.252
-462.099	192.291	0.036	-0.055
-461.084	800.000	-0.044	-0.171
-460.070	-169.558	-0.115	-0.004
-459.055	-168.272	-0.227	0.009
-458.040	800.000	0.028	-0.118
-457.026	-10.022	-0.132	0.088
-456.011	-58.260	0.330	0.144
-454.997	800.000	-0.096	0.270
-453.982	-9.316	0.250	0.167
-452.968	92.052	0.251	0.283
-451.953	-136.845	-0.251	0.029
-450.938	-32.157	-0.121	-0.068
-449.924	-200.000	-0.029	0.279
-448.909	-200.000	-0.001	0.017
-447.895	-129.841	-0.284	0.039
-446.880	-116.158	0.247	0.046
-445.865	-200.000	-0.001	-0.010
-444.851	3.189	-0.158	-0.115
-443.836	4.137	-0.207	0.152
-442.822	536.060	-0.132	0.313
-441.807	104.754	-0.344	0.405
-440.792	-178.574	0.375	0.009
-439.778	417.316	-0.055	0.118
-438.763	-9.462	0.170	-0.114
-437.749	143.764	0.185	-0.247
-436.734	49.121	0.167	-0.157
-435.719	135.908	0.047	-0.061
-434.705	283.645	0.108	0.194
-433.690	-200.000	-0.040	0.254
-432.676	-53.187	-0.133	-0.061
-431.661	216.229	0.128	-0.204
-430.646	140.696	-0.078	0.103
-429.632	24.431	-0.092	0.076
-428.617	-141.881	-0.274	0.027
-427.603	-152.143	0.258	-0.019
-426.588	189.528	0.083	-0.124
-425.573	235.523	-0.086	-0.143
-424.559	-81.030	-0.194	-0.064
-423.544	-200.000	-0.003	-0.082
-422.530	-77.452	-0.391	-0.136
-421.515	693.566	0.059	0.156
-420.500	-87.922	-0.159	0.048
-419.486	-135.448	-0.027	0.003
-418.471	-42.896	-0.166	0.084
-417.457	28.250	0.139	-0.117
-416.442	800.000	-0.043	-0.153
-415.428	-20.160	0.150	-0.092
-414.413	800.000	-0.022	-0.097
-413.398	800.000	-0.035	0.103
-412.384	800.000	0.006	-0.019
-411.369	7.870	0.234	-0.175
-410.355	70.042	0.312	0.322
-409.340	-94.154	-0.135	0.037
-408.325	-128.005	-0.476	-0.068
-407.311	-200.000	0.003	0.269
-406.296	-87.224	0.319	-0.097
-405.282	-52.817	0.230	0.106
-404.267	-99.988	-0.378	-0.094
-403.252	800.000	0.050	-0.190
-402.238	503.924	-0.136	0.315
-401.223	703.385	0.121	0.319
-400.209	178.581	-0.178	0.259
-399.194	114.636	0.121	0.148
-398.179	-200.000	0.053	0.376
-397.165	-200.000	-0.009	0.115
-396.150	44.331	0.220	0.202
-395.136	65.239	-0.049	-0.050
-394.121	-95.321	0.208	-0.056
-393.106	-45.465	0.050	0.025
-392.092	268.513	-0.130	0.227
-391.077	76.181	-0.132	0.140
-390.063	-200.000	0.018	-0.504
-389.048	800.000	-0.095	-0.344
-388.033	-200.000	0.014	0.133
-387.019	706.366	-0.063	0.166
-386.004	-200.000	0.010	-0.132
-384.990	-116.188	0.324	0.060
-383.975	166.838	-0.026	0.036
-382.960	603.981	0.063	0.158
-381.946	-74.565	0.112	0.040
-380.931	19.892	-0.037	0.029
-379.917	800.000	-0.073	-0.267
-378.902	41.410	0.127	0.115
-377.888	-122.835	0.301	-0.049
-376.873	452.149	-0.144	0.318
-375.858	29.054	0.165	0.139
-374.844	197.301	-0.093	-0.142
-373.829	-133.119	0.043	0.005
-372.815	-113.875	0.231	-0.045
-371.800	3.402	-0.058	-0.042
-370.785	-65.117	-0.229	-0.092
-369.771	800.000	0.040	0.124
-368.756	-133.039	0.189	0.024
-367.742	-10.402	-0.116	-0.077
-366.727	-24.993	0.073	-0.043
-365.712	-119.972	0.429	0.074
-364.698	-7.310	-0.207	-0.140
-363.683	113.721	0.114	-0.138
-362.669	-99.919	0.388	0.097
-361.654	111.006	-0.270	0.325
-360.639	310.920	0.044	-0.082
-359.625	-110.297	-0.277	-0.057
-358.610	48.120	-0.108	0.101
-357.596	339.336	-0.108	-0.210
-356.581	443.238	-0.099	-0.216
-355.566	466.832	-0.058	0.129
-354.552	800.000	-0.055	0.193
-353.537	-126.362	0.212	-0.031
-352.523	37.029	0.308	0.272
-351.508	525.974	-0.055	-0.130
-350.493	236.204	0.220	-0.363
-349.479	104.845	-0.153	-0.180
-348.464	-0.247	-0.261	0.185
-347.450	135.663	0.089	-0.116
-346.435	446.557	0.096	0.210
-345.420	-68.508	-0.018	-0.007
-344.406	-168.798	-0.210	-0.008
-343.391	8.530	0.226	-0.169
-342.377	-71.131	-0.115	0.043
-341.362	-200.000	-0.002	0.031
-340.348	800.000	-0.085	-0.315
-339.333	-200.000	0.018	-0.295
-338.318	377.142	-0.072	-0.147
-337.304	-44.801	0.244	-0.121
-336.289	-11.954	0.229	-0.149
-335.275	800.000	-0.081	-0.257
-334.260	-200.000	-0.008	0.193
-333.245	-200.000	0.061	0.417
-332.231	241.393	-0.081	0.135
-331.216	-139.908	-0.104	-0.011
-330.202	-200.000	0.011	-0.175
-329.187	-83.173	-0.148	0.047
-328.172	32.393	-0.239	-0.205
-327.158	342.280	-0.047	-0.091
-326.143	-107.161	-0.288	-0.063
-325.129	-59.247	-0.185	-0.079
-324.114	-61.794	0.341	0.142
-323.099	159.575	0.169	0.234
-322.085	-58.826	-0.196	0.084
-321.070	355.412	0.102	0.202
-320.056	-71.048	-0.320	-0.120
-319.041	26.105	0.048	0.040
-318.026	-159.448	0.270	0.015
-317.012	-200.000	-0.026	-0.278
-315.997	-129.173	0.070	-0.010
-314.983	-200.000	0.011	-0.125
-313.968	-200.000	0.074	-0.413
-312.953	-116.408	-0.034	0.006
-311.939	800.000	-0.035	-0.140
-310.924	800.000	-0.085	-0.301
-309.910	-25.927	0.140	0.082
-308.895	200.276	-0.064	0.098
-307.880	-76.617	0.351	0.123
-306.866	113.142	-0.095	-0.115
-305.851	800.000	-0.086	-0.267
-304.837	-66.192	-0.127	-0.050
-303.822	-8.474	0.172	0.115
-302.807	-200.000	0.034	-0.256
-301.793	18.611	-0.357	0.284
-300.778	-58.226	-0.421	0.182
-299.764	-94.821	-0.240	-0.065
-298.749	538.591	0.141	0.334
-297.735	800.000	0.048	0.172
-296.720	-23.890	-0.247	0.147
-295.705	-200.000	-0.013	0.109
-294.691	373.090	-0.035	0.071
-293.676	286.871	-0.044	-0.080
-292.662	-20.252	0.072	0.044
-291.647	-200.000	0.009	-0.534
-290.632	233.785	0.119	0.194
-289.618	-200.000	0.021	0.363
-288.603	-200.000	-0.063	0.486
-287.589	440.066	0.056	-0.121
-286.574	157.924	-0.223	0.307
-285.559	-40.892	-0.070	0.036
-284.545	-200.000	0.004	0.262
-283.530	-119.920	-0.210	0.036
-282.516	330.131	0.126	-0.242
-281.501	-200.000	0.028	-0.235
-280.486	-120.843	0.171	-0.029
-279.472	-200.000	0.041	-0.328
-278.457	205.719	-0.151	-0.233
-277.443	272.971	-0.157	-0.275
-276.428	52.604	0.108	-0.103
-275.413	-200.000	0.020	-0.113
-274.399	-124.292	0.345	-0.054
-273.384	-148.971	-0.244	0.020
-272.370	-38.314	-0.183	-0.097
-271.355	66.312	-0.238	-0.240
-270.340	63.048	-0.084	-0.083
-269.326	800.000	-0.025	0.101
-268.311	800.000	-0.096	-0.347
-267.297	-200.000	0.004	0.098
-266.282	416.862	-0.067	0.141
-265.267	-77.863	-0.279	-0.096
-264.253	-152.603	0.059	0.004
-263.238	-200.000	-0.152	0.000
-262.224	-200.000	-0.024	-0.366
-261.209	-155.356	0.203	-0.013
-260.195	-15.625	-0.264	-0.167
-259.180	28.557	-0.093	-0.078
-258.165	-133.877	-0.654	0.081
-257.151	-140.886	0.060	-0.006
-256.136	-72.696	-0.326	-0.119
-255.122	280.963	-0.031	0.055
-254.107	-200.000	0.036	0.192
-253.092	800.000	-0.034	0.136
-252.078	800.000	-0.137	0.441
-251.063	-107.582	-0.105	0.023
-250.049	328.108	-0.058	0.111
-249.034	-138.349	0.340	0.037
-248.019	-53.250	-0.137	-0.062
-247.005	-116.318	0.233	0.043
-245.990	67.377	0.121	0.122
-244.976	-159.893	-0.182	0.010
-243.961	150.573	0.099	0.133
-242.946	-143.986	0.022	0.002
-241.932	454.177	0.221	0.485
-240.917	-200.000	-0.045	-0.210
-239.903	109.692	0.024	-0.029
-238.888	228.653	-0.104	0.168
-237.873	-200.000	0.029	0.236
-236.859	-200.000	0.311	0.000
-235.844	-13.096	0.200	-0.129
-234.830	-130.150	0.249	-0.034
-233.815	-100.499	-0.119	-0.029
-232.800	17.887	0.312	-0.247
-231.786	261.975	-0.144	-0.248
-230.771	-74.409	0.171	-0.061
-229.757	54.486	0.218	0.208
-228.742	800.000	-0.062	0.211
-227.727	-146.548	-0.234	0.020
-226.713	-93.609	0.147	-0.040
-225.698	578.485	-0.024	-0.059
-224.684	-6.799	-0.258	0.174
-223.669	209.601	0.139	-0.216
-222.655	800.000	0.075	0.214
-221.640	548.609	0.076	0.181
-220.625	-127.966	0.098	-0.014
-219.611	-35.166	-0.253	-0.137
-218.596	-91.232	0.140	-0.040
-217.582	-200.000	-0.005	0.321
-216.567	18.484	0.133	0.106
-215.552	103.482	0.426	-0.496
-214.538	-51.382	-0.185	0.086
-213.523	-31.297	-0.239	-0.134
-212.509	0.758	0.055	0.039
-211.494	-126.262	-0.207	-0.031
-210.479	-200.000	-0.010	0.262
-209.465	-88.640	0.239	0.071
-208.450	-54.771	-0.147	0.066
-207.436	800.000	0.044	-0.170
-206.421	622.365	-0.042	-0.105
-205.406	-124.743	-0.238	0.037
-204.392	160.106	0.236	0.326
-203.377	-200.000	-0.066	0.306
-202.363	-84.729	-0.202	0.063
-201.348	424.487	-0.088	0.187
-200.333	219.249	-0.126	-0.200
-199.319	-29.228	-0.103	0.058
-198.304	161.730	-0.095	-0.132
-197.290	-162.167	0.195	0.010
-196.275	-125.279	-0.218	-0.033
-195.260	-72.129	0.186	-0.069
-194.246	199.661	-0.083	-0.127
-193.231	16.276	0.110	0.086
-192.217	-157.624	0.196	-0.012
-191.202	-46.431	0.186	-0.091
-190.187	-48.029	-0.447	-0.214
-189.173	-33.901	-0.204	-0.111
-188.158	509.249	0.232	0.534
-187.144	-56.565	0.071	-0.031
-186.129	39.706	0.225	-0.200
-185.114	-120.711	-0.375	-0.063
-184.100	-102.133	-0.537	0.128
-183.085	195.165	0.071	-0.107
-182.071	-129.284	0.174	-0.024
-181.056	-24.120	0.116	-0.069
-180.042	-2.906	0.277	-0.192
-179.027	800.000	-0.015	-0.062
-178.012	68.410	-0.138	0.140
-176.998	-200.000	-0.005	-0.236
-175.983	-200.000	0.069	-0.343
-174.969	168.565	0.178	-0.251
-173.954	-154.254	-0.138	-0.009
-172.939	183.560	0.092	0.135
-171.925	-162.080	0.144	-0.007
-170.910	-200.000	0.023	-0.116
-169.896	191.742	0.049	0.073
-168.881	641.705	-0.094	-0.238
-167.866	-140.692	-0.099	-0.010
-166.852	-33.660	0.158	-0.086
-165.837	735.785	-0.152	-0.402
-164.823	-52.347	0.258	0.118
-163.808	-198.107	-0.183	-0.001
-162.793	7.450	0.230	-0.170
-161.779	-200.000	0.028	-0.250
-160.764	-140.667	-0.096	0.010
-159.750	-171.210	0.197	-0.007
-158.735	800.000	-0.018	0.057
-157.720	-200.000	0.018	0.243
-156.706	-41.394	-0.282	0.143
-155.691	156.674	0.109	-0.150
-154.677	-17.916	-0.231	-0.144
-153.662	-121.352	-0.525	0.087
-152.647	-139.291	0.019	-0.002
-151.633	-34.081	0.087	0.047
-150.618	800.000	0.052	-0.215
-149.604	80.343	-0.041	0.044
-148.589	-200.000	0.035	-0.238
-147.574	250.167	0.150	-0.252
-146.560	-154.776	0.194	-0.013
-145.545	175.281	-0.020	0.029
-144.531	-200.000	-0.044	0.206
-143.516	138.091	-0.113	0.147
-142.502	12.773	0.164	-0.125
-141.487	297.214	0.058	-0.105
-140.472	8.630	-0.155	0.116
-139.458	800.000	-0.061	0.205
-138.443	-48.581	-0.091	0.043
-137.429	-49.645	0.121	0.057
-136.414	-96.054	-0.339	-0.089
-135.399	-44.116	0.446	0.221
-134.385	-107.005	0.265	0.058
-133.370	153.655	-0.063	-0.086
-132.356	-142.825	0.257	0.025
-131.341	-114.129	-0.168	-0.032
-130.326	249.256	0.029	0.049
-129.312	32.891	-0.222	0.190
-128.297	-200.000	0.002	-0.130
-127.283	470.047	0.108	-0.240
-126.268	141.753	0.020	-0.027
-125.253	-50.189	-0.118	0.055
-124.239	-200.000	0.006	0.117
-123.224	86.364	0.258	0.281
-122.210	-134.057	0.105	0.013
