DTS Sentinel unit serial number:	SN413079Multiplexer serial number:	ORYXHardware model number:	OX4-SRSoftware version number:	ORYX F/W v4.00 Oryx Data Collector v3.7.2.0data status	okinstallation	princeton_trtdifferential loss correction	single-endedforward channel	channel 3reverse channel	N/Adate	2019/09/14time	15:56:35forward acquisition time	60.00reverse acquisition time	0.00gamma	496.2192k internal	0.2294k external	0.2294temperature offset calibration	1.0056default loss term (dB/km)	0.3790temperature slope calibration	1.0000multiplexer offset coefficient	1.0000multiplexer slope coefficient	1.0000fibre end	0.00T internal ref (°C)	38.62T ext. ref 1 (°C)	5.11T ext. ref 2 (°C)	33.07length (m)	temperature (°C)	Stokes	anti-Stokes-747.200	800.000	0.027	0.083
-746.185	36.303	-0.299	0.269
-745.171	30.053	-0.126	0.110
-744.156	-200.000	-0.009	-0.127
-743.142	-6.285	-0.223	0.156
-742.127	-200.000	-0.001	0.405
-741.112	345.609	-0.091	-0.183
-740.098	593.028	-0.038	0.096
-739.083	-14.788	0.092	0.060
-738.069	800.000	0.087	0.320
-737.054	-114.197	-0.325	0.064
-736.039	195.359	0.126	0.196
-735.025	37.117	0.339	0.307
-734.010	-115.937	-0.212	-0.040
-732.996	-54.830	0.273	-0.126
-731.981	-70.983	-0.214	-0.082
-730.966	-200.000	-0.012	-0.161
-729.952	-129.585	-0.368	-0.052
-728.937	81.625	-0.096	-0.106
-727.923	-200.000	0.020	-0.223
-726.908	-89.851	0.213	0.064
-725.894	-200.000	0.002	-0.142
-724.879	-128.412	-0.663	0.096
-723.864	-200.000	-0.169	-0.000
-722.850	-84.632	-0.277	0.089
-721.835	-114.019	-0.080	-0.016
-720.821	-200.000	-0.006	0.257
-719.806	44.018	-0.067	-0.062
-718.791	96.978	0.107	-0.126
-717.777	-200.000	-0.022	-0.249
-716.762	-48.676	0.456	0.224
-715.748	-200.000	-0.030	-0.153
-714.733	74.541	-0.072	0.077
-713.718	-114.675	0.283	-0.055
-712.704	-200.000	-0.016	0.088
-711.689	263.367	-0.036	-0.063
-710.675	-85.653	0.109	-0.035
-709.660	-20.270	0.258	-0.162
-708.645	399.933	0.121	0.260
-707.631	-200.000	0.003	-0.051
-706.616	175.979	-0.088	-0.131
-705.602	25.270	-0.234	-0.199
-704.587	-129.374	-0.121	-0.017
-703.572	-200.000	-0.004	0.089
-702.558	18.995	0.180	-0.148
-701.543	114.400	-0.166	0.207
-700.529	-53.894	-0.257	-0.120
-699.514	275.623	-0.051	-0.092
-698.499	-60.932	0.158	0.068
-697.485	-200.000	-0.020	-0.160
-696.470	310.419	0.094	-0.180
-695.456	156.172	-0.152	-0.214
-694.441	-89.858	-0.237	-0.071
-693.426	63.330	0.064	-0.066
-692.412	-101.436	-0.099	-0.025
-691.397	-7.118	-0.224	-0.155
-690.383	-200.000	-0.004	0.043
-689.368	-184.523	-0.235	0.004
-688.354	211.006	-0.118	-0.189
-687.339	106.274	-0.085	0.103
-686.324	-89.082	-0.218	-0.066
-685.310	50.949	-0.172	0.166
-684.295	787.884	0.028	0.077
-683.281	-68.540	-0.324	0.128
-682.266	800.000	-0.003	-0.013
-681.251	150.725	-0.090	-0.125
-680.237	645.690	-0.038	-0.099
-679.222	122.961	-0.313	-0.400
-678.208	121.578	-0.130	-0.166
-677.193	28.029	0.279	-0.240
-676.178	-73.015	0.380	0.142
-675.164	146.826	0.111	0.153
-674.149	-90.685	-0.262	-0.077
-673.135	-200.000	-0.001	-0.182
-672.120	17.053	0.071	0.057
-671.105	800.000	0.059	0.219
-670.091	-141.751	0.037	0.004
-669.076	610.033	0.135	-0.345
-668.062	514.973	-0.097	-0.232
-667.047	-142.139	-0.282	0.029
-666.032	115.800	-0.273	-0.341
-665.018	800.000	-0.093	-0.398
-664.003	676.479	0.053	-0.141
-662.989	51.247	-0.062	-0.060
-661.974	35.596	-0.277	-0.248
-660.959	620.153	0.051	-0.131
-659.945	19.199	0.147	-0.120
-658.930	-200.000	-0.006	-0.130
-657.916	-62.738	-0.146	-0.062
-656.901	800.000	0.061	0.179
-655.886	29.234	0.102	0.088
-654.872	-200.000	0.042	0.202
-653.857	-72.055	-0.164	-0.062
-652.843	-130.656	0.189	0.026
-651.828	69.357	-0.104	-0.109
-650.814	7.011	-0.365	-0.277
-649.799	-200.000	-0.035	0.222
-648.784	143.461	0.085	-0.115
-647.770	-30.535	0.168	0.097
-646.755	154.414	-0.095	0.133
-645.741	-200.000	0.021	0.242
-644.726	275.420	-0.141	0.254
-643.711	-69.005	-0.152	-0.060
-642.697	-102.234	-0.185	-0.045
-641.682	-17.858	-0.150	-0.096
-640.668	-28.670	-0.167	-0.098
-639.653	348.576	-0.160	-0.322
-638.638	800.000	-0.158	-0.517
-637.624	769.208	-0.071	-0.196
-636.609	-81.827	-0.289	0.096
-635.595	-41.474	-0.216	-0.113
-634.580	-200.000	0.018	-0.248
-633.565	563.630	-0.080	0.197
-632.551	-128.045	0.230	-0.034
-631.536	365.872	-0.103	0.212
-630.522	-167.075	-0.090	0.004
-629.507	800.000	0.068	-0.227
-628.492	800.000	-0.114	-0.379
-627.478	-116.493	0.239	-0.045
-626.463	-200.000	-0.016	-0.072
-625.449	-108.187	-0.355	-0.078
-624.434	-109.307	-0.351	0.076
-623.419	-200.000	-0.003	0.135
-622.405	205.402	-0.060	0.094
-621.390	28.369	0.205	-0.176
-620.376	-139.390	-0.167	0.018
-619.361	-172.602	-0.521	-0.017
-618.346	38.948	0.141	0.129
-617.332	2.943	0.264	0.195
-616.317	-200.000	0.087	0.509
-615.303	-149.872	-0.155	0.012
-614.288	-200.000	-0.081	-0.366
-613.273	-41.708	0.044	0.023
-612.259	235.090	-0.208	0.349
-611.244	154.539	-0.124	-0.173
-610.230	-11.796	-0.194	-0.129
-609.215	-200.000	-0.034	0.206
-608.201	-31.330	-0.337	-0.193
-607.186	-200.000	-0.003	-0.222
-606.171	243.019	0.139	-0.236
-605.157	-87.402	0.076	0.023
-604.142	-109.903	0.422	-0.090
-603.128	33.014	0.194	0.171
-602.113	7.084	-0.248	0.188
-601.098	-96.950	0.157	-0.042
-600.084	704.413	-0.054	0.144
-599.069	322.599	-0.113	0.218
-598.055	800.000	0.066	-0.260
-597.040	-200.000	0.003	-0.136
-596.025	81.803	-0.238	-0.262
-595.011	800.000	-0.021	0.081
-593.996	180.807	0.057	-0.085
-592.982	150.720	-0.051	0.071
-591.967	-20.028	-0.210	-0.131
-590.952	-124.750	0.112	0.018
-589.938	-127.259	-0.231	0.034
-588.923	-200.000	0.006	-0.147
-587.909	-200.000	-0.043	0.558
-586.894	271.010	0.226	0.404
-585.879	364.249	0.060	0.122
-584.865	-200.000	0.029	-0.338
-583.850	-200.000	0.001	-0.142
-582.836	138.074	-0.174	-0.232
-581.821	-175.847	-0.114	-0.003
-580.806	-148.760	-0.323	0.027
-579.792	-180.848	0.189	0.004
-578.777	-57.968	0.299	0.133
-577.763	103.681	0.195	-0.233
-576.748	-148.444	0.233	-0.019
-575.733	800.000	0.128	0.389
-574.719	-71.423	0.239	0.091
-573.704	146.395	0.201	-0.275
-572.690	75.850	-0.108	0.116
-571.675	-42.266	-0.111	-0.058
-570.661	-6.331	0.109	0.075
-569.646	-77.369	-0.213	0.075
-568.631	-7.506	0.182	0.125
-567.617	-19.352	-0.315	-0.198
-566.602	-31.210	-0.288	-0.165
-565.588	-114.329	-0.124	-0.024
-564.573	17.407	-0.107	0.087
-563.558	265.186	0.136	0.240
-562.544	-57.493	-0.219	0.098
-561.529	-49.696	0.148	0.072
-560.515	-1.453	0.142	-0.101
-559.500	-194.099	-0.139	-0.001
-558.485	800.000	-0.120	0.369
-557.471	-200.000	0.034	-0.375
-556.456	-200.000	-0.054	-0.241
-555.442	-140.293	0.214	0.023
-554.427	-130.609	-0.092	0.013
-553.412	-92.944	0.172	-0.049
-552.398	106.261	-0.281	-0.337
-551.383	-156.355	-0.351	0.022
-550.369	-8.294	0.352	0.240
-549.354	129.133	0.055	0.071
-548.339	-161.963	-0.193	-0.010
-547.325	-200.000	-0.081	-0.444
-546.310	189.400	0.157	0.238
-545.296	437.045	0.071	-0.158
-544.281	167.276	0.017	0.025
-543.266	-112.795	0.329	-0.066
-542.252	-155.259	0.091	0.006
-541.237	202.607	-0.107	0.168
-540.223	-200.000	-0.017	-0.312
-539.208	-200.000	-0.040	-0.437
-538.193	60.944	-0.072	-0.073
-537.179	467.449	0.097	0.221
-536.164	-46.714	-0.049	-0.024
-535.150	272.544	-0.016	0.029
-534.135	-30.105	0.192	-0.111
-533.121	-123.239	0.229	-0.037
-532.106	-62.987	-0.303	0.127
-531.091	33.626	-0.253	0.223
-530.077	155.863	-0.141	-0.198
-529.062	-200.000	-0.011	0.154
-528.048	146.022	-0.196	-0.266
-527.033	-167.604	0.254	0.010
-526.018	-119.500	0.355	-0.062
-525.004	-17.630	-0.247	0.157
-523.989	175.177	0.100	-0.147
-522.975	-87.215	-0.316	-0.097
-521.960	48.031	0.077	0.073
-520.945	26.819	0.087	0.074
-519.931	-200.000	0.012	-0.147
-518.916	22.775	-0.099	0.082
-517.902	-200.000	0.001	0.083
-516.887	56.586	0.069	0.068
-515.872	800.000	0.025	0.072
-514.858	9.775	0.313	0.240
-513.843	13.591	0.019	0.015
-512.829	257.572	0.165	0.288
-511.814	256.135	-0.137	0.238
-510.799	-101.740	-0.277	-0.068
-509.785	12.209	0.107	0.083
-508.770	-132.034	-0.409	-0.054
-507.756	192.653	-0.121	-0.185
-506.741	-62.714	-0.174	-0.073
-505.726	-200.000	0.049	0.408
-504.712	-200.000	0.017	-0.132
-503.697	126.805	-0.092	-0.118
-502.683	124.487	0.049	0.063
-501.668	415.737	-0.081	0.175
-500.653	-27.643	-0.075	0.044
-499.639	40.905	0.111	0.101
-498.624	-200.000	0.010	0.184
-497.610	100.341	0.013	0.015
-496.595	-61.353	-0.079	0.034
-495.581	-34.985	-0.315	-0.174
-494.566	-81.360	-0.223	-0.074
-493.551	764.254	0.095	0.262
-492.537	-200.000	0.033	0.416
-491.522	800.000	-0.040	-0.127
-490.508	1.084	-0.046	0.034
-489.493	-80.226	0.067	0.023
-488.478	-54.409	0.362	0.166
-487.464	131.778	-0.198	-0.257
-486.449	182.305	-0.109	-0.163
-485.435	710.348	0.119	0.319
-484.420	591.966	0.087	-0.216
-483.405	25.413	0.067	0.056
-482.391	-81.462	0.067	-0.022
-481.376	-200.000	-0.008	0.187
-480.362	-200.000	-0.020	0.466
-479.347	476.031	-0.092	0.210
-478.332	154.763	0.107	-0.148
-477.318	-43.670	0.268	-0.137
-476.303	-200.000	0.021	-0.326
-475.289	10.014	-0.249	-0.191
-474.274	-107.093	-0.429	-0.096
-473.259	-60.969	0.205	-0.088
-472.245	-69.696	-0.236	0.091
-471.230	305.987	-0.106	-0.199
-470.216	75.556	-0.116	-0.124
-469.201	-30.923	-0.405	0.231
-468.186	-200.000	-0.027	0.312
-467.172	-113.085	-0.189	-0.038
-466.157	247.372	0.035	0.059
-465.143	89.167	-0.044	0.050
-464.128	-181.366	-0.292	0.006
-463.113	160.492	0.096	-0.136
-462.099	-99.564	0.113	-0.029
-461.084	-93.546	0.326	0.091
-460.070	-151.676	0.328	-0.024
-459.055	11.006	-0.275	0.213
-458.040	123.570	-0.061	-0.077
-457.026	11.889	-0.250	-0.194
-456.011	83.689	0.156	0.173
-454.997	390.837	0.070	0.146
-453.982	-70.582	0.504	0.193
-452.968	90.633	-0.184	-0.208
-451.953	-35.930	0.120	0.065
-450.938	287.149	0.058	-0.106
-449.924	-11.839	0.343	-0.228
-448.909	-16.702	-0.187	-0.120
-447.895	-200.000	-0.010	0.138
-446.880	-5.457	0.244	-0.169
-445.865	800.000	0.161	-0.573
-444.851	147.616	0.207	-0.282
-443.836	-66.952	0.113	-0.045
-442.822	11.921	-0.168	0.130
-441.807	134.350	-0.165	0.217
-440.792	226.090	0.163	0.267
-439.778	141.147	-0.074	-0.099
-438.763	-152.173	0.506	-0.037
-437.749	-200.000	-0.063	-0.285
-436.734	254.697	0.104	-0.179
-435.719	-200.000	-0.006	-0.284
-434.705	25.392	0.233	-0.196
-433.690	20.466	0.115	0.094
-432.676	-73.757	-0.260	0.095
-431.661	800.000	0.015	0.047
-430.646	-78.481	-0.218	0.075
-429.632	-92.768	-0.122	0.034
-428.617	800.000	-0.052	-0.175
-427.603	179.360	0.196	0.290
-426.588	163.984	-0.159	-0.225
-425.573	54.001	-0.318	0.309
-424.559	-35.814	-0.274	0.150
-423.544	-188.563	-0.097	0.001
-422.530	800.000	0.027	-0.085
-421.515	-200.000	-0.021	-0.261
-420.500	800.000	0.121	0.358
-419.486	151.876	0.097	0.134
-418.471	187.316	-0.052	0.078
-417.457	800.000	0.013	0.045
-416.442	214.365	0.104	-0.166
-415.428	-39.104	-0.219	0.116
-414.413	800.000	-0.115	0.375
-413.398	-200.000	0.019	-0.277
-412.384	-62.080	0.183	-0.077
-411.369	115.118	0.148	-0.182
-410.355	27.088	0.121	0.103
-409.340	2.466	0.174	0.127
-408.325	800.000	-0.087	0.299
-407.311	-149.983	-0.245	0.019
-406.296	414.012	0.202	-0.434
-405.282	-75.458	0.213	-0.076
-404.267	28.208	-0.114	-0.097
-403.252	209.841	0.072	0.114
-402.238	680.078	-0.072	0.190
-401.223	387.461	-0.095	-0.198
-400.209	800.000	0.065	-0.256
-399.194	-114.946	0.173	-0.033
-398.179	-155.793	-0.114	0.007
-397.165	-87.635	-0.226	0.069
-396.150	34.459	0.377	-0.332
-395.136	44.863	-0.180	-0.167
-394.121	-94.619	0.114	-0.031
-393.106	-200.000	-0.035	-0.243
-392.092	-18.660	0.296	0.186
-391.077	690.095	0.061	0.161
-390.063	187.946	0.081	0.122
-389.048	686.168	-0.018	-0.046
-388.033	-46.748	0.033	0.017
-387.019	-154.924	-0.112	0.007
-386.004	-200.000	-0.007	-0.125
-384.990	-79.015	-0.099	0.034
-383.975	16.145	0.150	-0.119
-382.960	47.260	0.092	-0.086
-381.946	373.879	-0.145	-0.298
-380.931	38.307	0.035	-0.031
-379.917	309.482	0.116	0.218
-378.902	72.790	0.151	0.159
-377.888	52.702	-0.057	0.055
-376.873	800.000	0.093	0.291
-375.858	33.270	0.090	0.079
-374.844	536.467	0.098	-0.235
-373.829	-95.325	-0.159	0.043
-372.815	117.729	0.136	0.169
-371.800	-200.000	-0.019	0.108
-370.785	0.564	0.317	-0.229
-369.771	-136.054	0.262	-0.031
-368.756	-33.589	-0.104	-0.058
-367.742	800.000	-0.139	-0.452
-366.727	-68.446	-0.326	-0.127
-365.712	-109.067	0.187	-0.040
-364.698	-82.683	0.305	0.099
-363.683	-61.188	-0.327	0.139
-362.669	-77.068	0.519	-0.182
-361.654	800.000	0.060	-0.182
-360.639	16.741	0.123	-0.098
-359.625	-55.159	0.233	-0.106
-358.610	800.000	-0.078	0.311
-357.596	-200.000	-0.073	0.391
-356.581	-200.000	-0.048	0.391
-355.566	20.326	-0.277	0.226
-354.552	-200.000	0.012	0.179
-353.537	63.678	-0.089	0.090
-352.523	800.000	0.028	-0.115
-351.508	94.518	0.294	-0.337
-350.493	-110.383	-0.268	0.056
-349.479	-200.000	0.066	-0.000
-348.464	-90.010	-0.172	-0.051
-347.450	57.772	0.156	-0.153
-346.435	-161.634	0.228	0.012
-345.420	278.784	0.063	0.113
-344.406	135.459	0.107	0.140
-343.391	47.311	-0.264	-0.248
-342.377	-83.089	0.065	-0.021
-341.362	-196.798	-0.276	0.002
-340.348	-28.273	0.162	-0.094
-339.333	660.878	-0.082	-0.213
-338.318	35.552	0.071	-0.063
-337.304	423.406	-0.243	0.526
-336.289	-73.522	0.108	0.040
-335.275	170.202	0.199	-0.287
-334.260	-72.320	-0.180	0.067
-333.245	-119.090	-0.155	-0.027
-332.231	337.786	-0.095	0.187
-331.216	1.158	-0.052	0.038
-330.202	-178.178	-0.014	0.000
-329.187	-118.287	-0.345	0.062
-328.172	103.863	0.170	0.201
-327.158	800.000	-0.071	-0.199
-326.143	-101.851	-0.162	-0.039
-325.129	63.967	-0.169	-0.171
-324.114	246.163	0.032	0.054
-323.099	-11.241	0.103	0.068
-322.085	372.055	0.163	0.334
-321.070	279.831	-0.080	-0.145
-320.056	-80.149	0.202	-0.068
-319.041	216.285	-0.156	-0.249
-318.026	-121.273	0.376	0.063
-317.012	800.000	0.045	-0.164
-315.997	-170.161	-0.191	-0.007
-314.983	-200.000	0.043	-0.264
-313.968	800.000	-0.098	0.295
-312.953	-72.455	-0.268	-0.100
-311.939	97.420	0.156	0.180
-310.924	-54.928	-0.128	-0.058
-309.910	-18.986	0.076	-0.048
-308.895	-132.354	-0.104	0.014
-307.880	-200.000	-0.047	0.271
-306.866	-31.505	0.205	-0.116
-305.851	29.882	0.237	0.203
-304.837	-50.060	0.200	0.095
-303.822	506.780	0.070	-0.163
-302.807	-200.000	0.022	0.333
-301.793	-36.706	0.183	-0.099
-300.778	800.000	0.035	-0.148
-299.764	-200.000	-0.018	0.174
-298.749	800.000	0.020	0.069
-297.735	800.000	-0.087	-0.322
-296.720	112.024	-0.121	0.147
-295.705	65.008	0.124	0.126
-294.691	477.507	0.072	-0.164
-293.676	-86.835	0.332	0.102
-292.662	-46.448	0.277	-0.137
-291.647	127.681	0.089	0.113
-290.632	-180.978	-0.421	0.009
-289.618	-17.713	-0.200	-0.126
-288.603	-95.323	0.249	0.067
-287.589	-75.274	0.231	-0.083
-286.574	-200.000	0.029	0.353
-285.559	113.053	-0.399	-0.486
-284.545	105.665	0.214	-0.255
-283.530	-30.930	0.141	0.080
-282.516	-200.000	-0.004	0.086
-281.501	196.589	0.048	-0.074
-280.486	55.405	-0.316	0.307
-279.472	-7.173	-0.173	-0.118
-278.457	-33.036	-0.227	0.127
-277.443	800.000	0.034	0.113
-276.428	481.214	0.090	-0.204
-275.413	53.333	0.051	-0.049
-274.399	128.538	-0.153	0.196
-273.384	-76.111	-0.154	0.055
-272.370	15.281	0.056	-0.044
-271.355	800.000	-0.058	-0.192
-270.340	307.011	0.072	0.134
-269.326	-85.283	0.287	-0.090
-268.311	9.338	0.267	0.203
-267.297	-163.933	0.191	0.009
-266.282	12.693	0.231	-0.179
-265.267	391.900	-0.098	0.205
-264.253	-51.467	0.121	0.057
-263.238	151.152	0.155	0.212
-262.224	800.000	-0.023	-0.068
-261.209	404.527	0.158	-0.334
-260.195	-145.734	0.392	-0.035
-259.180	800.000	0.054	0.153
-258.165	-6.699	-0.083	-0.056
-257.151	243.762	-0.105	-0.177
-256.136	-17.782	-0.106	0.067
-255.122	82.992	-0.020	-0.022
-254.107	-185.850	0.275	-0.004
-253.092	-158.073	0.134	0.008
-252.078	-68.079	-0.090	0.035
-251.063	-107.206	-0.348	-0.077
-250.049	-77.143	0.114	-0.040
-249.034	-200.000	-0.023	-0.233
-248.019	-94.958	-0.156	0.042
-247.005	-93.477	-0.208	0.058
-245.990	-200.000	0.016	0.103
-244.976	-200.000	-0.025	0.128
-243.961	548.160	0.066	-0.158
-242.946	800.000	-0.075	0.250
-241.932	225.767	-0.134	-0.218
-240.917	60.633	0.042	-0.042
-239.903	318.938	0.125	0.237
-238.888	384.936	-0.092	0.190
-237.873	-98.255	-0.165	0.042
-236.859	668.751	-0.076	-0.196
-235.844	-89.588	0.190	-0.056
-234.830	-188.928	-0.144	-0.002
-233.815	800.000	0.007	-0.023
-232.800	0.261	0.246	-0.176
-231.786	79.737	-0.154	-0.166
-230.771	97.415	0.094	0.108
-229.757	-173.444	0.327	-0.010
-228.742	8.918	-0.113	0.086
-227.727	-23.422	0.161	0.097
-226.713	-90.539	-0.136	0.039
-225.698	14.135	-0.156	0.122
-224.684	-80.342	-0.106	0.036
-223.669	800.000	-0.072	-0.226
-222.655	-52.646	0.184	-0.085
-221.640	450.725	0.097	0.214
-220.625	83.754	-0.053	-0.058
-219.611	-119.047	-0.203	-0.036
-218.596	650.393	-0.085	-0.219
-217.582	800.000	-0.108	-0.313
-216.567	30.374	-0.225	0.192
-215.552	122.982	0.161	-0.201
-214.538	-89.294	-0.210	-0.062
-213.523	60.018	0.089	0.088
-212.509	-200.000	0.027	-0.177
-211.494	414.420	-0.067	-0.143
-210.479	-154.929	-0.090	-0.006
-209.465	570.762	0.098	0.239
-208.450	-82.778	-0.346	0.112
-207.436	-64.816	-0.153	0.062
-206.421	-91.043	0.321	0.092
-205.406	-165.312	-0.127	-0.006
-204.392	800.000	0.011	-0.037
-203.377	-95.898	-0.039	0.010
-202.363	139.171	0.063	0.082
-201.348	-200.000	-0.064	0.409
-200.333	-74.286	-0.119	0.043
-199.319	-116.084	0.387	0.072
-198.304	185.782	-0.280	-0.417
-197.290	-78.982	-0.332	0.113
-196.275	83.415	0.114	0.124
-195.260	-122.146	0.313	0.051
-194.246	279.987	0.181	0.323
-193.231	60.160	0.074	0.073
-192.217	5.653	-0.343	-0.254
-191.202	-22.562	0.251	-0.152
-190.187	-105.417	0.338	-0.077
-189.173	-41.865	0.222	0.114
-188.158	225.117	-0.073	-0.118
-187.144	315.703	0.090	-0.170
-186.129	54.361	0.291	0.280
-185.114	-149.547	0.404	-0.032
-184.100	-200.000	-0.005	-0.229
-183.085	318.639	0.034	-0.065
-182.071	-59.897	0.176	-0.075
-181.056	-50.189	0.109	-0.052
-180.042	-200.000	-0.043	0.361
-179.027	191.551	-0.088	-0.132
-178.012	-171.811	-0.064	0.002
-176.998	105.379	-0.105	-0.124
-175.983	-105.497	0.221	-0.050
-174.969	84.943	0.226	0.248
-173.954	-200.000	0.029	0.221
-172.939	6.950	-0.357	0.266
-171.925	-108.874	0.209	-0.045
-170.910	103.462	-0.080	0.094
-169.896	257.820	-0.098	-0.169
-168.881	800.000	-0.064	0.243
-167.866	800.000	0.034	0.133
-166.852	-54.040	-0.451	0.205
-165.837	-84.167	-0.414	0.131
-164.823	-180.135	-0.080	0.002
-163.808	-200.000	-0.056	-0.367
-162.793	786.557	-0.059	0.161
-161.779	29.215	0.138	-0.117
-160.764	-142.028	0.333	-0.033
-159.750	-91.514	-0.114	0.032
-158.735	-200.000	0.027	-0.151
-157.720	112.600	-0.138	0.167
-156.706	-151.069	0.189	-0.014
-155.691	-70.275	0.313	-0.119
-154.677	-117.904	0.350	0.063
-153.662	-84.797	0.434	-0.136
-152.647	-88.024	-0.414	0.124
-151.633	518.013	-0.040	0.094
-150.618	111.231	0.121	-0.145
-149.604	800.000	0.058	-0.186
-148.589	800.000	-0.050	0.205
-147.574	800.000	0.029	0.091
-146.560	-200.000	-0.037	-0.515
-145.545	671.841	-0.015	0.040
-144.531	-113.903	-0.210	-0.041
-143.516	-1.294	0.092	-0.065
-142.502	-194.789	-0.121	0.001
-141.487	582.008	0.038	-0.093
-140.472	-200.000	0.000	0.095
-139.458	-22.702	0.175	-0.106
-138.443	-117.400	0.213	-0.039
-137.429	-75.926	0.493	0.174
-136.414	-26.053	-0.082	0.048
-135.399	-15.273	0.205	-0.131
-134.385	-200.000	-0.049	0.235
-133.370	-15.785	-0.192	0.122
-132.356	-29.661	-0.162	0.092
-131.341	-88.214	0.350	-0.105
-130.326	-200.000	-0.042	0.304
-129.312	800.000	-0.050	0.158
-128.297	-179.369	-0.240	-0.005
-127.283	211.018	-0.053	0.083
-126.268	-200.000	-0.034	-0.158
-125.253	427.423	-0.048	-0.104
-124.239	127.800	0.224	0.284
-123.224	-83.473	0.239	-0.076
-122.210	-134.391	-0.254	0.031
-121.195	-67.287	-0.087	-0.034
