DTS Sentinel unit serial number:	SN413079Multiplexer serial number:	ORYXHardware model number:	OX4-SRSoftware version number:	ORYX F/W v4.00 Oryx Data Collector v3.7.2.0data status	okinstallation	princeton_trtdifferential loss correction	single-endedforward channel	channel 3reverse channel	N/Adate	2019/09/17time	17:08:35forward acquisition time	60.00reverse acquisition time	0.00gamma	496.2192k internal	0.2291k external	0.2291temperature offset calibration	0.9952default loss term (dB/km)	0.3790temperature slope calibration	1.0000multiplexer offset coefficient	1.0000multiplexer slope coefficient	1.0000fibre end	0.00T internal ref (°C)	42.75T ext. ref 1 (°C)	0.35T ext. ref 2 (°C)	38.96length (m)	temperature (°C)	Stokes	anti-Stokes-747.200	162.213	0.126	-0.181
-746.185	-7.266	0.232	0.161
-745.171	-78.017	-0.288	0.101
-744.156	-139.213	-0.286	-0.032
-743.142	778.283	0.088	0.246
-742.127	422.711	0.133	0.293
-741.112	-39.177	-0.110	-0.059
-740.098	35.013	-0.162	-0.145
-739.083	390.053	0.127	-0.269
-738.069	-111.459	0.034	0.007
-737.054	599.404	0.100	0.255
-736.039	-10.805	-0.177	0.120
-735.025	19.561	0.154	-0.126
-734.010	168.041	-0.140	-0.204
-732.996	-34.099	-0.061	-0.034
-731.981	-200.000	0.005	-0.084
-730.966	307.502	-0.044	0.084
-729.952	-30.536	0.066	-0.038
-728.937	-200.000	0.020	-0.438
-727.923	660.776	0.087	-0.229
-726.908	-1.830	0.268	0.193
-725.894	800.000	0.074	0.282
-724.879	168.920	-0.020	-0.029
-723.864	-200.000	0.001	-0.128
-722.850	800.000	-0.029	-0.101
-721.835	-106.121	0.187	-0.043
-720.821	-200.000	0.010	0.162
-719.806	-54.605	0.227	-0.105
-718.791	-153.545	-0.249	-0.018
-717.777	-56.931	-0.236	-0.107
-716.762	-23.090	-0.244	-0.150
-715.748	169.145	-0.083	0.121
-714.733	800.000	-0.052	-0.162
-713.718	-99.059	-0.367	0.095
-712.704	-118.335	0.191	0.035
-711.689	20.486	0.051	0.042
-710.675	-29.197	0.078	0.046
-709.660	694.815	0.043	-0.115
-708.645	8.009	0.220	-0.169
-707.631	749.140	0.035	-0.096
-706.616	532.142	-0.112	-0.270
-705.602	-195.097	-0.211	-0.002
-704.587	745.937	-0.089	-0.244
-703.572	-100.419	0.173	-0.044
-702.558	446.394	-0.121	-0.271
-701.543	-138.492	0.135	-0.015
-700.529	729.547	0.081	-0.221
-699.514	800.000	0.029	0.117
-698.499	127.608	-0.256	-0.332
-697.485	-15.083	0.258	0.169
-696.470	164.057	-0.179	-0.258
-695.456	295.179	0.199	-0.372
-694.441	-200.000	-0.016	0.185
-693.426	35.346	-0.142	-0.127
-692.412	435.826	-0.067	-0.149
-691.397	106.882	-0.025	0.030
-690.383	-93.257	-0.361	0.103
-689.368	-30.460	0.252	-0.146
-688.354	145.237	-0.275	-0.376
-687.339	-200.000	0.057	-0.444
-686.324	144.109	0.159	-0.216
-685.310	-25.491	-0.134	0.081
-684.295	353.778	-0.124	0.251
-683.281	-1.685	0.136	0.098
-682.266	-200.000	0.048	0.232
-681.251	455.883	-0.150	0.339
-680.237	154.445	-0.072	0.100
-679.222	597.195	0.016	-0.040
-678.208	212.858	-0.126	-0.203
-677.193	-57.277	0.299	-0.135
-676.178	-86.288	-0.286	0.090
-675.164	555.153	0.129	0.317
-674.149	24.745	-0.237	-0.201
-673.135	-29.889	0.220	-0.128
-672.120	-102.301	-0.250	-0.061
-671.105	-28.221	-0.186	-0.110
-670.091	-94.384	-0.039	-0.011
-669.076	-70.786	0.240	-0.093
-668.062	345.199	-0.111	0.223
-667.047	-200.000	0.033	0.160
-666.032	649.960	0.066	-0.172
-665.018	-26.434	0.023	0.014
-664.003	171.075	0.112	-0.164
-662.989	-131.161	0.390	-0.053
-661.974	-150.744	-0.302	0.023
-660.959	-118.332	0.196	0.036
-659.945	51.467	0.167	-0.162
-658.930	-200.000	-0.025	-0.117
-657.916	63.277	0.237	-0.243
-656.901	-49.843	0.052	-0.025
-655.886	-52.009	0.119	0.056
-654.872	-83.436	0.606	0.198
-653.857	-200.000	0.018	0.242
-652.843	-88.229	-0.162	0.050
-651.828	-137.809	-0.277	0.032
-650.814	-200.000	0.001	0.157
-649.799	-200.000	0.009	0.210
-648.784	-200.000	0.017	-0.117
-647.770	-200.000	-0.004	0.054
-646.755	381.932	0.045	0.094
-645.741	336.307	0.219	0.434
-644.726	-89.114	-0.284	-0.086
-643.711	800.000	0.086	0.359
-642.697	-102.428	0.073	0.018
-641.682	495.366	0.069	-0.161
-640.668	-134.765	0.283	0.035
-639.653	45.626	0.192	-0.181
-638.638	-200.000	-0.018	0.201
-637.624	-200.000	-0.008	0.116
-636.609	-142.861	-0.220	-0.022
-635.595	80.551	0.052	0.057
-634.580	202.036	-0.309	0.486
-633.565	800.000	0.077	0.255
-632.551	-3.496	-0.322	-0.228
-631.536	146.256	-0.110	0.150
-630.522	-89.112	0.356	-0.107
-629.507	413.114	-0.105	0.228
-628.492	64.368	0.138	0.142
-627.478	468.439	-0.226	0.518
-626.463	102.066	0.123	0.147
-625.449	331.928	0.080	-0.157
-624.434	115.046	-0.170	-0.211
-623.419	18.257	-0.023	-0.018
-622.405	541.198	0.121	-0.294
-621.390	323.876	-0.078	0.153
-620.376	763.472	0.158	-0.437
-619.361	-69.051	0.403	-0.158
-618.346	332.766	-0.170	-0.335
-617.332	-48.950	0.153	0.075
-616.317	-69.679	-0.088	-0.034
-615.303	406.340	0.094	-0.201
-614.288	80.017	-0.172	0.189
-613.273	332.628	-0.099	-0.195
-612.259	-66.730	0.172	-0.069
-611.244	80.597	0.104	0.114
-610.230	-200.000	0.007	0.068
-609.215	386.086	-0.064	-0.135
-608.201	404.148	-0.160	-0.344
-607.186	-62.373	-0.041	0.017
-606.171	-153.096	0.394	0.028
-605.157	-76.304	-0.164	0.059
-604.142	-89.890	-0.270	0.080
-603.128	-130.773	-0.086	0.012
-602.113	-39.051	-0.108	-0.058
-601.098	-47.510	-0.068	0.034
-600.084	254.486	0.132	-0.230
-599.069	-200.000	0.054	-0.450
-598.055	157.238	0.175	-0.246
-597.040	-17.643	0.247	-0.158
-596.025	800.000	-0.073	0.282
-595.011	81.843	-0.098	0.109
-593.996	293.397	0.157	0.293
-592.982	800.000	-0.058	-0.248
-591.967	-164.283	-0.152	-0.007
-590.952	-122.645	-0.257	-0.042
-589.938	-31.894	0.148	-0.084
-588.923	93.617	0.184	0.212
-587.909	10.287	0.312	-0.242
-586.894	158.797	0.124	-0.175
-585.879	-200.000	0.085	0.415
-584.865	-24.202	-0.147	-0.089
-583.850	354.934	-0.031	-0.063
-582.836	800.000	-0.030	-0.102
-581.821	513.275	-0.135	0.320
-580.806	-105.719	-0.206	0.047
-579.792	118.978	0.125	0.158
-578.777	-25.702	-0.123	-0.074
-577.763	-177.087	0.187	-0.005
-576.748	-200.000	-0.015	0.094
-575.733	-56.847	0.016	-0.007
-574.719	800.000	-0.120	0.359
-573.704	11.433	-0.159	-0.124
-572.690	-68.760	-0.234	0.092
-571.675	-44.768	0.141	-0.072
-570.661	800.000	0.112	0.318
-569.646	-200.000	0.040	-0.252
-568.631	27.417	0.244	0.209
-567.617	-81.737	0.268	0.089
-566.602	56.649	-0.120	-0.119
-565.588	-132.482	0.068	-0.009
-564.573	800.000	-0.103	-0.350
-563.558	164.844	-0.197	0.282
-562.544	44.605	0.265	0.247
-561.529	-200.000	0.035	0.451
-560.515	30.382	-0.410	0.356
-559.500	-200.000	-0.018	0.411
-558.485	800.000	-0.042	0.164
-557.471	413.121	0.084	0.181
-556.456	339.053	-0.148	-0.293
-555.442	800.000	-0.094	0.359
-554.427	112.791	0.004	-0.005
-553.412	394.369	-0.172	0.365
-552.398	800.000	-0.051	0.146
-551.383	286.374	-0.140	-0.257
-550.369	-56.928	-0.148	-0.067
-549.354	-200.000	-0.055	0.272
-548.339	154.032	-0.052	-0.073
-547.325	165.900	-0.098	-0.141
-546.310	196.552	0.104	-0.160
-545.296	525.362	-0.034	-0.081
-544.281	-135.997	-0.211	-0.025
-543.266	-80.611	-0.248	0.084
-542.252	-200.000	0.343	-0.001
-541.237	5.407	0.110	0.082
-540.223	-200.000	0.054	0.482
-539.208	-27.808	-0.171	0.101
-538.193	-200.000	0.023	0.124
-537.179	338.002	0.104	-0.206
-536.164	689.621	-0.155	0.413
-535.150	124.065	-0.009	0.012
-534.135	-138.595	0.317	0.035
-533.121	74.661	-0.208	-0.222
-532.106	-64.168	0.217	-0.090
-531.091	1.639	-0.142	-0.104
-530.077	207.960	-0.072	-0.115
-529.062	-200.000	-0.024	-0.221
-528.048	-48.685	0.317	0.155
-527.033	-69.492	0.061	-0.024
-526.018	6.895	0.061	0.046
-525.004	497.494	0.080	0.187
-523.989	-186.147	0.172	0.003
-522.975	-200.000	0.016	-0.115
-521.960	20.279	-0.218	-0.179
-520.945	-144.912	0.080	0.007
-519.931	800.000	-0.083	-0.266
-518.916	-200.000	-0.032	0.209
-517.902	73.032	-0.147	0.156
-516.887	800.000	0.092	-0.292
-515.872	-104.510	-0.237	-0.056
-514.858	201.252	-0.059	-0.093
-513.843	-3.446	-0.091	-0.064
-512.829	-58.214	-0.137	-0.060
-511.814	274.716	-0.029	0.053
-510.799	191.630	-0.048	0.074
-509.785	800.000	0.030	0.098
-508.770	800.000	0.051	0.149
-507.756	-17.426	-0.489	0.312
-506.741	3.811	0.364	-0.270
-505.726	-14.039	-0.298	0.195
-504.712	76.176	0.120	0.129
-503.697	-127.770	0.256	0.037
-502.683	-7.743	-0.158	0.109
-501.668	205.052	0.030	-0.047
-500.653	521.187	0.031	0.074
-499.639	-200.000	0.027	0.170
-498.624	-91.510	0.235	0.068
-497.610	32.286	-0.252	-0.220
-496.595	265.218	0.061	0.107
-495.581	800.000	-0.038	0.148
-494.566	-104.209	0.084	-0.020
-493.551	180.971	0.058	-0.086
-492.537	19.757	-0.280	-0.228
-491.522	-28.647	0.264	-0.154
-490.508	-200.000	0.004	0.075
-489.493	4.669	0.348	0.259
-488.478	215.142	0.195	-0.313
-487.464	98.550	0.069	0.080
-486.449	144.373	-0.089	-0.120
-485.435	-200.000	-0.014	0.131
-484.420	7.132	-0.102	-0.077
-483.405	546.373	-0.136	0.330
-482.391	-200.000	-0.003	0.093
-481.376	94.808	-0.277	0.320
-480.362	312.204	-0.179	-0.341
-479.347	-108.197	0.299	-0.066
-478.332	302.803	-0.039	0.072
-477.318	-8.752	0.110	0.074
-476.303	-117.737	-0.194	-0.035
-475.289	-129.676	-0.086	-0.012
-474.274	-105.951	0.168	-0.038
-473.259	179.155	-0.046	0.068
-472.245	254.093	0.086	-0.148
-471.230	-34.044	-0.179	0.100
-470.216	-88.055	0.176	0.054
-469.201	-5.794	0.297	0.206
-468.186	13.550	-0.474	-0.373
-467.172	800.000	0.131	-0.485
-466.157	-150.157	-0.149	0.012
-465.143	-200.000	0.008	0.329
-464.128	-91.806	-0.171	-0.049
-463.113	121.413	-0.058	-0.073
-462.099	26.304	0.084	-0.071
-461.084	-200.000	-0.011	-0.243
-460.070	70.040	0.083	-0.086
-459.055	250.385	0.091	0.156
-458.040	800.000	-0.043	-0.132
-457.026	-200.000	-0.056	0.340
-456.011	9.268	0.231	0.177
-454.997	-200.000	-0.100	-0.525
-453.982	63.316	0.070	-0.071
-452.968	204.433	-0.059	-0.092
-451.953	-200.000	0.142	0.000
-450.938	-90.826	0.327	-0.095
-449.924	237.545	-0.073	-0.123
-448.909	-200.000	-0.043	-0.429
-447.895	435.820	-0.099	0.217
-446.880	-200.000	0.043	-0.217
-445.865	106.262	0.250	0.300
-444.851	-42.791	-0.176	0.090
-443.836	-29.473	0.049	0.028
-442.822	-103.603	-0.080	-0.019
-441.807	-200.000	0.032	0.190
-440.792	-200.000	-0.003	-0.132
-439.778	141.446	-0.122	0.163
-438.763	-56.037	0.140	0.063
-437.749	-200.000	-0.030	-0.528
-436.734	177.357	-0.183	0.269
-435.719	-16.475	-0.083	0.053
-434.705	-200.000	0.023	-0.151
-433.690	-135.453	0.229	-0.028
-432.676	-38.839	0.167	-0.089
-431.661	-2.809	0.216	-0.152
-430.646	800.000	-0.054	-0.180
-429.632	36.356	0.280	-0.249
-428.617	61.633	-0.193	-0.194
-427.603	604.994	0.102	-0.256
-426.588	483.107	-0.125	-0.286
-425.573	-20.785	0.241	-0.149
-424.559	-103.508	-0.179	-0.043
-423.544	-160.132	-0.248	0.014
-422.530	-200.000	-0.002	-0.217
-421.515	-163.328	-0.375	-0.018
-420.500	-200.000	0.019	-0.437
-419.486	-150.453	0.048	-0.004
-418.471	-54.684	0.551	-0.252
-417.457	-85.578	-0.135	-0.043
-416.442	-56.562	0.049	-0.022
-415.428	-200.000	-0.012	-0.234
-414.413	-200.000	-0.031	-0.232
-413.398	-53.059	0.168	-0.078
-412.384	800.000	-0.053	0.154
-411.369	87.037	0.151	-0.169
-410.355	-200.000	0.106	-0.517
-409.340	-200.000	-0.011	-0.067
-408.325	-66.110	-0.240	-0.097
-407.311	-200.000	-0.002	-0.284
-406.296	-200.000	-0.002	0.053
-405.282	-134.568	0.206	-0.025
-404.267	65.841	0.313	0.321
-403.252	-200.000	0.004	0.101
-402.238	-149.872	0.120	-0.009
-401.223	-200.000	0.050	-0.316
-400.209	121.397	0.248	0.312
-399.194	3.808	-0.151	0.112
-398.179	-85.088	-0.112	0.035
-397.165	800.000	-0.060	0.225
-396.150	51.663	0.085	0.082
-395.136	-67.953	0.135	0.053
-394.121	172.973	-0.065	0.094
-393.106	209.826	0.213	-0.337
-392.092	108.059	-0.036	-0.043
-391.077	-20.798	-0.175	-0.108
-390.063	-80.273	0.410	0.139
-389.048	-200.000	0.021	-0.431
-388.033	-49.213	0.141	-0.068
-387.019	17.880	0.270	-0.217
-386.004	-200.000	0.029	0.234
-384.990	278.306	-0.132	0.237
-383.975	800.000	-0.068	0.244
-382.960	800.000	0.098	0.283
-381.946	-156.136	0.139	-0.009
-380.931	-90.070	0.104	0.031
-379.917	800.000	0.030	-0.108
-378.902	-66.971	-0.323	0.129
-377.888	800.000	0.153	0.431
-376.873	-105.132	0.148	0.034
-375.858	-200.000	-0.009	-0.096
-374.844	254.854	0.137	0.237
-373.829	-200.000	-0.089	-0.437
-372.815	-200.000	0.022	0.119
-371.800	-55.424	-0.119	-0.054
-370.785	181.423	-0.119	-0.176
-369.771	594.365	0.043	-0.106
-368.756	-111.408	0.206	-0.042
-367.742	461.645	-0.020	0.045
-366.727	261.408	-0.160	-0.279
-365.712	800.000	0.068	0.207
-364.698	53.636	-0.117	-0.113
-363.683	-37.855	0.156	-0.084
-362.669	577.338	0.067	-0.166
-361.654	91.928	0.086	0.097
-360.639	800.000	-0.009	-0.035
-359.625	157.661	0.096	-0.134
-358.610	-200.000	-0.002	-0.041
-357.596	-6.585	-0.122	-0.084
-356.581	-200.000	0.001	0.198
-355.566	-111.665	-0.285	-0.058
-354.552	-200.000	-0.001	0.130
-353.537	-24.214	0.170	0.102
-352.523	-67.803	0.058	0.023
-351.508	69.249	0.091	-0.095
-350.493	-200.000	-0.057	0.268
-349.479	17.477	0.068	-0.054
-348.464	-45.908	-0.275	-0.137
-347.450	126.302	-0.096	-0.123
-346.435	-135.399	0.213	0.026
-345.420	284.159	0.083	-0.151
-344.406	-138.946	-0.108	0.012
-343.391	75.703	-0.124	-0.133
-342.377	109.321	0.345	0.416
-341.362	-200.000	0.026	0.212
-340.348	-37.400	-0.310	0.167
-339.333	-181.967	-0.234	0.004
-338.318	74.195	-0.096	0.102
-337.304	-56.571	-0.222	0.099
-336.289	-200.000	0.003	0.163
-335.275	-149.265	-0.310	0.025
-334.260	132.359	0.091	-0.118
-333.245	-29.091	0.138	-0.080
-332.231	112.052	0.095	0.115
-331.216	-4.263	0.185	-0.129
-330.202	31.902	0.219	-0.190
-329.187	38.004	0.068	0.061
-328.172	-148.056	0.288	-0.024
-327.158	49.468	0.243	-0.231
-326.143	57.708	-0.070	-0.069
-325.129	38.324	-0.124	0.111
-324.114	-89.853	-0.285	-0.084
-323.099	-99.037	0.314	0.080
-322.085	-193.804	0.228	-0.002
-321.070	32.720	0.245	0.214
-320.056	11.441	0.052	-0.040
-319.041	-47.161	0.275	-0.135
-318.026	186.922	-0.068	0.103
-317.012	-33.608	-0.137	-0.076
-315.997	244.241	-0.183	0.310
-314.983	18.393	0.059	0.047
-313.968	-127.423	-0.358	0.052
-312.953	-98.060	-0.182	0.047
-311.939	-139.516	0.281	-0.030
-310.924	410.602	-0.158	0.337
-309.910	-47.233	-0.103	0.051
-308.895	-158.843	0.343	-0.020
-307.880	14.594	0.178	0.140
-306.866	-69.420	-0.300	-0.116
-305.851	-200.000	-0.015	0.138
-304.837	-162.874	-0.278	-0.014
-303.822	62.382	0.147	0.148
-302.807	318.753	0.076	-0.146
-301.793	-147.351	-0.134	0.011
-300.778	129.647	-0.029	-0.037
-299.764	-200.000	-0.040	-0.370
-298.749	21.176	-0.025	0.020
-297.735	-10.096	0.051	0.034
-296.720	-44.914	-0.246	-0.123
-295.705	221.776	0.047	0.077
-294.691	559.684	0.102	0.248
-293.676	-6.105	0.173	0.119
-292.662	9.296	-0.186	0.142
-291.647	-80.426	-0.245	-0.082
-290.632	292.350	-0.116	0.213
-289.618	22.497	-0.136	0.112
-288.603	-200.000	0.004	-0.163
-287.589	-43.935	-0.179	-0.090
-286.574	-5.334	-0.250	0.173
-285.559	126.538	0.131	-0.167
-284.545	564.841	0.097	-0.236
-283.530	-19.836	-0.154	-0.096
-282.516	153.573	0.100	-0.137
-281.501	-24.544	0.284	0.170
-280.486	800.000	0.033	-0.115
-279.472	-200.000	-0.014	0.106
-278.457	-58.756	0.193	0.084
-277.443	-200.000	-0.021	0.096
-276.428	563.302	-0.040	-0.097
-275.413	-46.844	0.204	-0.100
-274.399	92.110	-0.192	-0.218
-273.384	-121.354	0.527	0.088
-272.370	-71.781	0.489	0.183
-271.355	-137.946	0.116	-0.013
-270.340	800.000	-0.142	-0.439
-269.326	-200.000	0.023	0.178
-268.311	-139.419	0.117	0.013
-267.297	118.247	0.155	0.192
-266.282	800.000	0.070	0.209
-265.267	122.244	0.242	0.304
-264.253	-200.000	0.020	0.095
-263.238	-27.680	-0.092	-0.054
-262.224	800.000	0.103	0.369
-261.209	-49.286	0.150	-0.072
-260.195	800.000	0.129	0.457
-259.180	-113.914	-0.143	0.028
-258.165	-51.403	0.273	0.128
-257.151	167.814	-0.082	-0.118
-256.136	-101.090	0.293	-0.072
-255.122	800.000	-0.009	-0.032
-254.107	-119.550	-0.121	0.021
-253.092	-177.400	0.138	0.003
-252.078	35.436	0.121	-0.107
-251.063	276.373	-0.074	0.133
-250.049	-9.448	-0.054	-0.036
-249.034	-171.750	-0.211	0.007
-248.019	800.000	-0.043	-0.156
-247.005	-59.212	-0.037	-0.016
-245.990	27.475	-0.125	-0.106
-244.976	-200.000	-0.020	-0.321
-243.961	11.696	0.250	-0.193
-242.946	-200.000	0.004	0.232
-241.932	240.898	-0.054	0.090
-240.917	1.110	-0.089	-0.064
-239.903	28.067	-0.054	-0.045
-238.888	2.113	0.128	-0.093
-237.873	133.005	0.111	-0.144
-236.859	126.641	0.140	0.179
-235.844	215.681	-0.171	-0.273
-234.830	800.000	0.084	-0.261
-233.815	231.522	-0.150	-0.246
-232.800	157.950	-0.061	-0.084
-231.786	104.042	-0.306	0.362
-230.771	-133.960	0.180	0.022
-229.757	-200.000	-0.020	-0.191
-228.742	50.674	-0.101	-0.096
-227.727	74.154	-0.119	0.125
-226.713	-182.707	-0.237	-0.004
-225.698	405.926	-0.243	-0.515
-224.684	-101.868	-0.384	0.093
-223.669	800.000	-0.082	0.295
-222.655	-67.037	0.051	0.020
-221.640	-144.969	-0.242	0.022
-220.625	21.116	0.151	0.123
-219.611	361.137	0.094	0.188
-218.596	-131.066	-0.164	0.022
-217.582	-78.824	0.220	-0.075
-216.567	189.343	-0.090	-0.136
-215.552	700.426	0.156	-0.413
-214.538	-128.741	-0.175	-0.025
-213.523	-200.000	-0.038	0.185
-212.509	93.610	-0.218	0.248
-211.494	713.676	-0.011	-0.030
-210.479	-41.443	0.183	0.094
-209.465	-126.068	-0.183	-0.028
-208.450	137.701	-0.077	0.101
-207.436	-131.858	-0.178	0.023
-206.421	-105.007	-0.243	0.056
-205.406	-83.498	0.166	-0.053
-204.392	370.626	0.119	0.242
-203.377	58.581	-0.296	-0.292
-202.363	53.881	0.125	0.121
-201.348	-87.953	0.203	-0.061
-200.333	9.104	-0.101	0.076
-199.319	569.892	-0.131	0.320
-198.304	191.936	0.095	-0.144
-197.290	41.656	-0.075	-0.068
-196.275	200.852	-0.076	-0.118
-195.260	38.244	0.106	-0.095
-194.246	-189.450	0.139	0.002
-193.231	423.516	-0.030	-0.065
-192.217	15.237	-0.254	-0.200
-191.202	-68.158	-0.249	-0.097
-190.187	-186.457	-0.280	-0.004
-189.173	-38.479	0.111	-0.059
-188.158	209.132	-0.104	-0.163
-187.144	-30.474	0.037	-0.021
-186.129	-200.000	0.113	0.000
-185.114	-200.000	-0.163	0.000
-184.100	-147.364	-0.092	0.008
-183.085	-200.000	-0.006	-0.181
-182.071	692.080	-0.087	-0.229
-181.056	-200.000	-0.003	0.182
-180.042	541.289	0.050	-0.119
-179.027	150.555	0.100	-0.136
-178.012	-160.106	-0.291	0.016
-176.998	12.468	-0.104	0.080
-175.983	-200.000	-0.008	0.094
-174.969	-200.000	0.010	0.068
-173.954	-97.763	-0.189	0.049
-172.939	634.471	-0.106	-0.268
-171.925	-200.000	0.001	0.092
-170.910	-200.000	-0.003	-0.141
-169.896	-131.363	0.058	-0.008
-168.881	212.138	0.164	-0.258
-167.866	800.000	-0.041	-0.173
-166.852	-200.000	0.015	0.106
-165.837	-200.000	0.030	0.132
-164.823	-38.323	0.085	0.045
-163.808	239.793	0.071	-0.118
-162.793	-129.098	-0.218	0.031
-161.779	-175.081	-0.106	0.003
-160.764	47.043	-0.143	-0.133
-159.750	99.849	0.089	-0.104
-158.735	-114.493	0.121	0.023
-157.720	-200.000	0.009	0.403
-156.706	-200.000	-0.002	-0.046
-155.691	-24.179	-0.404	0.242
-154.677	451.776	-0.105	-0.232
-153.662	327.464	0.209	0.401
-152.647	800.000	-0.124	0.479
-151.633	543.027	-0.062	-0.149
-150.618	-200.000	0.062	0.313
-149.604	271.854	0.122	0.216
-148.589	247.463	-0.144	0.243
-147.574	20.721	0.254	-0.206
-146.560	367.033	-0.081	-0.164
-145.545	-17.070	0.324	0.205
-144.531	202.374	0.137	0.212
-143.516	-90.162	0.337	-0.098
-142.502	298.473	0.086	-0.158
-141.487	-26.608	0.015	0.009
-140.472	-200.000	0.002	0.030
-139.458	14.382	0.238	-0.186
-138.443	-72.961	0.166	-0.061
-137.429	-200.000	-0.010	0.107
-136.414	-200.000	0.012	0.150
-135.399	323.634	0.016	-0.030
-134.385	40.153	-0.235	0.211
-133.370	800.000	0.062	0.267
-132.356	-200.000	0.010	0.174
-131.341	-200.000	0.009	0.044
-130.326	15.573	-0.232	0.182
-129.312	-38.309	0.134	-0.071
-128.297	103.319	0.168	0.197
-127.283	-35.133	-0.147	-0.080
-126.268	512.487	0.057	0.133
-125.253	-200.000	0.021	-0.106
-124.239	800.000	-0.107	-0.297
-123.224	-200.000	0.011	-0.431
-122.210	-54.800	0.093	0.042
-121.195	16.063	0.060	-0.047
