DTS Sentinel unit serial number:	SN413079Multiplexer serial number:	ORYXHardware model number:	OX4-SRSoftware version number:	ORYX F/W v4.00 Oryx Data Collector v3.7.2.0data status	okinstallation	princeton_trtdifferential loss correction	single-endedforward channel	channel 3reverse channel	N/Adate	2019/09/15time	00:32:35forward acquisition time	60.00reverse acquisition time	0.00gamma	496.2192k internal	0.2320k external	0.2320temperature offset calibration	0.9972default loss term (dB/km)	0.3790temperature slope calibration	1.0000multiplexer offset coefficient	1.0000multiplexer slope coefficient	1.0000fibre end	0.00T internal ref (°C)	32.12T ext. ref 1 (°C)	4.58T ext. ref 2 (°C)	27.17length (m)	temperature (°C)	Stokes	anti-Stokes-747.200	-18.518	0.061	0.038
-746.185	-200.000	0.049	0.258
-745.171	124.900	0.194	-0.247
-744.156	-149.666	0.208	-0.017
-743.142	-162.042	-0.184	0.009
-742.127	203.418	0.038	-0.059
-741.112	266.248	0.201	0.356
-740.098	-200.000	-0.036	0.235
-739.083	15.275	0.026	0.020
-738.069	800.000	-0.052	-0.207
-737.054	113.257	-0.208	0.255
-736.039	-50.786	0.103	-0.049
-735.025	17.234	0.136	-0.109
-734.010	-200.000	0.036	-0.287
-732.996	89.938	-0.147	0.166
-731.981	105.194	0.088	-0.105
-730.966	-118.486	0.245	-0.044
-729.952	-38.904	-0.092	-0.049
-728.937	-200.000	-0.007	-0.118
-727.923	-77.276	-0.143	-0.050
-726.908	658.430	0.117	-0.305
-725.894	66.311	-0.133	-0.136
-724.879	-16.381	-0.184	-0.118
-723.864	-200.000	0.011	-0.214
-722.850	800.000	-0.059	-0.188
-721.835	-101.996	-0.135	-0.033
-720.821	238.160	-0.079	0.132
-719.806	-31.502	-0.272	0.155
-718.791	-200.000	-0.038	-0.311
-717.777	800.000	-0.155	0.485
-716.762	-66.673	-0.420	0.168
-715.748	159.706	-0.177	-0.248
-714.733	108.937	0.148	0.179
-713.718	720.372	-0.160	-0.430
-712.704	-92.708	-0.170	-0.048
-711.689	-41.829	-0.154	-0.080
-710.675	-19.939	-0.171	0.107
-709.660	-200.000	0.010	-0.154
-708.645	-79.394	0.255	-0.087
-707.631	-140.460	-0.259	0.027
-706.616	-86.523	0.349	-0.108
-705.602	374.281	-0.037	-0.076
-704.587	343.235	0.073	0.145
-703.572	567.208	-0.137	-0.335
-702.558	130.921	-0.244	0.316
-701.543	-200.000	-0.003	-0.345
-700.529	-200.000	0.018	0.108
-699.514	-35.331	-0.209	0.115
-698.499	162.964	0.103	0.147
-697.485	-0.507	-0.164	0.118
-696.470	197.297	0.094	-0.145
-695.456	-200.000	0.018	0.313
-694.441	-6.334	0.187	-0.129
-693.426	157.065	0.075	-0.104
-692.412	61.075	-0.256	0.256
-691.397	-18.925	-0.350	0.220
-690.383	-200.000	0.014	0.207
-689.368	81.854	-0.153	0.167
-688.354	145.896	0.136	-0.184
-687.339	112.447	-0.025	-0.031
-686.324	-22.352	-0.288	0.176
-685.310	451.467	-0.131	-0.292
-684.295	800.000	-0.060	0.201
-683.281	800.000	-0.024	-0.090
-682.266	-149.304	-0.300	-0.024
-681.251	-31.824	0.217	-0.123
-680.237	-113.150	-0.096	0.019
-679.222	141.033	-0.144	-0.192
-678.208	-81.072	0.384	-0.128
-677.193	10.909	-0.144	0.111
-676.178	-113.769	-0.197	0.039
-675.164	-200.000	0.042	-0.184
-674.149	531.411	-0.108	-0.258
-673.135	-88.762	0.296	-0.089
-672.120	523.253	0.064	0.152
-671.105	19.181	-0.246	-0.199
-670.091	-200.000	0.020	-0.250
-669.076	8.711	-0.074	0.056
-668.062	-114.782	-0.110	0.021
-667.047	-200.000	-0.001	0.063
-666.032	800.000	-0.047	0.203
-665.018	37.445	-0.086	-0.077
-664.003	663.334	0.081	-0.210
-662.989	-137.436	0.122	0.014
-661.974	-98.584	-0.282	-0.073
-660.959	781.371	0.052	-0.143
-659.945	-152.988	-0.409	-0.029
-658.930	-106.717	0.053	0.012
-657.916	-34.567	-0.190	0.105
-656.901	-25.616	-0.186	0.111
-655.886	356.641	-0.124	-0.249
-654.872	800.000	0.083	-0.289
-653.857	-119.393	0.185	-0.032
-652.843	-57.664	0.146	0.064
-651.828	-146.492	-0.197	-0.017
-650.814	149.683	-0.113	0.154
-649.799	572.026	-0.106	0.259
-648.784	-139.776	-0.098	-0.010
-647.770	40.905	-0.237	-0.216
-646.755	-16.630	-0.296	-0.189
-645.741	167.629	-0.168	0.241
-644.726	-68.262	0.011	0.004
-643.711	-4.135	-0.140	0.098
-642.697	371.710	0.057	0.117
-641.682	140.050	-0.107	-0.142
-640.668	-128.736	0.061	-0.009
-639.653	70.566	-0.213	-0.222
-638.638	-15.415	0.156	0.100
-637.624	-51.898	-0.243	-0.114
-636.609	-200.000	0.014	-0.293
-635.595	-24.850	0.229	0.137
-634.580	80.587	0.016	0.018
-633.565	-98.265	0.141	-0.036
-632.551	139.848	-0.325	0.431
-631.536	800.000	0.012	0.042
-630.522	800.000	0.060	-0.169
-629.507	-114.993	0.332	-0.064
-628.492	-200.000	0.040	0.294
-627.478	-200.000	0.118	-0.000
-626.463	-100.618	0.283	-0.070
-625.449	-90.541	-0.113	0.033
-624.434	48.074	0.243	-0.229
-623.419	-134.709	-0.156	-0.019
-622.405	-130.651	-0.255	0.034
-621.390	800.000	0.032	-0.125
-620.376	7.346	0.130	0.097
-619.361	439.691	0.076	0.168
-618.346	35.197	-0.097	-0.086
-617.332	116.182	0.041	-0.051
-616.317	-61.024	-0.217	0.092
-615.303	185.724	-0.186	-0.279
-614.288	-142.768	-0.025	-0.002
-613.273	46.661	0.237	-0.222
-612.259	118.221	0.331	0.410
-611.244	-200.000	0.042	-0.221
-610.230	-16.807	0.171	-0.109
-609.215	-62.184	-0.019	0.008
-608.201	266.930	-0.247	-0.435
-607.186	444.884	0.054	-0.119
-606.171	503.339	-0.030	0.071
-605.157	-34.165	-0.320	-0.177
-604.142	-101.300	-0.406	0.100
-603.128	71.292	0.161	0.168
-602.113	259.766	-0.029	-0.051
-601.098	-95.126	-0.266	0.072
-600.084	-27.604	-0.320	-0.187
-599.069	-14.330	0.170	-0.110
-598.055	-80.111	-0.222	0.075
-597.040	236.365	0.043	0.071
-596.025	-200.000	-0.017	-0.108
-595.011	39.086	0.230	-0.207
-593.996	128.443	-0.266	0.341
-592.982	-143.240	-0.129	-0.012
-591.967	3.977	0.206	-0.151
-590.952	800.000	0.037	0.104
-589.938	-99.225	0.396	0.101
-588.923	-83.337	-0.197	0.064
-587.909	84.383	0.204	0.224
-586.894	-53.472	-0.231	-0.106
-585.879	-13.615	0.061	-0.040
-584.865	-8.935	-0.165	0.111
-583.850	-39.202	-0.189	-0.100
-582.836	-12.387	0.268	0.176
-581.821	-120.966	0.193	0.033
-580.806	-2.942	0.162	-0.114
-579.792	-63.521	-0.282	-0.116
-578.777	-95.286	0.176	-0.048
-577.763	87.209	-0.195	-0.217
-576.748	-68.863	0.195	-0.076
-575.733	-149.629	0.325	-0.026
-574.719	434.384	-0.088	-0.191
-573.704	52.468	-0.214	0.206
-572.690	288.423	0.125	-0.227
-571.675	-111.091	-0.361	0.074
-570.661	593.816	0.083	-0.205
-569.646	-50.830	-0.171	0.081
-568.631	-200.000	0.032	0.219
-567.617	800.000	0.089	-0.317
-566.602	-156.821	-0.224	0.014
-565.588	7.168	-0.129	-0.096
-564.573	-154.571	0.400	-0.027
-563.558	-88.478	-0.264	-0.079
-562.544	-58.215	-0.186	-0.081
-561.529	431.061	0.054	0.119
-560.515	-119.679	0.220	0.038
-559.500	20.724	-0.252	-0.205
-558.485	-68.119	-0.282	0.110
-557.471	-76.031	-0.176	0.062
-556.456	-200.000	-0.022	-0.099
-555.442	-115.953	-0.080	0.015
-554.427	-40.828	0.074	-0.038
-553.412	-83.577	-0.174	0.056
-552.398	800.000	-0.056	-0.193
-551.383	112.492	-0.161	-0.196
-550.369	-200.000	0.007	-0.148
-549.354	-131.180	0.041	0.005
-548.339	63.657	0.187	-0.188
-547.325	-60.702	0.308	0.131
-546.310	340.388	-0.081	0.158
-545.296	34.730	0.058	-0.051
-544.281	187.632	0.023	-0.034
-543.266	-200.000	0.016	0.158
-542.252	338.080	-0.160	0.312
-541.237	18.239	0.065	0.052
-540.223	10.330	-0.253	-0.193
-539.208	-8.659	-0.280	0.188
-538.193	-61.976	0.259	0.109
-537.179	15.620	0.075	0.059
-536.164	70.334	0.104	-0.108
-535.150	-9.627	-0.153	-0.102
-534.135	34.146	0.087	-0.076
-533.121	-92.906	0.215	0.060
-532.106	800.000	0.031	-0.123
-531.091	-120.073	0.171	0.029
-530.077	708.014	-0.064	0.169
-529.062	-71.127	-0.082	-0.031
-528.048	69.669	0.072	0.075
-527.033	36.684	-0.370	-0.328
-526.018	86.770	-0.188	0.208
-525.004	-193.496	0.370	-0.003
-523.989	-58.450	0.302	-0.132
-522.975	-128.647	0.042	-0.006
-521.960	273.983	-0.078	-0.138
-520.945	-114.666	-0.153	-0.029
-519.931	-92.028	-0.100	-0.028
-518.916	-86.362	0.160	0.049
-517.902	-105.361	0.111	0.025
-516.887	-171.502	-0.234	-0.008
-515.872	-39.619	-0.391	-0.205
-514.858	-52.374	0.093	0.043
-513.843	393.954	-0.094	0.197
-512.829	-200.000	-0.023	-0.236
-511.814	3.646	0.038	-0.028
-510.799	-200.000	-0.007	0.297
-509.785	-200.000	-0.045	0.263
-508.770	-59.297	-0.120	-0.052
-507.756	485.078	-0.066	-0.151
-506.741	-47.354	0.239	-0.117
-505.726	-9.581	0.219	-0.146
-504.712	-28.051	-0.102	-0.059
-503.697	-60.544	-0.173	0.074
-502.683	-124.211	0.171	-0.027
-501.668	-144.142	0.179	0.017
-500.653	-66.996	-0.359	-0.142
-499.639	800.000	-0.084	-0.256
-498.624	-200.000	-0.072	-0.315
-497.610	62.323	0.267	-0.267
-496.595	-199.557	0.242	0.001
-495.581	201.561	0.111	-0.172
-494.566	-156.355	0.141	-0.009
-493.551	-200.000	0.017	-0.119
-492.537	83.258	-0.119	-0.130
-491.522	-98.583	0.483	0.123
-490.508	756.858	-0.069	-0.186
-489.493	129.676	-0.184	-0.235
-488.478	-145.020	-0.321	0.029
-487.464	-25.878	-0.048	0.028
-486.449	-96.136	-0.033	0.009
-485.435	800.000	0.150	0.638
-484.420	-200.000	-0.005	0.419
-483.405	53.656	-0.264	0.254
-482.391	-73.172	-0.307	0.113
-481.376	133.492	0.183	0.236
-480.362	-46.905	-0.163	-0.080
-479.347	-92.240	0.204	0.058
-478.332	13.198	-0.175	0.135
-477.318	-58.173	-0.235	-0.102
-476.303	-1.245	0.221	0.156
-475.289	185.096	0.169	-0.251
-474.274	11.379	-0.042	-0.032
-473.259	-200.000	0.038	-0.171
-472.245	-167.365	-0.172	-0.007
-471.230	-26.165	-0.403	-0.237
-470.216	-72.926	0.222	-0.082
-469.201	-159.652	-0.180	0.010
-468.186	-200.000	0.059	-0.594
-467.172	-165.337	0.075	0.003
-466.157	-95.247	-0.018	-0.005
-465.143	54.186	-0.090	0.086
-464.128	800.000	-0.018	0.068
-463.113	-30.607	0.202	-0.115
-462.099	-116.413	0.259	-0.048
-461.084	-100.517	-0.777	0.192
-460.070	800.000	0.053	-0.195
-459.055	59.115	-0.133	-0.131
-458.040	800.000	-0.008	0.031
-457.026	50.422	0.176	0.167
-456.011	116.702	0.246	-0.301
-454.997	-121.179	-0.444	0.074
-453.982	-63.309	0.110	-0.045
-452.968	227.602	-0.028	0.046
-451.953	800.000	0.090	-0.281
-450.938	800.000	0.083	0.338
-449.924	800.000	0.056	0.208
-448.909	-27.196	0.167	-0.097
-447.895	-141.000	0.228	-0.023
-446.880	-200.000	0.018	0.212
-445.865	-48.117	0.177	-0.086
-444.851	-171.828	-0.246	0.008
-443.836	-42.708	0.297	0.151
-442.822	798.634	-0.083	0.227
-441.807	228.499	-0.020	0.033
-440.792	-132.657	-0.194	0.025
-439.778	-19.824	0.339	0.209
-438.763	220.405	-0.128	0.205
-437.749	800.000	-0.032	-0.113
-436.734	-172.994	0.292	-0.009
-435.719	519.511	0.172	-0.404
-434.705	217.477	0.070	0.112
-433.690	-138.284	-0.208	-0.023
-432.676	635.448	0.114	-0.289
-431.661	128.825	0.263	0.334
-430.646	137.261	0.091	0.119
-429.632	-141.784	-0.259	0.026
-428.617	44.268	-0.125	-0.115
-427.603	-79.515	-0.139	0.047
-426.588	-50.963	-0.152	-0.071
-425.573	-157.443	0.194	0.012
-424.559	-147.465	0.263	-0.022
-423.544	75.746	0.108	-0.114
-422.530	81.420	-0.039	-0.042
-421.515	119.140	-0.183	-0.226
-420.500	-25.941	0.122	0.072
-419.486	-7.400	-0.120	-0.081
-418.471	-92.832	0.267	-0.075
-417.457	31.607	0.255	0.219
-416.442	707.014	0.144	-0.381
-415.428	227.842	-0.065	0.105
-414.413	101.374	0.126	-0.147
-413.398	161.929	0.194	0.271
-412.384	-4.476	0.264	0.182
-411.369	-28.049	0.070	-0.040
-410.355	377.741	0.209	0.427
-409.340	-200.000	-0.030	0.182
-408.325	229.995	-0.115	0.188
-407.311	299.910	0.138	0.253
-406.296	431.036	0.017	0.036
-405.282	-125.756	0.189	-0.029
-404.267	-200.000	-0.028	0.178
-403.252	-51.928	0.273	0.127
-402.238	665.999	-0.023	-0.059
-401.223	308.895	0.030	-0.056
-400.209	198.633	0.170	0.260
-399.194	119.547	-0.178	0.220
-398.179	800.000	-0.101	0.323
-397.165	-103.550	0.390	-0.091
-396.150	-132.397	0.377	0.049
-395.136	-71.545	0.162	-0.060
-394.121	-166.660	0.304	-0.013
-393.106	251.879	0.055	0.094
-392.092	15.879	-0.252	-0.198
-391.077	396.837	-0.055	-0.114
-390.063	85.141	0.104	0.114
-389.048	-160.925	0.160	-0.008
-388.033	-134.003	-0.197	-0.024
-387.019	-60.202	-0.368	0.156
-386.004	-200.000	0.038	-0.262
-384.990	-88.267	0.129	0.038
-383.975	27.499	-0.390	0.327
-382.960	10.992	0.113	0.086
-381.946	-39.060	0.310	-0.163
-380.931	-200.000	0.002	0.014
-379.917	-5.769	-0.084	-0.057
-378.902	2.764	-0.265	0.192
-377.888	110.529	0.023	0.028
-376.873	98.353	-0.171	0.197
-375.858	-72.647	0.300	-0.110
-374.844	-200.000	0.084	0.367
-373.829	-7.505	0.162	0.109
-372.815	-96.544	-0.301	-0.079
-371.800	800.000	0.061	-0.225
-370.785	217.069	0.157	0.249
-369.771	365.245	0.169	0.339
-368.756	800.000	0.050	0.204
-367.742	311.099	0.006	0.010
-366.727	4.497	0.192	-0.140
-365.712	-190.430	0.147	-0.002
-364.698	-9.576	-0.153	-0.101
-363.683	-40.867	-0.084	-0.043
-362.669	322.774	0.137	-0.260
-361.654	-85.323	-0.302	-0.094
-360.639	-97.835	-0.104	0.027
-359.625	-200.000	-0.000	0.391
-358.610	540.536	-0.176	0.418
-357.596	85.983	0.144	0.158
-356.581	-164.547	-0.021	-0.001
-355.566	-91.939	-0.298	-0.084
-354.552	504.184	0.163	0.376
-353.537	454.539	-0.107	-0.236
-352.523	177.211	-0.122	-0.177
-351.508	13.157	0.386	-0.298
-350.493	-200.000	-0.027	0.172
-349.479	-130.853	-0.130	-0.017
-348.464	19.130	0.214	0.171
-347.450	-55.861	-0.152	0.068
-346.435	800.000	-0.039	0.167
-345.420	-66.114	-0.080	-0.032
-344.406	526.960	-0.114	0.266
-343.391	-200.000	0.032	0.232
-342.377	29.690	-0.134	-0.114
-341.362	81.860	-0.148	-0.160
-340.348	41.029	0.134	-0.121
-339.333	592.360	0.041	-0.100
-338.318	-200.000	0.004	0.206
-337.304	-52.696	0.190	0.087
-336.289	-200.000	-0.018	-0.209
-335.275	575.414	0.100	0.244
-334.260	-200.000	-0.001	-0.138
-333.245	-55.270	-0.075	-0.034
-332.231	59.190	-0.279	0.274
-331.216	527.680	0.058	0.136
-330.202	-44.303	-0.212	0.106
-329.187	88.721	0.207	-0.229
-328.172	-200.000	0.031	0.224
-327.158	-37.234	0.121	0.065
-326.143	-200.000	-0.015	-0.068
-325.129	-23.914	-0.163	-0.097
-324.114	-185.043	0.413	0.006
-323.099	-200.000	0.009	0.229
-322.085	0.060	0.248	0.175
-321.070	4.589	-0.171	-0.125
-320.056	-200.000	-0.086	-0.516
-319.041	206.705	0.140	0.217
-318.026	9.791	0.028	0.021
-317.012	15.301	-0.358	0.279
-315.997	-67.701	-0.206	0.080
-314.983	-95.457	0.112	-0.030
-313.968	176.681	0.190	-0.274
-312.953	257.919	-0.080	0.136
-311.939	515.752	0.083	0.192
-310.924	51.649	-0.293	0.277
-309.910	-200.000	-0.016	0.196
-308.895	-200.000	-0.007	-0.072
-307.880	-84.470	0.224	-0.070
-306.866	800.000	0.017	0.055
-305.851	800.000	0.082	0.234
-304.837	-181.162	-0.354	0.007
-303.822	287.831	-0.021	0.039
-302.807	96.594	0.129	-0.146
-301.793	800.000	-0.083	0.233
-300.778	-7.849	0.153	-0.103
-299.764	64.242	-0.219	-0.219
-298.749	800.000	0.052	-0.185
-297.735	-200.000	0.010	-0.079
-296.720	110.914	0.097	-0.116
-295.705	376.234	-0.234	-0.475
-294.691	-109.695	0.392	-0.082
-293.676	276.235	0.131	0.231
-292.662	-29.851	0.235	0.133
-291.647	-200.000	-0.008	0.048
-290.632	-15.256	-0.069	-0.044
-289.618	-162.509	0.222	0.011
-288.603	-64.660	-0.309	0.124
-287.589	46.853	-0.171	0.158
-286.574	13.912	0.150	0.116
-285.559	765.712	-0.021	-0.057
-284.545	-114.714	-0.020	0.004
-283.530	-200.000	0.031	0.170
-282.516	800.000	0.167	-0.495
-281.501	38.185	-0.258	0.228
-280.486	-95.543	0.016	0.004
-279.472	79.988	-0.094	0.100
-278.457	800.000	-0.026	-0.085
-277.443	800.000	0.006	-0.019
-276.428	60.445	0.086	0.084
-275.413	101.026	-0.307	-0.355
-274.399	632.527	0.054	0.136
-273.384	-83.119	0.341	-0.109
-272.370	-131.905	0.160	-0.021
-271.355	82.736	-0.203	-0.219
-270.340	-91.808	-0.150	0.042
-269.326	-200.000	-0.063	-0.405
-268.311	-74.511	0.231	0.083
-267.297	800.000	0.050	0.174
-266.282	-103.067	-0.424	0.100
-265.267	-103.823	-0.136	-0.032
-264.253	20.375	0.159	-0.128
-263.238	55.031	-0.249	-0.238
-262.224	-62.930	-0.496	0.204
-261.209	-115.301	-0.219	-0.041
-260.195	23.188	-0.271	-0.221
-259.180	-136.923	0.210	0.024
-258.165	-200.000	0.048	-0.418
-257.151	800.000	-0.063	0.228
-256.136	255.029	-0.228	0.388
-255.122	-12.165	0.165	0.107
-254.107	-37.794	0.161	0.085
-253.092	70.987	-0.062	0.064
-252.078	-200.000	-0.015	-0.234
-251.063	-70.605	-0.193	-0.072
-250.049	18.353	-0.040	0.032
-249.034	68.035	0.133	-0.135
-248.019	-60.359	-0.156	-0.066
-247.005	28.170	0.322	0.269
-245.990	-77.935	0.268	-0.092
-244.976	283.063	-0.091	-0.163
-243.961	-10.777	-0.103	0.068
-242.946	91.622	0.158	-0.176
-241.932	-70.642	-0.326	-0.122
-240.917	-129.533	-0.109	-0.015
-239.903	138.052	0.136	0.177
-238.888	312.710	-0.097	-0.181
-237.873	-101.548	0.323	0.078
-236.859	800.000	-0.052	-0.166
-235.844	-1.569	-0.072	-0.050
-234.830	-119.813	0.224	-0.038
-233.815	-200.000	0.011	0.216
-232.800	800.000	-0.017	0.063
-231.786	-65.010	-0.032	0.013
-230.771	-44.509	-0.155	0.077
-229.757	186.778	-0.202	0.298
-228.742	263.102	-0.111	0.192
-227.727	28.199	-0.130	-0.109
-226.713	26.898	0.207	-0.172
-225.698	800.000	-0.020	-0.074
-224.684	-58.076	0.184	-0.079
-223.669	191.848	-0.106	0.158
-222.655	-200.000	-0.017	-0.165
-221.640	-200.000	-0.035	0.605
-220.625	-133.221	0.152	0.019
-219.611	35.537	-0.150	-0.130
-218.596	-200.000	0.011	-0.306
-217.582	147.386	-0.158	-0.210
-216.567	275.327	0.061	0.108
-215.552	745.418	-0.032	-0.087
-214.538	13.406	-0.101	0.077
-213.523	303.728	0.128	-0.235
-212.509	-200.000	0.035	-0.176
-211.494	-200.000	-0.023	-0.366
-210.479	-155.642	-0.146	0.009
-209.465	-104.633	0.113	0.026
-208.450	-109.718	-0.078	-0.016
-207.436	-73.608	0.472	-0.170
-206.421	-200.000	0.010	0.248
-205.406	37.609	-0.230	-0.202
-204.392	-12.993	0.208	0.134
-203.377	800.000	-0.075	0.262
-202.363	6.221	0.115	0.085
-201.348	800.000	-0.120	0.386
-200.333	800.000	-0.050	-0.152
-199.319	5.845	0.232	-0.170
-198.304	-200.000	-0.028	0.253
-197.290	-165.266	-0.215	0.009
-196.275	76.968	0.277	-0.291
-195.260	-200.000	-0.011	-0.142
-194.246	23.042	-0.091	0.074
-193.231	130.967	0.034	0.043
-192.217	1.147	-0.268	0.190
-191.202	131.969	0.128	0.163
-190.187	-124.076	0.182	-0.028
-189.173	312.063	0.066	0.123
-188.158	-105.051	0.049	-0.011
-187.144	800.000	-0.125	-0.404
-186.129	459.460	0.032	0.070
-185.114	-32.397	0.019	0.011
-184.100	384.880	0.156	-0.317
-183.085	577.969	-0.082	-0.199
-182.071	-113.571	-0.248	-0.048
-181.056	-154.275	0.216	0.014
-180.042	-51.530	0.113	-0.052
-179.027	-7.725	0.138	0.092
-178.012	-98.833	-0.193	0.048
-176.998	247.723	-0.142	0.238
-175.983	130.104	-0.148	0.187
-174.969	-53.120	-0.514	-0.234
-173.954	-200.000	0.043	-0.359
-172.939	-110.302	0.175	0.036
-171.925	-200.000	-0.000	-0.078
-170.910	-132.875	0.218	-0.027
-169.896	-114.952	-0.124	0.023
-168.881	800.000	0.122	0.367
-167.866	800.000	0.117	-0.408
-166.852	-200.000	-0.016	-0.103
-165.837	-200.000	-0.010	0.149
-164.823	-200.000	-0.004	0.062
-163.808	42.675	0.172	-0.155
-162.793	-200.000	0.022	0.108
-161.779	183.866	0.131	0.192
-160.764	-52.430	0.307	-0.140
-159.750	-200.000	0.031	-0.254
-158.735	-86.902	-0.218	-0.066
-157.720	-200.000	-0.038	0.165
-156.706	-36.495	0.096	-0.051
-155.691	56.854	0.145	-0.140
-154.677	-31.730	0.061	0.034
-153.662	-82.537	0.274	0.088
-152.647	-168.863	-0.219	-0.008
-151.633	45.986	-0.110	0.101
-150.618	-91.837	-0.348	-0.097
-149.604	48.929	-0.152	-0.141
-148.589	317.821	-0.083	-0.155
-147.574	-2.492	-0.057	-0.039
-146.560	143.758	0.131	0.173
-145.545	-200.000	-0.086	0.411
-144.531	-34.659	-0.176	-0.095
-143.516	208.285	-0.136	-0.210
-142.502	-129.790	0.077	0.010
-141.487	800.000	0.133	0.426
-140.472	-200.000	0.020	0.133
-139.458	100.754	-0.269	0.308
-138.443	518.889	-0.122	0.281
-137.429	236.968	-0.120	0.196
-136.414	79.931	0.128	-0.135
-135.399	-200.000	-0.016	-0.296
-134.385	-35.509	-0.096	0.051
-133.370	-63.678	-0.129	-0.052
-132.356	-146.803	-0.020	0.002
-131.341	-93.808	-0.141	-0.038
-130.326	107.192	0.022	-0.026
-129.312	800.000	0.023	0.075
-128.297	800.000	0.151	0.484
-127.283	-200.000	0.040	0.285
-126.268	320.995	0.209	-0.392
-125.253	581.969	-0.138	-0.334
-124.239	353.542	-0.073	-0.143
-123.224	64.979	0.172	0.172
-122.210	64.908	0.286	0.285
-121.195	-98.609	0.247	0.062
