DTS Sentinel unit serial number:	SN413079Multiplexer serial number:	ORYXHardware model number:	OX4-SRSoftware version number:	ORYX F/W v4.00 Oryx Data Collector v3.7.2.0data status	okinstallation	princeton_trtdifferential loss correction	single-endedforward channel	channel 3reverse channel	N/Adate	2019/09/15time	16:24:35forward acquisition time	60.00reverse acquisition time	0.00gamma	496.2192k internal	0.2289k external	0.2289temperature offset calibration	0.9934default loss term (dB/km)	0.3790temperature slope calibration	1.0000multiplexer offset coefficient	1.0000multiplexer slope coefficient	1.0000fibre end	0.00T internal ref (°C)	43.73T ext. ref 1 (°C)	5.55T ext. ref 2 (°C)	40.07length (m)	temperature (°C)	Stokes	anti-Stokes-747.200	-120.161	-0.102	0.018
-746.185	176.541	-0.099	-0.148
-745.171	-200.000	-0.007	-0.296
-744.156	646.352	-0.056	-0.146
-743.142	105.982	-0.144	-0.174
-742.127	-200.000	0.001	0.353
-741.112	-41.847	0.226	0.119
-740.098	-200.000	-0.044	0.405
-739.083	-35.993	0.319	-0.177
-738.069	-200.000	-0.005	0.499
-737.054	-5.524	-0.086	-0.061
-736.039	-200.000	0.000	-0.226
-735.025	-65.819	0.451	-0.185
-734.010	293.834	-0.082	-0.153
-732.996	-173.608	-0.472	0.014
-731.981	-36.563	-0.265	-0.146
-730.966	-92.427	0.170	-0.049
-729.952	-27.528	0.225	-0.134
-728.937	234.571	-0.256	0.432
-727.923	-200.000	-0.399	0.001
-726.908	690.860	-0.044	0.117
-725.894	-120.965	-0.094	0.016
-724.879	-6.767	-0.279	0.194
-723.864	-134.870	-0.225	-0.028
-722.850	24.417	0.258	0.219
-721.835	-200.000	0.010	0.258
-720.821	88.262	-0.150	0.170
-719.806	-200.000	0.014	0.262
-718.791	-71.699	-0.486	0.186
-717.777	394.387	0.079	0.168
-716.762	210.199	-0.128	-0.205
-715.748	800.000	0.036	-0.106
-714.733	735.104	0.065	-0.178
-713.718	800.000	0.061	-0.237
-712.704	-167.096	0.237	0.010
-711.689	31.242	0.106	-0.093
-710.675	-200.000	0.000	-0.390
-709.660	-32.929	0.059	-0.034
-708.645	-129.395	0.218	-0.031
-707.631	-92.349	0.155	0.045
-706.616	800.000	-0.076	-0.259
-705.602	117.615	0.340	0.428
-704.587	-92.900	0.362	0.104
-703.572	-90.160	0.355	0.106
-702.558	-26.260	-0.120	0.072
-701.543	-200.000	0.065	-0.302
-700.529	-36.827	-0.101	0.055
-699.514	-72.600	0.162	0.061
-698.499	-35.562	-0.317	0.176
-697.485	-71.497	0.266	-0.102
-696.470	-200.000	0.008	0.193
-695.456	-6.649	0.238	0.166
-694.441	34.981	0.277	0.248
-693.426	132.286	0.110	0.145
-692.412	13.106	-0.172	0.137
-691.397	-135.472	0.092	-0.011
-690.383	-48.926	0.499	0.245
-689.368	-200.000	0.020	0.336
-688.354	271.289	-0.072	-0.129
-687.339	275.912	-0.077	-0.140
-686.324	48.302	0.127	0.122
-685.310	-200.000	0.037	0.171
-684.295	800.000	0.104	0.321
-683.281	-200.000	0.113	0.508
-682.266	-182.302	0.181	-0.003
-681.251	112.292	0.175	0.216
-680.237	800.000	-0.028	-0.109
-679.222	800.000	-0.070	0.218
-678.208	-200.000	0.015	-0.132
-677.193	800.000	0.025	-0.086
-676.178	38.357	0.034	0.031
-675.164	-42.807	0.056	-0.029
-674.149	73.078	0.183	0.195
-673.135	-200.000	0.028	-0.156
-672.120	292.370	-0.101	0.188
-671.105	-200.000	-0.011	0.327
-670.091	-87.277	-0.333	0.103
-669.076	-101.200	0.197	0.049
-668.062	-133.908	-0.238	0.030
-667.047	-198.733	-0.144	-0.001
-666.032	245.291	-0.163	-0.281
-665.018	-15.211	-0.320	0.209
-664.003	-42.268	-0.178	-0.093
-662.989	-54.567	-0.229	-0.106
-661.974	-132.754	-0.198	0.026
-660.959	4.304	-0.228	0.171
-659.945	-200.000	-0.060	-0.391
-658.930	-75.411	0.226	0.082
-657.916	800.000	-0.075	0.239
-656.901	800.000	0.054	0.191
-655.886	-105.481	-0.243	-0.056
-654.872	-11.614	0.184	-0.123
-653.857	41.900	0.188	-0.174
-652.843	-116.090	0.160	0.030
-651.828	-200.000	0.028	0.164
-650.814	766.538	-0.006	-0.018
-649.799	682.414	0.043	0.115
-648.784	-19.962	-0.248	-0.156
-647.770	13.425	-0.082	0.065
-646.755	-128.767	-0.234	-0.034
-645.741	-89.154	-0.175	0.053
-644.726	151.464	-0.244	-0.339
-643.711	800.000	0.065	-0.216
-642.697	186.551	-0.102	0.155
-641.682	413.973	0.094	0.205
-640.668	-95.803	0.084	-0.023
-639.653	-66.165	-0.118	0.048
-638.638	-117.519	0.272	-0.050
-637.624	-200.000	0.010	0.235
-636.609	39.486	0.064	-0.058
-635.595	327.733	0.071	0.140
-634.580	-7.045	-0.167	0.116
-633.565	-102.485	0.297	-0.073
-632.551	2.999	0.160	-0.119
-631.536	431.965	0.028	0.062
-630.522	-44.107	0.155	-0.079
-629.507	289.247	-0.089	0.164
-628.492	356.747	0.048	0.098
-627.478	-19.072	-0.367	0.233
-626.463	-200.000	-0.043	0.248
-625.449	-200.000	-0.041	0.348
-624.434	800.000	-0.046	-0.154
-623.419	255.840	-0.070	0.123
-622.405	251.615	0.188	0.327
-621.390	-114.941	0.105	0.020
-620.376	-56.975	0.090	0.040
-619.361	-200.000	-0.024	0.205
-618.346	-190.463	-0.275	-0.003
-617.332	84.792	0.243	0.272
-616.317	85.582	0.027	0.031
-615.303	447.883	-0.032	0.072
-614.288	-200.000	-0.005	-0.221
-613.273	-51.455	-0.203	-0.097
-612.259	-123.759	0.184	-0.030
-611.244	132.201	-0.014	-0.019
-610.230	84.941	-0.170	0.190
-609.215	-105.352	0.427	-0.099
-608.201	171.322	-0.097	-0.141
-607.186	29.426	-0.207	-0.180
-606.171	-28.801	0.184	0.108
-605.157	-61.481	0.422	0.181
-604.142	-200.000	-0.002	0.434
-603.128	211.805	-0.099	0.158
-602.113	-80.614	-0.309	-0.105
-601.098	13.768	-0.055	-0.043
-600.084	83.773	0.138	0.153
-599.069	368.233	-0.172	-0.354
-598.055	800.000	0.012	0.038
-597.040	-56.164	-0.279	-0.126
-596.025	23.402	0.166	0.139
-595.011	-200.000	-0.005	-0.164
-593.996	-105.492	0.184	-0.043
-592.982	74.257	-0.137	0.147
-591.967	0.495	0.354	-0.258
-590.952	352.181	-0.100	-0.203
-589.938	189.736	-0.154	-0.235
-588.923	74.623	-0.116	0.124
-587.909	-126.603	-0.318	0.048
-586.894	89.903	0.086	0.098
-585.879	-200.000	-0.006	-0.223
-584.865	-87.847	-0.264	0.081
-583.850	-17.858	-0.113	-0.072
-582.836	163.134	-0.211	-0.301
-581.821	-78.368	-0.407	-0.142
-580.806	102.365	0.075	-0.089
-579.792	57.022	-0.194	0.193
-578.777	-73.077	0.137	-0.051
-577.763	-200.000	-0.005	-0.155
-576.748	-77.170	0.338	-0.120
-575.733	800.000	0.088	-0.249
-574.719	84.785	-0.130	0.145
-573.704	376.840	-0.213	-0.442
-572.690	800.000	0.061	-0.223
-571.675	345.975	0.005	-0.009
-570.661	-200.000	0.026	0.120
-569.646	-200.000	-0.023	-0.283
-568.631	3.909	-0.230	0.171
-567.617	180.925	0.146	0.219
-566.602	800.000	-0.192	-0.691
-565.588	-80.974	-0.272	0.092
-564.573	-2.800	-0.259	0.184
-563.558	395.510	-0.014	0.030
-562.544	-116.027	-0.294	-0.056
-561.529	202.243	0.055	-0.087
-560.515	476.594	0.124	-0.284
-559.500	-200.000	-0.037	-0.198
-558.485	-146.171	-0.195	0.017
-557.471	62.355	0.215	-0.219
-556.456	731.521	-0.064	0.174
-555.442	-200.000	0.006	0.079
-554.427	-101.748	-0.050	0.012
-553.412	40.977	0.069	-0.063
-552.398	-175.126	0.085	-0.002
-551.383	-175.251	-0.129	0.004
-550.369	81.605	0.151	0.166
-549.354	36.269	0.226	0.203
-548.339	-117.381	-0.214	0.039
-547.325	-111.219	-0.077	-0.016
-546.310	12.933	-0.093	-0.073
-545.296	-155.496	0.053	-0.003
-544.281	800.000	0.085	0.335
-543.266	285.964	-0.070	-0.128
-542.252	800.000	0.113	-0.378
-541.237	-200.000	0.038	-0.431
-540.223	-85.223	0.088	-0.028
-539.208	328.127	-0.102	0.200
-538.193	-59.185	-0.401	-0.176
-537.179	129.118	0.012	-0.015
-536.164	-200.000	0.007	-0.355
-535.150	-146.236	0.159	0.014
-534.135	250.447	-0.132	-0.228
-533.121	597.698	-0.140	-0.352
-532.106	-9.997	0.196	0.132
-531.091	-200.000	0.020	0.548
-530.077	-45.577	0.185	-0.093
-529.062	-16.084	-0.219	0.141
-528.048	-200.000	-0.069	0.490
-527.033	-19.069	-0.037	-0.023
-526.018	-154.298	0.190	0.013
-525.004	800.000	-0.073	0.232
-523.989	-200.000	-0.026	0.146
-522.975	104.555	-0.117	-0.140
-521.960	-200.000	-0.057	-0.325
-520.945	800.000	0.107	-0.384
-519.931	-69.613	-0.087	0.034
-518.916	-200.000	0.008	-0.129
-517.902	-52.020	0.116	-0.055
-516.887	-40.850	0.166	0.087
-515.872	82.623	0.085	0.094
-514.858	742.210	-0.093	0.254
-513.843	-143.670	0.217	-0.021
-512.829	-10.995	0.038	0.025
-511.814	684.219	-0.103	-0.273
-510.799	23.762	0.050	-0.042
-509.785	-83.281	-0.171	-0.056
-508.770	-200.000	0.035	-0.177
-507.756	112.671	-0.158	0.194
-506.741	-175.837	-0.248	0.007
-505.726	-57.431	-0.294	0.131
-504.712	37.325	0.151	0.136
-503.697	355.150	-0.097	-0.196
-502.683	523.149	0.053	-0.127
-501.668	-18.161	-0.250	-0.159
-500.653	424.974	0.124	-0.271
-499.639	-132.103	-0.193	0.025
-498.624	800.000	0.034	0.145
-497.610	-68.862	0.250	-0.098
-496.595	800.000	0.073	0.249
-495.581	-116.823	-0.343	-0.064
-494.566	348.598	0.062	0.123
-493.551	365.474	0.068	-0.138
-492.537	-136.320	-0.380	-0.045
-491.522	-130.103	-0.303	-0.042
-490.508	800.000	-0.046	0.151
-489.493	18.996	0.113	-0.092
-488.478	-27.083	-0.110	0.065
-487.464	63.799	0.105	-0.107
-486.449	-152.518	0.095	0.007
-485.435	-114.173	0.068	-0.013
-484.420	330.734	-0.119	0.232
-483.405	121.285	-0.165	0.209
-482.391	324.952	0.037	-0.071
-481.376	-108.102	0.136	0.030
-480.362	440.245	0.121	0.268
-479.347	-144.219	-0.189	0.018
-478.332	537.059	-0.049	-0.118
-477.318	29.656	0.243	0.209
-476.303	-141.486	-0.322	0.033
-475.289	124.776	-0.132	-0.168
-474.274	569.214	0.026	-0.065
-473.259	635.394	0.055	0.141
-472.245	-200.000	-0.041	0.281
-471.230	-7.009	-0.187	-0.129
-470.216	800.000	0.092	0.306
-469.201	-159.987	-0.274	-0.015
-468.186	-14.006	-0.075	-0.049
-467.172	161.046	-0.183	0.260
-466.157	800.000	0.148	0.421
-465.143	12.140	0.058	0.046
-464.128	189.941	-0.058	-0.088
-463.113	-200.000	0.011	0.149
-462.099	-200.000	0.015	0.133
-461.084	-37.258	0.064	-0.035
-460.070	0.555	-0.133	-0.096
-459.055	-134.394	0.144	0.018
-458.040	-81.721	-0.128	-0.043
-457.026	46.105	0.091	0.085
-456.011	356.376	0.154	0.312
-454.997	15.867	-0.167	0.133
-453.982	-9.457	0.116	0.079
-452.968	-89.373	0.184	0.055
-451.953	184.631	-0.133	0.199
-450.938	800.000	0.032	-0.098
-449.924	800.000	0.035	-0.106
-448.909	8.863	0.096	0.073
-447.895	-188.948	-0.115	0.001
-446.880	53.470	-0.215	0.209
-445.865	800.000	0.038	-0.119
-444.851	800.000	-0.070	-0.210
-443.836	99.947	-0.273	-0.321
-442.822	6.622	0.286	0.215
-441.807	-200.000	-0.001	0.340
-440.792	-12.648	0.144	0.095
-439.778	-151.456	-0.326	0.025
-438.763	-102.703	-0.246	-0.059
-437.749	446.127	-0.126	-0.281
-436.734	99.103	-0.183	-0.214
-435.719	-200.000	-0.018	-0.083
-434.705	341.524	-0.026	0.051
-433.690	588.531	0.158	-0.395
-432.676	-90.380	0.232	-0.068
-431.661	89.755	0.246	0.278
-430.646	-3.945	0.234	-0.164
-429.632	229.213	-0.214	-0.353
-428.617	-20.824	-0.215	0.133
-427.603	75.196	0.143	0.153
-426.588	182.883	0.060	0.090
-425.573	-102.394	-0.150	0.036
-424.559	35.673	0.072	0.064
-423.544	-200.000	0.028	0.239
-422.530	502.381	0.099	0.231
-421.515	-200.000	-0.006	0.114
-420.500	-23.569	0.388	-0.236
-419.486	-56.989	0.148	0.066
-418.471	-127.759	-0.100	-0.015
-417.457	17.451	0.137	-0.111
-416.442	-200.000	0.017	0.151
-415.428	-42.942	0.324	-0.167
-414.413	153.837	-0.122	-0.169
-413.398	-142.910	0.173	-0.017
-412.384	-48.540	0.144	-0.070
-411.369	175.743	-0.098	0.143
-410.355	239.855	0.129	0.217
-409.340	128.848	0.151	-0.195
-408.325	-72.522	-0.243	-0.091
-407.311	447.450	0.095	0.211
-406.296	144.656	-0.137	0.185
-405.282	-52.413	0.270	0.127
-404.267	-150.245	-0.124	-0.010
-403.252	800.000	0.046	-0.160
-402.238	-134.188	0.524	-0.065
-401.223	-83.718	0.083	-0.027
-400.209	217.834	0.116	0.187
-399.194	-200.000	-0.054	-0.355
-398.179	189.304	0.166	-0.251
-397.165	160.837	0.139	-0.197
-396.150	-116.532	0.153	-0.029
-395.136	-118.356	-0.119	-0.021
-394.121	-115.876	-0.259	0.049
-393.106	133.206	0.087	-0.114
-392.092	45.058	0.162	0.150
-391.077	-200.000	0.014	0.062
-390.063	174.651	-0.025	0.036
-389.048	-66.158	-0.142	-0.057
-388.033	144.934	-0.192	0.260
-387.019	730.047	0.074	-0.201
-386.004	-200.000	0.020	-0.122
-384.990	-200.000	0.001	-0.072
-383.975	-29.347	-0.081	-0.047
-382.960	643.285	0.046	0.119
-381.946	769.322	0.059	0.161
-380.931	-200.000	0.004	0.185
-379.917	39.962	-0.189	0.172
-378.902	-1.982	-0.142	0.101
-377.888	-119.768	0.092	-0.016
-376.873	-120.046	0.074	0.013
-375.858	-42.462	-0.170	0.088
-374.844	103.428	0.154	-0.182
-373.829	800.000	0.028	0.093
-372.815	-59.596	-0.121	0.053
-371.800	158.575	0.080	-0.113
-370.785	-87.414	0.188	-0.057
-369.771	86.176	-0.074	0.082
-368.756	-68.287	0.109	-0.043
-367.742	-106.534	-0.265	-0.060
-366.727	28.476	-0.142	0.121
-365.712	-104.178	-0.174	0.041
-364.698	57.638	0.114	0.113
-363.683	753.032	-0.133	-0.363
-362.669	-200.000	0.034	0.266
-361.654	190.262	0.087	-0.132
-360.639	-105.256	-0.186	-0.043
-359.625	-147.403	-0.099	-0.008
-358.610	222.742	-0.109	-0.177
-357.596	-116.484	0.393	-0.073
-356.581	-125.836	0.336	0.051
-355.566	-117.776	0.102	0.018
-354.552	-136.989	-0.149	-0.017
-353.537	-200.000	-0.023	0.188
-352.523	-112.139	-0.090	-0.018
-351.508	-200.000	-0.031	0.204
-350.493	47.377	0.186	-0.175
-349.479	296.496	-0.103	-0.191
-348.464	148.180	0.216	0.294
-347.450	-152.998	-0.138	-0.010
-346.435	-97.119	0.422	-0.111
-345.420	-23.886	0.112	-0.068
-344.406	572.760	0.008	0.019
-343.391	96.474	0.137	-0.158
-342.377	800.000	0.051	0.172
-341.362	169.993	-0.063	0.091
-340.348	86.823	0.186	-0.208
-339.333	-41.345	-0.303	-0.157
-338.318	-176.323	-0.144	-0.004
-337.304	-200.000	0.008	0.169
-336.289	-145.944	-0.255	0.023
-335.275	562.508	-0.167	-0.407
-334.260	144.861	0.069	0.094
-333.245	163.587	-0.085	0.120
-332.231	-162.724	0.224	-0.011
-331.216	-200.000	0.023	-0.143
-330.202	15.826	0.100	0.080
-329.187	800.000	-0.027	-0.099
-328.172	102.929	-0.136	0.160
-327.158	-175.943	0.043	0.001
-326.143	-54.637	0.164	0.075
-325.129	-52.178	0.103	0.048
-324.114	800.000	-0.041	-0.126
-323.099	45.192	0.016	0.015
-322.085	8.526	-0.229	0.174
-321.070	-85.493	0.225	-0.071
-320.056	51.050	0.080	-0.076
-319.041	-118.776	0.199	0.035
-318.026	649.374	-0.072	-0.185
-317.012	-108.728	0.149	0.032
-315.997	10.079	-0.126	0.097
-314.983	19.440	0.368	0.298
-313.968	-127.794	0.228	0.033
-312.953	-2.142	-0.163	-0.115
-311.939	800.000	-0.048	-0.152
-310.924	-118.236	0.084	-0.015
-309.910	-200.000	-0.019	0.143
-308.895	800.000	0.075	0.222
-307.880	177.956	-0.025	-0.037
-306.866	190.652	-0.190	-0.287
-305.851	-200.000	0.050	-0.328
-304.837	-39.144	-0.162	0.086
-303.822	-32.006	-0.245	-0.138
-302.807	-101.793	-0.205	-0.050
-301.793	153.513	0.034	-0.046
-300.778	-86.465	-0.344	-0.106
-299.764	30.303	0.101	-0.087
-298.749	121.483	0.343	0.431
-297.735	-200.000	-0.018	0.144
-296.720	192.317	0.192	-0.291
-295.705	-200.000	-0.024	0.388
-294.691	-146.815	0.139	-0.012
-293.676	134.513	0.086	0.112
-292.662	-13.533	0.265	0.173
-291.647	227.782	0.134	-0.219
-290.632	-200.000	0.026	0.135
-289.618	-77.791	-0.364	-0.127
-288.603	-200.000	-0.019	-0.164
-287.589	-200.000	-0.026	-0.398
-286.574	-47.010	0.167	-0.082
-285.559	230.826	0.176	0.290
-284.545	800.000	0.099	-0.391
-283.530	800.000	0.007	0.020
-282.516	-30.897	-0.166	0.094
-281.501	46.759	0.237	-0.222
-280.486	-72.789	0.128	0.048
-279.472	454.383	-0.098	0.218
-278.457	5.301	-0.147	-0.109
-277.443	-200.000	-0.013	0.284
-276.428	4.825	-0.132	-0.098
-275.413	-46.454	0.140	-0.069
-274.399	188.615	-0.336	-0.506
-273.384	-176.827	-0.183	0.005
-272.370	-141.105	0.192	-0.020
-271.355	21.581	-0.051	0.042
-270.340	662.963	0.104	-0.269
-269.326	222.078	0.089	0.145
-268.311	224.586	0.091	0.149
-267.297	778.460	0.043	0.120
-266.282	-40.285	0.403	-0.211
-265.267	-200.000	-0.016	-0.113
-264.253	-200.000	-0.039	-0.311
-263.238	-121.952	0.244	-0.040
-262.224	182.206	0.103	0.153
-261.209	-31.084	-0.156	-0.089
-260.195	800.000	0.055	0.170
-259.180	53.822	-0.313	0.302
-258.165	32.891	-0.178	-0.155
-257.151	505.630	-0.126	-0.294
-256.136	800.000	-0.096	-0.362
-255.122	-45.041	-0.219	-0.109
-254.107	444.765	0.106	0.233
-253.092	-200.000	-0.015	-0.263
-252.078	-158.143	0.304	0.018
-251.063	-25.347	-0.357	-0.212
-250.049	-200.000	0.015	-0.202
-249.034	-116.986	0.277	0.051
-248.019	800.000	-0.077	0.339
-247.005	800.000	0.028	0.111
-245.990	800.000	-0.065	-0.285
-244.976	265.385	-0.010	-0.017
-243.961	-111.176	-0.332	-0.068
-242.946	7.999	-0.182	0.137
-241.932	-184.381	-0.430	0.007
-240.917	-63.616	-0.062	0.025
-239.903	-141.013	-0.108	-0.011
-238.888	27.285	0.127	0.108
-237.873	-95.521	0.218	0.059
-236.859	-200.000	0.021	-0.138
-235.844	800.000	-0.026	0.083
-234.830	-88.985	-0.213	-0.063
-233.815	151.825	0.099	0.135
-232.800	718.354	-0.047	0.125
-231.786	99.811	0.077	-0.089
-230.771	-90.118	-0.188	-0.055
-229.757	56.596	-0.035	-0.035
-228.742	-125.537	-0.271	0.041
-227.727	-100.567	-0.205	-0.051
-226.713	-56.778	0.345	-0.153
-225.698	-100.236	-0.153	-0.038
-224.684	27.739	-0.249	0.210
-223.669	-4.290	0.231	0.160
-222.655	-200.000	0.053	0.262
-221.640	124.133	0.176	0.222
-220.625	-41.630	0.239	-0.124
-219.611	-18.159	0.184	-0.116
-218.596	2.508	0.118	-0.086
-217.582	22.545	0.078	-0.064
-216.567	68.651	-0.190	0.195
-215.552	248.924	0.164	0.280
-214.538	800.000	-0.079	-0.241
-213.523	46.707	0.366	0.341
-212.509	173.603	0.120	0.173
-211.494	-121.309	-0.057	-0.010
-210.479	800.000	-0.031	-0.126
-209.465	-200.000	-0.058	0.347
-208.450	800.000	-0.065	0.228
-207.436	-121.252	0.120	0.020
-206.421	308.504	-0.132	-0.247
-205.406	-189.886	-0.134	-0.002
-204.392	-200.000	0.007	-0.204
-203.377	30.927	-0.215	-0.185
-202.363	238.182	0.072	-0.121
-201.348	438.333	-0.105	0.231
-200.333	212.100	0.188	0.297
-199.319	800.000	-0.032	0.098
-198.304	-40.277	-0.142	0.074
-197.290	694.011	-0.104	0.274
-196.275	800.000	0.085	0.257
-195.260	800.000	0.036	-0.157
-194.246	7.681	0.042	0.031
-193.231	70.456	-0.162	-0.168
-192.217	269.978	0.056	-0.098
-191.202	-200.000	0.043	-0.246
-190.187	-200.000	0.063	-0.300
-189.173	-200.000	-0.027	-0.324
-188.158	17.492	0.183	-0.146
-187.144	-110.541	0.327	-0.068
-186.129	21.091	-0.048	0.039
-185.114	800.000	0.044	-0.173
-184.100	800.000	0.061	0.190
-183.085	-156.607	0.332	-0.021
-182.071	-200.000	0.016	0.408
-181.056	154.421	-0.295	0.407
-180.042	-86.696	-0.208	-0.064
-179.027	97.079	-0.105	-0.121
-178.012	-200.000	-0.070	0.317
-176.998	149.426	0.237	0.322
-175.983	63.252	0.159	-0.160
-174.969	-69.942	-0.228	0.087
-173.954	-51.674	0.117	0.054
-172.939	143.437	0.156	-0.209
-171.925	204.158	-0.088	0.136
-170.910	-200.000	0.004	-0.037
-169.896	-50.768	0.303	-0.143
-168.881	-3.673	0.181	-0.126
-167.866	407.280	-0.070	0.149
-166.852	1.321	-0.190	-0.137
-165.837	-105.252	-0.330	-0.075
-164.823	664.107	-0.042	0.108
-163.808	-150.442	0.151	-0.012
-162.793	-200.000	-0.058	0.277
-161.779	269.502	0.048	0.085
-160.764	-200.000	0.048	0.229
-159.750	-97.720	0.097	0.025
-158.735	-123.388	0.104	0.017
-157.720	-23.000	0.260	-0.157
-156.706	-1.050	0.328	0.232
-155.691	-115.526	0.038	0.007
-154.677	57.591	0.277	-0.271
-153.662	89.177	-0.060	-0.067
-152.647	-106.130	0.484	-0.109
-151.633	-62.326	0.117	-0.049
-150.618	-30.199	0.092	-0.053
-149.604	-200.000	-0.004	0.299
-148.589	212.709	0.202	0.319
-147.574	-200.000	0.011	0.055
-146.560	800.000	0.008	0.036
-145.545	92.915	-0.177	0.200
-144.531	-200.000	-0.013	-0.240
-143.516	66.756	-0.224	-0.228
-142.502	-88.097	-0.033	-0.010
-141.487	-98.250	-0.275	-0.071
-140.472	-200.000	-0.051	-0.405
-139.458	-200.000	0.039	0.184
-138.443	135.515	-0.209	0.272
-137.429	694.810	0.045	0.119
-136.414	-75.730	0.164	-0.058
-135.399	-57.638	-0.075	-0.033
-134.385	-200.000	0.020	0.088
-133.370	72.989	-0.067	-0.070
-132.356	-200.000	-0.030	0.293
-131.341	54.167	0.043	0.041
-130.326	48.084	0.210	-0.196
-129.312	-8.228	0.113	-0.076
-128.297	296.945	-0.159	-0.293
-127.283	43.447	0.229	-0.209
-126.268	800.000	0.050	-0.158
-125.253	-37.369	0.245	-0.131
-124.239	28.559	-0.061	-0.052
-123.224	-98.466	0.141	0.036
-122.210	-124.166	0.158	0.025
-121.195	-51.616	0.072	-0.033
-120.180	39.639	0.174	-0.156
