DTS Sentinel unit serial number:	SN413079Multiplexer serial number:	ORYXHardware model number:	OX4-SRSoftware version number:	ORYX F/W v4.00 Oryx Data Collector v3.7.2.0data status	okinstallation	princeton_trtdifferential loss correction	single-endedforward channel	channel 3reverse channel	N/Adate	2019/09/17time	21:16:34forward acquisition time	60.00reverse acquisition time	0.00gamma	496.2192k internal	0.2340k external	0.2340temperature offset calibration	0.9957default loss term (dB/km)	0.3790temperature slope calibration	1.0000multiplexer offset coefficient	1.0000multiplexer slope coefficient	1.0000fibre end	0.00T internal ref (°C)	27.78T ext. ref 1 (°C)	0.19T ext. ref 2 (°C)	19.62length (m)	temperature (°C)	Stokes	anti-Stokes-747.200	50.807	-0.089	-0.084
-746.185	-29.822	-0.143	-0.082
-745.171	-112.441	-0.299	-0.060
-744.156	320.075	0.203	0.387
-743.142	-58.775	-0.251	0.109
-742.127	-47.039	-0.115	-0.056
-741.112	458.072	-0.133	0.295
-740.098	122.894	-0.265	-0.333
-739.083	112.427	0.120	0.146
-738.069	-128.364	-0.140	0.020
-737.054	-97.721	0.019	-0.005
-736.039	16.172	-0.389	-0.307
-735.025	-15.019	0.494	-0.317
-734.010	-200.000	0.062	-0.336
-732.996	-84.476	-0.361	-0.114
-731.981	-200.000	0.036	0.310
-730.966	130.868	-0.217	-0.278
-729.952	63.851	0.175	-0.177
-728.937	-200.000	0.276	0.001
-727.923	-18.234	-0.273	-0.171
-726.908	-54.040	-0.425	-0.194
-725.894	-176.696	-0.293	0.007
-724.879	-200.000	-0.009	-0.251
-723.864	-45.012	-0.137	-0.068
-722.850	128.320	0.051	0.065
-721.835	178.715	-0.042	0.061
-720.821	-200.000	-0.001	0.179
-719.806	-54.857	0.238	-0.108
-718.791	449.636	-0.205	-0.453
-717.777	73.400	-0.040	-0.042
-716.762	33.863	0.193	-0.168
-715.748	123.513	0.044	-0.055
-714.733	-200.000	-0.061	0.289
-713.718	800.000	-0.029	-0.126
-712.704	647.845	-0.077	-0.198
-711.689	-93.736	-0.042	0.012
-710.675	800.000	0.069	0.267
-709.660	39.396	0.090	-0.081
-708.645	-200.000	0.003	-0.157
-707.631	800.000	0.018	0.069
-706.616	800.000	-0.065	0.213
-705.602	-200.000	0.044	0.286
-704.587	35.555	-0.190	-0.167
-703.572	306.049	0.154	0.286
-702.558	-200.000	-0.017	0.086
-701.543	10.024	0.197	0.150
-700.529	-200.000	0.041	-0.273
-699.514	800.000	-0.124	-0.414
-698.499	-200.000	-0.083	-0.377
-697.485	261.870	-0.009	0.016
-696.470	-200.000	0.025	0.224
-695.456	800.000	-0.110	0.330
-694.441	-100.206	0.178	-0.044
-693.426	383.340	-0.247	0.509
-692.412	-5.021	-0.150	0.103
-691.397	-200.000	-0.006	-0.112
-690.383	-200.000	-0.013	-0.145
-689.368	-20.615	0.041	0.025
-688.354	-168.843	-0.151	-0.006
-687.339	142.118	-0.133	-0.176
-686.324	136.611	-0.259	-0.338
-685.310	-96.905	0.400	-0.105
-684.295	258.729	-0.229	-0.395
-683.281	203.384	-0.119	-0.185
-682.266	541.099	-0.086	0.204
-681.251	-200.000	0.028	0.160
-680.237	9.234	0.174	0.131
-679.222	126.418	0.032	0.040
-678.208	800.000	0.046	0.148
-677.193	800.000	0.078	-0.233
-676.178	387.291	0.060	0.123
-675.164	13.437	-0.077	-0.060
-674.149	124.364	0.148	-0.186
-673.135	-200.000	-0.005	-0.217
-672.120	-102.960	-0.151	-0.036
-671.105	67.212	0.171	0.174
-670.091	237.729	-0.066	-0.109
-669.076	182.083	-0.203	0.298
-668.062	-47.146	-0.514	-0.251
-667.047	266.673	0.062	-0.108
-666.032	-200.000	0.007	0.152
-665.018	303.379	-0.288	0.534
-664.003	23.896	-0.232	-0.191
-662.989	-178.850	-0.448	0.010
-661.974	-27.462	0.396	-0.230
-660.959	295.238	-0.072	-0.131
-659.945	287.709	0.096	0.173
-658.930	116.336	-0.196	-0.239
-657.916	-7.728	0.257	-0.174
-656.901	-131.956	0.331	-0.043
-655.886	-8.895	-0.184	0.123
-654.872	218.659	-0.264	0.421
-653.857	-40.953	-0.459	0.237
-652.843	-102.814	0.100	0.024
-651.828	620.538	0.085	-0.213
-650.814	800.000	-0.032	0.108
-649.799	113.134	0.369	-0.447
-648.784	-118.691	0.445	-0.078
-647.770	-63.952	-0.161	-0.066
-646.755	261.214	0.130	0.224
-645.741	184.636	0.148	0.219
-644.726	118.834	-0.192	0.237
-643.711	241.251	0.206	-0.343
-642.697	-200.000	0.083	-0.439
-641.682	-138.001	-0.164	-0.018
-640.668	-200.000	-0.012	-0.353
-639.653	24.943	0.195	-0.161
-638.638	248.276	0.148	-0.251
-637.624	155.872	-0.100	-0.138
-636.609	-200.000	0.005	-0.179
-635.595	-124.148	-0.251	-0.039
-634.580	162.673	-0.121	0.170
-633.565	356.649	-0.072	0.142
-632.551	276.653	-0.129	-0.229
-631.536	398.355	-0.099	-0.208
-630.522	-83.211	-0.256	-0.082
-629.507	-78.530	0.251	-0.086
-628.492	108.875	-0.231	0.276
-627.478	800.000	0.064	0.246
-626.463	163.154	-0.214	-0.300
-625.449	567.753	0.017	0.042
-624.434	-138.576	-0.295	0.032
-623.419	-37.469	-0.218	-0.116
-622.405	-0.250	-0.057	0.041
-621.390	-200.000	0.049	-0.318
-620.376	55.164	0.111	0.107
-619.361	18.425	0.402	-0.320
-618.346	-155.618	0.107	-0.007
-617.332	-15.875	0.368	-0.234
-616.317	91.225	-0.041	0.046
-615.303	33.430	-0.220	0.191
-614.288	-200.000	0.082	0.381
-613.273	64.014	0.094	-0.095
-612.259	-137.556	-0.101	-0.011
-611.244	-59.199	-0.341	-0.147
-610.230	-166.041	-0.364	-0.015
-609.215	-200.000	0.011	0.244
-608.201	800.000	-0.020	-0.070
-607.186	-55.350	-0.368	-0.165
-606.171	-200.000	0.016	0.353
-605.157	407.313	0.134	-0.282
-604.142	139.754	-0.039	0.051
-603.128	63.490	0.116	0.117
-602.113	33.725	-0.135	-0.117
-601.098	-200.000	-0.030	0.189
-600.084	-76.273	-0.148	-0.052
-599.069	-200.000	0.083	0.368
-598.055	175.945	-0.066	0.096
-597.040	-50.374	0.296	-0.139
-596.025	139.943	0.023	-0.030
-595.011	-200.000	0.025	0.341
-593.996	-99.131	-0.130	0.033
-592.982	-200.000	-0.001	-0.141
-591.967	-200.000	0.046	-0.221
-590.952	343.149	0.154	0.301
-589.938	23.239	0.182	-0.149
-588.923	-0.745	-0.156	0.110
-587.909	428.944	-0.091	-0.197
-586.894	79.988	-0.383	0.410
-585.879	-142.533	0.072	-0.007
-584.865	385.928	0.161	-0.330
-583.850	781.308	-0.077	0.210
-582.836	119.885	-0.225	0.278
-581.821	-106.335	-0.203	-0.045
-580.806	208.892	-0.156	-0.244
-579.792	44.779	-0.094	0.086
-578.777	230.571	-0.023	0.038
-577.763	575.094	-0.088	-0.214
-576.748	-22.387	-0.114	-0.069
-575.733	73.199	-0.047	0.048
-574.719	-92.893	-0.130	-0.036
-573.704	490.320	0.131	0.298
-572.690	72.584	-0.162	0.168
-571.675	-200.000	-0.024	0.106
-570.661	364.308	-0.033	0.065
-569.646	130.138	-0.044	0.056
-568.631	-83.867	-0.242	0.077
-567.617	-58.287	-0.282	-0.122
-566.602	190.678	0.103	0.154
-565.588	-200.000	-0.001	-0.224
-564.573	-165.551	-0.139	0.006
-563.558	60.850	0.159	0.157
-562.544	-87.796	-0.219	-0.066
-561.529	-82.483	0.255	-0.083
-560.515	-81.862	0.128	0.042
-559.500	-200.000	0.026	0.321
-558.485	-17.839	0.114	0.071
-557.471	800.000	0.044	0.163
-556.456	-108.956	-0.243	0.052
-555.442	-43.172	-0.197	0.099
-554.427	-86.132	0.089	-0.027
-553.412	612.055	0.105	-0.263
-552.398	800.000	0.044	0.183
-551.383	-141.239	0.070	0.007
-550.369	141.120	-0.073	-0.096
-549.354	88.293	0.201	0.221
-548.339	289.801	0.126	0.227
-547.325	-145.165	-0.057	-0.005
-546.310	-37.481	0.120	0.064
-545.296	447.810	-0.008	0.018
-544.281	14.109	0.222	-0.172
-543.266	56.667	0.180	-0.174
-542.252	-69.284	-0.372	0.142
-541.237	253.709	0.186	-0.316
-540.223	-12.040	-0.152	-0.099
-539.208	800.000	0.006	0.023
-538.193	-158.611	-0.081	-0.005
-537.179	-51.527	0.214	0.099
-536.164	800.000	0.104	0.296
-535.150	-200.000	0.005	-0.282
-534.135	30.120	0.199	0.169
-533.121	-200.000	0.023	0.175
-532.106	-44.942	0.210	-0.104
-531.091	142.313	-0.080	0.105
-530.077	579.809	0.020	0.050
-529.062	-200.000	-0.065	-0.396
-528.048	-110.912	-0.319	-0.065
-527.033	-73.936	0.291	0.105
-526.018	-90.992	0.224	0.064
-525.004	-87.933	-0.381	-0.114
-523.989	800.000	-0.100	-0.287
-522.975	-200.000	0.019	0.142
-521.960	-69.091	0.185	-0.071
-520.945	-200.000	0.008	0.094
-519.931	188.423	-0.059	0.087
-518.916	-143.095	-0.044	-0.004
-517.902	800.000	-0.043	-0.165
-516.887	-42.360	0.090	-0.045
-515.872	-28.745	-0.303	-0.173
-514.858	-15.060	-0.286	0.182
-513.843	-68.900	-0.251	0.096
-512.829	109.560	-0.104	-0.124
-511.814	8.169	-0.361	-0.269
-510.799	-62.231	0.254	-0.105
-509.785	800.000	-0.064	0.188
-508.770	-25.852	0.229	-0.134
-507.756	441.871	-0.048	0.105
-506.741	-150.303	0.293	-0.022
-505.726	593.010	0.096	0.236
-504.712	-145.907	0.218	-0.019
-503.697	440.396	-0.079	-0.172
-502.683	257.573	0.193	0.330
-501.668	-90.057	-0.525	0.152
-500.653	-200.000	0.022	-0.347
-499.639	45.081	0.359	-0.328
-498.624	-83.549	0.091	-0.029
-497.610	-17.356	0.039	-0.025
-496.595	185.467	-0.335	0.494
-495.581	-78.407	0.282	-0.096
-494.566	-200.000	-0.016	0.100
-493.551	70.061	0.153	0.156
-492.537	-56.417	0.114	-0.050
-491.522	67.995	-0.133	-0.135
-490.508	135.134	0.065	-0.084
-489.493	419.065	-0.103	0.219
-488.478	-152.251	0.094	-0.007
-487.464	-200.000	-0.018	0.210
-486.449	65.869	0.223	-0.224
-485.435	-21.873	-0.110	0.067
-484.420	-131.798	-0.328	-0.043
-483.405	-20.742	0.213	0.130
-482.391	-132.820	-0.331	-0.042
-481.376	-91.935	0.455	-0.128
-480.362	-96.895	-0.051	-0.013
-479.347	-200.000	0.033	0.382
-478.332	-187.703	0.346	-0.005
-477.318	-97.958	-0.178	0.045
-476.303	0.203	-0.087	-0.062
-475.289	-200.000	0.001	0.052
-474.274	-48.225	0.137	-0.065
-473.259	260.194	0.189	0.324
-472.245	-200.000	0.023	-0.177
-471.230	-180.057	0.129	-0.003
-470.216	-88.902	0.202	0.059
-469.201	-181.877	-0.301	-0.006
-468.186	127.846	-0.156	0.197
-467.172	221.180	-0.120	-0.191
-466.157	-100.989	-0.165	-0.040
-465.143	-156.197	-0.217	-0.014
-464.128	-49.112	0.214	0.101
-463.113	-73.799	0.340	-0.123
-462.099	-145.867	-0.262	0.023
-461.084	45.524	0.070	0.064
-460.070	-99.597	0.182	0.045
-459.055	602.651	0.101	0.248
-458.040	-53.133	-0.139	-0.063
-457.026	-154.352	0.206	0.014
-456.011	114.642	0.213	-0.257
-454.997	-82.038	0.008	0.002
-453.982	-200.000	0.005	0.060
-452.968	689.971	0.081	-0.209
-451.953	-111.150	0.098	-0.020
-450.938	232.793	0.017	0.028
-449.924	110.183	-0.144	-0.171
-448.909	89.178	0.192	0.212
-447.895	-200.000	-0.032	-0.456
-446.880	-40.521	0.037	-0.019
-445.865	11.853	0.186	-0.141
-444.851	-113.827	-0.254	0.049
-443.836	134.972	-0.028	0.037
-442.822	-90.411	0.173	-0.050
-441.807	166.512	0.141	0.199
-440.792	-200.000	-0.009	-0.351
-439.778	103.044	-0.337	-0.391
-438.763	108.366	0.093	0.110
-437.749	800.000	-0.012	0.042
-436.734	468.909	0.033	-0.074
-435.719	260.023	-0.102	0.175
-434.705	-200.000	0.009	0.270
-433.690	413.052	-0.154	-0.324
-432.676	89.046	0.086	0.094
-431.661	-200.000	-0.345	0.001
-430.646	10.703	-0.187	-0.142
-429.632	-200.000	0.042	0.265
-428.617	-6.223	0.133	0.090
-427.603	-90.833	-0.014	0.004
-426.588	800.000	0.100	-0.360
-425.573	-200.000	-0.020	0.121
-424.559	-200.000	0.062	0.435
-423.544	800.000	0.084	0.282
-422.530	-200.000	-0.021	0.141
-421.515	-42.266	-0.100	0.051
-420.500	31.177	0.216	-0.183
-419.486	457.678	-0.069	0.151
-418.471	261.727	-0.044	-0.075
-417.457	-147.778	-0.022	0.002
-416.442	800.000	0.017	0.065
-415.428	-87.825	-0.174	-0.052
-414.413	-6.784	-0.078	-0.053
-413.398	800.000	0.057	-0.218
-412.384	-96.278	0.191	-0.050
-411.369	-200.000	0.006	0.076
-410.355	170.841	-0.013	-0.019
-409.340	60.907	0.103	0.101
-408.325	-138.713	0.113	-0.012
-407.311	-120.647	0.204	-0.034
-406.296	27.286	-0.413	0.343
-405.282	-42.416	0.138	-0.070
-404.267	-97.169	-0.190	0.049
-403.252	-87.063	-0.178	0.054
-402.238	49.444	0.330	-0.307
-401.223	-114.261	0.291	0.056
-400.209	158.807	-0.150	-0.206
-399.194	-82.135	-0.220	0.071
-398.179	-154.229	0.224	0.015
-397.165	800.000	-0.085	-0.340
-396.150	-131.482	-0.371	0.048
-395.136	-82.060	0.163	0.053
-394.121	9.454	0.259	-0.194
-393.106	800.000	-0.038	0.115
-392.092	800.000	0.090	0.322
-391.077	-72.795	0.478	-0.174
-390.063	-41.275	0.187	-0.095
-389.048	614.132	0.139	-0.345
-388.033	229.821	-0.107	-0.172
-387.019	-127.185	0.227	-0.033
-386.004	242.839	-0.135	-0.224
-384.990	143.902	0.071	-0.093
-383.975	184.031	-0.091	-0.134
-382.960	353.812	-0.133	0.261
-381.946	800.000	-0.081	0.276
-380.931	-13.076	-0.453	-0.291
-379.917	156.742	0.059	-0.081
-378.902	-154.455	-0.131	0.009
-377.888	800.000	-0.075	-0.259
-376.873	-200.000	0.012	0.130
-375.858	800.000	0.135	0.375
-374.844	-128.235	0.188	-0.026
-373.829	173.722	-0.078	0.112
-372.815	-15.644	-0.160	-0.101
-371.800	-184.171	-0.232	0.004
-370.785	110.837	-0.176	0.209
-369.771	-200.000	0.019	0.129
-368.756	-200.000	0.004	0.096
-367.742	-160.841	0.167	0.009
-366.727	119.148	-0.039	-0.048
-365.712	-66.431	0.286	-0.112
-364.698	67.400	-0.018	0.018
-363.683	-118.372	0.207	0.036
-362.669	-90.883	-0.035	0.010
-361.654	-158.444	0.017	0.001
-360.639	3.792	0.175	-0.126
-359.625	263.007	-0.060	-0.103
-358.610	192.673	-0.032	-0.048
-357.596	-25.050	0.388	-0.227
-356.581	800.000	0.071	0.209
-355.566	-200.000	0.070	-0.379
-354.552	-34.450	-0.147	0.080
-353.537	-10.976	0.135	-0.088
-352.523	800.000	0.041	0.128
-351.508	278.418	-0.077	-0.135
-350.493	-35.640	0.171	-0.092
-349.479	304.166	-0.150	0.275
-348.464	179.648	-0.020	0.029
-347.450	56.461	-0.190	0.183
-346.435	693.629	0.136	0.353
-345.420	800.000	0.059	-0.201
-344.406	-65.941	0.055	-0.022
-343.391	-200.000	-0.015	0.097
-342.377	-200.000	-0.024	0.421
-341.362	137.990	0.166	0.215
-340.348	-158.594	-0.132	0.007
-339.333	-129.281	-0.270	-0.037
-338.318	-14.757	-0.086	-0.055
-337.304	39.241	0.079	-0.069
-336.289	-90.034	0.289	-0.083
-335.275	-200.000	-0.003	-0.232
-334.260	-25.758	0.447	-0.260
-333.245	-70.866	-0.202	-0.075
-332.231	519.701	-0.069	-0.160
-331.216	605.393	-0.129	0.316
-330.202	-135.738	0.121	-0.014
-329.187	64.371	0.085	0.085
-328.172	800.000	-0.079	0.245
-327.158	313.665	0.114	-0.212
-326.143	199.799	-0.130	-0.196
-325.129	800.000	-0.070	0.195
-324.114	-71.862	0.249	0.091
-323.099	14.894	-0.123	0.095
-322.085	283.112	-0.082	0.145
-321.070	-200.000	-0.055	0.398
-320.056	-101.819	-0.232	0.055
-319.041	180.992	-0.198	-0.287
-318.026	-155.759	0.217	-0.014
-317.012	371.094	0.070	0.140
-315.997	71.765	-0.198	0.203
-314.983	800.000	0.070	0.219
-313.968	-157.212	-0.309	0.018
-312.953	-62.240	-0.367	-0.151
-311.939	353.121	0.094	0.183
-310.924	338.971	-0.134	-0.258
-309.910	448.718	-0.102	0.220
-308.895	63.047	0.069	-0.068
-307.880	-35.735	0.112	-0.060
-306.866	-79.522	-0.156	0.052
-305.851	119.032	0.156	-0.190
-304.837	-95.080	0.111	-0.029
-303.822	-200.000	-0.043	0.314
-302.807	-73.361	0.305	0.110
-301.793	-94.498	-0.223	-0.060
-300.778	-107.872	0.295	-0.063
-299.764	-112.142	0.091	-0.018
-298.749	-123.016	-0.329	0.052
-297.735	732.955	-0.075	0.198
-296.720	-14.279	0.229	0.145
-295.705	-72.407	-0.552	0.201
-294.691	800.000	0.085	-0.312
-293.676	673.718	-0.031	-0.079
-292.662	-52.153	-0.362	0.165
-291.647	470.447	0.150	0.333
-290.632	-77.019	-0.155	-0.053
-289.618	63.020	-0.339	0.335
-288.603	-50.848	0.038	-0.017
-287.589	-82.117	0.180	-0.058
-286.574	-130.879	0.216	0.028
-285.559	-200.000	0.014	-0.260
-284.545	5.884	-0.069	0.051
-283.530	800.000	0.081	0.248
-282.516	246.655	0.059	-0.098
-281.501	-30.090	0.358	0.201
-280.486	512.237	0.032	0.074
-279.472	212.839	-0.136	-0.211
-278.457	-200.000	0.049	-0.236
-277.443	-98.800	-0.141	0.035
-276.428	-143.599	0.210	0.020
-275.413	-22.702	0.175	-0.104
-274.399	800.000	-0.017	-0.059
-273.384	104.065	-0.194	-0.225
-272.370	-12.314	-0.193	0.124
-271.355	17.123	-0.067	0.052
-270.340	-200.000	0.010	0.179
-269.326	-110.206	-0.227	0.047
-268.311	196.463	0.091	-0.136
-267.297	-200.000	-0.045	-0.215
-266.282	-200.000	-0.026	-0.437
-265.267	800.000	0.075	-0.316
-264.253	92.458	-0.364	0.403
-263.238	-200.000	-0.034	-0.217
-262.224	179.616	0.125	0.180
-261.209	-87.881	-0.167	-0.049
-260.195	-200.000	-0.020	-0.216
-259.180	22.215	0.307	-0.247
-258.165	75.659	0.209	-0.217
-257.151	187.089	-0.131	-0.192
-256.136	-174.544	-0.107	-0.003
-255.122	800.000	-0.079	0.270
-254.107	800.000	-0.039	-0.155
-253.092	72.483	-0.012	0.012
-252.078	259.666	0.110	-0.186
-251.063	-91.843	-0.242	0.068
-250.049	-85.061	0.145	-0.045
-249.034	-147.737	0.206	0.017
-248.019	800.000	0.074	0.248
-247.005	-49.630	0.137	-0.064
-245.990	179.920	0.104	0.149
-244.976	-40.664	0.238	0.121
-243.961	-38.006	-0.348	-0.181
-242.946	5.532	0.330	0.239
-241.932	-75.056	0.213	-0.075
-240.917	-200.000	0.034	-0.231
-239.903	800.000	0.067	0.188
-238.888	95.139	-0.099	-0.111
-237.873	546.531	0.031	0.072
-236.859	-134.669	0.148	0.018
-235.844	290.584	-0.172	0.306
-234.830	-67.149	-0.331	0.128
-233.815	-200.000	0.037	-0.370
-232.800	-200.000	-0.020	-0.185
-231.786	300.876	-0.083	-0.151
-230.771	800.000	0.071	0.220
-229.757	161.076	0.120	0.165
-228.742	56.529	-0.077	0.073
-227.727	-84.637	-0.350	-0.108
-226.713	-76.644	0.152	0.052
-225.698	-109.921	-0.324	-0.067
-224.684	-25.066	0.211	-0.123
-223.669	169.833	0.133	-0.186
-222.655	-200.000	0.061	0.272
-221.640	-153.015	0.156	0.011
-220.625	174.600	0.145	-0.206
-219.611	-84.255	-0.406	0.126
-218.596	209.321	-0.155	-0.238
-217.582	170.193	-0.086	-0.121
-216.567	-200.000	0.027	0.174
-215.552	-156.023	0.337	-0.021
-214.538	-37.814	-0.075	0.039
-213.523	-27.886	0.240	-0.137
-212.509	-114.125	-0.048	-0.009
-211.494	-8.833	0.230	0.152
-210.479	-153.081	-0.268	0.018
-209.465	-109.750	0.138	0.029
-208.450	-200.000	-0.026	0.240
-207.436	-58.125	0.182	-0.078
-206.421	403.290	0.050	0.102
-205.406	-124.432	-0.260	0.040
-204.392	183.745	0.187	0.271
-203.377	-56.298	-0.258	-0.112
-202.363	59.877	0.139	-0.134
-201.348	-137.874	0.102	0.011
-200.333	-101.941	0.249	-0.059
-199.319	-155.288	-0.422	0.027
-198.304	394.359	-0.024	-0.050
-197.290	-42.784	-0.130	0.065
-196.275	800.000	-0.051	-0.159
-195.260	579.470	0.126	0.302
-194.246	-159.475	-0.248	0.014
-193.231	12.345	0.109	0.082
-192.217	318.985	0.199	0.371
-191.202	-131.884	-0.330	-0.042
-190.187	583.531	-0.071	0.171
-189.173	-104.770	0.263	0.059
-188.158	-119.334	0.055	0.009
-187.144	-200.000	-0.055	0.272
-186.129	-200.000	-0.053	0.271
-185.114	774.041	0.058	0.156
-184.100	89.881	-0.173	-0.189
-183.085	-7.798	0.165	0.109
-182.071	-119.645	0.228	-0.039
-181.056	77.207	0.308	-0.321
-180.042	-178.807	-0.143	0.003
-179.027	-200.000	-0.039	0.205
-178.012	632.442	-0.104	-0.258
-176.998	222.231	-0.099	-0.155
-175.983	-200.000	-0.006	0.115
-174.969	39.552	-0.105	0.092
-173.954	-74.197	0.093	0.033
-172.939	-136.153	0.374	0.043
-171.925	800.000	0.079	-0.273
-170.910	800.000	-0.014	0.048
-169.896	-11.048	-0.407	0.263
-168.881	44.048	-0.154	-0.138
-167.866	-200.000	-0.008	-0.074
-166.852	-41.942	-0.100	0.050
-165.837	-137.325	0.387	-0.043
-164.823	6.624	0.274	0.200
-163.808	-106.823	-0.132	0.029
-162.793	150.864	0.154	-0.205
-161.779	-200.000	-0.020	-0.184
-160.764	279.948	-0.087	-0.151
-159.750	800.000	0.077	-0.223
-158.735	-200.000	-0.017	-0.108
-157.720	-42.310	0.203	-0.102
-156.706	-150.143	-0.072	0.005
-155.691	24.823	0.152	0.123
-154.677	-136.230	0.067	-0.008
-153.662	-51.071	-0.168	-0.077
-152.647	-20.990	-0.343	-0.206
-151.633	86.810	0.066	0.071
-150.618	-200.000	0.028	-0.195
-149.604	-41.049	-0.283	0.143
-148.589	-130.454	-0.258	0.034
-147.574	389.306	-0.084	-0.170
-146.560	-53.706	0.250	0.112
-145.545	-200.000	0.014	0.077
-144.531	62.054	0.201	-0.196
-143.516	-135.456	-0.208	0.024
-142.502	-87.713	0.453	-0.134
-141.487	145.186	-0.176	-0.231
-140.472	-85.757	0.244	0.074
-139.458	313.538	-0.083	0.152
-138.443	342.555	0.116	-0.221
-137.429	-200.000	0.009	-0.208
-136.414	-200.000	0.044	0.276
-135.399	-140.404	-0.036	0.004
-134.385	2.409	0.166	0.118
-133.370	-92.050	0.323	-0.089
-132.356	-200.000	0.005	0.616
-131.341	96.239	0.229	-0.257
-130.326	800.000	-0.081	0.296
-129.312	60.001	-0.112	0.108
-128.297	398.466	-0.230	-0.471
-127.283	-170.752	-0.192	0.006
-126.268	525.630	-0.029	0.067
-125.253	-67.933	0.166	0.063
-124.239	387.566	0.018	0.036
-123.224	-23.346	-0.113	-0.067
-122.210	-33.229	0.303	0.164
