DTS Sentinel unit serial number:	SN413079Multiplexer serial number:	ORYXHardware model number:	OX4-SRSoftware version number:	ORYX F/W v4.00 Oryx Data Collector v3.7.2.0data status	okinstallation	princeton_trtdifferential loss correction	single-endedforward channel	channel 3reverse channel	N/Adate	2019/09/17time	14:32:35forward acquisition time	60.00reverse acquisition time	0.00gamma	496.2192k internal	0.2298k external	0.2298temperature offset calibration	0.9956default loss term (dB/km)	0.3790temperature slope calibration	1.0000multiplexer offset coefficient	1.0000multiplexer slope coefficient	1.0000fibre end	0.00T internal ref (°C)	36.53T ext. ref 1 (°C)	0.40T ext. ref 2 (°C)	33.61length (m)	temperature (°C)	Stokes	anti-Stokes-747.200	83.979	0.156	-0.174
-746.185	202.104	0.223	0.352
-745.171	362.732	-0.109	0.223
-744.156	800.000	0.063	0.237
-743.142	-4.765	0.278	0.196
-742.127	-88.702	0.057	-0.017
-741.112	-200.000	-0.079	-0.424
-740.098	130.678	0.240	0.314
-739.083	552.080	0.107	0.262
-738.069	15.303	-0.208	0.167
-737.054	-29.601	0.230	0.134
-736.039	-135.400	-0.083	-0.010
-735.025	-109.143	0.365	0.079
-734.010	-14.651	0.161	-0.106
-732.996	-91.467	0.222	-0.065
-731.981	4.633	0.363	0.272
-730.966	220.414	-0.032	-0.053
-729.952	-137.502	-0.257	-0.030
-728.937	72.487	-0.071	-0.075
-727.923	129.319	0.325	-0.424
-726.908	800.000	-0.083	0.236
-725.894	-113.776	-0.314	0.062
-724.879	-134.151	0.221	-0.028
-723.864	-200.000	-0.020	-0.295
-722.850	-200.000	0.030	0.162
-721.835	-16.386	-0.265	-0.171
-720.821	-8.631	-0.022	0.015
-719.806	-200.000	0.006	-0.127
-718.791	-112.722	0.293	-0.059
-717.777	202.752	-0.060	0.094
-716.762	791.835	0.131	-0.369
-715.748	38.762	-0.197	0.179
-714.733	49.206	0.275	-0.264
-713.718	42.654	-0.224	-0.208
-712.704	800.000	0.006	-0.020
-711.689	-155.237	-0.368	0.024
-710.675	707.659	0.123	-0.332
-709.660	-26.995	0.138	-0.082
-708.645	-98.495	-0.240	-0.063
-707.631	84.254	0.094	-0.104
-706.616	-200.000	-0.009	-0.053
-705.602	164.377	0.058	0.084
-704.587	75.113	-0.190	0.204
-703.572	-101.783	0.135	0.033
-702.558	800.000	-0.091	0.272
-701.543	-13.860	-0.133	-0.088
-700.529	-200.000	-0.039	-0.250
-699.514	-200.000	-0.009	0.190
-698.499	64.468	0.282	-0.289
-697.485	-200.000	0.017	-0.260
-696.470	273.086	0.123	-0.221
-695.456	-200.000	-0.012	-0.068
-694.441	-155.388	-0.236	0.016
-693.426	-144.346	0.268	-0.025
-692.412	48.144	-0.215	-0.205
-691.397	170.719	0.104	0.151
-690.383	800.000	-0.058	-0.246
-689.368	800.000	-0.178	0.506
-688.354	117.612	0.352	-0.441
-687.339	-66.229	0.404	0.164
-686.324	-200.000	0.032	-0.164
-685.310	584.774	0.031	-0.077
-684.295	-200.000	-0.029	0.280
-683.281	800.000	-0.088	-0.286
-682.266	172.058	0.250	0.366
-681.251	105.043	-0.134	0.161
-680.237	800.000	-0.037	-0.150
-679.222	417.529	0.124	-0.271
-678.208	-200.000	0.031	0.165
-677.193	-35.769	-0.246	0.135
-676.178	-90.315	0.078	-0.023
-675.164	-149.286	-0.080	0.006
-674.149	800.000	0.019	0.062
-673.135	-131.891	-0.206	0.027
-672.120	-91.224	-0.099	0.029
-671.105	-122.272	0.179	0.030
-670.091	-200.000	0.118	-0.534
-669.076	-34.987	0.159	-0.088
-668.062	-133.815	-0.336	0.043
-667.047	-22.765	0.213	-0.131
-666.032	800.000	0.107	0.421
-665.018	-102.946	0.287	-0.069
-664.003	318.720	0.127	-0.244
-662.989	-93.035	-0.201	-0.057
-661.974	-122.799	0.273	0.045
-660.959	-187.976	0.128	-0.002
-659.945	421.115	-0.130	-0.283
-658.930	800.000	-0.020	-0.070
-657.916	215.413	0.219	0.353
-656.901	-200.000	0.047	-0.311
-655.886	-200.000	0.029	-0.185
-654.872	-200.000	0.031	-0.260
-653.857	800.000	-0.088	0.249
-652.843	364.150	-0.037	0.075
-651.828	339.904	0.104	-0.206
-650.814	-44.732	-0.205	-0.104
-649.799	88.302	-0.161	0.182
-648.784	96.351	0.130	-0.151
-647.770	336.892	0.107	0.212
-646.755	-200.000	-0.023	-0.326
-645.741	-200.000	0.048	0.282
-644.726	83.770	0.129	-0.143
-643.711	81.286	0.114	0.125
-642.697	-42.666	-0.143	0.074
-641.682	-200.000	-0.004	0.059
-640.668	-41.215	0.027	0.014
-639.653	-64.186	0.256	0.106
-638.638	254.712	0.066	-0.115
-637.624	-56.689	-0.318	-0.143
-636.609	181.679	0.098	-0.147
-635.595	-146.990	-0.381	0.033
-634.580	-165.150	-0.154	0.007
-633.565	-200.000	-0.034	-0.170
-632.551	-159.791	0.242	-0.014
-631.536	-200.000	0.023	0.251
-630.522	800.000	-0.057	-0.220
-629.507	137.165	0.207	0.275
-628.492	108.664	-0.150	0.182
-627.478	52.113	0.162	0.156
-626.463	618.903	0.049	0.125
-625.449	63.243	-0.146	0.149
-624.434	-52.953	-0.067	0.031
-623.419	-69.022	0.124	0.049
-622.405	-110.756	-0.142	-0.030
-621.390	800.000	0.047	0.186
-620.376	231.667	-0.111	-0.186
-619.361	-153.166	0.209	-0.015
-618.346	32.677	0.127	-0.112
-617.332	-82.705	-0.121	-0.040
-616.317	-200.000	-0.021	-0.212
-615.303	99.899	-0.066	0.077
-614.288	-142.574	0.187	-0.019
-613.273	5.369	-0.072	-0.054
-612.259	107.156	-0.136	-0.164
-611.244	-60.615	0.250	0.108
-610.230	-89.044	0.055	0.016
-609.215	-56.175	-0.182	0.082
-608.201	800.000	0.124	0.477
-607.186	-70.377	-0.064	0.025
-606.171	-159.735	0.087	0.005
-605.157	702.258	0.021	-0.056
-604.142	-81.606	-0.102	-0.034
-603.128	-49.151	0.125	0.061
-602.113	800.000	-0.023	0.080
-601.098	-200.000	-0.013	0.152
-600.084	-47.179	0.086	0.043
-599.069	-200.000	-0.016	0.119
-598.055	9.918	-0.312	0.241
-597.040	161.966	0.090	-0.129
-596.025	800.000	-0.031	0.091
-595.011	-33.984	-0.176	0.099
-593.996	-200.000	0.033	-0.174
-592.982	24.716	-0.217	0.182
-591.967	37.775	-0.208	0.187
-590.952	47.452	0.078	0.074
-589.938	-200.000	0.012	0.253
-588.923	-15.665	-0.185	0.119
-587.909	56.124	0.079	-0.078
-586.894	-55.902	-0.224	0.101
-585.879	-6.295	0.276	-0.191
-584.865	349.648	0.025	-0.051
-583.850	-200.000	-0.038	0.298
-582.836	-200.000	-0.034	-0.335
-581.821	-28.556	-0.371	-0.217
-580.806	-38.326	0.145	0.078
-579.792	73.569	-0.074	0.078
-578.777	18.931	-0.246	0.200
-577.763	-58.263	0.139	0.062
-576.748	-133.978	0.524	-0.066
-575.733	265.869	-0.114	-0.202
-574.719	-34.834	-0.366	-0.203
-573.704	-31.687	-0.264	0.150
-572.690	5.586	0.214	0.160
-571.675	-144.063	-0.371	-0.035
-570.661	307.373	0.097	0.182
-569.646	367.892	0.162	0.333
-568.631	-200.000	0.068	0.487
-567.617	146.383	0.208	0.283
-566.602	269.930	0.169	-0.302
-565.588	-27.314	-0.209	0.123
-564.573	-4.069	-0.141	-0.099
-563.558	-200.000	-0.004	-0.048
-562.544	224.078	0.236	-0.386
-561.529	800.000	0.098	0.280
-560.515	92.046	0.075	-0.085
-559.500	-200.000	0.041	0.348
-558.485	-172.662	0.396	0.013
-557.471	-200.000	-0.007	-0.148
-556.456	645.058	-0.062	-0.162
-555.442	136.992	0.109	-0.144
-554.427	154.564	-0.163	-0.227
-553.412	-28.274	-0.057	-0.033
-552.398	-148.662	-0.192	0.016
-551.383	800.000	0.125	0.411
-550.369	-200.000	-0.030	-0.222
-549.354	-140.216	-0.143	-0.015
-548.339	169.707	0.097	-0.140
-547.325	207.466	-0.092	0.146
-546.310	-70.558	-0.107	0.041
-545.296	527.658	-0.166	-0.396
-544.281	-55.690	0.316	-0.143
-543.266	449.591	-0.104	0.233
-542.252	-41.980	-0.198	0.103
-541.237	-61.250	0.151	0.064
-540.223	4.492	0.261	-0.194
-539.208	159.376	0.081	0.114
-538.193	312.709	0.104	-0.197
-537.179	508.491	0.067	0.158
-536.164	67.668	-0.164	0.170
-535.150	26.353	-0.184	-0.155
-534.135	222.429	-0.163	-0.266
-533.121	68.939	0.230	-0.240
-532.106	585.906	-0.137	-0.340
-531.091	191.491	0.259	-0.395
-530.077	800.000	-0.058	0.238
-529.062	-130.485	0.085	-0.012
-528.048	-200.000	-0.003	0.156
-527.033	171.812	0.036	-0.052
-526.018	-140.302	-0.179	0.019
-525.004	555.055	0.062	0.150
-523.989	119.617	0.166	0.208
-522.975	-19.415	-0.087	0.055
-521.960	136.391	-0.069	0.091
-520.945	-92.473	0.119	0.034
-519.931	-69.525	-0.205	0.079
-518.916	-100.660	0.222	-0.055
-517.902	-168.880	-0.094	-0.004
-516.887	-200.000	0.025	0.207
-515.872	101.646	-0.213	0.252
-514.858	238.109	-0.061	-0.102
-513.843	800.000	0.026	-0.091
-512.829	-32.949	0.308	-0.173
-511.814	0.597	-0.350	-0.253
-510.799	36.551	-0.187	0.167
-509.785	347.729	0.071	-0.141
-508.770	-140.985	0.518	-0.054
-507.756	-200.000	0.013	0.206
-506.741	-46.390	-0.147	0.073
-505.726	-100.146	0.177	0.045
-504.712	-40.670	-0.245	-0.128
-503.697	29.271	0.148	-0.127
-502.683	-121.139	0.181	0.031
-501.668	312.869	-0.026	-0.049
-500.653	-80.870	0.363	0.122
-499.639	800.000	0.062	0.204
-498.624	-79.827	0.114	-0.039
-497.610	32.805	-0.157	-0.138
-496.595	-110.627	-0.155	0.032
-495.581	71.237	-0.170	-0.178
-494.566	800.000	-0.028	-0.098
-493.551	-104.643	0.143	-0.033
-492.537	99.703	0.153	-0.180
-491.522	79.410	0.124	-0.134
-490.508	-183.512	0.184	0.003
-489.493	79.145	0.203	-0.219
-488.478	228.774	-0.069	-0.113
-487.464	-135.368	0.244	-0.029
-486.449	-158.595	-0.190	0.011
-485.435	52.931	0.085	-0.082
-484.420	99.814	-0.101	-0.118
-483.405	-63.202	0.152	0.063
-482.391	-200.000	0.012	0.222
-481.376	-43.747	0.194	0.099
-480.362	148.451	-0.093	0.127
-479.347	-138.681	0.021	0.002
-478.332	-75.121	-0.087	0.032
-477.318	800.000	0.020	-0.071
-476.303	-200.000	-0.019	0.164
-475.289	398.813	0.131	-0.278
-474.274	-48.797	0.169	0.082
-473.259	-37.128	0.200	0.108
-472.245	537.197	-0.038	-0.091
-471.230	-114.749	-0.242	0.047
-470.216	579.320	0.060	0.148
-469.201	85.508	-0.196	-0.218
-468.186	-57.967	0.407	-0.179
-467.172	-22.800	0.318	-0.194
-466.157	6.241	-0.143	-0.107
-465.143	-155.869	-0.296	-0.019
-464.128	-200.000	-0.053	0.332
-463.113	-200.000	0.014	0.228
-462.099	-136.109	0.067	0.008
-461.084	-178.267	-0.193	0.005
-460.070	-30.986	0.214	-0.122
-459.055	-178.952	-0.455	0.010
-458.040	13.328	-0.093	-0.073
-457.026	-43.791	-0.104	-0.053
-456.011	800.000	-0.074	-0.207
-454.997	214.805	0.097	-0.154
-453.982	36.360	0.085	-0.076
-452.968	24.578	-0.307	0.257
-451.953	479.345	-0.052	-0.118
-450.938	84.715	-0.194	-0.215
-449.924	6.824	-0.201	-0.151
-448.909	66.528	-0.117	-0.120
-447.895	500.360	0.126	-0.294
-446.880	-64.713	-0.208	-0.085
-445.865	66.793	0.084	0.087
-444.851	-162.311	-0.085	0.004
-443.836	-25.165	-0.295	-0.176
-442.822	-57.545	0.090	0.040
-441.807	800.000	-0.044	0.141
-440.792	-81.994	0.064	0.021
-439.778	-11.607	0.086	-0.057
-438.763	800.000	-0.041	0.135
-437.749	-77.764	-0.208	0.072
-436.734	-14.714	-0.297	-0.192
-435.719	-30.630	-0.500	-0.286
-434.705	68.057	-0.132	-0.136
-433.690	-200.000	-0.020	0.297
-432.676	-18.545	-0.180	-0.113
-431.661	67.171	0.092	0.094
-430.646	381.206	0.082	-0.170
-429.632	-91.084	0.347	0.100
-428.617	-6.329	-0.035	-0.024
-427.603	-200.000	-0.118	-0.580
-426.588	52.720	-0.104	-0.100
-425.573	-119.182	-0.359	0.063
-424.559	43.274	0.294	0.271
-423.544	-106.970	0.343	0.077
-422.530	-200.000	0.045	-0.250
-421.515	282.098	-0.247	-0.446
-420.500	-200.000	0.018	0.133
-419.486	-3.956	-0.236	-0.165
-418.471	166.460	0.147	0.210
-417.457	55.234	-0.221	0.215
-416.442	53.940	0.133	-0.129
-415.428	-200.000	0.028	0.415
-414.413	203.334	0.096	-0.150
-413.398	-89.814	0.095	-0.028
-412.384	800.000	0.008	0.025
-411.369	-200.000	0.008	-0.130
-410.355	800.000	-0.072	-0.216
-409.340	-75.565	-0.046	0.017
-408.325	-200.000	-0.005	0.098
-407.311	404.777	0.022	0.046
-406.296	-113.493	0.293	0.058
-405.282	-23.946	0.212	-0.128
-404.267	285.842	0.129	-0.234
-403.252	195.849	-0.138	-0.211
-402.238	-182.371	-0.206	0.004
-401.223	24.273	0.114	0.095
-400.209	-200.000	-0.027	0.162
-399.194	-12.084	-0.252	-0.166
-398.179	60.487	0.128	0.127
-397.165	800.000	0.054	0.197
-396.150	-48.685	0.372	0.180
-395.136	800.000	-0.054	-0.216
-394.121	-200.000	-0.040	-0.184
-393.106	-62.292	-0.096	-0.040
-392.092	77.581	-0.100	-0.107
-391.077	540.062	-0.121	-0.290
-390.063	-94.873	0.090	-0.025
-389.048	134.171	0.066	-0.086
-388.033	-122.175	-0.256	0.042
-387.019	-92.296	0.439	0.125
-386.004	281.773	-0.126	-0.227
-384.990	-200.000	0.030	0.248
-383.975	800.000	0.081	-0.324
-382.960	33.243	-0.178	-0.156
-381.946	800.000	-0.152	0.431
-380.931	-200.000	-0.022	0.222
-379.917	-109.047	0.250	0.054
-378.902	-200.000	-0.024	0.377
-377.888	774.843	-0.147	-0.403
-376.873	-77.308	0.367	-0.128
-375.858	36.015	0.023	-0.021
-374.844	-57.582	-0.119	-0.052
-373.829	800.000	-0.066	-0.211
-372.815	-143.178	0.184	-0.018
-371.800	-57.772	0.084	0.037
-370.785	-200.000	-0.025	0.180
-369.771	-200.000	0.025	0.113
-368.756	249.771	-0.107	-0.182
-367.742	-200.000	0.007	-0.057
-366.727	89.818	0.196	0.220
-365.712	-82.898	-0.224	0.073
-364.698	57.499	0.187	-0.184
-363.683	1.504	-0.289	0.209
-362.669	-49.594	0.140	0.067
-361.654	127.494	0.102	-0.131
-360.639	-85.819	-0.401	0.125
-359.625	-48.611	0.102	-0.049
-358.610	-200.000	-0.036	0.383
-357.596	127.775	-0.182	-0.233
-356.581	-57.235	-0.089	-0.039
-355.566	357.381	0.064	0.128
-354.552	-177.901	-0.220	0.005
-353.537	376.265	-0.067	0.138
-352.523	800.000	-0.059	0.180
-351.508	109.199	-0.165	0.199
-350.493	-17.699	-0.180	-0.113
-349.479	-116.633	-0.025	0.005
-348.464	-161.009	0.159	-0.008
-347.450	-68.974	-0.132	0.051
-346.435	800.000	0.033	-0.131
-345.420	-8.238	-0.125	0.085
-344.406	30.863	0.314	-0.270
-343.391	-200.000	-0.025	0.178
-342.377	800.000	0.099	-0.388
-341.362	-96.218	0.164	0.044
-340.348	414.126	-0.115	0.246
-339.333	23.794	0.295	-0.244
-338.318	-200.000	-0.023	-0.314
-337.304	102.526	-0.077	0.091
-336.289	697.348	0.129	0.340
-335.275	-200.000	-0.026	-0.180
-334.260	-82.798	-0.170	-0.055
-333.245	-64.827	-0.305	-0.124
-332.231	419.273	-0.128	-0.275
-331.216	26.122	0.159	-0.133
-330.202	101.515	0.130	-0.152
-329.187	572.741	-0.118	-0.290
-328.172	115.611	-0.129	0.158
-327.158	-102.557	0.275	0.066
-326.143	-200.000	0.005	0.042
-325.129	-86.947	0.528	0.162
-324.114	-200.000	0.041	0.214
-323.099	-26.227	0.433	0.255
-322.085	11.807	0.199	-0.154
-321.070	-125.553	-0.131	-0.020
-320.056	-82.532	0.210	0.068
-319.041	-21.295	-0.259	0.159
-318.026	-148.190	0.257	-0.021
-317.012	-163.154	-0.190	0.009
-315.997	-200.000	-0.064	0.358
-314.983	349.973	-0.060	0.119
-313.968	-23.470	0.105	-0.063
-312.953	-172.490	0.248	-0.008
-311.939	50.941	-0.198	0.188
-310.924	34.004	-0.301	0.263
-309.910	-34.421	0.237	0.130
-308.895	-83.798	0.265	-0.085
-307.880	365.428	-0.112	0.227
-306.866	86.154	-0.280	0.310
-305.851	22.523	-0.203	0.167
-304.837	213.739	-0.129	0.204
-303.822	285.962	-0.082	0.148
-302.807	31.741	-0.384	-0.332
-301.793	72.620	0.154	0.161
-300.778	-109.761	-0.146	0.031
-299.764	-25.526	0.234	0.139
-298.749	-173.036	0.130	-0.004
-297.735	-72.793	-0.051	0.019
-296.720	340.025	-0.098	0.192
-295.705	-200.000	0.020	-0.297
-294.691	-200.000	-0.009	0.123
-293.676	-82.271	0.373	-0.122
-292.662	-105.904	0.545	-0.123
-291.647	-200.000	-0.004	-0.060
-290.632	-42.634	-0.103	-0.053
-289.618	800.000	0.140	-0.449
-288.603	24.091	-0.149	-0.124
-287.589	26.674	0.057	0.048
-286.574	59.027	0.320	0.316
-285.559	-52.749	-0.157	0.072
-284.545	800.000	0.057	0.248
-283.530	-200.000	0.017	-0.264
-282.516	-62.000	-0.191	-0.080
-281.501	434.964	-0.079	0.172
-280.486	-40.517	-0.071	-0.037
-279.472	201.891	-0.081	-0.126
-278.457	191.519	-0.085	-0.129
-277.443	-11.905	-0.102	-0.067
-276.428	275.912	-0.107	0.191
-275.413	-86.048	-0.160	-0.049
-274.399	765.129	-0.059	-0.162
-273.384	-70.482	0.180	-0.068
-272.370	638.079	0.074	-0.188
-271.355	800.000	-0.070	-0.275
-270.340	167.997	0.112	-0.160
-269.326	-200.000	0.049	-0.227
-268.311	-200.000	0.023	-0.125
-267.297	185.039	-0.227	0.338
-266.282	33.845	0.308	0.268
-265.267	-200.000	0.012	0.059
-264.253	-108.285	0.060	0.013
-263.238	-182.939	-0.237	0.004
-262.224	-82.103	0.235	0.077
-261.209	-50.847	-0.273	-0.129
-260.195	-200.000	0.027	-0.194
-259.180	-200.000	0.011	0.135
-258.165	800.000	0.108	-0.376
-257.151	60.343	0.232	-0.230
-256.136	289.594	0.147	0.268
-255.122	239.059	0.026	0.044
-254.107	-93.834	-0.217	-0.060
-253.092	12.241	-0.066	0.051
-252.078	-42.101	0.208	0.107
-251.063	-57.431	-0.199	0.087
-250.049	-200.000	0.076	-0.516
-249.034	35.200	-0.044	-0.039
-248.019	-57.467	0.339	0.149
-247.005	-117.260	-0.178	-0.032
-245.990	205.683	0.223	-0.347
-244.976	-200.000	-0.017	-0.101
-243.961	-128.873	0.250	-0.035
-242.946	165.404	0.165	-0.233
-241.932	-157.014	0.041	0.002
-240.917	85.770	0.139	-0.153
-239.903	800.000	0.011	-0.041
-238.888	800.000	-0.018	-0.056
-237.873	517.734	0.077	0.181
-236.859	39.664	-0.074	0.066
-235.844	415.010	-0.093	-0.198
-234.830	800.000	-0.179	-0.518
-233.815	-48.303	-0.085	0.041
-232.800	-116.811	0.119	-0.022
-231.786	-83.447	0.115	-0.037
-230.771	5.522	0.273	0.201
-229.757	-87.997	-0.343	-0.103
-228.742	392.816	-0.043	0.089
-227.727	-72.455	0.083	0.031
-226.713	-103.974	-0.096	-0.022
-225.698	-84.256	0.336	-0.106
-224.684	31.985	0.280	0.242
-223.669	800.000	0.038	-0.125
-222.655	-1.517	0.043	-0.030
-221.640	-200.000	-0.022	0.144
-220.625	-26.762	-0.160	0.093
-219.611	-25.856	-0.260	-0.153
-218.596	-89.854	-0.259	0.076
-217.582	320.326	0.127	-0.241
-216.567	-56.928	-0.223	0.098
-215.552	-200.000	-0.045	-0.245
-214.538	796.038	-0.111	-0.306
-213.523	17.320	0.287	-0.228
-212.509	312.184	-0.155	0.290
-211.494	800.000	-0.117	-0.391
-210.479	130.751	0.170	0.217
-209.465	-149.695	0.075	0.006
-208.450	20.071	-0.131	-0.106
-207.436	-200.000	-0.031	0.164
-206.421	190.007	0.149	0.223
-205.406	-152.609	-0.253	0.018
-204.392	98.716	0.214	-0.247
-203.377	112.258	0.199	0.241
-202.363	-109.945	0.073	0.015
-201.348	-114.799	-0.182	-0.035
-200.333	-78.179	0.400	-0.137
-199.319	-200.000	-0.002	0.023
-198.304	-188.163	-0.167	-0.002
-197.290	-200.000	0.010	0.048
-196.275	800.000	0.036	0.150
-195.260	333.890	0.005	-0.010
-194.246	-37.317	0.067	-0.036
-193.231	-200.000	0.043	-0.193
-192.217	-69.321	0.176	-0.067
-191.202	-200.000	0.043	0.259
-190.187	16.875	-0.137	-0.108
-189.173	-181.691	-0.148	-0.003
-188.158	-43.684	-0.164	0.082
-187.144	57.913	-0.424	0.414
-186.129	800.000	-0.033	-0.121
-185.114	17.344	-0.317	0.251
-184.100	-200.000	-0.013	0.061
-183.085	800.000	-0.036	0.156
-182.071	-63.882	0.149	0.061
-181.056	415.544	0.027	0.057
-180.042	87.203	-0.237	-0.261
-179.027	-32.816	0.140	0.077
-178.012	-63.664	-0.293	-0.120
-176.998	-36.525	-0.233	0.125
-175.983	-167.386	-0.143	0.006
-174.969	-200.000	-0.015	-0.177
-173.954	-63.724	0.308	0.126
-172.939	111.235	0.265	0.318
-171.925	-200.000	-0.038	-0.329
-170.910	724.920	0.035	-0.094
-169.896	-200.000	-0.022	0.119
-168.881	23.705	0.200	0.165
-167.866	4.899	0.201	0.147
-166.852	-102.125	0.301	0.072
-165.837	-200.000	-0.022	0.245
-164.823	16.622	0.345	0.272
-163.808	241.824	0.047	-0.078
-162.793	-100.401	-0.319	0.079
-161.779	-55.639	-0.349	0.156
-160.764	-80.757	-0.089	0.030
-159.750	624.813	-0.133	0.333
-158.735	-196.690	-0.205	-0.001
-157.720	559.511	-0.109	0.263
-156.706	109.058	0.037	0.045
-155.691	-150.464	0.120	0.009
-154.677	-200.000	0.018	-0.271
-153.662	249.937	0.056	0.095
-152.647	249.590	-0.153	0.259
-151.633	-103.772	0.208	0.048
-150.618	182.039	-0.189	-0.278
-149.604	-95.671	0.188	-0.050
-148.589	-68.200	-0.139	-0.054
-147.574	219.047	0.171	0.273
-146.560	-181.360	-0.266	-0.005
-145.545	-43.138	0.034	-0.017
-144.531	23.420	0.045	-0.037
-143.516	800.000	0.039	-0.124
-142.502	800.000	-0.093	0.267
-141.487	616.104	0.015	-0.037
-140.472	-87.156	-0.086	0.026
-139.458	-38.073	0.123	-0.065
-138.443	290.254	-0.100	-0.182
-137.429	-111.661	-0.095	-0.019
-136.414	85.919	0.072	-0.079
-135.399	25.372	-0.152	0.126
-134.385	84.462	0.027	0.030
-133.370	396.516	0.049	-0.101
-132.356	-200.000	0.001	-0.218
-131.341	389.205	0.274	-0.565
-130.326	-200.000	0.000	0.570
-129.312	117.252	0.245	-0.300
-128.297	-200.000	-0.001	0.070
-127.283	169.421	0.113	0.161
-126.268	170.562	-0.203	-0.290
-125.253	-200.000	-0.039	-0.277
-124.239	157.836	-0.145	-0.200
-123.224	800.000	-0.076	-0.216
-122.210	489.433	0.058	-0.131
-121.195	114.274	0.184	0.223
