DTS Sentinel unit serial number:	SN413079Multiplexer serial number:	ORYXHardware model number:	OX4-SRSoftware version number:	ORYX F/W v4.00 Oryx Data Collector v3.7.2.0data status	okinstallation	princeton_trtdifferential loss correction	single-endedforward channel	channel 3reverse channel	N/Adate	2019/09/12time	09:18:10forward acquisition time	60.00reverse acquisition time	0.00gamma	496.2192k internal	0.2303k external	0.2303temperature offset calibration	1.0037default loss term (dB/km)	0.3790temperature slope calibration	1.0000multiplexer offset coefficient	1.0000multiplexer slope coefficient	1.0000fibre end	0.00T internal ref (°C)	34.92T ext. ref 1 (°C)	1.79T ext. ref 2 (°C)	33.38length (m)	temperature (°C)	Stokes	anti-Stokes-747.200	-200.000	0.389	0.000
-746.185	700.031	-0.232	0.621
-745.171	-147.824	-0.240	0.020
-744.156	24.564	-0.121	0.102
-743.142	167.448	0.140	-0.203
-742.127	800.000	0.091	0.269
-741.112	8.450	-0.267	0.204
-740.098	232.742	-0.084	0.140
-739.083	-47.520	0.346	0.171
-738.069	-92.723	-0.371	0.106
-737.054	776.434	0.117	-0.326
-736.039	-187.766	-0.324	0.004
-735.025	-200.000	0.019	0.384
-734.010	582.044	-0.100	-0.250
-732.996	306.824	-0.112	-0.213
-731.981	-136.987	0.266	0.031
-730.966	-55.561	0.222	-0.101
-729.952	-51.355	0.377	-0.180
-728.937	49.467	-0.027	0.026
-727.923	270.232	0.112	0.201
-726.908	113.125	-0.129	0.159
-725.894	-20.107	-0.152	-0.095
-724.879	-200.000	-0.046	-0.215
-723.864	800.000	-0.033	0.141
-722.850	33.524	0.043	0.038
-721.835	-200.000	0.001	0.389
-720.821	358.315	-0.095	0.193
-719.806	-121.460	0.173	-0.029
-718.791	-127.209	-0.078	0.012
-717.777	-200.000	-0.313	0.001
-716.762	-74.211	0.354	-0.130
-715.748	800.000	0.089	-0.271
-714.733	-200.000	0.039	-0.342
-713.718	166.320	-0.241	-0.348
-712.704	-117.448	0.190	0.035
-711.689	800.000	-0.068	-0.277
-710.675	-19.425	0.210	0.132
-709.660	800.000	0.018	-0.073
-708.645	-200.000	-0.009	0.159
-707.631	-200.000	0.000	0.046
-706.616	-51.045	0.151	-0.072
-705.602	-63.853	0.171	-0.071
-704.587	800.000	-0.021	-0.073
-703.572	299.457	-0.141	-0.265
-702.558	145.225	0.041	0.056
-701.543	-200.000	0.023	0.182
-700.529	475.932	-0.134	-0.309
-699.514	800.000	-0.046	-0.140
-698.499	311.750	0.089	-0.170
-697.485	456.705	-0.049	0.110
-696.470	-200.000	0.023	0.180
-695.456	800.000	-0.087	0.285
-694.441	-110.368	-0.114	0.024
-693.426	-200.000	0.006	0.490
-692.412	51.997	-0.102	-0.098
-691.397	-68.167	0.116	0.046
-690.383	501.832	-0.120	-0.281
-689.368	50.541	-0.023	0.022
-688.354	5.848	-0.057	0.043
-687.339	-95.700	-0.441	-0.120
-686.324	-30.371	-0.328	-0.189
-685.310	-117.094	-0.247	-0.046
-684.295	800.000	-0.014	0.048
-683.281	18.898	-0.168	-0.137
-682.266	-39.188	0.187	-0.100
-681.251	64.357	-0.189	0.194
-680.237	13.564	-0.227	-0.179
-679.222	-200.000	0.001	-0.445
-678.208	800.000	-0.049	0.215
-677.193	198.038	0.202	0.313
-676.178	-56.127	0.154	0.070
-675.164	-105.651	-0.453	0.104
-674.149	130.882	0.207	0.269
-673.135	-200.000	0.043	-0.228
-672.120	284.163	-0.137	-0.250
-671.105	12.279	0.088	0.069
-670.091	291.689	-0.106	0.196
-669.076	112.013	0.143	-0.176
-668.062	800.000	-0.082	-0.331
-667.047	113.805	-0.147	0.182
-666.032	-69.886	-0.073	0.028
-665.018	-130.346	-0.063	0.009
-664.003	-45.806	0.255	-0.128
-662.989	-200.000	-0.026	0.230
-661.974	-200.000	-0.002	-0.244
-660.959	27.195	0.144	0.123
-659.945	-200.000	-0.022	-0.270
-658.930	-97.704	0.172	0.045
-657.916	-200.000	-0.033	-0.167
-656.901	116.189	0.083	-0.104
-655.886	-85.200	0.406	0.129
-654.872	800.000	0.114	-0.422
-653.857	57.455	0.215	-0.213
-652.843	-129.193	0.230	0.033
-651.828	-17.192	0.206	0.132
-650.814	205.895	-0.111	-0.175
-649.799	59.456	-0.202	0.202
-648.784	2.436	-0.179	-0.132
-647.770	-200.000	-0.048	-0.247
-646.755	375.541	-0.065	-0.135
-645.741	366.945	0.100	-0.205
-644.726	-19.095	0.160	-0.101
-643.711	190.418	0.155	-0.237
-642.697	-72.136	-0.152	-0.057
-641.682	-182.812	-0.064	-0.001
-640.668	-139.011	0.207	0.023
-639.653	275.783	-0.086	0.155
-638.638	354.987	0.114	-0.229
-637.624	35.728	0.093	0.083
-636.609	-200.000	-0.013	0.509
-635.595	106.172	-0.156	0.188
-634.580	39.265	0.174	-0.158
-633.565	-68.965	-0.064	0.025
-632.551	233.581	0.179	0.299
-631.536	771.589	-0.075	-0.206
-630.522	-34.158	-0.387	-0.216
-629.507	-200.000	0.049	-0.369
-628.492	-200.000	-0.014	-0.203
-627.478	-151.812	0.277	-0.021
-626.463	-60.451	-0.308	-0.133
-625.449	-51.133	-0.083	0.039
-624.434	-26.706	-0.120	0.071
-623.419	247.142	0.122	0.208
-622.405	-200.000	-0.013	-0.063
-621.390	-93.896	0.166	-0.046
-620.376	120.322	-0.050	0.063
-619.361	-35.025	-0.111	-0.062
-618.346	-200.000	-0.004	-0.077
-617.332	-133.991	0.300	-0.038
-616.317	116.782	-0.083	0.103
-615.303	243.181	-0.044	-0.075
-614.288	-81.573	-0.134	0.045
-613.273	49.855	-0.223	-0.213
-612.259	28.215	0.231	-0.198
-611.244	-200.000	0.018	0.177
-610.230	-200.000	0.030	0.174
-609.215	-8.178	0.243	0.166
-608.201	102.300	-0.031	0.036
-607.186	-200.000	-0.002	0.252
-606.171	-200.000	-0.002	-0.011
-605.157	-129.885	-0.342	-0.048
-604.142	800.000	0.066	-0.229
-603.128	377.696	0.147	0.305
-602.113	-26.190	-0.010	-0.006
-601.098	6.641	0.075	-0.057
-600.084	-83.416	0.110	-0.036
-599.069	-32.661	0.421	0.237
-598.055	-133.764	0.290	-0.037
-597.040	-13.461	-0.292	-0.192
-596.025	-130.736	0.223	-0.030
-595.011	-29.628	0.354	0.205
-593.996	-144.384	-0.178	-0.017
-592.982	-162.486	0.121	-0.006
-591.967	-8.932	0.140	-0.095
-590.952	187.971	-0.058	-0.088
-589.938	800.000	-0.035	0.105
-588.923	106.087	-0.314	-0.377
-587.909	96.587	-0.190	-0.220
-586.894	-200.000	-0.009	-0.169
-585.879	112.138	-0.086	0.105
-584.865	287.845	0.068	0.125
-583.850	146.639	0.025	0.034
-582.836	-61.377	-0.336	0.143
-581.821	-134.248	-0.248	0.031
-580.806	146.009	0.116	-0.157
-579.792	-167.439	-0.096	0.004
-578.777	91.088	0.144	0.164
-577.763	-200.000	-0.012	0.157
-576.748	-3.572	0.192	-0.135
-575.733	70.065	-0.225	-0.235
-574.719	-151.281	-0.067	0.005
-573.704	584.013	0.092	0.228
-572.690	542.016	0.212	0.511
-571.675	83.536	-0.011	0.013
-570.661	-176.829	-0.277	-0.007
-569.646	-62.009	0.321	0.136
-568.631	-159.666	0.098	-0.005
-567.617	13.993	-0.301	-0.237
-566.602	-109.973	-0.433	0.092
-565.588	9.030	0.152	-0.116
-564.573	244.924	-0.205	-0.349
-563.558	706.081	0.005	-0.013
-562.544	586.376	-0.096	-0.238
-561.529	-200.000	-0.005	0.156
-560.515	800.000	0.017	-0.051
-559.500	34.886	0.239	0.212
-558.485	464.656	-0.029	0.066
-557.471	-200.000	-0.013	-0.200
-556.456	270.597	0.134	0.238
-555.442	167.487	0.176	0.252
-554.427	-200.000	0.017	0.315
-553.412	-184.839	-0.100	-0.002
-552.398	119.867	-0.216	-0.271
-551.383	470.304	0.016	0.037
-550.369	-153.808	-0.160	-0.011
-549.354	-200.000	-0.022	-0.211
-548.339	800.000	-0.049	0.180
-547.325	-200.000	-0.013	0.381
-546.310	118.076	0.078	-0.097
-545.296	511.122	0.091	-0.215
-544.281	383.329	-0.092	-0.192
-543.266	-200.000	-0.070	0.394
-542.252	-60.817	0.070	-0.030
-541.237	-200.000	0.021	0.197
-540.223	-200.000	-0.018	0.142
-539.208	-79.193	-0.147	-0.050
-538.193	-120.491	-0.100	-0.017
-537.179	800.000	-0.136	-0.408
-536.164	242.135	0.140	-0.237
-535.150	196.949	-0.044	-0.067
-534.135	-17.933	0.123	-0.078
-533.121	-88.318	-0.561	-0.169
-532.106	-170.966	-0.310	-0.011
-531.091	95.005	0.105	0.121
-530.077	-200.000	0.037	-0.244
-529.062	-44.087	-0.217	0.110
-528.048	800.000	0.010	-0.031
-527.033	-124.330	-0.263	-0.041
-526.018	-45.928	0.242	-0.120
-525.004	-200.000	0.071	0.314
-523.989	-149.797	-0.305	-0.024
-522.975	-45.865	0.058	-0.029
-521.960	-200.000	-0.013	0.182
-520.945	-143.914	0.119	0.011
-519.931	-37.615	-0.337	0.182
-518.916	539.260	-0.051	-0.123
-517.902	-50.467	0.109	-0.052
-516.887	85.089	0.118	0.131
-515.872	-94.110	-0.134	-0.037
-514.858	501.767	-0.089	0.207
-513.843	213.491	0.186	0.297
-512.829	800.000	-0.080	-0.325
-511.814	-200.000	0.021	-0.147
-510.799	148.539	-0.101	-0.138
-509.785	84.006	-0.140	0.154
-508.770	-200.000	0.000	0.025
-507.756	800.000	0.064	-0.278
-506.741	411.895	0.023	-0.050
-505.726	163.108	-0.046	0.065
-504.712	-200.000	0.006	-0.352
-503.697	235.100	0.123	-0.204
-502.683	-86.165	0.268	0.084
-501.668	202.682	-0.124	0.193
-500.653	-200.000	-0.029	0.296
-499.639	104.252	-0.258	-0.306
-498.624	71.984	-0.327	-0.343
-497.610	35.282	0.101	-0.089
-496.595	-60.382	0.208	-0.089
-495.581	298.011	-0.057	0.106
-494.566	-200.000	0.013	0.127
-493.551	-81.464	-0.069	-0.023
-492.537	78.696	-0.109	-0.117
-491.522	16.223	0.227	-0.181
-490.508	182.306	-0.173	0.257
-489.493	350.151	-0.051	0.102
-488.478	800.000	0.066	-0.193
-487.464	-113.396	-0.082	-0.016
-486.449	-17.319	-0.202	0.129
-485.435	155.872	-0.131	-0.182
-484.420	64.061	0.170	0.173
-483.405	10.077	0.176	-0.135
-482.391	-96.528	0.113	0.030
-481.376	-63.738	0.138	-0.057
-480.362	98.496	0.142	0.165
-479.347	-41.362	-0.178	-0.092
-478.332	674.198	0.083	0.216
-477.318	800.000	0.074	0.310
-476.303	-27.987	0.103	0.060
-475.289	177.749	0.199	-0.292
-474.274	-28.075	0.106	0.062
-473.259	-87.348	0.133	-0.041
-472.245	266.881	-0.058	-0.103
-471.230	-137.848	-0.096	-0.011
-470.216	-87.023	-0.229	0.070
-469.201	431.766	-0.075	0.163
-468.186	6.835	-0.063	-0.047
-467.172	800.000	-0.047	0.182
-466.157	333.317	-0.112	0.218
-465.143	-200.000	-0.042	-0.237
-464.128	-45.249	0.178	-0.089
-463.113	173.038	-0.180	-0.261
-462.099	139.954	-0.106	-0.140
-461.084	-200.000	-0.053	-0.285
-460.070	12.031	0.091	0.070
-459.055	-200.000	-0.039	-0.309
-458.040	-183.335	-0.133	-0.002
-457.026	-155.463	0.084	0.005
-456.011	303.469	-0.152	-0.283
-454.997	-35.470	0.288	-0.157
-453.982	-200.000	0.013	0.086
-452.968	-67.516	-0.288	-0.114
-451.953	356.077	-0.065	-0.130
-450.938	144.624	-0.105	0.141
-449.924	30.031	-0.107	0.092
-448.909	-56.973	-0.290	-0.129
-447.895	131.427	0.115	0.149
-446.880	-57.228	-0.104	-0.046
-445.865	174.324	0.090	0.131
-444.851	-81.803	0.050	-0.016
-443.836	-200.000	0.000	-0.065
-442.822	-98.352	-0.248	0.064
-441.807	-200.000	-0.035	-0.232
-440.792	-124.057	-0.378	0.060
-439.778	-103.568	0.093	0.022
-438.763	81.370	0.072	0.078
-437.749	-200.000	0.027	0.258
-436.734	249.732	-0.061	-0.105
-435.719	-51.389	0.083	-0.039
-434.705	-125.965	0.356	-0.054
-433.690	-200.000	-0.031	-0.192
-432.676	32.518	0.120	-0.104
-431.661	166.107	-0.086	-0.122
-430.646	-78.333	-0.122	0.042
-429.632	-182.380	0.142	-0.003
-428.617	-121.529	-0.274	0.046
-427.603	-68.092	-0.308	0.121
-426.588	50.415	-0.148	-0.141
-425.573	556.033	-0.158	-0.383
-424.559	-108.824	0.180	0.039
-423.544	-42.412	-0.093	-0.048
-422.530	800.000	-0.072	0.290
-421.515	800.000	0.141	0.416
-420.500	746.164	0.219	0.594
-419.486	-167.780	0.025	-0.001
-418.471	-200.000	-0.012	-0.142
-417.457	800.000	-0.074	0.251
-416.442	-71.555	-0.254	0.095
-415.428	-132.653	-0.264	0.034
-414.413	-56.670	0.047	-0.021
-413.398	-52.707	-0.308	0.143
-412.384	86.464	0.241	-0.268
-411.369	-149.795	0.297	-0.023
-410.355	23.008	0.041	0.034
-409.340	-200.000	0.013	0.064
-408.325	-95.519	-0.418	-0.113
-407.311	52.372	-0.153	0.147
-406.296	379.028	-0.147	0.303
-405.282	127.467	-0.216	0.276
-404.267	-41.261	0.144	-0.075
-403.252	278.781	-0.024	0.043
-402.238	35.099	0.218	-0.192
-401.223	-200.000	0.008	-0.144
-400.209	546.081	-0.111	0.267
-399.194	156.251	-0.019	0.027
-398.179	128.723	0.116	-0.149
-397.165	-200.000	-0.005	-0.262
-396.150	-107.965	-0.317	-0.069
-395.136	-64.610	0.326	0.133
-394.121	-200.000	0.051	0.238
-393.106	610.844	0.128	0.321
-392.092	204.273	-0.209	-0.326
-391.077	-178.256	0.240	0.006
-390.063	95.447	-0.049	0.057
-389.048	800.000	0.060	0.181
-388.033	-200.000	0.000	0.079
-387.019	-131.597	0.281	0.037
-386.004	15.820	-0.047	0.037
-384.990	800.000	-0.079	0.278
-383.975	-200.000	0.008	-0.058
-382.960	-200.000	-0.013	-0.326
-381.946	-13.540	0.089	-0.058
-380.931	-17.064	0.379	-0.240
-379.917	800.000	-0.029	-0.123
-378.902	-23.126	0.183	-0.111
-377.888	-90.757	0.337	0.098
-376.873	-200.000	0.061	0.356
-375.858	-200.000	-0.018	0.216
-374.844	-200.000	-0.032	-0.239
-373.829	800.000	0.108	0.321
-372.815	-200.000	0.030	0.266
-371.800	-83.041	0.321	-0.104
-370.785	163.750	0.183	0.259
-369.771	-39.502	0.305	-0.160
-368.756	-200.000	-0.045	-0.268
-367.742	-16.631	-0.329	0.209
-366.727	100.755	0.040	0.046
-365.712	-200.000	0.004	0.040
-364.698	364.341	0.083	0.167
-363.683	202.084	-0.079	-0.122
-362.669	-70.347	-0.232	-0.088
-361.654	-200.000	-0.032	-0.320
-360.639	-140.619	0.200	0.021
-359.625	800.000	0.099	0.305
-358.610	-61.908	-0.299	0.125
-357.596	14.352	-0.162	0.127
-356.581	-179.490	0.275	-0.006
-355.566	10.701	-0.093	0.071
-354.552	-120.563	0.413	0.070
-353.537	-200.000	0.010	-0.156
-352.523	181.848	-0.135	-0.200
-351.508	218.378	-0.131	0.211
-350.493	128.675	-0.086	0.110
-349.479	-150.107	0.349	0.027
-348.464	-53.500	-0.045	0.021
-347.450	-7.747	0.062	0.042
-346.435	-81.823	-0.232	0.076
-345.420	171.460	0.226	-0.326
-344.406	-59.355	0.282	-0.122
-343.391	104.900	-0.078	0.092
-342.377	-200.000	0.000	-0.222
-341.362	436.134	0.017	0.038
-340.348	339.987	-0.203	-0.397
-339.333	-123.392	0.126	-0.020
-338.318	-90.240	-0.053	-0.015
-337.304	-25.493	-0.241	-0.143
-336.289	-72.728	0.451	0.167
-335.275	800.000	0.017	-0.060
-334.260	-88.840	0.173	0.051
-333.245	-101.923	0.184	0.045
-332.231	-26.663	0.233	0.137
-331.216	-84.743	0.296	-0.093
-330.202	-10.043	-0.081	0.054
-329.187	-131.497	0.137	-0.018
-328.172	18.596	-0.121	-0.097
-327.158	250.636	-0.151	0.257
-326.143	-200.000	-0.032	0.140
-325.129	-200.000	0.014	-0.126
-324.114	-99.431	-0.039	0.010
-323.099	12.387	-0.099	-0.077
-322.085	401.602	0.109	-0.228
-321.070	177.383	0.056	0.082
-320.056	-200.000	0.044	-0.280
-319.041	-200.000	-0.078	0.356
-318.026	-99.726	-0.123	0.031
-317.012	74.758	0.100	-0.105
-315.997	-100.195	-0.225	0.056
-314.983	-74.772	-0.192	0.069
-313.968	209.407	0.089	0.139
-312.953	-55.161	-0.319	-0.144
-311.939	-200.000	-0.012	0.112
-310.924	-156.391	0.249	-0.016
-309.910	-200.000	0.004	-0.321
-308.895	800.000	-0.146	0.469
-307.880	-51.559	-0.365	-0.171
-306.866	-200.000	0.020	0.112
-305.851	-25.476	0.165	0.098
-304.837	131.632	0.041	-0.052
-303.822	263.466	-0.168	0.292
-302.807	411.083	-0.093	0.197
-301.793	105.420	-0.183	0.216
-300.778	-39.522	-0.104	-0.054
-299.764	-86.138	-0.096	-0.030
-298.749	-141.679	0.228	0.023
-297.735	800.000	0.022	0.061
-296.720	200.822	-0.162	0.249
-295.705	85.318	0.089	-0.098
-294.691	55.672	-0.164	0.159
-293.676	800.000	-0.026	-0.073
-292.662	34.698	0.380	0.332
-291.647	-49.667	-0.139	0.066
-290.632	-190.495	0.095	-0.001
-289.618	203.032	-0.126	-0.195
-288.603	398.822	-0.066	-0.139
-287.589	173.521	0.101	-0.145
-286.574	-128.794	-0.266	0.038
-285.559	97.543	-0.185	-0.213
-284.545	220.529	0.187	0.300
-283.530	800.000	-0.029	0.084
-282.516	239.888	-0.026	0.044
-281.501	557.996	-0.014	0.034
-280.486	-1.638	-0.142	0.100
-279.472	-48.773	0.231	-0.111
-278.457	-6.478	-0.120	-0.082
-277.443	106.106	-0.242	0.287
-276.428	-113.478	-0.285	0.056
-275.413	222.501	-0.043	0.070
-274.399	800.000	-0.027	-0.083
-273.384	263.996	0.168	-0.292
-272.370	-43.446	0.298	0.150
-271.355	61.612	-0.273	0.272
-270.340	-107.546	-0.123	0.027
-269.326	161.556	-0.173	-0.243
-268.311	497.858	0.070	0.162
-267.297	-163.836	0.127	0.006
-266.282	60.942	-0.124	-0.123
-265.267	123.075	-0.174	0.217
-264.253	-77.606	0.087	0.030
-263.238	313.178	-0.051	0.095
-262.224	-112.388	-0.251	0.050
-261.209	276.512	-0.083	-0.148
-260.195	-150.373	-0.268	-0.021
-259.180	51.234	0.144	-0.137
-258.165	-90.909	-0.143	0.041
-257.151	205.568	0.023	-0.035
-256.136	-129.830	-0.031	0.004
-255.122	-200.000	-0.003	-0.098
-254.107	800.000	0.034	-0.109
-253.092	23.636	0.172	0.141
-252.078	177.183	0.134	0.194
-251.063	-5.346	-0.088	0.060
-250.049	-92.899	-0.120	-0.034
-249.034	-54.752	0.150	0.068
-248.019	-143.495	0.120	-0.011
-247.005	401.052	0.192	0.404
-245.990	-200.000	-0.019	0.221
-244.976	-106.104	-0.382	0.086
-243.961	219.066	-0.194	0.310
-242.946	98.413	0.119	-0.137
-241.932	-10.796	0.175	-0.116
-240.917	741.491	0.077	0.208
-239.903	8.638	0.177	0.133
-238.888	529.897	-0.102	0.241
-237.873	-101.584	0.159	-0.039
-236.859	77.614	-0.035	0.037
-235.844	-164.745	-0.046	0.002
-234.830	-123.897	-0.108	0.017
-233.815	80.054	-0.162	-0.174
-232.800	41.184	-0.178	-0.161
-231.786	-55.863	0.280	-0.125
-230.771	202.858	0.093	0.143
-229.757	464.103	0.098	0.218
-228.742	416.515	-0.113	-0.241
-227.727	317.590	0.114	-0.215
-226.713	-200.000	0.016	0.263
-225.698	-46.490	-0.312	-0.153
-224.684	86.283	0.071	0.078
-223.669	268.285	-0.072	-0.126
-222.655	-72.607	0.270	-0.099
-221.640	323.799	0.113	0.214
-220.625	70.001	0.351	0.361
-219.611	-140.699	0.246	-0.025
-218.596	84.804	-0.104	-0.114
-217.582	-68.517	0.349	0.135
-216.567	-200.000	0.023	-0.136
-215.552	-46.103	-0.181	-0.089
-214.538	-145.977	0.082	-0.007
-213.523	-21.251	0.155	-0.095
-212.509	800.000	0.074	-0.301
-211.494	109.678	0.076	0.090
-210.479	210.417	0.067	-0.105
-209.465	224.859	-0.098	-0.158
-208.450	800.000	-0.109	-0.307
-207.436	-18.842	0.197	0.122
-206.421	59.465	0.079	-0.077
-205.406	3.326	0.268	-0.194
-204.392	-142.809	0.456	0.044
-203.377	25.464	0.190	-0.157
-202.363	296.026	0.019	-0.034
-201.348	150.058	0.142	-0.191
-200.333	-200.000	-0.007	0.277
-199.319	-182.775	0.543	-0.010
-198.304	152.470	0.069	-0.094
-197.290	-29.229	-0.175	-0.100
-196.275	-141.548	-0.184	-0.019
-195.260	-18.821	-0.129	0.080
-194.246	285.311	-0.100	-0.180
-193.231	-126.621	0.234	0.035
-192.217	-29.280	0.248	0.142
-191.202	443.502	-0.100	-0.218
-190.187	161.862	0.195	-0.272
-189.173	-173.662	-0.329	0.010
-188.158	-133.455	-0.339	0.042
-187.144	-200.000	0.007	0.061
-186.129	-138.737	-0.180	0.020
-185.114	-200.000	-0.031	0.290
-184.100	73.959	0.164	-0.171
-183.085	-53.483	0.222	-0.101
-182.071	800.000	0.082	-0.255
-181.056	-29.002	0.229	-0.131
-180.042	172.755	-0.165	0.237
-179.027	-76.053	0.236	-0.083
-178.012	-0.219	0.373	-0.264
-176.998	-200.000	-0.044	0.415
-175.983	-124.406	-0.214	-0.033
-174.969	455.398	-0.047	-0.104
-173.954	-110.510	0.216	-0.045
-172.939	19.666	0.500	-0.401
-171.925	800.000	0.043	-0.156
-170.910	-76.445	-0.019	0.007
-169.896	283.507	-0.109	0.195
-168.881	202.856	0.085	0.130
-167.866	-200.000	-0.006	-0.341
-166.852	119.604	0.120	0.148
-165.837	61.735	-0.211	0.209
-164.823	-127.230	-0.387	0.056
-163.808	-159.002	0.103	0.006
-162.793	-87.080	0.179	-0.054
-161.779	-64.538	0.238	-0.096
-160.764	-128.229	-0.239	0.034
-159.750	168.672	-0.040	0.056
-158.735	-200.000	-0.001	0.037
-157.720	-23.259	0.279	-0.167
-156.706	-200.000	0.001	-0.023
-155.691	-200.000	0.072	0.355
-154.677	800.000	-0.060	-0.229
-153.662	-200.000	-0.026	-0.177
-152.647	-200.000	-0.004	-0.053
-151.633	259.016	-0.119	-0.203
-150.618	1.718	-0.109	0.078
-149.604	19.472	-0.135	0.108
-148.589	-163.261	-0.373	0.018
-147.574	-121.784	-0.324	-0.053
-146.560	-112.128	0.213	-0.043
-145.545	60.348	-0.290	0.286
-144.531	-125.152	0.351	0.054
-143.516	77.891	-0.163	-0.173
-142.502	-99.177	-0.071	-0.018
-141.487	-108.272	-0.297	-0.064
-140.472	-26.409	0.459	0.268
-139.458	-37.935	0.380	-0.201
-138.443	-200.000	-0.001	0.077
-137.429	744.214	0.012	0.033
-136.414	-200.000	-0.003	-0.095
-135.399	-95.014	0.078	-0.021
-134.385	-200.000	-0.022	0.147
-133.370	-47.717	0.404	0.195
-132.356	-123.811	0.414	0.065
-131.341	-20.231	0.284	0.174
-130.326	-90.785	-0.290	0.083
-129.312	157.790	-0.136	-0.187
-128.297	-103.169	-0.255	-0.060
-127.283	-200.000	-0.022	-0.393
-126.268	101.239	-0.101	0.117
-125.253	800.000	0.086	0.238
-124.239	800.000	-0.056	0.180
-123.224	-127.535	-0.243	0.035
-122.210	207.654	0.126	0.195
