DTS Sentinel unit serial number:	SN413079Multiplexer serial number:	ORYXHardware model number:	OX4-SRSoftware version number:	ORYX F/W v4.00 Oryx Data Collector v3.7.2.0data status	okinstallation	princeton_trtdifferential loss correction	single-endedforward channel	channel 3reverse channel	N/Adate	2019/09/15time	11:08:35forward acquisition time	60.00reverse acquisition time	0.00gamma	496.2192k internal	0.2307k external	0.2307temperature offset calibration	0.9976default loss term (dB/km)	0.3790temperature slope calibration	1.0000multiplexer offset coefficient	1.0000multiplexer slope coefficient	1.0000fibre end	0.00T internal ref (°C)	34.27T ext. ref 1 (°C)	5.05T ext. ref 2 (°C)	29.71length (m)	temperature (°C)	Stokes	anti-Stokes-747.200	121.009	0.102	0.129
-746.185	502.796	-0.104	0.244
-745.171	93.562	-0.099	-0.114
-744.156	335.935	-0.186	0.367
-743.142	162.758	0.068	0.097
-742.127	-200.000	0.017	0.195
-741.112	379.835	-0.047	0.098
-740.098	7.711	-0.301	-0.229
-739.083	260.919	0.087	-0.153
-738.069	329.273	-0.085	0.166
-737.054	48.749	-0.018	0.017
-736.039	-21.523	-0.041	0.026
-735.025	-129.467	-0.086	-0.012
-734.010	200.176	-0.057	-0.088
-732.996	-59.166	-0.112	0.049
-731.981	158.166	-0.045	-0.064
-730.966	286.367	0.153	-0.281
-729.952	-35.817	-0.143	-0.078
-728.937	800.000	-0.034	-0.149
-727.923	515.144	-0.006	0.015
-726.908	-30.922	-0.169	0.097
-725.894	197.852	0.162	-0.251
-724.879	24.176	-0.142	-0.119
-723.864	-123.758	-0.153	0.025
-722.850	118.424	-0.188	0.235
-721.835	800.000	-0.019	-0.067
-720.821	-49.440	-0.275	0.133
-719.806	208.781	-0.197	-0.313
-718.791	-200.000	0.033	0.187
-717.777	125.012	-0.056	0.072
-716.762	-200.000	0.012	0.167
-715.748	190.661	0.138	0.211
-714.733	378.170	0.087	-0.180
-713.718	-132.174	-0.192	0.025
-712.704	302.392	-0.175	0.329
-711.689	23.727	-0.055	0.046
-710.675	-151.769	-0.115	-0.009
-709.660	19.773	0.225	-0.184
-708.645	167.300	-0.148	-0.214
-707.631	228.146	0.101	0.166
-706.616	91.356	-0.100	-0.114
-705.602	-6.894	-0.285	0.196
-704.587	340.103	0.098	-0.194
-703.572	-73.038	0.296	-0.110
-702.558	-100.905	0.414	-0.103
-701.543	-200.000	-0.008	-0.202
-700.529	147.116	0.235	-0.321
-699.514	-3.336	0.054	0.038
-698.499	323.248	0.110	-0.213
-697.485	-56.859	0.265	0.119
-696.470	-170.987	0.258	0.009
-695.456	-139.906	-0.023	-0.002
-694.441	758.995	-0.065	-0.178
-693.426	-123.140	-0.059	-0.010
-692.412	-74.613	0.224	0.082
-691.397	208.626	0.041	-0.066
-690.383	26.719	-0.328	-0.279
-689.368	-149.908	-0.188	0.015
-688.354	-165.361	0.173	0.008
-687.339	-108.262	0.142	0.031
-686.324	-130.938	0.221	-0.030
-685.310	15.075	0.025	-0.020
-684.295	-43.260	-0.294	0.151
-683.281	7.069	-0.085	-0.065
-682.266	800.000	-0.050	-0.160
-681.251	31.171	-0.192	-0.167
-680.237	36.129	0.020	-0.018
-679.222	-200.000	0.075	-0.352
-678.208	151.608	0.041	0.056
-677.193	138.408	0.172	0.229
-676.178	800.000	-0.021	0.077
-675.164	-200.000	-0.016	0.106
-674.149	281.161	0.132	0.239
-673.135	45.984	-0.042	0.039
-672.120	-200.000	-0.019	0.090
-671.105	-200.000	0.011	0.211
-670.091	146.374	-0.146	-0.199
-669.076	138.640	-0.061	0.081
-668.062	125.723	0.079	0.101
-667.047	517.555	-0.180	-0.426
-666.032	-85.386	-0.241	-0.076
-665.018	-89.437	0.172	-0.051
-664.003	-138.921	-0.265	-0.029
-662.989	-175.413	-0.034	0.001
-661.974	126.781	0.276	-0.355
-660.959	-96.794	0.493	-0.131
-659.945	-97.715	-0.155	0.041
-658.930	800.000	-0.073	0.295
-657.916	-200.000	-0.043	-0.227
-656.901	41.977	0.134	-0.124
-655.886	340.146	0.056	-0.111
-654.872	-108.077	-0.132	-0.029
-653.857	98.304	0.289	-0.337
-652.843	-200.000	0.006	0.460
-651.828	-30.414	0.047	-0.027
-650.814	523.161	-0.017	-0.040
-649.799	-200.000	-0.005	0.131
-648.784	-102.615	-0.141	-0.034
-647.770	39.537	0.160	-0.146
-646.755	-89.373	-0.268	0.080
-645.741	-200.000	-0.004	0.231
-644.726	800.000	0.066	0.240
-643.711	-200.000	-0.003	0.147
-642.697	-98.234	-0.123	0.032
-641.682	458.881	-0.159	-0.358
-640.668	-90.869	-0.361	-0.105
-639.653	-61.493	-0.336	0.143
-638.638	259.824	-0.239	0.419
-637.624	48.604	-0.292	-0.277
-636.609	103.328	-0.260	-0.309
-635.595	-82.655	-0.044	-0.015
-634.580	-54.024	0.108	0.050
-633.565	-158.472	0.337	0.020
-632.551	88.387	-0.225	-0.253
-631.536	68.249	0.167	0.173
-630.522	-72.367	-0.413	0.155
-629.507	-141.799	-0.111	-0.011
-628.492	-200.000	-0.000	-0.268
-627.478	94.318	-0.098	-0.113
-626.463	88.706	0.177	-0.200
-625.449	-133.868	-0.335	0.042
-624.434	-200.000	0.005	0.231
-623.419	-69.818	0.197	0.076
-622.405	-8.213	0.227	0.154
-621.390	-177.946	0.270	-0.007
-620.376	21.765	-0.335	-0.276
-619.361	787.850	0.070	-0.195
-618.346	800.000	-0.086	0.278
-617.332	-112.442	-0.272	0.055
-616.317	202.171	-0.064	0.101
-615.303	195.792	-0.324	-0.498
-614.288	-193.346	0.223	0.002
-613.273	17.304	0.105	0.084
-612.259	37.823	0.058	-0.052
-611.244	28.182	-0.411	0.351
-610.230	-186.386	0.129	-0.002
-609.215	80.448	0.172	-0.187
-608.201	58.879	0.209	-0.208
-607.186	-76.960	0.086	-0.030
-606.171	-200.000	0.005	0.170
-605.157	25.884	-0.300	0.253
-604.142	117.113	0.215	0.267
-603.128	-200.000	0.028	-0.232
-602.113	120.243	0.154	0.193
-601.098	405.382	-0.104	0.221
-600.084	-25.746	0.175	-0.104
-599.069	55.086	-0.232	-0.226
-598.055	417.952	-0.225	-0.487
-597.040	-58.126	-0.323	0.142
-596.025	480.479	-0.091	-0.209
-595.011	86.996	0.194	-0.216
-593.996	103.832	-0.285	-0.338
-592.982	-63.345	-0.137	-0.057
-591.967	20.712	-0.119	-0.098
-590.952	-8.831	-0.101	-0.068
-589.938	4.646	0.292	-0.217
-588.923	-0.567	0.253	-0.182
-587.909	94.865	-0.226	0.260
-586.894	157.195	0.057	0.080
-585.879	-18.127	0.141	0.090
-584.865	800.000	-0.042	0.180
-583.850	121.518	-0.153	-0.192
-582.836	-127.981	-0.264	-0.038
-581.821	129.389	0.088	0.114
-580.806	-200.000	-0.046	0.212
-579.792	143.131	-0.181	-0.243
-578.777	441.862	-0.061	0.134
-577.763	800.000	-0.076	-0.238
-576.748	-3.106	0.304	-0.214
-575.733	98.197	0.105	0.122
-574.719	-103.608	0.173	0.041
-573.704	54.357	0.075	-0.073
-572.690	-39.747	0.250	0.132
-571.675	-138.657	-0.288	-0.032
-570.661	-19.335	0.065	-0.041
-569.646	-200.000	-0.002	0.032
-568.631	262.818	0.045	0.079
-567.617	21.085	-0.165	-0.135
-566.602	273.472	0.142	-0.254
-565.588	83.238	-0.180	0.198
-564.573	50.888	-0.216	-0.207
-563.558	-41.626	-0.105	-0.055
-562.544	-16.069	0.096	-0.062
-561.529	126.472	0.186	-0.238
-560.515	-200.000	-0.017	-0.268
-559.500	554.155	-0.045	-0.109
-558.485	-200.000	-0.004	-0.149
-557.471	28.460	-0.250	-0.214
-556.456	800.000	0.099	-0.316
-555.442	61.619	-0.069	-0.069
-554.427	6.243	-0.264	0.198
-553.412	-23.197	-0.206	0.125
-552.398	-200.000	-0.005	0.105
-551.383	-151.404	0.034	0.003
-550.369	326.056	0.104	-0.201
-549.354	313.624	-0.119	0.227
-548.339	-90.719	0.195	-0.057
-547.325	800.000	0.088	-0.283
-546.310	800.000	0.056	0.207
-545.296	-112.368	0.183	-0.037
-544.281	-85.234	-0.230	-0.073
-543.266	-21.777	0.407	0.250
-542.252	-124.292	-0.101	0.016
-541.237	-36.020	-0.186	0.102
-540.223	-110.759	-0.150	0.031
-539.208	18.229	0.148	0.119
-538.193	224.347	0.064	0.105
-537.179	-104.718	0.158	-0.037
-536.164	-17.129	0.092	-0.059
-535.150	162.367	-0.197	0.278
-534.135	237.263	0.121	-0.203
-533.121	376.746	0.087	-0.178
-532.106	-200.000	0.019	0.159
-531.091	38.302	-0.263	0.236
-530.077	117.994	-0.090	-0.112
-529.062	-96.135	-0.129	-0.035
-528.048	-93.302	0.433	0.121
-527.033	-122.715	0.133	0.022
-526.018	315.508	-0.075	-0.142
-525.004	-59.520	0.273	0.118
-523.989	-16.138	0.246	-0.158
-522.975	-200.000	0.016	0.127
-521.960	-85.134	0.187	-0.059
-520.945	-151.318	0.076	-0.006
-519.931	-200.000	-0.038	0.233
-518.916	-58.001	0.055	-0.024
-517.902	116.176	0.103	-0.128
-516.887	679.688	-0.056	-0.146
-515.872	17.487	-0.256	-0.205
-514.858	382.316	0.105	0.217
-513.843	-99.451	-0.211	-0.053
-512.829	-200.000	0.011	-0.096
-511.814	800.000	0.040	0.115
-510.799	-151.316	-0.188	0.014
-509.785	590.291	0.088	0.218
-508.770	264.672	-0.094	0.164
-507.756	-151.747	0.144	-0.011
-506.741	67.174	-0.191	-0.196
-505.726	-108.041	-0.410	-0.090
-504.712	281.215	0.100	0.181
-503.697	-81.559	0.077	-0.026
-502.683	744.910	0.057	-0.154
-501.668	-69.282	-0.334	-0.129
-500.653	149.074	-0.087	0.119
-499.639	-99.797	-0.076	0.019
-498.624	111.825	0.102	0.124
-497.610	-163.932	-0.098	-0.005
-496.595	49.543	-0.153	0.145
-495.581	-21.153	0.183	0.113
-494.566	-200.000	-0.088	-0.404
-493.551	-43.139	-0.147	-0.075
-492.537	167.072	0.194	0.278
-491.522	-122.530	-0.192	0.031
-490.508	382.302	0.095	0.196
-489.493	121.255	0.114	0.143
-488.478	60.739	0.061	-0.060
-487.464	-105.819	-0.306	-0.070
-486.449	-140.004	0.191	-0.020
-485.435	-133.330	0.116	-0.015
-484.420	800.000	-0.055	-0.222
-483.405	77.721	0.075	-0.081
-482.391	-30.151	-0.208	0.119
-481.376	-200.000	-0.054	0.328
-480.362	-200.000	0.023	0.265
-479.347	-185.732	0.167	-0.003
-478.332	227.894	-0.038	0.062
-477.318	7.804	0.150	0.113
-476.303	-200.000	-0.024	0.420
-475.289	25.585	-0.202	-0.169
-474.274	-22.254	0.304	-0.186
-473.259	60.603	0.108	0.108
-472.245	-70.931	0.182	-0.069
-471.230	7.916	-0.195	0.147
-470.216	483.347	0.052	-0.120
-469.201	-200.000	-0.008	-0.320
-468.186	-73.652	0.050	0.018
-467.172	163.900	-0.109	0.155
-466.157	384.820	0.163	-0.338
-465.143	-90.427	0.076	-0.022
-464.128	-200.000	0.041	0.277
-463.113	487.561	0.022	-0.051
-462.099	-8.933	-0.132	-0.089
-461.084	-157.532	0.258	-0.016
-460.070	-30.385	0.442	0.252
-459.055	800.000	-0.062	0.246
-458.040	-36.264	0.234	-0.127
-457.026	-200.000	-0.027	0.259
-456.011	-122.153	-0.290	-0.048
-454.997	131.810	-0.113	-0.146
-453.982	800.000	-0.063	-0.178
-452.968	236.643	-0.130	-0.217
-451.953	440.457	-0.061	-0.135
-450.938	-120.091	-0.346	-0.059
-449.924	-200.000	0.024	-0.269
-448.909	25.371	-0.112	0.093
-447.895	-66.639	0.162	-0.065
-446.880	800.000	-0.023	-0.085
-445.865	-192.355	0.246	-0.002
-444.851	25.443	0.017	0.015
-443.836	337.105	0.094	0.183
-442.822	-58.726	-0.087	-0.038
-441.807	8.519	-0.071	-0.054
-440.792	-52.923	0.247	-0.114
-439.778	800.000	-0.067	0.190
-438.763	46.558	0.269	0.251
-437.749	-200.000	0.041	0.244
-436.734	-200.000	-0.079	0.422
-435.719	-37.951	0.156	0.083
-434.705	-200.000	0.032	0.197
-433.690	-189.667	0.073	-0.001
-432.676	-146.835	0.279	0.024
-431.661	-56.330	-0.298	-0.133
-430.646	389.104	0.170	-0.353
-429.632	0.929	-0.160	-0.116
-428.617	-200.000	-0.005	-0.260
-427.603	429.475	-0.061	-0.132
-426.588	-169.871	-0.346	0.012
-425.573	-78.062	0.081	0.028
-424.559	-200.000	-0.002	-0.010
-423.544	-200.000	-0.030	0.256
-422.530	29.494	-0.146	0.125
-421.515	-200.000	-0.018	-0.157
-420.500	-200.000	0.021	0.150
-419.486	-71.020	0.178	0.067
-418.471	653.921	0.053	-0.137
-417.457	80.712	0.107	-0.115
-416.442	-100.123	0.224	0.056
-415.428	-200.000	-0.072	0.337
-414.413	-3.090	-0.157	-0.110
-413.398	251.541	0.082	0.141
-412.384	-200.000	-0.015	0.191
-411.369	231.063	-0.174	-0.285
-410.355	800.000	-0.076	0.229
-409.340	211.262	-0.070	0.111
-408.325	-142.574	-0.231	0.023
-407.311	-60.781	0.228	-0.097
-406.296	27.910	0.198	0.167
-405.282	-200.000	-0.021	-0.310
-404.267	-25.722	0.287	-0.170
-403.252	-200.000	-0.028	-0.314
-402.238	87.118	0.193	0.214
-401.223	-200.000	-0.029	0.225
-400.209	622.895	0.111	-0.281
-399.194	-83.081	0.089	0.029
-398.179	-90.746	-0.182	-0.053
-397.165	-117.205	-0.049	0.009
-396.150	-43.422	-0.131	-0.066
-395.136	-1.486	-0.081	-0.057
-394.121	38.814	-0.162	-0.145
-393.106	132.929	0.278	0.360
-392.092	-200.000	-0.005	0.053
-391.077	-86.959	-0.138	-0.042
-390.063	748.252	0.104	0.281
-389.048	-90.295	-0.061	0.018
-388.033	11.346	0.234	0.180
-387.019	150.439	-0.071	-0.097
-386.004	-22.069	-0.289	0.176
-384.990	-127.288	0.265	0.039
-383.975	335.675	0.211	-0.411
-382.960	52.635	0.271	-0.259
-381.946	800.000	-0.090	0.313
-380.931	179.907	0.090	-0.132
-379.917	726.610	-0.041	0.109
-378.902	5.329	0.271	0.200
-377.888	-75.908	-0.360	-0.128
-376.873	-93.303	-0.338	0.094
-375.858	-200.000	-0.016	0.180
-374.844	-200.000	0.029	0.155
-373.829	-200.000	0.023	-0.135
-372.815	381.617	0.077	0.159
-371.800	-146.042	-0.374	0.033
-370.785	-93.012	0.269	0.075
-369.771	-94.451	-0.359	0.098
-368.756	81.222	0.266	-0.288
-367.742	-124.763	-0.327	-0.051
-366.727	-61.933	0.246	-0.103
-365.712	611.898	0.067	0.167
-364.698	146.195	-0.205	-0.276
-363.683	-119.719	-0.069	0.012
-362.669	-89.291	0.062	0.018
-361.654	-126.192	0.130	-0.019
-360.639	-36.509	-0.155	0.084
-359.625	-30.987	0.147	-0.083
-358.610	-87.942	-0.069	0.021
-357.596	40.484	-0.242	0.218
-356.581	-200.000	-0.026	-0.231
-355.566	-200.000	0.008	-0.093
-354.552	-200.000	0.108	0.481
-353.537	-200.000	0.040	-0.000
-352.523	238.113	-0.058	0.096
-351.508	-200.000	-0.032	0.204
-350.493	-47.179	0.162	0.079
-349.479	-126.121	0.179	-0.027
-348.464	800.000	0.017	0.058
-347.450	54.017	-0.099	-0.095
-346.435	-25.100	-0.178	0.106
-345.420	-175.630	-0.027	-0.001
-344.406	-200.000	-0.022	0.160
-343.391	205.376	0.168	-0.261
-342.377	73.274	0.089	-0.093
-341.362	588.320	0.144	-0.355
-340.348	-133.401	0.185	0.023
-339.333	458.381	0.061	-0.135
-338.318	2.824	-0.169	0.123
-337.304	-200.000	-0.003	-0.016
-336.289	800.000	-0.035	0.096
-335.275	-160.956	-0.321	-0.017
-334.260	237.016	-0.061	0.101
-333.245	30.695	0.271	0.232
-332.231	-200.000	-0.111	0.498
-331.216	372.558	-0.074	-0.150
-330.202	299.129	0.180	-0.331
-329.187	-83.772	0.244	0.078
-328.172	113.611	0.096	0.117
-327.158	-81.277	-0.181	0.060
-326.143	-200.000	0.021	-0.353
-325.129	93.307	-0.133	0.151
-324.114	-200.000	-0.012	0.062
-323.099	-78.557	-0.291	0.099
-322.085	142.111	-0.176	-0.234
-321.070	-40.032	-0.252	0.131
-320.056	160.589	0.216	-0.302
-319.041	552.453	0.092	-0.221
-318.026	457.925	-0.117	-0.260
-317.012	65.688	0.379	-0.384
-315.997	-6.994	0.186	0.126
-314.983	-90.219	0.274	0.080
-313.968	30.076	-0.206	-0.175
-312.953	-200.000	-0.022	0.234
-311.939	255.995	0.229	-0.394
-310.924	445.215	0.087	-0.192
-309.910	328.517	0.042	0.081
-308.895	370.325	-0.162	-0.329
-307.880	-200.000	-0.012	0.135
-306.866	-200.000	0.009	0.109
-305.851	800.000	-0.121	-0.350
-304.837	-200.000	0.015	0.225
-303.822	-138.854	-0.122	0.013
-302.807	219.762	-0.142	0.227
-301.793	-200.000	-0.053	-0.436
-300.778	648.799	-0.082	0.209
-299.764	475.031	0.066	0.149
-298.749	-102.205	0.288	-0.069
-297.735	-154.322	-0.048	-0.003
-296.720	246.427	0.007	0.012
-295.705	-26.541	0.423	0.248
-294.691	24.271	0.067	0.056
-293.676	-200.000	0.070	-0.435
-292.662	-27.419	0.217	-0.126
-291.647	-61.820	0.361	0.151
-290.632	139.141	0.079	0.104
-289.618	-200.000	-0.003	-0.040
-288.603	800.000	-0.112	-0.317
-287.589	800.000	-0.060	-0.200
-286.574	-38.520	-0.059	0.031
-285.559	-44.512	0.192	-0.096
-284.545	-200.000	0.294	-0.001
-283.530	-199.805	0.156	0.001
-282.516	35.039	-0.195	-0.171
-281.501	243.452	-0.089	-0.148
-280.486	-200.000	0.001	-0.208
-279.472	-200.000	0.036	0.205
-278.457	-200.000	0.039	0.281
-277.443	-141.951	-0.270	0.027
-276.428	-200.000	0.013	-0.096
-275.413	147.911	-0.048	0.065
-274.399	166.299	-0.142	-0.200
-273.384	421.042	-0.035	0.075
-272.370	86.660	-0.090	0.099
-271.355	94.173	-0.050	-0.057
-270.340	800.000	0.072	0.218
-269.326	-143.889	0.079	0.007
-268.311	-10.752	-0.229	-0.151
-267.297	498.492	-0.117	-0.269
-266.282	800.000	0.075	-0.252
-265.267	453.944	-0.014	0.030
-264.253	-96.652	-0.067	-0.018
-263.238	14.820	-0.143	-0.112
-262.224	580.550	-0.044	0.108
-261.209	16.276	0.200	-0.158
-260.195	231.399	-0.139	-0.227
-259.180	81.236	-0.135	-0.146
-258.165	-67.018	-0.084	-0.033
-257.151	56.565	-0.234	0.227
-256.136	-69.643	0.155	-0.059
-255.122	-200.000	-0.003	0.156
-254.107	300.555	0.036	-0.066
-253.092	598.292	-0.124	0.306
-252.078	267.750	-0.107	0.187
-251.063	26.319	-0.296	0.247
-250.049	-153.046	0.144	0.010
-249.034	-41.131	0.016	0.008
-248.019	92.781	0.248	0.279
-247.005	371.168	-0.117	0.236
-245.990	-79.729	0.164	0.055
-244.976	50.530	-0.050	0.048
-243.961	-26.267	0.053	0.031
-242.946	-200.000	0.033	0.282
-241.932	-200.000	0.001	-0.108
-240.917	-22.882	0.113	0.068
-239.903	254.911	0.049	-0.084
-238.888	-26.713	-0.148	-0.086
-237.873	-200.000	0.011	0.076
-236.859	81.894	-0.213	0.230
-235.844	283.816	-0.056	-0.100
-234.830	-132.199	-0.250	-0.032
-233.815	-120.546	0.357	0.060
-232.800	-200.000	-0.048	-0.208
-231.786	102.733	-0.096	-0.111
-230.771	800.000	-0.040	-0.147
-229.757	-58.949	0.112	-0.048
-228.742	-200.000	-0.025	0.135
-227.727	-200.000	0.032	0.178
-226.713	-64.225	-0.210	0.085
-225.698	6.479	0.332	-0.246
-224.684	-140.468	0.050	-0.005
-223.669	-46.404	-0.222	0.109
-222.655	-133.887	0.407	-0.050
-221.640	800.000	0.059	-0.165
-220.625	800.000	-0.074	-0.209
-219.611	97.742	0.132	-0.151
-218.596	-200.000	-0.013	-0.196
-217.582	-188.865	0.183	-0.002
-216.567	62.101	-0.028	0.028
-215.552	20.741	0.174	0.140
-214.538	102.619	0.291	0.339
-213.523	-75.976	-0.204	0.072
-212.509	168.989	-0.184	0.262
-211.494	-125.499	-0.203	0.031
-210.479	41.908	-0.136	-0.123
-209.465	-200.000	0.042	-0.252
-208.450	-16.972	-0.097	0.061
-207.436	800.000	0.078	0.270
-206.421	192.838	0.089	0.133
-205.406	91.409	-0.119	0.133
-204.392	120.709	0.108	-0.133
-203.377	-200.000	0.028	0.144
-202.363	-31.239	0.185	0.104
-201.348	-200.000	0.018	0.254
-200.333	-22.836	0.038	0.023
-199.319	80.388	-0.044	-0.047
-198.304	373.353	0.011	-0.021
-197.290	-154.094	0.218	0.015
-196.275	-128.885	0.160	0.022
-195.260	-54.954	-0.139	-0.062
-194.246	-200.000	-0.006	0.164
-193.231	-200.000	0.086	-0.386
-192.217	-200.000	-0.016	0.077
-191.202	86.951	0.139	0.152
-190.187	-200.000	-0.018	-0.157
-189.173	55.602	0.091	0.088
-188.158	800.000	-0.058	0.168
-187.144	-200.000	0.028	-0.289
-186.129	-91.869	-0.199	-0.056
-185.114	-200.000	0.028	-0.131
-184.100	-150.956	0.098	-0.007
-183.085	160.713	0.257	0.356
-182.071	-0.944	0.009	-0.007
-181.056	-83.217	0.233	0.074
-180.042	800.000	0.082	0.309
-179.027	-67.715	0.352	0.137
-178.012	464.498	-0.141	-0.314
-176.998	-122.090	-0.092	-0.015
-175.983	125.138	-0.265	-0.332
-174.969	100.363	0.186	-0.215
-173.954	8.998	0.072	-0.054
-172.939	-200.000	-0.000	0.344
-171.925	-125.563	-0.162	-0.024
-170.910	44.750	0.173	-0.158
-169.896	-149.412	0.196	0.015
-168.881	-200.000	0.183	0.001
-167.866	-200.000	0.045	0.320
-166.852	545.249	-0.136	0.323
-165.837	150.956	-0.132	-0.178
-164.823	715.101	0.117	0.309
-163.808	-146.538	0.126	0.011
-162.793	254.524	-0.141	-0.239
-161.779	123.142	0.079	0.099
-160.764	-145.690	-0.145	-0.013
-159.750	-42.870	-0.305	0.154
-158.735	-200.000	0.012	-0.252
-157.720	-200.000	0.034	0.192
-156.706	260.663	-0.106	0.183
-155.691	38.634	0.159	-0.141
-154.677	243.765	0.117	0.195
-153.662	-42.101	0.063	0.032
-152.647	6.521	-0.097	0.072
-151.633	-80.010	0.185	-0.062
-150.618	-50.725	0.175	-0.082
-149.604	-92.098	-0.102	-0.029
-148.589	-200.000	0.064	0.354
-147.574	394.145	0.177	-0.366
-146.560	349.585	0.053	-0.105
-145.545	-28.527	0.056	-0.032
-144.531	-77.651	-0.151	0.052
-143.516	277.902	-0.033	0.058
-142.502	0.714	-0.110	0.078
-141.487	152.884	-0.203	0.275
-140.472	-200.000	-0.010	0.508
-139.458	-73.621	0.106	0.038
-138.443	254.467	-0.115	0.196
-137.429	800.000	-0.021	-0.068
-136.414	-29.074	0.176	0.100
-135.399	-43.769	0.067	0.033
-134.385	96.435	0.175	0.199
-133.370	189.897	0.257	0.383
-132.356	79.605	0.072	-0.076
-131.341	228.331	-0.171	0.277
-130.326	-46.737	-0.255	-0.124
-129.312	276.687	0.108	-0.190
-128.297	9.418	0.120	0.090
-127.283	-200.000	-0.073	0.466
-126.268	-107.269	0.212	-0.046
-125.253	800.000	-0.095	0.334
-124.239	297.742	0.076	0.139
-123.224	-130.202	-0.128	0.017
-122.210	-189.501	-0.231	-0.003
-121.195	-0.432	-0.034	-0.024
