DTS Sentinel unit serial number:	SN413079Multiplexer serial number:	ORYXHardware model number:	OX4-SRSoftware version number:	ORYX F/W v4.00 Oryx Data Collector v3.7.2.0data status	okinstallation	princeton_trtdifferential loss correction	single-endedforward channel	channel 3reverse channel	N/Adate	2019/09/17time	21:36:35forward acquisition time	60.00reverse acquisition time	0.00gamma	496.2192k internal	0.2343k external	0.2343temperature offset calibration	0.9947default loss term (dB/km)	0.3790temperature slope calibration	1.0000multiplexer offset coefficient	1.0000multiplexer slope coefficient	1.0000fibre end	0.00T internal ref (°C)	26.89T ext. ref 1 (°C)	0.18T ext. ref 2 (°C)	19.16length (m)	temperature (°C)	Stokes	anti-Stokes-747.200	11.530	0.180	0.138
-746.185	-60.934	-0.141	0.060
-745.171	-137.460	0.406	0.046
-744.156	-200.000	-0.067	0.422
-743.142	196.788	0.026	0.040
-742.127	-41.291	-0.075	0.039
-741.112	-120.620	0.399	0.068
-740.098	70.545	-0.287	0.297
-739.083	-0.512	-0.193	-0.137
-738.069	-200.000	-0.044	-0.327
-737.054	104.949	-0.254	-0.300
-736.039	-104.227	-0.280	-0.065
-735.025	-91.028	-0.197	0.057
-734.010	-110.670	-0.198	0.041
-732.996	800.000	-0.055	-0.176
-731.981	-200.000	-0.032	-0.152
-730.966	-156.659	-0.227	-0.014
-729.952	442.851	0.056	-0.124
-728.937	-200.000	0.026	0.191
-727.923	24.469	0.377	0.312
-726.908	-200.000	0.011	0.547
-725.894	-26.292	-0.312	0.183
-724.879	-200.000	-0.043	-0.402
-723.864	0.456	0.365	0.261
-722.850	58.171	-0.147	-0.144
-721.835	800.000	0.045	0.131
-720.821	-101.337	0.028	0.007
-719.806	800.000	0.094	-0.318
-718.791	-200.000	0.018	-0.213
-717.777	-3.067	0.153	-0.107
-716.762	-100.595	-0.247	-0.061
-715.748	800.000	-0.024	0.101
-714.733	257.289	0.089	0.153
-713.718	-200.000	-0.027	0.285
-712.704	-200.000	0.023	0.322
-711.689	124.086	-0.191	0.240
-710.675	-151.264	-0.144	-0.011
-709.660	101.863	0.085	-0.099
-708.645	613.824	0.130	0.326
-707.631	15.003	-0.244	-0.191
-706.616	-200.000	-0.031	0.214
-705.602	-120.073	-0.153	-0.026
-704.587	-200.000	-0.036	0.248
-703.572	-200.000	-0.014	0.155
-702.558	-46.256	-0.058	0.028
-701.543	-135.486	0.132	0.016
-700.529	800.000	-0.030	0.127
-699.514	-151.383	-0.374	0.028
-698.499	-200.000	0.003	-0.070
-697.485	243.161	-0.131	-0.220
-696.470	-129.280	-0.158	0.022
-695.456	800.000	0.090	-0.315
-694.441	-92.598	-0.447	-0.125
-693.426	27.874	-0.057	-0.048
-692.412	-83.959	-0.173	-0.055
-691.397	786.617	-0.077	0.212
-690.383	-67.231	0.035	0.014
-689.368	-200.000	0.016	-0.188
-688.354	-19.273	0.262	0.162
-687.339	171.941	0.172	-0.246
-686.324	-200.000	0.040	-0.191
-685.310	66.662	0.241	0.245
-684.295	800.000	-0.056	0.217
-683.281	182.459	-0.035	0.052
-682.266	122.140	-0.031	-0.039
-681.251	-84.500	0.195	0.061
-680.237	198.909	0.058	0.089
-679.222	-50.181	-0.211	0.100
-678.208	-63.460	-0.224	0.092
-677.193	206.044	-0.231	-0.359
-676.178	-146.939	0.172	0.015
-675.164	-200.000	0.018	0.309
-674.149	-200.000	-0.014	0.101
-673.135	70.046	-0.167	0.172
-672.120	-200.000	-0.043	0.290
-671.105	85.414	-0.127	-0.140
-670.091	-94.978	0.135	-0.036
-669.076	62.805	0.069	0.069
-668.062	-35.526	-0.171	0.092
-667.047	225.081	0.018	0.029
-666.032	-30.447	-0.169	0.096
-665.018	-146.585	0.462	-0.040
-664.003	3.648	0.040	-0.029
-662.989	44.092	-0.128	-0.117
-661.974	-98.816	0.295	-0.075
-660.959	67.698	-0.215	-0.219
-659.945	-200.000	-0.044	0.204
-658.930	109.156	0.192	0.229
-657.916	-97.923	-0.188	0.048
-656.901	-200.000	-0.063	0.380
-655.886	-200.000	-0.071	0.391
-654.872	-200.000	-0.027	-0.187
-653.857	11.404	-0.129	-0.099
-652.843	-200.000	-0.015	0.190
-651.828	-12.592	0.121	-0.079
-650.814	205.182	0.047	0.073
-649.799	-106.366	0.087	0.019
-648.784	-200.000	-0.005	-0.079
-647.770	-10.491	0.106	0.070
-646.755	-200.000	0.040	0.237
-645.741	-80.142	0.132	-0.044
-644.726	800.000	0.045	0.170
-643.711	-33.991	0.116	-0.064
-642.697	524.154	-0.083	0.195
-641.682	-68.961	-0.263	0.101
-640.668	-158.366	-0.130	0.008
-639.653	284.600	0.043	0.077
-638.638	-200.000	-0.004	0.072
-637.624	117.455	0.190	0.233
-636.609	-200.000	0.036	0.277
-635.595	-190.988	0.119	0.001
-634.580	-137.217	0.090	-0.010
-633.565	112.335	0.236	-0.285
-632.551	-66.964	-0.171	0.067
-631.536	-6.132	-0.212	-0.144
-630.522	-200.000	0.036	0.489
-629.507	-200.000	0.020	-0.289
-628.492	759.534	-0.140	-0.378
-627.478	40.852	0.130	0.117
-626.463	-2.634	-0.118	-0.082
-625.449	90.744	-0.059	-0.066
-624.434	-153.244	-0.096	-0.007
-623.419	-95.109	-0.157	0.042
-622.405	800.000	0.073	0.242
-621.390	-103.893	0.170	-0.040
-620.376	172.881	0.262	-0.376
-619.361	-200.000	-0.010	0.237
-618.346	-88.989	0.068	0.020
-617.332	800.000	-0.077	-0.252
-616.317	-200.000	-0.022	-0.211
-615.303	105.138	-0.133	0.157
-614.288	800.000	0.129	0.411
-613.273	715.634	-0.070	0.185
-612.259	-145.515	0.033	-0.003
-611.244	130.123	0.232	0.295
-610.230	303.862	-0.037	0.068
-609.215	-91.372	-0.218	-0.062
-608.201	162.276	0.230	0.322
-607.186	89.071	-0.199	-0.221
-606.171	-200.000	0.011	-0.246
-605.157	-200.000	-0.005	0.198
-604.142	431.007	0.092	0.198
-603.128	-200.000	0.000	0.092
-602.113	-81.531	-0.159	0.052
-601.098	-108.389	-0.205	0.044
-600.084	302.496	-0.119	-0.220
-599.069	-83.517	-0.202	-0.064
-598.055	-102.319	-0.171	0.041
-597.040	-26.457	-0.134	-0.078
-596.025	-200.000	-0.014	-0.299
-595.011	-86.705	0.144	0.044
-593.996	-93.414	-0.186	0.051
-592.982	1.231	0.235	-0.168
-591.967	-3.076	0.332	-0.231
-590.952	130.299	-0.202	-0.258
-589.938	-131.293	0.074	-0.010
-588.923	68.529	-0.182	0.186
-587.909	39.245	-0.219	0.195
-586.894	55.429	0.101	-0.097
-585.879	9.054	-0.141	-0.106
-584.865	20.642	0.187	-0.150
-583.850	30.805	-0.182	-0.155
-582.836	-139.693	0.337	-0.036
-581.821	232.253	0.103	0.168
-580.806	-89.857	-0.332	-0.096
-579.792	244.264	-0.048	-0.080
-578.777	370.913	-0.063	-0.126
-577.763	398.675	0.060	-0.125
-576.748	-33.059	0.223	0.123
-575.733	195.264	-0.325	-0.491
-574.719	-89.579	0.203	0.059
-573.704	301.744	-0.085	-0.157
-572.690	44.333	-0.007	0.006
-571.675	-13.625	-0.043	-0.027
-570.661	800.000	-0.033	-0.118
-569.646	73.854	0.064	0.067
-568.631	800.000	-0.065	-0.282
-567.617	-200.000	-0.070	0.350
-566.602	-12.087	0.336	-0.219
-565.588	-139.332	0.235	-0.025
-564.573	489.047	-0.171	-0.390
-563.558	-141.605	-0.219	0.022
-562.544	-20.657	0.172	-0.105
-561.529	-88.844	-0.174	-0.051
-560.515	80.108	-0.196	0.209
-559.500	-10.562	-0.340	0.224
-558.485	109.570	0.273	-0.325
-557.471	-200.000	-0.015	0.096
-556.456	12.020	0.344	0.263
-555.442	564.121	-0.108	-0.259
-554.427	-200.000	-0.048	0.258
-553.412	-153.387	-0.284	-0.020
-552.398	-200.000	-0.070	-0.427
-551.383	-10.007	0.060	0.040
-550.369	-147.229	-0.106	0.009
-549.354	184.406	0.136	0.200
-548.339	-17.721	0.214	0.133
-547.325	542.192	-0.016	0.039
-546.310	800.000	-0.028	-0.099
-545.296	277.888	0.015	-0.026
-544.281	-128.258	0.264	-0.037
-543.266	83.396	-0.138	-0.150
-542.252	537.097	0.039	-0.092
-541.237	104.617	0.062	0.073
-540.223	-92.798	0.320	0.089
-539.208	90.691	-0.156	-0.174
-538.193	459.678	-0.116	-0.257
-537.179	-200.000	-0.002	-0.072
-536.164	503.593	-0.129	0.296
-535.150	-141.664	-0.197	0.020
-534.135	800.000	0.093	-0.337
-533.121	662.344	-0.146	-0.373
-532.106	99.079	0.145	-0.166
-531.091	294.502	-0.110	-0.199
-530.077	-200.000	0.018	-0.158
-529.062	800.000	0.037	0.139
-528.048	536.510	-0.081	0.192
-527.033	-200.000	0.002	0.016
-526.018	-60.209	-0.421	0.178
-525.004	-163.595	-0.363	0.017
-523.989	-155.677	-0.423	-0.027
-522.975	-200.000	0.002	-0.290
-521.960	13.816	-0.098	-0.075
-520.945	109.794	0.293	-0.349
-519.931	-200.000	-0.021	-0.156
-518.916	-113.994	0.128	-0.025
-517.902	43.008	-0.195	0.177
-516.887	-52.938	0.040	-0.018
-515.872	157.428	-0.083	0.114
-514.858	800.000	-0.036	-0.106
-513.843	-200.000	0.221	0.000
-512.829	-36.624	-0.008	-0.004
-511.814	-100.271	0.105	-0.026
-510.799	788.810	0.040	0.109
-509.785	-83.078	-0.200	-0.064
-508.770	206.042	-0.089	-0.137
-507.756	212.250	-0.223	0.349
-506.741	-200.000	0.034	0.390
-505.726	-22.188	-0.115	-0.069
-504.712	165.339	0.147	0.207
-503.697	-200.000	0.035	0.255
-502.683	117.844	-0.124	-0.151
-501.668	800.000	-0.086	0.265
-500.653	-200.000	-0.009	-0.189
-499.639	-93.845	-0.178	0.049
-498.624	-101.634	0.344	0.083
-497.610	800.000	0.049	-0.161
-496.595	62.275	0.176	-0.174
-495.581	-81.040	-0.486	-0.159
-494.566	800.000	0.034	0.126
-493.551	-117.529	-0.314	-0.056
-492.537	444.044	0.120	0.260
-491.522	-40.221	-0.215	0.111
-490.508	-105.852	-0.137	0.031
-489.493	-10.938	0.265	-0.173
-488.478	800.000	-0.152	-0.555
-487.464	-88.175	0.385	-0.114
-486.449	-52.799	-0.254	0.116
-485.435	787.865	-0.057	-0.156
-484.420	-159.451	-0.040	0.002
-483.405	-74.647	0.446	0.159
-482.391	344.835	0.073	0.143
-481.376	306.621	-0.089	0.164
-480.362	15.628	0.168	-0.131
-479.347	-4.768	0.296	-0.202
-478.332	800.000	-0.099	0.271
-477.318	-200.000	-0.008	0.063
-476.303	153.465	0.042	0.057
-475.289	-200.000	-0.006	0.043
-474.274	295.327	-0.145	0.263
-473.259	85.650	-0.324	0.353
-472.245	-151.395	0.265	0.020
-471.230	-186.986	0.383	0.005
-470.216	800.000	0.092	0.333
-469.201	-116.488	0.074	0.014
-468.186	-16.074	-0.084	-0.053
-467.172	-200.000	-0.001	0.010
-466.157	142.266	0.203	-0.267
-465.143	-102.081	-0.278	-0.066
-464.128	130.140	0.169	0.214
-463.113	-57.152	0.262	0.114
-462.099	-183.327	0.121	-0.002
-461.084	291.228	0.030	-0.054
-460.070	72.108	-0.191	-0.197
-459.055	-200.000	0.020	0.436
-458.040	77.393	0.124	0.130
-457.026	-85.666	-0.182	0.056
-456.011	-151.611	0.219	0.016
-454.997	-80.303	-0.399	-0.132
-453.982	-24.733	0.462	-0.272
-452.968	-200.000	-0.021	0.282
-451.953	-200.000	0.051	-0.239
-450.938	27.419	-0.039	0.032
-449.924	-60.369	0.069	0.029
-448.909	-200.000	-0.013	-0.230
-447.895	-118.285	-0.442	-0.078
-446.880	-99.372	-0.261	0.065
-445.865	209.167	-0.133	0.205
-444.851	513.187	-0.043	0.100
-443.836	189.499	-0.028	-0.042
-442.822	800.000	0.084	0.330
-441.807	283.250	-0.052	-0.092
-440.792	5.887	-0.153	0.112
-439.778	-200.000	0.026	0.133
-438.763	315.728	0.039	-0.072
-437.749	-56.351	-0.343	-0.151
-436.734	15.612	-0.309	-0.240
-435.719	-200.000	-0.059	-0.351
-434.705	-192.825	0.418	0.004
-433.690	496.643	-0.077	0.175
-432.676	-45.794	0.212	-0.104
-431.661	-200.000	0.044	-0.269
-430.646	-34.480	0.187	-0.101
-429.632	44.578	-0.254	0.231
-428.617	746.378	-0.141	0.376
-427.603	191.605	-0.110	-0.164
-426.588	800.000	0.067	0.222
-425.573	-33.274	0.337	-0.185
-424.559	-200.000	0.074	0.402
-423.544	250.731	0.195	-0.327
-422.530	-200.000	0.018	-0.146
-421.515	-64.661	-0.103	0.041
-420.500	-200.000	-0.076	-0.403
-419.486	455.504	0.104	-0.229
-418.471	453.403	-0.074	0.162
-417.457	85.577	0.094	-0.102
-416.442	221.516	0.125	-0.199
-415.428	-30.573	0.279	-0.156
-414.413	800.000	-0.073	-0.218
-413.398	-73.294	0.247	-0.089
-412.384	9.114	0.203	0.151
-411.369	136.202	0.086	-0.111
-410.355	-200.000	-0.017	0.404
-409.340	-101.307	0.207	0.050
-408.325	-2.622	0.187	0.130
-407.311	800.000	0.040	0.136
-406.296	-200.000	-0.015	-0.074
-405.282	-200.000	0.025	0.195
-404.267	328.469	0.165	-0.313
-403.252	202.118	-0.089	-0.136
-402.238	-95.955	-0.306	-0.081
-401.223	54.979	0.082	-0.078
-400.209	426.514	0.038	-0.080
-399.194	800.000	-0.098	-0.396
-398.179	96.151	-0.176	0.199
-397.165	123.308	0.377	0.467
-396.150	-99.235	-0.122	-0.030
-395.136	-94.973	-0.236	-0.063
-394.121	-200.000	0.063	-0.295
-393.106	443.165	-0.112	0.242
-392.092	94.611	-0.331	-0.372
-391.077	-61.378	0.272	-0.113
-390.063	-200.000	0.116	-0.001
-389.048	76.715	0.117	0.122
-388.033	-137.273	-0.218	-0.024
-387.019	-97.882	-0.372	-0.095
-386.004	-136.335	-0.133	0.015
-384.990	800.000	0.101	0.331
-383.975	-112.368	-0.072	-0.014
-382.960	306.641	-0.081	0.148
-381.946	-200.000	-0.018	0.253
-380.931	431.618	-0.089	0.191
-379.917	130.983	-0.178	-0.225
-378.902	800.000	-0.057	-0.219
-377.888	-70.723	0.429	0.160
-376.873	144.416	0.191	0.252
-375.858	415.228	-0.081	0.169
-374.844	36.000	0.112	-0.097
-373.829	-72.111	-0.277	0.101
-372.815	-111.914	-0.234	0.047
-371.800	-200.000	-0.027	-0.288
-370.785	-106.371	-0.110	-0.024
-369.771	-11.183	0.151	-0.098
-368.756	10.030	0.148	0.111
-367.742	119.272	0.150	-0.183
-366.727	-31.597	-0.036	0.020
-365.712	173.425	0.180	0.257
-364.698	140.950	0.046	-0.060
-363.683	648.872	-0.123	0.311
-362.669	257.127	0.229	0.388
-361.654	-30.821	-0.206	0.115
-360.639	-200.000	0.008	0.075
-359.625	-126.225	-0.115	-0.017
-358.610	-45.854	0.041	-0.020
-357.596	-45.659	-0.182	-0.089
-356.581	-131.987	0.200	-0.026
-355.566	291.767	-0.156	0.281
-354.552	93.632	-0.231	-0.257
-353.537	-200.000	0.010	-0.089
-352.523	-17.873	-0.163	-0.101
-351.508	499.728	-0.172	-0.390
-350.493	-154.246	-0.147	0.010
-349.479	800.000	0.053	0.157
-348.464	-161.112	-0.395	-0.020
-347.450	-150.040	0.187	-0.014
-346.435	-200.000	0.010	-0.090
-345.420	800.000	0.032	-0.138
-344.406	-63.192	-0.254	-0.103
-343.391	121.912	-0.032	0.040
-342.377	-81.066	0.385	-0.125
-341.362	800.000	0.071	0.265
-340.348	527.863	-0.055	0.128
-339.333	-135.277	0.142	0.017
-338.318	-107.922	0.194	-0.042
-337.304	-89.752	-0.272	0.078
-336.289	20.226	0.040	-0.032
-335.275	-41.754	0.384	-0.194
-334.260	666.483	-0.084	0.214
-333.245	800.000	-0.051	-0.185
-332.231	-128.966	-0.267	0.037
-331.216	800.000	-0.141	-0.558
-330.202	661.706	0.100	-0.253
-329.187	-80.954	0.135	0.044
-328.172	259.617	0.118	0.201
-327.158	296.593	0.158	0.286
-326.143	-183.331	0.068	0.001
-325.129	-25.947	-0.116	0.067
-324.114	476.261	-0.085	0.188
-323.099	800.000	-0.044	-0.157
-322.085	76.283	-0.261	-0.272
-321.070	-72.005	-0.277	-0.102
-320.056	800.000	0.020	-0.054
-319.041	11.221	-0.228	0.172
-318.026	386.279	-0.197	0.401
-317.012	-128.438	-0.197	0.027
-315.997	1.454	0.138	-0.098
-314.983	-115.493	0.397	-0.074
-313.968	-85.652	0.092	0.028
-312.953	-200.000	0.007	-0.072
-311.939	123.082	0.025	-0.031
-310.924	-195.405	0.373	0.003
-309.910	113.225	-0.237	-0.283
-308.895	800.000	0.075	-0.278
-307.880	19.367	-0.081	-0.064
-306.866	800.000	0.078	0.274
-305.851	800.000	0.056	0.214
-304.837	-12.107	0.157	0.101
-303.822	-200.000	-0.014	0.298
-302.807	-165.466	-0.082	-0.004
-301.793	800.000	-0.119	-0.453
-300.778	800.000	0.041	0.123
-299.764	-72.791	0.231	0.084
-298.749	-200.000	0.006	-0.117
-297.735	17.876	-0.161	-0.126
-296.720	-71.255	0.398	0.147
-295.705	-200.000	0.080	-0.400
-294.691	357.296	-0.054	-0.105
-293.676	121.470	-0.049	0.061
-292.662	788.428	0.033	-0.088
-291.647	-180.518	0.159	0.003
-290.632	181.251	-0.096	0.139
-289.618	800.000	0.084	0.258
-288.603	175.436	0.171	-0.243
-287.589	68.607	0.012	-0.012
-286.574	800.000	-0.061	0.208
-285.559	-54.537	-0.174	-0.077
-284.545	167.162	0.117	-0.164
-283.530	16.581	-0.205	-0.159
-282.516	800.000	-0.120	0.339
-281.501	-46.650	0.255	0.123
-280.486	197.590	-0.204	-0.306
-279.472	38.285	-0.114	-0.100
-278.457	-78.696	0.376	0.126
-277.443	800.000	-0.058	-0.165
-276.428	-200.000	-0.070	-0.321
-275.413	800.000	0.047	0.129
-274.399	-147.545	0.053	-0.004
-273.384	-200.000	0.021	0.185
-272.370	-200.000	-0.004	-0.057
-271.355	613.523	0.009	-0.023
-270.340	98.094	0.066	-0.075
-269.326	87.531	0.365	-0.398
-268.311	-43.854	-0.266	0.132
-267.297	11.987	-0.174	-0.131
-266.282	377.734	0.163	0.327
-265.267	-200.000	0.026	0.195
-264.253	194.808	-0.073	0.109
-263.238	-89.066	0.082	0.024
-262.224	765.329	0.041	-0.110
-261.209	-200.000	-0.010	-0.286
-260.195	-34.957	-0.192	-0.103
-259.180	-200.000	0.021	0.120
-258.165	-53.422	0.095	-0.043
-257.151	147.753	0.076	-0.100
-256.136	-110.108	0.244	-0.050
-255.122	142.281	-0.122	-0.159
-254.107	-200.000	0.021	0.153
-253.092	-103.070	0.135	0.031
-252.078	-11.761	-0.158	0.102
-251.063	-83.266	0.251	-0.079
-250.049	361.112	0.130	0.257
-249.034	-200.000	0.010	0.318
-248.019	255.696	-0.132	-0.222
-247.005	-95.590	0.213	0.056
-245.990	-200.000	0.000	0.194
-244.976	122.278	-0.211	0.259
-243.961	122.911	-0.093	0.114
-242.946	800.000	0.058	0.183
-241.932	139.123	0.049	0.064
-240.917	-105.723	0.140	-0.031
-239.903	108.923	-0.210	0.247
-238.888	-41.943	0.082	0.041
-237.873	-173.630	-0.150	-0.004
-236.859	-30.742	-0.205	-0.114
-235.844	502.326	0.029	0.066
-234.830	-200.000	0.088	0.440
-233.815	-97.708	-0.232	0.059
-232.800	-200.000	-0.022	0.276
-231.786	-31.152	-0.209	-0.116
-230.771	-83.439	0.222	-0.070
-229.757	-200.000	0.011	0.113
-228.742	-200.000	0.005	0.126
-227.727	32.105	0.188	0.159
-226.713	103.085	0.414	0.475
-225.698	-72.539	0.087	0.032
-224.684	-124.527	-0.053	0.008
-223.669	612.711	0.011	-0.027
-222.655	230.570	0.161	-0.258
-221.640	-200.000	-0.072	0.389
-220.625	102.166	0.232	0.266
-219.611	409.026	0.133	0.276
-218.596	800.000	0.090	-0.246
-217.582	800.000	0.052	-0.153
-216.567	133.958	-0.190	-0.241
-215.552	800.000	-0.078	0.244
-214.538	-102.970	-0.078	0.018
-213.523	800.000	0.111	-0.350
-212.509	800.000	-0.018	-0.061
-211.494	2.471	-0.309	-0.219
-210.479	58.009	0.087	-0.083
-209.465	-109.773	0.073	0.015
-208.450	800.000	-0.060	0.225
-207.436	412.236	0.163	0.339
-206.421	-148.956	-0.386	0.031
-205.406	308.937	-0.117	-0.214
-204.392	107.260	0.203	0.237
-203.377	-200.000	0.038	-0.194
-202.363	92.681	-0.253	-0.280
-201.348	800.000	0.058	-0.174
-200.333	47.345	0.107	0.098
-199.319	-130.316	0.150	-0.020
-198.304	-20.466	-0.270	0.163
-197.290	-77.241	-0.133	0.045
-196.275	800.000	0.069	0.294
-195.260	13.401	0.236	-0.179
-194.246	-86.544	-0.303	0.091
-193.231	800.000	-0.104	-0.335
-192.217	176.082	0.030	-0.042
-191.202	-85.272	0.153	0.047
-190.187	800.000	0.075	-0.218
-189.173	-17.118	-0.111	-0.069
-188.158	796.806	-0.075	-0.203
-187.144	-200.000	0.005	-0.189
-186.129	133.972	0.128	-0.162
-185.114	309.353	0.139	0.254
-184.100	800.000	0.049	0.172
-183.085	800.000	-0.084	-0.275
-182.071	-52.990	0.153	0.069
-181.056	800.000	-0.051	-0.213
-180.042	-127.464	-0.263	-0.037
-179.027	362.512	0.169	-0.332
-178.012	782.411	-0.057	0.153
-176.998	85.000	-0.228	0.245
-175.983	216.688	-0.082	0.128
-174.969	438.731	0.097	-0.206
-173.954	556.442	-0.104	0.245
-172.939	-99.565	0.413	0.102
-171.925	-74.713	-0.295	0.104
-170.910	-68.070	-0.434	0.166
-169.896	-200.000	-0.001	-0.076
-168.881	7.632	0.083	-0.061
-167.866	-0.613	0.170	0.118
-166.852	-115.932	-0.088	0.016
-165.837	-78.548	0.222	0.074
-164.823	-42.178	-0.230	-0.115
-163.808	56.794	0.146	-0.140
-162.793	-200.000	-0.006	0.269
-161.779	492.673	0.075	0.168
-160.764	-200.000	-0.009	0.173
-159.750	27.128	0.251	-0.206
-158.735	-168.133	0.287	-0.011
-157.720	-200.000	0.018	0.302
-156.706	-34.075	0.099	0.053
-155.691	-200.000	-0.061	-0.263
-154.677	-50.041	0.141	0.065
-153.662	-200.000	-0.045	-0.272
-152.647	-19.893	0.221	0.134
-151.633	32.216	0.059	-0.050
-150.618	800.000	-0.070	0.204
-149.604	-104.923	-0.336	0.075
-148.589	69.496	0.080	-0.080
-147.574	245.753	0.103	0.170
-146.560	-34.521	0.301	0.161
-145.545	6.517	0.337	-0.245
-144.531	3.287	0.215	0.153
-143.516	119.830	-0.134	0.162
-142.502	9.411	0.171	0.127
-141.487	41.857	-0.052	0.046
-140.472	-200.000	0.050	0.303
-139.458	92.353	0.201	0.221
-138.443	-200.000	0.036	-0.418
-137.429	289.507	-0.012	-0.022
-136.414	800.000	-0.134	0.418
-135.399	-37.965	-0.068	-0.035
-134.385	389.142	0.167	-0.338
-133.370	-200.000	-0.029	-0.346
-132.356	448.536	0.044	0.095
-131.341	58.601	-0.135	0.130
-130.326	-197.029	-0.337	0.002
-129.312	-179.660	0.153	0.003
-128.297	66.452	0.190	0.188
-127.283	286.854	-0.161	-0.283
-126.268	-12.396	-0.194	0.124
-125.253	26.171	-0.167	0.137
-124.239	216.607	0.135	0.210
-123.224	133.966	0.037	-0.046
-122.210	17.418	0.166	-0.129
-121.195	-6.068	0.229	-0.153
