DTS Sentinel unit serial number:	SN413079Multiplexer serial number:	ORYXHardware model number:	OX4-SRSoftware version number:	ORYX F/W v4.00 Oryx Data Collector v3.7.2.0data status	okinstallation	princeton_trtdifferential loss correction	single-endedforward channel	channel 3reverse channel	N/Adate	2019/09/16time	17:20:35forward acquisition time	60.00reverse acquisition time	0.00gamma	496.2192k internal	0.2296k external	0.2296temperature offset calibration	0.9943default loss term (dB/km)	0.3790temperature slope calibration	1.0000multiplexer offset coefficient	1.0000multiplexer slope coefficient	1.0000fibre end	0.00T internal ref (°C)	38.77T ext. ref 1 (°C)	15.41T ext. ref 2 (°C)	32.79length (m)	temperature (°C)	Stokes	anti-Stokes-747.200	-37.247	-0.209	-0.114
-746.185	-134.345	-0.100	0.013
-745.171	-49.615	-0.132	-0.064
-744.156	-200.000	-0.086	0.440
-743.142	361.078	0.042	0.085
-742.127	497.224	-0.255	0.600
-741.112	-39.820	0.162	0.087
-740.098	86.487	0.224	0.252
-739.083	118.436	0.193	0.244
-738.069	227.339	0.130	0.216
-737.054	-45.088	-0.255	-0.130
-736.039	-26.557	-0.344	-0.206
-735.025	-200.000	-0.040	0.181
-734.010	-200.000	0.023	-0.148
-732.996	-82.177	-0.413	0.138
-731.981	-40.846	0.112	0.059
-730.966	-116.900	0.211	0.039
-729.952	-200.000	-0.004	0.097
-728.937	139.637	0.126	-0.170
-727.923	-146.206	0.411	0.037
-726.908	-160.174	-0.242	0.013
-725.894	-3.008	-0.109	-0.077
-724.879	-59.764	0.155	0.068
-723.864	-65.664	-0.294	0.120
-722.850	-157.997	-0.098	-0.006
-721.835	-131.084	0.170	-0.023
-720.821	-89.714	0.277	-0.083
-719.806	-200.000	-0.048	0.265
-718.791	-79.257	-0.322	-0.111
-717.777	-4.375	-0.297	-0.210
-716.762	18.496	-0.068	0.056
-715.748	-33.417	-0.298	0.168
-714.733	-5.076	-0.388	-0.273
-713.718	-120.808	0.118	0.020
-712.704	-185.371	-0.243	-0.004
-711.689	232.779	0.068	0.115
-710.675	196.276	0.069	0.107
-709.660	-69.684	-0.327	-0.127
-708.645	-200.000	0.014	0.066
-707.631	-31.902	-0.163	0.093
-706.616	-38.160	0.200	-0.108
-705.602	-200.000	0.045	-0.343
-704.587	-67.501	0.316	0.126
-703.572	229.004	-0.107	-0.178
-702.558	-59.511	-0.166	0.072
-701.543	-124.316	0.475	-0.076
-700.529	-159.588	-0.337	0.019
-699.514	219.723	0.136	0.222
-698.499	-120.520	-0.070	0.012
-697.485	281.982	0.089	0.162
-696.470	-55.221	0.190	-0.087
-695.456	-113.520	0.308	0.061
-694.441	78.092	-0.369	-0.401
-693.426	698.743	-0.107	-0.286
-692.412	125.990	0.160	0.206
-691.397	800.000	-0.043	-0.141
-690.383	46.957	-0.166	-0.157
-689.368	59.882	-0.082	-0.083
-688.354	-95.630	-0.239	0.065
-687.339	-79.695	0.060	0.021
-686.324	111.088	0.227	-0.278
-685.310	-69.526	-0.379	0.148
-684.295	52.703	0.164	0.160
-683.281	162.917	0.147	0.211
-682.266	800.000	-0.030	-0.128
-681.251	-113.042	0.189	-0.038
-680.237	800.000	0.013	0.052
-679.222	-6.451	0.209	-0.145
-678.208	-151.291	0.208	-0.016
-677.193	-12.214	-0.137	-0.092
-676.178	-27.484	-0.144	-0.085
-675.164	-91.479	-0.367	0.107
-674.149	-33.391	0.095	-0.054
-673.135	506.930	0.065	-0.155
-672.120	-171.828	-0.297	-0.010
-671.105	-200.000	-0.042	-0.291
-670.091	91.631	-0.114	-0.131
-669.076	320.656	0.082	0.159
-668.062	776.486	-0.078	-0.218
-667.047	-200.000	0.001	-0.024
-666.032	404.449	-0.024	-0.052
-665.018	-69.846	-0.248	0.097
-664.003	24.598	-0.097	0.082
-662.989	43.176	0.086	0.080
-661.974	-152.843	0.213	0.015
-660.959	-173.514	-0.138	0.004
-659.945	592.542	-0.119	0.300
-658.930	-128.217	0.186	-0.027
-657.916	800.000	0.034	-0.145
-656.901	97.603	-0.048	-0.056
-655.886	-165.263	0.082	-0.004
-654.872	296.080	-0.235	-0.439
-653.857	228.189	0.119	-0.197
-652.843	-159.971	0.244	0.014
-651.828	800.000	0.082	0.283
-650.814	-49.288	0.495	0.240
-649.799	-163.350	0.236	0.011
-648.784	150.374	-0.229	-0.316
-647.770	751.197	0.102	0.279
-646.755	378.250	0.167	-0.348
-645.741	-18.367	-0.268	-0.171
-644.726	-115.378	-0.205	-0.039
-643.711	-60.333	-0.181	0.078
-642.697	-200.000	0.003	-0.062
-641.682	800.000	0.034	-0.147
-640.668	-200.000	0.022	-0.289
-639.653	123.914	-0.047	0.060
-638.638	99.860	0.122	0.143
-637.624	350.432	0.188	-0.379
-636.609	-54.774	0.090	0.041
-635.595	-12.442	-0.240	0.159
-634.580	-80.576	-0.403	0.137
-633.565	60.286	-0.294	0.296
-632.551	800.000	-0.092	0.326
-631.536	-181.210	-0.002	0.000
-630.522	83.728	-0.276	0.306
-629.507	-116.432	-0.131	-0.025
-628.492	800.000	-0.053	0.162
-627.478	-96.807	-0.321	-0.086
-626.463	268.720	-0.093	0.166
-625.449	-200.000	-0.031	-0.153
-624.434	-91.705	0.264	-0.076
-623.419	-99.788	0.372	-0.095
-622.405	88.458	0.059	-0.066
-621.390	123.672	-0.117	-0.150
-620.376	9.525	0.202	0.156
-619.361	33.184	-0.112	0.099
-618.346	-91.212	-0.103	-0.030
-617.332	-200.000	0.033	0.266
-616.317	-200.000	-0.012	-0.163
-615.303	-10.552	-0.210	0.141
-614.288	-200.000	-0.037	-0.300
-613.273	16.497	-0.090	-0.072
-612.259	-200.000	0.014	0.213
-611.244	-188.056	-0.133	-0.002
-610.230	25.148	-0.081	-0.068
-609.215	546.377	0.103	-0.251
-608.201	-63.226	-0.098	-0.041
-607.186	-0.610	0.230	-0.166
-606.171	-117.143	0.263	-0.049
-605.157	-200.000	-0.008	0.092
-604.142	-67.983	-0.266	-0.105
-603.128	-115.932	-0.226	0.043
-602.113	-144.810	0.186	-0.017
-601.098	-47.105	-0.122	0.060
-600.084	134.001	0.150	-0.197
-599.069	-200.000	0.004	-0.118
-598.055	189.651	-0.082	-0.124
-597.040	340.236	0.045	-0.089
-596.025	370.156	-0.095	0.195
-595.011	-32.801	0.142	-0.080
-593.996	-126.141	-0.321	-0.049
-592.982	23.053	-0.211	0.176
-591.967	205.083	0.282	0.444
-590.952	-60.578	-0.073	0.032
-589.938	67.278	0.251	0.260
-588.923	-175.009	-0.306	0.009
-587.909	-200.000	-0.079	0.403
-586.894	-132.291	0.193	0.025
-585.879	-200.000	0.021	0.300
-584.865	-170.063	0.118	-0.004
-583.850	689.943	-0.109	0.290
-582.836	-152.415	0.105	-0.008
-581.821	-59.327	0.391	-0.171
-580.806	248.325	0.045	-0.078
-579.792	-200.000	0.042	0.192
-578.777	-66.869	-0.676	0.271
-577.763	-40.681	-0.023	-0.012
-576.748	-200.000	0.005	-0.136
-575.733	-200.000	-0.021	-0.247
-574.719	23.892	-0.139	0.116
-573.704	-56.978	-0.079	-0.036
-572.690	-200.000	-0.015	0.090
-571.675	-200.000	0.006	0.251
-570.661	169.123	0.030	-0.043
-569.646	-200.000	-0.002	-0.098
-568.631	-200.000	0.023	-0.122
-567.617	152.366	-0.113	-0.157
-566.602	129.524	0.182	-0.236
-565.588	-9.865	-0.352	-0.238
-564.573	-126.733	-0.073	0.011
-563.558	-68.462	0.082	-0.032
-562.544	-148.881	-0.299	0.025
-561.529	171.655	0.127	0.185
-560.515	-166.846	0.140	0.006
-559.500	-23.686	-0.253	0.154
-558.485	-76.829	0.161	-0.057
-557.471	-143.830	-0.143	0.014
-556.456	800.000	-0.121	-0.399
-555.442	194.365	0.162	0.249
-554.427	31.569	0.066	0.057
-553.412	-200.000	-0.034	-0.361
-552.398	-200.000	-0.071	-0.335
-551.383	-108.545	0.214	-0.047
-550.369	-159.291	-0.056	0.003
-549.354	9.002	0.140	-0.107
-548.339	-164.019	-0.133	0.006
-547.325	-39.089	0.150	0.080
-546.310	-161.263	-0.304	-0.016
-545.296	-104.217	0.268	0.063
-544.281	-144.245	0.342	-0.032
-543.266	800.000	0.071	0.296
-542.252	200.360	-0.259	-0.403
-541.237	255.861	-0.202	-0.352
-540.223	15.240	0.237	0.188
-539.208	800.000	-0.040	-0.175
-538.193	-7.015	0.263	-0.181
-537.179	-200.000	0.032	-0.207
-536.164	-178.810	-0.217	-0.005
-535.150	-80.348	-0.140	0.047
-534.135	-51.609	0.061	0.029
-533.121	-200.000	0.028	-0.216
-532.106	800.000	-0.043	-0.177
-531.091	800.000	-0.077	-0.278
-530.077	-121.341	0.252	-0.043
-529.062	244.648	-0.145	-0.246
-528.048	-87.904	0.208	0.063
-527.033	149.980	0.196	-0.269
-526.018	800.000	-0.039	0.174
-525.004	5.329	0.280	-0.209
-523.989	-200.000	-0.022	-0.200
-522.975	800.000	-0.076	0.216
-521.960	99.309	-0.184	-0.215
-520.945	-57.354	0.045	0.020
-519.931	-200.000	0.002	-0.176
-518.916	-200.000	-0.006	-0.078
-517.902	-0.825	-0.162	-0.116
-516.887	800.000	-0.068	0.205
-515.872	-200.000	-0.015	-0.265
-514.858	189.955	-0.247	-0.376
-513.843	-125.377	-0.194	0.030
-512.829	22.330	-0.024	0.020
-511.814	-43.978	0.021	0.011
-510.799	567.499	0.067	0.165
-509.785	-93.317	0.434	-0.122
-508.770	562.444	-0.117	-0.286
-507.756	286.901	-0.062	0.113
-506.741	571.169	-0.060	-0.147
-505.726	-200.000	0.004	0.264
-504.712	-55.855	0.193	0.087
-503.697	-154.377	-0.195	0.013
-502.683	61.344	-0.246	0.248
-501.668	163.180	0.111	0.158
-500.653	-91.394	0.106	-0.031
-499.639	149.152	-0.150	0.205
-498.624	-64.101	-0.207	0.085
-497.610	7.121	-0.344	-0.260
-496.595	283.555	-0.122	-0.223
-495.581	800.000	-0.080	-0.259
-494.566	-123.700	-0.302	0.048
-493.551	157.857	0.124	0.174
-492.537	-28.265	-0.273	0.160
-491.522	-20.608	-0.075	-0.047
-490.508	-200.000	0.009	0.100
-489.493	180.518	0.080	-0.119
-488.478	-128.812	-0.155	-0.022
-487.464	49.008	0.060	-0.057
-486.449	86.447	0.086	0.096
-485.435	-82.375	-0.118	-0.039
-484.420	-69.562	-0.261	-0.101
-483.405	800.000	0.028	0.116
-482.391	-114.270	-0.169	-0.033
-481.376	-200.000	0.106	-0.000
-480.362	-43.603	-0.090	0.046
-479.347	271.843	0.089	0.159
-478.332	800.000	0.095	0.334
-477.318	800.000	-0.076	0.307
-476.303	-200.000	0.030	0.251
-475.289	-200.000	0.070	0.346
-474.274	-149.165	-0.093	-0.007
-473.259	-65.326	-0.166	0.067
-472.245	-158.779	-0.004	-0.000
-471.230	-41.773	0.268	-0.139
-470.216	-200.000	-0.051	-0.287
-469.201	-146.612	-0.032	-0.003
-468.186	-12.295	0.227	0.150
-467.172	-91.150	-0.132	0.038
-466.157	800.000	0.088	-0.284
-465.143	87.300	0.031	-0.035
-464.128	-121.398	0.180	-0.030
-463.113	356.877	0.170	0.343
-462.099	-10.319	0.073	0.049
-461.084	-66.074	-0.044	-0.018
-460.070	91.751	0.120	-0.137
-459.055	434.253	-0.201	0.442
-458.040	800.000	-0.100	0.308
-457.026	-108.324	0.029	0.006
-456.011	239.682	0.158	-0.266
-454.997	-200.000	-0.003	0.022
-453.982	179.202	-0.151	0.223
-452.968	-47.193	0.264	0.130
-451.953	800.000	0.101	-0.383
-450.938	35.021	0.141	0.125
-449.924	-200.000	-0.006	-0.089
-448.909	-200.000	-0.026	-0.164
-447.895	-200.000	-0.078	0.347
-446.880	375.261	-0.020	-0.041
-445.865	-83.298	0.084	-0.027
-444.851	-59.623	-0.097	0.042
-443.836	800.000	-0.046	-0.186
-442.822	95.556	0.273	0.315
-441.807	-200.000	0.015	0.141
-440.792	131.250	0.065	-0.085
-439.778	274.003	0.091	-0.163
-438.763	-106.622	-0.193	0.043
-437.749	-148.606	0.181	-0.015
-436.734	-60.388	0.322	-0.138
-435.719	17.340	0.108	0.087
-434.705	-41.802	0.404	0.209
-433.690	107.772	-0.147	-0.176
-432.676	344.329	0.109	0.215
-431.661	-24.816	0.244	0.146
-430.646	-200.000	0.030	0.172
-429.632	692.236	-0.131	0.347
-428.617	88.011	-0.108	-0.121
-427.603	-84.328	-0.170	0.054
-426.588	358.656	-0.141	-0.284
-425.573	-200.000	0.018	0.253
-424.559	-70.199	0.213	0.082
-423.544	31.822	0.204	-0.177
-422.530	452.591	0.083	0.185
-421.515	-136.017	0.096	-0.011
-420.500	-200.000	0.057	0.264
-419.486	189.035	-0.026	0.039
-418.471	466.597	0.216	0.488
-417.457	-128.186	0.340	0.049
-416.442	800.000	-0.056	-0.189
-415.428	800.000	-0.095	-0.312
-414.413	-200.000	-0.036	0.188
-413.398	800.000	-0.060	-0.183
-412.384	721.675	0.034	-0.091
-411.369	60.736	-0.099	0.099
-410.355	-123.072	0.120	-0.019
-409.340	300.721	0.135	0.252
-408.325	278.873	-0.164	0.294
-407.311	-200.000	-0.006	0.219
-406.296	-200.000	0.014	0.151
-405.282	77.997	-0.280	-0.301
-404.267	-200.000	0.014	-0.133
-403.252	-175.289	-0.131	0.004
-402.238	768.084	0.016	-0.044
-401.223	39.772	0.097	0.088
-400.209	-94.215	0.027	-0.007
-399.194	-196.730	-0.367	0.002
-398.179	39.295	-0.294	0.265
-397.165	469.327	-0.127	-0.287
-396.150	-162.313	0.247	-0.012
-395.136	20.044	0.139	0.113
-394.121	-128.884	-0.349	-0.049
-393.106	223.768	-0.214	-0.348
-392.092	-89.280	0.180	-0.054
-391.077	-124.352	0.064	-0.010
-390.063	800.000	-0.075	0.263
-389.048	-90.625	0.178	-0.052
-388.033	585.220	0.091	-0.225
-387.019	-170.841	-0.114	-0.004
-386.004	-178.913	-0.328	0.007
-384.990	115.028	-0.107	-0.132
-383.975	306.430	-0.215	-0.403
-382.960	-200.000	0.003	0.076
-381.946	800.000	-0.111	-0.425
-380.931	-200.000	0.003	-0.232
-379.917	91.127	-0.205	0.231
-378.902	-46.126	-0.198	0.098
-377.888	-136.172	-0.144	0.017
-376.873	-200.000	-0.009	0.152
-375.858	-182.599	0.167	-0.003
-374.844	-83.820	0.321	0.103
-373.829	800.000	0.118	-0.336
-372.815	-77.759	0.327	-0.114
-371.800	41.557	0.171	0.156
-370.785	56.912	-0.111	0.109
-369.771	181.392	-0.107	0.159
-368.756	243.014	-0.051	-0.086
-367.742	411.216	-0.082	0.176
-366.727	142.054	-0.102	0.137
-365.712	5.335	0.161	0.119
-364.698	-150.802	0.189	-0.014
-363.683	458.733	-0.155	-0.348
-362.669	800.000	-0.027	-0.075
-361.654	-200.000	0.063	-0.659
-360.639	-200.000	0.013	-0.358
-359.625	-50.820	0.234	0.111
-358.610	242.189	0.123	0.207
-357.596	-69.862	0.103	0.039
-356.581	-113.930	0.164	0.032
-355.566	105.546	-0.071	-0.085
-354.552	800.000	0.045	0.133
-353.537	-33.438	-0.155	0.086
-352.523	-80.512	-0.138	0.046
-351.508	-89.735	0.290	0.086
-350.493	-200.000	-0.016	0.320
-349.479	52.340	-0.127	0.122
-348.464	-108.645	-0.438	0.094
-347.450	-120.517	-0.215	-0.037
-346.435	-200.000	-0.020	0.245
-345.420	-47.141	0.035	0.017
-344.406	205.510	0.199	0.311
-343.391	87.911	0.140	0.156
-342.377	350.584	0.130	0.258
-341.362	800.000	0.043	0.169
-340.348	45.388	-0.246	-0.228
-339.333	124.901	0.177	0.224
-338.318	-200.000	-0.002	-0.064
-337.304	-200.000	-0.032	-0.144
-336.289	-3.959	-0.189	0.132
-335.275	191.421	-0.052	-0.078
-334.260	-82.214	0.168	-0.055
-333.245	616.251	0.039	0.098
-332.231	-7.041	-0.341	-0.233
-331.216	-56.474	0.063	-0.028
-330.202	11.636	0.087	0.067
-329.187	-107.758	0.138	0.030
-328.172	-36.442	0.415	-0.225
-327.158	-41.372	-0.103	-0.053
-326.143	-68.060	-0.191	0.075
-325.129	-54.952	-0.072	-0.033
-324.114	-200.000	-0.004	0.051
-323.099	-151.180	0.187	-0.014
-322.085	31.287	0.181	0.156
-321.070	-37.848	0.184	-0.098
-320.056	50.897	-0.162	-0.154
-319.041	800.000	-0.009	-0.036
-318.026	-108.640	-0.205	0.044
-317.012	-111.571	0.191	0.039
-315.997	256.944	0.016	-0.028
-314.983	149.123	-0.175	-0.238
-313.968	-46.175	0.217	0.107
-312.953	-200.000	0.004	0.081
-311.939	-109.061	-0.175	0.037
-310.924	800.000	-0.028	0.086
-309.910	295.281	0.025	0.045
-308.895	135.414	-0.160	-0.209
-307.880	-200.000	0.000	-0.212
-306.866	84.652	0.206	0.227
-305.851	-200.000	0.051	0.324
-304.837	-110.943	0.469	-0.097
-303.822	-62.133	0.126	0.053
-302.807	-200.000	-0.040	-0.196
-301.793	472.525	0.118	-0.266
-300.778	800.000	0.072	0.260
-299.764	-58.526	-0.041	-0.018
-298.749	44.085	-0.124	-0.114
-297.735	-165.917	0.133	0.006
-296.720	-200.000	0.043	0.189
-295.705	-48.840	-0.147	-0.071
-294.691	800.000	0.031	-0.113
-293.676	138.375	-0.202	0.266
-292.662	-200.000	-0.021	0.141
-291.647	800.000	-0.077	0.275
-290.632	15.308	0.400	-0.315
-289.618	100.249	0.167	-0.194
-288.603	800.000	0.092	0.347
-287.589	-125.244	-0.139	-0.021
-286.574	175.739	-0.114	0.166
-285.559	212.218	0.063	0.100
-284.545	-200.000	0.006	-0.082
-283.530	27.303	0.092	-0.078
-282.516	-200.000	0.035	-0.319
-281.501	-20.362	0.157	0.097
-280.486	316.578	-0.165	0.312
-279.472	-24.526	-0.166	0.099
-278.457	-200.000	-0.020	-0.195
-277.443	-16.826	-0.480	-0.305
-276.428	133.482	0.103	0.134
-275.413	-139.582	0.221	-0.024
-274.399	-200.000	-0.329	-0.001
-273.384	-200.000	0.077	0.419
-272.370	17.121	-0.143	-0.114
-271.355	800.000	0.009	0.036
-270.340	-200.000	0.021	0.198
-269.326	177.636	-0.151	0.220
-268.311	214.693	0.218	0.346
-267.297	-133.556	0.057	0.007
-266.282	399.840	0.136	0.286
-265.267	-200.000	0.019	-0.279
-264.253	3.028	-0.035	0.026
-263.238	-200.000	0.009	0.114
-262.224	-24.606	-0.156	0.093
-261.209	-153.917	-0.201	0.014
-260.195	-200.000	0.017	0.374
-259.180	-58.413	-0.139	0.061
-258.165	-200.000	0.052	0.268
-257.151	-61.915	0.274	-0.115
-256.136	217.862	-0.236	-0.377
-255.122	-200.000	0.014	0.158
-254.107	-64.546	-0.412	0.168
-253.092	-200.000	-0.026	0.318
-252.078	36.143	-0.124	-0.110
-251.063	-86.436	0.291	0.089
-250.049	-21.765	0.061	0.037
-249.034	-50.658	0.090	0.043
-248.019	178.905	0.067	0.097
-247.005	-200.000	0.053	0.396
-245.990	800.000	-0.050	0.144
-244.976	-125.479	-0.394	0.060
-243.961	-88.757	0.110	-0.033
-242.946	-200.000	0.020	-0.134
-241.932	-200.000	-0.097	-0.471
-240.917	-200.000	0.014	-0.199
-239.903	-62.661	-0.098	0.041
-238.888	-47.339	0.090	0.044
-237.873	-200.000	-0.011	-0.249
-236.859	800.000	-0.090	-0.266
-235.844	-127.732	0.156	0.023
-234.830	-200.000	0.149	0.000
-233.815	-100.615	-0.125	-0.031
-232.800	100.212	0.078	-0.091
-231.786	58.318	0.243	0.239
-230.771	-105.461	0.156	-0.035
-229.757	-200.000	0.066	-0.371
-228.742	51.733	0.245	-0.234
-227.727	70.961	0.126	-0.131
-226.713	20.781	-0.236	-0.192
-225.698	156.875	-0.072	-0.099
-224.684	800.000	-0.065	0.245
-223.669	800.000	-0.118	0.376
-222.655	5.248	-0.178	0.131
-221.640	-83.662	-0.025	-0.008
-220.625	-160.034	-0.146	0.008
-219.611	785.897	0.118	0.324
-218.596	-12.908	-0.137	0.089
-217.582	-1.273	0.203	-0.144
-216.567	-89.466	0.169	-0.050
-215.552	-144.062	0.084	0.008
-214.538	-75.746	0.117	0.042
-213.523	166.610	0.115	0.164
-212.509	65.415	0.411	-0.416
-211.494	686.287	0.193	-0.504
-210.479	49.164	0.220	-0.207
-209.465	431.636	0.073	0.159
-208.450	-200.000	0.036	-0.277
-207.436	-200.000	0.017	0.097
-206.421	125.754	0.039	0.049
-205.406	327.996	0.044	-0.084
-204.392	531.288	0.063	0.148
-203.377	800.000	0.052	-0.161
-202.363	-27.487	0.155	-0.090
-201.348	800.000	-0.083	-0.342
-200.333	-200.000	-0.016	0.136
-199.319	-200.000	0.022	-0.500
-198.304	-200.000	-0.056	-0.326
-197.290	800.000	-0.019	0.060
-196.275	33.563	-0.182	-0.158
-195.260	-155.781	0.194	0.012
-194.246	-83.858	0.079	-0.025
-193.231	-36.929	0.234	0.125
-192.217	-25.961	0.229	-0.135
-191.202	139.719	-0.176	-0.232
-190.187	676.850	-0.030	-0.079
-189.173	369.812	0.110	0.223
-188.158	-93.969	0.135	0.037
-187.144	-200.000	0.031	-0.188
-186.129	-200.000	-0.019	0.426
-185.114	199.649	-0.083	0.127
-184.100	-72.593	0.258	0.095
-183.085	800.000	-0.024	0.105
-182.071	202.316	-0.184	-0.285
-181.056	-145.647	-0.343	0.031
-180.042	49.689	0.146	-0.138
-179.027	-65.867	-0.016	0.007
-178.012	0.489	-0.053	-0.038
-176.998	-169.610	-0.273	-0.010
-175.983	-55.579	0.387	-0.173
-174.969	-49.313	0.356	-0.170
-173.954	30.616	-0.237	0.203
-172.939	290.936	-0.025	0.045
-171.925	33.878	0.066	-0.057
-170.910	-118.832	-0.292	0.051
-169.896	-200.000	0.019	0.290
-168.881	-200.000	0.024	-0.155
-167.866	-150.158	-0.152	0.012
-166.852	-23.082	0.151	-0.091
-165.837	800.000	-0.035	-0.118
-164.823	-200.000	0.017	-0.094
-163.808	-93.192	0.265	0.074
-162.793	-200.000	0.029	-0.269
-161.779	-200.000	0.013	0.112
-160.764	595.736	0.135	0.334
-159.750	-82.198	-0.158	-0.051
-158.735	-123.169	0.130	-0.021
-157.720	-200.000	0.006	-0.293
-156.706	800.000	-0.014	0.052
-155.691	-103.417	-0.196	0.046
-154.677	-200.000	0.002	-0.058
-153.662	-48.347	-0.195	0.094
-152.647	-79.855	-0.254	-0.085
-151.633	-82.182	0.364	-0.118
-150.618	28.398	0.155	-0.131
-149.604	372.372	-0.129	0.262
-148.589	800.000	0.067	0.249
-147.574	-40.154	-0.034	-0.018
-146.560	-200.000	-0.072	-0.342
-145.545	-96.448	0.037	0.010
-144.531	-0.436	-0.087	-0.062
-143.516	203.844	0.042	0.065
-142.502	-177.012	0.176	-0.004
-141.487	-91.586	-0.193	-0.055
-140.472	-200.000	0.022	0.185
-139.458	-200.000	0.031	0.255
-138.443	417.523	0.108	0.230
-137.429	13.271	-0.035	0.027
-136.414	275.850	0.179	0.317
-135.399	25.434	-0.135	-0.112
-134.385	800.000	0.056	-0.208
-133.370	-63.646	0.127	-0.052
-132.356	800.000	-0.029	0.114
-131.341	111.983	0.247	0.298
-130.326	-162.960	0.159	-0.008
-129.312	164.539	-0.206	-0.289
-128.297	767.824	-0.079	-0.215
-127.283	-73.340	0.438	0.160
-126.268	99.879	0.038	0.044
-125.253	201.894	0.188	-0.289
-124.239	-24.010	0.238	0.142
-123.224	681.709	-0.064	-0.165
-122.210	400.030	0.120	0.251
