DTS Sentinel unit serial number:	SN413079Multiplexer serial number:	ORYXHardware model number:	OX4-SRSoftware version number:	ORYX F/W v4.00 Oryx Data Collector v3.7.2.0data status	okinstallation	princeton_trtdifferential loss correction	single-endedforward channel	channel 3reverse channel	N/Adate	2019/09/16time	04:24:34forward acquisition time	60.00reverse acquisition time	0.00gamma	496.2192k internal	0.2336k external	0.2336temperature offset calibration	0.9954default loss term (dB/km)	0.3790temperature slope calibration	1.0000multiplexer offset coefficient	1.0000multiplexer slope coefficient	1.0000fibre end	0.00T internal ref (°C)	27.31T ext. ref 1 (°C)	10.81T ext. ref 2 (°C)	21.39length (m)	temperature (°C)	Stokes	anti-Stokes-747.200	74.623	-0.292	0.308
-746.185	800.000	-0.066	0.216
-745.171	-25.768	0.106	0.063
-744.156	-90.423	-0.122	-0.036
-743.142	-200.000	-0.026	0.273
-742.127	57.714	-0.266	0.261
-741.112	-115.411	-0.204	-0.039
-740.098	47.021	-0.167	0.156
-739.083	-126.414	0.073	0.011
-738.069	8.923	0.246	0.186
-737.054	-58.823	0.232	-0.101
-736.039	105.708	-0.259	-0.307
-735.025	-200.000	-0.016	0.149
-734.010	-100.822	-0.056	0.014
-732.996	-29.025	-0.354	-0.204
-731.981	-102.157	-0.492	0.119
-730.966	157.917	0.184	0.256
-729.952	-74.319	-0.414	0.150
-728.937	77.623	0.245	0.262
-727.923	48.243	0.079	0.075
-726.908	-200.000	0.000	-0.007
-725.894	-77.951	-0.134	-0.046
-724.879	-107.226	-0.318	0.070
-723.864	-200.000	-0.015	0.084
-722.850	800.000	-0.074	-0.214
-721.835	19.034	0.100	-0.080
-720.821	401.657	-0.058	-0.121
-719.806	-23.007	-0.236	0.143
-718.791	8.501	-0.148	0.111
-717.777	-53.679	-0.481	-0.221
-716.762	800.000	0.116	0.482
-715.748	-62.051	0.131	0.055
-714.733	-200.000	0.041	-0.433
-713.718	84.362	-0.181	-0.199
-712.704	35.050	-0.234	0.206
-711.689	62.631	0.191	0.191
-710.675	258.763	-0.026	0.046
-709.660	44.852	0.288	0.266
-708.645	299.969	-0.196	-0.363
-707.631	800.000	-0.064	0.278
-706.616	-200.000	-0.032	-0.153
-705.602	-162.405	0.267	0.013
-704.587	-44.194	-0.086	-0.043
-703.572	-20.189	-0.206	-0.127
-702.558	1.023	0.150	0.108
-701.543	800.000	-0.088	-0.303
-700.529	-102.883	-0.055	-0.013
-699.514	-200.000	-0.024	-0.183
-698.499	467.576	-0.032	-0.071
-697.485	800.000	0.016	-0.053
-696.470	291.941	-0.085	0.156
-695.456	-200.000	0.025	-0.254
-694.441	685.654	0.033	0.086
-693.426	178.108	-0.033	-0.048
-692.412	134.099	0.049	0.064
-691.397	-117.173	0.244	0.045
-690.383	-25.643	-0.174	0.103
-689.368	-56.116	0.102	0.046
-688.354	800.000	0.036	0.152
-687.339	-120.640	-0.140	-0.024
-686.324	93.964	0.364	0.414
-685.310	-128.725	-0.280	0.040
-684.295	-19.110	0.135	-0.084
-683.281	800.000	-0.119	-0.363
-682.266	28.575	-0.294	-0.250
-681.251	187.992	-0.205	-0.307
-680.237	-83.430	0.140	-0.045
-679.222	-112.694	0.274	0.055
-678.208	-76.044	0.233	0.082
-677.193	26.737	-0.113	-0.095
-676.178	79.917	-0.249	-0.268
-675.164	-99.452	0.252	-0.064
-674.149	114.959	0.188	-0.229
-673.135	-12.415	-0.061	-0.040
-672.120	-131.160	-0.163	-0.022
-671.105	175.488	0.187	-0.272
-670.091	-200.000	0.035	-0.335
-669.076	429.549	0.099	-0.214
-668.062	98.468	-0.058	-0.067
-667.047	287.162	-0.009	0.016
-666.032	107.360	-0.209	-0.249
-665.018	329.366	-0.167	-0.321
-664.003	544.776	-0.057	0.136
-662.989	800.000	-0.105	-0.378
-661.974	-178.422	-0.203	0.005
-660.959	-116.700	0.240	-0.044
-659.945	800.000	0.049	-0.149
-658.930	800.000	-0.093	0.270
-657.916	242.563	0.216	-0.362
-656.901	800.000	0.067	0.260
-655.886	-159.573	0.283	0.016
-654.872	58.349	-0.139	-0.136
-653.857	48.001	-0.040	-0.038
-652.843	334.283	-0.121	-0.234
-651.828	-200.000	-0.064	0.305
-650.814	99.604	-0.177	-0.205
-649.799	-34.936	0.122	0.066
-648.784	-200.000	0.033	-0.224
-647.770	-68.193	0.185	0.072
-646.755	-200.000	-0.090	0.474
-645.741	800.000	-0.114	-0.342
-644.726	800.000	0.026	-0.098
-643.711	-23.753	-0.211	-0.126
-642.697	-73.708	-0.294	0.107
-641.682	254.192	0.131	-0.224
-640.668	800.000	0.016	-0.050
-639.653	-151.618	-0.339	0.025
-638.638	116.376	-0.052	0.063
-637.624	79.287	0.076	-0.081
-636.609	-64.233	-0.235	0.096
-635.595	165.218	-0.079	-0.111
-634.580	-105.567	-0.259	-0.059
-633.565	-200.000	-0.092	-0.414
-632.551	-200.000	-0.015	0.207
-631.536	155.078	-0.278	-0.382
-630.522	-200.000	-0.023	0.131
-629.507	-200.000	-0.027	-0.218
-628.492	476.275	0.140	-0.315
-627.478	-0.699	0.128	0.091
-626.463	113.440	-0.086	0.104
-625.449	-104.009	-0.388	0.090
-624.434	39.582	-0.142	0.127
-623.419	105.414	-0.194	-0.229
-622.405	409.398	-0.089	-0.188
-621.390	59.115	0.112	0.110
-620.376	-80.205	-0.160	0.053
-619.361	800.000	0.038	-0.153
-618.346	-95.216	0.071	0.019
-617.332	-200.000	0.003	0.163
-616.317	162.565	-0.240	0.336
-615.303	-200.000	-0.008	0.095
-614.288	503.214	0.214	-0.496
-613.273	333.067	0.098	0.190
-612.259	-103.362	-0.372	0.088
-611.244	315.046	-0.026	0.049
-610.230	4.174	0.118	0.086
-609.215	333.038	-0.110	-0.211
-608.201	-42.992	-0.298	0.151
-607.186	-200.000	-0.026	-0.268
-606.171	800.000	-0.055	-0.223
-605.157	-137.092	-0.161	-0.018
-604.142	-101.167	-0.339	0.083
-603.128	800.000	-0.002	-0.007
-602.113	-200.000	0.015	0.143
-601.098	-146.591	0.354	0.031
-600.084	24.411	0.163	0.135
-599.069	-130.367	-0.049	0.007
-598.055	-200.000	-0.046	0.398
-597.040	550.541	-0.074	-0.177
-596.025	-132.201	0.257	0.033
-595.011	42.325	-0.261	-0.237
-593.996	92.142	0.149	-0.168
-592.982	-144.020	-0.177	0.017
-591.967	-1.710	-0.109	0.077
-590.952	240.952	-0.141	0.236
-589.938	-200.000	-0.001	0.101
-588.923	-50.339	-0.138	0.065
-587.909	-200.000	-0.005	0.152
-586.894	-42.007	0.070	0.036
-585.879	112.294	0.085	-0.102
-584.865	134.940	0.212	0.274
-583.850	-49.176	-0.161	-0.077
-582.836	-200.000	-0.033	-0.174
-581.821	-200.000	0.071	0.345
-580.806	-190.878	0.298	-0.003
-579.792	-6.141	-0.389	0.265
-578.777	-42.330	0.289	0.147
-577.763	-14.447	0.226	-0.145
-576.748	800.000	0.043	-0.185
-575.733	-121.289	0.136	-0.023
-574.719	7.615	-0.132	0.099
-573.704	15.703	0.474	0.372
-572.690	-187.116	-0.238	0.003
-571.675	441.693	0.117	-0.255
-570.661	116.661	0.051	0.062
-569.646	800.000	0.050	-0.163
-568.631	-109.240	-0.284	0.060
-567.617	-200.000	0.011	0.288
-566.602	136.982	0.159	-0.208
-565.588	84.370	-0.042	-0.046
-564.573	800.000	0.083	0.238
-563.558	95.501	-0.107	-0.121
-562.544	-200.000	0.032	0.288
-561.529	697.468	-0.183	0.480
-560.515	23.418	-0.100	0.082
-559.500	31.307	0.106	-0.091
-558.485	438.646	-0.152	-0.330
-557.471	-200.000	0.024	-0.206
-556.456	-200.000	0.047	0.231
-555.442	-200.000	0.036	-0.277
-554.427	-119.805	0.273	-0.047
-553.412	-112.275	-0.121	-0.024
-552.398	800.000	-0.125	-0.395
-551.383	-150.281	-0.207	0.016
-550.369	800.000	-0.111	-0.392
-549.354	150.845	-0.147	-0.199
-548.339	-110.291	-0.155	0.032
-547.325	800.000	0.031	0.122
-546.310	194.911	0.165	0.249
-545.296	108.645	-0.153	0.182
-544.281	-115.042	0.256	0.048
-543.266	33.193	0.017	-0.015
-542.252	9.921	0.176	-0.133
-541.237	4.140	-0.217	-0.158
-540.223	-141.697	-0.158	0.016
-539.208	-16.123	-0.188	-0.119
-538.193	-74.618	-0.068	-0.024
-537.179	71.078	-0.008	0.008
-536.164	691.726	0.035	0.090
-535.150	800.000	0.043	-0.163
-534.135	-200.000	0.026	-0.153
-533.121	121.306	-0.113	-0.141
-532.106	-200.000	-0.014	-0.124
-531.091	-63.929	-0.039	-0.016
-530.077	139.474	-0.044	0.058
-529.062	7.023	0.083	-0.061
-528.048	-200.000	0.023	0.162
-527.033	158.475	0.181	0.250
-526.018	556.418	0.115	-0.275
-525.004	232.981	-0.125	-0.205
-523.989	54.499	0.165	-0.159
-522.975	6.326	-0.128	0.095
-521.960	-190.916	0.214	-0.002
-520.945	-200.000	-0.050	0.232
-519.931	727.176	-0.041	0.108
-518.916	-48.373	-0.178	-0.085
-517.902	-112.299	-0.171	0.034
-516.887	144.204	-0.284	0.377
-515.872	23.107	-0.065	0.053
-514.858	-117.286	0.205	0.037
-513.843	-200.000	0.008	-0.434
-512.829	-53.858	-0.062	0.028
-511.814	-17.932	0.004	0.003
-510.799	63.408	0.225	-0.225
-509.785	260.449	-0.053	0.091
-508.770	60.592	0.319	0.314
-507.756	800.000	-0.064	0.206
-506.741	199.828	0.101	0.154
-505.726	213.362	0.129	-0.202
-504.712	-200.000	-0.064	-0.456
-503.697	19.590	-0.185	-0.148
-502.683	-200.000	-0.027	-0.187
-501.668	-24.134	0.116	-0.069
-500.653	105.069	-0.393	0.461
-499.639	73.000	-0.114	0.118
-498.624	2.903	-0.180	-0.130
-497.610	489.383	0.017	-0.038
-496.595	154.045	0.117	0.160
-495.581	-200.000	0.026	-0.250
-494.566	16.812	0.227	-0.179
-493.551	11.285	-0.099	-0.075
-492.537	72.146	0.236	-0.244
-491.522	-41.969	0.346	0.176
-490.508	-42.369	0.276	-0.140
-489.493	-32.820	-0.254	-0.140
-488.478	74.989	-0.058	-0.061
-487.464	-36.952	0.072	-0.038
-486.449	119.949	0.131	0.161
-485.435	262.086	0.229	0.395
-484.420	265.877	0.211	0.367
-483.405	-71.028	-0.175	0.066
-482.391	54.805	0.134	-0.128
-481.376	-22.923	-0.037	-0.022
-480.362	137.362	-0.253	-0.329
-479.347	249.640	0.007	-0.012
-478.332	800.000	-0.014	0.040
-477.318	-160.833	0.113	-0.006
-476.303	-85.827	-0.275	0.085
-475.289	48.569	-0.127	0.118
-474.274	144.656	0.097	0.129
-473.259	-133.639	0.511	-0.063
-472.245	-91.045	-0.110	-0.031
-471.230	-43.920	0.127	0.064
-470.216	800.000	-0.132	-0.372
-469.201	-112.690	0.196	-0.039
-468.186	-60.743	-0.087	-0.037
-467.172	50.419	0.038	0.035
-466.157	-53.882	-0.174	-0.079
-465.143	-200.000	0.020	0.108
-464.128	-12.395	-0.098	0.063
-463.113	-200.000	-0.014	-0.237
-462.099	-200.000	-0.023	0.291
-461.084	708.803	-0.076	0.201
-460.070	-107.467	-0.356	-0.078
-459.055	800.000	-0.092	0.287
-458.040	-200.000	-0.034	0.343
-457.026	201.605	0.289	0.443
-456.011	-116.728	0.084	-0.015
-454.997	-115.016	-0.244	0.046
-453.982	-200.000	-0.021	-0.362
-452.968	466.455	-0.113	-0.251
-451.953	-36.200	-0.044	-0.023
-450.938	558.798	-0.078	-0.186
-449.924	-200.000	-0.003	-0.136
-448.909	-200.000	0.003	0.429
-447.895	312.581	0.039	0.073
-446.880	-200.000	-0.044	-0.329
-445.865	52.615	0.022	0.021
-444.851	-62.337	-0.317	-0.131
-443.836	-64.552	0.376	-0.152
-442.822	-200.000	-0.028	-0.345
-441.807	183.115	0.041	-0.059
-440.792	-200.000	-0.040	0.173
-439.778	800.000	-0.044	-0.142
-438.763	378.791	-0.194	-0.394
-437.749	110.783	0.211	0.252
-436.734	241.395	-0.180	0.299
-435.719	800.000	0.022	0.086
-434.705	800.000	-0.090	-0.381
-433.690	-91.945	-0.026	-0.007
-432.676	-41.551	-0.213	0.109
-431.661	534.946	0.105	0.247
-430.646	161.661	-0.086	-0.119
-429.632	-200.000	-0.047	0.286
-428.617	-200.000	-0.001	0.187
-427.603	137.416	0.081	0.105
-426.588	-200.000	0.011	0.538
-425.573	82.202	-0.119	-0.128
-424.559	-138.703	0.231	-0.025
-423.544	47.303	-0.035	0.033
-422.530	-200.000	0.037	0.180
-421.515	486.660	0.031	0.069
-420.500	-200.000	0.028	0.226
-419.486	53.803	-0.138	0.131
-418.471	800.000	-0.055	-0.154
-417.457	-200.000	-0.003	0.063
-416.442	68.817	-0.159	0.162
-415.428	-66.981	0.260	-0.102
-414.413	356.893	-0.189	-0.373
-413.398	800.000	0.064	0.203
-412.384	-123.401	-0.081	0.013
-411.369	-159.951	0.103	0.006
-410.355	115.545	0.131	-0.159
-409.340	-200.000	0.000	-0.009
-408.325	92.954	0.253	-0.284
-407.311	703.547	-0.047	0.124
-406.296	-86.330	0.142	0.043
-405.282	-186.753	-0.239	-0.003
-404.267	334.026	-0.040	0.078
-403.252	-63.012	-0.140	0.057
-402.238	-98.139	0.397	-0.101
-401.223	-200.000	0.034	-0.189
-400.209	800.000	-0.021	0.077
-399.194	-42.006	-0.115	0.058
-398.179	128.025	0.128	0.161
-397.165	800.000	0.037	0.124
-396.150	-200.000	0.023	0.165
-395.136	54.112	-0.055	-0.052
-394.121	-200.000	-0.041	-0.350
-393.106	-81.479	0.097	0.032
-392.092	800.000	-0.111	-0.391
-391.077	-200.000	0.010	0.529
-390.063	-94.243	0.412	-0.112
-389.048	64.666	0.084	0.084
-388.033	-132.512	-0.070	-0.009
-387.019	761.334	-0.083	0.223
-386.004	62.842	0.133	-0.132
-384.990	30.964	-0.228	-0.193
-383.975	-154.227	-0.271	-0.018
-382.960	-27.791	-0.131	0.075
-381.946	-200.000	-0.099	-0.570
-380.931	-200.000	-0.016	0.108
-379.917	-149.790	0.189	0.015
-378.902	-200.000	0.037	-0.252
-377.888	80.806	0.249	-0.266
-376.873	-122.120	-0.263	0.043
-375.858	277.741	0.240	0.423
-374.844	28.445	-0.101	0.085
-373.829	778.306	-0.090	0.243
-372.815	-88.659	0.400	-0.118
-371.800	542.639	0.094	0.222
-370.785	50.853	0.180	-0.169
-369.771	31.244	0.070	0.060
-368.756	800.000	0.054	-0.152
-367.742	198.528	-0.165	0.250
-366.727	261.497	0.155	-0.266
-365.712	-70.459	0.034	-0.013
-364.698	-141.993	-0.049	-0.005
-363.683	-48.028	-0.287	0.137
-362.669	-171.589	0.216	0.007
-361.654	-50.489	0.152	-0.071
-360.639	-22.030	-0.183	0.110
-359.625	-200.000	0.067	-0.296
-358.610	104.600	0.071	-0.083
-357.596	-104.148	0.271	-0.062
-356.581	-59.660	0.116	0.049
-355.566	-200.000	0.022	0.116
-354.552	800.000	-0.026	0.106
-353.537	103.731	0.110	-0.128
-352.523	800.000	0.065	0.229
-351.508	366.860	0.197	0.394
-350.493	-12.374	-0.053	0.034
-349.479	35.764	-0.283	0.246
-348.464	-68.780	-0.124	0.048
-347.450	-38.717	-0.124	-0.065
-346.435	800.000	0.086	-0.281
-345.420	800.000	0.046	-0.157
-344.406	73.386	0.219	-0.227
-343.391	-172.480	-0.284	-0.009
-342.377	-55.174	-0.182	0.081
-341.362	800.000	-0.126	0.538
-340.348	299.091	-0.180	-0.327
-339.333	8.436	-0.152	-0.113
-338.318	51.118	0.294	0.275
-337.304	-82.720	-0.300	0.096
-336.289	-52.813	0.075	0.034
-335.275	-200.000	-0.004	0.126
-334.260	-200.000	-0.067	0.348
-333.245	-67.499	-0.456	0.177
-332.231	93.080	-0.103	-0.116
-331.216	-74.884	-0.450	0.160
-330.202	695.525	0.124	0.321
-329.187	188.753	0.108	0.160
-328.172	306.994	-0.075	-0.137
-327.158	-200.000	-0.001	-0.089
-326.143	-200.000	0.049	0.259
-325.129	-96.983	-0.151	0.039
-324.114	332.841	0.031	0.058
-323.099	61.122	-0.060	0.059
-322.085	-84.482	-0.119	-0.037
-321.070	1.715	0.201	0.143
-320.056	277.009	-0.061	-0.107
-319.041	26.609	-0.408	0.337
-318.026	-200.000	-0.012	0.275
-317.012	-164.039	-0.226	0.010
-315.997	147.535	0.050	0.067
-314.983	8.613	0.077	0.057
-313.968	207.217	-0.247	-0.380
-312.953	115.308	-0.211	0.254
-311.939	-142.170	-0.078	0.008
-310.924	-139.892	0.261	-0.027
-309.910	259.996	0.240	-0.409
-308.895	-200.000	0.023	0.298
-307.880	142.937	0.176	-0.231
-306.866	-59.442	-0.298	-0.127
-305.851	-52.119	-0.229	-0.105
-304.837	-132.216	0.344	0.044
-303.822	181.998	-0.118	-0.172
-302.807	-176.521	-0.058	0.001
-301.793	262.964	0.335	-0.574
-300.778	17.841	-0.023	0.018
-299.764	-149.893	0.189	-0.015
-298.749	18.912	-0.312	-0.247
-297.735	800.000	0.132	-0.373
-296.720	77.442	0.310	0.326
-295.705	127.490	-0.029	0.036
-294.691	800.000	0.073	-0.219
-293.676	-61.102	0.106	0.044
-292.662	18.488	0.205	0.162
-291.647	800.000	-0.111	0.449
-290.632	-70.425	0.193	0.072
-289.618	647.546	-0.075	-0.188
-288.603	800.000	-0.079	0.294
-287.589	-125.689	0.168	0.025
-286.574	800.000	0.109	0.320
-285.559	800.000	0.045	0.167
-284.545	8.500	-0.227	-0.168
-283.530	204.591	-0.089	-0.136
-282.516	468.452	-0.036	0.079
-281.501	-200.000	-0.056	-0.398
-280.486	-60.228	0.433	0.182
-279.472	-61.513	-0.099	-0.041
-278.457	-200.000	0.005	0.212
-277.443	-50.182	0.397	-0.185
-276.428	800.000	-0.004	0.011
-275.413	266.722	-0.155	-0.267
-274.399	-36.725	-0.191	-0.101
-273.384	109.287	-0.154	-0.182
-272.370	-44.085	0.318	-0.158
-271.355	800.000	-0.028	-0.107
-270.340	85.788	-0.039	0.043
-269.326	800.000	0.062	-0.177
-268.311	550.955	0.074	-0.175
-267.297	-198.619	-0.310	0.002
-266.282	-200.000	0.000	-0.022
-265.267	23.924	0.153	-0.124
-264.253	-171.000	0.235	-0.008
-263.238	21.251	0.080	0.064
-262.224	-200.000	0.010	0.130
-261.209	-106.654	-0.140	0.031
-260.195	800.000	-0.031	-0.131
-259.180	-167.257	0.557	0.022
-258.165	-200.000	-0.012	-0.217
-257.151	7.500	-0.226	-0.167
-256.136	395.823	-0.076	-0.156
-255.122	201.298	0.159	-0.241
-254.107	49.138	0.168	-0.156
-253.092	80.268	0.151	0.160
-252.078	34.680	0.148	0.127
-251.063	218.084	0.140	-0.219
-250.049	-200.000	-0.056	0.326
-249.034	800.000	-0.082	0.230
-248.019	775.575	-0.114	0.308
-247.005	-200.000	0.003	0.127
-245.990	240.886	0.197	-0.324
-244.976	-148.989	0.188	0.015
-243.961	-200.000	0.053	0.377
-242.946	-132.248	-0.110	0.014
-241.932	72.646	-0.024	-0.024
-240.917	-11.824	0.159	-0.103
-239.903	-9.294	0.262	-0.172
-238.888	-159.360	-0.042	0.002
-237.873	-109.240	0.090	0.019
-236.859	65.065	0.073	0.073
-235.844	-200.000	-0.024	-0.295
-234.830	-24.832	0.110	-0.064
-233.815	-200.000	0.014	0.072
-232.800	185.770	0.107	-0.157
-231.786	-200.000	0.018	-0.274
-230.771	-102.705	0.132	0.031
-229.757	203.139	0.124	0.188
-228.742	110.915	-0.244	-0.289
-227.727	-11.331	-0.134	0.087
-226.713	-65.338	-0.026	-0.010
-225.698	-200.000	-0.062	0.409
-224.684	777.174	-0.126	0.340
-223.669	-135.607	-0.278	0.032
-222.655	-80.524	0.267	-0.088
-221.640	-155.753	0.283	0.018
-220.625	-200.000	-0.035	-0.231
-219.611	63.582	-0.067	-0.066
-218.596	127.649	0.221	0.276
-217.582	-105.832	-0.278	0.062
-216.567	-52.373	-0.162	0.074
-215.552	800.000	0.113	-0.429
-214.538	466.090	0.039	0.086
-213.523	260.839	0.122	-0.208
-212.509	1.296	-0.147	0.104
-211.494	288.636	0.134	-0.238
-210.479	-9.507	0.238	0.156
-209.465	77.650	-0.051	-0.054
-208.450	-155.660	-0.060	-0.004
-207.436	-200.000	-0.006	0.046
-206.421	18.456	-0.226	-0.178
-205.406	-36.700	-0.053	0.028
-204.392	-49.829	-0.386	-0.180
-203.377	-82.053	-0.151	-0.048
-202.363	-200.000	0.007	0.036
-201.348	-162.293	-0.466	0.023
-200.333	-181.534	0.454	0.009
-199.319	-133.548	0.213	0.026
-198.304	800.000	0.032	0.122
-197.290	96.210	0.316	-0.355
-196.275	-56.165	0.415	0.182
-195.260	394.818	0.174	-0.357
-194.246	-54.194	-0.236	-0.105
-193.231	800.000	0.065	-0.205
-192.217	-16.074	0.280	0.175
-191.202	323.900	-0.097	0.182
-190.187	800.000	-0.107	0.355
-189.173	321.956	0.073	-0.136
-188.158	-58.747	0.122	-0.052
-187.144	-200.000	-0.032	-0.201
-186.129	208.503	0.118	-0.181
-185.114	-200.000	0.027	-0.165
-184.100	123.180	0.114	0.140
-183.085	80.797	0.186	0.197
-182.071	774.917	0.132	-0.354
-181.056	11.403	-0.066	0.050
-180.042	800.000	0.060	0.188
-179.027	-118.718	-0.125	-0.022
-178.012	-11.171	-0.261	0.169
-176.998	42.871	-0.171	-0.153
-175.983	-200.000	-0.045	-0.255
-174.969	-4.646	0.311	0.211
-173.954	45.257	0.224	0.203
-172.939	-167.918	-0.242	0.009
-171.925	136.492	-0.064	0.082
-170.910	800.000	0.056	0.237
-169.896	800.000	-0.071	-0.263
-168.881	-200.000	0.021	0.200
-167.866	-111.215	0.414	-0.083
-166.852	-200.000	0.000	0.051
-165.837	164.245	0.108	0.150
-164.823	-146.321	0.064	0.005
-163.808	-39.877	0.294	0.150
-162.793	800.000	0.157	-0.504
-161.779	29.553	-0.224	-0.187
-160.764	-200.000	0.036	0.336
-159.750	-150.384	-0.101	-0.008
-158.735	44.559	0.169	0.152
-157.720	135.897	-0.056	-0.071
-156.706	-200.000	-0.052	0.306
-155.691	-8.315	0.177	0.117
-154.677	11.458	0.208	0.156
-153.662	-187.746	-0.329	0.004
-152.647	342.408	-0.122	0.233
-151.633	232.085	-0.171	-0.276
-150.618	134.005	0.143	-0.182
-149.604	-78.812	0.224	0.075
-148.589	-200.000	-0.026	0.179
-147.574	-108.035	0.310	-0.066
-146.560	213.486	-0.126	0.195
-145.545	-107.391	0.139	-0.030
-144.531	-136.394	-0.266	-0.030
-143.516	14.009	0.230	0.176
-142.502	336.088	0.064	-0.121
-141.487	14.978	-0.148	-0.114
-140.472	433.564	0.122	0.259
-139.458	27.620	0.294	-0.243
-138.443	-142.146	-0.341	-0.033
-137.429	-200.000	-0.028	0.126
-136.414	14.512	0.073	0.056
-135.399	-200.000	-0.070	-0.356
-134.385	323.991	-0.055	0.103
-133.370	113.730	0.109	0.130
-132.356	-128.947	0.298	-0.041
-131.341	-200.000	0.018	0.315
-130.326	504.376	0.130	-0.294
-129.312	-35.052	0.335	-0.179
-128.297	-200.000	0.015	-0.152
-127.283	50.754	0.088	0.082
-126.268	800.000	-0.018	-0.060
-125.253	68.328	0.076	-0.076
-124.239	218.047	-0.102	0.159
-123.224	-62.842	0.158	0.064
-122.210	-65.701	0.265	0.104
-121.195	-68.932	0.129	-0.049
