DTS Sentinel unit serial number:	SN413079Multiplexer serial number:	ORYXHardware model number:	OX4-SRSoftware version number:	ORYX F/W v4.00 Oryx Data Collector v3.7.2.0data status	okinstallation	princeton_trtdifferential loss correction	single-endedforward channel	channel 3reverse channel	N/Adate	2019/09/14time	17:32:35forward acquisition time	60.00reverse acquisition time	0.00gamma	496.2192k internal	0.2297k external	0.2297temperature offset calibration	1.0028default loss term (dB/km)	0.3790temperature slope calibration	1.0000multiplexer offset coefficient	1.0000multiplexer slope coefficient	1.0000fibre end	0.00T internal ref (°C)	37.64T ext. ref 1 (°C)	5.05T ext. ref 2 (°C)	32.08length (m)	temperature (°C)	Stokes	anti-Stokes-747.200	576.003	-0.112	-0.280
-746.185	50.377	0.198	-0.191
-745.171	-90.373	-0.086	0.026
-744.156	-30.280	-0.185	0.107
-743.142	145.483	0.095	0.130
-742.127	800.000	-0.058	0.251
-741.112	171.776	-0.099	-0.146
-740.098	82.943	0.004	-0.004
-739.083	-137.101	0.137	0.016
-738.069	152.142	0.139	-0.193
-737.054	46.275	-0.157	0.148
-736.039	55.772	-0.207	-0.204
-735.025	-200.000	0.021	0.183
-734.010	800.000	0.083	0.281
-732.996	-79.305	0.042	0.014
-731.981	237.416	-0.116	-0.197
-730.966	-24.897	-0.070	-0.042
-729.952	139.364	-0.093	0.125
-728.937	-122.502	0.282	0.047
-727.923	-109.020	0.303	-0.066
-726.908	-51.842	-0.096	-0.045
-725.894	132.069	-0.123	0.162
-724.879	102.250	-0.145	-0.173
-723.864	39.994	0.081	0.075
-722.850	-200.000	-0.064	-0.373
-721.835	91.873	-0.199	-0.228
-720.821	-200.000	0.014	-0.132
-719.806	-80.339	0.428	0.146
-718.791	70.125	-0.324	-0.341
-717.777	141.935	0.132	-0.178
-716.762	800.000	-0.053	-0.192
-715.748	63.124	0.040	-0.041
-714.733	46.457	0.167	0.158
-713.718	-5.709	-0.194	-0.135
-712.704	800.000	-0.029	-0.126
-711.689	69.784	0.187	-0.197
-710.675	168.738	-0.209	-0.303
-709.660	16.684	0.089	-0.072
-708.645	-200.000	-0.023	-0.362
-707.631	-96.423	-0.296	-0.080
-706.616	101.786	0.080	0.095
-705.602	-65.823	-0.005	0.002
-704.587	212.437	0.056	-0.090
-703.572	-163.867	0.171	0.008
-702.558	800.000	0.113	-0.373
-701.543	-200.000	-0.004	0.216
-700.529	49.134	-0.115	-0.111
-699.514	147.323	-0.152	0.209
-698.499	-117.407	-0.222	0.041
-697.485	405.436	0.103	-0.220
-696.470	-200.000	-0.099	-0.450
-695.456	391.922	-0.114	0.241
-694.441	-200.000	-0.013	0.153
-693.426	-177.221	-0.215	0.005
-692.412	-107.385	0.278	0.062
-691.397	-92.056	0.262	0.076
-690.383	156.743	-0.111	-0.156
-689.368	744.154	-0.155	-0.424
-688.354	-128.568	0.269	0.039
-687.339	325.954	-0.156	-0.304
-686.324	-135.353	0.207	-0.025
-685.310	60.111	-0.115	-0.115
-684.295	-200.000	-0.051	-0.323
-683.281	187.987	-0.247	-0.377
-682.266	-200.000	-0.050	-0.254
-681.251	536.314	-0.186	-0.450
-680.237	-81.566	0.148	0.050
-679.222	82.698	0.094	0.104
-678.208	209.453	-0.144	0.230
-677.193	-90.687	-0.288	-0.085
-676.178	-157.390	-0.091	-0.006
-675.164	-200.000	-0.023	0.210
-674.149	-97.447	-0.321	0.085
-673.135	-134.250	-0.174	0.022
-672.120	-111.862	0.152	-0.031
-671.105	-126.245	0.313	0.048
-670.091	650.507	0.086	-0.224
-669.076	-128.578	-0.152	0.022
-668.062	-144.589	-0.366	0.034
-667.047	15.852	0.199	-0.159
-666.032	188.999	-0.074	0.113
-665.018	-85.917	-0.254	0.080
-664.003	-40.743	-0.157	-0.083
-662.989	-87.037	0.024	0.007
-661.974	-200.000	0.002	-0.086
-660.959	-121.099	0.288	-0.049
-659.945	31.270	0.155	-0.135
-658.930	91.236	0.162	-0.185
-657.916	47.973	-0.066	-0.062
-656.901	-91.456	-0.252	-0.073
-655.886	9.142	0.218	-0.168
-654.872	567.705	0.043	-0.105
-653.857	-70.134	-0.187	0.073
-652.843	-48.247	0.475	-0.233
-651.828	112.393	0.052	-0.064
-650.814	0.733	-0.153	-0.111
-649.799	-191.316	0.566	-0.006
-648.784	-35.175	-0.263	-0.146
-647.770	-31.570	0.095	0.055
-646.755	67.317	0.207	-0.215
-645.741	23.796	-0.247	-0.207
-644.726	288.207	0.034	0.062
-643.711	-200.000	-0.003	0.312
-642.697	568.489	-0.147	0.364
-641.682	-106.076	-0.211	0.048
-640.668	-61.661	0.154	0.066
-639.653	800.000	-0.047	-0.141
-638.638	55.409	0.176	0.173
-637.624	321.394	0.136	-0.264
-636.609	-67.172	0.189	0.076
-635.595	-173.865	0.160	0.005
-634.580	-185.669	-0.119	-0.002
-633.565	-200.000	0.032	0.238
-632.551	-89.773	-0.270	0.080
-631.536	-154.516	0.248	-0.017
-630.522	-169.135	0.328	-0.012
-629.507	-200.000	0.027	-0.490
-628.492	800.000	-0.078	-0.321
-627.478	800.000	-0.063	-0.183
-626.463	75.228	-0.111	0.120
-625.449	-132.664	0.287	-0.037
-624.434	-163.578	0.212	0.010
-623.419	497.879	0.131	-0.307
-622.405	-33.356	-0.196	-0.110
-621.390	-4.352	0.227	0.159
-620.376	-2.282	0.245	0.175
-619.361	58.297	-0.155	-0.154
-618.346	522.574	0.139	-0.331
-617.332	-20.135	0.284	-0.178
-616.317	-200.000	-0.006	0.072
-615.303	509.378	-0.113	-0.267
-614.288	800.000	-0.145	0.407
-613.273	23.761	0.102	0.086
-612.259	484.586	-0.055	-0.127
-611.244	-200.000	0.105	0.542
-610.230	195.269	0.052	0.080
-609.215	-200.000	-0.174	-0.001
-608.201	-103.302	-0.096	0.023
-607.186	79.625	-0.160	-0.174
-606.171	606.050	-0.126	-0.320
-605.157	34.520	0.140	-0.124
-604.142	800.000	-0.033	-0.138
-603.128	-115.476	-0.492	0.094
-602.113	-74.989	-0.267	0.097
-601.098	-57.889	-0.113	0.050
-600.084	144.362	-0.067	-0.090
-599.069	535.388	-0.095	-0.229
-598.055	-1.259	-0.124	-0.089
-597.040	13.270	-0.136	0.107
-596.025	156.612	-0.101	-0.142
-595.011	-65.897	-0.402	-0.163
-593.996	10.674	0.088	-0.068
-592.982	-25.585	0.329	0.197
-591.967	72.064	-0.113	0.119
-590.952	589.955	-0.077	0.192
-589.938	292.069	0.099	0.184
-588.923	-2.093	0.103	0.074
-587.909	238.650	-0.159	0.269
-586.894	-200.000	0.026	0.195
-585.879	53.127	-0.227	0.221
-584.865	285.620	0.114	-0.208
-583.850	2.152	-0.082	0.060
-582.836	195.443	-0.105	0.162
-581.821	161.413	-0.184	-0.261
-580.806	61.129	-0.142	0.143
-579.792	-162.585	-0.068	0.003
-578.777	-124.812	-0.123	0.019
-577.763	71.745	-0.203	-0.214
-576.748	32.814	0.107	0.094
-575.733	141.273	-0.098	-0.131
-574.719	-11.344	-0.083	0.056
-573.704	20.061	-0.374	0.306
-572.690	25.326	-0.201	0.170
-571.675	-127.236	-0.329	0.049
-570.661	-200.000	0.048	-0.316
-569.646	523.395	0.079	0.188
-568.631	-91.818	0.259	-0.075
-567.617	-52.590	0.163	0.076
-566.602	9.282	0.176	-0.135
-565.588	255.665	-0.281	0.488
-564.573	-200.000	-0.040	0.224
-563.558	800.000	-0.032	0.096
-562.544	-183.997	0.153	0.003
-561.529	17.212	-0.166	0.134
-560.515	12.417	0.115	-0.090
-559.500	-200.000	-0.006	-0.047
-558.485	67.930	0.018	0.019
-557.471	800.000	-0.042	0.128
-556.456	34.400	0.115	0.102
-555.442	51.970	0.074	-0.071
-554.427	-78.634	0.281	-0.097
-553.412	372.177	0.059	-0.122
-552.398	-200.000	0.053	0.242
-551.383	-200.000	-0.013	0.135
-550.369	-46.833	0.104	-0.051
-549.354	94.062	-0.057	-0.066
-548.339	-200.000	-0.023	0.379
-547.325	-200.000	-0.028	-0.164
-546.310	205.562	-0.122	0.191
-545.296	191.645	0.126	0.192
-544.281	-200.000	-0.007	0.158
-543.266	-200.000	-0.004	0.019
-542.252	-200.000	-0.018	-0.148
-541.237	151.657	0.193	0.266
-540.223	-65.785	0.429	0.174
-539.208	-93.172	-0.450	0.127
-538.193	800.000	-0.051	0.183
-537.179	800.000	0.056	0.209
-536.164	-89.911	-0.352	0.104
-535.150	-200.000	0.003	-0.034
-534.135	297.800	0.068	-0.126
-533.121	-84.283	0.156	-0.050
-532.106	-120.369	-0.030	-0.005
-531.091	-200.000	0.042	-0.366
-530.077	258.878	-0.146	-0.255
-529.062	-200.000	0.248	-0.001
-528.048	185.868	0.142	0.214
-527.033	800.000	-0.058	-0.164
-526.018	-60.613	0.111	0.048
-525.004	55.745	-0.282	-0.277
-523.989	-128.579	0.241	-0.035
-522.975	265.705	0.028	-0.050
-521.960	3.553	-0.077	0.057
-520.945	97.826	-0.155	0.180
-519.931	-200.000	-0.019	-0.092
-518.916	7.051	-0.122	0.092
-517.902	-200.000	-0.020	-0.268
-516.887	95.898	0.152	-0.176
-515.872	-16.670	0.197	0.126
-514.858	51.887	-0.222	-0.214
-513.843	330.926	0.094	-0.183
-512.829	-143.875	-0.291	-0.028
-511.814	-157.458	0.272	0.017
-510.799	-108.078	0.162	-0.036
-509.785	-154.202	-0.123	-0.008
-508.770	-17.677	-0.154	-0.098
-507.756	-123.837	-0.130	0.021
-506.741	-200.000	-0.024	-0.134
-505.726	-144.560	0.133	0.012
-504.712	662.688	0.120	0.312
-503.697	-200.000	0.070	-0.545
-502.683	574.770	-0.100	-0.248
-501.668	105.295	0.105	0.125
-500.653	-106.006	0.151	0.034
-499.639	512.383	0.091	-0.216
-498.624	-68.889	-0.283	-0.111
-497.610	-96.995	-0.433	0.115
-496.595	-162.497	0.204	0.010
-495.581	-95.223	-0.057	0.016
-494.566	99.874	0.145	0.170
-493.551	-89.444	-0.172	-0.051
-492.537	-99.495	-0.164	-0.042
-491.522	-158.392	-0.442	-0.026
-490.508	800.000	-0.130	-0.378
-489.493	-123.827	0.138	0.022
-488.478	255.062	-0.103	0.178
-487.464	-109.919	-0.023	-0.005
-486.449	-133.523	-0.423	0.054
-485.435	222.182	-0.088	-0.144
-484.420	-81.737	0.115	0.038
-483.405	20.726	-0.152	0.124
-482.391	-124.294	0.325	0.051
-481.376	-119.197	0.473	-0.083
-480.362	180.212	-0.192	-0.285
-479.347	-76.467	-0.131	0.047
-478.332	800.000	-0.037	0.135
-477.318	-200.000	-0.048	-0.243
-476.303	800.000	-0.056	0.234
-475.289	-31.382	0.117	0.066
-474.274	-60.962	0.105	0.045
-473.259	-40.277	0.219	0.115
-472.245	-200.000	-0.054	-0.247
-471.230	-101.404	0.296	0.073
-470.216	103.826	0.149	-0.177
-469.201	230.179	0.147	0.243
-468.186	672.855	0.052	0.136
-467.172	800.000	0.026	0.110
-466.157	-118.189	0.234	-0.042
-465.143	-200.000	0.049	0.326
-464.128	-109.457	-0.438	0.094
-463.113	-160.808	-0.213	-0.011
-462.099	-200.000	0.192	-0.000
-461.084	284.359	0.091	-0.166
-460.070	-165.424	0.229	-0.010
-459.055	-17.260	-0.211	-0.134
-458.040	800.000	0.033	-0.110
-457.026	6.777	-0.142	0.106
-456.011	739.724	0.058	0.158
-454.997	-200.000	0.033	0.318
-453.982	9.166	-0.217	0.165
-452.968	-143.406	-0.204	-0.020
-451.953	800.000	-0.075	0.246
-450.938	-58.978	-0.268	0.117
-449.924	-117.556	0.551	0.101
-448.909	-54.747	0.218	-0.099
-447.895	-46.388	0.308	0.153
-446.880	800.000	0.031	-0.104
-445.865	-109.893	0.110	0.023
-444.851	-59.106	-0.171	-0.075
-443.836	125.216	0.103	-0.132
-442.822	170.239	0.116	0.167
-441.807	-12.193	0.036	0.024
-440.792	174.009	0.070	0.102
-439.778	800.000	0.055	0.203
-438.763	-56.554	0.288	0.129
-437.749	92.814	-0.258	-0.294
-436.734	48.557	-0.086	0.082
-435.719	-80.570	-0.485	0.163
-434.705	108.324	-0.140	0.169
-433.690	-183.082	0.118	-0.002
-432.676	-55.054	-0.140	-0.064
-431.661	-93.337	0.405	-0.113
-430.646	281.685	-0.094	-0.170
-429.632	-200.000	-0.007	-0.209
-428.617	-200.000	-0.026	0.311
-427.603	29.801	-0.097	0.083
-426.588	-200.000	0.109	-0.489
-425.573	-31.010	-0.213	-0.121
-424.559	-200.000	-0.026	-0.182
-423.544	-142.076	0.528	0.053
-422.530	577.971	0.068	0.169
-421.515	-107.245	0.171	-0.038
-420.500	-156.512	0.143	0.009
-419.486	-75.283	0.113	-0.041
-418.471	-68.440	0.316	0.124
-417.457	800.000	-0.029	0.101
-416.442	-200.000	-0.045	-0.333
-415.428	116.175	-0.080	0.099
-414.413	-120.007	0.188	0.033
-413.398	-167.821	-0.190	0.008
-412.384	-32.377	0.292	0.164
-411.369	-140.829	0.314	0.033
-410.355	218.866	-0.218	0.351
-409.340	47.727	-0.196	0.184
-408.325	800.000	-0.020	-0.088
-407.311	-54.835	0.245	0.112
-406.296	800.000	-0.044	0.141
-405.282	-200.000	-0.020	0.225
-404.267	625.348	-0.093	-0.236
-403.252	41.546	0.102	-0.093
-402.238	-96.896	-0.221	0.058
-401.223	134.975	-0.230	-0.301
-400.209	42.608	-0.161	-0.147
-399.194	800.000	-0.059	-0.207
-398.179	-200.000	-0.003	-0.104
-397.165	253.242	0.119	0.205
-396.150	-200.000	-0.053	-0.244
-395.136	456.076	0.094	-0.211
-394.121	24.361	-0.060	-0.050
-393.106	-49.120	0.245	-0.118
-392.092	38.049	0.165	-0.148
-391.077	11.860	0.221	-0.171
-390.063	223.378	0.151	-0.245
-389.048	-17.074	-0.120	-0.077
-388.033	113.351	-0.084	-0.102
-387.019	800.000	0.101	-0.368
-386.004	-184.612	-0.050	0.001
-384.990	-96.888	-0.097	-0.026
-383.975	-54.962	-0.416	0.189
-382.960	729.658	-0.156	0.421
-381.946	-200.000	0.021	-0.110
-380.931	-200.000	0.036	0.161
-379.917	-5.321	-0.166	-0.115
-378.902	749.535	0.063	-0.170
-377.888	276.148	0.130	0.233
-376.873	-47.066	0.307	0.151
-375.858	-174.668	0.164	-0.005
-374.844	-158.707	0.006	-0.000
-373.829	-89.642	-0.188	0.055
-372.815	-104.823	-0.095	-0.022
-371.800	-140.041	-0.125	-0.013
-370.785	-200.000	0.021	-0.272
-369.771	100.587	-0.045	-0.053
-368.756	-37.794	0.109	0.058
-367.742	-62.075	0.253	-0.106
-366.727	23.543	-0.268	-0.222
-365.712	-97.270	0.146	-0.038
-364.698	226.323	-0.079	0.128
-363.683	318.004	0.004	-0.007
-362.669	7.691	-0.159	-0.120
-361.654	-158.711	0.377	0.022
-360.639	-200.000	-0.001	0.114
-359.625	-147.373	0.184	0.016
-358.610	-31.785	0.109	0.061
-357.596	-91.048	0.096	0.028
-356.581	-117.497	0.139	-0.025
-355.566	217.303	0.191	0.307
-354.552	-171.226	-0.282	-0.010
-353.537	-176.686	-0.274	0.007
-352.523	-140.549	-0.263	-0.028
-351.508	-69.682	-0.238	-0.092
-350.493	34.955	-0.154	-0.136
-349.479	-87.970	-0.270	0.082
-348.464	1.924	-0.192	-0.140
-347.450	-0.072	0.089	-0.064
-346.435	-143.563	0.153	0.015
-345.420	-200.000	0.004	-0.222
-344.406	-66.359	-0.164	-0.066
-343.391	800.000	0.056	0.240
-342.377	218.533	0.090	-0.145
-341.362	482.088	0.049	0.111
-340.348	-90.839	0.233	-0.067
-339.333	-26.266	0.055	-0.033
-338.318	570.895	-0.210	-0.514
-337.304	80.630	-0.081	-0.088
-336.289	1.143	0.102	0.073
-335.275	34.757	0.069	0.061
-334.260	-99.303	0.332	0.084
-333.245	-41.415	0.235	-0.121
-332.231	-200.000	0.013	0.155
-331.216	248.391	-0.088	0.149
-330.202	129.920	-0.215	-0.276
-329.187	135.791	-0.040	-0.052
-328.172	800.000	-0.062	0.225
-327.158	290.040	0.051	-0.093
-326.143	-60.809	0.355	0.151
-325.129	18.047	0.239	0.192
-324.114	298.367	0.057	-0.105
-323.099	42.439	0.140	0.128
-322.085	-200.000	0.002	-0.043
-321.070	188.333	-0.067	-0.101
-320.056	-70.124	0.149	0.057
-319.041	-34.096	-0.266	0.147
-318.026	-200.000	-0.006	-0.336
-317.012	146.718	-0.078	-0.106
-315.997	210.269	-0.072	-0.114
-314.983	69.813	0.174	-0.180
-313.968	-68.362	-0.107	0.042
-312.953	-151.336	-0.271	-0.020
-311.939	-71.205	0.336	0.127
-310.924	800.000	0.077	-0.319
-309.910	-200.000	-0.002	0.038
-308.895	-101.307	-0.228	-0.056
-307.880	-153.966	-0.638	0.044
-306.866	-51.705	0.234	-0.109
-305.851	16.893	-0.149	-0.118
-304.837	-200.000	-0.038	0.306
-303.822	-200.000	0.007	-0.108
-302.807	-200.000	-0.022	-0.285
-301.793	72.489	0.090	0.095
-300.778	-200.000	0.046	0.214
-299.764	-88.058	0.396	-0.119
-298.749	448.534	-0.014	-0.032
-297.735	-108.212	-0.096	0.021
-296.720	219.704	-0.074	-0.118
-295.705	-73.789	0.100	0.036
-294.691	800.000	-0.072	0.303
-293.676	800.000	-0.038	-0.152
-292.662	-90.217	-0.214	-0.062
-291.647	-155.657	-0.205	0.013
-290.632	249.865	0.104	0.177
-289.618	-162.626	0.112	-0.006
-288.603	-91.944	-0.221	-0.063
-287.589	-74.069	0.194	-0.071
-286.574	779.239	-0.127	0.347
-285.559	212.464	-0.066	0.104
-284.545	-105.258	-0.114	0.026
-283.530	-200.000	-0.002	0.125
-282.516	-55.733	0.073	-0.033
-281.501	307.155	-0.094	0.175
-280.486	-174.526	0.272	-0.008
-279.472	800.000	-0.073	-0.210
-278.457	-122.035	0.179	0.029
-277.443	21.595	0.141	0.115
-276.428	124.292	0.150	0.189
-275.413	-14.564	-0.194	-0.125
-274.399	2.431	0.125	-0.091
-273.384	-16.397	-0.170	0.108
-272.370	-157.175	-0.504	-0.031
-271.355	-200.000	0.049	-0.224
-270.340	-5.871	-0.160	-0.110
-269.326	70.556	0.225	-0.233
-268.311	800.000	-0.074	0.248
-267.297	148.523	-0.173	-0.234
-266.282	-177.137	-0.478	0.012
-265.267	800.000	-0.056	0.200
-264.253	50.763	-0.104	-0.099
-263.238	-200.000	-0.026	0.258
-262.224	-200.000	-0.034	0.296
-261.209	116.352	0.034	-0.041
-260.195	56.187	0.213	-0.207
-259.180	-200.000	-0.042	-0.280
-258.165	90.778	-0.064	-0.072
-257.151	-167.884	-0.120	0.005
-256.136	146.261	0.218	-0.293
-255.122	-88.957	0.067	-0.020
-254.107	800.000	-0.051	0.145
-253.092	-0.350	0.212	0.151
-252.078	-95.116	0.439	0.119
-251.063	800.000	-0.037	-0.149
-250.049	302.860	-0.175	0.324
-249.034	-200.000	-0.013	0.235
-248.019	89.518	0.122	-0.137
-247.005	-24.595	0.281	-0.167
-245.990	-55.910	0.255	0.114
-244.976	-81.152	0.163	-0.054
-243.961	4.038	-0.175	0.128
-242.946	-5.473	0.336	0.231
-241.932	672.479	0.127	0.329
-240.917	411.909	-0.046	0.098
-239.903	-200.000	0.084	-0.412
-238.888	155.457	-0.132	-0.182
-237.873	800.000	0.121	-0.444
-236.859	352.655	-0.071	-0.141
-235.844	-35.173	-0.220	0.120
-234.830	52.461	0.389	-0.372
-233.815	-125.274	0.101	-0.016
-232.800	57.540	0.205	-0.201
-231.786	-134.389	0.205	-0.025
-230.771	155.010	0.093	-0.129
-229.757	-55.771	-0.168	0.075
-228.742	800.000	0.004	-0.011
-227.727	129.909	-0.147	0.188
-226.713	130.608	0.116	0.148
-225.698	179.580	0.088	0.128
-224.684	-200.000	-0.051	0.257
-223.669	422.109	-0.060	-0.128
-222.655	-37.894	0.095	0.051
-221.640	-117.831	-0.429	0.077
-220.625	71.134	-0.119	0.124
-219.611	-141.245	0.181	0.018
-218.596	-44.981	0.118	0.059
-217.582	-17.603	-0.022	-0.014
-216.567	800.000	-0.114	-0.467
-215.552	-73.940	0.231	0.084
-214.538	161.442	-0.180	0.251
-213.523	566.520	-0.111	-0.269
-212.509	-63.000	0.100	0.041
-211.494	75.038	-0.274	-0.288
-210.479	91.346	0.253	-0.284
-209.465	140.355	-0.085	-0.112
-208.450	11.413	0.271	0.208
-207.436	-125.169	-0.240	-0.037
-206.421	251.316	-0.112	0.190
-205.406	-108.340	-0.243	-0.053
-204.392	-0.318	-0.179	-0.127
-203.377	800.000	-0.060	0.238
-202.363	-84.434	-0.215	0.068
-201.348	32.522	-0.061	-0.053
-200.333	-123.150	0.124	0.020
-199.319	136.099	-0.037	-0.049
-198.304	205.306	-0.110	0.172
-197.290	800.000	0.066	-0.212
-196.275	-200.000	0.038	0.441
-195.260	738.989	0.125	0.335
-194.246	800.000	0.092	0.267
-193.231	490.957	-0.070	0.160
-192.217	-100.080	-0.211	-0.052
-191.202	-14.643	0.145	0.093
-190.187	-90.028	-0.195	-0.057
-189.173	800.000	0.065	-0.220
-188.158	75.022	0.254	0.267
-187.144	483.365	-0.120	0.272
-186.129	76.781	-0.105	-0.111
-185.114	800.000	-0.140	-0.416
-184.100	255.049	0.043	-0.074
-183.085	-40.355	-0.355	-0.184
-182.071	142.516	0.138	0.183
-181.056	380.381	0.167	-0.342
-180.042	-200.000	0.016	0.179
-179.027	91.801	0.127	-0.142
-178.012	346.275	-0.082	0.161
-176.998	16.688	0.149	-0.118
-175.983	-200.000	-0.006	-0.250
-174.969	-62.399	0.293	-0.122
-173.954	800.000	0.133	0.459
-172.939	78.902	-0.012	0.012
-171.925	-146.769	-0.299	0.026
-170.910	-200.000	-0.077	0.355
-169.896	-50.531	0.233	0.110
-168.881	201.265	-0.123	0.188
-167.866	-155.440	-0.309	-0.020
-166.852	553.061	0.133	-0.319
-165.837	-170.170	0.100	0.004
-164.823	-200.000	-0.003	0.326
-163.808	-99.758	-0.135	0.034
-162.793	1.731	-0.227	-0.163
-161.779	11.992	0.308	0.236
-160.764	95.032	-0.292	0.332
-159.750	401.871	0.132	-0.278
-158.735	-28.780	0.279	-0.160
-157.720	-49.331	0.254	-0.121
-156.706	196.884	-0.248	0.378
-155.691	-55.086	0.157	0.070
-154.677	70.951	-0.094	-0.097
-153.662	-200.000	0.001	-0.178
-152.647	344.758	-0.082	-0.160
-151.633	176.817	-0.076	-0.110
-150.618	528.227	-0.143	0.337
-149.604	-56.152	0.198	0.088
-148.589	237.260	-0.153	0.254
-147.574	239.283	-0.025	-0.042
-146.560	-200.000	0.008	-0.041
-145.545	-16.386	-0.367	0.232
-144.531	-200.000	-0.019	0.147
-143.516	-7.927	-0.074	-0.050
-142.502	-63.896	0.128	-0.052
-141.487	322.969	0.187	0.355
-140.472	-154.035	0.056	0.004
-139.458	800.000	-0.091	-0.359
-138.443	266.415	-0.085	0.148
-137.429	587.347	0.179	-0.439
-136.414	192.594	-0.085	0.128
-135.399	-23.104	-0.177	0.106
-134.385	87.114	-0.081	-0.089
-133.370	-119.709	0.060	-0.010
-132.356	-19.804	-0.378	0.233
-131.341	101.046	0.087	0.101
-130.326	14.487	-0.057	-0.045
-129.312	-9.953	-0.199	-0.132
-128.297	-179.475	0.424	0.009
-127.283	695.972	-0.093	0.244
-126.268	800.000	0.027	0.093
-125.253	-200.000	-0.042	0.196
-124.239	38.076	0.117	0.104
-123.224	40.700	0.259	0.233
-122.210	-23.706	0.130	0.078
-121.195	490.635	0.058	0.132
