DTS Sentinel unit serial number:	SN413079Multiplexer serial number:	ORYXHardware model number:	OX4-SRSoftware version number:	ORYX F/W v4.00 Oryx Data Collector v3.7.2.0data status	okinstallation	princeton_trtdifferential loss correction	single-endedforward channel	channel 3reverse channel	N/Adate	2019/09/11time	09:18:11forward acquisition time	60.00reverse acquisition time	0.00gamma	496.2192k internal	0.2307k external	0.2307temperature offset calibration	0.9940default loss term (dB/km)	0.3790temperature slope calibration	1.0000multiplexer offset coefficient	1.0000multiplexer slope coefficient	1.0000fibre end	0.00T internal ref (°C)	34.44T ext. ref 1 (°C)	0.08T ext. ref 2 (°C)	31.30length (m)	temperature (°C)	Stokes	anti-Stokes-747.200	162.755	-0.119	0.170
-746.185	-200.000	0.008	0.390
-745.171	-200.000	0.024	-0.302
-744.156	-61.993	-0.526	0.224
-743.142	-167.630	-0.151	-0.006
-742.127	-200.000	-0.003	0.302
-741.112	-151.532	-0.444	0.033
-740.098	58.902	-0.061	-0.061
-739.083	-178.816	-0.206	-0.005
-738.069	688.308	0.079	0.210
-737.054	-109.381	-0.312	0.067
-736.039	-51.607	0.183	-0.087
-735.025	11.739	0.110	-0.086
-734.010	331.611	-0.068	0.133
-732.996	-13.703	-0.230	0.151
-731.981	10.360	-0.297	0.230
-730.966	88.945	0.233	-0.264
-729.952	-81.943	0.190	0.063
-728.937	800.000	0.097	-0.370
-727.923	-55.341	-0.076	0.035
-726.908	164.834	0.103	-0.148
-725.894	-137.316	-0.328	0.038
-724.879	800.000	-0.045	0.190
-723.864	783.633	-0.067	-0.186
-722.850	636.408	-0.130	-0.336
-721.835	-200.000	-0.020	0.215
-720.821	-19.913	0.083	-0.052
-719.806	800.000	0.062	-0.250
-718.791	295.630	-0.180	-0.334
-717.777	202.171	-0.107	0.168
-716.762	800.000	-0.057	0.198
-715.748	692.676	0.089	-0.237
-714.733	7.843	-0.256	-0.195
-713.718	-23.492	0.225	-0.137
-712.704	305.048	-0.091	-0.173
-711.689	1.480	-0.421	0.307
-710.675	800.000	-0.048	-0.200
-709.660	-28.664	-0.109	-0.064
-708.645	-128.069	-0.135	0.020
-707.631	-200.000	-0.014	-0.090
-706.616	-200.000	-0.004	-0.028
-705.602	-90.009	0.382	-0.113
-704.587	124.914	0.094	-0.120
-703.572	167.116	-0.086	-0.125
-702.558	-200.000	0.008	-0.185
-701.543	15.203	0.176	-0.140
-700.529	22.610	-0.270	-0.225
-699.514	-134.933	-0.155	-0.019
-698.499	-152.479	0.285	0.021
-697.485	724.126	0.079	-0.213
-696.470	-200.000	0.072	-0.332
-695.456	-126.982	-0.212	-0.032
-694.441	800.000	-0.098	0.288
-693.426	32.179	-0.194	0.170
-692.412	637.113	-0.171	-0.442
-691.397	-129.777	-0.160	0.022
-690.383	-200.000	0.070	-0.385
-689.368	-2.324	0.264	-0.188
-688.354	5.314	-0.103	-0.077
-687.339	-28.065	-0.176	-0.103
-686.324	800.000	0.030	0.102
-685.310	168.836	0.085	0.122
-684.295	-144.283	-0.369	-0.035
-683.281	-24.475	-0.166	0.100
-682.266	800.000	0.065	0.190
-681.251	-75.110	-0.199	0.072
-680.237	800.000	-0.033	0.142
-679.222	73.954	-0.123	0.131
-678.208	534.484	0.194	-0.467
-677.193	-137.306	-0.275	0.032
-676.178	56.891	-0.137	0.136
-675.164	-142.377	0.353	-0.035
-674.149	31.514	0.102	0.089
-673.135	173.387	0.085	0.124
-672.120	210.409	-0.087	-0.139
-671.105	-49.766	0.087	-0.042
-670.091	-141.992	-0.179	0.018
-669.076	-104.270	0.148	0.035
-668.062	297.566	-0.026	-0.048
-667.047	188.616	0.147	0.223
-666.032	-1.572	-0.154	-0.110
-665.018	-59.198	0.278	0.122
-664.003	143.917	0.118	0.159
-662.989	64.030	-0.145	0.147
-661.974	10.205	0.129	0.100
-660.959	-181.318	0.342	0.007
-659.945	-173.273	0.197	-0.006
-658.930	-200.000	-0.102	0.664
-657.916	-200.000	0.040	0.221
-656.901	800.000	0.060	-0.253
-655.886	-11.352	-0.110	-0.073
-654.872	-200.000	0.016	-0.263
-653.857	800.000	-0.102	-0.387
-652.843	152.067	-0.315	-0.436
-651.828	448.146	-0.214	0.477
-650.814	-41.162	0.311	-0.163
-649.799	-200.000	-0.033	-0.337
-648.784	42.645	0.071	0.065
-647.770	800.000	-0.047	0.166
-646.755	-100.899	-0.602	-0.150
-645.741	-55.164	0.154	-0.070
-644.726	82.730	-0.164	0.180
-643.711	367.649	-0.052	0.106
-642.697	-192.196	0.140	0.001
-641.682	-200.000	-0.021	-0.253
-640.668	-161.656	0.269	-0.014
-639.653	-200.000	0.011	0.149
-638.638	-98.216	-0.235	0.061
-637.624	100.920	0.203	0.239
-636.609	-85.849	-0.064	-0.020
-635.595	-200.000	0.000	-0.224
-634.580	-137.367	-0.153	-0.018
-633.565	43.611	0.063	-0.058
-632.551	-44.199	0.247	0.125
-631.536	283.543	0.048	0.087
-630.522	31.843	0.169	0.147
-629.507	-200.000	-0.037	-0.317
-628.492	285.525	-0.120	0.218
-627.478	-85.362	-0.326	-0.103
-626.463	800.000	0.053	0.195
-625.449	-62.476	-0.162	0.068
-624.434	-101.214	0.107	-0.027
-623.419	-200.000	-0.018	0.258
-622.405	-38.901	0.235	-0.125
-621.390	-83.819	0.276	-0.089
-620.376	-200.000	0.025	-0.139
-619.361	-21.480	-0.527	-0.325
-618.346	55.947	-0.171	-0.168
-617.332	208.900	0.155	0.245
-616.317	239.082	0.078	0.131
-615.303	-154.869	-0.107	-0.007
-614.288	-95.615	0.217	0.059
-613.273	91.996	0.113	-0.129
-612.259	-89.867	0.031	0.009
-611.244	166.962	-0.124	-0.178
-610.230	-200.000	-0.010	-0.085
-609.215	-114.298	-0.117	-0.023
-608.201	-139.048	-0.210	-0.023
-607.186	800.000	0.097	-0.290
-606.171	-169.151	-0.304	-0.011
-605.157	105.825	0.158	-0.189
-604.142	-200.000	0.009	0.122
-603.128	-200.000	-0.018	0.166
-602.113	-12.653	0.266	-0.175
-601.098	-40.532	0.262	-0.138
-600.084	-200.000	-0.009	-0.380
-599.069	-3.334	0.097	0.068
-598.055	-41.489	-0.199	0.103
-597.040	800.000	0.023	-0.073
-596.025	-200.000	0.048	0.213
-595.011	43.834	-0.056	0.052
-593.996	114.632	0.264	-0.326
-592.982	-200.000	0.014	0.078
-591.967	-200.000	0.030	0.152
-590.952	-54.054	-0.137	0.063
-589.938	100.488	-0.157	0.184
-588.923	800.000	0.011	-0.036
-587.909	162.277	0.150	0.213
-586.894	122.788	-0.059	0.075
-585.879	65.747	0.093	0.095
-584.865	97.957	0.187	0.217
-583.850	-200.000	-0.032	-0.324
-582.836	677.008	0.145	-0.382
-581.821	-43.528	0.442	0.226
-580.806	800.000	0.074	0.236
-579.792	-200.000	0.045	0.435
-578.777	800.000	0.032	0.118
-577.763	52.095	0.303	0.291
-576.748	3.972	-0.402	0.297
-575.733	119.914	-0.178	-0.223
-574.719	299.611	-0.089	-0.165
-573.704	192.282	-0.042	-0.064
-572.690	-43.734	0.340	-0.173
-571.675	74.615	-0.109	0.116
-570.661	147.809	0.208	-0.283
-569.646	-127.558	-0.207	-0.030
-568.631	95.549	-0.159	-0.184
-567.617	-80.697	-0.053	-0.018
-566.602	-123.933	-0.102	0.016
-565.588	-142.875	0.415	0.041
-564.573	-167.934	0.229	-0.009
-563.558	86.072	-0.181	0.201
-562.544	800.000	-0.083	0.246
-561.529	-8.115	0.374	0.255
-560.515	39.664	-0.159	-0.144
-559.500	800.000	0.110	-0.372
-558.485	393.545	-0.094	-0.197
-557.471	-0.652	-0.125	-0.090
-556.456	-66.914	-0.231	0.092
-555.442	-134.318	-0.202	-0.025
-554.427	-200.000	-0.104	0.550
-553.412	87.251	0.066	-0.074
-552.398	-200.000	0.009	-0.195
-551.383	276.927	0.043	-0.076
-550.369	-172.591	-0.098	-0.003
-549.354	137.219	-0.183	-0.242
-548.339	540.864	0.074	-0.179
-547.325	800.000	0.103	-0.331
-546.310	468.249	0.101	-0.228
-545.296	-200.000	0.048	-0.270
-544.281	117.708	0.082	-0.102
-543.266	-200.000	-0.045	-0.355
-542.252	12.982	-0.138	0.108
-541.237	-185.383	-0.517	-0.008
-540.223	800.000	0.016	0.048
-539.208	13.807	0.105	0.082
-538.193	51.496	0.090	0.086
-537.179	-31.212	0.089	-0.050
-536.164	134.028	-0.203	-0.265
-535.150	-37.175	-0.024	-0.013
-534.135	-87.851	-0.393	-0.119
-533.121	534.551	-0.051	-0.123
-532.106	-34.167	-0.061	-0.034
-531.091	38.419	-0.185	0.166
-530.077	83.993	-0.002	-0.002
-529.062	-200.000	0.085	-0.393
-528.048	223.996	0.102	-0.165
-527.033	-200.000	-0.187	-0.001
-526.018	-87.981	0.334	-0.101
-525.004	800.000	0.031	-0.096
-523.989	-111.065	0.231	-0.048
-522.975	-140.793	-0.149	0.015
-521.960	-200.000	0.020	0.219
-520.945	-200.000	0.393	-0.000
-519.931	217.681	-0.167	0.269
-518.916	-200.000	0.016	0.131
-517.902	21.778	0.218	0.179
-516.887	106.340	-0.140	-0.167
-515.872	-67.304	-0.047	-0.019
-514.858	-200.000	0.046	-0.310
-513.843	-36.169	0.114	0.062
-512.829	406.692	-0.116	0.247
-511.814	-87.776	0.443	0.135
-510.799	-181.687	0.039	0.001
-509.785	214.630	0.105	-0.167
-508.770	169.889	0.075	0.107
-507.756	-64.907	-0.141	-0.057
-506.741	30.733	-0.078	0.067
-505.726	203.667	-0.137	0.213
-504.712	78.148	-0.176	0.190
-503.697	-39.458	-0.302	-0.160
-502.683	72.448	0.139	0.146
-501.668	-200.000	-0.004	0.190
-500.653	800.000	-0.060	-0.263
-499.639	-37.384	0.219	-0.118
-498.624	-146.836	-0.215	-0.019
-497.610	595.824	-0.148	-0.368
-496.595	20.928	-0.203	-0.166
-495.581	-200.000	0.033	0.581
-494.566	534.049	0.022	0.052
-493.551	31.145	-0.311	0.269
-492.537	231.986	-0.148	-0.244
-491.522	46.691	0.046	-0.043
-490.508	800.000	0.096	0.323
-489.493	-118.953	0.072	-0.013
-488.478	-1.090	-0.263	0.188
-487.464	-7.560	-0.231	0.158
-486.449	-125.601	-0.061	0.009
-485.435	18.632	0.144	-0.116
-484.420	-51.892	-0.236	0.111
-483.405	-22.207	0.126	0.077
-482.391	-49.376	-0.262	0.126
-481.376	-69.862	0.233	0.090
-480.362	-110.908	0.195	-0.040
-479.347	-200.000	0.018	-0.097
-478.332	-148.717	-0.204	0.017
-477.318	-50.642	0.032	-0.015
-476.303	-89.398	0.184	0.054
-475.289	72.184	-0.127	-0.134
-474.274	205.420	0.129	-0.202
-473.259	101.546	-0.169	0.199
-472.245	5.276	0.256	-0.190
-471.230	118.653	-0.208	-0.259
-470.216	-76.745	0.068	0.024
-469.201	-144.029	-0.094	0.009
-468.186	-11.795	0.189	0.125
-467.172	-107.521	0.179	0.040
-466.157	676.993	-0.063	-0.165
-465.143	-200.000	-0.016	-0.157
-464.128	-45.961	0.138	-0.068
-463.113	546.853	0.098	0.236
-462.099	-200.000	-0.024	-0.147
-461.084	550.725	0.093	0.225
-460.070	-104.038	-0.112	-0.026
-459.055	18.004	-0.430	0.345
-458.040	411.108	-0.090	0.192
-457.026	-200.000	0.034	-0.332
-456.011	101.297	-0.096	0.112
-454.997	800.000	0.030	-0.132
-453.982	-91.290	0.245	-0.070
-452.968	153.435	0.219	0.302
-451.953	132.621	0.049	-0.064
-450.938	-42.111	0.150	0.077
-449.924	173.264	-0.233	0.338
-448.909	-200.000	0.055	0.311
-447.895	-200.000	-0.003	0.138
-446.880	-200.000	-0.006	0.147
-445.865	-144.266	0.101	-0.009
-444.851	-200.000	-0.070	-0.375
-443.836	-200.000	-0.053	-0.321
-442.822	420.693	-0.192	0.414
-441.807	654.222	-0.055	0.141
-440.792	-132.642	0.349	-0.045
-439.778	304.199	0.047	-0.088
-438.763	-65.803	0.257	0.103
-437.749	-4.150	0.166	0.116
-436.734	-62.795	-0.114	0.048
-435.719	-34.317	0.258	-0.142
-434.705	-108.575	-0.172	0.037
-433.690	-67.928	-0.102	0.040
-432.676	176.108	0.176	-0.257
-431.661	40.192	-0.131	-0.118
-430.646	-58.146	0.174	-0.076
-429.632	800.000	-0.098	0.328
-428.617	-200.000	-0.060	0.472
-427.603	-200.000	-0.016	0.249
-426.588	-73.910	-0.104	0.038
-425.573	-115.567	0.200	0.038
-424.559	135.231	-0.124	0.162
-423.544	105.560	0.213	-0.253
-422.530	645.936	-0.120	-0.308
-421.515	485.929	-0.051	-0.118
-420.500	-23.003	-0.042	-0.025
-419.486	-47.482	0.330	-0.161
-418.471	110.453	-0.098	0.119
-417.457	16.225	-0.072	0.057
-416.442	179.381	0.164	0.240
-415.428	800.000	0.081	-0.283
-414.413	-73.386	-0.143	-0.053
-413.398	-142.491	-0.377	0.037
-412.384	-82.719	0.262	-0.085
-411.369	-150.753	-0.183	0.014
-410.355	-200.000	0.030	-0.167
-409.340	463.759	0.032	-0.071
-408.325	103.690	-0.132	-0.156
-407.311	-136.922	-0.356	-0.041
-406.296	328.896	-0.110	-0.212
-405.282	-62.707	-0.123	-0.051
-404.267	508.206	0.067	-0.156
-403.252	-99.850	0.218	-0.055
-402.238	800.000	0.076	-0.238
-401.223	187.096	0.072	-0.108
-400.209	54.922	0.157	-0.152
-399.194	-200.000	-0.070	-0.371
-398.179	800.000	-0.072	0.233
-397.165	24.038	0.303	0.250
-396.150	17.224	0.134	0.107
-395.136	-92.681	-0.205	0.057
-394.121	-160.386	-0.099	-0.005
-393.106	65.434	0.060	0.061
-392.092	150.349	-0.138	-0.188
-391.077	270.594	0.020	-0.036
-390.063	800.000	-0.034	-0.137
-389.048	40.696	0.112	-0.101
-388.033	-105.771	-0.251	-0.057
-387.019	-20.107	0.203	0.126
-386.004	-24.739	-0.127	-0.076
-384.990	-84.552	-0.362	-0.115
-383.975	146.759	-0.063	-0.085
-382.960	404.055	-0.164	0.346
-381.946	778.458	-0.061	0.166
-380.931	91.319	-0.193	-0.218
-379.917	731.379	-0.103	-0.275
-378.902	-92.517	0.162	0.046
-377.888	-200.000	-0.061	0.295
-376.873	-200.000	0.033	0.175
-375.858	-200.000	0.014	0.079
-374.844	686.586	0.113	-0.296
-373.829	-100.862	0.042	-0.010
-372.815	-200.000	-0.037	-0.183
-371.800	308.810	-0.167	0.312
-370.785	-200.000	-0.042	0.411
-369.771	90.869	0.153	-0.172
-368.756	241.422	0.124	0.208
-367.742	-200.000	-0.182	-0.001
-366.727	-200.000	-0.011	-0.065
-365.712	-155.679	0.254	-0.016
-364.698	-58.982	0.281	-0.121
-363.683	-200.000	-0.041	0.342
-362.669	800.000	0.038	0.146
-361.654	-157.892	0.216	0.013
-360.639	-76.667	0.079	-0.028
-359.625	68.645	0.283	-0.291
-358.610	-19.519	0.113	-0.070
-357.596	800.000	0.080	-0.269
-356.581	-124.971	-0.201	-0.031
-355.566	-13.044	-0.119	-0.077
-354.552	-169.691	-0.263	0.010
-353.537	-88.628	0.162	0.048
-352.523	-200.000	0.011	-0.171
-351.508	-61.547	-0.108	0.046
-350.493	67.518	-0.047	0.048
-349.479	658.187	-0.023	0.059
-348.464	-200.000	-0.011	0.285
-347.450	800.000	0.072	0.245
-346.435	409.627	0.025	-0.052
-345.420	-20.436	-0.376	-0.232
-344.406	14.152	0.242	-0.188
-343.391	-119.454	0.401	-0.070
-342.377	-111.742	-0.027	-0.005
-341.362	666.992	0.068	-0.177
-340.348	19.757	-0.116	0.093
-339.333	-8.379	-0.139	-0.093
-338.318	800.000	-0.059	-0.194
-337.304	-6.454	-0.165	-0.113
-336.289	167.770	0.055	0.078
-335.275	51.153	0.138	-0.131
-334.260	-200.000	-0.017	0.295
-333.245	195.365	-0.237	-0.360
-332.231	598.944	0.038	-0.093
-331.216	135.433	-0.132	-0.172
-330.202	-191.396	-0.177	0.002
-329.187	-200.000	0.007	-0.034
-328.172	-57.720	0.214	0.094
-327.158	-101.730	0.119	0.029
-326.143	-200.000	-0.031	0.185
-325.129	800.000	0.135	0.478
-324.114	-91.501	0.081	0.023
-323.099	-136.671	0.228	-0.026
-322.085	-59.272	-0.253	-0.109
-321.070	265.898	0.150	-0.262
-320.056	-65.475	0.188	0.076
-319.041	-200.000	-0.013	-0.206
-318.026	-122.400	0.414	-0.067
-317.012	800.000	-0.101	0.361
-315.997	-148.869	0.143	0.012
-314.983	27.382	0.049	0.042
-313.968	-27.666	-0.128	0.075
-312.953	-200.000	-0.007	0.136
-311.939	-119.607	0.217	0.038
-310.924	-110.016	-0.106	0.022
-309.910	-200.000	0.032	0.170
-308.895	800.000	-0.127	0.350
-307.880	-130.420	-0.432	-0.059
-306.866	101.726	-0.159	-0.186
-305.851	800.000	0.101	0.328
-304.837	-36.720	0.355	-0.191
-303.822	216.920	-0.050	0.079
-302.807	405.202	0.102	0.215
-301.793	-104.572	-0.226	-0.052
-300.778	189.764	0.115	-0.173
-299.764	-200.000	0.010	-0.365
-298.749	132.150	-0.120	0.154
-297.735	36.691	0.171	0.151
-296.720	763.333	0.020	-0.054
-295.705	800.000	-0.011	-0.038
-294.691	94.419	-0.063	-0.071
-293.676	413.222	0.093	-0.197
-292.662	431.422	0.088	-0.191
-291.647	359.256	0.061	-0.121
-290.632	-16.149	0.264	0.167
-289.618	124.485	-0.111	0.140
-288.603	-95.969	-0.126	-0.033
-287.589	167.925	0.261	-0.371
-286.574	208.888	-0.081	0.127
-285.559	55.513	-0.082	-0.079
-284.545	-197.414	0.261	0.002
-283.530	-117.176	0.318	0.058
-282.516	96.267	-0.140	0.160
-281.501	-200.000	-0.109	0.609
-280.486	-200.000	0.026	0.150
-279.472	-95.128	-0.711	-0.192
-278.457	-141.123	0.118	-0.012
-277.443	-200.000	-0.185	0.000
-276.428	-200.000	-0.036	-0.549
-275.413	-52.704	0.179	0.082
-274.399	-200.000	0.012	0.238
-273.384	13.130	-0.120	-0.093
-272.370	43.401	0.036	-0.033
-271.355	343.908	0.035	-0.068
-270.340	-135.525	-0.316	-0.038
-269.326	-200.000	-0.013	-0.202
-268.311	-200.000	-0.016	0.287
-267.297	-34.081	0.256	0.141
-266.282	-200.000	0.087	0.530
-265.267	-6.046	0.389	-0.265
-264.253	-200.000	-0.002	-0.037
-263.238	-33.688	0.146	0.080
-262.224	-91.915	-0.478	0.135
-261.209	-200.000	-0.014	0.150
-260.195	-174.329	0.124	-0.004
-259.180	99.159	0.179	-0.207
-258.165	-33.634	0.285	0.157
-257.151	-147.303	-0.163	-0.014
-256.136	-200.000	0.044	0.210
-255.122	-200.000	-0.008	-0.162
-254.107	-114.676	-0.068	0.013
-253.092	83.110	0.030	0.032
-252.078	-200.000	0.017	0.314
-251.063	175.245	0.105	0.152
-250.049	159.939	-0.274	-0.381
-249.034	340.216	0.033	0.064
-248.019	-100.575	-0.199	0.049
-247.005	-175.747	-0.110	-0.003
-245.990	46.131	-0.206	-0.190
-244.976	57.065	0.070	-0.068
-243.961	33.462	0.141	-0.122
-242.946	65.814	-0.111	0.112
-241.932	152.364	-0.167	0.227
-240.917	-18.082	-0.299	-0.187
-239.903	-116.420	-0.111	0.020
-238.888	-86.968	0.209	0.063
-237.873	285.336	0.156	-0.281
-236.859	-70.225	0.196	-0.074
-235.844	503.209	0.051	0.116
-234.830	68.468	-0.040	-0.041
-233.815	93.726	0.081	-0.092
-232.800	-113.270	0.228	-0.045
-231.786	-101.555	0.324	0.078
-230.771	-163.028	-0.305	-0.015
-229.757	-200.000	0.013	-0.146
-228.742	800.000	-0.049	0.197
-227.727	-88.618	-0.068	0.020
-226.713	-48.647	-0.196	0.094
-225.698	-27.320	0.163	0.095
-224.684	-137.685	-0.204	-0.023
-223.669	-92.431	0.220	0.062
-222.655	-41.540	-0.573	-0.294
-221.640	-121.444	0.082	-0.014
-220.625	18.502	-0.121	0.096
-219.611	700.247	0.053	-0.138
-218.596	800.000	-0.019	0.061
-217.582	22.004	-0.086	-0.070
-216.567	158.918	-0.050	-0.069
-215.552	-15.751	-0.273	-0.173
-214.538	-200.000	0.028	-0.164
-213.523	220.197	0.085	0.136
-212.509	21.236	0.066	0.053
-211.494	-200.000	-0.001	0.056
-210.479	-6.282	0.105	-0.072
-209.465	71.745	-0.195	-0.202
-208.450	-200.000	-0.020	-0.242
-207.436	292.273	0.055	-0.100
-206.421	-200.000	-0.066	-0.337
-205.406	80.891	-0.044	-0.048
-204.392	-200.000	-0.007	0.172
-203.377	246.286	0.087	0.147
-202.363	-95.169	0.282	0.076
-201.348	-200.000	0.009	0.145
-200.333	800.000	-0.069	-0.270
-199.319	-61.085	-0.137	0.057
-198.304	-105.161	0.254	0.058
-197.290	164.482	0.115	-0.161
-196.275	-200.000	-0.002	-0.116
-195.260	-200.000	-0.025	-0.202
-194.246	-63.225	-0.225	-0.092
-193.231	-200.000	-0.014	-0.162
-192.217	-200.000	0.002	0.101
-191.202	124.821	0.097	0.122
-190.187	800.000	-0.197	0.561
-189.173	-200.000	0.027	0.233
-188.158	79.458	0.207	0.221
-187.144	35.351	-0.231	-0.202
-186.129	-140.352	-0.285	0.030
-185.114	-72.740	-0.128	-0.047
-184.100	-114.434	0.335	0.064
-183.085	82.999	0.063	-0.068
-182.071	-75.502	-0.252	0.089
-181.056	-104.205	0.110	-0.025
-180.042	48.060	0.208	-0.193
-179.027	-113.007	0.310	0.061
-178.012	165.836	0.144	0.203
-176.998	34.737	0.057	-0.050
-175.983	88.580	-0.216	0.238
-174.969	800.000	0.049	0.137
-173.954	241.693	0.094	0.156
-172.939	800.000	-0.061	0.222
-171.925	-154.016	0.217	-0.015
-170.910	633.741	0.105	0.264
-169.896	447.752	0.122	0.267
-168.881	800.000	0.095	-0.322
-167.866	-46.529	-0.248	0.121
-166.852	-200.000	0.048	0.239
-165.837	638.851	0.125	0.315
-164.823	-194.472	-0.187	-0.001
-163.808	-17.658	0.225	0.141
-162.793	113.270	-0.082	-0.098
-161.779	96.689	-0.112	-0.128
-160.764	220.095	-0.174	-0.277
-159.750	-200.000	-0.023	-0.228
-158.735	314.307	-0.074	-0.138
-157.720	457.869	-0.111	-0.245
-156.706	272.415	0.085	0.148
-155.691	131.862	0.201	-0.257
-154.677	800.000	0.083	0.349
-153.662	-9.184	0.243	0.162
-152.647	-8.186	-0.178	0.119
-151.633	27.195	-0.156	0.130
-150.618	336.071	-0.163	0.314
-149.604	-50.428	0.122	0.057
-148.589	-130.992	-0.190	0.025
-147.574	128.153	-0.129	0.164
-146.560	-162.951	0.290	-0.014
-145.545	-127.391	0.379	0.055
-144.531	644.907	-0.077	-0.195
-143.516	135.918	0.134	0.173
-142.502	-7.648	-0.104	0.070
-141.487	-153.290	0.036	-0.003
-140.472	94.477	-0.091	-0.103
-139.458	-200.000	-0.023	-0.344
-138.443	800.000	-0.033	-0.093
-137.429	-110.781	0.163	0.033
-136.414	269.064	0.125	-0.218
-135.399	800.000	0.091	-0.254
-134.385	-200.000	-0.022	-0.212
-133.370	106.032	-0.054	0.064
-132.356	-97.431	-0.314	-0.081
-131.341	800.000	-0.092	-0.275
-130.326	800.000	0.043	0.170
-129.312	82.137	-0.083	-0.090
-128.297	109.620	-0.094	-0.112
-127.283	800.000	0.034	-0.095
-126.268	-200.000	-0.009	-0.423
-125.253	-76.123	-0.139	0.049
-124.239	-7.004	-0.202	0.136
-123.224	-200.000	-0.057	0.304
-122.210	-41.871	-0.161	-0.082
