DTS Sentinel unit serial number:	SN413079Multiplexer serial number:	ORYXHardware model number:	OX4-SRSoftware version number:	ORYX F/W v4.00 Oryx Data Collector v3.7.2.0data status	okinstallation	princeton_trtdifferential loss correction	single-endedforward channel	channel 3reverse channel	N/Adate	2019/09/16time	23:04:34forward acquisition time	60.00reverse acquisition time	0.00gamma	496.2192k internal	0.2325k external	0.2325temperature offset calibration	0.9941default loss term (dB/km)	0.3790temperature slope calibration	1.0000multiplexer offset coefficient	1.0000multiplexer slope coefficient	1.0000fibre end	0.00T internal ref (°C)	30.27T ext. ref 1 (°C)	0.09T ext. ref 2 (°C)	23.92length (m)	temperature (°C)	Stokes	anti-Stokes-747.200	-200.000	-0.012	0.148
-746.185	-101.676	-0.534	0.131
-745.171	341.412	-0.034	0.067
-744.156	12.150	0.199	0.155
-743.142	-38.008	0.315	-0.169
-742.127	-35.648	-0.113	0.062
-741.112	136.963	0.159	-0.209
-740.098	-134.601	0.229	0.028
-739.083	-66.207	-0.270	-0.109
-738.069	-1.039	-0.374	0.267
-737.054	-200.000	-0.007	-0.044
-736.039	-66.046	0.114	0.046
-735.025	256.632	0.283	0.491
-734.010	-24.210	-0.273	0.164
-732.996	-38.908	-0.384	0.204
-731.981	-200.000	0.048	0.253
-730.966	122.435	-0.254	-0.320
-729.952	-51.160	-0.358	-0.169
-728.937	-22.291	-0.125	0.077
-727.923	-200.000	0.005	0.159
-726.908	169.178	0.193	0.278
-725.894	-44.884	-0.287	-0.144
-724.879	-134.633	0.170	-0.021
-723.864	-200.000	0.045	0.205
-722.850	800.000	0.075	-0.265
-721.835	-50.623	0.047	-0.023
-720.821	-63.094	-0.302	-0.126
-719.806	-95.636	0.216	-0.058
-718.791	695.320	-0.034	0.090
-717.777	124.724	0.153	0.194
-716.762	-117.964	-0.345	-0.062
-715.748	26.243	-0.262	-0.221
-714.733	107.156	-0.105	-0.125
-713.718	-82.830	0.132	0.043
-712.704	16.893	-0.160	-0.128
-711.689	-200.000	-0.001	-0.198
-710.675	19.670	-0.111	-0.090
-709.660	-134.875	-0.172	-0.021
-708.645	-46.164	-0.187	0.093
-707.631	-126.492	0.119	0.018
-706.616	-200.000	0.035	0.270
-705.602	-28.577	-0.313	0.181
-704.587	-23.856	-0.119	0.072
-703.572	800.000	-0.062	0.229
-702.558	38.326	0.070	-0.063
-701.543	-200.000	-0.000	-0.479
-700.529	-200.000	0.011	-0.308
-699.514	-184.159	-0.321	-0.005
-698.499	255.474	0.114	0.197
-697.485	176.733	0.005	-0.008
-696.470	-28.125	-0.078	-0.045
-695.456	-20.600	-0.286	0.177
-694.441	9.834	0.065	0.050
-693.426	-45.387	0.131	-0.066
-692.412	-200.000	-0.023	-0.270
-691.397	315.905	0.173	-0.328
-690.383	40.581	0.320	-0.291
-689.368	-200.000	0.018	-0.240
-688.354	-95.829	-0.226	0.061
-687.339	-57.974	0.243	-0.107
-686.324	-200.000	-0.088	-0.513
-685.310	-21.873	-0.281	-0.172
-684.295	446.631	0.104	0.231
-683.281	177.391	-0.133	-0.195
-682.266	23.178	0.197	-0.163
-681.251	800.000	0.065	0.193
-680.237	-74.411	0.165	-0.060
-679.222	247.867	0.117	-0.199
-678.208	92.145	-0.182	0.206
-677.193	4.386	-0.273	-0.202
-676.178	464.518	0.091	0.205
-675.164	-200.000	-0.014	0.198
-674.149	-23.861	-0.143	0.086
-673.135	800.000	-0.052	-0.153
-672.120	411.487	-0.182	0.389
-671.105	-76.602	0.267	0.094
-670.091	-193.666	0.267	0.002
-669.076	-60.302	0.234	-0.100
-668.062	126.198	0.226	-0.288
-667.047	443.281	-0.094	-0.207
-666.032	304.618	0.129	-0.241
-665.018	796.202	-0.040	0.110
-664.003	-25.940	0.120	0.071
-662.989	-36.546	0.182	-0.098
-661.974	-149.859	-0.163	0.013
-660.959	-100.426	0.205	0.051
-659.945	756.987	-0.048	-0.131
-658.930	425.577	-0.073	0.158
-657.916	53.293	-0.401	-0.386
-656.901	11.317	0.286	-0.220
-655.886	73.225	-0.036	-0.038
-654.872	-3.814	0.296	-0.207
-653.857	41.443	0.178	-0.162
-652.843	20.983	0.147	-0.120
-651.828	-27.493	-0.068	0.040
-650.814	-38.587	-0.017	0.009
-649.799	-200.000	0.014	-0.317
-648.784	-117.563	0.115	0.021
-647.770	-167.051	-0.414	0.017
-646.755	-200.000	-0.066	0.369
-645.741	-200.000	0.273	0.001
-644.726	-200.000	-0.026	-0.244
-643.711	102.819	-0.006	-0.007
-642.697	82.306	0.097	-0.105
-641.682	-129.493	0.326	-0.045
-640.668	216.822	-0.087	-0.140
-639.653	174.669	0.048	0.071
-638.638	101.908	0.127	0.149
-637.624	66.357	-0.110	0.113
-636.609	251.968	0.105	-0.180
-635.595	293.523	-0.049	0.089
-634.580	630.406	0.039	-0.098
-633.565	-111.521	-0.400	0.082
-632.551	8.473	0.139	0.105
-631.536	800.000	-0.080	-0.297
-630.522	-59.179	0.190	-0.082
-629.507	130.195	-0.118	-0.152
-628.492	-200.000	-0.037	0.208
-627.478	-7.424	-0.062	-0.042
-626.463	-200.000	-0.068	0.396
-625.449	71.549	0.067	0.070
-624.434	-22.821	-0.123	-0.074
-623.419	173.364	-0.156	0.226
-622.405	25.758	0.166	-0.139
-621.390	76.029	0.146	-0.155
-620.376	-53.118	-0.102	0.047
-619.361	800.000	-0.102	0.377
-618.346	-200.000	-0.060	-0.296
-617.332	-134.251	-0.352	-0.044
-616.317	-200.000	-0.059	-0.369
-615.303	-200.000	-0.064	-0.637
-614.288	223.146	-0.093	-0.151
-613.273	800.000	-0.086	0.339
-612.259	148.933	0.114	-0.154
-611.244	-29.269	0.095	-0.055
-610.230	-200.000	0.005	-0.079
-609.215	-36.534	-0.117	-0.063
-608.201	-146.168	-0.309	0.027
-607.186	800.000	-0.066	-0.275
-606.171	-98.396	-0.247	-0.063
-605.157	91.145	-0.176	-0.198
-604.142	12.172	-0.143	-0.111
-603.128	154.793	-0.161	0.222
-602.113	762.630	0.031	0.085
-601.098	-71.232	-0.152	-0.057
-600.084	28.188	0.117	0.099
-599.069	-200.000	0.003	0.056
-598.055	-200.000	0.044	0.432
-597.040	-179.873	-0.362	-0.008
-596.025	156.836	-0.121	0.168
-595.011	338.897	-0.085	0.166
-593.996	-103.056	-0.404	-0.096
-592.982	174.506	-0.155	0.224
-591.967	-49.256	0.064	-0.031
-590.952	255.281	0.242	0.417
-589.938	430.610	-0.105	0.229
-588.923	-50.026	0.144	-0.069
-587.909	25.725	-0.073	0.061
-586.894	800.000	-0.030	-0.110
-585.879	62.130	-0.142	0.142
-584.865	-88.755	-0.373	-0.111
-583.850	-38.171	0.183	0.098
-582.836	242.849	-0.096	0.161
-581.821	-106.299	-0.230	0.052
-580.806	-101.889	-0.266	0.065
-579.792	-127.177	0.291	-0.043
-578.777	-66.417	-0.058	-0.023
-577.763	129.635	0.065	-0.084
-576.748	-200.000	0.085	0.453
-575.733	501.098	0.011	0.025
-574.719	-23.214	-0.156	0.094
-573.704	-184.231	-0.223	0.004
-572.690	-200.000	0.009	0.093
-571.675	21.067	0.210	-0.171
-570.661	570.459	0.121	-0.294
-569.646	-200.000	-0.013	-0.191
-568.631	-127.084	0.364	0.053
-567.617	-200.000	0.018	-0.138
-566.602	-62.827	-0.117	0.048
-565.588	12.555	-0.249	-0.192
-564.573	-41.709	0.035	0.018
-563.558	-57.440	-0.140	0.061
-562.544	-61.638	-0.074	0.031
-561.529	-160.085	-0.430	0.023
-560.515	299.489	-0.194	-0.358
-559.500	443.347	0.060	-0.132
-558.485	-83.406	0.292	-0.094
-557.471	-200.000	-0.009	-0.109
-556.456	-159.102	-0.143	-0.008
-555.442	-81.418	0.169	-0.056
-554.427	-84.607	-0.343	-0.108
-553.412	318.541	0.132	-0.250
-552.398	-200.000	-0.002	-0.110
-551.383	98.219	0.324	-0.374
-550.369	476.823	0.113	0.255
-549.354	530.940	-0.136	0.322
-548.339	2.975	-0.088	-0.064
-547.325	-34.243	0.209	-0.115
-546.310	239.903	0.106	0.178
-545.296	359.455	0.094	0.189
-544.281	511.858	0.118	0.276
-543.266	32.414	0.052	0.045
-542.252	104.264	-0.151	0.177
-541.237	-143.375	-0.211	-0.020
-540.223	100.479	0.131	-0.153
-539.208	-69.055	-0.072	-0.028
-538.193	540.903	0.127	-0.302
-537.179	-200.000	0.032	-0.276
-536.164	-68.850	0.114	0.044
-535.150	53.895	-0.170	0.163
-534.135	-106.608	0.165	0.037
-533.121	146.372	-0.042	0.057
-532.106	121.745	0.185	0.231
-531.091	-200.000	0.006	0.322
-530.077	-200.000	-0.020	0.159
-529.062	-35.915	0.360	0.195
-528.048	-79.968	-0.158	0.053
-527.033	167.988	0.157	0.223
-526.018	-200.000	-0.031	-0.209
-525.004	-200.000	0.033	0.268
-523.989	1.729	-0.309	-0.223
-522.975	-76.519	0.425	-0.149
-521.960	137.369	0.235	0.307
-520.945	800.000	0.042	0.182
-519.931	-15.005	0.175	0.112
-518.916	-200.000	0.033	0.240
-517.902	-17.012	0.085	0.054
-516.887	48.306	0.186	-0.174
-515.872	152.414	-0.052	-0.071
-514.858	171.816	0.052	0.074
-513.843	-200.000	-0.066	-0.312
-512.829	-200.000	-0.000	-0.139
-511.814	-200.000	-0.024	0.267
-510.799	26.455	-0.145	-0.121
-509.785	106.660	0.233	0.276
-508.770	-86.359	-0.157	-0.048
-507.756	-156.088	-0.264	0.017
-506.741	-126.037	-0.094	0.014
-505.726	265.884	-0.094	0.163
-504.712	-132.348	0.230	0.030
-503.697	-64.152	-0.379	-0.154
-502.683	479.915	-0.033	0.074
-501.668	-114.041	-0.152	0.029
-500.653	-189.221	0.189	-0.002
-499.639	244.416	0.055	-0.093
-498.624	505.849	0.126	-0.291
-497.610	800.000	-0.054	-0.221
-496.595	15.981	0.102	0.080
-495.581	800.000	0.099	0.283
-494.566	-25.305	0.215	0.127
-493.551	136.333	-0.274	0.357
-492.537	66.206	-0.097	-0.098
-491.522	18.399	0.107	0.085
-490.508	-104.262	0.165	0.038
-489.493	-8.011	0.047	-0.032
-488.478	127.373	-0.093	-0.117
-487.464	-1.079	-0.260	0.184
-486.449	-200.000	0.062	0.356
-485.435	-43.115	0.107	0.054
-484.420	59.570	0.060	-0.059
-483.405	-45.539	-0.301	-0.149
-482.391	-132.828	0.096	0.012
-481.376	-71.018	-0.137	-0.052
-480.362	800.000	-0.057	0.179
-479.347	-24.323	-0.158	0.094
-478.332	314.404	0.074	-0.138
-477.318	-139.975	-0.098	-0.010
-476.303	-36.605	-0.125	0.067
-475.289	-98.923	0.113	0.029
-474.274	164.074	-0.229	-0.322
-473.259	-69.036	0.114	0.044
-472.245	-55.077	-0.122	0.055
-471.230	417.647	0.019	0.041
-470.216	-175.111	-0.101	0.003
-469.201	565.961	-0.010	-0.024
-468.186	-200.000	0.011	-0.144
-467.172	222.900	-0.120	0.193
-466.157	-111.429	-0.325	0.066
-465.143	-30.606	0.110	0.062
-464.128	-200.000	-0.018	-0.078
-463.113	800.000	0.009	0.031
-462.099	-200.000	-0.000	-0.020
-461.084	-149.004	-0.202	-0.016
-460.070	209.046	-0.135	-0.210
-459.055	-5.480	0.053	-0.037
-458.040	-17.278	0.150	0.094
-457.026	-98.047	-0.291	0.075
-456.011	124.824	0.233	0.293
-454.997	-200.000	0.028	-0.374
-453.982	-92.974	0.176	-0.049
-452.968	800.000	0.094	-0.293
-451.953	800.000	0.062	0.193
-450.938	-200.000	0.059	0.558
-449.924	-65.986	-0.091	0.036
-448.909	501.068	0.071	-0.163
-447.895	356.831	0.177	-0.352
-446.880	-34.595	-0.236	-0.129
-445.865	-200.000	-0.056	0.363
-444.851	-89.820	-0.238	0.069
-443.836	-25.809	-0.189	0.111
-442.822	800.000	0.143	0.414
-441.807	100.612	-0.250	-0.289
-440.792	-200.000	-0.032	-0.179
-439.778	-200.000	-0.015	-0.112
-438.763	800.000	-0.076	-0.225
-437.749	-122.832	-0.181	-0.029
-436.734	-128.841	0.129	0.018
-435.719	-90.324	0.145	-0.042
-434.705	800.000	-0.078	-0.253
-433.690	49.327	0.129	0.121
-432.676	109.431	0.299	-0.357
-431.661	-88.891	-0.309	-0.091
-430.646	-82.257	0.289	-0.094
-429.632	-200.000	0.017	0.119
-428.617	-84.745	0.338	-0.106
-427.603	-147.581	0.355	0.030
-426.588	-200.000	0.065	0.468
-425.573	-100.769	0.096	0.024
-424.559	18.629	0.075	-0.060
-423.544	204.761	0.033	-0.051
-422.530	-37.059	0.145	0.077
-421.515	9.132	0.135	0.101
-420.500	73.558	0.080	-0.084
-419.486	344.108	-0.100	-0.196
-418.471	800.000	-0.038	0.121
-417.457	217.421	0.081	-0.129
-416.442	-101.330	0.063	-0.015
-415.428	722.046	0.025	-0.065
-414.413	247.745	-0.132	-0.223
-413.398	52.523	0.053	0.050
-412.384	18.759	-0.111	-0.088
-411.369	687.532	-0.135	-0.350
-410.355	-200.000	-0.025	-0.312
-409.340	-90.908	0.129	0.037
-408.325	4.019	0.050	0.036
-407.311	-48.481	-0.293	0.141
-406.296	-200.000	-0.018	-0.167
-405.282	-54.077	-0.094	-0.042
-404.267	-166.746	0.034	-0.001
-403.252	-113.893	-0.217	-0.042
-402.238	564.978	-0.110	0.266
-401.223	17.860	-0.087	-0.069
-400.209	800.000	0.048	-0.165
-399.194	-138.021	-0.177	-0.020
-398.179	-119.347	0.101	0.018
-397.165	-175.981	0.158	-0.004
-396.150	-141.991	-0.046	0.005
-395.136	-200.000	-0.054	0.368
-394.121	-200.000	-0.236	-0.001
-393.106	30.379	0.279	-0.238
-392.092	-63.502	0.330	-0.135
-391.077	-109.899	0.303	-0.063
-390.063	-117.472	-0.211	-0.038
-389.048	-37.180	0.054	0.029
-388.033	-200.000	0.021	0.172
-387.019	560.616	-0.075	0.180
-386.004	137.308	0.055	0.072
-384.990	-200.000	-0.020	-0.107
-383.975	800.000	0.028	0.088
-382.960	33.938	-0.109	-0.095
-381.946	559.149	0.044	0.105
-380.931	-111.207	0.355	0.072
-379.917	284.236	-0.130	-0.234
-378.902	-121.130	0.207	-0.034
-377.888	375.006	0.053	-0.106
-376.873	-19.132	-0.277	-0.171
-375.858	17.035	-0.213	-0.168
-374.844	108.430	0.252	-0.299
-373.829	-200.000	0.017	-0.273
-372.815	225.275	0.105	-0.169
-371.800	-200.000	-0.063	0.378
-370.785	118.643	0.083	-0.102
-369.771	-200.000	-0.055	-0.257
-368.756	800.000	-0.058	0.198
-367.742	800.000	0.033	-0.131
-366.727	-70.522	0.128	0.048
-365.712	-0.350	-0.209	-0.148
-364.698	65.109	-0.079	-0.079
-363.683	798.743	-0.052	0.142
-362.669	307.633	0.089	0.164
-361.654	149.618	-0.043	0.057
-360.639	143.095	-0.231	-0.305
-359.625	-200.000	0.029	-0.349
-358.610	-94.613	-0.302	0.082
-357.596	686.833	0.161	-0.419
-356.581	-40.122	-0.416	-0.215
-355.566	-118.795	-0.184	-0.032
-354.552	282.439	-0.049	-0.087
-353.537	171.432	0.089	-0.127
-352.523	-200.000	0.034	-0.464
-351.508	-200.000	-0.004	-0.267
-350.493	238.239	0.198	0.327
-349.479	107.901	0.180	-0.213
-348.464	-118.698	0.252	0.044
-347.450	-191.264	0.138	0.001
-346.435	120.018	-0.072	-0.089
-345.420	134.077	-0.280	0.361
-344.406	800.000	0.016	-0.052
-343.391	344.817	-0.069	0.135
-342.377	-200.000	-0.033	0.364
-341.362	2.500	-0.100	0.072
-340.348	74.993	0.130	0.136
-339.333	800.000	0.143	0.461
-338.318	29.386	0.035	0.029
-337.304	-200.000	0.059	0.496
-336.289	161.818	0.013	-0.018
-335.275	-17.501	0.217	-0.135
-334.260	3.154	0.273	-0.197
-333.245	8.157	0.192	0.143
-332.231	56.823	0.077	-0.074
-331.216	800.000	-0.022	-0.061
-330.202	-72.159	-0.199	0.073
-329.187	-200.000	0.019	-0.203
-328.172	37.152	0.052	0.046
-327.158	324.149	0.134	-0.253
-326.143	60.997	-0.165	-0.162
-325.129	226.076	0.157	0.254
-324.114	-200.000	-0.003	-0.268
-323.099	-78.801	0.160	-0.054
-322.085	109.720	-0.086	-0.103
-321.070	525.458	0.131	0.306
-320.056	-78.775	0.288	0.098
-319.041	4.603	-0.196	0.143
-318.026	-141.102	-0.323	-0.033
-317.012	-31.375	0.229	0.128
-315.997	-31.423	0.170	0.095
-314.983	138.867	-0.257	-0.335
-313.968	800.000	0.042	0.159
-312.953	-149.118	-0.191	-0.015
-311.939	-29.275	-0.228	0.130
-310.924	-2.192	0.136	-0.095
-309.910	-200.000	-0.059	0.397
-308.895	34.435	-0.199	0.172
-307.880	-135.926	-0.448	0.052
-306.866	800.000	0.071	-0.251
-305.851	234.524	-0.028	0.046
-304.837	800.000	0.090	-0.248
-303.822	800.000	-0.022	-0.090
-302.807	374.013	0.059	0.120
-301.793	84.243	0.100	-0.109
-300.778	800.000	-0.027	0.116
-299.764	158.464	0.162	-0.223
-298.749	93.196	-0.118	0.132
-297.735	25.885	-0.207	-0.171
-296.720	800.000	0.012	-0.038
-295.705	-200.000	-0.046	-0.323
-294.691	-200.000	0.013	0.078
-293.676	-176.703	0.106	-0.003
-292.662	6.959	0.112	-0.082
-291.647	-200.000	-0.046	0.201
-290.632	67.628	0.207	-0.209
-289.618	-16.806	-0.224	0.140
-288.603	168.652	0.267	-0.377
-287.589	239.646	-0.099	-0.163
-286.574	-2.286	-0.174	-0.121
-285.559	384.127	0.153	0.312
-284.545	40.426	-0.067	0.060
-283.530	-17.222	-0.133	-0.083
-282.516	206.771	0.227	0.351
-281.501	-200.000	0.012	-0.110
-280.486	-147.254	0.106	0.009
-279.472	800.000	0.071	0.225
-278.457	-200.000	-0.073	0.410
-277.443	-105.561	-0.179	0.040
-276.428	35.023	0.123	0.106
-275.413	-87.321	-0.131	0.039
-274.399	-6.997	0.313	0.211
-273.384	-154.337	0.091	0.006
-272.370	-49.751	0.143	0.067
-271.355	157.243	-0.095	-0.130
-270.340	-19.803	-0.111	0.068
-269.326	-61.696	0.308	-0.128
-268.311	-100.854	0.248	-0.060
-267.297	176.029	-0.126	0.182
-266.282	-100.913	0.299	-0.073
-265.267	-86.228	-0.184	0.056
-264.253	-200.000	-0.034	-0.294
-263.238	-200.000	0.002	-0.126
-262.224	-80.276	0.217	0.072
-261.209	800.000	-0.034	-0.134
-260.195	-12.077	-0.163	-0.106
-259.180	633.717	-0.066	-0.165
-258.165	276.708	-0.080	0.141
-257.151	-131.416	-0.236	-0.031
-256.136	-79.115	0.236	-0.079
-255.122	-79.141	-0.252	0.085
-254.107	-200.000	0.015	-0.131
-253.092	209.788	-0.093	0.145
-252.078	-30.412	0.075	0.042
-251.063	1.389	0.222	0.158
-250.049	-200.000	-0.020	0.138
-249.034	168.027	0.064	0.090
-248.019	-69.268	-0.073	0.028
-247.005	-56.342	0.271	0.119
-245.990	-53.841	0.131	-0.059
-244.976	-81.971	0.273	0.088
-243.961	144.928	0.093	-0.123
-242.946	-76.154	0.325	-0.113
-241.932	-3.909	-0.280	-0.192
-240.917	173.129	0.170	-0.242
-239.903	181.849	-0.087	0.127
-238.888	331.244	0.069	-0.132
-237.873	145.871	0.280	-0.372
-236.859	-59.659	0.288	-0.122
-235.844	-158.088	-0.111	-0.006
-234.830	-149.655	-0.145	-0.011
-233.815	156.389	0.103	0.141
-232.800	-83.846	-0.152	0.048
-231.786	265.633	0.068	0.117
-230.771	135.718	-0.208	0.268
-229.757	-117.027	0.363	0.065
-228.742	245.699	-0.029	0.048
-227.727	-42.583	-0.123	0.062
-226.713	272.769	-0.134	0.234
-225.698	-146.221	-0.040	0.003
-224.684	24.174	0.227	0.185
-223.669	186.601	0.152	0.224
-222.655	38.270	-0.045	-0.040
-221.640	437.319	0.070	0.150
-220.625	-129.477	-0.349	-0.048
-219.611	-33.536	0.113	-0.062
-218.596	-61.893	0.303	-0.125
-217.582	237.883	0.183	-0.300
-216.567	-124.027	-0.285	-0.044
-215.552	800.000	0.049	0.141
-214.538	-45.521	-0.134	0.066
-213.523	188.271	-0.165	-0.244
-212.509	49.124	0.104	-0.097
-211.494	-200.000	-0.080	-0.345
-210.479	-200.000	0.004	-0.095
-209.465	-200.000	0.248	-0.001
-208.450	-158.642	-0.229	0.013
-207.436	71.844	0.349	-0.359
-206.421	4.145	-0.085	0.062
-205.406	241.255	-0.115	0.190
-204.392	-75.769	-0.115	-0.040
-203.377	-200.000	0.013	-0.074
-202.363	2.046	-0.128	0.091
-201.348	202.477	0.186	-0.283
-200.333	84.338	-0.161	0.174
-199.319	800.000	-0.016	0.047
-198.304	-200.000	0.010	-0.108
-197.290	5.498	0.126	-0.092
-196.275	207.838	0.149	0.230
-195.260	335.523	0.057	0.109
-194.246	-117.071	-0.276	0.050
-193.231	155.073	0.032	0.044
-192.217	-200.000	0.001	0.208
-191.202	-86.930	-0.427	-0.129
-190.187	-46.842	0.299	-0.144
-189.173	-123.920	0.005	0.001
-188.158	703.152	0.097	-0.253
-187.144	800.000	0.041	0.125
-186.129	800.000	0.066	-0.209
-185.114	109.651	-0.034	0.041
-184.100	287.380	0.054	0.097
-183.085	-200.000	-0.019	0.127
-182.071	196.350	0.135	-0.203
-181.056	-162.060	0.067	-0.003
-180.042	800.000	0.015	-0.059
-179.027	-200.000	0.050	-0.234
-178.012	800.000	-0.063	0.188
-176.998	776.055	-0.053	0.142
-175.983	-200.000	0.024	0.114
-174.969	-60.243	0.101	0.042
-173.954	524.600	0.098	0.228
-172.939	159.801	-0.139	0.190
-171.925	-83.638	-0.194	0.061
-170.910	59.065	-0.104	0.101
-169.896	-54.219	0.237	-0.106
-168.881	327.099	-0.116	-0.220
-167.866	48.813	0.047	0.043
-166.852	403.011	0.027	-0.055
-165.837	-26.383	-0.187	0.108
-164.823	-200.000	0.020	0.111
-163.808	-200.000	-0.072	0.416
-162.793	157.186	0.095	0.130
-161.779	-22.192	0.071	-0.042
-160.764	-189.454	-0.200	-0.002
-159.750	-84.455	0.330	0.103
-158.735	-200.000	0.045	0.226
-157.720	-200.000	-0.003	0.418
-156.706	471.663	-0.077	0.170
-155.691	18.831	-0.253	-0.200
-154.677	83.905	0.044	-0.047
-153.662	8.482	0.182	0.135
-152.647	-155.694	0.109	0.007
-151.633	-152.911	0.294	-0.020
-150.618	243.757	-0.021	0.035
-149.604	-83.922	0.322	0.101
-148.589	-1.611	0.121	0.084
-147.574	302.601	-0.038	-0.070
-146.560	-200.000	0.048	-0.304
-145.545	-65.024	0.221	-0.088
-144.531	347.164	0.101	-0.196
-143.516	79.438	-0.147	-0.155
-142.502	-47.627	-0.382	-0.183
-141.487	-200.000	0.043	0.223
-140.472	800.000	-0.107	-0.301
-139.458	-200.000	-0.022	-0.205
-138.443	800.000	0.064	-0.178
-137.429	278.759	0.133	0.233
-136.414	-85.583	0.206	-0.063
-135.399	217.335	0.096	-0.151
-134.385	34.278	0.239	-0.205
-133.370	341.220	-0.097	-0.187
-132.356	-86.407	-0.079	0.024
-131.341	-200.000	0.018	0.205
-130.326	-44.312	0.163	0.080
-129.312	-138.734	-0.195	-0.021
-128.297	800.000	-0.099	0.399
-127.283	-31.237	0.319	-0.177
-126.268	61.943	0.221	0.217
-125.253	-27.850	0.263	-0.150
-124.239	-47.879	0.131	-0.062
-123.224	208.157	-0.123	0.189
-122.210	-160.118	0.220	0.012
-121.195	431.067	-0.187	0.399
