DTS Sentinel unit serial number:	SN413079Multiplexer serial number:	ORYXHardware model number:	OX4-SRSoftware version number:	ORYX F/W v4.00 Oryx Data Collector v3.7.2.0data status	okinstallation	princeton_trtdifferential loss correction	single-endedforward channel	channel 3reverse channel	N/Adate	2019/09/11time	21:54:11forward acquisition time	60.00reverse acquisition time	0.00gamma	496.2192k internal	0.2312k external	0.2312temperature offset calibration	1.0039default loss term (dB/km)	0.3790temperature slope calibration	1.0000multiplexer offset coefficient	1.0000multiplexer slope coefficient	1.0000fibre end	0.00T internal ref (°C)	35.62T ext. ref 1 (°C)	1.69T ext. ref 2 (°C)	29.53length (m)	temperature (°C)	Stokes	anti-Stokes-747.200	211.158	0.103	0.164
-746.185	-32.247	-0.115	0.065
-745.171	800.000	-0.030	0.124
-744.156	-200.000	0.011	-0.069
-743.142	449.534	-0.034	-0.075
-742.127	-103.992	-0.516	-0.122
-741.112	122.193	0.128	-0.162
-740.098	-80.096	-0.538	0.183
-739.083	-200.000	-0.005	0.171
-738.069	800.000	0.049	0.211
-737.054	193.151	-0.078	0.120
-736.039	-135.918	-0.366	0.044
-735.025	-63.817	-0.331	0.138
-734.010	114.691	0.072	0.089
-732.996	238.937	-0.129	-0.218
-731.981	-85.879	0.294	0.092
-730.966	-24.048	0.326	0.198
-729.952	-2.720	-0.231	-0.164
-728.937	800.000	0.051	-0.144
-727.923	-200.000	0.035	-0.261
-726.908	-200.000	0.025	-0.401
-725.894	-200.000	-0.035	0.371
-724.879	-95.146	-0.150	0.041
-723.864	-200.000	0.029	-0.149
-722.850	-200.000	0.007	0.246
-721.835	250.012	0.169	0.291
-720.821	-26.352	0.067	-0.040
-719.806	299.037	-0.037	0.069
-718.791	-57.851	0.244	0.108
-717.777	-69.655	0.145	-0.056
-716.762	507.773	-0.157	-0.368
-715.748	-128.027	-0.069	0.010
-714.733	29.975	0.292	-0.252
-713.718	-30.104	-0.242	0.139
-712.704	-125.154	-0.220	-0.034
-711.689	51.312	0.237	0.229
-710.675	-104.203	0.171	-0.040
-709.660	74.637	-0.048	-0.051
-708.645	-81.041	0.095	-0.032
-707.631	-200.000	-0.007	-0.083
-706.616	-129.293	-0.140	0.020
-705.602	32.624	-0.041	0.036
-704.587	-200.000	0.003	0.376
-703.572	-121.127	0.222	0.038
-702.558	-98.141	0.283	-0.074
-701.543	0.520	-0.342	0.248
-700.529	-129.859	-0.209	-0.029
-699.514	17.466	-0.124	0.100
-698.499	-146.776	0.281	-0.025
-697.485	-35.000	-0.190	0.105
-696.470	70.468	0.299	0.313
-695.456	119.668	-0.099	-0.124
-694.441	-123.562	0.072	-0.012
-693.426	-40.225	0.214	-0.113
-692.412	-1.552	0.227	0.162
-691.397	-23.173	-0.158	0.096
-690.383	800.000	-0.105	-0.343
-689.368	-200.000	-0.030	-0.148
-688.354	416.031	-0.068	0.147
-687.339	-4.514	-0.129	0.090
-686.324	191.657	-0.187	-0.286
-685.310	800.000	-0.025	-0.092
-684.295	30.462	0.225	-0.195
-683.281	-151.911	-0.455	0.034
-682.266	-40.715	-0.134	0.070
-681.251	-200.000	-0.032	-0.153
-680.237	80.953	-0.112	-0.122
-679.222	647.403	0.040	0.103
-678.208	160.393	-0.102	0.144
-677.193	14.742	0.081	0.064
-676.178	-200.000	-0.017	-0.307
-675.164	-89.337	-0.193	0.058
-674.149	800.000	-0.091	0.264
-673.135	-200.000	-0.029	-0.433
-672.120	-103.716	0.281	0.067
-671.105	-200.000	0.006	0.051
-670.091	454.570	0.023	0.053
-669.076	140.726	-0.009	-0.011
-668.062	-95.386	0.120	-0.033
-667.047	-179.853	-0.198	-0.004
-666.032	171.787	0.091	0.133
-665.018	-103.146	-0.110	0.026
-664.003	100.586	-0.201	-0.237
-662.989	-200.000	0.034	0.270
-661.974	658.002	-0.058	-0.151
-660.959	-149.450	-0.046	-0.004
-659.945	-200.000	0.020	-0.299
-658.930	93.882	-0.217	0.249
-657.916	-100.240	0.451	0.113
-656.901	23.042	-0.119	-0.099
-655.886	-200.000	-0.031	-0.540
-654.872	3.981	-0.189	-0.140
-653.857	-122.977	-0.548	0.089
-652.843	165.971	-0.070	-0.100
-651.828	52.207	0.114	0.110
-650.814	-200.000	0.051	0.335
-649.799	160.951	-0.148	0.209
-648.784	-200.000	0.040	0.346
-647.770	-97.721	-0.123	0.032
-646.755	147.505	0.152	-0.207
-645.741	44.880	-0.229	-0.213
-644.726	322.365	0.109	-0.209
-643.711	256.161	0.097	-0.168
-642.697	800.000	-0.043	0.125
-641.682	-200.000	-0.015	-0.098
-640.668	-200.000	-0.076	-0.451
-639.653	135.056	-0.037	0.049
-638.638	-200.000	0.045	0.214
-637.624	-115.249	0.415	0.079
-636.609	664.568	-0.025	0.064
-635.595	-52.771	-0.382	0.178
-634.580	-25.317	-0.111	0.066
-633.565	138.971	0.095	-0.126
-632.551	80.131	0.179	0.194
-631.536	-45.038	-0.170	-0.086
-630.522	-21.741	0.082	0.051
-629.507	-200.000	0.009	-0.084
-628.492	-103.843	-0.195	0.046
-627.478	-118.434	0.076	-0.014
-626.463	-56.473	0.394	0.177
-625.449	-126.549	-0.196	-0.029
-624.434	800.000	0.086	0.358
-623.419	800.000	-0.023	-0.084
-622.405	-141.801	0.445	-0.045
-621.390	31.304	0.084	-0.073
-620.376	209.807	-0.121	0.192
-619.361	5.383	0.069	-0.052
-618.346	800.000	0.105	0.308
-617.332	-50.767	0.383	0.182
-616.317	124.675	0.255	0.324
-615.303	-13.067	0.079	0.052
-614.288	-200.000	0.006	-0.060
-613.273	238.469	-0.130	0.219
-612.259	-78.910	-0.110	-0.038
-611.244	538.480	0.135	-0.324
-610.230	195.619	0.117	-0.179
-609.215	62.601	-0.259	-0.261
-608.201	97.712	0.183	0.213
-607.186	19.769	-0.158	0.129
-606.171	-200.000	-0.051	0.336
-605.157	396.852	-0.137	-0.290
-604.142	800.000	0.088	0.257
-603.128	145.814	0.106	-0.144
-602.113	-200.000	0.018	-0.293
-601.098	68.158	-0.240	-0.248
-600.084	225.629	0.155	-0.253
-599.069	9.081	0.030	-0.023
-598.055	-200.000	-0.033	0.155
-597.040	12.988	0.217	0.170
-596.025	-129.340	-0.186	0.026
-595.011	-61.801	0.434	-0.183
-593.996	-200.000	0.011	-0.174
-592.982	-122.682	-0.297	0.049
-591.967	-21.458	0.088	-0.054
-590.952	-2.191	-0.161	0.114
-589.938	207.207	-0.123	-0.193
-588.923	-200.000	-0.004	0.029
-587.909	-47.587	-0.142	0.070
-586.894	-200.000	-0.030	-0.312
-585.879	-166.870	0.397	-0.016
-584.865	800.000	-0.069	-0.235
-583.850	99.279	-0.176	-0.205
-582.836	-200.000	-0.008	-0.036
-581.821	342.409	-0.057	0.112
-580.806	268.367	0.094	-0.166
-579.792	29.855	0.228	-0.196
-578.777	-138.895	0.211	-0.023
-577.763	605.962	0.066	-0.167
-576.748	800.000	0.070	0.283
-575.733	-130.459	-0.150	-0.020
-574.719	-104.473	-0.072	0.017
-573.704	-128.335	0.199	0.029
-572.690	337.109	0.064	0.125
-571.675	42.341	0.114	0.105
-570.661	-180.663	0.160	0.003
-569.646	-50.178	-0.328	-0.157
-568.631	-200.000	0.004	0.052
-567.617	3.252	0.072	-0.053
-566.602	-200.000	0.038	-0.266
-565.588	-31.040	0.068	0.038
-564.573	-13.812	0.144	-0.094
-563.558	182.273	-0.109	0.162
-562.544	-200.000	-0.000	-0.169
-561.529	159.819	0.079	0.110
-560.515	-89.598	-0.221	0.065
-559.500	-200.000	-0.053	-0.517
-558.485	298.494	-0.146	-0.270
-557.471	-200.000	0.003	0.104
-556.456	-113.307	0.509	0.101
-555.442	-71.867	-0.322	-0.121
-554.427	-29.212	-0.192	0.111
-553.412	343.060	0.091	-0.180
-552.398	220.800	-0.106	-0.171
-551.383	-21.532	0.104	-0.064
-550.369	-143.427	0.068	0.007
-549.354	-134.431	-0.290	-0.036
-548.339	140.202	0.091	-0.121
-547.325	-138.536	0.146	0.016
-546.310	-102.991	0.187	-0.045
-545.296	-200.000	0.020	0.223
-544.281	-200.000	-0.002	0.051
-543.266	-200.000	-0.082	-0.515
-542.252	-200.000	-0.014	-0.106
-541.237	-178.240	-0.238	-0.006
-540.223	470.167	0.213	0.483
-539.208	68.035	-0.188	0.194
-538.193	-118.070	-0.137	-0.025
-537.179	-200.000	-0.013	-0.257
-536.164	-90.308	0.131	-0.038
-535.150	119.919	-0.038	-0.047
-534.135	-67.809	0.195	0.077
-533.121	398.597	-0.104	-0.219
-532.106	-61.505	-0.141	-0.060
-531.091	352.575	0.184	0.368
-530.077	27.490	-0.320	-0.271
-529.062	-200.000	0.022	0.154
-528.048	-107.827	-0.281	-0.062
-527.033	-122.490	0.102	0.017
-526.018	698.931	0.035	0.092
-525.004	-200.000	0.037	0.273
-523.989	181.906	-0.074	0.110
-522.975	-70.954	0.288	-0.109
-521.960	513.565	-0.163	0.382
-520.945	-70.372	0.048	0.018
-519.931	-10.027	0.045	0.030
-518.916	-2.797	0.186	-0.131
-517.902	-73.543	-0.223	-0.082
-516.887	-54.722	0.054	0.025
-515.872	-122.085	0.248	0.041
-514.858	-66.273	-0.146	0.059
-513.843	-89.141	-0.161	0.048
-512.829	17.080	0.627	0.500
-511.814	182.577	-0.135	0.199
-510.799	-200.000	0.025	0.208
-509.785	-104.710	-0.093	-0.021
-508.770	-24.250	-0.049	0.030
-507.756	-200.000	0.023	0.145
-506.741	13.738	0.220	-0.172
-505.726	-47.676	-0.112	-0.055
-504.712	-52.981	-0.512	-0.237
-503.697	80.524	-0.195	0.212
-502.683	468.851	-0.127	-0.288
-501.668	18.934	-0.348	0.281
-500.653	-200.000	0.033	-0.237
-499.639	-106.106	0.221	-0.050
-498.624	-166.478	0.208	0.009
-497.610	151.689	0.094	-0.129
-496.595	8.303	0.331	-0.250
-495.581	468.508	0.145	-0.328
-494.566	387.957	-0.080	-0.167
-493.551	-200.000	-0.023	0.279
-492.537	-184.728	-0.249	0.004
-491.522	167.989	0.094	-0.135
-490.508	-116.288	-0.515	-0.096
-489.493	766.567	0.098	0.267
-488.478	-147.314	0.165	-0.014
-487.464	-21.732	-0.062	0.038
-486.449	-142.965	-0.305	0.030
-485.435	-79.219	-0.186	0.064
-484.420	-200.000	0.017	-0.197
-483.405	-157.050	0.126	0.008
-482.391	-134.917	-0.242	-0.029
-481.376	800.000	-0.018	-0.056
-480.362	-68.363	-0.359	0.140
-479.347	302.033	0.143	-0.265
-478.332	-200.000	-0.060	-0.311
-477.318	50.776	0.214	0.204
-476.303	-80.900	-0.117	0.039
-475.289	800.000	0.062	0.215
-474.274	-200.000	0.029	0.239
-473.259	227.443	-0.156	-0.255
-472.245	-200.000	-0.018	0.156
-471.230	46.150	-0.114	0.106
-470.216	169.929	0.168	-0.241
-469.201	-2.555	0.158	-0.111
-468.186	50.245	-0.231	-0.219
-467.172	800.000	-0.114	-0.365
-466.157	-51.483	-0.395	-0.185
-465.143	-136.503	0.287	-0.033
-464.128	-180.363	0.106	0.002
-463.113	-115.949	-0.117	0.022
-462.099	-105.447	-0.194	-0.044
-461.084	540.983	-0.062	0.148
-460.070	9.918	0.249	-0.190
-459.055	109.954	-0.104	0.125
-458.040	-91.904	0.271	0.077
-457.026	23.535	-0.304	-0.251
-456.011	10.094	-0.115	-0.088
-454.997	-200.000	0.001	-0.085
-453.982	-151.420	0.248	0.019
-452.968	-93.142	-0.217	0.061
-451.953	-144.317	-0.387	-0.036
-450.938	-200.000	0.037	-0.208
-449.924	800.000	0.012	-0.050
-448.909	-127.282	0.065	0.010
-447.895	76.737	-0.063	0.067
-446.880	-200.000	0.001	0.135
-445.865	232.735	-0.154	-0.254
-444.851	800.000	0.019	0.069
-443.836	-123.808	0.107	0.017
-442.822	-180.888	0.243	0.005
-441.807	123.378	-0.071	0.089
-440.792	-200.000	0.032	0.141
-439.778	198.722	0.200	-0.307
-438.763	-101.818	-0.116	0.028
-437.749	85.688	0.223	0.246
-436.734	-200.000	0.045	0.213
-435.719	56.166	0.030	-0.030
-434.705	-200.000	-0.018	-0.086
-433.690	-37.316	0.101	0.054
-432.676	30.372	0.139	0.119
-431.661	-50.642	-0.454	-0.214
-430.646	-200.000	0.107	0.000
-429.632	-50.891	-0.276	-0.130
-428.617	130.214	0.246	-0.316
-427.603	-163.365	-0.220	-0.011
-426.588	-98.349	-0.366	0.094
-425.573	755.180	-0.060	-0.162
-424.559	-7.422	0.115	0.078
-423.544	-111.740	-0.134	-0.027
-422.530	-28.906	0.381	-0.219
-421.515	-60.783	0.291	-0.123
-420.500	-66.883	-0.343	0.136
-419.486	-118.815	0.308	-0.054
-418.471	-96.162	-0.040	0.011
-417.457	-78.191	-0.376	-0.129
-416.442	-200.000	-0.009	-0.163
-415.428	3.342	-0.020	-0.014
-414.413	105.862	-0.215	0.255
-413.398	460.172	0.110	-0.245
-412.384	216.852	-0.034	0.055
-411.369	303.919	0.048	-0.089
-410.355	497.387	0.124	-0.286
-409.340	800.000	0.118	0.352
-408.325	-62.655	0.273	-0.114
-407.311	431.195	-0.010	-0.022
-406.296	-200.000	-0.007	-0.074
-405.282	-144.232	-0.260	0.024
-404.267	-200.000	0.009	0.165
-403.252	285.940	-0.190	0.343
-402.238	31.837	-0.137	0.119
-401.223	283.625	0.161	0.290
-400.209	800.000	0.028	-0.091
-399.194	800.000	0.034	0.115
-398.179	-125.832	-0.423	0.064
-397.165	-54.925	0.170	0.077
-396.150	-66.525	0.138	-0.055
-395.136	-142.978	0.173	0.017
-394.121	800.000	0.098	-0.293
-393.106	-20.555	0.002	-0.001
-392.092	71.164	-0.265	-0.275
-391.077	-95.671	0.243	-0.065
-390.063	9.954	0.178	-0.135
-389.048	-58.863	0.063	0.027
-388.033	-112.286	-0.129	-0.026
-387.019	2.524	0.255	0.185
-386.004	-102.402	0.320	-0.077
-384.990	52.062	0.036	-0.035
-383.975	-68.329	0.033	-0.013
-382.960	-200.000	0.017	-0.088
-381.946	-162.099	-0.352	0.018
-380.931	-104.371	-0.152	0.035
-379.917	122.388	0.096	-0.121
-378.902	-200.000	0.001	-0.203
-377.888	-73.391	-0.056	0.021
-376.873	-200.000	0.037	0.355
-375.858	-183.749	0.067	-0.001
-374.844	800.000	-0.039	0.119
-373.829	-32.892	-0.131	-0.073
-372.815	-109.088	-0.084	0.018
-371.800	800.000	0.079	0.306
-370.785	-73.985	0.103	-0.038
-369.771	318.106	0.081	-0.153
-368.756	-5.449	0.021	-0.014
-367.742	-200.000	-0.031	-0.293
-366.727	-170.566	-0.299	0.010
-365.712	436.088	0.064	0.139
-364.698	-200.000	0.009	-0.089
-363.683	292.452	-0.092	0.168
-362.669	-19.167	0.303	0.188
-361.654	800.000	-0.075	0.248
-360.639	800.000	0.094	0.264
-359.625	800.000	0.063	0.233
-358.610	172.215	0.169	-0.242
-357.596	-74.187	-0.268	0.097
-356.581	-115.076	-0.528	0.100
-355.566	-200.000	-0.076	-0.376
-354.552	-117.759	-0.314	-0.056
-353.537	800.000	0.020	-0.072
-352.523	-200.000	-0.003	0.074
-351.508	30.133	-0.052	0.044
-350.493	13.456	0.213	0.165
-349.479	-168.818	0.096	0.004
-348.464	-200.000	-0.035	-0.285
-347.450	-200.000	0.012	0.058
-346.435	-200.000	-0.033	-0.322
-345.420	125.552	0.136	-0.172
-344.406	37.885	-0.156	0.138
-343.391	67.177	-0.138	0.140
-342.377	-67.932	0.410	-0.160
-341.362	57.340	-0.157	-0.154
-340.348	-121.133	0.442	-0.074
-339.333	-200.000	-0.047	0.280
-338.318	-89.364	-0.286	0.084
-337.304	-9.690	-0.290	-0.193
-336.289	285.042	-0.194	-0.349
-335.275	-125.818	0.278	0.042
-334.260	151.807	0.103	-0.141
-333.245	-200.000	-0.018	-0.252
-332.231	-200.000	0.007	-0.078
-331.216	-90.730	0.353	0.102
-330.202	420.413	0.200	-0.428
-329.187	614.036	0.044	0.109
-328.172	-18.882	-0.116	0.072
-327.158	-58.177	-0.050	-0.022
-326.143	341.875	-0.131	0.256
-325.129	318.157	0.133	-0.251
-324.114	22.484	0.265	-0.217
-323.099	-200.000	-0.009	0.236
-322.085	-94.348	0.045	0.012
-321.070	800.000	0.050	-0.186
-320.056	1.100	0.132	0.094
-319.041	-70.732	0.133	0.050
-318.026	-108.935	-0.219	-0.047
-317.012	-137.361	0.221	0.025
-315.997	533.947	-0.158	0.373
-314.983	325.764	-0.203	0.387
-313.968	-200.000	0.029	-0.219
-312.953	589.980	-0.057	0.140
-311.939	-200.000	-0.018	0.159
-310.924	201.381	-0.129	0.198
-309.910	800.000	-0.129	-0.361
-308.895	800.000	-0.020	0.078
-307.880	277.254	-0.163	0.289
-306.866	189.339	0.067	0.100
-305.851	19.695	-0.216	0.173
-304.837	-133.483	0.162	-0.020
-303.822	-121.233	0.256	0.043
-302.807	207.648	0.129	-0.201
-301.793	256.216	-0.158	0.270
-300.778	429.932	0.189	0.408
-299.764	-200.000	-0.039	0.245
-298.749	-124.545	-0.264	-0.041
-297.735	-131.544	-0.103	-0.013
-296.720	-200.000	-0.050	0.266
-295.705	-117.706	-0.117	-0.021
-294.691	427.339	-0.056	-0.122
-293.676	-76.540	-0.166	-0.058
-292.662	-121.896	0.241	0.040
-291.647	-149.189	0.262	0.021
-290.632	305.908	0.119	-0.221
-289.618	16.180	0.236	0.186
-288.603	-200.000	-0.004	0.102
-287.589	-6.104	-0.203	-0.138
-286.574	-32.094	0.063	0.035
-285.559	358.736	0.138	0.274
-284.545	20.645	0.320	0.259
-283.530	347.535	0.060	0.118
-282.516	-200.000	-0.056	0.325
-281.501	153.645	-0.203	0.277
-280.486	-200.000	0.020	-0.129
-279.472	800.000	-0.015	-0.055
-278.457	-81.280	-0.173	-0.057
-277.443	-200.000	-0.026	-0.237
-276.428	205.752	0.105	0.162
-275.413	59.068	-0.110	0.108
-274.399	353.429	0.121	-0.239
-273.384	25.531	-0.259	0.215
-272.370	-165.959	-0.190	-0.008
-271.355	77.539	-0.173	-0.183
-270.340	-129.205	-0.092	0.013
-269.326	-102.679	0.282	-0.067
-268.311	-118.752	0.131	0.023
-267.297	-138.270	-0.085	0.009
-266.282	-19.545	-0.174	0.107
-265.267	-144.619	-0.312	-0.029
-264.253	137.167	-0.143	0.186
-263.238	-200.000	0.003	-0.101
-262.224	44.166	0.232	-0.212
-261.209	-200.000	0.019	-0.184
-260.195	-200.000	-0.008	-0.429
-259.180	-200.000	-0.010	0.062
-258.165	-122.970	-0.051	0.008
-257.151	-22.608	0.158	0.095
-256.136	-42.486	0.161	-0.082
-255.122	-200.000	-0.036	0.304
-254.107	-66.597	0.163	0.064
-253.092	-169.268	-0.258	0.009
-252.078	-30.239	-0.029	-0.016
-251.063	800.000	-0.096	0.279
-250.049	-76.140	-0.137	-0.048
-249.034	128.223	-0.168	0.212
-248.019	63.951	0.053	0.053
-247.005	227.895	0.065	-0.106
-245.990	170.535	0.212	-0.302
-244.976	-200.000	0.021	0.091
-243.961	393.989	-0.031	0.065
-242.946	800.000	0.146	-0.412
-241.932	132.456	0.099	-0.127
-240.917	-17.314	-0.226	-0.142
-239.903	452.399	-0.155	-0.342
-238.888	-57.761	0.268	0.117
-237.873	-110.886	0.231	0.047
-236.859	-47.931	-0.126	-0.061
-235.844	-3.752	0.250	0.173
-234.830	51.483	-0.313	0.296
-233.815	-5.394	-0.084	0.057
-232.800	-24.808	-0.114	-0.068
-231.786	315.407	-0.182	0.342
-230.771	800.000	-0.072	0.250
-229.757	-139.605	0.064	-0.007
-228.742	-200.000	-0.001	-0.032
-227.727	-140.676	0.075	0.008
-226.713	17.234	0.091	-0.072
-225.698	-48.586	0.229	0.109
-224.684	484.527	-0.147	-0.332
-223.669	800.000	0.059	0.234
-222.655	131.274	0.057	-0.073
-221.640	-200.000	0.032	0.162
-220.625	-200.000	-0.027	0.127
-219.611	-27.343	0.214	-0.124
-218.596	-112.801	0.246	-0.048
-217.582	800.000	0.063	0.197
-216.567	-151.716	-0.237	0.017
-215.552	-60.691	-0.136	0.057
-214.538	-200.000	-0.062	0.332
-213.523	650.647	-0.074	-0.189
-212.509	-19.178	0.316	-0.195
-211.494	44.379	-0.225	-0.205
-210.479	-150.913	-0.140	0.011
-209.465	265.558	0.061	0.105
-208.450	-101.579	-0.138	0.033
-207.436	-200.000	0.050	0.336
-206.421	-200.000	0.039	0.180
-205.406	-66.051	-0.278	-0.110
-204.392	9.487	-0.180	0.135
-203.377	-140.082	-0.149	0.016
-202.363	-61.602	0.110	0.046
-201.348	-79.235	-0.332	0.112
-200.333	254.261	0.130	0.221
-199.319	-81.705	-0.206	-0.067
-198.304	-170.074	-0.126	-0.004
-197.290	81.123	-0.090	0.097
-196.275	-16.638	0.454	-0.286
-195.260	308.041	0.161	0.299
-194.246	-110.116	-0.317	-0.066
-193.231	-56.447	0.052	-0.023
-192.217	342.097	0.113	0.220
-191.202	-200.000	-0.015	-0.465
-190.187	-200.000	0.042	-0.480
-189.173	-169.065	0.298	0.011
-188.158	-95.943	0.170	0.045
-187.144	508.122	-0.200	0.460
-186.129	-137.594	-0.308	-0.034
-185.114	-27.278	-0.233	0.135
-184.100	-54.701	-0.232	-0.104
-183.085	-23.754	0.262	0.156
-182.071	424.348	-0.024	0.051
-181.056	800.000	-0.102	0.338
-180.042	-180.623	0.393	0.008
-179.027	-169.797	-0.283	0.010
-178.012	-111.890	0.227	0.046
-176.998	318.290	0.083	0.157
-175.983	800.000	0.055	-0.153
-174.969	123.641	-0.107	0.134
-173.954	400.132	0.132	0.275
-172.939	145.888	-0.110	0.147
-171.925	17.258	-0.063	-0.049
-170.910	48.198	0.321	-0.298
-169.896	-91.646	0.037	-0.011
-168.881	-26.571	0.072	0.042
-167.866	-47.986	0.145	-0.070
-166.852	113.286	0.181	0.218
-165.837	-138.926	-0.202	-0.022
-164.823	-30.573	0.304	-0.171
-163.808	91.734	0.067	0.075
-162.793	-5.835	-0.197	0.134
-161.779	455.948	0.068	-0.150
-160.764	-62.921	-0.114	0.047
-159.750	-92.518	0.173	-0.048
-158.735	-200.000	-0.116	-0.541
-157.720	18.397	0.165	0.130
-156.706	86.858	0.157	-0.172
-155.691	5.636	0.226	0.165
-154.677	116.632	-0.080	-0.097
-153.662	-200.000	0.019	0.110
-152.647	-200.000	-0.051	-0.314
-151.633	-59.133	0.177	0.075
-150.618	79.736	0.256	-0.272
-149.604	-200.000	0.009	-0.068
-148.589	-28.567	0.113	0.065
-147.574	246.317	0.076	-0.126
-146.560	-112.561	0.261	0.052
-145.545	-143.391	-0.155	0.015
-144.531	286.165	-0.099	0.177
-143.516	-200.000	0.019	0.147
-142.502	520.984	0.164	0.382
-141.487	-200.000	0.041	-0.303
-140.472	599.820	0.184	-0.453
-139.458	221.397	-0.102	-0.163
-138.443	263.664	-0.382	-0.659
-137.429	303.590	-0.108	-0.199
-136.414	-22.409	0.319	0.191
-135.399	-127.328	-0.071	-0.010
-134.385	800.000	-0.025	0.090
-133.370	-200.000	-0.002	0.072
-132.356	-200.000	0.193	-0.000
-131.341	800.000	-0.102	-0.279
-130.326	27.328	-0.268	-0.223
-129.312	264.766	-0.142	0.246
-128.297	-80.233	-0.185	-0.061
-127.283	800.000	0.037	-0.109
-126.268	346.281	0.121	-0.236
-125.253	-85.501	0.159	-0.049
-124.239	75.528	-0.053	0.055
-123.224	120.703	0.163	-0.201
-122.210	-16.811	-0.156	-0.098
