DTS Sentinel unit serial number:	SN413079Multiplexer serial number:	ORYXHardware model number:	OX4-SRSoftware version number:	ORYX F/W v4.00 Oryx Data Collector v3.7.2.0data status	okinstallation	princeton_trtdifferential loss correction	single-endedforward channel	channel 3reverse channel	N/Adate	2019/09/13time	15:12:35forward acquisition time	60.00reverse acquisition time	0.00gamma	496.2192k internal	0.2302k external	0.2302temperature offset calibration	1.0144default loss term (dB/km)	0.3790temperature slope calibration	1.0000multiplexer offset coefficient	1.0000multiplexer slope coefficient	1.0000fibre end	0.00T internal ref (°C)	35.56T ext. ref 1 (°C)	4.72T ext. ref 2 (°C)	30.44length (m)	temperature (°C)	Stokes	anti-Stokes-747.200	800.000	0.083	-0.337
-746.185	3.456	0.311	0.231
-745.171	-200.000	0.028	0.198
-744.156	800.000	0.058	0.248
-743.142	101.733	0.113	0.135
-742.127	-94.488	0.243	0.068
-741.112	97.495	-0.101	-0.118
-740.098	-48.769	-0.161	-0.079
-739.083	-200.000	0.008	-0.171
-738.069	-35.028	-0.123	0.068
-737.054	-107.429	-0.201	-0.045
-736.039	-200.000	-0.012	-0.148
-735.025	326.407	0.123	0.241
-734.010	179.986	0.093	-0.139
-732.996	-35.726	-0.038	0.021
-731.981	-53.572	0.127	-0.059
-730.966	-66.548	-0.413	0.167
-729.952	-106.307	-0.257	-0.059
-728.937	-97.437	-0.118	0.031
-727.923	23.180	0.070	-0.059
-726.908	-200.000	-0.015	0.096
-725.894	-113.581	-0.334	0.067
-724.879	46.295	0.183	-0.173
-723.864	-25.809	0.331	0.199
-722.850	49.233	0.202	0.193
-721.835	223.645	-0.115	0.189
-720.821	81.505	0.249	0.274
-719.806	800.000	0.048	-0.204
-718.791	-69.648	0.055	-0.022
-717.777	-200.000	0.037	0.185
-716.762	-200.000	-0.030	-0.235
-715.748	492.594	-0.039	-0.090
-714.733	-200.000	0.025	0.124
-713.718	267.018	-0.253	-0.450
-712.704	-71.577	-0.163	0.062
-711.689	234.218	0.088	-0.148
-710.675	-86.901	-0.140	-0.043
-709.660	42.773	-0.151	-0.140
-708.645	6.934	-0.307	-0.233
-707.631	392.700	0.102	-0.216
-706.616	-30.510	0.125	-0.072
-705.602	-58.023	-0.228	-0.101
-704.587	480.445	0.140	0.323
-703.572	216.683	-0.108	-0.175
-702.558	33.474	-0.083	0.073
-701.543	185.545	0.102	-0.154
-700.529	31.167	-0.258	-0.225
-699.514	800.000	0.087	0.346
-698.499	-148.748	0.432	-0.036
-697.485	27.895	0.192	-0.165
-696.470	-200.000	-0.029	-0.287
-695.456	-56.221	-0.296	-0.134
-694.441	36.510	0.290	-0.260
-693.426	-11.999	0.110	-0.073
-692.412	242.412	-0.164	0.279
-691.397	0.253	-0.154	-0.111
-690.383	-183.637	-0.174	-0.003
-689.368	-13.868	-0.211	-0.139
-688.354	467.375	0.119	0.271
-687.339	-163.218	-0.355	0.017
-686.324	-200.000	0.058	-0.281
-685.310	-125.473	-0.224	-0.035
-684.295	113.406	-0.123	0.152
-683.281	307.820	-0.056	-0.106
-682.266	-200.000	0.000	0.027
-681.251	-5.304	-0.259	-0.181
-680.237	-72.123	-0.441	-0.166
-679.222	800.000	0.072	0.299
-678.208	-47.520	0.263	0.130
-677.193	-200.000	0.038	0.187
-676.178	-102.882	-0.082	-0.020
-675.164	-91.814	0.333	0.096
-674.149	-94.679	0.168	0.046
-673.135	7.747	0.222	-0.169
-672.120	220.907	0.272	0.443
-671.105	-37.550	-0.128	-0.069
-670.091	800.000	-0.109	0.375
-669.076	800.000	0.136	-0.443
-668.062	181.162	0.267	-0.399
-667.047	-100.389	-0.292	-0.073
-666.032	97.620	-0.036	0.042
-665.018	-44.198	-0.156	-0.079
-664.003	-39.207	0.232	0.124
-662.989	-200.000	-0.009	-0.130
-661.974	45.197	0.335	-0.314
-660.959	800.000	-0.052	-0.185
-659.945	342.367	0.031	-0.061
-658.930	-142.923	0.123	0.012
-657.916	390.972	0.081	-0.172
-656.901	-71.011	0.090	-0.034
-655.886	-13.489	-0.253	0.167
-654.872	70.364	-0.027	-0.029
-653.857	-59.495	-0.124	-0.054
-652.843	-32.529	0.304	0.172
-651.828	-43.646	0.138	-0.071
-650.814	-115.808	0.322	0.061
-649.799	-34.470	-0.153	0.085
-648.784	20.399	0.044	-0.036
-647.770	-28.696	0.166	-0.097
-646.755	208.363	-0.143	-0.228
-645.741	516.041	0.044	0.105
-644.726	-200.000	-0.006	0.077
-643.711	-3.807	-0.050	-0.035
-642.697	167.936	-0.125	-0.180
-641.682	-18.446	-0.120	-0.076
-640.668	341.222	0.175	-0.346
-639.653	-200.000	0.013	-0.309
-638.638	800.000	0.062	-0.246
-637.624	800.000	0.059	-0.182
-636.609	457.950	-0.032	-0.073
-635.595	495.573	-0.036	0.084
-634.580	-43.514	0.159	-0.081
-633.565	-62.243	-0.199	-0.084
-632.551	-17.243	-0.359	-0.229
-631.536	-36.824	0.245	-0.133
-630.522	25.140	-0.249	0.210
-629.507	-200.000	0.031	-0.214
-628.492	-61.750	0.119	0.051
-627.478	-115.853	-0.049	-0.009
-626.463	-100.817	0.008	-0.002
-625.449	-108.466	-0.320	-0.070
-624.434	5.357	0.065	-0.049
-623.419	-171.538	-0.386	-0.013
-622.405	468.512	0.075	0.171
-621.390	-43.559	-0.159	-0.081
-620.376	-175.241	0.166	-0.005
-619.361	708.153	0.060	0.160
-618.346	57.258	0.017	0.016
-617.332	436.586	-0.079	-0.173
-616.317	70.916	-0.112	-0.118
-615.303	800.000	-0.010	0.041
-614.288	195.208	-0.224	0.344
-613.273	-141.399	0.076	-0.008
-612.259	-72.358	-0.232	0.087
-611.244	-200.000	0.026	0.334
-610.230	-107.426	0.218	0.048
-609.215	585.225	0.033	-0.083
-608.201	-16.957	0.223	0.143
-607.186	652.206	-0.058	-0.150
-606.171	-200.000	-0.022	0.105
-605.157	-93.061	-0.094	-0.027
-604.142	-91.595	-0.114	-0.033
-603.128	-77.486	-0.278	-0.098
-602.113	-55.713	-0.128	0.058
-601.098	-200.000	-0.008	0.167
-600.084	-63.933	0.132	0.055
-599.069	-200.000	-0.077	0.475
-598.055	285.704	-0.076	-0.140
-597.040	61.859	-0.201	-0.203
-596.025	-134.792	-0.438	0.054
-595.011	-172.103	-0.365	-0.012
-593.996	-35.269	-0.103	0.057
-592.982	382.299	-0.049	-0.103
-591.967	-88.182	-0.061	0.019
-590.952	61.747	0.034	0.034
-589.938	-21.620	0.101	-0.063
-588.923	126.551	-0.113	-0.145
-587.909	800.000	-0.052	-0.183
-586.894	11.862	0.165	-0.128
-585.879	307.112	0.071	-0.133
-584.865	-200.000	-0.055	0.472
-583.850	-42.797	-0.288	0.148
-582.836	30.991	-0.126	0.109
-581.821	-76.271	-0.150	-0.054
-580.806	-200.000	0.010	0.244
-579.792	-188.115	0.421	0.005
-578.777	421.155	-0.045	-0.097
-577.763	-116.701	0.123	-0.023
-576.748	-200.000	-0.017	-0.224
-575.733	800.000	0.020	-0.071
-574.719	-64.846	0.109	0.045
-573.704	-116.606	0.109	0.020
-572.690	61.147	-0.191	0.192
-571.675	66.689	-0.245	0.253
-570.661	-200.000	0.069	0.455
-569.646	-200.000	0.055	-0.247
-568.631	191.783	0.173	-0.263
-567.617	41.320	-0.082	-0.075
-566.602	55.987	0.099	0.097
-565.588	258.489	0.150	-0.262
-564.573	-104.334	-0.134	-0.031
-563.558	281.636	-0.180	0.327
-562.544	-48.620	-0.150	0.073
-561.529	-35.877	-0.047	-0.026
-560.515	67.233	0.181	-0.186
-559.500	-130.465	0.229	0.031
-558.485	-163.033	0.226	0.011
-557.471	800.000	-0.064	-0.250
-556.456	-42.339	-0.110	-0.057
-555.442	32.437	-0.149	0.130
-554.427	-200.000	0.024	0.208
-553.412	-76.959	-0.285	-0.101
-552.398	-111.664	0.149	0.031
-551.383	-82.556	-0.275	-0.090
-550.369	120.866	0.118	0.149
-549.354	-98.826	0.148	-0.038
-548.339	126.455	0.023	0.029
-547.325	-57.090	0.065	0.029
-546.310	213.666	0.219	-0.350
-545.296	-98.645	-0.227	-0.058
-544.281	-200.000	-0.007	0.083
-543.266	-25.368	-0.067	0.040
-542.252	-200.000	-0.002	-0.102
-541.237	-200.000	-0.014	-0.175
-540.223	-200.000	0.020	0.105
-539.208	-200.000	0.066	-0.337
-538.193	800.000	0.060	-0.214
-537.179	-45.041	-0.295	-0.148
-536.164	-64.122	0.167	-0.069
-535.150	-42.135	-0.429	0.222
-534.135	-200.000	-0.015	0.120
-533.121	-200.000	0.046	-0.356
-532.106	-127.155	-0.261	0.039
-531.091	800.000	-0.116	-0.446
-530.077	79.440	-0.208	-0.225
-529.062	-71.515	0.195	0.074
-528.048	-200.000	-0.005	-0.239
-527.033	-143.365	0.275	-0.027
-526.018	-200.000	0.015	-0.374
-525.004	296.196	0.041	-0.076
-523.989	158.790	-0.121	-0.170
-522.975	-91.005	-0.164	-0.048
-521.960	219.384	-0.162	0.262
-520.945	-200.000	0.000	0.091
-519.931	-111.811	-0.251	-0.051
-518.916	-136.678	0.202	0.024
-517.902	800.000	-0.053	-0.231
-516.887	17.873	0.125	0.101
-515.872	-2.647	-0.190	-0.134
-514.858	469.360	0.039	0.089
-513.843	293.083	0.122	-0.225
-512.829	-129.844	-0.147	-0.020
-511.814	-38.799	-0.122	0.065
-510.799	800.000	-0.071	-0.211
-509.785	33.174	-0.209	-0.183
-508.770	-171.372	-0.017	0.001
-507.756	-89.364	-0.036	0.011
-506.741	-39.212	-0.217	-0.115
-505.726	72.506	0.123	0.130
-504.712	800.000	-0.036	0.157
-503.697	1.386	0.271	0.197
-502.683	88.420	-0.350	0.393
-501.668	102.845	-0.042	-0.050
-500.653	800.000	0.060	-0.235
-499.639	-61.558	0.322	0.137
-498.624	107.289	0.140	0.168
-497.610	414.752	-0.108	-0.233
-496.595	-200.000	0.031	-0.262
-495.581	67.214	0.456	0.469
-494.566	800.000	-0.055	0.221
-493.551	-75.069	0.453	0.164
-492.537	800.000	-0.054	-0.165
-491.522	800.000	-0.080	-0.230
-490.508	-200.000	-0.025	-0.174
-489.493	239.087	0.118	-0.199
-488.478	-84.324	0.047	-0.015
-487.464	-90.414	-0.055	0.016
-486.449	-200.000	0.001	0.128
-485.435	313.137	-0.107	0.202
-484.420	87.544	0.129	0.144
-483.405	-97.422	0.186	0.049
-482.391	58.018	-0.183	-0.181
-481.376	-110.702	-0.153	0.032
-480.362	-90.171	0.342	0.101
-479.347	270.291	0.029	0.052
-478.332	-100.399	0.180	-0.045
-477.318	-200.000	0.000	0.196
-476.303	173.395	-0.158	0.230
-475.289	-66.965	-0.125	0.050
-474.274	-129.146	0.196	-0.028
-473.259	-98.979	0.161	-0.041
-472.245	113.547	0.239	0.293
-471.230	-65.214	-0.176	0.072
-470.216	-68.477	0.221	0.086
-469.201	-55.223	0.141	-0.064
-468.186	-200.000	0.013	-0.084
-467.172	-56.794	0.129	0.058
-466.157	-106.845	-0.262	0.059
-465.143	457.824	0.081	-0.182
-464.128	-56.840	0.170	-0.076
-463.113	-72.037	-0.208	0.078
-462.099	-142.529	0.285	-0.028
-461.084	33.875	0.221	0.194
-460.070	-200.000	0.061	-0.285
-459.055	-15.267	-0.051	-0.033
-458.040	-106.975	-0.063	-0.014
-457.026	102.408	0.166	0.196
-456.011	392.595	0.148	-0.310
-454.997	-200.000	-0.019	-0.130
-453.982	-58.119	0.218	-0.096
-452.968	800.000	0.045	-0.185
-451.953	27.704	0.289	0.245
-450.938	500.924	0.064	0.148
-449.924	-56.481	0.132	0.059
-448.909	800.000	0.038	-0.125
-447.895	800.000	-0.058	-0.234
-446.880	776.094	0.023	0.064
-445.865	-84.034	0.208	0.067
-444.851	-200.000	0.001	-0.028
-443.836	-77.897	0.044	-0.015
-442.822	45.913	-0.233	-0.217
-441.807	-200.000	0.006	0.149
-440.792	-169.841	0.162	-0.006
-439.778	800.000	0.071	-0.252
-438.763	-112.257	-0.332	0.067
-437.749	433.031	0.086	0.189
-436.734	58.322	0.238	0.235
-435.719	223.569	0.053	-0.086
-434.705	-27.072	-0.220	0.129
-433.690	-164.641	0.214	0.010
-432.676	800.000	0.032	-0.133
-431.661	-59.837	0.229	0.099
-430.646	506.259	0.236	0.551
-429.632	-200.000	-0.001	0.257
-428.617	-112.462	0.320	-0.064
-427.603	166.204	-0.047	0.066
-426.588	54.173	0.231	-0.224
-425.573	219.557	-0.068	-0.110
-424.559	240.346	0.083	0.139
-423.544	-200.000	0.008	-0.050
-422.530	405.397	-0.073	-0.155
-421.515	-200.000	0.072	0.521
-420.500	75.858	0.190	0.202
-419.486	-148.844	-0.127	0.010
-418.471	27.102	-0.237	0.200
-417.457	-200.000	-0.003	-0.226
-416.442	-128.584	0.147	0.021
-415.428	29.045	-0.098	0.084
-414.413	763.795	-0.057	-0.156
-413.398	800.000	-0.027	0.101
-412.384	169.278	0.041	0.059
-411.369	-69.361	-0.183	0.071
-410.355	-125.775	-0.229	0.035
-409.340	236.333	-0.064	0.107
-408.325	800.000	-0.083	-0.298
-407.311	21.621	0.312	-0.256
-406.296	46.864	0.148	-0.138
-405.282	-200.000	-0.024	-0.315
-404.267	2.516	-0.214	-0.156
-403.252	8.031	-0.162	0.122
-402.238	-200.000	-0.006	-0.405
-401.223	5.674	0.278	-0.206
-400.209	-102.296	0.119	-0.029
-399.194	292.129	-0.141	0.259
-398.179	15.357	0.190	0.150
-397.165	12.411	0.120	-0.093
-396.150	248.568	0.160	0.272
-395.136	800.000	-0.018	-0.076
-394.121	183.461	0.204	-0.302
-393.106	-200.000	0.003	-0.076
-392.092	260.575	-0.095	-0.165
-391.077	-12.863	0.144	-0.094
-390.063	136.420	0.060	0.078
-389.048	800.000	0.036	-0.142
-388.033	17.509	-0.015	-0.012
-387.019	800.000	-0.062	0.195
-386.004	800.000	-0.091	-0.292
-384.990	800.000	0.089	0.249
-383.975	-142.855	-0.156	0.015
-382.960	-130.753	-0.110	0.015
-381.946	800.000	0.124	0.360
-380.931	-200.000	-0.040	-0.232
-379.917	644.445	-0.106	-0.273
-378.902	229.542	0.211	0.347
-377.888	-200.000	-0.031	0.444
-376.873	-56.484	-0.155	0.069
-375.858	-200.000	-0.067	-0.431
-374.844	-71.530	0.245	0.092
-373.829	-37.386	-0.131	0.070
-372.815	64.784	0.068	-0.069
-371.800	83.016	0.206	-0.225
-370.785	414.033	-0.078	0.167
-369.771	185.863	-0.250	-0.373
-368.756	213.020	0.242	-0.384
-367.742	-200.000	0.041	0.255
-366.727	-168.035	0.190	-0.007
-365.712	-200.000	0.036	0.243
-364.698	314.202	0.024	0.046
-363.683	155.519	0.132	0.182
-362.669	-200.000	0.039	0.320
-361.654	114.682	0.137	0.168
-360.639	-42.218	0.134	0.069
-359.625	557.351	0.118	-0.286
-358.610	77.902	-0.135	-0.145
-357.596	-55.261	0.351	-0.158
-356.581	238.160	0.016	-0.026
-355.566	-35.085	0.216	0.118
-354.552	-200.000	-0.006	0.334
-353.537	-200.000	-0.022	-0.308
-352.523	800.000	-0.013	-0.057
-351.508	-19.382	0.102	-0.064
-350.493	40.164	-0.400	0.361
-349.479	800.000	-0.096	-0.319
-348.464	31.969	0.228	-0.197
-347.450	306.495	-0.062	0.116
-346.435	173.811	0.053	-0.076
-345.420	800.000	-0.119	-0.456
-344.406	-200.000	-0.003	-0.032
-343.391	-65.979	-0.180	0.072
-342.377	6.660	-0.174	-0.130
-341.362	282.234	-0.067	-0.120
-340.348	18.474	-0.043	0.034
-339.333	31.513	0.115	-0.099
-338.318	-74.741	-0.270	0.097
-337.304	-79.714	-0.285	-0.096
-336.289	-82.077	-0.115	0.038
-335.275	-72.753	-0.354	-0.131
-334.260	-62.514	-0.269	0.112
-333.245	-58.849	-0.210	0.091
-332.231	-200.000	0.003	0.123
-331.216	509.514	0.154	-0.360
-330.202	23.445	0.417	0.344
-329.187	-103.478	-0.230	-0.054
-328.172	128.572	-0.176	0.224
-327.158	-200.000	0.034	0.241
-326.143	-102.514	0.123	0.029
-325.129	-200.000	0.046	0.310
-324.114	276.667	-0.109	-0.195
-323.099	143.834	-0.073	0.097
-322.085	-31.725	-0.066	0.037
-321.070	-5.326	-0.122	0.084
-320.056	58.115	0.081	-0.079
-319.041	23.658	-0.323	-0.266
-318.026	128.266	-0.134	0.171
-317.012	116.782	0.316	-0.389
-315.997	-57.672	0.018	-0.008
-314.983	657.647	0.025	-0.063
-313.968	139.052	-0.097	0.128
-312.953	232.887	0.124	0.204
-311.939	63.204	0.167	0.168
-310.924	-155.288	0.122	-0.008
-309.910	-21.908	-0.131	-0.080
-308.895	-44.719	0.211	-0.105
-307.880	577.616	0.073	-0.179
-306.866	-162.271	-0.070	0.003
-305.851	-2.525	-0.163	-0.114
-304.837	-200.000	0.022	-0.124
-303.822	-48.876	0.239	-0.115
-302.807	-162.878	-0.324	-0.016
-301.793	288.519	0.064	-0.115
-300.778	-104.713	-0.024	-0.006
-299.764	-6.976	0.117	0.080
-298.749	-103.261	-0.202	-0.048
-297.735	-200.000	-0.004	-0.423
-296.720	800.000	0.049	-0.200
-295.705	1.355	0.286	0.206
-294.691	-200.000	0.018	0.086
-293.676	464.860	-0.036	-0.082
-292.662	-106.601	0.142	0.032
-291.647	-200.000	0.041	0.498
-290.632	-200.000	0.008	0.165
-289.618	308.993	0.126	-0.235
-288.603	-200.000	-0.008	0.140
-287.589	-200.000	-0.039	-0.239
-286.574	269.741	0.036	-0.063
-285.559	-103.600	-0.446	-0.105
-284.545	-18.043	-0.143	-0.090
-283.530	-200.000	0.071	0.346
-282.516	-94.197	0.234	-0.064
-281.501	-137.837	0.370	0.041
-280.486	800.000	-0.141	0.435
-279.472	79.147	-0.135	0.145
-278.457	170.173	0.069	0.099
-277.443	-200.000	-0.025	0.192
-276.428	-15.464	-0.132	0.085
-275.413	-200.000	0.013	-0.122
-274.399	242.714	-0.105	0.176
-273.384	-200.000	0.017	-0.146
-272.370	74.061	-0.240	-0.252
-271.355	-102.877	0.256	-0.061
-270.340	-118.108	0.337	0.060
-269.326	-200.000	0.022	-0.136
-268.311	154.524	-0.180	0.247
-267.297	-200.000	0.016	-0.176
-266.282	283.263	0.092	-0.166
-265.267	-41.792	0.379	-0.194
-264.253	75.653	0.168	0.177
-263.238	410.450	0.190	-0.402
-262.224	-132.330	-0.099	0.013
-261.209	129.463	0.162	-0.207
-260.195	-70.813	0.105	0.040
-259.180	-79.208	-0.399	-0.135
-258.165	-179.187	0.137	0.003
-257.151	800.000	-0.074	-0.228
-256.136	-27.533	-0.113	-0.066
-255.122	32.556	-0.210	0.182
-254.107	142.631	-0.092	0.122
-253.092	572.026	-0.086	0.210
-252.078	87.940	-0.236	0.262
-251.063	-54.658	-0.200	0.091
-250.049	-121.894	0.145	0.024
-249.034	-200.000	-0.001	-0.037
-248.019	-128.357	-0.114	-0.016
-247.005	-147.940	-0.085	0.007
-245.990	-32.032	-0.082	-0.046
-244.976	800.000	0.010	-0.040
-243.961	377.239	-0.090	0.184
-242.946	10.183	0.041	-0.031
-241.932	-5.539	-0.118	-0.081
-240.917	-54.978	-0.301	0.136
-239.903	-128.625	-0.386	0.055
-238.888	-44.024	-0.225	-0.113
-237.873	400.573	0.096	0.202
-236.859	124.160	0.172	0.216
-235.844	800.000	-0.089	-0.262
-234.830	-151.250	0.129	-0.010
-233.815	61.132	0.169	0.168
-232.800	-136.204	-0.095	0.011
-231.786	-130.447	0.147	-0.020
-230.771	-200.000	-0.020	0.335
-229.757	-161.435	0.445	-0.023
-228.742	-138.025	0.490	0.055
-227.727	-103.962	0.110	-0.026
-226.713	-102.564	0.327	0.078
-225.698	323.379	-0.029	-0.055
-224.684	147.086	0.157	0.211
-223.669	-149.792	0.419	-0.033
-222.655	-144.540	0.279	0.026
-221.640	-200.000	-0.003	0.334
-220.625	85.605	-0.086	-0.094
-219.611	-200.000	0.006	-0.163
-218.596	-31.039	0.171	-0.096
-217.582	641.905	-0.040	0.102
-216.567	-7.748	-0.268	0.180
-215.552	800.000	-0.040	-0.132
-214.538	-200.000	-0.027	-0.215
-213.523	-200.000	0.019	0.356
-212.509	170.358	0.021	-0.030
-211.494	800.000	-0.062	-0.270
-210.479	-78.877	-0.281	0.096
-209.465	-36.686	-0.113	0.061
-208.450	800.000	0.032	0.100
-207.436	22.118	0.070	0.057
-206.421	129.882	-0.143	0.183
-205.406	653.137	0.093	-0.239
-204.392	-149.030	0.295	0.024
-203.377	-70.743	0.284	-0.107
-202.363	80.589	-0.134	-0.144
-201.348	-200.000	-0.032	0.271
-200.333	764.565	-0.005	-0.012
-199.319	43.193	0.148	0.135
-198.304	294.464	-0.079	-0.144
-197.290	-200.000	0.042	0.307
-196.275	-57.243	-0.204	0.089
-195.260	800.000	-0.034	0.137
-194.246	-200.000	-0.042	-0.300
-193.231	-2.733	-0.160	-0.112
-192.217	-200.000	-0.016	-0.147
-191.202	19.631	-0.134	-0.107
-190.187	337.656	-0.114	0.220
-189.173	57.304	-0.073	-0.071
-188.158	-0.244	0.224	-0.159
-187.144	-78.683	0.366	-0.125
-186.129	-23.824	-0.107	0.064
-185.114	563.775	-0.070	0.170
-184.100	-58.727	0.056	-0.024
-183.085	-41.091	0.082	-0.042
-182.071	800.000	0.092	0.299
-181.056	224.147	-0.350	0.564
-180.042	-200.000	0.057	0.393
-179.027	-31.402	0.343	-0.192
-178.012	-53.696	0.193	-0.088
-176.998	102.009	0.014	-0.016
-175.983	-15.241	-0.150	-0.096
-174.969	-73.215	-0.111	0.040
-173.954	18.449	-0.061	-0.049
-172.939	-65.075	0.087	0.035
-171.925	-106.326	-0.320	0.071
-170.910	-111.307	-0.412	-0.084
-169.896	324.420	-0.217	0.413
-168.881	800.000	-0.088	-0.248
-167.866	-12.796	-0.101	-0.065
-166.852	2.260	0.199	0.143
-165.837	433.285	-0.096	-0.207
-164.823	104.581	0.097	0.114
-163.808	-59.614	-0.176	0.075
-162.793	-200.000	-0.010	0.263
-161.779	-19.309	0.223	0.138
-160.764	29.880	0.262	0.222
-159.750	-144.932	-0.136	-0.012
-158.735	-200.000	-0.019	-0.111
-157.720	-91.171	-0.251	-0.072
-156.706	-57.404	0.221	0.097
-155.691	-88.748	0.206	0.061
-154.677	-114.505	0.010	-0.002
-153.662	-200.000	0.004	0.197
-152.647	-11.784	-0.294	0.192
-151.633	-137.020	-0.341	0.039
-150.618	-2.212	-0.100	0.070
-149.604	-200.000	-0.031	0.206
-148.589	422.156	-0.105	0.225
-147.574	800.000	0.105	-0.358
-146.560	-128.570	-0.070	-0.010
-145.545	-69.260	0.223	-0.085
-144.531	-200.000	0.031	-0.193
-143.516	-57.731	0.288	-0.126
-142.502	138.266	0.242	0.315
-141.487	-84.223	0.099	0.031
-140.472	93.988	-0.204	-0.230
-139.458	223.297	0.110	0.176
-138.443	-44.880	-0.161	-0.080
-137.429	121.187	-0.039	-0.049
-136.414	-82.520	0.223	0.072
-135.399	603.345	-0.250	-0.620
-134.385	226.261	0.146	-0.236
-133.370	69.406	-0.239	-0.245
-132.356	-39.003	0.261	0.137
-131.341	467.483	-0.106	-0.236
-130.326	-22.738	-0.259	-0.156
-129.312	-200.000	0.093	-0.608
-128.297	-200.000	-0.017	-0.219
-127.283	-115.231	0.286	0.054
-126.268	173.517	0.128	0.183
-125.253	221.501	0.093	0.149
-124.239	-130.043	0.318	-0.043
-123.224	-108.135	-0.052	-0.011
-122.210	-200.000	0.023	-0.105
