DTS Sentinel unit serial number:	SN413079Multiplexer serial number:	ORYXHardware model number:	OX4-SRSoftware version number:	ORYX F/W v4.00 Oryx Data Collector v3.7.2.0data status	okinstallation	princeton_trtdifferential loss correction	single-endedforward channel	channel 3reverse channel	N/Adate	2019/09/17time	08:56:35forward acquisition time	60.00reverse acquisition time	0.00gamma	496.2192k internal	0.2329k external	0.2329temperature offset calibration	0.9939default loss term (dB/km)	0.3790temperature slope calibration	1.0000multiplexer offset coefficient	1.0000multiplexer slope coefficient	1.0000fibre end	0.00T internal ref (°C)	27.94T ext. ref 1 (°C)	0.12T ext. ref 2 (°C)	23.86length (m)	temperature (°C)	Stokes	anti-Stokes-747.200	-2.222	0.117	-0.083
-746.185	-3.387	-0.390	0.273
-745.171	-87.239	0.153	0.047
-744.156	-20.926	-0.391	0.241
-743.142	-98.272	-0.320	0.083
-742.127	800.000	-0.086	0.309
-741.112	81.320	0.105	0.114
-740.098	302.958	-0.254	0.473
-739.083	-200.000	-0.009	0.102
-738.069	-36.747	-0.306	0.166
-737.054	-163.272	0.350	0.017
-736.039	273.960	-0.131	0.233
-735.025	194.913	0.142	0.217
-734.010	243.865	-0.105	-0.178
-732.996	-48.144	0.288	0.140
-731.981	364.348	0.096	-0.195
-730.966	-63.750	-0.126	-0.052
-729.952	-112.565	-0.265	0.053
-728.937	-18.390	-0.266	0.167
-727.923	215.904	0.091	-0.145
-726.908	163.819	-0.074	-0.105
-725.894	-200.000	0.004	-0.244
-724.879	-176.384	-0.180	0.005
-723.864	455.611	-0.098	-0.219
-722.850	166.379	0.212	0.302
-721.835	142.273	-0.130	-0.174
-720.821	-183.216	-0.396	-0.007
-719.806	-200.000	-0.014	0.140
-718.791	178.427	-0.154	0.227
-717.777	-24.412	0.125	-0.075
-716.762	-117.923	-0.286	0.052
-715.748	11.622	-0.118	0.091
-714.733	-101.131	-0.298	0.074
-713.718	-69.687	0.217	0.084
-712.704	-139.765	-0.272	0.029
-711.689	-200.000	0.011	-0.144
-710.675	800.000	-0.072	0.280
-709.660	103.164	0.124	0.147
-708.645	-54.921	0.306	-0.139
-707.631	-200.000	0.012	-0.245
-706.616	137.721	0.107	0.141
-705.602	24.437	0.369	-0.307
-704.587	170.547	0.051	-0.073
-703.572	-64.806	0.032	-0.013
-702.558	-95.274	0.229	0.062
-701.543	-200.000	0.020	-0.119
-700.529	110.981	0.224	0.272
-699.514	538.788	0.086	-0.205
-698.499	-163.186	-0.125	0.006
-697.485	-52.954	0.174	0.081
-696.470	-58.341	0.278	-0.122
-695.456	118.695	-0.329	-0.408
-694.441	-12.361	0.158	0.104
-693.426	639.001	0.077	-0.197
-692.412	-200.000	0.001	0.037
-691.397	800.000	0.042	0.137
-690.383	-200.000	0.007	0.188
-689.368	-18.303	-0.209	0.131
-688.354	291.446	-0.024	-0.043
-687.339	800.000	-0.081	0.289
-686.324	61.410	-0.184	0.184
-685.310	-153.210	0.316	-0.022
-684.295	29.808	-0.031	0.027
-683.281	-200.000	0.057	-0.274
-682.266	279.856	0.095	-0.171
-681.251	-200.000	-0.030	-0.385
-680.237	-200.000	-0.035	-0.171
-679.222	-34.992	0.123	-0.067
-678.208	-68.584	0.410	0.160
-677.193	-66.549	0.109	-0.044
-676.178	-9.606	-0.249	-0.166
-675.164	-200.000	0.047	0.265
-674.149	-200.000	-0.027	0.182
-673.135	118.133	-0.216	0.268
-672.120	-200.000	0.005	0.154
-671.105	116.059	-0.231	-0.284
-670.091	-178.494	0.088	0.002
-669.076	-125.730	-0.094	-0.014
-668.062	781.892	-0.013	0.035
-667.047	-140.813	0.207	-0.021
-666.032	-200.000	-0.035	-0.188
-665.018	-92.880	-0.121	-0.034
-664.003	183.232	0.131	-0.195
-662.989	-57.055	0.246	0.109
-661.974	-21.462	0.161	-0.099
-660.959	-5.221	-0.138	-0.095
-659.945	-74.936	-0.181	-0.065
-658.930	-134.219	0.075	-0.009
-657.916	800.000	-0.078	0.313
-656.901	66.022	-0.171	-0.174
-655.886	-106.843	0.159	-0.035
-654.872	-86.284	0.357	-0.110
-653.857	121.833	-0.035	-0.044
-652.843	130.927	0.109	-0.140
-651.828	-46.521	0.500	0.246
-650.814	174.257	0.089	0.128
-649.799	88.522	0.190	-0.212
-648.784	-25.940	-0.474	0.280
-647.770	-47.449	0.211	-0.103
-646.755	423.083	0.084	0.180
-645.741	23.838	-0.091	0.075
-644.726	42.023	0.151	0.137
-643.711	800.000	0.081	0.315
-642.697	100.913	-0.094	-0.109
-641.682	56.348	-0.275	-0.268
-640.668	195.996	-0.117	-0.178
-639.653	736.835	-0.082	-0.221
-638.638	253.490	-0.175	0.299
-637.624	98.064	0.074	-0.085
-636.609	-200.000	-0.051	-0.256
-635.595	-53.293	0.321	0.148
-634.580	75.224	0.064	0.068
-633.565	-47.751	0.132	0.064
-632.551	-200.000	0.004	-0.045
-631.536	-24.774	0.259	0.154
-630.522	-114.741	0.346	-0.066
-629.507	-31.107	-0.120	-0.068
-628.492	800.000	0.046	0.169
-627.478	-200.000	0.019	0.130
-626.463	81.447	-0.190	0.206
-625.449	576.012	-0.073	-0.179
-624.434	82.504	0.238	-0.259
-623.419	33.687	-0.028	0.024
-622.405	198.588	0.120	-0.184
-621.390	-200.000	0.015	-0.106
-620.376	123.622	-0.047	-0.059
-619.361	134.499	-0.179	-0.233
-618.346	-110.286	-0.127	0.027
-617.332	631.020	-0.025	0.063
-616.317	713.037	-0.062	0.164
-615.303	66.387	0.021	0.021
-614.288	-200.000	-0.017	0.362
-613.273	-200.000	0.009	0.187
-612.259	800.000	-0.097	0.407
-611.244	37.687	0.127	-0.113
-610.230	344.452	-0.097	0.191
-609.215	-200.000	0.042	-0.410
-608.201	237.820	0.072	0.119
-607.186	66.908	0.038	-0.038
-606.171	800.000	-0.028	0.112
-605.157	-95.332	0.500	0.135
-604.142	-141.318	-0.274	0.028
-603.128	-4.327	-0.111	-0.077
-602.113	316.623	-0.043	0.082
-601.098	7.146	0.032	-0.024
-600.084	215.467	0.032	-0.051
-599.069	113.570	0.031	0.037
-598.055	-153.803	0.192	-0.013
-597.040	377.494	-0.058	0.118
-596.025	312.330	0.149	-0.280
-595.011	318.447	-0.155	0.293
-593.996	-19.939	0.357	0.220
-592.982	-46.160	-0.212	-0.105
-591.967	81.634	0.226	0.245
-590.952	-107.776	0.179	-0.039
-589.938	800.000	-0.049	-0.202
-588.923	-200.000	-0.008	0.127
-587.909	-60.581	0.250	0.106
-586.894	75.857	-0.160	0.169
-585.879	-200.000	-0.004	-0.063
-584.865	-200.000	0.017	-0.404
-583.850	467.845	-0.053	0.119
-582.836	-151.199	0.388	-0.029
-581.821	800.000	-0.023	-0.100
-580.806	-34.374	-0.136	-0.075
-579.792	-158.698	0.274	0.016
-578.777	-67.508	0.265	-0.104
-577.763	-200.000	0.016	-0.110
-576.748	-200.000	0.048	-0.261
-575.733	266.066	0.031	0.054
-574.719	-200.000	-0.015	0.105
-573.704	-20.603	0.126	-0.077
-572.690	16.990	0.134	-0.106
-571.675	38.204	0.158	-0.140
-570.661	435.002	-0.084	0.183
-569.646	-75.121	-0.216	0.077
-568.631	291.846	-0.243	-0.443
-567.617	-8.241	0.082	0.055
-566.602	140.162	0.103	0.136
-565.588	130.427	-0.215	0.276
-564.573	-59.888	-0.041	-0.018
-563.558	-65.644	0.143	-0.058
-562.544	800.000	0.017	0.048
-561.529	-97.993	0.311	0.080
-560.515	-72.190	-0.137	-0.051
-559.500	-200.000	0.026	0.321
-558.485	-200.000	-0.054	-0.255
-557.471	484.353	-0.130	-0.296
-556.456	153.316	0.123	-0.168
-555.442	-200.000	0.076	0.395
-554.427	800.000	0.074	0.294
-553.412	-37.402	-0.136	-0.072
-552.398	223.429	-0.092	-0.148
-551.383	-200.000	-0.029	-0.164
-550.369	-91.754	-0.391	0.111
-549.354	482.417	-0.027	-0.061
-548.339	-81.041	-0.231	0.076
-547.325	-200.000	-0.056	0.275
-546.310	-129.717	-0.221	-0.030
-545.296	-76.817	-0.232	0.081
-544.281	-88.046	0.194	0.058
-543.266	486.099	-0.023	-0.053
-542.252	-93.116	-0.478	-0.133
-541.237	-200.000	-0.012	-0.092
-540.223	-7.191	0.102	-0.069
-539.208	-40.876	-0.314	-0.163
-538.193	58.283	0.195	-0.191
-537.179	-5.262	0.069	-0.048
-536.164	22.241	-0.152	0.124
-535.150	68.458	-0.241	-0.246
-534.135	-133.447	-0.309	0.039
-533.121	800.000	-0.061	-0.249
-532.106	-200.000	-0.063	-0.286
-531.091	490.824	-0.074	-0.169
-530.077	164.180	-0.129	0.181
-529.062	-200.000	-0.018	0.091
-528.048	470.083	0.110	0.247
-527.033	-200.000	0.003	0.265
-526.018	-85.686	0.139	-0.043
-525.004	10.492	-0.091	0.069
-523.989	-37.073	-0.108	-0.058
-522.975	-4.784	-0.255	-0.175
-521.960	95.287	0.216	0.246
-520.945	-116.204	-0.255	-0.047
-519.931	174.600	0.101	-0.146
-518.916	51.543	-0.104	-0.099
-517.902	-78.308	0.282	0.097
-516.887	-15.253	-0.229	-0.146
-515.872	800.000	-0.039	-0.152
-514.858	257.953	-0.197	-0.339
-513.843	-200.000	0.002	0.200
-512.829	339.876	-0.112	0.218
-511.814	-200.000	-0.017	0.393
-510.799	21.564	0.060	-0.049
-509.785	-66.812	-0.243	0.096
-508.770	-130.290	-0.188	0.026
-507.756	-55.420	-0.278	-0.124
-506.741	119.384	-0.136	-0.168
-505.726	800.000	-0.051	0.178
-504.712	707.409	0.019	-0.051
-503.697	422.280	0.023	0.050
-502.683	102.643	-0.187	-0.218
-501.668	126.985	0.265	0.335
-500.653	182.368	-0.053	0.078
-499.639	337.374	-0.114	0.222
-498.624	800.000	0.082	-0.246
-497.610	-200.000	-0.021	-0.110
-496.595	4.344	-0.039	-0.029
-495.581	-162.311	-0.122	0.006
-494.566	-9.475	0.173	0.115
-493.551	-15.153	0.093	0.060
-492.537	-200.000	0.028	0.172
-491.522	712.937	0.046	0.121
-490.508	64.624	-0.383	0.385
-489.493	800.000	-0.145	-0.441
-488.478	-115.661	-0.101	0.019
-487.464	-22.018	0.109	-0.066
-486.449	-56.235	-0.146	-0.065
-485.435	-151.930	0.174	-0.013
-484.420	-51.665	-0.230	-0.107
-483.405	661.671	-0.056	-0.144
-482.391	-84.706	-0.181	0.057
-481.376	408.434	0.053	-0.112
-480.362	800.000	-0.047	-0.145
-479.347	526.945	0.082	0.193
-478.332	-60.156	0.341	-0.145
-477.318	-111.364	0.246	0.050
-476.303	-200.000	0.010	0.058
-475.289	-78.769	0.215	0.073
-474.274	-200.000	-0.029	0.179
-473.259	-122.603	-0.051	-0.008
-472.245	800.000	-0.039	0.153
-471.230	12.452	0.284	0.219
-470.216	37.385	0.336	-0.297
-469.201	-119.723	0.248	0.043
-468.186	240.595	0.217	-0.361
-467.172	141.413	0.187	-0.247
-466.157	-129.484	0.063	-0.009
-465.143	172.023	-0.054	-0.078
-464.128	115.332	0.073	0.089
-463.113	800.000	0.044	-0.132
-462.099	331.549	0.133	-0.255
-461.084	-109.327	0.049	-0.010
-460.070	-27.043	0.351	0.204
-459.055	-35.610	0.150	0.081
-458.040	800.000	-0.060	-0.247
-457.026	-133.053	-0.355	0.045
-456.011	-200.000	0.012	-0.068
-454.997	-137.971	-0.178	-0.020
-453.982	800.000	-0.038	0.134
-452.968	122.898	-0.208	0.259
-451.953	-140.305	-0.477	-0.050
-450.938	-130.683	0.115	-0.015
-449.924	-68.674	-0.205	0.079
-448.909	-62.678	0.155	-0.064
-447.895	-110.014	0.174	0.036
-446.880	-25.435	0.074	0.044
-445.865	-24.914	-0.040	-0.024
-444.851	412.311	0.147	-0.311
-443.836	800.000	0.021	0.059
-442.822	-10.516	-0.317	0.209
-441.807	74.880	0.206	-0.215
-440.792	27.440	-0.137	-0.115
-439.778	-200.000	-0.070	-0.317
-438.763	48.721	-0.119	-0.111
-437.749	43.402	0.183	0.167
-436.734	-80.489	-0.121	0.040
-435.719	-200.000	0.038	0.242
-434.705	5.044	0.228	-0.167
-433.690	186.876	-0.102	0.151
-432.676	12.146	0.133	-0.102
-431.661	239.094	-0.051	-0.085
-430.646	-200.000	-0.029	-0.177
-429.632	-200.000	-0.016	0.074
-428.617	191.116	-0.192	0.288
-427.603	-200.000	-0.049	-0.284
-426.588	-146.205	0.113	0.010
-425.573	328.838	-0.201	0.385
-424.559	175.864	-0.107	-0.155
-423.544	-128.175	0.428	0.061
-422.530	-116.568	-0.283	0.052
-421.515	800.000	0.038	-0.120
-420.500	178.814	-0.085	-0.123
-419.486	-84.081	-0.221	-0.070
-418.471	28.380	-0.113	-0.095
-417.457	290.623	0.039	0.070
-416.442	-200.000	0.218	-0.001
-415.428	0.850	-0.362	0.258
-414.413	-23.743	-0.036	-0.022
-413.398	800.000	0.187	-0.539
-412.384	-200.000	-0.012	-0.379
-411.369	189.959	-0.189	-0.282
-410.355	-103.457	-0.133	-0.031
-409.340	28.292	0.139	-0.117
-408.325	197.575	0.154	-0.234
-407.311	785.888	-0.119	-0.325
-406.296	-127.237	-0.143	-0.021
-405.282	187.016	0.077	0.114
-404.267	9.249	0.320	-0.241
-403.252	-89.596	-0.245	0.071
-402.238	-200.000	-0.031	0.200
-401.223	800.000	-0.134	0.400
-400.209	-200.000	0.040	0.432
-399.194	270.775	-0.180	-0.315
-398.179	-119.740	-0.476	-0.082
-397.165	-5.132	0.030	0.020
-396.150	-112.387	0.178	0.035
-395.136	800.000	0.050	0.150
-394.121	-99.446	0.243	0.061
-393.106	0.766	-0.161	-0.114
-392.092	49.244	0.048	0.045
-391.077	-200.000	-0.025	0.388
-390.063	-119.129	0.209	-0.036
-389.048	800.000	-0.072	-0.199
-388.033	-200.000	0.030	-0.236
-387.019	-200.000	-0.032	0.156
-386.004	-101.336	0.228	0.055
-384.990	528.163	-0.070	0.163
-383.975	-47.206	0.146	-0.071
-382.960	800.000	0.070	-0.234
-381.946	-24.617	0.217	-0.128
-380.931	-200.000	0.050	-0.275
-379.917	-147.225	-0.235	-0.020
-378.902	228.842	0.038	0.061
-377.888	-200.000	-0.012	0.097
-376.873	-200.000	-0.024	-0.118
-375.858	-200.000	-0.002	0.177
-374.844	454.763	0.049	-0.108
-373.829	-96.816	0.244	-0.064
-372.815	-127.074	0.237	-0.035
-371.800	-23.625	-0.191	-0.114
-370.785	-25.398	0.193	-0.113
-369.771	-123.664	-0.323	0.051
-368.756	-61.212	0.221	-0.093
-367.742	800.000	-0.066	-0.258
-366.727	-200.000	0.022	0.323
-365.712	-134.602	-0.121	0.015
-364.698	337.576	0.112	0.216
-363.683	11.206	-0.161	0.123
-362.669	-138.038	0.147	-0.016
-361.654	332.880	0.050	-0.096
-360.639	-200.000	-0.010	0.172
-359.625	-114.173	-0.284	-0.054
-358.610	800.000	-0.059	-0.213
-357.596	-200.000	0.047	0.439
-356.581	-71.159	0.358	0.133
-355.566	6.060	-0.122	-0.090
-354.552	-36.073	-0.371	0.199
-353.537	617.353	0.072	0.180
-352.523	43.077	-0.380	-0.344
-351.508	68.014	0.156	0.158
-350.493	800.000	-0.033	0.112
-349.479	110.894	-0.227	0.270
-348.464	-200.000	-0.030	-0.163
-347.450	-113.159	-0.105	0.021
-346.435	279.830	0.202	0.357
-345.420	-96.389	-0.323	0.085
-344.406	800.000	-0.041	-0.167
-343.391	-118.866	0.439	-0.077
-342.377	90.940	0.139	0.155
-341.362	-30.496	0.159	0.090
-340.348	-200.000	0.024	0.164
-339.333	-125.754	-0.326	0.049
-338.318	-85.314	-0.290	-0.090
-337.304	-20.271	0.157	0.096
-336.289	-178.648	0.175	-0.004
-335.275	-64.567	-0.236	-0.095
-334.260	29.586	-0.093	0.079
-333.245	-200.000	0.007	-0.156
-332.231	-20.961	-0.008	-0.005
-331.216	-143.898	0.150	0.014
-330.202	-123.886	-0.080	-0.013
-329.187	-122.865	0.154	-0.025
-328.172	-88.084	0.252	0.075
-327.158	151.963	-0.213	0.288
-326.143	220.511	0.047	-0.074
-325.129	33.175	0.444	0.381
-324.114	-175.569	0.181	-0.005
-323.099	266.550	0.152	-0.262
-322.085	-200.000	-0.022	-0.195
-321.070	-200.000	-0.079	0.425
-320.056	93.287	0.164	0.183
-319.041	654.658	-0.186	-0.473
-318.026	-200.000	-0.022	-0.236
-317.012	-158.305	0.226	0.013
-315.997	800.000	-0.194	-0.539
-314.983	-14.574	0.330	0.210
-313.968	-51.005	-0.131	-0.061
-312.953	-200.000	0.032	0.178
-311.939	24.438	-0.073	0.060
-310.924	459.173	-0.035	-0.078
-309.910	800.000	0.051	0.145
-308.895	-71.158	-0.190	0.071
-307.880	151.441	-0.187	-0.252
-306.866	216.727	-0.035	-0.056
-305.851	-107.283	0.163	0.035
-304.837	244.023	0.228	0.379
-303.822	137.336	0.097	0.126
-302.807	-200.000	0.004	0.360
-301.793	800.000	-0.052	-0.203
-300.778	-200.000	0.032	-0.251
-299.764	-103.387	0.404	-0.094
-298.749	7.941	0.201	0.149
-297.735	-200.000	-0.065	-0.343
-296.720	10.094	-0.255	-0.191
-295.705	459.702	0.117	0.257
-294.691	-101.056	-0.164	0.040
-293.676	-37.479	-0.176	0.093
-292.662	274.385	0.123	0.216
-291.647	4.749	0.096	-0.070
-290.632	34.914	0.256	0.222
-289.618	-18.859	-0.258	-0.159
-288.603	-200.000	0.005	0.038
-287.589	-24.612	-0.043	-0.025
-286.574	233.821	0.088	-0.143
-285.559	-77.423	0.113	-0.039
-284.545	-33.714	0.095	-0.052
-283.530	800.000	0.058	0.235
-282.516	-109.593	-0.282	-0.059
-281.501	154.252	0.200	-0.271
-280.486	-200.000	0.048	0.295
-279.472	273.523	0.175	0.305
-278.457	-200.000	-0.016	0.097
-277.443	-136.024	0.166	0.019
-276.428	-188.113	-0.132	-0.002
-275.413	800.000	0.055	-0.229
-274.399	-51.133	-0.123	-0.057
-273.384	456.920	-0.078	-0.170
-272.370	-34.620	-0.148	-0.080
-271.355	439.014	-0.071	0.153
-270.340	43.175	-0.170	0.154
-269.326	800.000	0.048	0.202
-268.311	-13.223	-0.162	-0.104
-267.297	-147.433	0.110	-0.009
-266.282	800.000	0.053	0.198
-265.267	789.800	0.047	-0.129
-264.253	-200.000	-0.006	-0.121
-263.238	-200.000	0.006	-0.098
-262.224	-110.744	0.314	-0.064
-261.209	-126.503	0.072	-0.011
-260.195	125.896	-0.118	-0.148
-259.180	-200.000	0.013	-0.171
-258.165	-160.529	0.182	0.010
-257.151	-126.574	0.152	0.022
-256.136	154.010	-0.095	-0.128
-255.122	632.293	0.152	-0.381
-254.107	800.000	0.087	-0.321
-253.092	317.578	-0.101	0.189
-252.078	360.881	-0.117	-0.231
-251.063	18.044	0.236	0.186
-250.049	16.600	0.019	0.014
-249.034	-71.405	-0.229	-0.085
-248.019	-200.000	-0.015	0.239
-247.005	53.918	-0.247	0.235
-245.990	-128.509	0.185	-0.026
-244.976	800.000	-0.037	0.150
-243.961	257.114	0.033	0.055
-242.946	-153.549	-0.193	-0.013
-241.932	-200.000	-0.064	0.284
-240.917	-103.365	0.185	-0.043
-239.903	115.592	-0.075	-0.090
-238.888	-200.000	-0.004	-0.301
-237.873	-200.000	-0.059	-0.356
-236.859	800.000	0.098	-0.321
-235.844	800.000	0.086	0.362
-234.830	296.953	0.052	-0.094
-233.815	177.389	0.234	-0.337
-232.800	46.291	-0.145	-0.132
-231.786	749.091	0.122	-0.325
-230.771	800.000	-0.071	-0.235
-229.757	14.797	-0.094	0.072
-228.742	302.065	0.062	0.113
-227.727	67.442	-0.038	0.038
-226.713	483.352	-0.108	-0.243
-225.698	-200.000	0.007	0.046
-224.684	147.462	0.108	0.144
-223.669	-74.814	0.070	-0.025
-222.655	-200.000	-0.014	0.243
-221.640	135.698	-0.067	-0.087
-220.625	800.000	0.050	0.206
-219.611	800.000	0.051	-0.162
-218.596	-129.686	-0.033	0.004
-217.582	539.747	-0.035	0.082
-216.567	-200.000	0.001	0.311
-215.552	39.498	0.064	-0.056
-214.538	-102.574	0.072	-0.017
-213.523	98.519	-0.145	-0.165
-212.509	325.875	0.059	-0.111
-211.494	-53.235	-0.246	0.111
-210.479	-107.697	0.297	-0.064
-209.465	549.939	0.050	0.119
-208.450	-74.094	-0.311	-0.111
-207.436	-114.224	-0.204	0.039
-206.421	-162.189	0.183	-0.009
-205.406	-200.000	0.021	-0.152
-204.392	24.168	-0.322	-0.262
-203.377	126.218	0.104	0.129
-202.363	174.806	0.088	-0.126
-201.348	-152.658	0.206	0.014
-200.333	83.293	0.263	0.283
-199.319	-200.000	0.024	-0.141
-198.304	800.000	-0.048	-0.204
-197.290	-200.000	0.027	0.185
-196.275	465.268	0.190	0.419
-195.260	387.723	-0.039	0.079
-194.246	380.003	-0.157	0.317
-193.231	70.799	-0.129	0.132
-192.217	-179.022	0.554	-0.012
-191.202	187.051	-0.115	0.169
-190.187	208.113	-0.156	0.240
-189.173	-9.551	0.148	0.097
-188.158	178.345	-0.143	0.205
-187.144	-36.668	-0.239	-0.127
-186.129	31.045	0.184	0.155
-185.114	205.672	-0.061	-0.093
-184.100	800.000	-0.091	0.365
-183.085	-54.565	-0.429	0.191
-182.071	-20.907	0.202	0.122
-181.056	-153.606	-0.188	-0.013
-180.042	-126.478	-0.095	0.014
-179.027	463.889	-0.039	-0.085
-178.012	456.274	0.060	-0.131
-176.998	578.745	0.127	-0.306
-175.983	-155.912	-0.350	-0.022
-174.969	121.236	0.078	0.096
-173.954	-162.761	0.295	-0.014
-172.939	-36.948	0.181	-0.096
-171.925	-42.680	-0.235	0.118
-170.910	243.283	0.047	-0.077
-169.896	10.458	-0.154	0.116
-168.881	-86.555	0.061	-0.018
-167.866	259.681	-0.181	-0.308
-166.852	-200.000	-0.045	-0.201
-165.837	-129.796	0.225	-0.031
-164.823	-134.438	0.224	0.027
-163.808	92.505	0.170	-0.189
-162.793	800.000	-0.089	0.294
-161.779	-117.459	0.302	0.054
-160.764	471.349	-0.028	-0.062
-159.750	-40.804	0.224	0.114
-158.735	193.398	-0.154	0.230
-157.720	145.753	-0.356	0.470
-156.706	-30.547	-0.070	0.039
-155.691	70.824	-0.088	0.090
-154.677	241.645	-0.183	-0.302
-153.662	17.118	0.195	-0.152
-152.647	636.951	0.086	0.215
-151.633	17.758	0.104	-0.081
-150.618	163.529	0.120	0.165
-149.604	168.231	0.050	0.070
-148.589	404.935	-0.136	-0.281
-147.574	-200.000	-0.006	-0.173
-146.560	165.787	0.137	0.191
-145.545	-195.304	-0.407	0.003
-144.531	-200.000	-0.024	-0.346
-143.516	493.036	0.056	-0.126
-142.502	-36.792	0.162	-0.085
-141.487	53.749	-0.184	0.174
-140.472	255.795	-0.117	-0.198
-139.458	-46.635	0.111	0.053
-138.443	-200.000	-0.001	-0.209
-137.429	-35.523	-0.113	0.060
-136.414	213.296	0.135	0.210
-135.399	-32.779	0.165	0.090
-134.385	800.000	0.027	-0.096
-133.370	31.357	0.134	-0.113
-132.356	120.574	-0.167	0.204
-131.341	2.381	0.075	0.053
-130.326	-64.761	-0.175	-0.070
-129.312	73.641	-0.273	0.281
-128.297	134.395	-0.050	-0.064
-127.283	-200.000	0.038	-0.189
-126.268	-200.000	0.010	0.143
-125.253	-148.547	0.208	-0.017
-124.239	-200.000	-0.095	0.522
-123.224	-200.000	-0.000	0.249
-122.210	-86.943	0.202	-0.061
