DTS Sentinel unit serial number:	SN413079Multiplexer serial number:	ORYXHardware model number:	OX4-SRSoftware version number:	ORYX F/W v4.00 Oryx Data Collector v3.7.2.0data status	okinstallation	princeton_trtdifferential loss correction	single-endedforward channel	channel 3reverse channel	N/Adate	2019/09/12time	18:47:04forward acquisition time	15.00reverse acquisition time	0.00gamma	496.2192k internal	0.2318k external	0.2318temperature offset calibration	1.0097default loss term (dB/km)	0.3790temperature slope calibration	1.0000multiplexer offset coefficient	1.0000multiplexer slope coefficient	1.0000fibre end	0.00T internal ref (°C)	32.94T ext. ref 1 (°C)	2.98T ext. ref 2 (°C)	27.51length (m)	temperature (°C)	Stokes	anti-Stokes-747.200	102.158	-0.221	0.262
-746.185	-35.462	0.129	0.071
-745.171	-200.000	0.007	0.507
-744.156	-100.063	0.233	0.059
-743.142	221.891	-0.264	-0.429
-742.127	15.614	0.439	0.349
-741.112	-9.908	-0.462	0.311
-740.098	-2.004	0.207	0.147
-739.083	-158.446	-0.949	-0.056
-738.069	50.480	0.243	-0.233
-737.054	-44.990	0.553	0.279
-736.039	800.000	0.123	-0.363
-735.025	-166.651	-0.547	-0.023
-734.010	-27.108	0.733	-0.432
-732.996	-124.315	-0.162	-0.026
-731.981	-14.637	0.285	0.185
-730.966	-126.045	0.133	0.020
-729.952	266.042	-0.115	-0.203
-728.937	-92.407	-0.180	0.051
-727.923	758.798	0.187	-0.513
-726.908	-157.149	0.450	-0.028
-725.894	44.904	0.334	0.311
-724.879	-90.681	-0.524	-0.153
-723.864	-200.000	-0.035	0.369
-722.850	-65.997	0.307	-0.124
-721.835	79.238	-0.432	0.468
-720.821	-20.965	0.522	-0.324
-719.806	104.709	0.388	0.462
-718.791	-100.545	0.423	0.106
-717.777	-153.718	-0.295	-0.021
-716.762	-200.000	0.101	-0.733
-715.748	-65.638	-0.180	0.073
-714.733	15.287	-0.430	-0.341
-713.718	-151.793	0.643	0.048
-712.704	216.794	-0.011	-0.018
-711.689	-200.000	-0.056	0.892
-710.675	666.835	0.222	0.579
-709.660	800.000	-0.271	1.191
-708.645	172.860	-0.347	0.505
-707.631	-193.077	-0.224	0.002
-706.616	17.708	-0.492	0.396
-705.602	-200.000	-0.135	0.672
-704.587	-76.236	-0.708	-0.252
-703.572	630.358	0.214	-0.548
-702.558	765.659	-0.152	0.418
-701.543	-83.688	-0.053	0.017
-700.529	59.316	-0.454	0.451
-699.514	800.000	0.115	0.360
-698.499	800.000	0.074	0.230
-697.485	800.000	-0.081	0.346
-696.470	-200.000	-0.146	0.776
-695.456	-168.448	-0.716	-0.028
-694.441	74.723	-0.379	-0.403
-693.426	127.112	0.029	-0.037
-692.412	-87.046	-0.195	-0.060
-691.397	-54.549	-0.335	-0.153
-690.383	172.903	-0.031	-0.045
-689.368	-60.404	0.510	0.219
-688.354	-200.000	0.002	0.273
-687.339	208.463	0.508	-0.803
-686.324	90.104	-0.303	0.342
-685.310	26.955	-0.558	-0.472
-684.295	264.068	-0.163	0.287
-683.281	-104.793	0.378	-0.088
-682.266	452.135	0.140	-0.313
-681.251	49.758	-0.672	-0.639
-680.237	-140.755	0.855	-0.089
-679.222	67.746	-0.627	0.647
-678.208	-152.578	0.320	-0.023
-677.193	-62.184	-0.151	-0.064
-676.178	800.000	-0.177	-0.735
-675.164	-65.918	0.322	0.130
-674.149	800.000	0.150	-0.433
-673.135	-200.000	0.029	-1.025
-672.120	-200.000	-0.021	-0.441
-671.105	-68.021	0.994	-0.391
-670.091	132.095	-0.637	-0.828
-669.076	800.000	0.265	-0.850
-668.062	-113.813	0.640	0.126
-667.047	419.427	-0.205	0.443
-666.032	382.451	-0.383	0.794
-665.018	218.269	-0.281	-0.452
-664.003	255.060	-0.274	-0.474
-662.989	112.851	-0.396	0.484
-661.974	-159.230	0.816	-0.046
-660.959	-133.632	-0.249	-0.031
-659.945	106.448	-0.233	0.278
-658.930	-200.000	-0.030	-0.737
-657.916	-150.700	0.744	0.057
-656.901	-200.000	0.038	0.291
-655.886	144.486	0.515	-0.694
-654.872	66.804	-0.736	-0.755
-653.857	-200.000	0.010	-0.243
-652.843	800.000	0.144	0.597
-651.828	-41.034	0.397	0.207
-650.814	48.853	0.160	0.151
-649.799	-133.529	-0.497	0.063
-648.784	604.575	-0.296	0.743
-647.770	800.000	0.163	0.478
-646.755	-169.860	-0.143	-0.005
-645.741	190.069	0.071	0.108
-644.726	-157.302	-0.311	-0.019
-643.711	-3.607	0.663	0.465
-642.697	-103.063	-0.389	-0.093
-641.682	63.531	-0.460	-0.466
-640.668	-82.297	0.504	-0.165
-639.653	203.581	0.139	-0.216
-638.638	-2.952	-0.456	0.321
-637.624	-74.242	0.753	-0.274
-636.609	-123.704	-0.472	0.075
-635.595	-42.768	-0.742	-0.380
-634.580	800.000	0.143	0.617
-633.565	102.273	0.483	-0.568
-632.551	-106.259	0.625	0.141
-631.536	67.241	-0.001	-0.001
-630.522	81.870	0.061	-0.066
-629.507	-89.102	-0.201	-0.060
-628.492	-143.210	-0.337	0.033
-627.478	618.968	-0.083	-0.210
-626.463	-200.000	0.080	-0.799
-625.449	46.437	-0.304	0.284
-624.434	-22.565	0.311	-0.189
-623.419	-200.000	0.543	0.002
-622.405	-200.000	0.021	0.286
-621.390	-200.000	0.034	-0.236
-620.376	800.000	0.221	-0.738
-619.361	-59.854	0.310	-0.133
-618.346	1.236	0.237	-0.171
-617.332	87.995	-0.217	0.243
-616.317	-32.236	-0.166	-0.093
-615.303	-127.097	0.637	-0.094
-614.288	-104.644	-0.406	0.094
-613.273	2.105	-0.343	0.250
-612.259	-158.828	-0.810	-0.047
-611.244	-106.715	-0.983	-0.220
-610.230	800.000	-0.142	-0.561
-609.215	-124.660	0.519	-0.081
-608.201	-59.929	0.782	0.337
-607.186	-74.995	0.163	0.059
-606.171	-17.731	-0.375	0.237
-605.157	0.293	-0.601	0.431
-604.142	-151.086	-0.618	0.047
-603.128	-200.000	-0.009	-0.091
-602.113	-167.784	-0.438	-0.017
-601.098	278.338	-0.318	-0.570
-600.084	-200.000	-0.089	0.595
-599.069	-200.000	-0.007	-0.329
-598.055	-163.975	-0.098	0.005
-597.040	-88.352	0.739	0.222
-596.025	-100.878	0.592	0.146
-595.011	-200.000	0.002	-0.746
-593.996	-200.000	0.116	0.683
-592.982	-37.902	0.784	-0.419
-591.967	800.000	-0.104	-0.295
-590.952	-123.795	0.370	-0.059
-589.938	-16.590	0.357	0.228
-588.923	-70.184	-0.207	-0.079
-587.909	-121.376	-0.364	0.061
-586.894	138.565	0.619	0.817
-585.879	27.489	0.309	-0.262
-584.865	-143.273	0.031	0.003
-583.850	172.669	-0.200	-0.290
-582.836	50.390	-0.392	0.373
-581.821	-172.180	0.031	0.001
-580.806	449.400	0.008	-0.019
-579.792	210.396	-0.304	0.480
-578.777	136.256	-0.084	0.110
-577.763	-22.877	-0.104	0.063
-576.748	-200.000	0.023	0.726
-575.733	187.524	0.181	-0.271
-574.719	-68.213	-0.603	0.236
-573.704	-149.777	0.239	-0.019
-572.690	376.661	0.033	-0.067
-571.675	-26.082	0.184	-0.109
-570.661	800.000	-0.179	-0.595
-569.646	680.362	-0.055	-0.143
-568.631	-125.832	-0.517	0.078
-567.617	800.000	-0.183	-0.554
-566.602	354.911	-0.200	-0.399
-565.588	-119.613	0.626	0.109
-564.573	84.978	-0.682	0.751
-563.558	18.690	0.489	0.393
-562.544	-150.418	0.465	0.036
-561.529	498.275	-0.275	-0.637
-560.515	-56.490	-0.264	-0.118
-559.500	-70.474	-0.254	0.096
-558.485	800.000	0.025	-0.071
-557.471	540.758	0.176	0.421
-556.456	114.095	-0.060	0.074
-555.442	72.864	-0.240	0.252
-554.427	800.000	-0.384	-1.451
-553.412	759.609	-0.317	-0.862
-552.398	-63.315	0.316	-0.131
-551.383	99.182	0.097	-0.113
-550.369	126.539	-0.736	0.936
-549.354	-200.000	0.106	-0.522
-548.339	256.545	0.027	-0.046
-547.325	4.894	-0.173	0.127
-546.310	-99.761	0.169	0.042
-545.296	-101.648	0.716	-0.174
-544.281	295.342	-0.422	-0.775
-543.266	725.697	-0.167	0.447
-542.252	800.000	0.289	1.010
-541.237	-113.501	-0.737	0.145
-540.223	21.293	0.341	0.278
-539.208	-80.108	0.264	0.089
-538.193	-110.818	-0.416	0.086
-537.179	-50.217	-0.526	-0.250
-536.164	-165.204	0.631	0.028
-535.150	503.843	-0.185	-0.429
-534.135	114.413	0.542	-0.662
-533.121	310.069	0.354	0.665
-532.106	-200.000	-0.051	-0.244
-531.091	-103.795	-0.117	-0.027
-530.077	-136.329	-0.569	0.067
-529.062	-29.555	-1.060	0.608
-528.048	-135.625	0.067	-0.008
-527.033	-84.491	-1.162	-0.368
-526.018	-103.435	-0.677	-0.160
-525.004	-54.155	1.059	0.483
-523.989	-1.331	0.222	0.157
-522.975	0.557	0.397	0.285
-521.960	-33.913	0.212	-0.117
-520.945	-34.796	0.994	-0.545
-519.931	384.662	0.117	0.242
-518.916	25.603	-0.521	-0.435
-517.902	98.584	0.106	-0.122
-516.887	-200.000	0.013	-0.409
-515.872	-200.000	0.040	-0.286
-514.858	285.766	0.070	-0.126
-513.843	-73.153	0.186	0.068
-512.829	93.111	0.171	0.194
-511.814	800.000	0.205	0.805
-510.799	161.224	-0.467	0.655
-509.785	-54.834	-0.979	0.443
-508.770	-139.527	-0.341	-0.037
-507.756	-200.000	-0.159	0.920
-506.741	-144.752	-0.473	0.044
-505.726	-109.477	-0.504	-0.107
-504.712	-97.279	-0.492	-0.129
-503.697	10.930	0.427	-0.327
-502.683	501.654	0.361	-0.836
-501.668	-200.000	-0.034	-0.608
-500.653	88.994	-0.230	0.257
-499.639	-147.325	-1.261	-0.107
-498.624	45.140	0.234	0.216
-497.610	120.175	-0.358	0.446
-496.595	5.485	0.691	0.511
-495.581	-200.000	0.137	0.994
-494.566	567.272	-0.453	-1.103
-493.551	-38.505	-0.580	-0.307
-492.537	2.055	0.407	-0.295
-491.522	-200.000	-0.040	0.570
-490.508	-200.000	-0.114	0.611
-489.493	800.000	0.210	0.695
-488.478	86.044	0.259	0.286
-487.464	391.784	0.497	-1.034
-486.449	800.000	0.157	-0.505
-485.435	-66.441	-0.174	-0.069
-484.420	566.815	-0.178	0.432
-483.405	-18.123	0.614	-0.385
-482.391	117.268	-0.489	0.602
-481.376	-25.404	-0.644	0.381
-480.362	65.934	-0.113	-0.115
-479.347	-200.000	-0.091	-0.955
-478.332	-200.000	-0.090	-0.532
-477.318	192.661	0.198	-0.299
-476.303	-125.540	0.188	-0.029
-475.289	-200.000	0.139	-0.752
-474.274	351.577	0.069	0.137
-473.259	-168.324	0.708	0.027
-472.245	-200.000	-0.123	0.804
-471.230	-154.370	-0.631	0.042
-470.216	6.175	0.259	0.192
-469.201	-200.000	-0.055	0.759
-468.186	640.607	-0.134	0.340
-467.172	-23.168	0.228	0.137
-466.157	523.084	-0.151	0.354
-465.143	241.568	0.245	-0.409
-464.128	-143.987	-0.673	0.063
-463.113	-161.381	-0.270	-0.014
-462.099	-42.376	-0.575	-0.294
-461.084	-83.153	0.275	-0.088
-460.070	77.703	-0.651	0.694
-459.055	-57.750	-0.480	0.210
-458.040	-114.500	-0.285	0.055
-457.026	-79.744	-1.079	-0.364
-456.011	785.589	-0.168	-0.460
-454.997	-200.000	-0.000	-0.724
-453.982	-25.459	-0.592	0.350
-452.968	800.000	-0.121	-0.530
-451.953	35.502	0.131	0.115
-450.938	-142.433	-0.669	0.066
-449.924	-14.256	-0.248	0.160
-448.909	30.218	0.653	0.558
-447.895	43.883	0.767	0.703
-446.880	-14.001	-0.299	-0.193
-445.865	633.806	0.347	-0.881
-444.851	800.000	0.109	-0.446
-443.836	-89.044	-1.209	-0.358
-442.822	136.915	0.393	-0.513
-441.807	52.134	-0.130	0.124
-440.792	-177.603	-0.403	0.010
-439.778	-31.040	0.244	0.137
-438.763	-59.323	-0.625	-0.269
-437.749	-21.491	0.784	0.478
-436.734	800.000	-0.271	-0.849
-435.719	-156.174	-0.978	0.062
-434.705	800.000	0.127	-0.478
-433.690	204.893	0.241	-0.373
-432.676	-200.000	0.009	0.120
-431.661	-45.659	-0.176	-0.087
-430.646	-35.915	0.696	-0.376
-429.632	43.596	-0.215	0.196
-428.617	32.086	0.553	-0.477
-427.603	42.456	0.460	-0.418
-426.588	-59.892	1.014	0.433
-425.573	537.511	0.373	-0.885
-424.559	-50.904	-0.574	-0.269
-423.544	800.000	-0.157	0.567
-422.530	608.504	-0.098	-0.245
-421.515	353.733	-0.353	-0.701
-420.500	-14.950	-0.155	-0.100
-419.486	289.406	-0.058	0.105
-418.471	183.340	0.390	-0.576
-417.457	-156.869	0.486	0.030
-416.442	213.188	0.410	0.647
-415.428	-63.461	-0.448	-0.184
-414.413	631.464	-0.139	0.352
-413.398	-21.121	0.282	-0.173
-412.384	-200.000	0.094	-0.441
-411.369	-200.000	0.020	-0.374
-410.355	510.955	0.295	0.685
-409.340	-200.000	0.020	0.134
-408.325	214.758	0.241	-0.381
-407.311	800.000	0.034	0.099
-406.296	-200.000	0.111	1.243
-405.282	110.325	0.208	-0.250
-404.267	-200.000	-0.004	-0.424
-403.252	143.357	-0.187	0.249
-402.238	-68.624	1.069	0.413
-401.223	-38.231	0.438	-0.232
-400.209	-200.000	-0.016	0.357
-399.194	-30.036	-0.712	0.405
-398.179	-200.000	0.001	0.010
-397.165	46.544	0.474	0.439
-396.150	460.855	-0.087	-0.194
-395.136	-118.251	-0.440	0.078
-394.121	-162.469	0.228	-0.011
-393.106	-63.487	-0.511	0.210
-392.092	800.000	0.157	0.476
-391.077	-24.321	0.535	0.318
-390.063	-200.000	0.077	-0.799
-389.048	-200.000	-0.046	-0.242
-388.033	49.033	0.574	-0.538
-387.019	-200.000	-0.018	-0.329
-386.004	-200.000	0.006	0.201
-384.990	13.130	0.653	0.504
-383.975	800.000	-0.170	0.670
-382.960	-200.000	0.030	-0.290
-381.946	25.170	0.406	0.337
-380.931	-133.689	0.431	0.054
-379.917	-175.349	-0.223	0.006
-378.902	-13.482	0.739	-0.478
-377.888	760.134	0.147	0.397
-376.873	-94.053	-1.047	0.287
-375.858	800.000	-0.078	0.248
-374.844	-110.858	1.298	0.267
-373.829	-200.000	0.110	-0.575
-372.815	-125.794	0.382	-0.058
-371.800	23.411	0.859	0.705
-370.785	-97.983	-0.400	-0.103
-369.771	404.548	-0.163	0.342
-368.756	-131.598	-0.422	-0.055
-367.742	505.198	0.255	-0.589
-366.727	360.136	-0.346	-0.691
-365.712	-64.648	-0.227	-0.092
-364.698	800.000	-0.157	-0.591
-363.683	-0.213	-0.240	-0.170
-362.669	559.923	0.380	-0.915
-361.654	-138.370	0.931	-0.102
-360.639	-200.000	-0.042	0.943
-359.625	-31.250	-0.487	-0.273
-358.610	-200.000	0.170	-0.806
-357.596	-38.361	0.432	0.228
-356.581	800.000	-0.090	-0.351
-355.566	128.646	-0.316	-0.402
-354.552	800.000	0.367	-1.018
-353.537	206.515	0.061	0.095
-352.523	305.023	-0.194	0.359
-351.508	800.000	-0.094	-0.366
-350.493	-84.072	0.153	-0.048
-349.479	33.690	0.244	-0.211
-348.464	70.928	-0.149	0.154
-347.450	-119.494	0.695	0.120
-346.435	54.262	0.386	-0.370
-345.420	15.628	-0.564	-0.442
-344.406	-117.547	0.335	-0.060
-343.391	50.205	-0.595	0.560
-342.377	-54.696	-0.433	0.195
-341.362	-59.576	0.483	-0.206
-340.348	800.000	0.100	-0.302
-339.333	520.266	-0.075	-0.174
-338.318	321.629	-0.061	0.116
-337.304	550.623	0.041	-0.097
-336.289	143.649	-0.217	0.288
-335.275	64.889	0.744	0.748
-334.260	8.332	0.280	0.210
-333.245	-165.332	-0.894	-0.039
-332.231	240.583	-0.329	0.546
-331.216	800.000	0.381	1.108
-330.202	-107.099	-0.405	0.089
-329.187	243.218	-0.419	0.699
-328.172	-200.000	0.069	-0.599
-327.158	-103.972	0.508	0.118
-326.143	-200.000	-0.042	-0.380
-325.129	533.150	0.318	0.751
-324.114	54.839	0.194	0.186
-323.099	-5.121	0.512	-0.351
-322.085	74.688	-0.483	-0.506
-321.070	-44.591	-0.575	0.286
-320.056	-126.123	0.468	-0.070
-319.041	-44.384	0.566	-0.282
-318.026	-149.196	0.750	0.060
-317.012	174.204	0.329	0.474
-315.997	-200.000	0.052	0.494
-314.983	-120.671	0.672	-0.113
-313.968	-84.962	-0.491	-0.153
-312.953	196.972	0.127	-0.192
-311.939	356.507	-0.443	0.877
-310.924	-20.753	0.383	0.234
-309.910	254.631	-0.190	-0.323
-308.895	35.895	-0.120	0.105
-307.880	-14.016	-0.277	-0.178
-306.866	52.989	-0.725	0.690
-305.851	-200.000	0.042	-0.745
-304.837	77.710	-0.496	-0.526
-303.822	800.000	0.102	0.425
-302.807	800.000	0.160	-0.548
-301.793	507.749	-0.093	-0.216
-300.778	3.557	-0.865	0.627
-299.764	63.886	0.250	-0.250
-298.749	-178.978	-1.028	-0.023
-297.735	-200.000	-0.015	0.464
-296.720	-7.196	-0.748	0.504
-295.705	125.917	0.497	0.625
-294.691	364.082	-0.087	0.173
-293.676	-122.491	0.466	0.075
-292.662	231.196	0.662	-1.078
-291.647	-79.908	0.439	0.147
-290.632	-200.000	0.219	-1.064
-289.618	97.931	-0.137	-0.157
-288.603	92.650	0.466	-0.523
-287.589	800.000	-0.159	-0.635
-286.574	-157.332	0.842	0.051
-285.559	800.000	-0.163	0.497
-284.545	149.581	-0.179	0.242
-283.530	-165.612	-0.354	0.015
-282.516	46.927	-0.588	-0.544
-281.501	-66.094	-0.892	0.354
-280.486	335.496	0.475	0.916
-279.472	-69.887	0.412	-0.156
-278.457	-200.000	0.003	0.577
-277.443	312.887	-0.165	0.308
-276.428	-94.902	-0.318	-0.086
-275.413	250.697	0.188	0.318
-274.399	-63.769	-0.278	0.113
-273.384	-177.402	0.455	0.011
-272.370	-124.719	0.733	0.113
-271.355	-6.132	0.374	0.254
-270.340	-200.000	0.036	0.663
-269.326	-42.891	0.433	0.218
-268.311	-200.000	0.042	0.304
-267.297	-165.193	0.470	-0.021
-266.282	-200.000	-0.025	-0.607
-265.267	-25.843	-0.447	0.262
-264.253	-83.707	-0.794	-0.252
-263.238	178.785	-0.295	-0.428
-262.224	-24.255	-0.661	-0.392
-261.209	-200.000	-0.080	-0.495
-260.195	-93.527	-0.653	-0.179
-259.180	-42.375	0.691	-0.350
-258.165	800.000	0.179	-0.657
-257.151	-35.482	0.518	-0.279
-256.136	-156.051	0.849	-0.053
-255.122	-35.145	0.403	0.218
-254.107	160.254	-0.399	-0.553
-253.092	78.661	-0.100	-0.106
-252.078	-200.000	0.083	0.447
-251.063	-200.000	-0.161	1.211
-250.049	89.181	0.293	-0.324
-249.034	42.848	0.353	-0.320
-248.019	138.627	-0.648	0.844
-247.005	800.000	0.258	0.735
-245.990	6.321	-0.489	0.360
-244.976	-119.418	0.072	-0.012
-243.961	-123.373	0.920	-0.146
-242.946	-51.951	-0.671	-0.309
-241.932	288.476	-0.140	0.251
-240.917	88.882	-0.378	-0.418
-239.903	-92.433	-0.497	-0.139
-238.888	-200.000	-0.007	0.568
-237.873	-166.167	0.194	-0.008
-236.859	14.807	0.383	-0.297
-235.844	755.729	0.219	0.588
-234.830	-200.000	-0.046	-0.378
-233.815	-98.382	0.134	-0.034
-232.800	17.018	-0.477	0.375
-231.786	-9.414	-0.357	-0.236
-230.771	57.345	-0.160	-0.155
-229.757	-200.000	0.021	-0.703
-228.742	30.537	-0.346	0.294
-227.727	756.375	0.161	-0.431
-226.713	488.028	0.131	0.297
-225.698	800.000	-0.062	-0.239
-224.684	211.721	0.155	0.242
-223.669	-148.404	-0.763	0.062
-222.655	-116.513	0.444	-0.081
-221.640	197.000	0.365	0.551
-220.625	63.025	0.199	0.198
-219.611	128.652	0.623	0.787
-218.596	-93.779	0.439	0.120
-217.582	500.622	-0.173	-0.396
-216.567	274.379	0.436	-0.764
-215.552	-144.492	-0.584	0.054
-214.538	-200.000	0.011	0.642
-213.523	-129.706	-0.515	-0.070
-212.509	800.000	0.001	0.004
-211.494	-70.330	0.339	-0.128
-210.479	337.749	0.196	-0.377
-209.465	-86.656	-0.503	-0.153
-208.450	-200.000	-0.005	-0.406
-207.436	-29.928	0.411	-0.232
-206.421	-200.000	0.067	-0.796
-205.406	-117.934	0.462	-0.082
-204.392	19.386	0.611	0.486
-203.377	186.584	-0.266	-0.393
-202.363	211.293	0.295	0.460
-201.348	800.000	0.252	-0.721
-200.333	-27.280	0.325	0.187
-199.319	-200.000	-0.144	0.681
-198.304	-107.035	0.748	-0.164
-197.290	42.698	-0.523	0.472
-196.275	80.818	-0.171	0.182
-195.260	213.731	-0.176	0.276
-194.246	49.531	-0.249	-0.232
-193.231	10.800	-0.741	0.560
-192.217	105.618	0.245	-0.286
-191.202	-131.861	0.594	0.077
-190.187	262.563	0.396	-0.680
-189.173	800.000	-0.152	0.491
-188.158	-111.316	-0.827	-0.167
-187.144	800.000	0.113	-0.352
-186.129	102.235	-0.480	-0.555
-185.114	-26.390	0.306	-0.178
-184.100	14.041	0.143	-0.110
-183.085	-92.077	0.595	0.167
-182.071	92.674	0.336	-0.375
-181.056	800.000	-0.150	-0.497
-180.042	70.063	-0.507	0.518
-179.027	-0.225	0.353	0.249
-178.012	143.802	0.290	0.382
-176.998	-36.444	0.719	0.383
-175.983	-67.084	-0.528	-0.206
-174.969	193.732	-0.113	-0.169
-173.954	-1.114	0.790	-0.553
-172.939	213.625	-0.495	0.774
-171.925	175.731	-0.443	-0.635
-170.910	-200.000	-0.027	-0.757
-169.896	-72.589	0.470	0.172
-168.881	800.000	-0.153	0.656
-167.866	124.135	0.313	-0.389
-166.852	99.013	0.233	0.266
-165.837	104.848	-0.498	0.581
-164.823	-154.502	-0.900	-0.060
-163.808	-0.913	0.403	0.282
-162.793	800.000	-0.103	-0.338
-161.779	-91.233	0.364	0.103
-160.764	-200.000	0.019	0.408
-159.750	800.000	-0.141	0.475
-158.735	-106.772	-0.120	-0.026
-157.720	122.611	0.478	0.591
-156.706	65.840	0.167	0.168
-155.691	29.656	0.197	0.166
-154.677	453.861	0.244	-0.534
-153.662	199.869	-0.625	0.949
-152.647	800.000	0.275	0.770
-151.633	-3.983	-0.409	-0.281
-150.618	-49.472	0.806	0.380
-149.604	87.317	-0.599	0.655
-148.589	7.923	-0.967	0.717
-147.574	-200.000	-0.100	-0.502
-146.560	48.285	-0.299	-0.277
-145.545	207.704	-0.100	-0.155
-144.531	349.901	-0.182	-0.355
-143.516	312.971	-0.038	-0.071
-142.502	220.452	0.451	0.715
-141.487	101.976	0.394	-0.455
-140.472	765.168	0.101	-0.271
-139.458	-106.968	0.552	-0.121
-138.443	-200.000	-0.045	-0.525
-137.429	-58.884	0.439	-0.187
-136.414	104.814	-0.597	-0.696
-135.399	124.391	-0.360	-0.447
-134.385	800.000	0.110	0.404
-133.370	-17.631	0.373	-0.232
-132.356	94.729	0.542	-0.609
-131.341	740.712	0.081	0.216
-130.326	-200.000	0.021	0.252
-129.312	-139.052	0.478	0.051
-128.297	81.752	-0.512	-0.547
-127.283	-200.000	0.039	-0.519
-126.268	-127.158	1.332	-0.193
-125.253	-184.386	-0.222	-0.004
-124.239	-200.000	-0.008	0.497
-123.224	800.000	-0.107	0.334
-122.210	-120.403	0.440	0.074
-121.195	765.596	0.088	-0.237
