DTS Sentinel unit serial number:	SN413079Multiplexer serial number:	ORYXHardware model number:	OX4-SRSoftware version number:	ORYX F/W v4.00 Oryx Data Collector v3.7.2.0data status	okinstallation	princeton_trtdifferential loss correction	single-endedforward channel	channel 3reverse channel	N/Adate	2019/09/12time	14:10:11forward acquisition time	60.00reverse acquisition time	0.00gamma	496.2192k internal	0.2294k external	0.2294temperature offset calibration	1.0049default loss term (dB/km)	0.3790temperature slope calibration	1.0000multiplexer offset coefficient	1.0000multiplexer slope coefficient	1.0000fibre end	0.00T internal ref (°C)	40.37T ext. ref 1 (°C)	2.22T ext. ref 2 (°C)	35.74length (m)	temperature (°C)	Stokes	anti-Stokes-747.200	-27.095	-0.109	0.065
-746.185	-200.000	-0.034	0.365
-745.171	-73.652	-0.261	0.097
-744.156	800.000	-0.135	0.494
-743.142	580.724	0.109	-0.272
-742.127	285.982	-0.090	0.166
-741.112	12.100	0.167	-0.131
-740.098	-200.000	-0.000	0.261
-739.083	-43.756	-0.116	-0.060
-738.069	299.545	-0.142	0.267
-737.054	48.782	-0.139	0.134
-736.039	-38.607	-0.219	-0.118
-735.025	1.407	-0.082	-0.060
-734.010	-200.000	-0.019	0.103
-732.996	117.510	-0.130	-0.163
-731.981	393.635	-0.066	-0.140
-730.966	-47.437	0.159	0.079
-729.952	41.297	-0.088	0.082
-728.937	-200.000	0.003	0.156
-727.923	-200.000	0.023	-0.206
-726.908	-101.822	-0.150	-0.037
-725.894	-77.628	-0.144	0.051
-724.879	-200.000	-0.004	0.047
-723.864	735.939	-0.060	0.163
-722.850	-59.632	-0.166	-0.073
-721.835	-200.000	0.003	-0.242
-720.821	-38.406	-0.114	-0.062
-719.806	-200.000	-0.003	0.085
-718.791	-92.754	-0.252	-0.072
-717.777	800.000	-0.029	-0.085
-716.762	-99.506	-0.129	-0.033
-715.748	29.338	0.063	0.054
-714.733	223.606	0.119	-0.196
-713.718	-32.452	-0.214	-0.122
-712.704	224.693	0.139	0.230
-711.689	229.536	-0.076	0.127
-710.675	-200.000	-0.047	-0.243
-709.660	-147.377	0.093	-0.008
-708.645	-88.220	0.115	-0.035
-707.631	36.956	-0.065	0.058
-706.616	-43.470	-0.095	0.049
-705.602	-173.964	0.197	-0.006
-704.587	161.136	0.172	-0.245
-703.572	-94.118	-0.120	0.034
-702.558	115.827	-0.008	0.010
-701.543	153.996	0.103	-0.144
-700.529	-91.374	-0.270	0.079
-699.514	-132.107	0.166	-0.022
-698.499	-117.112	-0.169	0.031
-697.485	-200.000	0.056	0.259
-696.470	250.247	-0.137	0.237
-695.456	493.511	0.163	-0.381
-694.441	800.000	0.066	-0.231
-693.426	-200.000	-0.008	0.158
-692.412	-16.575	-0.079	0.051
-691.397	94.122	-0.141	-0.163
-690.383	800.000	-0.075	0.219
-689.368	-114.333	0.300	-0.059
-688.354	-151.098	-0.352	0.027
-687.339	800.000	-0.086	0.296
-686.324	-200.000	0.034	-0.367
-685.310	-200.000	-0.024	0.163
-684.295	-100.283	0.166	0.042
-683.281	10.726	-0.272	0.212
-682.266	-92.118	0.176	-0.051
-681.251	42.615	0.176	-0.164
-680.237	800.000	-0.106	0.359
-679.222	-200.000	0.054	-0.257
-678.208	-8.720	-0.122	0.084
-677.193	-153.979	0.233	-0.016
-676.178	74.254	-0.099	0.106
-675.164	34.019	0.295	0.262
-674.149	-87.746	0.334	0.103
-673.135	800.000	0.016	-0.062
-672.120	-144.966	0.474	-0.044
-671.105	219.009	-0.174	-0.284
-670.091	133.453	-0.182	0.240
-669.076	-166.367	-0.350	0.015
-668.062	-99.443	-0.114	0.029
-667.047	53.410	-0.185	-0.181
-666.032	-108.063	-0.246	-0.055
-665.018	-50.960	-0.231	-0.110
-664.003	800.000	-0.030	-0.105
-662.989	-200.000	-0.000	0.023
-661.974	-102.478	-0.143	0.035
-660.959	11.088	-0.208	-0.162
-659.945	-103.229	-0.119	0.029
-658.930	72.391	-0.221	-0.235
-657.916	-36.539	-0.131	0.072
-656.901	-19.705	-0.057	-0.036
-655.886	-135.822	0.086	0.010
-654.872	800.000	0.053	-0.192
-653.857	100.820	-0.257	-0.304
-652.843	224.613	-0.110	0.182
-651.828	60.276	-0.151	-0.153
-650.814	-108.908	-0.207	-0.045
-649.799	-200.000	0.016	-0.086
-648.784	800.000	-0.085	0.263
-647.770	800.000	0.069	-0.233
-646.755	-148.419	-0.277	0.023
-645.741	800.000	-0.031	0.114
-644.726	-96.414	-0.284	-0.076
-643.711	243.292	0.038	0.064
-642.697	-136.236	-0.196	0.023
-641.682	-173.394	-0.167	0.005
-640.668	-106.553	-0.213	0.048
-639.653	-200.000	-0.024	-0.234
-638.638	92.633	0.213	0.245
-637.624	-155.664	-0.120	0.008
-636.609	-200.000	0.030	0.152
-635.595	13.939	-0.241	-0.191
-634.580	-85.295	0.102	-0.032
-633.565	208.892	0.052	-0.082
-632.551	235.713	-0.080	0.134
-631.536	-103.760	-0.337	-0.080
-630.522	-101.109	-0.062	0.016
-629.507	800.000	-0.023	0.097
-628.492	40.694	0.150	0.137
-627.478	-94.231	-0.285	0.079
-626.463	624.561	-0.077	-0.197
-625.449	25.170	-0.056	-0.048
-624.434	-200.000	0.016	0.129
-623.419	605.594	0.042	0.108
-622.405	76.839	0.080	0.086
-621.390	62.592	0.125	-0.128
-620.376	-139.366	-0.072	0.008
-619.361	-200.000	0.001	0.474
-618.346	-6.551	0.125	0.087
-617.332	266.010	0.128	-0.228
-616.317	-63.856	-0.112	-0.047
-615.303	392.479	-0.017	-0.035
-614.288	98.768	0.176	-0.206
-613.273	800.000	-0.072	-0.223
-612.259	96.391	0.205	0.238
-611.244	-149.491	-0.272	0.022
-610.230	-166.697	0.292	-0.012
-609.215	-126.683	0.242	0.036
-608.201	-57.820	0.292	-0.130
-607.186	121.093	0.010	-0.012
-606.171	33.798	-0.029	-0.025
-605.157	800.000	-0.152	-0.473
-604.142	-200.000	-0.010	-0.256
-603.128	169.309	-0.152	-0.221
-602.113	4.673	0.257	-0.192
-601.098	516.355	-0.058	-0.138
-600.084	245.398	-0.050	-0.086
-599.069	-64.202	0.045	0.018
-598.055	21.226	0.253	0.209
-597.040	800.000	-0.083	0.298
-596.025	800.000	0.063	0.248
-595.011	-104.269	-0.141	0.033
-593.996	129.191	-0.157	0.204
-592.982	-200.000	0.034	0.178
-591.967	-34.404	0.061	-0.034
-590.952	-200.000	-0.058	-0.338
-589.938	146.279	-0.103	-0.141
-588.923	-200.000	-0.006	0.228
-587.909	-123.331	-0.192	-0.031
-586.894	236.298	-0.057	-0.096
-585.879	-200.000	0.022	-0.226
-584.865	26.781	-0.092	-0.078
-583.850	697.746	0.126	-0.336
-582.836	112.522	0.096	0.118
-581.821	-200.000	0.053	0.287
-580.806	-101.860	0.039	-0.010
-579.792	-155.138	-0.089	-0.006
-578.777	-19.184	-0.365	-0.230
-577.763	126.785	-0.136	-0.175
-576.748	190.532	0.078	-0.120
-575.733	-170.552	-0.097	0.003
-574.719	-62.172	-0.032	-0.013
-573.704	-109.181	0.294	-0.064
-572.690	6.186	-0.184	0.138
-571.675	-45.556	-0.073	-0.037
-570.661	800.000	0.077	0.274
-569.646	-200.000	-0.009	-0.080
-568.631	204.534	0.033	-0.052
-567.617	-148.400	0.280	-0.023
-566.602	800.000	0.089	0.330
-565.588	246.299	-0.095	-0.162
-564.573	-50.408	-0.302	-0.145
-563.558	-200.000	0.020	0.136
-562.544	-160.555	0.313	-0.017
-561.529	-10.320	0.125	0.084
-560.515	34.669	0.176	-0.156
-559.500	800.000	-0.050	0.195
-558.485	-200.000	-0.035	0.166
-557.471	-8.769	-0.163	-0.111
-556.456	188.160	0.091	0.138
-555.442	327.975	-0.055	-0.107
-554.427	64.573	0.118	-0.120
-553.412	302.533	0.273	0.512
-552.398	-110.672	0.105	0.022
-551.383	-200.000	-0.002	0.030
-550.369	53.521	0.065	-0.063
-549.354	57.126	0.086	-0.085
-548.339	800.000	-0.108	-0.341
-547.325	183.580	0.091	0.136
-546.310	-127.718	0.110	-0.016
-545.296	530.176	0.136	0.326
-544.281	-146.424	-0.179	0.016
-543.266	-200.000	0.002	0.098
-542.252	-144.649	-0.282	0.026
-541.237	800.000	-0.024	-0.088
-540.223	-200.000	0.003	-0.235
-539.208	800.000	-0.067	-0.217
-538.193	800.000	0.096	-0.351
-537.179	-103.118	-0.323	-0.077
-536.164	-64.928	0.389	-0.160
-535.150	439.772	0.076	-0.168
-534.135	800.000	-0.050	-0.167
-533.121	-132.850	-0.337	-0.044
-532.106	-124.386	-0.303	0.048
-531.091	-200.000	-0.010	-0.066
-530.077	-93.051	0.336	0.095
-529.062	800.000	0.073	0.290
-528.048	-200.000	0.015	-0.165
-527.033	-162.672	-0.328	-0.016
-526.018	164.502	-0.240	-0.344
-525.004	-200.000	0.012	0.218
-523.989	383.742	0.047	-0.098
-522.975	-200.000	-0.013	-0.280
-521.960	-98.370	0.120	-0.031
-520.945	-137.707	0.393	0.045
-519.931	48.333	0.033	-0.032
-518.916	-12.185	0.249	0.165
-517.902	559.905	0.065	0.160
-516.887	800.000	0.088	-0.283
-515.872	-128.285	0.031	-0.004
-514.858	-188.128	-0.492	-0.006
-513.843	-61.072	0.135	0.058
-512.829	99.586	-0.216	0.254
-511.814	251.656	0.029	-0.050
-510.799	555.531	0.095	-0.232
-509.785	59.068	-0.042	-0.042
-508.770	129.162	-0.177	0.229
-507.756	800.000	0.038	-0.141
-506.741	-25.792	0.205	-0.123
-505.726	107.482	0.229	0.276
-504.712	800.000	-0.124	-0.368
-503.697	-28.882	-0.189	-0.110
-502.683	-191.696	0.148	-0.001
-501.668	-69.723	-0.219	-0.085
-500.653	23.559	-0.083	-0.069
-499.639	133.722	0.093	-0.122
-498.624	-72.312	-0.116	0.043
-497.610	244.658	-0.221	0.376
-496.595	-74.088	0.180	-0.066
-495.581	-200.000	-0.021	-0.292
-494.566	-200.000	-0.010	0.188
-493.551	-55.093	-0.080	-0.036
-492.537	-19.806	-0.175	-0.109
-491.522	757.745	0.108	0.296
-490.508	89.841	-0.075	0.085
-489.493	-16.772	-0.165	-0.105
-488.478	-162.597	-0.548	-0.027
-487.464	-200.000	-0.005	0.402
-486.449	-200.000	0.026	-0.190
-485.435	800.000	0.096	-0.340
-484.420	216.277	0.131	0.211
-483.405	-79.695	-0.176	0.060
-482.391	78.255	-0.090	0.097
-481.376	-153.087	0.312	0.022
-480.362	78.852	0.107	-0.116
-479.347	-43.931	0.270	0.137
-478.332	-50.606	-0.422	0.201
-477.318	305.840	-0.159	0.300
-476.303	-0.814	-0.252	0.180
-475.289	-35.618	0.301	-0.165
-474.274	337.456	0.125	-0.247
-473.259	-200.000	-0.020	0.405
-472.245	-80.407	0.224	-0.076
-471.230	120.233	-0.041	-0.052
-470.216	258.095	-0.040	0.070
-469.201	-125.167	0.170	-0.026
-468.186	-200.000	-0.030	0.139
-467.172	-100.697	-0.304	0.076
-466.157	-200.000	0.035	-0.403
-465.143	93.737	-0.054	0.062
-464.128	-129.208	0.271	0.038
-463.113	95.997	-0.156	0.180
-462.099	-69.546	0.082	-0.032
-461.084	192.694	-0.060	-0.092
-460.070	-200.000	0.030	-0.271
-459.055	-171.816	0.324	-0.011
-458.040	-200.000	-0.024	0.274
-457.026	-64.652	0.244	0.100
-456.011	-200.000	-0.023	-0.303
-454.997	541.471	0.085	0.204
-453.982	-200.000	-0.046	-0.307
-452.968	-88.071	-0.119	0.036
-451.953	-93.082	-0.185	0.052
-450.938	-2.232	0.359	0.255
-449.924	426.986	0.015	0.033
-448.909	-93.437	0.132	-0.037
-447.895	-173.890	0.124	0.004
-446.880	-88.007	0.238	-0.072
-445.865	-200.000	-0.011	-0.224
-444.851	593.157	0.043	-0.107
-443.836	99.667	0.122	0.143
-442.822	125.374	0.081	0.104
-441.807	-200.000	0.029	0.300
-440.792	300.228	-0.052	-0.097
-439.778	534.527	0.061	-0.147
-438.763	-20.639	-0.136	-0.085
-437.749	165.966	-0.121	0.174
-436.734	-200.000	0.000	-0.233
-435.719	800.000	-0.063	-0.207
-434.705	-170.348	0.231	-0.008
-433.690	123.824	0.137	-0.174
-432.676	-200.000	0.019	0.178
-431.661	-66.567	-0.073	-0.029
-430.646	-95.861	0.094	-0.025
-429.632	-200.000	-0.020	0.101
-428.617	0.235	0.108	-0.077
-427.603	71.799	0.184	-0.193
-426.588	502.590	0.124	0.289
-425.573	142.997	0.023	0.030
-424.559	322.960	0.036	-0.070
-423.544	-29.652	-0.080	0.046
-422.530	183.976	-0.121	0.180
-421.515	800.000	-0.047	-0.194
-420.500	-28.254	0.096	0.056
-419.486	-85.418	0.297	0.093
-418.471	-200.000	0.001	0.188
-417.457	34.788	-0.204	-0.180
-416.442	46.197	0.077	-0.072
-415.428	386.634	-0.118	0.246
-414.413	-96.440	0.203	0.054
-413.398	212.134	-0.072	0.114
-412.384	-17.757	-0.269	-0.171
-411.369	-200.000	0.010	0.145
-410.355	-200.000	0.024	0.350
-409.340	800.000	-0.011	0.034
-408.325	159.428	0.172	-0.241
-407.311	220.188	0.113	0.182
-406.296	-200.000	0.046	-0.244
-405.282	-62.462	0.212	0.089
-404.267	-200.000	-0.004	-0.110
-403.252	-74.398	-0.311	-0.113
-402.238	-150.821	0.321	0.025
-401.223	-49.669	-0.030	-0.014
-400.209	192.702	-0.037	0.056
-399.194	402.764	0.147	0.311
-398.179	85.790	0.136	-0.151
-397.165	-95.177	-0.155	0.042
-396.150	-200.000	-0.006	-0.309
-395.136	102.684	0.061	-0.072
-394.121	-63.393	0.284	-0.118
-393.106	-75.859	-0.488	0.174
-392.092	493.214	0.036	0.082
-391.077	-162.581	-0.170	-0.008
-390.063	800.000	0.039	-0.139
-389.048	-200.000	-0.018	-0.145
-388.033	-26.465	0.207	-0.123
-387.019	-103.634	-0.208	-0.049
-386.004	67.204	0.152	0.156
-384.990	277.368	-0.097	0.173
-383.975	-200.000	0.038	-0.221
-382.960	-173.465	0.171	0.005
-381.946	25.793	-0.026	0.022
-380.931	-139.555	-0.254	-0.027
-379.917	-33.314	0.347	-0.193
-378.902	227.748	0.080	0.130
-377.888	183.307	-0.055	-0.082
-376.873	-14.993	-0.135	0.088
-375.858	-68.642	-0.261	-0.102
-374.844	-196.371	0.215	-0.001
-373.829	-0.516	-0.146	-0.105
-372.815	-121.128	-0.125	-0.021
-371.800	58.580	-0.068	-0.068
-370.785	-112.338	0.101	-0.020
-369.771	-126.186	0.249	0.037
-368.756	543.878	-0.311	0.749
-367.742	291.498	0.127	0.234
-366.727	68.374	0.151	-0.156
-365.712	-24.701	-0.101	-0.060
-364.698	26.507	0.194	0.164
-363.683	191.704	0.037	0.056
-362.669	212.464	0.067	-0.107
-361.654	-39.066	0.168	-0.089
-360.639	-68.992	-0.059	-0.023
-359.625	-104.162	-0.206	-0.048
-358.610	1.641	-0.139	-0.101
-357.596	117.154	-0.155	0.192
-356.581	-131.386	0.455	0.061
-355.566	235.283	0.149	-0.248
-354.552	-200.000	-0.031	0.166
-353.537	-200.000	0.026	-0.277
-352.523	-65.462	0.136	-0.055
-351.508	78.726	-0.149	-0.160
-350.493	-29.587	0.052	-0.030
-349.479	88.691	-0.121	0.135
-348.464	57.150	0.107	-0.105
-347.450	677.416	-0.083	-0.218
-346.435	703.682	0.078	-0.206
-345.420	453.256	-0.061	-0.136
-344.406	-200.000	-0.066	-0.319
-343.391	56.422	-0.157	0.153
-342.377	-200.000	-0.003	0.062
-341.362	58.245	0.162	-0.160
-340.348	310.943	-0.089	-0.167
-339.333	266.453	0.123	-0.216
-338.318	236.497	0.077	-0.128
-337.304	-40.403	-0.239	0.125
-336.289	-10.787	-0.043	-0.029
-335.275	721.434	0.093	-0.250
-334.260	-66.229	-0.106	0.043
-333.245	96.812	-0.073	0.084
-332.231	56.755	0.109	0.107
-331.216	-95.164	0.009	-0.003
-330.202	-38.313	-0.221	0.118
-329.187	-83.694	0.032	0.010
-328.172	11.767	0.101	0.078
-327.158	-79.450	-0.259	-0.088
-326.143	120.816	-0.019	-0.024
-325.129	800.000	0.021	0.070
-324.114	-200.000	-0.011	0.114
-323.099	800.000	-0.057	0.205
-322.085	-50.258	-0.211	0.100
-321.070	-92.430	0.098	0.028
-320.056	127.584	0.086	0.109
-319.041	800.000	0.080	0.261
-318.026	64.442	-0.155	0.157
-317.012	16.518	0.058	-0.046
-315.997	-13.361	-0.133	0.087
-314.983	-132.037	0.163	0.021
-313.968	800.000	0.020	0.062
-312.953	60.283	-0.221	-0.220
-311.939	-200.000	0.026	-0.343
-310.924	-59.757	-0.380	-0.164
-309.910	-3.909	0.103	-0.072
-308.895	-107.065	-0.205	-0.046
-307.880	-140.473	0.196	0.020
-306.866	330.749	-0.126	0.244
-305.851	-200.000	0.004	-0.199
-304.837	-200.000	0.012	0.107
-303.822	587.179	0.126	-0.312
-302.807	384.269	-0.048	-0.100
-301.793	-10.603	0.136	-0.090
-300.778	295.869	-0.076	-0.139
-299.764	486.492	-0.098	-0.224
-298.749	321.042	0.050	0.095
-297.735	-200.000	0.043	0.366
-296.720	-129.106	-0.218	0.031
-295.705	33.897	0.146	-0.127
-294.691	-38.140	-0.242	-0.129
-293.676	294.587	-0.026	0.047
-292.662	-60.933	0.178	0.076
-291.647	240.138	0.135	-0.226
-290.632	496.737	-0.107	0.248
-289.618	-28.311	-0.211	0.123
-288.603	318.361	0.047	0.089
-287.589	-65.527	0.245	0.099
-286.574	-11.747	-0.194	-0.128
-285.559	538.455	-0.040	-0.096
-284.545	107.957	0.198	0.237
-283.530	25.642	-0.208	-0.174
-282.516	-200.000	-0.024	-0.224
-281.501	-83.455	-0.565	0.182
-280.486	-127.977	-0.134	0.019
-279.472	624.739	-0.101	-0.256
-278.457	-131.028	0.121	-0.016
-277.443	-200.000	-0.021	-0.250
-276.428	-66.561	0.111	0.044
-275.413	-134.248	0.192	-0.024
-274.399	183.284	0.098	0.145
-273.384	449.693	-0.039	0.087
-272.370	82.136	0.280	0.305
-271.355	-71.259	0.224	-0.084
-270.340	-10.879	0.192	-0.128
-269.326	-133.535	0.139	0.018
-268.311	-112.733	0.077	0.015
-267.297	426.376	0.037	0.081
-266.282	-77.114	-0.098	0.034
-265.267	164.303	0.028	-0.040
-264.253	350.862	-0.159	0.316
-263.238	-200.000	-0.043	-0.309
-262.224	-77.658	0.068	0.024
-261.209	170.845	-0.134	-0.193
-260.195	500.766	-0.048	0.111
-259.180	3.889	0.066	0.048
-258.165	137.349	-0.071	-0.093
-257.151	800.000	-0.040	0.170
-256.136	274.140	-0.102	0.180
-255.122	-96.898	-0.266	0.070
-254.107	800.000	0.054	-0.178
-253.092	-67.344	0.272	-0.107
-252.078	800.000	-0.096	0.297
-251.063	-19.736	0.333	-0.207
-250.049	-152.534	-0.277	-0.020
-249.034	-171.980	0.096	-0.003
-248.019	-16.316	0.055	0.035
-247.005	-48.565	-0.269	-0.130
-245.990	-50.575	0.216	0.102
-244.976	-200.000	0.016	0.267
-243.961	-200.000	0.009	0.081
-242.946	-200.000	-0.008	-0.164
-241.932	-34.653	-0.367	-0.202
-240.917	237.884	-0.163	-0.271
-239.903	-132.616	0.378	-0.049
-238.888	113.165	0.202	0.246
-237.873	269.675	-0.205	0.361
-236.859	-179.855	0.234	0.005
-235.844	-128.151	0.306	-0.044
-234.830	-200.000	0.016	-0.257
-233.815	16.650	0.223	-0.177
-232.800	800.000	0.074	0.228
-231.786	-99.906	0.247	0.062
-230.771	-98.232	0.322	0.083
-229.757	-200.000	0.013	-0.158
-228.742	-118.443	-0.296	0.053
-227.727	-200.000	0.010	-0.090
-226.713	-80.977	0.071	0.024
-225.698	-95.096	-0.429	-0.116
-224.684	43.109	-0.139	0.127
-223.669	28.350	0.212	-0.180
-222.655	-97.689	0.287	0.074
-221.640	-41.261	-0.265	0.137
-220.625	39.328	-0.025	0.022
-219.611	31.510	0.145	-0.125
-218.596	118.060	0.122	-0.151
-217.582	-200.000	-0.007	0.221
-216.567	62.211	-0.030	-0.030
-215.552	69.895	0.217	-0.224
-214.538	407.239	0.061	0.130
-213.523	-112.273	0.393	0.079
-212.509	-200.000	-0.060	-0.322
-211.494	-200.000	-0.066	-0.482
-210.479	4.544	-0.151	-0.111
-209.465	368.446	-0.170	0.343
-208.450	-200.000	-0.062	-0.349
-207.436	471.003	-0.042	-0.094
-206.421	172.403	0.050	0.071
-205.406	-200.000	0.038	-0.318
-204.392	291.875	-0.105	-0.191
-203.377	197.695	0.066	0.101
-202.363	-107.118	0.368	0.081
-201.348	800.000	-0.121	0.367
-200.333	-200.000	-0.008	0.286
-199.319	-200.000	-0.042	0.291
-198.304	532.534	0.124	0.293
-197.290	-40.400	0.116	0.060
-196.275	375.992	0.149	0.304
-195.260	-24.264	-0.066	0.039
-194.246	216.422	-0.241	0.384
-193.231	-200.000	0.000	0.220
-192.217	224.034	0.040	0.064
-191.202	-28.753	-0.400	0.230
-190.187	-32.985	0.059	0.033
-189.173	-89.501	-0.101	-0.030
-188.158	473.904	0.097	-0.220
-187.144	800.000	-0.081	-0.338
-186.129	-200.000	-0.041	0.294
-185.114	-200.000	0.015	0.271
-184.100	-87.993	-0.125	-0.038
-183.085	-60.271	0.163	-0.069
-182.071	-200.000	-0.015	0.155
-181.056	800.000	0.035	0.145
-180.042	112.783	0.112	-0.135
-179.027	543.524	-0.075	0.180
-178.012	-102.726	-0.182	0.043
-176.998	-71.342	0.111	0.042
-175.983	136.456	-0.157	0.205
-174.969	13.185	0.049	0.038
-173.954	-31.825	-0.302	-0.169
-172.939	122.829	-0.098	0.123
-171.925	258.316	-0.122	0.210
-170.910	-102.731	-0.191	0.046
-169.896	800.000	0.033	0.106
-168.881	-43.531	-0.039	-0.019
-167.866	39.812	0.308	0.276
-166.852	-200.000	0.020	0.190
-165.837	-44.829	0.141	-0.070
-164.823	800.000	-0.098	0.311
-163.808	207.943	0.049	-0.076
-162.793	-85.661	0.162	0.050
-161.779	-144.126	-0.222	-0.021
-160.764	-111.835	-0.204	0.041
-159.750	-116.483	0.032	-0.006
-158.735	406.582	0.141	0.298
-157.720	-200.000	0.018	-0.094
-156.706	-200.000	0.018	0.080
-155.691	112.784	0.181	-0.219
-154.677	-134.905	-0.198	0.024
-153.662	362.047	0.197	-0.396
-152.647	-122.034	-0.355	-0.058
-151.633	-61.826	-0.094	0.039
-150.618	-200.000	0.001	-0.198
-149.604	-104.882	-0.214	0.049
-148.589	220.605	-0.061	0.098
-147.574	689.829	-0.078	0.204
-146.560	577.449	0.050	0.122
-145.545	800.000	-0.076	0.255
-144.531	-86.631	-0.442	-0.135
-143.516	-200.000	-0.011	0.363
-142.502	139.156	0.078	0.102
-141.487	77.620	0.271	-0.289
-140.472	-116.405	-0.516	0.095
-139.458	113.200	0.077	0.094
-138.443	800.000	0.031	-0.126
-137.429	20.292	0.215	-0.173
-136.414	800.000	-0.028	0.116
-135.399	-140.744	0.176	0.018
-134.385	800.000	-0.054	0.149
-133.370	17.603	-0.358	-0.284
-132.356	-67.157	0.183	-0.072
-131.341	-173.884	0.357	0.011
-130.326	-200.000	-0.043	0.350
-129.312	-200.000	0.014	-0.116
-128.297	-200.000	-0.012	-0.202
-127.283	155.428	0.232	-0.319
-126.268	45.026	0.132	-0.121
-125.253	-85.412	0.091	0.028
-124.239	-55.534	0.273	0.122
-123.224	121.402	0.237	0.295
-122.210	-64.983	0.240	-0.097
