DTS Sentinel unit serial number:	SN413079Multiplexer serial number:	ORYXHardware model number:	OX4-SRSoftware version number:	ORYX F/W v4.00 Oryx Data Collector v3.7.2.0data status	okinstallation	princeton_trtdifferential loss correction	single-endedforward channel	channel 3reverse channel	N/Adate	2019/09/18time	00:40:35forward acquisition time	60.00reverse acquisition time	0.00gamma	496.2192k internal	0.2344k external	0.2344temperature offset calibration	0.9948default loss term (dB/km)	0.3790temperature slope calibration	1.0000multiplexer offset coefficient	1.0000multiplexer slope coefficient	1.0000fibre end	0.00T internal ref (°C)	23.44T ext. ref 1 (°C)	0.16T ext. ref 2 (°C)	17.11length (m)	temperature (°C)	Stokes	anti-Stokes-747.200	620.940	0.097	0.245
-746.185	-200.000	0.035	0.264
-745.171	318.668	0.112	-0.213
-744.156	-42.388	-0.176	-0.090
-743.142	-71.176	0.248	0.093
-742.127	-85.600	-0.567	0.176
-741.112	-115.287	-0.081	-0.015
-740.098	103.345	-0.225	0.264
-739.083	800.000	0.162	0.535
-738.069	800.000	0.122	0.345
-737.054	69.345	-0.085	0.087
-736.039	-142.268	-0.201	0.020
-735.025	-85.666	0.299	0.093
-734.010	479.271	0.018	-0.040
-732.996	-200.000	-0.046	-0.246
-731.981	146.529	-0.167	-0.225
-730.966	-76.683	-0.292	0.103
-729.952	66.082	-0.178	-0.181
-728.937	-109.936	-0.178	-0.037
-727.923	20.843	-0.247	-0.200
-726.908	795.620	0.055	0.153
-725.894	152.226	-0.053	-0.073
-724.879	-200.000	-0.037	-0.167
-723.864	68.521	0.114	-0.116
-722.850	44.640	-0.096	0.088
-721.835	-56.997	-0.156	0.069
-720.821	-163.617	0.208	0.010
-719.806	17.581	-0.272	-0.216
-718.791	494.677	0.080	-0.184
-717.777	-136.460	-0.147	0.017
-716.762	145.513	0.097	0.130
-715.748	-59.174	-0.264	0.114
-714.733	-97.152	0.173	0.045
-713.718	-79.155	0.331	-0.112
-712.704	93.229	0.066	-0.075
-711.689	-20.394	0.152	0.094
-710.675	262.830	0.041	0.072
-709.660	61.662	-0.327	0.325
-708.645	53.624	-0.131	0.126
-707.631	64.084	-0.098	0.098
-706.616	-98.790	0.167	-0.043
-705.602	-200.000	0.079	-0.362
-704.587	100.870	0.067	0.077
-703.572	25.469	0.241	0.200
-702.558	87.634	0.030	0.033
-701.543	-97.193	-0.309	0.081
-700.529	-146.834	-0.567	0.049
-699.514	-70.409	-0.164	0.062
-698.499	334.032	-0.068	0.131
-697.485	40.046	-0.174	-0.156
-696.470	346.607	0.054	-0.105
-695.456	57.434	-0.185	0.180
-694.441	35.441	-0.028	0.024
-693.426	771.291	-0.057	0.156
-692.412	-78.115	0.084	-0.029
-691.397	-182.451	-0.054	0.001
-690.383	800.000	-0.033	0.117
-689.368	163.410	0.106	-0.149
-688.354	800.000	0.067	0.202
-687.339	-122.752	0.068	0.011
-686.324	-40.077	0.137	0.071
-685.310	357.101	-0.027	0.054
-684.295	-134.750	-0.168	0.020
-683.281	800.000	0.015	-0.046
-682.266	-200.000	-0.006	-0.125
-681.251	-16.890	-0.248	-0.157
-680.237	-30.619	0.060	-0.034
-679.222	456.727	0.164	-0.363
-678.208	199.584	-0.194	0.298
-677.193	567.147	-0.180	-0.436
-676.178	-108.759	0.316	-0.067
-675.164	157.848	-0.168	0.232
-674.149	-200.000	0.011	-0.278
-673.135	382.648	-0.142	-0.292
-672.120	-200.000	0.070	0.333
-671.105	145.080	-0.118	-0.158
-670.091	368.467	-0.034	-0.069
-669.076	184.151	-0.088	0.131
-668.062	48.434	0.210	-0.196
-667.047	-200.000	-0.013	0.091
-666.032	-137.503	-0.079	-0.009
-665.018	-56.241	-0.228	0.101
-664.003	-200.000	-0.023	-0.179
-662.989	-122.864	-0.378	0.061
-661.974	800.000	-0.036	-0.139
-660.959	-200.000	-0.022	-0.165
-659.945	-118.241	0.308	0.055
-658.930	155.663	-0.203	-0.279
-657.916	-109.641	0.086	0.018
-656.901	800.000	0.044	-0.129
-655.886	-123.709	-0.363	-0.057
-654.872	800.000	-0.021	0.069
-653.857	-78.914	0.309	0.105
-652.843	201.273	-0.155	0.238
-651.828	708.901	-0.046	-0.122
-650.814	-200.000	0.018	0.133
-649.799	634.484	-0.045	0.115
-648.784	-129.736	0.204	0.028
-647.770	20.859	0.122	0.099
-646.755	-116.687	0.258	0.047
-645.741	89.267	0.033	0.037
-644.726	-92.688	-0.119	-0.033
-643.711	-200.000	0.057	-0.273
-642.697	-169.630	-0.171	0.006
-641.682	308.990	0.137	0.255
-640.668	-39.280	-0.144	0.075
-639.653	362.363	0.216	-0.433
-638.638	34.610	-0.244	0.213
-637.624	-7.270	0.039	-0.027
-636.609	-50.248	-0.268	-0.127
-635.595	-14.382	-0.109	0.070
-634.580	361.867	0.092	0.184
-633.565	584.520	0.080	0.195
-632.551	390.865	0.183	-0.378
-631.536	-60.148	-0.096	0.041
-630.522	43.795	0.238	0.217
-629.507	-82.733	0.172	-0.055
-628.492	-37.265	-0.278	-0.148
-627.478	-58.818	-0.165	-0.071
-626.463	356.124	0.035	0.069
-625.449	-200.000	0.313	0.001
-624.434	-104.177	-0.205	0.047
-623.419	-64.880	0.101	0.041
-622.405	800.000	0.024	0.096
-621.390	270.846	-0.073	-0.128
-620.376	-200.000	-0.005	-0.231
-619.361	-104.028	0.036	-0.008
-618.346	130.687	0.036	0.046
-617.332	-128.696	-0.494	0.069
-616.317	-15.233	0.218	0.139
-615.303	51.933	-0.188	-0.178
-614.288	77.098	0.054	0.057
-613.273	-142.462	0.077	-0.008
-612.259	800.000	-0.033	-0.133
-611.244	267.245	-0.059	0.103
-610.230	294.794	-0.167	-0.305
-609.215	-125.408	-0.330	-0.050
-608.201	-62.735	-0.126	0.052
-607.186	132.754	-0.082	-0.105
-606.171	217.784	0.078	0.124
-605.157	-200.000	-0.001	0.079
-604.142	-37.456	0.087	0.046
-603.128	-85.909	0.043	0.013
-602.113	-200.000	0.020	0.296
-601.098	67.012	0.123	0.125
-600.084	-41.447	-0.403	0.206
-599.069	-24.143	-0.254	-0.151
-598.055	-19.291	-0.181	-0.112
-597.040	36.630	-0.053	0.046
-596.025	-115.274	-0.152	-0.029
-595.011	-200.000	0.061	-0.509
-593.996	-16.713	-0.121	-0.076
-592.982	519.158	0.079	0.185
-591.967	246.386	-0.223	-0.374
-590.952	-43.158	-0.174	-0.087
-589.938	800.000	0.085	-0.311
-588.923	-147.648	0.144	0.012
-587.909	800.000	-0.067	-0.225
-586.894	-200.000	0.004	-0.083
-585.879	-104.986	-0.291	0.066
-584.865	11.600	0.083	0.064
-583.850	-54.844	0.145	0.065
-582.836	-61.574	-0.300	-0.125
-581.821	82.713	0.110	0.119
-580.806	135.776	-0.052	0.068
-579.792	-200.000	-0.008	-0.211
-578.777	678.970	0.021	0.056
-577.763	82.418	-0.120	-0.130
-576.748	157.144	0.244	-0.336
-575.733	51.910	-0.121	0.114
-574.719	-144.318	0.106	0.010
-573.704	-56.785	0.083	0.036
-572.690	-200.000	0.027	0.274
-571.675	-51.054	0.223	-0.104
-570.661	-200.000	-0.008	-0.129
-569.646	-59.455	-0.194	0.083
-568.631	54.125	-0.284	0.272
-567.617	56.205	-0.246	0.237
-566.602	-27.286	0.192	-0.111
-565.588	298.426	-0.238	-0.435
-564.573	97.592	0.182	-0.208
-563.558	-43.607	-0.250	-0.125
-562.544	-200.000	-0.029	-0.473
-561.529	148.148	0.081	0.109
-560.515	-77.472	-0.199	-0.068
-559.500	167.694	-0.076	0.108
-558.485	499.745	0.145	0.333
-557.471	676.700	0.033	0.086
-556.456	-135.607	0.175	0.021
-555.442	-22.459	-0.100	-0.060
-554.427	-200.000	0.042	0.201
-553.412	24.649	0.268	-0.220
-552.398	-107.897	-0.013	0.003
-551.383	-69.790	0.219	0.083
-550.369	-59.425	-0.215	-0.092
-549.354	453.401	-0.052	-0.113
-548.339	800.000	-0.023	-0.090
-547.325	-82.162	-0.231	-0.075
-546.310	186.498	-0.169	-0.250
-545.296	51.420	0.145	-0.137
-544.281	-122.686	0.262	-0.042
-543.266	800.000	0.031	-0.105
-542.252	-200.000	0.007	-0.076
-541.237	-186.724	-0.247	-0.003
-540.223	800.000	-0.053	-0.182
-539.208	-97.928	-0.106	0.027
-538.193	800.000	-0.102	-0.328
-537.179	-200.000	0.046	-0.294
-536.164	-81.713	-0.238	-0.077
-535.150	-130.503	0.174	0.023
-534.135	-147.782	0.136	0.011
-533.121	-200.000	0.035	-0.253
-532.106	-72.116	-0.157	0.058
-531.091	54.476	-0.086	0.083
-530.077	-15.605	0.087	0.055
-529.062	-113.765	0.230	0.044
-528.048	318.547	0.065	-0.122
-527.033	-12.885	-0.290	-0.187
-526.018	-138.256	-0.375	-0.041
-525.004	-92.132	0.230	-0.064
-523.989	-91.944	0.455	0.128
-522.975	-195.982	-0.153	-0.001
-521.960	-200.000	0.102	0.510
-520.945	800.000	0.050	0.171
-519.931	-53.945	0.244	0.110
-518.916	14.614	0.130	0.101
-517.902	-47.822	-0.247	0.119
-516.887	148.736	0.042	0.056
-515.872	-200.000	0.062	0.361
-514.858	-128.246	0.183	0.026
-513.843	219.959	0.074	-0.118
-512.829	5.600	0.241	-0.177
-511.814	25.626	-0.065	0.053
-510.799	-200.000	-0.009	-0.091
-509.785	58.509	0.382	-0.372
-508.770	113.208	0.228	-0.274
-507.756	-200.000	-0.008	0.276
-506.741	104.119	-0.122	0.142
-505.726	664.241	0.144	-0.369
-504.712	-54.151	-0.166	0.075
-503.697	-103.202	0.160	0.038
-502.683	800.000	0.081	0.237
-501.668	368.791	0.084	0.169
-500.653	306.527	-0.089	0.164
-499.639	-112.945	0.246	-0.048
-498.624	800.000	0.041	0.162
-497.610	-32.733	-0.233	0.128
-496.595	-77.187	0.175	-0.060
-495.581	-89.734	0.168	-0.049
-494.566	-76.221	-0.187	0.065
-493.551	117.799	0.152	-0.185
-492.537	-200.000	0.065	-0.301
-491.522	-200.000	-0.044	0.226
-490.508	106.898	0.115	-0.135
-489.493	-200.000	0.065	-0.308
-488.478	127.552	-0.172	-0.216
-487.464	418.717	-0.249	0.527
-486.449	-200.000	0.052	-0.364
-485.435	-200.000	0.018	-0.149
-484.420	412.455	0.063	-0.133
-483.405	800.000	-0.061	0.239
-482.391	-4.206	0.207	-0.142
-481.376	-57.068	-0.405	0.177
-480.362	-95.680	-0.240	0.064
-479.347	13.362	0.116	-0.089
-478.332	-16.739	-0.208	0.130
-477.318	-163.582	-0.037	-0.002
-476.303	294.466	-0.040	0.072
-475.289	-76.745	0.208	0.072
-474.274	-200.000	0.012	0.096
-473.259	800.000	0.107	0.390
-472.245	35.215	0.040	0.035
-471.230	117.252	-0.352	0.428
-470.216	800.000	-0.099	-0.294
-469.201	-200.000	0.005	0.100
-468.186	89.177	-0.126	-0.138
-467.172	-28.164	-0.104	0.059
-466.157	270.639	-0.126	0.220
-465.143	-200.000	0.036	0.179
-464.128	129.081	-0.223	0.282
-463.113	-80.083	-0.023	0.008
-462.099	553.866	0.134	0.319
-461.084	-135.800	-0.445	-0.052
-460.070	66.495	0.156	-0.157
-459.055	800.000	0.044	0.188
-458.040	22.693	0.203	0.164
-457.026	-78.822	-0.305	-0.103
-456.011	-56.657	0.116	-0.051
-454.997	-45.518	-0.203	0.099
-453.982	160.792	0.235	0.325
-452.968	-200.000	-0.002	0.167
-451.953	-200.000	0.037	0.199
-450.938	-76.952	-0.064	-0.022
-449.924	-13.964	0.147	0.094
-448.909	-167.179	-0.251	-0.010
-447.895	-122.747	0.090	-0.014
-446.880	413.861	-0.165	-0.348
-445.865	38.971	-0.172	0.152
-444.851	-36.883	-0.102	-0.054
-443.836	154.218	0.065	0.088
-442.822	402.871	0.224	0.466
-441.807	116.786	-0.262	0.318
-440.792	82.891	-0.085	-0.092
-439.778	-131.710	0.191	-0.025
-438.763	-99.175	-0.341	-0.085
-437.749	-200.000	0.020	-0.280
-436.734	160.305	0.065	-0.089
-435.719	-13.919	0.139	0.089
-434.705	4.930	-0.111	-0.081
-433.690	-20.596	-0.123	0.074
-432.676	800.000	-0.193	-0.538
-431.661	58.934	-0.056	0.054
-430.646	-143.148	-0.127	-0.012
-429.632	32.616	0.396	-0.338
-428.617	-200.000	0.024	-0.187
-427.603	123.167	0.054	0.066
-426.588	-200.000	0.014	0.150
-425.573	-45.081	0.136	-0.067
-424.559	-136.745	-0.138	0.016
-423.544	723.940	-0.110	0.289
-422.530	-59.080	-0.133	-0.057
-421.515	-39.725	0.127	0.066
-420.500	800.000	-0.031	-0.090
-419.486	-16.764	0.458	0.286
-418.471	800.000	0.043	-0.133
-417.457	-16.892	-0.153	0.096
-416.442	-77.729	0.225	0.077
-415.428	-40.405	0.037	-0.019
-414.413	-53.603	-0.247	0.111
-413.398	-186.356	-0.216	0.003
-412.384	-200.000	-0.046	0.386
-411.369	-200.000	-0.050	-0.272
-410.355	800.000	-0.067	-0.201
-409.340	128.339	-0.363	0.457
-408.325	-30.727	0.148	0.083
-407.311	-52.188	-0.184	0.084
-406.296	173.845	-0.378	0.540
-405.282	123.479	0.173	-0.215
-404.267	-84.552	-0.099	0.031
-403.252	27.158	-0.165	-0.137
-402.238	-36.232	-0.312	0.166
-401.223	72.443	0.235	-0.242
-400.209	-200.000	0.022	-0.229
-399.194	50.896	0.172	-0.161
-398.179	98.865	-0.112	-0.128
-397.165	-0.016	-0.061	0.043
-396.150	217.999	-0.104	0.164
-395.136	-200.000	-0.065	-0.297
-394.121	800.000	0.006	0.024
-393.106	53.163	-0.271	-0.256
-392.092	-139.876	0.078	0.008
-391.077	-200.000	0.019	0.118
-390.063	800.000	-0.074	-0.279
-389.048	422.302	0.124	0.263
-388.033	-200.000	0.049	-0.525
-387.019	-125.643	-0.294	-0.044
-386.004	28.722	0.114	-0.095
-384.990	-58.706	0.328	-0.140
-383.975	-113.848	0.371	0.071
-382.960	1.952	0.098	0.070
-381.946	-200.000	-0.008	-0.144
-380.931	-170.253	-0.131	0.005
-379.917	-200.000	0.206	0.001
-378.902	-200.000	0.000	-0.113
-377.888	-200.000	0.019	0.101
-376.873	-101.721	-0.328	0.078
-375.858	119.318	-0.065	-0.080
-374.844	89.925	0.130	-0.143
-373.829	175.981	-0.154	-0.220
-372.815	444.147	0.077	-0.166
-371.800	-121.581	-0.095	-0.016
-370.785	800.000	-0.036	-0.137
-369.771	40.106	0.055	0.049
-368.756	800.000	-0.050	0.203
-367.742	800.000	0.026	-0.106
-366.727	-200.000	0.025	0.341
-365.712	150.986	0.045	0.061
-364.698	10.421	-0.187	0.141
-363.683	-176.873	0.043	0.001
-362.669	-75.070	-0.206	0.073
-361.654	-156.009	0.168	-0.010
-360.639	800.000	-0.095	0.328
-359.625	227.601	-0.061	0.098
-358.610	-26.463	0.349	0.202
-357.596	121.883	0.190	-0.234
-356.581	-200.000	-0.002	0.055
-355.566	244.101	-0.060	-0.099
-354.552	-200.000	-0.282	0.001
-353.537	-71.979	0.234	0.086
-352.523	463.806	0.044	-0.098
-351.508	-200.000	-0.016	0.072
-350.493	-200.000	-0.042	0.289
-349.479	-29.963	-0.097	-0.055
-348.464	800.000	0.081	0.288
-347.450	100.301	-0.300	0.343
-346.435	61.503	0.216	0.212
-345.420	446.376	-0.099	-0.215
-344.406	12.949	0.191	0.146
-343.391	-200.000	-0.027	-0.391
-342.377	-200.000	-0.020	-0.105
-341.362	-200.000	-0.036	0.184
-340.348	57.437	0.149	0.143
-339.333	-200.000	-0.015	0.234
-338.318	-200.000	0.018	0.301
-337.304	326.964	0.045	0.085
-336.289	37.362	0.358	-0.313
-335.275	226.961	0.075	0.120
-334.260	800.000	0.114	0.329
-333.245	-150.128	-0.213	-0.016
-332.231	-170.359	-0.295	0.010
-331.216	-132.359	0.290	-0.037
-330.202	-93.729	-0.227	-0.062
-329.187	-200.000	0.002	-0.016
-328.172	424.543	-0.062	0.131
-327.158	-200.000	-0.008	-0.228
-326.143	-200.000	-0.021	-0.132
-325.129	-166.569	0.077	0.003
-324.114	4.234	0.085	-0.061
-323.099	-80.206	0.078	0.026
-322.085	151.014	0.296	0.397
-321.070	-200.000	0.065	0.428
-320.056	-95.480	-0.380	0.100
-319.041	464.309	-0.014	0.030
-318.026	33.022	0.281	-0.239
-317.012	-168.734	0.095	-0.004
-315.997	293.683	-0.058	0.105
-314.983	-86.775	0.438	-0.132
-313.968	-200.000	-0.013	0.178
-312.953	-102.152	0.182	0.043
-311.939	-185.756	-0.128	0.002
-310.924	-134.343	0.262	-0.032
-309.910	800.000	0.019	-0.064
-308.895	-52.174	0.374	-0.171
-307.880	-24.337	0.235	-0.138
-306.866	-130.090	0.201	0.027
-305.851	-200.000	0.025	0.113
-304.837	-110.641	-0.403	-0.082
-303.822	-62.690	0.201	0.082
-302.807	71.795	-0.084	0.086
-301.793	397.941	0.216	-0.444
-300.778	65.517	0.132	-0.132
-299.764	-19.113	0.352	0.215
-298.749	31.536	0.035	-0.030
-297.735	255.301	0.048	-0.081
-296.720	141.218	-0.038	0.049
-295.705	278.975	-0.077	-0.136
-294.691	-84.560	-0.058	-0.018
-293.676	-200.000	0.020	-0.130
-292.662	-200.000	-0.031	0.271
-291.647	34.098	-0.128	0.110
-290.632	2.762	-0.007	-0.005
-289.618	-25.829	0.274	-0.159
-288.603	63.502	-0.270	-0.266
-287.589	73.786	-0.117	-0.120
-286.574	-167.432	-0.170	0.007
-285.559	17.050	-0.289	-0.225
-284.545	-81.906	-0.110	-0.035
-283.530	30.179	-0.091	-0.076
-282.516	-142.778	-0.126	0.012
-281.501	-81.181	0.411	0.133
-280.486	-200.000	0.002	-0.155
-279.472	-96.202	0.142	-0.037
-278.457	75.446	-0.145	-0.151
-277.443	-188.197	0.353	0.004
-276.428	17.908	0.252	0.197
-275.413	-74.370	0.258	0.091
-274.399	59.241	0.084	0.081
-273.384	-50.351	-0.182	0.084
-272.370	8.501	0.242	-0.179
-271.355	-80.042	0.376	0.124
-270.340	-200.000	-0.012	-0.533
-269.326	-65.553	-0.193	-0.076
-268.311	267.648	-0.144	0.248
-267.297	297.113	-0.101	0.181
-266.282	34.060	0.054	-0.047
-265.267	-0.750	0.270	-0.188
-264.253	675.320	0.045	-0.114
-263.238	800.000	-0.028	0.113
-262.224	-11.364	0.036	0.023
-261.209	-81.360	-0.384	0.124
-260.195	265.416	0.038	-0.065
-259.180	89.766	-0.067	0.074
-258.165	800.000	0.049	-0.138
-257.151	192.547	-0.076	0.113
-256.136	-200.000	0.012	-0.184
-255.122	83.055	-0.083	-0.088
-254.107	14.651	0.152	-0.117
-253.092	-27.969	-0.072	-0.041
-252.078	-200.000	-0.041	0.329
-251.063	800.000	-0.079	-0.238
-250.049	-200.000	0.006	-0.090
-249.034	33.686	-0.100	0.085
-248.019	-32.885	0.160	-0.087
-247.005	800.000	-0.053	-0.208
-245.990	229.540	-0.132	0.211
-244.976	91.686	-0.038	0.042
-243.961	-200.000	-0.018	0.143
-242.946	800.000	0.096	-0.314
-241.932	457.766	-0.025	-0.054
-240.917	54.352	-0.094	-0.089
-239.903	48.656	-0.097	-0.090
-238.888	317.825	-0.095	-0.177
-237.873	-41.430	0.086	-0.044
-236.859	-200.000	-0.004	0.275
-235.844	800.000	-0.124	0.505
-234.830	42.928	0.101	0.090
-233.815	-200.000	0.030	0.330
-232.800	-77.490	-0.171	0.058
-231.786	-56.857	0.077	0.033
-230.771	-16.777	-0.117	0.072
-229.757	-145.349	-0.314	0.028
-228.742	-180.497	-0.141	-0.003
-227.727	376.888	0.124	-0.247
-226.713	96.477	-0.265	-0.298
-225.698	800.000	-0.089	0.263
-224.684	67.748	0.227	-0.227
-223.669	614.425	-0.079	-0.194
-222.655	261.370	0.186	-0.316
-221.640	-2.506	0.103	-0.071
-220.625	85.881	-0.041	0.044
-219.611	51.864	-0.306	-0.285
-218.596	125.551	0.059	0.073
-217.582	-200.000	-0.004	-0.229
-216.567	75.165	-0.173	-0.179
-215.552	-29.101	0.105	-0.059
-214.538	569.836	0.082	0.194
-213.523	-200.000	-0.040	0.328
-212.509	-154.382	-0.211	0.014
-211.494	-200.000	0.043	0.299
-210.479	-200.000	0.043	0.210
-209.465	167.218	-0.158	-0.219
-208.450	81.055	-0.078	0.083
-207.436	-123.465	-0.113	-0.018
-206.421	-130.872	0.202	0.027
-205.406	-43.447	0.122	0.061
-204.392	161.472	-0.146	-0.201
-203.377	243.582	0.131	0.215
-202.363	506.513	-0.068	-0.155
-201.348	-74.676	0.227	0.080
-200.333	-164.719	-0.159	-0.007
-199.319	-29.695	-0.143	-0.080
-198.304	-200.000	0.063	-0.404
-197.290	29.391	-0.098	0.081
-196.275	-74.580	0.093	0.033
-195.260	-116.502	0.307	-0.055
-194.246	-77.564	-0.230	-0.078
-193.231	-143.765	0.212	0.020
-192.217	218.748	0.268	0.419
-191.202	-52.688	-0.186	0.084
-190.187	129.963	-0.194	-0.243
-189.173	-107.110	0.246	-0.053
-188.158	320.692	-0.068	-0.127
-187.144	69.389	0.144	0.145
-186.129	-47.475	-0.092	-0.044
-185.114	-81.358	0.016	-0.005
-184.100	233.970	0.104	-0.168
-183.085	800.000	0.040	0.128
-182.071	340.247	-0.091	-0.174
-181.056	1.204	0.300	-0.211
-180.042	155.958	-0.056	0.076
-179.027	-52.911	-0.113	0.051
-178.012	-81.176	0.257	0.083
-176.998	-17.026	0.179	0.111
-175.983	-92.458	0.236	-0.065
-174.969	239.080	-0.170	0.277
-173.954	-152.391	-0.248	0.017
-172.939	278.317	-0.115	-0.201
-171.925	-141.265	0.368	0.037
-170.910	-106.567	0.349	-0.076
-169.896	-40.341	-0.205	0.104
-168.881	31.708	0.098	-0.083
-167.866	-86.214	0.163	-0.049
-166.852	-12.702	0.252	0.161
-165.837	-119.932	-0.294	0.050
-164.823	800.000	-0.049	0.190
-163.808	-58.661	0.059	-0.025
-162.793	-108.063	0.250	0.053
-161.779	665.123	0.137	0.346
-160.764	0.905	-0.064	-0.045
-159.750	800.000	0.059	0.194
-158.735	-30.218	0.115	0.064
-157.720	-74.370	0.468	-0.165
-156.706	-200.000	-0.032	0.182
-155.691	73.160	-0.313	0.320
-154.677	213.024	-0.110	-0.170
-153.662	-84.241	0.062	0.019
-152.647	203.656	-0.102	-0.155
-151.633	-24.494	0.115	-0.067
-150.618	-25.366	-0.191	0.111
-149.604	-70.531	0.185	0.068
-148.589	-61.735	-0.071	-0.029
-147.574	196.936	0.143	-0.213
-146.560	-59.014	0.225	-0.095
-145.545	-200.000	0.005	-0.321
-144.531	-152.546	0.083	0.006
-143.516	-61.909	0.296	-0.121
-142.502	319.570	0.130	0.242
-141.487	104.767	0.155	-0.178
-140.472	-37.812	0.044	-0.023
-139.458	521.030	-0.046	-0.105
-138.443	-60.469	0.177	-0.074
-137.429	800.000	-0.086	-0.313
-136.414	48.617	0.303	0.277
-135.399	-200.000	-0.045	0.352
-134.385	-29.654	0.180	0.101
-133.370	-200.000	0.000	-0.157
-132.356	230.824	-0.052	-0.083
-131.341	-110.986	0.097	-0.019
-130.326	-200.000	0.027	0.247
-129.312	241.903	0.030	-0.049
-128.297	-200.000	-0.564	0.003
-127.283	310.330	-0.086	-0.157
-126.268	-200.000	0.026	0.303
-125.253	-200.000	0.006	0.555
-124.239	800.000	0.043	-0.162
-123.224	-34.454	0.439	-0.235
-122.210	-100.273	-0.117	0.028
-121.195	740.442	-0.083	0.218
-120.180	165.201	0.108	0.149
