DTS Sentinel unit serial number:	SN413079Multiplexer serial number:	ORYXHardware model number:	OX4-SRSoftware version number:	ORYX F/W v4.00 Oryx Data Collector v3.7.2.0data status	okinstallation	princeton_trtdifferential loss correction	single-endedforward channel	channel 3reverse channel	N/Adate	2019/09/12time	21:52:35forward acquisition time	60.00reverse acquisition time	0.00gamma	496.2192k internal	0.2326k external	0.2326temperature offset calibration	1.0133default loss term (dB/km)	0.3790temperature slope calibration	1.0000multiplexer offset coefficient	1.0000multiplexer slope coefficient	1.0000fibre end	0.00T internal ref (°C)	30.14T ext. ref 1 (°C)	3.73T ext. ref 2 (°C)	24.82length (m)	temperature (°C)	Stokes	anti-Stokes-747.200	-200.000	-0.011	-0.063
-746.185	141.203	0.194	0.258
-745.171	192.307	-0.051	0.078
-744.156	800.000	0.055	0.165
-743.142	20.267	0.196	-0.159
-742.127	-106.437	0.200	-0.045
-741.112	443.568	0.066	0.145
-740.098	-163.007	0.115	0.006
-739.083	67.775	-0.228	0.235
-738.069	315.341	-0.045	0.086
-737.054	-63.444	0.401	-0.166
-736.039	-200.000	0.046	-0.268
-735.025	-15.463	-0.223	-0.143
-734.010	103.150	-0.341	-0.404
-732.996	-57.705	-0.231	-0.102
-731.981	54.332	0.183	-0.178
-730.966	-147.484	-0.280	-0.024
-729.952	800.000	0.056	0.182
-728.937	9.107	0.050	0.038
-727.923	133.303	-0.165	0.215
-726.908	465.757	0.043	0.098
-725.894	-200.000	0.031	0.208
-724.879	225.760	-0.119	-0.195
-723.864	1.387	-0.160	-0.116
-722.850	210.947	-0.201	0.319
-721.835	-72.075	-0.430	0.161
-720.821	90.863	-0.197	0.223
-719.806	-96.042	-0.282	0.075
-718.791	276.407	0.038	-0.068
-717.777	-61.739	-0.069	-0.029
-716.762	-17.142	-0.286	0.182
-715.748	-140.974	-0.067	0.007
-714.733	100.069	-0.223	-0.261
-713.718	27.387	-0.114	-0.097
-712.704	-119.514	0.096	-0.017
-711.689	26.493	0.153	0.129
-710.675	464.887	0.102	0.231
-709.660	-121.451	0.040	-0.007
-708.645	-86.684	0.209	0.064
-707.631	-200.000	0.000	-0.110
-706.616	800.000	0.050	0.147
-705.602	167.451	-0.034	0.049
-704.587	-114.906	-0.197	-0.038
-703.572	-200.000	0.044	-0.454
-702.558	350.232	-0.062	-0.123
-701.543	-94.030	0.369	0.102
-700.529	-200.000	-0.008	-0.190
-699.514	-104.689	-0.326	-0.076
-698.499	1.831	0.036	-0.026
-697.485	800.000	-0.047	-0.135
-696.470	-35.464	0.146	-0.080
-695.456	-54.365	-0.261	-0.119
-694.441	-200.000	-0.019	-0.120
-693.426	125.935	0.210	-0.267
-692.412	-171.055	0.145	0.005
-691.397	44.567	-0.068	0.063
-690.383	67.271	-0.169	0.174
-689.368	59.779	-0.141	0.140
-688.354	-200.000	-0.020	-0.276
-687.339	-8.568	-0.255	-0.172
-686.324	-11.492	-0.123	0.081
-685.310	-200.000	0.039	-0.281
-684.295	-200.000	-0.002	0.120
-683.281	-147.259	-0.425	-0.036
-682.266	-200.000	0.072	0.451
-681.251	75.540	-0.106	-0.112
-680.237	-112.704	-0.302	-0.061
-679.222	800.000	0.027	-0.120
-678.208	22.856	0.226	-0.186
-677.193	-36.033	-0.270	0.147
-676.178	-199.162	-0.201	0.001
-675.164	-132.794	-0.394	0.051
-674.149	-200.000	0.068	0.324
-673.135	669.602	0.072	0.188
-672.120	-200.000	0.039	0.308
-671.105	308.292	-0.042	-0.078
-670.091	-54.721	-0.045	-0.020
-669.076	130.075	-0.212	0.273
-668.062	14.274	0.188	0.147
-667.047	-157.262	-0.220	-0.013
-666.032	674.219	0.025	0.064
-665.018	-12.912	-0.433	0.284
-664.003	229.144	0.113	0.186
-662.989	579.573	-0.092	0.225
-661.974	253.176	0.052	-0.089
-660.959	167.517	0.141	0.201
-659.945	-69.610	-0.404	-0.155
-658.930	-60.872	0.185	-0.079
-657.916	-115.852	0.127	-0.024
-656.901	-200.000	-0.059	0.411
-655.886	-73.951	0.190	-0.069
-654.872	322.885	-0.103	-0.197
-653.857	87.213	-0.188	-0.209
-652.843	800.000	0.080	0.323
-651.828	61.706	0.225	0.225
-650.814	-90.725	-0.240	0.070
-649.799	225.945	-0.151	0.247
-648.784	-200.000	0.053	0.289
-647.770	-200.000	0.059	0.338
-646.755	-200.000	-0.025	-0.153
-645.741	-123.164	-0.191	-0.031
-644.726	137.368	-0.062	-0.081
-643.711	205.304	-0.077	0.121
-642.697	188.513	-0.083	-0.125
-641.682	30.799	-0.167	-0.144
-640.668	71.632	-0.044	0.046
-639.653	-33.651	0.171	0.095
-638.638	-200.000	0.044	-0.244
-637.624	-49.752	0.167	0.080
-636.609	392.296	0.118	0.247
-635.595	-87.419	0.184	-0.056
-634.580	407.745	-0.105	0.222
-633.565	-62.900	-0.184	-0.076
-632.551	171.039	-0.044	0.064
-631.536	-125.690	0.158	-0.024
-630.522	45.862	-0.117	0.109
-629.507	-48.116	-0.355	0.172
-628.492	-200.000	-0.008	0.137
-627.478	568.404	0.098	0.240
-626.463	-145.662	-0.369	-0.033
-625.449	-200.000	0.002	0.036
-624.434	303.877	-0.076	0.142
-623.419	242.647	-0.038	0.064
-622.405	-139.127	0.143	-0.015
-621.390	135.954	0.233	-0.305
-620.376	-149.987	0.077	0.006
-619.361	132.884	0.076	-0.099
-618.346	206.607	-0.104	0.163
-617.332	27.943	0.189	0.160
-616.317	86.175	-0.221	0.244
-615.303	-11.927	-0.216	0.142
-614.288	-36.764	-0.173	0.093
-613.273	310.301	-0.146	0.274
-612.259	433.554	-0.143	-0.312
-611.244	82.719	-0.039	-0.043
-610.230	-82.419	-0.305	-0.099
-609.215	-83.398	-0.164	-0.053
-608.201	-49.392	0.437	0.209
-607.186	-141.585	-0.103	0.010
-606.171	467.115	-0.115	0.259
-605.157	74.281	0.072	0.076
-604.142	503.344	-0.010	-0.023
-603.128	800.000	-0.050	0.217
-602.113	-24.737	0.506	-0.302
-601.098	95.580	0.155	-0.177
-600.084	7.051	-0.206	-0.154
-599.069	800.000	-0.104	0.350
-598.055	-118.416	0.267	-0.048
-597.040	384.283	-0.030	-0.061
-596.025	-84.223	0.241	-0.077
-595.011	-27.056	-0.051	-0.030
-593.996	27.398	0.085	0.071
-592.982	-3.322	-0.044	0.031
-591.967	349.359	-0.088	0.174
-590.952	637.568	-0.105	0.267
-589.938	-128.528	-0.346	-0.049
-588.923	51.412	-0.278	-0.264
-587.909	-132.849	-0.191	-0.024
-586.894	392.858	-0.122	-0.254
-585.879	-187.232	0.101	-0.001
-584.865	282.604	-0.029	-0.053
-583.850	191.451	0.114	0.172
-582.836	448.945	0.037	0.083
-581.821	359.441	-0.088	-0.177
-580.806	-4.117	-0.049	0.034
-579.792	-58.189	-0.483	0.211
-578.777	31.323	-0.159	-0.137
-577.763	4.881	-0.084	-0.062
-576.748	-92.152	-0.289	-0.082
-575.733	800.000	-0.077	-0.332
-574.719	318.004	-0.093	-0.177
-573.704	-161.173	0.351	0.018
-572.690	-200.000	-0.027	0.175
-571.675	107.278	-0.234	-0.279
-570.661	800.000	0.073	0.275
-569.646	-24.032	-0.315	-0.189
-568.631	102.785	0.189	-0.221
-567.617	-98.744	0.091	0.023
-566.602	90.637	-0.156	0.175
-565.588	-82.992	0.159	-0.051
-564.573	-94.800	-0.175	-0.047
-563.558	800.000	0.094	-0.298
-562.544	261.638	0.217	0.376
-561.529	800.000	0.041	-0.138
-560.515	181.822	-0.212	-0.313
-559.500	-200.000	-0.004	-0.059
-558.485	202.559	-0.044	0.068
-557.471	60.257	0.103	0.102
-556.456	209.493	-0.183	0.287
-555.442	215.454	0.130	-0.206
-554.427	134.435	-0.051	-0.066
-553.412	46.114	-0.227	0.210
-552.398	-103.813	0.265	0.062
-551.383	14.679	0.078	-0.061
-550.369	132.678	-0.203	-0.262
-549.354	-200.000	-0.002	0.206
-548.339	-200.000	-0.112	0.511
-547.325	-200.000	-0.020	0.343
-546.310	267.645	0.176	0.308
-545.296	-134.163	-0.139	-0.017
-544.281	-72.354	-0.466	0.173
-543.266	138.429	-0.160	0.210
-542.252	-200.000	-0.016	0.166
-541.237	353.472	0.095	0.190
-540.223	603.093	0.053	-0.132
-539.208	158.871	-0.151	0.210
-538.193	10.232	0.035	0.026
-537.179	800.000	0.065	-0.191
-536.164	-157.193	0.475	0.029
-535.150	204.759	-0.107	-0.166
-534.135	-200.000	0.017	-0.285
-533.121	127.024	0.255	-0.324
-532.106	800.000	0.053	0.152
-531.091	-139.742	-0.216	0.023
-530.077	-187.183	0.286	0.004
-529.062	-9.250	0.247	0.165
-528.048	800.000	0.090	-0.335
-527.033	800.000	0.028	-0.121
-526.018	-120.487	0.216	-0.037
-525.004	800.000	-0.063	-0.238
-523.989	-138.221	-0.231	-0.026
-522.975	-111.581	0.106	0.022
-521.960	800.000	-0.077	0.269
-520.945	-200.000	0.007	0.082
-519.931	-137.902	-0.206	0.023
-518.916	-82.349	0.227	-0.074
-517.902	-200.000	-0.033	-0.204
-516.887	135.428	0.090	0.117
-515.872	-200.000	0.015	-0.171
-514.858	-72.270	-0.474	-0.176
-513.843	-200.000	-0.014	-0.135
-512.829	-49.218	0.065	-0.031
-511.814	53.127	0.075	-0.071
-510.799	-200.000	-0.045	-0.198
-509.785	-200.000	-0.014	0.091
-508.770	200.710	-0.091	-0.140
-507.756	720.247	0.050	0.132
-506.741	-107.880	-0.220	0.048
-505.726	220.653	0.118	0.189
-504.712	-134.224	-0.231	0.028
-503.697	208.157	0.109	-0.170
-502.683	-11.634	0.050	0.033
-501.668	-200.000	0.006	-0.255
-500.653	-26.222	-0.229	-0.134
-499.639	-200.000	-0.019	0.438
-498.624	405.372	-0.226	-0.476
-497.610	-11.840	0.302	-0.198
-496.595	10.830	-0.282	-0.215
-495.581	-200.000	-0.012	-0.131
-494.566	517.332	0.067	-0.156
-493.551	27.529	0.072	0.061
-492.537	-92.048	0.400	0.113
-491.522	-31.123	-0.094	0.053
-490.508	-142.949	0.164	0.016
-489.493	381.948	0.134	0.275
-488.478	-200.000	-0.005	0.046
-487.464	-107.229	0.255	0.056
-486.449	100.814	-0.188	-0.218
-485.435	9.166	0.147	-0.111
-484.420	-87.482	0.304	0.092
-483.405	800.000	-0.069	0.223
-482.391	-51.972	0.546	0.253
-481.376	707.798	-0.106	0.279
-480.362	-140.521	-0.163	0.017
-479.347	-9.892	0.423	0.281
-478.332	800.000	0.089	0.315
-477.318	-112.902	0.063	0.012
-476.303	127.488	0.153	0.194
-475.289	210.933	0.104	0.163
-474.274	213.523	-0.108	-0.170
-473.259	-96.453	0.274	-0.072
-472.245	78.053	-0.082	0.088
-471.230	-61.725	-0.028	-0.012
-470.216	445.136	0.052	0.114
-469.201	-77.306	0.248	0.086
-468.186	-147.425	0.364	-0.031
-467.172	26.683	-0.336	-0.281
-466.157	-200.000	0.027	0.227
-465.143	-88.180	-0.276	-0.082
-464.128	93.741	0.174	-0.197
-463.113	-200.000	-0.026	-0.182
-462.099	800.000	0.070	-0.219
-461.084	94.749	0.085	-0.097
-460.070	-163.973	-0.181	0.008
-459.055	324.129	-0.101	-0.192
-458.040	132.556	0.060	0.077
-457.026	800.000	-0.018	0.069
-456.011	97.559	-0.038	0.043
-454.997	-200.000	0.011	-0.051
-453.982	800.000	0.111	-0.375
-452.968	93.409	-0.244	-0.276
-451.953	77.758	-0.012	0.012
-450.938	-90.933	-0.199	-0.057
-449.924	-165.042	0.250	0.011
-448.909	-200.000	-0.029	0.324
-447.895	-137.624	0.372	0.042
-446.880	2.402	-0.261	-0.188
-445.865	-61.756	-0.209	-0.087
-444.851	800.000	0.015	-0.042
-443.836	800.000	0.125	-0.348
-442.822	-25.287	-0.315	-0.186
-441.807	-112.605	-0.131	0.026
-440.792	48.131	0.214	-0.199
-439.778	-76.403	0.222	0.078
-438.763	172.273	-0.028	0.040
-437.749	-50.347	0.188	-0.089
-436.734	112.333	-0.238	-0.286
-435.719	800.000	-0.105	-0.424
-434.705	105.232	-0.053	0.063
-433.690	90.475	-0.197	-0.220
-432.676	133.805	0.167	0.215
-431.661	219.521	-0.108	-0.172
-430.646	-200.000	-0.010	-0.197
-429.632	-3.677	0.279	-0.193
-428.617	-200.000	-0.004	-0.043
-427.603	-141.999	0.132	-0.013
-426.588	-200.000	0.014	-0.079
-425.573	-31.842	0.244	0.136
-424.559	-55.463	-0.205	-0.092
-423.544	-38.575	0.043	-0.023
-422.530	-32.732	0.194	-0.107
-421.515	145.848	-0.140	0.187
-420.500	800.000	-0.026	-0.097
-419.486	-68.113	-0.206	-0.080
-418.471	34.975	-0.067	0.058
-417.457	-20.390	0.375	0.230
-416.442	337.549	0.049	0.096
-415.428	-117.751	0.245	0.044
-414.413	-120.105	-0.132	-0.023
-413.398	-135.611	-0.112	-0.013
-412.384	274.021	-0.118	-0.208
-411.369	-200.000	0.025	0.120
-410.355	-86.969	0.080	-0.024
-409.340	1.113	0.314	0.224
-408.325	712.725	-0.088	0.231
-407.311	-91.024	-0.152	0.044
-406.296	586.266	0.227	0.555
-405.282	-200.000	-0.012	0.293
-404.267	-86.095	-0.123	0.038
-403.252	800.000	0.105	-0.329
-402.238	-200.000	0.012	-0.249
-401.223	-200.000	-0.012	0.089
-400.209	800.000	-0.061	0.183
-399.194	-28.386	-0.319	0.183
-398.179	-48.623	0.246	-0.118
-397.165	-29.592	0.122	-0.069
-396.150	108.911	-0.134	-0.159
-395.136	428.962	0.062	-0.133
-394.121	-200.000	-0.047	-0.208
-393.106	-118.865	-0.201	0.035
-392.092	-88.411	-0.114	-0.034
-391.077	122.550	0.212	0.264
-390.063	-200.000	-0.092	0.514
-389.048	20.331	-0.082	-0.066
-388.033	257.488	-0.093	-0.159
-387.019	700.430	0.025	-0.067
-386.004	88.030	0.110	-0.121
-384.990	375.297	0.071	0.145
-383.975	59.726	-0.173	0.170
-382.960	-17.880	0.183	0.114
-381.946	711.826	-0.042	0.110
-380.931	800.000	-0.089	-0.260
-379.917	800.000	0.016	-0.056
-378.902	-96.115	-0.431	0.114
-377.888	-62.963	-0.204	0.084
-376.873	-65.170	-0.101	0.040
-375.858	800.000	-0.042	0.156
-374.844	8.307	0.230	0.172
-373.829	-200.000	0.043	0.286
-372.815	-200.000	0.015	0.238
-371.800	-200.000	0.016	-0.268
-370.785	-200.000	-0.050	-0.366
-369.771	2.083	-0.262	-0.188
-368.756	-174.269	0.048	-0.001
-367.742	100.026	-0.178	0.205
-366.727	800.000	-0.059	-0.206
-365.712	-100.463	-0.270	0.066
-364.698	-94.708	-0.426	0.115
-363.683	-200.000	-0.053	-0.410
-362.669	-200.000	-0.046	0.359
-361.654	200.395	0.161	-0.246
-360.639	110.071	0.135	0.161
-359.625	272.938	0.023	-0.040
-358.610	-20.580	0.076	-0.046
-357.596	18.781	0.150	0.120
-356.581	-200.000	0.001	0.162
-355.566	800.000	0.029	0.102
-354.552	4.765	-0.098	0.071
-353.537	797.116	0.071	-0.196
-352.523	-193.670	0.303	-0.003
-351.508	-156.828	0.113	-0.007
-350.493	-168.267	-0.090	-0.003
-349.479	800.000	0.080	-0.269
-348.464	462.353	-0.067	0.149
-347.450	308.424	0.123	-0.228
-346.435	-55.280	0.183	0.082
-345.420	336.295	0.213	-0.411
-344.406	-151.292	-0.203	-0.015
-343.391	682.141	0.040	-0.105
-342.377	-200.000	-0.012	-0.067
-341.362	-200.000	0.026	-0.207
-340.348	30.923	0.190	0.161
-339.333	91.826	0.145	-0.162
-338.318	-63.121	0.163	0.067
-337.304	800.000	0.050	0.155
-336.289	63.220	0.373	0.371
-335.275	346.224	0.062	-0.120
-334.260	6.532	0.078	0.058
-333.245	-66.048	-0.155	0.061
-332.231	1.824	0.259	0.185
-331.216	-200.000	0.015	-0.084
-330.202	-45.058	0.056	-0.028
-329.187	-173.794	0.213	0.006
-328.172	58.226	0.147	-0.143
-327.158	413.118	0.076	0.161
-326.143	-145.222	-0.186	0.017
-325.129	100.671	0.129	-0.149
-324.114	-14.510	0.244	0.155
-323.099	-27.438	0.184	-0.106
-322.085	143.538	-0.203	-0.268
-321.070	25.803	0.079	-0.066
-320.056	554.652	0.042	0.100
-319.041	-21.718	0.107	-0.065
-318.026	-200.000	0.035	0.307
-317.012	800.000	0.056	0.231
-315.997	800.000	-0.109	0.417
-314.983	-9.485	0.225	0.149
-313.968	297.919	0.019	0.035
-312.953	-33.674	0.127	-0.070
-311.939	-27.832	-0.162	0.093
-310.924	-34.222	-0.430	-0.234
-309.910	17.061	0.178	-0.140
-308.895	23.809	-0.134	0.109
-307.880	-76.773	-0.140	0.049
-306.866	-200.000	-0.017	0.252
-305.851	-147.777	0.253	-0.021
-304.837	-126.720	-0.226	0.033
-303.822	235.192	0.334	-0.547
-302.807	-200.000	0.027	0.200
-301.793	-200.000	0.040	0.199
-300.778	-175.508	-0.312	-0.008
-299.764	800.000	-0.025	0.102
-298.749	60.991	0.284	0.279
-297.735	-164.009	0.263	0.012
-296.720	-200.000	0.003	0.220
-295.705	800.000	0.124	0.354
-294.691	800.000	0.156	0.486
-293.676	142.522	0.156	-0.206
-292.662	800.000	-0.038	-0.162
-291.647	-200.000	-0.051	-0.275
-290.632	800.000	-0.036	0.120
-289.618	-200.000	0.035	-0.214
-288.603	800.000	-0.022	-0.068
-287.589	399.216	-0.038	0.078
-286.574	-144.148	-0.270	-0.025
-285.559	-167.273	-0.040	0.002
-284.545	260.102	-0.166	-0.285
-283.530	72.461	-0.072	0.074
-282.516	304.420	0.114	0.210
-281.501	-70.719	-0.096	0.036
-280.486	-200.000	0.019	0.156
-279.472	-92.735	0.103	0.028
-278.457	-159.274	-0.292	0.016
-277.443	-144.116	-0.270	0.025
-276.428	-154.371	0.060	-0.004
-275.413	-52.378	-0.120	-0.055
-274.399	120.578	-0.122	-0.150
-273.384	213.883	0.028	-0.044
-272.370	-72.274	-0.083	0.030
-271.355	313.821	0.123	0.230
-270.340	-42.795	0.293	-0.147
-269.326	-71.304	-0.270	-0.100
-268.311	310.004	-0.100	-0.184
-267.297	-200.000	-0.083	-0.432
-266.282	136.136	0.208	-0.269
-265.267	-18.054	0.059	0.036
-264.253	-200.000	0.007	0.254
-263.238	800.000	-0.055	0.189
-262.224	-167.995	0.147	0.006
-261.209	-200.000	0.034	-0.331
-260.195	316.597	0.030	0.056
-259.180	-14.832	-0.092	0.058
-258.165	-16.059	0.135	0.085
-257.151	-200.000	0.023	-0.259
-256.136	54.937	0.063	0.061
-255.122	150.309	-0.044	0.059
-254.107	267.247	-0.032	0.055
-253.092	68.590	-0.187	0.189
-252.078	203.103	-0.114	0.174
-251.063	45.608	-0.130	0.119
-250.049	-120.525	0.199	-0.033
-249.034	243.203	-0.084	-0.139
-248.019	-4.834	0.229	0.156
-247.005	-200.000	0.048	0.261
-245.990	-86.857	0.388	-0.117
-244.976	-77.226	-0.455	0.157
-243.961	-42.041	-0.159	-0.081
-242.946	93.820	-0.147	0.165
-241.932	189.300	-0.070	-0.104
-240.917	104.561	-0.268	-0.313
-239.903	-167.886	-0.070	0.003
-238.888	800.000	0.022	-0.078
-237.873	-200.000	-0.025	0.302
-236.859	-123.844	-0.381	0.059
-235.844	254.458	0.080	0.135
-234.830	-152.319	0.341	0.024
-233.815	121.525	0.173	-0.214
-232.800	53.815	-0.099	-0.094
-231.786	71.478	-0.193	0.198
-230.771	747.587	0.054	0.145
-229.757	416.675	0.032	0.068
-228.742	800.000	0.030	-0.116
-227.727	29.718	0.136	0.114
-226.713	-107.697	-0.318	0.069
-225.698	19.524	-0.177	0.141
-224.684	-171.999	-0.091	0.003
-223.669	-125.058	-0.208	0.032
-222.655	-200.000	0.033	0.353
-221.640	488.940	-0.085	-0.192
-220.625	-200.000	-0.064	-0.341
-219.611	526.172	0.049	-0.114
-218.596	96.046	0.138	0.156
-217.582	-200.000	-0.027	-0.175
-216.567	185.833	0.140	-0.206
-215.552	800.000	0.034	-0.101
-214.538	-0.320	-0.160	-0.112
-213.523	157.511	0.047	0.065
-212.509	-145.218	0.177	0.016
-211.494	-18.698	-0.109	-0.067
-210.479	-98.025	-0.204	0.052
-209.465	-125.279	-0.339	0.051
-208.450	184.294	0.118	-0.173
-207.436	-116.543	0.312	0.057
-206.421	157.613	-0.134	0.183
-205.406	-107.201	0.429	-0.093
-204.392	645.871	0.122	-0.308
-203.377	755.041	0.083	-0.223
-202.363	173.187	-0.081	-0.116
-201.348	-16.829	0.118	0.074
-200.333	77.808	0.099	-0.105
-199.319	57.386	0.108	0.104
-198.304	243.520	0.136	-0.224
-197.290	92.710	0.096	0.107
-196.275	-200.000	-0.008	-0.147
-195.260	482.464	-0.062	-0.138
-194.246	696.599	-0.058	-0.150
-193.231	-200.000	0.027	-0.379
-192.217	339.324	-0.163	-0.313
-191.202	-129.202	-0.238	-0.033
-190.187	800.000	-0.088	-0.260
-189.173	-30.886	0.329	0.184
-188.158	240.277	-0.162	0.266
-187.144	85.736	0.145	0.157
-186.129	-200.000	-0.009	0.103
-185.114	-165.198	0.215	0.009
-184.100	-29.390	0.278	-0.157
-183.085	-174.202	0.229	0.007
-182.071	-200.000	0.036	-0.223
-181.056	-76.736	0.288	-0.100
-180.042	800.000	0.079	-0.221
-179.027	-57.020	-0.117	0.051
-178.012	87.954	-0.192	0.211
-176.998	-18.197	-0.233	-0.144
-175.983	209.803	-0.013	-0.020
-174.969	-129.437	0.209	0.029
-173.954	542.332	-0.158	0.373
-172.939	800.000	0.151	-0.528
-171.925	-200.000	0.000	-0.193
-170.910	-68.015	-0.220	0.084
-169.896	-65.798	0.199	-0.079
-168.881	-72.572	0.175	0.064
-167.866	-200.000	0.072	0.539
-166.852	-100.487	-0.304	0.074
-165.837	197.995	-0.154	-0.232
-164.823	-170.026	-0.075	-0.003
-163.808	300.304	0.129	0.235
-162.793	-59.770	-0.345	-0.146
-161.779	-90.170	-0.301	0.086
-160.764	-150.424	0.353	0.027
-159.750	-85.548	0.267	-0.082
-158.735	-95.388	-0.233	-0.062
-157.720	6.467	-0.064	0.047
-156.706	597.918	-0.099	-0.243
-155.691	75.513	0.151	0.157
-154.677	-66.512	0.191	-0.075
-153.662	-116.853	0.239	0.043
-152.647	454.794	-0.131	-0.287
-151.633	107.163	-0.237	0.278
-150.618	582.707	0.193	0.466
-149.604	-87.826	0.255	-0.076
-148.589	800.000	-0.080	-0.325
-147.574	-48.043	0.141	0.067
-146.560	49.931	0.109	-0.101
-145.545	28.636	-0.159	0.133
-144.531	-30.717	-0.233	0.130
-143.516	-10.659	-0.043	-0.028
-142.502	-200.000	0.072	0.000
-141.487	-63.711	0.462	0.187
-140.472	-78.721	-0.220	-0.074
-139.458	11.147	0.026	-0.019
-138.443	123.513	-0.043	-0.054
-137.429	-92.585	0.182	0.050
-136.414	-200.000	0.005	-0.130
-135.399	800.000	0.092	0.276
-134.385	196.562	-0.039	0.059
-133.370	-45.623	0.223	0.109
-132.356	73.060	0.364	0.375
-131.341	730.788	-0.052	0.138
-130.326	-71.765	0.338	0.124
-129.312	-59.691	-0.181	-0.076
-128.297	-200.000	0.014	0.083
-127.283	38.951	-0.061	0.053
-126.268	484.023	0.023	0.052
-125.253	-200.000	0.019	0.257
-124.239	45.274	0.148	0.135
-123.224	253.918	0.133	0.223
-122.210	459.486	0.022	0.047
-121.195	53.047	-0.094	-0.088
-120.180	800.000	-0.097	0.328
