DTS Sentinel unit serial number:	SN413079Multiplexer serial number:	ORYXHardware model number:	OX4-SRSoftware version number:	ORYX F/W v4.00 Oryx Data Collector v3.7.2.0data status	okinstallation	princeton_trtdifferential loss correction	single-endedforward channel	channel 3reverse channel	N/Adate	2019/09/17time	11:12:35forward acquisition time	60.00reverse acquisition time	0.00gamma	496.2192k internal	0.2322k external	0.2322temperature offset calibration	0.9950default loss term (dB/km)	0.3790temperature slope calibration	1.0000multiplexer offset coefficient	1.0000multiplexer slope coefficient	1.0000fibre end	0.00T internal ref (°C)	30.44T ext. ref 1 (°C)	0.24T ext. ref 2 (°C)	26.17length (m)	temperature (°C)	Stokes	anti-Stokes-747.200	-83.132	0.121	0.039
-746.185	-200.000	-0.046	0.253
-745.171	-113.330	0.263	0.052
-744.156	-200.000	0.032	-0.147
-743.142	-102.371	-0.072	0.017
-742.127	-81.855	0.071	-0.023
-741.112	63.049	-0.141	0.143
-740.098	622.977	0.201	0.511
-739.083	800.000	-0.052	0.146
-738.069	-82.677	-0.313	-0.102
-737.054	187.584	-0.120	-0.181
-736.039	-112.541	-0.311	0.063
-735.025	-178.101	0.213	0.005
-734.010	42.901	-0.184	-0.169
-732.996	14.977	-0.164	-0.130
-731.981	-77.725	-0.201	0.070
-730.966	677.330	-0.021	0.054
-729.952	-200.000	0.046	-0.225
-728.937	250.211	0.089	-0.153
-727.923	-88.509	0.310	0.093
-726.908	-12.060	-0.060	0.040
-725.894	417.110	0.024	0.051
-724.879	800.000	-0.070	0.198
-723.864	306.248	0.106	-0.199
-722.850	-95.203	-0.089	-0.024
-721.835	-200.000	0.051	-0.309
-720.821	800.000	-0.034	0.101
-719.806	-108.991	0.237	-0.051
-718.791	223.540	-0.139	0.226
-717.777	19.759	0.093	-0.075
-716.762	432.319	0.067	-0.146
-715.748	-142.415	-0.097	-0.010
-714.733	13.852	0.141	-0.111
-713.718	-114.005	-0.227	-0.044
-712.704	-30.737	0.259	-0.148
-711.689	599.105	0.059	-0.148
-710.675	165.409	-0.070	-0.100
-709.660	-97.116	0.257	0.068
-708.645	89.193	-0.219	-0.246
-707.631	800.000	0.058	0.163
-706.616	800.000	0.030	0.092
-705.602	311.590	0.057	-0.108
-704.587	-110.731	-0.403	0.084
-703.572	-175.240	-0.295	-0.008
-702.558	285.543	-0.007	0.012
-701.543	-200.000	-0.012	-0.291
-700.529	-17.771	-0.122	0.077
-699.514	-87.175	0.080	0.024
-698.499	56.575	-0.180	0.177
-697.485	-108.865	0.155	0.033
-696.470	282.219	0.061	-0.111
-695.456	667.428	-0.060	-0.156
-694.441	800.000	-0.079	0.275
-693.426	-200.000	0.029	-0.313
-692.412	-148.672	-0.088	-0.007
-691.397	-156.818	-0.274	0.017
-690.383	-107.759	-0.117	-0.026
-689.368	10.051	0.234	-0.179
-688.354	-54.450	-0.331	-0.151
-687.339	470.677	0.085	-0.192
-686.324	800.000	-0.129	0.413
-685.310	-200.000	0.015	0.502
-684.295	55.870	-0.216	0.211
-683.281	-101.577	-0.165	0.040
-682.266	-20.904	0.091	-0.056
-681.251	-12.613	-0.083	-0.055
-680.237	9.138	0.070	-0.053
-679.222	-146.469	-0.306	-0.027
-678.208	-146.822	-0.182	-0.016
-677.193	-179.573	-0.329	0.007
-676.178	800.000	-0.042	-0.150
-675.164	-110.834	0.314	0.065
-674.149	-108.341	0.121	-0.026
-673.135	773.893	0.100	-0.274
-672.120	-58.668	0.215	-0.094
-671.105	-58.364	-0.256	0.112
-670.091	-200.000	0.084	-0.390
-669.076	800.000	0.035	-0.142
-668.062	-123.581	-0.349	-0.056
-667.047	-50.383	-0.285	0.136
-666.032	-122.615	-0.081	-0.013
-665.018	-62.053	0.204	-0.086
-664.003	463.315	-0.039	-0.089
-662.989	-163.190	0.149	0.007
-661.974	800.000	0.014	0.051
-660.959	800.000	-0.080	0.238
-659.945	84.846	-0.156	-0.172
-658.930	-200.000	0.047	-0.355
-657.916	209.883	-0.208	0.329
-656.901	-107.247	0.328	-0.073
-655.886	-200.000	0.000	-0.165
-654.872	-65.241	0.376	-0.153
-653.857	-31.620	-0.153	0.086
-652.843	-106.848	-0.197	0.044
-651.828	103.419	-0.242	-0.286
-650.814	-39.108	0.142	-0.075
-649.799	260.937	0.077	0.134
-648.784	-22.446	-0.541	0.330
-647.770	15.282	0.236	0.186
-646.755	-140.002	-0.277	-0.029
-645.741	99.381	0.061	-0.070
-644.726	48.270	-0.263	-0.248
-643.711	-64.890	-0.216	0.088
-642.697	31.795	-0.263	-0.228
-641.682	-200.000	0.008	0.062
-640.668	169.969	-0.232	0.334
-639.653	-95.619	0.149	0.040
-638.638	-200.000	0.095	-0.486
-637.624	61.534	-0.186	0.187
-636.609	57.826	-0.131	0.129
-635.595	169.467	-0.155	0.222
-634.580	-69.668	-0.214	-0.082
-633.565	800.000	0.024	-0.067
-632.551	-148.486	0.080	-0.007
-631.536	-200.000	-0.033	-0.175
-630.522	-162.885	-0.316	-0.015
-629.507	-80.797	-0.146	-0.049
-628.492	-64.845	-0.208	-0.085
-627.478	-200.000	-0.023	-0.219
-626.463	-111.788	-0.158	-0.032
-625.449	-134.619	-0.248	-0.030
-624.434	290.126	0.036	-0.066
-623.419	-200.000	-0.008	-0.247
-622.405	25.320	0.376	0.314
-621.390	278.713	0.026	0.047
-620.376	171.396	0.149	0.215
-619.361	800.000	0.083	-0.300
-618.346	377.821	-0.131	-0.269
-617.332	-41.920	0.228	0.118
-616.317	800.000	-0.084	-0.248
-615.303	-137.730	0.137	0.015
-614.288	-139.694	-0.152	-0.016
-613.273	91.833	-0.071	-0.080
-612.259	-141.080	-0.378	0.039
-611.244	-76.126	-0.136	-0.048
-610.230	64.145	-0.015	0.015
-609.215	10.764	0.040	0.031
-608.201	601.963	0.079	-0.198
-607.186	-163.521	0.167	-0.008
-606.171	-116.130	0.092	-0.017
-605.157	144.206	0.219	0.294
-604.142	120.217	-0.051	-0.063
-603.128	-3.472	-0.228	-0.159
-602.113	235.954	0.073	-0.121
-601.098	800.000	0.057	0.188
-600.084	221.914	-0.049	0.079
-599.069	-53.677	0.297	-0.136
-598.055	37.727	0.086	0.077
-597.040	-138.850	0.291	0.032
-596.025	369.829	0.104	0.211
-595.011	125.690	-0.395	0.501
-593.996	-163.310	0.265	0.013
-592.982	48.563	0.216	0.203
-591.967	800.000	-0.075	0.285
-590.952	303.174	-0.109	0.203
-589.938	-200.000	0.030	-0.345
-588.923	-200.000	0.052	-0.231
-587.909	-200.000	0.014	0.137
-586.894	-123.427	0.013	-0.002
-585.879	138.670	-0.106	-0.140
-584.865	-142.161	0.336	-0.033
-583.850	286.911	-0.061	0.111
-582.836	-200.000	-0.022	-0.204
-581.821	396.786	-0.246	-0.515
-580.806	-115.014	-0.227	-0.043
-579.792	280.799	0.067	-0.121
-578.777	-200.000	-0.036	0.175
-577.763	-200.000	-0.216	0.000
-576.748	22.377	0.086	0.070
-575.733	436.371	-0.097	0.211
-574.719	617.642	-0.064	0.162
-573.704	321.065	-0.106	-0.203
-572.690	-200.000	-0.002	-0.077
-571.675	-0.213	-0.016	-0.012
-570.661	153.730	0.179	-0.246
-569.646	-200.000	-0.024	0.152
-568.631	-200.000	-0.001	-0.120
-567.617	800.000	0.076	-0.269
-566.602	-97.873	0.349	-0.090
-565.588	-200.000	0.009	-0.083
-564.573	-95.429	-0.435	-0.117
-563.558	-89.177	0.157	-0.046
-562.544	800.000	-0.069	-0.213
-561.529	-60.016	0.126	0.054
-560.515	-12.468	0.194	-0.127
-559.500	800.000	0.024	-0.070
-558.485	8.750	-0.085	-0.064
-557.471	130.715	0.085	-0.109
-556.456	-200.000	-0.010	0.358
-555.442	-92.822	-0.108	0.030
-554.427	406.164	0.045	0.096
-553.412	-70.069	0.097	0.037
-552.398	346.633	-0.190	-0.375
-551.383	-200.000	0.015	0.122
-550.369	45.742	0.232	0.215
-549.354	26.805	0.261	-0.219
-548.339	185.719	-0.094	0.140
-547.325	313.964	0.059	0.111
-546.310	241.649	0.082	0.137
-545.296	-200.000	0.013	0.058
-544.281	-18.649	0.154	-0.096
-543.266	85.476	0.252	0.277
-542.252	800.000	-0.083	0.292
-541.237	478.495	-0.092	-0.209
-540.223	298.281	-0.077	0.143
-539.208	800.000	-0.026	-0.114
-538.193	109.714	0.188	-0.226
-537.179	-200.000	-0.001	0.116
-536.164	9.251	-0.222	0.168
-535.150	608.030	0.148	0.370
-534.135	28.516	-0.125	-0.106
-533.121	-200.000	-0.009	-0.068
-532.106	57.241	-0.259	0.253
-531.091	-86.568	0.241	0.074
-530.077	-159.393	-0.109	0.006
-529.062	800.000	0.070	0.225
-528.048	-78.796	-0.390	0.133
-527.033	244.898	0.161	0.271
-526.018	64.279	0.162	0.163
-525.004	32.017	-0.079	-0.068
-523.989	562.832	-0.173	-0.418
-522.975	124.962	0.212	-0.267
-521.960	-83.334	0.160	-0.051
-520.945	62.621	0.243	-0.243
-519.931	-95.244	0.356	0.096
-518.916	-70.649	0.164	0.062
-517.902	-200.000	0.030	0.174
-516.887	305.178	-0.094	0.175
-515.872	438.786	0.074	-0.163
-514.858	-148.879	0.253	-0.021
-513.843	-195.614	-0.300	-0.002
-512.829	-41.134	-0.361	0.187
-511.814	229.331	-0.127	-0.207
-510.799	-127.069	0.132	0.019
-509.785	84.089	0.431	-0.471
-508.770	-65.632	0.071	-0.028
-507.756	-34.013	0.121	-0.067
-506.741	-16.889	-0.096	0.061
-505.726	-200.000	-0.010	-0.227
-504.712	142.752	0.391	-0.520
-503.697	800.000	-0.056	-0.189
-502.683	-200.000	-0.001	0.023
-501.668	800.000	-0.048	0.136
-500.653	800.000	0.043	0.121
-499.639	629.710	-0.122	0.310
-498.624	-159.866	0.413	0.023
-497.610	239.005	-0.161	0.267
-496.595	-131.271	0.232	-0.031
-495.581	800.000	-0.050	-0.165
-494.566	-200.000	-0.033	0.159
-493.551	-168.247	-0.310	-0.012
-492.537	179.119	0.024	-0.035
-491.522	-144.832	0.224	0.021
-490.508	238.950	0.098	0.163
-489.493	-32.550	-0.104	-0.058
-488.478	800.000	0.044	-0.158
-487.464	800.000	0.153	0.428
-486.449	-200.000	0.020	0.261
-485.435	-126.859	-0.264	-0.039
-484.420	-135.343	0.216	0.026
-483.405	-103.495	-0.418	0.098
-482.391	175.642	-0.118	-0.172
-481.376	-86.746	-0.163	0.050
-480.362	-131.513	0.188	-0.025
-479.347	79.915	-0.117	-0.125
-478.332	430.605	-0.202	-0.437
-477.318	428.504	-0.115	-0.247
-476.303	-38.573	-0.270	-0.143
-475.289	-200.000	0.010	-0.152
-474.274	21.177	-0.294	0.238
-473.259	-50.458	0.133	-0.063
-472.245	-200.000	-0.041	-0.268
-471.230	490.373	-0.123	-0.281
-470.216	396.561	-0.123	0.256
-469.201	-33.054	-0.225	0.125
-468.186	-160.289	0.024	0.001
-467.172	-14.793	0.062	-0.040
-466.157	-200.000	0.027	-0.282
-465.143	-200.000	0.008	0.090
-464.128	-20.205	-0.048	-0.030
-463.113	345.344	0.156	-0.306
-462.099	67.526	-0.089	0.091
-461.084	-200.000	-0.007	0.232
-460.070	-200.000	-0.029	-0.157
-459.055	126.302	-0.149	0.188
-458.040	652.855	0.025	-0.063
-457.026	-200.000	-0.000	-0.004
-456.011	-200.000	0.061	-0.413
-454.997	65.611	-0.205	0.208
-453.982	-200.000	0.040	0.269
-452.968	-7.481	-0.105	-0.071
-451.953	-58.214	0.106	0.046
-450.938	216.458	-0.033	0.052
-449.924	-75.212	-0.352	0.126
-448.909	-123.523	-0.172	-0.027
-447.895	-200.000	-0.020	-0.097
-446.880	-79.221	-0.222	-0.075
-445.865	184.208	-0.171	0.252
-444.851	780.720	-0.018	0.049
-443.836	70.577	-0.141	0.145
-442.822	-200.000	0.016	-0.285
-441.807	180.687	0.084	0.123
-440.792	-84.274	-0.309	-0.098
-439.778	-146.317	0.073	-0.006
-438.763	261.118	-0.022	0.038
-437.749	-93.728	0.269	0.074
-436.734	-200.000	0.057	0.532
-435.719	323.207	0.091	-0.174
-434.705	-26.773	0.112	-0.066
-433.690	800.000	0.011	0.039
-432.676	-200.000	-0.068	0.472
-431.661	212.120	-0.096	0.152
-430.646	-73.941	0.157	0.057
-429.632	80.480	-0.119	0.128
-428.617	-200.000	0.022	-0.102
-427.603	183.935	0.195	0.288
-426.588	63.290	-0.049	0.049
-425.573	6.583	-0.053	0.040
-424.559	-200.000	0.020	0.260
-423.544	242.495	-0.151	0.253
-422.530	540.058	-0.062	0.147
-421.515	-35.131	0.111	0.060
-420.500	480.369	-0.097	0.219
-419.486	-68.598	0.244	-0.094
-418.471	-200.000	0.004	-0.102
-417.457	-200.000	0.018	-0.215
-416.442	75.852	-0.042	-0.045
-415.428	109.515	-0.137	-0.164
-414.413	-70.060	-0.374	-0.142
-413.398	-30.771	0.131	0.074
-412.384	125.170	0.161	-0.203
-411.369	-200.000	-0.010	-0.067
-410.355	800.000	0.033	-0.142
-409.340	4.351	-0.230	-0.168
-408.325	157.189	0.069	-0.095
-407.311	271.677	0.037	0.066
-406.296	189.854	0.165	0.247
-405.282	326.283	0.103	0.196
-404.267	734.817	-0.111	0.296
-403.252	569.550	0.162	-0.393
-402.238	-102.065	0.448	0.108
-401.223	79.964	0.141	-0.151
-400.209	-200.000	-0.000	-0.124
-399.194	-96.897	0.310	-0.081
-398.179	-43.522	0.317	-0.160
-397.165	-29.371	0.296	0.169
-396.150	-109.416	-0.219	0.046
-395.136	-64.168	0.317	-0.129
-394.121	-178.458	-0.216	-0.005
-393.106	-54.974	-0.066	-0.030
-392.092	92.138	-0.133	-0.149
-391.077	800.000	-0.018	0.057
-390.063	-200.000	0.028	0.515
-389.048	244.310	0.098	0.163
-388.033	181.319	-0.051	0.074
-387.019	206.831	0.070	0.108
-386.004	35.261	0.182	0.159
-384.990	97.575	-0.051	0.059
-383.975	75.649	-0.085	0.090
-382.960	-110.103	-0.153	-0.032
-381.946	-3.266	0.206	-0.143
-380.931	-200.000	-0.004	0.241
-379.917	800.000	-0.145	-0.416
-378.902	-42.267	-0.025	0.013
-377.888	140.657	-0.070	-0.093
-376.873	-200.000	-0.004	-0.243
-375.858	-146.485	-0.053	-0.005
-374.844	10.470	-0.187	0.142
-373.829	91.270	0.126	0.141
-372.815	-63.769	-0.158	-0.064
-371.800	292.567	-0.200	0.364
-370.785	-12.052	-0.130	0.085
-369.771	135.984	0.158	-0.205
-368.756	92.694	-0.282	0.317
-367.742	-36.616	-0.364	-0.195
-366.727	-69.497	0.088	0.034
-365.712	114.114	-0.061	-0.074
-364.698	171.172	-0.081	-0.116
-363.683	800.000	-0.024	-0.102
-362.669	-200.000	-0.006	-0.225
-361.654	-78.735	0.325	0.110
-360.639	3.056	0.106	0.077
-359.625	-200.000	0.019	0.107
-358.610	205.684	0.111	0.172
-357.596	-94.101	0.167	-0.046
-356.581	-200.000	-0.032	0.312
-355.566	-124.663	-0.188	-0.029
-354.552	-171.602	-0.125	0.004
-353.537	-200.000	0.009	0.171
-352.523	7.321	-0.069	0.051
-351.508	138.238	0.210	0.274
-350.493	45.460	0.150	0.138
-349.479	-83.896	-0.333	-0.106
-348.464	-157.195	0.149	0.009
-347.450	209.251	0.196	-0.306
-346.435	-200.000	0.045	0.246
-345.420	305.495	-0.048	-0.088
-344.406	-114.593	-0.082	0.016
-343.391	564.635	0.073	0.175
-342.377	-111.790	-0.014	-0.003
-341.362	800.000	0.067	-0.192
-340.348	302.422	-0.051	-0.094
-339.333	298.125	0.098	-0.180
-338.318	800.000	0.055	-0.163
-337.304	-200.000	-0.047	0.264
-336.289	-169.310	-0.204	-0.007
-335.275	-71.730	0.290	0.107
-334.260	-69.824	-0.251	-0.095
-333.245	-200.000	-0.004	-0.378
-332.231	-26.799	-0.129	-0.075
-331.216	-167.603	0.425	0.017
-330.202	35.944	-0.137	-0.119
-329.187	-43.745	-0.229	0.115
-328.172	-41.171	-0.126	-0.064
-327.158	-200.000	0.051	-0.345
-326.143	-71.990	-0.234	0.087
-325.129	800.000	0.007	-0.026
-324.114	36.370	0.304	-0.266
-323.099	-92.560	0.097	0.027
-322.085	-37.871	-0.136	0.072
-321.070	-200.000	0.024	-0.182
-320.056	71.297	0.100	-0.103
-319.041	48.904	-0.217	-0.202
-318.026	21.960	0.144	-0.117
-317.012	-87.926	0.357	-0.107
-315.997	-143.178	0.304	0.029
-314.983	765.398	-0.098	-0.264
-313.968	157.735	-0.089	-0.123
-312.953	800.000	-0.039	-0.165
-311.939	432.731	-0.056	0.121
-310.924	-139.426	0.493	-0.052
-309.910	220.730	-0.289	-0.461
-308.895	-136.524	-0.091	-0.010
-307.880	150.371	0.159	0.214
-306.866	-29.497	-0.238	0.135
-305.851	-1.511	-0.275	-0.193
-304.837	-200.000	-0.012	0.108
-303.822	-128.021	-0.317	-0.045
-302.807	-70.700	-0.117	-0.044
-301.793	-76.842	0.306	0.106
-300.778	-200.000	0.037	-0.179
-299.764	800.000	-0.073	-0.275
-298.749	732.022	0.106	0.282
-297.735	-117.976	-0.156	-0.028
-296.720	101.282	0.154	0.178
-295.705	113.877	0.155	-0.187
-294.691	800.000	0.133	0.448
-293.676	470.922	-0.069	0.155
-292.662	54.552	0.055	-0.053
-291.647	800.000	0.017	-0.063
-290.632	800.000	0.073	0.233
-289.618	-200.000	0.010	-0.096
-288.603	-158.766	-0.140	-0.008
-287.589	-200.000	0.015	0.073
-286.574	-200.000	-0.035	0.359
-285.559	-134.600	-0.152	0.018
-284.545	-28.939	0.133	-0.076
-283.530	12.683	0.371	-0.284
-282.516	-118.583	-0.137	-0.024
-281.501	-200.000	-0.007	-0.157
-280.486	88.545	0.162	-0.178
-279.472	-107.011	0.270	-0.059
-278.457	-149.032	0.199	-0.016
-277.443	111.100	0.212	0.253
-276.428	-200.000	-0.029	0.236
-275.413	-200.000	-0.062	-0.383
-274.399	-33.632	0.124	0.068
-273.384	-67.809	0.162	-0.063
-272.370	177.119	-0.091	-0.131
-271.355	28.085	-0.094	0.079
-270.340	-120.507	0.245	0.041
-269.326	94.775	-0.345	-0.389
-268.311	-130.129	-0.279	-0.038
-267.297	-32.777	0.155	0.085
-266.282	-8.972	-0.059	-0.039
-265.267	-61.658	0.018	-0.007
-264.253	-200.000	-0.081	0.372
-263.238	-95.815	-0.122	-0.032
-262.224	-109.102	0.131	0.028
-261.209	800.000	-0.082	0.292
-260.195	705.382	-0.013	-0.033
-259.180	79.052	-0.223	-0.237
-258.165	362.091	-0.080	0.159
-257.151	284.881	-0.067	0.119
-256.136	800.000	-0.065	0.192
-255.122	800.000	0.030	0.088
-254.107	800.000	-0.027	0.102
-253.092	400.519	0.088	0.183
-252.078	84.443	0.180	-0.195
-251.063	800.000	0.134	0.370
-250.049	105.982	-0.108	0.127
-249.034	36.813	-0.125	-0.109
-248.019	527.341	0.139	-0.324
-247.005	-74.680	-0.320	0.114
-245.990	160.158	0.134	-0.185
-244.976	800.000	0.076	0.277
-243.961	800.000	-0.052	0.148
-242.946	-200.000	-0.017	0.077
-241.932	-71.418	-0.056	0.021
-240.917	186.028	0.071	0.104
-239.903	15.679	0.074	0.058
-238.888	-39.353	0.162	-0.084
-237.873	-46.124	0.063	-0.031
-236.859	752.721	-0.116	-0.311
-235.844	-200.000	-0.019	0.393
-234.830	800.000	0.064	-0.239
-233.815	-200.000	0.033	-0.300
-232.800	800.000	0.045	-0.125
-231.786	-163.885	0.213	0.010
-230.771	101.931	0.229	0.265
-229.757	252.975	-0.103	-0.174
-228.742	30.773	0.133	0.113
-227.727	-200.000	-0.011	-0.146
-226.713	215.799	-0.104	0.164
-225.698	-169.899	0.053	-0.002
-224.684	-59.289	0.167	0.071
-223.669	377.627	0.120	-0.243
-222.655	-11.007	0.238	-0.156
-221.640	41.568	0.272	-0.244
-220.625	-157.444	-0.304	0.018
-219.611	800.000	-0.055	-0.179
-218.596	-200.000	0.013	-0.348
-217.582	359.478	-0.126	-0.249
-216.567	-133.807	-0.252	-0.031
-215.552	-79.948	-0.373	-0.124
-214.538	800.000	0.045	0.142
-213.523	-29.692	-0.153	0.086
-212.509	-63.419	-0.216	0.088
-211.494	-21.755	0.229	0.138
-210.479	-46.523	-0.148	0.072
-209.465	-200.000	0.000	-0.215
-208.450	-51.002	-0.205	-0.095
-207.436	-200.000	-0.043	-0.402
-206.421	-200.000	0.048	0.305
-205.406	-54.532	-0.195	0.087
-204.392	-17.551	0.148	0.092
-203.377	-200.000	-0.033	-0.163
-202.363	133.662	-0.260	0.333
-201.348	-200.000	0.005	0.206
-200.333	-200.000	0.052	0.395
-199.319	-200.000	-0.009	0.089
-198.304	187.970	0.143	-0.211
-197.290	282.627	0.216	-0.383
-196.275	-130.608	0.264	-0.035
-195.260	-6.879	0.065	0.043
-194.246	404.200	-0.096	0.200
-193.231	37.499	0.220	0.193
-192.217	800.000	-0.037	0.106
-191.202	573.522	0.123	0.297
-190.187	263.484	0.140	0.241
-189.173	-3.260	-0.037	0.025
-188.158	93.869	-0.365	0.409
-187.144	23.549	0.207	-0.168
-186.129	67.947	0.251	-0.253
-185.114	-200.000	-0.045	-0.359
-184.100	-50.994	0.035	0.016
-183.085	800.000	0.033	0.091
-182.071	-200.000	-0.013	0.252
-181.056	408.107	-0.130	0.271
-180.042	-200.000	-0.048	0.235
-179.027	-7.219	0.094	-0.063
-178.012	-200.000	-0.024	0.123
-176.998	66.667	-0.003	0.003
-175.983	10.151	-0.100	0.075
-174.969	-142.217	-0.148	0.014
-173.954	48.280	0.151	0.139
-172.939	-200.000	-0.045	-0.225
-171.925	15.755	0.153	0.119
-170.910	-200.000	0.046	-0.257
-169.896	410.470	0.181	-0.379
-168.881	800.000	-0.077	0.326
-167.866	108.045	0.259	0.305
-166.852	-200.000	0.070	0.359
-165.837	800.000	0.117	-0.354
-164.823	546.076	-0.107	-0.253
-163.808	-200.000	0.078	-0.428
-162.793	-184.691	-0.340	0.005
-161.779	-200.000	-0.011	0.164
-160.764	-122.880	0.448	-0.071
-159.750	180.471	-0.156	0.227
-158.735	-200.000	-0.223	-0.001
-157.720	800.000	0.149	-0.444
-156.706	-200.000	0.013	-0.085
-155.691	-76.395	-0.034	0.012
-154.677	-200.000	-0.027	0.147
-153.662	147.074	-0.139	-0.185
-152.647	-39.586	0.122	0.063
-151.633	-12.941	0.131	-0.084
-150.618	283.233	-0.026	-0.046
-149.604	153.318	-0.179	-0.242
-148.589	-200.000	-0.032	-0.189
-147.574	559.916	0.030	-0.072
-146.560	361.744	-0.090	-0.178
-145.545	-175.960	-0.265	0.007
-144.531	-7.685	-0.082	0.055
-143.516	-104.119	0.213	-0.049
-142.502	-170.688	0.249	0.008
-141.487	-64.071	-0.304	-0.122
-140.472	9.639	-0.391	-0.293
-139.458	100.304	-0.026	0.029
-138.443	341.200	-0.180	0.348
-137.429	37.709	0.108	-0.095
-136.414	-135.669	-0.149	-0.017
-135.399	-130.454	0.259	0.035
-134.385	114.605	0.236	0.284
-133.370	-200.000	0.011	0.220
-132.356	281.867	0.117	0.207
-131.341	-20.441	0.157	-0.095
-130.326	303.233	-0.132	0.242
-129.312	-200.000	-0.058	0.371
-128.297	-114.447	-0.305	-0.058
-127.283	-126.584	0.051	-0.007
-126.268	-92.132	0.051	0.014
-125.253	339.466	0.053	0.103
-124.239	-113.177	-0.241	-0.047
-123.224	211.754	-0.177	-0.274
