DTS Sentinel unit serial number:	SN413079Multiplexer serial number:	ORYXHardware model number:	OX4-SRSoftware version number:	ORYX F/W v4.00 Oryx Data Collector v3.7.2.0data status	okinstallation	princeton_trtdifferential loss correction	single-endedforward channel	channel 3reverse channel	N/Adate	2019/09/12time	04:26:10forward acquisition time	60.00reverse acquisition time	0.00gamma	496.2192k internal	0.2324k external	0.2324temperature offset calibration	1.0071default loss term (dB/km)	0.3790temperature slope calibration	1.0000multiplexer offset coefficient	1.0000multiplexer slope coefficient	1.0000fibre end	0.00T internal ref (°C)	31.69T ext. ref 1 (°C)	2.24T ext. ref 2 (°C)	25.89length (m)	temperature (°C)	Stokes	anti-Stokes-747.200	800.000	0.059	-0.192
-746.185	-200.000	-0.062	0.355
-745.171	70.482	-0.070	0.073
-744.156	-149.441	0.188	0.015
-743.142	186.899	-0.101	0.152
-742.127	-122.872	-0.474	0.077
-741.112	189.411	-0.014	0.021
-740.098	-136.518	-0.285	0.033
-739.083	-122.154	0.154	0.026
-738.069	-200.000	0.121	0.691
-737.054	-151.302	-0.252	0.019
-736.039	4.542	-0.226	0.167
-735.025	-127.531	-0.229	0.034
-734.010	-200.000	-0.005	-0.118
-732.996	263.863	-0.104	0.183
-731.981	533.612	0.059	-0.142
-730.966	725.025	-0.137	0.368
-729.952	149.773	0.223	-0.305
-728.937	48.742	-0.225	-0.213
-727.923	-68.583	0.119	-0.047
-726.908	150.607	-0.254	-0.347
-725.894	-200.000	-0.006	0.206
-724.879	144.564	-0.124	0.167
-723.864	-200.000	-0.079	-0.424
-722.850	144.330	-0.122	-0.164
-721.835	800.000	0.037	-0.153
-720.821	643.948	-0.168	-0.432
-719.806	-126.960	0.163	-0.024
-718.791	-90.121	-0.295	-0.087
-717.777	-138.479	0.188	0.021
-716.762	553.851	-0.092	-0.223
-715.748	60.505	0.095	-0.095
-714.733	-200.000	0.052	0.235
-713.718	84.450	-0.067	-0.074
-712.704	-28.772	-0.397	-0.230
-711.689	334.932	0.229	-0.447
-710.675	79.265	0.326	0.352
-709.660	57.794	0.199	0.196
-708.645	107.683	-0.091	-0.109
-707.631	800.000	0.032	0.136
-706.616	115.844	-0.108	-0.133
-705.602	42.637	-0.056	-0.052
-704.587	17.907	0.220	0.177
-703.572	51.966	0.199	-0.191
-702.558	-141.449	-0.199	0.020
-701.543	735.256	0.041	-0.111
-700.529	-200.000	0.015	-0.245
-699.514	-23.764	-0.233	-0.141
-698.499	582.415	0.071	-0.176
-697.485	57.325	0.240	0.236
-696.470	-200.000	-0.027	0.134
-695.456	-200.000	0.027	-0.136
-694.441	800.000	-0.106	-0.358
-693.426	-149.054	0.096	-0.008
-692.412	255.823	-0.042	-0.072
-691.397	800.000	0.044	-0.170
-690.383	398.433	0.127	0.268
-689.368	-21.156	0.201	0.124
-688.354	-126.986	-0.357	-0.053
-687.339	800.000	0.144	-0.414
-686.324	-200.000	-0.009	-0.193
-685.310	-76.454	0.281	-0.099
-684.295	214.166	0.136	-0.218
-683.281	-10.546	-0.261	0.174
-682.266	61.042	-0.142	0.142
-681.251	4.719	-0.107	-0.079
-680.237	465.861	0.033	0.074
-679.222	-13.621	-0.179	-0.117
-678.208	-92.743	-0.214	0.060
-677.193	510.537	-0.212	-0.496
-676.178	-0.733	0.235	-0.168
-675.164	-77.063	0.249	0.087
-674.149	800.000	-0.068	-0.248
-673.135	5.169	-0.294	-0.218
-672.120	-128.680	-0.407	0.058
-671.105	-93.941	0.143	-0.040
-670.091	434.542	0.099	-0.217
-669.076	125.870	0.058	-0.074
-668.062	-61.887	-0.657	-0.277
-667.047	91.031	0.163	0.184
-666.032	800.000	-0.048	0.163
-665.018	-21.574	-0.152	-0.093
-664.003	-139.203	-0.058	0.006
-662.989	-68.136	-0.181	-0.071
-661.974	297.815	-0.027	-0.050
-660.959	-153.049	-0.344	-0.024
-659.945	-79.286	-0.104	0.035
-658.930	-167.106	-0.053	0.002
-657.916	168.895	-0.195	0.280
-656.901	50.807	-0.226	0.215
-655.886	800.000	-0.020	0.057
-654.872	-11.313	0.181	0.120
-653.857	-2.117	-0.166	0.117
-652.843	-74.027	-0.147	-0.054
-651.828	259.751	-0.168	-0.291
-650.814	-58.450	0.153	0.067
-649.799	-200.000	-0.035	-0.304
-648.784	142.215	0.090	-0.120
-647.770	168.611	0.125	-0.179
-646.755	-188.458	-0.204	-0.003
-645.741	-98.188	-0.122	-0.032
-644.726	-146.716	0.116	-0.010
-643.711	-200.000	0.013	-0.144
-642.697	-45.252	0.172	-0.086
-641.682	-27.905	-0.371	0.216
-640.668	-200.000	0.018	0.398
-639.653	-48.953	0.225	0.109
-638.638	42.782	0.155	-0.142
-637.624	-183.502	-0.232	0.004
-636.609	-28.134	-0.186	-0.108
-635.595	-200.000	-0.018	-0.161
-634.580	-45.450	0.230	-0.115
-633.565	-200.000	0.021	-0.175
-632.551	14.088	-0.184	-0.144
-631.536	-132.122	-0.399	0.052
-630.522	-30.786	0.176	-0.100
-629.507	34.119	-0.092	0.081
-628.492	69.534	0.038	-0.040
-627.478	61.407	-0.261	-0.261
-626.463	281.235	-0.029	-0.053
-625.449	800.000	-0.046	-0.152
-624.434	-89.334	-0.218	0.064
-623.419	-143.589	0.060	-0.006
-622.405	800.000	-0.048	0.150
-621.390	-200.000	0.060	0.418
-620.376	289.349	-0.041	-0.074
-619.361	182.718	0.026	-0.039
-618.346	163.578	-0.088	-0.124
-617.332	-129.407	-0.226	-0.032
-616.317	-88.922	0.196	-0.058
-615.303	-113.772	-0.140	0.027
-614.288	-18.611	-0.140	-0.088
-613.273	-86.322	0.239	-0.074
-612.259	-136.445	0.047	0.005
-611.244	138.609	-0.206	0.271
-610.230	800.000	0.016	0.054
-609.215	-132.405	-0.102	0.013
-608.201	-19.305	0.020	0.012
-607.186	-92.153	-0.215	-0.061
-606.171	-120.035	0.061	-0.011
-605.157	-200.000	-0.023	0.147
-604.142	746.224	0.081	-0.220
-603.128	800.000	-0.094	-0.323
-602.113	800.000	0.086	-0.362
-601.098	-143.255	-0.317	-0.031
-600.084	-200.000	0.012	0.059
-599.069	-22.020	-0.293	-0.179
-598.055	201.372	-0.237	0.367
-597.040	202.755	-0.122	-0.190
-596.025	-104.271	-0.367	0.086
-595.011	87.017	0.173	0.192
-593.996	307.559	0.169	-0.316
-592.982	-200.000	-0.057	-0.323
-591.967	-138.750	-0.347	-0.038
-590.952	-87.281	0.127	0.039
-589.938	133.574	-0.340	0.441
-588.923	611.961	0.095	-0.238
-587.909	66.404	0.079	0.080
-586.894	110.607	0.175	0.211
-585.879	-200.000	-0.024	-0.268
-584.865	-129.312	-0.185	-0.026
-583.850	43.380	-0.385	0.353
-582.836	800.000	0.098	-0.307
-581.821	-200.000	-0.046	-0.459
-580.806	201.051	-0.100	-0.155
-579.792	-7.753	0.323	0.219
-578.777	88.732	-0.092	-0.102
-577.763	3.352	-0.408	-0.298
-576.748	-200.000	0.026	0.219
-575.733	-39.296	-0.261	0.137
-574.719	-200.000	0.008	0.220
-573.704	187.116	-0.037	0.055
-572.690	-55.358	0.189	0.085
-571.675	345.841	-0.076	-0.149
-570.661	-34.941	-0.402	-0.220
-569.646	-200.000	0.025	-0.186
-568.631	-121.322	0.118	-0.020
-567.617	-16.279	0.133	-0.085
-566.602	216.227	0.157	-0.250
-565.588	-200.000	0.054	-0.322
-564.573	800.000	0.034	-0.111
-563.558	80.216	-0.122	-0.132
-562.544	55.549	0.238	-0.231
-561.529	241.942	-0.070	0.117
-560.515	-200.000	-0.011	0.394
-559.500	-36.292	-0.192	0.104
-558.485	-117.570	-0.091	0.016
-557.471	-177.844	0.310	-0.007
-556.456	202.240	-0.027	-0.042
-555.442	182.599	0.168	-0.249
-554.427	-200.000	-0.082	0.410
-553.412	800.000	-0.009	0.032
-552.398	-55.409	0.076	0.034
-551.383	-114.276	0.573	0.111
-550.369	-200.000	-0.022	-0.217
-549.354	-200.000	-0.016	-0.184
-548.339	-151.298	0.086	0.006
-547.325	-200.000	-0.001	-0.147
-546.310	-104.511	-0.265	0.061
-545.296	63.370	-0.022	-0.022
-544.281	-200.000	0.001	-0.078
-543.266	-57.314	-0.046	0.020
-542.252	-200.000	0.019	-0.211
-541.237	445.213	-0.177	-0.390
-540.223	309.465	-0.065	-0.123
-539.208	43.615	-0.120	0.110
-538.193	-176.493	0.246	-0.006
-537.179	800.000	-0.050	-0.147
-536.164	606.289	-0.122	0.305
-535.150	-117.768	-0.508	0.091
-534.135	16.703	0.124	-0.098
-533.121	622.671	-0.037	-0.093
-532.106	81.838	-0.176	0.191
-531.091	618.558	-0.027	0.067
-530.077	-60.804	-0.418	-0.177
-529.062	-191.952	-0.270	0.003
-528.048	800.000	-0.018	0.056
-527.033	-200.000	-0.028	-0.379
-526.018	-4.873	0.227	-0.156
-525.004	388.946	-0.050	0.103
-523.989	419.526	0.093	0.200
-522.975	27.659	0.198	-0.166
-521.960	147.769	-0.231	-0.312
-520.945	-141.539	0.373	-0.038
-519.931	-145.902	0.161	0.014
-518.916	3.025	-0.227	-0.165
-517.902	800.000	0.099	-0.279
-516.887	-181.081	-0.314	-0.006
-515.872	800.000	-0.064	0.188
-514.858	-200.000	-0.061	0.305
-513.843	-200.000	-0.021	-0.162
-512.829	-67.376	-0.047	0.018
-511.814	126.358	-0.067	0.085
-510.799	-200.000	-0.002	-0.385
-509.785	-13.614	-0.127	-0.082
-508.770	-122.153	0.064	0.010
-507.756	-97.596	0.189	0.049
-506.741	104.768	0.241	-0.285
-505.726	-49.641	0.036	-0.017
-504.712	204.374	0.110	0.171
-503.697	800.000	0.088	0.359
-502.683	19.201	0.456	0.366
-501.668	93.512	-0.082	0.092
-500.653	-67.120	-0.074	0.029
-499.639	76.959	0.166	0.176
-498.624	41.241	-0.128	-0.116
-497.610	12.393	-0.236	-0.182
-496.595	15.460	-0.080	-0.063
-495.581	-122.958	0.315	-0.051
-494.566	394.663	-0.035	0.072
-493.551	800.000	0.091	-0.298
-492.537	800.000	-0.080	0.248
-491.522	179.706	0.163	-0.238
-490.508	-1.069	0.106	-0.075
-489.493	-172.260	0.032	-0.001
-488.478	-173.782	0.151	-0.004
-487.464	-61.870	-0.359	0.150
-486.449	26.979	0.091	-0.076
-485.435	0.462	0.167	-0.119
-484.420	-31.235	-0.067	0.038
-483.405	-108.430	-0.316	-0.068
-482.391	-200.000	0.026	0.116
-481.376	212.212	0.065	-0.103
-480.362	423.353	-0.094	-0.202
-479.347	-8.060	-0.201	-0.136
-478.332	800.000	0.031	0.091
-477.318	414.325	0.085	-0.180
-476.303	-128.997	0.291	-0.041
-475.289	279.671	-0.108	0.193
-474.274	800.000	-0.086	0.255
-473.259	60.796	0.094	0.093
-472.245	-170.392	0.133	-0.005
-471.230	-7.467	0.234	0.158
-470.216	-87.068	-0.217	0.066
-469.201	-87.753	-0.221	-0.066
-468.186	97.876	0.171	0.196
-467.172	-83.359	0.218	-0.070
-466.157	236.429	0.105	-0.173
-465.143	287.692	0.100	0.181
-464.128	-200.000	-0.006	-0.062
-463.113	10.772	0.255	0.195
-462.099	-95.316	0.306	0.082
-461.084	-200.000	0.013	0.160
-460.070	-143.170	-0.118	0.011
-459.055	420.723	0.126	0.270
-458.040	800.000	0.073	0.274
-457.026	-200.000	-0.017	0.076
-456.011	-119.586	0.316	0.055
-454.997	-200.000	0.009	0.343
-453.982	-32.822	0.458	0.254
-452.968	-200.000	-0.058	0.273
-451.953	-200.000	-0.037	0.200
-450.938	-105.908	-0.181	-0.041
-449.924	-177.496	-0.156	0.004
-448.909	-200.000	0.014	0.125
-447.895	-149.737	-0.253	0.020
-446.880	-175.565	-0.242	0.007
-445.865	6.399	-0.124	-0.092
-444.851	-81.308	-0.140	0.046
-443.836	800.000	0.081	0.292
-442.822	-200.000	-0.077	0.430
-441.807	-8.366	0.262	0.176
-440.792	-200.000	0.006	-0.343
-439.778	99.452	0.060	0.069
-438.763	-119.395	0.192	-0.033
-437.749	52.461	-0.275	0.262
-436.734	228.629	-0.071	0.115
-435.719	4.015	-0.181	0.132
-434.705	235.858	0.151	0.249
-433.690	102.660	-0.208	-0.243
-432.676	42.097	0.143	0.129
-431.661	-65.228	-0.145	-0.058
-430.646	-5.069	0.065	0.045
-429.632	-200.000	0.014	0.081
-428.617	-13.421	0.143	0.092
-427.603	523.959	0.077	-0.182
-426.588	-63.720	0.271	-0.111
-425.573	67.408	-0.257	0.261
-424.559	229.882	0.198	-0.323
-423.544	-200.000	-0.010	-0.289
-422.530	800.000	0.022	-0.070
-421.515	-200.000	-0.009	0.500
-420.500	-129.580	-0.172	0.024
-419.486	-200.000	-0.017	0.123
-418.471	104.166	0.111	-0.130
-417.457	-200.000	-0.012	-0.205
-416.442	57.221	-0.163	0.159
-415.428	-178.278	0.142	-0.003
-414.413	-39.132	-0.050	-0.026
-413.398	-15.649	0.295	-0.187
-412.384	122.431	-0.099	0.123
-411.369	131.660	-0.098	0.125
-410.355	103.011	0.223	0.260
-409.340	-78.365	-0.216	0.074
-408.325	755.414	-0.104	-0.280
-407.311	365.535	-0.136	0.273
-406.296	-135.979	0.198	-0.023
-405.282	56.614	-0.067	0.065
-404.267	-88.214	0.066	-0.020
-403.252	265.850	0.179	0.311
-402.238	75.265	0.302	-0.317
-401.223	-200.000	0.001	-0.211
-400.209	456.149	-0.060	-0.134
-399.194	257.829	0.138	0.236
-398.179	-104.776	-0.110	0.025
-397.165	-43.860	0.228	-0.114
-396.150	-200.000	0.014	0.146
-395.136	800.000	0.029	-0.090
-394.121	112.862	-0.141	0.170
-393.106	407.856	0.064	0.134
-392.092	234.191	0.042	-0.068
-391.077	-23.406	-0.321	0.192
-390.063	-43.976	0.254	-0.127
-389.048	92.587	0.082	-0.092
-388.033	71.387	-0.193	-0.200
-387.019	324.700	-0.163	-0.310
-386.004	-47.756	-0.162	0.078
-384.990	173.058	-0.291	0.418
-383.975	561.532	-0.181	-0.436
-382.960	-60.377	0.222	-0.094
-381.946	2.088	-0.070	-0.050
-380.931	-139.972	-0.143	-0.015
-379.917	-54.413	-0.133	-0.060
-378.902	-12.191	-0.303	0.197
-377.888	-172.181	0.194	-0.006
-376.873	-118.274	-0.142	0.025
-375.858	166.504	-0.168	0.237
-374.844	-49.321	-0.118	-0.056
-373.829	-49.434	-0.462	-0.219
-372.815	-157.892	0.239	0.014
-371.800	-191.148	-0.142	-0.001
-370.785	-76.340	0.107	0.038
-369.771	-53.507	0.033	-0.015
-368.756	221.529	0.144	0.230
-367.742	565.971	0.081	-0.196
-366.727	57.150	-0.314	-0.305
-365.712	-200.000	-0.014	0.126
-364.698	-102.531	0.459	0.109
-363.683	-22.193	-0.093	-0.056
-362.669	800.000	0.113	-0.396
-361.654	-156.908	0.466	-0.028
-360.639	-198.725	-0.383	-0.002
-359.625	800.000	0.037	0.125
-358.610	-112.253	0.284	-0.057
-357.596	-139.711	0.204	0.022
-356.581	137.266	-0.104	0.135
-355.566	31.663	-0.041	0.035
-354.552	526.883	-0.104	-0.243
-353.537	800.000	-0.176	0.539
-352.523	337.224	0.117	0.227
-351.508	-86.116	0.399	0.123
-350.493	-6.599	0.196	-0.132
-349.479	-84.807	-0.223	0.070
-348.464	800.000	-0.077	0.255
-347.450	96.775	-0.137	-0.156
-346.435	800.000	-0.044	-0.149
-345.420	-200.000	-0.014	0.155
-344.406	13.910	-0.115	-0.089
-343.391	-200.000	0.005	0.075
-342.377	-87.809	0.313	-0.094
-341.362	-200.000	-0.011	0.107
-340.348	-200.000	0.007	0.278
-339.333	3.587	0.141	-0.102
-338.318	-200.000	0.027	0.146
-337.304	-62.252	-0.200	-0.083
-336.289	-39.400	0.053	0.028
-335.275	-200.000	0.082	-0.433
-334.260	-45.359	-0.082	-0.041
-333.245	257.532	0.119	0.204
-332.231	62.534	-0.261	-0.259
-331.216	-79.697	-0.245	-0.082
-330.202	-200.000	0.023	-0.108
-329.187	800.000	-0.039	0.113
-328.172	-107.596	-0.132	0.029
-327.158	183.292	-0.121	0.177
-326.143	50.298	-0.118	0.110
-325.129	-200.000	0.083	-0.365
-324.114	-200.000	-0.017	0.568
-323.099	69.698	0.208	-0.213
-322.085	800.000	0.050	0.162
-321.070	526.413	-0.083	0.193
-320.056	-70.722	-0.202	0.076
-319.041	538.743	-0.081	0.192
-318.026	-200.000	0.023	0.237
-317.012	61.484	0.188	0.185
-315.997	99.941	0.154	-0.177
-314.983	-111.100	-0.232	0.047
-313.968	176.983	0.071	0.103
-312.953	-200.000	-0.046	0.236
-311.939	-200.000	-0.014	0.079
-310.924	-26.842	0.244	0.142
-309.910	800.000	-0.070	-0.239
-308.895	35.424	0.274	0.239
-307.880	339.765	0.141	0.273
-306.866	-35.869	-0.125	0.067
-305.851	-127.209	0.387	0.056
-304.837	800.000	-0.016	0.045
-303.822	-131.173	0.185	0.024
-302.807	-130.940	0.153	-0.020
-301.793	146.046	-0.159	0.212
-300.778	-121.893	-0.328	0.054
-299.764	-118.128	0.238	-0.042
-298.749	7.913	-0.211	0.157
-297.735	336.471	0.025	-0.048
-296.720	119.096	0.139	0.170
-295.705	106.383	0.277	0.326
-294.691	-81.886	0.179	-0.058
-293.676	526.896	-0.194	-0.454
-292.662	-200.000	0.016	-0.091
-291.647	-119.636	0.261	-0.045
-290.632	-6.633	-0.341	0.230
-289.618	431.341	0.102	-0.219
-288.603	419.267	-0.063	0.134
-287.589	541.286	0.179	0.424
-286.574	16.784	-0.349	0.273
-285.559	-67.875	0.091	-0.035
-284.545	-165.305	0.079	0.003
-283.530	-31.310	-0.061	-0.034
-282.516	-200.000	-0.010	0.211
-281.501	-200.000	-0.002	-0.251
-280.486	17.219	0.229	-0.180
-279.472	800.000	0.032	0.114
-278.457	-190.032	0.145	-0.002
-277.443	-200.000	0.018	-0.090
-276.428	391.194	-0.069	0.142
-275.413	-38.905	0.213	-0.111
-274.399	-148.117	0.081	-0.007
-273.384	19.794	0.253	-0.202
-272.370	20.859	0.249	0.200
-271.355	-140.414	-0.010	0.001
-270.340	-41.239	-0.106	0.054
-269.326	115.539	-0.101	-0.122
-268.311	29.524	-0.203	-0.171
-267.297	-89.722	0.159	-0.046
-266.282	49.784	0.341	-0.319
-265.267	-200.000	-0.021	0.348
-264.253	-163.582	-0.083	0.004
-263.238	126.425	-0.127	0.159
-262.224	-29.816	-0.212	-0.120
-261.209	-200.000	-0.032	-0.165
-260.195	-95.289	0.280	-0.075
-259.180	-124.069	-0.300	-0.047
-258.165	197.142	-0.113	0.171
-257.151	-10.878	0.166	-0.108
-256.136	-157.383	-0.246	0.015
-255.122	-164.919	0.105	-0.005
-254.107	-113.072	0.126	-0.025
-253.092	-200.000	0.015	-0.069
-252.078	-4.752	-0.283	-0.193
-251.063	-79.548	0.483	-0.161
-250.049	255.939	0.110	0.186
-249.034	89.942	0.065	0.072
-248.019	-200.000	0.048	-0.217
-247.005	610.700	0.209	-0.516
-245.990	-99.375	0.150	-0.037
-244.976	61.824	-0.158	0.156
-243.961	-200.000	-0.004	-0.045
-242.946	50.937	-0.151	0.141
-241.932	-200.000	-0.003	0.219
-240.917	42.927	0.392	0.354
-239.903	800.000	0.097	-0.399
-238.888	-86.723	-0.160	0.048
-237.873	-50.346	0.436	0.204
-236.859	241.088	-0.121	0.200
-235.844	-200.000	0.049	-0.352
-234.830	-109.298	0.077	-0.016
-233.815	-200.000	-0.067	0.000
-232.800	-32.741	-0.304	-0.167
-231.786	-200.000	0.029	-0.139
-230.771	15.094	0.140	-0.108
-229.757	-89.109	0.165	-0.048
-228.742	-43.289	0.207	-0.104
-227.727	-2.085	0.165	0.115
-226.713	-200.000	0.002	-0.146
-225.698	-129.516	0.368	0.050
-224.684	525.042	-0.095	0.222
-223.669	-113.817	0.444	-0.085
-222.655	-200.000	-0.019	0.084
-221.640	369.152	-0.194	-0.389
-220.625	800.000	0.049	-0.148
-219.611	-165.743	-0.178	0.008
-218.596	-200.000	0.051	-0.388
-217.582	-77.491	0.231	0.079
-216.567	-53.537	-0.190	-0.086
-215.552	426.656	0.175	-0.372
-214.538	-2.248	0.088	0.061
-213.523	-32.585	0.024	-0.013
-212.509	23.138	-0.219	-0.178
-211.494	-64.914	0.265	0.106
-210.479	-200.000	0.002	0.060
-209.465	317.015	-0.037	0.070
-208.450	89.192	0.172	-0.189
-207.436	-84.716	-0.178	-0.055
-206.421	-200.000	0.022	-0.103
-205.406	43.686	0.334	-0.302
-204.392	-102.298	0.290	-0.069
-203.377	-63.185	-0.241	-0.098
-202.363	175.725	-0.137	0.196
-201.348	-36.538	0.242	-0.129
-200.333	-7.527	-0.257	-0.172
-199.319	12.684	0.136	-0.104
-198.304	-114.367	-0.045	-0.009
-197.290	-144.405	0.356	0.033
-196.275	800.000	-0.081	0.298
-195.260	254.266	-0.042	0.070
-194.246	193.249	0.075	-0.113
-193.231	273.820	0.141	-0.246
-192.217	-7.376	-0.139	-0.093
-191.202	-66.021	-0.189	-0.074
-190.187	800.000	0.066	0.271
-189.173	8.239	-0.145	0.107
-188.158	-129.284	-0.306	-0.042
-187.144	-112.572	0.278	0.055
-186.129	-190.415	0.134	0.001
-185.114	-94.521	0.183	-0.049
-184.100	401.061	-0.182	-0.377
-183.085	305.145	-0.063	-0.116
-182.071	-200.000	0.027	-0.149
-181.056	-3.581	-0.087	-0.060
-180.042	-81.310	-0.312	0.102
-179.027	-54.162	-0.119	-0.053
-178.012	127.548	0.195	0.244
-176.998	800.000	0.094	0.319
-175.983	732.467	0.104	0.275
-174.969	71.025	-0.113	0.116
-173.954	800.000	0.051	-0.151
-172.939	19.431	-0.210	0.166
-171.925	-200.000	0.008	0.064
-170.910	-27.063	-0.433	0.249
-169.896	-3.258	-0.180	-0.124
-168.881	-200.000	0.018	-0.078
-167.866	-200.000	-0.001	-0.029
-166.852	-109.117	-0.084	0.018
-165.837	313.988	-0.102	0.190
-164.823	104.688	-0.154	0.179
-163.808	-70.337	0.282	-0.105
-162.793	-200.000	-0.042	0.273
-161.779	-117.651	-0.176	-0.031
-160.764	-112.153	0.109	0.022
-159.750	234.418	-0.110	0.179
-158.735	-63.607	0.107	-0.043
-157.720	264.135	-0.105	-0.180
-156.706	-57.530	-0.113	0.049
-155.691	27.160	-0.147	0.121
-154.677	-67.360	0.062	0.024
-153.662	83.341	-0.080	0.086
-152.647	-2.964	0.096	0.066
-151.633	-60.533	0.208	-0.087
-150.618	-124.871	0.109	0.017
-149.604	197.923	0.068	0.102
-148.589	-114.199	0.141	0.027
-147.574	647.014	-0.087	0.220
-146.560	-200.000	0.023	-0.103
-145.545	-80.707	0.327	0.107
-144.531	-111.266	0.389	0.078
-143.516	-53.653	-0.059	0.026
-142.502	800.000	-0.056	-0.176
-141.487	-117.814	0.128	-0.023
-140.472	-200.000	0.055	-0.593
-139.458	-200.000	-0.011	0.202
-138.443	80.158	-0.055	-0.058
-137.429	-34.940	0.264	0.142
-136.414	461.259	-0.108	0.237
-135.399	800.000	-0.022	0.070
-134.385	-48.561	-0.163	0.077
-133.370	291.898	-0.155	0.278
-132.356	-139.541	-0.314	-0.033
-131.341	-64.566	-0.120	0.048
-130.326	-6.804	-0.205	-0.137
-129.312	58.707	0.105	0.101
-128.297	248.672	0.199	-0.332
-127.283	-73.264	0.228	0.082
-126.268	-130.212	-0.528	-0.071
-125.253	-200.000	-0.022	0.185
-124.239	-179.380	0.224	-0.005
-123.224	-102.211	0.179	0.042
-122.210	132.086	0.096	0.122
