DTS Sentinel unit serial number:	SN413079Multiplexer serial number:	ORYXHardware model number:	OX4-SRSoftware version number:	ORYX F/W v4.00 Oryx Data Collector v3.7.2.0data status	okinstallation	princeton_trtdifferential loss correction	single-endedforward channel	channel 3reverse channel	N/Adate	2019/09/19time	09:00:35forward acquisition time	60.00reverse acquisition time	0.00gamma	496.2192k internal	0.2346k external	0.2346temperature offset calibration	0.9971default loss term (dB/km)	0.3790temperature slope calibration	1.0000multiplexer offset coefficient	1.0000multiplexer slope coefficient	1.0000fibre end	0.00T internal ref (°C)	21.50T ext. ref 1 (°C)	0.59T ext. ref 2 (°C)	17.93length (m)	temperature (°C)	Stokes	anti-Stokes-747.200	-64.794	0.197	0.080
-746.185	-89.236	0.311	-0.092
-745.171	-200.000	-0.000	0.366
-744.156	11.588	0.255	0.195
-743.142	-53.259	-0.228	-0.104
-742.127	-40.354	-0.302	0.157
-741.112	-100.180	0.166	0.041
-740.098	-99.001	0.086	0.022
-739.083	800.000	0.059	-0.198
-738.069	74.581	-0.060	0.063
-737.054	-7.144	-0.214	0.145
-736.039	-200.000	0.018	-0.088
-735.025	-200.000	0.002	0.359
-734.010	218.342	-0.134	-0.214
-732.996	-200.000	0.010	0.048
-731.981	123.568	0.148	-0.185
-730.966	94.965	0.151	-0.172
-729.952	-8.217	-0.306	0.206
-728.937	800.000	0.050	-0.148
-727.923	108.658	-0.137	-0.164
-726.908	44.273	0.076	0.070
-725.894	-200.000	-0.007	-0.157
-724.879	474.323	0.144	0.324
-723.864	800.000	0.039	0.156
-722.850	13.916	-0.147	-0.114
-721.835	800.000	-0.072	-0.243
-720.821	-200.000	0.005	-0.336
-719.806	152.036	-0.230	-0.314
-718.791	517.471	0.060	0.140
-717.777	-49.215	-0.198	0.094
-716.762	-58.147	-0.361	-0.157
-715.748	36.610	0.207	-0.182
-714.733	-163.996	-0.375	-0.017
-713.718	-39.724	0.230	-0.120
-712.704	54.802	-0.062	-0.060
-711.689	800.000	0.040	0.169
-710.675	-200.000	0.000	0.088
-709.660	-88.039	0.237	-0.071
-708.645	-83.523	-0.200	0.064
-707.631	-200.000	0.039	-0.197
-706.616	580.631	0.133	-0.326
-705.602	-133.061	-0.135	-0.017
-704.587	-58.772	-0.510	-0.221
-703.572	-4.195	-0.338	-0.233
-702.558	-95.305	0.095	-0.025
-701.543	-46.803	-0.354	-0.173
-700.529	-30.363	-0.132	-0.075
-699.514	-83.402	-0.234	-0.075
-698.499	21.203	0.277	-0.224
-697.485	214.892	-0.041	0.064
-696.470	-36.321	-0.426	-0.229
-695.456	-6.652	-0.410	0.279
-694.441	-22.679	-0.517	-0.312
-693.426	355.138	0.071	-0.142
-692.412	501.574	-0.025	-0.057
-691.397	101.348	-0.232	0.270
-690.383	23.797	0.098	-0.081
-689.368	-115.550	0.389	-0.073
-688.354	504.860	0.124	0.285
-687.339	407.331	0.072	-0.152
-686.324	345.495	0.111	-0.218
-685.310	-200.000	0.015	-0.126
-684.295	52.370	-0.201	-0.191
-683.281	32.740	-0.315	-0.272
-682.266	-6.838	-0.062	0.042
-681.251	41.512	0.143	-0.129
-680.237	-98.672	-0.472	0.120
-679.222	800.000	-0.006	-0.027
-678.208	-146.118	-0.128	0.011
-677.193	-166.105	-0.048	0.002
-676.178	-56.026	-0.466	-0.207
-675.164	-200.000	0.080	-0.451
-674.149	-3.029	-0.139	0.097
-673.135	-31.373	0.361	-0.202
-672.120	-105.125	-0.373	0.085
-671.105	-200.000	0.004	-0.071
-670.091	-120.166	-0.358	-0.061
-669.076	800.000	0.015	0.043
-668.062	127.646	-0.073	-0.092
-667.047	-46.115	0.223	-0.110
-666.032	800.000	-0.094	-0.273
-665.018	-191.182	0.047	-0.000
-664.003	149.782	-0.109	0.147
-662.989	-200.000	-0.006	-0.187
-661.974	-155.698	-0.171	-0.011
-660.959	-128.239	-0.169	0.024
-659.945	66.696	-0.168	-0.170
-658.930	118.219	-0.031	-0.038
-657.916	38.177	-0.204	0.181
-656.901	-65.633	-0.111	0.044
-655.886	-107.929	0.096	-0.021
-654.872	741.102	0.034	0.090
-653.857	-91.972	-0.190	0.054
-652.843	800.000	-0.099	0.343
-651.828	-33.293	-0.035	-0.019
-650.814	338.035	0.099	-0.192
-649.799	0.276	0.127	0.090
-648.784	-53.475	0.403	-0.184
-647.770	35.650	-0.161	-0.141
-646.755	105.760	-0.147	-0.173
-645.741	800.000	0.136	0.426
-644.726	-10.968	0.193	-0.127
-643.711	-39.434	-0.179	0.094
-642.697	800.000	-0.041	0.170
-641.682	440.692	-0.159	-0.346
-640.668	63.735	0.303	-0.303
-639.653	-144.056	-0.277	0.026
-638.638	246.843	0.025	-0.042
-637.624	-64.870	0.135	-0.055
-636.609	552.111	0.101	-0.242
-635.595	419.957	-0.155	-0.331
-634.580	800.000	0.098	0.350
-633.565	-8.135	0.188	0.126
-632.551	-200.000	-0.081	-0.375
-631.536	483.744	-0.063	-0.144
-630.522	-65.495	-0.009	-0.003
-629.507	323.236	0.143	-0.270
-628.492	2.043	-0.113	-0.081
-627.478	-200.000	-0.042	0.188
-626.463	-129.686	-0.144	-0.020
-625.449	-200.000	-0.022	-0.171
-624.434	23.801	-0.100	-0.082
-623.419	-200.000	0.009	-0.166
-622.405	-155.380	-0.143	-0.009
-621.390	-200.000	0.019	0.215
-620.376	-13.408	-0.398	0.257
-619.361	800.000	-0.035	0.128
-618.346	519.207	-0.110	-0.257
-617.332	-105.721	0.090	-0.020
-616.317	88.199	-0.295	0.325
-615.303	-2.543	0.159	0.111
-614.288	88.138	0.046	0.050
-613.273	110.183	-0.082	0.097
-612.259	128.588	0.163	-0.206
-611.244	220.972	0.313	0.500
-610.230	-200.000	0.011	-0.235
-609.215	-1.539	0.324	0.227
-608.201	-200.000	-0.050	0.250
-607.186	-57.756	0.179	0.078
-606.171	-9.605	-0.002	0.001
-605.157	155.446	-0.366	-0.502
-604.142	73.220	0.104	0.108
-603.128	-107.256	0.187	0.041
-602.113	-156.167	-0.242	-0.015
-601.098	-55.154	-0.083	-0.037
-600.084	-200.000	-0.055	0.303
-599.069	-101.130	-0.238	0.058
-598.055	284.246	-0.081	0.145
-597.040	271.618	-0.103	-0.180
-596.025	-181.363	0.078	-0.002
-595.011	-169.165	-0.155	-0.006
-593.996	-68.250	-0.271	0.105
-592.982	-23.119	0.372	-0.223
-591.967	99.923	-0.023	-0.026
-590.952	-200.000	0.015	0.295
-589.938	-200.000	0.028	-0.153
-588.923	284.599	-0.093	0.167
-587.909	61.024	-0.086	-0.085
-586.894	-125.666	-0.307	-0.046
-585.879	269.076	0.049	-0.086
-584.865	42.306	-0.098	-0.089
-583.850	551.864	0.056	0.134
-582.836	-43.782	-0.096	0.048
-581.821	190.567	0.264	-0.394
-580.806	-122.516	0.151	-0.024
-579.792	-200.000	-0.022	-0.370
-578.777	-88.130	0.045	-0.013
-577.763	-67.402	0.280	-0.109
-576.748	-103.540	-0.265	0.062
-575.733	-200.000	-0.040	0.287
-574.719	-81.712	-0.042	-0.014
-573.704	664.229	-0.076	0.195
-572.690	201.178	0.130	0.199
-571.675	683.085	0.104	0.269
-570.661	-9.127	-0.170	-0.113
-569.646	355.973	0.142	0.281
-568.631	-74.741	0.395	0.141
-567.617	-93.635	-0.335	0.092
-566.602	-200.000	0.070	-0.334
-565.588	800.000	-0.039	0.161
-564.573	-149.353	-0.082	-0.006
-563.558	334.037	0.111	0.213
-562.544	-63.227	0.255	-0.104
-561.529	-44.906	0.238	-0.118
-560.515	-46.768	-0.041	-0.020
-559.500	800.000	0.025	-0.080
-558.485	281.775	-0.178	-0.317
-557.471	24.793	-0.281	-0.231
-556.456	-63.863	0.268	0.109
-555.442	800.000	0.026	-0.090
-554.427	268.779	0.042	0.073
-553.412	-143.499	-0.612	-0.058
-552.398	-104.257	-0.193	0.044
-551.383	-109.406	-0.152	-0.032
-550.369	241.041	0.058	-0.096
-549.354	-120.172	-0.245	-0.042
-548.339	77.083	-0.164	-0.173
-547.325	-88.151	-0.312	0.093
-546.310	-42.035	0.320	0.163
-545.296	-200.000	0.011	-0.177
-544.281	34.579	0.183	-0.159
-543.266	-133.541	-0.195	0.024
-542.252	-105.521	0.132	0.030
-541.237	-166.775	0.180	0.007
-540.223	-170.425	0.126	0.004
-539.208	800.000	-0.055	-0.179
-538.193	-200.000	0.004	-0.309
-537.179	-88.428	0.110	0.032
-536.164	-168.174	0.288	0.011
-535.150	329.499	-0.092	0.176
-534.135	458.243	-0.086	-0.189
-533.121	441.088	-0.167	0.363
-532.106	75.058	0.067	0.070
-531.091	288.695	0.103	-0.185
-530.077	154.225	0.178	0.243
-529.062	-161.083	0.242	0.013
-528.048	75.379	0.056	0.058
-527.033	-107.886	0.360	-0.078
-526.018	-33.243	-0.099	0.054
-525.004	-46.624	0.206	-0.100
-523.989	-200.000	-0.062	-0.305
-522.975	-200.000	-0.021	0.311
-521.960	15.170	0.123	-0.095
-520.945	-44.510	0.057	0.028
-519.931	-38.455	0.278	0.146
-518.916	128.057	-0.434	-0.547
-517.902	-200.000	-0.015	0.158
-516.887	-171.097	0.165	-0.006
-515.872	-125.251	-0.327	-0.050
-514.858	96.129	0.119	-0.135
-513.843	-200.000	-0.021	-0.103
-512.829	109.271	-0.140	-0.166
-511.814	179.853	-0.124	0.181
-510.799	-200.000	-0.004	0.059
-509.785	-181.181	-0.343	0.007
-508.770	800.000	-0.036	-0.150
-507.756	-100.438	0.124	-0.030
-506.741	17.895	-0.216	0.170
-505.726	-2.540	0.316	0.219
-504.712	800.000	-0.023	-0.067
-503.697	462.099	-0.060	0.133
-502.683	-6.441	-0.086	0.058
-501.668	-200.000	-0.080	-0.380
-500.653	-81.840	0.222	0.072
-499.639	514.648	-0.062	-0.143
-498.624	-200.000	-0.018	0.100
-497.610	228.646	0.163	-0.264
-496.595	-56.292	0.388	0.171
-495.581	186.407	0.090	-0.133
-494.566	-79.149	-0.198	0.066
-493.551	147.179	0.158	0.210
-492.537	49.727	0.179	0.167
-491.522	31.337	-0.210	0.179
-490.508	-91.885	0.278	-0.078
-489.493	-200.000	-0.044	0.234
-488.478	609.970	0.078	0.193
-487.464	-6.791	-0.216	0.145
-486.449	800.000	-0.116	-0.434
-485.435	-42.606	-0.247	-0.125
-484.420	-200.000	0.002	-0.119
-483.405	-200.000	0.004	0.142
-482.391	-43.387	-0.117	-0.058
-481.376	-30.310	-0.142	0.080
-480.362	13.611	-0.351	-0.270
-479.347	238.697	-0.145	-0.239
-478.332	-122.756	-0.180	-0.029
-477.318	9.272	0.158	-0.118
-476.303	10.739	-0.147	0.111
-475.289	-70.623	0.102	-0.038
-474.274	137.775	0.327	0.423
-473.259	-47.006	-0.270	0.130
-472.245	800.000	-0.098	-0.371
-471.230	533.832	-0.031	-0.072
-470.216	-92.437	-0.065	0.018
-469.201	-200.000	-0.001	0.051
-468.186	-45.785	0.317	-0.155
-467.172	77.627	-0.181	0.191
-466.157	-200.000	-0.044	0.389
-465.143	-88.173	-0.257	0.076
-464.128	800.000	0.083	0.260
-463.113	-200.000	0.087	0.390
-462.099	9.792	-0.276	-0.207
-461.084	148.491	0.237	-0.316
-460.070	281.351	-0.090	0.160
-459.055	800.000	-0.040	0.128
-458.040	253.934	0.020	0.033
-457.026	-107.685	0.179	-0.039
-456.011	-120.659	0.066	0.011
-454.997	-200.000	-0.008	-0.090
-453.982	751.872	-0.066	-0.175
-452.968	800.000	-0.045	0.123
-451.953	-52.525	0.221	0.101
-450.938	122.006	-0.095	-0.117
-449.924	110.990	-0.118	-0.140
-448.909	-200.000	-0.007	-0.176
-447.895	-200.000	0.024	0.277
-446.880	800.000	-0.104	0.294
-445.865	-200.000	-0.054	0.538
-444.851	800.000	-0.070	-0.204
-443.836	-200.000	0.030	-0.139
-442.822	800.000	-0.072	-0.276
-441.807	12.304	-0.222	-0.169
-440.792	-72.669	-0.171	0.062
-439.778	800.000	0.103	-0.384
-438.763	-200.000	-0.007	-0.259
-437.749	-32.071	-0.198	0.109
-436.734	1.583	-0.189	0.134
-435.719	-75.317	-0.085	-0.030
-434.705	800.000	0.123	0.391
-433.690	266.638	-0.235	-0.406
-432.676	195.468	0.148	-0.222
-431.661	-85.486	0.323	0.099
-430.646	213.813	-0.139	0.217
-429.632	-23.358	-0.373	0.221
-428.617	39.076	-0.207	-0.183
-427.603	800.000	-0.145	-0.405
-426.588	-68.452	0.125	0.048
-425.573	-94.997	0.153	0.041
-424.559	-200.000	-0.017	-0.078
-423.544	-106.610	0.243	-0.053
-422.530	800.000	0.134	0.372
-421.515	63.425	-0.198	-0.196
-420.500	-140.865	-0.156	0.016
-419.486	-8.580	0.272	0.180
-418.471	-136.952	0.127	0.014
-417.457	-106.500	0.098	0.022
-416.442	63.299	0.110	0.109
-415.428	-200.000	-0.026	-0.125
-414.413	60.100	-0.196	-0.191
-413.398	132.937	0.242	0.308
-412.384	-200.000	-0.003	-0.262
-411.369	67.375	-0.096	0.097
-410.355	-136.472	-0.125	0.014
-409.340	800.000	-0.114	-0.361
-408.325	-114.649	-0.012	-0.002
-407.311	39.814	-0.220	-0.195
-406.296	800.000	0.119	-0.403
-405.282	-164.733	-0.273	0.012
-404.267	-31.183	0.267	-0.148
-403.252	24.318	0.038	0.031
-402.238	800.000	0.074	-0.222
-401.223	-133.707	0.261	-0.032
-400.209	-200.000	-0.023	-0.159
-399.194	-153.837	-0.031	-0.002
-398.179	564.525	0.157	0.375
-397.165	282.737	-0.090	-0.160
-396.150	-12.454	0.284	-0.183
-395.136	460.741	0.113	-0.248
-394.121	-200.000	-0.014	0.135
-393.106	800.000	0.061	0.222
-392.092	-200.000	-0.029	0.143
-391.077	-200.000	0.054	0.359
-390.063	-200.000	0.000	-0.049
-389.048	70.062	0.146	-0.149
-388.033	11.327	-0.312	0.236
-387.019	297.305	0.114	-0.207
-386.004	7.767	0.148	-0.109
-384.990	50.355	0.113	0.105
-383.975	200.878	0.124	0.188
-382.960	800.000	0.111	0.346
-381.946	-3.745	-0.214	-0.147
-380.931	-200.000	0.008	-0.187
-379.917	-200.000	0.029	-0.290
-378.902	203.810	0.281	0.429
-377.888	-9.922	0.200	0.131
-376.873	-125.148	0.194	0.029
-375.858	-12.450	-0.075	-0.049
-374.844	-200.000	0.043	0.380
-373.829	734.114	0.022	0.058
-372.815	572.805	-0.048	0.115
-371.800	-78.347	-0.126	0.043
-370.785	800.000	-0.103	0.305
-369.771	800.000	-0.049	-0.174
-368.756	-108.812	-0.167	0.035
-367.742	72.711	-0.246	-0.253
-366.727	384.950	-0.088	0.180
-365.712	-200.000	-0.034	-0.366
-364.698	-178.447	0.407	0.009
-363.683	-82.088	0.132	0.042
-362.669	-200.000	-0.027	0.143
-361.654	800.000	0.036	-0.122
-360.639	-150.036	0.107	-0.008
-359.625	52.224	-0.344	-0.323
-358.610	-50.821	0.351	-0.162
-357.596	-56.660	0.108	-0.047
-356.581	-171.998	-0.189	0.006
-355.566	-200.000	-0.001	-0.282
-354.552	-106.622	-0.172	0.038
-353.537	-200.000	0.010	0.274
-352.523	-200.000	-0.039	0.313
-351.508	-200.000	0.025	0.419
-350.493	699.693	0.033	0.086
-349.479	12.536	0.068	0.052
-348.464	165.091	-0.133	-0.185
-347.450	106.599	-0.210	0.245
-346.435	99.832	0.215	0.245
-345.420	157.932	0.095	-0.130
-344.406	-106.118	-0.102	-0.022
-343.391	-133.171	-0.045	0.006
-342.377	-200.000	-0.012	-0.227
-341.362	23.744	0.124	0.101
-340.348	153.231	0.069	-0.092
-339.333	-77.614	-0.039	0.013
-338.318	800.000	0.067	0.181
-337.304	-92.380	-0.218	0.060
-336.289	344.975	0.153	-0.296
-335.275	-123.206	0.195	0.031
-334.260	158.455	-0.167	0.228
-333.245	800.000	0.055	-0.207
-332.231	-55.331	0.230	0.101
-331.216	280.176	0.206	0.361
-330.202	66.676	0.169	0.169
-329.187	340.233	0.138	0.265
-328.172	-200.000	-0.051	-0.373
-327.158	800.000	-0.045	-0.129
-326.143	-200.000	-0.049	-0.317
-325.129	-200.000	0.010	0.360
-324.114	800.000	-0.038	0.124
-323.099	26.000	-0.315	0.258
-322.085	-200.000	-0.008	0.176
-321.070	-127.832	-0.195	-0.028
-320.056	-119.016	-0.303	-0.052
-319.041	7.973	-0.155	-0.114
-318.026	-89.444	0.135	-0.039
-317.012	-79.061	-0.397	-0.133
-315.997	-25.999	0.089	0.052
-314.983	200.018	-0.118	0.178
-313.968	172.547	-0.110	-0.155
-312.953	95.228	-0.052	-0.058
-311.939	-158.518	0.198	0.011
-310.924	156.569	0.151	-0.205
-309.910	187.958	-0.110	-0.161
-308.895	800.000	0.011	-0.037
-307.880	-68.375	-0.455	-0.174
-306.866	-74.929	-0.162	0.057
-305.851	-80.156	-0.406	0.134
-304.837	-200.000	0.018	-0.173
-303.822	280.683	-0.142	0.250
-302.807	11.720	0.262	0.198
-301.793	1.307	-0.239	-0.169
-300.778	800.000	0.080	-0.256
-299.764	-200.000	-0.056	-0.278
-298.749	-200.000	0.018	-0.093
-297.735	512.672	-0.057	-0.130
-296.720	130.959	0.066	-0.083
-295.705	-200.000	0.003	-0.227
-294.691	72.687	-0.176	0.181
-293.676	-200.000	-0.034	-0.169
-292.662	-115.431	0.243	0.045
-291.647	-200.000	0.038	-0.252
-290.632	-18.576	0.205	-0.126
-289.618	2.550	-0.058	0.042
-288.603	141.069	-0.278	0.361
-287.589	-61.338	-0.109	0.045
-286.574	-133.126	-0.243	-0.030
-285.559	-200.000	0.017	0.133
-284.545	-22.750	-0.265	-0.157
-283.530	112.424	-0.236	-0.281
-282.516	800.000	0.115	-0.380
-281.501	-200.000	0.003	-0.482
-280.486	15.773	-0.162	-0.125
-279.472	-12.340	0.162	0.104
-278.457	609.411	-0.042	0.103
-277.443	-200.000	0.027	0.185
-276.428	-97.143	0.260	0.067
-275.413	16.905	0.039	0.030
-274.399	307.680	-0.104	0.190
-273.384	484.622	-0.109	0.242
-272.370	-140.049	0.318	0.033
-271.355	-200.000	0.036	0.255
-270.340	189.289	-0.114	-0.168
-269.326	-200.000	0.064	0.336
-268.311	89.633	-0.118	-0.129
-267.297	713.324	-0.122	0.317
-266.282	-91.084	0.208	0.059
-265.267	-200.000	-0.022	0.115
-264.253	-200.000	0.013	0.074
-263.238	-106.756	-0.145	-0.031
-262.224	800.000	-0.040	-0.125
-261.209	-200.000	0.075	-0.482
-260.195	35.642	-0.102	0.088
-259.180	-108.321	0.169	0.036
-258.165	-174.091	0.349	-0.010
-257.151	-95.662	0.352	0.092
-256.136	-144.714	-0.177	-0.016
-255.122	186.605	-0.261	0.381
-254.107	243.295	0.121	-0.199
-253.092	125.701	0.168	-0.208
-252.078	50.026	-0.158	0.146
-251.063	-113.504	0.464	0.089
-250.049	-200.000	-0.048	0.256
-249.034	800.000	-0.071	0.227
-248.019	10.096	0.291	0.217
-247.005	165.891	0.084	-0.117
-245.990	-25.229	-0.156	0.091
-244.976	-98.820	0.234	0.058
-243.961	574.518	0.060	0.144
-242.946	781.885	0.072	-0.194
-241.932	776.120	0.073	-0.195
-240.917	800.000	0.154	-0.459
-239.903	621.097	0.058	-0.143
-238.888	-37.377	-0.130	0.068
-237.873	-74.057	-0.215	0.076
-236.859	-200.000	-0.027	0.272
-235.844	274.659	0.114	-0.197
-234.830	6.265	-0.035	0.025
-233.815	-149.126	0.494	-0.039
-232.800	-116.083	0.317	0.058
-231.786	406.186	-0.050	0.104
-230.771	122.015	-0.268	0.327
-229.757	-200.000	-0.011	0.131
-228.742	-103.877	0.079	0.018
-227.727	-200.000	-0.039	0.305
-226.713	122.869	0.088	-0.107
-225.698	800.000	-0.084	-0.339
-224.684	316.028	-0.091	-0.167
-223.669	-119.048	0.139	0.024
-222.655	144.844	0.257	-0.336
-221.640	-200.000	0.006	-0.255
-220.625	88.581	0.340	0.370
-219.611	-173.779	0.191	-0.006
-218.596	21.801	0.259	-0.207
-217.582	-65.250	-0.093	-0.037
-216.567	521.748	0.026	0.061
-215.552	99.077	0.052	0.059
-214.538	-28.232	0.330	0.187
-213.523	83.572	-0.107	0.114
-212.509	125.682	-0.134	-0.165
-211.494	800.000	0.026	0.072
-210.479	-39.420	-0.179	0.092
-209.465	127.731	-0.133	-0.165
-208.450	-111.279	-0.095	-0.019
-207.436	-45.447	0.218	0.106
-206.421	537.617	0.080	-0.187
-205.406	800.000	-0.075	-0.214
-204.392	-200.000	-0.026	0.117
-203.377	800.000	-0.061	0.232
-202.363	-161.590	0.118	0.006
-201.348	-17.899	0.342	0.210
-200.333	-178.956	-0.123	-0.003
-199.319	-200.000	0.005	-0.051
-198.304	-12.983	-0.350	0.223
-197.290	800.000	0.045	0.151
-196.275	252.475	0.121	-0.202
-195.260	-178.347	-0.185	0.004
-194.246	165.249	-0.060	0.083
-193.231	800.000	-0.012	-0.035
-192.217	-136.663	0.150	-0.017
-191.202	800.000	-0.085	0.252
-190.187	-200.000	-0.015	-0.127
-189.173	-189.437	-0.085	0.001
-188.158	-174.440	-0.104	0.003
-187.144	-122.097	0.303	0.049
-186.129	74.599	0.239	-0.246
-185.114	-200.000	0.042	-0.228
-184.100	-200.000	0.044	-0.231
-183.085	19.833	-0.220	0.174
-182.071	4.381	0.072	0.052
-181.056	-175.925	0.293	-0.008
-180.042	261.083	-0.115	0.194
-179.027	62.156	-0.280	0.273
-178.012	153.472	-0.100	0.134
-176.998	-21.341	-0.041	-0.025
-175.983	124.979	0.270	-0.332
-174.969	-200.000	0.004	-0.270
-173.954	620.481	-0.017	0.042
-172.939	-20.206	0.105	-0.063
-171.925	-138.301	0.191	0.021
-170.910	71.865	-0.149	-0.151
-169.896	91.139	0.063	0.069
-168.881	-52.310	-0.120	0.055
-167.866	-77.493	-0.237	-0.080
-166.852	243.754	-0.092	0.151
-165.837	28.959	0.136	-0.112
-164.823	-138.752	-0.276	0.029
-163.808	184.372	-0.146	0.211
-162.793	-43.650	0.364	-0.179
-161.779	-14.921	-0.337	0.211
-160.764	800.000	0.043	0.141
-159.750	-69.365	-0.151	-0.057
-158.735	-200.000	-0.014	-0.093
-157.720	431.914	-0.070	0.147
-156.706	-124.900	0.259	-0.039
-155.691	-20.250	0.270	-0.162
-154.677	402.660	0.101	0.208
-153.662	698.712	-0.134	0.344
-152.647	800.000	-0.073	0.303
-151.633	-114.862	0.160	-0.030
-150.618	-47.669	-0.141	0.067
-149.604	-9.409	-0.125	-0.081
-148.589	507.258	-0.051	-0.116
-147.574	-200.000	0.011	-0.092
-146.560	48.971	-0.068	0.063
-145.545	294.916	0.116	0.207
-144.531	-200.000	0.053	0.373
-143.516	-153.860	0.227	-0.015
-142.502	73.980	-0.295	-0.303
-141.487	-103.039	0.302	-0.070
-140.472	401.085	0.050	-0.103
-139.458	-151.540	-0.271	-0.020
-138.443	684.155	-0.085	-0.215
-137.429	323.911	0.077	0.143
-136.414	43.412	0.078	-0.070
-135.399	-139.692	0.353	0.037
-134.385	-29.186	-0.291	-0.163
-133.370	-4.771	0.174	-0.117
-132.356	800.000	0.076	-0.206
-131.341	-200.000	0.002	-0.085
-130.326	-98.157	0.364	-0.091
-129.312	-200.000	0.034	0.227
-128.297	25.346	0.082	0.066
-127.283	-71.970	0.163	0.059
-126.268	162.319	0.104	-0.142
-125.253	151.395	0.196	-0.261
-124.239	-38.759	0.290	-0.149
-123.224	800.000	0.154	0.418
-122.210	-65.166	0.178	0.070
