DTS Sentinel unit serial number:	SN413079Multiplexer serial number:	ORYXHardware model number:	OX4-SRSoftware version number:	ORYX F/W v4.00 Oryx Data Collector v3.7.2.0data status	okinstallation	princeton_trtdifferential loss correction	single-endedforward channel	channel 3reverse channel	N/Adate	2019/09/15time	19:32:35forward acquisition time	60.00reverse acquisition time	0.00gamma	496.2192k internal	0.2301k external	0.2301temperature offset calibration	0.9931default loss term (dB/km)	0.3790temperature slope calibration	1.0000multiplexer offset coefficient	1.0000multiplexer slope coefficient	1.0000fibre end	0.00T internal ref (°C)	38.45T ext. ref 1 (°C)	7.31T ext. ref 2 (°C)	28.02length (m)	temperature (°C)	Stokes	anti-Stokes-747.200	-200.000	-0.027	0.155
-746.185	-104.369	0.052	-0.012
-745.171	377.674	-0.088	0.184
-744.156	-0.805	-0.226	0.163
-743.142	-78.503	-0.053	-0.018
-742.127	33.573	-0.158	0.140
-741.112	-82.694	-0.122	-0.040
-740.098	12.842	0.142	0.112
-739.083	363.302	-0.148	0.303
-738.069	321.444	0.067	0.129
-737.054	149.194	-0.108	0.149
-736.039	-80.858	-0.173	0.059
-735.025	-200.000	0.075	0.353
-734.010	-149.126	0.145	-0.012
-732.996	142.278	-0.170	0.230
-731.981	9.718	-0.171	0.132
-730.966	-36.775	-0.321	-0.176
-729.952	-200.000	-0.061	0.457
-728.937	121.308	-0.099	-0.126
-727.923	76.924	0.215	0.232
-726.908	-155.859	0.238	0.015
-725.894	-200.000	-0.016	-0.255
-724.879	229.375	-0.156	-0.260
-723.864	213.311	0.245	0.395
-722.850	-44.635	0.180	-0.092
-721.835	-157.183	-0.162	-0.010
-720.821	-83.871	-0.083	0.027
-719.806	-200.000	0.025	-0.171
-718.791	-66.415	-0.042	-0.017
-717.777	500.550	-0.123	-0.290
-716.762	800.000	0.026	-0.099
-715.748	-36.455	0.076	-0.041
-714.733	30.556	-0.175	0.153
-713.718	120.772	-0.113	-0.143
-712.704	-101.281	0.118	0.029
-711.689	-200.000	0.027	0.235
-710.675	-63.936	0.075	0.031
-709.660	335.213	0.081	0.161
-708.645	-200.000	-0.001	-0.149
-707.631	108.418	-0.198	0.241
-706.616	12.261	0.247	0.193
-705.602	800.000	0.083	-0.296
-704.587	-51.629	-0.263	0.125
-703.572	-71.298	0.195	-0.075
-702.558	134.938	0.113	0.150
-701.543	-128.227	0.083	-0.012
-700.529	-200.000	0.020	-0.161
-699.514	-79.462	0.111	-0.038
-698.499	-144.751	-0.144	-0.013
-697.485	-171.540	-0.315	-0.011
-696.470	-55.088	-0.309	-0.142
-695.456	-1.018	0.217	-0.156
-694.441	67.911	-0.166	-0.172
-693.426	-196.564	-0.144	-0.001
-692.412	-38.684	-0.354	-0.190
-691.397	-200.000	0.002	-0.180
-690.383	-200.000	0.005	0.068
-689.368	-2.946	-0.227	-0.161
-688.354	25.128	-0.122	-0.103
-687.339	33.920	-0.326	-0.289
-686.324	156.579	-0.082	-0.115
-685.310	50.410	0.024	-0.024
-684.295	559.086	0.153	0.377
-683.281	-106.071	-0.408	-0.093
-682.266	-10.965	-0.253	-0.170
-681.251	-13.536	0.115	-0.076
-680.237	-79.553	-0.152	0.052
-679.222	-167.882	-0.265	0.011
-678.208	5.856	0.122	0.092
-677.193	105.407	-0.097	0.116
-676.178	-200.000	0.019	-0.164
-675.164	403.044	-0.224	0.479
-674.149	-32.507	0.187	0.106
-673.135	-71.046	-0.196	-0.075
-672.120	301.413	-0.058	0.110
-671.105	-200.000	0.002	0.060
-670.091	14.689	0.108	0.086
-669.076	-200.000	-0.057	-0.282
-668.062	-104.896	0.180	-0.042
-667.047	2.957	-0.065	0.048
-666.032	-121.266	-0.173	-0.029
-665.018	-153.251	-0.244	-0.017
-664.003	163.188	0.141	0.201
-662.989	35.543	-0.290	0.259
-661.974	68.408	-0.151	-0.158
-660.959	168.343	-0.161	0.233
-659.945	-200.000	0.016	-0.206
-658.930	174.135	-0.173	0.254
-657.916	-156.360	0.122	0.008
-656.901	-56.849	0.230	0.103
-655.886	-23.270	-0.020	-0.012
-654.872	-52.137	-0.282	-0.133
-653.857	-47.596	0.186	0.092
-652.843	30.825	-0.174	0.151
-651.828	7.058	-0.183	0.139
-650.814	-47.289	0.051	-0.025
-649.799	-56.639	0.340	0.153
-648.784	800.000	0.039	-0.117
-647.770	132.871	-0.170	-0.223
-646.755	126.657	0.059	-0.076
-645.741	79.914	-0.170	-0.185
-644.726	-115.494	-0.331	-0.063
-643.711	-125.417	0.276	0.043
-642.697	84.302	0.232	0.257
-641.682	14.488	-0.207	-0.164
-640.668	-109.873	0.039	-0.008
-639.653	-142.761	-0.497	-0.049
-638.638	-59.915	-0.091	-0.039
-637.624	276.588	-0.101	0.181
-636.609	294.979	0.167	-0.309
-635.595	-132.847	-0.248	0.032
-634.580	321.299	0.084	0.163
-633.565	-53.057	0.298	0.139
-632.551	-78.766	-0.446	0.154
-631.536	-144.944	0.366	-0.034
-630.522	332.900	-0.060	0.117
-629.507	-200.000	-0.008	0.116
-628.492	800.000	-0.073	0.241
-627.478	243.915	0.074	0.125
-626.463	-200.000	-0.013	-0.084
-625.449	-14.723	-0.168	-0.109
-624.434	-111.921	0.220	0.045
-623.419	-139.187	0.064	0.007
-622.405	-54.055	-0.141	-0.065
-621.390	-12.139	0.285	0.189
-620.376	-123.938	0.112	0.018
-619.361	-200.000	-0.007	-0.036
-618.346	-200.000	-0.030	0.461
-617.332	-34.555	0.169	-0.094
-616.317	145.375	0.206	-0.279
-615.303	-7.882	0.103	-0.071
-614.288	-140.564	0.122	0.013
-613.273	800.000	-0.059	0.188
-612.259	-200.000	-0.025	0.326
-611.244	392.677	-0.101	-0.213
-610.230	409.534	-0.151	-0.324
-609.215	85.438	0.163	-0.181
-608.201	96.456	-0.096	0.111
-607.186	242.286	-0.147	-0.249
-606.171	360.592	0.163	-0.332
-605.157	-169.497	-0.235	-0.009
-604.142	800.000	-0.070	0.303
-603.128	-194.283	-0.138	-0.001
-602.113	-71.043	0.217	-0.083
-601.098	-200.000	-0.002	-0.211
-600.084	220.205	-0.128	-0.208
-599.069	-54.256	0.160	-0.074
-598.055	-108.053	-0.459	0.101
-597.040	632.425	0.031	0.078
-596.025	190.871	-0.148	-0.225
-595.011	-27.041	-0.150	0.089
-593.996	-62.853	-0.071	0.030
-592.982	-200.000	0.060	-0.347
-591.967	-132.596	0.090	0.012
-590.952	-200.000	0.093	-0.427
-589.938	-58.219	0.297	0.131
-588.923	-200.000	-0.010	-0.062
-587.909	497.924	-0.083	0.193
-586.894	-97.173	-0.271	-0.072
-585.879	-56.783	-0.308	-0.138
-584.865	-200.000	-0.014	-0.271
-583.850	-120.699	-0.107	-0.018
-582.836	170.028	0.073	0.106
-581.821	-64.473	-0.330	0.136
-580.806	-200.000	0.013	0.109
-579.792	-149.241	0.062	-0.005
-578.777	800.000	0.111	0.384
-577.763	-96.373	0.059	-0.016
-576.748	-62.987	-0.337	-0.141
-575.733	-64.346	-0.140	-0.058
-574.719	131.515	-0.112	-0.145
-573.704	-95.196	0.187	-0.051
-572.690	-60.664	0.205	0.088
-571.675	800.000	0.039	-0.150
-570.661	-200.000	0.011	0.102
-569.646	-9.981	0.143	0.096
-568.631	-55.369	0.138	-0.063
-567.617	-137.185	-0.132	-0.015
-566.602	34.149	0.237	0.209
-565.588	-200.000	0.024	-0.292
-564.573	-0.217	0.116	0.084
-563.558	-107.517	-0.172	-0.038
-562.544	-141.114	0.313	0.032
-561.529	270.179	-0.071	-0.127
-560.515	-118.317	0.102	0.018
-559.500	218.660	-0.168	0.271
-558.485	800.000	-0.076	-0.236
-557.471	-29.972	-0.242	0.139
-556.456	-200.000	-0.003	-0.140
-555.442	-187.373	0.374	0.005
-554.427	-103.564	0.263	0.062
-553.412	-200.000	-0.014	-0.349
-552.398	-104.651	-0.205	0.048
-551.383	24.436	0.214	-0.179
-550.369	-101.529	0.143	-0.035
-549.354	-70.265	0.234	0.090
-548.339	-0.501	0.138	0.099
-547.325	-126.965	0.156	0.023
-546.310	-128.714	0.300	-0.043
-545.296	20.845	0.016	0.013
-544.281	368.917	-0.116	-0.237
-543.266	-200.000	0.026	-0.125
-542.252	-141.498	-0.185	-0.019
-541.237	210.131	-0.129	-0.205
-540.223	163.072	-0.081	-0.115
-539.208	-182.553	-0.181	-0.003
-538.193	163.303	0.138	0.197
-537.179	-77.629	0.370	0.130
-536.164	800.000	0.047	-0.199
-535.150	277.990	0.111	0.201
-534.135	471.020	-0.088	-0.199
-533.121	-200.000	0.025	0.173
-532.106	342.928	-0.147	0.291
-531.091	-127.864	-0.122	-0.018
-530.077	44.474	-0.353	-0.328
-529.062	800.000	0.044	0.148
-528.048	58.119	-0.121	0.120
-527.033	305.034	-0.125	-0.235
-526.018	-200.000	-0.010	0.116
-525.004	800.000	-0.025	-0.080
-523.989	520.451	0.093	-0.220
-522.975	-105.824	0.206	-0.047
-521.960	-65.952	-0.356	0.144
-520.945	-28.968	-0.393	-0.228
-519.931	76.190	-0.204	0.218
-518.916	800.000	-0.030	-0.086
-517.902	395.121	0.075	-0.158
-516.887	51.277	0.081	-0.078
-515.872	9.349	-0.196	0.150
-514.858	-32.672	-0.108	-0.060
-513.843	-123.135	0.284	0.046
-512.829	800.000	0.074	0.219
-511.814	269.168	-0.099	0.175
-510.799	-123.137	0.142	0.023
-509.785	-200.000	-0.037	-0.219
-508.770	-200.000	0.044	-0.320
-507.756	-94.940	0.060	0.016
-506.741	-61.811	0.260	-0.110
-505.726	663.898	0.054	-0.141
-504.712	-3.122	0.048	-0.034
-503.697	-200.000	-0.077	0.352
-502.683	186.641	-0.141	-0.212
-501.668	53.303	-0.297	-0.287
-500.653	-200.000	-0.010	0.171
-499.639	15.620	-0.207	0.164
-498.624	41.960	-0.213	-0.195
-497.610	15.765	-0.126	-0.100
-496.595	800.000	-0.068	0.257
-495.581	-21.632	-0.119	-0.073
-494.566	-136.779	-0.198	0.023
-493.551	37.190	0.195	-0.174
-492.537	91.186	-0.337	0.382
-491.522	64.123	-0.212	-0.215
-490.508	-200.000	-0.025	-0.331
-489.493	21.355	-0.112	-0.092
-488.478	-6.691	0.117	0.081
-487.464	-56.209	0.278	0.125
-486.449	-196.638	0.322	-0.002
-485.435	-85.574	-0.130	0.041
-484.420	-45.273	-0.302	-0.151
-483.405	301.722	-0.074	0.138
-482.391	328.424	-0.205	0.396
-481.376	-112.121	0.096	-0.020
-480.362	-94.038	0.336	-0.093
-479.347	65.286	0.121	0.123
-478.332	-92.797	-0.282	0.080
-477.318	264.316	-0.112	0.196
-476.303	800.000	0.004	0.013
-475.289	49.366	-0.090	0.085
-474.274	800.000	-0.069	0.198
-473.259	-89.634	-0.416	0.123
-472.245	80.114	-0.092	-0.100
-471.230	-128.710	-0.204	-0.029
-470.216	800.000	0.052	-0.217
-469.201	117.521	-0.112	0.138
-468.186	-152.395	0.218	-0.016
-467.172	58.685	0.222	-0.220
-466.157	-95.982	-0.264	0.071
-465.143	-15.569	0.074	0.048
-464.128	552.996	-0.113	-0.273
-463.113	-28.309	0.202	-0.117
-462.099	-123.841	-0.204	0.033
-461.084	-52.766	0.404	-0.188
-460.070	-200.000	-0.010	0.071
-459.055	32.897	0.152	-0.133
-458.040	-70.187	-0.119	-0.046
-457.026	42.263	0.145	0.133
-456.011	-115.340	0.142	0.027
-454.997	338.763	-0.087	-0.172
-453.982	186.812	0.031	0.047
-452.968	-38.771	0.257	-0.137
-451.953	-17.293	-0.066	-0.042
-450.938	34.445	-0.051	-0.045
-449.924	800.000	-0.072	-0.208
-448.909	-104.829	-0.247	0.057
-447.895	-200.000	0.052	-0.450
-446.880	800.000	-0.053	-0.195
-445.865	800.000	0.019	-0.076
-444.851	-200.000	0.027	0.192
-443.836	-75.302	0.117	0.042
-442.822	-67.319	0.252	-0.100
-441.807	-148.158	0.065	-0.005
-440.792	-72.767	-0.356	-0.132
-439.778	48.247	0.136	0.128
-438.763	-29.459	-0.257	-0.148
-437.749	-19.050	0.067	-0.042
-436.734	-82.223	-0.068	0.022
-435.719	742.099	-0.072	0.196
-434.705	381.142	0.064	0.131
-433.690	-39.905	-0.290	0.152
-432.676	800.000	0.013	-0.040
-431.661	-200.000	-0.007	-0.472
-430.646	65.226	-0.044	-0.045
-429.632	545.321	-0.008	0.020
-428.617	102.138	-0.171	0.201
-427.603	-200.000	-0.006	0.427
-426.588	-200.000	-0.024	-0.287
-425.573	293.509	0.050	-0.091
-424.559	-29.125	-0.141	-0.081
-423.544	67.095	-0.146	-0.150
-422.530	-92.626	0.353	-0.100
-421.515	-184.655	0.195	0.003
-420.500	342.906	0.211	0.416
-419.486	-200.000	0.002	0.058
-418.471	-169.185	0.154	-0.006
-417.457	-101.033	-0.473	0.117
-416.442	-200.000	0.028	-0.253
-415.428	-200.000	0.024	-0.194
-414.413	-58.777	0.127	0.055
-413.398	12.931	0.199	0.155
-412.384	800.000	0.119	0.384
-411.369	201.220	0.033	0.051
-410.355	9.841	-0.200	0.153
-409.340	-55.189	0.255	0.115
-408.325	349.357	0.110	-0.219
-407.311	-85.084	-0.122	-0.038
-406.296	169.528	0.034	-0.049
-405.282	-200.000	0.048	0.233
-404.267	91.127	-0.063	-0.071
-403.252	-14.934	-0.103	0.066
-402.238	-200.000	0.030	0.377
-401.223	-76.352	0.212	-0.075
-400.209	-89.504	0.319	-0.094
-399.194	-165.799	0.115	-0.005
-398.179	392.609	-0.250	-0.523
-397.165	800.000	-0.075	-0.288
-396.150	50.970	-0.142	0.136
-395.136	11.301	0.149	0.115
-394.121	-31.241	0.067	0.038
-393.106	-200.000	-0.024	0.157
-392.092	-156.778	-0.404	-0.025
-391.077	-67.610	-0.192	-0.076
-390.063	800.000	0.010	0.032
-389.048	-24.600	0.040	0.024
-388.033	462.707	0.036	-0.082
-387.019	58.835	-0.220	0.217
-386.004	148.503	0.165	-0.224
-384.990	800.000	0.079	0.272
-383.975	35.337	0.166	-0.146
-382.960	58.333	0.190	-0.188
-381.946	-59.557	-0.124	-0.054
-380.931	-58.653	0.058	0.025
-379.917	84.637	-0.249	0.274
-378.902	176.386	0.242	-0.353
-377.888	-2.324	-0.039	-0.028
-376.873	-28.375	0.119	-0.069
-375.858	753.994	0.054	-0.146
-374.844	-20.820	-0.099	0.061
-373.829	-139.250	-0.192	0.021
-372.815	800.000	0.062	0.211
-371.800	207.277	0.011	-0.017
-370.785	-96.981	-0.348	0.092
-369.771	-146.705	0.241	0.021
-368.756	98.964	0.079	-0.092
-367.742	-79.544	0.154	0.052
-366.727	-110.609	-0.150	0.031
-365.712	-200.000	-0.037	0.210
-364.698	800.000	-0.035	-0.133
-363.683	800.000	-0.100	0.382
-362.669	-200.000	-0.015	-0.121
-361.654	-80.597	-0.130	0.044
-360.639	496.062	-0.008	0.018
-359.625	-79.230	-0.198	0.068
-358.610	153.608	0.157	0.216
-357.596	-84.680	-0.211	0.067
-356.581	-200.000	0.012	-0.535
-355.566	-118.759	0.096	0.017
-354.552	159.892	0.159	-0.222
-353.537	-23.070	0.232	-0.141
-352.523	73.325	0.196	-0.206
-351.508	215.494	-0.084	0.134
-350.493	-72.823	-0.353	-0.130
-349.479	-113.206	-0.280	-0.055
-348.464	215.189	-0.096	0.152
-347.450	-200.000	0.014	0.405
-346.435	-93.684	0.299	-0.083
-345.420	-200.000	-0.022	-0.253
-344.406	28.852	-0.184	-0.156
-343.391	-200.000	0.010	-0.263
-342.377	-117.513	-0.079	-0.014
-341.362	-133.506	0.261	-0.033
-340.348	190.067	-0.220	0.331
-339.333	218.119	0.250	0.400
-338.318	323.451	0.095	-0.182
-337.304	-200.000	-0.015	0.102
-336.289	-200.000	-0.028	0.714
-335.275	-60.522	-0.348	-0.148
-334.260	184.874	0.129	0.192
-333.245	-200.000	-0.029	0.208
-332.231	-97.494	0.113	-0.029
-331.216	-102.005	-0.170	0.041
-330.202	47.996	-0.039	-0.036
-329.187	800.000	0.040	0.123
-328.172	-118.281	-0.082	-0.015
-327.158	-200.000	-0.054	0.252
-326.143	-103.723	0.078	0.018
-325.129	-76.902	-0.105	-0.037
-324.114	-200.000	-0.032	0.395
-323.099	200.717	-0.119	0.183
-322.085	332.390	0.182	-0.353
-321.070	-166.221	0.127	0.005
-320.056	42.998	-0.318	0.291
-319.041	-1.595	-0.129	-0.091
-318.026	-200.000	-0.027	-0.166
-317.012	-92.816	-0.078	0.022
-315.997	800.000	-0.064	0.259
-314.983	-82.203	0.266	-0.087
-313.968	-36.249	0.179	0.097
-312.953	-111.078	-0.122	-0.025
-311.939	357.839	-0.111	0.223
-310.924	33.241	0.161	0.140
-309.910	-48.300	-0.409	0.198
-308.895	-125.431	0.257	0.039
-307.880	306.795	0.106	0.198
-306.866	3.798	0.129	0.094
-305.851	-200.000	-0.010	0.210
-304.837	-104.629	-0.170	-0.039
-303.822	31.846	0.242	0.209
-302.807	-68.026	-0.063	0.025
-301.793	-11.945	0.176	-0.116
-300.778	-200.000	0.011	-0.158
-299.764	-57.587	0.149	0.066
-298.749	30.813	0.178	-0.152
-297.735	-200.000	0.048	-0.230
-296.720	800.000	0.045	0.142
-295.705	-189.462	0.313	-0.004
-294.691	-200.000	0.033	0.287
-293.676	-134.953	0.156	0.019
-292.662	-41.538	-0.148	-0.076
-291.647	-200.000	-0.015	0.105
-290.632	239.878	-0.125	-0.208
-289.618	-200.000	-0.003	-0.197
-288.603	495.903	0.051	0.116
-287.589	-200.000	-0.031	-0.168
-286.574	213.839	-0.108	-0.170
-285.559	62.294	-0.184	0.184
-284.545	397.309	0.046	0.096
-283.530	85.545	0.201	-0.221
-282.516	-100.287	-0.177	0.044
-281.501	117.774	0.214	0.264
-280.486	-14.943	0.251	-0.161
-279.472	-47.512	-0.237	0.115
-278.457	410.970	0.018	0.038
-277.443	11.144	0.349	0.267
-276.428	59.468	0.115	0.114
-275.413	-85.164	-0.105	-0.033
-274.399	277.916	0.200	0.357
-273.384	-16.359	0.394	0.250
-272.370	-187.479	0.173	-0.002
-271.355	-200.000	0.056	-0.282
-270.340	-200.000	0.067	-0.315
-269.326	-118.181	-0.116	-0.021
-268.311	66.178	-0.182	-0.184
-267.297	103.220	0.205	0.241
-266.282	362.114	0.135	0.271
-265.267	291.416	-0.070	-0.128
-264.253	-200.000	0.060	-0.271
-263.238	418.987	0.062	-0.133
-262.224	94.479	0.145	0.165
-261.209	36.463	0.065	0.058
-260.195	-41.168	-0.080	0.041
-259.180	40.025	0.088	-0.079
-258.165	-200.000	0.009	-0.076
-257.151	-41.253	0.126	0.065
-256.136	-82.015	0.193	0.063
-255.122	-199.862	-0.108	-0.001
-254.107	-131.443	0.298	-0.039
-253.092	228.484	0.173	-0.282
-252.078	677.997	0.035	0.092
-251.063	62.075	-0.070	-0.070
-250.049	-92.231	-0.212	0.060
-249.034	-36.435	-0.302	0.162
-248.019	110.670	0.200	0.240
-247.005	62.403	-0.032	-0.032
-245.990	-15.658	-0.118	0.075
-244.976	-200.000	0.006	0.068
-243.961	-200.000	0.015	0.135
-242.946	-134.417	0.227	-0.028
-241.932	-8.731	0.284	0.190
-240.917	205.933	0.038	-0.060
-239.903	87.030	0.160	0.177
-238.888	-80.483	0.135	0.045
-237.873	55.223	0.094	0.091
-236.859	-146.932	0.184	0.016
-235.844	20.579	0.274	0.222
-234.830	-123.269	0.492	-0.079
-233.815	-200.000	-0.050	0.259
-232.800	326.898	0.062	-0.118
-231.786	129.577	0.123	-0.157
-230.771	-48.093	-0.178	0.086
-229.757	-52.494	-0.280	0.129
-228.742	800.000	-0.068	-0.237
-227.727	176.388	0.093	0.135
-226.713	-200.000	-0.010	-0.452
-225.698	800.000	-0.046	-0.179
-224.684	10.191	0.040	0.030
-223.669	154.202	0.118	0.162
-222.655	-200.000	0.030	0.403
-221.640	-140.127	0.173	0.018
-220.625	207.561	-0.060	-0.093
-219.611	800.000	0.071	-0.303
-218.596	-109.935	-0.319	0.067
-217.582	405.789	-0.081	-0.170
-216.567	164.548	0.144	-0.203
-215.552	174.860	0.103	0.149
-214.538	-195.781	-0.344	-0.002
-213.523	-137.334	-0.159	0.018
-212.509	-200.000	-0.001	0.111
-211.494	-200.000	-0.039	-0.226
-210.479	-200.000	-0.036	-0.259
-209.465	-35.034	0.154	0.084
-208.450	74.555	-0.070	-0.074
-207.436	81.158	-0.219	-0.236
-206.421	-124.575	0.200	-0.031
-205.406	800.000	0.064	-0.182
-204.392	361.622	0.068	-0.136
-203.377	600.037	-0.115	-0.285
-202.363	-200.000	-0.005	0.252
-201.348	-57.969	-0.263	-0.115
-200.333	-200.000	-0.007	-0.157
-199.319	146.374	0.112	-0.150
-198.304	88.308	0.042	0.046
-197.290	577.308	-0.134	0.327
-196.275	250.846	0.158	0.269
-195.260	-85.983	0.135	0.042
-194.246	-93.466	-0.313	0.086
-193.231	-200.000	-0.041	0.200
-192.217	-98.785	-0.110	-0.028
-191.202	-8.435	0.201	-0.135
-190.187	-50.334	-0.212	-0.100
-189.173	-170.240	0.125	-0.004
-188.158	415.900	-0.164	-0.349
-187.144	-78.592	-0.093	-0.032
-186.129	130.127	-0.207	-0.264
-185.114	673.345	0.062	-0.161
-184.100	32.449	0.121	0.104
-183.085	-123.990	0.284	-0.045
-182.071	-82.416	0.255	-0.083
-181.056	-195.924	0.217	0.002
-180.042	11.055	0.244	0.186
-179.027	353.981	0.108	0.213
-178.012	-107.123	0.147	-0.032
-176.998	-43.369	-0.028	0.014
-175.983	496.060	0.029	0.066
-174.969	-81.047	-0.402	0.133
-173.954	16.546	-0.315	-0.248
-172.939	30.461	-0.256	0.218
-171.925	113.837	-0.133	0.162
-170.910	153.083	0.077	0.105
-169.896	-54.912	-0.423	-0.190
-168.881	42.568	-0.210	-0.191
-167.866	578.431	0.106	0.257
-166.852	-60.167	-0.084	-0.036
-165.837	24.157	0.042	0.035
-164.823	-18.659	0.199	0.124
-163.808	-169.066	0.393	0.015
-162.793	800.000	0.059	-0.169
-161.779	27.727	0.106	0.089
-160.764	-139.732	0.142	-0.015
-159.750	-200.000	-0.024	-0.234
-158.735	-1.729	-0.318	-0.223
-157.720	800.000	0.088	0.272
-156.706	-145.202	-0.270	0.024
-155.691	117.047	-0.199	0.244
-154.677	-66.808	-0.057	-0.022
-153.662	-200.000	0.001	0.293
-152.647	-53.446	-0.207	0.094
-151.633	-200.000	0.017	-0.217
-150.618	-47.285	-0.062	0.030
-149.604	-67.397	-0.175	0.068
-148.589	-200.000	-0.029	0.360
-147.574	-33.598	-0.061	0.033
-146.560	-153.355	0.590	-0.041
-145.545	-200.000	0.005	0.030
-144.531	140.907	-0.121	0.159
-143.516	279.768	-0.076	0.135
-142.502	79.853	-0.264	0.282
-141.487	-30.242	-0.216	0.122
-140.472	-103.378	0.244	0.057
-139.458	-89.989	0.316	0.092
-138.443	-12.847	-0.182	-0.118
-137.429	230.160	0.145	0.236
-136.414	-67.593	-0.068	-0.026
-135.399	-7.280	0.172	-0.116
-134.385	723.126	0.028	0.074
-133.370	129.699	-0.255	0.325
-132.356	-57.465	0.336	0.147
-131.341	80.831	-0.061	0.066
-130.326	800.000	-0.017	0.060
-129.312	-61.189	0.197	-0.083
-128.297	-105.729	0.093	-0.021
-127.283	-85.282	0.326	-0.101
-126.268	-18.646	-0.248	0.154
-125.253	-69.242	-0.217	0.083
-124.239	-200.000	-0.026	0.165
-123.224	-200.000	-0.018	0.112
-122.210	-200.000	0.014	0.165
-121.195	0.922	-0.126	-0.090
