DTS Sentinel unit serial number:	SN413079Multiplexer serial number:	ORYXHardware model number:	OX4-SRSoftware version number:	ORYX F/W v4.00 Oryx Data Collector v3.7.2.0data status	okinstallation	princeton_trtdifferential loss correction	single-endedforward channel	channel 3reverse channel	N/Adate	2019/09/13time	18:04:35forward acquisition time	60.00reverse acquisition time	0.00gamma	496.2192k internal	0.2308k external	0.2308temperature offset calibration	1.0122default loss term (dB/km)	0.3790temperature slope calibration	1.0000multiplexer offset coefficient	1.0000multiplexer slope coefficient	1.0000fibre end	0.00T internal ref (°C)	34.78T ext. ref 1 (°C)	4.65T ext. ref 2 (°C)	27.51length (m)	temperature (°C)	Stokes	anti-Stokes-747.200	-81.287	0.191	0.064
-746.185	71.484	-0.103	0.109
-745.171	108.647	0.100	-0.121
-744.156	-143.965	-0.239	-0.023
-743.142	139.864	-0.030	-0.041
-742.127	19.263	0.144	0.117
-741.112	-93.700	-0.245	0.069
-740.098	46.274	0.119	-0.112
-739.083	418.727	-0.103	-0.225
-738.069	160.996	0.144	0.204
-737.054	289.316	-0.100	-0.185
-736.039	-118.882	-0.211	0.038
-735.025	-158.638	0.261	0.015
-734.010	330.885	-0.120	-0.234
-732.996	800.000	-0.059	-0.255
-731.981	401.612	0.112	0.239
-730.966	-44.324	-0.122	-0.062
-729.952	581.266	-0.198	-0.493
-728.937	16.734	0.096	0.077
-727.923	-133.514	-0.187	-0.024
-726.908	405.968	0.127	0.271
-725.894	142.735	-0.084	-0.114
-724.879	-98.599	-0.157	-0.041
-723.864	-62.007	-0.285	0.121
-722.850	121.662	-0.062	-0.079
-721.835	800.000	-0.116	-0.338
-720.821	-111.434	-0.283	-0.059
-719.806	-101.276	-0.221	-0.055
-718.791	-120.387	-0.100	-0.017
-717.777	-174.243	0.069	-0.002
-716.762	151.418	-0.201	-0.278
-715.748	-200.000	0.039	0.188
-714.733	-102.495	-0.197	-0.048
-713.718	-120.970	0.126	-0.021
-712.704	-200.000	-0.051	-0.392
-711.689	167.754	0.079	-0.114
-710.675	309.322	-0.042	0.079
-709.660	1.807	-0.070	0.051
-708.645	108.892	0.176	0.214
-707.631	800.000	-0.021	-0.085
-706.616	39.021	-0.134	-0.121
-705.602	-200.000	-0.011	-0.164
-704.587	-179.372	-0.161	-0.004
-703.572	-200.000	-0.052	-0.260
-702.558	-105.261	-0.317	-0.073
-701.543	-50.340	0.285	-0.137
-700.529	-104.188	-0.096	-0.023
-699.514	-84.640	0.214	-0.069
-698.499	800.000	-0.069	-0.221
-697.485	800.000	-0.059	-0.231
-696.470	187.621	0.134	-0.202
-695.456	150.591	-0.069	0.095
-694.441	-200.000	-0.005	0.118
-693.426	800.000	0.021	0.062
-692.412	131.768	0.077	-0.101
-691.397	276.694	0.126	-0.227
-690.383	237.464	-0.159	0.267
-689.368	-83.303	-0.361	-0.118
-688.354	-134.722	-0.218	0.027
-687.339	-15.359	0.345	0.223
-686.324	619.842	0.067	-0.170
-685.310	488.380	0.158	-0.365
-684.295	56.338	-0.097	-0.096
-683.281	800.000	-0.067	-0.260
-682.266	738.565	-0.065	-0.176
-681.251	370.963	0.114	-0.235
-680.237	295.127	0.145	-0.269
-679.222	-158.144	-0.224	-0.013
-678.208	389.110	-0.121	0.253
-677.193	75.503	0.031	-0.033
-676.178	-103.590	0.531	-0.126
-675.164	-91.943	0.075	0.021
-674.149	-158.346	-0.288	-0.017
-673.135	422.683	0.047	-0.101
-672.120	-200.000	0.010	-0.092
-671.105	-52.478	-0.112	0.053
-670.091	34.322	-0.151	0.134
-669.076	800.000	-0.073	-0.257
-668.062	214.030	-0.146	0.235
-667.047	800.000	-0.079	-0.225
-666.032	758.861	0.085	0.232
-665.018	-20.810	0.288	-0.179
-664.003	-50.880	-0.226	-0.107
-662.989	-200.000	0.027	0.158
-661.974	103.192	-0.157	0.186
-660.959	-200.000	0.012	-0.463
-659.945	-200.000	-0.037	-0.556
-658.930	280.599	-0.159	-0.289
-657.916	228.438	0.135	0.223
-656.901	-94.963	-0.161	-0.044
-655.886	181.106	-0.229	-0.341
-654.872	-200.000	-0.015	0.122
-653.857	55.442	0.079	0.078
-652.843	389.140	-0.054	0.113
-651.828	-11.287	-0.254	-0.170
-650.814	-61.238	-0.274	-0.117
-649.799	211.672	0.079	-0.126
-648.784	325.631	0.175	-0.338
-647.770	-200.000	0.035	0.182
-646.755	101.399	-0.258	0.304
-645.741	132.279	-0.147	0.191
-644.726	-91.484	-0.233	0.067
-643.711	49.604	0.086	-0.082
-642.697	-200.000	-0.019	-0.314
-641.682	-32.157	0.200	0.113
-640.668	-44.512	0.086	-0.043
-639.653	63.373	-0.214	0.217
-638.638	-95.978	-0.211	-0.057
-637.624	-16.421	-0.280	-0.180
-636.609	-50.583	0.239	-0.114
-635.595	-175.314	-0.519	-0.014
-634.580	167.453	-0.118	0.170
-633.565	81.076	0.141	-0.154
-632.551	2.524	-0.259	-0.190
-631.536	29.604	-0.075	0.064
-630.522	-200.000	-0.029	-0.212
-629.507	-176.802	0.290	-0.007
-628.492	83.254	0.135	-0.149
-627.478	-200.000	0.022	0.112
-626.463	42.152	0.221	0.203
-625.449	-52.466	0.268	0.125
-624.434	-158.607	-0.170	-0.010
-623.419	-200.000	-0.040	-0.272
-622.405	-141.308	-0.287	-0.030
-621.390	-200.000	-0.008	-0.408
-620.376	143.640	0.192	-0.259
-619.361	775.289	0.207	-0.572
-618.346	-70.307	0.080	-0.031
-617.332	-116.334	0.144	-0.027
-616.317	34.132	-0.134	-0.118
-615.303	276.896	0.048	0.087
-614.288	-149.653	0.322	-0.026
-613.273	-200.000	-0.015	0.279
-612.259	800.000	-0.073	-0.293
-611.244	535.238	0.094	-0.225
-610.230	-200.000	0.021	-0.220
-609.215	149.394	0.093	0.128
-608.201	-64.338	0.491	0.202
-607.186	198.503	0.121	0.188
-606.171	-200.000	0.024	-0.420
-605.157	277.576	0.132	-0.237
-604.142	602.738	-0.051	-0.128
-603.128	-156.757	0.182	-0.011
-602.113	89.160	-0.174	0.196
-601.098	-21.373	0.208	-0.128
-600.084	30.851	-0.242	-0.210
-599.069	317.403	-0.013	0.025
-598.055	-15.546	0.151	0.097
-597.040	158.303	-0.030	-0.042
-596.025	-200.000	-0.007	0.367
-595.011	5.411	-0.252	-0.188
-593.996	21.504	-0.073	-0.060
-592.982	154.308	-0.199	0.276
-591.967	800.000	-0.019	0.056
-590.952	186.975	0.061	0.091
-589.938	653.257	0.026	-0.067
-588.923	9.435	-0.356	-0.272
-587.909	800.000	0.057	-0.184
-586.894	-5.846	0.154	-0.106
-585.879	10.235	0.100	0.077
-584.865	629.898	0.141	0.360
-583.850	-103.274	-0.344	-0.082
-582.836	93.609	-0.036	-0.041
-581.821	-129.650	0.452	-0.063
-580.806	125.520	-0.113	-0.144
-579.792	342.038	0.073	0.144
-578.777	-94.762	-0.047	-0.013
-577.763	-148.719	-0.152	-0.012
-576.748	47.198	-0.109	0.103
-575.733	126.415	0.251	-0.321
-574.719	-200.000	0.009	0.287
-573.704	598.090	-0.129	0.323
-572.690	207.892	0.100	-0.158
-571.675	382.751	0.057	-0.119
-570.661	-142.984	-0.087	-0.009
-569.646	-23.704	0.289	0.175
-568.631	-200.000	0.003	0.167
-567.617	-200.000	-0.010	0.057
-566.602	-83.768	-0.265	-0.085
-565.588	231.321	0.094	0.155
-564.573	-66.374	-0.187	0.075
-563.558	338.936	0.086	-0.169
-562.544	-82.226	0.309	-0.102
-561.529	14.848	0.140	0.110
-560.515	-51.834	0.193	-0.091
-559.500	220.200	0.054	-0.087
-558.485	266.516	-0.082	-0.145
-557.471	-81.899	-0.119	-0.039
-556.456	-200.000	0.004	-0.378
-555.442	-200.000	0.164	0.000
-554.427	9.494	0.241	-0.184
-553.412	-200.000	0.022	-0.166
-552.398	-122.940	-0.215	0.035
-551.383	-200.000	0.005	-0.083
-550.369	91.340	0.117	-0.133
-549.354	476.385	0.192	0.438
-548.339	-143.586	0.117	0.011
-547.325	-200.000	0.010	-0.180
-546.310	-200.000	0.000	-0.143
-545.296	476.961	-0.138	-0.314
-544.281	-200.000	-0.005	-0.245
-543.266	-119.793	-0.079	0.014
-542.252	-44.783	0.466	0.234
-541.237	108.441	-0.149	-0.180
-540.223	-46.067	0.231	-0.115
-539.208	-200.000	0.018	0.225
-538.193	530.297	0.076	0.182
-537.179	800.000	-0.030	-0.122
-536.164	128.750	0.238	-0.306
-535.150	155.641	-0.239	0.332
-534.135	-86.430	0.443	0.137
-533.121	100.468	-0.150	-0.175
-532.106	-104.378	-0.213	0.050
-531.091	728.927	0.054	0.144
-530.077	113.864	-0.149	-0.182
-529.062	374.620	0.060	-0.123
-528.048	-158.847	0.104	-0.006
-527.033	485.667	0.110	-0.252
-526.018	-200.000	-0.005	-0.262
-525.004	351.279	0.201	0.400
-523.989	-110.612	-0.174	0.036
-522.975	-127.908	-0.196	-0.028
-521.960	81.900	0.189	-0.206
-520.945	24.211	0.221	0.184
-519.931	-116.567	0.311	0.058
-518.916	-114.151	0.043	-0.008
-517.902	-82.417	0.149	0.049
-516.887	304.256	-0.109	-0.203
-515.872	237.502	-0.052	-0.088
-514.858	-200.000	-0.066	-0.294
-513.843	-67.775	-0.252	0.099
-512.829	800.000	-0.052	-0.214
-511.814	-130.946	0.494	-0.067
-510.799	-200.000	-0.014	0.206
-509.785	-200.000	-0.024	-0.319
-508.770	-200.000	0.036	-0.234
-507.756	661.166	-0.068	-0.177
-506.741	-200.000	-0.020	0.201
-505.726	13.412	0.189	-0.147
-504.712	-30.809	0.161	-0.092
-503.697	12.453	-0.164	0.127
-502.683	341.860	-0.238	-0.469
-501.668	-68.727	-0.390	-0.152
-500.653	-200.000	0.002	0.374
-499.639	1.863	0.055	-0.040
-498.624	-74.071	0.106	0.039
-497.610	424.283	-0.110	0.238
-496.595	414.927	0.078	0.167
-495.581	55.076	0.022	-0.021
-494.566	511.242	0.163	0.382
-493.551	-77.436	-0.226	0.079
-492.537	-200.000	-0.090	-0.408
-491.522	22.591	-0.134	0.110
-490.508	-123.638	-0.250	0.040
-489.493	-52.971	-0.053	0.024
-488.478	-115.120	0.165	0.032
-487.464	72.096	-0.162	0.170
-486.449	36.121	0.192	0.170
-485.435	-184.678	-0.269	-0.004
-484.420	-200.000	0.003	0.053
-483.405	-200.000	0.018	0.135
-482.391	-200.000	0.023	0.129
-481.376	-65.556	-0.244	0.099
-480.362	83.846	0.099	-0.109
-479.347	98.651	0.111	-0.129
-478.332	-57.167	0.144	0.064
-477.318	367.930	-0.127	-0.257
-476.303	-94.169	0.266	-0.073
-475.289	-0.342	0.225	0.161
-474.274	586.293	-0.090	0.223
-473.259	-200.000	-0.011	-0.106
-472.245	-51.408	0.141	0.066
-471.230	447.490	0.055	-0.121
-470.216	79.853	-0.197	0.212
-469.201	106.407	0.186	-0.222
-468.186	-34.486	0.222	0.122
-467.172	-200.000	0.034	-0.233
-466.157	-54.873	-0.044	-0.020
-465.143	85.682	0.072	-0.080
-464.128	-82.151	-0.145	0.047
-463.113	800.000	-0.058	0.237
-462.099	139.746	0.163	-0.216
-461.084	58.597	-0.154	-0.152
-460.070	-107.013	-0.249	0.055
-459.055	800.000	-0.056	-0.157
-458.040	219.701	-0.112	0.181
-457.026	99.420	0.299	0.348
-456.011	-86.076	-0.082	0.025
-454.997	778.035	-0.049	0.135
-453.982	800.000	-0.055	0.165
-452.968	1.565	-0.241	0.174
-451.953	-200.000	-0.030	0.144
-450.938	67.463	-0.040	0.041
-449.924	30.668	-0.205	0.176
-448.909	93.999	0.156	-0.178
-447.895	-89.699	0.134	-0.039
-446.880	-28.115	0.174	-0.101
-445.865	800.000	-0.063	-0.188
-444.851	-133.523	0.095	-0.012
-443.836	-177.451	-0.255	0.006
-442.822	-200.000	-0.015	0.222
-441.807	95.010	0.448	-0.512
-440.792	205.626	-0.084	-0.131
-439.778	2.773	-0.081	0.059
-438.763	-140.179	-0.140	-0.015
-437.749	-64.080	0.101	0.041
-436.734	119.031	-0.026	-0.032
-435.719	165.993	-0.202	-0.286
-434.705	-200.000	0.076	-0.538
-433.690	62.285	0.166	-0.166
-432.676	800.000	-0.079	-0.328
-431.661	181.883	-0.145	-0.214
-430.646	-63.033	0.156	0.065
-429.632	-200.000	0.044	-0.221
-428.617	800.000	0.053	-0.212
-427.603	-37.675	0.225	0.120
-426.588	-200.000	0.015	0.527
-425.573	-68.774	-0.135	0.052
-424.559	-11.521	-0.261	-0.172
-423.544	48.659	0.026	-0.025
-422.530	-24.185	-0.307	-0.184
-421.515	333.425	-0.154	0.299
-420.500	162.874	0.125	0.177
-419.486	-200.000	-0.040	-0.190
-418.471	58.006	-0.064	-0.063
-417.457	-8.368	0.047	-0.032
-416.442	664.121	0.093	0.241
-415.428	-120.994	0.133	-0.022
-414.413	-200.000	0.003	-0.255
-413.398	-14.718	-0.073	0.047
-412.384	-106.476	-0.095	-0.021
-411.369	-174.529	-0.133	-0.004
-410.355	621.950	-0.182	0.459
-409.340	800.000	-0.046	0.170
-408.325	40.406	0.145	0.131
-407.311	21.118	0.232	-0.189
-406.296	-200.000	-0.007	-0.119
-405.282	-200.000	0.023	-0.177
-404.267	330.493	0.194	-0.375
-403.252	86.020	-0.443	-0.489
-402.238	-112.736	0.318	0.063
-401.223	79.647	0.190	0.205
-400.209	-130.594	0.146	-0.020
-399.194	99.934	-0.028	0.032
-398.179	-200.000	-0.042	-0.335
-397.165	-200.000	-0.013	-0.194
-396.150	800.000	0.038	-0.110
-395.136	-200.000	0.023	-0.112
-394.121	-156.056	-0.238	0.015
-393.106	-200.000	-0.064	0.293
-392.092	-200.000	0.004	0.317
-391.077	61.895	0.124	0.124
-390.063	70.725	0.217	-0.226
-389.048	800.000	-0.083	-0.241
-388.033	-126.039	-0.070	0.011
-387.019	-102.852	0.103	-0.024
-386.004	-63.753	0.151	0.062
-384.990	346.393	0.120	0.237
-383.975	-64.559	0.092	0.037
-382.960	9.499	0.107	0.081
-381.946	275.653	0.102	-0.181
-380.931	-135.481	-0.053	-0.006
-379.917	-26.024	-0.272	-0.160
-378.902	800.000	-0.052	0.194
-377.888	-170.509	-0.152	0.005
-376.873	800.000	-0.032	-0.120
-375.858	415.583	-0.105	-0.224
-374.844	-121.180	0.263	0.044
-373.829	-200.000	0.071	-0.397
-372.815	800.000	-0.042	-0.181
-371.800	800.000	0.089	0.278
-370.785	578.870	0.056	0.137
-369.771	18.221	0.124	-0.099
-368.756	800.000	0.047	0.133
-367.742	282.316	0.202	0.362
-366.727	800.000	0.119	0.394
-365.712	-22.425	0.086	-0.052
-364.698	800.000	-0.052	-0.189
-363.683	562.495	0.078	0.189
-362.669	800.000	-0.033	0.117
-361.654	18.930	0.205	0.164
-360.639	5.682	-0.292	0.216
-359.625	-86.804	-0.179	-0.055
-358.610	27.026	0.039	-0.033
-357.596	-83.304	-0.114	0.037
-356.581	-200.000	-0.013	0.169
-355.566	25.759	0.122	0.102
-354.552	-47.987	-0.138	0.067
-353.537	0.057	-0.201	-0.143
-352.523	-80.212	-0.345	0.115
-351.508	34.467	-0.116	0.101
-350.493	800.000	0.094	0.266
-349.479	-200.000	0.041	0.264
-348.464	-139.606	0.233	0.025
-347.450	367.530	0.127	0.258
-346.435	800.000	0.064	0.249
-345.420	189.911	-0.239	-0.359
-344.406	-100.274	0.078	0.019
-343.391	-200.000	0.036	0.335
-342.377	-20.835	-0.173	-0.106
-341.362	32.707	-0.158	0.137
-340.348	-200.000	-0.026	0.142
-339.333	800.000	0.129	-0.356
-338.318	-152.586	-0.072	-0.005
-337.304	-92.550	0.324	-0.091
-336.289	46.439	-0.153	-0.142
-335.275	99.204	-0.139	0.161
-334.260	800.000	0.091	0.296
-333.245	-27.536	0.391	0.227
-332.231	278.126	0.158	-0.282
-331.216	271.889	0.208	0.366
-330.202	-200.000	-0.017	0.146
-329.187	-45.454	0.306	-0.152
-328.172	72.225	-0.012	0.013
-327.158	-200.000	0.014	0.125
-326.143	-14.314	0.217	0.140
-325.129	-109.409	0.104	0.022
-324.114	-200.000	0.019	-0.190
-323.099	674.941	-0.015	0.040
-322.085	-39.352	0.330	0.173
-321.070	-171.512	-0.066	0.002
-320.056	-133.809	0.166	0.021
-319.041	-131.534	0.222	-0.029
-318.026	-121.526	0.223	-0.037
-317.012	-82.406	-0.143	0.046
-315.997	208.260	-0.192	0.299
-314.983	-200.000	-0.104	0.470
-313.968	393.210	-0.158	-0.330
-312.953	800.000	0.111	0.313
-311.939	22.506	0.323	-0.264
-310.924	-22.722	0.149	-0.090
-309.910	-50.723	-0.385	0.181
-308.895	-65.729	-0.195	-0.078
-307.880	800.000	0.077	0.290
-306.866	23.001	0.447	-0.366
-305.851	-74.819	-0.231	-0.083
-304.837	241.091	-0.166	0.277
-303.822	-192.506	0.155	-0.001
-302.807	517.122	-0.173	-0.404
-301.793	326.472	0.082	-0.156
-300.778	42.675	-0.263	0.239
-299.764	151.799	-0.155	0.211
-298.749	40.020	0.162	-0.146
-297.735	403.795	0.052	0.109
-296.720	800.000	0.151	0.457
-295.705	-39.953	0.138	-0.072
-294.691	167.855	0.098	-0.140
-293.676	-83.337	-0.267	-0.086
-292.662	-200.000	0.026	0.280
-291.647	-159.517	0.172	0.010
-290.632	-68.547	-0.018	0.007
-289.618	-200.000	-0.023	0.169
-288.603	-32.097	-0.095	-0.053
-287.589	800.000	0.034	-0.097
-286.574	-9.776	-0.046	-0.031
-285.559	49.075	-0.093	-0.088
-284.545	-64.142	0.116	0.047
-283.530	73.586	0.209	0.218
-282.516	37.407	-0.187	-0.165
-281.501	43.932	-0.058	0.053
-280.486	25.517	0.150	-0.124
-279.472	206.016	-0.104	0.162
-278.457	-200.000	0.054	0.266
-277.443	6.126	0.097	-0.072
-276.428	57.817	-0.268	-0.262
-275.413	20.203	-0.084	0.068
-274.399	-12.145	-0.161	-0.105
-273.384	-200.000	-0.017	-0.508
-272.370	-113.473	-0.278	-0.054
-271.355	63.791	0.091	-0.091
-270.340	38.922	-0.205	-0.182
-269.326	-69.122	-0.265	0.102
-268.311	53.983	-0.142	0.136
-267.297	-106.034	0.182	-0.041
-266.282	800.000	-0.038	-0.106
-265.267	-77.045	0.173	0.060
-264.253	-200.000	0.066	0.459
-263.238	-60.347	-0.377	0.160
-262.224	341.862	-0.053	0.104
-261.209	-85.810	0.285	0.088
-260.195	-191.543	-0.078	-0.001
-259.180	259.197	0.091	-0.157
-258.165	-200.000	0.006	-0.045
-257.151	-137.005	-0.086	-0.010
-256.136	-1.495	0.153	-0.108
-255.122	-7.835	-0.133	-0.089
-254.107	-200.000	0.027	0.195
-253.092	260.011	0.239	0.411
-252.078	-109.084	-0.177	0.038
-251.063	673.656	-0.103	0.267
-250.049	559.980	-0.093	-0.224
-249.034	187.371	0.133	0.198
-248.019	-15.174	-0.147	-0.094
-247.005	-113.811	-0.131	0.025
-245.990	-9.145	-0.139	-0.093
-244.976	-60.037	-0.333	-0.142
-243.961	-200.000	0.084	0.427
-242.946	-4.269	-0.209	-0.144
-241.932	-200.000	-0.006	0.076
-240.917	213.689	-0.125	-0.197
-239.903	-48.083	-0.227	0.109
-238.888	-200.000	0.037	-0.187
-237.873	-121.954	-0.436	0.072
-236.859	231.320	-0.271	-0.443
-235.844	800.000	-0.033	0.098
-234.830	246.222	0.187	0.314
-233.815	754.099	-0.050	-0.134
-232.800	12.395	-0.078	0.060
-231.786	800.000	0.094	-0.258
-230.771	22.783	-0.217	-0.177
-229.757	32.793	-0.280	-0.241
-228.742	510.648	-0.127	-0.294
-227.727	-76.686	-0.135	-0.047
-226.713	-27.139	-0.166	0.097
-225.698	76.574	0.032	-0.034
-224.684	-120.820	-0.205	-0.034
-223.669	46.857	0.229	0.212
-222.655	94.402	0.193	0.218
-221.640	725.197	-0.032	0.085
-220.625	85.296	-0.359	-0.393
-219.611	35.866	0.224	0.196
-218.596	-200.000	0.001	0.272
-217.582	800.000	-0.034	-0.131
-216.567	796.913	0.098	0.268
-215.552	56.782	-0.146	0.142
-214.538	27.120	0.092	0.077
-213.523	-200.000	0.007	0.124
-212.509	-78.556	0.229	0.078
-211.494	9.693	-0.125	0.094
-210.479	29.679	-0.272	-0.231
-209.465	800.000	-0.070	-0.196
-208.450	3.958	0.217	0.158
-207.436	13.155	-0.121	-0.094
-206.421	-123.229	0.043	-0.007
-205.406	-25.366	0.197	-0.116
-204.392	38.746	-0.197	-0.175
-203.377	182.895	0.163	-0.239
-202.363	-200.000	-0.009	0.142
-201.348	46.854	0.102	0.094
-200.333	150.024	-0.218	-0.294
-199.319	748.315	0.061	0.164
-198.304	-54.874	-0.163	0.073
-197.290	-82.908	-0.251	-0.081
-196.275	-118.336	-0.178	0.032
-195.260	34.644	0.053	0.046
-194.246	-200.000	0.012	-0.124
-193.231	107.568	-0.227	0.269
-192.217	-18.530	-0.174	0.108
-191.202	69.853	0.095	0.098
-190.187	-200.000	0.016	0.084
-189.173	-64.461	-0.216	-0.087
-188.158	57.225	0.173	-0.168
-187.144	307.170	0.034	-0.062
-186.129	-200.000	-0.017	-0.309
-185.114	102.330	-0.294	0.342
-184.100	-200.000	0.026	0.398
-183.085	-46.056	-0.226	0.111
-182.071	-125.724	0.201	-0.030
-181.056	-142.126	-0.167	0.016
-180.042	-101.748	-0.077	0.018
-179.027	-200.000	-0.026	0.191
-178.012	42.085	-0.129	0.116
-176.998	19.357	0.200	0.160
-175.983	3.109	0.246	-0.178
-174.969	-71.489	-0.293	-0.109
-173.954	-200.000	-0.012	-0.216
-172.939	-65.070	-0.105	0.042
-171.925	-200.000	0.043	0.451
-170.910	-155.819	-0.085	-0.005
-169.896	-61.520	-0.296	0.124
-168.881	-119.408	0.339	0.058
-167.866	-200.000	-0.012	0.219
-166.852	-81.603	-0.108	-0.035
-165.837	55.469	0.064	-0.062
-164.823	322.040	0.041	0.077
-163.808	-200.000	0.012	0.056
-162.793	-67.344	0.211	0.082
-161.779	-100.007	0.090	-0.022
-160.764	-200.000	0.031	0.245
-159.750	800.000	0.067	0.204
-158.735	-140.853	0.106	-0.011
-157.720	492.208	0.050	-0.114
-156.706	800.000	-0.118	0.465
-155.691	50.063	0.163	-0.152
-154.677	-68.114	-0.170	0.066
-153.662	800.000	0.087	-0.270
-152.647	-62.453	0.211	-0.087
-151.633	443.575	0.111	0.242
-150.618	-104.733	-0.057	-0.013
-149.604	-28.983	0.118	0.067
-148.589	-200.000	0.040	-0.213
-147.574	449.801	0.035	-0.076
-146.560	160.528	-0.242	-0.335
-145.545	-10.770	0.032	0.021
-144.531	255.454	0.011	0.019
-143.516	22.318	-0.056	0.045
-142.502	-39.054	-0.192	0.100
-141.487	-200.000	0.083	-0.499
-140.472	800.000	-0.071	0.234
-139.458	800.000	-0.042	0.138
-138.443	-29.983	-0.177	-0.100
-137.429	-102.545	-0.408	0.097
-136.414	-86.157	-0.092	0.028
-135.399	-78.409	-0.028	0.010
-134.385	58.973	0.047	0.046
-133.370	-36.559	-0.142	0.076
-132.356	-200.000	-0.012	-0.158
-131.341	33.824	-0.063	0.054
-130.326	-80.211	0.212	0.070
-129.312	-135.181	0.180	0.021
-128.297	-176.369	0.235	0.006
-127.283	59.695	-0.248	-0.243
-126.268	-130.910	-0.535	-0.071
-125.253	800.000	-0.106	-0.331
-124.239	-28.167	-0.338	-0.194
-123.224	-88.878	-0.267	0.079
-122.210	-56.877	-0.300	-0.131
-121.195	202.275	0.095	0.145
