DTS Sentinel unit serial number:	SN413079Multiplexer serial number:	ORYXHardware model number:	OX4-SRSoftware version number:	ORYX F/W v4.00 Oryx Data Collector v3.7.2.0data status	okinstallation	princeton_trtdifferential loss correction	single-endedforward channel	channel 3reverse channel	N/Adate	2019/09/12time	07:26:11forward acquisition time	60.00reverse acquisition time	0.00gamma	496.2192k internal	0.2318k external	0.2318temperature offset calibration	1.0033default loss term (dB/km)	0.3790temperature slope calibration	1.0000multiplexer offset coefficient	1.0000multiplexer slope coefficient	1.0000fibre end	0.00T internal ref (°C)	32.44T ext. ref 1 (°C)	1.62T ext. ref 2 (°C)	28.90length (m)	temperature (°C)	Stokes	anti-Stokes-747.200	43.809	0.193	-0.179
-746.185	327.144	-0.205	0.398
-745.171	-72.053	-0.156	0.059
-744.156	-200.000	0.009	0.360
-743.142	-200.000	-0.006	0.066
-742.127	154.025	0.122	0.169
-741.112	-42.191	0.324	0.168
-740.098	-23.320	-0.126	-0.076
-739.083	-111.984	-0.256	0.052
-738.069	-116.574	-0.373	0.069
-737.054	227.506	-0.145	0.239
-736.039	-94.335	-0.581	-0.161
-735.025	230.707	-0.118	-0.195
-734.010	-47.871	-0.166	0.081
-732.996	800.000	0.071	-0.281
-731.981	800.000	-0.073	0.212
-730.966	237.196	-0.208	-0.348
-729.952	67.782	0.088	0.091
-728.937	-200.000	-0.033	-0.235
-727.923	251.580	-0.239	-0.411
-726.908	-8.156	-0.092	0.063
-725.894	-95.575	0.178	0.048
-724.879	-32.915	-0.277	-0.156
-723.864	12.403	-0.198	-0.154
-722.850	800.000	0.008	0.027
-721.835	800.000	0.031	0.087
-720.821	-85.175	-0.047	-0.015
-719.806	-103.580	-0.312	0.074
-718.791	-102.333	-0.388	0.094
-717.777	360.472	-0.169	-0.342
-716.762	-200.000	0.005	0.173
-715.748	74.629	0.106	-0.113
-714.733	-200.000	0.016	-0.223
-713.718	-142.650	0.306	-0.030
-712.704	433.480	-0.042	-0.093
-711.689	92.424	0.084	-0.096
-710.675	800.000	0.123	-0.367
-709.660	-101.986	0.235	-0.057
-708.645	99.536	0.213	0.249
-707.631	128.968	-0.091	0.117
-706.616	81.945	-0.223	0.244
-705.602	800.000	-0.137	0.494
-704.587	43.954	0.102	-0.095
-703.572	330.536	-0.101	-0.196
-702.558	-73.763	0.363	0.133
-701.543	-108.295	-0.187	0.041
-700.529	117.466	-0.071	-0.088
-699.514	63.638	0.241	0.244
-698.499	800.000	-0.136	-0.419
-697.485	50.713	-0.224	-0.214
-696.470	165.986	-0.101	0.144
-695.456	155.629	0.057	0.080
-694.441	800.000	0.028	-0.088
-693.426	-96.035	0.221	-0.059
-692.412	-156.224	-0.177	-0.011
-691.397	-97.668	0.204	0.053
-690.383	121.434	-0.146	-0.184
-689.368	-40.964	-0.479	0.250
-688.354	-200.000	-0.037	-0.171
-687.339	624.795	0.037	-0.093
-686.324	-55.179	-0.105	0.048
-685.310	-66.957	-0.252	0.101
-684.295	-82.644	-0.050	-0.016
-683.281	-0.082	0.249	-0.179
-682.266	-200.000	0.000	-0.108
-681.251	-200.000	0.018	-0.101
-680.237	146.760	-0.048	0.066
-679.222	-42.645	-0.289	-0.149
-678.208	-200.000	0.046	0.307
-677.193	471.935	0.098	0.222
-676.178	800.000	0.023	0.094
-675.164	75.123	0.147	0.156
-674.149	-175.550	-0.262	0.007
-673.135	476.545	0.116	0.265
-672.120	800.000	-0.053	-0.192
-671.105	113.258	0.159	0.195
-670.091	-128.347	-0.025	-0.004
-669.076	69.698	-0.071	-0.074
-668.062	-111.694	0.311	0.064
-667.047	-58.968	0.171	-0.075
-666.032	-118.702	-0.105	0.019
-665.018	-70.751	-0.206	0.078
-664.003	360.168	0.116	-0.234
-662.989	800.000	0.063	-0.179
-661.974	60.831	-0.276	-0.276
-660.959	-32.127	-0.079	0.045
-659.945	-18.445	-0.260	-0.164
-658.930	-46.747	0.324	0.160
-657.916	131.003	-0.075	0.097
-656.901	168.612	0.247	-0.355
-655.886	-98.488	0.291	0.075
-654.872	-71.163	-0.129	-0.049
-653.857	326.399	-0.107	0.207
-652.843	23.851	0.149	-0.124
-651.828	55.308	0.092	0.090
-650.814	-200.000	0.452	-0.002
-649.799	-161.759	0.229	0.012
-648.784	-96.315	-0.168	0.045
-647.770	147.328	-0.214	0.291
-646.755	-200.000	-0.080	-0.405
-645.741	-47.997	-0.215	0.105
-644.726	-58.796	-0.221	0.096
-643.711	-200.000	-0.037	0.338
-642.697	-73.529	0.220	0.081
-641.682	-200.000	-0.038	0.306
-640.668	114.658	-0.263	0.323
-639.653	-10.550	0.114	0.076
-638.638	-55.371	-0.275	0.124
-637.624	-152.671	0.390	-0.028
-636.609	268.991	0.123	-0.218
-635.595	-147.037	0.142	0.012
-634.580	-62.608	-0.328	0.137
-633.565	-25.356	0.042	-0.025
-632.551	110.667	0.216	-0.262
-631.536	228.828	0.152	-0.249
-630.522	-23.382	0.272	-0.164
-629.507	65.879	-0.148	0.151
-628.492	800.000	-0.081	0.332
-627.478	-125.863	-0.182	-0.028
-626.463	-96.591	-0.285	-0.076
-625.449	-7.558	-0.360	-0.245
-624.434	290.130	-0.105	-0.193
-623.419	301.209	-0.169	-0.315
-622.405	157.505	0.102	0.142
-621.390	-101.386	-0.554	0.136
-620.376	-80.593	0.243	0.081
-619.361	-200.000	0.015	-0.164
-618.346	-117.235	0.058	-0.011
-617.332	-162.881	0.377	0.018
-616.317	-19.852	-0.115	-0.071
-615.303	339.855	0.164	0.322
-614.288	53.020	0.317	0.305
-613.273	-200.000	-0.008	0.083
-612.259	37.449	-0.136	0.121
-611.244	82.379	-0.116	0.127
-610.230	-73.722	-0.113	0.041
-609.215	98.700	0.195	-0.226
-608.201	-23.529	-0.238	-0.144
-607.186	800.000	-0.015	-0.045
-606.171	274.009	0.055	-0.098
-605.157	800.000	0.076	0.281
-604.142	56.030	-0.338	0.330
-603.128	-200.000	-0.261	0.001
-602.113	800.000	-0.064	0.273
-601.098	-200.000	-0.021	0.233
-600.084	-37.871	-0.128	-0.069
-599.069	39.672	0.067	-0.061
-598.055	-200.000	-0.045	-0.208
-597.040	-136.635	-0.292	-0.034
-596.025	-20.976	0.100	-0.061
-595.011	-200.000	-0.037	-0.270
-593.996	80.012	0.110	-0.119
-592.982	-33.051	0.195	-0.109
-591.967	103.269	0.089	0.105
-590.952	417.676	0.193	0.415
-589.938	-200.000	0.018	-0.095
-588.923	-200.000	0.032	-0.174
-587.909	727.799	0.033	0.088
-586.894	-200.000	-0.065	0.318
-585.879	800.000	-0.131	0.475
-584.865	157.199	0.221	0.308
-583.850	-143.421	0.215	-0.021
-582.836	-24.754	-0.157	-0.094
-581.821	-46.529	-0.411	-0.203
-580.806	484.612	0.077	-0.176
-579.792	423.766	0.121	-0.262
-578.777	-200.000	0.010	0.165
-577.763	-200.000	0.005	0.234
-576.748	-200.000	-0.039	0.378
-575.733	-121.524	-0.338	-0.056
-574.719	-63.295	0.126	-0.052
-573.704	130.794	-0.083	-0.107
-572.690	94.792	-0.208	0.238
-571.675	-96.165	0.137	-0.037
-570.661	-200.000	0.007	0.248
-569.646	90.805	0.067	-0.076
-568.631	-200.000	-0.057	0.277
-567.617	-140.930	0.260	-0.027
-566.602	118.243	0.292	-0.362
-565.588	405.573	0.142	-0.300
-564.573	-200.000	-0.086	-0.530
-563.558	75.005	0.135	-0.143
-562.544	-139.156	0.148	-0.016
-561.529	427.651	-0.095	-0.207
-560.515	-200.000	0.005	0.134
-559.500	55.417	-0.267	-0.259
-558.485	800.000	0.091	-0.320
-557.471	-200.000	-0.028	-0.299
-556.456	431.606	0.121	0.264
-555.442	800.000	0.039	-0.139
-554.427	-79.282	-0.173	-0.059
-553.412	800.000	0.028	0.098
-552.398	156.980	-0.134	-0.186
-551.383	-164.231	-0.111	-0.005
-550.369	800.000	0.009	0.037
-549.354	535.254	0.031	0.073
-548.339	-159.358	-0.099	0.006
-547.325	800.000	-0.162	0.472
-546.310	213.363	-0.178	0.282
-545.296	-125.358	0.168	-0.026
-544.281	-200.000	0.042	-0.189
-543.266	68.058	0.098	0.100
-542.252	-43.988	0.102	-0.051
-541.237	-200.000	0.007	-0.067
-540.223	116.780	0.139	-0.171
-539.208	-200.000	0.033	-0.242
-538.193	-61.277	-0.302	-0.128
-537.179	-23.134	-0.109	0.066
-536.164	-67.425	-0.276	0.109
-535.150	-23.081	-0.026	0.015
-534.135	-182.915	-0.218	0.004
-533.121	-200.000	-0.015	-0.314
-532.106	127.305	-0.162	-0.206
-531.091	800.000	-0.085	-0.277
-530.077	396.575	-0.152	0.319
-529.062	143.979	0.104	0.139
-528.048	-51.122	0.371	0.175
-527.033	-65.379	-0.267	0.108
-526.018	384.093	0.053	-0.110
-525.004	22.677	-0.095	-0.078
-523.989	98.850	-0.252	-0.292
-522.975	-120.587	0.534	0.091
-521.960	-147.813	0.187	-0.016
-520.945	114.030	0.173	0.211
-519.931	-50.629	0.092	0.044
-518.916	-35.178	-0.114	0.062
-517.902	-83.185	0.387	-0.125
-516.887	128.138	-0.204	-0.260
-515.872	156.443	0.247	-0.341
-514.858	76.106	-0.164	-0.175
-513.843	800.000	0.071	0.304
-512.829	-8.272	0.304	0.205
-511.814	800.000	0.079	0.222
-510.799	-135.750	0.160	-0.019
-509.785	-52.666	-0.156	0.072
-508.770	-103.683	0.408	-0.096
-507.756	-154.802	-0.055	0.004
-506.741	-122.181	-0.217	-0.036
-505.726	500.955	-0.039	0.091
-504.712	74.358	-0.094	-0.099
-503.697	-200.000	0.034	0.169
-502.683	51.361	0.316	-0.301
-501.668	-200.000	-0.000	0.291
-500.653	365.152	-0.034	-0.069
-499.639	519.622	-0.093	0.219
-498.624	-16.328	0.022	-0.014
-497.610	-200.000	-0.022	0.211
-496.595	800.000	-0.019	0.059
-495.581	-42.886	0.150	0.076
-494.566	208.100	0.089	0.139
-493.551	84.872	-0.190	-0.209
-492.537	-200.000	0.024	0.142
-491.522	-160.622	-0.555	-0.030
-490.508	-200.000	-0.118	0.645
-489.493	-144.916	0.422	-0.039
-488.478	-108.809	0.126	-0.027
-487.464	800.000	0.122	0.416
-486.449	-200.000	-0.023	0.183
-485.435	286.313	-0.045	0.082
-484.420	11.075	0.104	0.080
-483.405	-151.329	-0.470	0.035
-482.391	-200.000	0.019	0.310
-481.376	2.387	0.182	0.132
-480.362	160.126	0.099	-0.138
-479.347	-143.367	0.154	0.015
-478.332	800.000	-0.053	-0.171
-477.318	-105.165	-0.399	-0.091
-476.303	27.805	-0.289	-0.244
-475.289	-155.383	0.175	-0.011
-474.274	-45.631	0.074	0.037
-473.259	-7.146	-0.199	-0.135
-472.245	27.118	0.038	0.032
-471.230	329.800	0.063	0.121
-470.216	800.000	0.115	-0.425
-469.201	416.544	-0.122	0.261
-468.186	-200.000	0.002	0.155
-467.172	-102.540	0.205	0.049
-466.157	-30.389	0.256	-0.146
-465.143	243.889	-0.006	0.011
-464.128	-200.000	-0.013	0.155
-463.113	-130.967	-0.333	0.045
-462.099	3.034	0.116	0.085
-461.084	143.041	-0.066	0.087
-460.070	-200.000	0.039	-0.279
-459.055	-165.994	0.214	-0.009
-458.040	99.446	-0.062	-0.072
-457.026	-50.241	-0.167	0.079
-456.011	84.733	-0.227	0.249
-454.997	284.000	0.027	0.048
-453.982	-94.849	0.348	-0.094
-452.968	136.161	-0.109	-0.143
-451.953	-29.259	-0.178	-0.102
-450.938	335.283	0.081	0.157
-449.924	187.180	0.097	0.145
-448.909	142.507	-0.056	-0.074
-447.895	18.495	-0.264	0.211
-446.880	-200.000	-0.084	-0.467
-445.865	214.424	-0.197	-0.311
-444.851	99.861	0.217	-0.251
-443.836	34.815	0.321	0.281
-442.822	-200.000	-0.036	0.195
-441.807	-108.635	0.172	-0.037
-440.792	-126.096	-0.106	-0.016
-439.778	-94.751	0.169	0.046
-438.763	-78.737	-0.413	0.141
-437.749	395.580	-0.152	0.317
-436.734	-200.000	-0.009	-0.137
-435.719	-200.000	-0.033	0.337
-434.705	-37.504	-0.103	-0.055
-433.690	-14.982	-0.280	0.179
-432.676	-111.906	0.098	-0.020
-431.661	411.033	-0.191	-0.405
-430.646	537.962	0.158	-0.375
-429.632	800.000	-0.156	-0.526
-428.617	-65.385	0.294	-0.118
-427.603	336.929	0.114	-0.222
-426.588	-135.010	0.148	-0.018
-425.573	72.362	0.068	0.071
-424.559	5.136	0.128	0.094
-423.544	371.461	0.032	-0.065
-422.530	800.000	0.106	0.383
-421.515	43.961	0.184	-0.168
-420.500	128.713	-0.087	0.111
-419.486	-200.000	-0.019	0.117
-418.471	-80.907	-0.094	0.031
-417.457	161.038	-0.086	0.121
-416.442	-149.066	-0.200	0.016
-415.428	80.210	-0.222	0.238
-414.413	800.000	0.006	-0.020
-413.398	-200.000	-0.005	0.302
-412.384	-23.849	0.261	-0.156
-411.369	-62.501	-0.082	-0.034
-410.355	-200.000	0.008	-0.210
-409.340	90.253	-0.111	0.124
-408.325	800.000	0.102	0.371
-407.311	-22.159	-0.125	0.076
-406.296	-101.197	0.129	0.032
-405.282	-200.000	-0.065	-0.327
-404.267	25.317	0.047	0.039
-403.252	235.485	-0.115	-0.190
-402.238	-53.052	-0.033	-0.015
-401.223	800.000	-0.070	-0.259
-400.209	264.392	-0.133	-0.231
-399.194	38.069	-0.039	-0.034
-398.179	58.709	-0.181	0.178
-397.165	-114.437	0.155	0.030
-396.150	-23.636	-0.182	-0.109
-395.136	-200.000	-0.086	0.382
-394.121	359.034	-0.111	0.222
-393.106	-200.000	-0.026	0.286
-392.092	352.746	-0.111	-0.220
-391.077	634.251	0.069	-0.174
-390.063	800.000	0.061	0.170
-389.048	-102.672	-0.050	-0.012
-388.033	220.969	-0.106	-0.169
-387.019	-62.345	0.393	-0.163
-386.004	800.000	0.025	-0.082
-384.990	-24.325	-0.174	-0.104
-383.975	89.905	0.160	-0.179
-382.960	-108.758	-0.325	-0.069
-381.946	81.936	-0.106	-0.114
-380.931	-88.115	-0.163	0.049
-379.917	-111.883	0.260	-0.052
-378.902	236.526	-0.071	-0.117
-377.888	-82.492	-0.064	-0.021
-376.873	-200.000	0.021	-0.116
-375.858	-55.394	-0.283	0.127
-374.844	-74.432	0.177	0.064
-373.829	-200.000	-0.002	-0.477
-372.815	159.700	0.032	0.045
-371.800	800.000	0.086	-0.273
-370.785	-26.649	0.076	-0.044
-369.771	-187.146	0.278	-0.004
-368.756	237.918	-0.071	0.117
-367.742	199.754	-0.110	0.169
-366.727	18.022	-0.128	0.102
-365.712	-28.115	-0.122	-0.070
-364.698	800.000	0.037	0.132
-363.683	-200.000	-0.025	-0.261
-362.669	-27.052	-0.167	0.097
-361.654	800.000	0.129	-0.391
-360.639	-200.000	-0.042	0.229
-359.625	534.795	-0.072	0.170
-358.610	-8.309	-0.047	0.032
-357.596	591.626	-0.049	-0.122
-356.581	-1.555	-0.104	0.073
-355.566	292.873	0.081	-0.146
-354.552	229.784	0.228	-0.372
-353.537	-55.021	0.227	0.102
-352.523	-64.334	0.150	0.061
-351.508	278.903	-0.131	0.233
-350.493	129.775	0.181	-0.230
-349.479	-200.000	0.002	0.158
-348.464	47.787	-0.153	-0.142
-347.450	-0.817	0.337	0.238
-346.435	25.599	0.315	-0.261
-345.420	800.000	-0.149	-0.588
-344.406	-50.014	-0.084	-0.040
-343.391	8.713	0.070	0.053
-342.377	-57.120	0.377	0.165
-341.362	340.857	0.084	-0.164
-340.348	26.769	-0.118	0.099
-339.333	-200.000	-0.009	0.325
-338.318	-128.086	0.062	0.009
-337.304	800.000	-0.108	0.454
-336.289	-9.657	0.311	-0.206
-335.275	-115.872	-0.257	0.048
-334.260	3.470	0.275	-0.200
-333.245	800.000	-0.063	-0.192
-332.231	310.065	-0.116	0.216
-331.216	800.000	0.012	0.034
-330.202	58.117	0.137	-0.134
-329.187	-168.344	0.079	0.003
-328.172	-200.000	0.054	-0.252
-327.158	-68.584	-0.218	-0.084
-326.143	384.192	0.071	-0.145
-325.129	194.809	0.131	-0.197
-324.114	-63.523	0.162	0.066
-323.099	774.212	0.109	0.295
-322.085	-77.281	-0.317	0.110
-321.070	100.935	-0.140	-0.162
-320.056	800.000	-0.049	-0.201
-319.041	769.997	-0.049	-0.133
-318.026	-200.000	0.077	0.425
-317.012	-67.711	0.154	0.060
-315.997	114.966	-0.121	-0.146
-314.983	-200.000	0.027	-0.173
-313.968	-95.810	0.088	0.023
-312.953	800.000	0.037	-0.135
-311.939	210.508	-0.089	-0.139
-310.924	331.534	0.101	-0.193
-309.910	167.557	-0.091	-0.129
-308.895	1.174	-0.089	0.063
-307.880	800.000	-0.025	0.071
-306.866	-104.833	0.155	-0.035
-305.851	-65.038	-0.067	0.027
-304.837	-121.960	-0.340	0.056
-303.822	336.524	0.082	0.159
-302.807	-34.563	0.300	-0.164
-301.793	180.599	-0.139	0.203
-300.778	-150.955	-0.060	0.005
-299.764	800.000	0.099	0.294
-298.749	-124.444	-0.301	-0.047
-297.735	800.000	-0.029	-0.117
-296.720	-200.000	0.001	0.113
-295.705	11.264	-0.196	-0.149
-294.691	18.470	0.162	-0.129
-293.676	-200.000	-0.000	-0.182
-292.662	95.492	0.222	0.252
-291.647	71.835	0.138	-0.142
-290.632	800.000	0.037	-0.160
-289.618	-191.186	-0.197	-0.002
-288.603	-57.029	0.160	0.070
-287.589	16.412	-0.173	-0.136
-286.574	65.927	0.257	-0.259
-285.559	732.144	-0.149	0.395
-284.545	134.483	-0.214	0.275
-283.530	59.408	-0.195	0.191
-282.516	1.101	0.146	0.104
-281.501	121.968	-0.151	-0.187
-280.486	-137.044	-0.220	0.025
-279.472	1.817	-0.303	0.217
-278.457	111.467	-0.164	-0.197
-277.443	-193.114	-0.242	0.002
-276.428	164.552	0.026	0.037
-275.413	-84.118	0.454	-0.143
-274.399	-3.040	0.073	0.051
-273.384	800.000	-0.049	-0.213
-272.370	34.686	0.083	0.072
-271.355	32.752	0.251	0.216
-270.340	498.181	-0.055	0.127
-269.326	-95.213	0.177	0.047
-268.311	202.253	-0.191	0.293
-267.297	9.198	-0.034	0.026
-266.282	-16.439	0.083	-0.052
-265.267	54.629	0.216	-0.206
-264.253	30.295	-0.293	0.248
-263.238	18.768	-0.087	0.069
-262.224	-140.487	-0.057	-0.006
-261.209	-71.385	-0.278	-0.103
-260.195	-200.000	0.003	0.167
-259.180	-200.000	0.008	-0.140
-258.165	800.000	-0.064	-0.211
-257.151	-16.226	-0.328	-0.207
-256.136	-9.467	-0.018	-0.012
-255.122	120.318	0.301	-0.372
-254.107	-73.609	-0.237	0.086
-253.092	162.286	0.092	-0.128
-252.078	-42.602	0.209	-0.106
-251.063	-200.000	0.031	0.233
-250.049	800.000	-0.052	-0.171
-249.034	-200.000	0.319	0.001
-248.019	17.195	0.087	-0.069
-247.005	-200.000	-0.020	0.198
-245.990	364.085	0.077	-0.153
-244.976	-98.365	0.192	-0.049
-243.961	36.098	0.117	0.102
-242.946	18.319	-0.164	-0.130
-241.932	-30.300	-0.250	0.141
-240.917	-50.485	-0.177	0.083
-239.903	333.771	0.166	-0.318
-238.888	-122.144	0.278	0.045
-237.873	-2.923	0.247	-0.171
-236.859	-200.000	0.032	0.194
-235.844	-117.902	0.139	0.025
-234.830	7.583	-0.195	-0.145
-233.815	-200.000	-0.060	0.371
-232.800	-117.472	-0.233	0.042
-231.786	52.316	-0.048	-0.046
-230.771	-148.094	0.075	-0.006
-229.757	181.846	0.057	0.084
-228.742	198.832	0.244	0.371
-227.727	-15.627	0.352	0.223
-226.713	800.000	0.060	-0.238
-225.698	-65.109	0.271	-0.108
-224.684	-33.723	0.063	0.034
-223.669	-126.988	0.484	-0.071
-222.655	20.507	-0.228	-0.182
-221.640	-115.436	-0.266	-0.050
-220.625	-200.000	0.030	0.278
-219.611	-200.000	-0.011	-0.078
-218.596	486.540	0.125	-0.282
-217.582	92.652	0.152	-0.170
-216.567	-107.013	0.455	-0.100
-215.552	134.302	-0.186	0.239
-214.538	120.703	-0.127	-0.157
-213.523	-200.000	0.012	0.318
-212.509	-200.000	-0.008	-0.186
-211.494	-118.747	0.027	-0.005
-210.479	-64.893	-0.179	0.072
-209.465	119.631	0.130	-0.160
-208.450	67.196	0.076	-0.077
-207.436	-32.384	-0.277	-0.153
-206.421	-200.000	0.010	-0.263
-205.406	800.000	0.049	-0.170
-204.392	-29.707	0.137	-0.078
-203.377	-81.019	0.235	-0.077
-202.363	-37.817	0.118	-0.062
-201.348	-83.555	-0.175	-0.056
-200.333	46.150	0.217	0.199
-199.319	43.518	-0.180	-0.163
-198.304	-52.594	0.113	0.052
-197.290	-50.798	0.370	0.172
-196.275	205.531	0.072	0.111
-195.260	567.084	-0.025	-0.060
-194.246	24.940	0.338	0.277
-193.231	-200.000	-0.011	0.130
-192.217	-84.743	-0.181	0.056
-191.202	74.033	0.173	0.180
-190.187	-165.404	0.083	0.004
-189.173	-144.673	0.404	-0.037
-188.158	-27.556	0.193	0.111
-187.144	-105.295	-0.109	0.025
-186.129	-69.711	-0.119	-0.045
-185.114	-60.747	-0.158	-0.066
-184.100	-200.000	-0.036	-0.324
-183.085	40.740	-0.262	-0.234
-182.071	800.000	-0.119	0.491
-181.056	-80.641	-0.181	-0.060
-180.042	-89.460	0.098	-0.028
-179.027	-178.449	0.229	0.005
-178.012	-20.718	-0.263	0.160
-176.998	-9.376	0.094	-0.062
-175.983	114.574	0.183	0.221
-174.969	339.526	0.024	0.046
-173.954	226.417	-0.116	0.185
-172.939	135.088	0.348	0.447
-171.925	-200.000	0.056	-0.251
-170.910	-97.517	0.397	-0.102
-169.896	261.145	-0.157	0.269
-168.881	-200.000	0.060	-0.294
-167.866	-200.000	0.009	0.280
-166.852	-151.703	-0.089	-0.006
-165.837	-105.911	-0.275	0.061
-164.823	-84.848	-0.266	-0.083
-163.808	19.855	0.175	0.140
-162.793	-133.934	-0.160	0.020
-161.779	-120.698	-0.225	-0.038
-160.764	797.947	-0.059	-0.161
-159.750	-200.000	-0.001	-0.146
-158.735	-200.000	0.011	-0.243
-157.720	24.405	0.249	0.203
-156.706	800.000	-0.079	-0.248
-155.691	-119.355	-0.288	-0.049
-154.677	54.364	-0.247	-0.235
-153.662	29.940	0.314	0.265
-152.647	-108.462	-0.161	-0.034
-151.633	199.059	-0.110	0.167
-150.618	-155.785	-0.316	0.020
-149.604	-85.227	0.207	0.064
-148.589	71.473	0.100	-0.102
-147.574	-155.889	-0.133	-0.008
-146.560	388.726	-0.039	0.080
-145.545	-116.164	0.219	0.040
-144.531	748.553	-0.055	-0.147
-143.516	-94.690	-0.236	0.063
-142.502	800.000	-0.026	-0.084
-141.487	47.535	-0.170	-0.157
-140.472	800.000	-0.071	0.211
-139.458	-32.165	-0.113	-0.062
-138.443	-152.023	0.019	0.001
-137.429	-88.002	0.136	0.040
-136.414	-200.000	-0.027	0.197
-135.399	660.985	-0.078	0.198
-134.385	-200.000	-0.074	-0.400
-133.370	-100.605	-0.453	-0.111
-132.356	205.682	0.194	0.297
-131.341	332.001	-0.090	-0.172
-130.326	-8.748	-0.024	0.016
-129.312	-11.298	0.032	0.021
-128.297	99.506	-0.082	-0.094
-127.283	-124.284	0.340	0.053
-126.268	-79.300	-0.160	0.053
-125.253	65.533	-0.072	-0.072
-124.239	632.786	0.045	0.114
-123.224	81.224	0.049	0.052
-122.210	-200.000	-0.037	-0.419
-121.195	800.000	0.077	0.217
