DTS Sentinel unit serial number:	SN413079Multiplexer serial number:	ORYXHardware model number:	OX4-SRSoftware version number:	ORYX F/W v4.00 Oryx Data Collector v3.7.2.0data status	okinstallation	princeton_trtdifferential loss correction	single-endedforward channel	channel 3reverse channel	N/Adate	2019/09/14time	07:08:34forward acquisition time	60.00reverse acquisition time	0.00gamma	496.2192k internal	0.2340k external	0.2340temperature offset calibration	1.0057default loss term (dB/km)	0.3790temperature slope calibration	1.0000multiplexer offset coefficient	1.0000multiplexer slope coefficient	1.0000fibre end	0.00T internal ref (°C)	26.19T ext. ref 1 (°C)	3.45T ext. ref 2 (°C)	20.92length (m)	temperature (°C)	Stokes	anti-Stokes-747.200	-180.092	0.235	0.005
-746.185	800.000	-0.066	-0.188
-745.171	-24.672	-0.076	-0.045
-744.156	179.531	-0.067	-0.098
-743.142	-148.236	-0.128	-0.011
-742.127	264.151	-0.083	-0.144
-741.112	-33.239	0.203	0.113
-740.098	227.610	-0.136	0.221
-739.083	437.385	0.160	0.350
-738.069	800.000	-0.136	0.378
-737.054	-136.894	-0.043	-0.005
-736.039	-28.732	-0.343	-0.198
-735.025	4.969	0.132	0.098
-734.010	-200.000	-0.025	-0.124
-732.996	193.426	-0.086	-0.131
-731.981	-200.000	-0.085	-0.494
-730.966	432.261	-0.202	-0.438
-729.952	89.144	-0.191	-0.213
-728.937	-200.000	0.017	0.121
-727.923	-78.119	-0.235	-0.081
-726.908	-200.000	-0.003	-0.193
-725.894	23.005	-0.114	0.094
-724.879	278.298	-0.149	-0.266
-723.864	-18.921	0.389	-0.242
-722.850	800.000	-0.164	0.491
-721.835	-200.000	-0.021	-0.340
-720.821	800.000	0.073	-0.205
-719.806	114.847	0.343	-0.419
-718.791	33.204	-0.171	-0.148
-717.777	237.440	0.036	0.059
-716.762	-144.244	-0.458	0.043
-715.748	2.515	0.070	0.051
-714.733	19.462	0.227	0.183
-713.718	-38.065	0.260	-0.138
-712.704	-98.931	-0.471	-0.120
-711.689	230.629	0.072	0.119
-710.675	-98.415	-0.245	0.063
-709.660	96.029	-0.085	-0.097
-708.645	-35.700	0.442	0.240
-707.631	-159.591	-0.118	-0.007
-706.616	76.034	-0.152	-0.161
-705.602	-47.736	0.317	0.154
-704.587	800.000	0.149	0.442
-703.572	108.211	-0.092	0.109
-702.558	800.000	0.083	-0.270
-701.543	673.040	-0.097	0.251
-700.529	-100.731	-0.279	0.069
-699.514	338.880	-0.175	0.342
-698.499	-130.448	-0.301	0.041
-697.485	800.000	0.101	-0.293
-696.470	19.931	0.346	-0.279
-695.456	119.419	-0.026	-0.033
-694.441	-151.745	-0.182	-0.013
-693.426	800.000	0.061	0.254
-692.412	37.587	0.100	-0.089
-691.397	-120.082	0.168	-0.029
-690.383	349.972	-0.012	0.024
-689.368	-200.000	-0.006	0.082
-688.354	-19.473	-0.291	0.180
-687.339	-133.521	-0.373	0.047
-686.324	-39.417	0.173	0.091
-685.310	-37.648	0.211	-0.112
-684.295	654.108	0.096	-0.246
-683.281	-97.432	-0.123	0.032
-682.266	-78.624	0.190	0.065
-681.251	-47.010	-0.217	-0.106
-680.237	-200.000	-0.039	-0.242
-679.222	87.238	0.207	-0.228
-678.208	584.244	-0.079	0.193
-677.193	800.000	-0.110	-0.399
-676.178	32.112	0.110	0.095
-675.164	-9.296	-0.411	-0.275
-674.149	488.950	-0.060	-0.137
-673.135	800.000	0.167	-0.475
-672.120	275.111	0.185	-0.327
-671.105	-102.868	-0.178	0.042
-670.091	800.000	-0.035	-0.142
-669.076	-200.000	0.002	0.064
-668.062	68.035	0.248	-0.254
-667.047	-200.000	0.007	-0.142
-666.032	-56.181	0.111	-0.049
-665.018	567.566	0.028	-0.068
-664.003	-42.061	-0.127	0.065
-662.989	-124.922	-0.060	0.009
-661.974	800.000	-0.050	-0.163
-660.959	110.347	-0.201	-0.241
-659.945	-200.000	-0.007	0.045
-658.930	-106.573	0.081	-0.018
-657.916	40.275	-0.207	0.186
-656.901	-52.427	-0.355	0.164
-655.886	-164.798	-0.336	0.015
-654.872	-105.881	0.010	-0.002
-653.857	-200.000	-0.057	0.250
-652.843	72.243	-0.179	0.186
-651.828	-122.600	0.151	-0.025
-650.814	40.271	-0.119	-0.107
-649.799	-49.823	0.136	0.064
-648.784	382.332	0.052	0.107
-647.770	-200.000	0.004	-0.053
-646.755	-200.000	0.001	-0.150
-645.741	800.000	0.044	0.166
-644.726	-56.091	-0.109	-0.049
-643.711	135.979	0.279	-0.364
-642.697	-50.861	0.071	-0.033
-641.682	-200.000	-0.019	0.116
-640.668	-172.375	0.124	0.004
-639.653	800.000	-0.081	0.313
-638.638	181.259	-0.141	-0.206
-637.624	-200.000	0.006	-0.150
-636.609	-10.231	-0.215	0.142
-635.595	3.775	0.324	-0.236
-634.580	-200.000	-0.021	-0.115
-633.565	36.127	-0.248	0.218
-632.551	194.934	-0.136	0.206
-631.536	31.209	0.101	-0.087
-630.522	-60.572	0.262	0.111
-629.507	-55.379	-0.204	0.091
-628.492	800.000	-0.107	-0.361
-627.478	-200.000	-0.001	0.147
-626.463	-51.874	-0.339	-0.157
-625.449	-185.036	0.107	-0.002
-624.434	81.141	-0.139	0.150
-623.419	188.446	-0.166	-0.247
-622.405	86.807	-0.163	0.180
-621.390	310.234	-0.077	-0.144
-620.376	-107.739	-0.137	0.030
-619.361	2.231	0.186	0.134
-618.346	-88.767	-0.139	-0.041
-617.332	-200.000	0.053	0.251
-616.317	67.899	0.100	0.102
-615.303	106.643	0.110	0.131
-614.288	-200.000	0.002	0.279
-613.273	-200.000	0.071	0.367
-612.259	89.802	-0.073	0.081
-611.244	27.543	0.126	-0.106
-610.230	-93.146	0.359	-0.100
-609.215	-200.000	-0.004	0.132
-608.201	-63.126	-0.087	0.036
-607.186	-42.347	0.117	0.059
-606.171	357.635	0.078	0.155
-605.157	-71.258	-0.050	-0.019
-604.142	-200.000	0.065	-0.385
-603.128	-9.331	0.248	0.165
-602.113	-34.488	-0.324	-0.177
-601.098	800.000	-0.094	0.375
-600.084	-200.000	0.008	0.183
-599.069	90.555	0.107	0.119
-598.055	-43.197	-0.163	0.082
-597.040	87.087	0.138	-0.151
-596.025	58.041	0.085	-0.083
-595.011	-119.132	0.306	-0.053
-593.996	-3.340	0.066	-0.046
-592.982	-200.000	-0.024	0.154
-591.967	79.182	-0.159	-0.169
-590.952	-87.778	-0.107	0.032
-589.938	800.000	-0.015	-0.062
-588.923	-200.000	0.004	-0.023
-587.909	65.761	-0.175	-0.177
-586.894	-13.194	-0.337	0.218
-585.879	-200.000	0.020	-0.239
-584.865	497.323	-0.060	0.137
-583.850	-49.887	0.119	-0.056
-582.836	800.000	0.044	0.177
-581.821	-52.710	-0.132	-0.061
-580.806	-93.930	-0.446	-0.122
-579.792	-200.000	0.023	0.131
-578.777	663.180	0.071	0.183
-577.763	-200.000	0.028	0.313
-576.748	316.629	-0.160	-0.302
-575.733	-99.424	0.203	0.051
-574.719	706.824	0.044	0.116
-573.704	305.872	-0.123	0.228
-572.690	-200.000	0.015	0.230
-571.675	-177.137	-0.074	-0.002
-570.661	-116.947	0.290	-0.053
-569.646	-47.889	0.154	-0.074
-568.631	123.972	-0.121	-0.151
-567.617	-126.449	-0.143	0.021
-566.602	-23.535	-0.263	0.157
-565.588	-83.664	0.190	0.060
-564.573	-88.171	0.315	-0.094
-563.558	-88.478	-0.060	-0.018
-562.544	800.000	0.042	0.130
-561.529	120.086	-0.100	-0.124
-560.515	800.000	-0.145	0.461
-559.500	-200.000	-0.018	-0.255
-558.485	-200.000	0.011	-0.162
-557.471	355.321	-0.097	0.192
-556.456	368.917	-0.155	-0.312
-555.442	-200.000	0.020	0.263
-554.427	800.000	0.080	-0.225
-553.412	-28.157	0.352	0.203
-552.398	-38.146	0.143	-0.075
-551.383	-5.962	-0.228	0.155
-550.369	561.337	-0.091	-0.219
-549.354	-95.508	-0.192	-0.051
-548.339	183.383	-0.133	-0.196
-547.325	194.944	0.099	-0.149
-546.310	146.825	0.228	-0.305
-545.296	800.000	0.030	-0.085
-544.281	-56.217	-0.143	-0.063
-543.266	-200.000	-0.004	-0.258
-542.252	90.916	0.189	0.210
-541.237	143.848	-0.154	-0.204
-540.223	70.066	-0.195	0.200
-539.208	800.000	0.028	-0.118
-538.193	627.267	-0.032	-0.080
-537.179	-23.994	0.109	-0.065
-536.164	800.000	0.019	0.080
-535.150	800.000	-0.077	0.244
-534.135	105.699	-0.241	0.284
-533.121	-71.631	-0.128	0.047
-532.106	446.605	-0.079	-0.174
-531.091	158.345	0.046	-0.063
-530.077	-56.089	-0.167	0.074
-529.062	-200.000	-0.034	0.215
-528.048	29.452	-0.112	-0.095
-527.033	-67.430	-0.117	-0.046
-526.018	703.439	0.091	0.239
-525.004	153.222	0.342	-0.465
-523.989	-126.691	-0.209	-0.031
-522.975	142.709	-0.191	0.253
-521.960	-51.494	0.242	0.112
-520.945	-65.456	0.040	0.016
-519.931	800.000	0.060	-0.195
-518.916	-200.000	0.068	-0.440
-517.902	800.000	-0.064	-0.206
-516.887	-200.000	-0.057	-0.257
-515.872	-200.000	0.004	-0.048
-514.858	374.757	0.145	0.294
-513.843	800.000	0.074	-0.230
-512.829	98.912	0.130	-0.150
-511.814	-170.488	-0.040	-0.001
-510.799	-158.133	0.144	0.008
-509.785	-136.187	0.118	0.014
-508.770	-52.746	0.307	0.141
-507.756	38.953	-0.143	0.127
-506.741	-200.000	-0.028	-0.132
-505.726	119.370	-0.112	-0.137
-504.712	16.729	0.124	0.098
-503.697	-35.399	-0.071	-0.038
-502.683	-200.000	0.000	0.084
-501.668	-26.880	-0.113	-0.065
-500.653	141.961	0.095	-0.125
-499.639	-169.995	0.074	0.003
-498.624	-200.000	0.040	0.188
-497.610	-55.148	0.178	0.079
-496.595	800.000	-0.076	0.219
-495.581	-83.415	-0.146	0.047
-494.566	-126.971	0.167	0.024
-493.551	-23.258	0.076	0.046
-492.537	269.221	-0.085	-0.149
-491.522	-80.464	-0.129	-0.043
-490.508	-34.045	-0.056	0.030
-489.493	61.498	0.115	-0.113
-488.478	-91.254	-0.282	-0.080
-487.464	30.278	0.140	0.118
-486.449	-54.399	0.175	0.079
-485.435	74.633	0.170	0.178
-484.420	767.838	-0.052	0.141
-483.405	-200.000	-0.015	-0.268
-482.391	21.633	-0.065	0.052
-481.376	617.524	-0.049	-0.121
-480.362	316.312	0.021	-0.039
-479.347	65.155	-0.207	0.208
-478.332	-31.913	-0.057	-0.032
-477.318	74.907	0.134	0.140
-476.303	-13.307	0.239	-0.154
-475.289	-200.000	-0.010	-0.139
-474.274	-78.534	-0.106	-0.036
-473.259	-137.440	-0.122	-0.014
-472.245	-164.587	-0.164	0.007
-471.230	-200.000	-0.003	-0.160
-470.216	191.165	0.159	0.238
-469.201	-200.000	-0.000	-0.081
-468.186	-200.000	-0.017	0.114
-467.172	800.000	0.037	-0.113
-466.157	179.609	0.151	-0.220
-465.143	-9.573	-0.342	0.226
-464.128	-53.314	-0.112	0.051
-463.113	339.197	0.107	-0.207
-462.099	64.462	-0.040	0.040
-461.084	176.142	-0.059	0.085
-460.070	-94.904	0.405	-0.109
-459.055	41.086	0.180	0.161
-458.040	-135.300	-0.141	0.017
-457.026	-98.283	-0.313	0.080
-456.011	-200.000	0.039	0.198
-454.997	139.773	0.216	0.282
-453.982	-73.724	-0.188	-0.068
-452.968	-200.000	-0.001	0.066
-451.953	267.789	0.132	-0.228
-450.938	603.586	0.092	0.228
-449.924	48.242	-0.239	0.222
-448.909	73.311	0.094	0.098
-447.895	-200.000	-0.049	-0.276
-446.880	-200.000	0.037	-0.237
-445.865	49.541	0.074	0.069
-444.851	-200.000	0.035	0.261
-443.836	49.550	-0.340	0.318
-442.822	162.842	0.058	-0.081
-441.807	-110.391	-0.170	0.035
-440.792	13.473	0.309	0.238
-439.778	126.845	0.302	-0.379
-438.763	-109.142	-0.100	-0.021
-437.749	-141.551	-0.269	0.027
-436.734	33.509	-0.189	-0.162
-435.719	-173.226	0.252	-0.008
-434.705	105.568	0.097	-0.113
-433.690	-120.554	-0.254	-0.043
-432.676	-123.680	-0.086	0.013
-431.661	-200.000	0.037	-0.264
-430.646	800.000	0.095	-0.289
-429.632	-200.000	0.079	-0.350
-428.617	67.254	0.062	-0.062
-427.603	-200.000	-0.064	-0.359
-426.588	399.300	0.064	0.134
-425.573	512.870	-0.115	0.266
-424.559	137.595	-0.227	0.294
-423.544	478.016	0.104	0.234
-422.530	48.269	0.132	0.122
-421.515	-68.618	0.108	-0.041
-420.500	591.196	0.059	-0.144
-419.486	-109.590	-0.276	0.058
-418.471	0.602	-0.074	0.052
-417.457	18.874	0.028	-0.022
-416.442	-65.834	-0.141	0.056
-415.428	-26.264	0.060	0.035
-414.413	143.099	-0.094	-0.123
-413.398	393.265	0.159	0.327
-412.384	800.000	-0.065	-0.280
-411.369	-45.626	0.032	-0.015
-410.355	-61.028	-0.229	-0.096
-409.340	-140.662	-0.229	-0.023
-408.325	27.030	-0.223	-0.185
-407.311	-200.000	0.006	-0.036
-406.296	102.652	-0.333	-0.385
-405.282	-200.000	0.009	0.236
-404.267	800.000	-0.092	-0.259
-403.252	171.903	0.122	0.173
-402.238	215.272	-0.192	-0.302
-401.223	-139.921	-0.145	-0.015
-400.209	-12.688	-0.335	-0.216
-399.194	-38.370	-0.083	0.044
-398.179	79.341	0.128	-0.136
-397.165	133.335	-0.120	-0.154
-396.150	-200.000	-0.028	-0.274
-395.136	3.796	0.084	0.060
-394.121	621.208	-0.098	-0.244
-393.106	30.343	0.215	-0.182
-392.092	-27.356	-0.125	0.072
-391.077	64.333	-0.148	0.148
-390.063	14.952	-0.192	-0.149
-389.048	437.851	0.017	0.036
-388.033	101.880	0.182	-0.210
-387.019	698.218	0.166	0.430
-386.004	-63.760	0.309	0.125
-384.990	-94.394	-0.292	0.079
-383.975	-123.686	-0.296	-0.046
-382.960	800.000	0.101	-0.373
-381.946	242.958	-0.031	-0.052
-380.931	-61.729	0.335	-0.139
-379.917	-200.000	-0.030	-0.260
-378.902	-90.645	0.375	-0.107
-377.888	417.178	0.128	0.270
-376.873	-66.363	-0.103	0.040
-375.858	-65.473	-0.204	-0.081
-374.844	149.494	0.186	0.248
-373.829	4.609	0.089	0.064
-372.815	-51.878	0.211	0.097
-371.800	-200.000	-0.054	0.414
-370.785	48.072	-0.259	0.239
-369.771	-118.388	-0.132	0.023
-368.756	800.000	-0.114	-0.463
-367.742	218.663	-0.044	-0.069
-366.727	-51.403	-0.313	-0.144
-365.712	-88.272	0.047	-0.014
-364.698	-55.045	0.159	-0.071
-363.683	482.483	0.155	0.348
-362.669	118.537	0.133	0.162
-361.654	5.944	0.058	-0.042
-360.639	-200.000	-0.004	-0.034
-359.625	-200.000	-0.036	0.188
-358.610	-64.392	0.153	-0.062
-357.596	-147.409	0.072	0.006
-356.581	59.994	-0.167	-0.163
-355.566	-195.145	0.311	0.002
-354.552	485.500	-0.082	-0.184
-353.537	401.778	0.125	0.259
-352.523	800.000	-0.010	-0.031
-351.508	-1.311	-0.284	-0.198
-350.493	-200.000	-0.024	0.151
-349.479	553.167	0.157	0.372
-348.464	-11.584	0.208	-0.135
-347.450	-120.198	0.147	-0.025
-346.435	800.000	-0.041	0.128
-345.420	-94.241	-0.354	0.095
-344.406	-186.857	0.126	0.002
-343.391	3.757	0.151	0.109
-342.377	70.632	-0.027	0.027
-341.362	-10.640	0.194	0.127
-340.348	696.612	0.043	-0.111
-339.333	-29.351	-0.324	0.183
-338.318	-200.000	0.025	-0.313
-337.304	-10.065	0.222	0.145
-336.289	-120.447	0.433	-0.073
-335.275	-200.000	0.080	-0.353
-334.260	49.914	-0.241	0.225
-333.245	-9.641	0.111	0.073
-332.231	582.115	-0.096	0.232
-331.216	302.237	0.100	-0.182
-330.202	300.223	0.036	0.066
-329.187	92.977	-0.149	0.166
-328.172	190.285	0.093	-0.138
-327.158	-147.375	-0.109	-0.009
-326.143	-200.000	0.003	0.084
-325.129	12.546	-0.004	0.003
-324.114	-97.454	0.145	-0.037
-323.099	272.615	-0.181	-0.316
-322.085	341.694	-0.103	-0.200
-321.070	433.462	-0.058	0.124
-320.056	13.024	0.154	0.117
-319.041	-106.030	0.180	0.040
-318.026	-28.647	-0.560	0.318
-317.012	177.222	0.041	-0.059
-315.997	800.000	0.072	0.206
-314.983	176.566	0.143	0.205
-313.968	-18.730	-0.285	-0.175
-312.953	-45.145	0.037	0.018
-311.939	69.585	0.109	-0.111
-310.924	800.000	0.024	0.100
-309.910	800.000	-0.087	-0.251
-308.895	69.187	0.104	0.105
-307.880	-64.473	0.127	0.051
-306.866	-89.768	-0.229	-0.066
-305.851	336.612	0.154	0.294
-304.837	-72.546	-0.110	0.040
-303.822	-200.000	0.008	-0.096
-302.807	-200.000	-0.013	-0.241
-301.793	-200.000	0.035	0.166
-300.778	-37.233	0.230	-0.121
-299.764	39.862	0.122	-0.108
-298.749	8.948	-0.110	0.082
-297.735	-9.805	-0.200	0.131
-296.720	800.000	-0.077	0.317
-295.705	36.088	-0.218	-0.189
-294.691	62.377	0.158	0.156
-293.676	296.188	0.151	-0.272
-292.662	606.251	-0.129	-0.318
-291.647	792.950	0.076	0.207
-290.632	-111.086	0.198	0.040
-289.618	3.752	0.270	-0.194
-288.603	-200.000	0.000	-0.457
-287.589	47.178	0.361	-0.331
-286.574	-94.109	-0.235	-0.064
-285.559	48.477	0.159	0.147
-284.545	-200.000	-0.091	0.419
-283.530	118.585	0.079	-0.096
-282.516	31.676	0.171	-0.145
-281.501	288.805	-0.042	0.075
-280.486	421.614	0.063	0.132
-279.472	292.018	0.121	0.216
-278.457	-0.649	0.244	-0.170
-277.443	-129.788	0.328	-0.044
-276.428	798.986	-0.057	0.155
-275.413	-142.575	-0.186	0.018
-274.399	-200.000	-0.045	0.233
-273.384	-17.411	-0.048	0.030
-272.370	297.342	-0.097	-0.175
-271.355	-170.668	0.237	-0.008
-270.340	-200.000	-0.003	0.060
-269.326	-116.709	-0.237	0.043
-268.311	-103.213	0.322	-0.075
-267.297	800.000	0.057	0.198
-266.282	-178.127	-0.170	0.004
-265.267	429.961	-0.084	0.179
-264.253	-163.172	-0.165	0.008
-263.238	61.939	0.102	0.100
-262.224	422.448	-0.168	0.355
-261.209	-126.395	-0.438	0.064
-260.195	13.419	-0.170	0.130
-259.180	-131.181	-0.123	0.016
-258.165	-200.000	0.013	0.059
-257.151	570.362	-0.101	0.241
-256.136	117.783	0.138	-0.167
-255.122	206.171	-0.210	-0.321
-254.107	37.404	0.150	0.131
-253.092	89.014	-0.256	0.281
-252.078	800.000	0.066	-0.199
-251.063	-151.442	-0.028	0.002
-250.049	0.063	-0.188	-0.132
-249.034	-200.000	0.029	-0.282
-248.019	297.724	-0.063	0.113
-247.005	-38.040	0.210	0.110
-245.990	800.000	0.091	-0.257
-244.976	383.344	-0.029	-0.060
-243.961	-200.000	-0.050	-0.267
-242.946	355.911	0.079	-0.155
-241.932	379.530	-0.138	-0.279
-240.917	-200.000	0.032	0.161
-239.903	-200.000	0.019	0.170
-238.888	-168.546	0.200	0.008
-237.873	315.109	-0.035	-0.066
-236.859	228.307	-0.167	-0.267
-235.844	-200.000	0.001	0.089
-234.830	-67.359	0.330	0.127
-233.815	727.113	-0.196	0.515
-232.800	-200.000	0.001	-0.168
-231.786	-14.124	-0.289	-0.183
-230.771	-86.430	0.088	-0.027
-229.757	-200.000	-0.208	0.001
-228.742	263.180	0.011	-0.018
-227.727	-131.168	-0.264	0.035
-226.713	-110.416	-0.162	-0.033
-225.698	-68.908	-0.164	-0.062
-224.684	-91.296	-0.120	0.034
-223.669	-107.495	0.027	0.006
-222.655	800.000	0.028	0.088
-221.640	168.731	0.145	-0.202
-220.625	-200.000	-0.002	0.266
-219.611	-156.871	-0.018	-0.001
-218.596	16.902	0.098	-0.076
-217.582	-14.464	0.241	-0.153
-216.567	-70.677	-0.097	-0.036
-215.552	40.525	-0.045	-0.040
-214.538	205.979	0.073	0.112
-213.523	8.331	0.305	-0.225
-212.509	-200.000	-0.045	-0.227
-211.494	-22.941	-0.090	0.053
-210.479	8.727	0.080	-0.059
-209.465	-86.012	-0.157	-0.048
-208.450	-62.337	-0.178	-0.073
-207.436	-95.068	0.363	-0.096
-206.421	306.534	-0.132	0.240
-205.406	800.000	0.200	-0.550
-204.392	-32.386	0.243	0.133
-203.377	-200.000	-0.047	-0.332
-202.363	800.000	0.048	-0.144
-201.348	-86.201	0.241	0.073
-200.333	-198.708	-0.451	0.002
-199.319	-57.661	0.109	0.047
-198.304	-56.477	-0.231	-0.100
-197.290	-200.000	0.004	-0.138
-196.275	-200.000	0.035	-0.220
-195.260	245.486	0.192	0.317
-194.246	-96.027	-0.153	-0.040
-193.231	-96.946	0.100	0.026
-192.217	52.339	-0.283	0.265
-191.202	-150.102	0.152	-0.012
-190.187	-75.809	-0.323	-0.112
-189.173	-200.000	0.039	0.191
-188.158	-63.127	0.147	-0.060
-187.144	13.177	0.108	0.082
-186.129	-88.949	0.219	0.064
-185.114	46.787	-0.097	0.088
-184.100	-200.000	-0.025	0.272
-183.085	-97.915	-0.254	-0.064
-182.071	-200.000	-0.015	0.314
-181.056	65.686	0.171	0.169
-180.042	-200.000	-0.020	0.213
-179.027	-200.000	0.008	0.119
-178.012	-145.887	0.377	-0.033
-176.998	-200.000	-0.028	-0.231
-175.983	81.336	-0.273	0.290
-174.969	-71.395	0.248	0.091
-173.954	800.000	0.012	-0.048
-172.939	-79.634	-0.366	0.121
-171.925	-200.000	0.014	0.214
-170.910	-4.690	0.412	0.279
-169.896	800.000	-0.042	0.119
-168.881	-45.914	0.225	-0.109
-167.866	293.287	-0.081	0.146
-166.852	365.379	0.143	0.282
-165.837	-200.000	0.280	0.001
-164.823	-200.000	-0.016	-0.076
-163.808	-200.000	0.022	-0.313
-162.793	447.040	0.072	-0.156
-161.779	-106.063	0.312	-0.069
-160.764	-25.112	-0.247	-0.143
-159.750	-80.482	-0.203	-0.066
-158.735	208.499	0.190	0.291
-157.720	800.000	-0.050	-0.162
-156.706	-151.096	0.235	0.017
-155.691	-74.784	0.503	-0.177
-154.677	-86.037	-0.079	-0.024
-153.662	-115.252	0.045	-0.008
-152.647	-200.000	-0.072	-0.340
-151.633	-167.906	0.129	-0.005
-150.618	-63.989	0.246	0.098
-149.604	800.000	-0.076	0.231
-148.589	99.947	0.063	-0.071
-147.574	26.884	0.065	0.053
-146.560	606.141	0.112	0.273
-145.545	-200.000	0.022	-0.192
-144.531	-138.830	0.220	-0.023
-143.516	-200.000	-0.013	0.184
-142.502	157.572	0.076	-0.102
-141.487	-9.051	-0.113	0.074
-140.472	261.444	0.169	-0.286
-139.458	16.136	0.115	0.088
-138.443	196.527	-0.095	0.141
-137.429	-82.578	-0.089	-0.028
-136.414	-60.918	0.125	0.052
-135.399	-200.000	-0.031	-0.226
-134.385	68.331	0.108	-0.108
-133.370	10.200	0.168	0.125
-132.356	-51.004	0.172	0.079
-131.341	120.133	-0.332	-0.403
-130.326	-105.726	-0.123	-0.027
-129.312	800.000	0.011	-0.042
-128.297	-78.662	0.183	0.061
-127.283	-67.815	0.228	0.087
-126.268	15.803	-0.107	-0.082
-125.253	800.000	0.166	0.480
-124.239	-137.688	0.121	0.013
-123.224	445.426	-0.098	-0.211
-122.210	37.896	-0.286	-0.249
-121.195	192.101	-0.137	0.202
