DTS Sentinel unit serial number:	SN413079Multiplexer serial number:	ORYXHardware model number:	OX4-SRSoftware version number:	ORYX F/W v4.00 Oryx Data Collector v3.7.2.0data status	okinstallation	princeton_trtdifferential loss correction	single-endedforward channel	channel 3reverse channel	N/Adate	2019/09/16time	16:56:35forward acquisition time	60.00reverse acquisition time	0.00gamma	496.2192k internal	0.2296k external	0.2296temperature offset calibration	0.9942default loss term (dB/km)	0.3790temperature slope calibration	1.0000multiplexer offset coefficient	1.0000multiplexer slope coefficient	1.0000fibre end	0.00T internal ref (°C)	39.42T ext. ref 1 (°C)	15.26T ext. ref 2 (°C)	33.70length (m)	temperature (°C)	Stokes	anti-Stokes-747.200	113.180	-0.179	0.221
-746.185	432.232	0.194	0.430
-745.171	32.703	-0.171	-0.151
-744.156	-73.173	-0.191	0.072
-743.142	-84.826	0.304	-0.098
-742.127	-39.156	-0.166	0.089
-741.112	-26.843	-0.143	-0.085
-740.098	800.000	0.089	0.254
-739.083	-28.037	-0.149	-0.088
-738.069	-21.186	0.145	0.091
-737.054	512.683	0.050	-0.119
-736.039	-200.000	0.010	-0.255
-735.025	63.413	-0.124	-0.127
-734.010	149.624	-0.254	-0.351
-732.996	800.000	-0.063	-0.226
-731.981	67.701	-0.175	-0.183
-730.966	8.964	-0.105	-0.081
-729.952	42.056	0.137	-0.127
-728.937	-71.950	0.122	-0.047
-727.923	64.582	-0.021	0.021
-726.908	-166.215	0.305	0.013
-725.894	-200.000	-0.071	-0.408
-724.879	187.071	0.082	0.124
-723.864	-147.411	0.182	-0.016
-722.850	800.000	-0.148	-0.434
-721.835	-78.366	0.095	-0.033
-720.821	-200.000	-0.017	-0.231
-719.806	800.000	0.138	0.472
-718.791	-53.007	-0.149	-0.070
-717.777	722.460	0.057	0.155
-716.762	800.000	-0.071	-0.286
-715.748	-146.412	0.353	0.031
-714.733	-129.990	0.175	-0.024
-713.718	800.000	0.018	-0.057
-712.704	800.000	0.059	-0.166
-711.689	-200.000	0.022	0.113
-710.675	695.934	-0.028	0.075
-709.660	18.504	0.253	-0.207
-708.645	619.423	-0.095	0.243
-707.631	117.930	-0.112	-0.141
-706.616	-159.070	0.245	-0.014
-705.602	-200.000	-0.036	-0.424
-704.587	-90.096	0.141	0.042
-703.572	-200.000	-0.053	0.267
-702.558	-200.000	0.020	-0.233
-701.543	-44.706	0.224	-0.114
-700.529	-76.667	-0.171	-0.061
-699.514	349.507	-0.137	0.277
-698.499	26.924	0.249	0.213
-697.485	-121.284	-0.195	-0.033
-696.470	89.012	-0.146	-0.166
-695.456	31.458	0.136	-0.119
-694.441	-149.115	0.112	0.009
-693.426	42.109	-0.163	-0.151
-692.412	-27.303	-0.170	-0.101
-691.397	-200.000	0.021	-0.131
-690.383	133.248	-0.051	0.068
-689.368	237.376	0.035	-0.059
-688.354	438.441	0.109	-0.243
-687.339	-200.000	0.036	-0.212
-686.324	800.000	-0.010	-0.034
-685.310	-32.157	0.228	-0.130
-684.295	299.175	0.074	0.138
-683.281	-46.116	-0.209	0.105
-682.266	-132.049	-0.092	0.012
-681.251	-38.327	-0.193	-0.104
-680.237	-200.000	0.005	-0.539
-679.222	-71.179	0.115	0.044
-678.208	800.000	0.026	-0.091
-677.193	-200.000	-0.002	-0.025
-676.178	-200.000	0.028	-0.135
-675.164	133.029	0.052	0.069
-674.149	46.918	-0.155	0.147
-673.135	800.000	0.039	-0.116
-672.120	56.536	-0.244	-0.242
-671.105	-200.000	-0.013	0.537
-670.091	-91.668	-0.352	0.102
-669.076	-105.657	-0.250	0.058
-668.062	-200.000	0.008	0.071
-667.047	277.682	0.125	-0.226
-666.032	-136.421	-0.099	-0.012
-665.018	-70.889	-0.209	0.080
-664.003	28.604	-0.068	-0.059
-662.989	-173.832	-0.075	-0.002
-661.974	800.000	0.102	0.433
-660.959	241.131	-0.152	-0.259
-659.945	800.000	-0.036	0.106
-658.930	-200.000	-0.008	-0.149
-657.916	-170.691	0.041	0.001
-656.901	-144.935	0.200	-0.019
-655.886	4.624	0.184	-0.137
-654.872	141.745	-0.228	0.308
-653.857	800.000	-0.102	0.320
-652.843	-191.312	0.203	-0.002
-651.828	-200.000	0.005	-0.139
-650.814	511.854	-0.117	0.277
-649.799	800.000	0.035	0.148
-648.784	-200.000	0.032	-0.166
-647.770	-200.000	-0.003	-0.102
-646.755	800.000	-0.055	0.156
-645.741	3.343	0.051	0.038
-644.726	644.949	-0.093	0.241
-643.711	353.920	-0.124	-0.250
-642.697	36.375	0.283	-0.254
-641.682	-46.901	-0.216	-0.107
-640.668	-4.650	-0.370	-0.260
-639.653	-27.663	-0.266	-0.157
-638.638	800.000	-0.088	0.277
-637.624	76.342	-0.090	0.097
-636.609	-200.000	-0.003	-0.037
-635.595	401.674	0.146	-0.313
-634.580	164.136	-0.198	0.283
-633.565	14.366	-0.124	-0.098
-632.551	255.331	-0.135	0.235
-631.536	-148.818	-0.236	-0.019
-630.522	77.643	-0.063	0.068
-629.507	45.460	0.211	0.198
-628.492	-98.269	0.269	-0.070
-627.478	-200.000	-0.043	-0.257
-626.463	800.000	0.011	-0.038
-625.449	-135.932	-0.162	0.019
-624.434	-86.346	-0.402	0.126
-623.419	-84.395	0.151	-0.048
-622.405	38.433	0.480	-0.435
-621.390	-200.000	0.034	0.253
-620.376	-200.000	-0.077	0.352
-619.361	-200.000	-0.015	0.238
-618.346	-59.466	0.270	0.118
-617.332	232.551	0.205	0.343
-616.317	-63.510	0.111	0.046
-615.303	-0.416	0.235	-0.170
-614.288	76.148	0.170	0.183
-613.273	800.000	0.116	0.327
-612.259	-200.000	-0.041	0.327
-611.244	58.853	-0.302	-0.302
-610.230	-131.012	0.214	-0.029
-609.215	-55.841	-0.173	-0.079
-608.201	-64.826	-0.174	-0.071
-607.186	-83.850	-0.229	-0.074
-606.171	579.421	-0.089	-0.222
-605.157	800.000	0.023	0.101
-604.142	-1.996	-0.095	-0.068
-603.128	800.000	0.032	0.114
-602.113	-200.000	0.041	0.190
-601.098	-68.190	-0.234	-0.093
-600.084	-130.148	0.221	0.031
-599.069	-50.133	0.256	-0.123
-598.055	655.360	-0.068	0.178
-597.040	-142.965	-0.521	-0.051
-596.025	100.503	-0.101	0.119
-595.011	-17.753	-0.135	-0.086
-593.996	370.511	0.214	-0.441
-592.982	-31.971	-0.047	0.027
-591.967	-200.000	0.013	0.289
-590.952	17.883	0.221	0.179
-589.938	218.263	0.152	-0.247
-588.923	476.900	-0.100	-0.229
-587.909	-60.004	-0.180	0.078
-586.894	302.781	0.141	0.266
-585.879	-47.432	-0.051	-0.025
-584.865	-200.000	0.012	0.354
-583.850	164.764	0.179	-0.256
-582.836	-123.556	0.188	0.030
-581.821	-200.000	0.000	0.107
-580.806	-108.697	0.283	0.062
-579.792	800.000	0.010	0.032
-578.777	-106.857	-0.063	0.014
-577.763	800.000	0.069	0.209
-576.748	-157.248	-0.382	-0.023
-575.733	-143.396	-0.231	0.022
-574.719	800.000	0.052	-0.209
-573.704	202.570	0.019	-0.030
-572.690	-121.445	-0.280	0.047
-571.675	155.067	-0.259	-0.362
-570.661	-80.568	-0.070	0.024
-569.646	187.073	-0.233	0.352
-568.631	-124.171	0.283	-0.045
-567.617	800.000	-0.036	-0.141
-566.602	800.000	0.097	0.275
-565.588	-36.507	0.072	-0.040
-564.573	428.037	-0.100	0.219
-563.558	-159.266	-0.109	0.006
-562.544	-52.276	-0.259	0.122
-561.529	60.988	0.116	0.117
-560.515	-103.628	0.256	0.061
-559.500	103.111	0.055	0.065
-558.485	-87.555	0.121	0.037
-557.471	-200.000	0.002	0.129
-556.456	-200.000	0.031	0.251
-555.442	-200.000	0.003	0.221
-554.427	-145.933	-0.141	-0.013
-553.412	131.747	0.049	0.064
-552.398	-95.839	-0.231	-0.062
-551.383	-139.091	0.285	0.031
-550.369	57.660	0.204	0.202
-549.354	-24.729	-0.226	0.136
-548.339	-81.563	-0.023	-0.008
-547.325	-144.844	0.154	-0.014
-546.310	-98.664	-0.277	-0.072
-545.296	-200.000	-0.016	0.116
-544.281	800.000	-0.052	0.152
-543.266	39.331	0.131	-0.119
-542.252	-113.590	-0.252	0.050
-541.237	800.000	-0.017	0.048
-540.223	-27.652	-0.129	-0.076
-539.208	-144.241	-0.270	-0.026
-538.193	-106.700	-0.299	-0.067
-537.179	-200.000	0.048	0.262
-536.164	437.168	-0.090	-0.198
-535.150	16.969	0.246	-0.197
-534.135	123.214	0.093	-0.118
-533.121	332.144	-0.051	-0.100
-532.106	-120.451	0.150	-0.026
-531.091	-56.916	0.372	-0.166
-530.077	800.000	-0.046	-0.154
-529.062	-200.000	-0.033	-0.499
-528.048	-200.000	-0.001	0.280
-527.033	17.617	0.445	-0.359
-526.018	367.429	-0.067	-0.138
-525.004	-24.044	-0.263	-0.159
-523.989	113.548	0.064	-0.079
-522.975	-90.906	-0.232	0.068
-521.960	-200.000	-0.068	0.360
-520.945	-102.445	-0.339	-0.082
-519.931	800.000	0.029	-0.117
-518.916	800.000	-0.098	0.313
-517.902	-13.072	-0.091	0.060
-516.887	-71.516	0.311	-0.118
-515.872	59.764	0.258	0.257
-514.858	-200.000	0.057	-0.267
-513.843	-20.817	-0.222	0.138
-512.829	558.346	-0.073	0.177
-511.814	800.000	0.032	-0.109
-510.799	-45.664	-0.145	-0.072
-509.785	-49.280	-0.041	0.020
-508.770	89.095	0.209	0.235
-507.756	-200.000	0.045	0.250
-506.741	39.510	0.046	0.042
-505.726	-7.284	-0.087	-0.060
-504.712	-128.847	-0.390	0.055
-503.697	-139.082	0.149	0.016
-502.683	-140.930	-0.065	-0.007
-501.668	532.568	0.114	0.272
-500.653	171.416	0.067	0.097
-499.639	800.000	0.007	0.025
-498.624	306.963	-0.111	0.209
-497.610	-200.000	-0.001	-0.127
-496.595	800.000	0.051	-0.208
-495.581	-60.895	-0.321	-0.138
-494.566	325.433	-0.026	0.051
-493.551	56.555	-0.065	0.064
-492.537	63.118	0.091	0.092
-491.522	-200.000	0.033	-0.425
-490.508	555.934	0.031	-0.076
-489.493	-26.640	0.143	0.084
-488.478	-46.867	-0.225	0.111
-487.464	-200.000	0.034	-0.251
-486.449	-110.790	0.109	-0.023
-485.435	-200.000	0.001	0.011
-484.420	-12.833	0.375	-0.247
-483.405	346.296	-0.057	-0.113
-482.391	-2.313	0.098	-0.070
-481.376	526.559	-0.093	-0.222
-480.362	-140.977	-0.233	-0.024
-479.347	442.172	0.073	-0.162
-478.332	-200.000	-0.048	-0.366
-477.318	-23.749	0.114	-0.069
-476.303	-200.000	0.028	0.275
-475.289	-30.316	0.093	0.054
-474.274	800.000	-0.061	-0.205
-473.259	268.119	0.117	-0.207
-472.245	188.648	-0.173	0.261
-471.230	235.987	0.106	-0.177
-470.216	-200.000	-0.023	-0.145
-469.201	800.000	-0.031	-0.126
-468.186	17.338	-0.040	0.032
-467.172	-200.000	-0.092	0.443
-466.157	198.599	-0.075	0.116
-465.143	800.000	0.050	-0.166
-464.128	800.000	-0.021	0.062
-463.113	-156.060	0.260	0.017
-462.099	-200.000	-0.039	-0.301
-461.084	794.111	-0.120	-0.334
-460.070	209.496	-0.122	-0.193
-459.055	118.526	0.082	0.102
-458.040	800.000	-0.052	-0.199
-457.026	84.664	0.162	0.180
-456.011	106.555	-0.127	0.152
-454.997	279.541	-0.228	0.411
-453.982	-200.000	0.001	0.083
-452.968	393.648	-0.149	-0.314
-451.953	-89.305	0.154	0.046
-450.938	53.383	-0.322	-0.312
-449.924	19.948	0.264	0.215
-448.909	710.884	-0.078	0.209
-447.895	-92.424	0.308	-0.087
-446.880	314.328	-0.105	0.200
-445.865	-158.638	0.412	-0.024
-444.851	384.705	-0.035	-0.072
-443.836	-86.258	-0.051	-0.016
-442.822	18.217	0.162	-0.131
-441.807	59.908	-0.253	-0.253
-440.792	800.000	-0.078	-0.272
-439.778	114.063	-0.046	0.057
-438.763	76.797	0.067	0.072
-437.749	800.000	-0.071	0.207
-436.734	434.235	0.034	-0.075
-435.719	92.024	0.068	0.077
-434.705	280.462	-0.122	0.219
-433.690	-44.652	0.070	-0.036
-432.676	-200.000	-0.365	-0.001
-431.661	-158.454	-0.264	0.015
-430.646	102.405	0.056	0.066
-429.632	316.390	0.127	0.241
-428.617	-29.006	-0.034	-0.020
-427.603	-80.399	-0.229	-0.077
-426.588	-200.000	-0.017	-0.268
-425.573	-49.333	0.283	0.136
-424.559	3.126	0.058	-0.043
-423.544	800.000	0.076	0.269
-422.530	-34.131	0.287	0.159
-421.515	-114.211	0.434	-0.085
-420.500	84.479	0.129	0.143
-419.486	173.653	0.072	0.105
-418.471	463.976	0.143	0.323
-417.457	-194.046	0.342	-0.003
-416.442	90.725	0.114	-0.128
-415.428	-19.247	0.043	-0.027
-414.413	-160.956	0.089	0.005
-413.398	-44.414	-0.238	0.120
-412.384	-90.459	0.274	0.080
-411.369	-200.000	-0.054	0.274
-410.355	230.934	0.122	0.202
-409.340	-105.202	0.232	-0.053
-408.325	-57.312	-0.116	-0.051
-407.311	82.168	-0.185	-0.202
-406.296	-200.000	0.002	-0.130
-405.282	-59.051	-0.126	0.055
-404.267	800.000	0.092	0.360
-403.252	-71.752	0.041	0.015
-402.238	-200.000	0.000	-0.092
-401.223	136.252	-0.066	-0.087
-400.209	-69.793	-0.244	-0.094
-399.194	-55.031	0.314	-0.143
-398.179	-91.393	-0.182	-0.052
-397.165	22.306	-0.249	-0.205
-396.150	147.414	0.127	0.172
-395.136	306.111	0.091	-0.171
-394.121	456.466	0.078	-0.176
-393.106	-6.992	-0.205	0.140
-392.092	45.699	0.018	-0.017
-391.077	-153.970	-0.164	0.011
-390.063	53.432	-0.409	-0.395
-389.048	-140.878	0.139	-0.014
-388.033	800.000	-0.080	-0.295
-387.019	800.000	0.034	0.140
-386.004	113.267	0.360	-0.440
-384.990	-41.022	0.151	-0.079
-383.975	-154.277	-0.169	-0.011
-382.960	-74.422	-0.415	-0.151
-381.946	203.989	0.026	0.041
-380.931	287.231	0.148	0.269
-379.917	-200.000	0.054	0.281
-378.902	106.754	-0.188	-0.225
-377.888	44.761	0.041	-0.038
-376.873	588.517	0.065	0.162
-375.858	16.902	-0.108	0.086
-374.844	-52.374	0.310	0.145
-373.829	-63.278	0.072	-0.030
-372.815	175.702	-0.170	-0.248
-371.800	463.711	0.060	0.135
-370.785	253.943	0.081	-0.140
-369.771	456.313	-0.051	-0.114
-368.756	-2.684	-0.147	0.103
-367.742	-78.156	0.248	0.086
-366.727	232.955	-0.032	-0.053
-365.712	340.029	-0.188	0.370
-364.698	237.933	-0.076	-0.127
-363.683	429.550	0.047	-0.103
-362.669	792.952	-0.136	0.377
-361.654	-200.000	-0.031	-0.351
-360.639	-144.664	-0.163	0.015
-359.625	-200.000	0.021	-0.120
-358.610	-98.722	-0.147	0.038
-357.596	-87.798	0.118	-0.036
-356.581	-17.282	0.264	-0.167
-355.566	318.002	0.131	0.250
-354.552	528.838	0.121	0.288
-353.537	-200.000	0.001	0.118
-352.523	38.404	-0.383	-0.344
-351.508	-200.000	-0.039	-0.294
-350.493	-13.258	0.377	-0.246
-349.479	-58.104	0.190	-0.083
-348.464	-14.938	-0.302	-0.195
-347.450	-102.433	0.211	0.051
-346.435	-116.653	-0.239	-0.044
-345.420	-48.068	0.382	-0.186
-344.406	-124.478	-0.344	-0.054
-343.391	585.760	0.097	0.240
-342.377	-82.886	0.237	0.077
-341.362	800.000	0.071	0.255
-340.348	-200.000	-0.048	-0.264
-339.333	-1.643	0.156	0.111
-338.318	-62.656	0.061	0.025
-337.304	-60.998	0.098	-0.042
-336.289	-200.000	-0.023	-0.158
-335.275	-89.074	-0.384	-0.114
-334.260	-122.327	-0.151	-0.025
-333.245	-72.342	0.388	-0.144
-332.231	-130.733	0.217	0.029
-331.216	-149.811	-0.232	-0.018
-330.202	800.000	-0.046	-0.168
-329.187	109.920	0.279	0.336
-328.172	44.997	-0.182	0.169
-327.158	-176.867	-0.252	-0.006
-326.143	-200.000	-0.005	0.169
-325.129	611.677	0.082	-0.205
-324.114	800.000	0.086	-0.241
-323.099	-73.162	0.191	0.070
-322.085	32.454	-0.305	-0.265
-321.070	-71.578	0.335	0.126
-320.056	-200.000	0.042	0.224
-319.041	468.699	0.052	-0.117
-318.026	8.607	0.011	0.009
-317.012	516.026	-0.028	-0.065
-315.997	246.803	-0.160	0.271
-314.983	-161.422	-0.211	0.011
-313.968	470.086	0.070	0.158
-312.953	26.886	0.077	0.065
-311.939	29.628	-0.208	0.178
-310.924	-200.000	0.013	0.447
-309.910	800.000	0.093	-0.292
-308.895	-41.804	0.193	-0.100
-307.880	-102.236	0.240	-0.058
-306.866	-41.404	-0.172	0.089
-305.851	69.755	-0.057	-0.059
-304.837	265.278	0.064	-0.112
-303.822	-26.261	0.375	-0.221
-302.807	-47.502	-0.063	0.031
-301.793	117.381	-0.212	0.262
-300.778	-56.412	-0.433	0.193
-299.764	10.493	0.220	-0.168
-298.749	311.737	0.122	-0.230
-297.735	94.866	0.045	-0.051
-296.720	-92.979	-0.177	0.050
-295.705	-92.546	0.183	-0.052
-294.691	339.893	0.032	0.063
-293.676	618.946	0.088	0.222
-292.662	-96.688	0.027	-0.007
-291.647	-200.000	-0.024	0.131
-290.632	800.000	-0.038	0.117
-289.618	-140.960	-0.104	-0.011
-288.603	-98.730	-0.140	0.036
-287.589	95.056	-0.181	0.207
-286.574	-19.040	-0.142	-0.089
-285.559	334.625	0.160	-0.312
-284.545	-200.000	-0.045	-0.367
-283.530	-116.792	-0.256	0.047
-282.516	30.677	-0.023	0.020
-281.501	800.000	0.075	0.314
-280.486	-80.938	0.055	-0.018
-279.472	53.503	0.153	0.147
-278.457	-106.162	0.123	0.028
-277.443	-49.129	-0.140	0.067
-276.428	-115.128	0.330	-0.063
-275.413	800.000	0.035	-0.123
-274.399	112.356	0.052	-0.063
-273.384	-37.941	-0.047	-0.025
-272.370	294.321	-0.147	0.269
-271.355	18.596	0.402	0.322
-270.340	419.633	-0.037	-0.080
-269.326	15.413	-0.086	0.068
-268.311	581.759	0.097	0.238
-267.297	-90.867	-0.049	0.014
-266.282	310.116	-0.004	-0.007
-265.267	-200.000	0.017	-0.231
-264.253	-128.845	-0.289	0.041
-263.238	-35.135	0.069	0.038
-262.224	138.018	0.113	0.149
-261.209	-17.744	-0.086	-0.054
-260.195	-75.556	0.234	0.083
-259.180	-135.609	-0.174	-0.021
-258.165	800.000	-0.034	0.129
-257.151	-200.000	0.036	-0.189
-256.136	147.505	0.073	-0.098
-255.122	35.172	-0.104	-0.092
-254.107	-31.422	0.152	0.086
-253.092	10.389	0.067	0.051
-252.078	-200.000	0.010	-0.111
-251.063	57.269	0.076	-0.075
-250.049	7.460	-0.205	0.154
-249.034	-200.000	-0.011	0.071
-248.019	800.000	0.021	0.084
-247.005	200.162	-0.073	0.113
-245.990	-21.614	0.102	0.062
-244.976	-200.000	0.006	-0.312
-243.961	-121.914	0.078	-0.013
-242.946	-175.827	0.342	0.009
-241.932	-175.775	-0.427	-0.011
-240.917	-70.161	-0.105	0.040
-239.903	-200.000	0.033	-0.242
-238.888	37.739	-0.132	0.117
-237.873	114.897	-0.190	0.232
-236.859	-154.089	-0.236	-0.016
-235.844	188.423	0.060	0.089
-234.830	-200.000	-0.000	0.112
-233.815	227.616	-0.135	0.220
-232.800	-151.063	-0.090	0.007
-231.786	-75.667	0.133	-0.047
-230.771	12.829	-0.107	0.083
-229.757	-81.345	0.138	-0.045
-228.742	-70.216	0.309	-0.117
-227.727	-28.787	0.292	0.168
-226.713	-54.254	0.097	-0.044
-225.698	42.307	0.164	-0.149
-224.684	-14.446	0.447	0.288
-223.669	15.250	-0.233	0.183
-222.655	-34.113	0.083	-0.045
-221.640	9.684	0.234	-0.178
-220.625	37.164	0.029	-0.026
-219.611	-26.822	0.351	0.205
-218.596	102.266	0.316	0.370
-217.582	-77.483	0.231	-0.080
-216.567	800.000	-0.057	0.173
-215.552	-102.980	0.229	0.054
-214.538	-187.788	-0.077	0.001
-213.523	800.000	0.028	-0.113
-212.509	-159.233	-0.205	0.012
-211.494	153.178	-0.117	0.160
-210.479	800.000	0.081	-0.322
-209.465	-200.000	0.003	-0.067
-208.450	-37.820	-0.172	0.092
-207.436	800.000	-0.089	-0.318
-206.421	-14.416	0.069	-0.044
-205.406	800.000	0.049	-0.163
-204.392	-129.476	-0.294	-0.041
-203.377	-99.163	-0.389	-0.098
-202.363	-91.254	0.075	-0.021
-201.348	-18.799	-0.330	0.206
-200.333	302.938	-0.092	0.170
-199.319	800.000	-0.111	-0.438
-198.304	-200.000	0.011	0.207
-197.290	800.000	-0.047	0.159
-196.275	-166.635	-0.278	0.012
-195.260	-200.000	-0.043	-0.232
-194.246	-115.912	0.057	-0.011
-193.231	-10.270	0.233	0.155
-192.217	115.875	-0.103	-0.125
-191.202	10.691	0.113	0.086
-190.187	92.754	-0.083	0.094
-189.173	165.547	0.134	-0.190
-188.158	434.407	-0.104	-0.226
-187.144	-111.669	0.401	-0.081
-186.129	-200.000	-0.011	-0.111
-185.114	-61.760	0.238	0.100
-184.100	133.002	-0.075	-0.097
-183.085	82.624	-0.099	0.107
-182.071	800.000	0.086	-0.242
-181.056	128.998	0.063	-0.080
-180.042	-40.895	-0.021	-0.011
-179.027	124.112	-0.125	0.157
-178.012	800.000	0.092	-0.263
-176.998	800.000	0.105	-0.456
-175.983	277.630	0.019	0.033
-174.969	-100.119	-0.142	0.035
-173.954	-200.000	0.009	-0.167
-172.939	-177.503	0.199	0.005
-171.925	23.579	0.427	0.351
-170.910	160.291	0.132	0.184
-169.896	800.000	-0.035	-0.101
-168.881	-2.698	-0.120	0.084
-167.866	202.225	-0.087	0.134
-166.852	198.426	-0.108	-0.166
-165.837	-200.000	0.015	0.123
-164.823	-93.989	0.294	-0.081
-163.808	-21.131	0.118	0.072
-162.793	735.994	-0.052	-0.139
-161.779	-200.000	-0.013	-0.486
-160.764	155.420	-0.228	-0.314
-159.750	-93.146	-0.222	-0.062
-158.735	-121.521	-0.318	0.053
-157.720	-200.000	0.035	0.275
-156.706	-103.028	-0.358	-0.085
-155.691	-56.464	-0.140	0.062
-154.677	366.973	-0.034	0.069
-153.662	477.513	-0.027	0.060
-152.647	800.000	-0.008	0.027
-151.633	529.878	0.175	-0.414
-150.618	204.939	-0.057	0.088
-149.604	-106.235	0.162	0.036
-148.589	-200.000	0.017	-0.102
-147.574	-200.000	-0.064	0.349
-146.560	42.861	-0.217	0.197
-145.545	-36.323	-0.029	-0.015
-144.531	-200.000	0.016	0.142
-143.516	-140.159	0.252	0.026
-142.502	-30.096	-0.197	0.112
-141.487	40.015	0.147	0.132
-140.472	436.785	-0.139	0.302
-139.458	719.062	-0.063	0.168
-138.443	252.478	0.111	0.189
-137.429	-24.607	-0.173	-0.103
-136.414	-200.000	0.002	0.133
-135.399	236.736	-0.153	0.253
-134.385	68.696	0.164	0.168
-133.370	191.252	-0.227	0.341
-132.356	113.536	0.053	-0.064
-131.341	-31.764	-0.052	-0.029
-130.326	45.750	0.074	0.068
-129.312	-84.638	-0.314	0.099
-128.297	-149.103	0.157	0.013
-127.283	114.548	0.188	0.229
-126.268	-200.000	0.025	0.279
-125.253	368.267	-0.054	-0.109
-124.239	800.000	-0.050	-0.142
-123.224	-52.156	0.183	-0.085
-122.210	-99.999	-0.296	0.074
-121.195	-90.994	0.261	0.075
