DTS Sentinel unit serial number:	SN413079Multiplexer serial number:	ORYXHardware model number:	OX4-SRSoftware version number:	ORYX F/W v4.00 Oryx Data Collector v3.7.2.0data status	okinstallation	princeton_trtdifferential loss correction	single-endedforward channel	channel 3reverse channel	N/Adate	2019/09/15time	06:36:34forward acquisition time	60.00reverse acquisition time	0.00gamma	496.2192k internal	0.2324k external	0.2324temperature offset calibration	0.9977default loss term (dB/km)	0.3790temperature slope calibration	1.0000multiplexer offset coefficient	1.0000multiplexer slope coefficient	1.0000fibre end	0.00T internal ref (°C)	30.48T ext. ref 1 (°C)	4.78T ext. ref 2 (°C)	25.42length (m)	temperature (°C)	Stokes	anti-Stokes-747.200	20.584	0.050	0.041
-746.185	-200.000	-0.017	0.083
-745.171	-114.534	0.205	0.040
-744.156	-200.000	0.016	0.322
-743.142	-200.000	-0.003	0.280
-742.127	8.584	-0.236	0.180
-741.112	44.458	0.198	0.183
-740.098	800.000	-0.022	-0.096
-739.083	219.488	-0.186	-0.300
-738.069	-200.000	-0.373	0.001
-737.054	800.000	0.066	-0.240
-736.039	-113.847	-0.266	0.052
-735.025	158.610	0.047	0.065
-734.010	129.351	-0.072	-0.092
-732.996	-200.000	-0.024	-0.228
-731.981	-92.429	-0.148	-0.042
-730.966	-200.000	0.019	-0.256
-729.952	613.743	-0.050	-0.125
-728.937	800.000	-0.048	-0.170
-727.923	-200.000	0.056	0.314
-726.908	-200.000	0.000	-0.012
-725.894	800.000	0.050	-0.199
-724.879	-168.302	0.488	-0.019
-723.864	-200.000	0.014	-0.167
-722.850	-198.853	0.218	-0.001
-721.835	-200.000	-0.029	-0.276
-720.821	-72.122	-0.251	0.094
-719.806	-137.421	0.079	-0.009
-718.791	800.000	-0.023	0.085
-717.777	-73.405	-0.331	-0.122
-716.762	9.517	0.211	0.161
-715.748	196.636	-0.277	-0.426
-714.733	314.420	-0.062	0.117
-713.718	800.000	0.089	-0.307
-712.704	63.118	0.196	-0.198
-711.689	84.150	0.135	-0.149
-710.675	423.175	0.060	-0.130
-709.660	800.000	-0.033	-0.104
-708.645	-28.871	-0.394	0.228
-707.631	-75.544	0.394	0.141
-706.616	571.243	-0.040	-0.099
-705.602	266.663	-0.144	-0.253
-704.587	800.000	-0.070	-0.269
-703.572	622.009	0.057	-0.144
-702.558	-200.000	-0.016	-0.247
-701.543	228.871	-0.078	-0.128
-700.529	120.471	-0.114	0.142
-699.514	-104.991	-0.317	-0.073
-698.499	-75.784	-0.178	-0.064
-697.485	800.000	0.111	0.391
-696.470	-200.000	-0.027	-0.152
-695.456	180.839	-0.157	-0.233
-694.441	-153.166	0.128	0.009
-693.426	12.837	-0.388	-0.302
-692.412	800.000	0.052	-0.161
-691.397	-5.904	-0.309	-0.213
-690.383	-200.000	0.007	-0.325
-689.368	-200.000	0.036	-0.252
-688.354	81.561	0.116	0.126
-687.339	-83.422	0.062	-0.020
-686.324	675.374	-0.070	0.184
-685.310	-7.413	0.117	0.080
-684.295	277.841	0.008	-0.014
-683.281	-15.205	0.123	-0.079
-682.266	224.759	-0.234	-0.382
-681.251	-114.298	-0.256	-0.050
-680.237	9.041	0.074	0.056
-679.222	393.025	0.049	0.102
-678.208	-56.842	-0.198	-0.088
-677.193	-200.000	-0.000	-0.264
-676.178	461.846	-0.018	0.040
-675.164	51.559	-0.254	-0.243
-674.149	-73.516	0.457	-0.168
-673.135	296.092	0.171	0.315
-672.120	73.632	0.201	0.212
-671.105	-114.150	0.062	-0.012
-670.091	-32.762	-0.167	0.094
-669.076	-137.826	0.299	0.034
-668.062	5.882	0.105	0.078
-667.047	411.818	-0.236	-0.504
-666.032	-152.795	0.068	0.005
-665.018	-61.583	-0.094	0.040
-664.003	-200.000	0.009	0.133
-662.989	-1.855	-0.092	0.065
-661.974	101.188	-0.124	0.145
-660.959	-11.862	-0.186	-0.123
-659.945	102.782	-0.214	-0.252
-658.930	-117.611	0.099	0.018
-657.916	-15.771	-0.251	0.161
-656.901	82.770	0.212	-0.232
-655.886	800.000	-0.076	-0.261
-654.872	-162.500	0.225	0.011
-653.857	221.584	0.230	0.372
-652.843	-36.446	-0.106	0.058
-651.828	-137.081	0.240	-0.028
-650.814	161.781	0.082	0.115
-649.799	-6.953	-0.121	0.083
-648.784	-148.955	0.295	-0.024
-647.770	-71.122	-0.128	-0.048
-646.755	800.000	-0.026	0.096
-645.741	323.154	0.163	0.312
-644.726	8.214	-0.233	-0.176
-643.711	-66.409	-0.214	0.085
-642.697	246.133	0.062	-0.105
-641.682	682.893	-0.137	-0.360
-640.668	-105.187	-0.191	0.044
-639.653	39.097	0.201	0.181
-638.638	-80.197	0.028	0.009
-637.624	5.378	0.264	0.195
-636.609	-26.712	-0.140	0.082
-635.595	-18.550	0.174	0.109
-634.580	-200.000	0.027	0.136
-633.565	6.820	-0.147	-0.110
-632.551	-200.000	0.017	0.305
-631.536	153.694	0.146	-0.201
-630.522	800.000	-0.123	-0.370
-629.507	-78.819	-0.300	-0.103
-628.492	-23.894	-0.186	0.112
-627.478	80.802	-0.160	-0.173
-626.463	-102.996	-0.138	-0.033
-625.449	-87.723	-0.202	-0.061
-624.434	289.518	0.037	0.067
-623.419	27.079	-0.341	-0.288
-622.405	258.756	-0.144	0.250
-621.390	107.097	0.216	-0.258
-620.376	-24.949	-0.149	-0.089
-619.361	223.693	-0.089	0.144
-618.346	-139.531	0.144	0.016
-617.332	-139.712	-0.112	0.012
-616.317	87.411	-0.409	-0.455
-615.303	151.526	-0.257	-0.352
-614.288	800.000	-0.049	-0.138
-613.273	-49.032	-0.036	0.017
-612.259	800.000	-0.106	0.386
-611.244	134.924	-0.239	-0.312
-610.230	-127.039	0.088	0.013
-609.215	200.761	-0.196	0.302
-608.201	21.641	0.209	0.171
-607.186	-38.319	-0.221	0.118
-606.171	-65.336	-0.320	0.129
-605.157	-85.700	0.261	-0.081
-604.142	-54.126	0.378	0.172
-603.128	800.000	-0.067	-0.271
-602.113	89.228	0.064	0.071
-601.098	222.257	0.196	-0.317
-600.084	-132.265	0.149	0.019
-599.069	-200.000	0.017	0.283
-598.055	-6.488	0.131	0.090
-597.040	-64.899	0.257	-0.104
-596.025	304.774	-0.218	-0.407
-595.011	27.872	-0.162	-0.137
-593.996	800.000	0.049	-0.202
-592.982	-200.000	-0.006	0.098
-591.967	800.000	-0.080	0.329
-590.952	-6.381	0.334	0.229
-589.938	372.978	0.194	-0.396
-588.923	-110.342	-0.205	-0.043
-587.909	-105.784	0.224	-0.051
-586.894	-124.736	-0.236	-0.037
-585.879	793.254	0.068	0.189
-584.865	-11.564	-0.087	-0.057
-583.850	84.876	-0.263	-0.290
-582.836	-57.800	-0.244	0.107
-581.821	139.612	0.173	-0.228
-580.806	65.932	-0.231	0.235
-579.792	-200.000	-0.022	0.261
-578.777	800.000	-0.015	-0.044
-577.763	-3.360	0.302	-0.211
-576.748	-29.709	-0.281	0.161
-575.733	268.974	0.091	0.160
-574.719	-119.063	0.154	-0.027
-573.704	-38.759	0.088	0.046
-572.690	-200.000	0.008	-0.111
-571.675	-174.270	-0.207	0.006
-570.661	-44.950	0.190	-0.095
-569.646	522.914	0.131	-0.309
-568.631	49.742	-0.150	-0.142
-567.617	-38.946	0.125	-0.066
-566.602	322.255	0.065	-0.123
-565.588	662.132	-0.055	-0.143
-564.573	-172.856	0.296	-0.009
-563.558	167.825	0.094	0.134
-562.544	-142.243	0.205	-0.020
-561.529	-139.717	0.130	0.014
-560.515	-192.687	0.287	0.003
-559.500	-69.736	-0.440	-0.169
-558.485	348.529	-0.019	-0.037
-557.471	-117.790	0.206	0.037
-556.456	105.163	0.233	0.275
-555.442	-108.926	0.262	0.056
-554.427	800.000	0.032	0.108
-553.412	800.000	-0.065	-0.204
-552.398	-156.636	0.440	-0.027
-551.383	156.894	0.146	-0.202
-550.369	-200.000	0.008	-0.060
-549.354	-64.578	0.261	0.106
-548.339	18.610	0.142	-0.114
-547.325	529.804	-0.089	0.211
-546.310	63.959	-0.147	-0.148
-545.296	183.921	-0.193	-0.286
-544.281	-112.225	-0.247	0.050
-543.266	-103.350	0.250	0.059
-542.252	-41.012	-0.032	0.017
-541.237	96.872	-0.178	0.204
-540.223	789.888	0.227	0.625
-539.208	46.531	0.109	0.102
-538.193	47.814	0.142	0.132
-537.179	800.000	0.082	0.242
-536.164	176.554	0.087	-0.127
-535.150	128.176	0.195	0.248
-534.135	491.020	-0.079	0.181
-533.121	-6.788	0.292	-0.199
-532.106	800.000	0.035	-0.143
-531.091	-200.000	-0.006	-0.399
-530.077	-23.485	-0.299	-0.180
-529.062	800.000	-0.042	0.159
-528.048	68.338	0.295	0.302
-527.033	31.108	-0.215	-0.184
-526.018	17.209	-0.163	0.129
-525.004	-185.432	-0.208	-0.003
-523.989	-200.000	0.003	-0.083
-522.975	-200.000	0.034	-0.198
-521.960	-138.321	0.277	0.031
-520.945	392.339	-0.126	-0.261
-519.931	-33.630	-0.365	-0.201
-518.916	800.000	0.080	-0.267
-517.902	800.000	0.092	-0.340
-516.887	97.966	0.105	-0.120
-515.872	373.094	-0.073	0.148
-514.858	800.000	0.098	0.304
-513.843	-0.339	0.495	-0.352
-512.829	111.801	0.050	-0.060
-511.814	800.000	-0.074	-0.208
-510.799	800.000	-0.023	-0.081
-509.785	-59.278	-0.112	-0.048
-508.770	800.000	0.024	-0.080
-507.756	201.441	0.042	0.065
-506.741	8.118	0.132	-0.099
-505.726	138.803	-0.009	-0.012
-504.712	-9.097	-0.238	-0.159
-503.697	800.000	-0.028	-0.088
-502.683	7.150	0.191	0.142
-501.668	73.285	0.194	-0.203
-500.653	573.035	0.101	-0.247
-499.639	-165.708	0.117	-0.005
-498.624	326.448	0.108	0.207
-497.610	253.439	0.070	0.120
-496.595	-200.000	0.006	-0.385
-495.581	120.688	-0.113	-0.140
-494.566	-200.000	0.082	0.456
-493.551	-77.944	0.154	0.053
-492.537	-7.548	-0.255	0.172
-491.522	-200.000	-0.079	0.529
-490.508	-100.295	0.472	-0.117
-489.493	-50.561	-0.195	-0.092
-488.478	-105.314	-0.099	-0.022
-487.464	-185.529	-0.040	-0.001
-486.449	-200.000	0.073	-0.345
-485.435	-15.728	-0.146	-0.093
-484.420	800.000	0.053	-0.154
-483.405	530.506	-0.045	0.105
-482.391	77.949	-0.337	-0.359
-481.376	-85.460	0.075	-0.023
-480.362	-26.970	-0.149	-0.087
-479.347	800.000	0.026	0.081
-478.332	-91.246	0.167	-0.048
-477.318	107.630	0.335	0.398
-476.303	-16.600	0.185	-0.117
-475.289	339.633	-0.065	-0.126
-474.274	50.963	-0.175	0.165
-473.259	-52.658	0.084	0.039
-472.245	-90.083	0.223	-0.065
-471.230	210.138	-0.050	-0.078
-470.216	-50.258	-0.103	-0.048
-469.201	800.000	0.053	-0.203
-468.186	-23.864	-0.059	-0.035
-467.172	677.145	-0.118	0.307
-466.157	113.335	0.092	0.111
-465.143	800.000	-0.093	0.273
-464.128	-200.000	-0.017	0.087
-463.113	237.024	-0.066	-0.108
-462.099	-200.000	0.005	-0.036
-461.084	111.757	-0.040	0.049
-460.070	-133.362	0.195	-0.025
-459.055	88.678	0.066	0.073
-458.040	-200.000	-0.035	-0.278
-457.026	-7.699	0.387	-0.261
-456.011	800.000	0.014	-0.054
-454.997	100.541	0.038	-0.045
-453.982	306.298	-0.162	0.301
-452.968	-130.236	-0.156	0.021
-451.953	539.172	-0.107	-0.253
-450.938	800.000	0.069	-0.194
-449.924	-179.886	0.267	-0.006
-448.909	-35.864	0.310	0.167
-447.895	139.672	-0.107	0.141
-446.880	127.386	0.217	-0.274
-445.865	-200.000	0.037	-0.168
-444.851	-142.347	0.164	0.016
-443.836	-200.000	0.012	-0.082
-442.822	-24.898	0.240	0.142
-441.807	485.741	0.087	0.199
-440.792	-185.483	0.174	0.003
-439.778	267.358	0.187	-0.327
-438.763	82.493	-0.066	0.071
-437.749	28.326	-0.099	-0.083
-436.734	192.696	0.022	0.033
-435.719	104.640	-0.207	-0.243
-434.705	66.333	0.123	0.125
-433.690	-132.267	0.179	-0.023
-432.676	360.677	-0.104	-0.208
-431.661	455.551	-0.050	-0.112
-430.646	-98.290	-0.347	-0.089
-429.632	92.568	-0.106	-0.119
-428.617	793.173	0.065	-0.179
-427.603	-47.840	-0.248	0.120
-426.588	4.093	-0.177	0.129
-425.573	26.102	0.130	0.108
-424.559	-40.982	-0.265	0.136
-423.544	-84.568	0.299	-0.094
-422.530	104.699	0.042	0.049
-421.515	-152.483	0.306	-0.022
-420.500	-81.445	0.052	-0.017
-419.486	96.942	-0.073	-0.083
-418.471	-3.453	0.168	0.117
-417.457	544.302	0.130	-0.309
-416.442	40.984	-0.123	0.111
-415.428	31.881	-0.257	0.221
-414.413	352.196	-0.105	-0.208
-413.398	312.991	0.269	-0.503
-412.384	18.366	-0.057	0.045
-411.369	-177.945	-0.564	0.013
-410.355	390.363	0.162	0.336
-409.340	411.481	-0.138	0.292
-408.325	-200.000	-0.032	-0.220
-407.311	-155.619	-0.244	-0.016
-406.296	-29.254	0.363	0.207
-405.282	-127.667	0.237	0.034
-404.267	-64.281	-0.176	-0.071
-403.252	-9.751	0.091	-0.060
-402.238	161.639	-0.139	0.194
-401.223	-200.000	0.007	0.185
-400.209	164.278	-0.155	-0.218
-399.194	163.066	-0.132	0.185
-398.179	-55.957	-0.311	-0.138
-397.165	-89.101	-0.124	-0.037
-396.150	-112.692	-0.133	0.026
-395.136	-27.737	-0.295	0.170
-394.121	-4.848	0.180	0.123
-393.106	800.000	0.039	0.139
-392.092	-156.317	-0.060	-0.004
-391.077	39.233	0.038	0.034
-390.063	-200.000	-0.038	0.185
-389.048	378.189	0.017	0.034
-388.033	800.000	0.066	-0.189
-387.019	-200.000	-0.012	-0.140
-386.004	8.338	-0.118	-0.088
-384.990	58.700	0.274	0.268
-383.975	-200.000	0.070	-0.311
-382.960	-61.193	0.080	-0.034
-381.946	135.861	0.098	0.126
-380.931	567.714	0.066	-0.159
-379.917	90.646	0.171	0.190
-378.902	139.594	-0.287	0.376
-377.888	60.582	-0.210	0.207
-376.873	341.591	0.038	0.073
-375.858	4.624	-0.146	-0.107
-374.844	-89.632	-0.196	-0.057
-373.829	-95.612	0.065	-0.017
-372.815	-116.584	-0.358	0.066
-371.800	-47.252	0.249	-0.121
-370.785	105.299	-0.022	0.026
-369.771	40.102	-0.126	0.113
-368.756	-46.761	0.111	0.054
-367.742	-200.000	-0.008	-0.213
-366.727	-120.721	0.160	-0.027
-365.712	-52.697	-0.145	0.067
-364.698	-142.600	-0.116	-0.011
-363.683	1.776	-0.268	0.192
-362.669	-19.580	0.165	-0.102
-361.654	33.732	0.324	0.280
-360.639	770.391	0.061	0.166
-359.625	800.000	-0.086	-0.256
-358.610	800.000	0.007	-0.027
-357.596	706.327	-0.066	-0.174
-356.581	-31.963	-0.178	0.099
-355.566	-161.712	0.234	-0.012
-354.552	-46.382	0.293	-0.143
-353.537	-86.318	-0.266	0.081
-352.523	-90.033	0.215	0.062
-351.508	245.576	0.093	-0.156
-350.493	-200.000	-0.022	-0.116
-349.479	64.139	0.147	-0.147
-348.464	-200.000	0.005	0.060
-347.450	-200.000	0.019	-0.327
-346.435	-27.733	0.105	-0.060
-345.420	-200.000	0.015	0.133
-344.406	-39.570	0.023	0.012
-343.391	-200.000	-0.011	-0.224
-342.377	257.895	-0.100	0.171
-341.362	-200.000	-0.058	0.313
-340.348	-148.888	-0.182	0.015
-339.333	800.000	-0.064	0.200
-338.318	147.527	-0.373	-0.499
-337.304	-34.923	-0.237	-0.129
-336.289	43.766	-0.165	-0.150
-335.275	-123.961	0.205	-0.032
-334.260	-56.012	0.076	0.034
-333.245	-39.721	-0.218	-0.113
-332.231	65.053	0.202	0.203
-331.216	-98.550	-0.212	-0.054
-330.202	397.999	-0.015	-0.032
-329.187	-58.622	-0.284	0.122
-328.172	-200.000	-0.032	0.250
-327.158	-62.990	0.104	0.043
-326.143	-144.547	-0.225	-0.021
-325.129	-158.130	0.318	0.019
-324.114	-121.807	0.206	-0.034
-323.099	-56.766	0.248	-0.109
-322.085	338.292	-0.149	0.288
-321.070	-200.000	-0.016	0.174
-320.056	152.808	0.118	-0.160
-319.041	-158.936	0.339	-0.019
-318.026	-200.000	0.076	0.380
-317.012	-131.269	-0.177	0.023
-315.997	359.785	0.032	-0.063
-314.983	279.548	-0.110	0.195
-313.968	-28.229	-0.210	-0.120
-312.953	162.028	0.171	0.238
-311.939	800.000	-0.091	0.287
-310.924	10.046	-0.179	-0.135
-309.910	53.246	0.366	-0.348
-308.895	135.954	-0.123	-0.159
-307.880	-157.995	-0.131	0.008
-306.866	-200.000	-0.030	-0.145
-305.851	-46.033	0.018	0.009
-304.837	23.857	0.156	-0.128
-303.822	-77.168	-0.177	-0.061
-302.807	-200.000	-0.023	-0.127
-301.793	-129.295	0.033	-0.005
-300.778	-200.000	-0.020	-0.093
-299.764	162.075	-0.052	-0.072
-298.749	-151.717	0.067	-0.005
-297.735	-157.653	0.169	0.010
-296.720	92.701	0.209	0.234
-295.705	-115.350	0.403	0.075
-294.691	800.000	0.040	-0.115
-293.676	94.721	-0.373	-0.420
-292.662	-47.026	0.151	0.073
-291.647	167.045	-0.065	-0.091
-290.632	-103.916	0.557	-0.129
-289.618	530.653	0.083	0.195
-288.603	800.000	-0.053	0.204
-287.589	-82.839	0.058	0.018
-286.574	448.478	0.014	0.030
-285.559	-58.350	0.197	-0.085
-284.545	10.046	0.109	0.082
-283.530	800.000	0.061	-0.186
-282.516	524.625	0.049	-0.114
-281.501	-69.364	-0.348	0.133
-280.486	-200.000	-0.013	0.210
-279.472	-200.000	0.008	-0.066
-278.457	-75.087	0.120	-0.042
-277.443	-142.601	-0.219	-0.021
-276.428	422.225	-0.122	-0.260
-275.413	-74.236	0.043	-0.015
-274.399	62.666	-0.112	-0.111
-273.384	-200.000	0.526	0.002
-272.370	72.257	-0.042	-0.043
-271.355	178.219	-0.099	-0.143
-270.340	800.000	-0.024	0.101
-269.326	800.000	0.104	0.348
-268.311	176.400	0.114	-0.164
-267.297	274.135	0.088	-0.154
-266.282	-1.185	0.159	0.111
-265.267	-100.440	0.142	-0.035
-264.253	-33.655	-0.317	0.173
-263.238	47.442	-0.181	0.167
-262.224	56.638	0.114	-0.110
-261.209	-200.000	0.030	0.450
-260.195	-200.000	0.023	0.228
-259.180	800.000	-0.128	0.361
-258.165	80.986	0.172	0.184
-257.151	11.983	0.249	0.189
-256.136	23.695	-0.052	0.042
-255.122	73.604	0.186	-0.193
-254.107	-55.413	0.232	-0.103
-253.092	397.882	-0.123	0.254
-252.078	800.000	-0.063	0.196
-251.063	-171.784	0.057	0.002
-250.049	290.877	-0.054	0.096
-249.034	73.453	0.044	-0.045
-248.019	-178.861	-0.197	0.004
-247.005	10.061	-0.105	0.079
-245.990	-200.000	0.016	0.084
-244.976	-86.401	0.256	-0.078
-243.961	-2.512	0.172	-0.119
-242.946	476.024	0.157	-0.352
-241.932	-200.000	-0.030	-0.318
-240.917	751.021	0.057	-0.152
-239.903	-34.069	-0.202	-0.110
-238.888	41.074	0.211	0.189
-237.873	-70.178	0.276	-0.104
-236.859	516.519	0.007	-0.015
-235.844	110.021	-0.056	-0.067
-234.830	-105.167	-0.298	-0.067
-233.815	-146.141	-0.114	0.010
-232.800	458.121	0.048	-0.105
-231.786	-200.000	0.059	0.360
-230.771	38.307	0.206	0.182
-229.757	-171.062	0.155	-0.005
-228.742	800.000	-0.053	0.190
-227.727	-150.606	-0.219	0.017
-226.713	-64.123	-0.478	-0.193
-225.698	-200.000	-0.014	0.069
-224.684	108.030	0.099	-0.117
-223.669	64.564	-0.165	0.165
-222.655	-118.593	-0.190	-0.033
-221.640	84.452	-0.257	-0.278
-220.625	611.207	0.080	0.198
-219.611	62.358	0.236	0.233
-218.596	800.000	-0.026	0.105
-217.582	-200.000	0.020	-0.264
-216.567	-49.467	-0.187	0.088
-215.552	14.694	0.146	-0.113
-214.538	-110.893	-0.357	-0.073
-213.523	-117.574	-0.413	-0.074
-212.509	-200.000	0.034	0.219
-211.494	24.192	0.108	0.088
-210.479	409.335	-0.089	0.186
-209.465	-200.000	-0.013	-0.096
-208.450	-103.084	0.221	-0.052
-207.436	-200.000	0.010	0.490
-206.421	-74.178	-0.295	0.106
-205.406	326.921	0.200	-0.379
-204.392	-98.936	0.376	0.094
-203.377	405.201	-0.116	0.243
-202.363	-200.000	-0.017	0.126
-201.348	-51.798	-0.060	0.028
-200.333	34.572	-0.031	0.027
-199.319	181.679	0.191	-0.277
-198.304	-74.678	-0.257	0.091
-197.290	161.651	-0.139	0.192
-196.275	-200.000	0.006	-0.083
-195.260	564.373	0.065	-0.156
-194.246	-32.374	-0.075	0.041
-193.231	-200.000	0.039	0.246
-192.217	-200.000	0.073	-0.330
-191.202	-200.000	-0.007	-0.127
-190.187	-200.000	0.043	0.314
-189.173	-200.000	-0.006	-0.149
-188.158	-200.000	0.028	-0.236
-187.144	7.850	-0.059	0.044
-186.129	-66.737	-0.185	-0.072
-185.114	-15.156	-0.215	0.136
-184.100	6.386	-0.133	-0.097
-183.085	117.175	0.476	-0.577
-182.071	134.921	-0.144	0.185
-181.056	-200.000	-0.001	-0.014
-180.042	224.782	-0.212	0.338
-179.027	800.000	-0.035	-0.131
-178.012	148.808	-0.238	0.318
-176.998	326.100	0.051	0.097
-175.983	-37.969	-0.272	0.143
-174.969	111.078	-0.285	0.339
-173.954	4.521	-0.206	0.149
-172.939	-19.718	0.015	0.009
-171.925	27.988	0.244	0.203
-170.910	-161.816	-0.332	-0.017
-169.896	-84.626	0.273	0.085
-168.881	149.897	-0.295	0.395
-167.866	-41.012	-0.242	-0.123
-166.852	-70.606	0.143	0.054
-165.837	-200.000	-0.013	0.086
-164.823	-111.328	-0.087	0.017
-163.808	-81.220	-0.323	-0.105
-162.793	-119.393	-0.311	-0.053
-161.779	137.689	0.140	-0.180
-160.764	104.268	0.154	0.179
-159.750	800.000	-0.049	-0.164
-158.735	-175.875	0.151	0.004
-157.720	95.099	0.111	0.125
-156.706	19.515	-0.203	-0.161
-155.691	275.355	0.136	0.238
-154.677	155.866	-0.152	0.206
-153.662	85.774	0.201	0.218
-152.647	800.000	-0.080	0.227
-151.633	-200.000	0.026	0.162
-150.618	200.762	0.082	-0.124
-149.604	728.431	0.059	0.156
-148.589	-129.811	0.215	-0.029
-147.574	-69.572	0.257	-0.097
-146.560	89.984	-0.073	-0.080
-145.545	-88.980	0.094	-0.027
-144.531	-20.373	0.289	0.175
-143.516	-200.000	0.025	0.179
-142.502	-48.301	-0.047	-0.023
-141.487	-78.438	-0.212	0.072
-140.472	-200.000	-0.080	0.347
-139.458	-63.423	0.099	0.040
-138.443	21.084	-0.179	0.144
-137.429	-1.844	-0.202	0.140
-136.414	-10.780	0.173	-0.113
-135.399	-200.000	0.038	-0.242
-134.385	315.330	-0.166	-0.308
-133.370	87.560	0.312	-0.340
-132.356	424.390	-0.047	0.099
-131.341	71.644	-0.107	-0.109
-130.326	181.376	0.190	0.276
-129.312	800.000	-0.078	0.274
-128.297	58.015	0.113	-0.109
-127.283	-143.500	-0.340	0.032
-126.268	-47.456	-0.008	0.004
-125.253	-200.000	-0.008	0.231
-124.239	295.017	0.152	-0.275
-123.224	-9.008	-0.169	-0.112
-122.210	475.079	0.058	-0.130
-121.195	176.525	0.125	0.179
-120.180	-45.072	0.087	-0.043
