DTS Sentinel unit serial number:	SN413079Multiplexer serial number:	ORYXHardware model number:	OX4-SRSoftware version number:	ORYX F/W v4.00 Oryx Data Collector v3.7.2.0data status	okinstallation	princeton_trtdifferential loss correction	single-endedforward channel	channel 3reverse channel	N/Adate	2019/09/17time	04:52:35forward acquisition time	60.00reverse acquisition time	0.00gamma	496.2192k internal	0.2324k external	0.2324temperature offset calibration	0.9941default loss term (dB/km)	0.3790temperature slope calibration	1.0000multiplexer offset coefficient	1.0000multiplexer slope coefficient	1.0000fibre end	0.00T internal ref (°C)	29.55T ext. ref 1 (°C)	0.14T ext. ref 2 (°C)	23.96length (m)	temperature (°C)	Stokes	anti-Stokes-747.200	800.000	0.049	0.156
-746.185	229.845	-0.139	0.230
-745.171	800.000	0.098	0.385
-744.156	49.300	-0.300	0.285
-743.142	-112.247	0.090	-0.018
-742.127	-123.078	-0.160	0.026
-741.112	-200.000	-0.028	0.338
-740.098	61.316	-0.120	0.120
-739.083	-200.000	0.037	-0.225
-738.069	276.104	-0.136	0.243
-737.054	161.243	-0.097	0.137
-736.039	307.404	0.071	0.133
-735.025	-35.201	-0.188	-0.103
-734.010	-200.000	0.003	0.187
-732.996	800.000	0.026	-0.077
-731.981	800.000	-0.023	0.099
-730.966	-118.577	0.441	0.079
-729.952	800.000	-0.074	-0.246
-728.937	-200.000	-0.025	-0.501
-727.923	171.590	-0.089	-0.130
-726.908	251.167	0.066	0.113
-725.894	800.000	-0.037	-0.109
-724.879	-61.834	-0.165	0.070
-723.864	-46.129	-0.163	-0.081
-722.850	434.242	-0.091	0.200
-721.835	-200.000	-0.012	-0.286
-720.821	-200.000	0.027	-0.144
-719.806	-53.876	-0.170	-0.078
-718.791	800.000	-0.041	0.168
-717.777	-146.432	-0.151	-0.013
-716.762	-17.610	-0.009	0.006
-715.748	-153.484	0.054	-0.004
-714.733	-130.999	-0.314	-0.042
-713.718	800.000	-0.084	-0.242
-712.704	246.862	0.091	0.156
-711.689	112.129	-0.095	0.116
-710.675	-58.883	0.251	0.109
-709.660	161.307	0.147	-0.208
-708.645	-73.890	-0.237	-0.087
-707.631	127.742	-0.054	-0.069
-706.616	98.895	0.145	-0.169
-705.602	89.669	0.142	-0.159
-704.587	-200.000	-0.021	0.239
-703.572	-21.328	-0.149	-0.092
-702.558	50.381	0.105	0.100
-701.543	800.000	-0.058	-0.196
-700.529	-18.672	0.107	0.067
-699.514	750.796	-0.010	0.028
-698.499	-13.563	-0.111	0.073
-697.485	172.342	0.253	-0.367
-696.470	184.226	-0.079	-0.118
-695.456	-200.000	-0.011	-0.097
-694.441	42.436	-0.155	0.142
-693.426	800.000	0.061	-0.220
-692.412	-132.903	0.171	-0.022
-691.397	-58.815	-0.362	0.158
-690.383	41.442	-0.038	-0.034
-689.368	-123.603	0.371	0.059
-688.354	91.777	0.180	0.204
-687.339	61.532	-0.113	0.113
-686.324	-18.278	0.104	0.065
-685.310	105.352	0.129	-0.154
-684.295	-68.500	0.192	-0.075
-683.281	27.281	0.099	0.084
-682.266	-58.524	0.159	0.069
-681.251	-135.893	-0.440	-0.052
-680.237	-200.000	-0.030	0.282
-679.222	800.000	-0.085	0.248
-678.208	-200.000	0.020	-0.161
-677.193	205.551	0.104	-0.162
-676.178	664.004	-0.106	-0.276
-675.164	-116.001	-0.095	-0.018
-674.149	-113.996	0.276	-0.054
-673.135	153.876	-0.054	-0.075
-672.120	-158.833	-0.070	0.004
-671.105	-130.364	0.137	-0.019
-670.091	-24.130	0.120	0.072
-669.076	-200.000	0.049	-0.270
-668.062	-77.969	-0.085	-0.030
-667.047	10.709	0.180	-0.138
-666.032	-97.078	0.313	-0.082
-665.018	-28.594	-0.225	-0.130
-664.003	-200.000	-0.008	-0.504
-662.989	-78.884	0.152	-0.052
-661.974	264.002	-0.155	-0.272
-660.959	-200.000	0.132	-0.001
-659.945	800.000	0.118	-0.369
-658.930	-73.749	-0.061	-0.022
-657.916	30.636	-0.079	0.068
-656.901	-98.339	-0.223	-0.058
-655.886	243.135	0.073	-0.123
-654.872	-85.081	-0.418	-0.132
-653.857	-185.977	-0.359	-0.005
-652.843	800.000	0.081	0.225
-651.828	-3.547	-0.235	0.165
-650.814	-33.253	0.199	0.111
-649.799	-114.694	-0.162	0.031
-648.784	76.599	-0.246	0.263
-647.770	-200.000	-0.012	0.178
-646.755	-200.000	-0.010	-0.520
-645.741	99.540	-0.091	0.106
-644.726	36.257	-0.203	-0.180
-643.711	-200.000	-0.026	-0.160
-642.697	-200.000	-0.011	-0.106
-641.682	65.704	-0.202	0.205
-640.668	800.000	-0.068	-0.202
-639.653	51.194	-0.098	-0.094
-638.638	36.372	-0.114	-0.102
-637.624	800.000	-0.083	0.301
-636.609	-200.000	0.023	0.334
-635.595	152.461	-0.219	-0.301
-634.580	-92.494	-0.091	-0.026
-633.565	-20.493	0.168	0.104
-632.551	-130.576	-0.144	0.020
-631.536	-200.000	0.017	-0.382
-630.522	153.201	-0.061	0.084
-629.507	-48.146	0.271	0.132
-628.492	-200.000	0.034	-0.238
-627.478	130.353	0.144	-0.186
-626.463	-86.754	-0.389	-0.120
-625.449	-200.000	-0.037	-0.345
-624.434	-61.908	0.380	-0.160
-623.419	155.529	-0.180	-0.249
-622.405	800.000	-0.028	-0.114
-621.390	-65.275	0.351	-0.142
-620.376	-6.003	-0.159	0.110
-619.361	-52.791	0.182	-0.084
-618.346	-110.508	0.341	-0.071
-617.332	-71.146	0.214	-0.081
-616.317	-200.000	0.018	0.383
-615.303	-200.000	-0.005	0.296
-614.288	322.810	0.096	-0.184
-613.273	-16.835	-0.177	0.112
-612.259	28.230	-0.297	0.252
-611.244	228.971	-0.131	0.214
-610.230	-23.379	-0.246	-0.149
-609.215	-62.169	0.058	0.024
-608.201	-152.560	-0.261	-0.019
-607.186	15.566	0.372	-0.293
-606.171	800.000	-0.092	-0.371
-605.157	-44.408	-0.345	0.173
-604.142	-93.319	-0.367	-0.102
-603.128	800.000	-0.065	0.268
-602.113	-145.184	0.384	0.035
-601.098	-6.647	0.159	-0.109
-600.084	-200.000	0.027	-0.223
-599.069	56.064	-0.055	-0.053
-598.055	-129.411	0.347	-0.048
-597.040	800.000	-0.046	-0.191
-596.025	430.038	0.195	0.423
-595.011	-65.300	0.287	-0.116
-593.996	-200.000	0.044	-0.296
-592.982	21.285	-0.033	-0.027
-591.967	-200.000	-0.021	0.181
-590.952	-157.046	-0.274	-0.017
-589.938	-200.000	0.014	0.293
-588.923	291.185	0.067	-0.122
-587.909	-200.000	0.047	0.215
-586.894	51.188	0.107	-0.102
-585.879	-24.012	-0.031	0.019
-584.865	56.780	0.235	-0.230
-583.850	229.111	0.190	-0.311
-582.836	167.254	0.021	-0.030
-581.821	800.000	-0.069	0.244
-580.806	-11.696	-0.132	0.087
-579.792	-148.144	0.158	0.013
-578.777	-97.150	-0.100	-0.026
-577.763	237.236	0.090	-0.150
-576.748	-103.014	-0.193	-0.046
-575.733	362.655	0.158	0.317
-574.719	333.149	0.174	-0.336
-573.704	-74.070	0.362	-0.132
-572.690	-64.502	-0.289	0.118
-571.675	800.000	-0.043	0.151
-570.661	42.724	-0.156	-0.143
-569.646	44.465	-0.112	0.103
-568.631	-200.000	0.001	0.223
-567.617	22.278	-0.262	-0.215
-566.602	123.222	-0.222	0.279
-565.588	-200.000	0.045	0.248
-564.573	376.919	-0.175	0.358
-563.558	46.441	0.162	0.150
-562.544	-146.733	-0.135	-0.012
-561.529	197.300	-0.215	-0.329
-560.515	-33.475	0.046	-0.026
-559.500	-61.839	-0.063	0.027
-558.485	308.588	0.070	-0.132
-557.471	800.000	-0.048	-0.190
-556.456	29.915	0.139	-0.118
-555.442	-44.281	-0.094	-0.047
-554.427	254.568	-0.157	-0.269
-553.412	269.379	-0.078	0.138
-552.398	93.430	0.054	0.061
-551.383	0.187	0.040	0.028
-550.369	-75.347	0.224	-0.080
-549.354	330.662	0.133	0.256
-548.339	-55.344	0.231	-0.104
-547.325	-58.102	0.128	-0.056
-546.310	-120.191	0.178	-0.030
-545.296	-170.308	0.040	-0.001
-544.281	156.045	-0.159	-0.219
-543.266	-94.450	-0.413	0.113
-542.252	-200.000	-0.040	-0.235
-541.237	-200.000	-0.012	0.136
-540.223	-171.820	-0.258	0.008
-539.208	-143.488	0.258	0.025
-538.193	-200.000	-0.013	-0.193
-537.179	-174.932	0.071	-0.002
-536.164	-93.648	-0.281	0.078
-535.150	800.000	0.108	0.303
-534.135	229.409	-0.193	-0.316
-533.121	-151.844	-0.225	0.017
-532.106	-37.684	-0.244	0.130
-531.091	-145.944	-0.054	0.005
-530.077	-144.701	0.163	-0.015
-529.062	29.678	-0.175	-0.149
-528.048	401.136	-0.130	0.273
-527.033	501.571	-0.027	0.063
-526.018	191.455	0.124	0.187
-525.004	-31.223	0.097	-0.055
-523.989	-117.725	-0.376	0.068
-522.975	37.737	0.221	0.196
-521.960	449.121	-0.037	-0.081
-520.945	-156.429	0.284	-0.018
-519.931	-4.593	0.150	-0.104
-518.916	457.487	-0.072	-0.160
-517.902	-7.826	-0.099	0.067
-516.887	130.341	0.008	0.010
-515.872	-104.844	0.237	0.054
-514.858	-13.685	-0.172	0.111
-513.843	128.676	0.216	0.275
-512.829	276.220	-0.098	0.175
-511.814	21.189	-0.092	0.075
-510.799	317.999	-0.102	-0.194
-509.785	245.098	0.126	0.211
-508.770	800.000	0.096	0.322
-507.756	-135.328	-0.061	-0.007
-506.741	-200.000	0.037	-0.197
-505.726	12.513	0.394	-0.304
-504.712	-68.846	-0.027	-0.011
-503.697	-174.004	-0.177	0.005
-502.683	-200.000	-0.021	0.219
-501.668	-200.000	0.029	0.352
-500.653	-82.903	0.203	0.065
-499.639	-80.289	0.075	-0.025
-498.624	37.815	-0.244	-0.217
-497.610	-58.691	0.239	-0.104
-496.595	-200.000	-0.015	0.304
-495.581	-52.640	-0.152	0.070
-494.566	-200.000	0.001	0.151
-493.551	30.122	-0.075	-0.064
-492.537	309.876	-0.087	-0.163
-491.522	-4.080	0.271	0.188
-490.508	149.176	0.155	0.209
-489.493	93.992	0.023	-0.026
-488.478	589.712	0.116	0.287
-487.464	78.493	0.263	0.281
-486.449	58.867	0.089	0.087
-485.435	-200.000	0.006	0.152
-484.420	800.000	0.073	-0.234
-483.405	-180.895	0.037	0.001
-482.391	52.385	0.168	-0.160
-481.376	438.947	0.038	-0.084
-480.362	17.540	0.028	0.022
-479.347	-200.000	-0.003	-0.048
-478.332	130.726	0.187	-0.240
-477.318	-200.000	0.063	-0.312
-476.303	-136.844	-0.202	0.023
-475.289	-69.498	0.159	0.061
-474.274	61.916	-0.180	-0.180
-473.259	714.453	0.113	-0.300
-472.245	-200.000	-0.020	-0.088
-471.230	87.467	0.188	0.207
-470.216	-39.466	-0.136	0.071
-469.201	374.009	-0.054	0.110
-468.186	61.423	-0.073	0.072
-467.172	596.825	-0.126	-0.311
-466.157	-46.038	-0.285	0.140
-465.143	-35.507	-0.201	-0.109
-464.128	429.806	-0.103	-0.223
-463.113	-13.990	-0.360	-0.232
-462.099	153.833	-0.157	0.215
-461.084	-66.873	0.295	-0.116
-460.070	-68.695	0.365	-0.141
-459.055	800.000	0.054	0.158
-458.040	-180.499	-0.147	-0.003
-457.026	800.000	-0.054	0.152
-456.011	-95.766	0.464	-0.124
-454.997	-39.587	-0.267	0.140
-453.982	55.484	0.148	-0.143
-452.968	-37.123	-0.232	0.124
-451.953	134.734	0.132	0.171
-450.938	609.556	0.097	0.241
-449.924	-157.220	0.234	0.014
-448.909	-58.986	-0.238	-0.103
-447.895	-200.000	0.026	-0.118
-446.880	-33.815	0.305	-0.168
-445.865	-200.000	0.017	-0.216
-444.851	119.333	-0.200	0.247
-443.836	125.444	-0.231	-0.291
-442.822	-33.803	-0.141	-0.077
-441.807	-31.331	0.124	-0.069
-440.792	-59.285	0.168	0.072
-439.778	-83.137	-0.125	0.040
-438.763	-186.948	0.032	-0.000
-437.749	14.404	-0.238	0.185
-436.734	-71.393	-0.169	0.063
-435.719	-200.000	-0.027	-0.209
-434.705	-58.033	0.263	-0.114
-433.690	-116.575	0.240	-0.044
-432.676	61.080	0.068	-0.067
-431.661	0.665	-0.288	0.205
-430.646	60.202	0.146	0.144
-429.632	726.510	-0.053	-0.142
-428.617	-154.207	-0.258	-0.017
-427.603	478.035	0.109	-0.245
-426.588	-200.000	0.057	-0.430
-425.573	-37.273	0.177	-0.094
-424.559	609.005	-0.086	0.214
-423.544	-49.127	-0.208	-0.099
-422.530	800.000	0.054	0.163
-421.515	-200.000	-0.044	-0.313
-420.500	361.797	0.213	-0.426
-419.486	-97.555	0.176	-0.045
-418.471	-200.000	0.009	0.065
-417.457	-60.242	0.076	-0.032
-416.442	563.838	-0.019	-0.047
-415.428	-28.205	-0.212	-0.122
-414.413	-200.000	-0.029	-0.237
-413.398	-200.000	-0.038	-0.166
-412.384	-56.807	-0.124	0.055
-411.369	75.813	-0.307	-0.324
-410.355	-60.645	-0.041	-0.017
-409.340	-46.705	-0.153	0.075
-408.325	-200.000	-0.099	0.485
-407.311	800.000	-0.059	-0.177
-406.296	243.007	-0.104	0.173
-405.282	139.114	-0.130	0.170
-404.267	-53.630	-0.432	0.197
-403.252	-68.845	0.088	0.034
-402.238	27.197	0.248	-0.207
-401.223	-117.962	0.168	-0.030
-400.209	123.809	-0.130	0.163
-399.194	299.895	-0.068	-0.125
-398.179	-200.000	0.009	0.217
-397.165	-64.810	-0.279	0.112
-396.150	-135.199	-0.029	-0.003
-395.136	800.000	-0.061	0.182
-394.121	206.789	0.207	0.321
-393.106	356.776	-0.053	-0.106
-392.092	98.996	-0.170	0.196
-391.077	179.728	0.045	0.065
-390.063	-98.851	-0.101	-0.026
-389.048	47.535	-0.040	0.037
-388.033	-200.000	-0.035	0.167
-387.019	47.667	-0.072	0.067
-386.004	-150.006	-0.252	0.020
-384.990	-97.013	0.194	0.051
-383.975	4.637	0.178	-0.130
-382.960	-16.205	0.290	0.183
-381.946	-200.000	-0.009	0.065
-380.931	-160.933	-0.480	0.025
-379.917	800.000	0.032	0.092
-378.902	668.705	0.092	-0.236
-377.888	81.581	0.160	-0.172
-376.873	-200.000	-0.001	-0.148
-375.858	800.000	0.063	0.186
-374.844	391.451	0.072	-0.149
-373.829	-200.000	0.030	0.223
-372.815	120.017	-0.041	0.051
-371.800	-117.204	0.250	0.045
-370.785	-95.649	0.021	0.006
-369.771	-161.249	0.229	-0.012
-368.756	-21.059	0.154	-0.094
-367.742	222.817	0.150	-0.240
-366.727	557.169	-0.122	0.292
-365.712	-101.217	-0.204	0.050
-364.698	119.975	0.286	0.353
-363.683	-200.000	0.086	-0.513
-362.669	-16.118	0.368	0.233
-361.654	-200.000	-0.008	-0.446
-360.639	125.450	0.128	0.161
-359.625	-54.120	0.123	-0.056
-358.610	-200.000	0.005	-0.020
-357.596	143.763	0.129	-0.171
-356.581	86.470	0.259	-0.284
-355.566	-70.458	-0.303	0.114
-354.552	313.326	0.147	0.275
-353.537	423.779	-0.082	-0.175
-352.523	800.000	-0.073	-0.250
-351.508	0.785	-0.250	-0.178
-350.493	-59.903	-0.545	0.232
-349.479	-69.527	-0.254	-0.097
-348.464	12.534	-0.292	-0.224
-347.450	561.073	-0.140	-0.336
-346.435	-32.635	-0.036	-0.020
-345.420	155.651	0.178	0.244
-344.406	-108.593	-0.330	-0.071
-343.391	-70.023	0.050	0.019
-342.377	-200.000	0.009	-0.098
-341.362	322.913	0.078	-0.148
-340.348	-179.252	0.285	-0.006
-339.333	-120.861	-0.276	0.046
-338.318	115.846	0.235	0.285
-337.304	448.599	0.136	0.299
-336.289	393.317	-0.141	0.293
-335.275	199.538	-0.098	0.149
-334.260	-87.903	0.127	-0.038
-333.245	-30.911	0.054	-0.030
-332.231	268.769	0.125	0.218
-331.216	-200.000	0.015	0.127
-330.202	-200.000	0.030	-0.270
-329.187	66.900	-0.174	-0.176
-328.172	49.179	0.182	0.170
-327.158	-200.000	0.065	-0.284
-326.143	-200.000	0.069	0.302
-325.129	113.685	-0.122	-0.147
-324.114	10.810	-0.050	-0.038
-323.099	-127.379	-0.104	-0.015
-322.085	440.313	0.018	0.039
-321.070	-43.627	-0.043	0.021
-320.056	93.415	-0.196	-0.220
-319.041	347.210	0.241	0.472
-318.026	800.000	-0.047	0.152
-317.012	32.852	-0.267	-0.229
-315.997	330.694	-0.026	-0.050
-314.983	-140.832	0.268	0.027
-313.968	-154.535	-0.151	-0.010
-312.953	202.621	-0.137	0.209
-311.939	800.000	0.089	0.293
-310.924	800.000	0.093	-0.362
-309.910	-200.000	0.045	0.199
-308.895	432.226	0.103	0.222
-307.880	-140.125	0.095	0.010
-306.866	-200.000	-0.007	-0.234
-305.851	179.330	0.126	-0.184
-304.837	738.064	-0.094	-0.250
-303.822	-144.715	-0.152	0.014
-302.807	-137.479	-0.397	0.044
-301.793	153.143	-0.264	0.358
-300.778	-64.621	-0.304	0.122
-299.764	-178.899	0.182	0.004
-298.749	-200.000	0.034	0.320
-297.735	652.096	-0.124	-0.314
-296.720	-15.785	-0.152	-0.096
-295.705	-200.000	0.049	0.230
-294.691	37.677	0.151	0.133
-293.676	-78.203	0.197	-0.067
-292.662	48.147	-0.183	-0.170
-291.647	-200.000	0.032	-0.174
-290.632	-142.867	0.308	-0.030
-289.618	-15.712	0.258	0.163
-288.603	81.234	0.186	-0.199
-287.589	-200.000	-0.043	-0.234
-286.574	-200.000	-0.014	0.207
-285.559	1.262	0.054	-0.039
-284.545	-123.628	-0.318	0.050
-283.530	-128.364	-0.082	-0.012
-282.516	33.459	0.079	0.068
-281.501	151.030	0.224	-0.303
-280.486	-100.741	-0.237	-0.058
-279.472	-177.607	0.156	-0.004
-278.457	150.125	-0.102	-0.137
-277.443	-34.751	-0.266	-0.144
-276.428	51.976	-0.110	-0.104
-275.413	159.239	-0.105	0.145
-274.399	14.864	0.126	0.098
-273.384	-55.119	-0.106	0.047
-272.370	33.779	0.278	-0.240
-271.355	138.456	-0.063	-0.082
-270.340	-200.000	-0.024	-0.346
-269.326	800.000	-0.114	0.344
-268.311	-200.000	0.028	0.157
-267.297	-110.010	0.517	-0.107
-266.282	186.269	-0.048	0.070
-265.267	-200.000	-0.061	-0.354
-264.253	498.635	-0.044	-0.101
-263.238	503.706	-0.080	0.184
-262.224	668.344	-0.043	-0.111
-261.209	-66.784	-0.299	-0.117
-260.195	51.755	0.148	-0.140
-259.180	-200.000	0.007	-0.253
-258.165	-200.000	0.009	-0.118
-257.151	50.260	-0.176	0.165
-256.136	-124.706	0.423	-0.065
-255.122	167.633	0.171	0.241
-254.107	-19.933	0.133	0.081
-253.092	-200.000	-0.043	0.210
-252.078	-163.546	0.218	-0.010
-251.063	-200.000	-0.005	-0.146
-250.049	-200.000	0.013	0.083
-249.034	1.399	-0.194	-0.138
-248.019	-200.000	0.001	-0.004
-247.005	-140.245	-0.178	0.018
-245.990	-200.000	0.084	-0.438
-244.976	-115.599	0.268	-0.050
-243.961	55.739	0.210	-0.202
-242.946	22.675	0.155	-0.125
-241.932	800.000	-0.069	0.223
-240.917	800.000	-0.030	-0.119
-239.903	-200.000	-0.002	0.177
-238.888	800.000	-0.133	0.369
-237.873	-85.083	-0.039	0.012
-236.859	-39.149	-0.231	0.120
-235.844	-200.000	0.062	0.451
-234.830	18.847	-0.120	-0.095
-233.815	-200.000	-0.022	0.140
-232.800	-82.566	0.228	0.073
-231.786	-12.273	0.119	0.077
-230.771	-5.744	-0.090	-0.061
-229.757	200.677	0.068	-0.103
-228.742	-76.347	0.340	-0.119
-227.727	368.249	-0.032	0.065
-226.713	-24.713	-0.167	0.098
-225.698	327.162	-0.067	-0.128
-224.684	-69.874	-0.338	-0.128
-223.669	-113.106	-0.016	0.003
-222.655	-149.035	0.389	0.031
-221.640	-200.000	0.001	0.090
-220.625	-86.363	0.342	0.104
-219.611	76.854	-0.299	0.314
-218.596	91.409	-0.238	-0.265
-217.582	-148.518	0.295	-0.024
-216.567	-121.362	0.180	-0.030
-215.552	37.976	-0.132	-0.116
-214.538	126.792	-0.099	-0.124
-213.523	-119.255	-0.342	-0.059
-212.509	-33.858	-0.229	-0.125
-211.494	-200.000	-0.018	0.084
-210.479	800.000	-0.055	0.231
-209.465	-26.655	0.165	-0.095
-208.450	-94.216	0.536	-0.145
-207.436	-100.908	0.302	0.073
-206.421	255.492	0.076	0.129
-205.406	-0.518	-0.169	-0.119
-204.392	42.174	-0.101	0.090
-203.377	-122.123	-0.143	0.023
-202.363	263.110	0.047	-0.081
-201.348	-35.324	0.116	-0.062
-200.333	166.342	-0.074	-0.103
-199.319	-84.203	0.216	-0.068
-198.304	157.250	-0.103	-0.141
-197.290	-30.505	0.313	0.176
-196.275	-76.566	0.270	-0.094
-195.260	315.156	0.059	-0.111
-194.246	63.778	-0.313	0.311
-193.231	-31.632	-0.049	-0.027
-192.217	342.343	-0.216	0.418
-191.202	-75.418	-0.129	0.045
-190.187	-64.493	-0.105	0.042
-189.173	-140.798	0.271	0.028
-188.158	-200.000	0.007	-0.185
-187.144	485.728	0.107	0.241
-186.129	392.293	-0.096	-0.197
-185.114	-82.703	0.284	0.091
-184.100	-40.479	0.303	-0.156
-183.085	-21.444	0.172	0.103
-182.071	115.414	-0.141	0.170
-181.056	548.057	-0.086	-0.203
-180.042	800.000	-0.064	-0.255
-179.027	-91.226	0.128	0.036
-178.012	-200.000	0.033	-0.185
-176.998	800.000	0.053	-0.171
-175.983	129.050	0.147	0.185
-174.969	800.000	0.074	0.300
-173.954	-116.833	0.191	0.035
-172.939	62.983	-0.404	0.400
-171.925	-69.150	0.172	0.065
-170.910	-200.000	0.026	0.201
-169.896	464.160	0.068	0.150
-168.881	-200.000	-0.088	0.398
-167.866	532.887	-0.127	0.296
-166.852	-200.000	0.033	0.319
-165.837	-1.028	0.016	-0.011
-164.823	-118.638	-0.066	0.012
-163.808	4.312	-0.158	0.114
-162.793	24.125	-0.048	0.039
-161.779	-145.829	0.210	-0.018
-160.764	-200.000	0.003	0.156
-159.750	800.000	0.021	-0.076
-158.735	-28.855	0.212	-0.120
-157.720	-55.745	0.130	-0.057
-156.706	-200.000	-0.019	-0.279
-155.691	-55.924	0.194	0.085
-154.677	-75.251	-0.219	0.077
-153.662	800.000	0.087	0.250
-152.647	-200.000	0.017	0.139
-151.633	-55.667	-0.278	-0.123
-150.618	-200.000	-0.020	-0.162
-149.604	-200.000	-0.082	-0.390
-148.589	-42.553	-0.164	0.082
-147.574	-27.136	0.314	0.180
-146.560	-200.000	0.023	-0.238
-145.545	100.291	-0.034	0.038
-144.531	-200.000	-0.189	0.001
-143.516	130.184	0.135	0.171
-142.502	-159.850	-0.110	0.006
-141.487	157.256	0.246	-0.336
-140.472	197.563	-0.073	0.110
-139.458	-200.000	0.090	0.483
-138.443	-23.050	-0.127	0.076
-137.429	423.929	0.103	-0.219
-136.414	137.243	0.231	-0.298
-135.399	-115.589	0.439	-0.081
-134.385	-57.408	0.065	-0.028
-133.370	-192.466	0.216	-0.002
-132.356	-200.000	-0.009	-0.054
-131.341	-200.000	0.027	-0.226
-130.326	-200.000	0.006	-0.199
-129.312	211.128	-0.233	-0.361
-128.297	-200.000	-0.022	-0.280
-127.283	105.296	-0.085	-0.099
-126.268	-145.929	0.306	-0.027
-125.253	-200.000	-0.099	-0.707
-124.239	245.434	0.224	0.372
-123.224	800.000	-0.102	-0.436
