DTS Sentinel unit serial number:	SN413079Multiplexer serial number:	ORYXHardware model number:	OX4-SRSoftware version number:	ORYX F/W v4.00 Oryx Data Collector v3.7.2.0data status	okinstallation	princeton_trtdifferential loss correction	single-endedforward channel	channel 3reverse channel	N/Adate	2019/09/13time	14:48:35forward acquisition time	60.00reverse acquisition time	0.00gamma	496.2192k internal	0.2299k external	0.2299temperature offset calibration	1.0143default loss term (dB/km)	0.3790temperature slope calibration	1.0000multiplexer offset coefficient	1.0000multiplexer slope coefficient	1.0000fibre end	0.00T internal ref (°C)	35.56T ext. ref 1 (°C)	4.70T ext. ref 2 (°C)	32.58length (m)	temperature (°C)	Stokes	anti-Stokes-747.200	-87.590	0.513	-0.158
-746.185	-200.000	-0.002	0.306
-745.171	-65.294	0.181	-0.075
-744.156	138.753	-0.164	-0.220
-743.142	-200.000	0.032	0.234
-742.127	-126.045	-0.424	0.065
-741.112	-200.000	0.011	0.345
-740.098	353.486	0.078	-0.158
-739.083	30.481	0.056	-0.049
-738.069	-200.000	0.097	0.648
-737.054	-200.000	0.025	0.149
-736.039	-66.263	-0.430	-0.175
-735.025	-140.899	0.074	0.008
-734.010	-128.810	0.078	-0.011
-732.996	800.000	-0.019	-0.053
-731.981	-72.394	-0.086	0.032
-730.966	-130.687	0.269	0.037
-729.952	29.918	-0.173	-0.150
-728.937	358.847	-0.132	0.268
-727.923	-188.497	0.301	-0.004
-726.908	-49.300	-0.259	0.126
-725.894	13.644	-0.221	-0.175
-724.879	-18.944	0.036	-0.023
-723.864	-103.852	-0.244	-0.058
-722.850	-200.000	-0.018	-0.099
-721.835	-13.621	-0.190	0.126
-720.821	49.166	-0.257	-0.246
-719.806	316.978	-0.094	-0.182
-718.791	-200.000	-0.003	-0.086
-717.777	243.897	-0.192	-0.329
-716.762	-149.527	0.115	-0.009
-715.748	-89.712	-0.225	0.067
-714.733	49.039	0.300	0.288
-713.718	-120.347	0.244	0.042
-712.704	800.000	-0.028	-0.087
-711.689	216.148	-0.262	0.424
-710.675	-134.255	0.297	0.037
-709.660	-61.140	0.117	-0.050
-708.645	47.305	-0.281	-0.267
-707.631	-65.561	-0.032	0.013
-706.616	115.933	-0.105	-0.131
-705.602	800.000	-0.012	-0.051
-704.587	81.975	0.046	-0.051
-703.572	-184.652	-0.074	0.001
-702.558	10.283	0.102	0.079
-701.543	42.301	0.222	-0.206
-700.529	407.183	-0.059	-0.127
-699.514	-200.000	-0.003	-0.082
-698.499	5.905	-0.361	0.273
-697.485	560.150	0.179	0.441
-696.470	-106.733	0.316	-0.072
-695.456	24.462	0.057	-0.048
-694.441	800.000	-0.080	0.280
-693.426	-200.000	-0.019	-0.218
-692.412	-3.124	-0.127	-0.090
-691.397	11.309	-0.256	0.199
-690.383	197.114	-0.348	-0.540
-689.368	-200.000	0.023	0.103
-688.354	-200.000	0.013	0.111
-687.339	-37.283	0.199	-0.108
-686.324	79.364	-0.203	-0.221
-685.310	295.204	0.096	-0.179
-684.295	278.498	0.084	-0.152
-683.281	2.111	-0.166	-0.122
-682.266	35.482	-0.146	-0.130
-681.251	6.881	0.065	0.050
-680.237	800.000	0.063	0.264
-679.222	-200.000	0.007	0.199
-678.208	10.580	-0.168	-0.130
-677.193	-200.000	-0.013	-0.196
-676.178	-200.000	-0.020	-0.152
-675.164	800.000	-0.078	-0.304
-674.149	13.814	0.363	0.287
-673.135	-44.554	-0.222	0.113
-672.120	179.685	-0.091	0.136
-671.105	50.752	-0.037	0.035
-670.091	-128.432	0.161	0.023
-669.076	-122.941	-0.276	-0.045
-668.062	-89.378	-0.239	0.072
-667.047	-124.150	0.314	-0.050
-666.032	-135.626	-0.112	-0.014
-665.018	533.399	-0.074	0.179
-664.003	-27.020	0.046	-0.027
-662.989	-54.665	-0.092	-0.042
-661.974	800.000	-0.078	-0.335
-660.959	-200.000	0.036	0.164
-659.945	-52.265	-0.243	0.115
-658.930	800.000	-0.019	0.057
-657.916	87.451	-0.219	0.247
-656.901	-46.139	0.060	0.030
-655.886	61.959	-0.071	-0.072
-654.872	309.389	-0.149	-0.284
-653.857	-140.053	0.148	0.016
-652.843	-72.030	-0.262	-0.099
-651.828	-145.251	-0.192	-0.018
-650.814	38.396	-0.174	0.157
-649.799	-200.000	0.013	-0.062
-648.784	-64.552	0.308	-0.127
-647.770	562.007	-0.005	-0.013
-646.755	59.026	0.160	-0.160
-645.741	800.000	0.024	0.091
-644.726	18.342	-0.096	0.078
-643.711	215.466	0.130	0.209
-642.697	122.977	0.168	-0.214
-641.682	645.566	0.030	-0.079
-640.668	-200.000	-0.019	-0.265
-639.653	-200.000	-0.061	-0.354
-638.638	-166.092	-0.143	-0.006
-637.624	163.427	0.105	0.150
-636.609	-200.000	-0.012	-0.069
-635.595	78.450	-0.103	-0.112
-634.580	116.343	0.171	-0.213
-633.565	-93.763	-0.381	0.107
-632.551	-94.827	0.315	-0.087
-631.536	108.338	0.178	-0.216
-630.522	52.768	-0.136	-0.132
-629.507	314.939	0.044	0.085
-628.492	-200.000	0.005	-0.083
-627.478	12.265	0.126	-0.098
-626.463	-200.000	0.002	-0.484
-625.449	40.028	-0.131	0.120
-624.434	-84.703	-0.283	-0.091
-623.419	306.389	0.089	0.167
-622.405	-125.299	0.278	0.043
-621.390	-11.772	-0.143	0.095
-620.376	-68.337	-0.303	0.120
-619.361	-200.000	0.028	-0.150
-618.346	-132.128	0.199	-0.026
-617.332	-200.000	0.044	-0.279
-616.317	281.776	0.074	-0.134
-615.303	-124.499	0.052	-0.008
-614.288	800.000	-0.011	0.039
-613.273	-200.000	-0.035	0.320
-612.259	31.330	-0.191	-0.167
-611.244	800.000	-0.041	0.124
-610.230	800.000	-0.059	-0.191
-609.215	-62.222	0.036	0.015
-608.201	80.159	0.094	-0.102
-607.186	-15.325	0.265	-0.172
-606.171	-200.000	-0.026	-0.148
-605.157	-23.665	0.258	-0.157
-604.142	-200.000	-0.012	0.217
-603.128	-97.570	0.400	-0.105
-602.113	122.870	0.179	0.227
-601.098	114.014	0.150	0.185
-600.084	800.000	-0.028	-0.096
-599.069	198.017	0.076	0.118
-598.055	-200.000	0.012	0.255
-597.040	800.000	-0.061	0.183
-596.025	25.597	0.040	-0.034
-595.011	-33.549	-0.419	0.235
-593.996	-200.000	-0.006	0.172
-592.982	161.269	-0.028	-0.040
-591.967	-200.000	-0.019	-0.105
-590.952	-44.982	0.233	-0.118
-589.938	-200.000	-0.049	0.300
-588.923	-136.800	-0.023	-0.003
-587.909	800.000	0.041	-0.127
-586.894	282.829	0.058	-0.106
-585.879	-119.823	-0.296	0.052
-584.865	-20.881	-0.109	0.068
-583.850	-117.412	-0.221	0.041
-582.836	-134.006	-0.113	0.014
-581.821	292.161	-0.001	-0.001
-580.806	-136.607	0.069	0.008
-579.792	136.523	0.134	-0.177
-578.777	800.000	-0.025	0.100
-577.763	-200.000	0.003	-0.152
-576.748	800.000	-0.030	-0.097
-575.733	114.103	-0.058	-0.071
-574.719	-18.132	-0.106	-0.067
-573.704	62.463	-0.082	0.084
-572.690	-200.000	-0.052	0.333
-571.675	203.326	-0.125	0.196
-570.661	38.468	-0.081	0.073
-569.646	800.000	-0.102	-0.291
-568.631	18.794	-0.086	-0.070
-567.617	616.149	-0.115	0.291
-566.602	-108.561	0.183	0.040
-565.588	-90.659	0.091	-0.027
-564.573	-124.231	0.176	0.028
-563.558	-41.812	-0.023	0.012
-562.544	-153.032	0.126	0.009
-561.529	-46.128	-0.186	-0.093
-560.515	-144.534	-0.378	0.035
-559.500	-70.649	-0.209	0.080
-558.485	-200.000	-0.002	-0.422
-557.471	-78.787	-0.391	0.135
-556.456	272.569	-0.090	0.162
-555.442	-150.617	-0.223	0.017
-554.427	101.649	-0.371	-0.438
-553.412	-65.821	0.064	-0.026
-552.398	-42.268	-0.072	-0.037
-551.383	-200.000	0.052	0.423
-550.369	308.805	-0.162	0.306
-549.354	10.742	-0.113	0.087
-548.339	-45.659	-0.402	0.201
-547.325	-200.000	0.033	0.183
-546.310	-33.659	-0.165	0.092
-545.296	-200.000	-0.042	0.373
-544.281	28.394	0.347	0.297
-543.266	-10.682	0.347	0.233
-542.252	-109.145	0.173	-0.037
-541.237	219.583	0.071	-0.115
-540.223	30.799	-0.105	-0.091
-539.208	800.000	0.083	-0.305
-538.193	77.761	0.092	-0.099
-537.179	84.302	0.088	-0.097
-536.164	-89.189	-0.222	-0.066
-535.150	-80.435	0.363	-0.123
-534.135	214.085	0.046	0.074
-533.121	-78.228	-0.434	0.151
-532.106	-106.620	0.387	0.087
-531.091	662.031	0.063	-0.165
-530.077	364.832	0.074	0.151
-529.062	-32.458	0.353	0.199
-528.048	-141.056	-0.035	-0.004
-527.033	-26.884	0.058	-0.034
-526.018	-200.000	-0.065	0.419
-525.004	-110.742	-0.420	-0.088
-523.989	-130.912	-0.119	-0.016
-522.975	-200.000	0.048	-0.407
-521.960	160.581	-0.199	-0.280
-520.945	-200.000	-0.031	0.206
-519.931	3.383	-0.081	-0.060
-518.916	-173.928	-0.225	0.007
-517.902	-27.258	0.158	0.093
-516.887	-26.724	0.125	0.074
-515.872	328.051	-0.294	-0.571
-514.858	726.162	0.164	0.441
-513.843	-29.822	0.184	0.106
-512.829	68.511	0.233	-0.242
-511.814	12.894	0.123	0.096
-510.799	-35.031	0.150	0.082
-509.785	-19.580	0.250	0.156
-508.770	260.663	-0.081	0.142
-507.756	-84.600	0.101	-0.032
-506.741	183.227	0.192	0.286
-505.726	667.182	0.129	0.338
-504.712	-172.086	-0.449	-0.015
-503.697	-200.000	0.011	0.305
-502.683	-21.387	-0.212	-0.131
-501.668	-200.000	-0.022	-0.358
-500.653	-116.676	0.025	-0.005
-499.639	244.566	0.052	0.089
-498.624	-200.000	-0.017	-0.114
-497.610	-81.333	0.177	0.059
-496.595	20.034	-0.219	-0.179
-495.581	528.661	0.028	0.068
-494.566	-200.000	0.019	0.177
-493.551	-86.266	-0.408	-0.127
-492.537	5.245	-0.221	0.165
-491.522	-187.168	-0.328	0.005
-490.508	41.507	-0.119	-0.109
-489.493	207.983	0.079	0.124
-488.478	-86.593	0.163	0.051
-487.464	-110.151	0.285	-0.060
-486.449	-175.421	0.388	0.011
-485.435	-200.000	-0.006	-0.129
-484.420	-31.736	0.243	-0.138
-483.405	-32.253	0.059	0.033
-482.391	-6.338	-0.176	-0.121
-481.376	-137.029	-0.360	-0.042
-480.362	765.915	-0.169	0.464
-479.347	-42.858	0.074	0.038
-478.332	290.189	-0.158	-0.289
-477.318	-4.181	0.164	0.115
-476.303	-195.598	0.145	0.001
-475.289	13.055	-0.132	-0.103
-474.274	-200.000	-0.013	-0.371
-473.259	-200.000	0.018	0.089
-472.245	-98.673	0.324	0.084
-471.230	-200.000	0.000	-0.223
-470.216	444.425	0.130	0.288
-469.201	-88.346	0.208	-0.063
-468.186	-102.778	-0.063	0.015
-467.172	-141.636	-0.266	-0.027
-466.157	-26.740	0.337	0.199
-465.143	-40.772	-0.154	0.080
-464.128	800.000	0.052	-0.177
-463.113	142.377	0.174	0.232
-462.099	-200.000	-0.008	-0.110
-461.084	-89.749	0.127	0.038
-460.070	-50.026	0.207	0.099
-459.055	-31.838	0.147	0.083
-458.040	-34.007	-0.137	0.076
-457.026	-200.000	-0.095	-0.497
-456.011	185.882	-0.045	-0.067
-454.997	-200.000	-0.009	0.271
-453.982	113.488	0.080	0.098
-452.968	-200.000	-0.361	-0.001
-451.953	31.119	0.031	-0.027
-450.938	-123.073	-0.051	0.008
-449.924	800.000	-0.039	0.148
-448.909	24.912	0.078	-0.065
-447.895	800.000	-0.125	-0.443
-446.880	-200.000	0.030	-0.406
-445.865	-68.130	0.396	-0.156
-444.851	-171.299	-0.168	-0.006
-443.836	18.430	0.346	0.279
-442.822	-107.359	0.315	0.070
-441.807	82.917	0.112	-0.123
-440.792	-98.175	0.233	-0.060
-439.778	265.300	-0.054	-0.094
-438.763	-173.708	0.160	-0.005
-437.749	-72.663	0.213	0.079
-436.734	125.096	-0.079	0.101
-435.719	-31.237	0.184	0.104
-434.705	-19.972	-0.314	0.196
-433.690	43.163	0.136	-0.125
-432.676	209.403	0.018	-0.028
-431.661	729.852	-0.035	-0.094
-430.646	22.155	-0.174	0.143
-429.632	-200.000	0.012	-0.119
-428.617	-200.000	0.004	0.023
-427.603	-92.727	0.097	-0.027
-426.588	-200.000	0.025	0.219
-425.573	-21.942	-0.183	-0.112
-424.559	-75.007	-0.049	-0.018
-423.544	-81.688	-0.146	-0.048
-422.530	91.346	0.167	-0.189
-421.515	-42.505	-0.105	0.054
-420.500	-65.066	-0.205	-0.083
-419.486	-53.155	-0.205	0.095
-418.471	-7.872	0.134	-0.091
-417.457	-96.585	-0.285	0.076
-416.442	-27.883	-0.207	-0.121
-415.428	-64.177	-0.115	0.047
-414.413	-200.000	0.020	0.130
-413.398	42.474	-0.216	0.198
-412.384	182.495	0.082	-0.122
-411.369	105.018	0.201	0.239
-410.355	-200.000	-0.013	0.304
-409.340	18.366	-0.108	-0.087
-408.325	-35.925	0.205	0.112
-407.311	800.000	0.059	0.242
-406.296	380.767	0.039	0.081
-405.282	314.608	-0.190	0.360
-404.267	252.621	0.060	-0.103
-403.252	-139.510	0.308	-0.033
-402.238	-113.714	-0.497	-0.097
-401.223	-135.421	0.198	-0.024
-400.209	319.900	0.159	0.303
-399.194	78.103	-0.151	-0.163
-398.179	-11.620	-0.063	-0.042
-397.165	-12.104	0.210	0.139
-396.150	-200.000	0.044	-0.197
-395.136	45.749	0.080	0.075
-394.121	93.278	0.159	-0.181
-393.106	1.388	0.375	-0.271
-392.092	-129.412	-0.186	-0.026
-391.077	800.000	0.034	0.102
-390.063	-63.258	-0.339	-0.141
-389.048	450.740	-0.145	-0.323
-388.033	54.956	-0.045	-0.044
-387.019	190.613	-0.159	0.241
-386.004	-102.790	-0.121	-0.029
-384.990	-151.238	-0.254	-0.019
-383.975	-31.469	0.108	-0.061
-382.960	-135.056	0.121	-0.015
-381.946	-34.805	0.057	-0.031
-380.931	84.309	0.209	-0.230
-379.917	260.502	0.112	0.196
-378.902	-66.819	0.162	0.065
-377.888	-176.623	0.400	0.010
-376.873	39.626	0.198	-0.179
-375.858	18.820	-0.239	-0.193
-374.844	-42.895	-0.402	-0.206
-373.829	-196.536	-0.187	0.001
-372.815	800.000	-0.080	-0.309
-371.800	-200.000	0.062	0.313
-370.785	-105.583	-0.172	-0.039
-369.771	-200.000	-0.040	0.269
-368.756	-50.413	-0.338	0.160
-367.742	-91.501	-0.392	0.112
-366.727	-90.037	-0.327	-0.096
-365.712	24.776	-0.166	-0.138
-364.698	-200.000	0.021	0.258
-363.683	-76.743	0.371	-0.131
-362.669	-74.298	0.274	0.100
-361.654	-194.762	0.254	-0.002
-360.639	129.796	-0.053	-0.068
-359.625	800.000	-0.044	0.151
-358.610	800.000	0.055	0.174
-357.596	-92.541	-0.129	0.036
-356.581	291.913	-0.065	-0.119
-355.566	235.198	0.039	-0.064
-354.552	199.000	-0.088	-0.136
-353.537	39.768	0.093	-0.084
-352.523	-28.950	0.120	0.069
-351.508	-16.871	-0.108	-0.068
-350.493	527.742	0.130	-0.307
-349.479	-200.000	-0.044	0.244
-348.464	-163.491	0.189	-0.009
-347.450	-154.226	-0.239	-0.016
-346.435	-75.367	0.209	0.075
-345.420	29.105	0.199	-0.169
-344.406	800.000	-0.024	0.096
-343.391	-167.232	-0.462	0.019
-342.377	-42.866	0.091	0.047
-341.362	117.816	-0.169	-0.209
-340.348	265.524	0.086	0.151
-339.333	-189.064	0.192	0.002
-338.318	-169.363	0.101	0.004
-337.304	-43.701	-0.288	-0.146
-336.289	12.071	0.177	-0.137
-335.275	-30.891	0.133	-0.075
-334.260	-70.132	0.170	0.065
-333.245	546.182	-0.207	0.497
-332.231	94.868	-0.134	0.153
-331.216	-200.000	-0.014	0.381
-330.202	-132.711	-0.506	0.065
-329.187	800.000	-0.017	-0.064
-328.172	-200.000	0.000	0.263
-327.158	-102.701	0.269	-0.064
-326.143	109.099	0.039	0.047
-325.129	-108.935	-0.153	0.033
-324.114	48.030	-0.235	0.221
-323.099	-83.383	-0.087	0.028
-322.085	8.332	0.054	0.040
-321.070	-200.000	0.049	-0.279
-320.056	382.919	0.131	0.270
-319.041	800.000	-0.114	0.465
-318.026	22.044	-0.029	0.023
-317.012	13.497	-0.114	-0.088
-315.997	-89.470	0.193	0.057
-314.983	-154.085	-0.060	-0.004
-313.968	-99.439	-0.195	-0.049
-312.953	800.000	-0.065	0.271
-311.939	-72.245	0.338	0.126
-310.924	24.132	0.202	0.168
-309.910	-200.000	0.015	-0.144
-308.895	93.439	0.126	-0.143
-307.880	-26.769	-0.046	-0.027
-306.866	-140.072	-0.256	0.027
-305.851	10.990	0.112	-0.086
-304.837	272.470	0.074	0.131
-303.822	1.604	-0.147	0.106
-302.807	313.911	-0.222	-0.418
-301.793	-5.795	-0.101	0.069
-300.778	16.479	0.132	-0.105
-299.764	-200.000	-0.035	0.248
-298.749	288.744	0.120	0.219
-297.735	-200.000	-0.016	-0.135
-296.720	-27.671	0.108	0.063
-295.705	-200.000	0.010	-0.046
-294.691	-200.000	-0.054	-0.293
-293.676	-200.000	0.040	0.201
-292.662	-57.235	0.353	-0.156
-291.647	208.446	0.119	-0.186
-290.632	73.671	0.154	-0.162
-289.618	-96.632	0.094	0.025
-288.603	196.013	0.161	0.246
-287.589	-7.808	0.102	0.069
-286.574	800.000	-0.090	-0.294
-285.559	280.247	-0.195	-0.350
-284.545	-2.038	0.154	-0.109
-283.530	172.506	-0.090	0.130
-282.516	-101.537	-0.227	0.055
-281.501	189.256	0.154	0.232
-280.486	-200.000	-0.008	0.121
-279.472	381.842	-0.132	0.271
-278.457	-200.000	0.042	-0.338
-277.443	-166.831	0.237	-0.010
-276.428	250.862	0.102	-0.174
-275.413	-114.829	-0.314	-0.060
-274.399	-200.000	0.039	-0.531
-273.384	66.186	0.125	0.127
-272.370	13.482	-0.149	0.116
-271.355	-25.045	0.264	0.157
-270.340	570.123	-0.091	0.222
-269.326	379.314	0.146	0.299
-268.311	-53.948	-0.081	0.037
-267.297	-42.872	0.143	-0.073
-266.282	52.166	-0.260	-0.248
-265.267	-115.746	-0.535	-0.100
-264.253	-200.000	-0.013	0.182
-263.238	138.782	0.079	0.104
-262.224	-116.515	0.183	-0.034
-261.209	49.222	-0.205	0.193
-260.195	-200.000	-0.047	0.480
-259.180	194.764	-0.065	-0.099
-258.165	800.000	0.088	-0.261
-257.151	800.000	0.070	-0.235
-256.136	-200.000	-0.001	0.074
-255.122	-135.681	0.056	0.007
-254.107	421.117	0.009	0.018
-253.092	556.790	-0.098	-0.235
-252.078	212.259	-0.198	0.312
-251.063	-141.784	-0.114	0.011
-250.049	9.734	0.203	0.154
-249.034	800.000	-0.028	-0.083
-248.019	191.980	0.147	-0.222
-247.005	101.984	0.220	-0.257
-245.990	-124.783	0.376	-0.058
-244.976	117.629	0.057	0.070
-243.961	-200.000	0.032	0.278
-242.946	-44.014	0.259	-0.130
-241.932	-72.794	-0.057	-0.021
-240.917	604.747	-0.071	-0.178
-239.903	-57.265	-0.250	0.110
-238.888	17.770	0.105	-0.083
-237.873	-32.535	-0.160	0.089
-236.859	70.069	0.180	0.185
-235.844	-44.887	0.258	-0.129
-234.830	-200.000	0.013	0.096
-233.815	31.412	0.105	-0.090
-232.800	-200.000	-0.020	0.158
-231.786	800.000	0.061	-0.194
-230.771	-200.000	-0.003	-0.262
-229.757	-200.000	0.023	0.145
-228.742	-200.000	-0.035	-0.282
-227.727	-195.555	0.437	0.003
-226.713	40.980	0.263	0.238
-225.698	-145.578	-0.309	0.028
-224.684	372.834	-0.068	0.138
-223.669	337.467	0.054	0.105
-222.655	205.979	-0.150	0.233
-221.640	169.181	-0.088	-0.126
-220.625	-101.782	-0.286	-0.069
-219.611	-132.517	-0.221	0.028
-218.596	-76.275	-0.116	0.041
-217.582	127.096	-0.133	-0.169
-216.567	344.126	0.136	0.267
-215.552	-200.000	-0.001	-0.119
-214.538	-106.821	-0.039	-0.009
-213.523	-0.287	0.311	0.221
-212.509	-200.000	-0.028	-0.154
-211.494	-200.000	-0.001	-0.206
-210.479	345.723	-0.158	0.309
-209.465	159.012	0.063	0.087
-208.450	-39.717	-0.007	0.004
-207.436	46.617	0.040	0.037
-206.421	-38.895	-0.456	-0.240
-205.406	18.287	0.126	-0.100
-204.392	-165.383	-0.260	-0.011
-203.377	285.953	0.081	-0.147
-202.363	-200.000	0.043	-0.318
-201.348	116.878	0.106	-0.130
-200.333	800.000	-0.043	-0.171
-199.319	242.155	0.144	0.241
-198.304	-90.874	-0.076	0.022
-197.290	-44.804	-0.196	0.098
-196.275	-161.275	-0.206	0.011
-195.260	800.000	0.037	0.160
-194.246	-200.000	-0.003	0.213
-193.231	-32.265	0.256	0.143
-192.217	-200.000	-0.003	0.244
-191.202	563.215	-0.039	0.095
-190.187	-41.804	0.090	-0.046
-189.173	296.016	0.065	-0.119
-188.158	-143.847	-0.189	0.018
-187.144	28.116	-0.135	-0.114
-186.129	-51.570	-0.381	-0.177
-185.114	-43.173	0.326	-0.165
-184.100	-200.000	-0.018	-0.203
-183.085	4.883	0.192	0.141
-182.071	3.525	0.149	0.108
-181.056	-138.260	-0.101	-0.011
-180.042	-111.975	0.359	0.072
-179.027	-200.000	-0.005	-0.062
-178.012	444.624	-0.071	-0.156
-176.998	-71.366	-0.286	0.107
-175.983	127.216	-0.156	-0.197
-174.969	800.000	0.039	-0.128
-173.954	97.202	0.274	0.314
-172.939	-200.000	-0.066	-0.299
-171.925	-200.000	0.046	-0.307
-170.910	-200.000	-0.048	-0.286
-169.896	371.714	0.095	-0.193
-168.881	-200.000	-0.047	-0.251
-167.866	-200.000	0.016	-0.110
-166.852	-200.000	-0.001	0.211
-165.837	-200.000	-0.045	-0.245
-164.823	83.953	-0.116	-0.126
-163.808	-146.476	0.261	0.023
-162.793	800.000	-0.033	-0.133
-161.779	-8.740	-0.162	-0.108
-160.764	63.934	-0.032	0.032
-159.750	800.000	-0.073	0.276
-158.735	-90.122	0.179	0.052
-157.720	288.614	0.050	0.090
-156.706	310.325	0.052	-0.097
-155.691	656.236	0.056	-0.144
-154.677	-68.093	0.259	-0.101
-153.662	-0.260	-0.140	-0.099
-152.647	-30.807	-0.044	0.025
-151.633	800.000	-0.049	0.143
-150.618	-8.597	0.221	0.148
-149.604	-5.447	0.128	-0.087
-148.589	-105.224	-0.269	-0.061
-147.574	-123.844	0.334	0.053
-146.560	-80.686	0.242	-0.080
-145.545	-200.000	-0.005	0.095
-144.531	90.927	0.215	0.240
-143.516	-87.252	-0.291	-0.088
-142.502	-200.000	0.034	-0.353
-141.487	-59.303	-0.466	-0.200
-140.472	66.099	-0.097	-0.098
-139.458	-127.144	-0.154	-0.023
-138.443	-182.656	0.257	-0.005
-137.429	-59.504	-0.045	0.019
-136.414	-145.665	0.234	-0.021
-135.399	-81.439	0.161	0.053
-134.385	-92.138	0.101	-0.028
-133.370	569.635	0.142	-0.343
-132.356	126.364	0.205	0.258
-131.341	94.031	0.097	-0.110
-130.326	87.795	-0.052	-0.057
-129.312	-27.945	-0.181	-0.104
-128.297	-200.000	-0.027	0.147
-127.283	800.000	-0.063	-0.230
-126.268	-200.000	-0.040	0.277
-125.253	66.045	0.113	-0.114
-124.239	4.773	-0.300	-0.220
-123.224	-0.460	-0.244	0.172
-122.210	41.255	-0.074	0.066
