DTS Sentinel unit serial number:	SN413079Multiplexer serial number:	ORYXHardware model number:	OX4-SRSoftware version number:	ORYX F/W v4.00 Oryx Data Collector v3.7.2.0data status	okinstallation	princeton_trtdifferential loss correction	single-endedforward channel	channel 3reverse channel	N/Adate	2019/09/16time	15:00:35forward acquisition time	60.00reverse acquisition time	0.00gamma	496.2192k internal	0.2293k external	0.2293temperature offset calibration	0.9939default loss term (dB/km)	0.3790temperature slope calibration	1.0000multiplexer offset coefficient	1.0000multiplexer slope coefficient	1.0000fibre end	0.00T internal ref (°C)	41.19T ext. ref 1 (°C)	14.46T ext. ref 2 (°C)	36.24length (m)	temperature (°C)	Stokes	anti-Stokes-747.200	60.689	0.112	0.113
-746.185	46.176	-0.238	-0.225
-745.171	800.000	0.058	-0.211
-744.156	-113.337	0.500	0.100
-743.142	-116.083	0.389	0.074
-742.127	-6.412	-0.144	0.101
-741.112	-200.000	-0.086	0.406
-740.098	-95.473	0.199	0.055
-739.083	-91.184	-0.316	-0.093
-738.069	800.000	0.090	0.359
-737.054	-54.130	-0.290	0.135
-736.039	-59.977	0.186	-0.082
-735.025	-200.000	0.039	-0.239
-734.010	800.000	-0.108	-0.358
-732.996	-50.615	0.044	-0.021
-731.981	-200.000	-0.034	-0.396
-730.966	68.356	0.274	0.287
-729.952	-104.603	0.168	-0.040
-728.937	-87.032	-0.292	-0.091
-727.923	30.988	0.210	0.184
-726.908	-90.769	-0.221	-0.065
-725.894	-126.426	0.196	-0.030
-724.879	-200.000	0.015	0.307
-723.864	-118.951	0.303	0.054
-722.850	496.346	0.071	-0.168
-721.835	-200.000	-0.033	-0.184
-720.821	16.177	-0.164	-0.132
-719.806	800.000	0.020	0.065
-718.791	69.701	-0.126	-0.132
-717.777	60.275	0.247	-0.250
-716.762	800.000	0.043	-0.132
-715.748	800.000	-0.018	0.074
-714.733	800.000	-0.090	-0.299
-713.718	-117.756	0.208	-0.038
-712.704	104.347	0.205	0.246
-711.689	-200.000	-0.009	-0.575
-710.675	123.268	0.077	-0.098
-709.660	-16.349	-0.208	0.135
-708.645	26.611	0.090	-0.077
-707.631	-200.000	0.011	0.151
-706.616	-61.452	0.024	0.010
-705.602	-122.559	-0.143	-0.024
-704.587	193.938	0.070	-0.109
-703.572	800.000	0.059	0.176
-702.558	562.448	-0.122	-0.301
-701.543	-68.219	-0.364	-0.145
-700.529	699.482	0.092	-0.247
-699.514	-94.988	-0.415	-0.115
-698.499	-57.656	-0.088	0.039
-697.485	-171.795	0.318	0.011
-696.470	-138.018	0.084	0.010
-695.456	800.000	-0.118	0.498
-694.441	786.350	0.096	0.268
-693.426	36.065	0.187	-0.168
-692.412	482.376	0.112	0.260
-691.397	38.652	0.271	-0.247
-690.383	-200.000	0.031	-0.441
-689.368	-46.081	-0.341	0.172
-688.354	33.662	0.049	-0.044
-687.339	116.090	-0.055	-0.069
-686.324	-46.810	-0.183	0.091
-685.310	101.652	-0.097	-0.116
-684.295	211.109	-0.102	-0.163
-683.281	-123.816	-0.058	0.009
-682.266	16.121	-0.318	0.256
-681.251	211.642	-0.047	-0.076
-680.237	-103.849	-0.592	-0.141
-679.222	-200.000	-0.037	-0.218
-678.208	800.000	-0.102	0.344
-677.193	702.012	0.030	0.080
-676.178	-93.433	-0.204	-0.058
-675.164	-200.000	-0.019	-0.187
-674.149	-75.144	0.157	-0.057
-673.135	-32.054	-0.228	-0.130
-672.120	30.245	-0.062	0.054
-671.105	56.946	0.255	0.254
-670.091	800.000	0.097	-0.298
-669.076	795.904	-0.149	-0.419
-668.062	215.904	-0.119	-0.193
-667.047	49.554	0.103	-0.099
-666.032	-74.003	-0.169	0.063
-665.018	-51.091	-0.141	-0.068
-664.003	-67.430	-0.253	-0.101
-662.989	82.903	-0.089	0.099
-661.974	-200.000	-0.006	-0.102
-660.959	-64.167	-0.129	0.054
-659.945	1.135	0.141	0.103
-658.930	155.330	-0.039	0.055
-657.916	-100.285	-0.480	0.122
-656.901	-193.835	-0.194	-0.002
-655.886	800.000	0.055	-0.171
-654.872	-52.696	-0.123	0.058
-653.857	522.283	0.040	0.095
-652.843	-200.000	0.017	-0.089
-651.828	90.875	0.276	0.315
-650.814	-200.000	-0.040	0.186
-649.799	-83.882	-0.113	0.037
-648.784	-200.000	0.001	0.279
-647.770	-59.856	0.219	-0.096
-646.755	-148.807	-0.326	-0.027
-645.741	63.781	0.251	-0.257
-644.726	-200.000	-0.023	0.108
-643.711	-130.588	0.162	-0.022
-642.697	273.039	0.115	-0.207
-641.682	-82.619	-0.218	-0.072
-640.668	800.000	-0.030	0.128
-639.653	151.784	0.043	0.060
-638.638	145.683	-0.076	0.104
-637.624	678.106	0.119	-0.315
-636.609	436.129	-0.172	-0.382
-635.595	800.000	-0.059	-0.215
-634.580	313.161	0.115	-0.221
-633.565	-200.000	-0.021	-0.244
-632.551	-129.387	-0.230	0.032
-631.536	-200.000	0.009	0.498
-630.522	374.282	-0.076	0.157
-629.507	-50.594	-0.094	0.045
-628.492	800.000	0.027	0.100
-627.478	-90.846	-0.398	-0.117
-626.463	161.442	0.213	-0.304
-625.449	15.976	0.160	-0.128
-624.434	-113.537	-0.341	0.068
-623.419	16.941	0.175	0.141
-622.405	-115.664	0.131	0.025
-621.390	-200.000	0.067	-0.434
-620.376	800.000	-0.162	-0.560
-619.361	424.502	-0.040	0.087
-618.346	-200.000	-0.028	0.358
-617.332	-141.777	0.150	-0.015
-616.317	-200.000	0.044	-0.232
-615.303	-200.000	-0.050	-0.278
-614.288	-108.052	0.143	0.032
-613.273	199.913	0.118	0.185
-612.259	-200.000	0.035	-0.181
-611.244	-200.000	-0.019	0.259
-610.230	-54.214	0.136	-0.063
-609.215	-41.745	-0.161	-0.084
-608.201	-94.735	0.223	-0.062
-607.186	222.608	0.175	0.286
-606.171	135.051	-0.159	-0.210
-605.157	284.857	0.151	0.276
-604.142	-200.000	-0.009	0.113
-603.128	-77.486	0.137	0.048
-602.113	129.851	-0.027	-0.035
-601.098	800.000	-0.097	0.306
-600.084	502.940	0.069	0.163
-599.069	23.118	-0.147	-0.123
-598.055	314.581	0.064	0.123
-597.040	25.895	-0.026	0.022
-596.025	-99.211	0.186	0.048
-595.011	-200.000	-0.039	-0.228
-593.996	337.549	-0.159	-0.315
-592.982	-114.935	0.271	-0.052
-591.967	30.042	-0.229	0.199
-590.952	-120.412	-0.109	-0.019
-589.938	-200.000	-0.017	0.312
-588.923	-13.593	-0.181	0.119
-587.909	54.930	-0.039	0.038
-586.894	-133.389	-0.048	0.006
-585.879	-84.264	0.234	0.076
-584.865	172.239	0.095	-0.139
-583.850	65.571	-0.109	-0.112
-582.836	0.522	-0.049	0.036
-581.821	17.807	-0.148	0.120
-580.806	800.000	0.057	0.197
-579.792	-65.511	0.251	0.102
-578.777	97.388	-0.207	0.241
-577.763	267.313	0.115	-0.204
-576.748	800.000	-0.034	-0.147
-575.733	-148.579	0.419	-0.035
-574.719	57.165	0.270	0.267
-573.704	265.391	0.097	0.171
-572.690	-44.122	-0.151	-0.077
-571.675	-200.000	-0.023	0.108
-570.661	-180.855	-0.378	-0.008
-569.646	-105.937	-0.241	0.055
-568.631	203.810	0.170	-0.267
-567.617	-37.903	0.131	-0.071
-566.602	166.105	0.200	0.288
-565.588	-189.347	0.350	-0.004
-564.573	-73.513	-0.077	-0.029
-563.558	-43.071	0.191	-0.098
-562.544	-73.839	-0.195	-0.072
-561.529	800.000	-0.098	0.300
-560.515	-111.213	0.253	-0.053
-559.500	-119.493	-0.183	0.032
-558.485	-97.107	0.257	-0.068
-557.471	-84.104	-0.087	0.028
-556.456	382.152	0.172	0.358
-555.442	-16.014	0.052	-0.033
-554.427	-200.000	-0.080	0.437
-553.412	161.602	-0.123	0.175
-552.398	263.338	-0.008	0.014
-551.383	468.324	-0.025	-0.057
-550.369	-14.038	0.237	-0.155
-549.354	332.088	0.101	0.198
-548.339	-200.000	-0.015	0.198
-547.325	176.655	0.075	0.111
-546.310	118.881	-0.053	0.066
-545.296	54.561	-0.123	0.120
-544.281	8.263	-0.082	-0.062
-543.266	-31.230	0.082	-0.047
-542.252	-7.250	-0.117	0.081
-541.237	120.658	-0.234	0.296
-540.223	800.000	0.040	0.119
-539.208	-34.874	0.087	-0.048
-538.193	-126.003	0.343	0.052
-537.179	295.280	-0.049	0.091
-536.164	-79.826	0.357	-0.122
-535.150	22.200	-0.055	-0.045
-534.135	-125.636	-0.114	-0.018
-533.121	71.481	-0.070	0.074
-532.106	744.815	-0.070	-0.190
-531.091	401.413	0.031	-0.066
-530.077	78.138	0.161	-0.174
-529.062	800.000	-0.062	-0.213
-528.048	-200.000	-0.001	-0.127
-527.033	800.000	-0.076	0.325
-526.018	3.092	0.061	0.045
-525.004	-60.361	-0.145	0.063
-523.989	-116.067	-0.386	-0.073
-522.975	16.170	0.021	0.017
-521.960	-75.641	-0.242	0.087
-520.945	182.931	0.174	-0.260
-519.931	800.000	-0.025	0.087
-518.916	-79.327	-0.112	-0.039
-517.902	49.866	0.035	-0.033
-516.887	-200.000	-0.017	-0.317
-515.872	66.094	-0.189	-0.195
-514.858	800.000	-0.033	-0.130
-513.843	-3.610	0.023	-0.016
-512.829	-200.000	0.024	-0.159
-511.814	-50.288	-0.422	0.202
-510.799	-68.421	0.254	0.100
-509.785	-115.468	-0.223	0.043
-508.770	-200.000	0.026	0.339
-507.756	-68.757	-0.048	0.019
-506.741	-200.000	-0.059	-0.321
-505.726	800.000	-0.075	-0.219
-504.712	-30.873	0.051	0.029
-503.697	-200.000	0.019	-0.267
-502.683	-44.123	0.049	-0.025
-501.668	-31.118	0.165	-0.094
-500.653	-128.540	-0.108	-0.015
-499.639	800.000	0.018	-0.054
-498.624	-28.570	0.195	0.114
-497.610	464.853	-0.107	-0.243
-496.595	-200.000	0.009	-0.418
-495.581	-134.540	-0.138	-0.017
-494.566	48.305	0.033	-0.031
-493.551	560.540	0.095	0.232
-492.537	-200.000	-0.037	0.358
-491.522	-200.000	0.008	0.072
-490.508	-62.937	-0.125	-0.053
-489.493	-110.495	-0.380	0.080
-488.478	-200.000	-0.025	-0.171
-487.464	171.914	0.123	0.179
-486.449	-42.065	-0.202	0.105
-485.435	-65.525	0.168	-0.068
-484.420	-131.030	0.108	-0.015
-483.405	-119.722	-0.127	-0.022
-482.391	800.000	0.068	0.295
-481.376	-62.039	-0.107	-0.045
-480.362	-12.441	-0.207	0.137
-479.347	-141.058	0.062	-0.006
-478.332	-153.822	-0.145	0.010
-477.318	-129.736	0.569	0.079
-476.303	-137.176	0.161	0.019
-475.289	103.143	-0.078	-0.093
-474.274	194.292	0.205	-0.315
-473.259	-200.000	-0.022	-0.107
-472.245	-47.412	-0.018	0.009
-471.230	800.000	-0.069	0.292
-470.216	-54.207	0.365	0.168
-469.201	-110.661	0.285	-0.060
-468.186	-181.478	-0.099	-0.002
-467.172	-93.079	-0.158	0.044
-466.157	-200.000	0.030	0.197
-465.143	-41.072	-0.214	-0.112
-464.128	-141.670	-0.135	0.014
-463.113	-200.000	0.016	-0.333
-462.099	800.000	-0.030	-0.113
-461.084	53.910	-0.107	-0.104
-460.070	310.335	0.103	0.195
-459.055	-26.744	-0.077	0.046
-458.040	119.698	0.231	-0.289
-457.026	-39.013	-0.038	-0.020
-456.011	26.992	-0.039	-0.033
-454.997	-200.000	-0.029	0.137
-453.982	-14.169	0.030	0.020
-452.968	286.332	0.072	-0.131
-451.953	71.885	0.055	0.058
-450.938	-104.468	0.212	-0.049
-449.924	-136.079	-0.338	-0.040
-448.909	-3.637	-0.156	-0.110
-447.895	-200.000	0.048	-0.321
-446.880	176.519	0.179	-0.263
-445.865	-30.210	0.162	0.093
-444.851	13.033	-0.055	-0.043
-443.836	-18.715	-0.165	0.104
-442.822	118.144	0.121	-0.151
-441.807	-86.170	0.210	0.065
-440.792	103.073	-0.029	-0.035
-439.778	311.305	0.027	-0.051
-438.763	-182.432	0.338	0.006
-437.749	-113.819	0.259	0.051
-436.734	4.071	0.209	0.155
-435.719	800.000	-0.023	-0.097
-434.705	160.977	-0.067	-0.094
-433.690	67.504	0.080	0.082
-432.676	-200.000	-0.037	0.252
-431.661	-36.808	0.137	-0.075
-430.646	-171.957	-0.237	-0.008
-429.632	-54.503	-0.156	0.072
-428.617	-34.356	0.131	0.073
-427.603	-48.705	0.153	-0.074
-426.588	99.025	0.140	-0.163
-425.573	69.909	0.191	-0.199
-424.559	99.767	0.098	0.115
-423.544	-200.000	0.102	0.646
-422.530	-44.387	-0.059	0.030
-421.515	150.391	0.123	0.169
-420.500	-46.531	-0.124	0.062
-419.486	-200.000	0.056	-0.475
-418.471	140.674	0.058	0.077
-417.457	800.000	0.027	-0.083
-416.442	81.808	0.091	-0.100
-415.428	-14.171	0.070	-0.046
-414.413	223.232	0.122	-0.199
-413.398	-81.169	0.309	0.103
-412.384	800.000	-0.047	-0.180
-411.369	-200.000	0.011	-0.419
-410.355	134.168	-0.057	-0.075
-409.340	-93.466	0.204	-0.057
-408.325	-200.000	0.010	0.071
-407.311	253.929	0.105	-0.181
-406.296	121.488	-0.119	-0.150
-405.282	-200.000	-0.013	-0.161
-404.267	-11.509	0.227	0.151
-403.252	-27.828	-0.265	0.155
-402.238	-91.522	0.096	-0.028
-401.223	497.303	0.045	-0.104
-400.209	-34.469	-0.214	-0.119
-399.194	-39.593	0.237	0.125
-398.179	132.548	0.112	0.146
-397.165	162.447	0.091	0.128
-396.150	-161.355	-0.109	-0.006
-395.136	-98.267	-0.144	-0.037
-394.121	-200.000	0.013	0.358
-393.106	800.000	-0.104	0.321
-392.092	152.018	0.083	-0.114
-391.077	46.101	-0.216	-0.202
-390.063	-172.808	-0.299	0.009
-389.048	-200.000	0.031	0.304
-388.033	60.859	0.124	0.125
-387.019	-200.000	0.013	0.300
-386.004	-82.266	0.095	-0.031
-384.990	-41.210	-0.360	0.187
-383.975	800.000	0.058	-0.172
-382.960	-200.000	-0.031	-0.263
-381.946	-200.000	-0.007	-0.193
-380.931	317.370	-0.157	-0.300
-379.917	-168.352	0.300	0.012
-378.902	101.313	0.010	0.011
-377.888	6.612	-0.144	0.108
-376.873	800.000	0.032	0.121
-375.858	179.412	0.013	-0.020
-374.844	243.914	0.057	0.096
-373.829	-122.273	-0.244	0.040
-372.815	538.481	-0.140	-0.336
-371.800	800.000	0.031	0.108
-370.785	-200.000	0.023	0.180
-369.771	-135.484	0.180	-0.022
-368.756	-98.127	-0.337	-0.087
-367.742	800.000	-0.093	-0.269
-366.727	-200.000	-0.002	0.279
-365.712	296.046	-0.138	0.255
-364.698	319.044	0.103	-0.197
-363.683	-105.821	0.210	-0.048
-362.669	-200.000	0.012	0.257
-361.654	1.526	0.168	0.122
-360.639	417.077	0.110	0.237
-359.625	800.000	-0.053	-0.177
-358.610	299.365	0.122	-0.226
-357.596	47.934	-0.093	-0.088
-356.581	-173.330	-0.498	0.015
-355.566	-120.445	-0.154	-0.026
-354.552	23.534	0.035	0.029
-353.537	-46.772	-0.298	0.147
-352.523	-137.032	0.149	0.017
-351.508	460.677	-0.226	0.508
-350.493	-21.637	0.169	0.104
-349.479	-25.258	0.098	-0.058
-348.464	-59.518	0.217	-0.094
-347.450	96.056	0.084	-0.097
-346.435	-200.000	0.020	-0.168
-345.420	-80.111	-0.209	-0.071
-344.406	-200.000	0.005	-0.086
-343.391	4.671	-0.225	0.167
-342.377	-81.206	-0.225	-0.075
-341.362	-69.210	-0.023	-0.009
-340.348	356.368	0.131	0.263
-339.333	-200.000	0.062	0.334
-338.318	-30.882	-0.262	-0.149
-337.304	800.000	-0.080	0.337
-336.289	-70.224	-0.223	0.085
-335.275	-80.637	0.076	-0.025
-334.260	-106.734	0.351	-0.079
-333.245	-48.533	0.313	0.152
-332.231	800.000	-0.145	0.407
-331.216	174.373	0.066	-0.096
-330.202	258.074	0.017	0.029
-329.187	216.446	0.009	0.015
-328.172	-136.851	0.176	-0.020
-327.158	497.591	0.063	-0.146
-326.143	-118.715	0.124	0.022
-325.129	-100.203	0.299	-0.075
-324.114	86.554	0.273	0.303
-323.099	-89.939	-0.204	0.060
-322.085	215.351	-0.116	0.186
-321.070	800.000	-0.050	-0.203
-320.056	-200.000	-0.035	-0.217
-319.041	-200.000	-0.003	-0.390
-318.026	145.292	-0.136	-0.184
-317.012	125.123	-0.231	0.293
-315.997	-24.577	-0.181	-0.108
-314.983	800.000	-0.031	0.119
-313.968	207.604	0.060	-0.094
-312.953	800.000	-0.040	-0.152
-311.939	463.182	0.037	-0.084
-310.924	243.848	-0.010	-0.017
-309.910	800.000	-0.026	0.112
-308.895	125.042	-0.146	0.185
-307.880	-143.705	0.043	0.004
-306.866	280.616	0.105	0.189
-305.851	90.026	-0.057	0.064
-304.837	800.000	0.024	-0.078
-303.822	149.769	0.080	0.109
-302.807	411.467	-0.207	-0.442
-301.793	-161.045	0.155	-0.008
-300.778	800.000	0.136	0.485
-299.764	800.000	-0.013	-0.037
-298.749	800.000	-0.064	-0.188
-297.735	512.697	-0.051	0.118
-296.720	800.000	-0.020	0.074
-295.705	796.799	-0.073	-0.201
-294.691	34.117	0.214	0.187
-293.676	96.119	-0.174	-0.200
-292.662	800.000	-0.045	0.144
-291.647	-137.254	-0.348	0.040
-290.632	376.085	0.081	-0.167
-289.618	214.507	-0.151	0.240
-288.603	800.000	0.069	0.276
-287.589	-0.010	-0.230	-0.164
-286.574	-152.535	0.088	-0.006
-285.559	-200.000	-0.003	-0.122
-284.545	-9.634	-0.061	0.041
-283.530	-35.773	-0.154	-0.084
-282.516	73.172	0.189	-0.199
-281.501	-53.961	-0.333	-0.153
-280.486	-105.011	0.372	-0.086
-279.472	250.836	0.066	-0.113
-278.457	-11.615	-0.093	0.061
-277.443	5.459	-0.134	0.100
-276.428	-32.090	0.193	-0.109
-275.413	54.666	-0.108	0.105
-274.399	142.117	-0.297	0.396
-273.384	13.645	0.065	0.050
-272.370	-93.724	-0.293	0.081
-271.355	-107.404	-0.254	0.056
-270.340	-64.471	0.130	0.053
-269.326	-200.000	-0.038	0.324
-268.311	-123.922	0.203	0.032
-267.297	111.628	0.287	0.348
-266.282	247.538	0.111	0.189
-265.267	8.100	-0.047	0.035
-264.253	800.000	-0.064	-0.269
-263.238	-57.027	-0.201	0.089
-262.224	176.333	0.065	-0.095
-261.209	49.840	0.141	0.134
-260.195	739.384	-0.067	-0.181
-259.180	800.000	0.030	0.093
-258.165	-200.000	-0.017	-0.174
-257.151	-200.000	0.016	-0.221
-256.136	-33.470	0.200	-0.111
-255.122	-134.203	0.271	0.034
-254.107	106.864	0.105	-0.125
-253.092	176.996	0.044	-0.064
-252.078	292.464	-0.087	-0.159
-251.063	-200.000	0.033	-0.333
-250.049	586.056	0.089	-0.219
-249.034	102.326	0.069	-0.081
-248.019	-200.000	0.064	0.309
-247.005	73.579	0.301	-0.316
-245.990	-7.957	-0.198	-0.134
-244.976	73.637	-0.059	0.062
-243.961	-200.000	-0.047	0.402
-242.946	56.643	0.109	-0.107
-241.932	115.819	-0.272	0.334
-240.917	-200.000	-0.037	-0.186
-239.903	595.967	-0.119	-0.296
-238.888	800.000	-0.026	0.100
-237.873	800.000	0.027	0.095
-236.859	142.170	-0.029	0.039
-235.844	125.166	-0.114	-0.144
-234.830	56.335	-0.198	0.193
-233.815	-90.830	-0.141	-0.041
-232.800	50.649	-0.132	-0.126
-231.786	47.641	0.252	-0.236
-230.771	-26.200	0.076	-0.045
-229.757	55.413	0.027	0.026
-228.742	-200.000	0.021	-0.315
-227.727	800.000	0.058	-0.175
-226.713	-72.090	0.129	0.048
-225.698	-62.163	0.430	0.180
-224.684	-103.454	-0.138	0.033
-223.669	-53.151	-0.121	0.056
-222.655	117.187	-0.138	0.170
-221.640	-200.000	0.035	0.312
-220.625	12.792	0.101	0.078
-219.611	-153.426	-0.225	0.016
-218.596	-200.000	-0.015	0.144
-217.582	-146.878	0.171	0.015
-216.567	800.000	0.031	-0.125
-215.552	-73.119	-0.057	0.021
-214.538	-55.833	-0.068	0.030
-213.523	105.067	-0.156	-0.185
-212.509	-100.593	0.020	0.005
-211.494	459.237	0.067	0.150
-210.479	-41.058	0.214	-0.111
-209.465	194.889	-0.111	0.169
-208.450	183.042	-0.097	0.144
-207.436	243.135	-0.029	0.048
-206.421	-121.606	0.306	0.051
-205.406	-200.000	-0.017	0.126
-204.392	114.510	-0.091	-0.111
-203.377	-122.858	0.240	0.039
-202.363	-38.242	-0.146	-0.078
-201.348	170.421	0.115	0.165
-200.333	800.000	-0.079	-0.240
-199.319	-60.100	0.067	-0.029
-198.304	240.049	-0.138	-0.230
-197.290	800.000	0.050	0.193
-196.275	20.592	0.249	0.202
-195.260	-200.000	-0.052	0.320
-194.246	177.830	0.075	-0.110
-193.231	-200.000	-0.001	-0.049
-192.217	-200.000	0.005	0.085
-191.202	101.160	0.193	0.224
-190.187	-170.344	-0.143	0.005
-189.173	-34.590	-0.140	-0.077
-188.158	-90.305	0.254	0.074
-187.144	-30.552	-0.282	-0.160
-186.129	-7.374	0.141	-0.095
-185.114	-154.646	-0.302	-0.020
-184.100	498.781	0.067	0.154
-183.085	-200.000	-0.014	-0.184
-182.071	-115.659	0.108	-0.020
-181.056	-42.581	-0.202	0.103
-180.042	-200.000	-0.001	-0.129
-179.027	-47.114	-0.367	-0.179
-178.012	-200.000	-0.060	0.288
-176.998	-200.000	0.005	0.029
-175.983	98.407	0.037	0.043
-174.969	35.910	0.133	0.117
-173.954	112.669	0.112	0.135
-172.939	-62.642	0.190	-0.079
-171.925	-200.000	0.011	-0.160
-170.910	144.267	0.205	-0.273
-169.896	59.964	0.137	0.136
-168.881	-84.428	-0.392	0.124
-167.866	-194.597	-0.435	-0.003
-166.852	280.758	0.112	-0.201
-165.837	161.356	-0.071	-0.099
-164.823	117.508	0.049	-0.061
-163.808	-96.242	-0.142	-0.038
-162.793	-91.994	0.189	0.053
-161.779	-70.444	0.277	-0.105
-160.764	-72.924	0.242	-0.089
-159.750	297.230	-0.117	0.215
-158.735	-115.876	-0.191	0.036
-157.720	-165.224	-0.175	-0.008
-156.706	-174.771	-0.192	0.005
-155.691	-158.738	0.177	-0.010
-154.677	753.700	-0.155	-0.418
-153.662	-82.400	-0.412	-0.134
-152.647	605.195	-0.084	-0.210
-151.633	800.000	-0.132	-0.443
-150.618	-139.817	0.104	0.011
-149.604	47.862	0.161	0.150
-148.589	192.623	-0.025	0.038
-147.574	145.577	0.174	-0.234
-146.560	-73.530	0.178	-0.065
-145.545	201.398	-0.041	-0.064
-144.531	-16.588	0.206	0.131
-143.516	-50.439	0.206	-0.097
-142.502	185.543	-0.037	0.055
-141.487	-24.638	0.058	-0.034
-140.472	-36.678	0.132	0.071
-139.458	444.756	0.051	-0.111
-138.443	800.000	-0.086	-0.290
-137.429	-59.334	-0.202	0.087
-136.414	-192.961	-0.223	-0.002
-135.399	-95.654	0.395	-0.106
-134.385	275.697	0.144	0.255
-133.370	345.695	0.040	-0.079
-132.356	120.373	0.152	-0.188
-131.341	-124.152	0.220	-0.034
-130.326	-166.956	-0.103	0.004
-129.312	-50.945	0.183	0.086
-128.297	316.650	-0.078	0.146
-127.283	800.000	-0.025	-0.108
-126.268	69.433	-0.017	-0.018
-125.253	-108.020	0.195	-0.042
-124.239	-82.809	-0.195	-0.063
-123.224	271.212	-0.270	-0.476
-122.210	-88.884	0.171	-0.051
