DTS Sentinel unit serial number:	SN413079Multiplexer serial number:	ORYXHardware model number:	OX4-SRSoftware version number:	ORYX F/W v4.00 Oryx Data Collector v3.7.2.0data status	okinstallation	princeton_trtdifferential loss correction	single-endedforward channel	channel 3reverse channel	N/Adate	2019/09/10time	16:34:11forward acquisition time	60.00reverse acquisition time	0.00gamma	496.2192k internal	0.2299k external	0.2299temperature offset calibration	0.9914default loss term (dB/km)	0.3790temperature slope calibration	1.0000multiplexer offset coefficient	1.0000multiplexer slope coefficient	1.0000fibre end	0.00T internal ref (°C)	37.94T ext. ref 1 (°C)	-0.28T ext. ref 2 (°C)	29.77length (m)	temperature (°C)	Stokes	anti-Stokes-747.200	-169.433	0.136	-0.005
-746.185	800.000	0.116	0.377
-745.171	39.393	0.180	0.164
-744.156	800.000	0.095	0.296
-743.142	57.180	0.115	-0.114
-742.127	-22.912	-0.210	0.129
-741.112	-200.000	0.014	0.139
-740.098	-200.000	0.082	0.417
-739.083	800.000	-0.054	0.173
-738.069	-12.789	-0.296	0.197
-737.054	-11.622	-0.140	-0.094
-736.039	241.199	-0.202	-0.343
-735.025	-3.484	0.212	0.151
-734.010	70.510	-0.257	0.271
-732.996	800.000	-0.056	0.210
-731.981	285.491	0.027	-0.050
-730.966	-200.000	0.028	0.150
-729.952	-200.000	-0.036	0.258
-728.937	-200.000	-0.021	-0.342
-727.923	398.018	0.135	0.289
-726.908	308.479	-0.105	-0.200
-725.894	139.692	-0.053	-0.072
-724.879	-67.426	-0.165	0.066
-723.864	-200.000	-0.066	-0.316
-722.850	-84.526	0.235	0.076
-721.835	-200.000	-0.062	0.303
-720.821	-103.334	-0.267	-0.064
-719.806	135.646	0.061	0.081
-718.791	800.000	-0.060	-0.229
-717.777	55.765	-0.312	0.309
-716.762	112.151	-0.217	-0.267
-715.748	88.023	0.170	-0.192
-714.733	-76.450	0.284	-0.102
-713.718	39.459	0.117	0.107
-712.704	89.317	-0.141	-0.160
-711.689	142.636	-0.131	-0.177
-710.675	-19.915	-0.064	0.040
-709.660	-114.068	0.006	-0.001
-708.645	-98.330	-0.335	-0.088
-707.631	26.342	0.127	0.108
-706.616	13.426	-0.284	-0.225
-705.602	78.155	-0.036	0.039
-704.587	83.517	-0.267	-0.296
-703.572	-50.918	0.127	-0.061
-702.558	-2.507	0.188	0.134
-701.543	299.619	0.071	-0.133
-700.529	-132.711	-0.081	-0.011
-699.514	-200.000	0.014	-0.137
-698.499	-200.000	0.027	0.194
-697.485	36.828	-0.135	0.122
-696.470	-68.583	-0.468	-0.185
-695.456	800.000	0.093	-0.333
-694.441	800.000	-0.046	-0.186
-693.426	363.951	0.142	-0.292
-692.412	-36.992	0.078	-0.042
-691.397	563.305	0.020	-0.050
-690.383	-150.195	-0.084	0.007
-689.368	-16.905	-0.121	-0.078
-688.354	103.320	0.284	-0.339
-687.339	-153.454	0.236	0.017
-686.324	5.464	-0.198	-0.149
-685.310	-200.000	0.021	-0.266
-684.295	800.000	-0.049	-0.214
-683.281	86.986	0.163	-0.183
-682.266	50.433	-0.087	-0.083
-681.251	800.000	0.096	0.397
-680.237	-200.000	0.012	0.105
-679.222	228.546	-0.067	-0.112
-678.208	800.000	0.090	0.322
-677.193	-200.000	-0.037	0.173
-676.178	-162.761	0.165	-0.008
-675.164	-161.301	0.255	-0.013
-674.149	-193.625	-0.506	0.004
-673.135	800.000	0.071	0.212
-672.120	325.849	-0.073	0.142
-671.105	24.927	0.106	-0.090
-670.091	299.101	-0.121	-0.226
-669.076	-200.000	0.018	-0.174
-668.062	-169.784	0.213	0.008
-667.047	-108.929	-0.253	-0.055
-666.032	95.806	0.100	-0.116
-665.018	-91.782	-0.245	0.071
-664.003	-90.176	-0.127	-0.038
-662.989	-96.301	-0.240	-0.065
-661.974	-200.000	-0.041	-0.369
-660.959	-117.199	0.235	-0.043
-659.945	69.719	-0.316	-0.332
-658.930	-172.456	0.233	-0.008
-657.916	-200.000	0.023	-0.147
-656.901	32.900	0.184	-0.162
-655.886	800.000	0.063	-0.249
-654.872	-120.604	-0.090	-0.016
-653.857	-200.000	-0.003	0.108
-652.843	-171.669	-0.118	-0.004
-651.828	205.988	-0.033	0.053
-650.814	-76.118	-0.209	-0.075
-649.799	-99.551	0.285	-0.073
-648.784	-114.006	0.129	-0.025
-647.770	609.346	0.179	-0.454
-646.755	303.158	0.039	0.074
-645.741	-93.627	-0.077	-0.022
-644.726	-56.602	-0.416	-0.187
-643.711	-144.874	-0.405	-0.038
-642.697	-123.650	0.105	0.017
-641.682	29.073	-0.193	-0.166
-640.668	-7.915	-0.328	-0.225
-639.653	-108.401	0.167	0.037
-638.638	-200.000	0.042	0.217
-637.624	121.403	-0.120	-0.153
-636.609	-200.000	-0.038	-0.261
-635.595	-24.278	0.166	-0.101
-634.580	-62.833	0.370	-0.156
-633.565	102.950	-0.145	0.172
-632.551	-123.293	0.164	0.027
-631.536	-110.938	-0.372	0.078
-630.522	237.173	0.301	0.507
-629.507	50.349	-0.253	-0.243
-628.492	-26.052	-0.048	0.029
-627.478	-200.000	-0.031	0.265
-626.463	-53.430	0.373	0.174
-625.449	-200.000	0.075	-0.358
-624.434	172.834	-0.101	-0.148
-623.419	-128.375	0.126	0.018
-622.405	-10.171	0.118	-0.079
-621.390	800.000	-0.057	0.205
-620.376	-41.560	-0.202	0.106
-619.361	-124.274	0.344	-0.055
-618.346	16.299	-0.246	-0.197
-617.332	9.324	-0.075	-0.058
-616.317	120.089	0.282	-0.355
-615.303	-187.827	0.108	0.001
-614.288	198.313	0.095	0.147
-613.273	-11.437	0.085	0.056
-612.259	275.392	-0.093	0.168
-611.244	357.818	0.055	-0.112
-610.230	-200.000	0.036	-0.441
-609.215	-148.584	0.087	-0.007
-608.201	-62.810	0.141	0.059
-607.186	95.664	-0.212	-0.245
-606.171	-20.506	0.096	0.060
-605.157	800.000	-0.027	0.082
-604.142	15.225	-0.213	0.169
-603.128	410.027	-0.058	-0.125
-602.113	66.800	-0.112	0.116
-601.098	561.529	-0.042	-0.104
-600.084	-70.753	-0.203	0.078
-599.069	-159.635	0.012	0.001
-598.055	-200.000	0.011	0.099
-597.040	-174.044	-0.176	-0.005
-596.025	-111.059	-0.292	0.061
-595.011	-65.768	-0.294	0.120
-593.996	800.000	-0.093	0.332
-592.982	800.000	0.052	-0.152
-591.967	-200.000	0.040	-0.351
-590.952	786.029	0.106	-0.296
-589.938	-55.228	-0.250	0.114
-588.923	332.314	0.046	0.090
-587.909	-200.000	0.049	-0.412
-586.894	-62.066	0.297	-0.126
-585.879	-200.000	0.067	0.465
-584.865	61.536	0.192	-0.193
-583.850	188.237	-0.160	-0.243
-582.836	-56.241	0.043	-0.019
-581.821	-200.000	-0.064	0.347
-580.806	-66.280	0.104	0.042
-579.792	65.348	-0.041	0.042
-578.777	-64.309	0.112	-0.046
-577.763	134.058	0.094	0.123
-576.748	-40.759	0.464	0.244
-575.733	-200.000	-0.033	0.291
-574.719	-9.285	0.397	-0.269
-573.704	-200.000	-0.035	-0.206
-572.690	153.662	0.120	0.167
-571.675	-31.813	-0.350	0.199
-570.661	83.329	-0.077	-0.085
-569.646	416.765	-0.077	-0.167
-568.631	197.449	-0.031	-0.049
-567.617	-200.000	0.006	-0.050
-566.602	-119.260	-0.128	0.023
-565.588	-115.240	0.319	0.061
-564.573	800.000	0.031	-0.087
-563.558	430.989	-0.044	-0.097
-562.544	411.805	0.188	0.404
-561.529	-200.000	0.002	0.238
-560.515	81.178	-0.034	0.037
-559.500	1.313	0.167	0.121
-558.485	315.111	0.131	0.251
-557.471	-139.984	-0.140	-0.015
-556.456	22.447	-0.100	-0.083
-555.442	-122.838	-0.224	-0.037
-554.427	-110.905	0.249	-0.052
-553.412	16.508	0.031	-0.024
-552.398	-95.585	0.111	0.030
-551.383	389.963	0.117	0.246
-550.369	150.274	0.225	-0.310
-549.354	-17.869	-0.190	0.121
-548.339	699.783	0.059	0.158
-547.325	-82.551	-0.146	-0.048
-546.310	-71.222	-0.334	0.127
-545.296	228.905	-0.131	-0.217
-544.281	-175.409	0.148	0.004
-543.266	800.000	-0.041	0.125
-542.252	-45.382	-0.217	-0.109
-541.237	-200.000	0.032	0.211
-540.223	-200.000	0.077	-0.429
-539.208	78.029	-0.220	-0.238
-538.193	-72.228	-0.185	-0.069
-537.179	-109.951	-0.243	-0.052
-536.164	-104.673	0.107	-0.025
-535.150	-17.600	-0.350	0.223
-534.135	341.325	-0.021	-0.041
-533.121	5.392	-0.132	0.098
-532.106	800.000	0.022	0.087
-531.091	300.308	-0.151	0.283
-530.077	81.270	0.213	0.232
-529.062	145.115	0.192	-0.260
-528.048	-29.915	-0.103	0.059
-527.033	65.642	-0.042	0.043
-526.018	-4.293	0.082	0.057
-525.004	-200.000	-0.014	-0.060
-523.989	-200.000	-0.037	0.245
-522.975	-147.218	0.224	0.019
-521.960	-10.633	-0.250	-0.168
-520.945	231.906	0.151	-0.250
-519.931	253.501	-0.156	0.270
-518.916	-200.000	-0.016	-0.146
-517.902	191.552	0.123	-0.188
-516.887	-12.472	-0.273	-0.180
-515.872	325.337	-0.058	0.113
-514.858	800.000	-0.081	-0.231
-513.843	-88.512	0.379	-0.114
-512.829	-200.000	-0.012	-0.124
-511.814	4.733	0.057	0.043
-510.799	29.841	-0.228	0.196
-509.785	-46.584	0.239	0.118
-508.770	-115.176	-0.142	0.027
-507.756	-142.424	-0.210	0.021
-506.741	199.325	0.190	-0.295
-505.726	800.000	-0.111	0.398
-504.712	192.343	-0.243	0.370
-503.697	-108.817	-0.237	0.051
-502.683	-109.378	0.360	-0.077
-501.668	292.175	-0.277	0.509
-500.653	-200.000	-0.010	0.087
-499.639	-200.000	0.016	-0.150
-498.624	57.222	0.163	-0.161
-497.610	35.450	0.076	0.068
-496.595	-200.000	0.001	-0.013
-495.581	-13.481	0.007	0.005
-494.566	-58.596	-0.345	0.151
-493.551	800.000	-0.078	0.303
-492.537	-200.000	-0.025	0.443
-491.522	43.343	0.352	-0.325
-490.508	-56.151	0.354	-0.159
-489.493	23.732	-0.160	-0.133
-488.478	5.618	0.169	-0.126
-487.464	160.579	-0.137	0.194
-486.449	-200.000	0.003	-0.068
-485.435	389.162	0.083	-0.173
-484.420	-99.183	0.203	-0.052
-483.405	800.000	0.094	0.313
-482.391	137.334	0.095	-0.126
-481.376	40.465	-0.205	-0.186
-480.362	-86.721	0.187	-0.058
-479.347	-200.000	0.029	0.214
-478.332	233.549	-0.211	-0.350
-477.318	184.819	-0.119	-0.178
-476.303	-200.000	-0.013	0.208
-475.289	-200.000	0.004	0.022
-474.274	-200.000	0.054	-0.319
-473.259	-100.479	-0.303	0.076
-472.245	603.819	-0.046	-0.116
-471.230	-111.307	-0.146	-0.030
-470.216	-134.270	-0.419	0.052
-469.201	561.079	-0.090	-0.220
-468.186	800.000	0.037	0.115
-467.172	800.000	0.025	0.084
-466.157	-42.474	0.114	-0.059
-465.143	82.331	-0.267	-0.292
-464.128	-2.861	0.411	-0.290
-463.113	-78.867	0.393	0.135
-462.099	-174.566	-0.302	-0.009
-461.084	-107.522	-0.247	-0.055
-460.070	-200.000	-0.004	-0.138
-459.055	17.834	0.225	0.181
-458.040	-10.438	0.286	-0.191
-457.026	364.642	0.039	0.079
-456.011	-67.272	0.205	0.081
-454.997	-81.126	0.201	-0.067
-453.982	377.961	-0.129	-0.266
-452.968	-40.801	-0.126	0.066
-451.953	157.147	0.205	0.286
-450.938	-134.584	-0.238	-0.029
-449.924	58.893	-0.030	-0.030
-448.909	52.669	-0.122	0.117
-447.895	-85.106	-0.204	-0.064
-446.880	-200.000	0.020	0.117
-445.865	-200.000	-0.081	-0.436
-444.851	800.000	-0.126	0.370
-443.836	263.052	-0.118	0.206
-442.822	-91.217	-0.353	-0.102
-441.807	-33.735	0.216	-0.120
-440.792	-200.000	0.030	-0.191
-439.778	-4.089	-0.289	0.202
-438.763	454.001	0.089	0.199
-437.749	-117.869	0.209	0.038
-436.734	716.726	0.065	-0.174
-435.719	-200.000	-0.009	-0.094
-434.705	61.539	0.139	0.140
-433.690	-40.489	-0.440	0.230
-432.676	63.679	-0.184	0.186
-431.661	0.512	0.098	0.071
-430.646	217.298	0.010	0.016
-429.632	-162.049	-0.171	0.009
-428.617	225.459	0.108	-0.176
-427.603	35.340	0.191	-0.169
-426.588	-22.436	0.091	-0.055
-425.573	9.617	0.174	-0.133
-424.559	-11.929	0.181	-0.119
-423.544	-91.609	-0.144	0.041
-422.530	-150.387	-0.043	-0.003
-421.515	212.496	-0.147	0.234
-420.500	-38.872	-0.017	0.009
-419.486	-88.621	-0.101	0.030
-418.471	-102.523	0.088	-0.021
-417.457	-42.728	-0.196	-0.101
-416.442	-94.097	-0.078	0.022
-415.428	109.597	-0.022	-0.026
-414.413	36.808	0.358	0.318
-413.398	800.000	-0.037	0.110
-412.384	-162.732	0.264	0.013
-411.369	800.000	-0.045	-0.174
-410.355	614.550	-0.074	-0.187
-409.340	-137.358	0.412	-0.047
-408.325	-51.112	0.087	0.041
-407.311	268.410	-0.159	-0.280
-406.296	-200.000	0.022	0.136
-405.282	104.343	-0.027	-0.033
-404.267	194.450	-0.077	-0.118
-403.252	348.538	-0.056	0.112
-402.238	-113.081	0.061	0.012
-401.223	21.762	-0.098	0.080
-400.209	-115.654	-0.367	0.069
-399.194	395.529	-0.087	-0.183
-398.179	144.312	-0.108	-0.146
-397.165	59.653	0.204	0.202
-396.150	-159.382	0.109	-0.006
-395.136	696.345	0.036	0.096
-394.121	-123.995	-0.114	-0.018
-393.106	800.000	0.053	-0.204
-392.092	80.019	-0.101	-0.110
-391.077	-1.381	0.229	0.163
-390.063	-86.069	0.008	0.003
-389.048	-200.000	-0.002	-0.038
-388.033	-200.000	0.051	-0.272
-387.019	-117.771	0.111	-0.020
-386.004	110.927	0.274	0.332
-384.990	-84.571	-0.168	0.053
-383.975	-111.131	0.218	0.045
-382.960	68.894	0.296	0.305
-381.946	-48.378	-0.360	0.175
-380.931	800.000	-0.070	0.274
-379.917	482.369	-0.016	0.037
-378.902	-21.651	0.168	-0.103
-377.888	220.242	-0.138	0.222
-376.873	-200.000	0.005	0.026
-375.858	-200.000	0.038	0.266
-374.844	94.709	-0.238	-0.272
-373.829	158.637	-0.051	-0.071
-372.815	103.141	0.019	0.022
-371.800	52.955	-0.180	-0.174
-370.785	800.000	-0.066	-0.269
-369.771	-150.690	0.268	-0.021
-368.756	47.668	0.080	0.075
-367.742	-100.680	-0.226	-0.056
-366.727	7.690	0.213	0.161
-365.712	-23.888	0.266	-0.160
-364.698	-200.000	-0.012	-0.112
-363.683	2.378	-0.022	0.016
-362.669	486.748	-0.091	0.208
-361.654	-200.000	0.002	-0.230
-360.639	-81.821	0.253	0.083
-359.625	13.062	-0.185	-0.144
-358.610	-200.000	-0.019	0.121
-357.596	-65.052	-0.421	-0.171
-356.581	25.769	-0.238	-0.199
-355.566	463.480	-0.088	-0.197
-354.552	487.349	-0.071	-0.162
-353.537	800.000	-0.065	0.193
-352.523	33.771	-0.055	-0.048
-351.508	447.472	0.058	-0.128
-350.493	800.000	0.110	-0.408
-349.479	37.215	0.069	-0.062
-348.464	259.397	0.172	0.298
-347.450	219.493	-0.104	-0.167
-346.435	-200.000	0.030	-0.364
-345.420	-200.000	0.011	-0.140
-344.406	106.999	-0.111	-0.132
-343.391	-61.740	-0.298	0.125
-342.377	-9.061	-0.134	0.090
-341.362	111.370	0.207	0.251
-340.348	-84.244	0.055	-0.018
-339.333	-94.150	0.291	-0.080
-338.318	494.990	-0.097	0.224
-337.304	-14.369	0.261	-0.169
-336.289	374.162	0.076	0.156
-335.275	261.768	0.023	0.040
-334.260	-200.000	-0.027	0.280
-333.245	-33.436	0.271	0.150
-332.231	-34.363	0.045	-0.025
-331.216	-17.460	0.337	-0.213
-330.202	800.000	-0.073	0.253
-329.187	71.328	0.155	0.162
-328.172	-83.835	-0.093	0.030
-327.158	91.282	0.185	0.209
-326.143	-134.618	-0.151	-0.018
-325.129	-113.617	-0.244	0.048
-324.114	-161.430	-0.305	-0.016
-323.099	36.829	0.163	-0.144
-322.085	1.772	0.248	-0.180
-321.070	-200.000	-0.022	0.316
-320.056	-67.071	0.095	-0.038
-319.041	-89.208	-0.036	-0.011
-318.026	29.576	-0.083	0.071
-317.012	268.558	0.109	-0.191
-315.997	800.000	0.149	0.438
-314.983	-139.022	-0.099	-0.011
-313.968	-128.168	0.268	-0.039
-312.953	800.000	0.027	-0.088
-311.939	800.000	0.055	-0.219
-310.924	32.089	-0.193	-0.167
-309.910	-9.956	-0.046	0.031
-308.895	800.000	-0.040	0.165
-307.880	-111.908	-0.091	-0.018
-306.866	25.294	-0.099	-0.082
-305.851	-200.000	0.018	0.117
-304.837	11.861	-0.206	-0.158
-303.822	70.456	0.152	-0.157
-302.807	800.000	-0.062	-0.225
-301.793	-200.000	0.035	-0.192
-300.778	444.437	-0.127	-0.279
-299.764	107.156	0.223	0.266
-298.749	800.000	0.115	0.430
-297.735	-86.890	-0.233	0.071
-296.720	-200.000	-0.034	0.220
-295.705	621.624	0.073	0.184
-294.691	262.319	-0.216	-0.375
-293.676	107.399	0.142	-0.170
-292.662	348.732	0.063	-0.124
-291.647	153.728	-0.102	0.141
-290.632	373.936	0.083	-0.170
-289.618	22.659	-0.247	0.202
-288.603	-26.466	0.136	-0.080
-287.589	121.104	-0.095	0.119
-286.574	-148.495	-0.191	0.016
-285.559	29.731	0.135	0.115
-284.545	-48.169	-0.152	0.074
-283.530	-31.269	-0.184	-0.104
-282.516	-57.418	0.193	0.085
-281.501	83.463	0.087	-0.095
-280.486	-110.114	0.245	-0.051
-279.472	-14.005	-0.181	0.117
-278.457	-200.000	0.001	0.222
-277.443	449.357	0.095	0.210
-276.428	-143.212	0.362	-0.035
-275.413	312.260	0.156	0.293
-274.399	-200.000	0.020	0.151
-273.384	-99.502	-0.077	0.019
-272.370	800.000	-0.054	0.172
-271.355	800.000	-0.041	0.136
-270.340	-159.602	-0.143	0.008
-269.326	-15.792	-0.166	0.106
-268.311	27.573	-0.212	-0.179
-267.297	437.989	0.036	-0.078
-266.282	-142.392	0.296	0.029
-265.267	347.149	0.073	-0.144
-264.253	-97.652	0.119	0.031
-263.238	-112.325	-0.181	0.036
-262.224	133.934	-0.158	-0.205
-261.209	43.489	0.014	-0.013
-260.195	-156.809	-0.061	-0.004
-259.180	244.651	0.032	0.054
-258.165	800.000	-0.060	0.256
-257.151	579.213	-0.086	0.211
-256.136	-80.797	-0.383	0.127
-255.122	800.000	-0.031	-0.108
-254.107	3.157	0.073	-0.053
-253.092	422.028	0.251	-0.539
-252.078	32.080	0.056	-0.048
-251.063	-167.569	-0.291	0.012
-250.049	-200.000	-0.037	0.180
-249.034	-200.000	0.030	-0.135
-248.019	104.045	-0.118	0.139
-247.005	108.783	0.180	0.215
-245.990	218.277	0.133	-0.213
-244.976	25.282	0.120	-0.100
-243.961	800.000	0.050	0.138
-242.946	-73.056	0.244	-0.090
-241.932	141.372	0.225	-0.298
-240.917	103.857	0.033	0.039
-239.903	241.864	-0.223	-0.373
-238.888	-132.171	-0.103	0.013
-237.873	-131.836	0.257	0.034
-236.859	-57.335	0.270	0.119
-235.844	71.706	-0.206	-0.214
-234.830	411.662	-0.065	-0.137
-233.815	-200.000	-0.023	-0.365
-232.800	800.000	0.065	-0.214
-231.786	-200.000	-0.016	0.172
-230.771	-143.439	-0.245	-0.023
-229.757	147.178	0.156	0.210
-228.742	296.213	0.140	0.256
-227.727	379.258	-0.104	-0.214
-226.713	-21.251	-0.157	-0.096
-225.698	-96.126	0.172	-0.046
-224.684	756.437	0.126	0.341
-223.669	94.681	-0.120	0.136
-222.655	-86.295	0.314	-0.097
-221.640	-91.406	-0.338	-0.097
-220.625	156.982	-0.044	0.060
-219.611	-96.478	0.223	-0.059
-218.596	-200.000	-0.033	-0.415
-217.582	800.000	0.105	-0.329
-216.567	-143.521	0.356	0.034
-215.552	-14.270	0.116	0.075
-214.538	84.461	-0.205	0.224
-213.523	8.223	-0.172	0.129
-212.509	745.234	0.117	-0.314
-211.494	191.601	-0.184	-0.277
-210.479	-18.587	0.242	-0.151
-209.465	-200.000	0.047	0.401
-208.450	-65.418	-0.191	0.077
-207.436	800.000	-0.085	0.283
-206.421	800.000	0.051	0.191
-205.406	93.291	-0.257	0.290
-204.392	162.726	0.156	0.219
-203.377	-88.766	-0.071	0.021
-202.363	40.311	-0.066	-0.059
-201.348	89.760	0.244	-0.272
-200.333	-124.201	-0.168	-0.026
-199.319	-104.508	-0.249	0.058
-198.304	-120.801	0.321	-0.054
-197.290	99.317	0.112	0.129
-196.275	-93.551	0.104	0.029
-195.260	81.994	-0.129	0.139
-194.246	317.104	0.227	0.428
-193.231	-200.000	0.052	-0.256
-192.217	800.000	0.041	-0.149
-191.202	119.107	-0.126	-0.155
-190.187	-53.472	0.292	-0.133
-189.173	22.876	0.074	0.060
-188.158	721.022	0.042	-0.111
-187.144	800.000	0.055	0.227
-186.129	-33.135	0.250	0.138
-185.114	48.449	0.346	0.323
-184.100	136.624	0.266	0.347
-183.085	-200.000	-0.005	0.179
-182.071	363.271	-0.026	-0.053
-181.056	-55.241	0.248	0.111
-180.042	800.000	0.083	-0.291
-179.027	526.390	-0.081	-0.189
-178.012	426.721	0.138	-0.298
-176.998	-200.000	0.015	0.233
-175.983	-49.511	-0.140	-0.066
-174.969	800.000	0.073	0.287
-173.954	110.314	-0.079	0.095
-172.939	339.145	-0.178	0.347
-171.925	119.081	-0.030	-0.037
-170.910	-90.255	-0.222	0.064
-169.896	800.000	-0.066	-0.195
-168.881	-66.037	0.160	0.064
-167.866	-108.349	-0.147	-0.032
-166.852	-144.616	-0.326	-0.030
-165.837	-200.000	-0.001	-0.202
-164.823	182.466	0.291	-0.429
-163.808	-20.699	-0.174	-0.107
-162.793	38.628	-0.167	0.148
-161.779	387.859	0.151	-0.311
-160.764	740.890	-0.059	-0.159
-159.750	-200.000	-0.068	0.352
-158.735	605.500	0.017	0.043
-157.720	-146.405	0.077	0.007
-156.706	18.015	-0.157	0.125
-155.691	-150.029	-0.167	0.013
-154.677	-200.000	-0.015	0.131
-153.662	-130.247	-0.141	-0.019
-152.647	800.000	0.049	-0.164
-151.633	132.975	-0.160	0.206
-150.618	80.966	0.019	0.021
-149.604	581.633	-0.039	0.094
-148.589	728.362	-0.037	-0.100
-147.574	267.170	0.182	0.317
-146.560	-189.471	0.213	0.002
-145.545	-181.992	0.278	0.005
-144.531	121.966	0.185	0.230
-143.516	-200.000	-0.006	0.248
-142.502	-200.000	-0.009	0.117
-141.487	-64.594	0.222	-0.090
-140.472	-200.000	-0.025	0.118
-139.458	-84.642	0.399	-0.125
-138.443	-170.157	0.165	-0.006
-137.429	-200.000	0.001	0.162
-136.414	-200.000	-0.003	0.184
-135.399	800.000	0.034	0.134
-134.385	-118.367	-0.177	0.031
-133.370	-200.000	0.047	0.331
-132.356	-92.614	-0.075	0.021
-131.341	-74.780	0.095	-0.034
-130.326	-70.131	0.217	0.082
-129.312	-7.345	0.142	0.096
-128.297	-130.298	0.356	0.048
-127.283	109.450	-0.096	0.115
-126.268	-7.560	0.147	0.099
-125.253	800.000	-0.090	0.387
-124.239	-125.185	0.198	-0.030
-123.224	80.818	0.085	0.092
-122.210	-65.694	-0.243	0.097
-121.195	-71.700	-0.231	0.086
