DTS Sentinel unit serial number:	SN413079Multiplexer serial number:	ORYXHardware model number:	OX4-SRSoftware version number:	ORYX F/W v4.00 Oryx Data Collector v3.7.2.0data status	okinstallation	princeton_trtdifferential loss correction	single-endedforward channel	channel 3reverse channel	N/Adate	2019/09/18time	19:36:35forward acquisition time	60.00reverse acquisition time	0.00gamma	496.2192k internal	0.2325k external	0.2325temperature offset calibration	1.0005default loss term (dB/km)	0.3790temperature slope calibration	1.0000multiplexer offset coefficient	1.0000multiplexer slope coefficient	1.0000fibre end	0.00T internal ref (°C)	32.30T ext. ref 1 (°C)	1.07T ext. ref 2 (°C)	22.50length (m)	temperature (°C)	Stokes	anti-Stokes-747.200	-25.600	0.199	0.119
-746.185	242.469	0.107	-0.181
-745.171	800.000	0.093	-0.300
-744.156	19.927	-0.178	-0.145
-743.142	62.175	0.241	0.243
-742.127	-152.584	0.025	-0.002
-741.112	353.853	0.099	0.199
-740.098	-111.795	-0.215	0.044
-739.083	9.558	-0.263	-0.201
-738.069	-13.012	-0.092	0.061
-737.054	-200.000	0.012	-0.107
-736.039	83.001	-0.141	-0.154
-735.025	113.789	-0.340	0.417
-734.010	-172.805	-0.227	-0.007
-732.996	206.281	-0.209	-0.328
-731.981	79.949	0.217	-0.235
-730.966	-2.602	-0.044	-0.031
-729.952	-6.817	-0.141	0.097
-728.937	-103.459	0.057	0.014
-727.923	-153.015	0.052	0.004
-726.908	-200.000	0.036	0.367
-725.894	790.646	0.034	0.095
-724.879	-200.000	-0.021	-0.212
-723.864	-22.423	-0.172	0.105
-722.850	87.543	0.161	0.179
-721.835	800.000	0.045	-0.196
-720.821	46.353	0.109	-0.102
-719.806	194.906	0.105	-0.161
-718.791	-200.000	0.013	0.136
-717.777	-200.000	-0.050	0.259
-716.762	235.948	0.284	0.473
-715.748	549.475	0.111	-0.269
-714.733	-113.444	-0.528	-0.104
-713.718	-21.595	-0.251	-0.154
-712.704	-200.000	-0.034	0.185
-711.689	675.653	0.012	-0.033
-710.675	-31.644	-0.057	0.032
-709.660	331.934	-0.050	-0.097
-708.645	-55.409	0.033	0.015
-707.631	-67.312	0.389	-0.154
-706.616	4.474	0.059	-0.044
-705.602	-184.706	0.310	0.005
-704.587	-200.000	-0.023	-0.146
-703.572	-200.000	0.015	0.346
-702.558	800.000	0.010	0.035
-701.543	513.391	0.049	-0.116
-700.529	-200.000	0.074	-0.330
-699.514	-200.000	0.050	0.233
-698.499	-154.826	0.213	0.014
-697.485	-2.995	0.362	0.255
-696.470	22.976	0.173	-0.143
-695.456	-84.293	-0.235	-0.075
-694.441	-32.083	0.131	0.074
-693.426	37.805	0.254	0.228
-692.412	47.903	0.095	0.090
-691.397	382.413	-0.041	-0.085
-690.383	60.545	-0.179	-0.179
-689.368	-199.332	0.425	-0.002
-688.354	15.460	-0.244	0.193
-687.339	-56.945	0.250	-0.111
-686.324	-200.000	-0.017	-0.138
-685.310	-64.697	-0.158	0.064
-684.295	160.347	-0.119	0.166
-683.281	-29.456	-0.359	0.207
-682.266	59.478	-0.158	0.157
-681.251	-200.000	-0.021	-0.334
-680.237	-53.486	0.198	0.091
-679.222	245.437	0.084	-0.143
-678.208	794.867	0.081	-0.225
-677.193	566.012	0.146	-0.358
-676.178	-50.128	0.221	0.105
-675.164	-200.000	-0.008	-0.188
-674.149	200.365	0.087	-0.135
-673.135	-97.063	0.155	-0.041
-672.120	-200.000	0.021	-0.281
-671.105	-115.131	-0.119	-0.023
-670.091	-71.852	0.201	-0.075
-669.076	-29.826	-0.187	0.107
-668.062	-189.737	0.161	0.002
-667.047	3.483	0.196	0.144
-666.032	31.941	0.030	0.026
-665.018	-132.703	-0.130	0.017
-664.003	135.103	0.027	-0.035
-662.989	-100.419	-0.327	0.081
-661.974	-36.616	-0.369	-0.200
-660.959	800.000	-0.018	0.054
-659.945	-200.000	0.005	0.090
-658.930	-26.714	-0.297	0.175
-657.916	-116.820	0.152	0.028
-656.901	6.097	-0.272	0.203
-655.886	-117.998	0.040	0.007
-654.872	800.000	0.061	-0.209
-653.857	712.713	-0.103	-0.274
-652.843	348.003	0.045	0.089
-651.828	-27.801	0.098	0.057
-650.814	-39.549	0.235	-0.124
-649.799	-180.574	0.190	-0.004
-648.784	587.819	0.083	0.204
-647.770	61.496	0.176	0.176
-646.755	-200.000	-0.057	0.695
-645.741	-200.000	0.008	0.062
-644.726	-200.000	0.014	-0.105
-643.711	-110.155	0.304	-0.064
-642.697	-91.428	0.127	-0.036
-641.682	115.437	-0.161	0.197
-640.668	-142.728	0.162	0.016
-639.653	800.000	0.057	-0.207
-638.638	82.704	-0.085	0.093
-637.624	706.513	0.080	0.212
-636.609	-120.054	0.167	0.029
-635.595	200.263	0.210	-0.324
-634.580	74.161	-0.235	-0.248
-633.565	-93.172	-0.193	0.054
-632.551	800.000	-0.059	0.212
-631.536	8.469	0.148	0.112
-630.522	-60.167	-0.271	0.116
-629.507	-94.557	-0.448	0.123
-628.492	67.055	-0.145	-0.149
-627.478	-165.334	-0.335	-0.015
-626.463	-200.000	-0.046	-0.315
-625.449	-146.692	-0.158	-0.014
-624.434	661.245	0.058	-0.150
-623.419	-89.477	0.386	-0.114
-622.405	-43.704	0.338	-0.171
-621.390	-107.435	0.162	0.036
-620.376	-39.498	-0.084	0.044
-619.361	-66.376	-0.322	0.128
-618.346	104.928	0.188	-0.222
-617.332	11.738	0.286	0.221
-616.317	-105.470	-0.303	-0.069
-615.303	-200.000	-0.004	0.066
-614.288	230.308	-0.102	0.168
-613.273	275.533	0.088	-0.156
-612.259	800.000	0.079	-0.238
-611.244	-200.000	-0.004	-0.213
-610.230	376.041	0.144	-0.296
-609.215	-18.700	-0.284	-0.177
-608.201	-200.000	-0.001	0.033
-607.186	-52.451	0.346	-0.161
-606.171	-143.762	0.149	-0.014
-605.157	21.369	0.228	-0.186
-604.142	5.500	-0.226	0.168
-603.128	-71.383	0.318	0.120
-602.113	404.322	-0.086	0.182
-601.098	-25.863	-0.253	0.150
-600.084	-200.000	-0.015	0.115
-599.069	111.061	-0.119	-0.144
-598.055	800.000	0.052	0.164
-597.040	190.367	0.078	0.117
-596.025	397.350	0.086	0.181
-595.011	1.181	0.183	0.132
-593.996	337.454	0.115	0.225
-592.982	-10.224	-0.104	-0.070
-591.967	799.303	0.121	-0.336
-590.952	-141.342	-0.148	-0.015
-589.938	-82.915	0.313	0.101
-588.923	-43.465	-0.160	0.081
-587.909	-13.638	0.172	0.112
-586.894	-15.265	0.050	-0.032
-585.879	-119.072	-0.351	-0.062
-584.865	-14.345	0.223	-0.144
-583.850	-85.226	-0.177	-0.056
-582.836	-200.000	0.034	-0.354
-581.821	-200.000	0.007	0.040
-580.806	439.019	-0.088	-0.193
-579.792	-136.469	-0.366	0.043
-578.777	13.233	0.144	-0.112
-577.763	-47.845	0.090	0.044
-576.748	-200.000	0.005	0.136
-575.733	-200.000	-0.001	0.004
-574.719	-6.684	0.207	0.141
-573.704	-131.216	-0.103	0.014
-572.690	116.408	0.053	0.065
-571.675	-37.306	-0.103	0.055
-570.661	-113.191	-0.243	-0.048
-569.646	800.000	0.096	0.312
-568.631	-200.000	0.000	-0.048
-567.617	-142.258	-0.253	-0.025
-566.602	53.087	0.099	-0.095
-565.588	-167.133	0.146	-0.006
-564.573	774.191	-0.092	0.251
-563.558	-14.996	-0.171	-0.110
-562.544	800.000	-0.023	0.089
-561.529	78.977	-0.100	0.107
-560.515	149.896	-0.126	-0.171
-559.500	295.961	0.126	0.231
-558.485	145.138	-0.125	0.168
-557.471	81.730	-0.101	-0.109
-556.456	427.218	0.056	0.120
-555.442	128.377	-0.068	0.086
-554.427	85.184	-0.075	-0.082
-553.412	347.894	-0.095	-0.188
-552.398	-102.538	-0.238	-0.057
-551.383	218.726	-0.068	-0.109
-550.369	-49.762	0.302	0.144
-549.354	-200.000	-0.009	-0.046
-548.339	800.000	-0.078	0.280
-547.325	2.571	-0.408	0.296
-546.310	383.386	0.165	-0.341
-545.296	-58.498	0.362	0.158
-544.281	-170.230	-0.258	0.009
-543.266	-71.465	-0.016	0.006
-542.252	-87.049	-0.091	0.028
-541.237	145.298	-0.022	-0.029
-540.223	253.333	0.258	-0.440
-539.208	-6.986	-0.129	0.088
-538.193	-200.000	0.009	-0.099
-537.179	61.902	-0.124	0.124
-536.164	-157.630	0.267	-0.016
-535.150	756.154	0.042	-0.115
-534.135	90.794	0.116	-0.130
-533.121	13.062	0.183	-0.142
-532.106	-200.000	0.006	-0.187
-531.091	-181.562	-0.261	-0.005
-530.077	-57.985	0.201	0.088
-529.062	800.000	0.098	-0.306
-528.048	-200.000	0.008	-0.126
-527.033	-53.553	-0.160	0.073
-526.018	474.323	-0.160	-0.361
-525.004	800.000	-0.025	-0.072
-523.989	-23.151	-0.286	-0.172
-522.975	89.378	0.196	-0.218
-521.960	800.000	0.071	0.211
-520.945	-49.996	-0.410	-0.194
-519.931	54.450	0.082	0.079
-518.916	97.044	-0.237	-0.272
-517.902	800.000	-0.027	-0.105
-516.887	-200.000	0.078	0.435
-515.872	-28.063	-0.094	0.054
-514.858	-66.064	-0.190	0.076
-513.843	-60.754	-0.144	-0.061
-512.829	-10.391	-0.182	0.121
-511.814	-85.481	-0.264	-0.082
-510.799	69.461	-0.283	-0.291
-509.785	-65.071	0.144	0.058
-508.770	16.482	0.122	0.096
-507.756	-98.265	0.293	-0.075
-506.741	-38.868	-0.173	0.091
-505.726	88.046	0.079	0.088
-504.712	-82.678	0.121	-0.039
-503.697	800.000	-0.073	0.290
-502.683	-92.557	-0.086	-0.024
-501.668	-61.469	0.133	-0.056
-500.653	-115.037	-0.211	-0.040
-499.639	-136.163	-0.259	-0.030
-498.624	256.259	-0.190	0.327
-497.610	-200.000	0.067	0.414
-496.595	46.270	-0.127	0.118
-495.581	-33.640	-0.448	-0.247
-494.566	800.000	-0.044	-0.144
-493.551	30.267	0.056	-0.047
-492.537	144.272	-0.120	-0.160
-491.522	-57.688	0.124	-0.054
-490.508	757.562	0.112	0.302
-489.493	-200.000	-0.010	0.285
-488.478	800.000	0.032	-0.119
-487.464	55.195	-0.179	0.173
-486.449	4.363	-0.268	-0.196
-485.435	800.000	-0.028	-0.098
-484.420	23.955	-0.054	0.044
-483.405	39.356	0.318	0.284
-482.391	-103.745	-0.246	0.058
-481.376	38.815	0.302	-0.270
-480.362	85.839	0.109	-0.119
-479.347	362.212	0.057	-0.115
-478.332	214.175	-0.192	-0.304
-477.318	35.559	0.193	-0.169
-476.303	-200.000	-0.058	-0.493
-475.289	-200.000	-0.031	-0.370
-474.274	233.377	-0.048	0.078
-473.259	153.670	0.139	-0.190
-472.245	800.000	-0.051	-0.157
-471.230	357.439	0.097	0.194
-470.216	-117.833	-0.273	0.049
-469.201	-81.845	0.209	0.068
-468.186	-6.281	-0.231	-0.157
-467.172	-182.033	0.311	0.006
-466.157	-41.720	0.092	0.047
-465.143	-52.432	-0.155	-0.071
-464.128	144.740	0.214	-0.286
-463.113	86.744	-0.292	-0.322
-462.099	-42.651	0.206	-0.105
-461.084	83.962	0.061	0.067
-460.070	-44.518	0.301	0.150
-459.055	434.307	0.097	-0.211
-458.040	-99.185	0.287	0.072
-457.026	280.217	0.086	-0.153
-456.011	405.892	-0.020	0.042
-454.997	800.000	0.020	0.072
-453.982	-200.000	-0.027	0.220
-452.968	800.000	-0.063	-0.251
-451.953	-41.070	-0.265	0.137
-450.938	667.777	0.079	-0.203
-449.924	529.823	-0.063	-0.149
-448.909	-200.000	0.042	0.275
-447.895	275.540	0.100	0.177
-446.880	-175.320	-0.230	0.006
-445.865	315.953	-0.200	0.376
-444.851	189.367	0.106	0.159
-443.836	-200.000	0.038	0.187
-442.822	15.029	-0.202	0.158
-441.807	2.847	0.327	0.237
-440.792	10.122	-0.278	-0.211
-439.778	-51.553	-0.272	0.127
-438.763	-50.048	0.142	0.067
-437.749	0.013	-0.420	-0.298
-436.734	-164.265	-0.439	-0.020
-435.719	-45.156	0.199	-0.099
-434.705	-146.069	0.134	-0.012
-433.690	-39.541	0.178	-0.093
-432.676	-83.771	-0.206	-0.066
-431.661	-200.000	0.061	-0.271
-430.646	-85.975	0.377	0.116
-429.632	522.627	0.065	0.152
-428.617	-78.156	-0.130	0.044
-427.603	-170.354	-0.364	0.013
-426.588	-200.000	-0.028	-0.162
-425.573	83.765	-0.143	-0.156
-424.559	-26.572	0.177	0.103
-423.544	-200.000	-0.000	-0.060
-422.530	180.394	0.187	0.274
-421.515	-23.809	-0.025	-0.015
-420.500	553.860	-0.132	0.317
-419.486	-168.624	-0.095	-0.004
-418.471	-110.387	-0.594	0.123
-417.457	800.000	0.108	0.348
-416.442	-200.000	-0.017	-0.286
-415.428	-176.617	-0.245	-0.006
-414.413	41.517	-0.079	-0.071
-413.398	549.182	-0.154	0.367
-412.384	-200.000	0.012	-0.248
-411.369	504.671	0.161	-0.372
-410.355	47.161	-0.084	-0.078
-409.340	-82.696	0.306	-0.099
-408.325	-126.065	-0.102	-0.015
-407.311	754.095	0.111	-0.300
-406.296	-183.095	-0.752	0.013
-405.282	-141.471	-0.120	-0.012
-404.267	-200.000	-0.012	0.174
-403.252	-23.953	-0.171	-0.102
-402.238	0.508	0.147	-0.104
-401.223	-57.749	-0.163	0.071
-400.209	-98.038	0.299	0.077
-399.194	0.032	0.230	0.164
-398.179	-75.713	0.203	-0.072
-397.165	656.635	-0.020	-0.052
-396.150	-15.053	0.068	-0.043
-395.136	-46.780	-0.199	0.097
-394.121	-133.889	-0.212	-0.026
-393.106	-36.659	0.189	0.101
-392.092	24.138	0.293	-0.241
-391.077	800.000	-0.103	0.356
-390.063	56.452	0.092	-0.089
-389.048	114.413	-0.073	0.088
-388.033	47.160	0.205	0.190
-387.019	-2.160	0.114	0.080
-386.004	160.523	0.112	0.156
-384.990	772.246	0.084	-0.227
-383.975	-89.158	-0.275	-0.081
-382.960	130.448	0.065	0.082
-381.946	-200.000	-0.000	-0.083
-380.931	-131.452	0.068	0.009
-379.917	469.200	0.139	-0.311
-378.902	-110.026	0.109	-0.023
-377.888	-52.662	-0.216	0.099
-376.873	77.727	-0.206	0.218
-375.858	-19.920	0.190	-0.117
-374.844	-42.221	0.029	-0.015
-373.829	-200.000	0.009	0.062
-372.815	314.691	0.050	0.093
-371.800	-200.000	0.007	-0.075
-370.785	254.222	0.078	0.133
-369.771	-120.216	0.198	-0.034
-368.756	185.334	-0.108	-0.159
-367.742	505.368	-0.073	0.167
-366.727	-47.533	0.227	-0.110
-365.712	53.767	0.161	0.154
-364.698	-166.287	-0.326	-0.014
-363.683	27.505	0.271	-0.227
-362.669	72.238	0.092	-0.095
-361.654	800.000	-0.129	0.402
-360.639	-62.719	-0.162	-0.067
-359.625	-200.000	0.008	-0.188
-358.610	-200.000	-0.055	0.253
-357.596	-82.468	-0.117	0.038
-356.581	-200.000	-0.029	-0.436
-355.566	-39.102	-0.155	-0.081
-354.552	-113.525	-0.107	0.021
-353.537	107.572	-0.137	0.162
-352.523	13.367	0.172	-0.133
-351.508	-97.031	-0.191	-0.050
-350.493	389.821	0.052	-0.107
-349.479	437.676	0.070	-0.152
-348.464	-35.676	0.056	0.030
-347.450	-74.718	0.071	-0.025
-346.435	123.231	0.314	-0.391
-345.420	-107.929	-0.140	0.030
-344.406	-200.000	0.014	0.069
-343.391	-200.000	0.121	0.000
-342.377	397.116	0.046	0.095
-341.362	-78.913	-0.209	-0.071
-340.348	-38.925	0.244	-0.128
-339.333	-97.655	0.324	0.083
-338.318	-50.731	-0.088	-0.041
-337.304	343.555	-0.035	0.068
-336.289	625.999	0.095	0.239
-335.275	-21.930	0.137	-0.083
-334.260	-89.486	0.089	-0.026
-333.245	-200.000	-0.039	0.205
-332.231	-200.000	0.042	-0.352
-331.216	-200.000	0.018	0.273
-330.202	290.372	0.040	0.072
-329.187	412.514	0.087	0.184
-328.172	-50.439	-0.129	0.060
-327.158	537.754	0.165	-0.388
-326.143	800.000	0.046	-0.131
-325.129	-200.000	-0.014	-0.071
-324.114	-143.889	-0.125	0.012
-323.099	-200.000	0.060	0.426
-322.085	-200.000	-0.034	0.356
-321.070	659.809	0.060	0.153
-320.056	-126.527	-0.211	0.031
-319.041	-1.506	-0.030	0.021
-318.026	98.538	-0.020	0.023
-317.012	-64.547	0.264	0.106
-315.997	11.274	-0.177	0.135
-314.983	-124.804	0.223	-0.034
-313.968	106.276	-0.167	-0.197
-312.953	44.709	-0.063	0.058
-311.939	-10.881	0.288	0.189
-310.924	108.269	-0.126	0.149
-309.910	-142.401	0.210	-0.021
-308.895	37.759	-0.114	-0.100
-307.880	-101.068	0.325	0.079
-306.866	113.596	-0.187	-0.225
-305.851	-18.239	0.096	0.060
-304.837	-64.298	-0.448	0.181
-303.822	800.000	0.043	-0.131
-302.807	-200.000	-0.047	0.210
-301.793	-22.619	0.218	-0.130
-300.778	-200.000	-0.021	-0.205
-299.764	14.823	0.466	-0.361
-298.749	-13.054	-0.140	-0.090
-297.735	72.759	0.169	-0.175
-296.720	-33.742	0.204	-0.111
-295.705	-52.031	0.322	0.148
-294.691	82.598	0.253	-0.272
-293.676	-200.000	-0.038	0.193
-292.662	-16.472	-0.229	-0.144
-291.647	792.673	-0.077	-0.210
-290.632	-41.046	-0.252	-0.129
-289.618	307.576	0.112	0.207
-288.603	-127.818	-0.371	0.053
-287.589	-75.688	-0.060	0.021
-286.574	178.882	-0.110	-0.160
-285.559	800.000	0.043	-0.150
-284.545	287.594	0.034	-0.061
-283.530	270.365	-0.027	0.046
-282.516	746.334	-0.020	-0.053
-281.501	-57.653	-0.161	0.070
-280.486	-74.534	-0.307	0.109
-279.472	-200.000	-0.020	-0.184
-278.457	-57.057	0.150	-0.066
-277.443	155.927	0.049	-0.067
-276.428	512.053	-0.086	-0.200
-275.413	-45.072	0.278	0.137
-274.399	-160.207	-0.082	0.004
-273.384	154.033	0.127	-0.172
-272.370	71.535	0.026	-0.027
-271.355	-105.621	0.127	-0.029
-270.340	219.940	0.081	-0.128
-269.326	-75.214	0.107	0.038
-268.311	32.136	-0.128	0.110
-267.297	22.294	0.437	0.353
-266.282	356.950	0.190	0.375
-265.267	-57.046	0.292	-0.128
-264.253	22.887	-0.253	-0.205
-263.238	-200.000	-0.015	-0.268
-262.224	645.822	-0.016	0.040
-261.209	485.782	0.096	0.216
-260.195	-104.875	-0.129	0.029
-259.180	-6.865	-0.029	-0.020
-258.165	-74.332	0.411	-0.147
-257.151	155.133	-0.102	0.138
-256.136	-200.000	-0.002	0.145
-255.122	33.762	0.203	-0.175
-254.107	800.000	-0.044	-0.134
-253.092	-200.000	-0.002	-0.145
-252.078	-145.935	-0.065	0.006
-251.063	-27.393	-0.118	-0.068
-250.049	84.709	-0.122	0.132
-249.034	-200.000	-0.062	-0.282
-248.019	142.920	0.166	-0.218
-247.005	-200.000	0.005	-0.089
-245.990	800.000	-0.116	0.461
-244.976	-84.164	0.496	0.156
-243.961	-103.584	-0.269	-0.062
-242.946	-200.000	0.016	-0.183
-241.932	-63.824	-0.199	0.081
-240.917	-124.529	-0.157	-0.024
-239.903	170.944	-0.052	0.074
-238.888	-34.692	0.397	-0.215
-237.873	-200.000	0.046	0.302
-236.859	-4.386	-0.084	0.057
-235.844	-138.369	0.153	0.017
-234.830	800.000	0.082	0.244
-233.815	110.657	-0.241	0.286
-232.800	-59.647	-0.267	0.113
-231.786	316.307	-0.134	-0.251
-230.771	-79.301	0.259	0.087
-229.757	216.950	-0.095	0.149
-228.742	-33.699	-0.081	-0.044
-227.727	13.451	0.174	-0.133
-226.713	47.805	0.116	-0.107
-225.698	-33.638	0.283	0.154
-224.684	182.372	-0.146	0.213
-223.669	-105.355	-0.450	-0.101
-222.655	62.205	-0.156	0.154
-221.640	-88.857	0.193	0.057
-220.625	51.924	-0.180	0.170
-219.611	373.859	0.081	0.164
-218.596	-11.487	0.120	-0.078
-217.582	379.468	0.074	0.150
-216.567	775.427	0.055	0.148
-215.552	-174.104	0.126	-0.004
-214.538	-200.000	-0.034	-0.420
-213.523	-123.025	0.230	-0.037
-212.509	-200.000	0.049	0.222
-211.494	-151.154	-0.295	-0.022
-210.479	778.839	-0.056	0.152
-209.465	-141.391	0.503	0.050
-208.450	365.447	0.105	0.210
-207.436	3.039	-0.156	0.112
-206.421	148.296	-0.082	-0.109
-205.406	221.758	-0.126	0.200
-204.392	-129.397	-0.154	0.021
-203.377	208.050	0.221	0.342
-202.363	154.153	0.260	-0.352
-201.348	-184.898	0.356	-0.006
-200.333	618.373	0.079	0.196
-199.319	145.390	-0.120	-0.159
-198.304	-150.029	-0.326	-0.025
-197.290	-62.121	-0.152	-0.063
-196.275	283.924	-0.098	0.174
-195.260	-17.851	0.270	0.167
-194.246	-200.000	-0.031	0.000
-193.231	256.925	0.132	0.224
-192.217	106.561	0.168	0.196
-191.202	159.672	0.074	-0.102
-190.187	135.300	-0.060	-0.077
-189.173	-97.932	-0.195	-0.050
-188.158	-200.000	-0.024	0.168
-187.144	-146.240	0.020	0.002
-186.129	800.000	-0.112	-0.362
-185.114	-50.906	-0.102	-0.047
-184.100	-200.000	-0.001	-0.018
-183.085	-200.000	-0.002	0.242
-182.071	-115.725	0.255	-0.047
-181.056	800.000	0.061	0.243
-180.042	-62.246	0.315	-0.130
-179.027	140.688	-0.018	-0.024
-178.012	-200.000	-0.022	0.141
-176.998	56.855	0.146	-0.141
-175.983	-43.092	0.120	0.060
-174.969	800.000	-0.095	-0.361
-173.954	-200.000	0.021	-0.175
-172.939	189.342	-0.108	-0.160
-171.925	-81.124	0.174	0.057
-170.910	-200.000	0.036	0.240
-169.896	-100.540	0.289	0.071
-168.881	49.544	-0.142	-0.132
-167.866	239.191	0.092	-0.151
-166.852	-3.538	0.092	0.063
-165.837	485.771	-0.058	0.130
-164.823	-32.199	-0.012	-0.007
-163.808	638.502	-0.082	0.206
-162.793	141.183	0.203	0.265
-161.779	-64.482	-0.185	-0.074
-160.764	-16.726	0.073	0.045
-159.750	-113.301	0.252	0.049
-158.735	-177.428	0.125	0.003
-157.720	-92.072	-0.132	0.037
-156.706	-60.967	-0.217	-0.091
-155.691	9.239	-0.313	0.233
-154.677	195.326	-0.250	0.374
-153.662	-129.234	-0.190	-0.026
-152.647	800.000	-0.030	-0.112
-151.633	-200.000	0.011	-0.222
-150.618	-74.727	0.160	-0.057
-149.604	-61.316	0.188	-0.078
-148.589	800.000	0.057	0.163
-147.574	116.491	-0.198	0.239
-146.560	-200.000	0.060	0.321
-145.545	-32.184	0.315	-0.174
-144.531	-200.000	-0.015	0.196
-143.516	800.000	0.023	-0.098
-142.502	-200.000	0.007	0.305
-141.487	124.750	0.217	0.269
-140.472	-79.613	-0.387	0.129
-139.458	-120.632	-0.113	0.019
-138.443	53.361	0.287	0.271
-137.429	621.282	-0.170	0.422
-136.414	594.141	0.052	-0.126
-135.399	-200.000	0.005	0.111
-134.385	4.035	0.188	-0.136
-133.370	74.169	-0.057	-0.059
-132.356	-22.320	0.183	-0.109
-131.341	59.598	-0.235	-0.228
-130.326	447.150	0.032	-0.068
-129.312	172.261	-0.170	0.241
-128.297	-30.415	-0.135	0.076
-127.283	445.389	0.164	0.354
-126.268	-32.060	-0.188	0.104
-125.253	-200.000	0.071	-0.308
-124.239	-168.851	0.138	-0.005
-123.224	142.380	0.245	0.321
-122.210	-126.470	-0.245	-0.036
-121.195	-200.000	-0.022	-0.098
-120.180	423.837	-0.033	-0.071
