DTS Sentinel unit serial number:	SN413079Multiplexer serial number:	ORYXHardware model number:	OX4-SRSoftware version number:	ORYX F/W v4.00 Oryx Data Collector v3.7.2.0data status	okinstallation	princeton_trtdifferential loss correction	single-endedforward channel	channel 3reverse channel	N/Adate	2019/09/16time	05:20:34forward acquisition time	60.00reverse acquisition time	0.00gamma	496.2192k internal	0.2336k external	0.2336temperature offset calibration	0.9961default loss term (dB/km)	0.3790temperature slope calibration	1.0000multiplexer offset coefficient	1.0000multiplexer slope coefficient	1.0000fibre end	0.00T internal ref (°C)	27.25T ext. ref 1 (°C)	11.08T ext. ref 2 (°C)	22.05length (m)	temperature (°C)	Stokes	anti-Stokes-747.200	800.000	0.011	-0.044
-746.185	800.000	-0.067	-0.202
-745.171	800.000	0.074	0.272
-744.156	800.000	-0.065	0.242
-743.142	54.492	0.172	0.166
-742.127	326.260	0.080	0.153
-741.112	107.206	-0.126	-0.151
-740.098	-200.000	-0.026	0.227
-739.083	-37.877	-0.247	-0.132
-738.069	29.528	0.102	0.087
-737.054	-78.559	0.167	0.057
-736.039	151.259	-0.114	-0.156
-735.025	-53.273	0.297	0.137
-734.010	-200.000	-0.033	-0.183
-732.996	-200.000	-0.015	-0.385
-731.981	-137.965	-0.075	0.008
-730.966	-47.259	-0.120	0.059
-729.952	-103.086	0.230	0.055
-728.937	288.761	-0.043	-0.078
-727.923	800.000	-0.064	-0.205
-726.908	-109.723	0.170	0.036
-725.894	800.000	0.047	-0.134
-724.879	-165.281	-0.293	0.013
-723.864	-200.000	0.008	-0.064
-722.850	-119.358	0.118	-0.021
-721.835	-200.000	0.005	0.121
-720.821	-46.279	-0.180	0.089
-719.806	-75.852	-0.109	-0.039
-718.791	518.690	0.047	-0.110
-717.777	21.051	-0.246	0.201
-716.762	-34.844	-0.294	0.161
-715.748	-149.141	0.183	-0.015
-714.733	49.535	-0.024	-0.022
-713.718	38.956	-0.236	-0.212
-712.704	-37.264	-0.239	-0.128
-711.689	163.987	0.203	-0.287
-710.675	661.838	0.094	-0.242
-709.660	6.565	0.139	-0.104
-708.645	-130.893	-0.373	-0.050
-707.631	127.367	0.140	-0.178
-706.616	-22.326	-0.424	0.258
-705.602	433.314	-0.101	0.220
-704.587	-93.982	0.254	0.070
-703.572	-27.352	0.187	-0.109
-702.558	-7.904	-0.251	0.170
-701.543	-18.966	0.396	-0.247
-700.529	129.369	0.012	-0.016
-699.514	60.324	0.091	-0.091
-698.499	-35.380	-0.110	-0.060
-697.485	265.465	-0.185	0.323
-696.470	-50.197	0.119	0.056
-695.456	85.972	-0.130	-0.143
-694.441	-169.140	-0.214	-0.008
-693.426	-121.273	-0.081	-0.014
-692.412	191.421	0.189	0.286
-691.397	324.316	0.088	-0.168
-690.383	-60.730	-0.068	0.029
-689.368	71.578	0.100	0.104
-688.354	24.528	-0.362	-0.300
-687.339	-47.122	0.144	-0.070
-686.324	-20.508	-0.095	-0.058
-685.310	298.435	0.035	0.065
-684.295	2.177	0.345	0.250
-683.281	176.278	-0.182	-0.265
-682.266	238.224	0.232	-0.386
-681.251	-79.481	-0.360	-0.122
-680.237	-31.572	0.179	-0.101
-679.222	39.894	-0.245	0.221
-678.208	-200.000	-0.014	0.157
-677.193	591.273	-0.092	-0.228
-676.178	800.000	-0.037	0.107
-675.164	5.731	0.249	-0.184
-674.149	-23.789	-0.140	-0.084
-673.135	-55.197	-0.189	-0.085
-672.120	-64.814	0.161	0.065
-671.105	-112.650	-0.083	-0.016
-670.091	-183.099	0.195	0.003
-669.076	-62.425	-0.315	0.131
-668.062	322.477	-0.081	0.155
-667.047	93.362	0.213	-0.241
-666.032	350.733	-0.028	0.055
-665.018	-200.000	-0.004	-0.226
-664.003	370.939	-0.110	-0.224
-662.989	14.154	-0.329	0.257
-661.974	-113.832	-0.220	0.043
-660.959	37.675	0.191	-0.169
-659.945	140.559	0.157	-0.208
-658.930	-200.000	-0.367	-0.001
-657.916	-89.897	0.157	0.046
-656.901	332.397	-0.029	0.056
-655.886	-56.698	-0.185	-0.082
-654.872	563.127	-0.093	-0.225
-653.857	310.895	-0.122	-0.228
-652.843	-61.853	-0.167	-0.070
-651.828	800.000	-0.078	-0.259
-650.814	74.623	-0.147	-0.155
-649.799	-200.000	-0.018	-0.271
-648.784	135.924	-0.133	-0.173
-647.770	162.218	0.156	-0.219
-646.755	225.781	0.249	0.403
-645.741	109.567	0.135	-0.162
-644.726	-164.959	0.145	0.006
-643.711	-10.357	-0.231	0.153
-642.697	800.000	0.115	-0.357
-641.682	233.449	0.061	0.101
-640.668	-200.000	-0.008	-0.053
-639.653	5.079	-0.251	-0.185
-638.638	730.431	0.031	-0.082
-637.624	-125.381	0.374	0.057
-636.609	-124.741	0.273	-0.042
-635.595	292.626	-0.119	-0.218
-634.580	371.419	0.137	-0.277
-633.565	639.437	0.053	-0.136
-632.551	32.270	-0.230	0.198
-631.536	93.678	-0.029	0.033
-630.522	18.437	-0.294	-0.235
-629.507	344.936	0.232	0.456
-628.492	-36.078	-0.204	0.110
-627.478	-185.373	0.312	0.005
-626.463	125.225	0.106	-0.134
-625.449	-39.933	-0.255	-0.133
-624.434	76.963	-0.109	-0.116
-623.419	54.796	0.041	-0.040
-622.405	269.356	0.056	-0.098
-621.390	2.835	-0.282	0.204
-620.376	504.434	0.028	0.065
-619.361	296.659	0.250	0.458
-618.346	-6.705	-0.163	0.111
-617.332	-200.000	-0.025	0.183
-616.317	792.185	0.128	-0.352
-615.303	560.068	-0.065	0.158
-614.288	195.226	-0.048	-0.073
-613.273	-62.616	0.184	-0.076
-612.259	-4.891	0.114	-0.078
-611.244	-140.816	-0.162	0.017
-610.230	-43.610	-0.048	0.024
-609.215	74.261	0.177	-0.186
-608.201	-200.000	0.014	-0.232
-607.186	-119.900	-0.037	-0.006
-606.171	-45.772	-0.170	-0.084
-605.157	-93.457	-0.238	-0.066
-604.142	36.293	-0.062	0.055
-603.128	-18.759	-0.174	-0.108
-602.113	-200.000	0.078	-0.457
-601.098	6.165	-0.218	0.161
-600.084	26.465	0.112	-0.094
-599.069	-105.264	0.316	-0.072
-598.055	29.931	0.204	0.173
-597.040	303.206	0.022	0.042
-596.025	-11.764	0.092	0.060
-595.011	433.383	-0.064	-0.139
-593.996	-83.504	-0.266	0.085
-592.982	-200.000	-0.013	0.260
-591.967	-200.000	-0.073	-0.473
-590.952	-200.000	0.001	0.122
-589.938	299.155	0.055	0.102
-588.923	197.180	0.105	-0.160
-587.909	76.189	0.161	0.170
-586.894	20.211	-0.068	-0.055
-585.879	-83.052	0.236	-0.076
-584.865	800.000	-0.076	0.219
-583.850	507.377	-0.171	-0.396
-582.836	-32.120	0.209	-0.117
-581.821	-156.563	-0.283	-0.018
-580.806	86.936	0.128	-0.141
-579.792	776.338	-0.083	0.227
-578.777	143.575	0.198	0.263
-577.763	800.000	0.077	0.295
-576.748	622.226	-0.080	-0.200
-575.733	-200.000	-0.015	0.132
-574.719	13.896	0.265	0.206
-573.704	2.710	0.051	-0.037
-572.690	-147.062	-0.240	0.021
-571.675	-72.021	0.261	0.097
-570.661	-200.000	-0.028	0.283
-569.646	8.869	-0.159	0.119
-568.631	4.755	0.036	0.026
-567.617	-120.200	0.233	0.040
-566.602	800.000	-0.015	-0.049
-565.588	-61.923	0.166	-0.069
-564.573	405.352	0.035	-0.074
-563.558	-11.137	-0.096	0.063
-562.544	33.158	-0.080	-0.069
-561.529	43.091	-0.132	0.120
-560.515	-200.000	0.002	-0.086
-559.500	441.170	-0.133	-0.290
-558.485	98.897	0.075	-0.086
-557.471	-90.571	-0.090	0.026
-556.456	12.918	0.154	-0.119
-555.442	-200.000	-0.004	0.110
-554.427	-200.000	0.052	0.280
-553.412	-47.264	-0.301	0.146
-552.398	-200.000	0.001	0.272
-551.383	371.401	-0.117	0.236
-550.369	-166.106	-0.106	0.004
-549.354	800.000	-0.041	0.114
-548.339	80.385	0.071	-0.076
-547.325	174.567	-0.055	-0.080
-546.310	-177.397	-0.155	-0.004
-545.296	-134.825	0.256	-0.031
-544.281	800.000	0.049	-0.174
-543.266	185.329	-0.059	0.087
-542.252	-20.550	-0.108	-0.066
-541.237	188.336	-0.061	-0.091
-540.223	-147.953	-0.308	0.026
-539.208	800.000	-0.047	0.130
-538.193	134.959	-0.139	0.180
-537.179	101.397	-0.227	0.263
-536.164	443.221	-0.138	0.302
-535.150	-200.000	0.030	0.135
-534.135	334.776	0.054	0.105
-533.121	15.776	-0.086	-0.068
-532.106	800.000	-0.076	0.265
-531.091	-96.670	0.199	0.052
-530.077	1.696	-0.264	-0.190
-529.062	170.524	0.109	-0.156
-528.048	44.310	0.142	0.130
-527.033	186.882	-0.057	-0.085
-526.018	-200.000	0.053	-0.313
-525.004	-200.000	-0.002	-0.079
-523.989	800.000	-0.026	-0.085
-522.975	-72.649	-0.029	-0.011
-521.960	800.000	0.086	-0.256
-520.945	53.590	0.187	0.179
-519.931	310.756	0.081	-0.150
-518.916	-200.000	0.061	0.382
-517.902	142.306	-0.131	0.174
-516.887	-83.813	-0.146	-0.046
-515.872	202.905	0.021	-0.032
-514.858	142.033	-0.237	0.313
-513.843	-169.082	0.311	-0.012
-512.829	-200.000	0.019	-0.339
-511.814	67.161	-0.253	-0.257
-510.799	-11.655	0.339	0.221
-509.785	-92.079	0.380	-0.107
-508.770	551.773	0.091	0.218
-507.756	35.332	-0.147	0.128
-506.741	800.000	0.036	-0.108
-505.726	-200.000	0.035	-0.177
-504.712	489.034	0.023	0.051
-503.697	-3.773	0.171	-0.118
-502.683	800.000	-0.053	0.147
-501.668	-104.158	-0.363	-0.084
-500.653	-81.570	0.045	0.015
-499.639	-76.271	-0.236	0.083
-498.624	800.000	0.044	0.162
-497.610	777.069	-0.072	0.196
-496.595	12.475	-0.180	-0.138
-495.581	800.000	-0.128	-0.362
-494.566	-111.434	-0.101	0.020
-493.551	16.657	-0.317	-0.250
-492.537	-200.000	-0.103	-0.460
-491.522	800.000	-0.103	-0.301
-490.508	17.300	0.157	-0.124
-489.493	345.889	-0.032	0.062
-488.478	-131.888	-0.516	-0.067
-487.464	163.925	-0.122	0.171
-486.449	-63.910	-0.227	0.092
-485.435	800.000	-0.012	0.050
-484.420	800.000	-0.111	-0.325
-483.405	-18.405	0.220	-0.137
-482.391	800.000	-0.041	-0.125
-481.376	63.947	0.071	0.071
-480.362	149.592	0.064	-0.086
-479.347	-5.896	-0.080	-0.055
-478.332	-101.824	0.201	-0.048
-477.318	359.331	-0.169	-0.336
-476.303	-200.000	0.027	-0.410
-475.289	800.000	0.110	-0.327
-474.274	800.000	0.034	0.096
-473.259	800.000	0.019	0.063
-472.245	15.835	0.165	-0.129
-471.230	245.652	0.087	-0.145
-470.216	-200.000	-0.052	-0.363
-469.201	-120.756	-0.163	0.027
-468.186	-6.949	-0.245	0.165
-467.172	-38.006	0.107	-0.056
-466.157	-200.000	0.029	0.160
-465.143	-95.226	0.267	-0.071
-464.128	251.229	-0.061	0.103
-463.113	377.787	-0.202	0.411
-462.099	-87.465	0.304	-0.091
-461.084	-145.395	-0.290	0.026
-460.070	251.890	-0.067	0.113
-459.055	-65.101	0.294	0.118
-458.040	800.000	0.010	0.040
-457.026	-88.155	-0.298	0.089
-456.011	-80.024	-0.195	-0.065
-454.997	244.625	-0.188	-0.314
-453.982	139.581	0.094	-0.122
-452.968	-150.217	0.082	-0.006
-451.953	-200.000	0.253	0.000
-450.938	-66.047	0.364	0.144
-449.924	800.000	-0.056	0.223
-448.909	800.000	0.062	0.200
-447.895	-200.000	0.013	-0.112
-446.880	-58.351	-0.299	0.129
-445.865	-42.981	-0.131	0.066
-444.851	-83.792	0.255	0.081
-443.836	-172.041	0.244	0.008
-442.822	-140.318	-0.282	0.029
-441.807	-102.779	0.092	0.022
-440.792	150.051	0.128	-0.172
-439.778	800.000	-0.080	0.255
-438.763	-200.000	0.012	0.080
-437.749	395.479	-0.163	-0.337
-436.734	-138.906	0.243	-0.026
-435.719	-66.271	-0.179	0.071
-434.705	800.000	0.045	0.136
-433.690	-21.107	0.170	0.103
-432.676	-200.000	-0.003	-0.103
-431.661	-141.209	0.145	-0.015
-430.646	-20.655	0.142	-0.086
-429.632	-108.383	0.398	-0.085
-428.617	-200.000	0.055	0.427
-427.603	-45.993	0.059	-0.029
-426.588	-200.000	0.037	-0.266
-425.573	-200.000	-0.029	0.406
-424.559	32.530	0.213	-0.183
-423.544	416.585	0.243	0.515
-422.530	800.000	-0.092	0.271
-421.515	-200.000	0.006	-0.146
-420.500	142.788	-0.061	-0.081
-419.486	-200.000	0.038	-0.224
-418.471	-111.466	-0.281	0.057
-417.457	-129.406	0.088	0.012
-416.442	-75.990	-0.243	-0.085
-415.428	96.860	-0.268	-0.304
-414.413	800.000	-0.047	0.147
-413.398	800.000	0.018	-0.068
-412.384	-5.211	0.170	-0.116
-411.369	-60.425	-0.116	0.049
-410.355	-200.000	0.009	-0.111
-409.340	800.000	-0.026	0.110
-408.325	-153.588	0.150	0.010
-407.311	-67.362	0.166	0.065
-406.296	-197.736	0.115	-0.001
-405.282	347.957	-0.154	0.300
-404.267	-57.109	0.283	0.123
-403.252	588.857	0.075	-0.184
-402.238	70.592	0.130	-0.134
-401.223	-200.000	0.001	-0.148
-400.209	378.723	-0.072	-0.146
-399.194	227.978	0.234	0.377
-398.179	-65.682	-0.035	0.014
-397.165	48.701	0.094	-0.087
-396.150	-7.040	-0.083	-0.056
-395.136	770.953	-0.026	0.069
-394.121	-200.000	-0.036	0.249
-393.106	221.573	-0.096	-0.153
-392.092	236.055	-0.044	-0.072
-391.077	-200.000	-0.218	-0.000
-390.063	-4.119	-0.055	0.038
-389.048	-32.634	0.256	0.141
-388.033	-10.452	-0.193	0.126
-387.019	468.478	-0.135	-0.299
-386.004	-106.408	0.207	0.046
-384.990	145.716	-0.069	0.091
-383.975	-200.000	-0.017	0.096
-382.960	-62.270	-0.116	0.048
-381.946	-101.347	-0.179	-0.043
-380.931	155.825	0.111	-0.152
-379.917	800.000	0.047	0.172
-378.902	8.422	0.262	-0.195
-377.888	-54.041	0.062	-0.028
-376.873	-89.002	-0.365	-0.107
-375.858	621.900	-0.053	0.132
-374.844	211.133	0.068	-0.106
-373.829	-117.047	0.061	-0.011
-372.815	-89.563	0.129	0.038
-371.800	-74.616	0.286	-0.102
-370.785	139.472	0.190	-0.248
-369.771	-47.261	-0.369	0.178
-368.756	11.294	-0.434	0.329
-367.742	-57.227	0.043	-0.019
-366.727	-200.000	0.012	-0.057
-365.712	-24.373	0.254	-0.150
-364.698	-67.640	0.251	0.097
-363.683	-171.630	-0.212	-0.007
-362.669	-103.794	0.359	-0.083
-361.654	233.625	-0.227	0.369
-360.639	800.000	0.075	0.229
-359.625	800.000	-0.095	-0.342
-358.610	-200.000	0.119	0.000
-357.596	34.212	-0.223	0.192
-356.581	232.287	0.136	0.221
-355.566	-34.649	0.190	-0.103
-354.552	800.000	0.057	-0.179
-353.537	-46.205	0.147	-0.071
-352.523	800.000	-0.059	-0.243
-351.508	-15.999	-0.057	-0.036
-350.493	-105.817	0.114	-0.026
-349.479	-78.248	0.205	-0.070
-348.464	310.112	0.082	0.152
-347.450	-200.000	0.018	0.178
-346.435	205.201	0.063	-0.097
-345.420	-91.401	0.305	0.086
-344.406	800.000	0.036	-0.148
-343.391	93.104	0.116	-0.130
-342.377	-126.117	-0.288	-0.043
-341.362	5.908	0.204	0.149
-340.348	-77.674	0.097	0.033
-339.333	-200.000	-0.025	0.126
-338.318	800.000	-0.036	-0.128
-337.304	-171.634	0.221	-0.007
-336.289	247.752	0.112	-0.187
-335.275	-200.000	-0.005	0.133
-334.260	-99.869	-0.337	-0.083
-333.245	800.000	-0.072	0.270
-332.231	-200.000	-0.002	-0.322
-331.216	324.294	-0.071	-0.135
-330.202	-200.000	-0.011	0.221
-329.187	77.420	0.162	-0.170
-328.172	-200.000	0.022	0.130
-327.158	108.032	0.209	-0.247
-326.143	-83.675	-0.318	-0.100
-325.129	800.000	-0.023	0.064
-324.114	6.788	0.144	0.106
-323.099	-68.732	-0.133	-0.051
-322.085	-200.000	0.019	-0.127
-321.070	-105.157	-0.355	-0.080
-320.056	46.551	0.082	-0.075
-319.041	61.586	-0.120	-0.118
-318.026	-131.007	-0.111	0.015
-317.012	45.593	0.146	0.133
-315.997	-77.841	-0.123	0.042
-314.983	800.000	-0.038	-0.143
-313.968	-200.000	-0.020	0.157
-312.953	53.442	0.247	0.234
-311.939	-105.302	0.284	-0.064
-310.924	800.000	-0.096	0.335
-309.910	800.000	-0.028	0.090
-308.895	-101.771	-0.220	0.053
-307.880	111.896	-0.077	-0.092
-306.866	-55.146	0.142	-0.063
-305.851	187.100	0.134	0.197
-304.837	-72.438	-0.099	-0.036
-303.822	-153.236	-0.288	-0.020
-302.807	-180.635	0.100	-0.002
-301.793	-20.966	0.126	0.076
-300.778	-29.512	-0.086	-0.049
-299.764	800.000	-0.023	-0.063
-298.749	10.303	-0.142	-0.106
-297.735	153.553	0.276	-0.373
-296.720	295.721	0.180	0.325
-295.705	-200.000	0.033	0.217
-294.691	3.138	0.285	0.204
-293.676	800.000	-0.036	0.104
-292.662	-19.724	0.170	0.104
-291.647	570.874	-0.095	-0.227
-290.632	-200.000	0.064	0.286
-289.618	105.245	-0.238	-0.277
-288.603	-122.750	0.702	0.112
-287.589	-200.000	-0.006	0.203
-286.574	-119.423	-0.119	-0.020
-285.559	187.133	0.218	-0.321
-284.545	-200.000	-0.006	0.089
-283.530	-159.283	0.204	-0.011
-282.516	-120.171	0.318	-0.054
-281.501	106.981	-0.141	0.165
-280.486	92.211	-0.220	0.244
-279.472	247.825	-0.156	-0.261
-278.457	257.964	0.028	-0.047
-277.443	655.901	-0.071	0.180
-276.428	-200.000	-0.069	-0.377
-275.413	192.386	-0.198	0.294
-274.399	-137.646	-0.074	0.008
-273.384	491.095	-0.182	0.411
-272.370	-108.331	0.241	0.051
-271.355	451.026	0.047	-0.102
-270.340	-140.423	0.147	-0.015
-269.326	-200.000	-0.018	-0.104
-268.311	-200.000	-0.018	-0.183
-267.297	125.387	-0.116	0.144
-266.282	341.508	0.089	0.171
-265.267	159.102	0.028	-0.039
-264.253	-170.671	-0.423	0.014
-263.238	84.091	-0.138	-0.148
-262.224	-106.481	-0.196	-0.043
-261.209	-122.885	-0.261	-0.041
-260.195	-65.143	0.087	0.035
-259.180	-43.497	0.365	0.182
-258.165	800.000	-0.062	-0.229
-257.151	-16.462	-0.252	-0.157
-256.136	-200.000	0.015	-0.099
-255.122	-200.000	0.023	0.326
-254.107	-109.890	0.290	-0.060
-253.092	346.336	0.167	-0.324
-252.078	377.829	0.085	0.171
-251.063	-4.474	0.179	-0.122
-250.049	800.000	-0.109	0.377
-249.034	-115.812	-0.064	0.012
-248.019	260.816	-0.118	0.201
-247.005	132.066	0.158	0.200
-245.990	20.358	0.229	-0.183
-244.976	-129.518	0.204	0.028
-243.961	-86.829	0.364	-0.109
-242.946	-34.770	0.088	0.047
-241.932	-200.000	-0.238	0.000
-240.917	13.948	0.311	-0.239
-239.903	-21.187	0.429	-0.258
-238.888	-108.541	0.346	0.073
-237.873	95.601	0.132	-0.149
-236.859	-3.885	-0.281	0.192
-235.844	7.724	-0.260	-0.191
-234.830	-74.227	-0.268	0.095
-233.815	53.750	-0.036	0.034
-232.800	-160.326	-0.287	0.015
-231.786	-35.128	-0.220	-0.118
-230.771	574.958	-0.249	0.599
-229.757	800.000	-0.079	-0.270
-228.742	-49.325	0.065	0.031
-227.727	77.039	-0.098	-0.103
-226.713	-200.000	-0.002	-0.102
-225.698	93.132	0.090	-0.100
-224.684	-118.496	0.118	-0.020
-223.669	233.618	-0.067	0.108
-222.655	800.000	-0.080	0.294
-221.640	-200.000	0.021	-0.152
-220.625	800.000	-0.133	0.400
-219.611	127.795	0.263	-0.329
-218.596	12.249	-0.149	0.113
-217.582	308.162	0.135	0.247
-216.567	9.532	-0.066	0.049
-215.552	97.350	-0.102	0.115
-214.538	361.214	-0.121	0.239
-213.523	220.944	-0.080	-0.126
-212.509	-155.836	-0.102	-0.006
-211.494	178.887	0.033	-0.047
-210.479	-74.547	-0.261	-0.092
-209.465	23.793	0.168	-0.136
-208.450	2.208	-0.128	0.091
-207.436	285.497	-0.128	0.226
-206.421	-169.597	-0.179	-0.006
-205.406	146.567	0.180	0.237
-204.392	64.595	-0.012	-0.012
-203.377	47.452	-0.268	-0.246
-202.363	96.885	0.229	-0.258
-201.348	-92.456	-0.179	0.049
-200.333	-62.001	0.196	0.080
-199.319	421.538	-0.047	-0.100
-198.304	1.299	-0.033	0.023
-197.290	87.598	-0.384	0.419
-196.275	-110.728	-0.192	-0.039
-195.260	453.763	-0.087	-0.190
-194.246	719.676	-0.075	-0.195
-193.231	701.936	-0.105	-0.273
-192.217	-200.000	-0.025	-0.309
-191.202	-95.998	-0.180	-0.047
-190.187	49.628	-0.106	0.098
-189.173	202.516	0.266	0.403
-188.158	-200.000	0.036	-0.298
-187.144	800.000	-0.041	-0.138
-186.129	207.671	0.213	-0.327
-185.114	800.000	-0.118	-0.389
-184.100	-81.703	-0.134	0.043
-183.085	523.150	-0.152	0.352
-182.071	-200.000	0.046	-0.232
-181.056	-108.334	-0.133	0.028
-180.042	-200.000	-0.052	0.297
-179.027	49.807	-0.143	0.132
-178.012	-110.840	0.195	0.040
-176.998	-92.750	-0.498	0.137
-175.983	-25.713	0.406	-0.235
-174.969	194.154	0.059	-0.088
-173.954	1.847	0.130	-0.092
-172.939	-115.318	-0.064	-0.012
-171.925	-200.000	-0.047	0.381
-170.910	32.976	0.047	0.040
-169.896	468.402	-0.065	0.144
-168.881	-109.435	-0.381	0.079
-167.866	478.629	-0.043	0.096
-166.852	5.869	-0.141	0.102
-165.837	-112.365	0.223	0.044
-164.823	-200.000	-0.006	-0.160
-163.808	67.145	0.109	0.109
-162.793	800.000	0.029	0.095
-161.779	35.117	-0.355	0.306
-160.764	-134.102	-0.184	-0.022
-159.750	570.524	0.018	-0.043
-158.735	-88.332	0.409	-0.120
-157.720	-200.000	-0.014	0.271
-156.706	-106.182	0.201	0.044
-155.691	-162.274	0.033	0.002
-154.677	388.754	0.063	-0.128
-153.662	-40.253	0.396	-0.202
-152.647	561.554	0.087	-0.207
-151.633	34.020	-0.181	0.155
-150.618	800.000	-0.026	0.089
-149.604	-118.645	0.186	0.032
-148.589	-79.170	-0.067	-0.022
-147.574	-36.848	0.135	0.071
-146.560	-14.210	-0.165	-0.105
-145.545	50.928	0.093	-0.086
-144.531	42.077	0.106	0.095
-143.516	-10.164	0.058	0.038
-142.502	-20.624	-0.299	-0.180
-141.487	196.135	-0.046	0.069
-140.472	-200.000	0.011	-0.147
-139.458	61.771	0.265	0.259
-138.443	-200.000	-0.009	-0.157
-137.429	94.462	0.169	-0.188
-136.414	596.242	-0.044	0.108
-135.399	-177.517	-0.181	-0.004
-134.385	-100.984	0.200	0.048
-133.370	308.101	0.015	0.028
-132.356	294.321	-0.110	0.198
-131.341	800.000	-0.159	-0.528
-130.326	11.837	0.082	-0.061
-129.312	-200.000	0.014	-0.350
-128.297	-200.000	0.009	-0.397
-127.283	800.000	-0.046	0.187
-126.268	-200.000	-0.376	0.002
-125.253	-140.587	-0.033	0.003
-124.239	-200.000	0.068	0.306
-123.224	-9.332	-0.198	-0.129
-122.210	309.195	-0.007	0.012
-121.195	-108.268	0.352	-0.074
