DTS Sentinel unit serial number:	SN413079Multiplexer serial number:	ORYXHardware model number:	OX4-SRSoftware version number:	ORYX F/W v4.00 Oryx Data Collector v3.7.2.0data status	okinstallation	princeton_trtdifferential loss correction	single-endedforward channel	channel 3reverse channel	N/Adate	2019/09/16time	10:20:35forward acquisition time	60.00reverse acquisition time	0.00gamma	496.2192k internal	0.2308k external	0.2308temperature offset calibration	0.9947default loss term (dB/km)	0.3790temperature slope calibration	1.0000multiplexer offset coefficient	1.0000multiplexer slope coefficient	1.0000fibre end	0.00T internal ref (°C)	34.70T ext. ref 1 (°C)	12.50T ext. ref 2 (°C)	33.25length (m)	temperature (°C)	Stokes	anti-Stokes-747.200	-200.000	-0.013	-0.110
-746.185	591.329	0.052	0.130
-745.171	-200.000	-0.025	0.164
-744.156	115.290	0.140	0.173
-743.142	59.226	-0.150	0.150
-742.127	93.436	-0.252	0.290
-741.112	-80.540	0.082	-0.028
-740.098	281.107	-0.099	0.180
-739.083	725.650	-0.088	0.240
-738.069	-200.000	0.031	0.153
-737.054	800.000	0.079	0.223
-736.039	92.011	0.157	-0.180
-735.025	197.210	0.162	0.251
-734.010	-3.820	-0.242	-0.171
-732.996	-28.065	0.155	-0.091
-731.981	13.550	0.109	-0.086
-730.966	386.981	-0.098	0.206
-729.952	-200.000	0.043	-0.443
-728.937	-25.067	-0.100	0.060
-727.923	67.586	0.111	-0.116
-726.908	6.284	0.155	-0.117
-725.894	-176.864	0.223	-0.006
-724.879	506.623	0.071	0.166
-723.864	-151.402	0.191	0.014
-722.850	16.249	-0.123	-0.098
-721.835	42.839	-0.140	0.129
-720.821	-180.889	-0.187	-0.004
-719.806	-200.000	0.009	-0.344
-718.791	394.168	0.052	-0.111
-717.777	-200.000	-0.034	-0.242
-716.762	800.000	0.031	0.096
-715.748	-113.200	-0.149	-0.030
-714.733	-36.187	0.077	-0.042
-713.718	49.342	0.121	-0.116
-712.704	-73.143	-0.152	-0.057
-711.689	-146.075	0.201	0.018
-710.675	-56.476	-0.472	-0.213
-709.660	-46.557	0.110	-0.055
-708.645	-200.000	0.033	-0.363
-707.631	-75.021	0.121	-0.044
-706.616	156.026	-0.100	0.140
-705.602	-29.644	-0.159	0.092
-704.587	-200.000	0.047	-0.235
-703.572	34.112	-0.137	-0.121
-702.558	-103.738	-0.466	-0.111
-701.543	-63.824	0.032	0.013
-700.529	-200.000	0.046	0.207
-699.514	-73.173	-0.182	-0.068
-698.499	-154.054	0.614	0.042
-697.485	38.745	0.159	0.144
-696.470	-76.972	0.181	-0.064
-695.456	301.334	0.252	-0.471
-694.441	7.414	-0.011	0.008
-693.426	800.000	0.106	-0.308
-692.412	128.442	0.088	0.114
-691.397	85.984	0.116	0.130
-690.383	-60.237	-0.148	0.064
-689.368	-109.776	0.137	-0.029
-688.354	64.378	-0.095	0.097
-687.339	252.886	-0.107	0.184
-686.324	14.187	-0.110	-0.087
-685.310	-200.000	0.032	0.147
-684.295	495.089	-0.108	0.253
-683.281	-169.188	-0.211	0.008
-682.266	61.208	0.312	-0.314
-681.251	212.695	-0.029	0.047
-680.237	-176.757	-0.287	-0.007
-679.222	6.640	0.332	0.250
-678.208	-96.007	0.300	0.081
-677.193	-37.030	-0.231	0.126
-676.178	-128.740	0.051	-0.007
-675.164	405.666	-0.193	0.412
-674.149	-154.052	-0.360	-0.025
-673.135	-200.000	0.030	-0.402
-672.120	-69.680	0.178	0.069
-671.105	-74.915	-0.208	-0.076
-670.091	-46.070	-0.251	0.126
-669.076	213.594	-0.082	0.131
-668.062	218.147	-0.119	-0.192
-667.047	-200.000	-0.009	-0.289
-666.032	166.253	0.160	-0.229
-665.018	300.316	0.041	-0.077
-664.003	800.000	0.064	-0.230
-662.989	91.438	-0.206	-0.235
-661.974	800.000	-0.030	-0.102
-660.959	-187.187	-0.273	0.004
-659.945	-23.499	-0.359	0.219
-658.930	800.000	0.077	-0.300
-657.916	800.000	-0.011	0.044
-656.901	84.155	0.079	-0.088
-655.886	-29.701	0.192	-0.111
-654.872	-38.038	-0.300	-0.162
-653.857	-156.834	-0.264	-0.016
-652.843	295.973	-0.147	-0.272
-651.828	17.380	-0.123	-0.099
-650.814	-67.840	-0.129	0.051
-649.799	800.000	0.039	-0.112
-648.784	-103.815	0.124	-0.029
-647.770	-134.306	0.143	0.018
-646.755	-13.776	0.136	-0.089
-645.741	7.061	-0.033	0.025
-644.726	-200.000	-0.026	-0.252
-643.711	-90.672	-0.060	-0.018
-642.697	15.986	0.093	0.074
-641.682	-39.062	0.080	-0.043
-640.668	-51.725	-0.267	0.126
-639.653	-5.074	0.022	-0.015
-638.638	-200.000	-0.013	0.160
-637.624	-135.978	0.219	-0.026
-636.609	-17.220	-0.085	0.054
-635.595	-200.000	-0.022	0.367
-634.580	64.042	0.131	0.133
-633.565	225.906	-0.125	0.205
-632.551	-53.457	0.148	-0.069
-631.536	100.420	0.171	0.201
-630.522	94.824	0.192	0.221
-629.507	208.241	-0.010	-0.015
-628.492	18.271	0.103	0.083
-627.478	-200.000	0.006	-0.211
-626.463	133.697	-0.123	-0.162
-625.449	800.000	-0.034	0.102
-624.434	-200.000	0.053	0.375
-623.419	-94.553	-0.140	-0.039
-622.405	-200.000	-0.035	-0.351
-621.390	144.358	-0.165	-0.223
-620.376	-76.726	-0.163	-0.058
-619.361	-84.658	0.243	0.077
-618.346	664.865	0.131	-0.343
-617.332	624.278	-0.044	0.113
-616.317	242.516	-0.092	0.155
-615.303	90.397	0.019	0.021
-614.288	34.188	0.315	-0.278
-613.273	348.326	-0.215	0.430
-612.259	-76.561	0.083	-0.030
-611.244	53.318	-0.084	-0.082
-610.230	571.172	-0.042	0.103
-609.215	217.333	-0.147	0.236
-608.201	-174.611	0.332	0.010
-607.186	75.177	0.091	-0.097
-606.171	-139.768	0.164	-0.018
-605.157	-134.699	-0.253	-0.031
-604.142	-200.000	0.049	-0.323
-603.128	-61.998	-0.269	-0.113
-602.113	51.651	0.158	0.151
-601.098	-91.185	0.184	-0.053
-600.084	82.512	-0.264	-0.290
-599.069	-114.445	0.309	0.060
-598.055	-147.960	0.269	0.023
-597.040	695.946	-0.124	0.330
-596.025	37.519	0.197	0.176
-595.011	126.484	0.216	0.276
-593.996	-58.833	-0.257	0.112
-592.982	41.972	0.194	0.177
-591.967	301.003	0.149	-0.279
-590.952	800.000	-0.108	-0.384
-589.938	800.000	-0.119	-0.361
-588.923	-114.716	-0.330	-0.064
-587.909	67.799	0.073	-0.076
-586.894	166.456	-0.272	0.390
-585.879	-200.000	-0.030	-0.215
-584.865	-27.153	0.271	0.159
-583.850	258.475	0.088	-0.154
-582.836	-81.983	-0.090	-0.030
-581.821	160.571	-0.123	-0.174
-580.806	-131.743	0.312	0.041
-579.792	137.272	-0.126	0.167
-578.777	125.507	-0.040	0.052
-577.763	-85.849	0.281	0.088
-576.748	800.000	0.038	0.156
-575.733	800.000	0.082	-0.305
-574.719	518.200	-0.117	-0.276
-573.704	-82.802	0.088	0.029
-572.690	179.649	0.105	-0.155
-571.675	-200.000	0.020	-0.193
-570.661	-64.498	0.129	-0.053
-569.646	55.815	0.250	-0.245
-568.631	-200.000	0.005	-0.073
-567.617	800.000	0.047	-0.181
-566.602	-104.519	-0.248	-0.058
-565.588	270.861	-0.056	0.100
-564.573	-44.713	0.215	-0.108
-563.558	-63.925	-0.332	0.137
-562.544	223.985	-0.229	-0.373
-561.529	548.359	-0.122	0.294
-560.515	159.168	0.014	0.020
-559.500	-200.000	0.032	0.254
-558.485	-61.325	-0.283	0.120
-557.471	385.348	0.035	0.074
-556.456	31.998	0.316	-0.275
-555.442	714.587	0.087	-0.233
-554.427	-185.337	-0.164	0.003
-553.412	-162.193	0.160	0.008
-552.398	-117.234	-0.212	0.039
-551.383	476.309	-0.062	0.142
-550.369	-160.012	0.340	-0.019
-549.354	-118.966	-0.307	0.054
-548.339	-112.560	0.043	-0.009
-547.325	-131.587	-0.216	0.029
-546.310	-200.000	0.019	-0.273
-545.296	356.340	0.071	0.142
-544.281	532.122	0.094	0.224
-543.266	-12.248	-0.077	0.051
-542.252	471.061	0.103	-0.233
-541.237	145.899	0.140	0.189
-540.223	240.316	0.047	0.078
-539.208	190.872	-0.164	0.249
-538.193	-82.120	-0.190	0.063
-537.179	-132.601	-0.350	-0.045
-536.164	-196.744	0.270	0.002
-535.150	800.000	-0.062	-0.274
-534.135	-92.383	-0.216	0.061
-533.121	-200.000	-0.027	0.463
-532.106	-200.000	0.002	0.100
-531.091	-200.000	-0.004	-0.086
-530.077	-112.377	0.383	-0.077
-529.062	-103.545	-0.279	0.066
-528.048	-18.562	-0.109	-0.069
-527.033	-184.189	0.184	-0.003
-526.018	42.684	0.315	0.289
-525.004	-177.787	0.163	-0.004
-523.989	-37.109	-0.113	-0.061
-522.975	800.000	-0.074	-0.299
-521.960	236.388	-0.125	0.208
-520.945	3.508	0.172	0.127
-519.931	-95.971	0.122	0.033
-518.916	-15.429	0.041	-0.027
-517.902	800.000	0.060	-0.200
-516.887	-66.794	-0.214	0.085
-515.872	-49.958	0.232	0.111
-514.858	15.364	-0.086	-0.068
-513.843	106.451	0.118	0.141
-512.829	-200.000	0.032	0.238
-511.814	-200.000	0.031	0.172
-510.799	-200.000	0.002	-0.053
-509.785	-24.025	-0.315	0.190
-508.770	348.435	0.101	-0.200
-507.756	-92.509	-0.212	0.060
-506.741	-44.405	0.271	0.137
-505.726	117.195	-0.289	0.357
-504.712	-22.636	0.086	0.052
-503.697	-142.452	-0.272	0.027
-502.683	329.376	-0.039	0.075
-501.668	18.724	-0.085	-0.068
-500.653	-81.613	-0.348	0.115
-499.639	-42.965	0.198	-0.101
-498.624	-140.348	-0.323	-0.034
-497.610	311.809	0.128	-0.243
-496.595	-139.555	-0.263	-0.028
-495.581	8.529	0.028	0.022
-494.566	-62.614	-0.121	-0.051
-493.551	531.387	-0.138	-0.329
-492.537	284.854	0.068	0.123
-491.522	-24.593	-0.155	0.093
-490.508	-200.000	0.027	-0.285
-489.493	-200.000	-0.001	-0.189
-488.478	125.889	0.145	-0.184
-487.464	-78.310	-0.062	0.021
-486.449	576.771	0.077	-0.189
-485.435	193.021	0.145	0.221
-484.420	-200.000	-0.030	-0.142
-483.405	-3.588	0.228	0.159
-482.391	167.508	-0.093	-0.133
-481.376	800.000	0.100	0.347
-480.362	51.907	0.180	0.172
-479.347	-114.922	-0.160	0.031
-478.332	-95.741	-0.109	-0.029
-477.318	-200.000	0.008	0.078
-476.303	-96.132	0.197	-0.053
-475.289	12.102	-0.077	-0.059
-474.274	235.873	-0.126	-0.209
-473.259	208.946	0.075	0.119
-472.245	32.232	0.071	-0.061
-471.230	-26.742	-0.026	0.015
-470.216	-81.530	-0.422	-0.140
-469.201	800.000	-0.035	0.141
-468.186	-200.000	0.003	0.212
-467.172	146.184	-0.186	-0.252
-466.157	99.695	-0.042	0.048
-465.143	145.686	-0.121	-0.163
-464.128	91.729	-0.152	-0.172
-463.113	-110.207	-0.088	0.018
-462.099	90.601	-0.230	0.259
-461.084	-155.853	-0.202	0.013
-460.070	-20.837	-0.150	0.093
-459.055	-51.559	0.138	0.065
-458.040	-86.520	0.256	-0.079
-457.026	280.511	-0.025	-0.045
-456.011	-200.000	0.031	-0.500
-454.997	57.547	0.128	0.126
-453.982	-6.950	-0.182	-0.124
-452.968	-37.006	-0.095	-0.051
-451.953	5.872	-0.100	-0.074
-450.938	-42.851	-0.240	0.123
-449.924	-200.000	0.079	-0.420
-448.909	-53.118	0.061	0.028
-447.895	15.776	0.148	0.117
-446.880	356.703	-0.070	-0.140
-445.865	-86.937	0.205	0.063
-444.851	206.182	-0.055	0.086
-443.836	800.000	0.066	0.221
-442.822	800.000	0.062	-0.174
-441.807	-45.256	-0.238	0.119
-440.792	-200.000	-0.019	-0.111
-439.778	-66.785	0.211	0.084
-438.763	-44.456	0.222	0.112
-437.749	514.042	0.059	-0.138
-436.734	10.897	-0.046	-0.035
-435.719	450.178	-0.159	-0.352
-434.705	486.855	0.052	0.118
-433.690	-3.671	-0.203	-0.142
-432.676	322.659	-0.068	-0.131
-431.661	-74.890	0.195	-0.070
-430.646	38.172	0.227	0.203
-429.632	-107.580	0.170	-0.037
-428.617	-114.561	-0.197	0.038
-427.603	115.960	-0.258	0.317
-426.588	395.205	0.072	-0.152
-425.573	-200.000	-0.006	-0.197
-424.559	-16.504	0.253	-0.161
-423.544	47.599	0.174	-0.163
-422.530	-14.955	-0.129	0.083
-421.515	269.869	-0.113	0.199
-420.500	5.691	-0.053	0.039
-419.486	-200.000	0.006	0.100
-418.471	-96.619	0.099	-0.026
-417.457	655.093	-0.020	-0.052
-416.442	-200.000	0.007	-0.151
-415.428	-200.000	-0.004	-0.061
-414.413	-95.309	-0.238	0.064
-413.398	-20.951	-0.229	-0.141
-412.384	-18.142	0.138	-0.087
-411.369	-200.000	0.033	0.165
-410.355	800.000	0.052	0.158
-409.340	194.549	-0.150	0.228
-408.325	479.583	0.105	-0.239
-407.311	238.336	-0.097	0.162
-406.296	-153.593	-0.188	-0.013
-405.282	672.215	-0.070	0.182
-404.267	4.287	-0.221	0.163
-403.252	54.840	-0.250	-0.242
-402.238	-88.047	-0.061	0.018
-401.223	-200.000	-0.017	-0.308
-400.209	28.161	0.236	-0.200
-399.194	485.384	0.116	-0.264
-398.179	250.398	0.183	0.312
-397.165	-200.000	0.028	-0.229
-396.150	16.139	0.171	-0.135
-395.136	-200.000	0.023	0.103
-394.121	-200.000	-0.010	0.231
-393.106	-80.451	0.024	0.008
-392.092	800.000	0.063	-0.208
-391.077	800.000	0.024	0.104
-390.063	27.181	0.142	0.120
-389.048	287.743	-0.082	-0.149
-388.033	-29.081	0.214	-0.123
-387.019	83.183	-0.082	-0.089
-386.004	685.521	0.100	-0.263
-384.990	-42.094	-0.286	0.147
-383.975	-34.667	0.348	0.191
-382.960	50.942	0.060	0.057
-381.946	16.296	-0.227	0.179
-380.931	800.000	0.015	0.057
-379.917	-105.264	0.342	-0.078
-378.902	32.504	0.215	0.186
-377.888	-200.000	0.020	-0.274
-376.873	122.047	-0.106	-0.132
-375.858	-93.473	-0.063	0.017
-374.844	-97.242	0.159	-0.042
-373.829	-139.461	-0.146	0.016
-372.815	-78.656	-0.274	0.094
-371.800	12.760	0.154	0.119
-370.785	74.473	-0.387	-0.407
-369.771	-153.023	-0.208	-0.015
-368.756	-147.432	-0.260	0.022
-367.742	708.548	0.080	0.213
-366.727	-64.454	0.273	-0.111
-365.712	797.773	0.087	-0.240
-364.698	645.457	0.089	-0.227
-363.683	-200.000	0.016	-0.127
-362.669	-104.091	0.406	0.095
-361.654	109.837	0.172	-0.207
-360.639	-67.598	-0.315	0.124
-359.625	-45.464	0.215	-0.107
-358.610	-200.000	-0.005	0.179
-357.596	-17.420	-0.179	-0.113
-356.581	-84.114	0.139	-0.044
-355.566	-46.426	0.064	0.032
-354.552	-26.235	-0.021	0.013
-353.537	-193.670	-0.264	0.002
-352.523	800.000	0.096	0.381
-351.508	-93.195	-0.211	-0.059
-350.493	-200.000	-0.050	0.278
-349.479	74.430	-0.091	0.096
-348.464	30.979	0.168	-0.144
-347.450	618.704	-0.050	0.126
-346.435	-55.886	-0.217	0.097
-345.420	-123.164	0.203	0.033
-344.406	-103.787	-0.075	0.018
-343.391	750.058	0.072	-0.193
-342.377	800.000	0.091	0.288
-341.362	516.027	0.181	0.422
-340.348	37.414	0.142	0.126
-339.333	-200.000	-0.049	-0.232
-338.318	329.797	0.074	0.143
-337.304	-200.000	-0.029	-0.278
-336.289	-86.217	0.201	-0.062
-335.275	-200.000	0.070	0.377
-334.260	-81.651	-0.355	0.117
-333.245	-200.000	0.016	0.155
-332.231	31.291	-0.115	-0.099
-331.216	219.928	-0.241	0.385
-330.202	160.387	-0.119	0.166
-329.187	157.923	-0.078	0.108
-328.172	121.665	-0.128	-0.160
-327.158	-113.245	-0.134	0.026
-326.143	-60.410	0.292	-0.124
-325.129	-87.308	0.144	0.044
-324.114	-38.295	0.254	0.134
-323.099	-200.000	0.013	0.090
-322.085	14.814	-0.204	-0.159
-321.070	71.970	0.238	-0.247
-320.056	800.000	0.046	0.172
-319.041	-200.000	-0.017	-0.079
-318.026	-176.168	0.375	0.010
-317.012	-19.633	-0.150	0.093
-315.997	-165.058	0.387	-0.017
-314.983	85.968	-0.185	-0.204
-313.968	447.788	-0.037	0.082
-312.953	-139.898	-0.214	0.023
-311.939	-0.583	0.046	0.032
-310.924	102.944	0.201	-0.236
-309.910	95.154	-0.070	-0.080
-308.895	-138.381	0.355	0.039
-307.880	271.933	0.022	0.038
-306.866	-54.754	0.279	-0.126
-305.851	64.484	-0.212	0.213
-304.837	-200.000	-0.002	0.040
-303.822	-105.674	-0.251	0.057
-302.807	-200.000	0.001	0.265
-301.793	29.003	0.191	0.161
-300.778	-109.061	0.073	0.015
-299.764	800.000	-0.076	0.218
-298.749	-7.863	-0.136	0.091
-297.735	-151.025	0.279	0.021
-296.720	-41.667	0.072	0.037
-295.705	-200.000	-0.012	-0.066
-294.691	-14.728	0.088	-0.056
-293.676	800.000	0.054	-0.177
-292.662	-200.000	-0.042	-0.370
-291.647	-37.910	0.450	-0.239
-290.632	24.471	0.173	-0.143
-289.618	-200.000	0.012	0.352
-288.603	-168.431	0.089	-0.003
-287.589	-159.850	0.212	0.012
-286.574	-67.398	-0.245	0.096
-285.559	129.739	0.113	-0.145
-284.545	-69.232	0.151	0.058
-283.530	160.950	-0.172	-0.240
-282.516	305.069	-0.112	-0.208
-281.501	-121.914	-0.157	0.026
-280.486	800.000	0.041	-0.155
-279.472	-200.000	-0.013	-0.215
-278.457	-14.606	0.148	0.095
-277.443	-116.423	0.393	-0.072
-276.428	-83.117	-0.122	-0.039
-275.413	135.554	-0.145	-0.189
-274.399	122.680	0.051	0.064
-273.384	442.214	0.155	0.339
-272.370	332.008	-0.092	-0.177
-271.355	-59.711	-0.169	0.072
-270.340	-113.036	0.056	-0.011
-269.326	-29.344	-0.102	0.058
-268.311	-45.477	-0.222	-0.110
-267.297	-117.782	-0.144	0.026
-266.282	465.802	0.154	0.344
-265.267	118.907	0.102	0.126
-264.253	248.983	0.070	-0.118
-263.238	41.732	-0.060	-0.054
-262.224	-162.843	0.202	0.010
-261.209	-200.000	0.010	0.066
-260.195	-147.975	-0.342	-0.028
-259.180	58.236	0.192	-0.187
-258.165	-119.906	-0.241	-0.041
-257.151	91.251	0.102	0.114
-256.136	-200.000	-0.005	-0.261
-255.122	148.137	-0.147	0.198
-254.107	122.319	-0.136	0.170
-253.092	-140.985	0.149	-0.015
-252.078	800.000	0.107	0.447
-251.063	43.569	-0.356	0.324
-250.049	-31.393	-0.226	-0.127
-249.034	-56.563	0.163	-0.072
-248.019	-1.168	0.072	0.051
-247.005	-19.494	0.077	0.047
-245.990	398.473	-0.108	-0.226
-244.976	64.179	-0.194	-0.194
-243.961	-65.003	0.274	-0.110
-242.946	103.347	-0.221	0.259
-241.932	800.000	0.051	-0.210
-240.917	28.377	-0.088	0.074
-239.903	8.762	0.192	0.144
-238.888	-48.713	0.264	-0.126
-237.873	-88.825	-0.199	0.059
-236.859	-142.650	0.127	0.012
-235.844	-141.214	-0.155	0.016
-234.830	-47.353	-0.200	0.097
-233.815	70.500	0.214	0.220
-232.800	-161.754	0.043	-0.002
-231.786	800.000	-0.031	-0.088
-230.771	72.392	0.240	0.249
-229.757	-200.000	-0.036	0.197
-228.742	-30.009	0.109	-0.062
-227.727	-61.415	0.202	0.085
-226.713	346.788	0.129	0.254
-225.698	800.000	-0.023	0.065
-224.684	19.417	0.173	-0.138
-223.669	197.027	0.141	-0.214
-222.655	621.100	0.065	-0.164
-221.640	-65.392	-0.159	-0.064
-220.625	800.000	0.057	0.202
-219.611	181.284	0.085	-0.125
-218.596	43.370	-0.180	0.163
-217.582	290.458	-0.135	0.244
-216.567	544.422	0.069	0.163
-215.552	87.434	-0.103	-0.113
-214.538	-135.566	-0.575	-0.068
-213.523	626.198	-0.143	-0.358
-212.509	800.000	-0.038	0.137
-211.494	-200.000	-0.004	-0.176
-210.479	105.559	-0.026	-0.031
-209.465	-159.596	-0.235	0.013
-208.450	-142.907	-0.065	0.006
-207.436	-65.608	0.195	-0.078
-206.421	313.510	0.129	0.242
-205.406	800.000	-0.065	0.220
-204.392	-93.369	-0.208	-0.057
-203.377	-200.000	-0.027	0.320
-202.363	-51.666	-0.167	0.077
-201.348	-73.093	-0.277	-0.101
-200.333	-3.237	-0.059	0.041
-199.319	-200.000	0.069	-0.505
-198.304	-200.000	0.004	-0.102
-197.290	-148.987	-0.484	0.039
-196.275	142.597	-0.138	-0.182
-195.260	800.000	-0.012	-0.043
-194.246	-54.500	0.239	-0.108
-193.231	152.968	0.219	-0.298
-192.217	-72.894	-0.224	-0.082
-191.202	800.000	0.006	-0.018
-190.187	-200.000	0.049	0.216
-189.173	800.000	0.029	-0.091
-188.158	800.000	0.059	-0.226
-187.144	800.000	-0.108	-0.314
-186.129	91.113	0.211	0.236
-185.114	-86.719	0.246	0.075
-184.100	99.697	-0.114	-0.131
-183.085	340.784	0.082	-0.160
-182.071	205.965	-0.128	0.198
-181.056	-68.484	-0.333	0.128
-180.042	86.098	0.215	0.235
-179.027	-145.552	-0.152	0.014
-178.012	417.301	0.145	-0.309
-176.998	3.067	-0.143	-0.103
-175.983	-42.843	-0.062	0.031
-174.969	800.000	-0.052	-0.213
-173.954	-127.283	0.276	-0.040
-172.939	41.813	0.064	-0.058
-171.925	78.115	0.101	-0.107
-170.910	215.688	-0.213	0.336
-169.896	-71.516	0.183	0.068
-168.881	720.113	-0.133	0.352
-167.866	-200.000	0.028	0.151
-166.852	147.539	-0.084	0.113
-165.837	-83.312	0.205	-0.065
-164.823	-68.466	0.263	0.101
-163.808	134.325	-0.190	0.244
-162.793	21.889	0.213	-0.173
-161.779	6.070	0.132	0.097
-160.764	38.251	0.091	0.080
-159.750	364.166	-0.112	-0.224
-158.735	800.000	-0.020	-0.064
-157.720	405.002	0.062	0.130
-156.706	-78.812	-0.111	0.038
-155.691	63.655	-0.334	-0.334
-154.677	-200.000	0.025	-0.280
-153.662	-142.235	-0.304	0.030
-152.647	-37.324	0.077	0.041
-151.633	-69.019	0.111	0.042
-150.618	-200.000	0.004	-0.167
-149.604	-200.000	-0.008	-0.107
-148.589	575.754	0.164	-0.398
-147.574	-47.780	-0.088	-0.042
-146.560	-200.000	-0.011	0.055
-145.545	-7.283	-0.111	0.075
-144.531	77.158	-0.130	-0.138
-143.516	-87.715	-0.507	-0.152
-142.502	-46.700	0.102	-0.050
-141.487	-200.000	-0.015	0.191
-140.472	-31.507	-0.301	0.168
-139.458	646.523	0.084	-0.214
-138.443	-91.686	0.122	0.034
-137.429	-87.675	-0.175	-0.053
-136.414	-200.000	-0.044	-0.314
-135.399	800.000	-0.016	-0.066
-134.385	25.887	0.365	0.302
-133.370	290.827	-0.123	0.222
-132.356	79.181	0.146	-0.155
-131.341	-119.846	0.259	0.044
-130.326	-6.128	-0.091	0.061
-129.312	-29.332	0.369	0.210
-128.297	90.582	0.145	0.161
-127.283	-59.756	-0.299	-0.127
-126.268	-200.000	-0.002	-0.075
-125.253	156.844	-0.213	0.292
-124.239	103.699	-0.235	0.273
-123.224	-4.444	0.033	-0.023
-122.210	239.135	0.099	-0.164
-121.195	-31.675	0.151	-0.084
-120.180	605.356	0.014	0.036
