DTS Sentinel unit serial number:	SN413079Multiplexer serial number:	ORYXHardware model number:	OX4-SRSoftware version number:	ORYX F/W v4.00 Oryx Data Collector v3.7.2.0data status	okinstallation	princeton_trtdifferential loss correction	single-endedforward channel	channel 3reverse channel	N/Adate	2019/09/18time	00:00:35forward acquisition time	60.00reverse acquisition time	0.00gamma	496.2192k internal	0.2344k external	0.2344temperature offset calibration	0.9949default loss term (dB/km)	0.3790temperature slope calibration	1.0000multiplexer offset coefficient	1.0000multiplexer slope coefficient	1.0000fibre end	0.00T internal ref (°C)	23.87T ext. ref 1 (°C)	0.17T ext. ref 2 (°C)	17.31length (m)	temperature (°C)	Stokes	anti-Stokes-747.200	146.670	-0.074	0.099
-746.185	-200.000	-0.108	0.581
-745.171	187.314	-0.193	0.288
-744.156	-49.596	-0.250	0.119
-743.142	-200.000	-0.091	0.427
-742.127	-109.915	-0.155	0.032
-741.112	-77.671	0.106	-0.037
-740.098	287.150	-0.079	0.143
-739.083	172.180	-0.156	0.225
-738.069	800.000	-0.066	0.226
-737.054	-107.746	0.090	-0.020
-736.039	71.016	-0.220	-0.228
-735.025	-57.991	-0.170	-0.074
-734.010	-200.000	0.050	0.273
-732.996	222.355	-0.085	-0.137
-731.981	-45.172	-0.346	0.172
-730.966	-21.088	-0.180	-0.110
-729.952	23.174	-0.137	0.113
-728.937	295.574	-0.130	-0.238
-727.923	-62.640	0.071	-0.029
-726.908	-40.440	-0.117	0.061
-725.894	35.080	-0.188	-0.164
-724.879	-112.873	0.144	0.029
-723.864	34.010	-0.284	0.248
-722.850	-117.636	-0.165	0.030
-721.835	335.663	-0.052	0.101
-720.821	-200.000	0.007	0.039
-719.806	14.812	0.142	0.111
-718.791	479.277	-0.066	-0.150
-717.777	-66.918	-0.251	-0.099
-716.762	7.696	0.174	-0.130
-715.748	-39.900	-0.139	-0.072
-714.733	161.401	-0.062	0.087
-713.718	-200.000	-0.016	-0.085
-712.704	-188.870	0.360	0.004
-711.689	475.211	-0.159	0.359
-710.675	-26.766	-0.198	-0.116
-709.660	-200.000	0.014	-0.196
-708.645	323.165	-0.049	-0.094
-707.631	-78.447	0.028	-0.010
-706.616	-117.110	0.255	-0.046
-705.602	12.962	0.097	-0.075
-704.587	800.000	-0.055	-0.229
-703.572	167.995	-0.023	0.033
-702.558	-96.410	-0.168	-0.044
-701.543	-200.000	-0.076	-0.362
-700.529	800.000	-0.022	0.093
-699.514	172.499	0.178	-0.256
-698.499	800.000	-0.084	-0.257
-697.485	-136.698	0.109	-0.013
-696.470	800.000	-0.147	-0.521
-695.456	800.000	-0.032	-0.136
-694.441	-85.553	-0.173	-0.054
-693.426	132.643	-0.189	0.244
-692.412	78.618	0.116	-0.123
-691.397	-67.262	-0.336	-0.132
-690.383	358.290	0.112	0.224
-689.368	475.142	-0.104	-0.236
-688.354	3.391	-0.439	-0.319
-687.339	-90.233	0.176	-0.051
-686.324	626.805	-0.029	-0.073
-685.310	274.983	-0.220	-0.390
-684.295	-116.499	0.244	-0.045
-683.281	627.047	0.072	-0.181
-682.266	-173.773	0.218	-0.006
-681.251	-200.000	0.015	-0.075
-680.237	-200.000	0.074	0.350
-679.222	-110.437	-0.271	0.056
-678.208	39.845	-0.182	-0.163
-677.193	800.000	-0.084	-0.297
-676.178	428.737	0.163	-0.351
-675.164	-135.670	0.205	0.024
-674.149	-200.000	0.004	0.128
-673.135	-178.308	-0.252	-0.006
-672.120	46.610	-0.174	-0.161
-671.105	41.398	-0.264	0.238
-670.091	173.540	-0.225	0.324
-669.076	800.000	-0.037	-0.118
-668.062	432.731	-0.088	0.190
-667.047	-3.624	-0.115	0.080
-666.032	694.300	-0.085	0.223
-665.018	-85.227	-0.343	-0.107
-664.003	-12.918	-0.439	0.285
-662.989	532.043	-0.115	0.270
-661.974	-6.008	-0.277	0.189
-660.959	141.164	-0.219	-0.289
-659.945	-176.226	0.180	-0.005
-658.930	-200.000	0.000	-0.030
-657.916	-144.302	0.073	0.007
-656.901	13.700	-0.278	0.216
-655.886	-174.194	0.100	-0.003
-654.872	747.230	0.020	0.054
-653.857	-36.815	0.089	-0.048
-652.843	61.223	0.255	0.253
-651.828	94.263	-0.154	-0.174
-650.814	574.762	-0.158	-0.384
-649.799	800.000	0.081	-0.341
-648.784	198.361	0.202	0.308
-647.770	77.403	-0.122	-0.129
-646.755	-67.233	-0.389	0.153
-645.741	-138.457	0.400	-0.044
-644.726	-64.325	-0.094	-0.038
-643.711	111.008	0.199	0.239
-642.697	-54.680	-0.277	0.125
-641.682	50.321	0.210	-0.198
-640.668	-200.000	0.001	-0.126
-639.653	-200.000	0.001	-0.307
-638.638	-198.119	-0.141	-0.001
-637.624	-151.614	0.199	0.015
-636.609	-59.440	0.067	0.029
-635.595	174.041	0.104	0.150
-634.580	95.493	0.013	-0.015
-633.565	29.288	-0.031	-0.027
-632.551	800.000	0.099	-0.332
-631.536	430.280	0.059	0.126
-630.522	47.325	-0.165	0.153
-629.507	-108.039	0.169	0.037
-628.492	1.990	-0.168	-0.121
-627.478	-36.600	0.042	-0.023
-626.463	344.112	-0.058	0.114
-625.449	-200.000	-0.029	-0.193
-624.434	190.708	-0.089	0.134
-623.419	89.759	-0.063	-0.070
-622.405	478.647	0.066	-0.150
-621.390	26.509	-0.062	-0.051
-620.376	-18.589	0.116	-0.072
-619.361	70.842	-0.084	-0.086
-618.346	-118.619	-0.419	-0.074
-617.332	184.839	-0.256	-0.378
-616.317	166.959	0.068	-0.096
-615.303	-177.466	-0.234	0.006
-614.288	-94.066	0.051	-0.014
-613.273	-91.408	-0.132	0.038
-612.259	165.779	0.052	0.073
-611.244	672.482	0.026	-0.067
-610.230	-200.000	-0.013	-0.356
-609.215	-200.000	-0.029	-0.429
-608.201	148.414	-0.015	-0.020
-607.186	731.350	0.049	0.131
-606.171	-154.571	-0.062	-0.004
-605.157	-69.620	0.088	-0.034
-604.142	37.548	-0.208	-0.184
-603.128	-11.627	0.113	-0.074
-602.113	22.625	0.193	0.157
-601.098	-133.851	-0.155	0.019
-600.084	29.220	0.229	0.193
-599.069	-36.130	-0.118	-0.063
-598.055	158.309	-0.029	0.040
-597.040	181.262	0.083	-0.122
-596.025	60.265	-0.213	-0.210
-595.011	6.353	0.075	0.056
-593.996	-54.490	0.285	-0.128
-592.982	55.367	-0.294	-0.283
-591.967	-136.548	0.094	-0.011
-590.952	-44.181	0.166	0.083
-589.938	-26.265	-0.119	0.069
-588.923	-41.971	0.198	-0.101
-587.909	-37.827	-0.324	-0.171
-586.894	-145.733	0.180	0.016
-585.879	-184.336	-0.133	-0.002
-584.865	-16.581	-0.091	0.058
-583.850	-9.683	0.049	0.032
-582.836	43.696	-0.273	0.249
-581.821	-59.231	0.237	-0.101
-580.806	-200.000	0.047	0.338
-579.792	-117.542	-0.234	0.042
-578.777	-84.698	-0.093	-0.029
-577.763	-187.152	0.223	0.003
-576.748	-64.287	0.049	-0.020
-575.733	-107.907	-0.377	0.081
-574.719	-200.000	0.055	0.327
-573.704	165.567	0.078	-0.110
-572.690	92.771	0.097	0.108
-571.675	78.132	-0.202	-0.214
-570.661	37.527	0.116	-0.102
-569.646	-200.000	0.024	-0.151
-568.631	-51.330	-0.171	-0.080
-567.617	250.316	0.056	-0.094
-566.602	-200.000	-0.012	0.071
-565.588	72.711	-0.129	-0.134
-564.573	41.894	0.065	0.059
-563.558	-104.949	0.345	0.079
-562.544	-39.195	-0.107	0.056
-561.529	7.262	-0.058	-0.043
-560.515	800.000	-0.086	-0.314
-559.500	125.881	-0.245	-0.307
-558.485	108.809	-0.123	-0.146
-557.471	-54.538	0.185	-0.083
-556.456	-28.574	-0.324	-0.185
-555.442	378.571	-0.067	0.136
-554.427	-200.000	0.017	0.203
-553.412	-40.642	0.169	0.087
-552.398	-200.000	-0.011	-0.172
-551.383	-85.550	0.260	-0.080
-550.369	-200.000	0.025	0.307
-549.354	317.911	-0.055	0.103
-548.339	86.376	-0.084	-0.092
-547.325	-37.753	0.068	0.036
-546.310	-92.511	0.198	0.055
-545.296	-120.009	0.255	0.043
-544.281	66.275	-0.237	0.239
-543.266	800.000	0.021	-0.060
-542.252	-200.000	-0.015	0.397
-541.237	-71.404	0.434	-0.161
-540.223	573.262	-0.111	-0.268
-539.208	-86.090	0.112	-0.034
-538.193	-22.074	0.263	-0.159
-537.179	418.398	-0.124	-0.263
-536.164	-200.000	0.000	-0.038
-535.150	-200.000	0.021	0.214
-534.135	114.545	0.217	0.262
-533.121	-39.239	-0.244	-0.127
-532.106	107.117	-0.063	-0.075
-531.091	75.868	0.163	-0.171
-530.077	358.752	0.132	-0.261
-529.062	223.205	0.107	-0.171
-528.048	19.531	0.195	0.156
-527.033	-200.000	-0.016	-0.198
-526.018	-3.251	-0.129	-0.089
-525.004	103.899	0.251	-0.292
-523.989	-90.562	0.325	0.093
-522.975	800.000	-0.045	-0.138
-521.960	238.151	-0.060	0.099
-520.945	113.443	0.051	0.062
-519.931	-77.937	-0.218	-0.075
-518.916	173.063	-0.142	0.203
-517.902	-200.000	-0.037	0.223
-516.887	-200.000	-0.013	0.105
-515.872	164.329	-0.029	0.041
-514.858	-200.000	-0.038	0.318
-513.843	-82.758	-0.176	0.056
-512.829	-121.924	0.199	0.032
-511.814	26.291	0.166	-0.137
-510.799	800.000	0.100	0.311
-509.785	-133.814	-0.258	-0.032
-508.770	-0.748	0.136	-0.096
-507.756	800.000	0.123	-0.397
-506.741	-200.000	-0.049	0.267
-505.726	26.141	0.114	0.095
-504.712	-67.042	-0.413	-0.161
-503.697	23.585	-0.268	-0.219
-502.683	187.683	0.050	-0.075
-501.668	57.902	0.192	0.186
-500.653	282.691	-0.057	0.102
-499.639	55.980	-0.149	-0.143
-498.624	-95.184	0.389	0.104
-497.610	800.000	-0.102	-0.408
-496.595	22.663	-0.205	-0.167
-495.581	-200.000	0.028	0.165
-494.566	-200.000	0.005	-0.103
-493.551	-47.895	0.171	-0.082
-492.537	-200.000	0.029	-0.151
-491.522	-200.000	-0.009	0.154
-490.508	800.000	0.156	0.491
-489.493	96.126	-0.060	0.068
-488.478	192.700	-0.141	0.211
-487.464	264.059	0.086	-0.148
-486.449	800.000	-0.028	-0.077
-485.435	-200.000	0.014	-0.253
-484.420	-75.201	0.020	-0.007
-483.405	-41.851	-0.336	0.171
-482.391	800.000	0.068	-0.224
-481.376	157.154	0.079	0.109
-480.362	-41.082	-0.353	0.180
-479.347	54.222	0.191	-0.182
-478.332	-200.000	0.011	0.050
-477.318	195.223	0.178	0.268
-476.303	800.000	0.054	0.204
-475.289	-35.028	-0.235	-0.127
-474.274	800.000	-0.026	-0.104
-473.259	800.000	0.091	0.312
-472.245	119.717	-0.245	0.301
-471.230	3.056	-0.294	-0.211
-470.216	-1.360	0.333	0.232
-469.201	-50.955	-0.161	-0.075
-468.186	360.305	-0.035	0.069
-467.172	800.000	0.065	0.193
-466.157	179.802	0.109	-0.157
-465.143	-109.086	-0.270	0.057
-464.128	-200.000	-0.007	-0.070
-463.113	34.852	-0.087	-0.075
-462.099	-101.285	-0.094	-0.023
-461.084	-200.000	-0.013	-0.424
-460.070	-84.426	0.275	0.086
-459.055	54.496	-0.123	-0.117
-458.040	-200.000	0.028	-0.408
-457.026	56.444	0.276	0.266
-456.011	135.107	-0.172	0.221
-454.997	32.059	0.192	0.164
-453.982	60.204	0.050	0.049
-452.968	-11.009	-0.270	0.177
-451.953	217.587	0.111	-0.175
-450.938	75.675	-0.285	-0.298
-449.924	110.618	-0.183	-0.217
-448.909	-92.072	-0.072	0.020
-447.895	265.407	0.220	-0.380
-446.880	379.092	0.126	0.256
-445.865	800.000	-0.030	0.094
-444.851	64.154	-0.171	-0.170
-443.836	-108.378	0.050	-0.011
-442.822	45.357	0.286	0.261
-441.807	-194.149	-0.267	-0.002
-440.792	800.000	0.011	0.043
-439.778	-200.000	-0.023	-0.147
-438.763	-79.997	-0.271	0.090
-437.749	-10.965	0.054	0.035
-436.734	13.634	0.113	-0.087
-435.719	-115.463	-0.042	-0.008
-434.705	-121.763	-0.438	-0.072
-433.690	-21.487	-0.018	-0.011
-432.676	-146.652	0.251	-0.021
-431.661	-113.895	0.320	0.061
-430.646	-45.727	0.248	-0.121
-429.632	-11.526	-0.037	0.024
-428.617	394.321	-0.041	0.084
-427.603	-129.328	0.198	-0.027
-426.588	-44.967	0.219	0.108
-425.573	800.000	-0.023	0.077
-424.559	-24.608	-0.175	-0.103
-423.544	-200.000	0.013	-0.408
-422.530	-200.000	0.017	0.231
-421.515	800.000	0.045	0.135
-420.500	191.861	-0.120	0.179
-419.486	100.590	0.200	-0.230
-418.471	-200.000	0.022	0.139
-417.457	368.201	0.188	0.375
-416.442	220.562	0.018	0.029
-415.428	461.566	-0.047	-0.105
-414.413	-78.379	0.062	-0.021
-413.398	-52.168	-0.415	-0.190
-412.384	-200.000	-0.075	0.383
-411.369	689.292	-0.032	0.082
-410.355	-177.826	-0.179	-0.004
-409.340	-57.141	-0.205	-0.089
-408.325	624.154	-0.044	0.108
-407.311	485.182	0.050	0.111
-406.296	-68.110	0.284	-0.109
-405.282	198.131	-0.151	0.227
-404.267	140.924	-0.215	0.281
-403.252	369.286	-0.014	-0.027
-402.238	253.462	0.093	0.156
-401.223	-200.000	-0.005	-0.135
-400.209	254.269	-0.125	0.211
-399.194	537.178	0.100	-0.234
-398.179	600.593	0.088	-0.216
-397.165	75.483	-0.107	-0.111
-396.150	-200.000	-0.006	0.286
-395.136	800.000	-0.112	0.375
-394.121	369.976	0.126	0.251
-393.106	509.118	-0.163	-0.375
-392.092	-44.856	0.045	-0.022
-391.077	-70.057	-0.342	-0.128
-390.063	12.991	0.128	-0.098
-389.048	-200.000	-0.029	-0.156
-388.033	-178.933	-0.462	0.010
-387.019	143.434	0.061	-0.080
-386.004	164.957	-0.094	0.131
-384.990	492.925	0.026	-0.059
-383.975	-10.114	0.056	0.037
-382.960	50.131	-0.004	0.004
-381.946	224.023	-0.024	-0.038
-380.931	-200.000	-0.052	0.475
-379.917	-107.584	-0.111	-0.024
-378.902	-77.512	0.237	-0.081
-377.888	23.268	0.213	0.172
-376.873	372.222	0.181	0.362
-375.858	800.000	0.113	-0.311
-374.844	411.234	-0.092	0.193
-373.829	56.709	0.147	-0.141
-372.815	-200.000	-0.029	-0.300
-371.800	173.302	0.171	0.242
-370.785	31.440	0.147	0.125
-369.771	-200.000	-0.031	0.141
-368.756	-114.548	-0.223	-0.042
-367.742	-85.248	0.109	0.034
-366.727	-160.528	-0.224	0.012
-365.712	249.638	0.220	0.367
-364.698	-71.911	0.282	0.104
-363.683	-132.177	-0.125	0.016
-362.669	687.644	-0.031	0.079
-361.654	43.939	-0.205	-0.185
-360.639	-161.930	0.216	-0.011
-359.625	-200.000	-0.022	0.317
-358.610	-97.593	-0.245	-0.063
-357.596	-200.000	-0.002	0.084
-356.581	-200.000	0.050	-0.281
-355.566	-200.000	-0.006	-0.044
-354.552	175.526	-0.095	-0.136
-353.537	800.000	0.055	-0.235
-352.523	-200.000	0.030	0.148
-351.508	39.665	-0.139	-0.122
-350.493	678.519	-0.082	0.211
-349.479	-51.614	-0.132	-0.061
-348.464	71.667	0.193	-0.197
-347.450	-15.906	-0.223	0.140
-346.435	800.000	-0.015	-0.060
-345.420	20.866	0.160	-0.128
-344.406	-6.598	0.193	-0.130
-343.391	51.991	-0.151	0.141
-342.377	74.288	-0.137	0.142
-341.362	800.000	0.061	-0.211
-340.348	-200.000	0.009	-0.048
-339.333	168.890	0.284	0.399
-338.318	66.352	-0.254	0.254
-337.304	102.647	0.198	0.229
-336.289	-200.000	-0.058	0.319
-335.275	-99.756	0.130	-0.032
-334.260	800.000	0.058	-0.230
-333.245	-175.451	0.235	0.006
-332.231	-200.000	0.006	-0.045
-331.216	-79.125	0.184	-0.061
-330.202	-200.000	-0.064	0.365
-329.187	-105.925	-0.093	-0.021
-328.172	466.357	-0.063	0.140
-327.158	800.000	0.103	0.284
-326.143	-53.093	0.123	0.056
-325.129	-200.000	0.019	-0.111
-324.114	558.133	0.116	0.274
-323.099	80.186	0.150	0.159
-322.085	-162.390	0.178	-0.009
-321.070	47.535	0.264	-0.243
-320.056	-139.009	-0.208	0.022
-319.041	-200.000	-0.021	0.303
-318.026	-200.000	-0.013	0.154
-317.012	110.390	0.079	-0.094
-315.997	-95.418	-0.068	0.018
-314.983	54.114	-0.154	-0.146
-313.968	-119.342	0.497	-0.085
-312.953	800.000	-0.018	-0.073
-311.939	800.000	-0.080	0.239
-310.924	-165.094	-0.250	-0.011
-309.910	60.399	-0.118	-0.115
-308.895	-10.990	-0.141	-0.092
-307.880	415.067	0.223	-0.468
-306.866	-61.937	-0.220	0.091
-305.851	154.203	-0.158	0.213
-304.837	-67.015	-0.020	0.008
-303.822	-30.731	-0.129	-0.072
-302.807	-200.000	-0.005	0.048
-301.793	-104.120	0.102	0.023
-300.778	-55.516	0.016	-0.007
-299.764	281.738	0.084	0.148
-298.749	-64.429	0.141	0.056
-297.735	-200.000	0.024	0.254
-296.720	-2.846	-0.304	-0.209
-295.705	-200.000	0.046	0.250
-294.691	-85.965	0.106	0.032
-293.676	-28.355	-0.210	-0.119
-292.662	131.004	0.160	-0.202
-291.647	-79.331	-0.200	-0.066
-290.632	27.635	-0.298	-0.247
-289.618	-3.919	0.074	0.051
-288.603	53.159	0.021	-0.020
-287.589	105.481	0.195	-0.226
-286.574	467.665	-0.046	-0.102
-285.559	436.379	0.055	-0.119
-284.545	-97.157	-0.074	0.019
-283.530	292.985	-0.083	0.149
-282.516	-78.288	-0.367	0.124
-281.501	-5.157	-0.266	-0.180
-280.486	800.000	0.056	0.174
-279.472	-61.389	0.174	-0.072
-278.457	371.109	-0.096	-0.191
-277.443	113.557	0.082	0.098
-276.428	376.792	-0.082	-0.165
-275.413	618.484	0.115	0.285
-274.399	36.743	-0.316	-0.274
-273.384	-134.791	-0.424	0.051
-272.370	-73.008	0.274	0.099
-271.355	150.799	-0.097	0.130
-270.340	-200.000	0.024	0.298
-269.326	-45.199	-0.103	0.050
-268.311	210.502	0.121	-0.186
-267.297	-94.198	0.353	-0.095
-266.282	91.155	0.305	-0.336
-265.267	-190.431	0.145	0.002
-264.253	139.829	-0.190	0.246
-263.238	-27.824	0.409	0.233
-262.224	6.777	-0.137	0.100
-261.209	75.780	0.188	-0.196
-260.195	-6.902	0.277	0.185
-259.180	435.826	0.060	0.128
-258.165	-200.000	0.023	-0.176
-257.151	386.855	-0.035	0.071
-256.136	59.485	0.260	-0.251
-255.122	15.484	-0.193	0.149
-254.107	51.200	0.229	0.213
-253.092	-200.000	-0.043	-0.221
-252.078	-19.036	0.394	-0.241
-251.063	-200.000	0.007	0.126
-250.049	-115.147	-0.049	-0.009
-249.034	-200.000	-0.013	-0.219
-248.019	-4.096	0.240	-0.163
-247.005	147.092	-0.187	0.247
-245.990	76.040	0.088	-0.091
-244.976	-59.590	-0.265	-0.112
-243.961	800.000	-0.036	0.120
-242.946	-200.000	-0.041	-0.198
-241.932	114.302	0.102	-0.122
-240.917	-48.998	0.118	0.055
-239.903	-58.904	0.143	0.061
-238.888	-200.000	-0.016	0.150
-237.873	41.258	-0.149	0.132
-236.859	-200.000	-0.041	-0.369
-235.844	-102.444	0.104	0.024
-234.830	443.985	0.173	-0.372
-233.815	-200.000	-0.004	-0.364
-232.800	-154.888	0.192	-0.012
-231.786	-200.000	-0.033	0.335
-230.771	-145.124	-0.141	0.013
-229.757	-65.831	-0.152	0.060
-228.742	-11.538	0.061	0.039
-227.727	800.000	0.054	-0.156
-226.713	105.606	-0.060	0.069
-225.698	-18.267	0.007	0.004
-224.684	-116.072	-0.126	0.023
-223.669	148.403	0.162	0.214
-222.655	-28.400	0.105	0.060
-221.640	29.849	0.100	-0.083
-220.625	800.000	0.057	-0.174
-219.611	800.000	0.039	0.142
-218.596	-155.178	-0.395	0.025
-217.582	-7.438	0.257	0.171
-216.567	13.778	0.174	0.133
-215.552	7.650	0.019	0.014
-214.538	800.000	0.019	0.055
-213.523	-200.000	0.017	0.290
-212.509	-23.793	0.297	0.174
-211.494	379.651	-0.177	-0.356
-210.479	-93.590	0.096	-0.026
-209.465	436.217	0.034	-0.073
-208.450	150.623	0.195	-0.259
-207.436	-109.749	-0.054	0.011
-206.421	132.278	0.093	0.118
-205.406	800.000	0.074	-0.215
-204.392	-44.048	0.159	0.078
-203.377	800.000	0.061	0.258
-202.363	-8.520	0.126	-0.083
-201.348	483.409	-0.080	-0.178
-200.333	302.269	-0.017	0.031
-199.319	-71.470	0.087	0.032
-198.304	786.573	0.022	0.059
-197.290	102.746	-0.124	0.142
-196.275	475.125	-0.010	-0.023
-195.260	-105.298	-0.213	0.047
-194.246	198.436	-0.130	-0.195
-193.231	456.724	0.101	0.220
-192.217	17.164	-0.146	0.113
-191.202	43.029	-0.073	-0.065
-190.187	50.737	-0.073	0.068
-189.173	85.524	-0.176	-0.189
-188.158	-74.251	-0.272	-0.096
-187.144	-83.567	0.274	0.086
-186.129	-131.647	-0.204	-0.026
-185.114	270.619	-0.041	-0.071
-184.100	-200.000	-0.046	0.318
-183.085	-94.437	-0.278	-0.074
-182.071	658.734	0.032	-0.081
-181.056	-92.185	0.172	-0.048
-180.042	-162.479	-0.231	0.011
-179.027	-13.061	0.362	-0.230
-178.012	-35.005	0.152	0.081
-176.998	-32.652	-0.507	0.276
-175.983	85.766	0.128	0.138
-174.969	87.973	-0.091	0.099
-173.954	674.845	0.036	0.092
-172.939	-79.016	-0.157	0.052
-171.925	-95.013	0.260	-0.069
-170.910	-71.694	-0.148	0.054
-169.896	800.000	0.012	-0.046
-168.881	80.328	-0.038	-0.040
-167.866	151.881	-0.174	0.231
-166.852	-105.728	-0.014	-0.003
-165.837	217.438	-0.170	0.265
-164.823	800.000	-0.032	-0.131
-163.808	-26.990	0.156	-0.089
-162.793	-157.475	-0.259	-0.015
-161.779	258.338	-0.128	-0.215
-160.764	20.283	0.162	-0.128
-159.750	800.000	0.121	-0.346
-158.735	-3.343	-0.211	-0.144
-157.720	-200.000	-0.016	0.343
-156.706	-115.086	-0.056	0.010
-155.691	800.000	-0.037	-0.149
-154.677	-64.373	0.257	0.102
-153.662	-200.000	-0.026	0.471
-152.647	-200.000	0.003	-0.242
-151.633	196.449	0.101	-0.151
-150.618	-200.000	-0.006	0.104
-149.604	-163.538	0.130	0.006
-148.589	146.655	0.076	-0.099
-147.574	-133.327	0.095	0.012
-146.560	61.548	0.154	0.150
-145.545	43.189	-0.151	-0.135
-144.531	-161.636	0.090	0.005
-143.516	-45.872	-0.209	-0.101
-142.502	800.000	0.075	0.223
-141.487	240.562	0.049	0.079
-140.472	-50.436	-0.514	0.237
-139.458	-99.888	-0.160	0.039
-138.443	-163.290	-0.128	0.006
-137.429	208.183	-0.092	0.141
-136.414	-124.841	0.351	-0.053
-135.399	800.000	0.029	0.084
-134.385	-92.729	-0.193	0.053
-133.370	613.478	0.082	0.200
-132.356	800.000	0.088	-0.345
-131.341	-70.883	0.148	-0.054
-130.326	-200.000	0.049	0.216
-129.312	-84.522	-0.238	0.073
-128.297	392.329	0.047	-0.095
-127.283	136.023	-0.081	0.103
-126.268	6.332	-0.249	0.180
-125.253	-200.000	-0.021	-0.200
-124.239	213.043	0.146	-0.226
-123.224	99.344	-0.236	-0.266
-122.210	-200.000	-0.004	0.425
-121.195	-200.000	-0.046	0.275
