DTS Sentinel unit serial number:	SN413079Multiplexer serial number:	ORYXHardware model number:	OX4-SRSoftware version number:	ORYX F/W v4.00 Oryx Data Collector v3.7.2.0data status	okinstallation	princeton_trtdifferential loss correction	single-endedforward channel	channel 3reverse channel	N/Adate	2019/09/15time	11:56:35forward acquisition time	60.00reverse acquisition time	0.00gamma	496.2192k internal	0.2305k external	0.2305temperature offset calibration	0.9977default loss term (dB/km)	0.3790temperature slope calibration	1.0000multiplexer offset coefficient	1.0000multiplexer slope coefficient	1.0000fibre end	0.00T internal ref (°C)	34.37T ext. ref 1 (°C)	5.08T ext. ref 2 (°C)	30.05length (m)	temperature (°C)	Stokes	anti-Stokes-747.200	202.573	0.111	0.175
-746.185	-58.474	0.246	0.109
-745.171	-200.000	-0.008	0.102
-744.156	800.000	-0.078	0.308
-743.142	79.493	0.259	-0.283
-742.127	501.496	0.266	0.625
-741.112	-62.336	-0.247	0.105
-740.098	-144.187	0.107	-0.010
-739.083	186.250	0.044	0.066
-738.069	191.694	-0.291	0.446
-737.054	214.923	0.127	0.205
-736.039	-19.908	-0.350	0.220
-735.025	-135.686	0.389	0.047
-734.010	-109.279	-0.164	0.035
-732.996	-25.168	-0.516	-0.311
-731.981	-78.508	0.033	-0.011
-730.966	145.528	-0.178	-0.243
-729.952	-147.598	-0.204	0.017
-728.937	-90.377	-0.135	-0.040
-727.923	-97.071	-0.354	-0.094
-726.908	-95.093	-0.288	-0.079
-725.894	-94.635	0.105	0.029
-724.879	-53.496	0.049	0.023
-723.864	-200.000	-0.005	-0.145
-722.850	-200.000	0.000	0.012
-721.835	388.831	0.089	-0.188
-720.821	102.636	-0.239	-0.284
-719.806	-83.591	-0.208	0.068
-718.791	237.626	-0.032	0.053
-717.777	274.574	-0.048	-0.086
-716.762	-123.631	-0.250	-0.040
-715.748	-200.000	0.028	-0.133
-714.733	800.000	0.080	0.283
-713.718	-31.390	-0.202	-0.115
-712.704	398.956	0.142	-0.302
-711.689	800.000	-0.077	0.308
-710.675	-67.926	0.144	0.057
-709.660	334.215	-0.158	0.312
-708.645	-148.048	0.306	0.026
-707.631	-35.619	0.238	0.131
-706.616	-24.788	-0.149	0.090
-705.602	71.209	0.179	0.189
-704.587	-114.994	-0.009	0.002
-703.572	3.081	-0.078	-0.057
-702.558	109.297	-0.170	-0.206
-701.543	-62.729	0.136	-0.057
-700.529	9.132	0.154	0.119
-699.514	-137.234	0.284	-0.033
-698.499	-200.000	0.017	0.233
-697.485	-27.155	-0.174	-0.103
-696.470	-200.000	-0.030	-0.225
-695.456	37.138	0.178	0.160
-694.441	-143.280	0.224	0.022
-693.426	-106.291	0.026	0.006
-692.412	800.000	-0.016	0.053
-691.397	454.381	-0.025	-0.057
-690.383	800.000	0.037	0.119
-689.368	20.195	-0.150	-0.123
-688.354	176.987	0.118	-0.175
-687.339	-108.670	-0.182	-0.040
-686.324	-152.624	-0.144	0.010
-685.310	24.238	0.051	0.042
-684.295	98.259	-0.311	0.364
-683.281	-63.415	-0.005	-0.002
-682.266	206.412	0.119	-0.188
-681.251	-71.781	0.105	-0.040
-680.237	-35.701	-0.111	-0.061
-679.222	-101.690	-0.138	-0.034
-678.208	-8.794	0.161	-0.109
-677.193	550.185	0.078	-0.189
-676.178	800.000	-0.026	-0.102
-675.164	6.020	-0.291	-0.219
-674.149	-135.591	0.166	0.020
-673.135	752.572	-0.086	-0.236
-672.120	41.371	0.046	0.042
-671.105	184.936	0.091	0.137
-670.091	388.614	0.066	-0.139
-669.076	-47.276	-0.257	-0.127
-668.062	-187.598	-0.140	-0.002
-667.047	575.706	0.043	-0.107
-666.032	86.367	-0.166	-0.186
-665.018	431.905	-0.123	-0.270
-664.003	376.788	0.067	0.139
-662.989	51.872	0.052	0.050
-661.974	-150.130	-0.518	-0.041
-660.959	8.784	-0.066	-0.050
-659.945	-200.000	0.004	-0.064
-658.930	261.029	0.025	0.044
-657.916	-19.591	0.135	-0.084
-656.901	-75.999	-0.237	0.085
-655.886	23.855	-0.170	0.142
-654.872	800.000	0.045	-0.133
-653.857	230.651	-0.111	0.185
-652.843	757.458	-0.054	0.148
-651.828	33.259	-0.252	-0.222
-650.814	35.091	-0.246	-0.219
-649.799	-59.934	0.147	0.064
-648.784	191.528	0.105	0.160
-647.770	59.571	-0.109	0.109
-646.755	-80.843	-0.431	-0.145
-645.741	-200.000	0.059	-0.338
-644.726	-130.166	-0.084	-0.012
-643.711	800.000	-0.084	0.241
-642.697	-200.000	-0.071	-0.364
-641.682	571.376	0.050	0.125
-640.668	-85.486	-0.122	-0.038
-639.653	67.785	0.166	-0.172
-638.638	-126.410	0.172	0.026
-637.624	260.905	-0.138	-0.242
-636.609	38.825	-0.249	0.226
-635.595	-129.541	0.347	0.049
-634.580	281.060	0.124	-0.224
-633.565	248.673	-0.184	0.316
-632.551	-200.000	-0.014	0.124
-631.536	-88.001	0.408	0.124
-630.522	-200.000	-0.020	-0.091
-629.507	-200.000	0.029	-0.183
-628.492	-200.000	-0.005	-0.174
-627.478	-200.000	-0.014	-0.099
-626.463	552.370	0.117	0.283
-625.449	-29.245	0.139	0.080
-624.434	86.874	-0.236	-0.264
-623.419	71.637	-0.280	0.295
-622.405	-22.475	0.299	-0.183
-621.390	798.131	0.151	-0.422
-620.376	-130.926	-0.072	0.010
-619.361	436.704	0.071	-0.157
-618.346	-200.000	0.017	-0.147
-617.332	-112.272	-0.176	0.036
-616.317	-4.582	-0.123	-0.086
-615.303	-200.000	0.052	-0.247
-614.288	-200.000	-0.003	0.169
-613.273	-138.522	-0.119	0.013
-612.259	-200.000	0.015	-0.169
-611.244	800.000	-0.105	0.303
-610.230	-200.000	0.007	0.322
-609.215	-165.478	0.174	-0.008
-608.201	35.195	0.166	0.147
-607.186	-145.608	0.248	-0.023
-606.171	95.214	0.164	0.189
-605.157	-150.239	-0.267	-0.021
-604.142	-5.190	0.064	0.045
-603.128	-73.188	-0.273	-0.101
-602.113	510.005	0.151	-0.356
-601.098	69.625	0.111	0.116
-600.084	-84.035	0.105	0.034
-599.069	-200.000	-0.020	0.288
-598.055	-200.000	-0.003	0.074
-597.040	-200.000	-0.016	-0.206
-596.025	237.850	0.076	-0.128
-595.011	-200.000	-0.006	-0.056
-593.996	10.780	0.143	-0.111
-592.982	312.816	0.148	-0.281
-591.967	-180.683	-0.061	-0.001
-590.952	-17.094	-0.288	-0.184
-589.938	-27.194	0.065	-0.038
-588.923	-185.442	0.410	-0.006
-587.909	388.334	-0.181	0.380
-586.894	800.000	-0.016	-0.070
-585.879	-106.150	-0.418	-0.095
-584.865	202.616	-0.146	0.228
-583.850	-200.000	-0.065	0.316
-582.836	133.311	-0.270	0.353
-581.821	13.035	0.293	0.229
-580.806	-60.443	-0.263	0.113
-579.792	-29.361	0.105	0.061
-578.777	263.878	-0.140	0.247
-577.763	123.631	0.147	0.186
-576.748	134.866	-0.230	-0.302
-575.733	-200.000	0.077	-0.396
-574.719	-10.233	0.236	-0.158
-573.704	115.962	-0.128	0.159
-572.690	-200.000	0.142	-0.001
-571.675	474.184	0.079	0.179
-570.661	-79.517	-0.124	0.042
-569.646	-200.000	-0.023	0.138
-568.631	800.000	-0.071	-0.212
-567.617	-175.390	-0.362	-0.010
-566.602	-115.652	0.145	-0.028
-565.588	-200.000	-0.006	-0.035
-564.573	-54.568	0.205	0.094
-563.558	-22.032	-0.198	-0.122
-562.544	-23.047	-0.185	0.113
-561.529	-200.000	-0.045	0.264
-560.515	319.626	-0.114	-0.219
-559.500	210.335	-0.194	0.307
-558.485	-7.052	-0.213	-0.146
-557.471	-57.325	0.168	0.075
-556.456	800.000	-0.065	-0.254
-555.442	11.401	-0.294	0.227
-554.427	-118.863	-0.262	-0.047
-553.412	-117.021	0.345	0.064
-552.398	731.501	0.150	0.405
-551.383	800.000	-0.061	0.171
-550.369	110.802	0.292	0.355
-549.354	88.782	-0.034	-0.038
-548.339	15.430	-0.172	-0.136
-547.325	56.400	0.138	0.135
-546.310	95.133	0.206	-0.237
-545.296	13.161	0.142	-0.111
-544.281	129.470	0.169	0.218
-543.266	800.000	-0.082	-0.298
-542.252	-58.922	0.312	0.136
-541.237	512.278	0.041	0.095
-540.223	-1.529	0.205	-0.146
-539.208	-42.915	0.115	-0.059
-538.193	-139.446	-0.093	-0.010
-537.179	-0.392	0.108	-0.077
-536.164	205.466	-0.041	-0.065
-535.150	-200.000	0.069	-0.336
-534.135	-79.929	-0.238	-0.081
-533.121	81.583	0.115	0.125
-532.106	-200.000	-0.013	0.252
-531.091	-200.000	0.045	-0.214
-530.077	119.596	-0.096	0.120
-529.062	18.519	-0.090	-0.072
-528.048	566.037	0.160	0.391
-527.033	-64.219	0.025	-0.010
-526.018	800.000	-0.010	0.028
-525.004	-171.785	0.191	0.006
-523.989	-121.613	-0.169	-0.028
-522.975	-200.000	0.010	0.090
-521.960	-137.893	0.179	0.020
-520.945	-17.754	0.172	0.109
-519.931	-108.086	-0.543	0.119
-518.916	19.836	0.078	-0.064
-517.902	-79.321	0.100	-0.034
-516.887	311.460	-0.179	0.338
-515.872	-154.400	-0.178	0.012
-514.858	278.013	0.038	-0.068
-513.843	251.574	-0.179	0.307
-512.829	287.599	0.105	-0.191
-511.814	406.667	-0.117	0.250
-510.799	160.380	0.124	-0.174
-509.785	294.047	-0.110	0.202
-508.770	-200.000	-0.037	0.198
-507.756	69.517	0.244	0.253
-506.741	800.000	0.042	0.145
-505.726	-200.000	0.028	0.173
-504.712	241.330	0.077	-0.129
-503.697	-200.000	0.003	-0.042
-502.683	-146.568	0.096	0.008
-501.668	57.161	0.099	0.098
-500.653	36.882	-0.163	-0.146
-499.639	-200.000	-0.020	0.145
-498.624	800.000	0.030	-0.109
-497.610	-200.000	0.015	-0.165
-496.595	-155.008	0.339	-0.022
-495.581	468.437	-0.096	-0.216
-494.566	-200.000	0.031	-0.200
-493.551	-69.019	0.128	-0.050
-492.537	407.431	-0.110	-0.233
-491.522	-133.878	-0.347	-0.043
-490.508	-200.000	0.028	0.264
-489.493	312.147	0.087	-0.165
-488.478	-125.235	-0.391	-0.060
-487.464	-57.539	-0.223	-0.099
-486.449	-125.964	0.245	-0.037
-485.435	354.161	0.033	0.066
-484.420	800.000	-0.135	-0.475
-483.405	-200.000	-0.001	-0.336
-482.391	-106.214	-0.275	0.062
-481.376	104.755	-0.253	-0.300
-480.362	14.013	0.367	-0.287
-479.347	-90.267	-0.171	0.050
-478.332	-5.269	-0.133	-0.092
-477.318	315.040	0.198	-0.376
-476.303	328.131	0.033	0.063
-475.289	-104.773	0.275	-0.064
-474.274	419.212	0.082	-0.176
-473.259	334.963	0.061	-0.119
-472.245	-173.583	-0.263	0.008
-471.230	-200.000	0.014	0.095
-470.216	800.000	-0.099	0.312
-469.201	126.883	-0.200	0.255
-468.186	22.685	0.177	0.146
-467.172	52.121	0.076	-0.073
-466.157	-35.517	-0.205	0.112
-465.143	-116.496	0.278	0.052
-464.128	334.619	0.163	0.318
-463.113	-131.457	0.135	0.018
-462.099	800.000	-0.079	-0.319
-461.084	11.525	-0.106	-0.082
-460.070	691.279	0.023	0.062
-459.055	152.265	-0.153	-0.211
-458.040	-200.000	-0.005	0.230
-457.026	-71.971	0.156	-0.058
-456.011	-186.819	-0.184	0.003
-454.997	-131.240	0.258	-0.035
-453.982	69.236	-0.111	0.115
-452.968	732.815	0.086	0.232
-451.953	-3.245	0.142	-0.100
-450.938	122.092	-0.096	-0.121
-449.924	-114.585	0.178	0.034
-448.909	-200.000	-0.014	-0.086
-447.895	-17.813	-0.069	0.043
-446.880	-94.598	-0.285	0.078
-445.865	-200.000	0.039	0.327
-444.851	40.879	0.140	0.127
-443.836	-111.367	-0.082	-0.017
-442.822	-113.314	-0.196	-0.039
-441.807	-200.000	-0.064	-0.326
-440.792	-91.425	0.127	0.037
-439.778	39.864	-0.210	0.190
-438.763	384.739	-0.068	0.142
-437.749	60.569	0.150	-0.149
-436.734	111.597	-0.343	0.416
-435.719	-200.000	-0.012	0.068
-434.705	-137.271	0.079	-0.009
-433.690	-30.599	0.168	-0.096
-432.676	-96.039	-0.208	-0.056
-431.661	63.498	0.083	0.084
-430.646	735.876	-0.064	0.174
-429.632	-22.198	-0.237	-0.145
-428.617	-200.000	0.007	-0.075
-427.603	-161.187	0.432	-0.023
-426.588	-200.000	-0.014	0.079
-425.573	-67.968	0.462	0.181
-424.559	-97.623	-0.263	-0.069
-423.544	800.000	0.167	0.493
-422.530	-187.366	0.167	0.002
-421.515	37.055	0.018	0.016
-420.500	-175.714	0.128	0.003
-419.486	-26.560	-0.180	0.106
-418.471	800.000	0.054	0.173
-417.457	-200.000	-0.014	0.064
-416.442	65.185	0.127	-0.129
-415.428	-5.548	-0.345	0.238
-414.413	199.300	-0.179	-0.275
-413.398	24.292	0.185	0.154
-412.384	800.000	-0.049	0.188
-411.369	265.431	-0.084	-0.147
-410.355	-58.898	0.100	-0.044
-409.340	-81.305	0.220	0.073
-408.325	51.483	-0.189	0.180
-407.311	151.781	0.080	-0.109
-406.296	-147.504	0.139	-0.012
-405.282	11.825	0.099	0.077
-404.267	179.784	-0.149	0.218
-403.252	-77.678	-0.165	0.057
-402.238	-191.772	-0.109	0.001
-401.223	-17.722	0.162	-0.102
-400.209	-200.000	0.052	0.260
-399.194	800.000	0.078	0.300
-398.179	230.744	0.268	-0.441
-397.165	509.171	0.125	-0.290
-396.150	-200.000	-0.026	0.181
-395.136	-150.004	-0.507	-0.040
-394.121	257.300	0.197	-0.340
-393.106	800.000	0.066	-0.231
-392.092	485.678	0.079	-0.181
-391.077	-148.801	0.176	0.014
-390.063	-55.509	0.146	0.066
-389.048	-19.053	0.175	0.109
-388.033	55.741	0.074	-0.072
-387.019	-9.440	-0.154	0.103
-386.004	-200.000	-0.024	0.178
-384.990	-78.915	0.118	-0.040
-383.975	-104.123	-0.104	0.024
-382.960	-19.374	-0.198	-0.123
-381.946	-200.000	-0.004	0.273
-380.931	-28.969	-0.246	0.142
-379.917	132.267	0.178	-0.230
-378.902	338.637	0.132	-0.258
-377.888	-131.367	0.252	-0.033
-376.873	81.509	-0.158	0.171
-375.858	-106.471	-0.295	-0.066
-374.844	461.683	0.167	-0.373
-373.829	-8.766	0.155	0.104
-372.815	138.692	-0.134	0.177
-371.800	-200.000	0.017	0.262
-370.785	-200.000	-0.014	0.193
-369.771	-200.000	-0.006	-0.111
-368.756	-200.000	-0.007	-0.084
-367.742	-159.832	-0.065	0.004
-366.727	502.396	-0.163	-0.378
-365.712	0.361	-0.428	-0.306
-364.698	-200.000	0.001	-0.111
-363.683	-200.000	-0.013	-0.210
-362.669	-5.646	0.347	-0.238
-361.654	-200.000	0.018	-0.152
-360.639	800.000	0.082	0.291
-359.625	-54.135	-0.234	0.107
-358.610	-85.255	-0.372	0.116
-357.596	103.982	0.172	-0.202
-356.581	-49.946	-0.345	-0.164
-355.566	53.536	0.136	0.130
-354.552	-84.341	0.323	-0.102
-353.537	-148.438	0.293	0.024
-352.523	-93.308	-0.174	-0.048
-351.508	-200.000	-0.064	-0.379
-350.493	84.608	0.144	-0.158
-349.479	-63.562	-0.023	-0.009
-348.464	95.263	-0.045	0.052
-347.450	-17.930	-0.084	-0.053
-346.435	-101.848	0.143	-0.035
-345.420	93.240	0.190	0.216
-344.406	-6.606	-0.417	0.284
-343.391	-7.851	-0.312	-0.211
-342.377	800.000	-0.066	-0.216
-341.362	28.317	-0.224	-0.189
-340.348	18.560	0.195	0.156
-339.333	-65.454	0.064	0.026
-338.318	800.000	0.072	0.245
-337.304	109.911	0.169	0.203
-336.289	2.798	0.119	0.086
-335.275	-200.000	0.013	0.100
-334.260	-40.329	0.105	0.055
-333.245	693.624	-0.076	-0.201
-332.231	-200.000	0.100	-0.481
-331.216	-96.360	0.268	-0.071
-330.202	-115.822	-0.049	0.009
-329.187	-143.667	-0.110	0.010
-328.172	-200.000	0.009	-0.113
-327.158	6.805	0.170	0.126
-326.143	27.097	0.036	-0.030
-325.129	-127.754	0.377	0.054
-324.114	-105.276	0.248	0.057
-323.099	-200.000	-0.033	0.288
-322.085	163.809	-0.189	0.266
-321.070	-200.000	-0.058	-0.414
-320.056	-200.000	-0.018	-0.432
-319.041	239.225	0.159	0.264
-318.026	-200.000	0.007	-0.052
-317.012	356.612	-0.082	-0.163
-315.997	20.887	-0.154	0.125
-314.983	195.968	-0.182	-0.277
-313.968	207.861	-0.222	0.347
-312.953	-29.930	-0.258	0.147
-311.939	-200.000	-0.001	0.123
-310.924	659.102	-0.109	-0.280
-309.910	-93.907	0.241	-0.066
-308.895	-200.000	0.001	-0.473
-307.880	-132.606	0.288	0.037
-306.866	-198.000	0.231	0.001
-305.851	-200.000	-0.008	-0.178
-304.837	278.035	0.093	0.165
-303.822	-200.000	0.017	-0.222
-302.807	-200.000	0.005	0.041
-301.793	-200.000	-0.028	-0.254
-300.778	-200.000	0.040	-0.238
-299.764	-200.000	-0.033	-0.166
-298.749	-51.328	-0.295	-0.138
-297.735	-200.000	-0.025	0.292
-296.720	-9.555	-0.198	0.132
-295.705	171.014	0.152	0.217
-294.691	-74.172	-0.240	0.087
-293.676	-37.669	0.160	-0.085
-292.662	800.000	0.027	0.081
-291.647	83.753	0.049	-0.053
-290.632	-92.313	-0.300	-0.084
-289.618	800.000	-0.122	-0.462
-288.603	-131.254	0.231	-0.031
-287.589	800.000	-0.041	0.121
-286.574	-96.678	-0.263	-0.069
-285.559	239.579	-0.094	0.156
-284.545	-139.384	0.063	-0.007
-283.530	59.565	-0.183	-0.180
-282.516	-97.706	0.061	-0.016
-281.501	374.133	-0.046	0.095
-280.486	800.000	0.037	-0.155
-279.472	193.175	0.119	-0.180
-278.457	-144.110	0.203	0.019
-277.443	-131.804	0.018	-0.002
-276.428	-116.261	0.199	0.037
-275.413	132.002	-0.087	-0.112
-274.399	800.000	-0.183	0.756
-273.384	-87.367	-0.436	0.132
-272.370	800.000	0.084	-0.244
-271.355	-15.659	-0.230	-0.146
-270.340	-36.609	0.096	0.051
-269.326	154.616	-0.024	-0.033
-268.311	2.491	0.275	0.199
-267.297	222.575	-0.066	0.106
-266.282	138.906	0.098	0.128
-265.267	-200.000	0.004	0.180
-264.253	121.469	-0.213	-0.265
-263.238	800.000	-0.027	0.081
-262.224	-129.268	0.114	-0.016
-261.209	338.091	-0.029	-0.057
-260.195	191.127	0.030	0.045
-259.180	420.729	-0.058	0.124
-258.165	-200.000	0.054	0.302
-257.151	321.611	-0.124	-0.236
-256.136	-63.925	0.200	0.081
-255.122	11.716	0.123	0.094
-254.107	290.481	0.116	-0.211
-253.092	347.010	0.075	0.148
-252.078	66.524	-0.132	-0.134
-251.063	-200.000	-0.009	-0.139
-250.049	-108.621	-0.266	-0.057
-249.034	656.590	-0.046	-0.118
-248.019	-57.636	-0.038	-0.017
-247.005	-48.242	-0.281	-0.135
-245.990	-200.000	0.046	-0.239
-244.976	-82.205	0.218	-0.071
-243.961	-62.479	-0.602	-0.250
-242.946	-69.302	0.507	0.194
-241.932	157.585	-0.195	-0.270
-240.917	-200.000	-0.004	0.172
-239.903	-97.851	0.325	-0.084
-238.888	-200.000	0.021	-0.307
-237.873	-24.469	0.282	0.168
-236.859	-200.000	-0.002	0.199
-235.844	-141.771	0.303	0.030
-234.830	-79.298	-0.151	0.051
-233.815	-108.113	0.044	-0.010
-232.800	-67.640	-0.206	0.080
-231.786	-36.730	-0.180	-0.097
-230.771	227.455	-0.138	0.224
-229.757	20.273	0.139	0.112
-228.742	-96.595	0.098	0.026
-227.727	-106.632	-0.260	-0.058
-226.713	-200.000	0.043	0.229
-225.698	-123.620	0.198	-0.031
-224.684	800.000	-0.049	-0.171
-223.669	42.058	0.174	0.157
-222.655	212.186	0.182	0.285
-221.640	-200.000	0.029	0.165
-220.625	355.544	-0.039	-0.077
-219.611	-53.104	0.113	-0.052
-218.596	-55.428	0.256	-0.115
-217.582	84.051	-0.070	0.076
-216.567	-102.828	-0.274	-0.065
-215.552	-77.598	-0.096	0.033
-214.538	13.485	-0.340	-0.263
-213.523	755.709	0.042	0.112
-212.509	-200.000	0.022	0.120
-211.494	371.315	-0.120	-0.243
-210.479	-22.755	0.300	0.181
-209.465	94.895	0.280	0.317
-208.450	-81.491	0.344	-0.113
-207.436	618.458	0.115	-0.287
-206.421	-200.000	0.002	-0.375
-205.406	349.335	-0.037	-0.073
-204.392	62.017	-0.129	0.128
-203.377	206.133	0.121	0.188
-202.363	649.927	-0.095	0.243
-201.348	-92.207	0.127	0.036
-200.333	-95.285	0.212	-0.057
-199.319	152.048	-0.009	0.013
-198.304	-133.239	0.248	-0.031
-197.290	-76.344	0.263	0.092
-196.275	-47.426	0.212	0.103
-195.260	-55.660	-0.090	-0.040
-194.246	-88.981	-0.144	0.042
-193.231	-53.639	-0.216	-0.098
-192.217	723.596	0.115	-0.305
-191.202	-89.725	0.244	0.071
-190.187	-74.563	-0.153	0.055
-189.173	-23.004	-0.173	0.104
-188.158	-200.000	0.012	-0.146
-187.144	-73.908	-0.189	-0.068
-186.129	-69.520	-0.138	0.053
-185.114	16.852	0.124	0.098
-184.100	0.146	-0.096	-0.068
-183.085	-200.000	0.003	-0.197
-182.071	409.982	-0.036	-0.076
-181.056	71.820	0.067	0.069
-180.042	-145.436	-0.108	-0.010
-179.027	-200.000	0.002	-0.195
-178.012	21.117	-0.139	0.112
-176.998	-41.635	0.098	0.050
-175.983	-141.729	-0.131	0.013
-174.969	-55.771	-0.079	-0.035
-173.954	58.856	0.123	-0.120
-172.939	-153.073	-0.423	-0.030
-171.925	-200.000	0.034	-0.164
-170.910	186.316	0.122	0.181
-169.896	-69.679	0.211	0.080
-168.881	214.034	-0.115	0.181
-167.866	-200.000	-0.010	-0.158
-166.852	454.732	0.050	0.111
-165.837	-88.634	-0.136	-0.040
-164.823	-25.655	-0.258	0.151
-163.808	8.366	-0.282	0.211
-162.793	800.000	0.073	-0.242
-161.779	-5.330	0.164	0.112
-160.764	-121.282	0.044	-0.007
-159.750	249.489	-0.022	-0.037
-158.735	-165.944	0.095	0.004
-157.720	-152.113	-0.202	0.015
-156.706	-18.886	0.155	0.096
-155.691	800.000	-0.029	0.109
-154.677	-200.000	0.025	0.172
-153.662	-109.509	-0.169	0.036
-152.647	332.219	0.125	0.239
-151.633	-112.994	-0.017	0.003
-150.618	123.075	-0.096	-0.119
-149.604	197.517	0.096	0.146
-148.589	97.448	-0.035	-0.040
-147.574	165.239	0.130	-0.183
-146.560	324.839	0.051	-0.096
-145.545	-60.162	-0.107	0.045
-144.531	800.000	0.097	-0.328
-143.516	202.137	-0.159	0.243
-142.502	-150.978	-0.029	-0.002
-141.487	-66.393	0.214	-0.084
-140.472	-157.182	-0.063	-0.004
-139.458	11.731	-0.086	-0.066
-138.443	-133.001	-0.321	0.041
-137.429	-144.257	-0.110	-0.010
-136.414	99.562	0.038	0.044
-135.399	-2.424	0.135	-0.094
-134.385	219.337	-0.168	0.267
-133.370	800.000	0.083	0.305
-132.356	-95.270	0.243	0.065
-131.341	141.363	-0.179	-0.236
-130.326	-7.570	0.143	-0.096
-129.312	62.396	0.151	0.149
-128.297	-200.000	-0.007	-0.033
-127.283	-200.000	0.027	-0.167
-126.268	-135.962	-0.369	0.043
-125.253	-35.006	0.326	-0.177
-124.239	-125.514	0.207	0.031
-123.224	-200.000	0.051	-0.409
-122.210	800.000	0.082	0.289
-121.195	9.945	-0.165	0.124
