DTS Sentinel unit serial number:	SN413079Multiplexer serial number:	ORYXHardware model number:	OX4-SRSoftware version number:	ORYX F/W v4.00 Oryx Data Collector v3.7.2.0data status	okinstallation	princeton_trtdifferential loss correction	single-endedforward channel	channel 3reverse channel	N/Adate	2019/09/18time	15:44:35forward acquisition time	60.00reverse acquisition time	0.00gamma	496.2192k internal	0.2298k external	0.2298temperature offset calibration	0.9984default loss term (dB/km)	0.3790temperature slope calibration	1.0000multiplexer offset coefficient	1.0000multiplexer slope coefficient	1.0000fibre end	0.00T internal ref (°C)	36.44T ext. ref 1 (°C)	0.79T ext. ref 2 (°C)	33.00length (m)	temperature (°C)	Stokes	anti-Stokes-747.200	1.327	-0.178	-0.130
-746.185	211.913	-0.198	0.318
-745.171	319.971	-0.005	-0.009
-744.156	-200.000	-0.004	0.194
-743.142	735.591	0.113	0.310
-742.127	115.185	-0.103	0.129
-741.112	-83.553	-0.219	0.071
-740.098	-140.383	-0.174	-0.019
-739.083	-51.345	0.232	-0.111
-738.069	-147.609	-0.079	-0.007
-737.054	-44.569	0.181	-0.092
-736.039	-108.568	-0.108	-0.024
-735.025	466.289	-0.098	-0.225
-734.010	-69.485	-0.212	-0.083
-732.996	-200.000	-0.085	-0.381
-731.981	370.944	0.152	-0.315
-730.966	800.000	-0.065	0.195
-729.952	331.221	-0.135	-0.265
-728.937	142.451	0.205	0.278
-727.923	-200.000	0.016	0.168
-726.908	-200.000	0.062	-0.333
-725.894	11.290	0.284	-0.222
-724.879	126.530	-0.135	-0.175
-723.864	-14.845	0.155	-0.101
-722.850	-200.000	-0.015	-0.150
-721.835	-52.344	-0.093	0.044
-720.821	-99.504	0.260	-0.067
-719.806	-43.246	0.056	0.029
-718.791	153.127	0.089	0.125
-717.777	-33.817	-0.150	-0.084
-716.762	86.274	-0.157	-0.177
-715.748	-187.985	-0.207	0.003
-714.733	-200.000	-0.060	-0.313
-713.718	-136.239	-0.345	-0.041
-712.704	-16.644	-0.175	0.113
-711.689	-46.824	-0.175	-0.087
-710.675	800.000	-0.100	-0.435
-709.660	-108.063	-0.139	0.031
-708.645	-140.735	0.068	-0.007
-707.631	-87.623	-0.226	0.070
-706.616	-200.000	-0.054	-0.271
-705.602	-35.313	0.045	0.025
-704.587	-39.126	0.119	-0.064
-703.572	214.899	-0.124	0.200
-702.558	394.167	0.176	0.373
-701.543	800.000	0.090	0.268
-700.529	310.945	-0.061	-0.116
-699.514	-175.766	-0.243	-0.007
-698.499	-67.405	0.104	-0.042
-697.485	-112.870	0.067	0.013
-696.470	-32.150	0.169	-0.096
-695.456	-55.123	0.134	0.061
-694.441	-200.000	-0.003	-0.352
-693.426	-197.207	0.221	-0.001
-692.412	-200.000	0.059	0.335
-691.397	56.281	0.041	-0.041
-690.383	-60.076	-0.110	0.048
-689.368	-160.028	0.309	0.017
-688.354	125.843	-0.246	0.317
-687.339	360.816	-0.014	-0.028
-686.324	-104.411	0.153	-0.036
-685.310	279.836	-0.119	-0.217
-684.295	61.564	-0.267	0.270
-683.281	-161.597	0.224	-0.012
-682.266	800.000	0.022	0.068
-681.251	69.661	-0.167	-0.175
-680.237	-200.000	0.007	0.031
-679.222	-149.728	0.233	-0.019
-678.208	-139.656	-0.178	0.019
-677.193	-200.000	0.031	-0.229
-676.178	-200.000	-0.014	0.082
-675.164	-126.154	0.246	-0.038
-674.149	126.957	0.085	0.110
-673.135	-41.780	0.037	0.020
-672.120	13.771	-0.149	0.118
-671.105	473.831	-0.078	0.179
-670.091	800.000	0.043	0.127
-669.076	298.809	-0.129	-0.241
-668.062	24.065	0.088	0.074
-667.047	51.188	0.316	0.305
-666.032	-106.922	-0.288	-0.065
-665.018	-165.483	-0.369	0.016
-664.003	204.542	-0.156	-0.247
-662.989	329.925	-0.105	0.205
-661.974	382.431	-0.042	-0.088
-660.959	-36.820	0.155	0.085
-659.945	151.192	0.100	-0.138
-658.930	-200.000	-0.003	-0.186
-657.916	-162.334	0.188	-0.010
-656.901	800.000	-0.013	-0.041
-655.886	-96.153	0.141	-0.038
-654.872	-200.000	0.231	0.000
-653.857	380.428	-0.026	-0.054
-652.843	64.639	-0.250	-0.257
-651.828	800.000	0.099	-0.415
-650.814	24.867	-0.305	-0.257
-649.799	-92.013	0.274	-0.079
-648.784	-183.035	0.227	-0.004
-647.770	88.347	-0.068	-0.077
-646.755	16.239	-0.250	0.201
-645.741	226.370	0.177	0.293
-644.726	152.370	-0.065	0.091
-643.711	-200.000	-0.062	-0.458
-642.697	800.000	0.117	-0.335
-641.682	120.511	0.261	-0.330
-640.668	331.595	0.108	-0.211
-639.653	122.170	0.068	0.086
-638.638	77.964	0.092	-0.100
-637.624	-122.954	-0.289	0.047
-636.609	-88.782	-0.265	0.080
-635.595	-147.742	-0.426	0.036
-634.580	-55.739	0.061	-0.028
-633.565	-25.830	-0.242	-0.145
-632.551	-48.867	0.261	0.127
-631.536	31.129	-0.175	0.153
-630.522	800.000	-0.124	-0.368
-629.507	279.468	0.026	-0.048
-628.492	-119.794	-0.248	-0.043
-627.478	363.283	0.133	-0.271
-626.463	-133.892	-0.070	0.009
-625.449	-66.401	-0.307	0.124
-624.434	391.213	0.067	0.142
-623.419	-200.000	-0.061	-0.339
-622.405	-81.092	0.246	-0.083
-621.390	-200.000	0.001	-0.006
-620.376	277.302	-0.177	0.319
-619.361	800.000	-0.015	0.055
-618.346	800.000	0.036	0.124
-617.332	-166.710	-0.272	-0.011
-616.317	-26.785	0.331	-0.197
-615.303	800.000	-0.045	-0.173
-614.288	264.694	-0.086	-0.153
-613.273	800.000	0.080	-0.252
-612.259	163.777	-0.120	0.172
-611.244	20.463	-0.249	-0.204
-610.230	-12.300	0.195	0.129
-609.215	17.916	-0.195	-0.158
-608.201	-55.062	-0.138	0.063
-607.186	800.000	0.051	0.220
-606.171	136.507	-0.027	0.036
-605.157	755.023	0.066	-0.182
-604.142	-54.158	-0.082	0.038
-603.128	800.000	-0.090	-0.359
-602.113	10.476	-0.258	-0.200
-601.098	-61.758	-0.244	0.104
-600.084	-200.000	0.022	0.111
-599.069	800.000	0.072	-0.210
-598.055	800.000	-0.072	0.208
-597.040	544.480	-0.005	0.013
-596.025	-40.437	-0.148	0.078
-595.011	-146.878	0.221	0.019
-593.996	260.985	-0.039	0.068
-592.982	-89.919	0.086	0.026
-591.967	229.077	0.210	-0.348
-590.952	307.306	0.083	0.157
-589.938	-200.000	0.102	-0.533
-588.923	800.000	-0.108	-0.344
-587.909	-105.873	-0.186	-0.043
-586.894	800.000	0.041	0.117
-585.879	362.693	0.058	0.118
-584.865	134.931	-0.209	-0.275
-583.850	85.085	0.205	0.228
-582.836	-25.616	0.294	0.176
-581.821	800.000	-0.076	-0.227
-580.806	116.549	0.100	-0.124
-579.792	118.590	0.125	0.156
-578.777	-200.000	-0.041	-0.320
-577.763	-113.840	-0.178	0.035
-576.748	207.879	0.135	-0.214
-575.733	-200.000	0.007	-0.173
-574.719	-200.000	0.003	-0.084
-573.704	-129.122	0.164	0.023
-572.690	340.191	0.149	0.295
-571.675	800.000	0.025	-0.076
-570.661	-107.895	0.105	0.023
-569.646	-137.570	0.164	0.019
-568.631	418.066	0.147	-0.319
-567.617	403.395	0.191	-0.407
-566.602	800.000	-0.053	-0.204
-565.588	334.934	-0.083	-0.164
-564.573	31.481	0.074	-0.065
-563.558	-101.751	0.276	0.068
-562.544	-1.884	-0.092	0.066
-561.529	17.136	-0.066	0.053
-560.515	-200.000	0.008	0.202
-559.500	311.621	0.049	0.093
-558.485	800.000	0.069	-0.197
-557.471	800.000	-0.032	-0.105
-556.456	220.891	0.231	0.375
-555.442	23.698	0.137	0.114
-554.427	23.155	-0.177	0.147
-553.412	-90.792	0.271	-0.079
-552.398	-12.197	0.237	-0.157
-551.383	13.131	0.112	-0.087
-550.369	800.000	-0.056	0.157
-549.354	-119.988	0.260	-0.045
-548.339	800.000	-0.104	-0.309
-547.325	94.265	0.213	-0.245
-546.310	-30.861	0.349	0.200
-545.296	-200.000	-0.003	0.121
-544.281	-95.233	-0.175	-0.048
-543.266	110.674	-0.175	0.213
-542.252	75.329	0.195	-0.208
-541.237	60.289	0.070	0.070
-540.223	800.000	-0.011	0.037
-539.208	100.005	0.143	-0.168
-538.193	-7.978	-0.076	-0.052
-537.179	-97.556	0.277	0.073
-536.164	-140.315	0.254	0.027
-535.150	-200.000	0.044	-0.238
-534.135	-4.894	0.192	0.134
-533.121	-133.507	0.270	-0.034
-532.106	-156.960	-0.103	0.006
-531.091	-178.508	-0.074	-0.002
-530.077	-119.781	-0.229	-0.040
-529.062	800.000	-0.081	-0.261
-528.048	800.000	-0.046	0.133
-527.033	357.220	0.070	-0.141
-526.018	-200.000	0.029	0.378
-525.004	-200.000	0.052	0.240
-523.989	142.669	0.095	0.127
-522.975	-104.002	-0.058	-0.014
-521.960	147.711	-0.077	0.105
-520.945	800.000	-0.095	-0.388
-519.931	36.561	0.131	0.117
-518.916	136.009	-0.052	0.068
-517.902	-200.000	-0.051	0.265
-516.887	800.000	-0.034	-0.110
-515.872	-59.601	-0.345	-0.150
-514.858	-61.936	0.467	-0.198
-513.843	55.101	-0.247	-0.242
-512.829	266.489	-0.070	-0.124
-511.814	273.846	0.131	-0.234
-510.799	-200.000	-0.033	0.151
-509.785	-171.423	0.202	-0.007
-508.770	800.000	0.043	-0.127
-507.756	69.669	-0.044	-0.046
-506.741	800.000	0.016	-0.061
-505.726	-200.000	-0.090	-0.482
-504.712	-36.946	-0.149	0.081
-503.697	800.000	-0.062	-0.211
-502.683	8.820	0.205	0.156
-501.668	44.081	0.194	-0.180
-500.653	-19.478	0.126	-0.079
-499.639	-97.099	-0.291	0.077
-498.624	800.000	0.075	-0.227
-497.610	800.000	-0.060	0.205
-496.595	-200.000	-0.282	-0.000
-495.581	800.000	0.062	0.241
-494.566	18.888	-0.138	-0.112
-493.551	800.000	0.074	0.232
-492.537	-200.000	-0.010	0.150
-491.522	-200.000	-0.031	-0.329
-490.508	800.000	-0.037	0.157
-489.493	-39.274	0.189	0.100
-488.478	800.000	0.096	-0.306
-487.464	-200.000	0.036	0.178
-486.449	-142.492	0.218	0.022
-485.435	102.290	-0.164	0.194
-484.420	-81.434	-0.408	0.136
-483.405	-180.479	0.078	0.002
-482.391	-69.635	0.317	-0.123
-481.376	207.455	0.190	-0.300
-480.362	297.634	-0.036	-0.067
-479.347	-200.000	0.038	0.275
-478.332	-90.631	-0.128	0.038
-477.318	-23.182	-0.050	-0.030
-476.303	-200.000	-0.009	-0.082
-475.289	120.280	0.067	0.083
-474.274	288.490	0.097	0.178
-473.259	-52.011	0.204	0.096
-472.245	48.375	0.043	-0.041
-471.230	295.539	0.106	-0.197
-470.216	-140.912	-0.396	0.041
-469.201	281.652	0.166	0.300
-468.186	-164.936	0.232	0.010
-467.172	-200.000	0.033	0.369
-466.157	-163.839	0.202	0.010
-465.143	68.895	-0.195	-0.202
-464.128	223.846	-0.007	0.011
-463.113	34.041	-0.078	0.069
-462.099	103.999	-0.178	0.212
-461.084	-200.000	-0.008	-0.184
-460.070	-200.000	0.069	-0.345
-459.055	497.266	-0.071	-0.166
-458.040	-185.607	0.140	0.002
-457.026	800.000	-0.084	0.243
-456.011	81.629	-0.178	0.194
-454.997	-127.129	0.104	-0.015
-453.982	-46.269	-0.144	-0.072
-452.968	-59.415	0.153	0.066
-451.953	-98.062	-0.223	-0.058
-450.938	-60.986	-0.070	0.030
-449.924	-200.000	-0.006	-0.092
-448.909	160.725	0.070	-0.098
-447.895	800.000	-0.091	-0.344
-446.880	-37.850	-0.202	0.109
-445.865	-9.506	0.388	0.261
-444.851	95.839	0.305	0.351
-443.836	800.000	-0.054	0.152
-442.822	400.737	-0.108	-0.229
-441.807	124.768	-0.147	-0.187
-440.792	-200.000	0.046	0.348
-439.778	-41.323	0.016	0.008
-438.763	14.599	0.098	-0.077
-437.749	-69.511	-0.149	0.058
-436.734	-200.000	-0.006	0.071
-435.719	-200.000	0.035	0.178
-434.705	132.116	-0.036	0.046
-433.690	-200.000	-0.030	-0.386
-432.676	-200.000	0.005	-0.150
-431.661	228.215	-0.164	-0.269
-430.646	-200.000	0.019	0.167
-429.632	150.630	-0.207	-0.283
-428.617	-200.000	-0.018	-0.102
-427.603	123.598	0.032	0.041
-426.588	643.485	-0.078	-0.202
-425.573	42.575	0.120	-0.110
-424.559	134.959	0.264	-0.346
-423.544	-172.226	0.163	0.005
-422.530	-46.471	-0.289	-0.143
-421.515	-125.208	-0.097	0.015
-420.500	577.822	0.037	0.091
-419.486	-200.000	0.012	-0.189
-418.471	-66.107	0.575	-0.231
-417.457	282.723	0.190	-0.343
-416.442	-154.567	-0.380	-0.026
-415.428	-57.043	0.075	-0.033
-414.413	-33.962	-0.274	-0.152
-413.398	-66.596	0.124	-0.050
-412.384	-17.704	-0.136	0.086
-411.369	6.452	-0.270	-0.202
-410.355	38.681	-0.195	0.175
-409.340	-135.963	0.163	0.019
-408.325	141.555	0.081	0.108
-407.311	-54.394	0.274	-0.125
-406.296	37.328	0.161	-0.144
-405.282	579.316	0.063	0.155
-404.267	-142.716	0.289	0.028
-403.252	36.687	-0.070	-0.062
-402.238	-200.000	-0.015	-0.324
-401.223	-200.000	-0.018	-0.129
-400.209	-200.000	0.026	0.138
-399.194	710.162	0.124	0.330
-398.179	18.865	-0.013	-0.010
-397.165	-45.156	0.109	-0.054
-396.150	800.000	-0.068	-0.288
-395.136	-144.655	0.090	0.008
-394.121	800.000	0.073	0.244
-393.106	151.307	0.264	-0.362
-392.092	-55.315	0.178	0.080
-391.077	-180.152	0.067	-0.001
-390.063	80.845	0.164	0.178
-389.048	-135.158	0.151	-0.018
-388.033	98.544	-0.242	0.281
-387.019	123.314	0.345	0.435
-386.004	-151.916	-0.333	0.025
-384.990	-25.458	-0.083	0.050
-383.975	56.853	0.117	0.114
-382.960	-200.000	-0.029	0.260
-381.946	115.651	0.071	0.088
-380.931	-55.580	0.044	-0.020
-379.917	-187.863	0.011	-0.000
-378.902	258.658	-0.112	0.194
-377.888	-100.929	-0.152	-0.038
-376.873	800.000	0.036	0.106
-375.858	-200.000	-0.021	0.137
-374.844	800.000	0.067	-0.244
-373.829	-200.000	0.022	-0.134
-372.815	156.043	0.240	-0.333
-371.800	54.761	0.058	0.056
-370.785	800.000	-0.084	0.289
-369.771	-200.000	-0.000	0.006
-368.756	193.497	-0.186	0.283
-367.742	-42.152	-0.132	-0.068
-366.727	-200.000	-0.003	0.025
-365.712	-132.675	0.205	-0.026
-364.698	158.402	0.108	-0.150
-363.683	412.450	-0.083	0.177
-362.669	-53.238	0.209	0.097
-361.654	232.416	0.034	-0.056
-360.639	27.086	-0.285	0.240
-359.625	-200.000	-0.036	-0.166
-358.610	-96.347	0.246	0.066
-357.596	-200.000	0.041	0.278
-356.581	7.149	-0.034	0.025
-355.566	-77.310	-0.078	0.027
-354.552	800.000	0.034	-0.108
-353.537	32.246	-0.039	-0.034
-352.523	-49.557	-0.236	0.113
-351.508	-200.000	-0.013	0.060
-350.493	-200.000	0.012	0.141
-349.479	-163.953	0.102	0.005
-348.464	-110.661	-0.064	-0.013
-347.450	-2.009	-0.213	0.150
-346.435	-144.432	0.149	0.014
-345.420	-125.512	0.166	0.025
-344.406	94.260	-0.103	-0.117
-343.391	207.878	-0.012	0.019
-342.377	-200.000	-0.001	0.214
-341.362	133.643	-0.201	0.262
-340.348	-136.595	0.178	0.021
-339.333	-74.321	0.083	0.030
-338.318	593.059	-0.021	-0.053
-337.304	39.894	0.187	0.169
-336.289	-22.751	-0.341	0.207
-335.275	-135.698	0.122	0.015
-334.260	-12.173	-0.244	0.160
-333.245	-54.830	0.284	0.129
-332.231	-67.782	-0.197	-0.077
-331.216	23.240	-0.129	-0.106
-330.202	308.643	-0.061	-0.115
-329.187	488.890	-0.088	0.203
-328.172	-200.000	0.022	0.257
-327.158	-179.128	0.152	-0.003
-326.143	2.859	0.402	-0.293
-325.129	-45.959	-0.386	-0.191
-324.114	209.381	-0.079	0.124
-323.099	-6.113	0.128	-0.088
-322.085	282.167	0.052	0.093
-321.070	482.552	0.067	-0.153
-320.056	134.383	-0.257	0.334
-319.041	-200.000	-0.013	-0.229
-318.026	-33.435	0.299	0.166
-317.012	-127.444	0.231	0.034
-315.997	-200.000	-0.005	0.109
-314.983	800.000	-0.059	-0.229
-313.968	-120.944	-0.448	-0.076
-312.953	-200.000	0.000	0.373
-311.939	800.000	-0.073	-0.299
-310.924	23.099	-0.162	-0.134
-309.910	800.000	-0.081	-0.345
-308.895	-200.000	0.024	-0.203
-307.880	114.077	-0.230	-0.281
-306.866	-154.202	0.112	-0.008
-305.851	224.889	0.050	-0.081
-304.837	800.000	0.048	-0.181
-303.822	-41.513	0.010	0.005
-302.807	-200.000	-0.035	0.233
-301.793	-200.000	0.034	-0.204
-300.778	30.568	-0.162	-0.139
-299.764	288.157	0.138	0.251
-298.749	-2.578	0.088	-0.062
-297.735	-101.887	-0.044	-0.011
-296.720	-6.296	0.070	0.048
-295.705	800.000	0.081	0.309
-294.691	84.601	0.185	0.203
-293.676	-200.000	0.016	-0.180
-292.662	345.272	-0.058	0.115
-291.647	-54.983	-0.098	0.044
-290.632	-112.753	-0.242	-0.048
-289.618	43.523	-0.122	0.112
-288.603	194.726	-0.135	0.206
-287.589	5.927	0.231	0.172
-286.574	798.465	0.077	-0.212
-285.559	-200.000	-0.050	-0.306
-284.545	616.859	0.042	0.105
-283.530	45.530	0.178	0.165
-282.516	99.467	0.043	0.050
-281.501	-155.086	-0.119	0.008
-280.486	-142.689	-0.070	-0.007
-279.472	140.112	0.125	-0.165
-278.457	-72.057	0.187	-0.070
-277.443	28.167	-0.210	0.178
-276.428	31.716	0.145	-0.125
-275.413	150.599	-0.146	-0.199
-274.399	-37.236	0.053	-0.028
-273.384	-200.000	-0.017	0.414
-272.370	-95.013	0.100	-0.027
-271.355	-107.249	-0.179	-0.039
-270.340	157.733	-0.084	-0.117
-269.326	-48.982	0.097	-0.046
-268.311	-200.000	0.025	0.220
-267.297	-200.000	0.049	0.272
-266.282	800.000	-0.045	0.151
-265.267	31.628	0.241	0.207
-264.253	-200.000	0.037	0.342
-263.238	5.650	-0.084	0.062
-262.224	-200.000	-0.020	-0.131
-261.209	800.000	-0.062	-0.213
-260.195	-120.453	-0.110	0.019
-259.180	10.899	0.065	0.049
-258.165	-104.965	-0.332	-0.076
-257.151	18.256	0.313	0.250
-256.136	124.864	0.214	-0.269
-255.122	800.000	-0.061	0.198
-254.107	-140.150	-0.178	0.019
-253.092	-200.000	0.039	-0.326
-252.078	-31.722	-0.389	0.219
-251.063	-200.000	-0.000	0.055
-250.049	-129.564	0.193	0.027
-249.034	-200.000	0.021	-0.265
-248.019	-39.126	-0.098	0.051
-247.005	-200.000	0.125	0.550
-245.990	800.000	-0.026	-0.082
-244.976	-200.000	0.044	0.200
-243.961	-65.234	-0.202	-0.082
-242.946	99.020	-0.179	0.207
-241.932	-67.842	-0.088	-0.034
-240.917	-6.184	-0.121	-0.082
-239.903	-83.736	-0.136	-0.044
-238.888	215.269	-0.133	0.211
-237.873	-11.165	0.205	0.135
-236.859	-97.806	0.187	-0.048
-235.844	-126.801	-0.071	-0.011
-234.830	259.193	-0.085	0.147
-233.815	-93.210	0.327	-0.091
-232.800	329.195	-0.127	0.245
-231.786	-200.000	-0.013	0.156
-230.771	-86.787	-0.220	-0.067
-229.757	-89.292	-0.489	0.144
-228.742	433.270	0.012	0.027
-227.727	-200.000	0.003	0.043
-226.713	-12.626	-0.244	-0.159
-225.698	-200.000	-0.016	0.194
-224.684	-200.000	-0.046	0.247
-223.669	292.458	0.277	0.505
-222.655	-100.663	-0.275	0.068
-221.640	-100.721	0.251	-0.062
-220.625	-200.000	0.025	-0.211
-219.611	27.144	-0.142	0.119
-218.596	-42.700	0.297	-0.151
-217.582	-179.273	-0.375	0.008
-216.567	381.329	0.162	0.333
-215.552	800.000	0.040	0.124
-214.538	-32.777	-0.252	0.140
-213.523	800.000	0.041	-0.142
-212.509	23.776	0.148	0.122
-211.494	-90.896	-0.246	-0.071
-210.479	-200.000	0.007	0.393
-209.465	-169.879	-0.232	0.008
-208.450	-200.000	-0.001	0.171
-207.436	-200.000	-0.025	-0.223
-206.421	214.464	-0.154	0.243
-205.406	-74.586	-0.357	0.128
-204.392	800.000	0.046	-0.154
-203.377	-47.030	0.155	0.076
-202.363	577.123	-0.037	0.091
-201.348	344.862	0.228	0.447
-200.333	-18.263	-0.206	0.129
-199.319	54.256	-0.176	0.170
-198.304	107.478	0.095	-0.112
-197.290	800.000	-0.032	0.106
-196.275	-108.998	-0.425	-0.090
-195.260	102.631	0.021	0.024
-194.246	-53.076	0.154	0.071
-193.231	-140.136	0.370	-0.039
-192.217	-200.000	-0.007	-0.194
-191.202	-86.365	-0.162	0.050
-190.187	-200.000	0.009	-0.204
-189.173	800.000	0.124	-0.347
-188.158	800.000	-0.131	0.367
-187.144	65.995	-0.166	0.168
-186.129	-68.784	-0.332	-0.128
-185.114	126.567	-0.169	0.214
-184.100	39.179	-0.151	0.135
-183.085	43.407	0.323	-0.295
-182.071	28.170	0.144	0.121
-181.056	-200.000	0.040	0.217
-180.042	48.264	-0.145	0.135
-179.027	-149.000	-0.355	0.029
-178.012	-151.706	-0.257	0.019
-176.998	-96.382	-0.217	-0.057
-175.983	-15.301	-0.138	0.088
-174.969	-200.000	0.041	-0.227
-173.954	-200.000	0.018	0.105
-172.939	-200.000	0.021	-0.106
-171.925	800.000	-0.051	-0.206
-170.910	94.115	0.277	-0.313
-169.896	179.854	-0.020	-0.029
-168.881	627.784	0.045	0.113
-167.866	-66.503	-0.055	0.022
-166.852	-6.640	0.079	0.053
-165.837	83.616	0.185	0.202
-164.823	36.462	-0.141	-0.124
-163.808	-64.584	-0.308	-0.125
-162.793	121.927	0.159	0.198
-161.779	295.156	0.136	-0.248
-160.764	-65.303	0.223	-0.090
-159.750	-145.458	-0.153	-0.014
-158.735	347.560	-0.042	0.083
-157.720	250.116	-0.188	-0.318
-156.706	60.982	0.257	-0.254
-155.691	58.283	-0.046	-0.045
-154.677	-200.000	-0.025	0.199
-153.662	227.781	-0.079	0.129
-152.647	-139.258	0.235	0.025
-151.633	123.572	0.112	-0.140
-150.618	-37.598	0.159	-0.084
-149.604	768.283	0.155	0.421
-148.589	-138.721	-0.278	0.030
-147.574	-20.438	-0.037	0.023
-146.560	31.756	0.118	-0.101
-145.545	-30.452	-0.179	-0.101
-144.531	125.168	0.063	0.079
-143.516	-16.480	-0.109	-0.069
-142.502	86.081	0.082	-0.089
-141.487	-93.658	-0.435	-0.120
-140.472	46.754	0.115	0.107
-139.458	128.804	-0.260	-0.331
-138.443	292.131	-0.052	-0.095
-137.429	-131.475	-0.302	-0.040
-136.414	1.149	0.286	0.204
-135.399	-200.000	-0.019	0.209
-134.385	-200.000	0.068	-0.472
-133.370	10.611	0.216	-0.164
-132.356	-42.221	-0.317	-0.162
-131.341	-200.000	-0.017	0.151
-130.326	158.163	-0.140	-0.193
-129.312	21.144	0.030	0.024
-128.297	800.000	-0.042	0.123
-127.283	-45.020	0.267	0.133
-126.268	117.520	0.117	0.143
-125.253	83.623	-0.224	0.243
-124.239	-139.517	0.494	0.053
-123.224	-200.000	0.020	-0.361
-122.210	21.460	0.143	-0.116
-121.195	800.000	-0.014	0.057
