DTS Sentinel unit serial number:	SN413079Multiplexer serial number:	ORYXHardware model number:	OX4-SRSoftware version number:	ORYX F/W v4.00 Oryx Data Collector v3.7.2.0data status	okinstallation	princeton_trtdifferential loss correction	single-endedforward channel	channel 3reverse channel	N/Adate	2019/09/19time	05:08:35forward acquisition time	60.00reverse acquisition time	0.00gamma	496.2192k internal	0.2349k external	0.2349temperature offset calibration	0.9993default loss term (dB/km)	0.3790temperature slope calibration	1.0000multiplexer offset coefficient	1.0000multiplexer slope coefficient	1.0000fibre end	0.00T internal ref (°C)	19.62T ext. ref 1 (°C)	0.61T ext. ref 2 (°C)	12.81length (m)	temperature (°C)	Stokes	anti-Stokes-747.200	156.682	0.138	-0.190
-746.185	800.000	-0.055	0.211
-745.171	-200.000	-0.033	0.155
-744.156	-200.000	-0.017	-0.081
-743.142	18.969	0.118	-0.095
-742.127	-188.110	-0.554	0.007
-741.112	-162.945	-0.273	0.013
-740.098	-17.580	-0.163	-0.102
-739.083	-102.778	0.065	-0.016
-738.069	-129.996	-0.269	0.037
-737.054	-61.181	-0.054	-0.023
-736.039	143.931	-0.365	0.486
-735.025	50.995	0.232	0.219
-734.010	-153.805	-0.241	-0.017
-732.996	-200.000	0.014	0.072
-731.981	206.784	0.199	0.310
-730.966	245.666	0.143	-0.240
-729.952	18.744	0.029	0.023
-728.937	-27.899	-0.257	0.149
-727.923	564.490	-0.023	0.055
-726.908	-200.000	0.021	-0.143
-725.894	-200.000	0.033	-0.223
-724.879	-180.367	0.098	-0.002
-723.864	109.994	0.210	0.252
-722.850	-200.000	-0.045	-0.227
-721.835	-81.746	0.290	-0.095
-720.821	-37.583	-0.281	0.149
-719.806	-91.807	0.148	0.042
-718.791	800.000	-0.025	0.080
-717.777	137.796	-0.101	0.132
-716.762	-131.354	-0.434	-0.057
-715.748	-200.000	-0.010	0.371
-714.733	608.258	0.084	-0.208
-713.718	-200.000	0.028	-0.134
-712.704	-159.473	0.286	0.016
-711.689	155.964	-0.156	0.214
-710.675	-20.422	-0.169	-0.104
-709.660	514.187	0.068	-0.158
-708.645	273.438	-0.220	-0.388
-707.631	-41.563	-0.392	0.201
-706.616	18.145	-0.160	0.127
-705.602	-93.652	-0.303	0.084
-704.587	-87.568	0.310	-0.093
-703.572	401.930	-0.111	-0.233
-702.558	-149.196	0.114	0.009
-701.543	-66.807	-0.229	-0.090
-700.529	109.035	-0.128	0.153
-699.514	800.000	0.070	-0.235
-698.499	-200.000	0.011	0.093
-697.485	-200.000	0.025	-0.562
-696.470	140.949	0.166	-0.219
-695.456	138.382	-0.106	0.138
-694.441	-200.000	-0.034	0.188
-693.426	3.595	0.076	0.055
-692.412	-200.000	0.007	0.140
-691.397	800.000	0.072	-0.296
-690.383	489.092	-0.027	0.061
-689.368	800.000	-0.077	-0.213
-688.354	-54.730	0.088	0.040
-687.339	-83.772	-0.200	-0.064
-686.324	266.141	0.064	-0.112
-685.310	-96.428	0.114	0.030
-684.295	-128.593	-0.184	0.026
-683.281	800.000	-0.046	0.163
-682.266	-132.861	0.256	0.033
-681.251	-195.213	-0.303	-0.002
-680.237	19.074	-0.119	0.095
-679.222	800.000	-0.074	-0.211
-678.208	800.000	0.059	-0.172
-677.193	2.919	0.240	0.174
-676.178	-66.837	-0.195	0.077
-675.164	-200.000	-0.078	-0.381
-674.149	-200.000	0.024	-0.109
-673.135	800.000	0.061	0.262
-672.120	199.991	-0.128	0.195
-671.105	-200.000	0.013	-0.330
-670.091	167.650	-0.226	-0.321
-669.076	800.000	-0.081	-0.297
-668.062	177.257	-0.068	-0.099
-667.047	2.229	-0.248	-0.179
-666.032	85.915	0.007	0.008
-665.018	131.017	-0.099	0.127
-664.003	-33.069	-0.233	0.129
-662.989	389.348	-0.105	-0.216
-661.974	-200.000	-0.024	-0.221
-660.959	410.376	-0.128	-0.270
-659.945	-11.441	-0.083	-0.055
-658.930	604.337	0.076	-0.188
-657.916	501.142	0.067	0.153
-656.901	139.066	-0.046	-0.060
-655.886	22.911	0.197	0.160
-654.872	-21.362	0.323	0.196
-653.857	299.462	-0.143	-0.262
-652.843	-200.000	0.025	-0.112
-651.828	576.686	0.064	-0.156
-650.814	408.243	-0.126	-0.266
-649.799	-200.000	-0.082	0.441
-648.784	800.000	0.047	0.161
-647.770	57.706	0.298	-0.290
-646.755	-118.071	0.188	0.034
-645.741	-200.000	0.016	-0.113
-644.726	-136.154	-0.240	0.028
-643.711	38.656	-0.385	-0.341
-642.697	10.590	0.141	0.107
-641.682	-152.088	0.138	0.010
-640.668	197.049	0.059	-0.090
-639.653	57.397	-0.321	-0.312
-638.638	-200.000	0.007	-0.237
-637.624	-121.959	-0.091	0.015
-636.609	-165.689	-0.201	-0.009
-635.595	-54.431	0.388	-0.175
-634.580	800.000	0.129	-0.359
-633.565	800.000	-0.029	-0.108
-632.551	-150.750	0.284	0.021
-631.536	93.845	0.029	0.032
-630.522	-200.000	0.104	0.518
-629.507	84.777	-0.101	0.110
-628.492	-77.537	0.111	0.038
-627.478	-42.162	0.158	0.080
-626.463	-117.438	-0.132	0.024
-625.449	-88.043	-0.265	0.079
-624.434	-200.000	-0.007	-0.069
-623.419	-59.885	0.275	-0.117
-622.405	-5.890	-0.328	-0.223
-621.390	-78.638	0.175	-0.059
-620.376	-112.412	0.243	0.048
-619.361	-154.502	-0.158	-0.011
-618.346	-200.000	-0.007	-0.093
-617.332	58.852	0.099	0.097
-616.317	-200.000	0.025	0.306
-615.303	-6.287	-0.174	0.118
-614.288	800.000	0.107	0.294
-613.273	43.566	0.169	-0.154
-612.259	800.000	-0.072	0.233
-611.244	358.527	0.108	0.214
-610.230	-150.122	0.028	0.002
-609.215	-69.544	0.070	0.027
-608.201	257.060	0.135	0.231
-607.186	492.348	0.062	-0.141
-606.171	-134.343	-0.319	-0.039
-605.157	-200.000	0.002	0.053
-604.142	197.768	-0.119	-0.181
-603.128	-200.000	0.245	-0.001
-602.113	-4.562	-0.311	0.213
-601.098	-57.139	0.321	0.141
-600.084	800.000	-0.049	-0.150
-599.069	45.473	-0.251	-0.231
-598.055	331.807	-0.107	0.204
-597.040	94.734	-0.122	-0.138
-596.025	-116.805	-0.232	-0.042
-595.011	-200.000	0.046	0.273
-593.996	-16.153	-0.207	0.130
-592.982	800.000	-0.041	0.141
-591.967	-26.568	0.239	0.139
-590.952	-66.530	0.057	-0.022
-589.938	800.000	-0.154	-0.445
-588.923	4.953	-0.042	-0.031
-587.909	63.288	0.219	0.218
-586.894	-72.208	-0.242	0.089
-585.879	282.336	-0.105	-0.187
-584.865	-40.507	-0.218	-0.112
-583.850	538.268	0.156	0.368
-582.836	83.766	0.071	0.077
-581.821	-200.000	-0.008	-0.246
-580.806	-147.232	-0.228	-0.019
-579.792	-174.242	-0.038	-0.001
-578.777	-200.000	-0.066	0.358
-577.763	388.557	-0.048	-0.098
-576.748	672.042	0.048	0.123
-575.733	695.577	-0.085	0.221
-574.719	73.798	-0.069	0.072
-573.704	800.000	-0.144	-0.396
-572.690	-80.104	-0.249	0.083
-571.675	73.198	0.121	-0.126
-570.661	-75.215	0.156	0.055
-569.646	125.562	-0.131	-0.164
-568.631	124.422	0.249	-0.310
-567.617	800.000	0.021	0.070
-566.602	-200.000	-0.050	0.249
-565.588	800.000	-0.033	0.129
-564.573	39.537	-0.069	-0.061
-563.558	800.000	0.176	-0.494
-562.544	-80.953	-0.286	0.094
-561.529	-200.000	0.049	0.291
-560.515	-110.614	0.184	-0.038
-559.500	-166.075	0.191	-0.008
-558.485	147.232	-0.149	0.199
-557.471	45.824	-0.094	0.087
-556.456	36.123	0.168	0.147
-555.442	-56.830	0.290	-0.127
-554.427	172.213	-0.219	0.312
-553.412	20.266	-0.252	0.201
-552.398	-200.000	-0.021	0.158
-551.383	-62.942	0.208	-0.085
-550.369	171.742	-0.135	-0.193
-549.354	-131.452	0.232	-0.030
-548.339	91.522	-0.112	-0.125
-547.325	534.850	-0.123	-0.288
-546.310	-127.796	0.170	-0.024
-545.296	-19.111	-0.231	-0.142
-544.281	79.896	0.163	-0.173
-543.266	-200.000	-0.001	0.328
-542.252	-53.058	0.095	-0.043
-541.237	154.399	0.080	0.109
-540.223	800.000	0.073	-0.203
-539.208	800.000	0.096	-0.394
-538.193	-161.090	-0.329	-0.017
-537.179	-76.951	-0.331	0.115
-536.164	156.303	0.125	0.171
-535.150	-156.824	0.125	-0.008
-534.135	-89.600	0.153	-0.044
-533.121	-176.899	-0.156	-0.004
-532.106	-105.329	0.196	-0.044
-531.091	800.000	-0.098	0.308
-530.077	-200.000	0.027	0.276
-529.062	729.199	-0.186	-0.493
-528.048	-12.765	-0.035	0.023
-527.033	-200.000	-0.014	-0.302
-526.018	-48.946	-0.183	-0.087
-525.004	-86.184	0.045	0.014
-523.989	177.118	0.082	0.118
-522.975	-200.000	0.047	0.228
-521.960	99.876	0.148	0.170
-520.945	15.211	0.307	-0.238
-519.931	129.346	0.163	0.206
-518.916	19.139	0.174	-0.138
-517.902	-200.000	0.025	0.193
-516.887	172.400	0.060	0.086
-515.872	-174.012	0.124	0.004
-514.858	319.081	0.064	-0.119
-513.843	350.663	0.231	-0.452
-512.829	248.750	-0.062	0.105
-511.814	616.987	-0.103	-0.257
-510.799	800.000	-0.047	-0.196
-509.785	-78.285	-0.288	-0.098
-508.770	-77.199	0.176	-0.061
-507.756	-150.344	-0.542	0.041
-506.741	69.519	-0.193	-0.197
-505.726	-67.529	-0.025	-0.010
-504.712	-93.571	-0.164	-0.045
-503.697	140.445	0.218	-0.284
-502.683	63.805	-0.081	-0.080
-501.668	-200.000	0.016	-0.274
-500.653	678.289	-0.123	0.318
-499.639	-121.455	-0.199	-0.033
-498.624	-103.149	-0.204	0.048
-497.610	-54.721	-0.228	-0.102
-496.595	-173.294	-0.445	-0.013
-495.581	-130.172	0.110	0.015
-494.566	-88.520	0.239	0.070
-493.551	106.117	0.185	0.217
-492.537	186.359	-0.140	-0.206
-491.522	-200.000	0.151	0.773
-490.508	69.003	0.134	-0.136
-489.493	-156.759	-0.349	0.021
-488.478	-5.370	0.019	-0.013
-487.464	-177.754	0.291	-0.007
-486.449	-200.000	0.002	-0.045
-485.435	175.314	-0.075	0.108
-484.420	324.105	0.118	0.223
-483.405	-200.000	-0.009	-0.259
-482.391	800.000	0.052	-0.151
-481.376	-200.000	0.015	-0.087
-480.362	-133.628	-0.240	0.030
-479.347	-22.665	0.054	0.032
-478.332	135.632	-0.117	-0.151
-477.318	-158.026	-0.433	-0.025
-476.303	-145.825	-0.238	0.021
-475.289	76.354	0.158	-0.166
-474.274	71.462	0.063	0.065
-473.259	-198.336	0.293	0.002
-472.245	-118.698	-0.521	-0.091
-471.230	299.589	0.142	-0.259
-470.216	36.080	-0.406	0.353
-469.201	-41.180	-0.309	-0.157
-468.186	9.611	-0.180	-0.135
-467.172	-69.298	-0.222	-0.084
-466.157	282.773	-0.120	-0.212
-465.143	10.000	-0.057	0.042
-464.128	517.534	0.072	0.166
-463.113	800.000	-0.035	0.124
-462.099	11.676	0.337	0.255
-461.084	788.210	-0.145	-0.392
-460.070	4.918	0.208	-0.151
-459.055	137.433	-0.186	0.240
-458.040	800.000	-0.115	0.407
-457.026	-200.000	0.003	-0.113
-456.011	-72.420	0.137	-0.050
-454.997	800.000	0.159	0.507
-453.982	-108.538	-0.303	-0.064
-452.968	800.000	-0.046	0.133
-451.953	800.000	0.050	-0.140
-450.938	-197.388	-0.365	0.002
-449.924	800.000	0.063	-0.257
-448.909	155.793	-0.121	-0.164
-447.895	-45.543	0.439	-0.214
-446.880	-104.419	0.217	-0.050
-445.865	-200.000	0.060	-0.362
-444.851	64.878	0.170	-0.170
-443.836	-118.929	0.130	0.023
-442.822	-15.663	-0.119	0.075
-441.807	-200.000	-0.045	-0.211
-440.792	-100.309	0.124	0.030
-439.778	293.913	-0.069	0.125
-438.763	61.330	-0.396	-0.389
-437.749	-200.000	-0.007	0.135
-436.734	800.000	0.039	-0.169
-435.719	8.834	-0.199	-0.148
-434.705	-18.031	0.155	0.096
-433.690	-20.884	0.042	-0.025
-432.676	-51.253	-0.033	-0.015
-431.661	208.158	0.105	0.162
-430.646	-200.000	-0.043	-0.307
-429.632	-18.758	0.118	-0.073
-428.617	-34.767	-0.165	0.089
-427.603	800.000	0.079	0.329
-426.588	-47.013	0.203	0.098
-425.573	-19.821	-0.402	-0.245
-424.559	-117.238	-0.245	0.044
-423.544	173.469	-0.107	-0.152
-422.530	-200.000	0.031	-0.155
-421.515	800.000	-0.089	-0.318
-420.500	650.839	-0.090	0.226
-419.486	95.800	0.129	-0.146
-418.471	-137.880	-0.327	-0.036
-417.457	145.180	-0.115	-0.152
-416.442	-119.219	0.222	-0.038
-415.428	88.487	0.035	-0.039
-414.413	-200.000	0.041	-0.339
-413.398	-92.736	-0.189	-0.052
-412.384	-84.265	0.246	-0.077
-411.369	270.818	-0.045	0.079
-410.355	800.000	0.119	-0.393
-409.340	-200.000	0.073	-0.349
-408.325	-0.543	-0.305	0.214
-407.311	-57.713	0.134	-0.058
-406.296	-85.610	-0.186	-0.057
-405.282	318.772	-0.082	0.153
-404.267	-200.000	0.001	-0.048
-403.252	163.764	-0.131	0.182
-402.238	-110.659	-0.383	-0.078
-401.223	-200.000	-0.021	-0.164
-400.209	800.000	-0.035	0.112
-399.194	800.000	0.043	0.117
-398.179	-163.308	-0.079	0.004
-397.165	-40.274	-0.124	-0.063
-396.150	149.683	-0.090	-0.121
-395.136	36.244	-0.297	0.258
-394.121	-187.599	-0.440	-0.006
-393.106	-61.219	-0.238	0.099
-392.092	-38.346	0.401	-0.209
-391.077	-46.460	-0.199	-0.096
-390.063	47.969	-0.158	-0.146
-389.048	-33.632	0.300	-0.163
-388.033	-162.289	-0.169	-0.008
-387.019	-200.000	0.004	-0.020
-386.004	77.932	-0.195	0.205
-384.990	-92.608	0.375	0.104
-383.975	311.606	-0.134	0.247
-382.960	339.913	-0.179	-0.345
-381.946	103.819	0.217	0.251
-380.931	-200.000	-0.047	0.312
-379.917	-64.247	0.367	0.147
-378.902	-78.840	0.139	0.047
-377.888	-172.375	0.157	0.005
-376.873	-25.931	0.245	0.142
-375.858	274.335	-0.184	0.321
-374.844	800.000	0.087	0.240
-373.829	-30.738	-0.102	0.057
-372.815	93.827	-0.045	0.050
-371.800	-88.678	0.162	0.048
-370.785	-200.000	0.073	-0.364
-369.771	158.941	0.106	0.146
-368.756	11.809	-0.030	-0.023
-367.742	97.351	0.210	0.237
-366.727	-116.327	0.297	0.054
-365.712	-70.831	-0.233	-0.086
-364.698	-38.427	0.150	0.078
-363.683	-16.303	0.111	-0.069
-362.669	-80.237	-0.104	-0.034
-361.654	482.175	-0.030	0.067
-360.639	-200.000	-0.015	0.103
-359.625	-200.000	0.022	-0.307
-358.610	-69.434	-0.293	-0.111
-357.596	70.198	0.232	-0.236
-356.581	-5.896	0.065	-0.044
-355.566	131.247	0.227	-0.287
-354.552	-158.989	0.362	-0.020
-353.537	10.233	0.125	0.094
-352.523	78.113	0.116	-0.122
-351.508	7.868	-0.141	0.104
-350.493	800.000	0.042	0.138
-349.479	-147.922	0.210	-0.017
-348.464	462.756	-0.116	0.254
-347.450	-200.000	0.016	-0.270
-346.435	-153.344	-0.163	-0.011
-345.420	-72.681	0.288	0.104
-344.406	487.293	-0.058	-0.129
-343.391	-200.000	0.036	-0.211
-342.377	-200.000	0.022	0.156
-341.362	-2.636	0.083	-0.057
-340.348	51.276	0.289	0.270
-339.333	135.651	0.148	0.190
-338.318	-4.723	-0.133	0.090
-337.304	-200.000	-0.013	-0.289
-336.289	94.861	0.289	-0.323
-335.275	-4.491	0.088	0.060
-334.260	-132.027	0.044	0.006
-333.245	-52.358	-0.541	-0.246
-332.231	-200.000	-0.036	-0.170
-331.216	23.011	0.483	-0.390
-330.202	181.428	-0.108	0.156
-329.187	800.000	0.077	0.263
-328.172	-200.000	0.049	0.329
-327.158	-115.156	-0.206	-0.038
-326.143	32.565	-0.143	0.121
-325.129	-165.451	-0.359	-0.015
-324.114	141.125	0.253	0.329
-323.099	-200.000	0.011	-0.324
-322.085	69.069	0.257	0.260
-321.070	-182.785	-0.102	0.002
-320.056	235.185	0.107	0.174
-319.041	-200.000	0.014	-0.195
-318.026	238.457	-0.027	0.044
-317.012	-9.145	-0.233	0.153
-315.997	800.000	-0.043	0.157
-314.983	-60.576	0.081	0.034
-313.968	-81.607	-0.234	0.075
-312.953	95.497	0.131	0.146
-311.939	42.645	0.269	0.241
-310.924	-84.953	0.102	0.031
-309.910	3.562	-0.055	0.040
-308.895	-200.000	0.030	-0.191
-307.880	-90.626	-0.202	0.057
-306.866	-9.378	-0.019	0.012
-305.851	38.738	-0.215	-0.189
-304.837	-15.123	-0.074	-0.046
-303.822	594.694	0.070	-0.170
-302.807	178.577	0.009	-0.013
-301.793	-13.641	-0.164	-0.104
-300.778	320.803	-0.044	0.082
-299.764	636.069	0.099	-0.247
-298.749	260.839	0.267	0.453
-297.735	-200.000	0.040	0.178
-296.720	149.086	-0.247	0.328
-295.705	102.414	0.047	0.054
-294.691	-34.071	-0.217	0.117
-293.676	-64.804	-0.104	0.041
-292.662	800.000	-0.074	-0.211
-291.647	697.833	-0.064	0.164
-290.632	-200.000	0.019	-0.353
-289.618	-142.702	0.151	-0.014
-288.603	-104.023	0.320	0.073
-287.589	-116.263	-0.196	0.036
-286.574	-200.000	0.022	0.278
-285.559	147.015	0.222	0.293
-284.545	-200.000	0.007	0.047
-283.530	786.430	-0.098	-0.263
-282.516	55.447	0.080	0.076
-281.501	-75.361	-0.083	-0.029
-280.486	67.381	0.094	0.094
-279.472	19.278	0.218	0.172
-278.457	127.844	0.048	0.060
-277.443	800.000	-0.133	0.550
-276.428	800.000	0.034	-0.122
-275.413	70.071	0.057	-0.058
-274.399	21.601	-0.224	0.178
-273.384	-200.000	0.036	0.253
-272.370	-200.000	0.033	0.412
-271.355	290.572	-0.040	0.070
-270.340	-39.685	0.292	0.150
-269.326	122.292	-0.132	-0.162
-268.311	-117.569	-0.151	0.027
-267.297	800.000	0.051	0.184
-266.282	-200.000	0.022	0.147
-265.267	18.165	-0.125	-0.098
-264.253	-200.000	-0.008	-0.075
-263.238	-0.026	0.228	0.159
-262.224	-48.320	-0.203	-0.096
-261.209	-200.000	-0.028	-0.210
-260.195	168.792	0.067	0.094
-259.180	199.493	0.143	-0.215
-258.165	-15.050	-0.198	0.125
-257.151	-53.653	0.115	-0.052
-256.136	-200.000	0.043	0.212
-255.122	-33.119	-0.227	-0.123
-254.107	106.455	0.115	-0.133
-253.092	-128.802	0.304	0.042
-252.078	-93.012	-0.126	0.034
-251.063	-38.097	0.104	-0.054
-250.049	-88.694	-0.067	0.019
-249.034	122.309	0.101	-0.124
-248.019	648.712	-0.094	-0.235
-247.005	634.315	-0.119	0.295
-245.990	-93.490	0.282	0.076
-244.976	-200.000	0.000	-0.100
-243.961	-9.494	-0.125	0.082
-242.946	-42.420	0.190	-0.095
-241.932	304.825	-0.032	0.059
-240.917	-200.000	0.004	0.053
-239.903	800.000	-0.040	-0.161
-238.888	387.852	-0.101	-0.205
-237.873	385.572	0.161	0.326
-236.859	-114.738	0.113	0.021
-235.844	164.642	0.309	0.427
-234.830	66.576	0.221	-0.220
-233.815	800.000	-0.120	-0.388
-232.800	-94.696	-0.322	-0.086
-231.786	13.414	0.279	0.212
-230.771	107.979	-0.184	0.215
-229.757	142.789	-0.014	0.018
-228.742	121.257	0.369	-0.449
-227.727	-113.192	0.044	-0.009
-226.713	7.392	-0.145	0.106
-225.698	343.068	0.049	-0.094
-224.684	37.085	-0.061	-0.053
-223.669	-156.078	-0.122	-0.008
-222.655	800.000	-0.025	0.070
-221.640	-200.000	0.041	0.177
-220.625	65.172	-0.167	-0.165
-219.611	128.456	-0.063	0.078
-218.596	-139.492	-0.183	0.019
-217.582	744.293	-0.039	-0.104
-216.567	-200.000	-0.035	0.227
-215.552	756.751	-0.093	-0.247
-214.538	297.269	-0.098	0.176
-213.523	-21.021	0.144	-0.086
-212.509	-1.637	-0.221	-0.152
-211.494	42.906	0.224	0.200
-210.479	800.000	-0.080	0.312
-209.465	323.500	0.067	-0.125
-208.450	800.000	-0.016	-0.053
-207.436	800.000	-0.065	-0.222
-206.421	-96.713	-0.077	0.020
-205.406	-67.005	-0.260	0.101
-204.392	-200.000	0.094	0.463
-203.377	-200.000	0.024	0.175
-202.363	72.731	0.149	-0.152
-201.348	28.689	-0.157	-0.130
-200.333	-200.000	0.065	-0.310
-199.319	-78.031	-0.075	0.025
-198.304	180.172	0.126	-0.180
-197.290	223.605	-0.033	-0.052
-196.275	247.547	0.066	0.110
-195.260	-200.000	-0.036	-0.317
-194.246	-42.631	0.295	0.147
-193.231	800.000	-0.062	0.192
-192.217	136.800	0.279	-0.357
-191.202	71.388	0.180	0.182
-190.187	800.000	-0.076	-0.286
-189.173	-139.455	-0.057	0.006
-188.158	-200.000	-0.014	0.258
-187.144	-116.004	0.065	0.012
-186.129	-200.000	0.065	-0.341
-185.114	20.668	0.251	-0.198
-184.100	361.336	0.092	0.180
-183.085	-87.277	0.077	0.023
-182.071	-93.946	0.079	-0.021
-181.056	-87.095	0.297	0.088
-180.042	100.540	-0.116	0.132
-179.027	85.977	0.062	-0.066
-178.012	-200.000	0.057	0.248
-176.998	-174.460	0.213	0.006
-175.983	800.000	0.049	-0.137
-174.969	-5.627	0.144	-0.097
-173.954	-187.223	-0.216	-0.003
-172.939	-109.554	0.185	-0.038
-171.925	-200.000	0.007	0.177
-170.910	659.635	0.082	-0.205
-169.896	-118.615	0.146	0.025
-168.881	-42.130	-0.136	-0.068
-167.866	-78.098	0.062	0.021
-166.852	-92.895	0.230	0.063
-165.837	341.005	-0.142	-0.271
-164.823	-200.000	-0.007	0.138
-163.808	-200.000	0.013	0.243
-162.793	-154.272	-0.249	0.016
-161.779	800.000	0.054	-0.155
-160.764	162.115	-0.170	0.233
-159.750	51.997	-0.233	-0.217
-158.735	406.067	0.071	0.147
-157.720	-188.064	0.536	-0.007
-156.706	-200.000	-0.005	-0.070
-155.691	9.096	-0.077	0.057
-154.677	641.764	0.036	-0.088
-153.662	800.000	0.081	0.322
-152.647	253.462	0.110	-0.183
-151.633	-126.277	0.369	-0.054
-150.618	-200.000	0.044	0.236
-149.604	-42.425	0.206	0.103
-148.589	137.282	0.108	0.138
-147.574	9.226	-0.383	0.282
-146.560	-2.487	-0.101	-0.069
-145.545	800.000	0.131	-0.396
-144.531	-200.000	0.035	-0.212
-143.516	109.277	0.280	0.327
-142.502	800.000	0.039	0.157
-141.487	-103.419	0.076	-0.017
-140.472	-128.273	0.166	-0.023
-139.458	126.646	0.071	-0.088
-138.443	385.498	0.092	-0.185
-137.429	143.025	-0.090	-0.117
-136.414	171.788	0.017	-0.024
-135.399	249.067	0.073	0.120
-134.385	-52.508	-0.139	0.063
-133.370	-39.248	0.085	-0.044
-132.356	-38.630	-0.247	0.127
-131.341	-30.978	-0.050	0.027
-130.326	644.692	0.210	0.523
-129.312	55.005	-0.113	-0.106
-128.297	264.889	-0.116	0.197
-127.283	-125.635	0.198	-0.029
-126.268	-113.837	-0.134	-0.025
-125.253	213.395	0.246	0.378
-124.239	-200.000	-0.047	-0.320
-123.224	-139.341	0.616	0.065
-122.210	373.227	0.172	-0.342
-121.195	-200.000	-0.042	-0.181
