DTS Sentinel unit serial number:	SN413079Multiplexer serial number:	ORYXHardware model number:	OX4-SRSoftware version number:	ORYX F/W v4.00 Oryx Data Collector v3.7.2.0data status	okinstallation	princeton_trtdifferential loss correction	single-endedforward channel	channel 3reverse channel	N/Adate	2019/09/16time	01:56:35forward acquisition time	60.00reverse acquisition time	0.00gamma	496.2192k internal	0.2336k external	0.2336temperature offset calibration	0.9953default loss term (dB/km)	0.3790temperature slope calibration	1.0000multiplexer offset coefficient	1.0000multiplexer slope coefficient	1.0000fibre end	0.00T internal ref (°C)	27.44T ext. ref 1 (°C)	10.07T ext. ref 2 (°C)	22.34length (m)	temperature (°C)	Stokes	anti-Stokes-747.200	-56.701	0.252	-0.112
-746.185	-8.598	-0.311	0.210
-745.171	-72.226	-0.339	0.126
-744.156	139.863	-0.075	0.099
-743.142	-32.788	-0.459	0.256
-742.127	-200.000	-0.016	0.322
-741.112	-35.313	0.317	0.173
-740.098	400.670	-0.144	0.304
-739.083	173.321	-0.151	-0.218
-738.069	252.865	-0.188	0.322
-737.054	404.605	0.155	0.328
-736.039	-146.861	-0.163	-0.014
-735.025	280.991	0.075	0.135
-734.010	-176.694	0.543	0.014
-732.996	-144.737	-0.225	0.021
-731.981	-149.654	-0.113	-0.009
-730.966	-135.968	0.288	0.034
-729.952	232.221	-0.073	-0.120
-728.937	183.535	0.071	0.105
-727.923	-54.473	0.190	0.086
-726.908	800.000	0.073	-0.276
-725.894	-200.000	-0.007	-0.388
-724.879	-70.238	0.019	-0.007
-723.864	800.000	-0.037	-0.150
-722.850	239.913	0.084	0.140
-721.835	-76.421	0.224	-0.079
-720.821	74.380	-0.301	-0.317
-719.806	-95.616	0.145	0.039
-718.791	9.469	-0.079	-0.060
-717.777	482.311	0.041	-0.094
-716.762	34.992	-0.271	0.238
-715.748	30.130	0.062	0.053
-714.733	99.757	0.093	0.108
-713.718	309.491	-0.107	-0.201
-712.704	510.456	-0.113	-0.263
-711.689	800.000	-0.015	-0.050
-710.675	216.862	0.014	-0.022
-709.660	-200.000	0.001	-0.051
-708.645	125.758	-0.218	-0.276
-707.631	-138.046	-0.525	-0.059
-706.616	-200.000	-0.029	-0.379
-705.602	92.006	-0.026	-0.030
-704.587	-200.000	0.029	-0.234
-703.572	243.152	-0.255	0.428
-702.558	-102.593	-0.319	-0.076
-701.543	119.441	-0.172	-0.213
-700.529	277.343	-0.092	-0.164
-699.514	800.000	0.024	-0.068
-698.499	800.000	0.060	-0.195
-697.485	482.707	-0.057	0.129
-696.470	-104.794	0.291	-0.067
-695.456	-99.313	-0.427	0.108
-694.441	8.599	0.206	-0.155
-693.426	-81.569	0.105	-0.035
-692.412	417.030	0.015	-0.032
-691.397	-200.000	-0.035	-0.276
-690.383	134.487	0.213	-0.277
-689.368	-200.000	-0.035	0.246
-688.354	-80.822	-0.252	-0.084
-687.339	-200.000	-0.049	0.234
-686.324	-116.324	0.202	-0.037
-685.310	-200.000	-0.038	-0.395
-684.295	35.855	-0.080	0.071
-683.281	-86.518	-0.651	0.200
-682.266	15.884	-0.072	0.057
-681.251	-200.000	0.047	-0.325
-680.237	-30.021	-0.171	-0.098
-679.222	177.105	0.063	0.092
-678.208	-55.971	-0.321	0.144
-677.193	-173.400	0.131	0.004
-676.178	-89.701	0.255	-0.075
-675.164	-69.516	-0.076	-0.029
-674.149	40.992	0.090	0.081
-673.135	70.684	0.188	0.195
-672.120	-148.849	-0.541	-0.044
-671.105	130.177	0.082	0.105
-670.091	-84.115	-0.225	0.072
-669.076	-37.195	-0.233	-0.125
-668.062	578.776	-0.112	0.275
-667.047	-2.178	0.225	-0.158
-666.032	-126.128	0.268	-0.040
-665.018	314.096	-0.144	-0.271
-664.003	191.443	0.162	-0.244
-662.989	-200.000	0.011	0.066
-661.974	750.402	0.014	-0.038
-660.959	-200.000	-0.038	-0.316
-659.945	45.846	0.085	-0.079
-658.930	7.354	0.016	0.012
-657.916	-200.000	0.042	-0.199
-656.901	-63.556	-0.130	0.054
-655.886	-200.000	0.002	-0.064
-654.872	26.014	-0.118	-0.098
-653.857	-4.888	-0.334	0.230
-652.843	379.501	-0.142	0.290
-651.828	800.000	0.062	-0.202
-650.814	13.794	0.154	-0.120
-649.799	276.910	0.214	-0.381
-648.784	52.061	-0.111	-0.106
-647.770	19.863	0.079	-0.063
-646.755	-200.000	-0.020	-0.176
-645.741	-73.508	-0.169	-0.062
-644.726	304.393	-0.096	-0.178
-643.711	622.498	0.062	0.157
-642.697	-58.772	0.037	0.016
-641.682	-140.231	-0.082	-0.009
-640.668	-200.000	-0.045	0.289
-639.653	494.835	-0.086	-0.197
-638.638	800.000	-0.069	0.230
-637.624	9.672	0.235	-0.178
-636.609	800.000	0.045	-0.187
-635.595	18.559	0.074	0.059
-634.580	458.445	-0.120	-0.267
-633.565	634.420	0.015	-0.039
-632.551	389.095	-0.073	-0.151
-631.536	-121.895	0.161	0.026
-630.522	-47.221	0.254	0.124
-629.507	-116.198	0.201	0.037
-628.492	-37.975	0.131	0.070
-627.478	402.686	-0.088	0.184
-626.463	-174.551	0.212	0.006
-625.449	-8.229	0.072	0.048
-624.434	-127.003	0.326	0.048
-623.419	-122.068	-0.145	-0.024
-622.405	176.481	0.129	0.187
-621.390	-41.726	-0.085	0.044
-620.376	128.086	0.233	-0.296
-619.361	-46.161	0.044	0.022
-618.346	-16.810	0.227	-0.144
-617.332	-200.000	-0.022	-0.140
-616.317	784.748	0.114	-0.313
-615.303	24.621	-0.099	0.082
-614.288	800.000	-0.027	-0.096
-613.273	-54.021	0.155	0.071
-612.259	43.452	0.356	-0.325
-611.244	-200.000	-0.064	0.301
-610.230	-8.726	0.127	0.085
-609.215	7.372	0.186	-0.139
-608.201	-176.140	0.085	-0.002
-607.186	-115.988	0.495	0.092
-606.171	800.000	-0.075	-0.245
-605.157	-18.996	-0.168	0.105
-604.142	-14.695	-0.213	-0.136
-603.128	78.000	0.117	-0.125
-602.113	149.681	-0.139	-0.187
-601.098	120.801	-0.124	-0.154
-600.084	-9.266	-0.231	-0.154
-599.069	-94.536	-0.241	0.066
-598.055	800.000	-0.059	-0.243
-597.040	-200.000	0.003	-0.244
-596.025	-200.000	0.002	-0.256
-595.011	800.000	-0.087	-0.304
-593.996	-5.904	-0.043	0.029
-592.982	176.512	-0.169	-0.246
-591.967	-96.534	-0.189	-0.050
-590.952	70.055	-0.168	-0.173
-589.938	-28.021	-0.168	0.097
-588.923	30.783	-0.286	-0.245
-587.909	-200.000	0.030	-0.254
-586.894	6.312	0.316	-0.234
-585.879	-170.395	-0.271	0.009
-584.865	-200.000	-0.018	-0.324
-583.850	450.024	-0.064	0.142
-582.836	-200.000	0.041	-0.485
-581.821	-200.000	0.000	0.008
-580.806	23.772	-0.201	0.165
-579.792	800.000	0.076	0.214
-578.777	-200.000	0.037	0.266
-577.763	-1.729	-0.224	0.157
-576.748	-57.731	-0.058	-0.025
-575.733	-200.000	-0.013	0.107
-574.719	-55.460	-0.359	0.161
-573.704	220.793	-0.072	-0.115
-572.690	36.802	0.296	-0.261
-571.675	-9.267	0.118	-0.079
-570.661	800.000	0.056	0.205
-569.646	597.379	-0.069	-0.170
-568.631	375.053	0.087	-0.176
-567.617	-150.375	0.078	-0.006
-566.602	-173.982	0.123	0.004
-565.588	159.137	-0.172	0.239
-564.573	800.000	0.072	-0.313
-563.558	699.461	0.031	0.080
-562.544	-200.000	0.003	-0.193
-561.529	-200.000	0.053	0.271
-560.515	-120.447	-0.298	-0.051
-559.500	412.734	-0.134	0.284
-558.485	-17.170	0.174	0.109
-557.471	-5.577	-0.090	-0.062
-556.456	292.912	-0.232	0.422
-555.442	-100.991	0.187	-0.046
-554.427	-200.000	0.002	0.050
-553.412	-33.540	-0.128	-0.070
-552.398	178.446	-0.197	-0.286
-551.383	-200.000	-0.059	0.296
-550.369	-50.739	0.232	0.109
-549.354	-45.892	-0.410	-0.202
-548.339	-81.083	-0.439	-0.145
-547.325	70.626	-0.286	0.295
-546.310	800.000	0.069	-0.220
-545.296	269.420	0.067	-0.116
-544.281	-200.000	0.046	0.278
-543.266	-136.506	0.340	-0.039
-542.252	800.000	-0.067	-0.261
-541.237	-200.000	-0.079	-0.621
-540.223	-114.706	0.227	-0.043
-539.208	44.104	-0.194	0.177
-538.193	-200.000	-0.031	-0.324
-537.179	84.641	-0.109	0.119
-536.164	174.528	-0.124	-0.179
-535.150	158.672	0.166	-0.230
-534.135	-105.186	0.066	0.015
-533.121	-16.772	0.199	0.125
-532.106	800.000	0.043	0.165
-531.091	800.000	-0.066	-0.213
-530.077	-200.000	-0.044	0.261
-529.062	-163.772	0.390	0.018
-528.048	-79.334	-0.171	0.058
-527.033	-40.375	0.179	-0.093
-526.018	-133.526	-0.224	0.028
-525.004	355.204	-0.110	0.217
-523.989	-200.000	0.060	-0.265
-522.975	13.235	-0.276	0.213
-521.960	800.000	0.041	-0.166
-520.945	275.377	0.110	0.194
-519.931	-173.435	-0.156	-0.005
-518.916	759.054	-0.051	0.138
-517.902	-27.327	-0.104	0.060
-516.887	788.967	-0.083	-0.227
-515.872	131.016	-0.341	-0.436
-514.858	-138.298	-0.127	0.014
-513.843	-11.826	0.136	-0.089
-512.829	800.000	0.027	-0.082
-511.814	-110.430	-0.099	0.020
-510.799	-200.000	0.002	0.228
-509.785	-200.000	-0.049	0.249
-508.770	-97.904	-0.239	0.061
-507.756	8.955	0.330	0.248
-506.741	800.000	0.075	0.231
-505.726	-31.849	0.174	-0.097
-504.712	-200.000	-0.000	-0.104
-503.697	800.000	-0.070	0.211
-502.683	26.653	-0.220	-0.183
-501.668	-200.000	-0.032	0.318
-500.653	-161.231	-0.066	-0.003
-499.639	-159.540	0.160	-0.009
-498.624	-200.000	-0.020	0.168
-497.610	-107.490	0.329	0.072
-496.595	3.145	-0.059	-0.043
-495.581	582.517	0.122	-0.297
-494.566	100.338	0.126	-0.146
-493.551	-200.000	0.000	-0.024
-492.537	800.000	0.081	0.295
-491.522	33.495	0.228	0.197
-490.508	521.658	-0.061	-0.142
-489.493	-200.000	-0.018	0.122
-488.478	-81.987	0.137	-0.045
-487.464	-108.578	-0.331	0.071
-486.449	76.569	-0.095	0.100
-485.435	-88.036	0.088	-0.026
-484.420	64.259	-0.187	-0.187
-483.405	-74.673	-0.167	-0.060
-482.391	49.067	-0.079	0.074
-481.376	-200.000	-0.058	-0.343
-480.362	-200.000	-0.025	0.156
-479.347	800.000	0.097	0.321
-478.332	-10.391	0.044	0.029
-477.318	37.251	-0.088	0.078
-476.303	-137.724	0.034	0.004
-475.289	-59.293	-0.118	0.050
-474.274	-22.569	-0.244	0.146
-473.259	168.694	0.034	0.048
-472.245	800.000	-0.055	-0.212
-471.230	46.915	-0.187	0.173
-470.216	326.715	0.040	0.075
-469.201	627.617	0.085	0.214
-468.186	70.190	-0.170	0.175
-467.172	-49.653	0.046	-0.022
-466.157	71.238	-0.284	-0.292
-465.143	795.004	-0.082	0.224
-464.128	106.966	-0.165	-0.195
-463.113	695.895	0.076	0.198
-462.099	800.000	0.056	0.202
-461.084	-171.435	0.138	-0.005
-460.070	-5.506	-0.244	-0.167
-459.055	800.000	-0.050	-0.148
-458.040	-91.719	0.167	0.047
-457.026	135.867	-0.149	0.192
-456.011	-43.448	0.321	0.161
-454.997	-200.000	-0.047	-0.217
-453.982	34.626	0.165	0.143
-452.968	800.000	0.063	0.247
-451.953	37.031	-0.225	0.198
-450.938	-44.444	-0.259	-0.129
-449.924	-90.458	0.159	0.046
-448.909	-195.905	0.132	0.001
-447.895	-200.000	-0.020	0.452
-446.880	397.523	0.023	0.047
-445.865	800.000	-0.153	0.464
-444.851	230.488	0.099	-0.160
-443.836	34.418	-0.227	0.196
-442.822	-75.905	-0.235	-0.082
-441.807	-54.796	0.149	-0.067
-440.792	-75.764	-0.298	0.105
-439.778	-200.000	0.052	0.321
-438.763	-200.000	-0.002	0.067
-437.749	-25.813	0.197	-0.115
-436.734	-154.791	-0.282	-0.018
-435.719	-200.000	0.002	-0.096
-434.705	-200.000	-0.013	-0.100
-433.690	-119.294	-0.185	-0.032
-432.676	-123.641	0.301	-0.047
-431.661	54.013	-0.081	0.077
-430.646	-160.328	0.199	-0.011
-429.632	517.934	0.102	-0.236
-428.617	-7.250	-0.234	-0.157
-427.603	38.296	-0.236	0.208
-426.588	107.920	-0.154	-0.182
-425.573	84.632	-0.308	0.334
-424.559	184.137	0.115	0.169
-423.544	-200.000	0.010	-0.212
-422.530	-146.136	0.065	0.006
-421.515	-59.470	0.475	0.202
-420.500	-76.432	-0.143	0.050
-419.486	-70.052	-0.210	-0.079
-418.471	-34.956	-0.137	-0.074
-417.457	53.621	0.241	0.230
-416.442	493.362	-0.023	0.053
-415.428	300.854	0.044	-0.081
-414.413	-200.000	-0.042	0.471
-413.398	132.402	-0.127	-0.162
-412.384	68.904	0.139	0.141
-411.369	210.967	-0.142	0.220
-410.355	61.908	-0.082	-0.081
-409.340	800.000	-0.042	0.138
-408.325	167.538	-0.100	0.142
-407.311	-200.000	0.024	0.322
-406.296	-130.911	0.158	0.021
-405.282	800.000	0.068	0.257
-404.267	43.234	-0.081	-0.073
-403.252	-200.000	0.006	0.078
-402.238	-123.640	0.109	-0.017
-401.223	6.524	0.086	-0.064
-400.209	109.918	0.138	0.163
-399.194	-83.312	0.272	-0.086
-398.179	467.226	-0.080	-0.178
-397.165	-56.662	-0.231	-0.101
-396.150	576.792	0.097	-0.235
-395.136	560.810	-0.085	-0.203
-394.121	-200.000	-0.003	0.054
-393.106	-27.208	-0.174	0.100
-392.092	800.000	0.138	0.386
-391.077	182.806	0.098	0.143
-390.063	-200.000	0.112	0.522
-389.048	-71.579	0.160	0.059
-388.033	150.045	-0.054	-0.072
-387.019	429.526	0.086	0.185
-386.004	287.124	-0.064	0.115
-384.990	72.727	0.103	-0.107
-383.975	-200.000	-0.041	-0.263
-382.960	471.408	-0.057	0.127
-381.946	8.515	-0.340	0.254
-380.931	-44.694	0.330	-0.163
-379.917	-200.000	0.010	0.054
-378.902	-8.494	0.103	0.068
-377.888	118.746	0.097	-0.118
-376.873	11.300	0.198	0.150
-375.858	303.600	0.033	-0.061
-374.844	385.868	-0.226	-0.462
-373.829	-71.087	0.061	-0.023
-372.815	223.400	0.072	-0.115
-371.800	-107.470	-0.168	0.036
-370.785	-200.000	0.016	-0.110
-369.771	416.665	0.017	0.035
-368.756	-54.368	-0.214	-0.096
-367.742	21.042	0.246	0.197
-366.727	32.432	-0.036	-0.031
-365.712	-68.867	-0.408	0.156
-364.698	14.970	0.114	-0.088
-363.683	-134.667	-0.171	-0.021
-362.669	68.157	0.127	0.129
-361.654	308.741	-0.056	0.104
-360.639	800.000	-0.032	-0.139
-359.625	36.698	0.198	-0.173
-358.610	188.931	-0.150	0.223
-357.596	-200.000	-0.013	-0.132
-356.581	135.555	-0.122	-0.157
-355.566	215.653	-0.079	-0.124
-354.552	97.712	0.366	0.416
-353.537	11.556	0.368	0.279
-352.523	17.421	-0.092	-0.072
-351.508	-92.454	-0.139	-0.039
-350.493	72.760	0.162	0.167
-349.479	-57.875	0.156	-0.068
-348.464	-40.818	-0.132	-0.067
-347.450	-151.620	0.129	-0.009
-346.435	-200.000	0.049	0.270
-345.420	-186.769	0.164	0.002
-344.406	800.000	0.037	0.105
-343.391	-84.696	0.153	-0.048
-342.377	114.671	-0.132	-0.159
-341.362	-86.762	-0.100	0.030
-340.348	-85.058	-0.277	-0.086
-339.333	377.042	0.054	-0.109
-338.318	800.000	0.056	0.202
-337.304	800.000	-0.073	0.247
-336.289	-63.147	0.192	0.078
-335.275	351.952	0.149	0.292
-334.260	-145.535	-0.221	0.020
-333.245	71.158	0.048	0.049
-332.231	-147.218	-0.047	0.004
-331.216	-113.403	0.139	0.027
-330.202	-36.066	-0.537	-0.287
-329.187	800.000	-0.031	-0.122
-328.172	67.949	0.099	0.100
-327.158	-89.425	0.408	0.119
-326.143	-124.156	0.435	0.067
-325.129	191.183	0.132	-0.197
-324.114	197.065	0.037	0.056
-323.099	-119.294	0.112	0.019
-322.085	800.000	-0.014	-0.049
-321.070	-200.000	-0.037	0.191
-320.056	78.072	0.147	0.155
-319.041	445.308	0.129	0.281
-318.026	-30.392	0.494	-0.277
-317.012	-74.306	0.142	0.051
-315.997	-76.123	-0.098	0.034
-314.983	172.153	-0.160	-0.227
-313.968	-200.000	0.024	0.179
-312.953	57.566	-0.059	-0.057
-311.939	-166.813	-0.234	-0.010
-310.924	-172.954	-0.055	0.002
-309.910	-200.000	-0.014	-0.119
-308.895	-122.527	0.013	-0.002
-307.880	-60.917	0.161	0.067
-306.866	121.969	-0.197	0.242
-305.851	-100.122	-0.329	-0.081
-304.837	-100.246	-0.216	-0.053
-303.822	9.164	0.167	0.124
-302.807	-98.249	0.168	-0.043
-301.793	-68.203	-0.255	-0.098
-300.778	-121.043	-0.279	0.046
-299.764	567.244	0.089	0.214
-298.749	17.079	0.252	-0.197
-297.735	-110.082	-0.332	-0.069
-296.720	-73.644	-0.129	0.046
-295.705	-200.000	-0.040	-0.520
-294.691	42.498	0.194	-0.174
-293.676	-111.133	0.247	-0.050
-292.662	-109.345	-0.122	0.025
-291.647	-101.760	0.153	0.036
-290.632	800.000	-0.035	-0.126
-289.618	-40.013	-0.231	-0.119
-288.603	-200.000	0.028	0.124
-287.589	-200.000	0.050	-0.254
-286.574	-200.000	0.036	0.158
-285.559	73.978	0.129	-0.134
-284.545	461.877	-0.024	-0.053
-283.530	-161.008	0.180	0.009
-282.516	131.700	-0.115	0.146
-281.501	800.000	-0.033	-0.117
-280.486	-49.853	0.042	-0.020
-279.472	-23.389	-0.041	0.024
-278.457	232.660	-0.284	-0.460
-277.443	-200.000	0.034	0.157
-276.428	800.000	-0.049	0.201
-275.413	-200.000	0.036	-0.209
-274.399	314.079	0.098	0.182
-273.384	-25.396	-0.297	0.173
-272.370	-200.000	-0.019	0.252
-271.355	-41.990	-0.279	-0.141
-270.340	41.650	-0.162	-0.145
-269.326	-30.604	-0.240	0.134
-268.311	800.000	0.043	0.135
-267.297	-68.057	-0.061	-0.024
-266.282	-189.398	-0.060	-0.001
-265.267	129.455	-0.081	-0.102
-264.253	-193.985	0.023	0.000
-263.238	61.505	0.067	0.066
-262.224	-200.000	0.030	0.256
-261.209	60.922	0.249	-0.244
-260.195	124.980	-0.104	-0.130
-259.180	-153.752	0.263	0.018
-258.165	-101.431	-0.109	0.026
-257.151	176.850	0.061	0.087
-256.136	101.818	0.147	-0.169
-255.122	34.786	-0.176	-0.151
-254.107	197.972	-0.156	-0.235
-253.092	308.508	0.096	0.176
-252.078	47.523	-0.177	0.162
-251.063	169.591	0.054	-0.077
-250.049	210.486	0.073	-0.113
-249.034	79.154	0.043	0.046
-248.019	43.172	0.038	-0.034
-247.005	574.808	0.038	0.091
-245.990	-121.646	0.225	-0.037
-244.976	241.745	0.092	-0.152
-243.961	310.133	0.101	-0.186
-242.946	-50.672	0.056	-0.026
-241.932	-41.480	0.045	-0.023
-240.917	-14.233	-0.159	-0.101
-239.903	134.319	-0.253	0.323
-238.888	-9.766	0.452	-0.297
-237.873	365.387	0.115	-0.228
-236.859	-28.270	0.039	-0.022
-235.844	89.263	0.141	-0.155
-234.830	-142.423	0.311	0.030
-233.815	328.824	0.015	-0.029
-232.800	36.749	0.117	-0.102
-231.786	-37.718	0.219	0.115
-230.771	-53.782	0.243	0.109
-229.757	153.586	0.135	0.183
-228.742	-177.195	0.272	0.007
-227.727	-134.463	-0.362	-0.044
-226.713	-169.799	-0.143	-0.005
-225.698	39.594	0.107	0.095
-224.684	800.000	-0.062	0.177
-223.669	-15.340	-0.135	-0.085
-222.655	148.448	-0.248	-0.329
-221.640	-95.155	0.137	0.036
-220.625	-200.000	-0.038	0.225
-219.611	66.938	0.291	0.292
-218.596	-200.000	-0.010	0.123
-217.582	-49.481	-0.136	-0.064
-216.567	-113.275	-0.273	-0.053
-215.552	201.660	-0.085	0.128
-214.538	-200.000	0.010	0.188
-213.523	-70.193	-0.186	0.070
-212.509	200.464	0.057	-0.086
-211.494	-200.000	-0.022	-0.226
-210.479	-115.681	0.170	-0.031
-209.465	519.334	0.095	-0.218
-208.450	10.213	0.119	-0.089
-207.436	-54.533	0.253	-0.113
-206.421	29.121	0.243	0.203
-205.406	-27.138	-0.164	-0.094
-204.392	-200.000	0.022	0.171
-203.377	-127.694	-0.077	-0.011
-202.363	-200.000	0.072	-0.382
-201.348	800.000	0.023	0.084
-200.333	-17.215	0.217	0.134
-199.319	-200.000	0.061	0.368
-198.304	376.819	-0.112	0.225
-197.290	-200.000	-0.007	-0.371
-196.275	800.000	0.121	-0.368
-195.260	17.885	0.179	-0.140
-194.246	-102.743	-0.205	-0.048
-193.231	-93.122	-0.282	-0.077
-192.217	54.943	0.212	0.201
-191.202	-200.000	0.010	-0.201
-190.187	194.987	-0.204	0.304
-189.173	174.548	0.144	0.204
-188.158	46.134	-0.328	0.299
-187.144	11.282	-0.248	0.186
-186.129	192.429	0.169	-0.251
-185.114	125.439	-0.107	-0.133
-184.100	345.515	0.095	0.183
-183.085	-30.939	-0.237	0.131
-182.071	485.225	-0.097	-0.216
-181.056	800.000	0.099	0.311
-180.042	258.849	0.053	0.089
-179.027	42.649	0.091	0.082
-178.012	800.000	-0.071	-0.207
-176.998	-200.000	-0.026	-0.132
-175.983	-51.174	-0.054	-0.025
-174.969	-200.000	0.002	0.031
-173.954	-138.680	-0.170	-0.018
-172.939	-200.000	0.028	0.186
-171.925	-28.389	-0.151	0.086
-170.910	800.000	-0.032	0.089
-169.896	-134.582	0.171	0.020
-168.881	382.137	-0.052	0.105
-167.866	-1.242	0.108	0.075
-166.852	800.000	0.086	-0.262
-165.837	164.432	0.078	0.109
-164.823	35.349	0.116	0.100
-163.808	-101.071	-0.411	0.099
-162.793	-139.725	0.170	-0.018
-161.779	800.000	0.013	-0.041
-160.764	-79.272	0.453	-0.151
-159.750	-200.000	-0.020	-0.292
-158.735	15.522	-0.129	0.099
-157.720	-92.923	0.171	-0.047
-156.706	-115.236	-0.145	-0.027
-155.691	376.273	-0.028	0.056
-154.677	-20.100	0.283	-0.171
-153.662	666.532	0.103	-0.260
-152.647	218.027	0.034	-0.053
-151.633	24.886	0.356	-0.289
-150.618	-3.959	0.126	0.086
-149.604	33.327	0.254	0.216
-148.589	-72.087	0.147	0.054
-147.574	800.000	-0.029	-0.107
-146.560	112.760	-0.155	-0.184
-145.545	294.724	0.118	-0.212
-144.531	751.568	0.057	0.152
-143.516	-200.000	-0.015	-0.163
-142.502	-160.493	-0.131	0.007
-141.487	156.010	0.098	0.132
-140.472	-99.838	-0.275	-0.068
-139.458	-170.256	-0.111	0.004
-138.443	-200.000	0.003	0.153
-137.429	-200.000	-0.011	0.222
-136.414	-164.870	0.066	-0.003
-135.399	-200.000	-0.054	-0.238
-134.385	-200.000	0.041	-0.216
-133.370	488.947	-0.095	-0.213
-132.356	-200.000	0.070	-0.321
-131.341	453.384	-0.007	0.014
-130.326	-200.000	0.040	0.211
-129.312	779.746	0.099	0.266
-128.297	273.127	0.057	-0.099
-127.283	173.467	-0.085	0.120
-126.268	-200.000	0.057	-0.249
-125.253	-176.157	-0.563	0.015
-124.239	-65.992	0.077	0.030
-123.224	449.603	0.059	-0.128
-122.210	87.822	0.068	-0.074
-121.195	-4.624	0.170	0.115
