DTS Sentinel unit serial number:	SN413079Multiplexer serial number:	ORYXHardware model number:	OX4-SRSoftware version number:	ORYX F/W v4.00 Oryx Data Collector v3.7.2.0data status	okinstallation	princeton_trtdifferential loss correction	single-endedforward channel	channel 3reverse channel	N/Adate	2019/09/14time	06:36:35forward acquisition time	60.00reverse acquisition time	0.00gamma	496.2192k internal	0.2340k external	0.2340temperature offset calibration	1.0055default loss term (dB/km)	0.3790temperature slope calibration	1.0000multiplexer offset coefficient	1.0000multiplexer slope coefficient	1.0000fibre end	0.00T internal ref (°C)	26.37T ext. ref 1 (°C)	3.42T ext. ref 2 (°C)	20.40length (m)	temperature (°C)	Stokes	anti-Stokes-747.200	-63.722	0.248	0.102
-746.185	160.526	-0.133	0.186
-745.171	112.568	0.045	-0.055
-744.156	-102.489	0.136	0.033
-743.142	-99.229	0.463	0.117
-742.127	-83.669	-0.316	-0.101
-741.112	-52.891	0.208	-0.096
-740.098	-200.000	-0.009	0.099
-739.083	-137.932	-0.312	-0.035
-738.069	-200.000	-0.038	0.569
-737.054	-33.266	-0.209	-0.116
-736.039	-24.432	-0.253	0.151
-735.025	506.759	0.126	0.293
-734.010	-22.263	-0.249	-0.151
-732.996	299.229	-0.193	-0.356
-731.981	-200.000	-0.038	0.301
-730.966	-200.000	0.024	0.248
-729.952	36.944	-0.143	-0.126
-728.937	98.687	-0.242	0.280
-727.923	-48.792	0.370	0.178
-726.908	-131.855	-0.315	0.041
-725.894	800.000	0.037	0.115
-724.879	-20.586	-0.224	-0.138
-723.864	32.682	0.143	0.124
-722.850	8.457	0.183	-0.138
-721.835	-68.384	-0.148	0.058
-720.821	-90.359	0.076	-0.022
-719.806	-200.000	-0.042	-0.216
-718.791	34.334	-0.044	0.038
-717.777	-124.706	-0.214	0.033
-716.762	313.907	0.108	-0.204
-715.748	800.000	-0.041	-0.177
-714.733	-200.000	-0.006	-0.359
-713.718	800.000	0.057	-0.176
-712.704	-200.000	-0.014	-0.148
-711.689	-200.000	0.001	-0.080
-710.675	-151.528	0.249	0.018
-709.660	364.352	0.109	-0.220
-708.645	3.243	0.337	-0.245
-707.631	-200.000	0.010	0.254
-706.616	159.523	0.322	-0.448
-705.602	63.049	0.151	-0.151
-704.587	-128.008	-0.020	0.003
-703.572	-71.032	-0.128	0.048
-702.558	-80.418	-0.162	-0.054
-701.543	800.000	0.121	0.362
-700.529	-44.684	-0.316	0.158
-699.514	621.807	0.030	0.074
-698.499	-200.000	0.028	0.242
-697.485	113.629	-0.202	0.245
-696.470	141.380	-0.113	0.149
-695.456	-195.094	-0.190	-0.001
-694.441	800.000	0.070	-0.268
-693.426	334.482	0.171	0.331
-692.412	194.392	-0.198	-0.301
-691.397	386.735	-0.079	-0.163
-690.383	211.472	0.162	0.255
-689.368	153.114	-0.128	0.175
-688.354	-70.146	-0.094	-0.036
-687.339	-33.298	0.052	-0.029
-686.324	96.206	-0.296	-0.338
-685.310	12.708	0.169	-0.131
-684.295	272.765	-0.134	-0.236
-683.281	178.993	-0.105	-0.153
-682.266	-129.810	0.272	-0.037
-681.251	-200.000	0.009	-0.149
-680.237	83.720	-0.026	-0.028
-679.222	449.847	-0.082	-0.182
-678.208	-200.000	-0.020	0.254
-677.193	740.108	0.042	0.113
-676.178	-83.875	0.379	-0.121
-675.164	-120.134	-0.185	-0.032
-674.149	-53.841	-0.161	-0.074
-673.135	-42.284	0.135	-0.069
-672.120	-1.170	-0.130	0.092
-671.105	76.951	0.015	0.016
-670.091	316.370	-0.143	-0.270
-669.076	-200.000	-0.026	-0.264
-668.062	-170.995	0.377	-0.013
-667.047	78.654	-0.238	-0.255
-666.032	-21.522	-0.068	-0.042
-665.018	-12.947	-0.160	0.104
-664.003	12.241	0.224	-0.172
-662.989	253.171	-0.129	-0.221
-661.974	36.158	-0.091	-0.080
-660.959	87.921	-0.226	-0.250
-659.945	-30.651	-0.284	-0.161
-658.930	135.147	0.073	-0.095
-657.916	60.635	-0.019	0.019
-656.901	-122.792	0.236	-0.038
-655.886	-92.997	-0.177	0.049
-654.872	-4.958	0.247	0.170
-653.857	478.771	0.179	-0.404
-652.843	348.277	0.063	0.124
-651.828	-75.565	-0.168	0.060
-650.814	313.654	-0.073	0.138
-649.799	-125.545	0.314	0.048
-648.784	-153.595	-0.181	0.012
-647.770	-60.764	-0.179	-0.076
-646.755	-137.506	0.341	0.038
-645.741	205.702	-0.257	-0.399
-644.726	-3.735	-0.153	-0.106
-643.711	-200.000	-0.003	0.390
-642.697	260.897	0.085	-0.146
-641.682	-141.012	-0.027	0.003
-640.668	-82.438	0.054	-0.018
-639.653	-46.651	-0.311	-0.152
-638.638	800.000	-0.035	-0.119
-637.624	-200.000	0.011	-0.140
-636.609	43.157	0.103	0.094
-635.595	-200.000	0.053	0.235
-634.580	-141.929	0.086	-0.009
-633.565	-70.820	-0.080	-0.030
-632.551	456.794	-0.109	-0.242
-631.536	-200.000	0.042	0.264
-630.522	-42.931	0.247	0.125
-629.507	218.720	0.067	-0.107
-628.492	-65.305	-0.273	-0.110
-627.478	-85.457	-0.312	0.097
-626.463	124.857	0.183	-0.230
-625.449	428.164	0.057	0.123
-624.434	-147.848	0.289	0.024
-623.419	-31.194	0.037	0.021
-622.405	-110.475	-0.163	-0.034
-621.390	16.646	-0.085	0.067
-620.376	-187.206	-0.346	-0.005
-619.361	-4.503	-0.162	0.112
-618.346	-200.000	0.029	0.157
-617.332	-70.858	-0.142	0.053
-616.317	-149.530	0.323	-0.025
-615.303	97.844	-0.043	-0.049
-614.288	-91.340	-0.155	0.044
-613.273	-144.015	0.305	-0.029
-612.259	-200.000	-0.002	0.214
-611.244	61.051	-0.110	0.109
-610.230	-160.754	0.211	0.011
-609.215	-200.000	-0.033	0.200
-608.201	-200.000	-0.000	-0.216
-607.186	-155.893	-0.202	0.013
-606.171	-70.350	-0.046	0.017
-605.157	-173.063	0.258	0.008
-604.142	341.661	0.136	-0.265
-603.128	383.822	0.036	0.075
-602.113	800.000	-0.083	-0.298
-601.098	-54.665	-0.107	0.048
-600.084	-200.000	0.005	-0.118
-599.069	88.203	0.134	0.148
-598.055	-200.000	-0.070	0.402
-597.040	-200.000	-0.011	-0.108
-596.025	-58.432	-0.166	0.072
-595.011	207.100	0.154	-0.240
-593.996	-102.049	0.141	0.034
-592.982	-116.225	-0.227	-0.042
-591.967	-38.330	-0.116	-0.061
-590.952	645.121	-0.120	-0.304
-589.938	56.132	0.072	0.070
-588.923	110.557	-0.051	0.062
-587.909	-200.000	-0.112	-0.513
-586.894	100.989	0.187	-0.217
-585.879	800.000	0.059	-0.177
-584.865	-200.000	-0.009	0.049
-583.850	-200.000	0.008	-0.227
-582.836	312.472	-0.021	-0.039
-581.821	-200.000	-0.004	-0.366
-580.806	-200.000	0.057	-0.323
-579.792	-83.318	0.200	0.064
-578.777	-75.097	-0.435	-0.155
-577.763	723.018	-0.021	-0.056
-576.748	-200.000	0.053	-0.240
-575.733	141.048	-0.084	0.110
-574.719	45.585	-0.162	-0.149
-573.704	-166.710	0.096	-0.004
-572.690	-189.229	-0.145	0.002
-571.675	800.000	-0.060	0.186
-570.661	135.894	0.050	-0.065
-569.646	-200.000	0.001	0.101
-568.631	-55.453	0.081	0.036
-567.617	-114.941	0.080	-0.015
-566.602	236.341	0.201	-0.331
-565.588	-200.000	-0.022	0.251
-564.573	408.351	0.075	-0.158
-563.558	-42.641	-0.266	-0.135
-562.544	19.062	0.258	-0.206
-561.529	319.289	-0.029	0.054
-560.515	-93.036	0.167	-0.046
-559.500	-94.130	-0.140	0.038
-558.485	-53.997	-0.095	0.043
-557.471	209.817	-0.165	-0.258
-556.456	-200.000	-0.036	0.252
-555.442	88.762	-0.128	0.142
-554.427	-45.337	-0.143	-0.071
-553.412	303.321	-0.103	0.191
-552.398	800.000	0.061	0.193
-551.383	-200.000	-0.004	0.142
-550.369	264.527	0.047	-0.081
-549.354	-64.945	0.234	0.094
-548.339	210.503	-0.200	-0.313
-547.325	-200.000	0.012	-0.307
-546.310	153.689	0.113	0.154
-545.296	-200.000	-0.001	-0.011
-544.281	-50.078	0.086	0.041
-543.266	800.000	-0.039	0.155
-542.252	-200.000	-0.035	-0.238
-541.237	-54.070	0.212	0.096
-540.223	44.379	0.234	0.214
-539.208	-100.033	0.377	-0.094
-538.193	77.549	0.225	0.238
-537.179	-200.000	0.003	-0.228
-536.164	105.720	-0.183	0.216
-535.150	155.115	0.120	0.164
-534.135	40.332	-0.300	-0.268
-533.121	82.297	-0.325	-0.351
-532.106	-97.075	-0.303	-0.079
-531.091	8.977	0.070	-0.052
-530.077	-200.000	0.019	-0.221
-529.062	-5.861	0.050	-0.034
-528.048	331.655	0.072	0.139
-527.033	15.280	-0.052	-0.041
-526.018	-38.906	0.243	-0.127
-525.004	-19.747	0.522	-0.321
-523.989	-200.000	0.004	0.054
-522.975	-200.000	-0.082	-0.516
-521.960	-3.726	-0.238	0.165
-520.945	-101.442	-0.389	-0.094
-519.931	75.696	0.039	-0.041
-518.916	800.000	-0.128	0.379
-517.902	14.649	-0.188	-0.146
-516.887	144.330	0.035	-0.047
-515.872	-188.397	0.232	-0.003
-514.858	-54.236	-0.433	0.196
-513.843	800.000	0.119	0.370
-512.829	-140.904	0.056	-0.006
-511.814	-2.499	-0.256	-0.178
-510.799	-65.441	-0.373	-0.149
-509.785	226.244	-0.189	-0.305
-508.770	35.356	-0.082	-0.072
-507.756	800.000	-0.097	0.267
-506.741	788.441	0.051	-0.140
-505.726	75.757	0.141	-0.148
-504.712	334.065	0.109	-0.210
-503.697	-140.510	-0.146	-0.015
-502.683	-15.088	0.101	0.064
-501.668	-113.734	0.276	-0.053
-500.653	-17.731	-0.159	-0.099
-499.639	24.075	-0.081	-0.066
-498.624	-121.280	-0.185	0.031
-497.610	-194.251	-0.174	-0.001
-496.595	800.000	-0.134	0.374
-495.581	18.881	-0.142	0.113
-494.566	-145.206	-0.075	-0.007
-493.551	676.360	0.165	-0.426
-492.537	-89.048	-0.126	0.037
-491.522	-200.000	0.002	0.150
-490.508	53.931	-0.153	-0.146
-489.493	-200.000	0.020	0.128
-488.478	-104.937	0.276	-0.063
-487.464	-42.640	0.178	-0.090
-486.449	800.000	0.026	0.093
-485.435	-108.365	0.343	0.073
-484.420	361.472	-0.070	0.139
-483.405	-118.724	0.251	0.044
-482.391	143.829	-0.187	0.248
-481.376	121.105	0.099	-0.122
-480.362	800.000	-0.045	-0.135
-479.347	-200.000	-0.006	0.177
-478.332	-59.536	-0.152	0.065
-477.318	342.899	0.083	0.162
-476.303	-151.819	-0.217	-0.016
-475.289	-46.136	0.054	0.026
-474.274	594.387	0.026	-0.065
-473.259	-125.179	0.086	-0.013
-472.245	-200.000	-0.020	-0.150
-471.230	-91.954	0.398	0.112
-470.216	60.219	0.131	0.129
-469.201	-107.454	0.215	-0.047
-468.186	499.001	0.074	-0.168
-467.172	-87.370	-0.232	0.070
-466.157	187.648	-0.013	0.020
-465.143	-177.711	0.096	0.002
-464.128	-200.000	-0.002	0.122
-463.113	-27.767	-0.357	-0.205
-462.099	-82.335	-0.280	-0.090
-461.084	54.464	0.286	0.273
-460.070	-200.000	-0.053	-0.357
-459.055	-60.475	0.275	0.116
-458.040	26.089	0.177	-0.147
-457.026	-104.654	-0.316	-0.072
-456.011	240.640	-0.170	0.282
-454.997	454.720	0.092	0.202
-453.982	-200.000	0.041	0.237
-452.968	-153.025	-0.201	-0.014
-451.953	-51.696	0.327	0.151
-450.938	32.870	0.187	-0.161
-449.924	86.810	0.065	0.071
-448.909	-200.000	-0.021	-0.221
-447.895	-124.936	0.218	0.033
-446.880	-112.625	0.414	0.082
-445.865	-71.772	-0.110	0.041
-444.851	-200.000	-0.043	-0.232
-443.836	-200.000	-0.016	0.289
-442.822	204.943	0.100	0.154
-441.807	253.482	-0.087	-0.147
-440.792	63.037	0.323	-0.320
-439.778	-30.808	-0.127	0.071
-438.763	99.173	0.247	0.282
-437.749	-68.286	-0.241	-0.093
-436.734	321.825	-0.189	-0.356
-435.719	438.647	-0.029	0.062
-434.705	-102.187	-0.315	0.075
-433.690	-95.752	0.101	-0.027
-432.676	258.156	-0.118	-0.202
-431.661	-200.000	0.006	-0.213
-430.646	-116.742	0.068	0.012
-429.632	-141.972	0.106	-0.010
-428.617	800.000	-0.015	0.054
-427.603	421.465	-0.084	-0.179
-426.588	-200.000	-0.039	-0.180
-425.573	377.191	0.024	-0.049
-424.559	408.233	-0.022	0.046
-423.544	141.257	-0.163	0.214
-422.530	800.000	-0.047	0.170
-421.515	41.307	-0.163	0.146
-420.500	-200.000	0.029	0.211
-419.486	89.875	0.100	0.111
-418.471	68.272	-0.165	-0.168
-417.457	179.711	0.133	-0.193
-416.442	73.032	0.040	0.041
-415.428	-111.319	-0.273	0.055
-414.413	-188.803	-0.411	-0.005
-413.398	2.359	-0.102	-0.073
-412.384	-63.955	0.303	0.123
-411.369	18.112	0.327	-0.258
-410.355	-55.215	-0.247	0.110
-409.340	624.884	0.141	-0.351
-408.325	-9.132	-0.149	0.099
-407.311	27.265	0.087	0.072
-406.296	734.478	-0.037	0.097
-405.282	-169.563	-0.166	0.006
-404.267	-200.000	-0.009	0.089
-403.252	157.123	-0.112	-0.153
-402.238	214.860	0.088	-0.138
-401.223	800.000	0.075	0.258
-400.209	428.197	-0.100	0.213
-399.194	800.000	0.085	0.260
-398.179	-133.948	0.379	-0.046
-397.165	-87.276	-0.257	0.077
-396.150	-30.949	0.327	0.183
-395.136	-200.000	-0.011	-0.112
-394.121	800.000	0.033	0.119
-393.106	9.937	0.159	-0.119
-392.092	-11.018	0.142	-0.092
-391.077	25.485	0.123	0.101
-390.063	13.740	-0.122	0.094
-389.048	100.752	0.073	-0.084
-388.033	-68.652	-0.021	-0.008
-387.019	800.000	0.042	0.169
-386.004	-186.335	-0.005	0.000
-384.990	800.000	-0.108	-0.433
-383.975	-149.475	-0.124	0.010
-382.960	800.000	-0.008	-0.033
-381.946	70.760	0.128	0.131
-380.931	161.633	0.067	-0.093
-379.917	-90.271	0.042	-0.012
-378.902	-142.765	0.199	0.019
-377.888	-95.279	0.297	0.079
-376.873	601.408	0.017	-0.043
-375.858	-56.763	0.128	0.056
-374.844	-200.000	0.065	0.330
-373.829	-200.000	-0.008	0.342
-372.815	-80.901	0.078	-0.026
-371.800	-152.959	-0.463	-0.032
-370.785	-90.645	0.113	-0.032
-369.771	-200.000	-0.001	-0.244
-368.756	-24.695	0.080	0.047
-367.742	-79.201	0.407	0.137
-366.727	244.419	-0.144	0.239
-365.712	521.174	0.074	0.172
-364.698	-145.689	-0.584	0.052
-363.683	-85.490	0.063	-0.019
-362.669	-200.000	0.018	-0.105
-361.654	-87.706	0.214	-0.064
-360.639	-4.056	-0.280	0.192
-359.625	330.704	-0.044	-0.084
-358.610	-114.324	-0.111	-0.021
-357.596	-200.000	0.029	-0.137
-356.581	800.000	-0.066	-0.200
-355.566	-200.000	-0.036	0.187
-354.552	45.852	-0.160	-0.146
-353.537	149.418	0.134	0.180
-352.523	233.223	0.158	0.256
-351.508	553.134	-0.109	0.259
-350.493	800.000	0.065	-0.249
-349.479	-24.247	-0.093	-0.055
-348.464	149.206	-0.159	-0.212
-347.450	134.860	0.125	0.160
-346.435	-5.244	-0.024	0.016
-345.420	10.427	0.109	0.082
-344.406	140.707	0.074	-0.096
-343.391	154.313	-0.167	0.226
-342.377	106.663	0.060	0.070
-341.362	-41.722	0.173	0.088
-340.348	23.548	-0.165	0.134
-339.333	-40.865	-0.119	-0.061
-338.318	-23.949	0.078	-0.046
-337.304	-200.000	-0.076	0.336
-336.289	-112.242	-0.242	0.048
-335.275	691.468	-0.040	0.104
-334.260	-15.409	-0.200	0.126
-333.245	-105.340	0.146	-0.033
-332.231	-87.450	0.093	-0.028
-331.216	91.136	0.223	0.247
-330.202	-110.140	0.302	-0.062
-329.187	-38.943	-0.270	-0.140
-328.172	60.923	0.110	0.107
-327.158	84.885	-0.095	0.102
-326.143	-200.000	-0.011	-0.252
-325.129	-106.135	-0.138	-0.030
-324.114	-24.715	0.106	-0.062
-323.099	688.288	-0.106	0.273
-322.085	375.066	0.094	0.188
-321.070	-109.624	0.080	0.017
-320.056	-54.441	0.476	0.213
-319.041	49.071	0.078	0.072
-318.026	-18.403	0.047	0.029
-317.012	12.197	-0.173	0.131
-315.997	242.395	-0.181	0.299
-314.983	-89.891	0.167	-0.048
-313.968	60.496	0.215	-0.210
-312.953	133.898	0.090	0.115
-311.939	44.112	0.038	-0.034
-310.924	-110.047	-0.124	-0.026
-309.910	-49.873	-0.184	0.086
-308.895	-106.084	-0.198	0.044
-307.880	-51.558	-0.103	-0.048
-306.866	-200.000	-0.031	-0.192
-305.851	158.062	0.175	-0.239
-304.837	30.544	0.270	0.227
-303.822	104.721	-0.180	0.209
-302.807	-51.773	-0.224	-0.103
-301.793	-5.592	-0.192	0.130
-300.778	-200.000	0.010	-0.205
-299.764	-8.793	0.077	0.051
-298.749	-70.073	0.170	-0.064
-297.735	206.874	0.090	-0.139
-296.720	-59.252	-0.149	0.063
-295.705	192.141	0.173	-0.257
-294.691	127.099	-0.069	-0.087
-293.676	-67.304	0.070	-0.027
-292.662	-77.304	0.151	-0.052
-291.647	-122.691	-0.051	-0.008
-290.632	-200.000	-0.015	0.093
-289.618	771.271	0.063	0.170
-288.603	-9.621	-0.162	0.107
-287.589	613.652	-0.030	-0.074
-286.574	-200.000	0.115	-0.537
-285.559	160.636	-0.124	-0.171
-284.545	442.401	-0.089	-0.192
-283.530	214.043	-0.102	-0.159
-282.516	14.122	-0.067	0.051
-281.501	-120.898	-0.176	0.029
-280.486	-34.304	-0.219	-0.118
-279.472	800.000	0.080	0.219
-278.457	149.677	0.191	0.255
-277.443	-32.645	-0.133	0.073
-276.428	-200.000	-0.045	-0.413
-275.413	-17.033	-0.231	0.144
-274.399	-196.709	0.351	-0.002
-273.384	-200.000	-0.005	-0.153
-272.370	-172.711	-0.296	-0.009
-271.355	-200.000	0.071	0.320
-270.340	-136.250	-0.238	0.027
-269.326	800.000	-0.097	0.276
-268.311	800.000	-0.097	0.346
-267.297	-106.618	0.251	-0.055
-266.282	46.961	0.312	0.286
-265.267	174.588	0.050	0.071
-264.253	103.730	-0.073	-0.084
-263.238	-75.739	-0.262	0.092
-262.224	37.819	-0.175	0.153
-261.209	18.019	0.095	-0.075
-260.195	800.000	-0.035	-0.099
-259.180	-111.125	0.067	-0.013
-258.165	41.025	-0.354	-0.314
-257.151	10.728	0.247	-0.185
-256.136	800.000	-0.024	0.073
-255.122	195.373	0.147	-0.219
-254.107	-200.000	-0.458	-0.000
-253.092	-96.051	0.185	-0.048
-252.078	397.005	0.174	0.358
-251.063	-46.112	0.122	-0.059
-250.049	-119.503	0.190	0.032
-249.034	31.464	0.025	0.021
-248.019	-12.635	-0.112	0.072
-247.005	161.269	0.102	-0.141
-245.990	539.166	0.083	-0.193
-244.976	-200.000	-0.002	0.097
-243.961	-68.373	-0.093	-0.036
-242.946	-74.354	0.269	-0.096
-241.932	-72.519	0.298	0.108
-240.917	266.988	0.160	0.276
-239.903	178.649	-0.101	0.144
-238.888	800.000	0.067	-0.251
-237.873	-96.730	0.282	-0.073
-236.859	119.154	-0.108	-0.131
-235.844	251.472	-0.072	0.120
-234.830	88.911	-0.165	0.180
-233.815	-7.631	0.301	-0.200
-232.800	189.112	0.139	0.205
-231.786	-92.359	0.213	-0.059
-230.771	11.222	-0.209	-0.157
-229.757	595.439	0.184	-0.447
-228.742	-12.011	0.204	0.132
-227.727	800.000	0.012	-0.041
-226.713	-34.143	-0.138	-0.075
-225.698	8.445	-0.253	-0.187
-224.684	649.116	0.078	-0.196
-223.669	-107.951	-0.061	-0.013
-222.655	-67.499	0.085	0.033
-221.640	-1.146	-0.103	-0.072
-220.625	-200.000	-0.002	-0.037
-219.611	-31.913	-0.316	0.174
-218.596	-128.090	-0.244	-0.034
-217.582	7.911	-0.164	0.121
-216.567	136.869	0.079	-0.102
-215.552	198.122	0.012	-0.018
-214.538	677.415	0.098	0.251
-213.523	-164.391	0.187	0.008
-212.509	800.000	0.014	0.051
-211.494	11.859	0.151	-0.114
-210.479	-10.018	-0.122	0.079
-209.465	-5.278	-0.313	0.211
-208.450	-68.538	-0.090	0.034
-207.436	207.578	0.117	-0.179
-206.421	64.241	-0.273	-0.270
-205.406	17.838	-0.282	-0.221
-204.392	-141.065	-0.312	-0.031
-203.377	-200.000	-0.021	-0.094
-202.363	-94.483	0.462	0.124
-201.348	640.311	0.110	0.275
-200.333	-200.000	0.002	0.053
-199.319	-162.930	0.272	0.013
-198.304	361.307	-0.147	-0.289
-197.290	-200.000	-0.006	-0.258
-196.275	318.437	0.079	0.148
-195.260	-118.244	-0.305	-0.053
-194.246	-200.000	0.067	0.354
-193.231	-11.462	0.288	0.186
-192.217	-137.638	-0.309	0.034
-191.202	-136.093	0.129	0.015
-190.187	-200.000	0.024	0.163
-189.173	-200.000	-0.009	0.247
-188.158	582.045	0.090	0.216
-187.144	64.166	-0.015	-0.015
-186.129	84.276	0.166	0.178
-185.114	-47.410	0.270	0.129
-184.100	800.000	-0.067	0.210
-183.085	-200.000	0.049	-0.332
-182.071	302.995	0.138	0.251
-181.056	-20.646	-0.121	0.073
-180.042	14.711	-0.290	0.222
-179.027	-200.000	0.018	-0.210
-178.012	800.000	-0.067	-0.198
-176.998	146.003	-0.117	-0.154
-175.983	-200.000	0.016	-0.105
-174.969	355.905	0.165	-0.322
-173.954	-38.099	0.312	0.162
-172.939	-200.000	0.003	-0.181
-171.925	800.000	0.148	0.475
-170.910	25.700	-0.157	0.128
-169.896	182.633	0.190	0.274
-168.881	157.552	-0.180	-0.244
-167.866	-85.968	0.354	-0.107
-166.852	-31.563	-0.291	-0.160
-165.837	83.773	-0.071	0.076
-164.823	-189.877	-0.221	0.002
-163.808	-200.000	0.008	-0.261
-162.793	-153.236	0.248	0.017
-161.779	800.000	0.035	0.122
-160.764	227.047	0.132	0.210
-159.750	-9.919	0.222	0.145
-158.735	-200.000	0.005	0.111
-157.720	-49.998	-0.368	0.171
-156.706	526.570	-0.044	0.101
-155.691	-165.978	0.139	0.006
-154.677	-85.722	-0.198	-0.060
-153.662	-200.000	0.022	-0.110
-152.647	284.952	-0.014	-0.026
-151.633	-30.923	0.269	0.149
-150.618	-158.935	-0.009	-0.001
-149.604	-17.081	-0.079	0.049
-148.589	220.243	0.161	-0.253
-147.574	454.553	-0.132	-0.286
-146.560	-200.000	-0.035	0.203
-145.545	-98.526	0.201	-0.050
-144.531	411.844	-0.137	-0.286
-143.516	-113.008	0.229	-0.044
-142.502	-53.177	-0.165	-0.074
-141.487	76.293	0.114	-0.119
-140.472	489.677	0.122	0.274
-139.458	-22.149	-0.070	0.042
-138.443	131.094	0.101	0.127
-137.429	-130.887	0.193	-0.025
-136.414	-200.000	-0.002	0.237
-135.399	6.734	0.213	0.155
-134.385	-111.408	0.184	-0.037
-133.370	-157.234	0.227	-0.013
-132.356	779.260	0.112	0.300
-131.341	-200.000	-0.026	0.170
-130.326	245.343	0.223	0.368
-129.312	-60.970	0.321	0.133
-128.297	-184.584	-0.352	-0.006
-127.283	-200.000	-0.027	0.243
-126.268	800.000	0.079	-0.219
-125.253	-119.385	-0.119	0.020
-124.239	687.995	-0.029	0.075
-123.224	-141.321	0.441	-0.044
-122.210	61.703	0.177	0.173
-121.195	90.108	0.105	0.115
