DTS Sentinel unit serial number:	SN413079Multiplexer serial number:	ORYXHardware model number:	OX4-SRSoftware version number:	ORYX F/W v4.00 Oryx Data Collector v3.7.2.0data status	okinstallation	princeton_trtdifferential loss correction	single-endedforward channel	channel 3reverse channel	N/Adate	2019/09/12time	08:38:11forward acquisition time	60.00reverse acquisition time	0.00gamma	496.2192k internal	0.2311k external	0.2311temperature offset calibration	1.0027default loss term (dB/km)	0.3790temperature slope calibration	1.0000multiplexer offset coefficient	1.0000multiplexer slope coefficient	1.0000fibre end	0.00T internal ref (°C)	33.80T ext. ref 1 (°C)	1.73T ext. ref 2 (°C)	30.24length (m)	temperature (°C)	Stokes	anti-Stokes-747.200	244.101	0.091	0.155
-746.185	532.707	-0.071	0.170
-745.171	800.000	0.096	0.360
-744.156	-200.000	-0.001	0.374
-743.142	-107.569	0.036	-0.008
-742.127	-200.000	-0.004	0.213
-741.112	-200.000	0.038	0.172
-740.098	-146.831	-0.212	0.019
-739.083	-152.502	-0.128	-0.009
-738.069	107.859	0.276	0.334
-737.054	68.426	-0.214	-0.222
-736.039	269.162	-0.056	-0.099
-735.025	-200.000	-0.018	0.233
-734.010	-200.000	0.002	-0.046
-732.996	-41.203	-0.173	-0.091
-731.981	-82.566	-0.370	-0.122
-730.966	35.410	-0.120	0.107
-729.952	800.000	-0.052	0.187
-728.937	191.157	-0.041	0.062
-727.923	-66.922	0.158	0.063
-726.908	-23.269	-0.235	0.144
-725.894	572.659	-0.086	-0.212
-724.879	13.355	0.257	0.202
-723.864	611.765	-0.021	-0.054
-722.850	-81.777	-0.355	-0.118
-721.835	-133.115	0.156	-0.020
-720.821	7.746	0.054	-0.041
-719.806	296.061	-0.094	0.174
-718.791	-45.221	0.226	-0.114
-717.777	-127.529	-0.206	-0.030
-716.762	421.798	-0.105	-0.228
-715.748	800.000	-0.100	-0.313
-714.733	77.270	-0.168	0.181
-713.718	-168.791	-0.252	0.010
-712.704	115.029	-0.051	-0.063
-711.689	1.058	-0.141	0.102
-710.675	-200.000	-0.012	0.253
-709.660	58.828	-0.153	0.152
-708.645	800.000	0.024	0.074
-707.631	-160.038	-0.448	0.025
-706.616	187.467	0.170	-0.257
-705.602	197.811	0.032	0.050
-704.587	132.495	-0.030	-0.040
-703.572	72.523	0.085	-0.090
-702.558	12.529	0.266	-0.208
-701.543	-31.576	0.135	0.077
-700.529	-133.781	-0.426	0.054
-699.514	-200.000	-0.009	-0.466
-698.499	-200.000	0.027	-0.375
-697.485	-75.846	-0.224	-0.081
-696.470	-200.000	-0.042	0.212
-695.456	-145.034	0.092	-0.008
-694.441	397.948	0.124	0.264
-693.426	-76.073	0.242	0.087
-692.412	91.261	0.089	-0.102
-691.397	137.798	0.146	-0.194
-690.383	-129.425	0.116	-0.016
-689.368	-200.000	0.006	-0.287
-688.354	-200.000	0.019	0.156
-687.339	-200.000	-0.028	-0.143
-686.324	71.664	0.064	-0.068
-685.310	138.746	0.152	0.202
-684.295	-95.751	0.176	0.048
-683.281	-176.076	-0.210	0.006
-682.266	127.464	-0.140	-0.179
-681.251	-200.000	-0.026	-0.158
-680.237	800.000	-0.090	0.326
-679.222	-21.492	-0.085	0.053
-678.208	-200.000	-0.015	0.165
-677.193	-148.429	0.168	-0.014
-676.178	28.428	-0.148	-0.127
-675.164	27.241	-0.422	-0.358
-674.149	491.687	0.069	0.161
-673.135	68.828	0.056	-0.058
-672.120	-59.443	-0.183	-0.080
-671.105	-55.556	0.177	-0.080
-670.091	213.524	0.107	0.171
-669.076	-41.765	-0.113	-0.058
-668.062	81.867	0.085	0.093
-667.047	-200.000	-0.046	-0.337
-666.032	-89.940	-0.385	-0.114
-665.018	216.381	-0.045	-0.072
-664.003	-199.718	-0.109	-0.001
-662.989	-156.528	-0.261	0.016
-661.974	800.000	0.047	-0.162
-660.959	-200.000	0.020	-0.117
-659.945	4.240	-0.303	-0.224
-658.930	68.201	-0.183	-0.189
-657.916	88.688	0.253	0.285
-656.901	-200.000	-0.016	-0.218
-655.886	-43.570	-0.174	0.089
-654.872	-45.650	0.264	0.132
-653.857	-24.681	-0.217	0.130
-652.843	-200.000	0.023	0.138
-651.828	113.804	-0.126	-0.155
-650.814	-92.328	0.466	0.133
-649.799	21.288	-0.207	-0.170
-648.784	-79.430	-0.242	-0.083
-647.770	3.218	-0.330	-0.242
-646.755	-165.300	0.167	-0.007
-645.741	456.952	0.095	-0.214
-644.726	-200.000	0.035	-0.201
-643.711	800.000	-0.040	0.164
-642.697	-20.454	0.142	0.088
-641.682	173.553	0.188	-0.274
-640.668	670.074	0.050	-0.130
-639.653	191.030	0.239	-0.363
-638.638	40.230	0.175	-0.159
-637.624	800.000	-0.105	0.347
-636.609	-84.488	-0.125	0.040
-635.595	-200.000	-0.068	-0.364
-634.580	32.545	-0.271	-0.236
-633.565	-46.688	0.083	-0.041
-632.551	-200.000	0.027	-0.211
-631.536	1.788	0.331	-0.241
-630.522	235.083	0.050	0.083
-629.507	-111.120	-0.156	0.032
-628.492	800.000	0.045	-0.143
-627.478	31.235	-0.077	-0.067
-626.463	-200.000	-0.009	0.095
-625.449	-133.476	0.524	0.066
-624.434	18.575	0.124	-0.100
-623.419	-102.220	-0.123	-0.030
-622.405	-200.000	-0.078	0.410
-621.390	190.814	-0.069	0.105
-620.376	142.089	0.099	-0.133
-619.361	-73.449	-0.388	0.143
-618.346	800.000	0.038	-0.110
-617.332	-200.000	0.032	0.273
-616.317	-69.848	0.120	0.046
-615.303	96.781	-0.090	-0.105
-614.288	-90.203	-0.040	0.012
-613.273	-200.000	0.046	-0.311
-612.259	-63.885	-0.111	-0.046
-611.244	-200.000	0.004	-0.026
-610.230	319.696	0.070	0.134
-609.215	-31.379	-0.184	-0.105
-608.201	-200.000	-0.007	0.299
-607.186	-200.000	-0.048	-0.339
-606.171	-10.181	0.124	0.083
-605.157	-56.257	0.190	-0.085
-604.142	107.905	0.130	-0.156
-603.128	264.941	-0.165	-0.290
-602.113	-200.000	0.027	-0.128
-601.098	6.834	-0.031	-0.023
-600.084	13.356	-0.240	-0.188
-599.069	-124.346	-0.172	0.027
-598.055	800.000	-0.033	0.140
-597.040	180.139	-0.130	0.192
-596.025	215.824	0.020	-0.033
-595.011	48.140	-0.234	0.221
-593.996	-114.552	-0.317	0.061
-592.982	443.727	0.106	-0.234
-591.967	90.029	0.412	-0.465
-590.952	-200.000	0.047	0.272
-589.938	-111.016	-0.069	-0.014
-588.923	25.222	0.134	-0.112
-587.909	-200.000	-0.003	-0.415
-586.894	34.282	-0.192	-0.169
-585.879	-98.811	0.348	0.089
-584.865	113.287	0.047	-0.058
-583.850	170.721	-0.221	0.319
-582.836	-80.085	-0.109	0.037
-581.821	327.153	0.087	0.167
-580.806	800.000	-0.068	-0.289
-579.792	81.542	-0.051	0.056
-578.777	-200.000	-0.030	-0.272
-577.763	70.981	0.069	-0.072
-576.748	-96.699	-0.091	0.024
-575.733	-178.066	-0.131	-0.003
-574.719	117.618	0.133	-0.165
-573.704	800.000	-0.054	-0.240
-572.690	800.000	0.060	0.210
-571.675	-109.914	-0.188	0.040
-570.661	-35.583	-0.083	-0.045
-569.646	-24.571	-0.064	-0.038
-568.631	-200.000	-0.007	-0.150
-567.617	-200.000	-0.020	-0.173
-566.602	-92.003	0.177	0.050
-565.588	87.093	-0.167	0.186
-564.573	372.199	-0.008	0.015
-563.558	771.465	-0.099	-0.273
-562.544	37.454	0.166	0.148
-561.529	-19.600	0.180	0.112
-560.515	13.552	-0.307	0.240
-559.500	45.132	0.105	0.097
-558.485	-40.848	-0.171	-0.089
-557.471	486.823	0.013	0.030
-556.456	-171.390	-0.071	0.002
-555.442	12.465	-0.191	-0.149
-554.427	-4.819	-0.105	-0.073
-553.412	289.559	-0.094	0.172
-552.398	-200.000	0.046	-0.204
-551.383	-200.000	0.004	-0.103
-550.369	43.981	-0.077	0.071
-549.354	-112.366	0.223	-0.045
-548.339	-11.170	0.238	0.158
-547.325	-11.202	-0.136	0.090
-546.310	520.887	0.047	0.112
-545.296	323.419	-0.108	-0.207
-544.281	-56.042	-0.276	-0.124
-543.266	-115.701	0.201	-0.038
-542.252	-92.826	-0.109	0.031
-541.237	-119.290	0.385	0.068
-540.223	212.356	-0.122	0.194
-539.208	800.000	0.080	0.251
-538.193	529.688	-0.089	0.211
-537.179	-79.079	-0.287	0.098
-536.164	-61.503	0.122	-0.052
-535.150	99.321	-0.123	-0.143
-534.135	-200.000	0.020	0.181
-533.121	120.948	0.067	0.084
-532.106	-7.070	0.202	-0.138
-531.091	-141.235	-0.173	0.018
-530.077	800.000	-0.058	-0.239
-529.062	-180.029	-0.194	0.004
-528.048	-200.000	0.034	-0.334
-527.033	-66.421	0.136	-0.054
-526.018	-143.209	0.090	-0.009
-525.004	251.524	0.161	-0.275
-523.989	-62.492	0.130	0.054
-522.975	3.167	-0.202	0.148
-521.960	449.399	0.109	-0.242
-520.945	-37.858	-0.235	-0.126
-519.931	-200.000	-0.021	-0.111
-518.916	619.808	-0.113	-0.287
-517.902	-105.332	-0.169	0.039
-516.887	125.559	0.141	-0.179
-515.872	-200.000	0.017	-0.189
-514.858	189.266	0.121	0.183
-513.843	800.000	-0.004	0.012
-512.829	-123.782	-0.211	-0.034
-511.814	-200.000	-0.027	0.189
-510.799	-200.000	0.008	0.057
-509.785	152.981	-0.139	-0.192
-508.770	800.000	-0.026	-0.110
-507.756	-109.142	-0.148	-0.032
-506.741	-156.981	-0.036	0.002
-505.726	800.000	0.035	-0.113
-504.712	-20.602	0.399	0.247
-503.697	-19.187	0.121	0.076
-502.683	-157.163	0.372	-0.023
-501.668	-27.405	-0.332	-0.194
-500.653	-45.170	0.307	-0.153
-499.639	-49.638	0.349	-0.167
-498.624	-47.966	-0.128	-0.062
-497.610	431.466	-0.103	0.225
-496.595	-15.904	-0.102	-0.066
-495.581	-53.978	-0.125	-0.057
-494.566	-132.282	0.167	-0.022
-493.551	-200.000	0.000	0.211
-492.537	800.000	0.044	0.175
-491.522	160.399	0.134	0.188
-490.508	187.568	0.037	0.055
-489.493	-200.000	0.013	0.201
-488.478	250.425	0.023	-0.039
-487.464	-200.000	-0.004	0.178
-486.449	-139.059	0.417	-0.045
-485.435	-67.767	-0.443	0.174
-484.420	176.583	0.200	0.292
-483.405	-200.000	-0.001	0.087
-482.391	13.490	-0.286	0.223
-481.376	45.680	-0.300	0.278
-480.362	-200.000	-0.002	-0.241
-479.347	-116.314	-0.515	0.096
-478.332	52.317	-0.233	-0.223
-477.318	613.631	-0.082	0.206
-476.303	-46.918	0.238	-0.117
-475.289	-200.000	-0.033	-0.213
-474.274	338.693	-0.146	0.286
-473.259	7.124	0.269	0.202
-472.245	-149.192	-0.267	0.021
-471.230	764.868	0.062	0.168
-470.216	-200.000	-0.017	0.265
-469.201	163.966	0.174	-0.246
-468.186	397.980	0.194	0.407
-467.172	7.883	0.147	0.111
-466.157	800.000	-0.093	0.367
-465.143	-200.000	0.001	0.225
-464.128	213.787	-0.160	-0.253
-463.113	35.624	0.193	0.170
-462.099	429.506	-0.026	0.056
-461.084	188.138	0.063	0.094
-460.070	-200.000	0.103	0.547
-459.055	371.179	-0.037	-0.075
-458.040	412.821	0.175	0.373
-457.026	47.636	0.049	0.046
-456.011	800.000	0.067	-0.204
-454.997	800.000	0.040	0.154
-453.982	-81.612	-0.088	-0.029
-452.968	-118.334	-0.048	0.008
-451.953	502.833	0.078	0.181
-450.938	156.160	-0.060	0.084
-449.924	57.927	0.237	0.233
-448.909	-54.849	0.078	-0.035
-447.895	-110.705	-0.086	0.018
-446.880	-36.564	-0.191	-0.103
-445.865	114.748	-0.275	0.337
-444.851	214.167	0.102	0.162
-443.836	205.980	-0.117	-0.182
-442.822	46.439	-0.101	-0.094
-441.807	-97.109	0.271	-0.071
-440.792	-66.389	-0.022	-0.009
-439.778	800.000	0.121	0.466
-438.763	700.475	0.062	-0.164
-437.749	-200.000	-0.008	-0.111
-436.734	9.617	-0.250	0.190
-435.719	-200.000	0.046	-0.277
-434.705	323.755	0.074	0.141
-433.690	-200.000	-0.489	0.000
-432.676	128.654	-0.113	0.145
-431.661	407.088	-0.016	0.033
-430.646	506.035	0.039	-0.090
-429.632	800.000	-0.043	0.172
-428.617	501.566	-0.062	0.144
-427.603	-6.310	-0.316	-0.216
-426.588	-200.000	-0.011	-0.086
-425.573	33.685	0.106	0.092
-424.559	-83.835	-0.226	-0.072
-423.544	-136.961	0.345	0.040
-422.530	-72.109	-0.141	-0.052
-421.515	800.000	0.053	0.213
-420.500	-38.093	-0.034	0.018
-419.486	-200.000	0.014	-0.220
-418.471	-67.180	0.126	-0.050
-417.457	-200.000	0.003	-0.058
-416.442	-104.065	0.174	0.041
-415.428	-200.000	-0.024	0.238
-414.413	-142.951	-0.383	-0.037
-413.398	-139.104	0.171	-0.019
-412.384	-194.807	-0.195	0.002
-411.369	3.109	-0.297	-0.217
-410.355	-101.348	-0.126	0.031
-409.340	-49.910	0.109	-0.052
-408.325	708.798	-0.109	0.290
-407.311	-200.000	0.019	0.144
-406.296	95.345	-0.055	-0.063
-405.282	325.640	0.030	0.057
-404.267	-37.196	0.146	-0.078
-403.252	34.629	0.092	-0.080
-402.238	-167.934	0.209	0.008
-401.223	-200.000	0.011	-0.214
-400.209	-200.000	-0.011	0.070
-399.194	-91.493	-0.132	-0.038
-398.179	-200.000	0.033	-0.209
-397.165	154.896	-0.168	-0.231
-396.150	-8.754	-0.183	-0.123
-395.136	-184.331	0.081	0.001
-394.121	800.000	-0.016	-0.055
-393.106	-24.603	-0.176	-0.105
-392.092	-133.364	0.120	0.015
-391.077	40.090	0.115	0.103
-390.063	-200.000	0.064	-0.391
-389.048	800.000	-0.031	0.115
-388.033	-200.000	-0.003	-0.086
-387.019	86.137	-0.121	-0.133
-386.004	50.601	0.186	-0.176
-384.990	-118.311	-0.388	0.069
-383.975	-184.807	-0.230	-0.004
-382.960	-200.000	0.011	-0.074
-381.946	-16.794	-0.116	-0.074
-380.931	-32.022	0.154	-0.086
-379.917	9.905	-0.043	0.033
-378.902	117.654	0.191	-0.235
-377.888	-200.000	-0.001	-0.029
-376.873	800.000	0.056	0.211
-375.858	-47.824	-0.065	0.032
-374.844	32.296	0.097	0.084
-373.829	219.019	0.035	0.056
-372.815	-62.601	0.083	-0.035
-371.800	260.105	0.039	0.068
-370.785	-48.831	-0.131	-0.063
-369.771	800.000	0.027	0.087
-368.756	800.000	-0.033	0.093
-367.742	800.000	-0.065	-0.198
-366.727	52.202	0.151	-0.144
-365.712	220.001	0.140	0.225
-364.698	-87.826	-0.426	0.128
-363.683	41.955	-0.058	-0.052
-362.669	76.809	-0.025	0.026
-361.654	528.872	-0.032	0.075
-360.639	114.487	0.147	0.179
-359.625	277.219	-0.058	-0.104
-358.610	-21.653	0.083	-0.050
-357.596	-200.000	-0.031	-0.153
-356.581	-88.250	-0.324	-0.097
-355.566	168.493	-0.090	0.129
-354.552	-200.000	0.014	-0.130
-353.537	-104.710	-0.135	0.031
-352.523	-80.950	0.159	0.053
-351.508	-200.000	-0.006	-0.290
-350.493	-104.901	0.257	-0.059
-349.479	800.000	-0.166	0.531
-348.464	456.194	-0.086	-0.190
-347.450	293.766	-0.153	-0.278
-346.435	-140.901	0.351	-0.036
-345.420	-169.305	0.209	-0.008
-344.406	-200.000	0.016	-0.148
-343.391	-51.564	0.039	-0.018
-342.377	114.587	-0.162	-0.197
-341.362	337.386	0.055	-0.107
-340.348	800.000	-0.085	0.293
-339.333	-107.921	0.113	0.025
-338.318	-200.000	-0.021	-0.121
-337.304	73.176	0.160	0.167
-336.289	50.759	-0.425	0.402
-335.275	60.407	-0.062	0.061
-334.260	-200.000	0.017	-0.092
-333.245	65.250	0.084	-0.085
-332.231	272.059	0.086	0.152
-331.216	35.827	0.124	0.109
-330.202	286.968	0.050	-0.091
-329.187	-158.216	-0.168	0.010
-328.172	42.516	0.075	0.068
-327.158	33.847	0.081	0.071
-326.143	-25.988	0.272	0.160
-325.129	800.000	0.077	0.254
-324.114	-200.000	-0.014	0.134
-323.099	-133.399	0.182	0.023
-322.085	489.274	-0.197	0.451
-321.070	142.524	-0.212	0.281
-320.056	268.684	0.091	0.160
-319.041	-40.456	0.146	-0.076
-318.026	-7.066	0.109	0.074
-317.012	-122.956	0.119	0.019
-315.997	343.899	0.120	0.235
-314.983	153.988	-0.166	0.228
-313.968	4.946	0.447	-0.328
-312.953	99.853	0.196	0.226
-311.939	800.000	-0.026	0.106
-310.924	50.204	0.090	0.085
-309.910	16.820	0.307	0.242
-308.895	-27.277	0.055	0.032
-307.880	-200.000	-0.009	-0.550
-306.866	-0.732	-0.101	0.071
-305.851	56.786	-0.114	0.111
-304.837	-77.576	0.468	0.162
-303.822	-98.042	0.211	-0.054
-302.807	-200.000	-0.045	0.291
-301.793	180.675	0.240	0.351
-300.778	714.457	0.019	-0.050
-299.764	54.642	-0.209	0.202
-298.749	-152.687	0.424	0.030
-297.735	-200.000	-0.003	-0.144
-296.720	-159.005	-0.041	-0.002
-295.705	-106.739	-0.145	-0.032
-294.691	-98.286	0.332	-0.085
-293.676	415.952	-0.101	-0.215
-292.662	-147.652	-0.037	-0.003
-291.647	-22.908	-0.466	-0.280
-290.632	0.957	0.258	0.184
-289.618	19.597	-0.134	0.108
-288.603	-101.563	-0.227	-0.055
-287.589	20.621	-0.176	0.142
-286.574	-18.628	-0.150	0.093
-285.559	-200.000	-0.002	0.077
-284.545	-98.728	-0.168	0.043
-283.530	131.146	0.097	-0.124
-282.516	523.032	-0.055	-0.130
-281.501	-121.214	0.217	-0.036
-280.486	-200.000	-0.006	-0.086
-279.472	-200.000	0.003	0.063
-278.457	-72.567	0.106	-0.039
-277.443	203.834	0.144	0.223
-276.428	331.491	0.119	-0.228
-275.413	-200.000	0.018	-0.156
-274.399	-200.000	0.041	0.267
-273.384	-63.348	0.318	0.130
-272.370	29.831	0.343	0.291
-271.355	-200.000	-0.027	0.139
-270.340	800.000	-0.078	-0.305
-269.326	21.327	-0.281	-0.227
-268.311	-200.000	0.014	-0.140
-267.297	-200.000	-0.026	0.353
-266.282	-117.431	0.115	-0.021
-265.267	170.105	-0.068	0.098
-264.253	-200.000	-0.049	-0.226
-263.238	-77.596	-0.408	0.141
-262.224	-200.000	0.007	-0.075
-261.209	468.365	0.071	-0.159
-260.195	-108.004	0.089	-0.019
-259.180	-200.000	0.002	0.083
-258.165	558.967	0.047	0.113
-257.151	-200.000	0.033	-0.284
-256.136	-200.000	-0.027	-0.183
-255.122	93.576	0.200	-0.225
-254.107	-200.000	0.002	0.214
-253.092	-54.346	0.279	0.126
-252.078	227.033	0.039	-0.062
-251.063	74.118	0.179	0.187
-250.049	81.808	-0.139	0.150
-249.034	-15.445	-0.069	0.044
-248.019	800.000	-0.042	0.119
-247.005	0.680	0.076	-0.054
-245.990	-64.669	-0.303	-0.122
-244.976	-200.000	-0.042	-0.270
-243.961	29.916	0.194	0.165
-242.946	421.891	-0.069	0.148
-241.932	55.162	0.039	0.037
-240.917	48.007	0.107	-0.099
-239.903	153.010	0.173	0.236
-238.888	-156.913	0.129	0.008
-237.873	-200.000	0.004	0.146
-236.859	202.159	-0.097	0.149
-235.844	800.000	-0.093	0.318
-234.830	-200.000	-0.007	0.199
-233.815	290.563	-0.228	-0.412
-232.800	-200.000	-0.014	-0.140
-231.786	-115.387	-0.084	-0.016
-230.771	-200.000	-0.009	-0.049
-229.757	-200.000	-0.024	-0.230
-228.742	-128.565	-0.142	-0.020
-227.727	446.742	-0.051	0.111
-226.713	800.000	-0.075	-0.269
-225.698	-93.543	0.133	0.037
-224.684	375.059	0.106	0.215
-223.669	180.984	0.166	-0.243
-222.655	-55.856	-0.183	0.081
-221.640	-133.728	0.229	-0.028
-220.625	-69.812	-0.089	-0.034
-219.611	222.015	-0.085	0.137
-218.596	-90.597	-0.569	0.164
-217.582	562.959	-0.021	-0.052
-216.567	-2.173	-0.154	-0.108
-215.552	196.670	0.177	0.268
-214.538	289.402	0.052	-0.093
-213.523	72.617	-0.197	0.204
-212.509	31.290	-0.199	0.170
-211.494	-100.066	0.036	0.009
-210.479	82.597	0.186	-0.201
-209.465	-138.303	-0.066	-0.007
-208.450	-78.347	-0.216	-0.074
-207.436	-84.479	0.086	-0.027
-206.421	-200.000	0.031	-0.145
-205.406	-71.412	-0.131	0.049
-204.392	367.234	0.102	-0.204
-203.377	-96.569	-0.334	-0.087
-202.363	-200.000	0.062	-0.367
-201.348	-10.419	-0.149	0.098
-200.333	148.299	-0.086	0.115
-199.319	317.801	0.090	0.170
-198.304	-200.000	0.029	-0.190
-197.290	-200.000	-0.016	-0.286
-196.275	482.685	0.129	-0.291
-195.260	5.814	0.216	-0.158
-194.246	800.000	0.079	-0.327
-193.231	-33.165	0.146	-0.080
-192.217	42.150	-0.204	-0.184
-191.202	800.000	0.027	-0.090
-190.187	59.757	0.206	-0.202
-189.173	8.590	-0.237	0.177
-188.158	800.000	0.108	0.381
-187.144	-200.000	0.019	-0.120
-186.129	800.000	-0.102	-0.295
-185.114	192.812	0.068	0.101
-184.100	-156.798	-0.301	-0.018
-183.085	-51.337	-0.149	-0.069
-182.071	-200.000	-0.035	-0.163
-181.056	262.256	-0.112	-0.193
-180.042	-200.000	-0.000	0.002
-179.027	-91.421	0.346	-0.098
-178.012	3.251	-0.018	0.013
-176.998	-172.154	0.414	0.013
-175.983	48.856	0.109	-0.101
-174.969	150.462	0.128	0.172
-173.954	538.743	0.029	0.067
-172.939	-26.413	-0.099	0.058
-171.925	-107.642	-0.127	-0.028
-170.910	-44.550	0.249	0.123
-169.896	-110.980	0.181	-0.037
-168.881	165.002	0.124	-0.174
-167.866	-92.293	-0.536	0.150
-166.852	-83.620	0.109	-0.035
-165.837	-126.548	0.185	-0.027
-164.823	-143.408	0.261	0.025
-163.808	23.754	-0.071	0.058
-162.793	800.000	0.045	-0.187
-161.779	800.000	0.113	0.361
-160.764	-146.735	-0.154	0.013
-159.750	-157.292	0.346	0.021
-158.735	94.038	0.233	-0.262
-157.720	-96.772	0.284	-0.074
-156.706	724.475	0.047	0.123
-155.691	-14.791	-0.115	-0.073
-154.677	-35.267	-0.208	0.112
-153.662	-188.180	-0.153	-0.002
-152.647	-135.836	0.301	-0.035
-151.633	631.983	-0.115	0.290
-150.618	80.862	-0.062	0.067
-149.604	800.000	-0.033	0.097
-148.589	-11.107	0.176	-0.115
-147.574	-97.944	-0.190	0.049
-146.560	-146.479	0.297	0.026
-145.545	0.130	0.467	-0.330
-144.531	-192.381	0.155	-0.001
-143.516	87.377	-0.026	0.029
-142.502	390.625	-0.131	0.269
-141.487	169.156	0.236	-0.334
-140.472	800.000	0.054	0.195
-139.458	388.979	0.202	0.415
-138.443	-122.943	-0.325	0.052
-137.429	-200.000	0.044	0.258
-136.414	-139.090	0.263	0.028
-135.399	-77.862	0.243	0.083
-134.385	315.633	-0.135	0.252
-133.370	54.145	-0.073	0.069
-132.356	470.570	-0.021	0.047
-131.341	237.327	-0.171	0.281
-130.326	385.669	-0.184	0.377
-129.312	-200.000	0.022	0.213
-128.297	95.041	0.311	0.351
-127.283	-43.989	-0.369	0.184
-126.268	-31.667	-0.221	-0.123
-125.253	-200.000	0.004	0.181
-124.239	-200.000	0.015	-0.169
-123.224	187.957	0.133	0.196
-122.210	-94.072	0.244	0.066
-121.195	667.526	-0.168	-0.429
