DTS Sentinel unit serial number:	SN413079Multiplexer serial number:	ORYXHardware model number:	OX4-SRSoftware version number:	ORYX F/W v4.00 Oryx Data Collector v3.7.2.0data status	okinstallation	princeton_trtdifferential loss correction	single-endedforward channel	channel 3reverse channel	N/Adate	2019/09/16time	23:32:34forward acquisition time	60.00reverse acquisition time	0.00gamma	496.2192k internal	0.2325k external	0.2325temperature offset calibration	0.9940default loss term (dB/km)	0.3790temperature slope calibration	1.0000multiplexer offset coefficient	1.0000multiplexer slope coefficient	1.0000fibre end	0.00T internal ref (°C)	29.84T ext. ref 1 (°C)	0.09T ext. ref 2 (°C)	23.58length (m)	temperature (°C)	Stokes	anti-Stokes-747.200	-200.000	0.023	-0.104
-746.185	-200.000	0.048	0.523
-745.171	-142.856	0.096	-0.009
-744.156	429.629	0.047	-0.103
-743.142	20.634	0.050	-0.041
-742.127	800.000	0.111	0.438
-741.112	-200.000	0.019	0.201
-740.098	800.000	-0.159	0.542
-739.083	-200.000	0.056	0.503
-738.069	504.905	0.048	0.111
-737.054	290.700	0.312	-0.572
-736.039	800.000	-0.047	-0.152
-735.025	-140.033	-0.570	-0.061
-734.010	287.047	0.091	0.165
-732.996	96.101	-0.123	-0.142
-731.981	169.293	0.116	-0.166
-730.966	-200.000	0.024	-0.181
-729.952	-116.276	-0.269	0.050
-728.937	-81.610	-0.387	0.128
-727.923	-200.000	0.011	-0.090
-726.908	230.801	-0.241	0.398
-725.894	-27.280	0.127	0.074
-724.879	-62.657	-0.047	-0.020
-723.864	-200.000	0.018	-0.299
-722.850	-200.000	0.033	0.256
-721.835	-127.284	0.224	-0.033
-720.821	-48.643	-0.164	-0.079
-719.806	-200.000	0.001	0.075
-718.791	572.904	-0.177	-0.435
-717.777	41.712	0.034	0.031
-716.762	65.955	-0.212	-0.217
-715.748	-80.283	0.182	0.061
-714.733	-21.860	0.261	-0.160
-713.718	-61.485	-0.433	-0.183
-712.704	-43.200	0.268	0.137
-711.689	642.452	0.083	-0.212
-710.675	-12.110	-0.274	0.181
-709.660	-46.382	-0.179	-0.088
-708.645	383.335	-0.106	0.220
-707.631	-200.000	-0.014	0.220
-706.616	-200.000	-0.007	-0.103
-705.602	50.525	-0.256	-0.244
-704.587	-44.131	-0.268	0.136
-703.572	-200.000	0.014	0.077
-702.558	162.594	-0.199	0.281
-701.543	-128.905	-0.275	0.039
-700.529	-200.000	0.021	0.176
-699.514	-76.818	0.181	-0.064
-698.499	-93.473	-0.081	-0.023
-697.485	524.960	0.262	-0.621
-696.470	-75.520	-0.168	0.060
-695.456	102.646	0.103	0.122
-694.441	-22.146	-0.405	-0.248
-693.426	-200.000	-0.060	0.274
-692.412	58.766	0.217	-0.215
-691.397	-103.168	0.093	0.022
-690.383	-8.446	0.271	-0.183
-689.368	97.149	0.058	-0.067
-688.354	-200.000	0.037	0.286
-687.339	-200.000	-0.012	0.300
-686.324	-119.344	-0.255	-0.045
-685.310	420.135	0.079	-0.170
-684.295	-200.000	0.042	-0.290
-683.281	95.313	-0.082	-0.095
-682.266	193.100	0.154	0.235
-681.251	-200.000	-0.013	0.112
-680.237	800.000	-0.064	0.189
-679.222	506.468	-0.065	-0.151
-678.208	-87.365	-0.365	-0.111
-677.193	-144.495	0.192	0.018
-676.178	40.889	-0.116	-0.106
-675.164	800.000	-0.095	0.324
-674.149	61.819	0.322	0.323
-673.135	800.000	-0.013	0.041
-672.120	-200.000	0.006	0.182
-671.105	-117.627	0.226	0.041
-670.091	-79.166	-0.206	0.070
-669.076	-109.019	-0.100	-0.022
-668.062	605.613	0.126	-0.317
-667.047	-41.467	-0.340	-0.176
-666.032	123.280	0.222	-0.280
-665.018	-200.000	0.015	0.177
-664.003	-200.000	-0.014	-0.249
-662.989	-71.908	0.040	-0.015
-661.974	800.000	0.076	0.279
-660.959	-142.183	0.421	-0.042
-659.945	-39.793	0.126	-0.066
-658.930	311.269	-0.237	-0.447
-657.916	-200.000	0.028	-0.320
-656.901	550.932	-0.051	-0.123
-655.886	15.962	0.127	-0.101
-654.872	305.433	-0.074	0.138
-653.857	28.953	-0.215	0.183
-652.843	46.935	0.224	-0.209
-651.828	-61.423	-0.048	-0.020
-650.814	800.000	-0.125	-0.350
-649.799	-162.372	-0.243	-0.012
-648.784	2.536	-0.420	-0.306
-647.770	-73.243	-0.071	0.026
-646.755	-39.525	-0.332	-0.175
-645.741	44.890	0.210	0.195
-644.726	100.403	0.024	-0.028
-643.711	-15.995	-0.315	-0.202
-642.697	59.636	-0.194	-0.192
-641.682	96.266	-0.067	-0.078
-640.668	98.622	0.161	0.187
-639.653	17.369	-0.051	-0.041
-638.638	-32.927	0.086	-0.048
-637.624	426.367	-0.096	-0.207
-636.609	250.633	-0.246	0.420
-635.595	37.335	0.153	0.136
-634.580	5.789	-0.058	0.043
-633.565	-12.887	0.219	0.143
-632.551	54.854	0.146	0.141
-631.536	-137.900	-0.089	0.010
-630.522	-117.373	-0.170	-0.031
-629.507	-200.000	-0.023	0.359
-628.492	20.200	-0.023	-0.019
-627.478	386.437	-0.145	0.301
-626.463	-98.194	-0.186	-0.048
-625.449	-200.000	0.035	-0.224
-624.434	800.000	-0.061	-0.266
-623.419	18.859	0.161	-0.130
-622.405	-42.366	-0.196	0.100
-621.390	-200.000	0.001	0.070
-620.376	-12.304	-0.263	0.173
-619.361	-45.721	-0.027	-0.013
-618.346	800.000	0.066	-0.213
-617.332	38.789	-0.321	-0.288
-616.317	144.108	0.137	-0.183
-615.303	-138.896	-0.451	0.049
-614.288	-140.675	0.075	0.008
-613.273	-95.857	0.112	0.030
-612.259	260.242	-0.021	-0.036
-611.244	169.684	0.069	-0.099
-610.230	8.810	0.232	-0.176
-609.215	168.032	-0.182	-0.260
-608.201	800.000	-0.111	-0.407
-607.186	-25.975	0.225	-0.133
-606.171	800.000	0.065	-0.207
-605.157	-200.000	-0.022	0.217
-604.142	283.858	-0.129	0.233
-603.128	165.893	-0.152	-0.216
-602.113	6.060	0.222	0.165
-601.098	327.987	-0.069	0.133
-600.084	-200.000	0.007	0.302
-599.069	44.423	-0.109	0.100
-598.055	-200.000	-0.007	0.132
-597.040	205.563	0.159	-0.248
-596.025	-176.255	0.160	-0.004
-595.011	800.000	-0.080	0.346
-593.996	-89.120	-0.248	0.074
-592.982	189.377	0.134	-0.201
-591.967	17.010	-0.110	0.088
-590.952	39.704	-0.348	-0.313
-589.938	-107.707	0.249	0.055
-588.923	319.654	-0.066	0.126
-587.909	800.000	0.079	0.241
-586.894	800.000	-0.090	0.307
-585.879	42.950	0.087	-0.080
-584.865	15.178	-0.130	-0.102
-583.850	184.571	-0.143	0.212
-582.836	257.332	0.050	-0.087
-581.821	-200.000	0.025	-0.163
-580.806	-113.340	-0.103	0.020
-579.792	-53.503	-0.201	-0.092
-578.777	64.403	-0.229	0.231
-577.763	-147.992	-0.343	0.029
-576.748	800.000	-0.048	-0.168
-575.733	-23.062	-0.090	-0.054
-574.719	369.926	-0.049	-0.100
-573.704	-133.221	0.223	-0.028
-572.690	800.000	-0.059	0.240
-571.675	208.732	0.090	0.141
-570.661	612.096	-0.086	0.217
-569.646	-64.054	-0.265	-0.109
-568.631	800.000	-0.046	0.168
-567.617	-200.000	0.004	-0.020
-566.602	-5.577	0.149	-0.102
-565.588	-200.000	-0.005	-0.243
-564.573	370.126	-0.052	0.106
-563.558	800.000	-0.035	-0.146
-562.544	-39.869	0.183	-0.096
-561.529	84.334	0.049	-0.054
-560.515	-12.809	0.217	0.142
-559.500	-176.912	0.538	0.014
-558.485	-165.275	-0.288	-0.013
-557.471	-50.715	-0.183	0.086
-556.456	-15.855	0.232	0.148
-555.442	-200.000	-0.023	-0.240
-554.427	-200.000	0.039	0.298
-553.412	-131.863	-0.418	-0.055
-552.398	4.140	-0.377	-0.276
-551.383	-57.300	0.158	0.070
-550.369	7.469	-0.211	-0.158
-549.354	568.086	-0.134	-0.326
-548.339	186.804	0.126	0.188
-547.325	-156.271	-0.074	-0.005
-546.310	361.131	-0.104	0.209
-545.296	-25.929	0.032	-0.019
-544.281	800.000	-0.020	0.062
-543.266	-103.611	0.293	0.069
-542.252	-3.189	-0.262	0.183
-541.237	-92.028	0.389	0.110
-540.223	-145.704	-0.029	-0.003
-539.208	800.000	0.078	0.248
-538.193	-122.116	0.339	0.056
-537.179	-21.116	-0.121	0.074
-536.164	-200.000	0.004	-0.318
-535.150	-72.440	0.180	0.067
-534.135	7.560	-0.122	-0.091
-533.121	-21.850	-0.146	-0.089
-532.106	800.000	0.051	0.155
-531.091	800.000	-0.104	0.319
-530.077	94.226	0.141	0.160
-529.062	93.728	0.162	0.184
-528.048	-49.719	0.054	-0.026
-527.033	-18.218	-0.187	0.117
-526.018	-109.315	0.415	-0.088
-525.004	-200.000	0.005	-0.186
-523.989	-24.366	0.120	0.072
-522.975	-54.182	0.149	0.068
-521.960	-8.771	-0.047	0.032
-520.945	9.316	0.218	0.165
-519.931	197.138	-0.080	0.122
-518.916	-103.364	-0.183	-0.043
-517.902	-121.789	0.158	-0.026
-516.887	117.003	-0.059	-0.072
-515.872	-95.991	0.199	-0.053
-514.858	4.809	-0.270	0.199
-513.843	-61.978	-0.169	0.071
-512.829	239.416	-0.109	-0.182
-511.814	-200.000	-0.024	0.150
-510.799	-51.991	-0.187	0.087
-509.785	-69.118	-0.356	0.137
-508.770	44.838	0.099	-0.091
-507.756	800.000	0.121	-0.399
-506.741	800.000	0.034	0.143
-505.726	-200.000	-0.033	0.160
-504.712	-200.000	0.006	-0.138
-503.697	-55.220	-0.096	-0.043
-502.683	24.630	0.140	0.116
-501.668	198.810	-0.102	-0.157
-500.653	-178.342	0.078	-0.002
-499.639	-5.572	0.286	-0.196
-498.624	-47.864	0.222	-0.107
-497.610	16.844	-0.081	0.064
-496.595	-53.950	-0.154	0.070
-495.581	-110.607	-0.098	0.020
-494.566	-165.010	0.082	0.004
-493.551	-200.000	-0.024	-0.492
-492.537	-200.000	-0.025	0.144
-491.522	110.836	-0.098	-0.118
-490.508	403.159	-0.040	0.085
-489.493	-111.470	0.140	0.029
-488.478	131.086	-0.236	-0.303
-487.464	-200.000	-0.002	-0.232
-486.449	249.490	0.212	-0.360
-485.435	-200.000	-0.035	0.212
-484.420	121.809	0.133	-0.166
-483.405	-62.018	0.173	-0.072
-482.391	800.000	-0.093	-0.347
-481.376	-200.000	0.037	-0.367
-480.362	-151.974	-0.243	-0.018
-479.347	800.000	0.028	-0.109
-478.332	-106.741	0.268	0.059
-477.318	-200.000	0.017	0.384
-476.303	-200.000	-0.021	0.406
-475.289	-199.814	0.154	0.001
-474.274	-149.422	0.207	0.016
-473.259	-200.000	0.011	0.130
-472.245	-111.329	-0.382	-0.078
-471.230	800.000	-0.068	-0.228
-470.216	281.603	0.212	0.380
-469.201	-200.000	-0.004	0.076
-468.186	-181.906	0.135	-0.003
-467.172	-200.000	0.021	-0.114
-466.157	-70.047	-0.251	-0.096
-465.143	222.447	-0.156	-0.251
-464.128	594.423	0.077	0.191
-463.113	502.043	-0.131	-0.302
-462.099	-8.689	-0.085	0.057
-461.084	-72.849	0.226	0.083
-460.070	-200.000	0.025	-0.560
-459.055	-200.000	-0.001	0.092
-458.040	-72.045	-0.176	-0.065
-457.026	258.787	0.061	0.105
-456.011	-16.632	0.168	0.106
-454.997	-200.000	0.009	0.051
-453.982	-200.000	0.063	-0.461
-452.968	96.483	-0.101	0.115
-451.953	-200.000	0.003	0.091
-450.938	40.707	0.242	0.217
-449.924	-200.000	0.010	0.055
-448.909	5.808	-0.370	-0.273
-447.895	112.452	-0.151	0.182
-446.880	-102.487	0.209	-0.050
-445.865	-0.525	0.052	-0.037
-444.851	-182.544	-0.188	0.003
-443.836	-200.000	-0.033	-0.231
-442.822	-51.414	0.111	-0.052
-441.807	-85.158	-0.216	-0.068
-440.792	0.291	0.231	-0.164
-439.778	800.000	0.014	-0.060
-438.763	-128.222	-0.190	-0.027
-437.749	-81.777	0.050	-0.017
-436.734	-65.199	-0.118	-0.047
-435.719	-65.264	-0.328	-0.132
-434.705	64.267	-0.317	-0.318
-433.690	-69.228	0.192	-0.074
-432.676	-134.688	0.217	0.026
-431.661	764.027	0.105	-0.285
-430.646	-15.746	-0.111	-0.071
-429.632	83.259	0.119	0.129
-428.617	284.545	-0.070	-0.126
-427.603	-152.455	-0.223	0.016
-426.588	130.866	0.159	-0.204
-425.573	-133.542	-0.368	-0.046
-424.559	-200.000	0.022	-0.195
-423.544	-200.000	-0.010	-0.214
-422.530	52.957	0.116	-0.110
-421.515	116.206	-0.092	0.112
-420.500	-200.000	-0.010	0.056
-419.486	-200.000	0.049	-0.332
-418.471	-110.909	-0.151	0.031
-417.457	-3.652	-0.143	0.099
-416.442	-9.825	-0.214	-0.142
-415.428	-200.000	0.009	0.073
-414.413	482.484	0.048	0.109
-413.398	-200.000	-0.002	-0.166
-412.384	-200.000	0.070	-0.328
-411.369	-82.602	-0.013	-0.004
-410.355	-1.820	-0.197	0.138
-409.340	800.000	0.061	0.266
-408.325	-40.262	0.213	-0.111
-407.311	-135.349	-0.338	-0.040
-406.296	-200.000	-0.010	0.121
-405.282	53.145	-0.271	0.258
-404.267	161.904	0.255	0.356
-403.252	-8.306	0.206	-0.138
-402.238	-30.692	-0.246	0.139
-401.223	-200.000	-0.042	-0.345
-400.209	-11.752	-0.201	-0.132
-399.194	0.463	0.305	-0.217
-398.179	-113.211	0.128	-0.025
-397.165	396.500	-0.041	0.085
-396.150	176.787	-0.096	-0.140
-395.136	187.639	-0.036	-0.053
-394.121	139.958	0.053	0.070
-393.106	102.367	0.106	0.123
-392.092	-200.000	-0.060	-0.399
-391.077	-79.525	0.186	0.063
-390.063	-200.000	0.047	0.250
-389.048	-178.616	0.164	-0.004
-388.033	-85.033	-0.233	-0.073
-387.019	46.474	0.239	0.220
-386.004	800.000	-0.067	-0.245
-384.990	800.000	0.083	-0.240
-383.975	430.578	-0.107	0.230
-382.960	-59.635	0.197	-0.084
-381.946	132.565	-0.080	-0.102
-380.931	691.896	0.008	-0.020
-379.917	-200.000	-0.019	0.129
-378.902	-87.080	-0.155	-0.047
-377.888	54.628	-0.350	0.336
-376.873	-32.661	0.059	0.033
-375.858	227.351	0.100	-0.162
-374.844	127.395	0.098	0.124
-373.829	148.333	0.120	-0.161
-372.815	100.568	-0.202	0.233
-371.800	-87.932	0.180	-0.054
-370.785	-144.989	-0.105	-0.010
-369.771	442.355	-0.035	-0.076
-368.756	470.942	0.098	0.218
-367.742	-101.624	0.083	0.020
-366.727	-101.811	-0.113	0.027
-365.712	47.804	-0.147	-0.136
-364.698	-11.240	-0.171	-0.112
-363.683	-93.554	-0.188	0.052
-362.669	800.000	-0.135	-0.431
-361.654	800.000	-0.068	-0.195
-360.639	126.419	0.196	-0.246
-359.625	-86.534	0.111	0.034
-358.610	64.491	0.066	-0.066
-357.596	800.000	0.093	0.279
-356.581	744.149	-0.089	-0.239
-355.566	-167.952	0.117	-0.005
-354.552	800.000	-0.025	0.071
-353.537	-5.605	-0.066	-0.045
-352.523	34.671	-0.191	-0.166
-351.508	-200.000	0.004	0.020
-350.493	95.296	0.211	0.239
-349.479	355.465	-0.087	0.172
-348.464	578.250	0.025	0.060
-347.450	-6.727	-0.269	-0.182
-346.435	398.075	-0.040	-0.084
-345.420	-36.131	0.243	-0.130
-344.406	-200.000	0.003	0.150
-343.391	-118.040	-0.163	-0.029
-342.377	-15.611	-0.321	0.204
-341.362	405.404	-0.090	0.189
-340.348	-6.607	0.060	-0.041
-339.333	-112.960	-0.450	-0.088
-338.318	-40.477	-0.174	-0.090
-337.304	87.745	0.133	0.147
-336.289	-83.092	0.153	0.049
-335.275	-39.650	0.141	0.073
-334.260	15.475	0.178	-0.139
-333.245	800.000	-0.057	-0.205
-332.231	88.977	0.108	-0.120
-331.216	-154.473	0.137	0.009
-330.202	-200.000	0.002	-0.083
-329.187	25.467	0.111	-0.092
-328.172	-200.000	-0.028	0.245
-327.158	-200.000	0.031	-0.189
-326.143	-97.589	-0.096	-0.025
-325.129	-172.192	-0.176	-0.006
-324.114	-96.243	0.162	0.043
-323.099	-178.649	-0.044	-0.001
-322.085	102.986	-0.164	-0.191
-321.070	-124.971	0.612	-0.094
-320.056	174.868	0.185	0.266
-319.041	-165.271	-0.174	0.008
-318.026	800.000	-0.052	-0.224
-317.012	800.000	0.073	0.213
-315.997	-10.029	0.147	-0.097
-314.983	-200.000	-0.003	0.257
-313.968	644.055	-0.057	0.145
-312.953	-76.408	0.419	-0.146
-311.939	-129.813	0.374	-0.051
-310.924	100.364	-0.349	0.402
-309.910	32.087	-0.144	-0.123
-308.895	181.107	-0.067	-0.098
-307.880	-200.000	-0.034	0.248
-306.866	-101.834	-0.421	-0.101
-305.851	85.524	0.126	0.137
-304.837	1.774	0.214	0.153
-303.822	-105.857	-0.285	0.064
-302.807	298.578	0.208	-0.380
-301.793	173.667	0.163	0.233
-300.778	153.090	-0.218	0.296
-299.764	800.000	-0.088	0.304
-298.749	-33.963	-0.157	0.085
-297.735	-119.462	-0.197	-0.034
-296.720	-198.934	0.377	-0.002
-295.705	-200.000	0.054	0.483
-294.691	-157.009	0.207	-0.013
-293.676	-10.502	-0.165	-0.108
-292.662	-200.000	0.031	0.210
-291.647	254.417	-0.084	-0.142
-290.632	226.817	0.106	-0.171
-289.618	130.024	0.095	0.120
-288.603	-32.955	-0.201	0.111
-287.589	181.489	-0.145	-0.211
-286.574	128.164	0.285	0.360
-285.559	241.345	0.008	-0.013
-284.545	214.483	-0.103	0.162
-283.530	-97.104	-0.115	0.030
-282.516	800.000	-0.020	0.074
-281.501	60.939	0.166	0.163
-280.486	74.619	0.175	0.183
-279.472	305.835	0.134	0.247
-278.457	-156.128	0.181	0.011
-277.443	276.262	-0.085	-0.149
-276.428	51.545	0.096	0.091
-275.413	-200.000	-0.041	0.321
-274.399	323.727	-0.130	0.246
-273.384	97.028	-0.149	0.169
-272.370	-72.998	0.370	-0.135
-271.355	145.266	0.117	0.155
-270.340	-92.971	0.176	0.049
-269.326	-99.842	0.191	0.047
-268.311	240.984	-0.138	-0.229
-267.297	133.943	0.057	0.074
-266.282	-54.036	-0.214	-0.097
-265.267	-64.009	-0.160	0.065
-264.253	35.684	0.108	0.094
-263.238	800.000	0.048	-0.197
-262.224	89.447	0.170	0.187
-261.209	-86.741	0.295	-0.089
-260.195	-51.201	0.055	-0.025
-259.180	76.711	0.152	-0.160
-258.165	296.214	-0.108	0.197
-257.151	69.369	-0.081	0.082
-256.136	35.180	0.120	-0.104
-255.122	-200.000	0.042	0.227
-254.107	-76.064	0.148	-0.052
-253.092	-20.510	0.240	0.146
-252.078	-133.976	0.310	-0.038
-251.063	458.334	0.152	-0.335
-250.049	549.811	0.101	-0.240
-249.034	419.425	0.059	-0.125
-248.019	-200.000	-0.018	0.176
-247.005	79.238	-0.166	-0.176
-245.990	-96.994	-0.069	-0.018
-244.976	-200.000	0.023	0.237
-243.961	800.000	-0.065	-0.221
-242.946	800.000	0.066	-0.233
-241.932	210.345	0.175	0.271
-240.917	-128.436	0.123	0.017
-239.903	17.856	0.287	0.226
-238.888	-33.595	-0.284	-0.155
-237.873	-113.424	0.241	0.047
-236.859	-74.638	0.474	0.169
-235.844	-54.461	0.211	-0.095
-234.830	800.000	0.084	0.254
-233.815	258.261	-0.042	0.072
-232.800	-138.578	0.259	0.028
-231.786	111.537	0.122	0.146
-230.771	-71.963	0.160	0.059
-229.757	405.933	0.108	0.224
-228.742	346.470	-0.082	0.160
-227.727	6.192	-0.244	0.179
-226.713	18.164	-0.333	0.263
-225.698	-4.166	0.191	-0.131
-224.684	132.158	0.172	-0.219
-223.669	-169.419	0.165	0.006
-222.655	497.029	0.093	-0.212
-221.640	-60.784	-0.034	0.014
-220.625	800.000	0.171	-0.503
-219.611	130.003	-0.229	-0.290
-218.596	-200.000	0.032	0.426
-217.582	-70.281	-0.173	0.065
-216.567	-200.000	0.025	0.191
-215.552	-131.230	-0.214	0.028
-214.538	800.000	-0.149	0.423
-213.523	-78.733	0.142	0.048
-212.509	45.459	-0.081	0.074
-211.494	18.799	-0.043	-0.034
-210.479	794.234	0.063	0.171
-209.465	156.402	-0.169	0.230
-208.450	-12.745	-0.107	-0.069
-207.436	800.000	0.089	-0.363
-206.421	222.949	0.137	-0.219
-205.406	-159.323	-0.269	0.015
-204.392	278.195	0.213	-0.375
-203.377	45.251	0.326	-0.297
-202.363	-88.569	-0.215	0.063
-201.348	-27.592	-0.247	-0.142
-200.333	-88.633	-0.161	-0.047
-199.319	-127.385	-0.299	0.043
-198.304	-115.494	0.102	-0.019
-197.290	-57.067	0.058	-0.025
-196.275	-200.000	0.029	-0.368
-195.260	-33.207	0.369	-0.202
-194.246	95.302	0.152	-0.171
-193.231	-80.302	0.038	0.013
-192.217	-200.000	-0.002	-0.132
-191.202	-78.002	-0.035	0.012
-190.187	501.520	-0.078	0.178
-189.173	100.701	-0.266	0.305
-188.158	800.000	0.079	0.305
-187.144	689.375	0.091	0.236
-186.129	-112.175	0.090	-0.018
-185.114	-143.299	0.178	-0.017
-184.100	-124.155	0.270	-0.042
-183.085	-159.067	0.226	0.013
-182.071	446.149	-0.019	-0.040
-181.056	-116.754	0.361	-0.065
-180.042	-200.000	0.078	0.456
-179.027	63.234	0.096	0.094
-178.012	436.381	0.082	-0.176
-176.998	-200.000	0.032	-0.382
-175.983	-200.000	-0.056	0.304
-174.969	269.659	0.127	0.220
-173.954	-36.957	-0.256	0.135
-172.939	-68.964	-0.191	0.073
-171.925	-68.101	-0.205	0.079
-170.910	-14.142	-0.088	0.056
-169.896	71.204	0.186	0.191
-168.881	72.520	0.255	-0.263
-167.866	-19.816	0.141	-0.086
-166.852	-34.361	-0.140	-0.076
-165.837	-59.235	0.073	-0.031
-164.823	-30.871	-0.247	-0.138
-163.808	-200.000	-0.033	-0.204
-162.793	97.878	0.292	0.331
-161.779	-141.963	0.030	0.003
-160.764	295.049	0.070	0.126
-159.750	167.668	-0.029	-0.040
-158.735	-77.799	-0.292	0.100
-157.720	-96.878	0.158	-0.041
-156.706	19.566	0.136	0.108
-155.691	800.000	0.080	0.251
-154.677	-47.929	0.125	-0.060
-153.662	-66.374	-0.233	-0.091
-152.647	-122.853	-0.157	-0.025
-151.633	-40.507	-0.132	-0.067
-150.618	-22.655	0.182	0.108
-149.604	800.000	-0.060	0.216
-148.589	-103.844	-0.439	-0.101
-147.574	96.113	-0.150	-0.169
-146.560	-177.507	0.124	0.003
-145.545	-138.204	0.222	-0.024
-144.531	77.584	0.126	0.133
-143.516	-137.809	0.047	0.005
-142.502	774.262	0.091	-0.245
-141.487	800.000	-0.011	0.031
-140.472	7.153	0.259	0.190
-139.458	800.000	0.052	0.196
-138.443	-200.000	0.040	0.270
-137.429	279.615	-0.018	-0.032
-136.414	31.867	-0.145	0.123
-135.399	413.977	-0.096	0.201
-134.385	2.232	-0.203	0.144
-133.370	-200.000	0.012	0.102
-132.356	-34.252	-0.277	0.150
-131.341	800.000	0.101	0.314
-130.326	-175.362	-0.191	-0.005
-129.312	-138.705	0.241	-0.026
-128.297	800.000	-0.086	-0.280
-127.283	-109.985	0.192	0.040
-126.268	30.670	-0.172	0.145
-125.253	95.705	0.133	0.149
-124.239	203.666	0.043	0.065
-123.224	-135.636	0.387	0.045
-122.210	-200.000	0.034	-0.174
-121.195	116.966	-0.205	0.248
