DTS Sentinel unit serial number:	SN413079Multiplexer serial number:	ORYXHardware model number:	OX4-SRSoftware version number:	ORYX F/W v4.00 Oryx Data Collector v3.7.2.0data status	okinstallation	princeton_trtdifferential loss correction	single-endedforward channel	channel 3reverse channel	N/Adate	2019/09/12time	05:46:11forward acquisition time	60.00reverse acquisition time	0.00gamma	496.2192k internal	0.2321k external	0.2321temperature offset calibration	1.0032default loss term (dB/km)	0.3790temperature slope calibration	1.0000multiplexer offset coefficient	1.0000multiplexer slope coefficient	1.0000fibre end	0.00T internal ref (°C)	32.02T ext. ref 1 (°C)	1.58T ext. ref 2 (°C)	27.53length (m)	temperature (°C)	Stokes	anti-Stokes-747.200	27.475	-0.108	-0.091
-746.185	173.634	0.148	0.216
-745.171	-176.081	0.092	-0.002
-744.156	-25.532	-0.126	0.075
-743.142	-45.480	0.406	0.203
-742.127	56.671	-0.178	0.175
-741.112	71.690	-0.125	0.131
-740.098	-126.697	0.173	-0.026
-739.083	398.137	-0.096	-0.204
-738.069	-27.843	-0.251	0.147
-737.054	59.472	-0.178	-0.177
-736.039	137.396	-0.220	-0.291
-735.025	800.000	-0.035	0.141
-734.010	44.334	-0.079	-0.073
-732.996	2.457	-0.245	0.179
-731.981	692.866	0.087	0.229
-730.966	-148.040	-0.079	0.007
-729.952	800.000	-0.020	-0.077
-728.937	-82.089	-0.033	0.011
-727.923	-153.097	-0.107	0.008
-726.908	-200.000	0.016	-0.132
-725.894	-81.954	-0.315	-0.104
-724.879	-200.000	0.067	-0.317
-723.864	-131.015	0.139	-0.019
-722.850	89.786	-0.057	-0.065
-721.835	679.113	0.066	0.173
-720.821	-14.184	0.076	-0.049
-719.806	18.918	-0.133	-0.108
-718.791	37.424	0.320	-0.287
-717.777	-62.233	-0.162	-0.068
-716.762	-98.847	-0.352	0.090
-715.748	-200.000	-0.021	0.148
-714.733	-114.779	-0.162	0.031
-713.718	-200.000	-0.023	0.169
-712.704	800.000	0.069	-0.230
-711.689	55.798	-0.115	0.112
-710.675	151.258	-0.141	0.194
-709.660	-49.999	0.350	0.168
-708.645	-138.746	-0.149	-0.016
-707.631	53.282	-0.183	0.177
-706.616	27.270	-0.024	0.020
-705.602	1.993	-0.229	0.167
-704.587	21.416	0.243	-0.200
-703.572	97.301	0.249	-0.289
-702.558	-200.000	0.073	-0.325
-701.543	-28.805	0.390	-0.226
-700.529	253.388	-0.226	-0.389
-699.514	138.809	-0.109	0.145
-698.499	-66.913	0.289	-0.115
-697.485	243.869	-0.189	0.320
-696.470	-118.036	-0.209	0.038
-695.456	800.000	-0.047	-0.136
-694.441	-200.000	0.012	-0.373
-693.426	438.508	0.137	0.301
-692.412	800.000	0.074	-0.230
-691.397	139.555	-0.182	0.242
-690.383	315.697	-0.096	-0.182
-689.368	393.915	-0.089	-0.186
-688.354	37.732	-0.169	0.151
-687.339	-90.961	0.521	0.151
-686.324	-85.178	0.233	0.074
-685.310	-173.152	0.331	0.010
-684.295	8.605	0.275	-0.209
-683.281	526.603	-0.078	0.185
-682.266	800.000	0.104	0.408
-681.251	-9.780	0.132	-0.088
-680.237	741.753	-0.050	0.135
-679.222	295.107	0.046	0.085
-678.208	138.198	-0.066	-0.087
-677.193	-14.963	0.033	0.021
-676.178	106.070	0.103	-0.123
-675.164	51.179	-0.213	-0.204
-674.149	-200.000	-0.048	-0.227
-673.135	-108.835	0.306	-0.066
-672.120	-26.995	0.065	-0.038
-671.105	-200.000	-0.040	-0.223
-670.091	-136.786	0.084	-0.010
-669.076	640.510	0.045	-0.116
-668.062	-48.338	-0.329	0.160
-667.047	-13.091	0.247	0.162
-666.032	800.000	0.046	0.135
-665.018	61.731	-0.241	0.242
-664.003	145.930	0.119	-0.161
-662.989	-87.837	-0.072	0.022
-661.974	-105.312	0.155	-0.036
-660.959	-91.095	-0.063	-0.018
-659.945	-34.584	-0.318	-0.175
-658.930	-64.737	0.223	-0.091
-657.916	-200.000	-0.001	0.220
-656.901	392.642	0.078	-0.163
-655.886	-200.000	0.035	0.266
-654.872	-121.716	-0.146	-0.024
-653.857	800.000	-0.045	-0.195
-652.843	-120.510	0.152	-0.026
-651.828	190.412	0.018	0.026
-650.814	800.000	0.013	-0.049
-649.799	52.491	-0.249	-0.239
-648.784	120.139	0.127	0.158
-647.770	-102.461	0.146	-0.035
-646.755	-200.000	0.032	0.247
-645.741	-200.000	0.001	0.371
-644.726	-49.631	-0.076	0.037
-643.711	800.000	-0.018	0.055
-642.697	-64.909	0.302	-0.123
-641.682	262.517	0.085	0.149
-640.668	-107.030	-0.123	0.027
-639.653	-171.040	-0.449	-0.015
-638.638	648.701	0.063	-0.163
-637.624	-70.151	0.149	0.057
-636.609	17.012	-0.072	0.058
-635.595	270.683	0.195	0.346
-634.580	-34.173	-0.011	-0.006
-633.565	125.833	-0.170	0.216
-632.551	-198.785	-0.185	0.001
-631.536	212.686	0.156	-0.247
-630.522	-32.965	0.115	-0.065
-629.507	19.684	-0.147	0.119
-628.492	800.000	-0.093	0.293
-627.478	96.834	-0.149	0.171
-626.463	800.000	0.062	-0.262
-625.449	666.969	-0.144	-0.375
-624.434	800.000	-0.068	0.277
-623.419	-70.911	-0.224	0.085
-622.405	-28.099	-0.108	-0.063
-621.390	103.308	0.149	0.176
-620.376	-130.898	0.170	-0.023
-619.361	-25.747	0.046	-0.027
-618.346	25.589	0.106	0.089
-617.332	132.549	-0.148	0.193
-616.317	-24.037	0.344	-0.207
-615.303	-73.455	-0.240	0.088
-614.288	268.859	0.130	-0.229
-613.273	-118.291	0.438	0.078
-612.259	38.990	-0.210	0.189
-611.244	-200.000	0.026	-0.250
-610.230	275.699	-0.111	-0.198
-609.215	165.276	-0.094	0.133
-608.201	-200.000	0.008	0.077
-607.186	-200.000	-0.065	-0.384
-606.171	57.220	-0.120	-0.118
-605.157	-187.526	-0.094	0.001
-604.142	436.751	-0.021	0.047
-603.128	94.648	0.270	-0.309
-602.113	153.158	-0.135	-0.185
-601.098	221.744	0.021	-0.034
-600.084	-49.471	0.109	-0.052
-599.069	-200.000	-0.011	-0.343
-598.055	-71.004	-0.222	-0.084
-597.040	-162.756	-0.092	0.005
-596.025	-31.964	0.424	-0.238
-595.011	-164.378	0.169	-0.008
-593.996	-51.302	0.189	-0.089
-592.982	-40.213	-0.128	0.067
-591.967	-156.710	-0.067	-0.004
-590.952	-74.140	-0.319	-0.116
-589.938	-200.000	-0.016	0.425
-588.923	141.926	-0.176	0.235
-587.909	-117.112	-0.125	-0.023
-586.894	20.132	0.234	0.190
-585.879	189.844	0.162	0.245
-584.865	118.967	-0.237	-0.294
-583.850	-95.907	0.187	-0.050
-582.836	-6.786	-0.157	0.107
-581.821	-147.988	0.268	0.022
-580.806	-114.788	-0.114	-0.022
-579.792	800.000	0.075	-0.324
-578.777	125.599	-0.214	-0.272
-577.763	47.506	-0.162	-0.151
-576.748	21.378	-0.050	0.041
-575.733	271.385	0.128	-0.226
-574.719	27.989	0.632	-0.536
-573.704	-200.000	0.004	0.131
-572.690	-64.596	-0.149	0.061
-571.675	157.921	0.092	-0.128
-570.661	800.000	0.001	-0.006
-569.646	-126.639	0.092	-0.014
-568.631	32.499	0.165	-0.143
-567.617	-139.505	-0.185	-0.020
-566.602	25.995	0.042	-0.035
-565.588	-128.717	-0.092	-0.013
-564.573	-78.974	-0.327	-0.112
-563.558	-37.313	-0.117	0.063
-562.544	-34.568	0.416	-0.229
-561.529	-200.000	-0.008	0.353
-560.515	13.991	0.105	-0.082
-559.500	460.866	0.097	-0.217
-558.485	-187.671	0.152	0.002
-557.471	-138.451	-0.683	-0.076
-556.456	-118.954	0.133	0.023
-555.442	-3.576	0.155	-0.108
-554.427	15.558	-0.063	-0.049
-553.412	800.000	-0.078	-0.271
-552.398	-200.000	-0.050	0.304
-551.383	800.000	-0.168	0.486
-550.369	-79.121	0.105	0.036
-549.354	264.078	-0.021	-0.036
-548.339	-94.427	0.071	0.019
-547.325	14.934	-0.281	-0.220
-546.310	800.000	-0.101	-0.378
-545.296	800.000	0.027	0.118
-544.281	-200.000	-0.015	-0.247
-543.266	191.006	-0.191	-0.289
-542.252	738.210	-0.050	-0.135
-541.237	749.946	-0.033	0.089
-540.223	4.830	-0.274	0.202
-539.208	-5.613	0.035	-0.024
-538.193	-119.773	-0.278	0.048
-537.179	-40.783	-0.314	0.163
-536.164	-155.192	-0.137	0.009
-535.150	800.000	0.017	0.050
-534.135	64.244	-0.181	-0.183
-533.121	-103.417	-0.172	-0.040
-532.106	-30.993	-0.083	0.047
-531.091	-9.667	0.203	-0.136
-530.077	-38.794	0.090	-0.048
-529.062	41.799	0.123	-0.112
-528.048	-200.000	0.036	0.271
-527.033	-200.000	-0.021	-0.239
-526.018	56.030	-0.052	-0.051
-525.004	-60.874	-0.333	-0.141
-523.989	44.591	-0.020	-0.018
-522.975	-200.000	0.025	0.198
-521.960	111.619	-0.097	-0.118
-520.945	800.000	-0.050	-0.192
-519.931	552.820	-0.081	0.194
-518.916	-55.441	-0.231	-0.104
-517.902	-77.994	-0.162	-0.056
-516.887	63.148	0.166	0.167
-515.872	-125.996	0.229	-0.034
-514.858	144.021	-0.212	0.284
-513.843	178.384	-0.090	0.131
-512.829	243.110	-0.070	-0.118
-511.814	-200.000	0.045	0.256
-510.799	168.555	0.039	0.055
-509.785	-195.927	-0.116	0.001
-508.770	-17.734	0.024	-0.015
-507.756	307.123	0.161	0.301
-506.741	800.000	-0.085	0.348
-505.726	-200.000	-0.009	0.171
-504.712	184.328	-0.129	0.192
-503.697	-75.973	0.068	0.024
-502.683	-87.620	0.155	0.047
-501.668	-200.000	0.085	-0.394
-500.653	1.132	0.025	-0.018
-499.639	-3.974	0.117	-0.081
-498.624	-102.868	-0.400	-0.095
-497.610	-74.515	0.080	0.029
-496.595	-28.726	-0.172	-0.099
-495.581	88.258	0.170	-0.189
-494.566	-200.000	0.014	0.198
-493.551	521.503	-0.048	-0.112
-492.537	800.000	0.139	0.416
-491.522	107.397	-0.049	0.058
-490.508	54.617	0.304	-0.293
-489.493	12.929	0.138	-0.106
-488.478	-58.798	0.089	-0.039
-487.464	-10.176	-0.125	0.083
-486.449	800.000	-0.051	0.147
-485.435	-47.271	0.270	0.132
-484.420	-200.000	-0.024	0.326
-483.405	395.015	-0.040	0.084
-482.391	-74.230	0.006	0.002
-481.376	-38.020	0.088	0.047
-480.362	133.509	-0.247	-0.320
-479.347	39.116	0.009	-0.008
-478.332	66.940	0.237	0.241
-477.318	-30.748	0.299	0.169
-476.303	-113.714	-0.097	-0.019
-475.289	123.834	0.097	0.121
-474.274	800.000	-0.082	-0.244
-473.259	-117.597	0.060	0.011
-472.245	170.116	-0.156	0.223
-471.230	-83.437	-0.197	0.063
-470.216	249.449	-0.181	-0.307
-469.201	-157.380	-0.232	-0.014
-468.186	103.891	0.182	-0.214
-467.172	-183.317	-0.343	-0.006
-466.157	345.287	-0.073	-0.144
-465.143	91.494	-0.235	-0.264
-464.128	370.519	0.048	0.098
-463.113	116.272	-0.067	-0.083
-462.099	-90.388	0.205	0.059
-461.084	-200.000	0.021	0.379
-460.070	280.204	0.093	-0.167
-459.055	51.791	-0.242	0.230
-458.040	65.212	-0.176	-0.178
-457.026	-88.944	-0.239	-0.071
-456.011	-133.138	0.217	0.027
-454.997	800.000	-0.047	-0.156
-453.982	800.000	-0.105	-0.455
-452.968	-108.857	-0.175	0.037
-451.953	-200.000	0.073	-0.418
-450.938	98.058	-0.115	0.132
-449.924	469.081	-0.082	-0.183
-448.909	-176.153	0.059	0.002
-447.895	800.000	0.122	0.337
-446.880	-200.000	-0.010	0.123
-445.865	-122.853	-0.334	0.054
-444.851	239.588	0.108	0.179
-443.836	-58.700	-0.058	0.025
-442.822	-200.000	-0.038	-0.243
-441.807	-35.436	-0.207	0.112
-440.792	31.622	-0.201	0.172
-439.778	-102.971	0.357	-0.085
-438.763	432.397	0.079	-0.171
-437.749	260.980	-0.193	0.334
-436.734	110.494	-0.106	-0.127
-435.719	-200.000	-0.091	0.425
-434.705	-137.190	-0.032	-0.004
-433.690	-85.478	0.223	-0.069
-432.676	2.527	0.116	-0.084
-431.661	-105.583	-0.142	-0.032
-430.646	320.891	0.118	0.224
-429.632	-200.000	0.028	0.174
-428.617	-164.140	0.130	-0.006
-427.603	-95.846	0.187	-0.050
-426.588	-127.808	0.189	0.027
-425.573	-200.000	-0.003	0.317
-424.559	67.375	0.242	0.246
-423.544	328.764	-0.050	0.097
-422.530	800.000	0.029	0.084
-421.515	-89.037	-0.130	0.038
-420.500	190.525	0.095	-0.143
-419.486	2.987	0.256	-0.186
-418.471	-56.253	-0.119	0.053
-417.457	-153.269	0.209	-0.015
-416.442	-41.868	-0.260	-0.133
-415.428	800.000	-0.049	0.168
-414.413	-88.865	-0.291	0.086
-413.398	-142.383	0.155	-0.015
-412.384	800.000	0.074	0.301
-411.369	-151.481	-0.232	0.017
-410.355	247.254	0.158	-0.267
-409.340	-200.000	-0.012	0.134
-408.325	800.000	0.081	0.248
-407.311	-20.152	0.135	0.083
-406.296	465.834	0.153	-0.343
-405.282	-67.175	-0.436	-0.171
-404.267	-22.099	0.315	-0.191
-403.252	-150.855	-0.230	-0.017
-402.238	-200.000	-0.037	-0.253
-401.223	-130.983	-0.170	-0.023
-400.209	446.437	0.085	0.186
-399.194	-200.000	0.008	-0.051
-398.179	-84.577	0.422	-0.133
-397.165	320.392	0.052	0.099
-396.150	-156.598	-0.152	0.009
-395.136	-84.507	-0.022	-0.007
-394.121	411.683	-0.065	0.138
-393.106	800.000	0.085	-0.265
-392.092	-78.355	-0.191	0.065
-391.077	-200.000	0.010	0.122
-390.063	582.023	-0.062	0.153
-389.048	438.623	-0.032	-0.069
-388.033	175.687	0.085	0.123
-387.019	-68.292	0.153	-0.059
-386.004	-188.742	-0.066	-0.001
-384.990	-76.003	-0.226	-0.080
-383.975	-175.706	0.373	0.010
-382.960	-54.544	0.232	-0.105
-381.946	761.338	0.064	-0.174
-380.931	-15.985	0.140	-0.089
-379.917	-200.000	-0.004	-0.140
-378.902	-200.000	0.008	0.134
-377.888	26.973	-0.175	0.146
-376.873	486.173	0.035	-0.080
-375.858	-85.527	-0.237	0.074
-374.844	166.905	-0.083	0.117
-373.829	-41.479	0.321	-0.165
-372.815	-128.952	-0.022	-0.003
-371.800	186.652	0.050	-0.074
-370.785	181.556	0.035	0.051
-369.771	-17.553	0.203	0.127
-368.756	147.592	-0.036	0.049
-367.742	-19.253	0.131	0.081
-366.727	-25.081	0.221	-0.130
-365.712	449.541	0.103	0.226
-364.698	-87.798	0.072	-0.022
-363.683	170.929	-0.153	-0.218
-362.669	338.248	0.017	0.034
-361.654	-70.915	-0.226	0.085
-360.639	411.504	-0.081	0.171
-359.625	799.704	0.088	0.243
-358.610	-77.244	-0.028	0.010
-357.596	537.213	-0.114	-0.269
-356.581	147.665	0.222	-0.297
-355.566	665.103	0.102	0.262
-354.552	421.863	0.141	0.302
-353.537	-200.000	0.005	-0.028
-352.523	-124.336	-0.186	0.029
-351.508	174.107	0.252	0.363
-350.493	549.136	-0.084	0.199
-349.479	800.000	-0.065	-0.205
-348.464	2.508	0.113	-0.081
-347.450	225.652	-0.085	0.137
-346.435	800.000	-0.091	0.385
-345.420	256.965	-0.021	-0.036
-344.406	-81.827	0.334	0.109
-343.391	-15.713	-0.168	0.107
-342.377	504.952	-0.176	0.406
-341.362	91.327	0.102	-0.114
-340.348	-200.000	-0.019	-0.204
-339.333	-168.090	-0.281	-0.011
-338.318	35.362	0.236	0.206
-337.304	-200.000	-0.012	0.111
-336.289	-19.046	0.223	0.138
-335.275	232.560	0.175	0.286
-334.260	600.312	-0.098	0.243
-333.245	13.489	-0.056	-0.043
-332.231	177.252	-0.058	0.084
-331.216	-200.000	0.018	-0.095
-330.202	5.482	0.115	-0.085
-329.187	85.614	-0.154	-0.168
-328.172	-24.508	0.282	0.167
-327.158	-165.693	0.312	0.013
-326.143	-158.136	-0.064	-0.004
-325.129	73.920	0.174	-0.181
-324.114	2.304	0.188	0.135
-323.099	800.000	-0.077	-0.295
-322.085	40.679	-0.195	0.175
-321.070	-127.688	0.193	-0.028
-320.056	800.000	0.099	-0.306
-319.041	-57.996	0.315	0.137
-318.026	174.159	-0.314	0.451
-317.012	0.557	0.217	-0.154
-315.997	800.000	0.071	0.258
-314.983	288.137	0.119	-0.215
-313.968	88.814	0.110	0.121
-312.953	-67.483	-0.122	-0.048
-311.939	-200.000	0.018	0.139
-310.924	141.260	-0.067	-0.088
-309.910	-200.000	-0.009	-0.219
-308.895	800.000	0.022	0.094
-307.880	-11.767	0.129	0.084
-306.866	320.207	-0.052	0.098
-305.851	75.659	-0.211	0.221
-304.837	-118.699	0.076	0.013
-303.822	590.864	-0.123	0.301
-302.807	-200.000	-0.008	0.175
-301.793	-28.773	0.205	0.117
-300.778	396.347	-0.130	-0.270
-299.764	172.291	-0.124	0.178
-298.749	-200.000	0.012	0.106
-297.735	-200.000	-0.069	0.376
-296.720	136.669	0.102	0.133
-295.705	55.736	0.114	0.110
-294.691	-18.299	0.178	-0.111
-293.676	159.557	0.075	-0.104
-292.662	-25.799	-0.184	-0.108
-291.647	-200.000	0.032	-0.366
-290.632	-200.000	0.009	-0.227
-289.618	-200.000	0.025	-0.130
-288.603	-82.985	0.170	0.055
-287.589	-32.364	0.164	0.091
-286.574	694.454	0.058	-0.152
-285.559	135.922	0.163	-0.211
-284.545	-79.665	0.091	0.030
-283.530	-200.000	0.002	-0.341
-282.516	321.067	-0.057	0.108
-281.501	168.837	-0.196	-0.277
-280.486	32.612	0.050	0.043
-279.472	69.782	-0.175	0.179
-278.457	-116.372	0.478	0.088
-277.443	-95.086	-0.160	-0.043
-276.428	800.000	-0.038	0.144
-275.413	-79.045	-0.116	0.039
-274.399	-48.718	0.346	-0.165
-273.384	-41.733	0.121	-0.062
-272.370	91.123	-0.151	-0.168
-271.355	800.000	0.004	-0.012
-270.340	-131.408	-0.287	-0.038
-269.326	323.247	-0.048	0.090
-268.311	112.333	0.106	-0.128
-267.297	-55.340	0.342	-0.152
-266.282	710.380	-0.058	0.151
-265.267	181.422	0.102	0.149
-264.253	496.395	-0.096	0.220
-263.238	40.667	-0.231	-0.206
-262.224	-128.670	0.346	0.048
-261.209	18.928	0.060	-0.048
-260.195	-98.933	-0.083	0.021
-259.180	-200.000	-0.001	0.052
-258.165	-74.075	-0.233	0.084
-257.151	4.706	0.360	-0.262
-256.136	87.006	-0.092	-0.101
-255.122	-7.956	0.060	-0.040
-254.107	800.000	0.029	-0.107
-253.092	-24.056	-0.294	-0.174
-252.078	800.000	-0.065	-0.201
-251.063	65.674	0.079	-0.080
-250.049	800.000	-0.107	0.464
-249.034	330.429	-0.032	0.062
-248.019	114.878	-0.271	-0.328
-247.005	-200.000	0.006	-0.058
-245.990	182.280	0.120	0.176
-244.976	-28.069	-0.148	-0.085
-243.961	-51.541	-0.169	0.078
-242.946	-200.000	-0.027	0.282
-241.932	-159.566	-0.282	0.016
-240.917	800.000	-0.086	-0.320
-239.903	-86.020	0.131	-0.040
-238.888	-200.000	0.008	0.071
-237.873	-200.000	0.006	0.282
-236.859	317.953	-0.058	0.109
-235.844	800.000	-0.084	-0.323
-234.830	-23.728	0.295	0.175
-233.815	-1.214	-0.217	-0.152
-232.800	-75.877	-0.162	-0.057
-231.786	800.000	0.016	0.062
-230.771	396.500	0.081	0.167
-229.757	177.718	-0.169	-0.244
-228.742	-47.784	-0.143	-0.069
-227.727	-133.268	0.346	0.043
-226.713	-18.335	0.153	-0.095
-225.698	-151.547	-0.041	-0.003
-224.684	513.731	-0.098	-0.226
-223.669	-118.686	-0.349	-0.061
-222.655	-200.000	0.014	-0.176
-221.640	159.821	0.040	-0.055
-220.625	-104.535	0.451	-0.103
-219.611	-76.287	0.382	-0.133
-218.596	56.548	-0.176	0.169
-217.582	124.902	0.044	-0.055
-216.567	392.130	-0.128	-0.264
-215.552	-200.000	-0.021	-0.274
-214.538	495.176	0.057	0.129
-213.523	102.728	-0.103	0.120
-212.509	3.955	0.215	0.156
-211.494	-60.374	-0.222	0.094
-210.479	-10.425	0.119	0.078
-209.465	54.784	0.111	-0.106
-208.450	800.000	-0.076	-0.294
-207.436	-44.361	0.230	-0.114
-206.421	-182.322	-0.444	-0.008
-205.406	-59.299	0.318	-0.136
-204.392	800.000	0.049	-0.165
-203.377	187.849	0.074	0.109
-202.363	-175.166	-0.016	-0.000
-201.348	522.210	0.058	0.135
-200.333	-58.358	-0.165	0.071
-199.319	800.000	0.076	-0.223
-198.304	800.000	0.069	0.283
-197.290	-177.907	-0.097	-0.002
-196.275	211.052	0.104	0.161
-195.260	-54.845	0.151	-0.068
-194.246	-41.327	0.079	-0.040
-193.231	-200.000	0.030	0.330
-192.217	131.831	0.085	0.108
-191.202	50.397	-0.111	-0.104
-190.187	247.503	0.173	-0.290
-189.173	-123.018	0.321	-0.051
-188.158	-83.513	-0.293	-0.093
-187.144	197.956	0.191	-0.289
-186.129	-53.706	0.199	0.090
-185.114	2.613	-0.066	0.047
-184.100	-28.660	0.089	0.051
-183.085	-48.375	0.224	-0.107
-182.071	-1.065	0.111	-0.078
-181.056	-93.830	0.060	0.016
-180.042	-37.081	-0.082	-0.043
-179.027	-200.000	-0.031	0.401
-178.012	36.276	-0.226	-0.197
-176.998	13.304	0.035	0.026
-175.983	61.732	0.225	0.222
-174.969	88.041	-0.371	0.407
-173.954	-120.684	-0.070	0.012
-172.939	-123.202	-0.134	-0.021
-171.925	198.888	-0.063	0.096
-170.910	800.000	-0.124	0.415
-169.896	-31.515	0.142	-0.079
-168.881	254.550	-0.035	-0.059
-167.866	742.508	-0.092	0.245
-166.852	-200.000	0.005	0.238
-165.837	177.600	0.140	-0.202
-164.823	-112.796	0.110	0.022
-163.808	384.846	-0.073	-0.149
-162.793	-104.735	-0.148	0.034
-161.779	145.540	-0.241	-0.318
-160.764	-200.000	-0.000	0.121
-159.750	490.305	0.121	0.273
-158.735	4.682	-0.170	-0.123
-157.720	800.000	0.102	-0.341
-156.706	-31.891	-0.236	0.130
-155.691	152.877	0.090	0.122
-154.677	484.697	0.105	-0.237
-153.662	676.495	-0.090	-0.231
-152.647	-46.461	-0.162	0.078
-151.633	800.000	0.150	-0.538
-150.618	800.000	-0.095	0.335
-149.604	-59.128	0.248	0.106
-148.589	163.489	-0.181	0.251
-147.574	-58.367	0.085	-0.036
-146.560	191.056	-0.047	0.070
-145.545	-33.281	-0.069	0.038
-144.531	3.994	0.166	0.120
-143.516	-46.433	0.331	-0.160
-142.502	-166.704	0.143	0.006
-141.487	237.544	0.057	-0.094
-140.472	-35.151	0.151	0.081
-139.458	142.655	0.138	0.181
-138.443	-79.688	-0.139	-0.046
-137.429	-200.000	0.038	0.294
-136.414	-200.000	-0.010	-0.048
-135.399	168.842	-0.212	-0.299
-134.385	59.016	0.125	-0.122
-133.370	-39.111	-0.158	0.082
-132.356	-84.138	-0.127	-0.040
-131.341	80.924	0.218	0.232
-130.326	4.312	-0.164	0.119
-129.312	-200.000	0.007	-0.161
-128.297	326.638	0.142	-0.268
-127.283	800.000	-0.043	0.119
-126.268	-200.000	0.014	0.195
-125.253	-69.244	-0.306	0.116
-124.239	-92.867	0.348	0.096
-123.224	62.690	0.315	-0.311
-122.210	-200.000	-0.001	-0.336
-121.195	682.478	0.107	0.275
-120.180	-37.107	0.235	0.124
