DTS Sentinel unit serial number:	SN413079Multiplexer serial number:	ORYXHardware model number:	OX4-SRSoftware version number:	ORYX F/W v4.00 Oryx Data Collector v3.7.2.0data status	okinstallation	princeton_trtdifferential loss correction	single-endedforward channel	channel 3reverse channel	N/Adate	2019/09/17time	01:12:34forward acquisition time	60.00reverse acquisition time	0.00gamma	496.2192k internal	0.2325k external	0.2325temperature offset calibration	0.9942default loss term (dB/km)	0.3790temperature slope calibration	1.0000multiplexer offset coefficient	1.0000multiplexer slope coefficient	1.0000fibre end	0.00T internal ref (°C)	29.48T ext. ref 1 (°C)	0.11T ext. ref 2 (°C)	24.22length (m)	temperature (°C)	Stokes	anti-Stokes-747.200	800.000	-0.073	0.210
-746.185	1.592	-0.272	0.198
-745.171	33.105	-0.193	0.169
-744.156	-91.372	0.175	-0.051
-743.142	-89.002	-0.185	0.055
-742.127	-200.000	-0.001	0.076
-741.112	-111.164	-0.056	0.012
-740.098	34.773	0.117	-0.104
-739.083	171.367	0.249	-0.360
-738.069	-57.543	0.338	0.150
-737.054	800.000	-0.089	-0.319
-736.039	230.281	-0.109	0.180
-735.025	-73.362	0.306	-0.113
-734.010	58.837	0.105	-0.104
-732.996	-14.269	-0.540	-0.351
-731.981	10.831	-0.168	-0.130
-730.966	79.196	-0.188	0.203
-729.952	-200.000	0.042	-0.233
-728.937	373.806	0.042	-0.085
-727.923	-200.000	0.022	-0.112
-726.908	176.092	-0.152	-0.223
-725.894	182.702	0.132	0.196
-724.879	-165.583	-0.425	0.019
-723.864	-161.708	0.348	-0.018
-722.850	166.061	0.275	0.393
-721.835	318.198	-0.092	-0.175
-720.821	391.787	-0.152	0.319
-719.806	-146.522	-0.240	-0.021
-718.791	51.075	-0.157	0.150
-717.777	106.015	-0.261	0.312
-716.762	743.155	0.073	0.197
-715.748	800.000	0.045	0.146
-714.733	57.210	-0.149	0.146
-713.718	-34.989	-0.552	0.303
-712.704	800.000	-0.046	-0.138
-711.689	-85.436	-0.138	0.043
-710.675	393.961	0.027	0.057
-709.660	37.249	-0.086	-0.077
-708.645	-110.071	0.057	-0.012
-707.631	-155.125	0.160	-0.011
-706.616	70.521	-0.313	-0.326
-705.602	-75.844	-0.081	0.029
-704.587	-47.813	-0.149	-0.073
-703.572	-94.956	-0.388	-0.106
-702.558	-200.000	-0.068	-0.313
-701.543	83.373	0.096	-0.105
-700.529	66.972	-0.132	0.136
-699.514	102.787	0.139	0.164
-698.499	1.573	-0.469	0.340
-697.485	-200.000	0.004	0.038
-696.470	-200.000	0.021	0.235
-695.456	1.188	0.162	-0.117
-694.441	240.934	-0.103	0.173
-693.426	-99.951	0.484	0.122
-692.412	551.554	-0.109	0.264
-691.397	-200.000	-0.014	0.117
-690.383	45.693	-0.214	-0.199
-689.368	162.460	0.264	0.373
-688.354	-35.682	0.429	0.234
-687.339	91.921	-0.228	0.258
-686.324	-200.000	-0.040	-0.423
-685.310	427.922	0.030	0.065
-684.295	12.378	0.204	-0.158
-683.281	59.563	-0.086	-0.086
-682.266	-127.445	-0.423	-0.062
-681.251	122.891	0.188	-0.236
-680.237	-58.979	-0.352	-0.153
-679.222	127.656	-0.164	-0.210
-678.208	-110.692	0.110	-0.023
-677.193	-146.546	-0.454	-0.040
-676.178	-200.000	0.006	0.101
-675.164	-200.000	-0.013	-0.246
-674.149	96.389	0.166	0.192
-673.135	394.737	-0.132	0.276
-672.120	-2.922	-0.146	-0.103
-671.105	747.724	-0.127	-0.346
-670.091	109.750	0.021	-0.026
-669.076	-200.000	0.008	0.159
-668.062	531.708	-0.025	-0.058
-667.047	-8.647	0.209	-0.141
-666.032	-200.000	0.008	-0.148
-665.018	134.662	0.013	0.017
-664.003	173.579	-0.256	-0.372
-662.989	300.137	-0.137	-0.255
-661.974	21.701	0.232	-0.190
-660.959	-200.000	-0.003	0.059
-659.945	-55.309	0.179	0.081
-658.930	-64.342	0.136	-0.056
-657.916	17.236	-0.117	-0.093
-656.901	-200.000	0.038	-0.451
-655.886	-32.737	-0.244	-0.136
-654.872	588.712	-0.042	0.103
-653.857	-9.326	0.089	-0.060
-652.843	45.219	0.043	-0.040
-651.828	304.180	0.071	-0.132
-650.814	12.450	-0.249	0.193
-649.799	-69.445	-0.146	-0.056
-648.784	-200.000	0.010	0.057
-647.770	-82.732	0.374	-0.122
-646.755	-3.612	-0.203	-0.142
-645.741	800.000	0.094	0.333
-644.726	354.553	0.135	0.271
-643.711	-59.237	-0.337	0.146
-642.697	124.549	0.070	0.088
-641.682	61.549	-0.119	-0.119
-640.668	-37.105	0.321	-0.173
-639.653	-170.604	-0.222	-0.008
-638.638	-151.506	-0.082	0.006
-637.624	27.350	-0.112	0.095
-636.609	250.581	0.025	0.043
-635.595	-107.117	-0.306	-0.068
-634.580	37.083	-0.196	-0.174
-633.565	27.566	-0.210	0.177
-632.551	-86.677	0.382	0.118
-631.536	166.896	0.116	0.166
-630.522	382.793	-0.064	-0.133
-629.507	168.055	0.079	-0.113
-628.492	132.999	0.159	-0.206
-627.478	-200.000	-0.043	-0.258
-626.463	-76.551	-0.452	-0.160
-625.449	405.501	-0.117	-0.248
-624.434	327.132	0.041	0.080
-623.419	322.109	-0.142	0.271
-622.405	1.707	0.275	-0.199
-621.390	132.056	-0.228	-0.294
-620.376	-200.000	-0.024	-0.230
-619.361	-25.966	-0.170	0.101
-618.346	800.000	-0.066	-0.290
-617.332	33.670	-0.167	-0.146
-616.317	-149.224	-0.194	0.016
-615.303	800.000	0.042	-0.129
-614.288	-97.004	-0.429	-0.113
-613.273	-59.471	-0.177	0.076
-612.259	719.859	-0.106	0.284
-611.244	800.000	-0.073	0.298
-610.230	201.979	0.084	-0.129
-609.215	221.157	0.120	0.193
-608.201	-105.962	0.541	0.122
-607.186	-200.000	0.011	-0.257
-606.171	-87.026	-0.248	-0.076
-605.157	173.055	0.088	0.128
-604.142	-79.129	0.240	0.082
-603.128	800.000	0.075	0.264
-602.113	-200.000	-0.024	0.463
-601.098	94.489	0.165	0.188
-600.084	638.221	0.047	0.121
-599.069	75.976	-0.124	0.132
-598.055	275.475	-0.084	-0.149
-597.040	-200.000	0.014	-0.091
-596.025	-39.694	-0.465	-0.244
-595.011	12.985	0.068	0.052
-593.996	68.175	-0.075	-0.077
-592.982	-200.000	0.089	0.454
-591.967	-159.590	-0.293	-0.016
-590.952	-113.179	-0.641	-0.127
-589.938	-88.034	-0.066	0.020
-588.923	-100.869	0.098	0.024
-587.909	75.587	-0.162	-0.172
-586.894	-25.197	-0.204	0.121
-585.879	-200.000	0.025	0.127
-584.865	-108.444	-0.383	-0.083
-583.850	180.071	0.239	0.351
-582.836	302.895	0.090	-0.168
-581.821	40.718	-0.220	-0.199
-580.806	-143.366	-0.253	0.024
-579.792	265.997	0.107	0.188
-578.777	59.683	-0.111	-0.109
-577.763	654.009	0.008	0.020
-576.748	-200.000	0.017	-0.236
-575.733	278.035	-0.191	0.341
-574.719	178.890	0.202	0.296
-573.704	-200.000	-0.020	0.289
-572.690	-38.967	0.237	-0.125
-571.675	-200.000	-0.028	0.283
-570.661	-200.000	0.043	-0.275
-569.646	800.000	0.038	0.149
-568.631	-165.413	-0.263	0.012
-567.617	-157.576	0.055	0.003
-566.602	800.000	-0.097	-0.311
-565.588	146.995	-0.124	0.168
-564.573	800.000	-0.047	-0.133
-563.558	800.000	0.113	-0.400
-562.544	-200.000	0.003	0.136
-561.529	63.328	-0.124	0.124
-560.515	-112.130	-0.249	-0.050
-559.500	540.278	-0.108	0.257
-558.485	-98.762	-0.443	-0.113
-557.471	-38.243	0.050	-0.027
-556.456	800.000	-0.105	-0.357
-555.442	-200.000	-0.011	-0.269
-554.427	60.324	-0.151	-0.150
-553.412	305.112	0.039	0.073
-552.398	-3.817	-0.043	0.030
-551.383	-200.000	0.025	-0.304
-550.369	180.700	-0.137	-0.201
-549.354	206.978	-0.081	-0.126
-548.339	343.030	0.072	0.142
-547.325	-200.000	-0.005	-0.080
-546.310	-200.000	0.023	-0.245
-545.296	409.891	-0.052	-0.110
-544.281	311.065	-0.150	0.281
-543.266	579.971	-0.024	-0.060
-542.252	598.295	-0.037	-0.091
-541.237	125.703	-0.207	-0.262
-540.223	800.000	-0.050	-0.143
-539.208	149.881	0.222	-0.301
-538.193	323.249	-0.085	-0.162
-537.179	-115.793	-0.276	0.052
-536.164	-145.985	0.250	-0.022
-535.150	-83.724	0.171	-0.055
-534.135	-31.139	0.268	0.151
-533.121	24.458	0.187	-0.155
-532.106	-86.721	-0.107	-0.033
-531.091	-85.412	0.148	-0.046
-530.077	-43.963	0.182	0.091
-529.062	-192.887	0.148	0.001
-528.048	-108.139	-0.222	0.048
-527.033	-200.000	-0.012	-0.068
-526.018	-116.167	0.380	-0.071
-525.004	25.568	-0.119	0.099
-523.989	-27.964	0.047	-0.027
-522.975	60.576	0.097	0.096
-521.960	800.000	0.046	0.138
-520.945	-200.000	0.069	0.347
-519.931	6.633	0.273	0.203
-518.916	-164.688	0.056	-0.003
-517.902	-200.000	0.028	0.233
-516.887	-66.622	-0.163	0.065
-515.872	-46.921	0.354	-0.173
-514.858	-200.000	0.047	-0.257
-513.843	-8.708	-0.238	-0.160
-512.829	-56.680	0.263	0.116
-511.814	-3.441	0.314	0.218
-510.799	151.087	-0.099	-0.135
-509.785	388.317	-0.082	0.169
-508.770	-200.000	0.025	0.187
-507.756	-83.057	0.079	-0.025
-506.741	94.111	-0.143	0.163
-505.726	-115.039	0.225	-0.043
-504.712	-56.217	-0.056	0.025
-503.697	-147.015	0.261	0.022
-502.683	800.000	0.048	-0.163
-501.668	295.535	-0.138	-0.252
-500.653	652.535	-0.033	0.084
-499.639	-200.000	0.089	-0.405
-498.624	494.173	-0.088	-0.202
-497.610	-14.111	-0.302	-0.194
-496.595	-51.400	0.154	0.072
-495.581	-34.895	-0.117	-0.064
-494.566	-175.302	0.335	0.009
-493.551	4.455	-0.273	-0.200
-492.537	-81.818	-0.123	0.040
-491.522	-2.333	-0.129	0.090
-490.508	61.263	0.080	0.079
-489.493	71.695	-0.070	-0.072
-488.478	-60.426	-0.293	-0.125
-487.464	134.030	0.124	-0.161
-486.449	-200.000	0.000	-0.387
-485.435	-126.489	-0.129	-0.019
-484.420	800.000	-0.045	0.187
-483.405	-125.994	-0.051	-0.008
-482.391	628.192	0.119	-0.299
-481.376	-156.653	-0.255	-0.016
-480.362	800.000	-0.066	-0.244
-479.347	-200.000	0.001	0.186
-478.332	-27.833	-0.065	0.038
-477.318	-22.267	0.159	0.096
-476.303	14.933	0.146	0.114
-475.289	-102.378	0.080	0.019
-474.274	800.000	0.052	-0.207
-473.259	-66.685	0.102	-0.041
-472.245	559.195	0.071	-0.171
-471.230	10.276	0.117	0.089
-470.216	-200.000	-0.003	0.340
-469.201	164.928	0.208	-0.294
-468.186	339.295	-0.061	-0.118
-467.172	-80.904	0.144	0.048
-466.157	800.000	0.086	-0.270
-465.143	6.990	-0.205	0.152
-464.128	323.141	-0.111	-0.211
-463.113	77.654	-0.340	0.362
-462.099	6.966	-0.246	-0.183
-461.084	226.947	0.212	-0.344
-460.070	-105.587	0.152	-0.034
-459.055	800.000	-0.043	-0.185
-458.040	50.092	-0.151	-0.143
-457.026	-61.073	-0.165	0.069
-456.011	253.914	0.165	0.281
-454.997	-91.560	0.386	-0.110
-453.982	-26.587	0.313	0.183
-452.968	800.000	0.119	0.465
-451.953	-96.474	-0.279	0.074
-450.938	-38.041	-0.131	-0.069
-449.924	89.246	0.201	-0.223
-448.909	293.860	0.059	-0.107
-447.895	21.888	-0.109	-0.089
-446.880	109.439	0.062	0.075
-445.865	-121.435	0.055	0.009
-444.851	800.000	0.070	-0.281
-443.836	171.385	-0.111	-0.158
-442.822	-93.205	-0.046	0.013
-441.807	650.847	0.125	0.320
-440.792	800.000	0.029	0.116
-439.778	800.000	0.101	0.418
-438.763	-74.526	-0.258	-0.093
-437.749	-59.218	0.079	-0.034
-436.734	-47.698	0.436	-0.211
-435.719	-191.590	-0.224	0.002
-434.705	705.950	-0.033	-0.086
-433.690	-144.082	-0.170	-0.016
-432.676	4.943	-0.197	-0.144
-431.661	540.039	-0.169	-0.402
-430.646	-200.000	-0.033	-0.201
-429.632	169.801	0.122	0.174
-428.617	-186.643	0.129	-0.002
-427.603	-35.279	0.035	-0.019
-426.588	-139.948	-0.186	-0.020
-425.573	387.610	0.130	0.267
-424.559	-71.332	0.016	-0.006
-423.544	-107.014	-0.230	-0.051
-422.530	134.007	-0.053	-0.068
-421.515	451.604	0.039	0.086
-420.500	-200.000	0.008	-0.392
-419.486	800.000	0.023	0.073
-418.471	-154.308	0.140	-0.009
-417.457	139.019	-0.117	-0.153
-416.442	-111.191	-0.137	-0.028
-415.428	75.474	0.038	0.040
-414.413	800.000	0.035	-0.148
-413.398	68.815	0.052	-0.053
-412.384	74.024	-0.221	0.231
-411.369	-200.000	-0.000	0.125
-410.355	800.000	-0.024	-0.080
-409.340	283.438	-0.033	0.059
-408.325	-65.388	0.225	0.090
-407.311	-54.958	-0.237	0.106
-406.296	-200.000	-0.004	0.153
-405.282	112.918	0.100	-0.121
-404.267	-41.948	-0.183	0.094
-403.252	-200.000	-0.017	0.159
-402.238	738.419	0.075	-0.202
-401.223	-40.621	-0.393	0.203
-400.209	65.728	-0.267	-0.269
-399.194	234.010	-0.106	0.174
-398.179	190.303	0.110	0.164
-397.165	800.000	-0.081	0.230
-396.150	-200.000	0.018	0.090
-395.136	800.000	-0.007	-0.022
-394.121	22.784	0.087	0.071
-393.106	105.843	-0.167	0.197
-392.092	-36.240	0.198	0.106
-391.077	-200.000	-0.099	0.481
-390.063	371.163	-0.041	0.083
-389.048	3.100	0.116	-0.084
-388.033	12.007	0.195	0.149
-387.019	231.019	-0.251	0.409
-386.004	-200.000	0.025	0.326
-384.990	406.352	-0.020	-0.042
-383.975	-43.922	0.271	0.136
-382.960	-95.313	-0.117	0.031
-381.946	-14.880	-0.112	0.072
-380.931	-200.000	0.008	0.283
-379.917	-29.456	0.445	0.253
-378.902	36.383	-0.114	0.100
-377.888	185.345	-0.107	0.158
-376.873	-83.861	0.128	0.041
-375.858	660.344	0.081	0.208
-374.844	-44.390	-0.154	0.077
-373.829	6.475	-0.100	-0.074
-372.815	778.692	0.007	0.018
-371.800	35.139	-0.211	0.184
-370.785	-23.812	0.247	0.147
-369.771	270.229	-0.266	0.465
-368.756	-114.470	-0.172	0.033
-367.742	-118.442	0.097	-0.017
-366.727	191.816	-0.192	0.287
-365.712	-200.000	0.002	-0.090
-364.698	800.000	0.084	-0.245
-363.683	-14.953	-0.165	0.105
-362.669	506.588	-0.086	0.199
-361.654	104.658	0.125	-0.146
-360.639	-37.812	0.283	0.149
-359.625	61.383	-0.286	0.282
-358.610	800.000	-0.105	-0.302
-357.596	190.153	0.206	0.307
-356.581	302.720	-0.116	-0.214
-355.566	-52.907	-0.341	-0.156
-354.552	-121.158	-0.156	0.026
-353.537	-58.714	-0.102	0.044
-352.523	-102.729	0.134	0.032
-351.508	-140.596	0.052	-0.005
-350.493	142.356	0.305	-0.403
-349.479	-60.281	-0.128	0.054
-348.464	800.000	-0.043	0.145
-347.450	-74.454	0.237	-0.085
-346.435	-200.000	0.019	0.102
-345.420	30.818	0.267	0.227
-344.406	-200.000	0.003	0.212
-343.391	-138.611	0.130	-0.014
-342.377	414.829	-0.049	-0.105
-341.362	417.600	0.096	0.204
-340.348	149.880	0.170	0.229
-339.333	-200.000	0.067	0.421
-338.318	-200.000	-0.031	-0.221
-337.304	252.777	0.109	0.184
-336.289	28.359	0.132	-0.111
-335.275	-186.977	0.181	0.002
-334.260	-140.426	0.206	0.021
-333.245	-63.679	-0.270	-0.110
-332.231	384.898	-0.112	-0.230
-331.216	-163.480	-0.273	0.013
-330.202	371.814	-0.175	-0.352
-329.187	-200.000	-0.025	-0.142
-328.172	-36.412	-0.540	-0.289
-327.158	59.257	0.143	-0.140
-326.143	301.411	0.044	0.082
-325.129	9.686	-0.119	-0.089
-324.114	-88.751	-0.206	0.061
-323.099	800.000	-0.073	0.209
-322.085	13.896	0.233	-0.180
-321.070	-82.365	-0.184	-0.060
-320.056	800.000	0.068	0.262
-319.041	-80.801	-0.214	0.070
-318.026	442.190	-0.034	-0.074
-317.012	-8.166	-0.225	-0.150
-315.997	-8.976	0.136	0.090
-314.983	-187.101	0.319	-0.004
-313.968	-52.018	0.281	0.130
-312.953	38.404	0.113	0.100
-311.939	29.112	0.112	-0.094
-310.924	-49.130	-0.361	0.171
-309.910	30.911	0.297	0.252
-308.895	-7.226	0.059	-0.040
-307.880	800.000	0.087	0.338
-306.866	-200.000	0.015	-0.187
-305.851	-126.702	0.485	0.071
-304.837	-200.000	-0.020	-0.152
-303.822	-107.369	-0.105	-0.023
-302.807	-97.598	0.329	-0.085
-301.793	-86.101	-0.027	0.008
-300.778	40.866	-0.070	0.063
-299.764	800.000	0.056	0.203
-298.749	-25.058	0.337	-0.198
-297.735	-80.522	0.426	0.141
-296.720	694.559	-0.059	-0.154
-295.705	434.615	-0.089	-0.193
-294.691	-90.777	0.189	-0.054
-293.676	9.349	-0.138	-0.104
-292.662	47.714	-0.088	0.082
-291.647	-200.000	-0.028	-0.351
-290.632	-200.000	0.024	-0.218
-289.618	53.895	-0.117	-0.111
-288.603	40.751	-0.198	0.177
-287.589	-200.000	-0.045	0.253
-286.574	-141.510	0.319	-0.032
-285.559	-200.000	0.027	-0.172
-284.545	-200.000	-0.010	-0.234
-283.530	800.000	0.123	-0.449
-282.516	-82.482	-0.043	0.014
-281.501	76.512	-0.167	0.175
-280.486	-200.000	0.038	-0.436
-279.472	-28.335	0.097	-0.055
-278.457	114.199	-0.329	-0.397
-277.443	-41.091	-0.277	-0.142
-276.428	-172.770	-0.200	0.006
-275.413	510.550	-0.087	-0.201
-274.399	-26.899	-0.115	-0.067
-273.384	-200.000	0.007	0.203
-272.370	-122.718	0.462	-0.074
-271.355	800.000	0.123	-0.339
-270.340	-138.766	0.124	-0.013
-269.326	-47.750	0.139	-0.067
-268.311	-200.000	-0.008	-0.081
-267.297	-37.370	-0.262	-0.139
-266.282	-122.789	0.285	-0.046
-265.267	-78.745	-0.302	-0.102
-264.253	-200.000	-0.022	0.231
-263.238	66.111	0.091	0.092
-262.224	53.660	0.155	-0.147
-261.209	86.888	-0.164	-0.180
-260.195	-46.907	0.103	0.050
-259.180	-160.700	0.234	-0.012
-258.165	-24.832	0.213	-0.125
-257.151	800.000	-0.128	-0.353
-256.136	9.595	0.158	0.119
-255.122	268.593	-0.237	-0.411
-254.107	635.535	-0.031	0.078
-253.092	11.324	0.174	-0.132
-252.078	-200.000	-0.018	0.088
-251.063	293.335	0.090	-0.163
-250.049	800.000	0.052	0.218
-249.034	-131.884	-0.220	-0.028
-248.019	-83.723	-0.205	-0.065
-247.005	131.529	0.095	0.121
-245.990	-36.791	-0.171	-0.091
-244.976	-36.470	0.129	-0.069
-243.961	152.877	-0.060	-0.081
-242.946	-124.079	-0.102	-0.016
-241.932	-200.000	0.010	-0.103
-240.917	-95.480	-0.179	0.048
-239.903	31.323	0.296	-0.251
-238.888	-200.000	-0.017	-0.118
-237.873	196.693	-0.084	-0.126
-236.859	320.433	0.109	0.205
-235.844	-144.521	0.288	0.026
-234.830	78.164	0.062	0.065
-233.815	181.412	0.112	0.163
-232.800	-61.804	0.385	-0.159
-231.786	-200.000	0.001	0.264
-230.771	-56.649	0.118	0.052
-229.757	59.313	0.064	0.062
-228.742	-200.000	0.108	0.560
-227.727	-200.000	-0.018	0.215
-226.713	42.374	-0.128	0.115
-225.698	-200.000	-0.068	0.344
-224.684	-200.000	0.071	0.358
-223.669	184.899	0.184	0.269
-222.655	293.933	0.055	0.099
-221.640	753.442	-0.055	-0.148
-220.625	18.076	0.120	-0.094
-219.611	-200.000	0.004	-0.318
-218.596	128.099	0.239	-0.300
-217.582	179.485	-0.100	0.145
-216.567	95.312	0.197	0.222
-215.552	-68.214	-0.400	0.154
-214.538	-79.063	0.138	0.046
-213.523	-120.899	-0.167	0.028
-212.509	800.000	-0.059	0.237
-211.494	90.510	0.131	0.145
-210.479	777.285	0.035	0.096
-209.465	-200.000	0.009	0.080
-208.450	-200.000	0.007	-0.088
-207.436	183.545	0.076	0.110
-206.421	-39.419	0.082	-0.042
-205.406	251.670	0.227	-0.382
-204.392	4.103	-0.251	-0.182
-203.377	-73.307	0.329	0.119
-202.363	-85.744	0.222	-0.068
-201.348	-55.770	0.248	-0.109
-200.333	-177.937	-0.238	-0.006
-199.319	-87.880	-0.078	0.023
-198.304	455.722	0.127	0.277
-197.290	-103.609	-0.174	-0.040
-196.275	800.000	0.057	-0.171
-195.260	-111.759	0.211	0.042
-194.246	-200.000	0.003	0.134
-193.231	-200.000	-0.184	0.000
-192.217	-72.159	0.148	0.054
-191.202	-110.965	0.247	0.050
-190.187	11.890	-0.363	0.276
-189.173	-200.000	0.025	0.150
-188.158	13.385	0.056	0.043
-187.144	-12.056	-0.103	0.066
-186.129	-15.959	0.055	0.035
-185.114	723.121	0.080	-0.209
-184.100	-200.000	-0.011	0.465
-183.085	51.532	0.254	-0.238
-182.071	127.297	0.067	-0.085
-181.056	-18.182	0.064	0.040
-180.042	800.000	0.063	0.206
-179.027	-59.651	0.189	0.080
-178.012	-52.749	0.136	-0.062
-176.998	70.062	-0.130	0.133
-175.983	74.076	0.125	0.129
-174.969	-130.799	-0.049	0.006
-173.954	-200.000	-0.014	0.067
-172.939	800.000	-0.083	-0.298
-171.925	-78.765	0.043	-0.014
-170.910	-26.292	0.264	0.153
-169.896	366.084	-0.159	-0.317
-168.881	800.000	-0.083	-0.268
-167.866	232.954	-0.011	0.019
-166.852	117.993	-0.066	0.081
-165.837	311.070	0.137	-0.254
-164.823	-200.000	0.035	0.298
-163.808	497.785	-0.036	-0.083
-162.793	445.135	0.114	0.248
-161.779	43.599	0.118	0.107
-160.764	800.000	0.003	0.011
-159.750	40.315	-0.207	-0.184
-158.735	-128.846	-0.274	0.038
-157.720	-28.383	0.140	0.079
-156.706	68.812	-0.047	-0.048
-155.691	261.210	-0.199	-0.340
-154.677	-55.501	0.259	-0.114
-153.662	37.317	0.063	-0.055
-152.647	-81.862	0.179	-0.058
-151.633	-64.925	0.209	0.083
-150.618	-200.000	0.005	0.310
-149.604	-200.000	-0.043	-0.353
-148.589	-200.000	0.019	0.214
-147.574	-200.000	-0.020	0.093
-146.560	-23.635	-0.081	0.048
-145.545	-200.000	0.031	0.183
-144.531	-200.000	0.012	0.079
-143.516	800.000	0.033	0.113
-142.502	127.498	-0.229	0.287
-141.487	16.271	0.225	-0.175
-140.472	-195.982	0.229	0.002
-139.458	800.000	0.021	0.073
-138.443	-113.705	0.408	-0.078
-137.429	-17.122	0.118	0.074
-136.414	-27.312	-0.473	-0.271
-135.399	-73.307	0.499	0.180
-134.385	-200.000	0.062	0.357
-133.370	268.244	-0.172	0.297
-132.356	748.519	-0.039	-0.104
-131.341	146.643	-0.211	0.279
-130.326	-200.000	-0.017	0.183
-129.312	-200.000	0.020	-0.099
-128.297	179.010	0.223	-0.322
-127.283	-130.552	0.175	0.023
-126.268	-181.652	-0.259	-0.005
-125.253	-47.626	-0.269	-0.128
-124.239	26.543	-0.185	0.153
-123.224	-153.302	0.244	0.017
-122.210	-200.000	0.047	0.304
-121.195	800.000	-0.095	-0.331
-120.180	800.000	0.063	-0.178
