DTS Sentinel unit serial number:	SN413079Multiplexer serial number:	ORYXHardware model number:	OX4-SRSoftware version number:	ORYX F/W v4.00 Oryx Data Collector v3.7.2.0data status	okinstallation	princeton_trtdifferential loss correction	single-endedforward channel	channel 3reverse channel	N/Adate	2019/09/18time	08:24:35forward acquisition time	60.00reverse acquisition time	0.00gamma	496.2192k internal	0.2341k external	0.2341temperature offset calibration	0.9946default loss term (dB/km)	0.3790temperature slope calibration	1.0000multiplexer offset coefficient	1.0000multiplexer slope coefficient	1.0000fibre end	0.00T internal ref (°C)	24.16T ext. ref 1 (°C)	0.21T ext. ref 2 (°C)	19.85length (m)	temperature (°C)	Stokes	anti-Stokes-747.200	-60.911	-0.147	0.062
-746.185	510.995	0.132	0.309
-745.171	81.188	-0.168	0.181
-744.156	-200.000	-0.006	-0.058
-743.142	-53.246	-0.097	-0.045
-742.127	-200.000	-0.014	0.117
-741.112	195.564	0.022	-0.033
-740.098	-191.470	-0.398	0.004
-739.083	520.676	0.125	-0.294
-738.069	163.850	-0.300	0.422
-737.054	207.359	-0.165	-0.257
-736.039	1.894	-0.205	0.148
-735.025	-143.978	0.210	0.020
-734.010	-92.458	0.227	0.064
-732.996	-200.000	-0.004	0.219
-731.981	328.432	-0.294	-0.565
-730.966	129.408	0.199	-0.255
-729.952	214.547	0.273	0.433
-728.937	316.399	0.154	0.291
-727.923	-200.000	0.000	0.182
-726.908	-63.646	0.248	-0.102
-725.894	-105.646	0.239	0.054
-724.879	-132.452	-0.377	0.049
-723.864	259.103	0.162	0.281
-722.850	380.353	-0.070	0.143
-721.835	-200.000	-0.000	-0.163
-720.821	84.981	-0.078	0.085
-719.806	514.057	-0.090	0.210
-718.791	158.773	-0.126	-0.175
-717.777	-72.552	-0.125	-0.046
-716.762	-4.029	0.154	-0.107
-715.748	38.002	-0.287	-0.255
-714.733	129.108	0.130	-0.166
-713.718	-141.685	-0.083	0.008
-712.704	-168.026	-0.142	0.006
-711.689	-38.787	-0.232	-0.122
-710.675	-158.390	0.252	-0.015
-709.660	-158.102	0.273	-0.016
-708.645	-7.934	0.134	0.090
-707.631	63.423	0.180	-0.181
-706.616	-200.000	-0.018	0.302
-705.602	6.125	-0.157	-0.116
-704.587	-57.647	-0.169	-0.074
-703.572	23.382	-0.013	0.011
-702.558	94.317	0.166	-0.188
-701.543	-53.836	0.257	-0.117
-700.529	283.276	0.056	-0.100
-699.514	-121.163	-0.337	-0.056
-698.499	-74.067	0.144	-0.052
-697.485	-200.000	-0.002	0.091
-696.470	224.526	0.009	-0.015
-695.456	-115.886	0.253	-0.047
-694.441	-200.000	-0.007	-0.041
-693.426	8.066	0.337	0.253
-692.412	-60.588	-0.377	0.160
-691.397	-73.297	0.204	-0.075
-690.383	457.134	-0.120	-0.267
-689.368	301.365	0.060	0.110
-688.354	-44.813	0.378	-0.188
-687.339	-185.186	0.258	0.004
-686.324	-121.924	-0.189	0.031
-685.310	32.918	-0.158	-0.137
-684.295	-89.058	-0.314	-0.093
-683.281	-35.558	-0.249	-0.135
-682.266	-54.544	0.121	0.055
-681.251	-200.000	-0.007	0.199
-680.237	-200.000	-0.237	0.000
-679.222	800.000	0.089	-0.296
-678.208	39.132	0.295	0.264
-677.193	34.465	-0.050	-0.044
-676.178	-200.000	0.013	-0.349
-675.164	-97.090	-0.321	-0.084
-674.149	493.431	-0.143	0.327
-673.135	-83.025	-0.039	-0.013
-672.120	-73.698	-0.264	0.096
-671.105	-67.091	0.142	-0.056
-670.091	55.974	-0.104	-0.101
-669.076	-170.679	0.150	-0.005
-668.062	-200.000	0.020	-0.480
-667.047	194.593	-0.155	-0.235
-666.032	-112.576	0.084	0.017
-665.018	-200.000	0.051	0.270
-664.003	-138.577	0.314	-0.034
-662.989	168.846	-0.069	-0.099
-661.974	357.947	0.227	-0.452
-660.959	-200.000	0.023	0.185
-659.945	-5.189	-0.469	0.322
-658.930	-54.359	-0.273	0.124
-657.916	-75.373	-0.220	-0.078
-656.901	80.134	0.123	-0.133
-655.886	62.049	-0.101	0.100
-654.872	160.628	-0.089	-0.125
-653.857	800.000	0.100	-0.322
-652.843	267.896	-0.184	-0.322
-651.828	313.041	0.160	0.299
-650.814	-200.000	0.004	0.205
-649.799	-122.210	0.452	-0.074
-648.784	0.453	0.185	0.132
-647.770	78.768	-0.075	-0.081
-646.755	-200.000	0.031	-0.174
-645.741	187.657	-0.099	-0.147
-644.726	-163.839	0.149	-0.007
-643.711	551.355	0.033	0.079
-642.697	-99.198	-0.126	-0.032
-641.682	180.926	-0.093	-0.136
-640.668	-200.000	0.033	0.165
-639.653	-87.411	0.232	-0.070
-638.638	-156.371	-0.288	0.018
-637.624	800.000	0.122	0.344
-636.609	405.020	-0.092	-0.194
-635.595	-22.449	0.412	-0.249
-634.580	70.501	-0.029	-0.030
-633.565	-200.000	-0.011	0.312
-632.551	117.478	-0.120	0.148
-631.536	-66.104	-0.214	-0.085
-630.522	782.938	-0.092	0.253
-629.507	101.453	0.026	0.030
-628.492	-123.931	-0.106	0.017
-627.478	182.863	0.092	-0.136
-626.463	-99.682	0.186	0.047
-625.449	-57.064	0.144	-0.063
-624.434	26.878	0.290	0.243
-623.419	800.000	0.037	0.116
-622.405	237.921	-0.218	-0.360
-621.390	800.000	0.040	-0.142
-620.376	-144.045	-0.094	0.009
-619.361	-132.501	0.076	0.010
-618.346	800.000	-0.010	-0.035
-617.332	-126.616	-0.042	0.006
-616.317	31.432	-0.170	0.145
-615.303	-200.000	-0.018	-0.290
-614.288	24.018	-0.137	-0.113
-613.273	800.000	0.095	0.317
-612.259	-138.180	0.144	-0.016
-611.244	51.895	0.062	-0.059
-610.230	131.780	-0.134	0.172
-609.215	0.649	0.130	-0.093
-608.201	800.000	-0.060	0.179
-607.186	-200.000	0.001	0.158
-606.171	-24.732	-0.099	-0.058
-605.157	-152.199	0.318	-0.023
-604.142	-170.054	-0.406	0.014
-603.128	65.031	-0.164	-0.165
-602.113	-200.000	-0.000	-0.011
-601.098	3.876	-0.098	-0.071
-600.084	282.080	0.223	0.398
-599.069	-173.033	-0.221	-0.007
-598.055	141.357	0.092	0.121
-597.040	800.000	0.119	0.389
-596.025	-17.127	-0.272	0.171
-595.011	800.000	-0.019	-0.077
-593.996	-20.078	0.252	0.155
-592.982	-156.099	0.346	-0.022
-591.967	458.356	0.091	-0.201
-590.952	-131.955	0.262	-0.034
-589.938	-101.051	-0.391	-0.096
-588.923	-45.594	0.134	-0.066
-587.909	5.791	-0.495	-0.365
-586.894	214.052	0.144	0.227
-585.879	95.756	-0.144	0.164
-584.865	-79.929	-0.257	0.086
-583.850	682.369	-0.121	0.314
-582.836	-200.000	-0.012	-0.090
-581.821	74.018	-0.186	0.194
-580.806	800.000	-0.107	-0.323
-579.792	-72.619	-0.091	0.033
-578.777	-26.270	0.107	-0.062
-577.763	36.352	-0.212	-0.186
-576.748	800.000	-0.102	-0.400
-575.733	-5.732	-0.165	0.112
-574.719	-200.000	-0.072	-0.446
-573.704	-54.098	0.213	-0.096
-572.690	-97.327	-0.279	-0.072
-571.675	90.433	-0.229	-0.255
-570.661	31.642	0.078	0.067
-569.646	164.426	0.152	0.213
-568.631	29.568	-0.097	0.082
-567.617	-200.000	0.012	-0.116
-566.602	66.917	-0.094	-0.095
-565.588	-200.000	-0.034	-0.179
-564.573	-22.948	0.211	0.127
-563.558	-200.000	0.018	0.273
-562.544	-47.763	0.228	0.110
-561.529	-142.115	-0.306	-0.030
-560.515	-200.000	-0.017	0.206
-559.500	-51.886	0.251	-0.116
-558.485	-116.561	-0.243	0.045
-557.471	58.657	0.170	-0.166
-556.456	186.043	0.117	-0.173
-555.442	-182.597	-0.138	-0.003
-554.427	15.963	-0.163	-0.127
-553.412	0.177	0.371	0.263
-552.398	800.000	-0.041	-0.171
-551.383	602.725	0.039	0.096
-550.369	334.827	0.114	-0.219
-549.354	-3.737	0.216	0.149
-548.339	-183.673	0.181	-0.003
-547.325	-200.000	-0.021	-0.131
-546.310	-177.450	0.382	-0.009
-545.296	-21.422	-0.349	-0.212
-544.281	73.380	-0.126	-0.131
-543.266	-88.570	-0.134	0.040
-542.252	-121.082	-0.258	0.043
-541.237	800.000	-0.146	0.521
-540.223	-92.931	-0.256	-0.071
-539.208	-135.108	0.155	-0.019
-538.193	-89.645	0.019	-0.005
-537.179	144.802	-0.045	0.060
-536.164	-113.269	0.346	0.068
-535.150	800.000	0.025	-0.101
-534.135	-136.591	-0.302	-0.035
-533.121	-19.626	-0.150	-0.092
-532.106	-51.429	0.290	-0.135
-531.091	486.192	-0.253	-0.574
-530.077	800.000	-0.073	-0.233
-529.062	211.273	-0.113	0.177
-528.048	800.000	0.068	-0.195
-527.033	203.063	0.149	-0.229
-526.018	-200.000	-0.012	-0.055
-525.004	237.993	0.062	0.102
-523.989	27.782	-0.128	0.107
-522.975	800.000	0.062	0.245
-521.960	800.000	0.052	-0.200
-520.945	90.144	-0.028	0.032
-519.931	289.449	-0.188	-0.338
-518.916	-86.931	0.097	0.029
-517.902	-147.437	0.323	-0.027
-516.887	112.550	-0.077	-0.093
-515.872	97.224	0.312	-0.355
-514.858	145.424	-0.065	-0.086
-513.843	-56.663	-0.183	0.081
-512.829	1.314	0.435	0.310
-511.814	-200.000	-0.032	0.145
-510.799	-200.000	-0.035	-0.351
-509.785	-34.436	0.190	0.104
-508.770	-117.911	0.162	0.029
-507.756	800.000	0.013	-0.055
-506.741	-200.000	-0.007	-0.259
-505.726	-124.331	0.242	-0.038
-504.712	-62.031	0.278	0.115
-503.697	78.684	-0.073	0.077
-502.683	-176.112	-0.318	-0.008
-501.668	112.120	0.167	-0.200
-500.653	714.073	0.179	0.470
-499.639	-76.517	-0.341	-0.119
-498.624	-91.963	0.288	0.081
-497.610	53.330	0.139	0.132
-496.595	21.475	0.114	0.092
-495.581	275.145	0.270	-0.474
-494.566	43.473	-0.166	-0.151
-493.551	-179.413	-0.379	-0.008
-492.537	14.896	-0.314	0.244
-491.522	33.094	-0.257	0.221
-490.508	-200.000	0.025	0.261
-489.493	-26.808	0.255	0.148
-488.478	-30.537	-0.172	-0.096
-487.464	185.058	-0.289	-0.426
-486.449	-141.058	0.193	-0.020
-485.435	43.460	-0.060	0.055
-484.420	-166.157	0.148	-0.006
-483.405	260.118	-0.064	0.109
-482.391	157.778	-0.161	0.221
-481.376	102.369	0.149	0.173
-480.362	197.937	0.207	-0.314
-479.347	18.335	-0.289	0.229
-478.332	201.367	-0.121	-0.185
-477.318	255.358	0.259	0.439
-476.303	435.266	0.065	0.140
-475.289	-67.201	-0.084	0.033
-474.274	800.000	-0.063	0.247
-473.259	-200.000	-0.002	-0.040
-472.245	-200.000	-0.001	0.042
-471.230	-115.765	-0.160	-0.030
-470.216	86.651	0.036	-0.039
-469.201	-4.393	-0.057	0.039
-468.186	-200.000	0.057	-0.355
-467.172	184.649	0.127	0.186
-466.157	800.000	-0.056	-0.208
-465.143	800.000	0.092	0.347
-464.128	-74.121	-0.054	-0.019
-463.113	-90.047	-0.180	-0.052
-462.099	-121.470	0.160	0.026
-461.084	290.921	-0.127	0.230
-460.070	39.378	0.341	0.303
-459.055	152.852	-0.075	-0.102
-458.040	-200.000	0.000	0.288
-457.026	4.895	-0.195	0.142
-456.011	-84.313	0.209	0.066
-454.997	-140.166	0.199	-0.021
-453.982	-92.719	0.101	0.028
-452.968	-200.000	-0.076	-0.489
-451.953	-200.000	0.043	-0.238
-450.938	510.632	0.105	0.243
-449.924	-190.000	-0.161	0.002
-448.909	51.924	0.155	-0.146
-447.895	-35.695	-0.243	0.130
-446.880	138.831	0.128	-0.167
-445.865	-107.667	-0.085	-0.018
-444.851	697.116	-0.067	0.175
-443.836	-115.479	-0.100	0.019
-442.822	-41.653	0.063	-0.032
-441.807	-118.955	0.403	0.070
-440.792	-113.827	-0.197	-0.038
-439.778	-40.603	-0.229	0.118
-438.763	-78.483	-0.152	0.051
-437.749	408.352	-0.122	-0.257
-436.734	-200.000	-0.050	0.000
-435.719	-90.038	-0.026	0.008
-434.705	-128.069	0.109	-0.015
-433.690	23.106	-0.319	0.259
-432.676	-200.000	-0.019	-0.168
-431.661	-85.892	-0.346	0.106
-430.646	14.815	0.023	-0.018
-429.632	-200.000	-0.023	0.186
-428.617	-158.278	0.209	0.012
-427.603	60.765	-0.126	0.123
-426.588	-7.019	0.037	0.025
-425.573	46.363	0.130	-0.120
-424.559	110.902	-0.241	0.288
-423.544	-106.527	0.494	-0.109
-422.530	-123.431	-0.163	0.026
-421.515	800.000	0.048	0.154
-420.500	-96.275	0.486	0.127
-419.486	173.324	0.061	0.088
-418.471	-117.378	0.302	-0.054
-417.457	9.207	0.199	0.148
-416.442	201.266	-0.112	-0.170
-415.428	101.718	0.284	0.327
-414.413	617.548	-0.076	0.189
-413.398	-111.131	0.176	0.036
-412.384	-99.876	0.244	0.060
-411.369	16.946	0.123	-0.096
-410.355	-200.000	0.009	-0.096
-409.340	-200.000	-0.005	-0.377
-408.325	-200.000	-0.048	0.232
-407.311	-200.000	0.037	0.357
-406.296	-200.000	0.047	0.354
-405.282	-200.000	0.013	0.074
-404.267	186.967	0.145	0.214
-403.252	25.412	-0.123	-0.102
-402.238	-200.000	-0.054	0.260
-401.223	-42.734	-0.313	0.157
-400.209	-79.864	-0.135	0.045
-399.194	61.708	0.155	-0.152
-398.179	-101.719	-0.417	0.100
-397.165	-200.000	-0.000	0.340
-396.150	-172.844	0.269	-0.008
-395.136	-200.000	0.018	-0.128
-394.121	130.355	0.094	-0.118
-393.106	74.572	0.153	-0.159
-392.092	-115.402	-0.353	-0.066
-391.077	-97.373	0.450	-0.116
-390.063	-129.608	-0.239	-0.033
-389.048	800.000	0.060	0.185
-388.033	-165.365	0.179	0.008
-387.019	43.374	-0.194	-0.175
-386.004	-200.000	0.017	0.118
-384.990	395.588	0.181	-0.374
-383.975	-25.638	0.133	0.077
-382.960	-71.543	0.181	0.067
-381.946	800.000	-0.034	-0.098
-380.931	-90.866	-0.110	-0.031
-379.917	800.000	0.017	-0.059
-378.902	414.057	0.158	-0.333
-377.888	19.972	0.212	-0.169
-376.873	384.295	0.058	0.118
-375.858	800.000	0.043	-0.130
-374.844	-39.837	-0.140	0.072
-373.829	800.000	-0.060	-0.199
-372.815	18.305	-0.212	0.167
-371.800	800.000	-0.058	-0.207
-370.785	9.904	0.201	0.150
-369.771	-200.000	-0.023	-0.137
-368.756	175.383	0.055	0.078
-367.742	-200.000	0.010	0.188
-366.727	154.862	0.091	0.124
-365.712	-51.716	0.374	0.172
-364.698	-106.343	-0.242	0.053
-363.683	-162.672	0.194	0.009
-362.669	-192.355	-0.239	-0.002
-361.654	-40.125	0.096	0.050
-360.639	30.340	0.088	-0.075
-359.625	-38.281	0.167	0.087
-358.610	-151.904	0.218	-0.016
-357.596	-54.486	0.306	-0.137
-356.581	-79.718	0.421	-0.140
-355.566	-81.584	-0.149	-0.048
-354.552	-200.000	-0.028	-0.135
-353.537	-200.000	-0.030	0.353
-352.523	-15.017	0.070	-0.045
-351.508	81.051	-0.103	-0.110
-350.493	46.539	-0.181	-0.166
-349.479	800.000	0.051	-0.215
-348.464	800.000	-0.077	-0.274
-347.450	-200.000	0.004	-0.217
-346.435	-31.658	-0.027	0.015
-345.420	-128.432	-0.216	-0.030
-344.406	-200.000	0.018	-0.106
-343.391	761.605	0.112	0.300
-342.377	273.766	0.151	0.264
-341.362	769.376	-0.026	0.070
-340.348	-200.000	-0.034	0.200
-339.333	228.269	-0.056	-0.089
-338.318	-149.300	-0.117	-0.009
-337.304	-104.130	-0.311	-0.071
-336.289	-142.799	-0.199	0.019
-335.275	48.107	-0.167	-0.154
-334.260	35.487	-0.197	-0.170
-333.245	800.000	-0.102	-0.281
-332.231	241.877	0.181	-0.298
-331.216	74.004	0.042	-0.043
-330.202	131.919	-0.097	0.123
-329.187	-150.045	-0.117	-0.009
-328.172	461.970	0.065	-0.143
-327.158	137.597	0.109	0.141
-326.143	326.128	0.084	-0.158
-325.129	96.472	-0.063	0.071
-324.114	-200.000	-0.065	-0.374
-323.099	800.000	0.043	-0.153
-322.085	170.542	0.126	-0.178
-321.070	-200.000	-0.001	0.005
-320.056	800.000	0.003	0.008
-319.041	800.000	-0.140	0.391
-318.026	176.837	0.057	-0.081
-317.012	-200.000	-0.010	0.283
-315.997	800.000	-0.109	-0.384
-314.983	-0.226	-0.095	-0.067
-313.968	-40.396	-0.074	-0.038
-312.953	-200.000	-0.041	0.192
-311.939	-200.000	0.043	0.323
-310.924	-157.118	-0.341	-0.020
-309.910	-200.000	0.004	0.023
-308.895	94.749	-0.342	0.384
-307.880	498.778	0.071	-0.160
-306.866	-84.126	0.182	0.057
-305.851	-130.416	-0.145	-0.019
-304.837	-32.942	-0.000	-0.000
-303.822	-170.934	-0.194	-0.007
-302.807	-56.491	-0.351	-0.153
-301.793	115.137	-0.161	0.193
-300.778	14.311	-0.116	-0.089
-299.764	-48.320	0.160	-0.076
-298.749	800.000	0.064	0.223
-297.735	740.328	0.046	0.122
-296.720	192.182	-0.133	-0.198
-295.705	-130.104	-0.098	-0.013
-294.691	-25.424	-0.150	0.087
-293.676	-200.000	0.023	-0.099
-292.662	-186.393	0.385	-0.005
-291.647	-200.000	0.022	-0.266
-290.632	41.801	-0.110	0.098
-289.618	30.531	0.066	-0.056
-288.603	-142.241	0.120	-0.012
-287.589	545.005	0.042	0.098
-286.574	-83.650	-0.218	-0.069
-285.559	91.228	0.265	-0.293
-284.545	92.064	-0.061	-0.068
-283.530	-200.000	0.055	0.273
-282.516	-35.308	0.198	-0.106
-281.501	-110.821	-0.088	0.018
-280.486	800.000	0.102	0.342
-279.472	299.485	-0.081	0.146
-278.457	372.752	-0.135	0.271
-277.443	-200.000	0.014	0.072
-276.428	290.646	-0.014	0.025
-275.413	-109.118	0.302	0.063
-274.399	-166.092	-0.242	0.010
-273.384	-117.324	-0.366	-0.065
-272.370	-151.272	0.225	0.017
-271.355	-117.501	0.254	-0.045
-270.340	11.012	0.397	0.299
-269.326	19.433	-0.213	0.168
-268.311	800.000	-0.071	-0.201
-267.297	-200.000	0.031	-0.162
-266.282	-24.631	0.340	0.199
-265.267	489.605	0.028	-0.064
-264.253	-46.396	-0.315	-0.152
-263.238	-63.853	-0.244	0.098
-262.224	-99.897	-0.055	-0.014
-261.209	392.435	-0.068	0.139
-260.195	55.897	-0.263	0.251
-259.180	-165.380	0.330	-0.014
-258.165	-200.000	-0.043	-0.482
-257.151	-35.945	-0.103	-0.055
-256.136	-200.000	-0.007	-0.143
-255.122	63.423	-0.334	-0.330
-254.107	-155.773	0.198	-0.012
-253.092	-98.276	0.671	-0.169
-252.078	800.000	-0.055	0.197
-251.063	800.000	-0.010	0.039
-250.049	-100.106	-0.250	0.061
-249.034	-200.000	-0.023	0.197
-248.019	70.725	-0.138	0.141
-247.005	170.359	-0.093	0.132
-245.990	-115.622	-0.186	-0.034
-244.976	800.000	-0.038	-0.143
-243.961	800.000	0.031	-0.114
-242.946	-13.462	-0.138	0.088
-241.932	-157.104	0.241	0.014
-240.917	334.067	-0.080	-0.151
-239.903	-200.000	-0.048	0.227
-238.888	-200.000	0.049	-0.351
-237.873	800.000	-0.044	-0.119
-236.859	-92.432	0.248	0.068
-235.844	135.551	0.175	0.223
-234.830	41.930	0.239	0.213
-233.815	-21.990	0.154	-0.092
-232.800	81.633	0.054	0.057
-231.786	112.072	0.075	-0.089
-230.771	-118.234	0.146	-0.026
-229.757	55.282	-0.188	-0.179
-228.742	24.964	-0.041	0.033
-227.727	-200.000	0.022	0.185
-226.713	433.802	-0.110	-0.234
-225.698	800.000	-0.050	0.176
-224.684	-200.000	-0.015	-0.217
-223.669	-200.000	0.003	-0.063
-222.655	-127.937	-0.238	-0.034
-221.640	-200.000	-0.005	0.184
-220.625	800.000	-0.034	0.118
-219.611	-36.617	0.323	0.171
-218.596	60.352	0.064	-0.062
-217.582	67.833	0.305	-0.306
-216.567	-16.384	-0.215	0.134
-215.552	-200.000	-0.005	0.172
-214.538	-35.152	0.207	-0.111
-213.523	-90.916	-0.358	-0.101
-212.509	-45.118	-0.099	-0.048
-211.494	178.961	-0.110	0.157
-210.479	-200.000	0.014	-0.123
-209.465	98.101	0.203	-0.230
-208.450	94.574	0.176	0.196
-207.436	134.914	-0.193	0.245
-206.421	-200.000	0.010	-0.046
-205.406	-62.424	-0.045	-0.018
-204.392	74.531	-0.164	0.170
-203.377	-45.538	0.271	0.132
-202.363	660.735	-0.032	-0.082
-201.348	282.615	-0.128	-0.225
-200.333	33.176	-0.267	-0.227
-199.319	-189.751	0.176	0.002
-198.304	207.767	-0.048	-0.073
-197.290	-131.318	-0.277	0.036
-196.275	270.987	0.131	-0.226
-195.260	-200.000	-0.096	0.442
-194.246	-22.219	0.144	-0.086
-193.231	-200.000	0.025	-0.208
-192.217	800.000	0.066	-0.190
-191.202	51.149	0.106	0.098
-190.187	-92.585	0.156	0.043
-189.173	-160.318	-0.302	-0.016
-188.158	-13.498	-0.250	-0.159
-187.144	237.707	0.100	0.162
-186.129	-56.626	-0.207	-0.090
-185.114	268.254	0.079	0.136
-184.100	-19.350	0.162	-0.098
-183.085	50.012	-0.401	-0.371
-182.071	-137.884	-0.324	0.035
-181.056	-7.894	0.185	0.122
-180.042	302.216	0.173	0.313
-179.027	-200.000	-0.012	-0.122
-178.012	151.167	0.106	-0.141
-176.998	-27.063	0.144	0.083
-175.983	-28.537	-0.083	-0.047
-174.969	487.427	-0.169	0.378
-173.954	102.919	0.073	-0.084
-172.939	-144.447	-0.169	-0.015
-171.925	-119.254	0.104	-0.018
-170.910	-92.331	-0.287	-0.079
-169.896	415.564	0.193	0.403
-168.881	-103.395	-0.219	0.051
-167.866	214.453	-0.114	-0.177
-166.852	-200.000	0.080	-0.446
-165.837	465.754	0.054	0.119
-164.823	800.000	0.032	-0.097
-163.808	-47.794	0.268	-0.127
-162.793	82.029	0.068	0.073
-161.779	-65.302	0.311	0.122
-160.764	11.975	-0.279	-0.210
-159.750	319.265	-0.159	0.295
-158.735	25.556	0.031	-0.026
-157.720	60.288	0.198	-0.191
-156.706	-200.000	0.008	-0.114
-155.691	-49.449	-0.545	0.254
-154.677	800.000	-0.100	0.316
-153.662	555.390	0.069	0.162
-152.647	167.432	0.221	-0.307
-151.633	-200.000	0.040	-0.223
-150.618	-110.156	-0.132	0.027
-149.604	-86.019	-0.069	-0.021
-148.589	-200.000	0.010	-0.270
-147.574	-81.823	0.302	0.097
-146.560	800.000	0.120	-0.396
-145.545	-12.485	0.247	-0.158
-144.531	-94.311	-0.281	0.075
-143.516	-200.000	-0.112	-0.500
-142.502	-126.030	0.457	-0.067
-141.487	-36.656	0.306	0.161
-140.472	126.074	-0.194	0.240
-139.458	-150.340	-0.179	-0.014
-138.443	20.471	-0.353	0.279
-137.429	-200.000	0.036	-0.261
-136.414	355.330	-0.049	-0.096
-135.399	594.977	0.126	0.305
-134.385	-47.017	0.208	0.100
-133.370	94.922	-0.155	0.172
-132.356	-132.126	0.398	0.051
-131.341	-77.440	-0.128	0.043
-130.326	-200.000	0.024	0.457
-129.312	1.733	0.054	0.038
-128.297	353.635	-0.110	0.215
-127.283	287.432	-0.090	0.159
-126.268	-163.298	-0.186	-0.009
-125.253	174.342	-0.076	-0.107
-124.239	-151.115	-0.397	-0.029
-123.224	-138.930	-0.212	-0.023
-122.210	-18.036	-0.179	0.110
