DTS Sentinel unit serial number:	SN413079Multiplexer serial number:	ORYXHardware model number:	OX4-SRSoftware version number:	ORYX F/W v4.00 Oryx Data Collector v3.7.2.0data status	okinstallation	princeton_trtdifferential loss correction	single-endedforward channel	channel 3reverse channel	N/Adate	2019/09/19time	05:24:35forward acquisition time	60.00reverse acquisition time	0.00gamma	496.2192k internal	0.2348k external	0.2348temperature offset calibration	0.9991default loss term (dB/km)	0.3790temperature slope calibration	1.0000multiplexer offset coefficient	1.0000multiplexer slope coefficient	1.0000fibre end	0.00T internal ref (°C)	19.42T ext. ref 1 (°C)	0.60T ext. ref 2 (°C)	13.02length (m)	temperature (°C)	Stokes	anti-Stokes-747.200	-90.287	0.054	0.016
-746.185	143.308	-0.234	0.311
-745.171	-193.083	0.430	0.004
-744.156	-200.000	0.015	0.121
-743.142	233.304	0.156	-0.256
-742.127	-31.168	0.127	0.072
-741.112	-200.000	0.004	-0.191
-740.098	55.091	-0.330	-0.319
-739.083	-79.809	0.321	-0.108
-738.069	-30.846	-0.214	0.121
-737.054	-3.682	-0.227	0.158
-736.039	-138.499	-0.268	0.029
-735.025	-200.000	0.001	0.060
-734.010	16.224	0.070	-0.055
-732.996	-130.393	-0.251	-0.034
-731.981	175.343	-0.109	0.157
-730.966	-165.542	-0.105	0.005
-729.952	64.422	-0.042	0.042
-728.937	94.672	0.080	-0.090
-727.923	208.011	0.069	-0.108
-726.908	42.363	-0.183	-0.166
-725.894	-61.941	-0.363	0.152
-724.879	-189.808	0.055	-0.001
-723.864	-52.440	-0.065	0.030
-722.850	-200.000	-0.264	0.001
-721.835	-200.000	-0.032	-0.261
-720.821	-44.176	0.082	-0.041
-719.806	-140.019	0.191	0.020
-718.791	-200.000	-0.058	-0.315
-717.777	-58.075	-0.044	-0.019
-716.762	-200.000	-0.024	0.138
-715.748	-19.380	0.137	0.085
-714.733	20.168	-0.188	-0.152
-713.718	120.687	-0.171	0.213
-712.704	-64.926	0.307	0.124
-711.689	-131.230	0.079	0.010
-710.675	-124.216	0.114	-0.018
-709.660	351.485	-0.283	0.558
-708.645	-200.000	-0.012	0.073
-707.631	360.227	0.118	0.235
-706.616	-31.132	0.068	0.038
-705.602	-55.577	-0.121	0.054
-704.587	800.000	-0.034	-0.120
-703.572	148.030	-0.174	-0.234
-702.558	233.296	0.069	0.113
-701.543	-153.376	0.048	0.003
-700.529	-200.000	0.041	0.355
-699.514	-124.141	0.269	-0.042
-698.499	-92.150	0.140	0.039
-697.485	-121.348	0.558	0.093
-696.470	-87.221	-0.591	-0.179
-695.456	-6.462	-0.305	-0.207
-694.441	-7.464	0.242	0.163
-693.426	800.000	-0.053	-0.223
-692.412	59.876	0.042	-0.041
-691.397	-48.136	0.043	0.021
-690.383	-200.000	-0.029	-0.407
-689.368	622.232	0.058	-0.145
-688.354	-112.591	-0.270	-0.054
-687.339	-200.000	-0.007	-0.190
-686.324	-200.000	0.036	0.364
-685.310	-142.511	-0.402	-0.039
-684.295	8.157	0.122	0.091
-683.281	-33.382	-0.205	-0.113
-682.266	403.178	0.160	-0.335
-681.251	120.394	-0.131	0.162
-680.237	-39.089	-0.176	0.092
-679.222	-27.535	-0.152	0.088
-678.208	138.870	0.051	0.067
-677.193	-126.625	0.248	0.037
-676.178	-200.000	-0.011	-0.265
-675.164	-200.000	0.431	0.001
-674.149	142.238	-0.176	0.232
-673.135	-97.222	-0.264	-0.069
-672.120	-12.623	-0.133	-0.086
-671.105	800.000	-0.015	-0.049
-670.091	76.877	-0.226	-0.239
-669.076	-85.109	0.190	-0.059
-668.062	385.503	0.030	-0.062
-667.047	-5.842	0.113	0.077
-666.032	-200.000	-0.044	-0.444
-665.018	23.886	-0.037	-0.030
-664.003	800.000	-0.067	0.241
-662.989	-200.000	0.043	0.362
-661.974	-127.837	-0.237	-0.034
-660.959	232.682	0.097	0.159
-659.945	800.000	-0.055	0.197
-658.930	-146.512	-0.292	0.025
-657.916	101.992	-0.179	0.209
-656.901	-200.000	-0.005	-0.048
-655.886	236.595	-0.097	0.160
-654.872	-81.058	-0.304	-0.100
-653.857	316.101	-0.174	0.328
-652.843	210.284	0.061	-0.095
-651.828	-71.595	0.390	-0.145
-650.814	-101.444	0.242	0.059
-649.799	55.724	-0.160	-0.154
-648.784	-3.765	0.128	0.089
-647.770	-27.928	-0.189	0.109
-646.755	-200.000	-0.028	-0.234
-645.741	-94.388	0.109	0.030
-644.726	-89.480	0.166	-0.049
-643.711	139.445	0.190	0.249
-642.697	-120.844	0.124	-0.021
-641.682	-200.000	-0.045	-0.200
-640.668	-200.000	0.006	-0.392
-639.653	-53.979	-0.384	-0.174
-638.638	800.000	0.100	-0.361
-637.624	81.063	-0.209	0.225
-636.609	-60.845	0.114	-0.048
-635.595	-64.943	-0.143	-0.058
-634.580	-105.566	-0.168	0.038
-633.565	-193.313	-0.099	0.001
-632.551	-200.000	-0.044	0.196
-631.536	16.835	0.243	0.191
-630.522	-53.698	-0.241	0.109
-629.507	471.628	0.068	0.153
-628.492	800.000	0.083	0.321
-627.478	-170.951	-0.136	-0.005
-626.463	800.000	0.086	-0.267
-625.449	514.192	-0.099	0.230
-624.434	66.835	0.248	0.251
-623.419	779.102	-0.067	0.183
-622.405	-135.544	0.239	-0.028
-621.390	-120.784	-0.230	0.039
-620.376	229.538	0.031	-0.050
-619.361	-33.612	0.112	-0.062
-618.346	-200.000	0.041	0.389
-617.332	-30.650	-0.106	0.060
-616.317	171.554	-0.152	0.217
-615.303	377.469	-0.086	-0.175
-614.288	-200.000	0.009	-0.165
-613.273	-200.000	-0.029	-0.138
-612.259	516.121	-0.021	0.049
-611.244	-32.227	-0.166	-0.092
-610.230	800.000	0.040	0.166
-609.215	-200.000	-0.018	-0.196
-608.201	430.217	-0.151	0.324
-607.186	150.738	-0.059	0.080
-606.171	-200.000	-0.002	0.400
-605.157	386.669	-0.205	-0.421
-604.142	-49.770	-0.379	-0.179
-603.128	-38.957	0.269	-0.141
-602.113	6.804	-0.037	-0.027
-601.098	-200.000	0.059	-0.298
-600.084	-103.462	-0.391	0.091
-599.069	278.482	-0.200	0.353
-598.055	800.000	0.036	0.122
-597.040	800.000	-0.029	0.090
-596.025	16.038	-0.132	-0.103
-595.011	-200.000	0.001	-0.313
-593.996	-200.000	-0.008	0.064
-592.982	136.487	0.229	-0.297
-591.967	77.253	-0.083	-0.088
-590.952	-119.007	0.112	0.020
-589.938	-57.942	-0.109	0.047
-588.923	800.000	0.011	-0.030
-587.909	-190.752	-0.301	-0.003
-586.894	770.126	-0.139	0.377
-585.879	210.707	-0.020	0.032
-584.865	800.000	0.016	-0.062
-583.850	-200.000	-0.008	0.139
-582.836	-9.192	0.043	-0.028
-581.821	207.662	0.175	0.271
-580.806	-200.000	0.005	0.098
-579.792	-9.843	0.182	0.120
-578.777	800.000	-0.203	0.593
-577.763	800.000	0.066	-0.184
-576.748	-129.964	0.259	0.035
-575.733	27.650	-0.071	0.060
-574.719	800.000	-0.020	-0.082
-573.704	-83.439	-0.081	0.026
-572.690	57.833	0.134	-0.131
-571.675	-4.692	0.093	-0.064
-570.661	-33.565	0.110	0.060
-569.646	-106.933	0.444	0.098
-568.631	-117.264	0.184	-0.033
-567.617	800.000	-0.029	0.110
-566.602	800.000	0.083	0.281
-565.588	-83.847	0.171	-0.054
-564.573	-40.492	0.279	-0.144
-563.558	108.155	-0.128	0.151
-562.544	-170.235	-0.186	0.006
-561.529	-120.389	-0.137	0.023
-560.515	-200.000	-0.083	0.000
-559.500	-200.000	0.032	0.379
-558.485	-200.000	0.011	0.177
-557.471	800.000	0.097	-0.354
-556.456	-200.000	0.040	0.227
-555.442	292.680	-0.182	-0.328
-554.427	249.984	-0.056	-0.094
-553.412	-12.907	0.336	0.217
-552.398	177.335	-0.102	0.147
-551.383	319.186	0.197	0.370
-550.369	-75.693	0.204	0.072
-549.354	-131.295	0.106	-0.014
-548.339	-40.217	-0.170	-0.088
-547.325	-181.776	-0.106	0.002
-546.310	-200.000	0.024	-0.332
-545.296	80.193	0.215	-0.229
-544.281	138.185	-0.113	-0.146
-543.266	-200.000	0.050	-0.216
-542.252	29.662	-0.194	-0.163
-541.237	-200.000	0.101	-0.496
-540.223	-52.585	0.027	-0.012
-539.208	-110.168	0.163	0.034
-538.193	329.648	-0.057	-0.108
-537.179	-76.818	0.080	0.028
-536.164	677.948	0.027	0.069
-535.150	-120.768	0.273	0.046
-534.135	-94.493	-0.210	-0.057
-533.121	90.596	0.055	0.061
-532.106	-127.095	-0.319	-0.046
-531.091	169.519	0.027	-0.038
-530.077	-92.248	-0.075	0.021
-529.062	-107.088	-0.532	0.116
-528.048	199.429	-0.118	-0.179
-527.033	-22.757	-0.210	0.126
-526.018	9.802	-0.301	-0.226
-525.004	-121.741	-0.141	-0.023
-523.989	-17.468	0.194	-0.121
-522.975	92.653	0.217	-0.243
-521.960	800.000	-0.108	0.336
-520.945	118.203	-0.054	0.066
-519.931	-200.000	-0.056	0.489
-518.916	-146.612	-0.215	-0.018
-517.902	58.774	0.119	0.116
-516.887	350.832	-0.119	0.234
-515.872	91.675	0.151	-0.168
-514.858	12.066	-0.140	-0.106
-513.843	-96.732	-0.066	0.017
-512.829	-76.703	-0.156	0.054
-511.814	72.353	0.106	-0.110
-510.799	161.279	-0.334	-0.462
-509.785	-130.495	0.119	0.016
-508.770	-164.722	0.277	-0.012
-507.756	-128.241	0.211	0.030
-506.741	573.822	0.066	0.160
-505.726	-84.566	0.311	0.097
-504.712	-200.000	-0.011	0.062
-503.697	-140.319	-0.123	0.013
-502.683	490.549	0.177	-0.401
-501.668	800.000	0.052	-0.150
-500.653	223.074	-0.106	-0.169
-499.639	-136.971	0.201	0.023
-498.624	-93.651	0.079	0.022
-497.610	288.027	-0.026	0.046
-496.595	364.024	0.180	0.358
-495.581	-200.000	-0.164	0.000
-494.566	110.553	-0.158	-0.189
-493.551	-36.306	-0.202	-0.108
-492.537	-60.359	0.120	-0.051
-491.522	202.675	-0.142	-0.218
-490.508	-116.693	0.215	-0.039
-489.493	174.726	-0.032	0.046
-488.478	-83.539	0.187	-0.059
-487.464	-42.172	0.498	-0.252
-486.449	-200.000	-0.044	0.298
-485.435	-79.521	-0.132	0.044
-484.420	-102.841	0.229	0.054
-483.405	-200.000	0.055	-0.245
-482.391	800.000	0.145	-0.436
-481.376	171.937	-0.218	-0.310
-480.362	-200.000	-0.033	-0.348
-479.347	-28.157	-0.263	0.150
-478.332	-30.596	0.347	-0.194
-477.318	800.000	0.103	0.311
-476.303	52.556	0.028	-0.027
-475.289	174.379	0.164	-0.234
-474.274	-42.929	-0.380	0.191
-473.259	136.992	0.118	-0.153
-472.245	85.953	-0.074	-0.080
-471.230	-200.000	0.008	-0.107
-470.216	-121.080	-0.297	0.049
-469.201	43.689	0.269	0.244
-468.186	54.767	0.091	-0.087
-467.172	-87.495	-0.130	-0.039
-466.157	800.000	0.061	0.184
-465.143	223.521	0.158	-0.252
-464.128	-97.257	0.279	-0.072
-463.113	45.351	0.180	-0.164
-462.099	73.366	0.094	0.097
-461.084	-170.564	0.276	0.009
-460.070	-30.092	0.087	0.049
-459.055	-200.000	-0.007	-0.146
-458.040	-162.429	-0.480	-0.023
-457.026	800.000	-0.114	0.471
-456.011	125.003	0.186	-0.232
-454.997	-85.669	-0.179	0.055
-453.982	-200.000	0.005	-0.156
-452.968	-79.551	-0.269	0.090
-451.953	-47.570	-0.203	0.097
-450.938	-75.923	-0.198	0.069
-449.924	-134.091	0.281	-0.034
-448.909	52.647	-0.061	-0.058
-447.895	16.675	0.163	0.128
-446.880	-46.322	-0.112	-0.054
-445.865	-116.234	0.195	-0.036
-444.851	-77.160	0.203	0.070
-443.836	386.278	0.160	0.326
-442.822	-155.038	-0.281	0.018
-441.807	-200.000	0.004	-0.032
-440.792	238.029	0.081	-0.133
-439.778	-18.943	-0.386	0.237
-438.763	121.427	0.101	-0.124
-437.749	-110.644	-0.304	0.062
-436.734	800.000	-0.053	-0.216
-435.719	-138.057	-0.252	-0.028
-434.705	800.000	0.092	-0.369
-433.690	-40.450	0.253	0.130
-432.676	800.000	-0.041	-0.112
-431.661	-200.000	0.016	0.264
-430.646	-2.946	-0.049	0.034
-429.632	-9.642	-0.270	0.178
-428.617	-27.459	0.066	-0.038
-427.603	-82.798	-0.315	-0.100
-426.588	800.000	0.057	-0.155
-425.573	328.994	0.028	0.053
-424.559	-167.336	0.236	-0.009
-423.544	97.703	-0.099	-0.112
-422.530	38.946	0.229	-0.202
-421.515	111.788	0.086	0.102
-420.500	-200.000	0.038	0.437
-419.486	49.643	0.195	0.182
-418.471	16.013	0.224	-0.174
-417.457	-137.079	0.327	-0.037
-416.442	-79.957	-0.352	-0.117
-415.428	800.000	0.033	-0.094
-414.413	306.023	-0.059	0.109
-413.398	-200.000	0.074	0.326
-412.384	555.270	0.232	0.551
-411.369	-126.704	0.123	-0.018
-410.355	-119.288	-0.067	-0.011
-409.340	-44.906	0.317	-0.156
-408.325	-37.328	-0.230	0.121
-407.311	115.616	0.183	0.221
-406.296	-7.386	-0.224	-0.150
-405.282	165.083	0.146	-0.203
-404.267	364.183	-0.096	0.191
-403.252	604.278	0.144	0.353
-402.238	-128.811	0.469	-0.065
-401.223	537.742	0.047	0.110
-400.209	800.000	0.060	-0.227
-399.194	606.035	-0.119	-0.293
-398.179	-89.395	0.103	-0.030
-397.165	661.592	-0.142	-0.362
-396.150	-105.480	0.386	-0.086
-395.136	263.001	0.144	-0.246
-394.121	559.506	0.101	-0.240
-393.106	-101.693	-0.213	0.051
-392.092	-18.530	0.185	0.114
-391.077	297.328	-0.139	-0.252
-390.063	-200.000	0.030	-0.379
-389.048	-17.533	0.282	0.174
-388.033	-63.969	-0.068	-0.027
-387.019	480.272	0.126	-0.282
-386.004	97.143	0.175	0.197
-384.990	475.929	-0.060	-0.134
-383.975	-24.488	0.305	-0.179
-382.960	-200.000	-0.029	0.159
-381.946	-83.201	-0.183	-0.058
-380.931	44.670	0.171	-0.155
-379.917	800.000	-0.083	0.228
-378.902	-200.000	-0.001	-0.135
-377.888	226.301	0.278	-0.445
-376.873	487.473	0.094	0.211
-375.858	-200.000	-0.070	0.337
-374.844	-49.040	0.059	0.028
-373.829	800.000	-0.058	0.162
-372.815	800.000	-0.130	0.455
-371.800	120.223	-0.125	-0.152
-370.785	171.765	0.154	-0.218
-369.771	-26.501	0.202	0.117
-368.756	-200.000	0.006	-0.084
-367.742	-200.000	-0.008	0.148
-366.727	642.049	0.106	-0.267
-365.712	-134.426	-0.210	0.025
-364.698	-59.231	0.249	0.105
-363.683	70.171	-0.058	0.059
-362.669	-121.648	0.247	0.040
-361.654	-58.298	-0.184	-0.079
-360.639	-200.000	0.009	-0.049
-359.625	-141.778	0.141	0.014
-358.610	308.249	-0.125	-0.229
-357.596	-177.091	0.234	0.006
-356.581	-68.430	-0.079	-0.030
-355.566	-61.038	-0.149	0.062
-354.552	116.117	-0.115	-0.139
-353.537	85.620	-0.110	0.119
-352.523	-151.072	-0.129	-0.010
-351.508	-35.209	0.104	0.056
-350.493	-28.132	0.037	-0.021
-349.479	-29.644	0.227	0.128
-348.464	-28.028	0.241	-0.137
-347.450	800.000	0.037	0.109
-346.435	-157.914	-0.203	0.012
-345.420	629.866	-0.131	-0.326
-344.406	-113.404	0.280	0.054
-343.391	312.193	-0.111	0.205
-342.377	-13.984	-0.219	-0.139
-341.362	-138.270	0.105	-0.011
-340.348	119.317	0.093	0.113
-339.333	119.814	-0.204	0.249
-338.318	327.919	0.130	-0.245
-337.304	183.432	0.127	-0.184
-336.289	78.414	0.188	0.197
-335.275	-146.483	0.221	0.019
-334.260	92.347	0.092	-0.102
-333.245	-31.862	0.220	-0.121
-332.231	83.372	0.104	0.111
-331.216	247.086	0.022	0.037
-330.202	-172.941	0.256	0.008
-329.187	-130.280	-0.358	0.048
-328.172	54.389	-0.454	0.430
-327.158	-200.000	0.016	0.333
-326.143	800.000	0.115	0.398
-325.129	800.000	-0.062	0.198
-324.114	-166.055	0.161	-0.007
-323.099	-6.905	0.194	0.129
-322.085	-44.104	-0.398	0.196
-321.070	16.508	0.067	-0.052
-320.056	-200.000	-0.009	0.077
-319.041	-200.000	-0.060	0.345
-318.026	48.385	-0.147	-0.135
-317.012	247.332	0.087	-0.144
-315.997	254.452	-0.030	-0.050
-314.983	-200.000	-0.059	0.372
-313.968	-87.989	0.285	-0.084
-312.953	-9.936	-0.109	-0.071
-311.939	78.815	-0.103	-0.108
-310.924	-73.648	-0.032	0.012
-309.910	33.604	-0.263	-0.225
-308.895	15.553	-0.144	-0.111
-307.880	800.000	-0.068	0.188
-306.866	-6.293	-0.119	0.079
-305.851	-83.692	-0.399	-0.125
-304.837	-200.000	-0.006	-0.083
-303.822	171.057	-0.182	0.256
-302.807	800.000	0.035	-0.140
-301.793	800.000	-0.013	-0.038
-300.778	729.693	0.069	-0.180
-299.764	141.208	-0.149	-0.193
-298.749	12.098	-0.072	-0.055
-297.735	-200.000	0.006	0.169
-296.720	-56.524	0.154	-0.067
-295.705	37.919	-0.240	-0.210
-294.691	-163.950	-0.314	0.014
-293.676	-28.242	-0.275	-0.156
-292.662	800.000	-0.053	-0.220
-291.647	98.026	-0.095	-0.108
-290.632	355.991	-0.165	0.323
-289.618	-185.610	-0.296	0.004
-288.603	800.000	-0.018	-0.077
-287.589	-200.000	-0.049	0.297
-286.574	-200.000	0.539	0.001
-285.559	-73.559	-0.148	-0.053
-284.545	111.752	-0.053	-0.063
-283.530	83.171	-0.246	0.262
-282.516	449.158	-0.037	-0.079
-281.501	510.028	-0.084	0.192
-280.486	-33.457	0.100	0.054
-279.472	-114.025	-0.111	-0.021
-278.457	-29.196	0.126	-0.071
-277.443	72.082	-0.174	0.178
-276.428	-200.000	0.010	0.186
-275.413	-200.000	0.007	-0.095
-274.399	-146.102	-0.089	-0.008
-273.384	158.262	0.045	-0.062
-272.370	35.626	-0.134	-0.116
-271.355	590.409	-0.112	-0.272
-270.340	-109.389	0.233	0.048
-269.326	-48.851	-0.138	-0.065
-268.311	104.395	0.162	0.187
-267.297	800.000	-0.043	0.135
-266.282	36.379	-0.095	-0.082
-265.267	-7.731	-0.244	0.162
-264.253	-101.723	-0.241	0.057
-263.238	-56.844	0.088	-0.038
-262.224	282.397	-0.262	0.461
-261.209	-57.554	0.374	-0.161
-260.195	-91.887	0.096	-0.027
-259.180	266.286	0.204	0.349
-258.165	353.441	0.104	0.202
-257.151	131.321	-0.247	-0.311
-256.136	-39.599	0.203	-0.104
-255.122	188.688	-0.114	0.167
-254.107	-41.805	-0.322	-0.162
-253.092	442.265	-0.098	-0.210
-252.078	525.130	-0.112	0.259
-251.063	85.904	-0.029	-0.032
-250.049	-55.249	0.115	-0.050
-249.034	-200.000	0.010	-0.090
-248.019	800.000	-0.098	0.265
-247.005	88.223	0.308	0.335
-245.990	-200.000	-0.029	-0.258
-244.976	800.000	-0.007	-0.031
-243.961	23.089	0.059	0.047
-242.946	-45.427	0.035	0.017
-241.932	69.417	-0.120	-0.121
-240.917	800.000	0.023	-0.067
-239.903	-69.627	-0.229	-0.086
-238.888	140.668	0.353	-0.457
-237.873	187.231	-0.212	-0.310
-236.859	800.000	-0.061	0.248
-235.844	-200.000	0.091	-0.400
-234.830	-126.640	0.316	0.046
-233.815	-200.000	0.010	0.261
-232.800	-200.000	0.007	-0.103
-231.786	161.862	-0.091	0.125
-230.771	-148.061	-0.149	0.012
-229.757	-142.014	0.733	-0.071
-228.742	800.000	0.043	0.123
-227.727	-200.000	0.045	-0.411
-226.713	285.588	-0.117	-0.206
-225.698	-176.331	-0.077	-0.002
-224.684	73.884	-0.093	0.096
-223.669	800.000	0.118	-0.456
-222.655	437.350	0.106	-0.226
-221.640	228.169	-0.206	0.329
-220.625	-61.124	0.139	-0.057
-219.611	-49.796	-0.172	-0.080
-218.596	95.105	0.082	-0.091
-217.582	208.505	-0.107	-0.164
-216.567	97.217	0.079	-0.088
-215.552	7.669	0.131	-0.096
-214.538	119.667	-0.204	0.248
-213.523	83.522	0.382	0.407
-212.509	-44.546	-0.361	0.177
-211.494	3.382	-0.159	0.113
-210.479	249.250	-0.274	-0.455
-209.465	-105.370	0.207	-0.046
-208.450	101.804	-0.077	0.088
-207.436	-73.713	0.248	0.088
-206.421	100.076	0.129	0.146
-205.406	94.698	0.317	0.353
-204.392	-200.000	-0.019	-0.219
-203.377	-200.000	-0.067	-0.329
-202.363	-125.092	0.200	-0.030
-201.348	456.505	-0.113	-0.245
-200.333	-200.000	-0.005	-0.038
-199.319	-25.280	0.012	-0.007
-198.304	30.933	-0.152	-0.128
-197.290	96.133	-0.099	0.110
-196.275	-45.213	0.340	-0.165
-195.260	22.006	-0.249	0.198
-194.246	35.962	-0.070	0.061
-193.231	331.856	-0.108	-0.204
-192.217	-95.029	-0.093	-0.025
-191.202	143.901	0.066	0.086
-190.187	-49.890	-0.131	0.061
-189.173	15.207	0.039	-0.030
-188.158	-145.510	0.193	-0.017
-187.144	-113.816	-0.428	0.081
-186.129	598.281	-0.034	-0.082
-185.114	-57.266	0.298	0.128
-184.100	102.156	-0.190	0.217
-183.085	226.446	0.143	0.227
-182.071	-200.000	-0.050	0.251
-181.056	-86.070	0.136	0.041
-180.042	-200.000	0.032	-0.303
-179.027	-97.429	-0.038	-0.010
-178.012	800.000	-0.118	-0.410
-176.998	202.369	0.206	0.311
-175.983	-200.000	0.018	0.285
-174.969	217.207	-0.163	0.253
-173.954	800.000	0.077	0.297
-172.939	-200.000	0.001	-0.144
-171.925	7.090	0.242	-0.176
-170.910	-200.000	0.007	-0.077
-169.896	72.364	0.178	0.181
-168.881	89.273	-0.194	-0.211
-167.866	89.926	-0.142	-0.155
-166.852	-121.461	-0.136	-0.022
-165.837	259.026	-0.136	-0.228
-164.823	-148.609	-0.119	0.009
-163.808	-200.000	0.036	0.153
-162.793	-200.000	-0.014	0.118
-161.779	436.098	-0.040	0.085
-160.764	-39.941	-0.125	0.064
-159.750	435.244	-0.164	0.349
-158.735	-105.186	-0.210	0.047
-157.720	800.000	-0.093	0.362
-156.706	29.014	0.192	-0.159
-155.691	-115.114	0.358	-0.066
-154.677	50.482	-0.088	0.081
-153.662	-200.000	0.010	-0.461
-152.647	-71.200	0.194	0.071
-151.633	-114.042	-0.065	-0.012
-150.618	354.964	-0.040	-0.077
-149.604	-200.000	-0.044	0.475
-148.589	-200.000	0.046	-0.287
-147.574	0.758	0.122	-0.085
-146.560	800.000	-0.034	0.095
-145.545	-1.756	-0.199	0.137
-144.531	-200.000	0.075	-0.440
-143.516	297.761	-0.071	0.127
-142.502	248.996	0.144	-0.239
-141.487	-83.919	-0.330	0.102
-140.472	800.000	-0.115	0.360
-139.458	83.105	-0.203	0.216
-138.443	-10.715	-0.172	0.111
-137.429	-84.243	0.298	-0.092
-136.414	16.545	-0.154	-0.118
-135.399	-63.370	0.165	-0.066
-134.385	-200.000	0.317	0.000
-133.370	463.266	0.156	0.341
-132.356	-71.387	-0.247	-0.090
-131.341	800.000	0.079	-0.254
-130.326	-86.743	-0.258	0.077
-129.312	242.195	0.186	0.304
-128.297	350.910	-0.111	-0.214
-127.283	20.336	0.271	0.213
-126.268	-200.000	0.014	-0.169
-125.253	-160.539	0.246	0.013
-124.239	-200.000	0.042	0.181
-123.224	800.000	0.109	0.370
-122.210	-200.000	-0.017	0.348
