DTS Sentinel unit serial number:	SN413079Multiplexer serial number:	ORYXHardware model number:	OX4-SRSoftware version number:	ORYX F/W v4.00 Oryx Data Collector v3.7.2.0data status	okinstallation	princeton_trtdifferential loss correction	single-endedforward channel	channel 3reverse channel	N/Adate	2019/09/19time	11:44:35forward acquisition time	60.00reverse acquisition time	0.00gamma	496.2192k internal	0.2341k external	0.2341temperature offset calibration	0.9988default loss term (dB/km)	0.3790temperature slope calibration	1.0000multiplexer offset coefficient	1.0000multiplexer slope coefficient	1.0000fibre end	0.00T internal ref (°C)	25.69T ext. ref 1 (°C)	0.81T ext. ref 2 (°C)	21.49length (m)	temperature (°C)	Stokes	anti-Stokes-747.200	-40.455	-0.157	0.082
-746.185	-200.000	-0.028	-0.193
-745.171	-70.532	0.086	0.033
-744.156	-200.000	-0.016	0.114
-743.142	172.310	-0.169	0.244
-742.127	26.127	-0.338	0.283
-741.112	-39.502	0.221	-0.116
-740.098	-200.000	-0.030	0.201
-739.083	216.325	0.137	0.218
-738.069	157.674	0.182	-0.253
-737.054	307.583	-0.087	-0.163
-736.039	152.910	-0.099	-0.135
-735.025	-92.758	-0.221	-0.062
-734.010	-3.605	-0.271	-0.188
-732.996	-89.625	-0.333	-0.098
-731.981	-24.594	-0.335	0.200
-730.966	164.425	-0.111	-0.157
-729.952	-125.898	-0.086	0.013
-728.937	-133.295	0.127	-0.016
-727.923	106.924	0.075	-0.090
-726.908	-10.008	-0.235	-0.156
-725.894	-149.469	0.136	0.011
-724.879	236.175	-0.142	0.235
-723.864	800.000	-0.041	0.147
-722.850	198.037	0.113	-0.173
-721.835	800.000	-0.054	-0.189
-720.821	-200.000	-0.022	-0.220
-719.806	-200.000	0.046	-0.279
-718.791	32.005	-0.222	-0.191
-717.777	-200.000	-0.026	-0.185
-716.762	39.277	-0.180	-0.161
-715.748	-130.359	0.221	-0.030
-714.733	289.762	0.046	0.084
-713.718	-81.905	-0.129	0.042
-712.704	109.672	-0.123	-0.147
-711.689	-113.940	0.322	0.063
-710.675	-84.252	-0.331	0.105
-709.660	-26.130	0.382	0.225
-708.645	95.627	-0.097	0.111
-707.631	-200.000	-0.001	0.352
-706.616	-87.713	-0.229	0.069
-705.602	89.505	0.030	0.033
-704.587	60.575	-0.156	0.154
-703.572	-62.374	0.227	0.095
-702.558	-200.000	0.402	0.000
-701.543	-82.516	-0.081	0.026
-700.529	-200.000	0.025	0.296
-699.514	800.000	-0.088	-0.267
-698.499	-105.601	-0.286	0.065
-697.485	-195.908	0.187	0.001
-696.470	-156.162	-0.360	0.023
-695.456	-117.747	-0.130	0.023
-694.441	-105.449	0.306	-0.070
-693.426	-200.000	-0.049	0.415
-692.412	-40.762	0.253	-0.131
-691.397	-121.008	0.189	0.032
-690.383	-200.000	0.055	0.283
-689.368	175.069	0.083	0.120
-688.354	275.441	0.127	-0.225
-687.339	-92.072	-0.131	-0.037
-686.324	-68.707	0.057	0.022
-685.310	-111.525	-0.175	0.036
-684.295	-20.321	-0.157	0.097
-683.281	-48.457	-0.302	-0.146
-682.266	-11.720	0.149	0.098
-681.251	-171.147	0.176	-0.006
-680.237	800.000	-0.125	-0.364
-679.222	146.260	0.146	-0.195
-678.208	-3.392	-0.248	-0.173
-677.193	800.000	0.030	0.109
-676.178	-89.179	0.078	-0.023
-675.164	-136.399	0.135	-0.016
-674.149	-114.001	-0.247	-0.048
-673.135	484.462	0.146	-0.332
-672.120	65.428	0.340	0.344
-671.105	44.073	0.246	0.226
-670.091	-160.132	-0.151	-0.008
-669.076	130.744	0.060	-0.076
-668.062	800.000	0.051	0.161
-667.047	-121.241	-0.304	0.051
-666.032	-107.902	-0.267	0.058
-665.018	711.892	-0.122	-0.322
-664.003	-60.537	-0.175	0.074
-662.989	199.487	-0.115	0.177
-661.974	800.000	-0.036	-0.121
-660.959	-44.826	0.232	0.116
-659.945	-18.464	-0.159	0.099
-658.930	266.015	0.036	0.063
-657.916	800.000	-0.027	-0.100
-656.901	-200.000	0.030	0.283
-655.886	-52.566	0.093	-0.043
-654.872	355.955	-0.105	-0.209
-653.857	191.224	-0.085	-0.127
-652.843	-2.983	0.270	-0.188
-651.828	-200.000	0.096	-0.429
-650.814	129.209	-0.082	-0.105
-649.799	-73.967	0.115	0.042
-648.784	716.639	0.163	0.432
-647.770	-83.203	-0.324	-0.104
-646.755	-89.201	0.317	-0.094
-645.741	800.000	-0.080	0.233
-644.726	734.844	-0.115	-0.308
-643.711	-92.385	0.024	-0.007
-642.697	-200.000	0.022	-0.195
-641.682	184.600	0.041	-0.061
-640.668	-200.000	0.025	0.135
-639.653	6.388	-0.209	-0.155
-638.638	183.228	0.129	-0.190
-637.624	-47.893	0.218	-0.105
-636.609	111.517	0.152	-0.183
-635.595	-120.286	0.164	-0.028
-634.580	27.839	-0.287	-0.242
-633.565	80.739	-0.105	0.113
-632.551	253.006	-0.166	0.282
-631.536	-135.947	0.163	0.019
-630.522	278.620	0.129	0.230
-629.507	-73.947	0.049	0.018
-628.492	-55.335	-0.207	-0.093
-627.478	-159.485	0.208	0.012
-626.463	800.000	0.043	0.163
-625.449	-26.769	-0.251	0.146
-624.434	28.991	-0.028	0.024
-623.419	123.270	-0.086	-0.108
-622.405	692.477	-0.024	-0.064
-621.390	-130.787	0.424	-0.057
-620.376	467.216	-0.132	-0.294
-619.361	-87.713	0.223	-0.067
-618.346	-14.350	-0.276	-0.178
-617.332	55.543	0.271	-0.261
-616.317	-69.410	0.142	-0.054
-615.303	-112.660	-0.109	-0.022
-614.288	-65.653	0.183	-0.073
-613.273	-93.426	-0.337	0.093
-612.259	-26.066	0.117	0.069
-611.244	748.300	-0.080	-0.215
-610.230	135.188	-0.234	0.304
-609.215	-17.353	-0.114	0.072
-608.201	800.000	-0.068	0.242
-607.186	-112.897	0.295	0.058
-606.171	755.226	-0.054	0.147
-605.157	-21.370	0.156	0.095
-604.142	-75.529	-0.062	0.022
-603.128	-91.271	-0.427	-0.122
-602.113	-2.173	0.205	-0.143
-601.098	-24.135	0.152	0.091
-600.084	-42.017	0.095	0.048
-599.069	140.104	0.035	0.046
-598.055	-23.684	-0.186	0.111
-597.040	85.785	-0.146	-0.160
-596.025	-5.432	-0.064	0.044
-595.011	-200.000	-0.049	0.217
-593.996	-101.031	-0.229	-0.056
-592.982	-200.000	0.009	-0.080
-591.967	-59.163	0.088	-0.038
-590.952	12.625	-0.135	-0.104
-589.938	-200.000	-0.038	0.299
-588.923	-122.578	0.217	-0.035
-587.909	521.308	0.012	-0.029
-586.894	180.023	0.166	-0.243
-585.879	-200.000	0.051	0.249
-584.865	-144.275	0.223	-0.021
-583.850	-88.933	0.269	-0.079
-582.836	-130.096	-0.191	-0.026
-581.821	800.000	-0.072	-0.302
-580.806	-200.000	-0.036	-0.174
-579.792	-128.765	0.166	-0.023
-578.777	-67.909	0.192	0.075
-577.763	800.000	0.020	0.063
-576.748	-0.995	-0.064	0.045
-575.733	184.042	-0.074	-0.109
-574.719	-200.000	0.037	-0.202
-573.704	-73.929	-0.369	-0.133
-572.690	-89.490	0.260	0.076
-571.675	-200.000	-0.083	0.425
-570.661	-78.915	0.073	0.025
-569.646	-77.340	-0.188	-0.065
-568.631	-88.626	0.468	0.139
-567.617	8.560	0.069	-0.052
-566.602	800.000	0.027	0.084
-565.588	105.158	0.151	0.178
-564.573	-4.378	-0.169	-0.117
-563.558	-81.999	-0.309	-0.101
-562.544	22.397	0.209	0.170
-561.529	-200.000	-0.008	0.249
-560.515	517.387	-0.118	-0.274
-559.500	32.911	0.083	0.071
-558.485	155.462	0.130	-0.178
-557.471	53.984	-0.331	-0.316
-556.456	495.933	0.208	0.476
-555.442	-200.000	-0.016	-0.071
-554.427	69.643	-0.216	-0.221
-553.412	-182.233	-0.272	-0.005
-552.398	198.069	-0.128	-0.195
-551.383	-200.000	-0.003	-0.098
-550.369	508.878	-0.116	-0.268
-549.354	237.839	-0.158	-0.260
-548.339	144.774	-0.165	0.220
-547.325	290.128	-0.165	0.298
-546.310	29.030	0.278	0.235
-545.296	-29.330	-0.206	0.117
-544.281	-77.206	-0.260	-0.090
-543.266	-161.374	-0.089	0.005
-542.252	800.000	0.072	-0.214
-541.237	400.141	-0.203	-0.423
-540.223	99.291	-0.265	0.305
-539.208	-200.000	-0.010	0.051
-538.193	-136.724	0.284	-0.033
-537.179	-200.000	0.035	0.335
-536.164	138.812	-0.198	0.259
-535.150	-43.849	0.300	0.150
-534.135	27.647	0.527	0.441
-533.121	800.000	-0.020	-0.059
-532.106	-200.000	-0.001	-0.027
-531.091	93.178	-0.096	0.108
-530.077	213.068	-0.135	-0.213
-529.062	-200.000	-0.013	0.072
-528.048	-200.000	-0.005	-0.231
-527.033	-200.000	0.010	0.055
-526.018	62.219	-0.048	-0.048
-525.004	-112.995	0.268	0.053
-523.989	-92.981	-0.350	-0.097
-522.975	-200.000	-0.020	0.163
-521.960	374.409	0.162	-0.329
-520.945	-106.709	-0.355	0.078
-519.931	495.798	0.106	-0.241
-518.916	-89.995	0.256	-0.074
-517.902	-200.000	-0.181	-0.000
-516.887	46.498	0.144	0.132
-515.872	-120.397	0.206	-0.035
-514.858	-69.878	0.344	0.131
-513.843	-4.410	0.216	0.148
-512.829	-69.936	-0.152	0.057
-511.814	-135.116	-0.300	0.036
-510.799	14.896	-0.142	0.110
-509.785	-200.000	0.003	-0.460
-508.770	170.385	-0.144	-0.204
-507.756	-115.936	-0.393	0.073
-506.741	204.158	-0.148	0.228
-505.726	172.794	0.178	0.255
-504.712	445.896	-0.078	-0.171
-503.697	110.234	0.109	0.130
-502.683	336.151	-0.142	0.274
-501.668	-116.274	-0.160	0.029
-500.653	163.722	0.227	-0.317
-499.639	-72.225	-0.104	-0.038
-498.624	22.036	0.172	0.139
-497.610	33.408	-0.488	0.421
-496.595	406.967	-0.143	0.299
-495.581	-75.051	-0.096	0.034
-494.566	351.640	0.289	-0.569
-493.551	-200.000	-0.090	-0.455
-492.537	304.173	0.077	-0.142
-491.522	-200.000	0.001	0.131
-490.508	428.042	-0.105	-0.225
-489.493	-98.292	0.301	-0.077
-488.478	19.437	0.142	-0.113
-487.464	114.835	-0.257	-0.311
-486.449	800.000	0.144	0.430
-485.435	-105.034	-0.510	-0.116
-484.420	-200.000	-0.011	-0.208
-483.405	427.570	-0.070	-0.149
-482.391	800.000	0.035	0.104
-481.376	5.300	0.154	0.113
-480.362	-200.000	0.015	0.122
-479.347	-146.328	0.165	-0.014
-478.332	169.367	0.122	0.172
-477.318	-11.010	-0.034	-0.022
-476.303	-53.889	-0.214	0.097
-475.289	-4.032	-0.120	0.082
-474.274	-200.000	-0.033	0.373
-473.259	-200.000	0.031	0.164
-472.245	-200.000	0.000	-0.079
-471.230	93.842	0.066	0.074
-470.216	50.574	0.158	0.148
-469.201	662.219	-0.015	-0.039
-468.186	51.522	-0.285	0.269
-467.172	392.226	0.020	-0.042
-466.157	283.063	0.080	0.143
-465.143	152.124	-0.048	0.064
-464.128	-200.000	0.005	-0.214
-463.113	189.993	-0.111	-0.165
-462.099	-189.029	-0.236	0.003
-461.084	-82.922	0.380	0.121
-460.070	552.633	0.141	-0.335
-459.055	497.283	0.135	0.309
-458.040	-90.649	-0.154	0.044
-457.026	-200.000	0.003	-0.043
-456.011	-110.369	-0.190	-0.039
-454.997	-61.971	0.203	0.084
-453.982	800.000	0.162	0.470
-452.968	487.863	0.060	-0.135
-451.953	800.000	-0.026	-0.084
-450.938	10.944	-0.059	-0.045
-449.924	36.753	0.109	-0.096
-448.909	46.305	-0.163	-0.150
-447.895	84.591	-0.220	-0.239
-446.880	23.905	0.148	-0.121
-445.865	-141.382	-0.231	-0.023
-444.851	-138.000	-0.255	0.028
-443.836	-85.412	-0.222	0.068
-442.822	-99.476	-0.243	-0.061
-441.807	327.474	0.156	0.297
-440.792	95.818	-0.035	-0.040
-439.778	-101.989	-0.360	-0.086
-438.763	-200.000	-0.007	-0.346
-437.749	-50.858	0.232	0.108
-436.734	264.930	0.009	-0.016
-435.719	800.000	0.048	-0.184
-434.705	-77.678	0.342	0.117
-433.690	-18.889	-0.146	0.090
-432.676	800.000	0.032	-0.128
-431.661	219.133	-0.091	-0.144
-430.646	-200.000	-0.002	-0.177
-429.632	800.000	-0.024	0.102
-428.617	-200.000	0.022	-0.134
-427.603	-189.638	0.300	-0.003
-426.588	-200.000	-0.025	-0.264
-425.573	-34.899	-0.271	-0.146
-424.559	92.558	0.046	-0.052
-423.544	-200.000	-0.009	-0.378
-422.530	145.339	-0.074	0.098
-421.515	-35.101	-0.181	0.098
-420.500	-200.000	0.025	0.198
-419.486	-200.000	0.005	-0.078
-418.471	-200.000	-0.022	-0.413
-417.457	-200.000	0.025	0.123
-416.442	-15.831	-0.396	-0.249
-415.428	-1.537	0.204	-0.142
-414.413	-134.811	0.008	-0.001
-413.398	10.767	0.189	0.143
-412.384	-156.935	0.044	0.003
-411.369	10.592	0.102	0.077
-410.355	-200.000	0.038	-0.218
-409.340	-62.472	0.159	-0.065
-408.325	-200.000	0.005	-0.093
-407.311	250.768	-0.093	-0.156
-406.296	-200.000	0.027	0.349
-405.282	3.073	0.134	-0.096
-404.267	74.538	-0.196	0.204
-403.252	21.445	-0.218	0.175
-402.238	85.477	0.105	0.114
-401.223	-200.000	0.008	0.194
-400.209	42.600	-0.184	-0.165
-399.194	-90.248	-0.140	-0.040
-398.179	-200.000	-0.065	-0.324
-397.165	-159.527	-0.254	-0.014
-396.150	88.802	0.173	-0.190
-395.136	-24.927	0.251	0.147
-394.121	-182.878	-0.090	0.002
-393.106	134.044	-0.064	-0.082
-392.092	125.001	0.106	0.132
-391.077	-200.000	-0.038	-0.173
-390.063	-200.000	0.026	0.318
-389.048	28.263	-0.193	0.161
-388.033	-200.000	0.000	0.003
-387.019	-36.378	-0.235	-0.125
-386.004	-200.000	-0.069	-0.352
-384.990	-176.168	-0.252	-0.007
-383.975	114.284	0.084	-0.101
-382.960	-102.207	0.113	-0.027
-381.946	-50.612	-0.126	-0.059
-380.931	90.715	0.353	0.390
-379.917	-45.249	-0.234	0.115
-378.902	-65.681	0.359	0.142
-377.888	434.743	-0.077	-0.165
-376.873	30.923	0.028	-0.024
-375.858	-37.914	0.188	0.099
-374.844	12.114	0.223	-0.170
-373.829	-44.423	-0.219	0.108
-372.815	-200.000	-0.003	-0.295
-371.800	-200.000	0.029	-0.168
-370.785	-170.778	0.319	-0.011
-369.771	800.000	0.060	-0.185
-368.756	70.053	0.062	0.064
-367.742	-14.355	0.312	-0.198
-366.727	-128.302	0.056	-0.008
-365.712	-50.245	-0.413	0.193
-364.698	-54.956	-0.257	0.114
-363.683	-73.115	0.467	0.169
-362.669	349.404	-0.039	0.076
-361.654	774.051	0.010	0.026
-360.639	7.687	0.175	-0.129
-359.625	-10.500	-0.067	-0.044
-358.610	106.384	0.193	0.226
-357.596	25.854	0.123	-0.101
-356.581	-59.685	-0.217	-0.092
-355.566	238.934	-0.059	-0.096
-354.552	-56.726	0.284	0.124
-353.537	477.829	0.085	-0.191
-352.523	93.394	-0.074	0.082
-351.508	-200.000	-0.048	0.269
-350.493	800.000	0.093	0.387
-349.479	-27.862	-0.162	0.092
-348.464	49.530	-0.191	0.177
-347.450	800.000	-0.072	0.297
-346.435	-45.503	-0.433	0.212
-345.420	800.000	-0.004	-0.017
-344.406	239.203	0.110	-0.180
-343.391	-70.174	0.155	0.058
-342.377	-101.558	0.330	-0.079
-341.362	263.073	0.104	0.179
-340.348	114.457	-0.127	-0.152
-339.333	117.932	-0.197	-0.240
-338.318	-93.006	0.286	0.079
-337.304	508.678	-0.082	0.187
-336.289	767.990	0.173	-0.465
-335.275	-73.070	0.096	0.035
-334.260	499.277	-0.089	-0.201
-333.245	130.165	-0.189	0.238
-332.231	231.369	0.098	0.159
-331.216	-200.000	0.030	0.137
-330.202	25.052	-0.167	-0.137
-329.187	-148.062	-0.129	-0.011
-328.172	-200.000	-0.035	0.355
-327.158	-200.000	0.063	0.301
-326.143	17.788	0.220	0.173
-325.129	780.747	-0.058	0.157
-324.114	262.128	0.075	-0.128
-323.099	-84.311	-0.057	0.018
-322.085	92.862	0.081	0.091
-321.070	6.282	0.002	-0.002
-320.056	-130.182	0.280	0.038
-319.041	94.587	0.106	0.119
-318.026	160.201	0.054	-0.074
-317.012	-200.000	0.119	0.754
-315.997	-100.560	-0.144	-0.035
-314.983	72.528	0.122	0.125
-313.968	111.714	0.350	-0.416
-312.953	5.734	-0.372	-0.271
-311.939	-71.231	-0.039	-0.015
-310.924	-151.859	-0.369	-0.027
-309.910	800.000	-0.074	-0.218
-308.895	-200.000	-0.030	-0.278
-307.880	57.862	-0.170	0.164
-306.866	-200.000	-0.033	0.239
-305.851	-181.354	-0.314	0.006
-304.837	209.184	-0.081	0.124
-303.822	-200.000	-0.000	0.072
-302.807	-21.098	0.187	0.113
-301.793	608.304	0.172	-0.423
-300.778	40.562	0.266	-0.236
-299.764	84.379	-0.160	-0.172
-298.749	-200.000	-0.057	-0.427
-297.735	-24.602	0.138	0.081
-296.720	800.000	0.026	-0.091
-295.705	800.000	0.033	-0.097
-294.691	-83.491	-0.198	-0.062
-293.676	177.315	0.105	-0.151
-292.662	800.000	-0.087	0.357
-291.647	-108.279	-0.327	-0.070
-290.632	-200.000	0.035	-0.313
-289.618	-132.102	0.164	0.021
-288.603	691.987	-0.043	-0.112
-287.589	152.991	-0.102	-0.138
-286.574	-118.062	0.449	-0.079
-285.559	8.627	0.198	-0.147
-284.545	473.052	0.095	0.211
-283.530	-7.826	-0.073	-0.048
-282.516	-200.000	-0.050	0.256
-281.501	-34.092	0.054	0.029
-280.486	9.739	0.020	-0.015
-279.472	-200.000	-0.002	0.349
-278.457	-182.182	0.296	0.005
-277.443	-96.078	-0.461	0.121
-276.428	-99.940	-0.374	-0.092
-275.413	447.460	0.111	-0.239
-274.399	800.000	-0.022	-0.074
-273.384	206.905	-0.088	-0.135
-272.370	97.916	0.111	0.126
-271.355	-135.101	-0.202	0.024
-270.340	-181.419	0.291	0.006
-269.326	800.000	0.041	-0.130
-268.311	-56.070	0.093	-0.041
-267.297	-38.807	0.263	0.136
-266.282	319.722	0.199	0.371
-265.267	-40.422	0.466	-0.238
-264.253	-153.672	0.090	-0.006
-263.238	-108.346	0.134	0.028
-262.224	-100.370	-0.253	-0.062
-261.209	57.130	-0.117	-0.112
-260.195	61.379	-0.137	-0.134
-259.180	-200.000	-0.030	0.303
-258.165	-200.000	-0.009	0.146
-257.151	152.222	0.166	0.223
-256.136	-111.848	0.065	-0.013
-255.122	800.000	0.105	-0.394
-254.107	-200.000	0.152	0.001
-253.092	15.503	0.152	-0.118
-252.078	370.087	-0.066	-0.131
-251.063	800.000	0.013	-0.042
-250.049	98.691	-0.109	-0.123
-249.034	-200.000	-0.011	0.106
-248.019	800.000	-0.029	0.103
-247.005	-121.999	0.266	-0.043
-245.990	-3.535	-0.357	0.244
-244.976	-13.446	0.304	-0.193
-243.961	800.000	-0.060	-0.167
-242.946	-24.717	0.391	-0.229
-241.932	-68.023	-0.215	0.082
-240.917	53.287	-0.163	0.154
-239.903	-45.052	0.070	0.034
-238.888	-200.000	0.011	0.151
-237.873	164.259	0.184	-0.254
-236.859	-62.612	-0.133	0.054
-235.844	218.438	-0.178	-0.279
-234.830	-126.600	0.130	-0.019
-233.815	800.000	-0.017	0.059
-232.800	23.702	-0.207	0.167
-231.786	-200.000	-0.030	0.138
-230.771	-94.749	0.366	0.098
-229.757	99.519	0.124	-0.141
-228.742	23.483	-0.151	-0.122
-227.727	-36.865	0.340	-0.179
-226.713	501.419	-0.028	-0.063
-225.698	365.203	-0.065	-0.129
-224.684	800.000	0.113	-0.327
-223.669	357.595	0.175	0.344
-222.655	117.163	-0.134	0.162
-221.640	-200.000	0.018	-0.523
-220.625	-41.416	-0.148	-0.075
-219.611	32.934	0.155	0.132
-218.596	-97.463	0.295	0.075
-217.582	-98.141	0.284	0.072
-216.567	322.559	0.052	-0.098
-215.552	-200.000	-0.079	0.518
-214.538	34.534	-0.142	-0.121
-213.523	468.065	0.107	-0.235
-212.509	-84.386	-0.345	0.107
-211.494	-190.578	0.390	0.004
-210.479	-49.638	-0.102	0.048
-209.465	439.225	0.195	0.418
-208.450	800.000	-0.096	0.280
-207.436	-44.705	0.378	0.185
-206.421	-67.788	-0.174	-0.067
-205.406	-62.061	-0.039	0.016
-204.392	-200.000	-0.021	-0.291
-203.377	-146.314	-0.335	0.029
-202.363	-98.330	0.260	0.065
-201.348	-200.000	-0.002	0.060
-200.333	9.580	-0.227	0.169
-199.319	71.898	-0.057	0.058
-198.304	5.751	0.367	0.266
-197.290	-200.000	0.019	-0.125
-196.275	-77.842	0.167	-0.057
-195.260	-115.765	-0.279	-0.051
-194.246	-200.000	0.016	-0.098
-193.231	-200.000	-0.012	0.332
-192.217	61.382	-0.048	0.047
-191.202	-200.000	-0.033	0.152
-190.187	-169.586	-0.354	0.013
-189.173	-200.000	-0.024	-0.134
-188.158	-77.436	-0.056	-0.019
-187.144	-34.704	0.036	0.019
-186.129	11.743	0.043	0.033
-185.114	-68.677	-0.357	0.135
-184.100	85.782	0.109	-0.117
-183.085	392.864	0.056	0.114
-182.071	-182.875	0.312	-0.005
-181.056	-39.542	-0.406	0.208
-180.042	-102.431	-0.103	0.024
-179.027	-157.900	0.322	0.019
-178.012	-200.000	-0.010	-0.094
-176.998	-0.383	-0.205	0.143
-175.983	800.000	-0.037	0.129
-174.969	-181.841	0.137	-0.003
-173.954	-200.000	0.018	-0.580
-172.939	-94.779	-0.196	0.052
-171.925	-200.000	-0.057	0.252
-170.910	-200.000	-0.037	-0.345
-169.896	313.872	0.037	-0.068
-168.881	-91.672	0.174	0.049
-167.866	137.322	-0.174	0.223
-166.852	119.270	0.360	0.436
-165.837	495.173	0.018	-0.040
-164.823	-151.873	-0.046	-0.003
-163.808	-200.000	0.006	-0.372
-162.793	-17.816	-0.103	-0.063
-161.779	-34.963	0.207	0.111
-160.764	-139.462	0.129	-0.014
-159.750	800.000	-0.057	0.242
-158.735	590.869	-0.045	-0.109
-157.720	-135.737	0.172	-0.020
-156.706	-57.143	0.219	-0.095
-155.691	55.445	-0.234	-0.222
-154.677	-56.038	-0.408	0.178
-153.662	-181.685	-0.079	-0.001
-152.647	329.496	-0.096	0.180
-151.633	-125.621	-0.070	0.010
-150.618	-165.222	-0.166	-0.007
-149.604	800.000	-0.131	-0.482
-148.589	-75.338	0.139	0.048
-147.574	65.981	-0.153	0.152
-146.560	-79.488	0.305	-0.101
-145.545	20.328	0.421	0.333
-144.531	191.563	-0.238	-0.350
-143.516	800.000	0.088	-0.255
-142.502	45.881	-0.201	-0.182
-141.487	442.897	-0.034	0.072
-140.472	-200.000	-0.000	-0.016
-139.458	141.570	0.086	-0.111
-138.443	81.087	0.410	-0.433
-137.429	-27.361	0.243	-0.138
-136.414	30.466	-0.137	-0.115
-135.399	-200.000	0.025	-0.288
-134.385	800.000	-0.070	-0.271
-133.370	-200.000	-0.010	0.317
-132.356	118.616	0.056	-0.067
-131.341	717.965	-0.015	0.038
-130.326	132.929	0.198	-0.250
-129.312	-200.000	0.034	-0.208
-128.297	-113.166	0.291	-0.056
-127.283	-78.863	0.059	0.020
-126.268	-95.034	-0.202	-0.053
-125.253	42.596	-0.180	-0.160
-124.239	722.053	0.036	0.093
-123.224	-200.000	-0.057	-0.000
-122.210	800.000	0.048	0.148
