DTS Sentinel unit serial number:	SN413079Multiplexer serial number:	ORYXHardware model number:	OX4-SRSoftware version number:	ORYX F/W v4.00 Oryx Data Collector v3.7.2.0data status	okinstallation	princeton_trtdifferential loss correction	single-endedforward channel	channel 3reverse channel	N/Adate	2019/09/13time	06:16:34forward acquisition time	60.00reverse acquisition time	0.00gamma	496.2192k internal	0.2338k external	0.2338temperature offset calibration	1.0136default loss term (dB/km)	0.3790temperature slope calibration	1.0000multiplexer offset coefficient	1.0000multiplexer slope coefficient	1.0000fibre end	0.00T internal ref (°C)	26.12T ext. ref 1 (°C)	4.09T ext. ref 2 (°C)	20.83length (m)	temperature (°C)	Stokes	anti-Stokes-747.200	-133.101	-0.077	-0.010
-746.185	-88.682	-0.172	0.051
-745.171	98.654	-0.166	-0.193
-744.156	596.676	-0.044	0.110
-743.142	408.335	0.065	-0.137
-742.127	800.000	-0.161	0.530
-741.112	800.000	-0.058	0.220
-740.098	-34.420	0.212	-0.117
-739.083	800.000	-0.090	0.293
-738.069	-200.000	0.018	0.158
-737.054	-140.225	0.282	-0.030
-736.039	-101.548	-0.407	0.099
-735.025	-200.000	0.053	-0.335
-734.010	-3.053	-0.147	-0.103
-732.996	-118.791	-0.309	0.055
-731.981	174.194	-0.231	-0.335
-730.966	-131.598	0.134	0.018
-729.952	-200.000	-0.026	-0.184
-728.937	-10.242	-0.099	0.066
-727.923	-69.199	0.186	0.072
-726.908	-130.912	-0.234	-0.031
-725.894	-200.000	-0.003	0.207
-724.879	-200.000	-0.012	-0.074
-723.864	-102.563	-0.505	-0.121
-722.850	-200.000	0.071	0.409
-721.835	4.146	-0.300	0.220
-720.821	800.000	0.084	-0.351
-719.806	306.158	-0.128	-0.239
-718.791	202.833	-0.037	-0.058
-717.777	109.427	0.251	0.301
-716.762	24.384	-0.258	-0.214
-715.748	-200.000	0.029	0.181
-714.733	-56.506	-0.353	0.157
-713.718	114.208	0.057	0.070
-712.704	-79.778	-0.081	-0.027
-711.689	498.518	0.037	-0.086
-710.675	800.000	0.041	0.155
-709.660	-157.377	0.316	-0.019
-708.645	116.827	-0.027	-0.034
-707.631	-124.051	-0.201	-0.032
-706.616	-113.668	0.178	-0.035
-705.602	-130.886	-0.203	0.027
-704.587	-174.657	0.073	-0.002
-703.572	-85.095	0.573	-0.180
-702.558	55.751	0.067	-0.065
-701.543	-94.665	-0.125	-0.034
-700.529	-145.563	0.206	0.019
-699.514	800.000	0.060	0.215
-698.499	80.373	-0.094	0.101
-697.485	161.483	-0.113	-0.158
-696.470	444.944	0.172	-0.378
-695.456	-200.000	-0.030	0.248
-694.441	-66.129	0.013	-0.005
-693.426	-133.624	0.356	-0.045
-692.412	-102.526	-0.299	-0.071
-691.397	800.000	-0.155	-0.556
-690.383	-83.573	0.272	0.087
-689.368	-200.000	-0.012	-0.230
-688.354	-135.125	0.138	0.017
-687.339	-200.000	0.000	-0.054
-686.324	-200.000	0.002	0.020
-685.310	800.000	-0.017	0.055
-684.295	-135.973	-0.069	-0.008
-683.281	-109.727	-0.088	-0.018
-682.266	-130.809	-0.028	0.004
-681.251	800.000	-0.052	0.177
-680.237	190.160	-0.065	-0.098
-679.222	351.119	0.086	0.170
-678.208	800.000	0.060	-0.214
-677.193	588.865	0.086	-0.212
-676.178	-89.530	0.190	0.056
-675.164	-46.098	-0.223	-0.110
-674.149	368.778	0.096	-0.195
-673.135	800.000	-0.045	0.194
-672.120	617.445	-0.052	0.129
-671.105	-200.000	0.058	-0.267
-670.091	-152.067	-0.255	-0.019
-669.076	-37.692	0.133	-0.071
-668.062	-200.000	-0.002	0.247
-667.047	760.767	0.172	-0.468
-666.032	-146.653	-0.291	0.025
-665.018	45.775	0.151	0.140
-664.003	164.913	0.035	-0.050
-662.989	390.552	-0.090	0.186
-661.974	-119.294	0.126	0.022
-660.959	304.337	0.159	-0.296
-659.945	-98.035	-0.078	0.020
-658.930	324.059	-0.130	0.247
-657.916	343.576	0.057	-0.112
-656.901	-18.720	-0.258	-0.161
-655.886	513.074	0.117	0.272
-654.872	-195.564	-0.232	0.002
-653.857	800.000	0.070	-0.237
-652.843	125.709	0.155	0.196
-651.828	111.103	-0.188	-0.226
-650.814	227.830	-0.109	-0.177
-649.799	-104.488	-0.286	0.066
-648.784	-24.162	0.143	0.086
-647.770	259.930	0.220	-0.381
-646.755	274.518	0.184	0.326
-645.741	37.451	-0.172	0.152
-644.726	-200.000	0.041	0.308
-643.711	-62.936	0.107	-0.044
-642.697	-50.515	0.118	0.056
-641.682	186.612	-0.141	0.210
-640.668	800.000	0.093	0.282
-639.653	25.393	-0.163	-0.136
-638.638	-200.000	-0.036	0.190
-637.624	-200.000	-0.014	-0.117
-636.609	-118.786	-0.174	-0.031
-635.595	-190.979	0.283	0.003
-634.580	800.000	-0.029	-0.110
-633.565	-124.728	-0.193	-0.030
-632.551	636.868	-0.128	-0.325
-631.536	-88.955	-0.240	-0.071
-630.522	446.804	-0.209	-0.459
-629.507	-39.910	-0.286	-0.149
-628.492	9.771	-0.124	0.094
-627.478	-200.000	-0.020	0.105
-626.463	754.857	-0.076	0.205
-625.449	581.546	0.080	0.197
-624.434	-200.000	0.013	-0.109
-623.419	134.026	-0.123	0.160
-622.405	-200.000	-0.009	-0.061
-621.390	800.000	0.056	0.190
-620.376	-106.480	-0.361	0.080
-619.361	800.000	0.052	0.197
-618.346	-200.000	0.018	-0.191
-617.332	-200.000	0.082	0.409
-616.317	-200.000	0.033	0.395
-615.303	306.482	-0.072	-0.134
-614.288	-33.901	0.137	0.075
-613.273	140.691	0.299	0.394
-612.259	-106.016	0.133	-0.030
-611.244	-200.000	-0.067	-0.366
-610.230	-65.399	0.241	0.097
-609.215	326.068	-0.068	-0.130
-608.201	218.748	0.095	-0.151
-607.186	-173.476	-0.365	-0.011
-606.171	97.566	0.086	0.099
-605.157	-43.531	-0.151	-0.076
-604.142	150.904	-0.075	-0.102
-603.128	-200.000	0.023	-0.326
-602.113	-3.266	0.178	-0.124
-601.098	-77.383	-0.208	-0.072
-600.084	39.212	-0.278	0.248
-599.069	-100.815	-0.347	0.085
-598.055	34.882	-0.169	0.148
-597.040	-116.712	0.072	0.013
-596.025	-68.179	-0.174	0.068
-595.011	615.150	-0.027	-0.068
-593.996	-46.401	-0.106	-0.052
-592.982	158.048	-0.201	-0.278
-591.967	6.561	0.034	-0.025
-590.952	-34.182	0.147	-0.081
-589.938	-113.885	0.470	-0.091
-588.923	-200.000	0.005	0.159
-587.909	800.000	-0.013	0.050
-586.894	-200.000	0.212	0.000
-585.879	-180.439	-0.319	-0.007
-584.865	-200.000	-0.056	0.365
-583.850	-28.747	-0.169	0.097
-582.836	-141.724	-0.413	0.041
-581.821	-62.346	-0.111	0.046
-580.806	800.000	-0.046	0.147
-579.792	161.561	-0.250	0.349
-578.777	5.548	0.157	0.115
-577.763	163.293	-0.062	0.087
-576.748	96.976	0.294	-0.336
-575.733	136.025	-0.182	-0.237
-574.719	-130.649	0.540	0.073
-573.704	-141.347	-0.162	-0.016
-572.690	-116.939	0.213	-0.039
-571.675	61.055	0.109	0.108
-570.661	-145.076	-0.046	-0.004
-569.646	457.053	-0.019	-0.042
-568.631	562.752	-0.050	0.120
-567.617	800.000	0.027	-0.095
-566.602	-102.709	-0.355	0.084
-565.588	-43.024	-0.158	0.080
-564.573	36.468	0.183	0.161
-563.558	-111.798	-0.234	-0.047
-562.544	400.454	0.115	-0.240
-561.529	-117.138	0.309	0.056
-560.515	-200.000	0.050	0.280
-559.500	-200.000	-0.014	-0.077
-558.485	800.000	0.017	-0.073
-557.471	184.142	0.044	-0.065
-556.456	166.653	0.049	-0.069
-555.442	-46.812	-0.126	0.061
-554.427	-200.000	0.024	-0.210
-553.412	-119.893	0.388	-0.066
-552.398	36.863	0.073	-0.065
-551.383	260.503	-0.087	0.149
-550.369	110.153	-0.042	-0.050
-549.354	-107.444	-0.057	-0.012
-548.339	-146.824	-0.109	-0.009
-547.325	-200.000	-0.026	0.229
-546.310	106.866	0.274	-0.323
-545.296	593.077	0.039	0.096
-544.281	-56.318	-0.333	0.147
-543.266	-98.198	0.208	0.053
-542.252	800.000	0.046	-0.194
-541.237	800.000	-0.099	-0.283
-540.223	-57.909	-0.261	-0.114
-539.208	-200.000	-0.060	-0.467
-538.193	-1.174	0.142	-0.100
-537.179	-200.000	0.010	0.188
-536.164	-114.293	-0.240	0.046
-535.150	-56.886	0.430	-0.189
-534.135	-137.434	-0.250	0.028
-533.121	287.943	0.037	0.067
-532.106	-200.000	-0.007	0.362
-531.091	-77.130	0.148	-0.051
-530.077	30.398	-0.064	0.054
-529.062	135.158	0.243	-0.314
-528.048	800.000	-0.046	-0.158
-527.033	-9.029	0.145	-0.096
-526.018	6.603	0.329	0.244
-525.004	-108.252	-0.313	-0.067
-523.989	121.567	-0.282	-0.349
-522.975	268.890	-0.214	-0.373
-521.960	12.783	-0.086	0.066
-520.945	154.697	0.199	0.272
-519.931	-141.817	-0.323	0.032
-518.916	19.365	0.091	0.072
-517.902	-200.000	-0.005	-0.042
-516.887	-200.000	0.015	0.066
-515.872	800.000	0.033	0.138
-514.858	-200.000	-0.025	0.279
-513.843	-200.000	-0.001	-0.043
-512.829	202.622	0.042	-0.064
-511.814	-200.000	0.013	-0.139
-510.799	-26.138	0.292	-0.170
-509.785	-8.221	-0.347	0.233
-508.770	322.094	-0.091	0.171
-507.756	147.344	0.145	0.195
-506.741	-66.401	-0.150	0.059
-505.726	103.369	0.237	-0.276
-504.712	-60.999	0.260	0.109
-503.697	588.542	0.083	0.203
-502.683	60.930	-0.212	-0.209
-501.668	-200.000	0.025	0.144
-500.653	-28.001	0.247	-0.142
-499.639	-200.000	0.026	-0.196
-498.624	75.129	-0.043	0.045
-497.610	471.920	0.064	-0.143
-496.595	284.093	0.048	-0.085
-495.581	54.781	-0.150	0.143
-494.566	-185.212	-0.283	0.004
-493.551	10.114	-0.064	0.048
-492.537	-82.606	0.142	-0.046
-491.522	800.000	-0.006	-0.024
-490.508	800.000	0.095	-0.274
-489.493	-200.000	0.008	-0.179
-488.478	0.481	0.221	0.157
-487.464	-200.000	-0.041	0.259
-486.449	-51.058	-0.079	-0.037
-485.435	35.703	-0.017	0.015
-484.420	179.840	-0.184	-0.268
-483.405	-105.980	0.178	-0.040
-482.391	-200.000	-0.011	0.167
-481.376	15.736	-0.101	-0.079
-480.362	500.394	0.159	0.365
-479.347	14.682	0.205	-0.159
-478.332	800.000	-0.008	-0.023
-477.318	177.145	-0.110	0.159
-476.303	534.048	-0.117	0.275
-475.289	66.634	0.177	-0.179
-474.274	54.812	0.099	0.095
-473.259	36.428	-0.176	0.154
-472.245	-84.126	-0.132	-0.042
-471.230	326.848	-0.085	0.162
-470.216	-62.668	0.317	0.130
-469.201	12.100	0.180	-0.138
-468.186	-200.000	-0.009	-0.063
-467.172	721.574	0.106	0.280
-466.157	-200.000	-0.006	0.167
-465.143	-52.891	-0.215	-0.098
-464.128	16.038	0.108	0.084
-463.113	403.074	-0.134	-0.279
-462.099	405.973	-0.201	-0.422
-461.084	800.000	-0.106	0.366
-460.070	-112.787	-0.397	-0.078
-459.055	174.539	0.130	-0.186
-458.040	800.000	0.095	0.296
-457.026	115.914	0.070	0.085
-456.011	-162.221	0.025	0.001
-454.997	800.000	-0.046	0.160
-453.982	-115.243	-0.242	-0.045
-452.968	-200.000	-0.025	0.178
-451.953	121.136	-0.056	0.069
-450.938	-200.000	0.045	0.215
-449.924	-152.912	-0.422	-0.030
-448.909	-149.691	0.177	0.014
-447.895	-62.936	-0.188	-0.077
-446.880	-11.252	0.089	0.058
-445.865	-55.042	-0.381	0.170
-444.851	800.000	0.093	-0.311
-443.836	194.774	0.229	-0.345
-442.822	114.024	-0.169	0.204
-441.807	-75.918	0.062	-0.022
-440.792	-200.000	0.029	-0.156
-439.778	800.000	-0.079	-0.262
-438.763	-97.982	-0.357	0.091
-437.749	800.000	-0.051	0.185
-436.734	380.145	0.242	-0.491
-435.719	-69.695	-0.430	-0.163
-434.705	104.627	-0.094	-0.110
-433.690	800.000	-0.052	-0.172
-432.676	105.169	0.056	0.065
-431.661	-145.106	-0.026	-0.002
-430.646	-200.000	-0.007	0.077
-429.632	-200.000	0.005	-0.037
-428.617	800.000	-0.071	-0.221
-427.603	-105.926	0.344	-0.077
-426.588	44.847	-0.190	0.173
-425.573	-14.301	0.034	0.022
-424.559	-200.000	0.013	-0.111
-423.544	-16.220	-0.190	0.120
-422.530	52.089	0.202	-0.191
-421.515	800.000	-0.044	0.176
-420.500	-200.000	-0.036	-0.326
-419.486	-87.090	0.301	0.091
-418.471	-156.868	-0.139	0.008
-417.457	39.695	-0.222	-0.197
-416.442	65.190	-0.278	0.278
-415.428	-51.243	-0.243	-0.112
-414.413	800.000	-0.032	0.136
-413.398	45.603	0.021	0.019
-412.384	300.390	-0.199	0.363
-411.369	315.956	0.128	0.240
-410.355	-71.659	0.187	0.069
-409.340	3.655	0.194	-0.140
-408.325	615.676	-0.131	-0.326
-407.311	467.924	-0.034	-0.077
-406.296	-131.030	0.102	-0.014
-405.282	800.000	0.053	0.149
-404.267	-7.431	-0.117	0.078
-403.252	-130.785	0.418	-0.056
-402.238	33.155	0.110	-0.095
-401.223	800.000	-0.090	-0.351
-400.209	32.665	0.171	0.147
-399.194	800.000	-0.128	0.364
-398.179	-200.000	0.015	0.299
-397.165	249.768	0.142	0.239
-396.150	97.426	0.223	0.254
-395.136	-200.000	-0.030	0.226
-394.121	287.299	-0.145	-0.259
-393.106	-5.320	0.043	0.029
-392.092	83.666	-0.222	-0.239
-391.077	-200.000	0.015	-0.150
-390.063	-103.119	0.196	0.046
-389.048	53.334	0.330	0.313
-388.033	-170.332	0.179	0.006
-387.019	-61.093	-0.340	0.142
-386.004	23.729	-0.258	0.211
-384.990	-200.000	0.027	-0.169
-383.975	726.358	0.099	0.262
-382.960	259.536	0.170	-0.291
-381.946	178.585	-0.012	-0.017
-380.931	-200.000	0.027	-0.260
-379.917	-14.584	0.197	-0.125
-378.902	-152.603	-0.452	0.032
-377.888	-20.638	0.264	0.160
-376.873	-82.235	0.052	-0.017
-375.858	-78.628	0.132	0.044
-374.844	800.000	-0.081	-0.252
-373.829	177.102	-0.128	-0.184
-372.815	40.095	0.032	-0.028
-371.800	-175.536	0.061	-0.002
-370.785	-80.111	0.045	-0.015
-369.771	-167.696	-0.178	0.007
-368.756	-33.792	-0.135	-0.073
-367.742	-37.810	-0.144	-0.076
-366.727	-24.547	0.194	0.114
-365.712	373.321	-0.098	-0.197
-364.698	-54.929	-0.113	-0.050
-363.683	63.714	0.173	0.171
-362.669	222.529	0.033	-0.053
-361.654	-72.379	0.125	-0.046
-360.639	-200.000	0.042	-0.356
-359.625	-67.542	0.192	-0.074
-358.610	93.979	-0.060	-0.067
-357.596	-47.583	0.039	0.019
-356.581	695.719	-0.073	-0.190
-355.566	-200.000	-0.018	-0.081
-354.552	761.905	0.043	0.115
-353.537	139.082	0.046	-0.060
-352.523	-64.409	-0.143	-0.057
-351.508	-195.112	0.081	-0.001
-350.493	115.770	-0.196	-0.237
-349.479	37.004	0.145	-0.127
-348.464	-119.440	-0.363	0.062
-347.450	582.027	-0.168	0.408
-346.435	59.013	-0.188	-0.183
-345.420	800.000	0.034	0.100
-344.406	-200.000	0.031	-0.231
-343.391	564.646	-0.064	-0.153
-342.377	221.325	-0.121	-0.193
-341.362	800.000	0.052	-0.188
-340.348	800.000	0.077	0.247
-339.333	103.874	-0.050	0.058
-338.318	163.426	0.307	0.426
-337.304	71.145	0.116	0.119
-336.289	255.663	0.209	0.354
-335.275	91.897	-0.063	0.070
-334.260	800.000	-0.046	0.141
-333.245	-62.481	0.235	-0.096
-332.231	-168.068	-0.048	0.002
-331.216	0.577	0.096	-0.068
-330.202	-200.000	-0.048	0.220
-329.187	4.139	0.168	-0.121
-328.172	-57.410	0.228	0.099
-327.158	367.082	-0.161	0.321
-326.143	-47.749	-0.384	0.184
-325.129	67.305	0.231	0.233
-324.114	664.120	0.112	0.286
-323.099	-164.201	0.297	-0.014
-322.085	24.003	-0.231	-0.188
-321.070	-36.642	0.103	0.055
-320.056	-85.838	0.167	0.051
-319.041	-178.348	-0.091	-0.002
-318.026	432.547	0.131	-0.280
-317.012	84.905	0.167	-0.181
-315.997	-200.000	-0.021	-0.127
-314.983	-106.958	0.172	-0.038
-313.968	176.467	0.146	-0.210
-312.953	365.918	-0.067	-0.132
-311.939	533.657	-0.078	0.182
-310.924	58.345	-0.302	-0.292
-309.910	-181.382	0.509	-0.010
-308.895	-200.000	0.041	0.348
-307.880	-118.211	-0.325	-0.057
-306.866	776.874	-0.076	-0.206
-305.851	-91.696	-0.278	-0.078
-304.837	-200.000	0.027	-0.165
-303.822	14.058	0.248	0.190
-302.807	-57.507	-0.142	-0.061
-301.793	15.455	-0.322	-0.249
-300.778	-116.050	0.230	0.042
-299.764	-200.000	0.011	0.179
-298.749	-145.221	0.140	-0.012
-297.735	39.756	0.116	0.102
-296.720	-117.922	-0.202	-0.036
-295.705	102.689	-0.070	0.081
-294.691	-128.863	0.094	-0.013
-293.676	-158.705	-0.332	0.019
-292.662	85.576	-0.043	0.047
-291.647	-82.862	0.183	-0.058
-290.632	147.774	0.206	-0.274
-289.618	16.667	-0.220	0.171
-288.603	51.323	0.167	0.156
-287.589	26.590	-0.061	0.050
-286.574	340.225	-0.114	-0.219
-285.559	-200.000	-0.010	0.068
-284.545	15.055	-0.205	-0.158
-283.530	-200.000	-0.062	-0.390
-282.516	-59.681	0.209	-0.088
-281.501	-71.520	-0.184	0.068
-280.486	800.000	-0.066	-0.231
-279.472	-51.413	-0.410	-0.189
-278.457	-10.798	0.348	0.226
-277.443	800.000	0.043	0.134
-276.428	136.353	0.180	0.231
-275.413	232.264	0.071	-0.115
-274.399	72.768	0.293	-0.301
-273.384	-82.180	0.362	0.116
-272.370	26.893	-0.326	-0.269
-271.355	156.387	0.197	-0.267
-270.340	-58.883	-0.325	-0.139
-269.326	126.689	-0.095	-0.119
-268.311	90.771	-0.085	0.094
-267.297	-200.000	-0.009	0.234
-266.282	234.006	0.111	0.180
-265.267	-200.000	-0.043	-0.212
-264.253	-106.702	0.206	-0.045
-263.238	-126.560	0.069	0.010
-262.224	170.380	0.103	-0.145
-261.209	303.981	0.079	-0.143
-260.195	-138.498	-0.326	-0.035
-259.180	-21.398	0.171	0.103
-258.165	-153.632	-0.275	-0.019
-257.151	170.981	0.091	-0.128
-256.136	-36.041	-0.157	-0.083
-255.122	-74.742	0.202	0.071
-254.107	104.016	0.100	0.115
-253.092	-58.966	0.186	0.079
-252.078	-150.653	-0.366	-0.027
-251.063	112.305	0.274	-0.326
-250.049	145.250	-0.179	-0.236
-249.034	33.309	0.189	-0.161
-248.019	-200.000	0.022	0.174
-247.005	-125.961	-0.214	0.032
-245.990	78.873	0.179	-0.188
-244.976	-63.728	-0.275	-0.111
-243.961	420.094	0.086	-0.182
-242.946	-200.000	-0.039	-0.318
-241.932	429.029	-0.070	0.149
-240.917	-29.885	0.165	-0.092
-239.903	-5.282	-0.320	0.216
-238.888	270.540	0.057	-0.099
-237.873	50.651	-0.214	0.199
-236.859	-46.801	-0.168	0.081
-235.844	-200.000	0.054	0.262
-234.830	124.247	0.212	-0.262
-233.815	-146.552	-0.279	0.024
-232.800	-14.182	0.151	-0.096
-231.786	-27.411	0.280	-0.160
-230.771	-81.094	-0.179	0.058
-229.757	-27.864	-0.130	-0.074
-228.742	99.364	0.189	0.215
-227.727	-170.845	-0.343	0.012
-226.713	-18.090	0.124	-0.076
-225.698	120.826	0.098	0.120
-224.684	-136.201	0.173	0.020
-223.669	-116.975	0.115	-0.021
-222.655	-200.000	-0.010	-0.099
-221.640	-200.000	0.057	0.277
-220.625	-60.615	-0.255	-0.106
-219.611	-109.756	0.505	-0.104
-218.596	800.000	-0.014	0.051
-217.582	-200.000	0.096	-0.448
-216.567	800.000	0.025	0.102
-215.552	213.924	0.096	0.149
-214.538	-114.818	-0.226	0.042
-213.523	242.007	0.021	0.035
-212.509	800.000	-0.074	-0.275
-211.494	-102.557	0.293	-0.069
-210.479	77.902	0.119	-0.125
-209.465	-65.680	0.377	-0.148
-208.450	150.469	0.214	0.285
-207.436	395.513	-0.101	-0.208
-206.421	-200.000	0.006	0.192
-205.406	-15.345	-0.095	-0.059
-204.392	-104.010	-0.105	-0.024
-203.377	-65.728	-0.116	0.046
-202.363	-107.369	0.357	-0.077
-201.348	-33.339	-0.174	0.095
-200.333	-47.197	0.231	0.111
-199.319	-19.644	-0.241	-0.146
-198.304	-124.574	0.230	0.035
-197.290	-200.000	0.005	0.066
-196.275	-200.000	0.038	0.351
-195.260	-33.163	-0.205	0.112
-194.246	-81.969	-0.268	-0.086
-193.231	-13.420	0.319	0.203
-192.217	-65.119	0.311	0.123
-191.202	89.694	-0.213	0.233
-190.187	-151.251	-0.057	0.004
-189.173	-200.000	0.296	-0.001
-188.158	-97.211	-0.358	-0.092
-187.144	235.209	-0.252	-0.408
-186.129	-200.000	-0.023	0.232
-185.114	-155.180	0.239	-0.015
-184.100	281.352	0.091	-0.160
-183.085	-106.258	0.475	-0.105
-182.071	-200.000	0.041	-0.447
-181.056	-133.802	0.222	0.027
-180.042	415.059	-0.107	0.223
-179.027	121.132	-0.091	-0.111
-178.012	71.216	0.227	0.231
-176.998	-118.563	-0.166	0.029
-175.983	-11.595	-0.130	-0.084
-174.969	132.107	0.172	0.217
-173.954	800.000	0.043	0.184
-172.939	-200.000	-0.066	0.334
-171.925	78.991	0.218	-0.229
-170.910	-31.184	0.172	0.095
-169.896	-26.168	-0.185	-0.107
-168.881	-121.358	0.375	-0.061
-167.866	305.088	0.118	0.215
-166.852	-83.794	-0.178	-0.056
-165.837	-61.705	0.177	0.073
-164.823	-51.621	0.128	-0.058
-163.808	14.128	0.132	0.101
-162.793	-7.523	-0.134	0.089
-161.779	49.250	-0.070	-0.065
-160.764	174.104	0.172	0.244
-159.750	-68.950	-0.172	0.065
-158.735	-200.000	0.025	0.187
-157.720	-74.904	-0.018	0.006
-156.706	-200.000	0.009	0.131
-155.691	138.756	0.186	0.240
-154.677	27.639	-0.270	0.222
-153.662	-64.655	-0.084	0.033
-152.647	209.828	-0.207	-0.318
-151.633	205.236	0.219	0.333
-150.618	467.699	0.071	0.157
-149.604	-135.290	-0.132	0.015
-148.589	229.942	0.118	-0.189
-147.574	138.098	-0.040	-0.051
-146.560	-23.297	0.232	0.137
-145.545	-76.339	-0.050	0.017
-144.531	-200.000	0.180	0.000
-143.516	-152.898	-0.245	0.017
-142.502	496.140	0.101	-0.227
-141.487	-200.000	0.053	-0.308
-140.472	184.791	0.049	0.071
-139.458	542.133	0.089	0.209
-138.443	-200.000	0.002	-0.163
-137.429	-66.573	0.171	0.066
-136.414	512.202	-0.067	-0.152
-135.399	800.000	0.012	-0.045
-134.385	225.612	-0.065	0.104
-133.370	300.912	0.085	0.153
-132.356	-155.263	-0.172	-0.011
-131.341	42.066	0.132	0.118
-130.326	-200.000	-0.012	-0.086
-129.312	-31.660	0.163	-0.090
-128.297	-45.046	0.202	0.098
-127.283	-96.727	-0.124	-0.032
-126.268	526.370	0.081	0.188
-125.253	519.490	0.018	-0.041
-124.239	800.000	-0.025	-0.072
-123.224	45.047	-0.154	-0.139
-122.210	104.416	0.109	-0.126
