DTS Sentinel unit serial number:	SN413079Multiplexer serial number:	ORYXHardware model number:	OX4-SRSoftware version number:	ORYX F/W v4.00 Oryx Data Collector v3.7.2.0data status	okinstallation	princeton_trtdifferential loss correction	single-endedforward channel	channel 3reverse channel	N/Adate	2019/09/10time	17:50:11forward acquisition time	60.00reverse acquisition time	0.00gamma	496.2192k internal	0.2300k external	0.2300temperature offset calibration	0.9914default loss term (dB/km)	0.3790temperature slope calibration	1.0000multiplexer offset coefficient	1.0000multiplexer slope coefficient	1.0000fibre end	0.00T internal ref (°C)	37.44T ext. ref 1 (°C)	-0.33T ext. ref 2 (°C)	30.15length (m)	temperature (°C)	Stokes	anti-Stokes-747.200	65.976	0.215	0.223
-746.185	30.722	-0.173	0.151
-745.171	-163.652	0.092	0.004
-744.156	800.000	0.068	0.269
-743.142	800.000	-0.038	0.118
-742.127	-55.935	-0.094	0.043
-741.112	-200.000	-0.090	0.404
-740.098	-200.000	-0.036	0.353
-739.083	230.921	0.140	0.234
-738.069	-85.940	-0.173	0.055
-737.054	-66.783	0.560	0.226
-736.039	195.283	0.099	-0.154
-735.025	205.507	0.136	0.216
-734.010	555.127	0.162	-0.397
-732.996	800.000	-0.079	0.230
-731.981	23.710	-0.208	-0.175
-730.966	50.292	-0.222	-0.214
-729.952	-200.000	0.024	0.278
-728.937	-112.174	-0.259	-0.053
-727.923	-137.426	-0.271	0.031
-726.908	422.270	0.165	-0.361
-725.894	10.589	0.096	0.075
-724.879	800.000	-0.088	-0.289
-723.864	-200.000	0.013	-0.310
-722.850	39.958	-0.266	-0.244
-721.835	44.044	-0.288	-0.269
-720.821	68.213	-0.146	-0.153
-719.806	-79.434	0.344	0.119
-718.791	-80.849	-0.423	-0.143
-717.777	-59.247	-0.240	-0.105
-716.762	65.322	0.211	-0.218
-715.748	255.861	0.094	0.164
-714.733	-66.967	-0.241	0.097
-713.718	4.350	-0.390	0.291
-712.704	-200.000	0.052	0.380
-711.689	-120.965	-0.283	0.048
-710.675	-17.817	-0.215	0.138
-709.660	-200.000	0.023	-0.110
-708.645	-200.000	-0.070	0.441
-707.631	337.458	-0.017	0.034
-706.616	229.769	-0.023	0.038
-705.602	800.000	-0.016	0.058
-704.587	800.000	-0.083	-0.245
-703.572	46.145	-0.133	-0.126
-702.558	-177.736	0.180	0.004
-701.543	-137.711	-0.217	0.025
-700.529	-117.111	-0.214	0.040
-699.514	800.000	-0.067	-0.236
-698.499	236.764	-0.172	-0.290
-697.485	-200.000	-0.282	-0.001
-696.470	-200.000	0.022	-0.263
-695.456	164.558	0.137	0.197
-694.441	-200.000	0.009	-0.166
-693.426	-200.000	0.032	-0.254
-692.412	-81.172	-0.124	0.042
-691.397	310.019	0.010	-0.020
-690.383	-2.649	-0.188	0.134
-689.368	800.000	-0.049	-0.214
-688.354	-143.243	-0.250	0.024
-687.339	-200.000	0.069	-0.381
-686.324	151.696	0.040	0.055
-685.310	465.146	-0.103	0.235
-684.295	-156.259	0.184	-0.012
-683.281	-40.710	-0.219	-0.115
-682.266	-72.991	-0.185	0.069
-681.251	-200.000	-0.042	0.192
-680.237	800.000	-0.067	0.247
-679.222	149.794	0.115	-0.159
-678.208	339.610	0.057	-0.113
-677.193	19.438	-0.222	-0.182
-676.178	67.588	-0.145	-0.150
-675.164	-30.652	-0.339	-0.195
-674.149	800.000	-0.063	0.197
-673.135	-200.000	0.040	-0.206
-672.120	-39.809	0.230	-0.122
-671.105	-17.848	0.263	0.168
-670.091	43.276	-0.042	-0.039
-669.076	-200.000	-0.021	-0.129
-668.062	42.637	0.020	0.018
-667.047	-93.649	-0.184	-0.052
-666.032	-50.966	-0.123	0.059
-665.018	-200.000	0.016	-0.086
-664.003	118.394	0.175	-0.219
-662.989	-200.000	-0.016	0.310
-661.974	-105.923	-0.195	0.045
-660.959	-135.164	-0.291	-0.036
-659.945	583.694	0.093	0.233
-658.930	342.461	-0.117	-0.233
-657.916	116.864	0.073	0.091
-656.901	-153.362	-0.062	0.004
-655.886	-200.000	-0.012	-0.180
-654.872	408.367	0.160	0.343
-653.857	43.032	-0.173	0.161
-652.843	101.259	-0.155	0.183
-651.828	-93.756	0.290	-0.081
-650.814	-43.221	-0.125	-0.064
-649.799	800.000	-0.066	0.293
-648.784	124.795	-0.243	0.311
-647.770	800.000	0.089	0.346
-646.755	-158.512	0.415	-0.024
-645.741	-200.000	-0.055	-0.311
-644.726	332.480	0.034	-0.066
-643.711	-24.260	-0.023	-0.014
-642.697	128.542	-0.081	0.105
-641.682	19.042	0.113	-0.092
-640.668	-98.154	0.418	-0.109
-639.653	65.579	0.137	-0.141
-638.638	110.435	0.145	0.177
-637.624	-200.000	-0.020	0.184
-636.609	-12.344	0.369	0.245
-635.595	-200.000	0.057	-0.537
-634.580	686.375	-0.053	-0.140
-633.565	-93.260	-0.267	0.075
-632.551	-200.000	0.001	-0.039
-631.536	-200.000	0.001	0.096
-630.522	470.890	-0.135	-0.309
-629.507	3.411	0.203	-0.150
-628.492	248.381	-0.044	0.075
-627.478	-200.000	-0.086	-0.428
-626.463	61.521	-0.270	-0.273
-625.449	-13.259	0.090	0.060
-624.434	1.255	-0.202	-0.147
-623.419	50.160	-0.276	0.265
-622.405	483.765	0.079	0.181
-621.390	681.347	0.043	0.114
-620.376	-7.553	-0.482	0.331
-619.361	345.963	0.111	0.222
-618.346	-200.000	-0.026	-0.247
-617.332	16.128	-0.163	0.130
-616.317	-200.000	-0.023	0.478
-615.303	-94.681	-0.024	0.007
-614.288	533.290	0.087	0.210
-613.273	188.852	-0.079	0.121
-612.259	-71.450	-0.108	-0.041
-611.244	720.295	-0.099	0.266
-610.230	-200.000	0.045	0.280
-609.215	105.313	-0.073	0.088
-608.201	71.024	0.086	-0.091
-607.186	-91.569	0.325	0.094
-606.171	4.788	-0.115	-0.086
-605.157	-149.866	0.263	0.021
-604.142	-200.000	0.082	-0.385
-603.128	-1.194	-0.252	0.181
-602.113	-68.161	-0.156	0.062
-601.098	800.000	0.037	-0.111
-600.084	-114.602	-0.060	-0.012
-599.069	-4.461	0.093	0.065
-598.055	18.365	-0.135	0.109
-597.040	800.000	-0.016	0.066
-596.025	77.096	-0.203	0.219
-595.011	-73.177	0.123	0.046
-593.996	-22.315	0.194	-0.119
-592.982	154.151	-0.143	0.198
-591.967	28.722	0.200	0.172
-590.952	-200.000	-0.029	-0.263
-589.938	-200.000	-0.014	-0.117
-588.923	3.654	-0.019	-0.014
-587.909	249.033	-0.044	-0.075
-586.894	164.086	0.072	-0.103
-585.879	43.989	0.025	-0.024
-584.865	708.706	0.054	0.144
-583.850	-193.286	0.374	-0.003
-582.836	800.000	0.041	0.153
-581.821	-200.000	0.053	-0.326
-580.806	63.416	-0.078	0.079
-579.792	-89.606	0.137	0.041
-578.777	158.121	0.066	0.093
-577.763	-101.222	-0.222	-0.055
-576.748	157.049	-0.203	-0.285
-575.733	-104.339	-0.146	-0.034
-574.719	-88.503	0.082	-0.025
-573.704	-39.523	0.155	-0.082
-572.690	-16.872	-0.191	-0.123
-571.675	11.333	0.033	-0.026
-570.661	-60.912	-0.391	0.167
-569.646	4.992	-0.145	-0.108
-568.631	800.000	0.049	0.182
-567.617	-100.292	-0.079	-0.020
-566.602	-200.000	-0.026	0.205
-565.588	-168.339	-0.269	0.010
-564.573	-200.000	0.021	-0.183
-563.558	144.978	-0.243	0.329
-562.544	67.452	-0.197	0.204
-561.529	196.516	-0.172	0.266
-560.515	-200.000	-0.041	0.194
-559.500	19.718	0.149	-0.122
-558.485	-137.506	-0.201	-0.023
-557.471	-200.000	0.005	0.139
-556.456	-26.040	-0.365	-0.217
-555.442	16.490	-0.293	-0.235
-554.427	-79.287	-0.174	-0.060
-553.412	72.065	-0.128	0.135
-552.398	237.362	-0.085	0.143
-551.383	-200.000	0.067	-0.313
-550.369	-200.000	-0.039	-0.235
-549.354	800.000	-0.071	-0.263
-548.339	45.814	0.159	-0.149
-547.325	-200.000	0.036	0.336
-546.310	70.071	-0.083	-0.087
-545.296	-200.000	-0.037	0.227
-544.281	-200.000	0.007	0.248
-543.266	-69.377	-0.366	-0.142
-542.252	-200.000	-0.007	0.034
-541.237	-200.000	-0.024	-0.149
-540.223	-81.229	-0.167	0.056
-539.208	-200.000	-0.015	0.241
-538.193	-87.595	-0.189	0.058
-537.179	-200.000	-0.007	-0.173
-536.164	60.583	0.165	-0.165
-535.150	-109.212	-0.259	-0.056
-534.135	800.000	0.051	-0.184
-533.121	135.395	0.143	0.187
-532.106	283.700	0.067	-0.122
-531.091	-79.346	-0.140	-0.048
-530.077	575.223	-0.038	-0.094
-529.062	81.804	-0.271	0.296
-528.048	37.534	-0.328	-0.294
-527.033	258.456	0.068	0.119
-526.018	800.000	-0.072	-0.219
-525.004	-7.905	0.170	0.116
-523.989	-200.000	-0.000	-0.222
-522.975	-14.973	0.065	0.042
-521.960	-45.638	-0.175	0.088
-520.945	303.073	-0.038	0.070
-519.931	-200.000	-0.004	0.023
-518.916	703.148	-0.046	0.122
-517.902	-98.474	0.211	0.055
-516.887	28.173	0.058	-0.049
-515.872	39.018	0.050	-0.045
-514.858	57.068	0.073	-0.072
-513.843	-200.000	-0.012	0.400
-512.829	-30.308	-0.046	0.026
-511.814	-169.770	0.159	-0.006
-510.799	93.290	0.202	0.231
-509.785	800.000	0.093	-0.282
-508.770	-200.000	0.057	-0.291
-507.756	145.488	0.100	-0.135
-506.741	-200.000	-0.008	0.251
-505.726	-85.747	-0.169	-0.053
-504.712	-161.497	0.258	-0.013
-503.697	-74.310	0.367	0.134
-502.683	-9.613	0.023	-0.015
-501.668	264.325	0.059	0.103
-500.653	267.364	0.172	0.304
-499.639	3.844	0.209	-0.154
-498.624	-114.440	0.191	-0.037
-497.610	245.622	-0.062	-0.105
-496.595	-102.474	0.013	-0.003
-495.581	259.227	-0.109	-0.190
-494.566	4.127	-0.283	-0.209
-493.551	186.312	-0.068	-0.102
-492.537	800.000	-0.044	0.138
-491.522	-200.000	0.018	-0.286
-490.508	132.964	0.454	-0.592
-489.493	-200.000	0.017	0.233
-488.478	-67.015	0.078	0.031
-487.464	20.892	-0.343	-0.281
-486.449	800.000	0.063	-0.238
-485.435	289.537	-0.066	0.122
-484.420	-26.368	-0.151	0.089
-483.405	-112.093	0.334	0.068
-482.391	-65.602	-0.042	0.017
-481.376	-134.447	0.139	0.017
-480.362	21.796	-0.262	0.216
-479.347	23.541	-0.134	-0.111
-478.332	337.509	-0.143	0.280
-477.318	173.141	0.058	0.085
-476.303	289.845	0.080	-0.146
-475.289	-37.408	0.132	0.071
-474.274	24.201	-0.109	0.090
-473.259	105.362	-0.153	0.182
-472.245	12.157	-0.201	0.156
-471.230	800.000	0.116	-0.365
-470.216	168.229	0.062	0.089
-469.201	-27.035	0.154	-0.091
-468.186	43.752	-0.275	0.254
-467.172	-200.000	0.050	0.241
-466.157	-183.191	0.304	-0.005
-465.143	9.190	0.276	-0.211
-464.128	240.954	0.144	0.242
-463.113	-58.595	0.240	0.105
-462.099	-126.467	0.078	-0.012
-461.084	-200.000	-0.003	-0.160
-460.070	37.922	0.175	0.157
-459.055	800.000	0.122	-0.343
-458.040	-84.152	-0.364	0.117
-457.026	-200.000	0.000	0.012
-456.011	-200.000	-0.008	-0.169
-454.997	103.988	0.306	-0.363
-453.982	-200.000	0.014	0.061
-452.968	-200.000	0.058	0.372
-451.953	800.000	-0.052	0.205
-450.938	-6.848	0.181	-0.124
-449.924	0.722	0.102	-0.073
-448.909	-200.000	0.004	-0.141
-447.895	47.112	0.290	-0.272
-446.880	74.801	0.114	0.121
-445.865	-115.603	-0.163	0.031
-444.851	47.131	-0.082	0.077
-443.836	-74.138	0.110	0.040
-442.822	33.635	-0.228	0.200
-441.807	-19.311	-0.058	-0.036
-440.792	-48.444	0.070	0.034
-439.778	126.930	-0.142	0.181
-438.763	-63.421	0.197	-0.082
-437.749	314.050	-0.061	0.115
-436.734	113.249	-0.099	-0.121
-435.719	51.764	-0.191	-0.183
-434.705	-200.000	-0.034	-0.222
-433.690	7.217	0.108	-0.082
-432.676	171.180	-0.201	0.290
-431.661	-200.000	-0.046	0.362
-430.646	-5.272	-0.296	0.205
-429.632	289.258	0.067	0.123
-428.617	800.000	-0.015	0.055
-427.603	-83.507	-0.343	0.111
-426.588	800.000	0.072	0.262
-425.573	198.067	-0.025	-0.038
-424.559	137.817	0.290	-0.382
-423.544	-66.923	0.238	-0.095
-422.530	-142.394	-0.362	0.036
-421.515	8.900	-0.188	-0.143
-420.500	-160.840	-0.106	-0.006
-419.486	313.436	0.172	-0.326
-418.471	25.606	0.195	-0.163
-417.457	-176.569	-0.163	-0.004
-416.442	-126.758	-0.238	-0.035
-415.428	-44.343	-0.159	-0.080
-414.413	137.982	-0.138	-0.182
-413.398	175.311	0.219	0.319
-412.384	237.786	0.168	0.280
-411.369	-92.691	0.175	-0.049
-410.355	-57.743	0.048	-0.021
-409.340	283.381	-0.099	-0.180
-408.325	363.800	-0.122	0.247
-407.311	-37.746	-0.215	0.115
-406.296	-200.000	0.026	-0.125
-405.282	800.000	-0.021	0.080
-404.267	-68.113	0.546	0.214
-403.252	90.709	-0.245	-0.277
-402.238	158.035	-0.048	0.067
-401.223	745.147	-0.034	-0.091
-400.209	-200.000	-0.042	0.328
-399.194	800.000	-0.039	0.114
-398.179	-26.049	0.075	0.044
-397.165	263.513	-0.056	0.097
-396.150	39.285	0.189	-0.170
-395.136	595.726	-0.102	-0.254
-394.121	-110.438	0.137	0.029
-393.106	554.232	-0.085	0.206
-392.092	71.441	-0.057	-0.059
-391.077	-56.350	-0.334	-0.149
-390.063	-32.214	-0.079	-0.044
-389.048	77.264	-0.124	-0.132
-388.033	124.042	-0.125	0.158
-387.019	800.000	-0.049	0.185
-386.004	-23.432	-0.158	-0.096
-384.990	53.949	0.076	-0.073
-383.975	111.594	0.047	-0.057
-382.960	-132.859	-0.291	0.037
-381.946	-185.478	-0.202	0.003
-380.931	-93.889	0.251	-0.069
-379.917	-200.000	-0.045	-0.350
-378.902	24.843	0.092	-0.076
-377.888	-51.397	0.267	0.126
-376.873	800.000	0.121	-0.476
-375.858	227.553	0.166	-0.272
-374.844	7.839	-0.342	-0.257
-373.829	-45.965	0.176	0.087
-372.815	-18.857	-0.094	-0.059
-371.800	-81.751	0.189	-0.062
-370.785	-184.007	-0.136	-0.002
-369.771	-128.698	0.119	0.017
-368.756	144.811	0.309	0.416
-367.742	-175.320	-0.087	-0.002
-366.727	-84.367	0.119	-0.038
-365.712	46.802	0.165	-0.154
-364.698	158.316	0.216	0.301
-363.683	-200.000	0.032	-0.176
-362.669	298.569	0.086	-0.158
-361.654	6.229	-0.237	-0.177
-360.639	238.376	0.129	0.216
-359.625	81.894	-0.267	0.291
-358.610	264.089	0.021	0.037
-357.596	105.196	-0.169	0.200
-356.581	-35.280	-0.244	-0.134
-355.566	148.612	-0.197	0.268
-354.552	800.000	0.031	-0.130
-353.537	168.494	0.100	0.143
-352.523	760.616	0.120	-0.327
-351.508	111.228	-0.143	-0.173
-350.493	221.336	0.137	-0.221
-349.479	-200.000	0.051	-0.272
-348.464	32.691	-0.248	0.216
-347.450	-25.184	0.152	-0.091
-346.435	800.000	-0.053	0.234
-345.420	-72.691	0.008	0.003
-344.406	-200.000	-0.003	-0.098
-343.391	-82.146	0.087	-0.029
-342.377	-112.354	-0.109	0.022
-341.362	331.401	-0.119	-0.230
-340.348	-106.839	0.060	0.013
-339.333	-109.874	0.254	-0.054
-338.318	800.000	0.037	0.133
-337.304	-55.002	-0.118	-0.053
-336.289	-200.000	-0.006	-0.148
-335.275	249.273	0.206	-0.351
-334.260	-2.408	0.246	-0.173
-333.245	800.000	-0.005	-0.016
-332.231	-200.000	-0.091	0.402
-331.216	-200.000	0.069	-0.506
-330.202	180.588	0.131	-0.193
-329.187	68.661	0.081	0.083
-328.172	100.185	-0.151	0.176
-327.158	110.552	-0.048	0.058
-326.143	-82.298	-0.237	0.077
-325.129	-27.259	-0.263	-0.154
-324.114	99.016	-0.084	-0.097
-323.099	21.327	-0.157	-0.128
-322.085	-72.836	0.099	-0.037
-321.070	434.623	-0.150	-0.328
-320.056	800.000	-0.056	0.238
-319.041	103.254	-0.184	0.217
-318.026	114.216	-0.276	-0.336
-317.012	-99.324	-0.150	-0.038
-315.997	567.347	0.093	0.226
-314.983	-15.431	-0.149	-0.096
-313.968	-25.509	0.328	-0.194
-312.953	50.465	-0.175	-0.166
-311.939	800.000	0.021	-0.079
-310.924	-55.335	0.174	0.078
-309.910	-90.849	-0.219	0.063
-308.895	-38.158	0.136	0.072
-307.880	221.427	0.079	0.128
-306.866	-118.606	0.137	-0.024
-305.851	-200.000	0.006	-0.142
-304.837	92.155	0.047	-0.054
-303.822	-95.433	0.207	-0.056
-302.807	-173.500	0.295	-0.009
-301.793	-64.600	-0.348	-0.142
-300.778	374.800	-0.122	-0.250
-299.764	42.212	0.227	0.207
-298.749	800.000	-0.078	0.303
-297.735	96.981	-0.073	0.084
-296.720	-94.851	-0.184	-0.050
-295.705	128.421	0.020	-0.025
-294.691	125.991	-0.231	-0.293
-293.676	104.495	0.091	-0.107
-292.662	-200.000	0.077	-0.526
-291.647	119.495	0.056	0.070
-290.632	-200.000	0.000	0.368
-289.618	246.433	-0.121	0.205
-288.603	800.000	0.044	-0.189
-287.589	-200.000	0.003	-0.092
-286.574	332.157	0.035	0.068
-285.559	800.000	-0.087	-0.252
-284.545	-49.826	0.188	-0.090
-283.530	-24.889	0.210	-0.125
-282.516	32.620	0.200	-0.173
-281.501	193.759	0.143	-0.217
-280.486	-129.802	0.462	0.064
-279.472	353.793	-0.044	0.087
-278.457	-123.943	-0.140	-0.022
-277.443	157.389	0.052	0.071
-276.428	-32.723	0.103	0.057
-275.413	77.468	0.065	-0.070
-274.399	429.645	0.073	-0.158
-273.384	89.650	0.229	0.256
-272.370	800.000	-0.079	0.269
-271.355	3.391	-0.212	-0.155
-270.340	379.158	0.289	0.592
-269.326	-200.000	0.044	0.249
-268.311	-200.000	0.041	-0.358
-267.297	800.000	-0.095	-0.397
-266.282	90.805	-0.019	-0.022
-265.267	-103.852	-0.217	0.051
-264.253	-43.104	0.399	0.202
-263.238	-200.000	0.002	-0.087
-262.224	446.084	-0.187	-0.411
-261.209	-200.000	0.015	0.238
-260.195	178.817	0.134	0.196
-259.180	164.342	0.089	-0.126
-258.165	160.335	-0.082	0.115
-257.151	-200.000	-0.056	0.298
-256.136	-200.000	-0.029	-0.133
-255.122	-19.499	0.110	0.068
-254.107	-121.381	-0.249	0.042
-253.092	-14.556	-0.126	0.081
-252.078	-128.087	0.417	0.060
-251.063	332.312	0.061	0.119
-250.049	-33.281	0.063	0.035
-249.034	146.213	0.124	0.166
-248.019	-200.000	0.051	0.340
-247.005	-177.746	0.107	-0.003
-245.990	-169.764	-0.320	0.012
-244.976	87.095	0.096	0.106
-243.961	-90.363	-0.255	0.074
-242.946	148.550	-0.198	-0.267
-241.932	95.686	-0.122	0.139
-240.917	-6.700	0.085	0.058
-239.903	127.328	-0.197	-0.250
-238.888	-200.000	-0.012	-0.098
-237.873	134.444	-0.232	-0.301
-236.859	800.000	0.068	0.253
-235.844	-200.000	-0.139	0.000
-234.830	319.950	0.122	0.232
-233.815	-75.170	-0.218	0.078
-232.800	800.000	0.135	-0.376
-231.786	-149.737	-0.170	0.013
-230.771	-59.595	0.299	-0.128
-229.757	-63.383	-0.428	0.176
-228.742	-200.000	-0.033	-0.155
-227.727	64.356	0.226	0.227
-226.713	800.000	0.046	-0.127
-225.698	-123.003	-0.186	0.030
-224.684	-109.989	0.470	-0.098
-223.669	307.559	0.113	-0.211
-222.655	-200.000	-0.062	-0.439
-221.640	800.000	0.099	0.374
-220.625	-200.000	-0.012	0.070
-219.611	-46.072	0.112	-0.055
-218.596	-87.163	-0.160	0.049
-217.582	6.851	0.160	-0.119
-216.567	38.022	0.318	-0.283
-215.552	39.628	-0.161	0.144
-214.538	33.122	0.076	0.066
-213.523	12.575	0.438	0.338
-212.509	269.076	-0.045	-0.079
-211.494	-72.820	0.346	0.127
-210.479	52.855	0.182	-0.174
-209.465	550.913	0.100	-0.240
-208.450	149.988	0.185	-0.250
-207.436	-200.000	0.022	0.229
-206.421	-149.367	0.139	-0.011
-205.406	-128.153	-0.401	0.057
-204.392	-54.081	0.129	0.058
-203.377	-92.705	0.314	0.088
-202.363	304.904	-0.087	0.161
-201.348	800.000	0.047	0.158
-200.333	-18.246	0.266	0.166
-199.319	-200.000	0.008	-0.231
-198.304	-17.916	0.276	-0.173
-197.290	-119.110	0.206	0.036
-196.275	800.000	0.023	0.078
-195.260	509.440	0.041	-0.095
-194.246	-30.299	0.406	-0.230
-193.231	-200.000	-0.017	0.223
-192.217	63.082	-0.035	-0.035
-191.202	800.000	0.037	0.136
-190.187	-46.413	-0.215	-0.106
-189.173	182.762	0.065	-0.096
-188.158	0.893	-0.133	0.095
-187.144	93.218	0.164	-0.185
-186.129	-200.000	-0.044	-0.231
-185.114	52.447	0.177	-0.168
-184.100	-120.342	-0.495	0.084
-183.085	125.744	0.084	0.106
-182.071	-77.430	-0.195	0.067
-181.056	-119.808	-0.238	0.041
-180.042	58.340	0.150	0.147
-179.027	-143.497	-0.273	-0.026
-178.012	-156.794	0.253	0.016
-176.998	-36.697	0.058	0.031
-175.983	-31.234	-0.369	-0.207
-174.969	43.810	-0.264	0.241
-173.954	-54.767	0.319	-0.144
-172.939	800.000	0.073	-0.246
-171.925	63.302	0.121	-0.121
-170.910	800.000	0.112	0.384
-169.896	186.714	0.168	0.249
-168.881	-60.063	-0.257	0.109
-167.866	-200.000	0.002	0.033
-166.852	-130.312	0.291	0.039
-165.837	37.626	-0.097	-0.086
-164.823	-200.000	-0.480	0.002
-163.808	-69.630	0.336	-0.128
-162.793	116.233	-0.065	0.080
-161.779	222.073	0.209	0.335
-160.764	800.000	0.082	0.335
-159.750	-51.730	-0.196	-0.091
-158.735	-178.381	0.122	-0.003
-157.720	-16.384	-0.132	-0.083
-156.706	15.395	-0.288	0.225
-155.691	261.723	-0.091	0.158
-154.677	225.611	0.213	0.344
-153.662	33.706	-0.126	0.109
-152.647	800.000	-0.075	0.217
-151.633	238.905	-0.105	-0.174
-150.618	428.419	0.065	-0.139
-149.604	-176.020	0.092	-0.002
-148.589	32.987	0.181	0.156
-147.574	-200.000	-0.064	0.286
-146.560	468.661	-0.152	-0.341
-145.545	7.773	-0.067	-0.050
-144.531	-200.000	-0.003	0.413
-143.516	-16.624	0.215	0.136
-142.502	180.656	0.143	0.209
-141.487	-57.714	-0.169	-0.074
-140.472	-143.553	0.172	-0.016
-139.458	1.333	-0.249	-0.178
-138.443	-9.032	0.150	0.100
-137.429	176.377	-0.228	0.330
-136.414	310.822	-0.129	0.240
-135.399	-168.275	-0.098	-0.004
-134.385	-103.234	0.463	0.109
-133.370	664.183	-0.017	0.043
-132.356	51.719	-0.147	0.139
-131.341	697.711	0.081	0.212
-130.326	-112.203	-0.177	0.035
-129.312	7.089	-0.199	0.148
-128.297	-56.326	0.384	0.170
-127.283	188.738	0.155	0.231
-126.268	63.576	0.174	0.174
-125.253	-34.483	0.169	-0.092
-124.239	-154.823	0.144	-0.010
-123.224	288.856	0.217	0.392
-122.210	-200.000	0.049	0.324
-121.195	-200.000	0.020	0.151
-120.180	2.116	-0.326	0.234
-119.166	691.920	-0.034	-0.089
