DTS Sentinel unit serial number:	SN413079Multiplexer serial number:	ORYXHardware model number:	OX4-SRSoftware version number:	ORYX F/W v4.00 Oryx Data Collector v3.7.2.0data status	okinstallation	princeton_trtdifferential loss correction	single-endedforward channel	channel 3reverse channel	N/Adate	2019/09/18time	20:24:34forward acquisition time	60.00reverse acquisition time	0.00gamma	496.2192k internal	0.2337k external	0.2337temperature offset calibration	1.0004default loss term (dB/km)	0.3790temperature slope calibration	1.0000multiplexer offset coefficient	1.0000multiplexer slope coefficient	1.0000fibre end	0.00T internal ref (°C)	28.64T ext. ref 1 (°C)	0.95T ext. ref 2 (°C)	19.50length (m)	temperature (°C)	Stokes	anti-Stokes-747.200	800.000	0.028	0.090
-746.185	-200.000	-0.013	0.121
-745.171	-123.607	0.287	0.046
-744.156	73.654	0.338	0.356
-743.142	-0.236	0.293	-0.209
-742.127	260.787	0.137	-0.238
-741.112	-120.402	0.185	-0.032
-740.098	12.188	-0.210	-0.162
-739.083	-67.731	-0.223	-0.088
-738.069	339.831	0.011	0.022
-737.054	285.415	-0.152	0.275
-736.039	-24.280	0.340	0.203
-735.025	-96.804	0.324	0.085
-734.010	201.825	-0.136	-0.211
-732.996	-30.013	-0.059	-0.034
-731.981	53.902	0.244	0.236
-730.966	-87.503	0.206	-0.063
-729.952	-27.117	0.301	0.176
-728.937	-55.518	0.196	0.088
-727.923	163.426	-0.112	0.158
-726.908	107.290	-0.076	0.090
-725.894	420.704	-0.103	-0.222
-724.879	-200.000	-0.019	-0.478
-723.864	-200.000	-0.011	-0.421
-722.850	519.032	-0.117	0.275
-721.835	218.717	-0.122	0.195
-720.821	140.874	-0.058	-0.077
-719.806	800.000	0.092	-0.296
-718.791	-200.000	0.017	0.262
-717.777	41.909	-0.045	0.041
-716.762	800.000	-0.073	-0.311
-715.748	-33.742	0.259	-0.143
-714.733	-156.590	-0.463	0.029
-713.718	800.000	-0.075	-0.245
-712.704	-125.305	-0.238	0.036
-711.689	551.461	0.068	-0.164
-710.675	-8.958	0.160	0.107
-709.660	-200.000	-0.012	0.231
-708.645	-66.202	-0.209	0.083
-707.631	80.312	-0.197	-0.213
-706.616	800.000	0.133	-0.397
-705.602	-200.000	0.024	-0.380
-704.587	-82.978	-0.299	-0.097
-703.572	-52.182	-0.239	0.111
-702.558	623.283	0.076	-0.191
-701.543	-112.361	-0.187	-0.037
-700.529	-80.469	-0.358	0.120
-699.514	-200.000	-0.004	-0.040
-698.499	20.202	-0.213	0.172
-697.485	67.985	0.089	0.091
-696.470	-200.000	-0.009	0.468
-695.456	-144.506	0.164	-0.015
-694.441	-110.162	0.243	-0.051
-693.426	-116.277	-0.232	-0.043
-692.412	-84.975	0.193	0.061
-691.397	16.116	0.064	0.051
-690.383	6.748	-0.034	0.025
-689.368	72.186	0.139	-0.145
-688.354	-106.422	-0.361	0.081
-687.339	621.284	0.056	-0.141
-686.324	-91.898	-0.494	-0.140
-685.310	-200.000	-0.020	-0.166
-684.295	-76.946	0.174	0.061
-683.281	202.344	0.096	0.148
-682.266	169.311	-0.034	0.048
-681.251	68.914	-0.086	0.088
-680.237	-120.247	-0.360	0.062
-679.222	-163.963	0.215	-0.010
-678.208	-200.000	0.008	-0.299
-677.193	344.092	-0.093	-0.183
-676.178	-200.000	-0.038	-0.197
-675.164	70.150	0.084	0.087
-674.149	-47.659	0.342	-0.166
-673.135	-11.158	-0.256	-0.169
-672.120	800.000	0.115	-0.319
-671.105	80.893	-0.055	0.059
-670.091	140.190	-0.080	-0.106
-669.076	-200.000	0.053	-0.447
-668.062	166.533	-0.202	-0.287
-667.047	763.169	-0.260	-0.707
-666.032	-134.497	0.198	-0.024
-665.018	-35.303	0.218	0.119
-664.003	800.000	-0.099	-0.276
-662.989	44.516	-0.188	-0.173
-661.974	-195.311	-0.369	-0.003
-660.959	-32.018	-0.122	0.068
-659.945	-120.936	0.115	0.019
-658.930	-86.935	-0.165	0.050
-657.916	102.295	0.039	0.046
-656.901	35.601	0.298	-0.262
-655.886	7.039	0.297	0.221
-654.872	-14.743	-0.242	0.155
-653.857	-12.514	-0.190	0.124
-652.843	-58.013	0.188	-0.082
-651.828	800.000	0.014	0.052
-650.814	345.876	0.038	-0.076
-649.799	-50.981	0.127	0.060
-648.784	175.388	0.159	0.231
-647.770	41.628	0.114	-0.103
-646.755	-15.955	0.141	-0.090
-645.741	106.796	0.139	-0.165
-644.726	-200.000	0.029	0.181
-643.711	-148.064	0.112	-0.009
-642.697	371.352	0.099	-0.201
-641.682	800.000	-0.107	-0.307
-640.668	48.052	-0.230	0.215
-639.653	4.810	-0.222	-0.163
-638.638	65.375	-0.246	-0.249
-637.624	-200.000	0.000	0.005
-636.609	429.571	-0.122	-0.264
-635.595	-94.676	-0.300	0.082
-634.580	800.000	-0.073	-0.246
-633.565	-119.723	0.273	0.047
-632.551	-92.500	0.263	0.074
-631.536	187.328	0.082	-0.122
-630.522	9.725	0.152	-0.115
-629.507	-35.328	-0.418	0.227
-628.492	-180.504	0.278	-0.006
-627.478	725.024	0.130	-0.347
-626.463	-199.616	0.049	-0.000
-625.449	-200.000	-0.045	0.202
-624.434	299.911	0.119	-0.219
-623.419	59.869	0.171	0.168
-622.405	-132.224	-0.183	-0.024
-621.390	-200.000	0.020	-0.242
-620.376	236.674	0.167	-0.277
-619.361	-200.000	-0.022	-0.138
-618.346	96.755	-0.188	0.216
-617.332	69.134	0.131	-0.134
-616.317	-102.144	0.087	-0.021
-615.303	800.000	-0.127	-0.507
-614.288	-163.842	0.212	-0.010
-613.273	-200.000	0.005	0.378
-612.259	-78.667	-0.342	-0.117
-611.244	-117.902	0.175	0.031
-610.230	800.000	-0.061	-0.228
-609.215	-101.487	0.475	-0.115
-608.201	84.739	-0.142	-0.156
-607.186	68.251	0.181	-0.186
-606.171	800.000	-0.029	-0.110
-605.157	-155.693	0.152	0.010
-604.142	138.142	0.104	0.136
-603.128	-9.775	0.152	-0.101
-602.113	699.071	0.062	0.162
-601.098	-126.276	-0.162	-0.024
-600.084	-146.445	-0.277	-0.024
-599.069	800.000	0.058	-0.195
-598.055	-72.264	0.167	-0.062
-597.040	12.000	0.098	-0.075
-596.025	193.522	-0.213	-0.321
-595.011	328.578	-0.062	-0.119
-593.996	-15.847	-0.071	-0.045
-592.982	-200.000	0.011	0.095
-591.967	45.438	-0.070	-0.064
-590.952	-134.271	-0.066	0.008
-589.938	-200.000	0.045	-0.252
-588.923	-46.209	-0.127	0.062
-587.909	188.127	-0.129	0.193
-586.894	-112.907	-0.287	0.057
-585.879	-200.000	-0.001	-0.189
-584.865	-153.591	-0.124	-0.009
-583.850	-151.335	0.581	0.043
-582.836	146.102	0.159	0.213
-581.821	213.678	-0.181	-0.285
-580.806	150.369	0.090	0.122
-579.792	30.228	-0.140	0.119
-578.777	-150.331	-0.125	-0.010
-577.763	267.109	0.045	-0.078
-576.748	254.665	0.052	-0.088
-575.733	44.204	0.244	0.223
-574.719	-141.526	0.207	-0.021
-573.704	-157.019	0.346	0.021
-572.690	800.000	-0.112	0.318
-571.675	800.000	-0.099	0.295
-570.661	-110.509	-0.282	0.058
-569.646	88.438	0.089	-0.098
-568.631	173.827	0.115	-0.166
-567.617	384.271	0.092	-0.189
-566.602	760.806	-0.125	0.338
-565.588	800.000	-0.085	-0.295
-564.573	-163.690	0.166	-0.008
-563.558	800.000	-0.085	-0.327
-562.544	282.676	-0.073	-0.130
-561.529	-200.000	-0.016	-0.125
-560.515	-39.357	0.118	-0.062
-559.500	8.287	-0.465	0.348
-558.485	-11.801	-0.341	0.223
-557.471	-132.610	-0.076	-0.010
-556.456	-200.000	-0.198	-0.001
-555.442	100.830	0.081	0.093
-554.427	-106.668	0.391	0.087
-553.412	45.422	-0.212	-0.195
-552.398	87.462	0.238	-0.262
-551.383	787.466	0.023	-0.064
-550.369	377.390	0.111	0.225
-549.354	-124.394	-0.224	-0.035
-548.339	89.278	0.228	0.254
-547.325	-200.000	-0.023	-0.206
-546.310	41.759	-0.223	0.201
-545.296	202.268	-0.179	-0.275
-544.281	-98.188	0.365	0.093
-543.266	161.019	0.208	-0.290
-542.252	-33.050	-0.218	0.121
-541.237	800.000	0.032	-0.100
-540.223	23.319	0.310	-0.253
-539.208	-59.819	-0.019	0.008
-538.193	107.227	-0.203	0.241
-537.179	5.568	0.009	0.007
-536.164	243.765	0.128	0.213
-535.150	-200.000	0.006	-0.387
-534.135	-200.000	-0.019	-0.223
-533.121	800.000	-0.051	0.192
-532.106	-138.589	0.199	0.022
-531.091	120.745	0.133	-0.165
-530.077	102.258	-0.357	-0.415
-529.062	370.091	-0.043	0.086
-528.048	97.503	-0.301	0.344
-527.033	-42.565	0.131	0.066
-526.018	454.486	-0.049	-0.109
-525.004	595.481	0.070	0.172
-523.989	800.000	-0.075	-0.310
-522.975	388.307	-0.065	-0.134
-521.960	23.426	-0.303	0.248
-520.945	-121.029	0.102	0.017
-519.931	-38.485	-0.123	0.065
-518.916	-123.397	0.168	0.027
-517.902	800.000	-0.029	-0.118
-516.887	630.816	0.066	-0.167
-515.872	800.000	0.140	0.390
-514.858	270.311	-0.095	-0.166
-513.843	-98.350	0.295	0.075
-512.829	177.291	-0.164	0.238
-511.814	-98.883	0.195	-0.049
-510.799	411.546	-0.109	0.229
-509.785	800.000	0.075	-0.259
-508.770	354.066	-0.160	0.317
-507.756	-124.809	-0.447	-0.069
-506.741	-51.655	-0.486	0.225
-505.726	173.626	-0.099	-0.142
-504.712	-67.574	0.241	-0.094
-503.697	-126.198	-0.184	-0.027
-502.683	202.559	0.080	0.122
-501.668	800.000	0.026	-0.095
-500.653	800.000	0.093	0.281
-499.639	-137.146	0.307	-0.035
-498.624	-148.955	-0.255	-0.020
-497.610	-142.195	0.127	-0.013
-496.595	183.566	-0.053	0.078
-495.581	-105.470	0.134	-0.030
-494.566	-43.027	-0.205	-0.103
-493.551	662.396	0.105	-0.270
-492.537	-11.490	0.132	-0.086
-491.522	-100.634	0.075	-0.018
-490.508	-200.000	-0.029	0.263
-489.493	93.219	0.197	-0.221
-488.478	-165.304	0.175	-0.008
-487.464	-200.000	0.018	0.169
-486.449	63.224	0.072	0.072
-485.435	800.000	-0.108	-0.331
-484.420	107.407	0.236	-0.279
-483.405	-38.395	0.299	-0.157
-482.391	-34.114	0.195	-0.106
-481.376	3.508	-0.149	-0.108
-480.362	10.261	-0.098	-0.074
-479.347	-121.917	0.172	-0.028
-478.332	800.000	-0.086	-0.284
-477.318	149.379	0.183	-0.247
-476.303	-200.000	-0.087	0.460
-475.289	-61.110	-0.101	0.042
-474.274	71.211	-0.054	-0.055
-473.259	-161.391	-0.287	0.015
-472.245	-103.577	0.281	0.066
-471.230	96.428	0.070	-0.080
-470.216	-200.000	-0.012	-0.407
-469.201	-78.548	0.191	-0.065
-468.186	12.750	-0.159	-0.122
-467.172	-11.714	-0.079	0.051
-466.157	-110.214	-0.122	0.025
-465.143	-200.000	-0.002	-0.156
-464.128	-200.000	0.031	0.163
-463.113	800.000	0.076	0.263
-462.099	-173.433	0.384	-0.012
-461.084	-200.000	-0.012	0.180
-460.070	32.807	-0.300	-0.258
-459.055	274.980	-0.100	-0.176
-458.040	-61.638	-0.256	0.107
-457.026	114.279	0.097	-0.117
-456.011	102.466	-0.050	-0.058
-454.997	79.835	-0.128	-0.137
-453.982	-27.567	-0.147	-0.085
-452.968	459.527	0.142	0.314
-451.953	-95.852	-0.117	0.031
-450.938	-200.000	0.019	-0.164
-449.924	-3.951	-0.111	-0.076
-448.909	-200.000	-0.020	0.212
-447.895	800.000	0.065	0.269
-446.880	548.776	-0.202	-0.480
-445.865	158.499	0.193	-0.266
-444.851	184.402	-0.075	-0.110
-443.836	249.802	0.149	0.251
-442.822	800.000	0.036	-0.153
-441.807	-200.000	-0.037	-0.181
-440.792	488.386	-0.068	-0.153
-439.778	-2.223	0.038	-0.026
-438.763	-12.909	0.087	-0.056
-437.749	-200.000	0.030	-0.176
-436.734	-55.378	-0.199	-0.088
-435.719	-200.000	0.029	0.337
-434.705	-200.000	-0.011	0.057
-433.690	209.056	-0.146	0.227
-432.676	-19.082	-0.199	0.122
-431.661	575.039	0.196	0.474
-430.646	5.089	-0.177	-0.129
-429.632	101.639	-0.076	0.087
-428.617	-43.413	-0.244	0.122
-427.603	317.967	0.263	0.494
-426.588	107.130	0.179	0.211
-425.573	800.000	0.027	0.107
-424.559	277.575	0.018	0.032
-423.544	800.000	0.082	-0.284
-422.530	494.733	0.115	0.263
-421.515	-142.276	-0.123	0.012
-420.500	61.113	-0.196	0.193
-419.486	800.000	-0.114	-0.467
-418.471	-103.577	0.100	-0.023
-417.457	-120.817	0.048	-0.008
-416.442	108.231	-0.195	0.231
-415.428	800.000	-0.072	-0.201
-414.413	-156.147	0.357	-0.022
-413.398	-200.000	-0.049	-0.268
-412.384	64.962	0.170	-0.170
-411.369	124.842	-0.064	0.080
-410.355	-157.924	0.237	0.014
-409.340	452.628	0.079	-0.174
-408.325	21.268	0.194	-0.156
-407.311	611.309	0.093	-0.231
-406.296	467.223	0.187	-0.416
-405.282	-12.018	0.187	-0.121
-404.267	105.678	-0.116	0.136
-403.252	254.715	0.165	0.279
-402.238	210.024	-0.052	0.081
-401.223	-19.839	-0.161	0.099
-400.209	668.172	0.033	-0.084
-399.194	-200.000	0.022	-0.097
-398.179	-78.752	-0.310	0.105
-397.165	-70.495	0.294	-0.110
-396.150	-200.000	-0.081	-0.409
-395.136	-200.000	0.021	-0.490
-394.121	-200.000	-0.050	0.439
-393.106	51.386	0.138	-0.130
-392.092	31.189	-0.238	0.203
-391.077	-2.433	-0.141	0.098
-390.063	115.420	0.077	-0.093
-389.048	229.425	0.115	0.186
-388.033	-200.000	-0.015	0.271
-387.019	-200.000	-0.012	0.304
-386.004	800.000	-0.070	0.278
-384.990	-134.182	0.111	0.014
-383.975	-92.048	-0.171	0.048
-382.960	434.085	-0.153	0.329
-381.946	-200.000	-0.030	0.142
-380.931	-200.000	0.022	0.096
-379.917	-6.766	0.153	-0.103
-378.902	12.471	-0.310	0.237
-377.888	603.376	-0.018	0.044
-376.873	-125.187	0.537	0.081
-375.858	-200.000	-0.003	0.024
-374.844	-21.955	0.347	0.209
-373.829	-110.130	-0.076	0.016
-372.815	-26.701	0.155	0.089
-371.800	235.093	-0.022	0.036
-370.785	-200.000	0.016	0.339
-369.771	-200.000	-0.039	-0.180
-368.756	800.000	-0.079	-0.327
-367.742	-200.000	0.005	0.065
-366.727	-200.000	0.089	0.510
-365.712	-42.559	0.269	0.135
-364.698	800.000	0.117	-0.393
-363.683	-200.000	0.054	-0.249
-362.669	-158.774	-0.319	-0.018
-361.654	308.577	0.080	-0.148
-360.639	-59.017	0.131	-0.056
-359.625	311.133	0.067	-0.124
-358.610	-127.336	-0.181	-0.026
-357.596	694.676	-0.060	-0.157
-356.581	-88.443	-0.265	0.078
-355.566	127.988	-0.037	-0.046
-354.552	-72.663	-0.147	0.054
-353.537	-113.287	-0.170	0.033
-352.523	-91.484	-0.373	-0.105
-351.508	145.089	0.118	0.156
-350.493	388.253	-0.092	-0.188
-349.479	24.956	-0.391	-0.321
-348.464	-20.555	-0.090	-0.054
-347.450	-18.343	-0.179	0.111
-346.435	-93.610	0.036	-0.010
-345.420	89.804	-0.115	-0.127
-344.406	-200.000	-0.007	0.451
-343.391	-0.688	0.090	-0.063
-342.377	129.758	-0.111	-0.141
-341.362	-107.456	0.128	0.028
-340.348	-200.000	0.021	-0.241
-339.333	-106.857	0.021	0.005
-338.318	73.660	-0.145	0.151
-337.304	800.000	-0.076	0.213
-336.289	614.573	0.090	-0.222
-335.275	-53.479	-0.322	0.146
-334.260	-27.182	0.078	-0.045
-333.245	67.266	-0.082	0.083
-332.231	-97.195	-0.256	-0.066
-331.216	53.852	0.323	-0.307
-330.202	-125.231	0.268	-0.040
-329.187	-39.989	-0.190	-0.098
-328.172	243.063	0.144	-0.238
-327.158	800.000	-0.067	-0.202
-326.143	188.337	0.253	0.374
-325.129	338.430	0.105	-0.202
-324.114	417.215	0.191	-0.403
-323.099	-12.287	0.453	-0.292
-322.085	277.170	0.082	0.144
-321.070	-80.978	0.284	0.093
-320.056	177.395	-0.125	0.180
-319.041	-64.009	-0.041	-0.016
-318.026	-40.098	-0.424	0.218
-317.012	-200.000	0.009	0.167
-315.997	800.000	0.004	0.014
-314.983	-97.959	0.422	0.108
-313.968	108.720	-0.262	0.310
-312.953	314.970	-0.167	-0.312
-311.939	229.595	0.052	0.083
-310.924	-43.206	-0.126	0.063
-309.910	-123.447	-0.187	-0.029
-308.895	-200.000	0.031	-0.205
-307.880	-108.590	-0.254	0.054
-306.866	800.000	-0.020	0.061
-305.851	157.132	-0.158	-0.215
-304.837	-48.150	-0.402	0.192
-303.822	131.040	0.127	0.161
-302.807	-200.000	0.032	0.219
-301.793	800.000	0.041	0.129
-300.778	31.932	0.090	-0.077
-299.764	-156.348	-0.273	-0.017
-298.749	800.000	-0.024	-0.089
-297.735	-10.612	-0.392	0.256
-296.720	138.659	-0.232	-0.301
-295.705	121.097	0.047	-0.058
-294.691	68.741	-0.277	0.281
-293.676	332.231	-0.104	0.198
-292.662	5.166	-0.091	-0.066
-291.647	666.489	0.097	-0.246
-290.632	293.445	0.083	0.150
-289.618	535.311	0.167	0.390
-288.603	-147.380	0.152	0.013
-287.589	77.169	0.259	0.272
-286.574	326.749	0.074	-0.139
-285.559	-50.105	0.139	0.065
-284.545	705.898	-0.143	-0.371
-283.530	-65.131	-0.191	-0.076
-282.516	394.702	0.037	0.077
-281.501	86.540	-0.068	-0.074
-280.486	58.051	0.156	-0.150
-279.472	-30.168	-0.288	0.162
-278.457	800.000	0.106	0.297
-277.443	800.000	0.088	-0.267
-276.428	127.937	-0.172	0.215
-275.413	68.921	-0.071	-0.072
-274.399	10.360	-0.137	0.103
-273.384	28.058	0.108	-0.090
-272.370	-200.000	-0.006	-0.185
-271.355	452.458	0.160	0.348
-270.340	56.679	-0.163	0.156
-269.326	500.137	0.049	0.111
-268.311	104.485	-0.178	-0.207
-267.297	800.000	-0.012	0.044
-266.282	-200.000	0.063	-0.398
-265.267	182.186	0.230	-0.333
-264.253	-123.214	-0.175	-0.028
-263.238	-200.000	0.087	-0.435
-262.224	255.909	0.131	-0.221
-261.209	690.011	-0.061	0.158
-260.195	46.979	0.077	0.070
-259.180	-200.000	-0.038	0.224
-258.165	-200.000	-0.035	-0.201
-257.151	-175.806	-0.099	-0.003
-256.136	60.898	0.222	0.217
-255.122	-200.000	-0.041	-0.209
-254.107	2.648	-0.092	-0.065
-253.092	-200.000	0.015	0.074
-252.078	-200.000	-0.032	0.240
-251.063	239.944	-0.054	-0.088
-250.049	-74.087	-0.143	-0.051
-249.034	-200.000	-0.050	-0.378
-248.019	-128.691	0.301	-0.042
-247.005	-159.710	-0.097	-0.005
-245.990	-39.525	0.200	-0.103
-244.976	-33.066	-0.094	-0.052
-243.961	-200.000	0.038	0.244
-242.946	-74.169	-0.145	-0.052
-241.932	45.929	0.088	-0.080
-240.917	-122.569	0.401	-0.064
-239.903	59.453	-0.123	0.119
-238.888	243.655	0.240	-0.396
-237.873	-200.000	0.011	0.064
-236.859	42.007	-0.058	0.051
-235.844	800.000	-0.084	-0.310
-234.830	-16.982	0.181	-0.112
-233.815	-154.468	-0.118	0.008
-232.800	-200.000	0.048	0.375
-231.786	-200.000	0.012	0.397
-230.771	-37.170	-0.070	0.037
-229.757	-12.611	0.143	-0.092
-228.742	-191.039	-0.155	-0.002
-227.727	800.000	-0.023	0.090
-226.713	-27.551	-0.176	0.101
-225.698	-107.075	-0.138	0.030
-224.684	-30.547	0.167	-0.093
-223.669	571.843	-0.025	0.060
-222.655	-29.231	0.188	0.106
-221.640	-87.738	-0.194	0.057
-220.625	800.000	-0.113	0.394
-219.611	-112.770	-0.304	0.059
-218.596	-68.028	0.259	0.099
-217.582	293.303	0.171	0.307
-216.567	-21.988	0.050	-0.030
-215.552	800.000	-0.074	0.228
-214.538	43.800	-0.157	0.141
-213.523	-15.543	-0.185	-0.116
-212.509	86.150	0.158	0.171
-211.494	98.003	0.202	0.228
-210.479	152.863	-0.088	0.118
-209.465	-76.537	0.254	0.088
-208.450	800.000	-0.045	0.191
-207.436	-200.000	-0.023	0.336
-206.421	416.383	0.102	0.214
-205.406	-95.378	0.292	-0.077
-204.392	-200.000	0.005	0.175
-203.377	800.000	-0.123	0.412
-202.363	-43.690	-0.166	-0.082
-201.348	-33.194	0.227	-0.124
-200.333	1.985	-0.156	-0.111
-199.319	-200.000	-0.061	0.371
-198.304	90.141	-0.153	0.168
-197.290	237.030	-0.099	0.162
-196.275	-200.000	-0.036	-0.156
-195.260	401.725	0.074	0.153
-194.246	-200.000	-0.037	0.215
-193.231	-62.772	-0.261	0.106
-192.217	-142.134	-0.338	0.033
-191.202	800.000	0.089	0.241
-190.187	162.977	-0.064	0.088
-189.173	-99.549	0.172	-0.042
-188.158	403.216	0.100	0.206
-187.144	751.098	0.072	-0.191
-186.129	-126.870	0.224	0.032
-185.114	-8.516	0.188	-0.124
-184.100	-137.587	0.274	-0.030
-183.085	541.217	0.029	0.067
-182.071	12.864	-0.145	-0.110
-181.056	39.191	-0.163	0.144
-180.042	130.005	0.051	0.064
-179.027	-157.671	0.209	-0.012
-178.012	-92.357	-0.119	-0.033
-176.998	800.000	-0.044	0.131
-175.983	-200.000	-0.073	-0.403
-174.969	162.190	-0.051	0.071
-173.954	20.828	-0.118	0.094
-172.939	-44.823	0.092	0.045
-171.925	268.537	0.208	-0.357
-170.910	-29.494	-0.331	-0.186
-169.896	241.939	0.193	-0.317
-168.881	542.404	0.026	0.060
-167.866	129.745	0.186	0.234
-166.852	285.991	0.111	0.196
-165.837	-6.426	0.446	0.299
-164.823	118.996	-0.155	0.188
-163.808	-135.295	-0.306	-0.036
-162.793	-28.639	-0.068	-0.039
-161.779	-200.000	-0.018	0.137
-160.764	-54.113	0.059	-0.026
-159.750	35.138	0.113	0.097
-158.735	208.007	-0.111	0.170
-157.720	469.111	0.028	0.062
-156.706	800.000	-0.097	0.301
-155.691	-115.220	-0.129	0.024
-154.677	-200.000	-0.024	-0.213
-153.662	-27.657	0.317	0.180
-152.647	359.096	-0.086	-0.169
-151.633	-132.290	0.221	0.028
-150.618	389.112	-0.070	0.143
-149.604	272.056	0.058	-0.100
-148.589	565.265	0.090	0.214
-147.574	-200.000	0.021	0.099
-146.560	176.740	-0.106	0.151
-145.545	-118.510	0.064	-0.011
-144.531	-200.000	-0.062	0.322
-143.516	-71.686	-0.049	0.018
-142.502	213.907	0.039	-0.060
-141.487	800.000	0.064	-0.267
-140.472	-200.000	0.008	0.165
-139.458	70.193	0.220	-0.222
-138.443	-200.000	-0.000	0.053
-137.429	111.670	0.138	-0.163
-136.414	-5.946	0.283	0.190
-135.399	800.000	0.111	0.385
-134.385	118.883	-0.057	0.069
-133.370	-65.669	0.175	0.069
-132.356	-200.000	-0.065	0.287
-131.341	800.000	0.114	0.333
-130.326	-94.955	-0.071	-0.019
-129.312	-155.573	-0.239	-0.015
-128.297	800.000	0.106	0.291
-127.283	40.319	0.186	0.164
-126.268	-200.000	0.076	-0.332
-125.253	306.303	-0.036	0.066
-124.239	7.110	-0.407	0.298
-123.224	191.240	0.183	-0.270
-122.210	252.718	0.057	-0.096
-121.195	800.000	-0.049	0.170
