DTS Sentinel unit serial number:	SN413079Multiplexer serial number:	ORYXHardware model number:	OX4-SRSoftware version number:	ORYX F/W v4.00 Oryx Data Collector v3.7.2.0data status	okinstallation	princeton_trtdifferential loss correction	single-endedforward channel	channel 3reverse channel	N/Adate	2019/09/18time	02:08:34forward acquisition time	60.00reverse acquisition time	0.00gamma	496.2192k internal	0.2344k external	0.2344temperature offset calibration	0.9951default loss term (dB/km)	0.3790temperature slope calibration	1.0000multiplexer offset coefficient	1.0000multiplexer slope coefficient	1.0000fibre end	0.00T internal ref (°C)	22.87T ext. ref 1 (°C)	0.17T ext. ref 2 (°C)	16.68length (m)	temperature (°C)	Stokes	anti-Stokes-747.200	81.474	0.085	0.092
-746.185	800.000	0.048	0.133
-745.171	-96.190	0.347	0.092
-744.156	220.205	0.128	0.205
-743.142	800.000	-0.025	0.084
-742.127	-137.312	-0.152	0.017
-741.112	-200.000	0.012	0.128
-740.098	192.819	0.074	0.112
-739.083	-200.000	0.013	0.141
-738.069	-85.934	-0.115	-0.036
-737.054	103.386	-0.062	0.073
-736.039	139.822	-0.296	-0.391
-735.025	-64.983	0.219	0.089
-734.010	-141.345	0.307	-0.031
-732.996	-182.400	-0.434	0.008
-731.981	61.639	0.122	0.121
-730.966	-200.000	-0.011	0.063
-729.952	-200.000	0.013	-0.104
-728.937	-153.145	-0.334	0.023
-727.923	13.375	-0.099	0.077
-726.908	183.045	-0.112	0.165
-725.894	-181.099	0.130	-0.003
-724.879	-141.192	-0.313	0.032
-723.864	-200.000	-0.059	0.295
-722.850	447.813	0.051	0.113
-721.835	-121.181	0.245	-0.041
-720.821	-40.014	-0.280	0.146
-719.806	78.678	-0.190	-0.204
-718.791	-130.276	0.074	-0.010
-717.777	-155.607	0.140	-0.009
-716.762	-113.721	0.088	-0.017
-715.748	371.054	0.104	-0.212
-714.733	-64.597	-0.197	-0.080
-713.718	-200.000	0.005	-0.092
-712.704	-105.284	-0.220	-0.050
-711.689	-200.000	0.010	-0.163
-710.675	266.207	-0.140	-0.245
-709.660	191.810	-0.183	0.276
-708.645	55.995	-0.289	-0.281
-707.631	203.782	0.285	0.441
-706.616	37.753	0.139	0.124
-705.602	-20.607	0.168	-0.103
-704.587	-53.488	0.283	-0.129
-703.572	-158.573	-0.287	0.017
-702.558	-93.100	0.374	0.104
-701.543	800.000	-0.136	-0.401
-700.529	-108.066	-0.212	0.046
-699.514	-200.000	0.032	-0.146
-698.499	-200.000	-0.003	0.092
-697.485	44.318	0.062	-0.057
-696.470	-200.000	-0.073	-0.386
-695.456	-44.542	0.366	-0.183
-694.441	487.789	0.110	0.252
-693.426	13.681	-0.269	-0.209
-692.412	52.312	0.087	0.083
-691.397	-121.541	-0.216	-0.036
-690.383	590.427	-0.111	-0.273
-689.368	-200.000	-0.006	-0.157
-688.354	-200.000	-0.064	0.360
-687.339	71.109	0.107	-0.111
-686.324	95.817	0.140	0.160
-685.310	-109.735	0.205	0.043
-684.295	-48.894	0.134	0.064
-683.281	105.606	0.144	0.170
-682.266	-32.778	0.223	0.124
-681.251	310.855	0.131	0.245
-680.237	370.247	0.022	0.045
-679.222	-89.817	-0.122	-0.036
-678.208	800.000	0.037	-0.122
-677.193	104.663	-0.075	-0.088
-676.178	800.000	-0.045	-0.142
-675.164	-200.000	0.004	-0.201
-674.149	10.324	-0.063	-0.048
-673.135	369.093	-0.237	-0.479
-672.120	-96.084	-0.145	-0.038
-671.105	132.459	-0.199	-0.256
-670.091	-115.722	0.144	0.027
-669.076	800.000	-0.063	-0.199
-668.062	307.618	0.058	0.108
-667.047	800.000	0.023	0.068
-666.032	-119.372	-0.361	0.063
-665.018	-200.000	0.009	-0.071
-664.003	16.803	0.313	-0.247
-662.989	-11.524	0.113	-0.074
-661.974	28.593	0.102	0.086
-660.959	402.078	0.140	-0.293
-659.945	93.617	-0.248	0.280
-658.930	800.000	-0.085	0.263
-657.916	-200.000	-0.017	-0.426
-656.901	-117.950	-0.277	0.049
-655.886	160.979	-0.122	-0.170
-654.872	229.343	-0.113	0.184
-653.857	-53.720	-0.249	0.113
-652.843	34.834	0.238	-0.207
-651.828	70.469	-0.067	0.069
-650.814	-55.332	0.159	0.071
-649.799	-109.599	0.049	-0.010
-648.784	-153.121	0.130	0.009
-647.770	-110.024	0.245	0.051
-646.755	-106.541	-0.194	0.043
-645.741	-97.178	0.160	-0.042
-644.726	146.776	-0.180	0.241
-643.711	-161.600	-0.337	0.017
-642.697	-75.578	0.327	0.116
-641.682	-200.000	-0.049	-0.257
-640.668	-105.208	-0.298	-0.068
-639.653	800.000	-0.050	0.147
-638.638	4.001	0.034	0.025
-637.624	-200.000	-0.002	0.222
-636.609	62.031	0.082	-0.081
-635.595	-187.748	0.069	0.001
-634.580	107.558	-0.193	0.229
-633.565	-200.000	0.016	-0.348
-632.551	-200.000	-0.000	0.334
-631.536	-55.716	0.138	0.062
-630.522	-200.000	-0.036	-0.261
-629.507	311.202	0.166	-0.310
-628.492	-102.649	0.260	0.062
-627.478	0.822	-0.166	-0.119
-626.463	437.938	-0.078	0.170
-625.449	-200.000	0.005	0.207
-624.434	-200.000	0.030	-0.162
-623.419	-200.000	0.035	0.333
-622.405	680.368	-0.147	-0.380
-621.390	677.649	0.055	0.142
-620.376	-200.000	0.007	-0.227
-619.361	800.000	-0.047	0.142
-618.346	38.168	0.121	-0.107
-617.332	-200.000	-0.067	-0.394
-616.317	-111.807	0.317	0.064
-615.303	-200.000	-0.087	0.452
-614.288	94.714	-0.028	0.031
-613.273	22.663	0.067	-0.055
-612.259	239.567	-0.137	0.227
-611.244	34.610	-0.280	0.244
-610.230	800.000	0.150	-0.537
-609.215	-200.000	0.034	-0.360
-608.201	-200.000	0.042	-0.376
-607.186	410.516	-0.125	-0.265
-606.171	246.789	0.121	-0.204
-605.157	-200.000	0.013	0.113
-604.142	-200.000	0.013	-0.190
-603.128	-33.958	-0.410	0.225
-602.113	-17.494	-0.347	0.217
-601.098	244.499	0.129	-0.215
-600.084	-200.000	-0.024	0.138
-599.069	508.014	-0.070	0.161
-598.055	-200.000	-0.277	0.001
-597.040	-68.566	0.207	-0.080
-596.025	226.061	0.191	0.307
-595.011	-96.543	0.242	-0.064
-593.996	800.000	-0.078	-0.234
-592.982	-14.907	-0.117	-0.075
-591.967	800.000	-0.116	0.330
-590.952	255.542	0.056	-0.096
-589.938	12.155	0.089	0.068
-588.923	555.673	-0.109	-0.260
-587.909	14.744	-0.170	0.132
-586.894	307.268	-0.148	0.274
-585.879	58.926	-0.291	-0.284
-584.865	189.282	-0.178	-0.265
-583.850	71.655	0.260	-0.269
-582.836	-103.474	0.386	-0.090
-581.821	-22.420	-0.366	-0.220
-580.806	-200.000	-0.020	0.102
-579.792	472.462	-0.142	-0.317
-578.777	800.000	0.092	-0.274
-577.763	800.000	0.050	-0.206
-576.748	800.000	-0.039	-0.112
-575.733	-90.036	0.218	-0.063
-574.719	-135.482	-0.128	-0.015
-573.704	-200.000	0.015	0.423
-572.690	-200.000	-0.025	0.431
-571.675	23.401	0.058	0.048
-570.661	-80.175	-0.146	-0.048
-569.646	37.514	-0.205	0.181
-568.631	-35.678	-0.167	-0.090
-567.617	-200.000	0.009	-0.347
-566.602	-200.000	-0.004	-0.347
-565.588	10.950	0.154	0.117
-564.573	191.059	-0.070	-0.105
-563.558	800.000	0.096	-0.289
-562.544	-76.047	0.227	-0.080
-561.529	100.894	0.014	0.016
-560.515	-9.190	0.233	-0.155
-559.500	-135.927	0.183	-0.021
-558.485	109.914	0.224	0.267
-557.471	-200.000	-0.001	0.280
-556.456	-14.481	0.215	0.137
-555.442	714.187	-0.044	0.115
-554.427	-200.000	-0.010	-0.405
-553.412	305.493	-0.188	0.348
-552.398	8.999	0.152	0.114
-551.383	-178.959	-0.129	0.003
-550.369	218.767	0.178	-0.282
-549.354	315.893	-0.091	-0.170
-548.339	-200.000	0.014	-0.244
-547.325	-23.076	0.239	-0.143
-546.310	571.308	-0.142	-0.344
-545.296	-200.000	0.035	0.250
-544.281	-200.000	-0.024	0.221
-543.266	800.000	0.009	-0.038
-542.252	-141.468	0.130	0.013
-541.237	109.361	-0.103	0.123
-540.223	-12.594	-0.230	0.149
-539.208	800.000	0.044	0.177
-538.193	-106.629	-0.195	-0.043
-537.179	484.155	0.094	-0.211
-536.164	-168.101	0.377	0.015
-535.150	-103.887	-0.134	-0.031
-534.135	-200.000	0.009	-0.122
-533.121	312.313	-0.107	0.199
-532.106	800.000	0.070	0.237
-531.091	647.965	-0.151	-0.382
-530.077	-200.000	0.007	-0.098
-529.062	-200.000	-0.015	0.150
-528.048	-52.508	-0.187	0.086
-527.033	-36.323	-0.234	0.125
-526.018	-200.000	-0.004	0.030
-525.004	459.631	0.230	-0.507
-523.989	-19.512	0.185	0.114
-522.975	-48.352	-0.064	0.031
-521.960	-38.932	-0.277	0.145
-520.945	-200.000	0.071	0.374
-519.931	800.000	0.068	0.220
-518.916	332.840	-0.077	-0.147
-517.902	581.086	0.129	-0.313
-516.887	662.241	0.105	-0.269
-515.872	-200.000	0.072	-0.346
-514.858	23.082	-0.151	0.123
-513.843	-200.000	0.001	-0.029
-512.829	240.385	-0.263	-0.434
-511.814	800.000	0.068	-0.192
-510.799	-200.000	0.077	-0.337
-509.785	-112.452	0.098	-0.019
-508.770	96.239	-0.136	-0.154
-507.756	513.044	-0.080	0.185
-506.741	-196.179	0.289	0.002
-505.726	-46.538	0.271	-0.132
-504.712	-200.000	-0.006	0.321
-503.697	321.501	-0.072	0.135
-502.683	-158.154	-0.321	-0.019
-501.668	61.141	0.235	0.232
-500.653	-200.000	-0.009	0.201
-499.639	-134.029	0.272	0.033
-498.624	81.505	-0.104	0.112
-497.610	-148.982	-0.117	-0.009
-496.595	183.475	0.159	0.233
-495.581	41.202	-0.203	0.182
-494.566	57.709	0.210	0.203
-493.551	-200.000	0.071	-0.314
-492.537	-92.343	0.158	-0.044
-491.522	-44.004	0.362	-0.180
-490.508	11.290	-0.271	-0.206
-489.493	113.740	-0.018	0.022
-488.478	349.514	0.016	0.032
-487.464	-26.224	-0.206	0.120
-486.449	800.000	0.058	0.213
-485.435	-200.000	-0.037	-0.310
-484.420	140.831	-0.142	-0.186
-483.405	-94.598	0.090	0.024
-482.391	238.652	0.101	0.167
-481.376	-200.000	-0.007	0.057
-480.362	183.697	-0.073	0.107
-479.347	164.614	-0.130	-0.182
-478.332	-34.058	-0.177	-0.096
-477.318	-200.000	-0.055	-0.358
-476.303	109.114	0.060	0.071
-475.289	96.768	-0.134	-0.152
-474.274	-200.000	0.016	-0.081
-473.259	29.150	-0.125	0.105
-472.245	-25.171	0.488	-0.286
-471.230	800.000	0.027	0.090
-470.216	-82.720	0.378	-0.121
-469.201	-95.521	0.253	0.067
-468.186	86.060	0.192	0.209
-467.172	53.731	-0.169	-0.160
-466.157	-138.112	0.250	-0.028
-465.143	-80.107	0.114	0.038
-464.128	132.837	-0.251	0.321
-463.113	-89.328	0.114	0.033
-462.099	543.340	0.090	-0.213
-461.084	378.451	-0.146	-0.296
-460.070	644.675	-0.078	0.196
-459.055	19.529	-0.156	0.124
-458.040	-200.000	-0.000	0.402
-457.026	135.522	-0.191	-0.246
-456.011	97.557	0.192	-0.219
-454.997	797.195	0.074	0.202
-453.982	-104.560	-0.394	0.090
-452.968	83.069	-0.240	-0.258
-451.953	-200.000	0.082	0.394
-450.938	399.907	0.065	0.135
-449.924	800.000	-0.063	0.200
-448.909	-116.276	0.121	-0.022
-447.895	121.283	0.147	0.181
-446.880	-200.000	-0.018	0.200
-445.865	148.230	-0.119	0.159
-444.851	118.515	-0.098	-0.120
-443.836	26.137	0.136	-0.112
-442.822	246.923	-0.157	0.262
-441.807	652.588	-0.161	-0.409
-440.792	-12.483	0.259	-0.168
-439.778	800.000	0.066	-0.257
-438.763	12.048	-0.289	-0.220
-437.749	-54.359	-0.193	0.087
-436.734	93.208	0.337	0.377
-435.719	-53.668	-0.106	0.048
-434.705	8.985	-0.057	-0.042
-433.690	-3.156	-0.117	-0.081
-432.676	74.832	0.223	0.232
-431.661	-105.683	0.083	-0.019
-430.646	-30.660	0.077	-0.043
-429.632	734.529	0.023	-0.062
-428.617	98.808	-0.121	0.138
-427.603	434.756	0.153	0.329
-426.588	68.008	-0.036	-0.037
-425.573	-200.000	-0.039	-0.208
-424.559	-94.515	-0.473	0.127
-423.544	185.440	0.188	-0.275
-422.530	50.601	0.095	0.089
-421.515	-28.580	0.238	0.136
-420.500	34.231	-0.347	0.299
-419.486	109.367	0.144	-0.171
-418.471	800.000	-0.043	-0.178
-417.457	38.515	0.234	-0.206
-416.442	800.000	-0.072	0.276
-415.428	171.048	0.127	0.179
-414.413	800.000	-0.095	-0.344
-413.398	-116.079	-0.241	0.044
-412.384	-200.000	0.038	-0.291
-411.369	-200.000	-0.018	-0.137
-410.355	800.000	-0.105	-0.389
-409.340	-81.567	0.145	-0.047
-408.325	9.962	0.219	0.164
-407.311	-200.000	0.030	-0.157
-406.296	392.932	0.069	0.143
-405.282	650.910	-0.106	0.267
-404.267	-200.000	-0.026	0.178
-403.252	372.652	-0.128	0.258
-402.238	800.000	0.083	0.326
-401.223	302.606	-0.042	-0.077
-400.209	-72.204	-0.448	0.164
-399.194	120.660	0.091	-0.112
-398.179	-183.213	0.248	0.004
-397.165	270.276	-0.122	-0.212
-396.150	-132.830	-0.319	0.040
-395.136	334.306	-0.119	0.227
-394.121	5.193	0.313	-0.227
-393.106	176.617	-0.120	-0.173
-392.092	266.144	-0.140	-0.241
-391.077	-14.743	-0.042	-0.027
-390.063	-80.934	-0.248	0.081
-389.048	800.000	0.116	-0.421
-388.033	-8.135	-0.178	-0.119
-387.019	-200.000	0.007	-0.182
-386.004	461.724	0.070	0.153
-384.990	62.946	0.285	-0.282
-383.975	-94.898	-0.186	-0.050
-382.960	730.813	0.107	-0.281
-381.946	-200.000	-0.055	-0.318
-380.931	4.845	-0.177	-0.128
-379.917	-122.549	0.232	0.037
-378.902	580.204	0.101	0.244
-377.888	-64.127	-0.209	-0.084
-376.873	-168.452	-0.316	-0.012
-375.858	-62.490	-0.300	-0.123
-374.844	-169.946	0.200	-0.007
-373.829	157.106	0.176	0.240
-372.815	526.538	0.332	0.771
-371.800	-131.703	0.133	0.017
-370.785	-200.000	-0.054	-0.270
-369.771	203.927	0.270	0.412
-368.756	-64.198	0.232	-0.093
-367.742	81.338	0.287	0.306
-366.727	-69.301	0.228	0.086
-365.712	153.564	-0.111	0.150
-364.698	289.350	0.238	0.426
-363.683	2.516	-0.121	-0.087
-362.669	74.089	-0.101	0.104
-361.654	-3.425	0.281	-0.193
-360.639	16.088	-0.056	-0.044
-359.625	-95.725	0.257	0.068
-358.610	311.822	-0.119	-0.220
-357.596	-200.000	0.063	-0.381
-356.581	-9.954	0.053	0.035
-355.566	571.814	0.035	-0.085
-354.552	342.787	-0.209	0.403
-353.537	-200.000	-0.019	0.277
-352.523	-64.176	0.161	0.065
-351.508	-84.620	0.345	0.107
-350.493	7.180	0.160	-0.118
-349.479	-200.000	0.005	-0.056
-348.464	-66.759	-0.178	-0.069
-347.450	496.041	0.050	0.112
-346.435	800.000	-0.052	-0.224
-345.420	-158.216	0.237	-0.014
-344.406	93.648	-0.101	0.112
-343.391	-200.000	0.049	0.248
-342.377	-69.842	-0.134	-0.051
-341.362	-15.352	-0.049	-0.031
-340.348	29.242	0.214	-0.179
-339.333	-200.000	-0.015	0.319
-338.318	-62.991	0.230	-0.094
-337.304	-200.000	0.043	-0.259
-336.289	205.217	-0.061	0.094
-335.275	-148.474	-0.366	-0.029
-334.260	24.316	-0.183	-0.149
-333.245	380.847	0.242	0.490
-332.231	-200.000	-0.028	0.237
-331.216	800.000	-0.034	-0.127
-330.202	-46.018	0.245	0.119
-329.187	-175.543	-0.272	0.007
-328.172	800.000	-0.065	0.184
-327.158	800.000	0.037	-0.129
-326.143	-106.235	-0.157	0.035
-325.129	199.875	0.086	0.130
-324.114	800.000	0.071	-0.261
-323.099	-174.749	-0.245	-0.007
-322.085	-138.464	-0.247	-0.027
-321.070	459.028	-0.163	0.357
-320.056	266.109	-0.102	0.176
-319.041	800.000	0.093	0.297
-318.026	-70.118	0.367	0.137
-317.012	354.699	-0.065	0.128
-315.997	-200.000	0.025	0.188
-314.983	-128.597	-0.068	0.010
-313.968	34.128	-0.164	0.141
-312.953	-190.953	-0.044	0.000
-311.939	156.683	-0.085	-0.115
-310.924	7.535	-0.299	-0.220
-309.910	-75.886	-0.034	0.012
-308.895	148.577	0.250	-0.332
-307.880	-92.649	0.073	-0.020
-306.866	-59.834	0.117	0.049
-305.851	5.794	0.286	-0.208
-304.837	114.008	-0.019	-0.023
-303.822	7.403	0.154	-0.113
-302.807	-98.423	0.215	0.054
-301.793	-167.907	-0.132	0.005
-300.778	150.090	0.077	-0.102
-299.764	-200.000	-0.062	0.472
-298.749	800.000	0.058	-0.242
-297.735	-38.095	0.289	-0.151
-296.720	-130.871	0.286	0.038
-295.705	-63.142	0.292	-0.118
-294.691	-163.933	0.198	0.009
-293.676	-96.633	-0.202	-0.052
-292.662	304.232	-0.038	0.070
-291.647	47.997	-0.112	-0.103
-290.632	-74.348	0.189	-0.067
-289.618	48.650	0.030	0.027
-288.603	72.309	-0.110	0.112
-287.589	-27.671	-0.256	-0.146
-286.574	-76.689	0.337	0.116
-285.559	293.898	0.033	-0.059
-284.545	72.782	0.081	0.083
-283.530	-45.844	-0.248	0.120
-282.516	-200.000	0.003	-0.025
-281.501	499.968	0.081	-0.185
-280.486	-124.084	0.237	0.036
-279.472	1.867	-0.085	-0.060
-278.457	-141.713	-0.360	-0.036
-277.443	-200.000	-0.018	0.177
-276.428	320.799	0.065	0.122
-275.413	800.000	-0.065	-0.229
-274.399	-200.000	-0.029	-0.132
-273.384	800.000	-0.107	0.330
-272.370	-58.156	0.187	-0.080
-271.355	735.687	0.075	0.198
-270.340	488.578	-0.234	0.525
-269.326	-167.692	-0.033	-0.001
-268.311	-22.636	0.185	-0.110
-267.297	587.742	0.088	-0.212
-266.282	-4.129	-0.185	-0.126
-265.267	-75.696	0.241	-0.084
-264.253	-65.364	-0.334	-0.132
-263.238	39.322	-0.116	-0.102
-262.224	15.941	-0.170	-0.131
-261.209	-19.790	0.110	0.067
-260.195	-51.513	0.134	0.061
-259.180	116.407	0.260	-0.312
-258.165	127.047	-0.189	-0.236
-257.151	14.384	-0.067	-0.051
-256.136	-200.000	-0.024	-0.145
-255.122	-3.704	-0.295	-0.201
-254.107	-74.927	0.201	0.071
-253.092	800.000	-0.078	-0.245
-252.078	-36.845	0.144	-0.076
-251.063	-200.000	-0.013	-0.093
-250.049	-44.477	-0.207	0.102
-249.034	-113.640	-0.283	0.054
-248.019	382.436	0.233	0.471
-247.005	262.216	-0.232	0.395
-245.990	267.345	-0.083	0.142
-244.976	-200.000	0.006	-0.292
-243.961	78.952	-0.190	-0.200
-242.946	100.620	-0.143	-0.163
-241.932	7.655	0.196	0.144
-240.917	691.065	0.070	-0.179
-239.903	-85.139	-0.311	-0.095
-238.888	470.179	-0.133	-0.293
-237.873	-90.060	-0.194	0.055
-236.859	137.600	0.151	0.194
-235.844	-116.114	0.125	0.023
-234.830	-12.271	-0.359	0.230
-233.815	216.641	0.099	0.154
-232.800	-105.911	0.261	-0.058
-231.786	-61.481	-0.238	0.098
-230.771	87.289	-0.113	0.123
-229.757	800.000	-0.052	-0.192
-228.742	-27.126	0.139	-0.080
-227.727	-93.814	-0.119	-0.032
-226.713	-200.000	-0.010	0.199
-225.698	745.750	0.067	-0.177
-224.684	-200.000	-0.009	-0.122
-223.669	109.783	-0.077	0.090
-222.655	-200.000	-0.011	-0.085
-221.640	98.525	0.147	0.166
-220.625	-10.192	-0.409	0.266
-219.611	307.849	-0.163	-0.298
-218.596	135.576	-0.036	-0.046
-217.582	-200.000	-0.011	-0.073
-216.567	157.998	0.233	0.316
-215.552	-72.481	0.380	0.138
-214.538	176.211	0.131	0.187
-213.523	20.082	0.400	-0.316
-212.509	387.561	-0.105	0.212
-211.494	-64.385	0.135	-0.054
-210.479	364.739	0.161	-0.317
-209.465	337.395	-0.156	0.298
-208.450	-37.898	0.230	-0.120
-207.436	-124.538	0.145	0.022
-206.421	800.000	0.058	0.217
-205.406	-124.041	-0.274	-0.042
-204.392	-112.169	0.134	-0.026
-203.377	800.000	0.092	-0.264
-202.363	-11.511	-0.047	0.030
-201.348	-72.023	-0.239	-0.087
-200.333	191.982	0.065	-0.097
-199.319	-200.000	-0.069	0.490
-198.304	-61.082	0.089	-0.037
-197.290	-200.000	0.041	0.251
-196.275	-71.000	0.232	-0.086
-195.260	332.529	0.106	-0.201
-194.246	-84.544	-0.062	0.019
-193.231	244.589	0.055	-0.091
-192.217	-200.000	0.036	0.161
-191.202	-9.821	-0.211	0.137
-190.187	-54.994	0.292	0.129
-189.173	0.387	-0.325	-0.227
-188.158	329.796	-0.094	-0.176
-187.144	3.569	-0.104	-0.074
-186.129	31.975	-0.332	0.280
-185.114	-145.829	0.392	-0.034
-184.100	-200.000	-0.235	0.001
-183.085	-153.919	-0.038	-0.003
-182.071	-125.821	-0.194	0.029
-181.056	575.652	0.095	0.228
-180.042	514.230	0.169	0.387
-179.027	-200.000	-0.060	-0.295
-178.012	113.520	0.099	0.118
-176.998	-105.266	0.079	-0.018
-175.983	117.369	-0.101	0.122
-174.969	-10.430	-0.159	0.103
-173.954	800.000	-0.061	0.179
-172.939	361.237	-0.093	0.182
-171.925	-200.000	-0.013	-0.094
-170.910	-50.530	-0.278	-0.128
-169.896	185.630	-0.041	-0.059
-168.881	18.667	0.109	-0.085
-167.866	15.469	0.112	-0.086
-166.852	555.644	-0.075	0.178
-165.837	800.000	0.092	0.271
-164.823	47.811	-0.132	-0.121
-163.808	-85.389	0.154	-0.047
-162.793	-47.464	-0.198	-0.094
-161.779	314.038	-0.075	0.138
-160.764	-165.999	-0.433	-0.018
-159.750	68.442	-0.089	0.089
-158.735	-5.441	0.172	0.115
-157.720	-30.610	-0.185	-0.102
-156.706	-76.896	0.361	0.123
-155.691	143.316	0.036	-0.046
-154.677	41.414	-0.203	0.180
-153.662	8.581	-0.045	0.033
-152.647	196.117	0.235	0.349
-151.633	44.601	-0.077	-0.069
-150.618	-200.000	0.023	0.231
-149.604	712.439	-0.096	-0.249
-148.589	-78.791	0.174	0.058
-147.574	-131.417	0.208	-0.027
-146.560	-200.000	0.027	-0.216
-145.545	72.267	-0.094	0.095
-144.531	-53.164	0.252	-0.113
-143.516	-66.677	-0.177	-0.068
-142.502	-160.588	0.435	-0.023
-141.487	-88.765	-0.120	0.035
-140.472	-16.364	0.324	-0.201
-139.458	154.983	-0.113	0.152
-138.443	-200.000	-0.020	0.098
-137.429	-116.446	0.074	0.013
-136.414	-49.418	-0.240	0.112
-135.399	-9.843	0.390	-0.253
-134.385	103.341	0.174	-0.199
-133.370	-23.708	0.137	0.080
-132.356	800.000	0.037	-0.153
-131.341	136.968	0.080	0.102
-130.326	8.258	0.388	0.285
-129.312	383.585	-0.053	-0.106
-128.297	437.919	-0.142	-0.302
-127.283	46.943	0.072	0.066
-126.268	-25.791	0.257	0.148
-125.253	-132.444	0.183	-0.023
-124.239	-99.113	0.353	-0.087
-123.224	592.564	-0.106	0.256
-122.210	-200.000	0.030	0.256
-121.195	-200.000	0.007	-0.405
