DTS Sentinel unit serial number:	SN413079Multiplexer serial number:	ORYXHardware model number:	OX4-SRSoftware version number:	ORYX F/W v4.00 Oryx Data Collector v3.7.2.0data status	okinstallation	princeton_trtdifferential loss correction	single-endedforward channel	channel 3reverse channel	N/Adate	2019/09/11time	05:50:11forward acquisition time	60.00reverse acquisition time	0.00gamma	496.2192k internal	0.2331k external	0.2331temperature offset calibration	0.9910default loss term (dB/km)	0.3790temperature slope calibration	1.0000multiplexer offset coefficient	1.0000multiplexer slope coefficient	1.0000fibre end	0.00T internal ref (°C)	29.41T ext. ref 1 (°C)	-0.23T ext. ref 2 (°C)	23.42length (m)	temperature (°C)	Stokes	anti-Stokes-747.200	-151.952	-0.230	0.017
-746.185	84.891	-0.318	0.351
-745.171	321.960	0.051	-0.097
-744.156	314.433	0.156	0.296
-743.142	-184.094	0.070	0.001
-742.127	60.185	-0.333	-0.332
-741.112	108.927	-0.129	-0.155
-740.098	-132.233	0.296	-0.039
-739.083	-200.000	0.021	0.365
-738.069	477.723	0.052	0.118
-737.054	-45.210	0.261	0.130
-736.039	-27.307	-0.336	-0.197
-735.025	-74.122	-0.085	-0.031
-734.010	46.541	-0.140	-0.131
-732.996	104.448	-0.298	-0.353
-731.981	35.896	0.104	0.092
-730.966	-177.743	-0.147	-0.004
-729.952	362.334	-0.155	-0.312
-728.937	-51.906	0.125	0.059
-727.923	123.605	0.042	-0.053
-726.908	-200.000	0.003	-0.013
-725.894	-200.000	-0.052	-0.503
-724.879	782.638	0.075	-0.207
-723.864	-156.346	0.066	-0.004
-722.850	-48.057	-0.010	-0.005
-721.835	105.413	-0.060	-0.072
-720.821	16.363	-0.101	0.080
-719.806	800.000	0.045	-0.153
-718.791	62.398	-0.204	0.205
-717.777	800.000	-0.151	0.577
-716.762	-99.322	-0.388	0.098
-715.748	191.415	0.130	0.197
-714.733	192.453	0.099	-0.150
-713.718	114.303	0.127	0.156
-712.704	-93.377	0.113	-0.031
-711.689	467.912	-0.074	0.166
-710.675	-55.315	0.230	-0.104
-709.660	36.854	0.443	0.394
-708.645	279.415	0.160	0.287
-707.631	-108.416	-0.212	-0.046
-706.616	-152.563	-0.299	-0.022
-705.602	-45.036	-0.066	0.033
-704.587	-200.000	-0.060	-0.327
-703.572	52.814	-0.105	0.101
-702.558	-82.890	0.134	0.044
-701.543	722.926	-0.063	-0.167
-700.529	784.841	-0.036	0.099
-699.514	140.609	0.015	0.020
-698.499	-30.595	-0.101	-0.057
-697.485	-1.224	0.165	-0.117
-696.470	-200.000	0.034	0.294
-695.456	-65.358	0.148	-0.060
-694.441	-200.000	-0.030	-0.258
-693.426	-48.612	-0.316	0.153
-692.412	-91.592	-0.334	-0.096
-691.397	800.000	-0.079	-0.255
-690.383	-88.292	-0.272	-0.082
-689.368	-22.622	-0.019	0.011
-688.354	-58.028	0.241	0.105
-687.339	-90.866	0.212	0.061
-686.324	-123.822	-0.116	0.018
-685.310	-37.204	0.192	0.103
-684.295	800.000	0.011	0.044
-683.281	431.040	0.086	-0.187
-682.266	-64.881	0.066	0.027
-681.251	-166.356	0.281	0.012
-680.237	601.733	0.097	-0.242
-679.222	50.447	0.215	-0.204
-678.208	-162.045	-0.146	0.007
-677.193	800.000	-0.104	-0.297
-676.178	-125.624	0.439	-0.067
-675.164	-119.160	-0.159	0.028
-674.149	-142.752	-0.056	-0.006
-673.135	-2.664	-0.086	-0.060
-672.120	-6.032	-0.326	0.224
-671.105	359.000	0.076	0.152
-670.091	364.591	0.120	0.242
-669.076	527.986	0.103	-0.244
-668.062	-28.969	-0.204	0.117
-667.047	-72.468	-0.229	0.085
-666.032	-112.038	0.234	-0.047
-665.018	214.860	0.068	-0.108
-664.003	232.862	0.068	-0.113
-662.989	49.333	-0.260	-0.245
-661.974	800.000	-0.017	0.056
-660.959	-48.376	-0.192	0.093
-659.945	-200.000	-0.007	0.158
-658.930	-23.288	-0.157	-0.095
-657.916	62.764	-0.121	0.121
-656.901	-47.921	0.078	-0.038
-655.886	-103.763	-0.180	-0.042
-654.872	-200.000	-0.024	-0.227
-653.857	-86.696	-0.350	0.108
-652.843	107.162	0.074	-0.088
-651.828	-99.788	-0.388	0.097
-650.814	-36.271	-0.006	0.003
-649.799	-200.000	0.003	0.116
-648.784	107.148	-0.088	-0.105
-647.770	800.000	0.110	-0.335
-646.755	800.000	-0.122	-0.431
-645.741	-48.502	-0.293	-0.141
-644.726	-179.555	0.243	0.005
-643.711	339.234	0.230	-0.450
-642.697	389.031	-0.003	0.007
-641.682	-172.605	-0.291	0.009
-640.668	-77.059	-0.231	-0.081
-639.653	-81.283	-0.170	-0.056
-638.638	-125.533	-0.126	0.019
-637.624	-200.000	-0.068	-0.530
-636.609	-126.533	0.364	-0.054
-635.595	-26.519	-0.201	-0.118
-634.580	59.973	-0.087	0.086
-633.565	-200.000	0.012	0.371
-632.551	-25.811	-0.378	0.223
-631.536	62.580	0.092	0.092
-630.522	-107.779	-0.239	0.052
-629.507	-200.000	-0.007	0.048
-628.492	-149.130	-0.063	-0.005
-627.478	-200.000	-0.055	-0.486
-626.463	800.000	-0.138	-0.393
-625.449	-112.857	-0.143	-0.028
-624.434	56.439	0.053	-0.052
-623.419	-200.000	0.028	0.307
-622.405	-200.000	0.010	-0.179
-621.390	45.863	-0.186	-0.172
-620.376	800.000	-0.067	-0.221
-619.361	-85.470	0.321	-0.100
-618.346	96.438	-0.306	-0.350
-617.332	-174.128	-0.325	-0.010
-616.317	338.249	0.067	0.130
-615.303	-43.525	0.202	-0.102
-614.288	228.653	-0.186	-0.304
-613.273	-41.669	-0.101	0.052
-612.259	690.971	-0.088	-0.232
-611.244	212.544	-0.098	-0.154
-610.230	-71.968	0.274	0.102
-609.215	11.248	-0.357	-0.274
-608.201	3.078	-0.176	-0.128
-607.186	-5.170	0.092	0.063
-606.171	-200.000	-0.015	0.275
-605.157	211.934	0.010	-0.016
-604.142	-2.565	0.112	0.079
-603.128	42.712	0.299	-0.272
-602.113	164.620	0.084	-0.119
-601.098	-200.000	-0.019	-0.136
-600.084	800.000	0.032	-0.094
-599.069	75.023	-0.179	-0.189
-598.055	105.114	0.165	0.195
-597.040	94.993	-0.038	0.043
-596.025	-159.653	0.145	-0.008
-595.011	-100.135	-0.104	0.026
-593.996	800.000	0.055	-0.191
-592.982	-200.000	-0.038	-0.422
-591.967	9.793	0.395	-0.300
-590.952	-200.000	-0.007	-0.219
-589.938	-87.266	-0.174	-0.053
-588.923	676.210	0.111	-0.288
-587.909	-200.000	-0.040	-0.522
-586.894	26.331	-0.081	0.067
-585.879	-200.000	0.016	-0.181
-584.865	-158.825	0.216	-0.012
-583.850	-114.122	-0.096	-0.019
-582.836	-200.000	-0.025	-0.148
-581.821	-163.634	0.205	-0.010
-580.806	-99.968	0.362	0.090
-579.792	-108.025	-0.401	0.087
-578.777	-19.022	0.163	-0.101
-577.763	-169.770	-0.201	0.007
-576.748	-122.890	-0.107	-0.017
-575.733	673.455	0.103	0.268
-574.719	-200.000	0.002	0.286
-573.704	-123.257	0.088	0.014
-572.690	7.681	0.282	0.211
-571.675	141.576	-0.064	0.084
-570.661	221.959	-0.114	0.183
-569.646	607.155	-0.106	-0.264
-568.631	-200.000	0.029	-0.154
-567.617	-21.628	0.109	-0.066
-566.602	45.797	-0.200	0.185
-565.588	-200.000	0.018	-0.173
-564.573	-80.288	-0.286	-0.096
-563.558	100.999	0.181	0.210
-562.544	-100.172	-0.177	0.044
-561.529	-200.000	0.063	0.447
-560.515	239.682	-0.146	0.243
-559.500	-119.323	0.193	0.034
-558.485	-104.383	-0.313	-0.072
-557.471	-176.078	0.107	-0.003
-556.456	-149.835	0.206	0.016
-555.442	138.423	-0.058	0.076
-554.427	269.991	-0.206	0.361
-553.412	-200.000	0.011	-0.174
-552.398	-200.000	0.052	-0.265
-551.383	-200.000	0.159	-0.000
-550.369	2.203	0.220	0.159
-549.354	800.000	0.062	0.244
-548.339	-200.000	0.007	0.264
-547.325	32.241	0.077	-0.066
-546.310	-116.677	0.183	-0.034
-545.296	-200.000	0.000	-0.116
-544.281	-130.744	0.199	-0.027
-543.266	89.004	0.169	0.188
-542.252	-66.876	-0.332	-0.131
-541.237	-19.995	0.043	-0.026
-540.223	45.211	0.455	0.418
-539.208	0.926	-0.227	0.163
-538.193	-163.842	-0.172	-0.008
-537.179	683.674	-0.066	-0.172
-536.164	-200.000	0.021	0.153
-535.150	22.344	0.274	0.223
-534.135	21.623	0.101	0.082
-533.121	-16.788	-0.102	0.064
-532.106	-48.033	-0.268	-0.129
-531.091	-87.229	-0.074	0.022
-530.077	15.916	0.252	0.198
-529.062	216.820	0.192	-0.304
-528.048	648.734	-0.062	-0.159
-527.033	-83.303	0.073	-0.023
-526.018	480.986	-0.166	-0.377
-525.004	-102.665	-0.143	0.034
-523.989	-68.200	0.185	0.072
-522.975	184.006	0.242	0.357
-521.960	-175.649	-0.111	-0.003
-520.945	-200.000	-0.006	0.141
-519.931	-77.735	0.242	-0.084
-518.916	43.662	-0.114	0.104
-517.902	7.256	-0.233	-0.174
-516.887	800.000	0.034	-0.134
-515.872	-200.000	0.054	0.307
-514.858	-11.638	0.222	-0.146
-513.843	-200.000	0.012	-0.186
-512.829	-86.418	0.120	-0.037
-511.814	800.000	0.071	-0.219
-510.799	58.322	0.159	0.156
-509.785	-104.483	0.312	0.072
-508.770	5.480	0.170	0.125
-507.756	129.665	0.104	0.133
-506.741	-200.000	-0.251	0.000
-505.726	800.000	0.039	-0.151
-504.712	-200.000	0.018	-0.313
-503.697	200.483	-0.163	0.250
-502.683	91.587	0.151	-0.169
-501.668	-28.310	0.431	-0.248
-500.653	361.412	-0.160	0.319
-499.639	184.923	0.113	-0.168
-498.624	-127.814	-0.101	-0.015
-497.610	-157.645	-0.085	-0.005
-496.595	-113.373	-0.104	0.020
-495.581	19.675	-0.092	-0.074
-494.566	5.404	0.184	0.135
-493.551	326.976	0.058	-0.110
-492.537	-131.095	-0.158	-0.021
-491.522	342.407	0.071	0.139
-490.508	55.622	-0.105	-0.101
-489.493	604.407	0.042	0.103
-488.478	800.000	0.037	-0.153
-487.464	-200.000	-0.053	0.263
-486.449	6.185	-0.092	0.068
-485.435	-200.000	0.102	-0.537
-484.420	706.949	0.014	-0.036
-483.405	-200.000	-0.002	0.152
-482.391	406.229	0.179	0.376
-481.376	-93.890	0.387	-0.106
-480.362	-95.627	-0.144	0.038
-479.347	472.777	-0.074	0.167
-478.332	-97.975	0.092	0.024
-477.318	-200.000	-0.021	0.291
-476.303	9.510	0.073	0.055
-475.289	-44.721	0.266	0.132
-474.274	-29.768	-0.428	0.243
-473.259	-53.107	-0.228	0.104
-472.245	-200.000	0.076	-0.000
-471.230	-53.743	-0.108	-0.049
-470.216	-78.736	0.067	-0.023
-469.201	142.889	-0.199	-0.263
-468.186	-133.837	-0.238	-0.030
-467.172	11.484	0.103	-0.078
-466.157	134.054	0.085	0.110
-465.143	335.244	0.137	-0.264
-464.128	-47.227	0.332	0.161
-463.113	-200.000	-0.083	0.542
-462.099	-97.903	-0.253	0.065
-461.084	800.000	0.031	0.095
-460.070	229.001	0.057	0.092
-459.055	-96.558	0.137	-0.036
-458.040	25.545	-0.337	-0.279
-457.026	482.871	0.132	-0.298
-456.011	-53.091	-0.036	0.017
-454.997	-64.777	-0.110	0.044
-453.982	-60.486	0.260	0.110
-452.968	-159.970	0.139	0.008
-451.953	-200.000	0.042	-0.196
-450.938	-50.968	-0.288	-0.134
-449.924	133.413	-0.208	0.268
-448.909	-200.000	0.045	0.249
-447.895	-15.840	-0.196	0.124
-446.880	20.940	-0.238	0.192
-445.865	35.385	0.323	-0.282
-444.851	-116.478	-0.560	0.103
-443.836	203.692	0.186	-0.287
-442.822	69.039	0.159	0.163
-441.807	474.242	0.154	0.347
-440.792	-136.309	0.118	-0.014
-439.778	102.606	-0.314	-0.365
-438.763	-70.875	0.347	-0.130
-437.749	111.828	-0.024	0.029
-436.734	233.682	-0.183	-0.299
-435.719	0.384	0.058	-0.042
-434.705	3.887	0.128	0.093
-433.690	-36.010	-0.184	0.099
-432.676	-200.000	0.023	-0.156
-431.661	-133.501	0.162	0.020
-430.646	26.725	-0.093	0.078
-429.632	-200.000	0.037	0.240
-428.617	-200.000	-0.028	-0.188
-427.603	-200.000	0.036	0.383
-426.588	-142.020	0.238	0.024
-425.573	-63.543	0.182	-0.074
-424.559	644.965	-0.087	-0.221
-423.544	800.000	-0.061	-0.217
-422.530	-8.810	0.291	0.194
-421.515	27.652	-0.140	0.117
-420.500	257.390	0.161	-0.275
-419.486	-54.303	0.125	0.056
-418.471	69.493	0.090	-0.092
-417.457	-131.306	0.344	-0.045
-416.442	800.000	-0.080	-0.339
-415.428	587.167	-0.123	-0.301
-414.413	-60.685	-0.191	-0.081
-413.398	-87.830	-0.154	0.046
-412.384	-98.895	0.282	-0.071
-411.369	-98.232	-0.481	0.123
-410.355	-39.232	-0.355	0.185
-409.340	1.521	-0.281	-0.201
-408.325	336.623	-0.128	-0.247
-407.311	112.598	-0.033	-0.039
-406.296	-81.820	-0.148	-0.048
-405.282	26.497	0.220	0.183
-404.267	209.285	-0.083	-0.129
-403.252	-124.731	-0.154	-0.024
-402.238	800.000	-0.086	0.245
-401.223	89.868	0.061	-0.067
-400.209	-200.000	0.036	-0.246
-399.194	253.306	0.136	-0.231
-398.179	296.458	-0.089	0.162
-397.165	65.454	0.104	0.105
-396.150	21.900	0.156	0.127
-395.136	-200.000	-0.021	0.178
-394.121	-15.917	0.140	0.089
-393.106	-0.570	-0.277	0.195
-392.092	-0.567	0.070	0.050
-391.077	-111.493	-0.145	-0.029
-390.063	115.387	-0.009	-0.011
-389.048	163.112	-0.168	0.235
-388.033	-91.462	0.193	0.055
-387.019	-77.479	-0.223	0.077
-386.004	293.913	0.070	-0.126
-384.990	539.206	0.098	0.231
-383.975	-152.220	-0.223	0.016
-382.960	-12.591	0.288	-0.187
-381.946	-95.214	-0.079	-0.021
-380.931	-119.083	-0.207	-0.036
-379.917	-58.793	0.091	-0.039
-378.902	274.756	-0.153	0.268
-377.888	449.127	-0.093	-0.202
-376.873	201.448	0.155	-0.237
-375.858	800.000	0.024	-0.084
-374.844	-180.567	0.088	-0.002
-373.829	-16.299	0.125	-0.079
-372.815	309.075	0.105	0.195
-371.800	-77.661	-0.391	0.134
-370.785	27.342	-0.271	-0.226
-369.771	-107.590	-0.036	-0.008
-368.756	800.000	-0.043	0.124
-367.742	-42.720	0.146	0.074
-366.727	142.333	0.190	0.250
-365.712	-86.236	-0.178	-0.054
-364.698	-17.967	0.154	0.096
-363.683	219.965	0.054	-0.086
-362.669	-151.791	-0.243	-0.018
-361.654	37.989	-0.123	-0.108
-360.639	-61.544	0.149	-0.062
-359.625	-72.876	0.067	0.025
-358.610	-200.000	0.035	-0.278
-357.596	800.000	0.037	-0.108
-356.581	-200.000	0.044	0.341
-355.566	-93.743	0.142	-0.039
-354.552	680.429	-0.049	-0.127
-353.537	-200.000	-0.130	-0.000
-352.523	800.000	0.024	0.099
-351.508	86.634	-0.125	0.137
-350.493	211.583	-0.124	0.193
-349.479	394.080	0.113	0.233
-348.464	6.626	-0.150	0.110
-347.450	-122.577	0.152	0.024
-346.435	-200.000	0.019	0.136
-345.420	-31.909	0.351	-0.195
-344.406	800.000	-0.118	-0.399
-343.391	-200.000	-0.012	-0.064
-342.377	48.306	-0.152	-0.141
-341.362	309.734	-0.060	0.111
-340.348	158.875	0.123	0.170
-339.333	-97.437	0.349	0.090
-338.318	-200.000	-0.013	0.160
-337.304	35.464	-0.090	0.078
-336.289	-200.000	0.032	-0.148
-335.275	73.021	-0.218	0.226
-334.260	-142.474	-0.600	0.058
-333.245	-175.095	0.297	-0.008
-332.231	-138.446	-0.318	-0.035
-331.216	-200.000	-0.018	-0.352
-330.202	18.278	0.029	-0.023
-329.187	-200.000	0.016	0.135
-328.172	-62.787	-0.231	-0.095
-327.158	-12.052	-0.297	-0.193
-326.143	27.496	-0.218	0.182
-325.129	-200.000	-0.026	-0.170
-324.114	147.123	0.087	0.116
-323.099	-56.037	0.351	0.155
-322.085	233.080	-0.166	0.271
-321.070	-200.000	-0.044	-0.364
-320.056	-134.393	-0.004	-0.000
-319.041	-159.135	-0.367	-0.020
-318.026	177.762	-0.258	-0.373
-317.012	221.436	0.170	-0.271
-315.997	-200.000	0.038	0.174
-314.983	557.533	0.083	0.198
-313.968	-200.000	0.045	-0.269
-312.953	800.000	0.022	0.060
-311.939	265.038	-0.128	-0.220
-310.924	162.977	0.026	0.036
-309.910	-34.192	0.182	-0.099
-308.895	218.368	-0.088	-0.139
-307.880	172.678	-0.208	-0.297
-306.866	800.000	-0.052	-0.191
-305.851	-109.224	0.080	-0.017
-304.837	800.000	-0.083	0.237
-303.822	-16.881	-0.171	-0.107
-302.807	-128.581	0.255	0.036
-301.793	-169.418	0.265	0.010
-300.778	0.773	-0.132	0.094
-299.764	-124.635	0.086	0.013
-298.749	108.315	0.080	0.094
-297.735	-200.000	0.000	0.006
-296.720	-200.000	-0.033	-0.365
-295.705	612.265	-0.148	-0.366
-294.691	-100.494	0.234	0.057
-293.676	-200.000	0.008	0.215
-292.662	-81.463	0.122	0.040
-291.647	-200.000	-0.075	-0.554
-290.632	-200.000	-0.022	-0.110
-289.618	-80.103	-0.291	0.096
-288.603	58.839	0.269	0.262
-287.589	693.938	-0.077	0.201
-286.574	230.884	0.149	0.242
-285.559	548.458	0.150	0.356
-284.545	727.847	-0.172	0.454
-283.530	-114.715	0.121	-0.023
-282.516	76.740	0.158	0.165
-281.501	32.687	0.016	-0.013
-280.486	-133.858	-0.235	0.029
-279.472	131.949	0.155	0.197
-278.457	74.137	-0.134	-0.139
-277.443	515.294	-0.059	-0.135
-276.428	29.491	0.007	0.005
-275.413	-32.441	0.189	0.104
-274.399	209.901	-0.072	0.111
-273.384	72.766	0.200	0.206
-272.370	632.047	0.034	0.086
-271.355	-200.000	-0.012	-0.243
-270.340	-160.434	-0.117	0.006
-269.326	-200.000	-0.019	0.166
-268.311	-200.000	-0.026	0.257
-267.297	337.987	0.243	0.468
-266.282	800.000	0.059	0.186
-265.267	-47.512	0.095	0.046
-264.253	481.205	0.051	-0.114
-263.238	11.642	-0.120	-0.091
-262.224	-200.000	0.002	0.192
-261.209	795.192	-0.166	0.452
-260.195	643.344	-0.041	0.104
-259.180	-12.901	0.285	-0.183
-258.165	-164.806	-0.081	-0.004
-257.151	-3.593	0.095	-0.065
-256.136	800.000	0.035	0.095
-255.122	-88.445	0.153	-0.045
-254.107	0.043	-0.177	0.125
-253.092	-32.664	0.207	0.114
-252.078	623.662	0.107	-0.266
-251.063	-120.608	0.435	-0.073
-250.049	-26.432	-0.032	-0.019
-249.034	87.338	0.210	0.229
-248.019	-89.966	-0.131	0.038
-247.005	-200.000	0.017	-0.155
-245.990	-200.000	-0.246	0.001
-244.976	-29.347	0.347	0.196
-243.961	752.667	-0.084	-0.223
-242.946	-65.021	0.197	-0.078
-241.932	152.333	0.219	0.295
-240.917	42.847	-0.017	0.016
-239.903	-45.723	0.146	-0.071
-238.888	-189.518	0.273	-0.003
-237.873	94.033	-0.052	0.058
-236.859	-102.953	0.087	0.020
-235.844	164.023	-0.153	0.212
-234.830	256.405	-0.055	-0.093
-233.815	145.708	-0.112	-0.148
-232.800	800.000	0.040	-0.168
-231.786	21.426	0.097	0.078
-230.771	118.564	-0.157	-0.191
-229.757	-200.000	-0.015	-0.137
-228.742	-68.892	-0.285	-0.109
-227.727	800.000	0.031	0.129
-226.713	-156.598	0.051	0.003
-225.698	94.493	0.063	-0.070
-224.684	-23.063	0.317	0.189
-223.669	483.687	-0.120	0.270
-222.655	-57.904	0.306	-0.132
-221.640	126.771	-0.074	0.093
-220.625	398.238	-0.057	0.119
-219.611	-83.473	0.246	0.078
-218.596	-141.315	0.318	0.032
-217.582	211.260	-0.241	0.374
-216.567	-11.158	0.221	0.144
-215.552	-45.617	-0.258	-0.126
-214.538	-200.000	0.009	0.054
-213.523	410.931	-0.110	-0.230
-212.509	-145.465	-0.229	-0.020
-211.494	-171.133	0.067	-0.002
-210.479	129.175	0.052	0.065
-209.465	413.817	-0.067	-0.140
-208.450	800.000	0.017	-0.057
-207.436	110.197	0.054	-0.064
-206.421	398.017	-0.104	0.215
-205.406	-144.785	-0.221	0.020
-204.392	-24.330	-0.283	-0.166
-203.377	800.000	-0.098	0.417
-202.363	-24.739	-0.124	-0.073
-201.348	237.795	0.157	0.257
-200.333	528.844	0.058	0.136
-199.319	-95.520	-0.090	0.024
-198.304	-154.519	0.074	0.005
-197.290	-200.000	-0.019	-0.223
-196.275	-200.000	0.066	-0.395
-195.260	-200.000	-0.002	0.221
-194.246	-200.000	0.064	0.338
-193.231	-108.346	-0.147	-0.031
-192.217	-200.000	-0.016	-0.118
-191.202	-200.000	0.008	0.101
-190.187	-200.000	0.061	-0.290
-189.173	62.650	-0.176	0.174
-188.158	-106.069	0.161	0.036
-187.144	-159.282	0.116	-0.006
-186.129	306.498	-0.233	-0.428
-185.114	38.399	-0.116	-0.102
-184.100	-60.124	0.196	-0.082
-183.085	250.192	0.184	0.308
-182.071	-79.404	-0.265	0.088
-181.056	296.660	0.060	0.109
-180.042	474.477	0.044	0.098
-179.027	-156.765	0.069	-0.004
-178.012	2.819	0.154	0.110
-176.998	-63.471	-0.289	0.117
-175.983	-200.000	0.043	0.231
-174.969	593.802	-0.162	0.393
-173.954	-44.270	-0.123	0.061
-172.939	51.249	0.227	-0.213
-171.925	-83.394	-0.126	-0.040
-170.910	-1.240	0.212	0.147
-169.896	-110.476	-0.227	-0.046
-168.881	251.713	-0.100	-0.168
-167.866	122.882	0.174	-0.215
-166.852	-51.773	0.086	0.039
-165.837	-171.967	-0.204	0.007
-164.823	-200.000	-0.000	-0.022
-163.808	11.285	-0.185	-0.139
-162.793	92.174	0.175	0.194
-161.779	800.000	-0.077	0.307
-160.764	800.000	0.047	0.184
-159.750	392.343	-0.219	-0.448
-158.735	59.485	0.137	-0.132
-157.720	-31.758	0.048	0.026
-156.706	111.706	-0.019	0.022
-155.691	-131.714	0.121	-0.016
-154.677	800.000	0.018	0.050
-153.662	89.581	0.244	0.268
-152.647	-51.123	0.078	0.036
-151.633	-200.000	0.037	0.228
-150.618	506.487	0.031	-0.070
-149.604	25.919	-0.098	0.080
-148.589	-57.321	0.210	-0.091
-147.574	-200.000	-0.024	0.206
-146.560	103.084	-0.247	-0.285
-145.545	-56.714	0.029	0.013
-144.531	-93.357	-0.082	-0.022
-143.516	222.636	0.129	-0.204
-142.502	-200.000	0.022	0.218
-141.487	-60.625	-0.320	-0.133
-140.472	12.530	-0.111	-0.084
-139.458	221.974	0.210	-0.332
-138.443	20.600	-0.134	0.107
-137.429	-0.187	0.104	-0.073
-136.414	-179.582	-0.243	-0.005
-135.399	-16.945	0.131	-0.081
-134.385	-1.884	-0.138	-0.096
-133.370	-103.161	0.317	-0.074
-132.356	800.000	-0.074	-0.210
-131.341	64.724	0.039	-0.039
-130.326	211.244	0.052	-0.081
-129.312	50.747	0.103	-0.096
-128.297	-200.000	0.024	0.343
-127.283	-99.529	-0.128	-0.032
-126.268	779.085	-0.238	0.640
-125.253	-200.000	-0.076	0.376
-124.239	-200.000	0.050	0.245
-123.224	-123.737	-0.214	-0.033
-122.210	449.736	0.108	0.233
-121.195	-64.411	0.135	0.054
