DTS Sentinel unit serial number:	SN413079Multiplexer serial number:	ORYXHardware model number:	OX4-SRSoftware version number:	ORYX F/W v4.00 Oryx Data Collector v3.7.2.0data status	okinstallation	princeton_trtdifferential loss correction	single-endedforward channel	channel 3reverse channel	N/Adate	2019/09/12time	14:22:11forward acquisition time	60.00reverse acquisition time	0.00gamma	496.2192k internal	0.2294k external	0.2294temperature offset calibration	1.0057default loss term (dB/km)	0.3790temperature slope calibration	1.0000multiplexer offset coefficient	1.0000multiplexer slope coefficient	1.0000fibre end	0.00T internal ref (°C)	40.16T ext. ref 1 (°C)	2.28T ext. ref 2 (°C)	34.79length (m)	temperature (°C)	Stokes	anti-Stokes-747.200	33.414	0.277	-0.246
-746.185	1.898	-0.195	0.144
-745.171	19.888	-0.260	-0.215
-744.156	123.823	0.158	0.203
-743.142	-37.496	0.161	-0.088
-742.127	-156.681	-0.316	0.020
-741.112	-50.535	0.268	0.129
-740.098	800.000	0.083	0.336
-739.083	59.915	-0.172	-0.173
-738.069	-67.006	-0.209	-0.084
-737.054	-113.026	-0.183	0.037
-736.039	-84.267	-0.198	-0.064
-735.025	-119.173	0.147	0.026
-734.010	380.002	-0.158	0.331
-732.996	40.985	-0.054	0.050
-731.981	37.042	0.409	-0.370
-730.966	-128.219	-0.201	-0.029
-729.952	-200.000	0.012	-0.306
-728.937	-135.327	0.112	0.014
-727.923	-200.000	-0.024	0.120
-726.908	-112.021	0.275	-0.057
-725.894	106.114	-0.091	-0.111
-724.879	40.315	0.219	-0.201
-723.864	164.589	-0.184	0.266
-722.850	10.050	0.144	0.111
-721.835	800.000	-0.127	0.366
-720.821	-33.896	-0.175	0.099
-719.806	-200.000	0.019	-0.258
-718.791	-200.000	0.021	-0.352
-717.777	-4.458	0.373	-0.264
-716.762	200.497	0.168	-0.264
-715.748	-69.780	-0.257	-0.100
-714.733	23.946	0.096	-0.081
-713.718	-200.000	0.007	0.291
-712.704	-43.549	-0.095	0.049
-711.689	10.001	0.037	0.029
-710.675	576.766	0.080	-0.199
-709.660	332.767	-0.008	0.015
-708.645	65.374	-0.088	0.091
-707.631	-26.673	0.227	-0.136
-706.616	-200.000	-0.072	-0.371
-705.602	-200.000	-0.017	0.089
-704.587	-3.764	-0.188	0.134
-703.572	247.210	0.045	0.078
-702.558	800.000	0.123	0.379
-701.543	21.857	-0.136	0.113
-700.529	800.000	0.053	0.149
-699.514	75.498	-0.291	0.313
-698.499	-58.829	-0.272	0.120
-697.485	235.949	-0.136	0.229
-696.470	159.416	0.221	0.314
-695.456	33.647	-0.303	0.269
-694.441	800.000	0.105	0.338
-693.426	-74.453	0.208	0.077
-692.412	-89.405	0.122	0.037
-691.397	-54.186	0.104	0.048
-690.383	-99.325	-0.114	-0.029
-689.368	-94.885	0.069	0.019
-688.354	157.897	0.124	-0.176
-687.339	326.643	0.137	-0.268
-686.324	-85.407	-0.110	-0.035
-685.310	-200.000	0.035	-0.316
-684.295	800.000	-0.033	-0.131
-683.281	-200.000	0.034	-0.283
-682.266	-200.000	-0.006	-0.157
-681.251	47.073	-0.136	0.129
-680.237	-87.162	-0.162	-0.050
-679.222	302.522	0.036	0.067
-678.208	-108.726	-0.065	-0.014
-677.193	-196.136	-0.254	-0.002
-676.178	-61.877	0.300	0.128
-675.164	83.856	0.364	-0.405
-674.149	-10.790	-0.221	-0.149
-673.135	121.402	-0.135	0.171
-672.120	129.067	-0.139	-0.181
-671.105	-166.132	-0.239	0.010
-670.091	800.000	0.022	-0.086
-669.076	-130.756	-0.176	0.024
-668.062	-51.018	-0.495	0.237
-667.047	-10.800	0.289	0.195
-666.032	800.000	0.066	0.225
-665.018	-112.070	-0.156	-0.032
-664.003	-52.405	0.089	-0.042
-662.989	-38.984	-0.180	0.097
-661.974	121.064	-0.149	0.189
-660.959	204.900	0.143	0.226
-659.945	800.000	-0.069	-0.303
-658.930	-35.097	-0.104	0.058
-657.916	163.353	-0.131	-0.188
-656.901	23.368	0.034	-0.029
-655.886	-14.310	0.165	0.108
-654.872	376.463	-0.125	0.260
-653.857	22.009	0.220	0.183
-652.843	33.547	0.101	0.089
-651.828	326.508	-0.105	-0.204
-650.814	125.454	0.107	0.138
-649.799	224.757	0.110	-0.181
-648.784	59.267	0.078	-0.078
-647.770	-200.000	0.027	-0.126
-646.755	-84.534	0.096	0.031
-645.741	-19.529	0.120	0.076
-644.726	800.000	0.101	-0.344
-643.711	-200.000	0.033	-0.180
-642.697	174.931	-0.091	0.135
-641.682	399.340	0.128	-0.273
-640.668	-200.000	0.079	0.407
-639.653	550.036	-0.045	0.109
-638.638	157.268	0.136	-0.192
-637.624	800.000	0.036	-0.133
-636.609	-6.469	0.104	-0.072
-635.595	302.084	-0.109	0.205
-634.580	-200.000	-0.008	-0.225
-633.565	-200.000	-0.053	-0.273
-632.551	-25.921	0.134	0.080
-631.536	-200.000	0.001	-0.132
-630.522	626.822	-0.065	-0.166
-629.507	55.068	0.321	0.316
-628.492	800.000	0.057	0.205
-627.478	14.965	0.117	-0.094
-626.463	-200.000	-0.030	-0.215
-625.449	53.074	-0.143	-0.139
-624.434	575.446	-0.047	0.117
-623.419	-200.000	0.016	-0.124
-622.405	-200.000	-0.034	-0.368
-621.390	437.553	-0.111	0.246
-620.376	-127.863	0.057	-0.008
-619.361	103.967	-0.122	0.146
-618.346	1.807	-0.120	-0.088
-617.332	-15.131	-0.261	-0.170
-616.317	-73.078	-0.135	0.050
-615.303	-157.639	0.288	-0.017
-614.288	-99.831	-0.364	0.093
-613.273	800.000	-0.048	-0.139
-612.259	-200.000	-0.006	-0.105
-611.244	-200.000	-0.026	-0.397
-610.230	-112.708	-0.111	0.023
-609.215	-81.799	0.167	0.056
-608.201	-102.962	0.169	0.041
-607.186	555.172	0.153	-0.374
-606.171	143.840	-0.064	-0.087
-605.157	-23.719	0.195	0.119
-604.142	-105.720	0.046	-0.011
-603.128	374.023	-0.013	0.028
-602.113	185.622	-0.100	-0.151
-601.098	-200.000	-0.064	-0.333
-600.084	51.463	0.248	0.240
-599.069	-84.778	0.059	-0.019
-598.055	-200.000	0.002	-0.284
-597.040	-200.000	0.001	0.078
-596.025	-29.534	0.275	-0.160
-595.011	-42.226	-0.293	-0.152
-593.996	378.508	0.106	-0.220
-592.982	-8.144	0.153	0.105
-591.967	122.503	-0.180	0.228
-590.952	54.112	-0.145	-0.141
-589.938	43.421	0.026	0.024
-588.923	-200.000	0.032	-0.252
-587.909	-21.892	0.319	0.197
-586.894	56.373	-0.077	0.076
-585.879	800.000	0.018	0.052
-584.865	446.354	-0.018	-0.040
-583.850	-36.937	-0.209	-0.114
-582.836	-200.000	0.026	0.197
-581.821	-200.000	0.015	0.083
-580.806	-43.001	-0.110	0.057
-579.792	-200.000	-0.013	0.062
-578.777	-200.000	0.055	-0.331
-577.763	-200.000	-0.017	-0.564
-576.748	33.185	0.141	-0.124
-575.733	-152.391	0.134	-0.010
-574.719	10.106	-0.235	-0.181
-573.704	-132.222	0.211	0.028
-572.690	-200.000	0.043	0.481
-571.675	-35.546	0.181	0.100
-570.661	-200.000	-0.067	-0.321
-569.646	800.000	0.028	0.097
-568.631	679.574	-0.043	-0.113
-567.617	420.546	-0.049	0.107
-566.602	-161.067	0.215	0.011
-565.588	-2.344	-0.081	0.058
-564.573	14.491	-0.112	-0.089
-563.558	164.639	-0.066	0.094
-562.544	-200.000	0.022	0.188
-561.529	678.503	-0.086	0.228
-560.515	380.264	0.079	-0.165
-559.500	11.614	-0.156	0.122
-558.485	82.428	0.187	0.206
-557.471	-113.426	0.294	0.058
-556.456	257.183	-0.104	-0.182
-555.442	125.445	-0.143	0.183
-554.427	193.073	0.049	-0.076
-553.412	-90.304	-0.311	-0.092
-552.398	-200.000	0.011	0.180
-551.383	12.754	-0.189	-0.148
-550.369	0.601	-0.137	-0.099
-549.354	-57.773	-0.266	-0.118
-548.339	800.000	-0.184	-0.547
-547.325	-48.901	0.197	-0.096
-546.310	-200.000	0.017	-0.211
-545.296	-200.000	-0.076	-0.343
-544.281	33.316	0.130	0.114
-543.266	555.148	0.035	0.086
-542.252	-109.671	0.353	-0.075
-541.237	-200.000	-0.011	-0.076
-540.223	562.452	-0.098	0.241
-539.208	800.000	-0.063	0.228
-538.193	800.000	-0.119	-0.431
-537.179	-118.745	-0.070	0.013
-536.164	52.918	0.092	0.089
-535.150	800.000	-0.018	0.070
-534.135	473.330	-0.132	-0.301
-533.121	-200.000	0.005	0.382
-532.106	416.147	0.109	0.236
-531.091	11.404	-0.260	-0.202
-530.077	384.231	0.057	0.119
-529.062	-134.983	-0.139	0.017
-528.048	-200.000	-0.009	0.417
-527.033	-66.050	0.204	-0.083
-526.018	41.469	-0.015	-0.014
-525.004	-127.625	-0.261	-0.038
-523.989	-200.000	-0.046	-0.226
-522.975	126.299	-0.202	-0.259
-521.960	-142.296	0.157	-0.016
-520.945	122.064	0.034	0.043
-519.931	-9.943	-0.305	-0.206
-518.916	-77.052	0.346	0.122
-517.902	34.399	-0.174	0.154
-516.887	286.069	-0.019	0.035
-515.872	800.000	-0.046	0.157
-514.858	-110.032	-0.102	-0.022
-513.843	-16.894	-0.165	0.106
-512.829	-20.950	0.148	-0.092
-511.814	-128.802	0.423	-0.060
-510.799	-174.056	-0.249	0.007
-509.785	-43.873	0.284	0.145
-508.770	41.905	0.098	0.090
-507.756	449.620	0.062	-0.139
-506.741	-200.000	0.042	0.224
-505.726	473.507	0.039	0.088
-504.712	-200.000	0.029	0.147
-503.697	800.000	-0.101	0.306
-502.683	24.950	0.258	0.216
-501.668	-56.303	-0.204	-0.092
-500.653	-52.000	-0.203	0.095
-499.639	-84.956	-0.013	-0.004
-498.624	-92.314	-0.255	0.073
-497.610	309.271	-0.080	0.152
-496.595	278.700	0.301	0.543
-495.581	13.338	0.152	-0.119
-494.566	111.810	-0.361	0.442
-493.551	-200.000	0.009	0.130
-492.537	-200.000	-0.024	-0.219
-491.522	-63.000	-0.234	0.098
-490.508	-21.808	-0.061	0.038
-489.493	-48.801	0.132	0.064
-488.478	61.505	0.121	-0.122
-487.464	-19.152	0.184	0.116
-486.449	-39.104	0.321	0.171
-485.435	-154.372	0.227	0.015
-484.420	80.963	-0.232	0.253
-483.405	570.296	-0.037	-0.091
-482.391	-200.000	0.051	0.404
-481.376	86.265	0.106	0.119
-480.362	-80.168	0.263	0.089
-479.347	-56.842	-0.247	-0.111
-478.332	-120.744	-0.252	-0.043
-477.318	69.297	0.170	-0.177
-476.303	281.700	0.107	0.194
-475.289	-49.037	0.219	-0.106
-474.274	233.061	-0.073	-0.121
-473.259	-62.381	0.321	0.135
-472.245	270.864	-0.189	0.337
-471.230	-6.398	-0.080	-0.055
-470.216	-196.655	-0.325	0.002
-469.201	800.000	-0.059	-0.206
-468.186	107.074	0.246	0.296
-467.172	-200.000	0.046	-0.212
-466.157	-154.896	0.329	0.022
-465.143	-83.125	0.278	0.091
-464.128	389.018	0.220	0.462
-463.113	-85.072	-0.110	-0.035
-462.099	101.641	0.150	-0.177
-461.084	-187.412	-0.100	0.001
-460.070	27.282	-0.170	-0.145
-459.055	-97.504	0.217	-0.057
-458.040	252.014	0.056	0.097
-457.026	39.165	-0.149	-0.135
-456.011	-55.503	-0.319	0.144
-454.997	41.245	0.327	0.299
-453.982	84.036	0.121	-0.133
-452.968	84.326	-0.177	0.195
-451.953	-148.399	0.434	0.036
-450.938	800.000	0.069	-0.193
-449.924	-99.388	0.108	0.027
-448.909	-82.914	0.028	0.009
-447.895	-200.000	0.042	0.354
-446.880	-117.203	0.220	0.040
-445.865	-49.873	0.140	-0.067
-444.851	-200.000	0.008	0.078
-443.836	-200.000	0.039	0.321
-442.822	253.779	0.157	-0.271
-441.807	-9.273	-0.121	0.081
-440.792	694.867	0.144	0.381
-439.778	350.974	-0.102	0.205
-438.763	800.000	-0.034	0.121
-437.749	-188.397	0.142	-0.002
-436.734	462.395	-0.055	-0.123
-435.719	-165.186	-0.092	0.004
-434.705	-200.000	-0.023	-0.298
-433.690	-73.640	0.251	-0.092
-432.676	-29.591	0.136	-0.078
-431.661	265.482	-0.140	-0.246
-430.646	-200.000	-0.020	0.162
-429.632	215.723	0.203	-0.326
-428.617	-20.137	-0.156	-0.097
-427.603	227.561	-0.109	-0.179
-426.588	-200.000	0.034	0.231
-425.573	-188.302	-0.219	0.003
-424.559	58.575	-0.039	0.039
-423.544	-200.000	0.039	0.269
-422.530	511.948	-0.132	-0.310
-421.515	230.967	0.216	-0.357
-420.500	232.417	0.193	0.320
-419.486	-10.871	-0.250	0.167
-418.471	-112.827	-0.151	0.030
-417.457	800.000	-0.024	-0.078
-416.442	97.419	-0.120	0.139
-415.428	-118.565	-0.272	0.048
-414.413	11.264	-0.196	0.152
-413.398	281.987	0.154	-0.279
-412.384	37.654	0.164	-0.147
-411.369	34.860	-0.146	0.129
-410.355	-34.996	-0.276	0.152
-409.340	-65.110	-0.011	-0.005
-408.325	-200.000	0.005	-0.299
-407.311	-200.000	-0.012	0.271
-406.296	-4.887	-0.529	0.368
-405.282	229.665	-0.071	-0.117
-404.267	-200.000	0.003	-0.052
-403.252	-127.667	0.176	-0.026
-402.238	-80.857	-0.294	-0.098
-401.223	132.115	-0.177	0.230
-400.209	-200.000	0.072	0.467
-399.194	-60.831	-0.086	0.037
-398.179	-129.764	0.150	0.021
-397.165	-43.912	-0.177	-0.090
-396.150	171.021	0.042	-0.060
-395.136	-108.768	-0.103	0.022
-394.121	-82.560	0.032	0.011
-393.106	592.631	-0.030	0.074
-392.092	-141.396	-0.087	0.009
-391.077	4.840	-0.114	-0.085
-390.063	60.845	-0.381	0.381
-389.048	-160.155	-0.216	0.012
-388.033	-1.837	-0.129	-0.091
-387.019	321.076	0.051	-0.098
-386.004	-190.665	-0.223	0.002
-384.990	137.547	-0.261	-0.344
-383.975	85.277	0.211	0.233
-382.960	-200.000	-0.023	0.306
-381.946	-200.000	-0.031	0.151
-380.931	800.000	-0.025	-0.106
-379.917	-200.000	-0.030	-0.159
-378.902	-131.393	0.091	-0.012
-377.888	-195.908	0.045	0.000
-376.873	445.302	-0.103	-0.227
-375.858	-115.899	0.052	0.010
-374.844	-200.000	0.031	-0.179
-373.829	470.846	-0.201	-0.456
-372.815	-103.175	0.373	0.089
-371.800	12.103	-0.159	0.124
-370.785	417.664	0.032	0.069
-369.771	236.497	-0.056	-0.094
-368.756	-136.679	0.206	0.024
-367.742	80.898	-0.274	0.297
-366.727	150.661	0.176	-0.241
-365.712	800.000	0.011	-0.036
-364.698	-200.000	-0.016	-0.184
-363.683	201.807	-0.099	0.154
-362.669	-151.106	-0.290	0.022
-361.654	800.000	0.021	0.091
-360.639	86.984	0.121	0.135
-359.625	-55.726	-0.027	0.012
-358.610	-105.238	0.154	-0.035
-357.596	337.403	0.047	-0.093
-356.581	-120.730	0.095	0.016
-355.566	-200.000	0.028	-0.127
-354.552	-57.045	0.169	-0.075
-353.537	-52.372	0.136	-0.063
-352.523	-48.318	-0.098	-0.048
-351.508	-168.184	0.388	0.015
-350.493	-200.000	-0.020	0.115
-349.479	439.265	-0.041	0.089
-348.464	-200.000	0.075	0.535
-347.450	-104.427	0.245	-0.057
-346.435	407.679	0.081	0.172
-345.420	23.994	-0.342	0.284
-344.406	534.489	-0.013	-0.032
-343.391	72.012	0.269	-0.281
-342.377	-95.758	-0.200	-0.054
-341.362	179.143	0.214	0.316
-340.348	800.000	0.106	-0.408
-339.333	-165.229	0.358	0.016
-338.318	-9.645	0.254	0.170
-337.304	73.829	-0.217	0.229
-336.289	-200.000	0.005	0.167
-335.275	197.317	0.082	0.126
-334.260	33.505	0.114	-0.099
-333.245	-83.031	0.169	0.055
-332.231	61.077	0.253	0.252
-331.216	-60.618	-0.189	-0.081
-330.202	-189.474	0.200	0.002
-329.187	-8.529	-0.014	-0.009
-328.172	-200.000	0.035	-0.216
-327.158	-54.938	0.117	0.053
-326.143	800.000	-0.072	0.242
-325.129	-88.606	0.204	0.061
-324.114	206.507	0.152	0.238
-323.099	-173.413	-0.282	-0.009
-322.085	47.800	-0.206	-0.193
-321.070	-200.000	0.030	0.375
-320.056	-90.211	-0.256	-0.075
-319.041	-107.712	-0.359	-0.079
-318.026	800.000	0.058	0.213
-317.012	-77.854	0.085	0.030
-315.997	-145.711	0.133	-0.012
-314.983	34.130	-0.082	-0.072
-313.968	-69.037	-0.356	-0.138
-312.953	534.988	-0.129	-0.308
-311.939	312.656	-0.100	-0.189
-310.924	-200.000	0.037	0.341
-309.910	705.235	-0.062	0.166
-308.895	-111.081	0.113	-0.023
-307.880	-200.000	0.007	0.191
-306.866	-6.098	0.244	0.168
-305.851	339.367	0.093	-0.183
-304.837	-76.752	0.185	0.065
-303.822	-200.000	-0.008	0.215
-302.807	-140.877	-0.300	0.031
-301.793	4.581	0.151	0.112
-300.778	-200.000	0.047	0.311
-299.764	-13.587	-0.175	-0.114
-298.749	-200.000	-0.022	-0.322
-297.735	180.959	0.059	0.087
-296.720	-200.000	0.002	0.080
-295.705	137.485	-0.208	0.274
-294.691	-174.641	-0.207	-0.006
-293.676	-200.000	0.067	-0.592
-292.662	-200.000	-0.016	-0.113
-291.647	83.792	0.175	0.192
-290.632	-200.000	0.029	0.305
-289.618	222.586	-0.153	-0.248
-288.603	223.975	0.091	0.147
-287.589	-44.675	0.282	0.142
-286.574	8.528	0.117	0.088
-285.559	81.971	-0.077	-0.083
-284.545	800.000	0.082	0.233
-283.530	9.614	-0.054	-0.041
-282.516	279.251	0.051	0.092
-281.501	-37.204	-0.299	0.161
-280.486	104.991	-0.007	0.008
-279.472	261.071	0.110	-0.191
-278.457	-200.000	0.037	-0.364
-277.443	-200.000	0.054	-0.371
-276.428	-69.297	-0.172	-0.066
-275.413	-120.990	0.313	-0.053
-274.399	-200.000	0.022	0.287
-273.384	-11.486	-0.146	-0.096
-272.370	-200.000	0.001	0.123
-271.355	100.404	-0.054	-0.063
-270.340	800.000	0.166	0.512
-269.326	104.564	0.208	-0.246
-268.311	-200.000	-0.049	-0.347
-267.297	-200.000	-0.025	0.304
-266.282	74.216	0.072	-0.076
-265.267	-136.702	-0.077	-0.009
-264.253	-200.000	-0.006	0.086
-263.238	58.012	0.186	0.183
-262.224	-18.100	-0.357	-0.224
-261.209	480.467	0.038	0.086
-260.195	386.341	-0.108	0.224
-259.180	-165.375	0.398	-0.018
-258.165	-37.850	0.260	0.139
-257.151	-200.000	0.033	-0.652
-256.136	-120.528	-0.267	-0.045
-255.122	289.556	-0.031	-0.056
-254.107	-38.830	0.179	0.095
-253.092	-52.284	-0.110	-0.051
-252.078	54.054	0.083	-0.080
-251.063	-13.994	0.087	0.057
-250.049	-141.315	-0.072	0.007
-249.034	-23.160	0.161	-0.097
-248.019	-84.253	-0.250	0.080
-247.005	-200.000	-0.014	-0.172
-245.990	411.047	0.123	-0.261
-244.976	-200.000	0.004	0.133
-243.961	-35.483	-0.146	0.080
-242.946	33.713	-0.062	-0.054
-241.932	-25.388	-0.230	0.136
-240.917	-175.170	-0.348	-0.010
-239.903	78.844	0.169	-0.182
-238.888	-109.140	0.244	-0.052
-237.873	-113.431	-0.132	-0.026
-236.859	800.000	-0.062	-0.185
-235.844	-47.218	-0.037	-0.018
-234.830	30.261	-0.359	-0.307
-233.815	-66.355	0.241	-0.096
-232.800	371.467	0.119	-0.242
-231.786	-91.673	0.142	-0.040
-230.771	-200.000	0.007	-0.083
-229.757	86.663	-0.181	-0.201
-228.742	-27.010	-0.076	0.044
-227.727	-7.095	-0.190	-0.129
-226.713	-90.112	-0.390	0.114
-225.698	-37.373	-0.057	-0.031
-224.684	275.309	-0.059	-0.105
-223.669	28.133	0.116	0.098
-222.655	-200.000	-0.008	0.102
-221.640	-200.000	-0.020	-0.133
-220.625	129.386	-0.127	-0.163
-219.611	-19.836	0.300	-0.186
-218.596	13.051	0.153	-0.119
-217.582	-200.000	0.033	0.148
-216.567	607.467	-0.069	0.171
-215.552	-110.347	0.413	0.086
-214.538	-200.000	0.005	0.066
-213.523	-200.000	0.028	0.142
-212.509	543.770	-0.039	-0.093
-211.494	-70.503	-0.178	-0.067
-210.479	-160.863	0.427	-0.023
-209.465	-200.000	0.020	0.247
-208.450	690.370	0.054	0.141
-207.436	1.455	-0.077	-0.056
-206.421	-125.235	0.328	0.050
-205.406	800.000	-0.037	-0.148
-204.392	4.382	0.083	0.061
-203.377	-81.371	-0.146	-0.048
-202.363	172.287	-0.076	0.109
-201.348	9.012	-0.119	0.090
-200.333	424.459	-0.077	0.165
-199.319	322.686	-0.037	-0.070
-198.304	239.374	-0.086	0.144
-197.290	44.649	-0.094	-0.087
-196.275	693.406	0.016	-0.043
-195.260	-200.000	-0.025	-0.523
-194.246	-108.014	0.274	-0.060
-193.231	48.633	-0.181	0.169
-192.217	800.000	0.023	0.086
-191.202	-159.503	0.149	-0.008
-190.187	-200.000	0.013	-0.069
-189.173	800.000	-0.078	-0.280
-188.158	-200.000	0.014	-0.086
-187.144	99.841	0.204	0.236
-186.129	-80.695	-0.260	-0.087
-185.114	466.534	0.078	-0.174
-184.100	270.841	0.058	-0.102
-183.085	172.131	0.106	-0.152
-182.071	-65.682	0.165	0.066
-181.056	-159.165	-0.345	0.019
-180.042	-70.459	-0.126	-0.048
-179.027	209.800	-0.160	0.251
-178.012	-31.895	-0.221	-0.124
-176.998	377.421	0.188	-0.383
-175.983	-187.931	-0.204	0.003
-174.969	104.993	0.109	-0.129
-173.954	-29.147	0.250	-0.144
-172.939	-200.000	0.037	0.185
-171.925	800.000	-0.066	-0.262
-170.910	-134.225	0.249	-0.031
-169.896	-199.759	0.122	-0.001
-168.881	25.542	-0.380	0.316
-167.866	-40.455	-0.463	-0.241
-166.852	-200.000	-0.009	0.082
-165.837	322.282	0.047	-0.090
-164.823	-72.612	-0.278	-0.103
-163.808	-36.095	0.049	0.026
-162.793	-130.823	0.126	0.017
-161.779	-200.000	-0.006	-0.177
-160.764	-180.344	0.300	0.006
-159.750	275.485	0.075	-0.133
-158.735	-200.000	-0.031	-0.218
-157.720	-140.616	-0.225	0.023
-156.706	411.793	0.098	0.209
-155.691	-154.807	-0.262	0.017
-154.677	-200.000	-0.000	0.039
-153.662	-106.651	-0.074	-0.016
-152.647	-65.377	-0.518	0.208
-151.633	1.624	0.166	0.120
-150.618	-156.964	0.342	-0.021
-149.604	-105.425	-0.179	0.041
-148.589	-29.454	-0.277	0.158
-147.574	24.500	-0.079	0.066
-146.560	-200.000	0.022	0.368
-145.545	154.622	-0.219	0.300
-144.531	-144.204	0.284	-0.027
-143.516	262.359	-0.044	-0.076
-142.502	-200.000	-0.014	0.313
-141.487	-142.985	0.201	-0.019
-140.472	17.033	0.099	-0.078
-139.458	139.879	0.093	-0.122
-138.443	-36.887	0.156	-0.084
-137.429	-24.207	0.143	-0.085
-136.414	-67.317	-0.218	-0.086
-135.399	92.072	0.084	0.094
-134.385	-200.000	0.053	0.330
-133.370	-200.000	-0.021	-0.220
-132.356	-200.000	0.076	0.431
-131.341	800.000	0.033	-0.096
-130.326	215.926	0.188	-0.298
-129.312	800.000	-0.046	0.155
-128.297	186.391	-0.071	-0.105
-127.283	33.784	-0.116	0.101
-126.268	-17.463	-0.111	-0.070
-125.253	-111.062	0.029	0.006
-124.239	-200.000	0.001	-0.164
-123.224	-122.149	0.242	0.040
-122.210	-7.846	-0.207	0.139
-121.195	721.715	0.134	0.356
