DTS Sentinel unit serial number:	SN413079Multiplexer serial number:	ORYXHardware model number:	OX4-SRSoftware version number:	ORYX F/W v4.00 Oryx Data Collector v3.7.2.0data status	okinstallation	princeton_trtdifferential loss correction	single-endedforward channel	channel 3reverse channel	N/Adate	2019/09/17time	05:36:35forward acquisition time	60.00reverse acquisition time	0.00gamma	496.2192k internal	0.2326k external	0.2326temperature offset calibration	0.9943default loss term (dB/km)	0.3790temperature slope calibration	1.0000multiplexer offset coefficient	1.0000multiplexer slope coefficient	1.0000fibre end	0.00T internal ref (°C)	29.17T ext. ref 1 (°C)	0.14T ext. ref 2 (°C)	22.99length (m)	temperature (°C)	Stokes	anti-Stokes-747.200	106.213	0.078	-0.093
-746.185	-70.272	-0.167	-0.064
-745.171	-24.352	-0.178	0.107
-744.156	800.000	0.139	0.427
-743.142	487.922	-0.076	-0.176
-742.127	-175.338	0.269	-0.007
-741.112	-139.538	-0.237	-0.025
-740.098	-64.715	-0.141	0.058
-739.083	205.742	0.033	-0.052
-738.069	33.907	-0.172	0.151
-737.054	-200.000	-0.012	-0.192
-736.039	-173.676	-0.110	-0.003
-735.025	330.120	-0.159	0.308
-734.010	-44.363	-0.200	-0.101
-732.996	65.772	0.029	0.029
-731.981	110.313	-0.032	-0.039
-730.966	-200.000	-0.024	0.206
-729.952	132.891	-0.149	0.194
-728.937	-135.724	-0.367	-0.044
-727.923	17.342	0.211	-0.169
-726.908	244.198	0.008	-0.014
-725.894	696.743	-0.080	-0.213
-724.879	-137.734	-0.402	0.046
-723.864	25.692	-0.232	-0.195
-722.850	110.735	0.245	0.297
-721.835	-4.868	0.129	0.090
-720.821	-6.769	-0.182	-0.125
-719.806	114.509	-0.217	0.266
-718.791	-125.287	-0.309	0.048
-717.777	-200.000	0.049	-0.239
-716.762	-162.137	-0.158	-0.008
-715.748	48.537	-0.151	-0.142
-714.733	-200.000	-0.029	-0.330
-713.718	-26.860	0.432	0.254
-712.704	225.989	0.051	0.083
-711.689	-90.668	-0.272	0.079
-710.675	160.281	-0.234	-0.328
-709.660	-91.991	-0.191	0.055
-708.645	-87.478	0.338	-0.103
-707.631	-86.682	-0.103	0.032
-706.616	-200.000	-0.033	-0.224
-705.602	-116.141	-0.253	-0.047
-704.587	188.407	0.252	0.380
-703.572	-15.761	0.291	-0.187
-702.558	89.217	-0.099	-0.112
-701.543	800.000	0.094	0.357
-700.529	-25.401	0.202	0.120
-699.514	184.235	0.079	0.117
-698.499	251.585	0.095	-0.162
-697.485	220.580	0.015	-0.025
-696.470	-200.000	-0.037	0.298
-695.456	90.725	-0.132	-0.149
-694.441	-80.170	0.469	0.158
-693.426	136.758	-0.149	-0.196
-692.412	-68.233	0.072	-0.028
-691.397	23.504	-0.051	0.042
-690.383	45.346	0.004	-0.004
-689.368	-119.103	0.072	0.013
-688.354	96.237	-0.243	0.279
-687.339	-93.701	0.282	-0.078
-686.324	-200.000	-0.025	0.183
-685.310	-37.461	0.173	0.093
-684.295	800.000	0.055	0.203
-683.281	-200.000	0.013	-0.299
-682.266	-60.703	0.230	0.098
-681.251	113.371	0.170	-0.207
-680.237	232.578	-0.099	-0.164
-679.222	186.395	0.103	0.155
-678.208	-153.475	-0.319	0.022
-677.193	209.758	0.066	-0.103
-676.178	190.516	-0.198	-0.300
-675.164	310.768	-0.093	0.175
-674.149	255.678	-0.272	-0.469
-673.135	186.195	-0.139	0.207
-672.120	270.879	-0.145	-0.257
-671.105	-200.000	0.038	-0.423
-670.091	-189.427	0.314	-0.004
-669.076	-200.000	-0.052	-0.249
-668.062	-42.356	-0.196	0.100
-667.047	-103.876	0.047	0.011
-666.032	-156.366	0.075	-0.005
-665.018	-35.696	-0.145	0.079
-664.003	800.000	0.019	-0.078
-662.989	19.601	0.168	-0.136
-661.974	800.000	-0.080	-0.227
-660.959	69.426	0.103	-0.107
-659.945	-102.987	0.469	-0.112
-658.930	-2.820	-0.277	-0.194
-657.916	800.000	0.102	-0.328
-656.901	113.248	-0.129	-0.158
-655.886	-81.071	0.155	-0.051
-654.872	-31.805	-0.155	-0.087
-653.857	-72.018	-0.204	-0.076
-652.843	-200.000	-0.003	0.107
-651.828	-109.183	-0.219	-0.047
-650.814	717.352	0.030	-0.080
-649.799	-200.000	-0.032	0.253
-648.784	-91.458	-0.127	-0.036
-647.770	194.981	-0.078	0.119
-646.755	334.733	0.126	-0.246
-645.741	524.169	-0.050	-0.117
-644.726	-174.586	-0.146	-0.004
-643.711	-167.068	-0.236	0.010
-642.697	787.826	0.085	0.235
-641.682	41.661	-0.149	0.135
-640.668	-55.239	-0.180	-0.081
-639.653	-121.107	-0.124	0.021
-638.638	-200.000	0.009	-0.219
-637.624	151.256	-0.134	0.183
-636.609	449.237	0.104	0.231
-635.595	-200.000	0.012	0.069
-634.580	-182.474	-0.323	-0.006
-633.565	-39.372	-0.247	-0.130
-632.551	0.835	0.183	0.132
-631.536	-46.897	-0.182	-0.090
-630.522	185.063	0.055	0.082
-629.507	132.195	0.173	0.224
-628.492	98.997	-0.116	-0.135
-627.478	250.944	0.116	0.198
-626.463	377.630	-0.155	0.317
-625.449	70.112	0.028	-0.029
-624.434	108.432	-0.184	0.220
-623.419	-200.000	0.013	-0.077
-622.405	-200.000	0.040	-0.267
-621.390	109.284	-0.080	0.096
-620.376	-57.220	0.078	-0.035
-619.361	19.890	-0.220	0.178
-618.346	28.374	-0.123	-0.104
-617.332	-200.000	0.018	0.136
-616.317	-150.695	0.114	0.009
-615.303	-96.192	-0.194	0.052
-614.288	-169.346	-0.292	0.011
-613.273	-200.000	-0.068	0.396
-612.259	-62.836	-0.156	-0.065
-611.244	665.440	0.070	-0.181
-610.230	-200.000	-0.038	0.385
-609.215	-200.000	0.035	-0.186
-608.201	100.662	0.163	-0.190
-607.186	-154.696	0.120	0.008
-606.171	696.362	-0.165	-0.435
-605.157	-200.000	0.004	-0.225
-604.142	-7.777	0.448	-0.304
-603.128	-200.000	0.044	0.212
-602.113	774.297	0.081	-0.222
-601.098	13.484	0.347	0.270
-600.084	145.082	-0.326	0.438
-599.069	115.657	0.390	0.479
-598.055	131.515	0.186	-0.239
-597.040	-186.099	0.142	0.002
-596.025	-104.119	-0.258	-0.060
-595.011	460.707	0.113	-0.251
-593.996	-200.000	-0.010	0.162
-592.982	29.226	0.235	0.200
-591.967	-200.000	0.000	0.027
-590.952	-81.241	-0.210	0.069
-589.938	800.000	0.090	-0.260
-588.923	-200.000	-0.089	-0.517
-587.909	800.000	0.142	-0.421
-586.894	800.000	-0.117	-0.451
-585.879	-65.367	0.224	-0.090
-584.865	108.717	0.024	-0.029
-583.850	150.816	0.103	-0.140
-582.836	-200.000	-0.080	-0.410
-581.821	249.547	-0.074	-0.127
-580.806	115.949	-0.120	-0.147
-579.792	-111.991	0.360	0.073
-578.777	-200.000	-0.024	0.221
-577.763	448.477	0.061	0.134
-576.748	-66.144	-0.101	0.040
-575.733	-162.197	-0.187	-0.009
-574.719	290.874	0.032	-0.059
-573.704	778.172	-0.132	0.363
-572.690	530.370	0.070	0.165
-571.675	-200.000	0.040	0.248
-570.661	-200.000	0.054	0.310
-569.646	-200.000	-0.046	-0.327
-568.631	-83.537	-0.353	-0.113
-567.617	159.906	0.119	-0.166
-566.602	226.200	0.068	-0.111
-565.588	494.941	0.147	-0.339
-564.573	-200.000	-0.035	0.228
-563.558	133.004	0.310	-0.401
-562.544	115.568	-0.050	0.061
-561.529	354.936	-0.084	-0.168
-560.515	108.285	0.102	0.122
-559.500	-200.000	-0.132	0.000
-558.485	800.000	0.047	-0.175
-557.471	-102.960	0.249	-0.059
-556.456	105.861	0.262	-0.311
-555.442	122.321	-0.129	0.161
-554.427	800.000	0.056	-0.157
-553.412	286.662	0.084	0.151
-552.398	-20.123	0.077	-0.048
-551.383	-200.000	0.028	0.314
-550.369	800.000	0.111	-0.308
-549.354	-200.000	-0.036	0.170
-548.339	-189.993	0.147	0.002
-547.325	-15.004	0.023	0.015
-546.310	-164.352	-0.216	-0.010
-545.296	-24.956	0.228	-0.135
-544.281	535.935	0.158	0.375
-543.266	93.834	0.020	0.022
-542.252	-200.000	-0.008	0.134
-541.237	63.281	0.171	0.171
-540.223	-200.000	-0.005	0.304
-539.208	-87.043	-0.404	-0.123
-538.193	399.103	-0.125	0.262
-537.179	215.416	-0.217	-0.344
-536.164	-18.760	-0.187	-0.116
-535.150	-42.825	0.119	0.060
-534.135	-200.000	0.009	-0.204
-533.121	-164.337	-0.279	-0.013
-532.106	-200.000	0.035	-0.282
-531.091	125.031	0.274	-0.345
-530.077	-200.000	-0.031	-0.214
-529.062	120.668	-0.087	-0.109
-528.048	-200.000	-0.051	0.330
-527.033	-160.480	-0.538	-0.029
-526.018	800.000	0.078	-0.292
-525.004	800.000	0.111	0.388
-523.989	66.292	0.275	0.279
-522.975	-10.282	-0.326	0.216
-521.960	-66.243	-0.126	0.050
-520.945	-200.000	0.027	0.313
-519.931	197.913	-0.081	-0.123
-518.916	497.901	-0.145	-0.335
-517.902	733.141	0.170	-0.455
-516.887	28.208	0.257	-0.217
-515.872	86.926	-0.200	-0.221
-514.858	-200.000	-0.002	-0.012
-513.843	214.823	-0.195	-0.309
-512.829	-199.599	-0.556	-0.003
-511.814	249.598	0.052	-0.089
-510.799	9.474	-0.017	-0.013
-509.785	-200.000	-0.006	-0.035
-508.770	41.401	-0.124	0.113
-507.756	-118.889	0.233	0.041
-506.741	-86.240	-0.066	0.020
-505.726	74.511	0.123	-0.129
-504.712	5.371	-0.122	-0.090
-503.697	-200.000	0.028	0.434
-502.683	-110.203	0.137	-0.029
-501.668	13.727	0.194	-0.150
-500.653	78.864	-0.051	0.054
-499.639	120.334	0.275	-0.341
-498.624	30.874	0.097	0.083
-497.610	153.348	0.292	-0.399
-496.595	-200.000	-0.067	-0.308
-495.581	-116.819	-0.338	0.062
-494.566	-89.638	-0.131	0.038
-493.551	-105.502	0.366	0.083
-492.537	-200.000	0.005	-0.362
-491.522	-126.428	-0.439	-0.065
-490.508	64.504	-0.172	0.173
-489.493	154.586	0.242	0.332
-488.478	-200.000	0.042	0.336
-487.464	-145.207	-0.197	0.018
-486.449	-35.860	-0.125	0.068
-485.435	209.606	-0.006	0.009
-484.420	251.238	0.060	0.101
-483.405	56.015	0.172	-0.166
-482.391	11.468	0.329	-0.252
-481.376	-200.000	-0.070	-0.322
-480.362	331.911	0.113	0.219
-479.347	-80.649	0.245	0.081
-478.332	-200.000	-0.037	-0.183
-477.318	-120.405	0.278	-0.047
-476.303	-200.000	0.012	-0.077
-475.289	800.000	0.030	0.088
-474.274	120.028	-0.056	-0.069
-473.259	800.000	0.077	-0.306
-472.245	644.829	0.100	-0.256
-471.230	-43.053	0.183	-0.092
-470.216	-93.684	-0.238	-0.066
-469.201	455.830	0.051	-0.114
-468.186	16.632	-0.267	0.211
-467.172	1.129	-0.041	-0.030
-466.157	25.768	-0.071	0.059
-465.143	-200.000	0.002	0.108
-464.128	-20.620	-0.222	-0.136
-463.113	-122.844	-0.177	0.028
-462.099	-84.181	-0.125	0.040
-461.084	-200.000	0.020	0.126
-460.070	128.676	-0.123	-0.156
-459.055	-94.517	0.218	-0.059
-458.040	97.552	0.034	0.039
-457.026	268.024	-0.042	-0.074
-456.011	-25.864	0.287	0.168
-454.997	46.188	0.076	0.070
-453.982	382.437	0.211	-0.433
-452.968	568.052	-0.056	-0.137
-451.953	800.000	-0.048	0.203
-450.938	-82.352	0.231	-0.075
-449.924	-200.000	0.004	0.471
-448.909	-85.895	0.429	0.132
-447.895	-50.093	0.323	0.153
-446.880	-33.056	0.122	0.067
-445.865	-16.711	0.168	0.106
-444.851	-18.630	-0.296	0.184
-443.836	-18.658	0.214	0.133
-442.822	406.232	-0.075	-0.158
-441.807	-200.000	-0.007	-0.116
-440.792	-128.998	0.420	0.059
-439.778	39.044	0.288	0.257
-438.763	109.864	0.280	-0.335
-437.749	-200.000	0.002	-0.043
-436.734	-115.659	-0.232	0.043
-435.719	-159.541	-0.275	0.015
-434.705	79.432	-0.191	-0.204
-433.690	-75.517	-0.153	-0.054
-432.676	800.000	-0.058	-0.219
-431.661	-200.000	-0.047	-0.357
-430.646	519.863	-0.046	-0.108
-429.632	19.464	0.371	-0.297
-428.617	800.000	-0.049	-0.163
-427.603	339.635	0.060	0.116
-426.588	11.762	-0.010	0.008
-425.573	-200.000	-0.050	0.306
-424.559	14.978	0.139	-0.108
-423.544	-120.738	0.043	-0.007
-422.530	-43.543	0.104	-0.052
-421.515	70.429	0.134	0.138
-420.500	22.700	-0.340	-0.277
-419.486	32.624	0.151	-0.130
-418.471	200.291	0.273	0.418
-417.457	50.610	-0.138	-0.130
-416.442	800.000	-0.031	0.131
-415.428	-28.398	0.190	0.109
-414.413	-157.171	0.090	-0.005
-413.398	8.147	-0.187	-0.140
-412.384	-200.000	-0.013	0.199
-411.369	-102.372	-0.171	0.041
-410.355	-166.083	0.112	-0.005
-409.340	-200.000	0.100	0.000
-408.325	137.349	0.129	-0.168
-407.311	-200.000	-0.019	0.092
-406.296	-114.339	0.052	-0.010
-405.282	-67.323	-0.479	-0.187
-404.267	152.431	-0.107	0.145
-403.252	409.416	-0.145	0.305
-402.238	573.771	-0.025	0.061
-401.223	-200.000	0.047	0.234
-400.209	-104.472	0.107	-0.025
-399.194	193.658	-0.122	0.184
-398.179	-200.000	0.000	-0.065
-397.165	-6.549	0.289	-0.196
-396.150	490.301	-0.139	-0.316
-395.136	7.388	0.109	0.081
-394.121	54.221	-0.143	0.137
-393.106	800.000	-0.063	0.216
-392.092	-200.000	0.060	0.362
-391.077	-83.976	0.242	0.076
-390.063	-200.000	0.005	-0.068
-389.048	-200.000	0.038	-0.268
-388.033	-56.030	0.184	-0.081
-387.019	800.000	-0.025	0.099
-386.004	-35.836	0.151	0.081
-384.990	-25.967	-0.244	-0.143
-383.975	67.165	-0.050	-0.051
-382.960	800.000	0.057	0.204
-381.946	-79.598	-0.069	0.023
-380.931	-200.000	0.004	0.127
-379.917	497.602	-0.119	0.271
-378.902	-200.000	-0.012	-0.060
-377.888	-200.000	0.005	-0.087
-376.873	800.000	-0.077	0.236
-375.858	465.965	0.026	0.057
-374.844	-35.030	0.277	0.150
-373.829	-122.928	0.233	0.037
-372.815	-111.593	0.302	0.061
-371.800	491.599	-0.087	0.198
-370.785	137.880	-0.136	0.177
-369.771	35.121	0.232	-0.202
-368.756	260.731	0.109	-0.187
-367.742	32.549	-0.334	-0.287
-366.727	20.174	-0.059	0.047
-365.712	31.562	0.333	0.285
-364.698	-200.000	-0.007	0.149
-363.683	-106.494	-0.381	-0.085
-362.669	-200.000	-0.003	0.187
-361.654	-137.289	-0.082	0.009
-360.639	-127.469	-0.245	-0.035
-359.625	-117.051	-0.565	0.102
-358.610	-71.835	0.251	-0.093
-357.596	310.041	0.118	0.219
-356.581	585.160	0.068	0.167
-355.566	89.695	0.109	0.121
-354.552	308.056	-0.168	0.312
-353.537	20.753	-0.191	-0.153
-352.523	28.322	0.134	0.113
-351.508	21.449	0.217	-0.175
-350.493	-200.000	0.002	-0.038
-349.479	800.000	-0.065	0.195
-348.464	-114.096	-0.326	-0.063
-347.450	-10.951	0.229	0.150
-346.435	-137.018	-0.081	-0.009
-345.420	274.751	0.106	-0.187
-344.406	-148.627	0.165	-0.013
-343.391	265.664	0.184	-0.320
-342.377	59.459	-0.047	-0.046
-341.362	90.444	-0.285	-0.316
-340.348	723.972	-0.082	0.218
-339.333	800.000	0.111	0.333
-338.318	-74.769	0.200	0.071
-337.304	300.432	-0.086	0.158
-336.289	658.189	0.122	0.311
-335.275	-136.543	-0.288	0.033
-334.260	761.269	0.093	-0.250
-333.245	-37.501	-0.348	-0.184
-332.231	-22.072	0.227	0.137
-331.216	-121.557	-0.429	0.071
-330.202	-200.000	-0.037	0.257
-329.187	271.843	0.149	-0.261
-328.172	57.642	-0.048	-0.047
-327.158	-45.651	-0.262	0.129
-326.143	-52.213	0.449	0.207
-325.129	-53.988	0.300	0.135
-324.114	800.000	-0.063	0.182
-323.099	-75.039	0.162	-0.058
-322.085	117.197	-0.118	0.144
-321.070	-200.000	0.013	-0.101
-320.056	-200.000	-0.013	0.076
-319.041	77.779	-0.031	0.033
-318.026	102.007	-0.165	-0.191
-317.012	-200.000	0.022	0.110
-315.997	-200.000	0.014	0.345
-314.983	800.000	0.080	0.265
-313.968	32.959	0.105	0.090
-312.953	11.849	-0.103	-0.078
-311.939	-13.135	-0.262	-0.169
-310.924	88.284	0.006	0.007
-309.910	106.703	0.146	-0.172
-308.895	122.610	0.174	0.215
-307.880	65.261	-0.230	-0.231
-306.866	17.161	-0.120	0.094
-305.851	-200.000	0.041	-0.192
-304.837	155.560	-0.210	-0.286
-303.822	500.846	0.121	-0.276
-302.807	91.388	0.060	-0.067
-301.793	-94.026	0.362	-0.099
-300.778	-142.526	0.174	0.017
-299.764	416.207	-0.211	-0.446
-298.749	800.000	-0.083	-0.301
-297.735	108.493	0.135	-0.160
-296.720	45.631	0.317	-0.290
-295.705	-166.804	-0.255	-0.010
-294.691	33.816	-0.146	-0.126
-293.676	-83.485	-0.263	-0.084
-292.662	-103.093	-0.457	0.107
-291.647	41.835	-0.118	-0.106
-290.632	-118.376	-0.199	0.035
-289.618	268.877	-0.168	0.292
-288.603	-103.801	0.219	-0.051
-287.589	-76.333	-0.257	0.090
-286.574	-24.915	-0.040	0.023
-285.559	-200.000	0.014	-0.256
-284.545	-127.314	-0.258	-0.037
-283.530	132.812	0.152	0.194
-282.516	-200.000	-0.024	0.411
-281.501	-3.062	-0.182	-0.126
-280.486	-200.000	-0.032	0.329
-279.472	64.454	0.133	-0.133
-278.457	-180.557	-0.328	0.007
-277.443	107.090	0.165	-0.194
-276.428	255.399	0.128	0.217
-275.413	-87.662	0.213	0.064
-274.399	568.798	-0.081	0.195
-273.384	-125.260	-0.195	-0.030
-272.370	-19.895	0.110	-0.067
-271.355	800.000	-0.058	-0.204
-270.340	251.326	0.076	-0.127
-269.326	272.181	-0.106	-0.186
-268.311	-36.104	0.096	-0.051
-267.297	96.831	-0.080	0.091
-266.282	41.179	0.231	-0.207
-265.267	107.491	0.123	-0.145
-264.253	-25.424	0.237	-0.139
-263.238	65.229	0.229	-0.229
-262.224	37.835	0.078	-0.068
-261.209	512.821	-0.057	-0.131
-260.195	-69.468	-0.212	-0.080
-259.180	-128.091	0.096	0.014
-258.165	213.080	-0.181	0.283
-257.151	-190.671	0.270	-0.003
-256.136	-70.456	0.295	-0.110
-255.122	800.000	-0.061	-0.206
-254.107	-200.000	-0.030	-0.320
-253.092	800.000	0.113	0.382
-252.078	193.660	-0.098	0.147
-251.063	42.908	-0.037	0.033
-250.049	-141.427	-0.118	-0.012
-249.034	-20.118	-0.272	0.166
-248.019	-135.513	-0.093	-0.011
-247.005	14.702	0.203	-0.157
-245.990	452.149	0.046	0.100
-244.976	800.000	0.039	0.109
-243.961	206.824	0.111	-0.171
-242.946	-52.023	-0.259	-0.119
-241.932	-7.735	0.113	0.075
-240.917	6.330	-0.112	-0.082
-239.903	517.115	0.108	0.250
-238.888	163.254	0.161	0.223
-237.873	-52.965	-0.328	0.149
-236.859	79.246	-0.194	-0.205
-235.844	-200.000	0.011	-0.227
-234.830	800.000	-0.055	-0.189
-233.815	-21.438	-0.177	0.107
-232.800	-68.019	0.164	0.063
-231.786	-200.000	-0.037	0.232
-230.771	-30.810	-0.074	-0.041
-229.757	-200.000	0.021	-0.307
-228.742	-89.773	-0.127	0.037
-227.727	48.612	-0.154	0.142
-226.713	-151.644	0.391	-0.029
-225.698	226.386	0.168	0.269
-224.684	142.373	0.065	0.085
-223.669	800.000	-0.082	0.258
-222.655	-83.574	-0.066	0.021
-221.640	-97.527	-0.218	-0.056
-220.625	-200.000	-0.006	0.122
-219.611	-7.151	-0.134	0.090
-218.596	-200.000	-0.027	-0.166
-217.582	239.992	0.103	-0.170
-216.567	-11.381	0.237	-0.154
-215.552	146.481	0.181	0.241
-214.538	35.427	-0.171	0.148
-213.523	175.382	0.109	-0.156
-212.509	40.019	-0.114	-0.102
-211.494	-64.516	0.204	-0.082
-210.479	-78.303	-0.204	-0.069
-209.465	-200.000	-0.015	0.141
-208.450	-83.035	0.301	0.096
-207.436	800.000	0.048	0.146
-206.421	-119.558	0.139	-0.024
-205.406	-123.696	-0.156	0.024
-204.392	-79.901	-0.175	0.058
-203.377	642.974	-0.089	-0.224
-202.363	-200.000	0.032	0.150
-201.348	54.431	0.261	0.249
-200.333	-70.618	0.273	0.102
-199.319	-121.430	-0.207	0.034
-198.304	-102.710	-0.122	0.029
-197.290	-13.792	-0.216	0.138
-196.275	-165.157	0.439	-0.019
-195.260	-54.141	0.058	-0.026
-194.246	10.900	-0.200	0.151
-193.231	-75.392	-0.316	0.111
-192.217	-82.259	0.099	0.032
-191.202	-85.771	0.411	-0.126
-190.187	800.000	-0.110	0.357
-189.173	-77.021	-0.117	-0.040
-188.158	-50.084	-0.123	0.057
-187.144	-169.593	-0.153	0.006
-186.129	41.815	-0.174	-0.156
-185.114	65.115	-0.123	-0.123
-184.100	383.509	-0.078	-0.158
-183.085	119.834	-0.144	-0.176
-182.071	1.373	0.034	-0.024
-181.056	-12.129	0.276	0.178
-180.042	-200.000	0.021	0.223
-179.027	95.884	-0.194	0.219
-178.012	-87.432	0.226	-0.068
-176.998	800.000	0.064	0.213
-175.983	-134.477	-0.014	0.002
-174.969	389.821	0.096	-0.196
-173.954	486.735	0.076	-0.170
-172.939	-16.659	0.052	0.032
-171.925	39.164	0.087	0.077
-170.910	-90.922	0.017	-0.005
-169.896	-200.000	0.017	0.225
-168.881	-16.310	0.120	0.075
-167.866	-125.527	0.292	-0.044
-166.852	-200.000	0.018	0.198
-165.837	-200.000	-0.009	0.317
-164.823	-57.310	-0.077	0.033
-163.808	474.435	-0.052	-0.115
-162.793	-73.300	-0.097	-0.035
-161.779	-200.000	-0.038	0.232
-160.764	171.383	-0.085	-0.120
-159.750	-119.289	-0.167	0.029
-158.735	-120.384	-0.246	-0.041
-157.720	-35.949	0.249	-0.133
-156.706	-200.000	-0.019	-0.107
-155.691	800.000	0.038	-0.136
-154.677	251.176	0.177	0.296
-153.662	-200.000	-0.014	0.222
-152.647	88.329	-0.089	-0.098
-151.633	-72.081	-0.184	-0.067
-150.618	-35.669	0.393	0.210
-149.604	69.631	-0.219	0.222
-148.589	40.393	-0.175	-0.155
-147.574	-200.000	0.013	-0.205
-146.560	1.811	0.251	-0.178
-145.545	61.865	0.180	0.177
-144.531	24.132	-0.210	-0.171
-143.516	-99.264	0.377	0.094
-142.502	-200.000	-0.062	-0.328
-141.487	56.577	0.180	0.172
-140.472	-131.364	-0.248	-0.032
-139.458	101.108	-0.421	0.483
-138.443	-200.000	-0.034	0.384
-137.429	-80.571	-0.401	-0.132
-136.414	-14.307	-0.129	0.082
-135.399	-98.635	-0.175	-0.044
-134.385	-200.000	-0.009	0.062
-133.370	-112.151	-0.108	-0.021
-132.356	357.584	-0.010	-0.020
-131.341	-121.290	0.439	-0.072
-130.326	-98.127	-0.204	0.052
-129.312	-50.821	0.029	-0.013
-128.297	233.359	0.110	-0.177
-127.283	800.000	-0.013	-0.048
-126.268	800.000	-0.031	-0.114
-125.253	-70.675	-0.269	0.100
-124.239	138.161	0.191	0.246
-123.224	800.000	-0.063	0.189
-122.210	-38.260	0.215	-0.112
