DTS Sentinel unit serial number:	SN413079Multiplexer serial number:	ORYXHardware model number:	OX4-SRSoftware version number:	ORYX F/W v4.00 Oryx Data Collector v3.7.2.0data status	okinstallation	princeton_trtdifferential loss correction	single-endedforward channel	channel 3reverse channel	N/Adate	2019/09/18time	09:44:35forward acquisition time	60.00reverse acquisition time	0.00gamma	496.2192k internal	0.2336k external	0.2336temperature offset calibration	0.9947default loss term (dB/km)	0.3790temperature slope calibration	1.0000multiplexer offset coefficient	1.0000multiplexer slope coefficient	1.0000fibre end	0.00T internal ref (°C)	26.87T ext. ref 1 (°C)	0.28T ext. ref 2 (°C)	23.50length (m)	temperature (°C)	Stokes	anti-Stokes-747.200	-94.092	0.278	-0.077
-746.185	-36.653	-0.102	-0.055
-745.171	-200.000	-0.019	0.150
-744.156	-200.000	0.019	-0.087
-743.142	-200.000	0.038	0.491
-742.127	393.170	-0.130	0.271
-741.112	335.646	-0.138	-0.269
-740.098	-18.307	-0.316	-0.198
-739.083	-18.517	0.061	-0.038
-738.069	33.965	-0.278	0.243
-737.054	-21.279	-0.064	0.039
-736.039	-21.798	-0.175	-0.107
-735.025	262.918	-0.053	-0.093
-734.010	-122.504	0.045	-0.007
-732.996	-139.368	-0.123	0.013
-731.981	163.123	-0.125	0.176
-730.966	-200.000	-0.017	-0.149
-729.952	-27.386	-0.308	-0.180
-728.937	800.000	-0.067	-0.243
-727.923	-80.319	0.235	0.079
-726.908	-200.000	0.038	-0.212
-725.894	133.257	-0.094	-0.122
-724.879	-59.773	-0.200	0.086
-723.864	105.562	-0.186	-0.221
-722.850	23.670	-0.205	0.169
-721.835	-83.254	-0.157	-0.051
-720.821	-182.083	-0.393	0.007
-719.806	-200.000	0.002	0.050
-718.791	-200.000	0.015	-0.162
-717.777	-114.516	-0.211	-0.041
-716.762	-200.000	0.056	0.387
-715.748	98.990	0.132	0.153
-714.733	800.000	-0.044	-0.184
-713.718	-115.746	0.072	-0.014
-712.704	82.322	-0.086	-0.093
-711.689	-14.439	-0.227	0.147
-710.675	800.000	0.036	-0.141
-709.660	-200.000	0.032	-0.224
-708.645	-148.074	0.271	0.023
-707.631	-200.000	0.014	-0.208
-706.616	-200.000	0.002	0.127
-705.602	-144.245	0.116	0.011
-704.587	163.877	0.107	-0.151
-703.572	-200.000	-0.026	-0.142
-702.558	-21.268	0.123	0.075
-701.543	-42.743	0.392	0.200
-700.529	47.063	-0.185	-0.173
-699.514	70.385	-0.225	-0.233
-698.499	800.000	0.058	-0.168
-697.485	-126.878	0.030	0.004
-696.470	800.000	-0.056	-0.210
-695.456	-200.000	-0.032	0.177
-694.441	83.991	-0.174	0.191
-693.426	166.865	-0.100	-0.143
-692.412	-131.182	-0.130	0.017
-691.397	-200.000	0.053	-0.238
-690.383	-200.000	0.016	-0.164
-689.368	172.150	-0.139	-0.200
-688.354	-173.636	0.268	0.008
-687.339	24.499	-0.370	-0.307
-686.324	-114.397	0.097	-0.019
-685.310	233.692	-0.087	-0.143
-684.295	131.238	0.058	-0.075
-683.281	-112.221	0.307	0.062
-682.266	-132.150	-0.085	0.011
-681.251	725.758	-0.138	0.369
-680.237	-11.395	0.208	0.137
-679.222	1.930	0.309	0.223
-678.208	1.086	-0.126	0.090
-677.193	-80.502	0.086	0.029
-676.178	304.754	0.118	-0.219
-675.164	535.256	-0.031	-0.073
-674.149	-21.255	-0.036	-0.022
-673.135	-200.000	0.086	0.432
-672.120	-200.000	0.015	0.088
-671.105	122.363	-0.183	-0.229
-670.091	-80.872	-0.190	-0.063
-669.076	-28.642	0.346	0.199
-668.062	-10.285	-0.158	0.105
-667.047	-200.000	0.041	-0.209
-666.032	-39.802	-0.075	0.039
-665.018	-3.647	0.201	-0.140
-664.003	-108.110	-0.194	0.042
-662.989	-200.000	-0.036	0.161
-661.974	-200.000	0.045	0.224
-660.959	271.507	-0.042	0.075
-659.945	800.000	-0.037	0.121
-658.930	4.017	-0.154	-0.113
-657.916	597.622	-0.066	0.164
-656.901	186.478	0.146	-0.218
-655.886	-200.000	-0.056	-0.413
-654.872	106.124	0.212	-0.251
-653.857	-25.457	0.277	0.164
-652.843	445.556	-0.145	-0.318
-651.828	-107.606	0.098	-0.021
-650.814	693.121	0.129	0.339
-649.799	800.000	0.028	0.095
-648.784	-17.016	0.266	-0.168
-647.770	548.346	0.036	0.086
-646.755	-125.844	0.167	0.025
-645.741	192.703	0.065	-0.098
-644.726	21.107	-0.219	-0.178
-643.711	785.865	-0.128	0.351
-642.697	-93.796	0.184	-0.051
-641.682	266.328	0.148	-0.259
-640.668	-60.952	-0.039	-0.016
-639.653	-200.000	-0.002	-0.030
-638.638	-132.755	-0.216	0.028
-637.624	-200.000	-0.001	0.027
-636.609	800.000	-0.018	0.076
-635.595	800.000	-0.053	-0.199
-634.580	-124.573	-0.096	-0.015
-633.565	132.916	-0.195	-0.251
-632.551	478.965	-0.177	-0.400
-631.536	180.739	0.188	-0.276
-630.522	800.000	0.022	0.072
-629.507	-99.084	0.490	-0.124
-628.492	-200.000	-0.019	0.090
-627.478	-88.728	0.084	0.025
-626.463	-200.000	0.007	-0.202
-625.449	-133.012	0.243	0.031
-624.434	37.154	-0.357	0.316
-623.419	249.861	-0.201	-0.342
-622.405	-2.908	0.095	0.066
-621.390	607.623	-0.083	-0.208
-620.376	271.764	-0.213	0.374
-619.361	-200.000	-0.012	-0.319
-618.346	-200.000	0.030	-0.171
-617.332	-184.535	-0.340	0.006
-616.317	-155.384	-0.309	0.020
-615.303	351.993	-0.050	-0.100
-614.288	-170.869	0.225	0.008
-613.273	43.031	-0.052	-0.047
-612.259	24.413	0.383	-0.316
-611.244	-58.935	-0.251	-0.108
-610.230	-32.311	-0.275	-0.153
-609.215	463.128	-0.123	-0.274
-608.201	41.351	0.267	-0.241
-607.186	145.395	0.219	-0.293
-606.171	-32.022	-0.243	0.136
-605.157	-57.905	-0.234	0.102
-604.142	57.283	-0.073	0.071
-603.128	240.508	-0.258	-0.429
-602.113	758.798	0.031	0.083
-601.098	-199.689	-0.142	-0.001
-600.084	144.696	0.134	0.179
-599.069	-162.605	-0.209	0.010
-598.055	-147.620	-0.288	-0.024
-597.040	310.956	0.037	-0.069
-596.025	14.473	0.049	-0.039
-595.011	172.886	-0.157	-0.226
-593.996	800.000	-0.091	-0.258
-592.982	-200.000	0.067	-0.429
-591.967	-200.000	-0.003	-0.141
-590.952	74.033	0.112	-0.117
-589.938	131.033	0.167	0.214
-588.923	-93.031	-0.228	-0.063
-587.909	24.346	0.240	-0.198
-586.894	-88.575	-0.082	0.024
-585.879	86.976	0.134	-0.147
-584.865	103.988	0.143	-0.168
-583.850	62.374	-0.228	0.227
-582.836	614.563	0.079	-0.198
-581.821	-61.766	0.342	0.143
-580.806	129.604	-0.174	0.221
-579.792	591.101	0.066	0.163
-578.777	-143.749	-0.372	0.035
-577.763	25.657	0.086	-0.072
-576.748	-28.067	0.027	0.016
-575.733	-49.747	0.377	0.179
-574.719	73.548	-0.067	0.070
-573.704	104.804	0.137	0.161
-572.690	-35.969	-0.182	-0.098
-571.675	-200.000	-0.019	-0.398
-570.661	-200.000	-0.025	0.182
-569.646	-64.759	0.317	-0.128
-568.631	-200.000	-0.075	0.350
-567.617	70.864	-0.188	-0.194
-566.602	-200.000	0.012	0.276
-565.588	-42.778	0.153	-0.078
-564.573	62.346	0.143	-0.142
-563.558	-76.463	-0.142	0.050
-562.544	-39.690	0.189	0.099
-561.529	-200.000	-0.001	-0.115
-560.515	-200.000	-0.047	-0.338
-559.500	106.736	0.308	-0.364
-558.485	-200.000	-0.001	0.019
-557.471	47.173	-0.166	0.154
-556.456	309.740	0.122	-0.227
-555.442	-101.526	-0.120	0.029
-554.427	-18.927	0.175	0.108
-553.412	-66.458	-0.167	0.066
-552.398	83.135	0.215	-0.233
-551.383	-77.142	0.122	-0.042
-550.369	-60.613	-0.058	-0.024
-549.354	1.624	0.045	0.032
-548.339	683.015	0.072	-0.188
-547.325	62.074	0.185	0.184
-546.310	136.903	-0.132	-0.172
-545.296	-87.356	0.272	0.082
-544.281	-102.838	0.376	0.089
-543.266	-96.091	0.342	-0.090
-542.252	-64.147	0.187	0.076
-541.237	-200.000	0.007	0.152
-540.223	245.886	0.091	-0.153
-539.208	-163.252	-0.149	-0.007
-538.193	-189.532	0.374	0.004
-537.179	-200.000	0.006	-0.042
-536.164	-200.000	0.011	-0.158
-535.150	-200.000	-0.042	0.210
-534.135	-144.055	-0.145	0.014
-533.121	800.000	0.039	0.140
-532.106	-107.229	-0.151	-0.033
-531.091	278.608	-0.072	0.129
-530.077	-86.475	0.120	0.037
-529.062	-200.000	-0.002	-0.138
-528.048	-103.812	0.171	0.040
-527.033	99.175	-0.072	0.083
-526.018	12.146	0.073	0.056
-525.004	53.051	-0.310	-0.296
-523.989	10.477	0.101	0.077
-522.975	-103.748	-0.476	0.111
-521.960	-200.000	0.084	0.408
-520.945	192.425	-0.087	0.130
-519.931	-103.493	0.265	0.062
-518.916	-91.906	0.409	0.116
-517.902	387.269	-0.044	-0.091
-516.887	-1.036	-0.216	-0.152
-515.872	-87.646	-0.145	-0.044
-514.858	109.015	-0.141	-0.168
-513.843	-200.000	-0.000	-0.072
-512.829	320.351	0.040	-0.075
-511.814	134.347	0.085	-0.109
-510.799	-200.000	0.019	-0.166
-509.785	-123.196	0.361	-0.058
-508.770	800.000	0.089	0.282
-507.756	-33.406	-0.055	0.030
-506.741	-89.779	0.270	0.079
-505.726	701.525	-0.039	-0.102
-504.712	-200.000	0.004	-0.035
-503.697	-43.851	0.075	-0.038
-502.683	10.571	-0.335	0.254
-501.668	-156.348	-0.176	0.011
-500.653	46.658	0.269	-0.249
-499.639	327.695	-0.168	-0.321
-498.624	508.593	0.028	0.065
-497.610	-21.025	-0.139	0.085
-496.595	-82.134	-0.407	0.132
-495.581	66.604	0.155	0.156
-494.566	-14.988	-0.096	0.061
-493.551	-200.000	-0.006	-0.203
-492.537	-47.437	0.179	-0.086
-491.522	112.397	-0.071	0.085
-490.508	5.371	-0.201	0.148
-489.493	-13.474	0.338	0.218
-488.478	721.517	0.120	-0.316
-487.464	261.261	-0.023	0.040
-486.449	-200.000	0.039	0.190
-485.435	75.547	0.160	-0.168
-484.420	-54.102	0.330	0.149
-483.405	129.760	-0.082	0.104
-482.391	743.433	0.181	-0.483
-481.376	-76.651	-0.223	-0.078
-480.362	240.530	-0.277	0.459
-479.347	13.380	-0.166	0.128
-478.332	-38.660	0.031	0.016
-477.318	-72.854	0.322	-0.118
-476.303	-152.771	0.048	-0.003
-475.289	6.270	-0.373	0.275
-474.274	19.940	-0.063	-0.050
-473.259	227.795	-0.118	0.190
-472.245	-200.000	0.026	0.397
-471.230	-31.412	-0.099	-0.055
-470.216	323.068	0.072	0.136
-469.201	-33.893	-0.381	0.209
-468.186	-33.811	0.053	0.029
-467.172	37.324	-0.171	-0.151
-466.157	149.181	-0.049	-0.066
-465.143	51.142	-0.295	0.278
-464.128	187.258	-0.079	-0.117
-463.113	5.203	0.174	-0.128
-462.099	48.698	-0.087	-0.081
-461.084	127.632	0.281	-0.354
-460.070	108.575	-0.195	-0.231
-459.055	458.545	0.053	-0.117
-458.040	800.000	-0.024	-0.071
-457.026	273.390	-0.174	-0.306
-456.011	367.336	-0.127	0.254
-454.997	-37.233	-0.294	-0.156
-453.982	156.907	-0.110	-0.151
-452.968	-93.493	0.143	0.039
-451.953	639.964	0.085	0.215
-450.938	-200.000	-0.007	-0.396
-449.924	-200.000	-0.023	0.206
-448.909	-135.545	-0.151	-0.018
-447.895	212.566	-0.076	0.120
-446.880	-35.441	0.036	0.019
-445.865	-68.998	-0.279	-0.107
-444.851	-200.000	0.014	-0.356
-443.836	800.000	0.060	0.227
-442.822	-200.000	-0.024	-0.160
-441.807	-200.000	-0.033	-0.240
-440.792	800.000	-0.121	0.357
-439.778	-129.748	-0.142	-0.019
-438.763	-200.000	0.009	0.062
-437.749	167.885	0.123	-0.174
-436.734	-19.695	-0.204	0.125
-435.719	-200.000	-0.017	-0.239
-434.705	260.445	-0.195	-0.334
-433.690	-200.000	-0.049	-0.239
-432.676	-104.828	0.114	0.026
-431.661	49.048	0.136	-0.127
-430.646	601.355	0.088	0.218
-429.632	-115.032	0.173	-0.033
-428.617	-200.000	-0.061	0.412
-427.603	111.972	0.160	0.192
-426.588	-200.000	-0.021	0.169
-425.573	-186.832	-0.204	-0.003
-424.559	338.906	-0.078	0.150
-423.544	-200.000	-0.001	-0.186
-422.530	304.483	-0.060	0.111
-421.515	101.219	0.260	-0.300
-420.500	800.000	0.119	0.462
-419.486	-98.380	0.285	0.072
-418.471	-200.000	0.042	0.422
-417.457	624.192	0.117	-0.293
-416.442	275.061	-0.104	-0.182
-415.428	-141.419	0.456	-0.046
-414.413	6.452	0.161	0.119
-413.398	-57.173	-0.575	-0.251
-412.384	-98.363	0.197	-0.050
-411.369	-153.879	-0.287	0.019
-410.355	84.304	0.257	0.278
-409.340	6.714	-0.122	0.090
-408.325	-146.099	-0.348	-0.030
-407.311	-200.000	0.001	-0.139
-406.296	-71.889	0.250	0.092
-405.282	2.417	-0.471	-0.338
-404.267	-200.000	-0.022	-0.156
-403.252	-106.323	0.142	-0.032
-402.238	800.000	-0.035	0.097
-401.223	-14.880	0.371	-0.236
-400.209	73.324	0.246	-0.255
-399.194	-191.270	0.308	-0.003
-398.179	94.163	0.139	-0.157
-397.165	800.000	-0.078	-0.259
-396.150	-100.211	0.107	0.026
-395.136	800.000	-0.066	-0.284
-394.121	0.681	0.085	0.060
-393.106	231.393	0.150	0.244
-392.092	28.956	-0.130	0.109
-391.077	-115.616	-0.073	0.014
-390.063	149.984	0.160	-0.215
-389.048	-200.000	0.017	-0.148
-388.033	-84.293	0.076	-0.024
-387.019	-119.686	-0.343	-0.059
-386.004	-192.470	-0.114	0.001
-384.990	-169.144	0.125	0.005
-383.975	356.077	-0.078	0.153
-382.960	92.669	-0.125	-0.139
-381.946	-77.189	0.117	0.040
-380.931	439.449	-0.009	-0.019
-379.917	124.282	0.041	-0.051
-378.902	800.000	0.025	0.069
-377.888	214.118	-0.053	-0.084
-376.873	150.755	0.094	0.126
-375.858	-51.108	-0.325	-0.151
-374.844	104.729	0.193	-0.226
-373.829	150.590	-0.146	0.197
-372.815	-200.000	-0.059	-0.318
-371.800	-200.000	-0.083	0.361
-370.785	-200.000	-0.012	-0.199
-369.771	-71.488	-0.011	0.004
-368.756	177.052	-0.190	0.273
-367.742	-31.987	-0.184	0.102
-366.727	-114.932	0.223	-0.042
-365.712	136.340	-0.091	-0.118
-364.698	-186.779	0.118	-0.002
-363.683	-200.000	-0.036	0.301
-362.669	221.594	-0.041	0.065
-361.654	-200.000	0.002	0.103
-360.639	-98.019	0.342	-0.087
-359.625	-200.000	-0.043	0.391
-358.610	-89.427	0.211	0.062
-357.596	-135.273	-0.071	-0.008
-356.581	42.926	0.259	0.234
-355.566	-200.000	0.018	0.097
-354.552	78.354	0.243	-0.257
-353.537	226.307	0.139	0.223
-352.523	700.760	-0.174	0.452
-351.508	-47.819	0.216	0.104
-350.493	800.000	-0.052	-0.190
-349.479	-40.246	-0.268	-0.138
-348.464	60.977	0.062	0.060
-347.450	-30.746	0.247	-0.138
-346.435	-28.615	-0.178	0.101
-345.420	-145.889	-0.149	0.013
-344.406	-186.145	0.369	0.005
-343.391	70.474	0.112	-0.115
-342.377	-8.075	0.167	-0.112
-341.362	306.714	0.144	0.266
-340.348	28.102	0.231	0.192
-339.333	185.162	-0.094	-0.138
-338.318	-179.677	-0.179	0.004
-337.304	118.037	0.216	0.263
-336.289	-200.000	-0.060	0.467
-335.275	-117.792	0.185	0.033
-334.260	800.000	-0.012	-0.046
-333.245	-34.675	-0.240	0.130
-332.231	-32.557	-0.321	0.177
-331.216	-200.000	-0.015	0.186
-330.202	116.705	-0.154	0.187
-329.187	-200.000	-0.010	-0.055
-328.172	-17.387	0.353	0.220
-327.158	-24.593	-0.194	-0.114
-326.143	-4.715	0.265	0.181
-325.129	204.649	-0.146	0.223
-324.114	602.132	0.037	-0.092
-323.099	-71.289	-0.391	-0.145
-322.085	-24.437	-0.307	-0.181
-321.070	-180.580	0.393	-0.008
-320.056	792.737	0.062	0.168
-319.041	600.062	-0.094	0.231
-318.026	-112.051	-0.560	0.111
-317.012	-200.000	-0.018	0.141
-315.997	2.514	0.241	-0.172
-314.983	-200.000	0.005	-0.169
-313.968	-200.000	-0.053	0.251
-312.953	177.363	-0.158	0.227
-311.939	259.341	0.063	0.107
-310.924	-200.000	0.002	-0.348
-309.910	800.000	0.042	0.139
-308.895	-144.562	0.333	0.030
-307.880	-182.525	0.212	0.004
-306.866	78.649	0.107	0.113
-305.851	800.000	-0.101	-0.314
-304.837	-200.000	0.014	0.266
-303.822	-49.178	0.152	0.072
-302.807	-125.134	0.155	-0.023
-301.793	11.359	0.109	0.083
-300.778	487.082	-0.124	-0.280
-299.764	14.045	-0.346	-0.266
-298.749	-13.933	0.077	-0.049
-297.735	563.792	0.033	-0.080
-296.720	800.000	-0.011	0.040
-295.705	-8.302	0.067	0.044
-294.691	800.000	-0.041	-0.176
-293.676	-26.941	0.030	-0.017
-292.662	800.000	0.038	-0.134
-291.647	95.577	-0.208	-0.234
-290.632	-10.533	-0.250	-0.164
-289.618	362.577	-0.164	-0.325
-288.603	-96.118	-0.251	-0.066
-287.589	-56.199	-0.128	-0.056
-286.574	-146.601	0.078	-0.007
-285.559	146.178	-0.051	-0.068
-284.545	-41.331	-0.084	0.043
-283.530	-200.000	-0.017	0.114
-282.516	800.000	0.105	0.446
-281.501	800.000	0.082	0.291
-280.486	-41.443	0.094	-0.048
-279.472	41.142	-0.166	-0.148
-278.457	-200.000	-0.084	-0.402
-277.443	800.000	0.104	-0.393
-276.428	3.492	0.414	0.298
-275.413	-180.511	0.080	-0.002
-274.399	-56.713	-0.428	0.187
-273.384	-67.416	0.100	-0.039
-272.370	-182.311	0.236	0.004
-271.355	800.000	0.053	-0.147
-270.340	16.574	0.209	0.163
-269.326	-75.297	-0.208	0.073
-268.311	-200.000	0.011	0.389
-267.297	-200.000	-0.033	0.225
-266.282	-27.854	-0.165	-0.094
-265.267	-71.016	0.231	-0.086
-264.253	24.036	0.021	0.017
-263.238	800.000	0.149	0.414
-262.224	-200.000	-0.018	-0.083
-261.209	-13.648	-0.232	-0.148
-260.195	-200.000	0.065	0.427
-259.180	-85.652	0.217	-0.066
-258.165	-22.233	0.069	0.041
-257.151	-200.000	-0.017	0.243
-256.136	403.596	0.184	-0.382
-255.122	23.903	-0.305	0.248
-254.107	482.034	0.128	0.286
-253.092	-59.739	0.180	-0.076
-252.078	-200.000	0.016	0.170
-251.063	65.608	0.109	0.109
-250.049	-200.000	-0.066	-0.559
-249.034	-123.810	-0.379	0.059
-248.019	-6.289	-0.111	0.075
-247.005	7.001	0.107	-0.079
-245.990	591.793	0.045	0.109
-244.976	139.323	0.152	0.196
-243.961	-150.518	-0.033	-0.003
-242.946	-116.459	0.263	0.048
-241.932	89.062	-0.143	-0.157
-240.917	31.665	-0.242	-0.205
-239.903	264.497	0.217	0.371
-238.888	-200.000	0.097	0.422
-237.873	-132.338	0.204	-0.026
-236.859	214.715	-0.197	0.308
-235.844	-200.000	-0.111	-0.000
-234.830	-107.960	0.123	-0.026
-233.815	316.301	0.060	0.111
-232.800	71.043	0.171	-0.175
-231.786	-200.000	-0.019	0.176
-230.771	97.202	0.038	0.043
-229.757	283.848	0.065	-0.114
-228.742	-32.825	-0.220	-0.121
-227.727	-200.000	-0.001	0.015
-226.713	-53.116	0.168	-0.076
-225.698	800.000	0.029	-0.101
-224.684	-200.000	-0.007	0.085
-223.669	800.000	-0.036	-0.102
-222.655	800.000	-0.027	0.080
-221.640	55.366	-0.111	-0.106
-220.625	-30.623	0.060	-0.034
-219.611	-200.000	-0.073	-0.365
-218.596	-38.954	0.206	0.107
-217.582	-105.867	0.142	0.032
-216.567	4.763	0.162	0.117
-215.552	-115.352	-0.196	0.036
-214.538	78.033	0.248	0.260
-213.523	-197.728	-0.126	0.001
-212.509	-200.000	0.043	0.388
-211.494	206.693	-0.069	-0.106
-210.479	-200.000	0.011	0.128
-209.465	163.742	-0.247	-0.342
-208.450	187.818	0.067	0.098
-207.436	800.000	0.119	0.323
-206.421	-200.000	0.002	-0.012
-205.406	74.592	0.055	-0.057
-204.392	101.916	0.182	-0.209
-203.377	-43.590	0.242	0.120
-202.363	-72.006	-0.073	0.027
-201.348	-158.224	-0.261	-0.015
-200.333	-200.000	0.009	-0.096
-199.319	-72.154	0.273	-0.099
-198.304	800.000	-0.023	0.076
-197.290	38.660	0.098	0.086
-196.275	-8.399	-0.233	0.154
-195.260	103.293	-0.227	-0.262
-194.246	414.816	-0.051	0.107
-193.231	-1.365	0.140	-0.097
-192.217	-123.074	0.185	-0.029
-191.202	-0.634	0.357	0.249
-190.187	-154.713	-0.287	-0.019
-189.173	-81.217	0.098	-0.032
-188.158	205.837	-0.239	-0.365
-187.144	-114.878	0.220	-0.041
-186.129	-200.000	0.001	0.135
-185.114	78.924	-0.129	-0.136
-184.100	-200.000	0.002	-0.072
-183.085	3.972	0.067	-0.048
-182.071	103.224	-0.207	-0.238
-181.056	90.886	0.161	0.177
-180.042	61.931	0.061	-0.060
-179.027	91.975	-0.161	0.179
-178.012	41.585	-0.133	-0.119
-176.998	-200.000	-0.016	0.259
-175.983	800.000	-0.147	0.415
-174.969	173.934	-0.214	-0.304
-173.954	-87.302	-0.218	-0.065
-172.939	141.562	-0.156	0.203
-171.925	-156.227	-0.300	0.019
-170.910	-53.731	0.283	-0.127
-169.896	-58.396	0.381	0.163
-168.881	152.240	-0.108	0.145
-167.866	-42.460	-0.297	0.149
-166.852	120.107	0.205	0.249
-165.837	-97.223	0.314	0.080
-164.823	-86.498	-0.223	0.067
-163.808	-125.161	-0.410	-0.062
-162.793	174.457	0.203	0.288
-161.779	-99.640	-0.225	-0.055
-160.764	-123.721	0.063	-0.010
-159.750	110.249	-0.169	0.199
-158.735	24.808	-0.082	-0.067
-157.720	-86.258	-0.282	-0.085
-156.706	95.173	-0.135	0.151
-155.691	800.000	-0.052	-0.208
-154.677	800.000	-0.021	-0.088
-153.662	800.000	-0.027	0.076
-152.647	800.000	0.053	0.152
-151.633	-69.377	0.087	0.033
-150.618	-49.117	-0.391	0.183
-149.604	14.857	-0.194	0.149
-148.589	-22.632	-0.238	-0.141
-147.574	92.741	0.123	-0.136
-146.560	-117.625	-0.193	0.034
-145.545	-200.000	0.009	0.082
-144.531	25.213	0.399	-0.325
-143.516	-129.966	0.222	-0.030
-142.502	-200.000	-0.031	0.238
-141.487	-200.000	0.004	-0.043
-140.472	-135.670	-0.124	-0.014
-139.458	71.359	-0.123	-0.125
-138.443	303.129	0.082	-0.149
-137.429	-154.951	-0.174	0.011
-136.414	-22.652	0.101	-0.060
-135.399	-75.529	0.392	0.137
-134.385	110.461	0.154	0.181
-133.370	188.583	-0.223	-0.327
-132.356	-83.154	0.126	0.040
-131.341	-53.705	-0.206	-0.092
-130.326	37.180	0.193	-0.167
-129.312	282.138	0.069	-0.121
-128.297	329.488	-0.017	-0.032
-127.283	109.668	-0.101	0.119
-126.268	-74.617	-0.297	-0.105
-125.253	451.490	0.232	-0.504
-124.239	92.708	0.095	0.105
-123.224	-80.739	-0.127	0.042
-122.210	699.383	0.093	0.239
-121.195	359.392	0.057	0.112
