DTS Sentinel unit serial number:	SN413079Multiplexer serial number:	ORYXHardware model number:	OX4-SRSoftware version number:	ORYX F/W v4.00 Oryx Data Collector v3.7.2.0data status	okinstallation	princeton_trtdifferential loss correction	single-endedforward channel	channel 3reverse channel	N/Adate	2019/09/12time	18:46:03forward acquisition time	15.00reverse acquisition time	0.00gamma	496.2192k internal	0.2318k external	0.2318temperature offset calibration	1.0097default loss term (dB/km)	0.3790temperature slope calibration	1.0000multiplexer offset coefficient	1.0000multiplexer slope coefficient	1.0000fibre end	0.00T internal ref (°C)	33.00T ext. ref 1 (°C)	2.97T ext. ref 2 (°C)	27.49length (m)	temperature (°C)	Stokes	anti-Stokes-747.200	136.592	0.109	0.144
-746.185	-200.000	-0.033	0.226
-745.171	-41.084	0.514	0.269
-744.156	18.871	0.210	0.171
-743.142	221.326	-0.282	-0.459
-742.127	-15.815	0.121	-0.078
-741.112	151.963	-0.241	-0.332
-740.098	-200.000	-0.026	0.332
-739.083	-200.000	-0.106	0.508
-738.069	57.181	0.597	0.589
-737.054	-1.958	-0.518	-0.368
-736.039	800.000	-0.144	0.533
-735.025	-64.593	-0.622	-0.255
-734.010	-26.309	0.155	-0.092
-732.996	-147.786	-0.863	-0.073
-731.981	-162.016	0.440	0.022
-730.966	30.813	-0.540	-0.468
-729.952	-57.964	0.296	-0.131
-728.937	-121.667	-0.365	0.061
-727.923	-35.301	-0.772	-0.425
-726.908	-140.809	-0.638	-0.066
-725.894	120.367	0.332	-0.417
-724.879	705.098	-0.335	-0.893
-723.864	-200.000	-0.006	0.166
-722.850	61.622	0.495	-0.499
-721.835	198.814	-0.479	0.741
-720.821	-165.441	0.406	-0.018
-719.806	522.590	-0.234	-0.556
-718.791	17.144	-0.167	0.134
-717.777	64.608	-0.287	-0.293
-716.762	-200.000	0.051	-0.708
-715.748	452.745	-0.301	-0.673
-714.733	-76.377	-0.589	0.210
-713.718	-1.881	-0.505	-0.359
-712.704	95.678	-0.142	0.164
-711.689	800.000	0.268	0.799
-710.675	-117.783	0.091	0.017
-709.660	-200.000	0.024	0.250
-708.645	-69.557	0.586	0.227
-707.631	-159.073	0.589	-0.034
-706.616	-106.951	-0.144	-0.032
-705.602	-9.116	0.426	-0.288
-704.587	36.074	-0.549	0.489
-703.572	-82.675	0.295	-0.097
-702.558	800.000	-0.166	-0.583
-701.543	-76.464	-1.000	-0.355
-700.529	-64.231	0.490	-0.202
-699.514	-18.522	-1.263	-0.797
-698.499	407.796	-0.412	0.881
-697.485	800.000	-0.042	-0.176
-696.470	-72.102	-0.423	-0.159
-695.456	-200.000	-0.158	-1.040
-694.441	-22.036	-0.621	-0.381
-693.426	157.858	0.495	-0.693
-692.412	117.199	-0.347	-0.431
-691.397	48.774	-0.808	0.766
-690.383	-106.099	-0.535	0.121
-689.368	-115.657	-0.737	-0.140
-688.354	238.443	0.158	0.265
-687.339	-12.364	-0.285	-0.188
-686.324	-117.214	1.373	0.252
-685.310	240.519	0.228	0.384
-684.295	-99.631	-0.490	-0.124
-683.281	-129.259	-0.273	-0.038
-682.266	-21.888	0.249	0.153
-681.251	-200.000	-0.010	-0.575
-680.237	629.832	0.156	0.398
-679.222	161.471	-0.319	0.451
-678.208	800.000	-0.353	-1.146
-677.193	61.166	0.270	-0.270
-676.178	800.000	-0.102	0.348
-675.164	-114.395	-0.123	0.024
-674.149	-200.000	-0.084	0.398
-673.135	-30.462	-0.739	-0.423
-672.120	48.730	0.292	0.277
-671.105	549.795	-0.219	0.531
-670.091	7.038	0.650	0.489
-669.076	800.000	-0.147	-0.581
-668.062	149.191	-0.113	-0.154
-667.047	-39.140	-0.235	-0.125
-666.032	418.337	-0.330	0.712
-665.018	-1.157	-0.380	0.271
-664.003	92.029	-0.474	-0.538
-662.989	142.146	-0.054	0.072
-661.974	-61.530	0.229	-0.097
-660.959	30.044	0.370	-0.319
-659.945	-52.851	0.531	0.247
-658.930	-200.000	-0.005	0.279
-657.916	181.250	0.221	0.327
-656.901	-114.753	0.248	-0.048
-655.886	-79.139	-0.367	-0.126
-654.872	59.822	0.321	0.320
-653.857	20.579	-0.386	-0.315
-652.843	614.031	0.131	0.331
-651.828	-95.852	-0.417	0.112
-650.814	464.607	-0.303	0.682
-649.799	50.328	-0.493	-0.469
-648.784	-200.000	-0.088	-0.899
-647.770	-200.000	0.012	-0.753
-646.755	584.629	-0.164	-0.405
-645.741	-116.895	0.272	-0.050
-644.726	-53.881	-0.538	-0.247
-643.711	14.297	0.390	-0.306
-642.697	-0.071	-0.458	-0.329
-641.682	48.456	-0.115	-0.109
-640.668	212.997	-0.254	-0.405
-639.653	-47.445	0.124	0.061
-638.638	71.094	-0.255	0.266
-637.624	-200.000	0.032	0.711
-636.609	613.408	0.293	-0.739
-635.595	441.401	-0.280	-0.618
-634.580	-200.000	-0.081	-0.366
-633.565	482.465	0.202	-0.462
-632.551	101.256	0.246	-0.289
-631.536	-111.668	0.622	-0.127
-630.522	800.000	0.105	-0.367
-629.507	-83.628	0.847	-0.273
-628.492	325.849	-0.400	0.771
-627.478	33.898	0.265	0.232
-626.463	-72.899	-0.351	0.130
-625.449	-162.692	-0.385	0.019
-624.434	477.364	0.195	0.443
-623.419	71.536	-0.347	0.363
-622.405	800.000	-0.070	0.298
-621.390	-35.686	-0.484	0.264
-620.376	-149.914	-0.264	-0.021
-619.361	125.087	-0.315	0.400
-618.346	-174.883	0.450	-0.013
-617.332	85.847	-0.554	0.614
-616.317	242.069	-0.170	-0.286
-615.303	-200.000	-0.015	0.704
-614.288	78.559	0.383	-0.412
-613.273	17.778	0.220	-0.177
-612.259	117.360	0.196	0.242
-611.244	-115.475	1.054	-0.200
-610.230	-66.531	-0.965	0.385
-609.215	-139.358	-1.023	0.111
-608.201	210.995	0.101	-0.160
-607.186	185.189	-0.211	-0.316
-606.171	21.823	0.244	0.200
-605.157	-149.260	0.787	0.063
-604.142	71.137	-0.427	-0.446
-603.128	-200.000	-0.037	0.375
-602.113	-76.227	-0.369	0.131
-601.098	-14.899	0.291	0.188
-600.084	-166.805	0.272	-0.011
-599.069	312.814	-0.248	-0.470
-598.055	425.523	0.131	-0.284
-597.040	64.739	0.670	-0.680
-596.025	74.923	0.157	0.167
-595.011	636.761	0.269	0.687
-593.996	7.244	0.528	-0.396
-592.982	77.794	0.501	-0.537
-591.967	-58.631	0.540	-0.236
-590.952	66.757	0.102	-0.105
-589.938	-200.000	-0.010	0.427
-588.923	64.305	-0.184	0.186
-587.909	-79.089	0.291	0.099
-586.894	-200.000	-0.031	0.344
-585.879	-97.984	0.508	-0.132
-584.865	-200.000	-0.051	-0.247
-583.850	643.959	0.209	0.536
-582.836	-38.627	-0.369	0.196
-581.821	-67.355	0.564	0.223
-580.806	52.388	-0.423	-0.406
-579.792	-82.224	-0.868	-0.284
-578.777	-116.036	0.376	-0.070
-577.763	-50.841	-0.761	0.360
-576.748	-108.474	-0.861	0.186
-575.733	284.100	-0.176	0.319
-574.719	800.000	-0.148	-0.428
-573.704	-200.000	-0.005	0.740
-572.690	-200.000	0.073	0.592
-571.675	-80.317	0.402	-0.135
-570.661	-200.000	-0.008	-0.314
-569.646	-50.232	0.417	0.198
-568.631	273.062	-0.085	-0.151
-567.617	-200.000	0.025	0.234
-566.602	711.181	0.181	0.480
-565.588	-104.441	-0.448	-0.104
-564.573	-72.530	0.413	0.153
-563.558	-13.319	0.587	-0.383
-562.544	-107.067	-0.144	-0.032
-561.529	11.925	0.285	-0.220
-560.515	800.000	0.118	0.439
-559.500	-200.000	-0.165	0.764
-558.485	-174.467	-0.493	0.014
-557.471	-200.000	0.059	-0.409
-556.456	67.048	0.387	0.396
-555.442	77.914	0.245	0.263
-554.427	-200.000	0.069	-1.100
-553.412	-122.477	0.828	0.135
-552.398	627.969	0.162	-0.411
-551.383	-200.000	0.002	-0.134
-550.369	448.817	0.202	0.447
-549.354	33.611	-0.301	0.263
-548.339	-91.669	-0.197	-0.056
-547.325	-200.000	-0.133	0.621
-546.310	95.642	0.228	0.261
-545.296	-107.454	-0.465	-0.102
-544.281	-121.519	-0.409	-0.068
-543.266	33.408	-0.027	0.023
-542.252	-200.000	0.043	0.612
-541.237	-200.000	-0.036	0.707
-540.223	-137.727	0.212	-0.024
-539.208	119.231	0.372	-0.462
-538.193	-200.000	0.005	0.412
-537.179	800.000	0.165	-0.695
-536.164	93.857	-0.434	0.494
-535.150	-185.055	-0.224	0.004
-534.135	-18.674	0.194	-0.121
-533.121	340.555	0.108	-0.211
-532.106	48.184	-0.385	-0.362
-531.091	-74.659	-0.554	-0.200
-530.077	-86.339	-0.727	0.224
-529.062	-117.241	0.184	-0.034
-528.048	450.940	0.178	0.394
-527.033	36.896	-0.411	-0.364
-526.018	225.008	0.170	-0.276
-525.004	390.408	-0.369	-0.769
-523.989	-121.870	0.241	0.040
-522.975	-200.000	-0.072	-0.455
-521.960	-140.365	0.762	-0.080
-520.945	-200.000	0.070	0.879
-519.931	-84.230	-0.587	-0.187
-518.916	90.115	0.097	-0.109
-517.902	-132.620	-0.971	-0.125
-516.887	484.515	0.318	-0.726
-515.872	759.738	0.302	-0.820
-514.858	70.102	0.097	-0.101
-513.843	4.565	0.573	0.422
-512.829	800.000	0.215	0.816
-511.814	-200.000	-0.011	1.010
-510.799	48.323	-0.391	0.367
-509.785	-35.161	-0.438	-0.239
-508.770	-13.493	-0.498	0.323
-507.756	-200.000	0.034	0.274
-506.741	-19.221	0.699	-0.435
-505.726	800.000	-0.162	-0.471
-504.712	34.871	-0.248	0.218
-503.697	219.254	-0.189	-0.302
-502.683	800.000	-0.204	-0.661
-501.668	10.977	0.383	-0.294
-500.653	113.388	0.263	0.320
-499.639	2.096	-0.235	-0.170
-498.624	-105.176	0.609	-0.139
-497.610	-37.063	-0.230	0.123
-496.595	-200.000	0.025	-0.517
-495.581	800.000	0.288	0.866
-494.566	41.189	0.506	0.458
-493.551	-168.810	-0.240	-0.009
-492.537	-110.531	-0.312	-0.065
-491.522	149.053	0.539	0.730
-490.508	131.213	0.298	-0.383
-489.493	0.522	0.388	0.278
-488.478	25.219	-0.325	0.270
-487.464	5.721	0.079	-0.059
-486.449	-46.410	0.363	0.179
-485.435	-124.013	0.347	0.055
-484.420	800.000	0.147	0.567
-483.405	800.000	0.143	-0.575
-482.391	7.785	0.190	0.143
-481.376	-68.606	-0.423	0.164
-480.362	11.307	-0.249	-0.191
-479.347	404.710	0.225	-0.475
-478.332	177.846	0.126	0.184
-477.318	42.880	0.462	-0.422
-476.303	113.448	0.358	0.435
-475.289	-63.948	-0.337	0.138
-474.274	-105.173	0.491	0.112
-473.259	-164.793	-0.483	-0.022
-472.245	-98.403	0.817	0.209
-471.230	-107.261	0.771	-0.170
-470.216	215.180	-0.208	-0.330
-469.201	64.733	-0.088	-0.089
-468.186	19.556	-0.390	-0.314
-467.172	-28.283	0.496	-0.287
-466.157	-200.000	-0.091	0.586
-465.143	-83.431	-0.808	0.259
-464.128	36.671	-0.574	0.507
-463.113	92.813	-0.181	0.204
-462.099	-10.000	0.257	-0.171
-461.084	47.891	-0.278	0.260
-460.070	-133.704	0.264	0.033
-459.055	234.600	-0.223	0.368
-458.040	-153.019	-0.590	0.042
-457.026	-147.098	0.577	0.049
-456.011	414.548	-0.098	0.210
-454.997	800.000	-0.145	-0.404
-453.982	199.668	0.466	0.715
-452.968	137.476	0.449	-0.588
-451.953	-65.049	-0.553	0.223
-450.938	-61.133	-0.548	0.231
-449.924	101.595	-0.178	-0.208
-448.909	140.559	0.413	-0.545
-447.895	168.392	-0.371	-0.529
-446.880	304.655	-0.108	0.201
-445.865	-200.000	0.110	0.505
-444.851	336.712	-0.455	-0.885
-443.836	463.697	0.140	0.312
-442.822	48.520	-0.593	-0.556
-441.807	-200.000	-0.105	0.790
-440.792	-139.917	0.267	0.028
-439.778	88.596	0.296	-0.330
-438.763	-200.000	-0.121	0.643
-437.749	800.000	-0.059	0.177
-436.734	12.895	-0.562	-0.434
-435.719	284.519	0.373	-0.672
-434.705	-128.046	0.665	0.095
-433.690	-89.747	0.286	-0.084
-432.676	121.478	-0.425	-0.529
-431.661	-200.000	-0.009	0.326
-430.646	200.269	0.350	0.538
-429.632	-137.149	-0.295	0.034
-428.617	-150.928	0.325	-0.025
-427.603	-97.621	-1.152	-0.299
-426.588	-188.082	-0.162	0.002
-425.573	-57.625	0.495	-0.217
-424.559	663.890	-0.301	-0.775
-423.544	-102.249	1.184	-0.284
-422.530	720.878	-0.188	-0.499
-421.515	800.000	0.174	-0.596
-420.500	-59.815	0.492	-0.210
-419.486	17.484	-0.860	0.683
-418.471	-158.402	0.558	-0.032
-417.457	-44.237	-0.560	0.281
-416.442	-1.362	-1.034	-0.729
-415.428	-23.429	0.450	-0.270
-414.413	-140.915	0.711	0.073
-413.398	303.044	-0.236	-0.436
-412.384	27.024	-0.424	0.355
-411.369	-32.440	-0.724	-0.403
-410.355	192.176	-0.222	-0.335
-409.340	37.891	0.665	-0.590
-408.325	19.194	0.626	-0.502
-407.311	50.854	0.181	0.172
-406.296	6.120	-0.651	-0.482
-405.282	-200.000	-0.083	-0.677
-404.267	488.999	-0.585	-1.334
-403.252	32.020	0.503	0.433
-402.238	-71.594	-0.682	0.255
-401.223	-164.937	-0.430	-0.019
-400.209	-131.722	0.497	-0.065
-399.194	-96.513	-0.652	-0.172
-398.179	-130.300	-0.384	-0.052
-397.165	277.401	0.293	-0.521
-396.150	275.569	-0.250	0.442
-395.136	382.906	0.157	0.322
-394.121	800.000	0.130	-0.448
-393.106	-200.000	0.196	1.199
-392.092	40.007	0.520	0.467
-391.077	-200.000	-0.030	1.041
-390.063	762.568	0.309	0.837
-389.048	-84.222	-0.256	-0.081
-388.033	150.853	-0.466	0.632
-387.019	330.811	-0.416	-0.799
-386.004	800.000	-0.029	-0.105
-384.990	-27.127	0.179	-0.104
-383.975	-73.053	0.229	0.084
-382.960	-100.669	-0.607	0.149
-381.946	300.980	0.148	-0.272
-380.931	69.592	0.399	0.410
-379.917	-107.467	0.344	-0.075
-378.902	-144.214	0.225	0.021
-377.888	800.000	0.064	0.239
-376.873	-69.823	0.487	0.185
-375.858	305.555	-0.034	-0.063
-374.844	-58.291	0.621	-0.269
-373.829	-131.565	0.504	0.066
-372.815	-63.888	-0.405	0.165
-371.800	-10.694	0.653	-0.431
-370.785	-200.000	0.060	-0.529
-369.771	-140.913	0.359	-0.037
-368.756	-200.000	0.078	-0.512
-367.742	37.095	0.277	-0.245
-366.727	-120.329	0.570	-0.097
-365.712	-124.941	-0.294	-0.045
-364.698	19.810	0.144	-0.116
-363.683	82.588	0.218	-0.236
-362.669	-200.000	0.093	-0.437
-361.654	224.786	-0.223	-0.359
-360.639	408.582	-0.192	-0.404
-359.625	64.048	0.255	0.255
-358.610	-198.782	-0.678	0.004
-357.596	-200.000	0.039	-0.311
-356.581	-125.687	-0.492	0.074
-355.566	-27.789	-0.941	0.544
-354.552	669.560	-0.144	0.372
-353.537	-200.000	-0.041	-0.583
-352.523	-28.809	-0.659	-0.378
-351.508	627.880	0.208	-0.523
-350.493	-18.868	0.758	-0.470
-349.479	-165.345	-0.760	0.033
-348.464	-200.000	0.104	0.657
-347.450	134.625	-0.234	0.302
-346.435	800.000	0.175	0.632
-345.420	-177.484	-0.535	-0.013
-344.406	-29.072	-0.525	0.300
-343.391	-200.000	0.020	0.379
-342.377	28.168	-0.225	-0.190
-341.362	-60.991	0.697	-0.293
-340.348	-95.566	0.871	-0.232
-339.333	-143.303	-0.492	0.047
-338.318	-200.000	-0.179	-0.898
-337.304	800.000	0.066	-0.246
-336.289	678.798	0.327	0.848
-335.275	472.144	-0.247	0.554
-334.260	-144.544	0.417	0.038
-333.245	800.000	-0.142	-0.543
-332.231	800.000	0.265	-0.998
-331.216	30.571	0.538	0.458
-330.202	-134.544	-0.824	-0.100
-329.187	36.493	0.131	0.115
-328.172	29.474	-0.571	-0.484
-327.158	111.100	0.230	0.276
-326.143	-9.244	0.684	0.455
-325.129	-47.642	0.454	-0.219
-324.114	-59.415	0.403	-0.172
-323.099	579.965	0.277	0.675
-322.085	55.853	0.226	0.218
-321.070	-150.992	0.567	0.043
-320.056	-200.000	-0.188	-1.010
-319.041	-200.000	0.072	-0.565
-318.026	-95.001	0.797	0.214
-317.012	174.325	-0.420	0.604
-315.997	92.707	-0.305	0.343
-314.983	-200.000	0.063	1.260
-313.968	59.042	0.992	0.971
-312.953	-111.095	0.340	-0.069
-311.939	-49.688	-0.343	-0.162
-310.924	338.623	-0.179	0.347
-309.910	-200.000	-0.150	0.977
-308.895	610.446	-0.157	-0.391
-307.880	-155.012	-0.473	0.031
-306.866	-117.552	-0.435	0.078
-305.851	-200.000	-0.102	-0.815
-304.837	799.445	-0.111	0.304
-303.822	341.936	0.620	-1.206
-302.807	-200.000	0.003	-0.859
-301.793	-69.220	0.111	0.042
-300.778	-66.788	-0.692	0.272
-299.764	800.000	-0.072	0.279
-298.749	246.954	0.214	0.359
-297.735	800.000	-0.162	-0.499
-296.720	-108.426	-0.136	-0.029
-295.705	654.133	0.142	-0.363
-294.691	81.584	0.287	-0.309
-293.676	-49.199	-0.319	0.151
-292.662	800.000	0.065	0.260
-291.647	-164.294	0.767	-0.035
-290.632	800.000	0.203	-0.634
-289.618	33.044	-0.637	0.549
-288.603	-200.000	-0.001	0.361
-287.589	800.000	0.097	0.340
-286.574	138.525	0.233	-0.304
-285.559	-49.938	-0.675	-0.318
-284.545	-16.742	-0.294	0.185
-283.530	-186.227	-0.804	-0.012
-282.516	475.272	0.125	0.281
-281.501	-107.392	-0.533	-0.116
-280.486	-32.158	-0.410	-0.228
-279.472	-200.000	0.079	0.663
-278.457	-143.595	0.247	0.023
-277.443	-62.292	-0.834	0.345
-276.428	-95.733	-0.509	-0.135
-275.413	9.973	0.586	-0.442
-274.399	5.077	1.105	0.808
-273.384	104.593	0.373	0.436
-272.370	146.345	-0.337	0.449
-271.355	800.000	-0.086	0.286
-270.340	650.550	-0.178	-0.453
-269.326	800.000	0.075	-0.237
-268.311	-129.975	0.563	0.077
-267.297	322.334	0.081	-0.153
-266.282	364.246	0.183	0.366
-265.267	-150.569	-1.026	-0.078
-264.253	111.814	-0.537	-0.644
-263.238	800.000	-0.145	0.580
-262.224	-170.979	-0.524	-0.018
-261.209	-200.000	-0.011	-0.153
-260.195	-200.000	-0.026	0.496
-259.180	-98.603	-1.097	0.278
-258.165	800.000	0.130	0.369
-257.151	800.000	-0.270	-0.854
-256.136	-46.124	-0.487	-0.238
-255.122	484.311	-0.260	0.587
-254.107	-200.000	0.021	-0.283
-253.092	11.842	0.408	0.311
-252.078	88.417	-0.351	0.387
-251.063	-155.120	-0.534	-0.035
-250.049	115.588	0.441	0.535
-249.034	800.000	0.128	0.503
-248.019	-33.976	0.132	-0.072
-247.005	216.912	0.455	0.720
-245.990	624.161	-0.092	0.230
-244.976	-200.000	0.078	0.452
-243.961	53.518	-0.162	-0.154
-242.946	-200.000	-0.025	-1.125
-241.932	140.531	-0.081	0.106
-240.917	-105.710	0.514	-0.115
-239.903	-67.719	-0.608	-0.236
-238.888	800.000	-0.027	-0.108
-237.873	-57.324	0.188	0.082
-236.859	-200.000	0.089	-0.503
-235.844	22.730	-0.228	0.185
-234.830	-120.645	0.158	-0.027
-233.815	-34.016	-1.014	-0.553
-232.800	-113.018	-0.477	0.093
-231.786	-200.000	-0.034	-0.265
-230.771	-95.790	-0.168	-0.045
-229.757	-111.148	-0.276	0.056
-228.742	-200.000	-0.041	0.270
-227.727	5.017	0.432	0.315
-226.713	47.086	0.148	0.137
-225.698	-33.392	0.402	-0.221
-224.684	-122.498	0.450	0.073
-223.669	157.549	0.370	0.508
-222.655	-41.619	-0.818	0.417
-221.640	54.238	0.212	-0.203
-220.625	-72.089	0.282	0.104
-219.611	85.123	-0.319	0.347
-218.596	177.320	-0.155	-0.224
-217.582	-68.531	-1.354	0.520
-216.567	306.178	-0.238	0.440
-215.552	429.951	0.122	-0.262
-214.538	129.512	0.195	0.247
-213.523	-200.000	-0.003	-0.111
-212.509	-200.000	-0.484	-0.002
-211.494	-46.787	0.116	0.056
-210.479	-126.149	0.489	0.073
-209.465	-200.000	0.043	-0.289
-208.450	65.195	0.118	-0.118
-207.436	-200.000	-0.049	0.233
-206.421	-107.374	-0.351	0.076
-205.406	800.000	0.273	0.898
-204.392	-200.000	0.020	0.503
-203.377	94.505	0.231	-0.260
-202.363	-200.000	0.042	-0.392
-201.348	182.054	0.301	-0.439
-200.333	82.717	0.267	0.287
-199.319	152.206	-0.450	0.608
-198.304	152.903	0.466	0.632
-197.290	-166.512	-0.631	-0.026
-196.275	-78.061	-0.343	0.117
-195.260	-149.705	0.629	0.049
-194.246	-65.443	-0.635	-0.253
-193.231	179.801	0.049	-0.071
-192.217	800.000	-0.195	0.581
-191.202	90.022	-0.656	0.726
-190.187	292.560	0.244	0.441
-189.173	-200.000	0.037	-0.396
-188.158	242.405	-0.366	-0.607
-187.144	800.000	0.080	0.259
-186.129	-200.000	-0.001	-0.312
-185.114	-200.000	-0.123	0.667
-184.100	-115.141	0.298	0.056
-183.085	-200.000	0.755	0.001
-182.071	191.601	0.153	0.228
-181.056	800.000	0.135	-0.477
-180.042	-200.000	0.027	-0.247
-179.027	134.949	0.094	0.120
-178.012	-117.475	0.127	-0.023
-176.998	475.732	0.536	-1.198
-175.983	800.000	-0.100	0.370
-174.969	204.713	0.107	0.164
-173.954	-200.000	-0.076	-0.442
-172.939	373.117	0.150	-0.302
-171.925	-200.000	0.008	-0.354
-170.910	22.123	0.340	-0.275
-169.896	88.817	0.272	-0.299
-168.881	800.000	-0.131	0.540
-167.866	-31.169	0.632	-0.352
-166.852	549.938	-0.172	0.409
-165.837	139.437	0.494	-0.643
-164.823	-200.000	0.078	-0.625
-163.808	-200.000	0.082	-0.625
-162.793	-116.487	-0.369	-0.067
-161.779	259.220	-0.254	-0.433
-160.764	-136.937	0.183	-0.021
-159.750	800.000	-0.258	0.806
-158.735	800.000	0.077	-0.315
-157.720	269.020	0.310	-0.538
-156.706	66.781	0.391	0.394
-155.691	393.142	-0.140	0.289
-154.677	315.512	0.035	0.065
-153.662	-81.465	0.521	-0.169
-152.647	42.009	0.495	0.444
-151.633	-200.000	0.148	0.714
-150.618	-200.000	-0.073	-1.008
-149.604	800.000	0.155	0.441
-148.589	-40.737	0.396	0.203
-147.574	-200.000	-0.187	0.974
-146.560	21.814	0.177	0.142
-145.545	-80.256	-0.245	-0.081
-144.531	462.304	-0.266	0.588
-143.516	225.829	-0.253	0.406
-142.502	145.701	0.207	0.274
-141.487	-157.525	0.636	0.038
-140.472	-57.588	0.257	-0.111
-139.458	-102.706	0.171	0.040
-138.443	-6.234	0.235	-0.158
-137.429	-28.034	-0.671	-0.384
-136.414	12.490	-0.203	-0.154
-135.399	-39.589	-0.340	0.176
-134.385	-21.341	0.371	0.224
-133.370	106.487	0.467	0.548
-132.356	-142.353	-0.315	-0.031
-131.341	152.926	0.293	0.396
-130.326	800.000	-0.170	0.645
-129.312	-200.000	-0.053	0.787
-128.297	-200.000	0.069	-0.385
-127.283	-200.000	-0.047	0.647
-126.268	-77.478	-0.362	0.124
-125.253	25.960	0.268	-0.221
-124.239	-77.460	-0.097	-0.033
-123.224	641.534	0.090	-0.227
-122.210	-121.415	-0.325	0.054
-121.195	-159.572	-0.668	0.037
