DTS Sentinel unit serial number:	SN413079Multiplexer serial number:	ORYXHardware model number:	OX4-SRSoftware version number:	ORYX F/W v4.00 Oryx Data Collector v3.7.2.0data status	okinstallation	princeton_trtdifferential loss correction	single-endedforward channel	channel 3reverse channel	N/Adate	2019/09/13time	15:16:34forward acquisition time	60.00reverse acquisition time	0.00gamma	496.2192k internal	0.2302k external	0.2302temperature offset calibration	1.0146default loss term (dB/km)	0.3790temperature slope calibration	1.0000multiplexer offset coefficient	1.0000multiplexer slope coefficient	1.0000fibre end	0.00T internal ref (°C)	35.50T ext. ref 1 (°C)	4.74T ext. ref 2 (°C)	29.75length (m)	temperature (°C)	Stokes	anti-Stokes-747.200	800.000	0.063	-0.187
-746.185	-71.848	-0.317	0.120
-745.171	214.376	-0.137	-0.221
-744.156	58.475	-0.162	0.162
-743.142	206.108	-0.072	-0.114
-742.127	-38.115	-0.150	-0.081
-741.112	-25.972	-0.219	0.131
-740.098	88.149	-0.170	0.193
-739.083	444.574	-0.130	0.292
-738.069	-46.513	-0.189	0.094
-737.054	7.715	-0.165	0.126
-736.039	800.000	-0.039	0.151
-735.025	-13.317	0.213	0.141
-734.010	-200.000	0.025	-0.242
-732.996	14.304	-0.319	0.253
-731.981	-40.567	-0.277	0.147
-730.966	-70.228	0.200	-0.077
-729.952	800.000	-0.015	-0.061
-728.937	-185.943	-0.230	0.003
-727.923	-200.000	-0.028	-0.181
-726.908	-21.463	-0.109	0.068
-725.894	-15.913	-0.377	0.244
-724.879	60.926	0.106	0.107
-723.864	800.000	-0.190	0.541
-722.850	800.000	0.057	0.194
-721.835	-143.680	-0.396	0.038
-720.821	-30.189	-0.127	0.074
-719.806	133.600	-0.196	0.259
-718.791	235.640	0.047	0.080
-717.777	-200.000	0.009	0.043
-716.762	537.257	-0.135	-0.326
-715.748	161.989	0.144	-0.206
-714.733	-200.000	0.015	0.148
-713.718	800.000	-0.055	0.236
-712.704	-45.991	0.228	0.115
-711.689	-200.000	-0.043	-0.236
-710.675	800.000	-0.113	-0.350
-709.660	-200.000	0.266	0.000
-708.645	21.952	-0.124	-0.103
-707.631	67.712	-0.140	-0.146
-706.616	719.809	0.043	0.117
-705.602	-46.250	-0.094	0.047
-704.587	-200.000	0.006	-0.085
-703.572	71.125	0.256	0.270
-702.558	-23.388	-0.117	0.071
-701.543	157.033	0.132	-0.185
-700.529	800.000	0.115	0.391
-699.514	800.000	-0.047	-0.143
-698.499	13.004	-0.160	0.126
-697.485	-157.803	-0.238	0.014
-696.470	16.932	0.098	-0.079
-695.456	-40.806	-0.158	0.083
-694.441	-200.000	-0.019	-0.244
-693.426	800.000	-0.054	-0.165
-692.412	800.000	0.060	-0.223
-691.397	-200.000	0.049	-0.262
-690.383	356.427	-0.269	-0.544
-689.368	34.841	0.264	-0.235
-688.354	7.747	-0.020	0.015
-687.339	-200.000	-0.043	-0.368
-686.324	-200.000	0.039	-0.313
-685.310	800.000	0.020	-0.073
-684.295	406.376	0.136	-0.293
-683.281	800.000	-0.116	-0.327
-682.266	-96.490	-0.055	-0.015
-681.251	-91.991	0.320	0.092
-680.237	-17.485	0.265	0.170
-679.222	60.390	0.026	-0.026
-678.208	62.665	-0.199	-0.202
-677.193	-47.584	-0.221	0.109
-676.178	-112.889	-0.197	-0.040
-675.164	531.235	0.087	-0.209
-674.149	56.468	-0.068	0.068
-673.135	267.520	-0.007	0.013
-672.120	-200.000	0.047	-0.257
-671.105	-70.947	-0.251	-0.096
-670.091	777.139	0.024	0.066
-669.076	-153.764	0.347	-0.024
-668.062	625.352	-0.086	-0.221
-667.047	77.478	0.211	0.228
-666.032	-53.889	0.015	0.007
-665.018	147.195	0.113	-0.154
-664.003	-200.000	0.009	-0.059
-662.989	-39.181	-0.252	0.134
-661.974	-200.000	-0.011	0.166
-660.959	126.565	0.119	-0.153
-659.945	-106.380	-0.195	-0.044
-658.930	-170.229	-0.197	0.007
-657.916	-126.485	0.424	0.064
-656.901	-63.812	0.159	0.066
-655.886	23.322	0.104	-0.086
-654.872	-200.000	0.030	-0.275
-653.857	-200.000	-0.032	-0.341
-652.843	-49.799	-0.149	0.072
-651.828	-147.576	-0.327	-0.028
-650.814	-56.646	0.133	-0.060
-649.799	-95.310	-0.405	0.111
-648.784	-161.662	-0.338	-0.018
-647.770	40.254	0.225	-0.205
-646.755	300.531	-0.102	0.192
-645.741	135.827	-0.348	0.460
-644.726	-41.455	0.275	0.144
-643.711	80.661	-0.190	-0.208
-642.697	212.774	-0.029	-0.047
-641.682	-200.000	0.012	0.148
-640.668	240.399	-0.150	-0.254
-639.653	-43.214	-0.204	0.105
-638.638	-115.401	0.116	-0.022
-637.624	-137.583	0.301	0.034
-636.609	281.462	-0.020	0.037
-635.595	-92.351	-0.081	-0.023
-634.580	-154.808	0.270	-0.018
-633.565	-33.562	-0.339	-0.190
-632.551	480.206	0.170	-0.390
-631.536	-153.779	-0.202	-0.014
-630.522	-63.301	-0.183	0.077
-629.507	173.709	0.056	-0.083
-628.492	-119.607	-0.051	-0.009
-627.478	275.545	-0.115	-0.208
-626.463	54.973	0.179	0.175
-625.449	-91.820	-0.295	0.085
-624.434	167.206	-0.143	-0.206
-623.419	-114.578	-0.099	0.019
-622.405	-43.446	-0.096	-0.049
-621.390	800.000	0.011	-0.036
-620.376	-111.931	-0.208	0.043
-619.361	-38.473	0.300	-0.161
-618.346	800.000	-0.095	-0.348
-617.332	-98.187	0.107	0.028
-616.317	27.711	0.113	0.097
-615.303	-58.132	-0.070	0.031
-614.288	790.741	-0.071	-0.199
-613.273	-200.000	0.002	0.145
-612.259	123.614	-0.087	0.110
-611.244	297.880	-0.174	-0.325
-610.230	-17.348	-0.518	0.331
-609.215	-42.851	-0.218	0.112
-608.201	10.035	0.095	-0.073
-607.186	300.166	-0.150	-0.280
-606.171	19.724	-0.083	-0.068
-605.157	-186.214	0.277	-0.004
-604.142	-49.986	0.208	-0.100
-603.128	-49.638	0.105	0.051
-602.113	-143.250	0.287	-0.028
-601.098	168.633	-0.110	0.158
-600.084	-48.914	0.211	0.103
-599.069	-200.000	0.004	-0.192
-598.055	146.205	-0.206	-0.281
-597.040	597.805	-0.137	-0.344
-596.025	-200.000	-0.022	-0.275
-595.011	-52.966	0.143	0.067
-593.996	-84.276	-0.157	0.050
-592.982	-30.156	-0.157	0.091
-591.967	35.131	-0.203	0.180
-590.952	235.164	-0.158	-0.264
-589.938	800.000	-0.204	-0.633
-588.923	-8.548	-0.054	-0.037
-587.909	-200.000	0.029	-0.283
-586.894	134.173	-0.180	0.236
-585.879	-161.369	-0.236	-0.012
-584.865	-200.000	-0.013	-0.387
-583.850	-2.333	-0.160	-0.113
-582.836	-84.123	-0.077	0.025
-581.821	97.999	-0.159	0.185
-580.806	-152.454	-0.293	-0.021
-579.792	-27.332	-0.157	-0.092
-578.777	-79.764	-0.172	0.059
-577.763	-68.284	-0.140	0.055
-576.748	376.276	-0.076	-0.157
-575.733	506.511	0.068	-0.160
-574.719	-172.391	0.306	-0.010
-573.704	-87.942	0.084	-0.026
-572.690	-79.400	-0.332	0.114
-571.675	-42.584	0.245	0.126
-570.661	427.180	-0.181	0.395
-569.646	-56.630	-0.142	0.064
-568.631	-200.000	0.022	-0.317
-567.617	236.691	0.128	0.214
-566.602	44.944	-0.120	-0.112
-565.588	-5.717	0.134	0.093
-564.573	23.037	0.039	0.032
-563.558	-200.000	-0.053	0.303
-562.544	-33.088	-0.177	0.099
-561.529	-21.520	0.217	0.134
-560.515	-200.000	0.007	-0.218
-559.500	-43.382	0.235	0.120
-558.485	184.729	0.120	0.180
-557.471	476.603	0.137	0.312
-556.456	710.315	-0.012	0.031
-555.442	-148.079	-0.335	-0.028
-554.427	55.999	0.076	-0.075
-553.412	-23.137	0.243	0.148
-552.398	93.401	0.114	0.131
-551.383	441.863	0.060	-0.132
-550.369	-76.637	-0.439	-0.156
-549.354	-44.741	0.165	-0.083
-548.339	-130.476	-0.257	0.035
-547.325	112.635	0.215	0.263
-546.310	-120.128	-0.473	0.082
-545.296	-38.165	-0.124	0.067
-544.281	48.704	0.139	-0.131
-543.266	-68.901	-0.131	0.051
-542.252	231.951	-0.068	0.113
-541.237	-111.572	0.258	0.053
-540.223	-45.788	0.135	-0.068
-539.208	65.882	-0.148	0.152
-538.193	22.746	-0.100	0.083
-537.179	800.000	0.085	-0.241
-536.164	183.238	0.113	0.168
-535.150	10.954	0.097	0.075
-534.135	800.000	0.045	0.125
-533.121	645.769	-0.142	-0.366
-532.106	-80.180	-0.140	0.048
-531.091	15.477	0.139	-0.110
-530.077	800.000	-0.030	0.126
-529.062	-200.000	-0.057	0.265
-528.048	158.669	0.071	0.099
-527.033	-200.000	0.004	0.262
-526.018	-200.000	0.005	0.196
-525.004	556.049	0.086	0.208
-523.989	-53.575	-0.113	0.052
-522.975	-72.057	0.109	-0.041
-521.960	800.000	0.059	-0.169
-520.945	-194.882	-0.298	0.002
-519.931	800.000	0.189	-0.579
-518.916	-200.000	-0.021	0.189
-517.902	260.411	0.144	0.252
-516.887	523.633	-0.161	-0.383
-515.872	-65.165	0.062	0.025
-514.858	-45.148	0.160	-0.080
-513.843	-52.675	-0.242	-0.113
-512.829	139.695	0.077	0.103
-511.814	-25.526	-0.208	-0.124
-510.799	72.336	-0.090	-0.095
-509.785	54.356	0.272	0.264
-508.770	-54.909	-0.165	-0.075
-507.756	194.576	0.154	-0.235
-506.741	-80.436	0.148	-0.050
-505.726	380.508	0.142	-0.293
-504.712	-86.354	0.271	0.084
-503.697	-96.267	-0.397	0.106
-502.683	41.253	0.115	0.105
-501.668	-91.722	0.129	0.037
-500.653	129.276	-0.147	0.190
-499.639	-91.222	0.506	-0.146
-498.624	800.000	0.050	-0.148
-497.610	-19.318	-0.175	-0.110
-496.595	132.411	0.133	-0.173
-495.581	800.000	-0.101	0.314
-494.566	4.656	-0.190	-0.141
-493.551	-200.000	-0.021	0.186
-492.537	198.304	-0.062	0.096
-491.522	-200.000	0.015	-0.096
-490.508	-16.497	0.128	-0.082
-489.493	68.667	0.145	0.150
-488.478	-17.059	-0.273	-0.174
-487.464	53.264	-0.312	-0.302
-486.449	103.665	-0.035	0.041
-485.435	800.000	-0.122	0.352
-484.420	19.736	0.095	-0.077
-483.405	256.897	0.189	-0.328
-482.391	800.000	0.021	0.069
-481.376	-15.780	0.154	-0.099
-480.362	269.079	-0.201	0.355
-479.347	800.000	0.112	-0.337
-478.332	800.000	0.114	0.338
-477.318	-19.675	-0.113	0.070
-476.303	136.465	0.062	0.081
-475.289	-22.187	0.169	-0.103
-474.274	-55.778	-0.117	-0.053
-473.259	209.305	-0.068	-0.108
-472.245	14.275	-0.096	-0.075
-471.230	222.513	-0.197	0.320
-470.216	-47.365	-0.223	0.109
-469.201	-150.197	0.104	-0.008
-468.186	-200.000	0.022	-0.160
-467.172	-98.865	0.192	-0.049
-466.157	9.275	-0.123	0.094
-465.143	141.066	-0.150	0.200
-464.128	662.604	0.018	-0.048
-463.113	254.891	-0.086	0.148
-462.099	-114.871	-0.177	0.034
-461.084	-141.395	0.342	0.035
-460.070	-200.000	-0.026	0.139
-459.055	-93.864	-0.211	-0.059
-458.040	800.000	-0.105	-0.442
-457.026	204.599	-0.199	0.311
-456.011	-187.289	0.047	-0.001
-454.997	800.000	-0.117	0.343
-453.982	-200.000	0.007	0.245
-452.968	-149.780	0.399	-0.032
-451.953	800.000	0.086	-0.294
-450.938	313.510	-0.088	0.166
-449.924	800.000	-0.028	-0.105
-448.909	-161.890	-0.228	0.012
-447.895	-200.000	-0.023	0.221
-446.880	-148.373	0.148	-0.012
-445.865	245.695	-0.021	0.035
-444.851	-56.197	0.288	0.129
-443.836	-200.000	-0.009	-0.354
-442.822	800.000	0.078	0.294
-441.807	-200.000	-0.002	0.156
-440.792	-109.683	-0.105	0.022
-439.778	-99.280	-0.273	0.069
-438.763	112.721	-0.127	0.155
-437.749	105.312	0.206	0.245
-436.734	-200.000	-0.006	0.475
-435.719	-59.887	0.205	-0.088
-434.705	4.093	0.028	-0.021
-433.690	73.318	-0.068	-0.072
-432.676	-200.000	-0.063	0.348
-431.661	-137.181	-0.346	0.040
-430.646	590.810	-0.119	0.295
-429.632	162.436	0.203	-0.287
-428.617	-200.000	-0.081	0.368
-427.603	29.112	-0.089	-0.076
-426.588	-121.358	0.305	0.051
-425.573	-200.000	-0.018	0.098
-424.559	-84.396	0.205	0.065
-423.544	507.050	0.008	0.020
-422.530	-123.399	0.236	-0.038
-421.515	-61.425	0.141	0.060
-420.500	158.152	0.054	0.076
-419.486	-139.049	-0.213	-0.023
-418.471	-110.982	0.206	-0.043
-417.457	20.658	-0.053	0.043
-416.442	-86.068	-0.278	-0.086
-415.428	-41.233	-0.228	-0.119
-414.413	62.729	-0.289	-0.290
-413.398	91.594	0.192	-0.217
-412.384	-92.923	-0.489	-0.137
-411.369	33.981	0.143	0.125
-410.355	617.243	0.063	-0.160
-409.340	-200.000	0.012	-0.225
-408.325	304.630	0.092	0.172
-407.311	-81.359	-0.072	0.024
-406.296	-200.000	0.025	0.199
-405.282	526.560	-0.142	-0.337
-404.267	-17.736	0.183	-0.115
-403.252	-119.796	0.078	0.013
-402.238	-23.020	-0.137	0.083
-401.223	361.109	-0.083	0.166
-400.209	800.000	-0.105	0.359
-399.194	14.475	-0.233	-0.183
-398.179	-111.078	-0.393	-0.081
-397.165	512.816	0.111	-0.259
-396.150	-120.434	0.474	-0.081
-395.136	-23.825	0.350	0.211
-394.121	3.879	0.082	0.061
-393.106	88.462	0.136	-0.152
-392.092	-16.597	0.104	-0.066
-391.077	35.000	-0.188	-0.166
-390.063	1.493	-0.160	-0.115
-389.048	-11.708	0.150	-0.099
-388.033	338.490	0.179	0.350
-387.019	40.815	0.540	0.489
-386.004	-129.427	-0.478	0.067
-384.990	800.000	0.086	0.245
-383.975	800.000	0.088	0.257
-382.960	800.000	0.017	0.060
-381.946	17.697	0.181	0.145
-380.931	-144.816	0.281	-0.026
-379.917	-200.000	-0.027	0.270
-378.902	106.171	-0.119	0.142
-377.888	-200.000	0.011	-0.076
-376.873	108.015	-0.095	-0.114
-375.858	800.000	-0.078	-0.239
-374.844	-39.924	-0.064	-0.034
-373.829	-102.856	-0.126	0.030
-372.815	-37.564	0.132	-0.071
-371.800	-200.000	0.114	-0.579
-370.785	522.482	-0.063	-0.148
-369.771	-81.312	-0.050	-0.017
-368.756	-22.325	-0.245	0.149
-367.742	-200.000	0.004	-0.067
-366.727	800.000	0.128	0.378
-365.712	82.041	-0.137	0.149
-364.698	-8.779	0.138	0.093
-363.683	-59.826	-0.337	0.145
-362.669	-115.914	0.131	-0.025
-361.654	-80.148	-0.247	-0.083
-360.639	12.841	0.117	-0.091
-359.625	-200.000	-0.002	-0.098
-358.610	-200.000	0.023	0.264
-357.596	-33.402	0.097	0.054
-356.581	-46.159	-0.055	0.027
-355.566	47.513	0.246	0.230
-354.552	-200.000	-0.036	-0.346
-353.537	-200.000	-0.008	-0.160
-352.523	56.456	0.079	-0.077
-351.508	270.879	0.099	0.174
-350.493	-200.000	0.013	-0.071
-349.479	-200.000	0.116	-0.528
-348.464	-200.000	-0.029	0.212
-347.450	7.791	0.124	0.093
-346.435	-55.921	-0.207	-0.093
-345.420	566.587	0.032	0.079
-344.406	800.000	0.019	0.073
-343.391	-0.134	0.035	-0.025
-342.377	-76.431	0.101	-0.036
-341.362	-64.961	-0.095	-0.038
-340.348	-61.464	0.169	-0.071
-339.333	-73.237	0.217	-0.080
-338.318	135.934	-0.190	-0.248
-337.304	-17.376	-0.052	-0.033
-336.289	-51.212	-0.035	-0.016
-335.275	-49.794	0.129	-0.061
-334.260	-72.412	0.092	-0.034
-333.245	-97.179	0.125	-0.033
-332.231	155.388	-0.048	0.066
-331.216	249.761	0.080	-0.135
-330.202	72.119	0.105	-0.110
-329.187	-104.333	-0.224	-0.052
-328.172	507.775	0.107	-0.250
-327.158	379.300	-0.119	0.244
-326.143	-129.219	0.162	0.023
-325.129	-87.823	0.104	-0.032
-324.114	-200.000	-0.015	0.391
-323.099	2.188	0.148	-0.107
-322.085	-108.836	0.118	0.025
-321.070	207.308	0.126	0.196
-320.056	-95.414	-0.349	0.094
-319.041	-119.945	0.001	-0.000
-318.026	516.785	0.083	0.195
-317.012	-71.120	-0.255	0.096
-315.997	-200.000	0.015	0.158
-314.983	-53.711	-0.169	-0.077
-313.968	-130.785	-0.164	-0.022
-312.953	-31.919	0.188	-0.105
-311.939	-200.000	-0.017	-0.307
-310.924	800.000	-0.036	0.122
-309.910	262.763	0.089	0.154
-308.895	147.341	-0.094	-0.127
-307.880	-200.000	0.038	0.236
-306.866	26.224	0.195	0.163
-305.851	34.377	-0.018	0.016
-304.837	-125.350	0.216	-0.033
-303.822	-127.491	-0.109	-0.016
-302.807	-17.239	-0.338	-0.213
-301.793	-200.000	-0.002	0.189
-300.778	-200.000	0.033	-0.185
-299.764	37.339	-0.144	0.128
-298.749	-195.984	-0.156	0.001
-297.735	83.923	0.014	-0.016
-296.720	-117.946	-0.134	-0.024
-295.705	77.257	-0.032	0.034
-294.691	-98.884	-0.163	-0.041
-293.676	475.315	-0.025	0.056
-292.662	-200.000	0.001	-0.121
-291.647	800.000	0.053	0.156
-290.632	-61.192	0.092	-0.039
-289.618	103.293	0.066	-0.077
-288.603	800.000	0.023	0.073
-287.589	33.416	0.106	0.092
-286.574	303.905	0.028	-0.053
-285.559	-39.344	-0.120	0.063
-284.545	94.425	0.277	-0.315
-283.530	-51.319	-0.360	-0.169
-282.516	-144.240	-0.196	0.018
-281.501	-200.000	-0.014	-0.138
-280.486	800.000	-0.101	0.316
-279.472	800.000	0.066	-0.221
-278.457	-200.000	-0.015	0.088
-277.443	-199.417	0.359	0.002
-276.428	276.102	0.084	-0.149
-275.413	47.975	0.111	0.103
-274.399	69.299	0.073	0.075
-273.384	-31.168	-0.288	-0.162
-272.370	-106.899	0.293	0.065
-271.355	-83.778	0.091	0.029
-270.340	24.616	0.301	-0.250
-269.326	-200.000	0.060	-0.311
-268.311	-169.787	0.113	0.004
-267.297	800.000	0.019	0.079
-266.282	364.318	0.054	-0.108
-265.267	-107.627	0.131	-0.029
-264.253	-159.842	0.406	0.022
-263.238	226.745	0.113	0.184
-262.224	69.857	0.168	-0.174
-261.209	-200.000	-0.027	-0.144
-260.195	-200.000	0.004	0.191
-259.180	-200.000	0.011	0.102
-258.165	-65.454	0.417	-0.167
-257.151	-19.781	0.097	-0.060
-256.136	75.153	-0.090	0.094
-255.122	-200.000	0.028	0.123
-254.107	38.733	-0.265	0.236
-253.092	-108.811	-0.070	0.015
-252.078	-71.595	-0.061	-0.023
-251.063	-200.000	0.013	0.105
-250.049	352.202	-0.063	-0.125
-249.034	-91.629	0.097	-0.027
-248.019	-131.646	0.138	0.018
-247.005	-37.370	0.174	-0.093
-245.990	322.917	0.071	0.136
-244.976	-87.918	0.080	0.024
-243.961	-145.265	0.540	0.049
-242.946	-150.214	-0.187	-0.014
-241.932	-47.971	0.124	-0.060
-240.917	203.575	0.070	0.109
-239.903	-161.964	0.151	0.008
-238.888	-60.016	0.140	-0.060
-237.873	800.000	-0.031	-0.119
-236.859	-200.000	-0.014	-0.092
-235.844	-200.000	0.054	-0.374
-234.830	-200.000	0.004	-0.118
-233.815	-82.937	-0.157	-0.051
-232.800	562.722	0.083	0.201
-231.786	-20.845	0.197	0.121
-230.771	404.456	-0.177	0.372
-229.757	-200.000	0.076	-0.357
-228.742	-107.593	0.225	0.049
-227.727	-200.000	0.042	0.267
-226.713	800.000	0.065	0.224
-225.698	800.000	-0.071	0.224
-224.684	-93.740	0.124	0.034
-223.669	-87.158	0.220	-0.067
-222.655	-93.044	0.029	-0.008
-221.640	-47.842	-0.071	-0.034
-220.625	800.000	0.194	-0.572
-219.611	800.000	0.055	0.210
-218.596	51.151	0.081	-0.077
-217.582	773.013	-0.031	-0.084
-216.567	334.088	0.182	0.352
-215.552	-154.773	-0.261	0.017
-214.538	-76.653	-0.179	0.063
-213.523	158.861	0.093	-0.129
-212.509	106.379	-0.203	0.241
-211.494	22.209	-0.180	0.147
-210.479	220.258	-0.031	0.049
-209.465	-88.154	0.313	0.094
-208.450	2.155	0.190	-0.137
-207.436	2.018	-0.216	-0.156
-206.421	39.533	-0.178	0.159
-205.406	-55.852	-0.108	0.048
-204.392	122.539	0.014	-0.018
-203.377	-200.000	0.023	-0.155
-202.363	65.769	0.127	0.128
-201.348	-200.000	-0.066	-0.305
-200.333	-101.477	0.132	0.032
-199.319	-28.018	-0.113	0.065
-198.304	-200.000	0.011	-0.326
-197.290	5.764	-0.097	-0.072
-196.275	-131.625	-0.138	-0.018
-195.260	-138.090	0.233	0.026
-194.246	-113.489	0.170	0.033
-193.231	-71.095	-0.166	-0.062
-192.217	-200.000	0.038	-0.217
-191.202	126.755	0.167	0.211
-190.187	550.708	0.056	-0.135
-189.173	-92.402	0.192	-0.054
-188.158	-110.723	0.309	0.064
-187.144	43.911	0.126	-0.115
-186.129	-200.000	0.056	0.317
-185.114	800.000	0.031	-0.111
-184.100	65.492	-0.097	0.098
-183.085	-10.648	-0.050	-0.033
-182.071	466.033	-0.175	-0.391
-181.056	196.239	0.146	0.222
-180.042	477.722	0.054	-0.123
-179.027	785.288	-0.143	-0.391
-178.012	-103.118	-0.245	0.058
-176.998	-89.598	0.103	0.030
-175.983	-11.346	0.341	-0.224
-174.969	51.057	-0.227	-0.215
-173.954	-88.469	-0.307	0.091
-172.939	-132.260	0.235	-0.030
-171.925	-44.611	-0.049	0.024
-170.910	599.231	0.129	0.319
-169.896	-157.103	-0.221	-0.013
-168.881	42.293	0.332	-0.300
-167.866	-189.083	-0.282	0.003
-166.852	-200.000	-0.002	-0.313
-165.837	183.894	-0.092	-0.136
-164.823	369.716	0.114	0.230
-163.808	-47.985	-0.189	0.091
-162.793	235.856	-0.066	0.109
-161.779	635.143	-0.087	-0.220
-160.764	-24.436	0.208	-0.123
-159.750	-200.000	-0.005	0.292
-158.735	-102.197	-0.029	0.007
-157.720	195.480	0.158	-0.240
-156.706	-114.959	0.338	0.064
-155.691	-200.000	-0.007	-0.033
-154.677	-60.721	-0.083	0.035
-153.662	-200.000	0.005	0.150
-152.647	39.860	-0.026	0.023
-151.633	101.159	-0.126	0.146
-150.618	1.738	-0.140	-0.101
-149.604	-148.835	0.180	0.014
-148.589	-1.827	0.226	-0.158
-147.574	800.000	0.102	0.295
-146.560	800.000	-0.073	0.257
-145.545	-53.804	0.271	0.123
-144.531	-200.000	0.028	-0.234
-143.516	143.774	0.226	-0.299
-142.502	540.779	-0.122	-0.289
-141.487	-102.024	-0.149	0.036
-140.472	395.874	0.066	0.137
-139.458	-111.717	0.079	-0.016
-138.443	49.801	0.291	0.273
-137.429	-48.106	0.148	-0.071
-136.414	-200.000	0.016	0.089
-135.399	-79.698	0.117	0.039
-134.385	632.032	-0.084	0.211
-133.370	-200.000	-0.014	0.102
-132.356	84.153	-0.231	0.251
-131.341	-200.000	-0.029	-0.153
-130.326	672.254	-0.046	0.117
-129.312	800.000	0.073	-0.263
-128.297	144.432	0.220	-0.293
-127.283	-73.925	0.236	0.085
-126.268	800.000	0.057	-0.211
-125.253	-200.000	-0.013	-0.203
-124.239	-200.000	0.016	0.106
-123.224	800.000	0.121	0.527
-122.210	-107.433	-0.170	-0.037
-121.195	-45.657	0.098	-0.048
