DTS Sentinel unit serial number:	SN413079Multiplexer serial number:	ORYXHardware model number:	OX4-SRSoftware version number:	ORYX F/W v4.00 Oryx Data Collector v3.7.2.0data status	okinstallation	princeton_trtdifferential loss correction	single-endedforward channel	channel 3reverse channel	N/Adate	2019/09/18time	15:48:35forward acquisition time	60.00reverse acquisition time	0.00gamma	496.2192k internal	0.2297k external	0.2297temperature offset calibration	0.9982default loss term (dB/km)	0.3790temperature slope calibration	1.0000multiplexer offset coefficient	1.0000multiplexer slope coefficient	1.0000fibre end	0.00T internal ref (°C)	36.56T ext. ref 1 (°C)	0.79T ext. ref 2 (°C)	34.38length (m)	temperature (°C)	Stokes	anti-Stokes-747.200	-14.849	-0.041	-0.027
-746.185	-200.000	-0.049	0.292
-745.171	219.542	-0.233	0.380
-744.156	800.000	0.053	-0.221
-743.142	93.535	-0.085	0.098
-742.127	193.610	-0.110	-0.170
-741.112	313.872	0.127	0.245
-740.098	397.598	0.043	0.092
-739.083	-110.853	0.353	0.074
-738.069	-200.000	0.038	-0.236
-737.054	-32.333	-0.094	-0.053
-736.039	-109.521	-0.321	0.069
-735.025	-174.449	0.146	-0.004
-734.010	20.113	-0.115	-0.094
-732.996	-16.141	0.188	-0.122
-731.981	-57.688	0.104	0.047
-730.966	-200.000	-0.005	0.277
-729.952	-48.279	0.167	0.082
-728.937	800.000	0.022	-0.079
-727.923	215.914	0.030	0.049
-726.908	-200.000	0.033	-0.183
-725.894	74.379	0.136	-0.146
-724.879	79.908	-0.318	-0.349
-723.864	63.810	-0.142	0.146
-722.850	-110.966	-0.301	0.063
-721.835	121.087	-0.360	-0.458
-720.821	-136.915	0.100	0.012
-719.806	-200.000	-0.039	0.294
-718.791	-175.621	-0.356	0.010
-717.777	-50.822	-0.404	0.194
-716.762	-200.000	-0.012	0.279
-715.748	172.924	0.135	-0.198
-714.733	428.355	-0.158	-0.348
-713.718	-200.000	0.046	-0.544
-712.704	-130.215	-0.146	0.020
-711.689	800.000	-0.146	-0.479
-710.675	-56.561	0.195	-0.088
-709.660	16.578	-0.129	-0.104
-708.645	-200.000	-0.030	-0.214
-707.631	56.724	0.139	-0.138
-706.616	-56.136	0.077	-0.035
-705.602	132.768	-0.105	-0.138
-704.587	37.317	0.131	-0.118
-703.572	14.494	-0.091	-0.072
-702.558	-165.696	0.208	-0.009
-701.543	96.804	0.215	-0.252
-700.529	2.840	-0.399	0.295
-699.514	-16.564	0.112	-0.072
-698.499	-97.929	0.166	-0.044
-697.485	-71.073	-0.201	0.077
-696.470	-52.157	0.433	0.205
-695.456	-200.000	0.032	-0.198
-694.441	-43.416	0.116	0.060
-693.426	75.532	0.079	-0.085
-692.412	-200.000	0.010	-0.165
-691.397	42.113	-0.022	-0.020
-690.383	-200.000	-0.061	-0.304
-689.368	-85.672	0.219	-0.069
-688.354	214.576	-0.082	0.133
-687.339	-145.990	0.178	-0.016
-686.324	71.807	0.172	-0.183
-685.310	800.000	0.083	-0.304
-684.295	-23.103	0.176	0.108
-683.281	-200.000	0.048	0.477
-682.266	-200.000	-0.049	0.241
-681.251	-124.051	-0.170	-0.027
-680.237	354.049	0.135	-0.273
-679.222	274.160	0.069	0.125
-678.208	-180.867	0.087	0.002
-677.193	800.000	0.065	0.229
-676.178	-31.298	-0.155	0.089
-675.164	-200.000	-0.044	0.332
-674.149	-200.000	-0.078	0.392
-673.135	-96.288	0.123	-0.033
-672.120	-138.072	0.326	-0.037
-671.105	27.082	-0.097	-0.083
-670.091	-53.254	-0.227	0.106
-669.076	800.000	0.076	-0.225
-668.062	-9.792	0.245	-0.166
-667.047	-9.319	-0.156	-0.106
-666.032	-200.000	-0.089	0.443
-665.018	257.952	0.096	-0.169
-664.003	127.232	-0.072	0.093
-662.989	38.690	-0.172	-0.157
-661.974	113.891	0.157	-0.195
-660.959	545.264	-0.060	0.147
-659.945	58.423	0.092	-0.092
-658.930	-200.000	0.045	-0.243
-657.916	80.653	-0.166	0.182
-656.901	-84.818	-0.139	-0.045
-655.886	-103.561	-0.232	0.055
-654.872	-65.033	0.403	-0.166
-653.857	-57.645	-0.152	-0.068
-652.843	-78.381	-0.134	-0.047
-651.828	800.000	0.016	-0.056
-650.814	800.000	-0.037	-0.138
-649.799	-64.012	0.127	0.053
-648.784	-194.872	-0.392	0.003
-647.770	-200.000	-0.049	0.258
-646.755	800.000	-0.065	0.209
-645.741	-155.275	-0.114	-0.008
-644.726	-200.000	-0.029	-0.186
-643.711	-89.483	-0.105	-0.031
-642.697	-90.087	-0.144	-0.043
-641.682	-44.991	0.087	0.044
-640.668	-70.310	-0.314	0.121
-639.653	-200.000	0.045	0.301
-638.638	3.583	0.308	-0.228
-637.624	-81.748	-0.252	0.084
-636.609	-200.000	-0.002	-0.274
-635.595	124.542	-0.042	0.053
-634.580	-200.000	-0.002	-0.248
-633.565	-200.000	0.017	-0.101
-632.551	19.653	-0.224	0.183
-631.536	800.000	-0.050	-0.167
-630.522	499.831	-0.085	-0.198
-629.507	103.772	-0.154	0.184
-628.492	800.000	0.042	0.138
-627.478	65.533	0.087	-0.090
-626.463	-200.000	0.016	0.234
-625.449	-200.000	0.026	0.132
-624.434	-45.861	-0.119	-0.060
-623.419	75.701	-0.078	0.083
-622.405	760.005	-0.064	0.175
-621.390	-109.334	-0.185	0.040
-620.376	800.000	-0.023	-0.088
-619.361	-95.403	0.175	-0.048
-618.346	-101.442	0.084	0.021
-617.332	-92.749	-0.213	0.061
-616.317	17.932	0.134	0.109
-615.303	-38.791	0.122	-0.065
-614.288	-42.075	-0.263	-0.137
-613.273	-63.082	0.136	0.057
-612.259	800.000	-0.061	-0.221
-611.244	127.053	0.159	-0.205
-610.230	800.000	-0.069	0.222
-609.215	592.117	-0.162	-0.406
-608.201	-200.000	0.001	-0.319
-607.186	-200.000	-0.035	-0.355
-606.171	-200.000	0.040	-0.289
-605.157	-66.820	-0.160	0.064
-604.142	-189.455	0.148	0.002
-603.128	800.000	0.075	0.289
-602.113	-23.171	0.225	-0.137
-601.098	-200.000	-0.088	-0.456
-600.084	426.633	-0.059	0.129
-599.069	-66.074	-0.055	-0.022
-598.055	38.757	0.047	-0.043
-597.040	76.477	0.047	-0.051
-596.025	275.413	-0.154	0.277
-595.011	317.288	0.062	-0.119
-593.996	126.645	-0.231	-0.297
-592.982	402.748	0.149	0.318
-591.967	-110.356	0.351	-0.074
-590.952	-65.483	0.363	0.148
-589.938	143.041	-0.205	0.277
-588.923	7.978	-0.079	0.060
-587.909	535.267	-0.136	-0.327
-586.894	29.620	-0.243	0.210
-585.879	800.000	-0.026	-0.084
-584.865	-141.353	0.093	-0.010
-583.850	404.027	0.035	0.074
-582.836	-45.110	-0.184	0.093
-581.821	-34.633	0.275	-0.153
-580.806	800.000	0.074	0.276
-579.792	151.602	-0.056	-0.077
-578.777	-200.000	-0.050	0.270
-577.763	-175.978	-0.073	-0.002
-576.748	-49.628	-0.205	0.099
-575.733	-91.788	-0.201	-0.058
-574.719	472.218	0.140	-0.321
-573.704	-110.738	0.218	-0.046
-572.690	89.370	0.167	-0.189
-571.675	418.528	-0.061	-0.132
-570.661	-77.096	0.101	0.036
-569.646	-107.089	-0.251	-0.056
-568.631	-200.000	-0.053	-0.330
-567.617	-127.376	0.186	0.027
-566.602	304.176	0.145	-0.272
-565.588	180.761	-0.166	-0.247
-564.573	17.471	-0.166	0.134
-563.558	-200.000	-0.030	-0.359
-562.544	497.415	0.078	0.181
-561.529	248.559	0.093	0.159
-560.515	257.348	-0.165	-0.288
-559.500	800.000	-0.014	-0.047
-558.485	800.000	0.018	0.077
-557.471	354.229	-0.170	-0.342
-556.456	334.506	0.086	0.168
-555.442	-200.000	-0.155	0.001
-554.427	-200.000	-0.001	-0.099
-553.412	356.591	-0.097	0.197
-552.398	-125.662	0.090	-0.014
-551.383	800.000	-0.064	-0.214
-550.369	-142.590	-0.140	-0.014
-549.354	-151.302	-0.345	0.026
-548.339	263.998	-0.191	0.337
-547.325	16.982	0.019	-0.015
-546.310	-200.000	-0.014	-0.245
-545.296	54.145	0.089	0.087
-544.281	53.697	0.125	-0.122
-543.266	19.591	0.187	-0.152
-542.252	-200.000	0.001	-0.137
-541.237	730.363	0.076	-0.205
-540.223	506.745	-0.144	0.338
-539.208	800.000	-0.139	0.482
-538.193	-80.976	-0.083	0.028
-537.179	603.608	-0.168	-0.423
-536.164	-2.965	-0.265	0.187
-535.150	27.431	0.259	0.221
-534.135	768.260	-0.120	-0.331
-533.121	-200.000	0.013	-0.138
-532.106	800.000	0.043	-0.123
-531.091	800.000	0.097	0.381
-530.077	515.112	-0.072	-0.169
-529.062	171.829	-0.109	0.159
-528.048	345.010	-0.061	0.122
-527.033	34.882	0.146	-0.129
-526.018	-200.000	0.110	0.560
-525.004	615.106	-0.071	0.179
-523.989	-24.428	-0.112	-0.068
-522.975	168.066	0.066	0.096
-521.960	652.168	-0.041	0.108
-520.945	48.314	0.284	0.269
-519.931	-200.000	0.013	0.275
-518.916	-25.772	0.154	-0.092
-517.902	-64.582	-0.154	-0.063
-516.887	15.132	0.125	0.099
-515.872	-200.000	0.003	-0.286
-514.858	179.484	-0.079	0.117
-513.843	-200.000	0.005	0.033
-512.829	46.885	0.129	-0.122
-511.814	-18.333	-0.203	-0.128
-510.799	-200.000	0.061	-0.483
-509.785	-200.000	-0.013	-0.124
-508.770	158.011	-0.073	0.103
-507.756	253.343	-0.105	-0.181
-506.741	209.047	0.202	0.320
-505.726	-200.000	0.022	-0.174
-504.712	-46.291	0.315	-0.157
-503.697	313.232	-0.121	-0.231
-502.683	-67.388	0.361	0.143
-501.668	-64.042	0.084	-0.035
-500.653	-147.055	-0.219	0.019
-499.639	483.930	-0.035	0.081
-498.624	800.000	-0.036	0.134
-497.610	82.401	0.116	0.127
-496.595	800.000	0.076	0.222
-495.581	800.000	0.040	-0.127
-494.566	-109.636	0.278	0.059
-493.551	-200.000	0.060	0.381
-492.537	-200.000	-0.012	-0.179
-491.522	-66.584	0.114	0.046
-490.508	341.596	0.034	-0.068
-489.493	-27.868	0.328	0.192
-488.478	13.004	-0.180	-0.141
-487.464	542.357	0.067	0.161
-486.449	-200.000	-0.039	0.197
-485.435	-200.000	0.276	0.000
-484.420	-200.000	0.037	-0.253
-483.405	-200.000	-0.040	0.349
-482.391	-102.587	-0.377	-0.091
-481.376	800.000	-0.031	0.118
-480.362	-200.000	-0.019	0.114
-479.347	-91.207	-0.204	0.059
-478.332	205.063	0.047	0.074
-477.318	29.465	0.165	-0.142
-476.303	800.000	-0.060	0.171
-475.289	400.180	-0.101	-0.213
-474.274	589.149	-0.111	0.277
-473.259	189.503	0.171	-0.259
-472.245	502.025	0.081	-0.188
-471.230	-138.759	0.245	-0.027
-470.216	-200.000	-0.009	0.098
-469.201	296.043	-0.145	-0.269
-468.186	-100.372	0.415	-0.104
-467.172	-96.415	0.125	0.033
-466.157	-101.612	-0.185	0.045
-465.143	106.403	0.179	0.214
-464.128	156.985	0.216	-0.302
-463.113	-200.000	0.028	-0.147
-462.099	-200.000	0.022	0.406
-461.084	-95.547	-0.278	0.075
-460.070	-69.023	-0.110	0.043
-459.055	-50.536	0.202	0.096
-458.040	-79.856	0.168	0.057
-457.026	-200.000	0.034	0.290
-456.011	-73.407	-0.277	0.102
-454.997	-176.198	-0.218	-0.006
-453.982	21.560	0.275	0.226
-452.968	-135.013	-0.297	-0.036
-451.953	-200.000	0.027	0.289
-450.938	-80.279	-0.071	-0.024
-449.924	-200.000	0.002	0.056
-448.909	216.911	-0.120	0.192
-447.895	-84.860	-0.208	0.066
-446.880	-200.000	0.047	-0.353
-445.865	-22.292	0.042	-0.025
-444.851	-47.763	0.142	0.069
-443.836	-101.844	0.153	-0.037
-442.822	-69.783	0.279	-0.107
-441.807	-56.519	-0.306	0.137
-440.792	-49.501	-0.238	0.115
-439.778	-105.211	0.079	-0.018
-438.763	-5.120	0.207	-0.144
-437.749	-173.208	0.121	-0.004
-436.734	-106.175	-0.214	-0.048
-435.719	-116.625	0.103	-0.019
-434.705	669.809	0.089	0.233
-433.690	199.885	-0.119	-0.185
-432.676	100.446	-0.141	-0.166
-431.661	-7.205	-0.121	-0.083
-430.646	165.088	-0.180	0.256
-429.632	-115.361	0.120	-0.023
-428.617	-200.000	-0.024	-0.125
-427.603	376.628	0.131	-0.269
-426.588	90.306	0.173	-0.196
-425.573	800.000	0.059	0.211
-424.559	58.271	-0.182	-0.180
-423.544	-155.851	-0.460	-0.030
-422.530	-124.378	0.171	-0.027
-421.515	-139.979	-0.064	0.007
-420.500	337.360	-0.085	0.167
-419.486	-83.007	0.192	-0.062
-418.471	-200.000	-0.010	-0.046
-417.457	125.933	0.036	-0.046
-416.442	-81.393	0.270	-0.090
-415.428	-147.044	0.504	-0.044
-414.413	-53.987	-0.119	-0.055
-413.398	800.000	-0.075	0.214
-412.384	-200.000	0.035	0.183
-411.369	-137.906	-0.486	-0.055
-410.355	40.783	0.179	0.163
-409.340	-125.535	-0.038	0.006
-408.325	-74.414	0.034	-0.012
-407.311	-200.000	0.002	-0.018
-406.296	-200.000	0.033	-0.299
-405.282	66.970	0.196	-0.201
-404.267	-125.492	0.191	-0.029
-403.252	13.765	-0.146	0.115
-402.238	-76.945	-0.226	0.080
-401.223	259.622	0.123	0.213
-400.209	-65.249	-0.043	-0.017
-399.194	-200.000	0.017	0.117
-398.179	318.362	0.111	-0.211
-397.165	800.000	0.061	-0.241
-396.150	419.484	-0.086	0.186
-395.136	352.877	0.126	-0.252
-394.121	-166.085	-0.132	0.006
-393.106	234.798	0.034	-0.056
-392.092	315.622	0.041	-0.077
-391.077	-200.000	-0.053	0.251
-390.063	-127.227	0.269	-0.040
-389.048	95.730	0.120	-0.138
-388.033	-106.887	-0.175	-0.039
-387.019	-200.000	0.025	-0.441
-386.004	-200.000	-0.034	-0.505
-384.990	-43.181	0.087	0.044
-383.975	800.000	0.127	-0.389
-382.960	-26.251	0.174	0.103
-381.946	-59.425	-0.106	0.046
-380.931	84.118	-0.260	-0.287
-379.917	-200.000	-0.002	0.221
-378.902	-142.376	-0.183	-0.018
-377.888	83.321	-0.046	0.050
-376.873	97.537	0.154	0.178
-375.858	-91.321	-0.170	-0.049
-374.844	148.647	0.103	0.140
-373.829	-62.692	-0.056	0.023
-372.815	27.780	0.175	-0.149
-371.800	-39.506	0.109	-0.057
-370.785	-104.809	-0.493	-0.114
-369.771	14.938	-0.061	0.048
-368.756	232.807	-0.026	-0.043
-367.742	60.544	-0.264	-0.264
-366.727	5.773	-0.097	0.072
-365.712	207.487	-0.163	0.256
-364.698	-11.182	-0.092	0.061
-363.683	683.116	-0.009	-0.023
-362.669	24.428	-0.233	0.194
-361.654	488.379	0.057	-0.131
-360.639	-61.172	0.144	-0.061
-359.625	143.664	0.095	0.127
-358.610	18.750	-0.022	-0.018
-357.596	-70.768	-0.294	0.112
-356.581	800.000	-0.058	0.181
-355.566	430.555	-0.198	-0.431
-354.552	800.000	-0.061	0.225
-353.537	-200.000	-0.004	0.129
-352.523	-53.730	-0.378	-0.174
-351.508	-200.000	-0.025	-0.249
-350.493	-143.037	0.166	0.016
-349.479	-144.337	0.177	-0.017
-348.464	800.000	-0.018	-0.063
-347.450	800.000	0.072	0.311
-346.435	-28.354	-0.086	0.050
-345.420	-142.133	-0.265	0.026
-344.406	-200.000	-0.029	-0.212
-343.391	-12.754	0.216	-0.142
-342.377	-84.861	-0.300	0.095
-341.362	99.972	-0.278	0.324
-340.348	-200.000	0.033	0.268
-339.333	29.984	0.219	0.187
-338.318	800.000	-0.116	-0.335
-337.304	-17.798	-0.230	0.145
-336.289	-15.737	-0.094	0.060
-335.275	-200.000	-0.013	-0.360
-334.260	-23.673	-0.215	0.129
-333.245	-55.009	0.091	-0.041
-332.231	587.985	-0.098	0.241
-331.216	454.950	-0.090	0.201
-330.202	-133.215	0.147	-0.019
-329.187	-171.516	0.365	0.012
-328.172	32.501	-0.192	-0.166
-327.158	-68.082	0.092	-0.036
-326.143	-200.000	0.065	-0.400
-325.129	603.457	-0.081	-0.202
-324.114	163.497	0.212	-0.299
-323.099	800.000	-0.095	0.376
-322.085	-101.348	0.128	-0.031
-321.070	0.675	0.483	0.347
-320.056	164.862	-0.113	0.160
-319.041	66.240	0.239	0.244
-318.026	-22.801	-0.139	0.084
-317.012	-61.218	0.093	-0.039
-315.997	-75.973	0.135	-0.048
-314.983	-200.000	-0.016	0.000
-313.968	-200.000	0.028	0.204
-312.953	-77.571	0.037	-0.013
-311.939	92.140	-0.202	0.228
-310.924	-200.000	-0.056	-0.248
-309.910	800.000	0.153	0.456
-308.895	36.023	0.097	-0.086
-307.880	-8.808	0.217	-0.146
-306.866	163.993	0.092	0.130
-305.851	22.960	-0.171	0.141
-304.837	800.000	0.022	-0.077
-303.822	119.268	-0.083	-0.103
-302.807	-38.758	-0.066	-0.035
-301.793	-132.830	0.203	-0.026
-300.778	-175.486	-0.157	-0.004
-299.764	666.955	-0.034	-0.088
-298.749	800.000	-0.073	-0.221
-297.735	299.159	0.090	-0.167
-296.720	-147.558	0.048	0.004
-295.705	800.000	0.036	-0.157
-294.691	-106.873	-0.180	-0.040
-293.676	-200.000	-0.026	-0.128
-292.662	-27.523	-0.130	0.076
-291.647	-118.895	0.298	-0.053
-290.632	-200.000	0.040	-0.205
-289.618	-28.699	-0.100	0.058
-288.603	-120.915	-0.451	-0.076
-287.589	-200.000	0.022	-0.326
-286.574	-200.000	0.070	-0.377
-285.559	-200.000	0.028	-0.284
-284.545	66.412	-0.378	0.385
-283.530	38.702	0.003	0.002
-282.516	-56.326	0.184	0.082
-281.501	-141.960	0.266	-0.027
-280.486	495.734	0.040	-0.092
-279.472	58.158	-0.134	0.132
-278.457	-130.651	-0.299	0.040
-277.443	-126.022	-0.125	0.019
-276.428	-156.146	0.413	0.026
-275.413	365.272	-0.132	-0.266
-274.399	-46.222	0.167	-0.083
-273.384	114.674	0.123	0.150
-272.370	-98.114	0.060	-0.015
-271.355	-124.040	0.250	-0.039
-270.340	-89.199	0.028	0.008
-269.326	-35.851	0.235	-0.128
-268.311	-77.290	0.202	0.070
-267.297	-200.000	-0.012	0.282
-266.282	26.123	0.054	0.045
-265.267	-200.000	-0.017	0.256
-264.253	20.247	0.186	0.150
-263.238	38.806	0.336	-0.301
-262.224	65.862	0.259	-0.263
-261.209	800.000	0.051	0.221
-260.195	19.348	-0.057	-0.046
-259.180	5.596	0.111	-0.082
-258.165	-115.683	0.109	-0.020
-257.151	800.000	-0.116	-0.383
-256.136	-58.467	0.092	0.040
-255.122	-125.064	0.183	-0.028
-254.107	157.507	0.052	0.073
-253.092	-200.000	-0.029	-0.153
-252.078	-43.042	-0.117	0.060
-251.063	119.684	-0.116	0.144
-250.049	-35.425	-0.022	-0.012
-249.034	-10.791	0.137	0.090
-248.019	-200.000	0.021	-0.245
-247.005	-107.204	-0.035	0.008
-245.990	275.244	0.060	-0.107
-244.976	162.206	0.131	-0.183
-243.961	504.793	0.056	0.129
-242.946	-82.217	-0.343	-0.112
-241.932	800.000	-0.030	-0.100
-240.917	488.288	0.081	0.186
-239.903	24.667	0.077	-0.064
-238.888	-200.000	-0.035	0.200
-237.873	-88.230	0.552	0.166
-236.859	-129.668	-0.290	0.040
-235.844	-200.000	0.028	-0.366
-234.830	-92.463	-0.364	0.102
-233.815	-73.437	-0.359	0.131
-232.800	-51.602	0.199	0.093
-231.786	341.851	-0.044	0.087
-230.771	-16.049	-0.210	0.133
-229.757	-200.000	0.024	-0.344
-228.742	-98.447	0.264	-0.068
-227.727	-172.141	-0.165	-0.005
-226.713	-61.967	0.097	0.041
-225.698	-193.798	0.139	-0.001
-224.684	174.311	-0.026	-0.037
-223.669	-124.734	-0.317	-0.049
-222.655	-68.670	0.132	0.051
-221.640	-59.030	-0.249	0.108
-220.625	-141.814	-0.105	-0.011
-219.611	117.798	-0.120	-0.148
-218.596	-136.416	-0.041	0.005
-217.582	75.514	0.104	0.110
-216.567	-200.000	0.005	0.201
-215.552	-14.161	0.357	0.230
-214.538	-112.987	0.314	0.062
-213.523	213.893	-0.168	-0.267
-212.509	26.064	-0.183	-0.153
-211.494	-76.831	0.178	-0.062
-210.479	-86.682	-0.081	-0.025
-209.465	-102.981	0.153	0.036
-208.450	38.288	-0.198	0.176
-207.436	-104.089	0.093	0.022
-206.421	-7.962	0.154	0.104
-205.406	-200.000	-0.026	0.119
-204.392	534.386	-0.122	0.290
-203.377	800.000	0.063	-0.208
-202.363	124.577	-0.049	0.061
-201.348	18.068	0.164	0.130
-200.333	-41.339	-0.079	-0.041
-199.319	-20.681	0.202	0.124
-198.304	-105.050	0.299	0.069
-197.290	-200.000	-0.078	-0.364
-196.275	-116.409	0.218	-0.040
-195.260	110.064	0.049	0.058
-194.246	800.000	-0.085	-0.282
-193.231	582.248	-0.079	0.193
-192.217	146.202	-0.180	-0.241
-191.202	331.314	0.017	-0.033
-190.187	34.801	0.126	0.110
-189.173	99.675	-0.186	-0.216
-188.158	781.129	0.084	0.229
-187.144	254.949	0.222	0.380
-186.129	800.000	0.048	0.141
-185.114	-64.648	-0.128	0.052
-184.100	-22.422	0.126	0.076
-183.085	-200.000	-0.017	0.264
-182.071	-200.000	0.031	-0.153
-181.056	800.000	-0.017	-0.056
-180.042	-156.992	0.145	0.009
-179.027	800.000	-0.097	0.287
-178.012	-118.310	-0.430	-0.076
-176.998	8.514	-0.129	0.097
-175.983	-122.023	0.059	0.010
-174.969	85.117	-0.198	0.217
-173.954	-14.581	-0.164	0.106
-172.939	-51.339	0.296	0.138
-171.925	376.708	0.163	0.332
-170.910	233.003	-0.095	0.156
-169.896	-20.214	0.213	-0.131
-168.881	-98.982	-0.166	0.042
-167.866	500.490	-0.116	0.267
-166.852	-134.564	-0.164	0.020
-165.837	384.909	0.166	0.341
-164.823	-29.367	0.211	-0.120
-163.808	-45.374	-0.235	-0.116
-162.793	800.000	0.066	-0.192
-161.779	-200.000	0.063	0.467
-160.764	-117.686	0.156	-0.028
-159.750	-200.000	0.003	0.044
-158.735	346.071	-0.068	-0.133
-157.720	-20.251	0.383	-0.236
-156.706	46.107	-0.110	0.102
-155.691	104.972	-0.044	0.052
-154.677	-140.970	0.184	-0.019
-153.662	-200.000	0.005	0.219
-152.647	-200.000	-0.030	0.150
-151.633	-200.000	0.002	-0.371
-150.618	-84.971	-0.182	-0.057
-149.604	-114.120	-0.142	-0.027
-148.589	-72.296	0.142	-0.052
-147.574	-66.830	-0.341	-0.134
-146.560	-200.000	0.006	0.108
-145.545	14.495	-0.060	-0.047
-144.531	-54.448	0.217	-0.098
-143.516	-49.455	-0.027	-0.013
-142.502	511.358	0.157	-0.364
-141.487	-144.401	-0.051	0.005
-140.472	-161.983	0.059	0.003
-139.458	-179.086	0.313	-0.007
-138.443	-72.644	0.167	-0.062
-137.429	229.280	-0.227	-0.369
-136.414	69.295	-0.140	0.144
-135.399	-7.992	-0.115	0.078
-134.385	-120.033	-0.141	-0.024
-133.370	-21.597	0.370	0.225
-132.356	-200.000	-0.019	0.357
-131.341	-82.545	0.141	-0.046
-130.326	800.000	0.046	-0.154
-129.312	800.000	0.053	-0.187
-128.297	-200.000	0.083	0.522
-127.283	259.382	0.114	0.196
-126.268	800.000	0.118	0.362
-125.253	39.016	-0.107	0.095
-124.239	108.391	0.232	-0.276
-123.224	-99.906	-0.389	-0.097
-122.210	800.000	-0.069	0.231
