DTS Sentinel unit serial number:	SN413079Multiplexer serial number:	ORYXHardware model number:	OX4-SRSoftware version number:	ORYX F/W v4.00 Oryx Data Collector v3.7.2.0data status	okinstallation	princeton_trtdifferential loss correction	single-endedforward channel	channel 3reverse channel	N/Adate	2019/09/19time	00:28:35forward acquisition time	60.00reverse acquisition time	0.00gamma	496.2192k internal	0.2346k external	0.2346temperature offset calibration	0.9991default loss term (dB/km)	0.3790temperature slope calibration	1.0000multiplexer offset coefficient	1.0000multiplexer slope coefficient	1.0000fibre end	0.00T internal ref (°C)	22.50T ext. ref 1 (°C)	0.74T ext. ref 2 (°C)	15.42length (m)	temperature (°C)	Stokes	anti-Stokes-747.200	19.203	-0.247	-0.198
-746.185	-58.477	-0.225	0.098
-745.171	-165.623	0.191	0.008
-744.156	673.572	0.106	0.276
-743.142	-200.000	-0.037	0.198
-742.127	-76.218	-0.252	0.089
-741.112	-63.877	0.043	-0.018
-740.098	800.000	-0.157	-0.440
-739.083	-136.111	0.213	-0.025
-738.069	45.232	0.220	0.202
-737.054	-200.000	-0.009	0.234
-736.039	58.748	-0.222	-0.218
-735.025	145.077	0.077	-0.103
-734.010	-24.991	0.126	0.075
-732.996	-104.644	-0.129	0.030
-731.981	367.685	-0.124	-0.250
-730.966	-92.391	-0.321	-0.090
-729.952	43.732	0.226	-0.207
-728.937	-116.262	0.094	0.017
-727.923	-148.585	-0.276	0.022
-726.908	-54.223	-0.320	0.145
-725.894	147.057	0.220	-0.296
-724.879	-200.000	0.004	-0.121
-723.864	48.348	0.197	0.184
-722.850	-122.271	0.233	-0.038
-721.835	49.197	-0.306	0.287
-720.821	-15.017	0.503	-0.322
-719.806	778.083	-0.092	-0.252
-718.791	800.000	0.067	0.241
-717.777	-200.000	0.018	0.111
-716.762	-36.164	-0.261	-0.141
-715.748	-56.950	0.085	-0.037
-714.733	-43.863	0.291	-0.146
-713.718	-200.000	-0.044	0.205
-712.704	-53.147	0.142	-0.065
-711.689	263.689	0.028	-0.049
-710.675	225.015	-0.234	0.379
-709.660	-121.179	-0.272	0.045
-708.645	756.375	0.129	0.349
-707.631	-76.380	0.192	-0.068
-706.616	800.000	-0.071	-0.285
-705.602	800.000	0.065	0.268
-704.587	-41.259	0.040	-0.021
-703.572	-36.626	0.201	-0.108
-702.558	265.373	0.096	-0.167
-701.543	474.440	0.024	-0.054
-700.529	11.510	-0.129	0.098
-699.514	25.706	-0.212	0.176
-698.499	132.606	0.140	-0.180
-697.485	-200.000	-0.010	-0.388
-696.470	50.089	0.079	0.074
-695.456	7.754	0.121	-0.090
-694.441	18.996	-0.328	-0.262
-693.426	-96.449	0.061	-0.016
-692.412	-200.000	-0.021	-0.183
-691.397	172.476	0.191	0.274
-690.383	800.000	-0.141	0.389
-689.368	-89.269	-0.151	-0.045
-688.354	-22.809	0.261	-0.157
-687.339	-182.501	0.336	-0.006
-686.324	35.592	-0.271	-0.237
-685.310	-101.298	0.421	-0.102
-684.295	92.438	-0.136	-0.153
-683.281	800.000	-0.089	-0.311
-682.266	-3.985	-0.075	-0.052
-681.251	575.705	0.155	-0.378
-680.237	-165.646	-0.063	-0.003
-679.222	213.203	-0.090	0.142
-678.208	-15.540	0.161	0.102
-677.193	-200.000	-0.047	0.297
-676.178	410.375	0.182	-0.385
-675.164	-93.990	-0.351	-0.096
-674.149	29.031	-0.154	-0.130
-673.135	-200.000	-0.042	-0.267
-672.120	-40.207	0.141	0.073
-671.105	-145.268	0.134	0.012
-670.091	-200.000	-0.051	0.240
-669.076	-124.847	-0.464	-0.071
-668.062	-44.324	-0.138	-0.069
-667.047	-200.000	-0.048	0.263
-666.032	-200.000	-0.028	-0.147
-665.018	-124.451	0.127	0.020
-664.003	273.229	-0.042	0.075
-662.989	590.153	-0.081	0.200
-661.974	212.112	0.076	0.119
-660.959	-200.000	-0.016	-0.189
-659.945	-90.866	-0.241	-0.069
-658.930	800.000	-0.051	0.176
-657.916	-200.000	-0.011	0.128
-656.901	-5.241	0.217	0.149
-655.886	-82.926	-0.183	-0.059
-654.872	-17.176	0.024	0.015
-653.857	-10.211	-0.318	-0.210
-652.843	285.144	-0.116	-0.208
-651.828	-117.539	-0.289	-0.052
-650.814	102.803	-0.154	0.179
-649.799	-200.000	0.023	0.111
-648.784	-88.841	-0.166	0.049
-647.770	800.000	0.081	-0.318
-646.755	72.618	0.205	-0.213
-645.741	-200.000	0.175	-0.000
-644.726	-200.000	0.042	0.192
-643.711	-3.304	-0.196	-0.136
-642.697	152.315	0.305	-0.415
-641.682	-200.000	0.037	0.370
-640.668	-7.252	0.221	0.149
-639.653	-200.000	0.038	0.254
-638.638	-112.630	-0.202	-0.040
-637.624	-22.789	-0.404	0.243
-636.609	-59.082	-0.091	-0.039
-635.595	-133.403	0.212	-0.027
-634.580	800.000	-0.073	-0.296
-633.565	359.880	0.040	0.080
-632.551	-158.287	0.078	0.005
-631.536	-200.000	-0.068	-0.353
-630.522	19.167	-0.218	0.174
-629.507	677.564	-0.036	0.092
-628.492	228.728	0.053	0.086
-627.478	307.321	-0.186	-0.345
-626.463	271.245	0.131	-0.230
-625.449	-15.583	0.170	0.108
-624.434	-89.708	-0.238	-0.069
-623.419	-42.073	0.370	-0.189
-622.405	183.301	0.197	-0.290
-621.390	-200.000	0.007	0.129
-620.376	394.218	-0.044	0.091
-619.361	28.082	-0.357	0.300
-618.346	-84.250	-0.131	-0.041
-617.332	-66.016	-0.125	-0.050
-616.317	267.290	-0.150	-0.261
-615.303	387.885	0.092	0.190
-614.288	166.355	-0.147	0.207
-613.273	800.000	-0.106	0.372
-612.259	287.185	-0.087	0.156
-611.244	-72.045	-0.397	0.147
-610.230	259.130	-0.232	-0.398
-609.215	-108.662	0.163	-0.035
-608.201	70.676	-0.184	0.189
-607.186	118.508	-0.268	-0.330
-606.171	-140.116	0.306	-0.032
-605.157	-200.000	0.023	-0.388
-604.142	-69.980	0.175	0.066
-603.128	375.492	0.056	-0.113
-602.113	-200.000	-0.035	-0.291
-601.098	611.273	-0.047	-0.117
-600.084	-99.820	0.108	0.027
-599.069	310.286	-0.079	0.147
-598.055	-200.000	0.002	-0.105
-597.040	26.751	0.153	-0.127
-596.025	-126.656	-0.370	-0.055
-595.011	594.223	-0.016	-0.039
-593.996	-200.000	0.001	0.265
-592.982	374.048	-0.159	0.323
-591.967	-82.379	0.082	0.027
-590.952	184.432	0.345	-0.508
-589.938	59.971	0.383	0.376
-588.923	-34.112	-0.151	0.082
-587.909	34.220	0.104	0.091
-586.894	72.039	-0.064	-0.066
-585.879	179.269	-0.095	-0.139
-584.865	-54.689	0.411	-0.185
-583.850	278.744	0.002	-0.004
-582.836	-200.000	0.011	-0.175
-581.821	800.000	0.048	0.148
-580.806	749.700	-0.043	0.115
-579.792	513.968	-0.116	0.269
-578.777	394.503	-0.104	-0.216
-577.763	294.335	-0.197	-0.358
-576.748	800.000	0.017	-0.064
-575.733	-200.000	0.018	0.094
-574.719	265.929	-0.120	-0.208
-573.704	-19.993	0.101	0.062
-572.690	99.450	-0.243	-0.279
-571.675	59.624	-0.290	-0.284
-570.661	133.416	-0.154	-0.198
-569.646	-103.377	0.161	0.038
-568.631	-127.076	0.352	-0.051
-567.617	56.911	0.214	0.207
-566.602	572.280	0.146	-0.352
-565.588	-58.425	-0.091	-0.039
-564.573	132.202	-0.088	0.112
-563.558	-200.000	-0.040	0.195
-562.544	103.954	0.030	0.036
-561.529	800.000	-0.007	-0.021
-560.515	717.478	0.038	0.099
-559.500	-129.098	0.235	-0.033
-558.485	-143.322	-0.254	0.024
-557.471	-101.689	-0.597	-0.144
-556.456	56.279	0.098	0.095
-555.442	-90.166	-0.169	-0.049
-554.427	800.000	0.071	-0.226
-553.412	-200.000	0.021	-0.219
-552.398	22.682	0.226	-0.183
-551.383	-200.000	-0.021	-0.117
-550.369	800.000	0.082	0.311
-549.354	-200.000	-0.009	0.309
-548.339	479.422	0.128	-0.288
-547.325	63.913	-0.277	-0.276
-546.310	56.060	-0.413	-0.397
-545.296	800.000	0.048	0.187
-544.281	800.000	0.021	0.059
-543.266	47.024	0.119	0.110
-542.252	-200.000	-0.015	0.224
-541.237	-200.000	0.026	-0.175
-540.223	24.114	-0.154	-0.126
-539.208	-59.619	-0.032	-0.014
-538.193	-55.459	-0.059	-0.026
-537.179	-121.377	-0.405	-0.067
-536.164	79.621	0.113	0.121
-535.150	243.298	0.117	0.194
-534.135	-200.000	-0.059	-0.281
-533.121	-87.220	-0.382	-0.115
-532.106	39.899	-0.081	0.072
-531.091	-110.564	-0.172	0.035
-530.077	-39.093	0.114	-0.060
-529.062	-14.495	0.294	0.188
-528.048	374.090	-0.072	0.146
-527.033	-107.540	0.245	0.053
-526.018	-127.242	0.096	0.014
-525.004	4.911	0.102	0.075
-523.989	231.393	-0.096	0.156
-522.975	186.069	-0.024	0.036
-521.960	-22.421	-0.308	-0.185
-520.945	61.112	0.159	0.157
-519.931	589.569	0.038	0.092
-518.916	263.537	0.212	0.365
-517.902	71.605	-0.165	-0.170
-516.887	-200.000	-0.006	0.331
-515.872	-43.699	-0.255	-0.128
-514.858	119.469	-0.291	-0.357
-513.843	-200.000	-0.036	0.339
-512.829	167.895	0.063	-0.089
-511.814	-140.043	0.194	0.020
-510.799	323.636	0.078	-0.147
-509.785	-200.000	-0.006	-0.037
-508.770	73.080	-0.189	-0.195
-507.756	-96.308	-0.293	0.077
-506.741	62.816	0.133	0.131
-505.726	-107.864	-0.157	-0.034
-504.712	-33.473	0.116	0.064
-503.697	-92.602	-0.210	0.058
-502.683	-200.000	-0.024	-0.146
-501.668	659.586	0.091	0.231
-500.653	-101.239	0.068	0.016
-499.639	-200.000	0.015	-0.199
-498.624	-73.839	-0.136	-0.049
-497.610	-200.000	-0.004	0.063
-496.595	-200.000	-0.011	0.115
-495.581	173.435	0.123	0.175
-494.566	211.319	-0.060	0.093
-493.551	-200.000	0.010	-0.150
-492.537	800.000	0.045	0.150
-491.522	-74.370	0.063	0.023
-490.508	-87.116	-0.060	-0.018
-489.493	77.938	0.068	0.071
-488.478	125.903	0.020	-0.025
-487.464	184.794	0.037	-0.054
-486.449	-200.000	-0.007	-0.076
-485.435	-200.000	0.035	-0.224
-484.420	30.402	0.165	-0.140
-483.405	183.088	-0.121	0.177
-482.391	-56.495	-0.259	0.114
-481.376	32.206	-0.116	0.099
-480.362	-156.079	0.034	0.002
-479.347	153.117	0.089	0.120
-478.332	19.804	-0.081	0.065
-477.318	1.790	-0.189	-0.135
-476.303	498.946	0.142	0.324
-475.289	626.442	-0.049	0.122
-474.274	566.018	-0.124	0.297
-473.259	-82.541	0.132	0.042
-472.245	-37.017	-0.268	-0.142
-471.230	387.204	-0.094	-0.193
-470.216	-158.594	-0.350	0.020
-469.201	345.322	0.023	-0.044
-468.186	302.597	0.049	-0.091
-467.172	800.000	0.045	0.161
-466.157	-116.891	0.242	0.044
-465.143	52.528	0.076	0.072
-464.128	-91.628	0.069	-0.019
-463.113	800.000	-0.059	-0.220
-462.099	-101.493	0.259	-0.062
-461.084	-88.033	0.206	-0.061
-460.070	-15.641	-0.255	-0.161
-459.055	-200.000	0.015	-0.236
-458.040	-85.272	0.107	0.033
-457.026	-200.000	-0.001	0.038
-456.011	-200.000	0.053	-0.466
-454.997	-161.868	0.118	0.006
-453.982	-54.185	0.300	0.135
-452.968	5.984	-0.156	0.114
-451.953	81.678	-0.392	0.419
-450.938	119.082	0.236	0.289
-449.924	127.612	-0.066	-0.082
-448.909	458.786	-0.140	0.309
-447.895	800.000	-0.093	0.299
-446.880	43.923	0.322	-0.291
-445.865	-33.223	-0.056	-0.030
-444.851	800.000	-0.026	0.095
-443.836	29.711	-0.254	0.214
-442.822	28.531	0.164	0.137
-441.807	445.433	0.056	-0.122
-440.792	-192.979	-0.147	0.001
-439.778	735.766	0.106	0.281
-438.763	-33.537	-0.172	-0.094
-437.749	32.862	-0.184	-0.158
-436.734	-200.000	0.034	0.215
-435.719	67.547	0.323	-0.326
-434.705	800.000	-0.153	-0.460
-433.690	-108.719	0.147	-0.031
-432.676	-118.573	-0.190	0.033
-431.661	-11.513	-0.053	-0.034
-430.646	320.063	0.123	-0.230
-429.632	-2.723	-0.305	-0.211
-428.617	56.808	0.358	-0.344
-427.603	-200.000	0.048	0.385
-426.588	392.479	-0.025	0.050
-425.573	-113.030	0.170	0.033
-424.559	168.246	-0.149	-0.210
-423.544	-20.041	-0.226	-0.138
-422.530	-133.309	-0.262	-0.033
-421.515	9.026	0.321	-0.240
-420.500	53.872	-0.154	-0.146
-419.486	-139.790	0.121	-0.013
-418.471	238.720	-0.088	0.144
-417.457	59.674	0.261	0.254
-416.442	-145.906	-0.065	-0.006
-415.428	800.000	0.033	0.138
-414.413	105.042	-0.158	-0.183
-413.398	22.253	0.079	0.064
-412.384	78.167	-0.246	0.259
-411.369	-129.793	0.427	-0.058
-410.355	-105.066	0.197	-0.045
-409.340	75.301	0.029	0.030
-408.325	214.331	0.102	0.160
-407.311	-116.075	-0.293	0.054
-406.296	-200.000	-0.011	0.168
-405.282	-200.000	-0.062	0.282
-404.267	-29.557	-0.164	-0.092
-403.252	-89.141	0.197	-0.057
-402.238	-200.000	-0.016	-0.231
-401.223	-5.892	-0.109	-0.074
-400.209	133.487	-0.080	0.102
-399.194	14.211	0.229	0.176
-398.179	94.575	0.003	-0.004
-397.165	-200.000	0.009	-0.121
-396.150	-32.151	0.342	-0.189
-395.136	36.212	-0.014	0.012
-394.121	-200.000	-0.050	0.223
-393.106	-200.000	0.030	0.210
-392.092	174.555	0.221	0.316
-391.077	142.474	0.244	-0.320
-390.063	-32.473	0.170	0.094
-389.048	178.361	-0.253	-0.364
-388.033	-24.960	-0.358	0.210
-387.019	36.624	0.275	0.239
-386.004	-154.878	-0.304	-0.020
-384.990	35.950	-0.209	-0.181
-383.975	-94.394	-0.324	-0.087
-382.960	123.908	0.133	-0.164
-381.946	474.364	0.071	0.159
-380.931	-200.000	-0.064	-0.312
-379.917	192.428	-0.114	-0.170
-378.902	800.000	-0.066	-0.252
-377.888	800.000	0.091	-0.366
-376.873	341.441	0.063	-0.122
-375.858	133.260	-0.101	-0.129
-374.844	-103.469	0.375	0.087
-373.829	-43.190	0.223	0.111
-372.815	-30.177	-0.158	0.089
-371.800	-0.090	-0.241	-0.169
-370.785	5.206	-0.063	0.046
-369.771	-66.384	0.093	0.036
-368.756	-200.000	0.067	0.510
-367.742	220.509	-0.109	-0.172
-366.727	-45.927	-0.162	0.079
-365.712	-123.414	0.337	0.053
-364.698	170.200	0.129	0.182
-363.683	312.705	-0.102	0.189
-362.669	437.170	0.173	-0.371
-361.654	33.695	-0.250	0.214
-360.639	-200.000	0.012	0.060
-359.625	-200.000	-0.034	0.263
-358.610	-200.000	-0.006	0.144
-357.596	382.791	-0.028	0.057
-356.581	800.000	0.045	0.163
-355.566	258.174	0.084	-0.142
-354.552	53.227	0.097	-0.091
-353.537	-45.370	-0.384	0.188
-352.523	-182.196	0.205	-0.004
-351.508	-200.000	-0.014	0.414
-350.493	39.590	-0.167	0.147
-349.479	63.525	0.169	0.167
-348.464	-200.000	0.030	0.254
-347.450	-49.888	0.199	-0.093
-346.435	800.000	-0.062	-0.235
-345.420	190.440	0.266	-0.394
-344.406	-181.824	0.287	-0.005
-343.391	-200.000	-0.035	-0.160
-342.377	-65.157	0.079	-0.032
-341.362	-200.000	-0.031	0.280
-340.348	228.171	0.141	0.225
-339.333	800.000	0.053	-0.165
-338.318	20.837	-0.200	-0.159
-337.304	24.346	0.297	-0.242
-336.289	30.174	0.164	-0.138
-335.275	-36.041	-0.042	-0.022
-334.260	493.660	0.064	-0.145
-333.245	-18.795	0.140	0.086
-332.231	160.007	-0.231	-0.316
-331.216	-81.545	-0.156	0.050
-330.202	-200.000	0.012	0.352
-329.187	27.802	0.270	-0.224
-328.172	-200.000	-0.177	0.001
-327.158	-85.868	-0.334	0.102
-326.143	-89.485	0.295	-0.085
-325.129	40.784	0.073	0.065
-324.114	-78.666	0.242	-0.081
-323.099	-103.036	0.289	-0.067
-322.085	-140.525	0.126	-0.013
-321.070	45.306	-0.144	-0.131
-320.056	-114.816	-0.313	-0.059
-319.041	-200.000	0.017	-0.124
-318.026	91.623	0.207	-0.229
-317.012	-200.000	0.014	0.066
-315.997	-200.000	0.028	0.153
-314.983	-163.897	0.330	-0.015
-313.968	800.000	0.114	-0.316
-312.953	-119.981	-0.128	-0.022
-311.939	216.061	0.061	-0.096
-310.924	-118.143	0.230	-0.040
-309.910	504.392	0.139	0.316
-308.895	-87.013	0.268	-0.080
-307.880	-57.552	0.292	0.126
-306.866	-87.814	0.231	0.068
-305.851	291.155	-0.081	-0.145
-304.837	-23.921	-0.135	-0.079
-303.822	167.206	0.180	0.252
-302.807	-130.527	-0.210	0.028
-301.793	-200.000	0.015	0.147
-300.778	543.427	-0.091	-0.214
-299.764	778.530	0.026	-0.071
-298.749	38.649	-0.094	-0.082
-297.735	280.333	-0.104	-0.183
-296.720	-200.000	-0.029	-0.154
-295.705	-200.000	0.058	-0.283
-294.691	24.230	0.253	-0.205
-293.676	-200.000	0.015	-0.078
-292.662	-93.100	-0.140	0.038
-291.647	30.424	0.258	0.216
-290.632	-75.138	0.224	0.079
-289.618	193.353	0.167	0.248
-288.603	535.317	0.066	0.153
-287.589	210.761	0.040	-0.062
-286.574	-33.713	0.101	-0.055
-285.559	-112.485	0.037	-0.007
-284.545	-124.734	-0.114	0.017
-283.530	-29.759	-0.194	0.109
-282.516	-70.956	0.203	-0.075
-281.501	19.828	-0.190	-0.150
-280.486	331.786	0.212	0.402
-279.472	-98.421	-0.204	0.051
-278.457	207.241	0.159	-0.244
-277.443	47.868	0.086	-0.079
-276.428	-158.428	0.212	-0.012
-275.413	589.254	-0.040	-0.096
-274.399	-12.487	-0.168	0.108
-273.384	800.000	0.093	0.361
-272.370	-200.000	0.026	-0.176
-271.355	-200.000	-0.022	0.175
-270.340	43.985	0.058	-0.052
-269.326	110.979	-0.152	0.180
-268.311	459.106	0.160	0.349
-267.297	-45.045	0.067	0.033
-266.282	-76.986	0.398	0.136
-265.267	800.000	-0.095	-0.378
-264.253	-200.000	-0.007	-0.117
-263.238	-109.348	0.064	0.013
-262.224	21.135	0.295	0.235
-261.209	800.000	-0.033	-0.102
-260.195	-200.000	0.066	0.308
-259.180	800.000	0.073	-0.218
-258.165	-200.000	-0.033	-0.222
-257.151	-180.709	-0.218	-0.004
-256.136	74.970	0.073	0.075
-255.122	24.332	-0.058	-0.047
-254.107	-200.000	-0.026	-0.392
-253.092	-200.000	0.002	-0.053
-252.078	800.000	-0.032	-0.112
-251.063	-113.704	-0.159	0.030
-250.049	107.099	0.066	0.077
-249.034	252.390	-0.065	-0.109
-248.019	323.670	-0.259	0.484
-247.005	-52.108	-0.232	-0.106
-245.990	-28.282	-0.320	-0.181
-244.976	-94.001	-0.348	0.094
-243.961	-104.461	0.208	-0.047
-242.946	-200.000	-0.031	0.176
-241.932	-133.373	-0.186	0.023
-240.917	96.110	-0.065	-0.073
-239.903	-24.195	0.059	-0.035
-238.888	2.621	0.235	-0.167
-237.873	800.000	-0.012	0.051
-236.859	694.517	0.125	0.322
-235.844	53.016	0.212	0.199
-234.830	62.447	-0.239	0.234
-233.815	-101.337	0.022	-0.005
-232.800	746.530	-0.100	-0.265
-231.786	173.213	-0.161	-0.227
-230.771	-200.000	0.003	0.083
-229.757	-200.000	0.040	0.264
-228.742	-200.000	-0.015	0.131
-227.727	80.201	0.305	0.321
-226.713	800.000	0.046	0.158
-225.698	-93.947	-0.272	-0.073
-224.684	218.821	0.063	-0.098
-223.669	377.085	0.157	-0.314
-222.655	138.895	0.303	0.391
-221.640	91.028	-0.451	0.495
-220.625	351.697	0.144	0.280
-219.611	800.000	-0.111	-0.439
-218.596	750.621	0.115	0.304
-217.582	-132.922	0.212	-0.026
-216.567	-54.240	-0.338	-0.150
-215.552	8.551	0.083	-0.061
-214.538	653.374	0.104	0.261
-213.523	800.000	-0.078	0.324
-212.509	12.421	-0.255	0.193
-211.494	-141.345	0.211	-0.021
-210.479	-200.000	-0.002	-0.029
-209.465	3.339	0.076	-0.054
-208.450	-88.625	-0.494	-0.144
-207.436	-200.000	-0.004	0.298
-206.421	19.819	0.199	0.157
-205.406	155.006	-0.162	-0.218
-204.392	16.395	-0.082	-0.064
-203.377	-152.063	0.083	0.006
-202.363	-200.000	-0.015	0.166
-201.348	-200.000	0.055	0.308
-200.333	-25.557	-0.300	-0.173
-199.319	-90.140	-0.177	0.050
-198.304	230.651	-0.118	-0.189
-197.290	41.269	0.077	0.068
-196.275	-50.304	0.314	-0.145
-195.260	670.736	0.037	0.093
-194.246	23.543	0.317	-0.255
-193.231	-200.000	-0.007	0.113
-192.217	-69.516	0.100	0.037
-191.202	-200.000	0.035	-0.345
-190.187	521.936	-0.064	-0.148
-189.173	233.521	0.121	-0.194
-188.158	-22.437	-0.242	0.143
-187.144	800.000	-0.037	0.143
-186.129	78.514	-0.131	-0.137
-185.114	-200.000	-0.029	-0.169
-184.100	146.138	-0.076	0.100
-183.085	719.941	0.077	-0.200
-182.071	-82.917	0.234	-0.074
-181.056	-124.057	-0.534	-0.082
-180.042	-147.735	0.292	-0.024
-179.027	-90.645	0.071	0.020
-178.012	-174.191	-0.315	-0.009
-176.998	424.614	0.104	-0.220
-175.983	-37.833	-0.105	-0.055
-174.969	285.827	0.054	-0.095
-173.954	-27.465	-0.230	-0.131
-172.939	-200.000	-0.009	0.244
-171.925	-1.231	0.235	-0.163
-170.910	-200.000	-0.058	0.291
-169.896	-200.000	0.058	-0.305
-168.881	-200.000	0.031	0.293
-167.866	-98.164	-0.330	-0.083
-166.852	-79.747	-0.074	0.024
-165.837	12.080	-0.167	-0.125
-164.823	75.578	-0.034	0.035
-163.808	244.199	0.060	-0.099
-162.793	68.078	-0.156	0.156
-161.779	-12.248	-0.203	0.130
-160.764	-68.103	0.296	0.113
-159.750	-172.257	-0.244	0.008
-158.735	341.005	0.127	0.242
-157.720	-86.473	0.144	0.043
-156.706	-200.000	-0.037	0.358
-155.691	22.200	0.359	0.287
-154.677	-200.000	-0.019	0.291
-153.662	194.668	0.147	-0.217
-152.647	-88.475	-0.032	-0.009
-151.633	-26.002	0.085	-0.049
-150.618	-118.473	0.275	0.048
-149.604	16.832	0.216	0.167
-148.589	-41.175	0.149	0.075
-147.574	-34.344	0.285	-0.153
-146.560	-200.000	-0.080	0.355
-145.545	-63.979	0.251	-0.100
-144.531	672.736	-0.069	-0.174
-143.516	-64.955	0.204	0.080
-142.502	-8.581	0.275	-0.180
-141.487	800.000	-0.107	-0.409
-140.472	800.000	-0.081	-0.222
-139.458	-64.364	0.147	-0.058
-138.443	401.349	0.073	0.151
-137.429	111.234	-0.135	-0.159
-136.414	245.762	-0.081	0.134
-135.399	484.838	-0.180	0.400
-134.385	122.718	0.244	-0.299
-133.370	179.904	0.100	-0.143
-132.356	-193.098	0.064	0.001
-131.341	-92.563	0.314	-0.086
-130.326	-40.142	0.203	0.103
-129.312	-167.142	0.144	-0.006
-128.297	800.000	0.058	-0.188
-127.283	-76.395	0.305	0.105
-126.268	800.000	-0.041	-0.172
-125.253	714.050	0.036	-0.094
-124.239	800.000	0.122	0.340
-123.224	-1.015	0.170	0.117
-122.210	50.739	-0.141	-0.130
-121.195	46.935	-0.190	-0.172
