DTS Sentinel unit serial number:	SN413079Multiplexer serial number:	ORYXHardware model number:	OX4-SRSoftware version number:	ORYX F/W v4.00 Oryx Data Collector v3.7.2.0data status	okinstallation	princeton_trtdifferential loss correction	single-endedforward channel	channel 3reverse channel	N/Adate	2019/09/10time	20:50:10forward acquisition time	60.00reverse acquisition time	0.00gamma	496.2192k internal	0.2327k external	0.2327temperature offset calibration	0.9922default loss term (dB/km)	0.3790temperature slope calibration	1.0000multiplexer offset coefficient	1.0000multiplexer slope coefficient	1.0000fibre end	0.00T internal ref (°C)	31.75T ext. ref 1 (°C)	-0.31T ext. ref 2 (°C)	25.37length (m)	temperature (°C)	Stokes	anti-Stokes-747.200	-37.715	0.156	0.084
-746.185	-36.538	0.270	0.146
-745.171	254.965	0.077	-0.133
-744.156	-200.000	-0.036	0.462
-743.142	9.568	-0.172	-0.131
-742.127	800.000	-0.019	0.059
-741.112	-200.000	0.017	-0.106
-740.098	397.887	0.118	0.249
-739.083	-16.967	0.289	-0.184
-738.069	-55.623	-0.287	0.129
-737.054	43.499	-0.241	-0.222
-736.039	-15.866	0.050	0.032
-735.025	262.080	0.183	0.319
-734.010	-166.446	-0.299	0.013
-732.996	-200.000	0.000	0.140
-731.981	-200.000	-0.037	-0.282
-730.966	351.067	-0.114	0.228
-729.952	800.000	-0.228	-0.648
-728.937	337.444	-0.185	-0.362
-727.923	54.672	-0.216	-0.210
-726.908	800.000	-0.050	0.207
-725.894	-50.381	0.044	-0.021
-724.879	148.026	-0.112	-0.152
-723.864	-135.085	-0.190	-0.023
-722.850	-174.659	0.354	0.010
-721.835	-200.000	-0.037	0.245
-720.821	800.000	0.073	-0.218
-719.806	-122.172	-0.179	-0.029
-718.791	11.089	-0.073	-0.056
-717.777	506.624	-0.036	-0.083
-716.762	-54.858	0.122	-0.055
-715.748	800.000	0.022	-0.096
-714.733	-88.926	0.249	0.074
-713.718	300.574	0.032	0.059
-712.704	239.212	0.048	-0.080
-711.689	2.705	0.070	-0.051
-710.675	-172.357	0.154	0.005
-709.660	-133.693	0.312	-0.039
-708.645	12.089	-0.156	-0.121
-707.631	-74.486	0.141	-0.051
-706.616	439.706	0.047	0.104
-705.602	32.046	0.044	0.039
-704.587	-135.034	-0.185	-0.022
-703.572	41.821	-0.275	-0.251
-702.558	-144.035	0.365	-0.034
-701.543	133.782	0.118	0.153
-700.529	30.089	0.009	-0.008
-699.514	210.216	-0.098	0.154
-698.499	790.314	-0.022	-0.060
-697.485	-123.589	-0.321	0.051
-696.470	257.603	0.134	0.232
-695.456	107.048	-0.250	0.299
-694.441	-190.364	-0.248	0.003
-693.426	-170.011	0.231	-0.008
-692.412	-18.929	0.186	-0.117
-691.397	800.000	-0.070	-0.291
-690.383	50.458	-0.166	0.158
-689.368	405.956	0.079	-0.167
-688.354	-13.388	-0.059	0.039
-687.339	-169.402	-0.254	0.009
-686.324	54.232	0.096	0.093
-685.310	-140.173	-0.120	0.013
-684.295	189.481	0.133	0.201
-683.281	800.000	0.058	0.249
-682.266	15.675	-0.190	-0.150
-681.251	416.689	-0.064	0.137
-680.237	334.044	-0.054	-0.104
-679.222	287.873	0.057	-0.103
-678.208	800.000	0.034	-0.125
-677.193	-200.000	-0.064	-0.322
-676.178	-58.126	0.473	-0.207
-675.164	-113.522	0.136	0.027
-674.149	-28.325	-0.100	0.058
-673.135	-200.000	-0.014	-0.354
-672.120	-200.000	-0.014	0.151
-671.105	-162.436	0.194	0.010
-670.091	-105.039	0.197	0.045
-669.076	-70.977	-0.225	0.085
-668.062	269.964	0.072	0.127
-667.047	-4.510	-0.066	0.046
-666.032	-140.451	-0.326	0.034
-665.018	183.478	0.179	-0.266
-664.003	454.417	0.021	0.046
-662.989	160.332	-0.128	0.180
-661.974	800.000	-0.037	0.107
-660.959	800.000	-0.121	0.451
-659.945	-109.477	-0.041	-0.009
-658.930	495.806	-0.085	-0.197
-657.916	234.332	-0.217	0.360
-656.901	-200.000	0.045	-0.286
-655.886	-89.651	-0.308	-0.091
-654.872	-200.000	-0.001	0.047
-653.857	-9.530	0.056	-0.038
-652.843	800.000	0.030	-0.107
-651.828	-200.000	0.011	-0.162
-650.814	-56.887	-0.256	0.114
-649.799	-110.651	-0.065	0.014
-648.784	97.366	0.179	-0.206
-647.770	130.976	-0.133	-0.172
-646.755	-116.583	0.098	-0.018
-645.741	67.166	-0.171	-0.175
-644.726	178.591	0.189	0.277
-643.711	-131.867	0.136	-0.018
-642.697	-200.000	-0.061	-0.314
-641.682	-104.632	0.198	-0.046
-640.668	-200.000	0.068	-0.414
-639.653	13.501	-0.267	-0.208
-638.638	-73.464	0.144	-0.053
-637.624	-168.073	0.139	-0.005
-636.609	-200.000	-0.011	-0.246
-635.595	23.509	-0.095	0.079
-634.580	-39.063	-0.088	0.046
-633.565	-148.046	0.177	0.015
-632.551	55.297	-0.215	-0.209
-631.536	-13.656	0.217	-0.141
-630.522	223.340	-0.188	-0.304
-629.507	92.009	-0.209	0.236
-628.492	656.567	-0.087	0.225
-627.478	51.398	-0.217	0.207
-626.463	-126.613	0.246	-0.037
-625.449	-61.403	0.182	-0.077
-624.434	-94.465	-0.270	0.074
-623.419	-109.707	-0.178	0.038
-622.405	-51.713	-0.239	-0.112
-621.390	44.340	-0.193	0.178
-620.376	-109.463	0.108	-0.023
-619.361	-138.419	0.069	-0.008
-618.346	-82.738	-0.234	-0.076
-617.332	-200.000	-0.018	0.153
-616.317	256.299	0.109	-0.187
-615.303	800.000	0.028	-0.098
-614.288	408.637	-0.168	0.357
-613.273	-17.569	-0.152	0.096
-612.259	7.306	-0.247	-0.185
-611.244	170.356	0.235	-0.338
-610.230	-87.477	-0.137	0.042
-609.215	-121.848	-0.308	0.051
-608.201	-110.138	-0.318	0.066
-607.186	-200.000	0.019	-0.087
-606.171	-155.062	0.104	0.007
-605.157	26.780	-0.213	-0.179
-604.142	644.164	0.106	-0.270
-603.128	2.498	-0.159	-0.115
-602.113	800.000	0.023	0.081
-601.098	317.169	0.075	-0.143
-600.084	-12.645	0.067	-0.044
-599.069	86.300	-0.117	0.129
-598.055	674.903	-0.065	-0.169
-597.040	4.524	0.264	-0.194
-596.025	644.586	-0.082	-0.211
-595.011	630.639	0.095	-0.241
-593.996	779.224	-0.026	0.071
-592.982	25.541	0.114	0.095
-591.967	23.358	-0.186	0.153
-590.952	800.000	0.018	-0.053
-589.938	0.385	0.127	0.091
-588.923	374.392	0.047	-0.095
-587.909	-85.477	-0.268	0.084
-586.894	219.256	-0.176	-0.283
-585.879	56.214	-0.063	-0.061
-584.865	800.000	-0.046	-0.129
-583.850	-80.953	-0.245	0.081
-582.836	38.594	0.140	-0.125
-581.821	-157.012	-0.147	-0.009
-580.806	-200.000	0.019	-0.168
-579.792	6.886	-0.101	0.075
-578.777	-53.096	-0.184	-0.085
-577.763	14.930	0.062	-0.048
-576.748	-200.000	0.079	0.467
-575.733	-41.476	0.215	0.111
-574.719	-200.000	-0.000	-0.074
-573.704	-200.000	0.025	0.123
-572.690	-70.001	-0.325	0.124
-571.675	-89.031	0.447	-0.132
-570.661	-45.829	0.105	-0.052
-569.646	358.763	-0.124	-0.249
-568.631	653.970	-0.053	-0.136
-567.617	-124.889	0.453	-0.070
-566.602	800.000	0.101	-0.321
-565.588	107.095	-0.187	-0.222
-564.573	116.851	-0.074	-0.090
-563.558	-95.703	0.220	0.059
-562.544	-23.363	-0.091	-0.055
-561.529	-16.405	-0.051	0.032
-560.515	-65.414	-0.308	0.124
-559.500	-176.204	-0.289	0.008
-558.485	-200.000	-0.012	0.107
-557.471	-200.000	-0.026	0.271
-556.456	-200.000	0.001	-0.243
-555.442	-72.299	0.242	-0.090
-554.427	-129.290	0.061	0.009
-553.412	-53.122	0.168	-0.077
-552.398	800.000	0.124	-0.430
-551.383	178.147	-0.285	-0.417
-550.369	-74.361	0.202	-0.073
-549.354	-75.498	-0.105	0.038
-548.339	-200.000	-0.023	-0.168
-547.325	-59.840	0.181	0.077
-546.310	-101.009	-0.360	0.088
-545.296	-75.032	-0.123	0.044
-544.281	387.893	0.137	-0.283
-543.266	-73.082	-0.131	-0.048
-542.252	800.000	0.044	0.174
-541.237	57.157	0.278	0.271
-540.223	800.000	-0.067	-0.272
-539.208	-131.347	-0.076	0.010
-538.193	265.393	-0.191	-0.334
-537.179	166.288	-0.093	0.132
-536.164	-200.000	-0.009	0.226
-535.150	307.365	0.129	0.240
-534.135	-122.467	-0.114	-0.019
-533.121	-200.000	-0.048	-0.219
-532.106	-200.000	-0.005	-0.220
-531.091	-200.000	0.016	0.189
-530.077	90.011	-0.112	-0.125
-529.062	30.735	-0.232	-0.198
-528.048	-200.000	0.012	-0.151
-527.033	-145.839	-0.282	0.025
-526.018	642.599	0.072	0.182
-525.004	403.995	-0.112	0.235
-523.989	183.069	0.182	0.268
-522.975	-200.000	-0.004	-0.040
-521.960	513.935	0.092	-0.215
-520.945	-124.364	0.142	0.022
-519.931	-200.000	0.013	0.242
-518.916	35.099	0.027	0.024
-517.902	638.970	-0.055	0.139
-516.887	-200.000	0.014	0.145
-515.872	-99.299	0.214	-0.054
-514.858	-50.278	-0.260	-0.123
-513.843	-47.023	0.080	0.039
-512.829	800.000	0.047	-0.167
-511.814	-143.678	-0.079	-0.008
-510.799	207.873	0.098	-0.154
-509.785	-71.865	-0.075	-0.028
-508.770	-98.823	0.218	0.055
-507.756	509.261	-0.104	-0.241
-506.741	-56.619	0.038	0.017
-505.726	800.000	0.044	-0.134
-504.712	-71.594	-0.061	-0.023
-503.697	-200.000	-0.046	-0.238
-502.683	-46.185	0.292	-0.143
-501.668	-85.789	0.337	0.104
-500.653	-47.586	-0.204	0.099
-499.639	309.443	0.110	0.205
-498.624	152.557	0.102	-0.139
-497.610	188.985	0.084	-0.126
-496.595	-200.000	-0.057	0.501
-495.581	246.184	0.017	0.028
-494.566	81.237	-0.115	0.124
-493.551	276.807	0.048	0.086
-492.537	-200.000	-0.019	-0.264
-491.522	-200.000	-0.013	0.227
-490.508	53.092	0.283	0.270
-489.493	407.460	-0.037	0.078
-488.478	-113.460	0.474	0.093
-487.464	95.923	-0.176	-0.201
-486.449	-154.140	-0.222	0.015
-485.435	-99.052	0.250	-0.063
-484.420	-5.633	0.148	-0.102
-483.405	-200.000	0.001	0.082
-482.391	66.193	0.242	0.245
-481.376	-60.667	0.049	-0.021
-480.362	792.537	-0.083	-0.227
-479.347	-75.316	0.202	0.072
-478.332	423.775	-0.094	0.202
-477.318	208.028	0.105	0.163
-476.303	800.000	-0.099	-0.311
-475.289	126.399	0.067	0.085
-474.274	111.111	-0.269	0.323
-473.259	453.952	0.015	0.032
-472.245	91.560	-0.141	0.158
-471.230	-25.587	0.299	0.176
-470.216	-14.713	0.246	-0.158
-469.201	38.150	0.091	-0.081
-468.186	-53.975	0.074	0.033
-467.172	16.977	-0.296	0.234
-466.157	168.370	0.203	0.288
-465.143	65.308	-0.266	0.268
-464.128	800.000	0.083	0.333
-463.113	269.773	-0.027	0.048
-462.099	-42.198	-0.173	-0.088
-461.084	-63.629	-0.304	0.124
-460.070	-82.000	0.342	0.111
-459.055	31.996	0.248	0.213
-458.040	-139.029	-0.384	-0.041
-457.026	-124.115	-0.332	0.052
-456.011	-200.000	0.016	0.305
-454.997	-87.158	0.220	0.067
-453.982	-107.292	0.251	-0.055
-452.968	-200.000	-0.058	0.362
-451.953	-59.303	-0.261	-0.112
-450.938	-122.652	-0.013	0.002
-449.924	-101.557	-0.076	-0.019
-448.909	-129.697	0.179	0.025
-447.895	113.224	-0.014	-0.017
-446.880	-166.857	-0.508	0.021
-445.865	-14.365	0.017	-0.011
-444.851	-200.000	-0.008	0.241
-443.836	402.957	-0.081	-0.171
-442.822	-200.000	-0.029	-0.236
-441.807	-200.000	-0.005	0.022
-440.792	800.000	0.132	-0.495
-439.778	145.748	-0.191	0.255
-438.763	-117.252	0.140	0.025
-437.749	63.299	-0.217	0.217
-436.734	-180.351	0.095	0.002
-435.719	-30.793	0.198	0.111
-434.705	88.753	-0.247	-0.274
-433.690	-84.057	0.036	-0.012
-432.676	-175.475	-0.264	0.007
-431.661	4.224	0.241	0.176
-430.646	-185.534	-0.065	-0.001
-429.632	-83.516	0.309	-0.099
-428.617	-200.000	-0.002	0.169
-427.603	-200.000	0.044	0.512
-426.588	-126.913	0.229	-0.034
-425.573	-200.000	-0.003	0.147
-424.559	365.367	0.093	0.186
-423.544	-200.000	0.026	-0.395
-422.530	79.096	-0.135	-0.144
-421.515	58.886	-0.079	-0.077
-420.500	-85.722	0.057	-0.018
-419.486	-140.113	0.370	-0.039
-418.471	-98.980	-0.330	0.083
-417.457	-159.779	0.109	0.006
-416.442	82.302	-0.014	-0.015
-415.428	24.252	0.086	0.071
-414.413	-95.275	0.208	-0.056
-413.398	-62.144	-0.109	-0.045
-412.384	-152.274	-0.313	-0.022
-411.369	-90.933	-0.008	0.002
-410.355	52.249	-0.121	0.115
-409.340	800.000	-0.089	0.264
-408.325	-200.000	-0.037	-0.257
-407.311	619.027	-0.020	-0.051
-406.296	-145.350	0.573	-0.051
-405.282	105.369	0.069	-0.082
-404.267	-44.274	0.178	0.089
-403.252	15.705	-0.022	0.018
-402.238	-152.238	0.176	-0.013
-401.223	-153.044	0.191	0.013
-400.209	-110.986	-0.109	-0.022
-399.194	206.419	0.046	0.070
-398.179	15.560	0.146	0.114
-397.165	-77.484	-0.112	0.039
-396.150	-161.120	0.227	0.012
-395.136	800.000	0.041	0.128
-394.121	103.129	0.171	0.199
-393.106	-72.614	0.078	0.029
-392.092	-144.797	-0.088	0.008
-391.077	-200.000	-0.034	0.261
-390.063	800.000	0.044	-0.163
-389.048	50.198	-0.330	0.310
-388.033	148.243	-0.132	-0.177
-387.019	-179.605	0.088	-0.002
-386.004	-84.156	0.237	-0.075
-384.990	-75.171	-0.312	-0.111
-383.975	-200.000	0.008	0.187
-382.960	-81.593	0.112	0.037
-381.946	42.180	-0.396	0.358
-380.931	798.630	0.110	-0.301
-379.917	-53.238	-0.086	-0.039
-378.902	-34.531	-0.431	0.234
-377.888	-53.563	0.268	-0.122
-376.873	-87.592	0.170	-0.051
-375.858	-78.604	-0.160	-0.054
-374.844	170.565	0.142	0.202
-373.829	164.773	0.248	0.347
-372.815	105.034	0.194	-0.227
-371.800	-127.796	-0.275	0.039
-370.785	-200.000	0.004	0.040
-369.771	57.231	-0.080	-0.077
-368.756	73.720	0.169	-0.176
-367.742	40.344	-0.132	0.118
-366.727	684.076	0.041	0.107
-365.712	800.000	0.098	0.289
-364.698	800.000	0.082	-0.309
-363.683	128.667	0.077	0.097
-362.669	-29.948	-0.298	0.169
-361.654	22.937	0.171	0.140
-360.639	800.000	-0.059	0.180
-359.625	179.818	0.013	-0.018
-358.610	-175.812	0.191	0.005
-357.596	-62.560	0.224	-0.092
-356.581	-200.000	0.016	0.078
-355.566	-46.266	0.138	-0.067
-354.552	9.262	0.192	-0.144
-353.537	-115.959	-0.120	-0.022
-352.523	-200.000	0.047	-0.487
-351.508	614.990	0.071	-0.177
-350.493	-19.385	0.064	0.039
-349.479	800.000	0.106	0.347
-348.464	-134.711	-0.086	-0.010
-347.450	19.890	0.192	0.154
-346.435	-79.996	0.173	-0.058
-345.420	261.681	0.071	0.122
-344.406	107.422	-0.295	0.348
-343.391	-161.270	-0.027	0.001
-342.377	178.320	-0.111	0.161
-341.362	800.000	-0.034	-0.135
-340.348	-24.392	0.430	-0.254
-339.333	-200.000	0.080	0.496
-338.318	116.141	0.375	-0.456
-337.304	-71.278	-0.235	-0.088
-336.289	-80.538	0.134	0.044
-335.275	-200.000	-0.004	0.054
-334.260	-200.000	0.009	0.349
-333.245	800.000	0.022	-0.096
-332.231	-163.338	0.284	-0.013
-331.216	-98.122	-0.125	0.032
-330.202	-133.915	-0.147	-0.018
-329.187	-118.074	0.213	-0.038
-328.172	-24.855	-0.139	-0.082
-327.158	-113.884	-0.131	-0.025
-326.143	267.132	-0.206	-0.357
-325.129	-200.000	0.432	0.001
-324.114	-47.983	0.209	-0.100
-323.099	101.130	0.035	-0.041
-322.085	-164.052	-0.293	-0.013
-321.070	-43.596	0.249	0.125
-320.056	653.203	0.088	0.225
-319.041	800.000	-0.089	-0.262
-318.026	-200.000	-0.010	0.046
-317.012	0.902	-0.230	0.164
-315.997	-31.691	-0.187	-0.104
-314.983	-111.080	0.169	0.034
-313.968	429.221	0.053	-0.113
-312.953	283.762	-0.056	-0.100
-311.939	-62.291	-0.094	0.039
-310.924	-200.000	0.016	0.188
-309.910	-200.000	0.058	-0.341
-308.895	-200.000	0.018	-0.237
-307.880	-200.000	0.001	0.103
-306.866	-133.086	0.294	0.037
-305.851	163.727	-0.200	0.279
-304.837	-96.902	0.254	-0.066
-303.822	-12.987	0.194	0.125
-302.807	-44.190	0.183	0.091
-301.793	464.587	-0.117	0.260
-300.778	-43.078	0.204	-0.102
-299.764	77.366	-0.146	0.154
-298.749	-200.000	0.007	-0.056
-297.735	-200.000	0.040	-0.235
-296.720	36.654	-0.200	-0.175
-295.705	570.076	-0.065	-0.157
-294.691	130.575	0.043	0.054
-293.676	191.562	-0.202	-0.302
-292.662	-121.382	-0.161	0.027
-291.647	28.298	-0.129	0.108
-290.632	-200.000	-0.003	-0.167
-289.618	-11.031	-0.147	-0.096
-288.603	3.029	0.193	0.139
-287.589	-13.063	-0.202	-0.130
-286.574	-136.250	-0.179	0.021
-285.559	123.857	-0.032	0.039
-284.545	800.000	-0.061	0.206
-283.530	-86.858	0.267	0.081
-282.516	-35.783	-0.294	-0.158
-281.501	-74.943	0.277	-0.098
-280.486	-200.000	0.037	-0.224
-279.472	44.313	0.089	0.081
-278.457	-65.553	-0.291	0.116
-277.443	800.000	0.108	-0.299
-276.428	-200.000	0.026	0.331
-275.413	-113.147	-0.196	-0.038
-274.399	-20.588	-0.348	-0.212
-273.384	-128.742	0.119	-0.017
-272.370	-124.678	-0.139	0.021
-271.355	373.417	-0.144	-0.290
-270.340	66.159	-0.019	-0.019
-269.326	-200.000	0.046	0.290
-268.311	206.626	-0.151	-0.232
-267.297	-82.734	-0.455	-0.146
-266.282	-92.060	-0.104	0.029
-265.267	27.299	-0.168	-0.140
-264.253	17.463	-0.088	0.069
-263.238	121.640	0.189	-0.233
-262.224	425.995	-0.028	0.061
-261.209	-68.733	0.420	-0.161
-260.195	175.731	-0.202	0.290
-259.180	-92.541	-0.133	0.037
-258.165	135.287	-0.294	0.378
-257.151	-93.509	0.490	0.134
-256.136	434.117	-0.075	-0.162
-255.122	-57.989	-0.252	0.109
-254.107	87.669	0.086	0.094
-253.092	-36.007	0.213	0.114
-252.078	90.453	-0.035	0.039
-251.063	-21.075	-0.171	0.103
-250.049	-100.731	0.351	-0.086
-249.034	-162.158	-0.402	0.020
-248.019	58.621	-0.079	-0.076
-247.005	-73.000	0.310	-0.113
-245.990	-61.484	0.109	-0.045
-244.976	-179.014	0.172	-0.004
-243.961	-168.895	-0.462	-0.017
-242.946	131.436	-0.208	0.264
-241.932	-168.665	-0.149	-0.006
-240.917	-92.912	-0.058	-0.016
-239.903	-37.827	-0.380	-0.200
-238.888	-74.879	0.282	0.100
-237.873	-200.000	-0.010	-0.094
-236.859	-71.762	-0.191	-0.071
-235.844	264.908	0.070	0.121
-234.830	-10.352	0.220	-0.144
-233.815	365.632	0.128	0.254
-232.800	-37.488	-0.183	0.097
-231.786	-200.000	0.037	0.210
-230.771	800.000	0.023	0.080
-229.757	-95.788	0.373	0.099
-228.742	155.841	0.131	0.179
-227.727	44.561	0.183	-0.166
-226.713	117.445	0.181	0.221
-225.698	87.087	0.197	-0.215
-224.684	800.000	0.042	0.119
-223.669	800.000	-0.030	0.098
-222.655	3.637	-0.133	0.096
-221.640	42.002	0.314	-0.281
-220.625	-35.504	-0.119	0.064
-219.611	-15.260	-0.371	-0.234
-218.596	-77.590	0.154	-0.053
-217.582	-10.564	0.251	0.164
-216.567	52.417	0.255	-0.241
-215.552	-152.069	-0.146	-0.010
-214.538	-84.889	0.232	0.072
-213.523	-87.589	0.157	0.047
-212.509	800.000	0.074	-0.305
-211.494	136.668	0.133	-0.171
-210.479	-119.026	-0.287	-0.050
-209.465	348.068	-0.106	-0.206
-208.450	521.657	0.110	0.255
-207.436	62.167	-0.121	-0.119
-206.421	-200.000	-0.029	-0.132
-205.406	-200.000	-0.020	0.250
-204.392	-200.000	-0.034	0.154
-203.377	-138.455	0.151	0.016
-202.363	-120.913	-0.410	-0.068
-201.348	6.107	0.125	0.092
-200.333	-173.770	0.120	-0.004
-199.319	38.511	-0.143	0.126
-198.304	-94.214	0.135	0.036
-197.290	-200.000	0.003	0.065
-196.275	130.102	-0.290	-0.366
-195.260	296.312	-0.267	0.482
-194.246	-200.000	0.005	0.054
-193.231	-172.761	0.205	-0.006
-192.217	-200.000	0.243	-0.001
-191.202	-200.000	-0.013	0.155
-190.187	-99.191	-0.145	0.036
-189.173	-200.000	0.055	0.335
-188.158	-113.898	0.152	-0.029
-187.144	-101.857	0.125	-0.030
-186.129	800.000	-0.042	-0.156
-185.114	-200.000	-0.041	-0.213
-184.100	-112.122	-0.021	-0.004
-183.085	800.000	0.062	0.211
-182.071	16.365	0.165	-0.128
-181.056	-88.344	-0.111	0.033
-180.042	-1.114	0.082	-0.057
-179.027	64.841	0.106	-0.105
-178.012	34.424	-0.174	-0.150
-176.998	-117.918	0.098	-0.017
-175.983	71.068	-0.257	0.263
-174.969	59.398	-0.144	0.140
-173.954	-184.120	-0.499	0.008
-172.939	539.943	0.205	0.481
-171.925	104.659	-0.210	0.244
-170.910	313.766	0.157	-0.292
-169.896	596.931	-0.063	-0.153
-168.881	212.737	-0.001	-0.002
-167.866	-84.247	-0.140	0.044
-166.852	799.953	-0.031	0.083
-165.837	-131.771	0.240	-0.031
-164.823	151.206	0.209	-0.280
-163.808	10.451	0.275	-0.206
-162.793	-53.863	-0.338	-0.152
-161.779	57.193	0.208	-0.200
-160.764	-200.000	-0.013	-0.113
-159.750	-121.273	0.002	-0.000
-158.735	410.453	-0.154	-0.322
-157.720	-200.000	-0.025	-0.124
-156.706	448.854	0.124	0.270
-155.691	170.654	-0.040	-0.056
-154.677	-200.000	0.014	-0.161
-153.662	221.944	-0.208	0.330
-152.647	246.523	-0.037	0.061
-151.633	553.153	0.145	0.344
-150.618	103.487	-0.071	0.082
-149.604	175.318	-0.202	-0.288
-148.589	-173.277	0.161	-0.005
-147.574	800.000	-0.065	0.194
-146.560	-71.078	0.507	-0.188
-145.545	-73.163	-0.392	0.141
-144.531	-48.940	-0.258	-0.122
-143.516	-76.632	-0.260	0.090
-142.502	303.237	-0.093	-0.170
-141.487	-200.000	-0.040	0.209
-140.472	-21.727	-0.068	0.041
-139.458	-182.563	0.298	0.005
-138.443	-200.000	0.004	-0.109
-137.429	778.890	0.011	0.030
-136.414	800.000	-0.014	-0.053
-135.399	-34.250	-0.135	-0.073
-134.385	192.386	0.203	-0.302
-133.370	800.000	-0.052	0.198
-132.356	-135.467	0.107	0.013
-131.341	29.139	0.332	-0.278
-130.326	-200.000	0.011	-0.169
-129.312	-200.000	0.047	0.365
-128.297	-146.675	-0.176	0.015
-127.283	-76.633	0.274	0.095
-126.268	246.068	0.178	-0.296
-125.253	-200.000	0.007	0.079
-124.239	171.905	0.039	-0.056
-123.224	-200.000	0.014	0.120
-122.210	-100.621	0.354	-0.086
