DTS Sentinel unit serial number:	SN413079Multiplexer serial number:	ORYXHardware model number:	OX4-SRSoftware version number:	ORYX F/W v4.00 Oryx Data Collector v3.7.2.0data status	okinstallation	princeton_trtdifferential loss correction	single-endedforward channel	channel 3reverse channel	N/Adate	2019/09/15time	10:36:35forward acquisition time	60.00reverse acquisition time	0.00gamma	496.2192k internal	0.2308k external	0.2308temperature offset calibration	0.9977default loss term (dB/km)	0.3790temperature slope calibration	1.0000multiplexer offset coefficient	1.0000multiplexer slope coefficient	1.0000fibre end	0.00T internal ref (°C)	34.25T ext. ref 1 (°C)	5.04T ext. ref 2 (°C)	29.56length (m)	temperature (°C)	Stokes	anti-Stokes-747.200	-63.386	0.120	-0.050
-746.185	-200.000	-0.004	0.138
-745.171	800.000	-0.065	-0.222
-744.156	-119.754	-0.125	0.022
-743.142	800.000	-0.102	-0.293
-742.127	246.886	-0.103	0.177
-741.112	441.516	-0.081	-0.180
-740.098	82.121	-0.208	-0.229
-739.083	-28.714	-0.171	-0.100
-738.069	43.580	0.166	0.155
-737.054	128.459	0.101	0.130
-736.039	800.000	-0.115	0.445
-735.025	487.017	0.052	0.120
-734.010	-200.000	-0.042	0.357
-732.996	241.081	-0.091	0.155
-731.981	800.000	-0.018	0.073
-730.966	-148.515	-0.139	-0.012
-729.952	108.593	-0.250	-0.303
-728.937	-80.691	-0.308	-0.104
-727.923	161.156	-0.102	0.145
-726.908	764.395	0.057	-0.157
-725.894	-135.114	-0.063	-0.008
-724.879	-7.722	0.334	-0.229
-723.864	-104.052	0.154	-0.037
-722.850	-27.081	-0.180	-0.107
-721.835	383.316	-0.239	-0.500
-720.821	133.871	0.160	-0.210
-719.806	199.479	0.062	0.097
-718.791	-88.998	0.133	0.040
-717.777	167.585	-0.114	-0.165
-716.762	-200.000	-0.038	-0.234
-715.748	-200.000	0.019	0.089
-714.733	441.091	0.109	-0.243
-713.718	122.092	-0.062	0.079
-712.704	800.000	-0.072	0.240
-711.689	-200.000	0.067	-0.487
-710.675	128.428	-0.134	-0.173
-709.660	800.000	-0.112	-0.377
-708.645	-200.000	-0.061	0.276
-707.631	271.969	-0.055	-0.099
-706.616	149.926	-0.237	0.326
-705.602	-200.000	0.001	0.116
-704.587	-141.701	0.250	0.025
-703.572	800.000	0.042	-0.136
-702.558	382.837	0.071	0.148
-701.543	263.447	0.118	-0.209
-700.529	-2.231	-0.091	-0.065
-699.514	-47.757	-0.135	0.066
-698.499	-200.000	-0.038	0.234
-697.485	800.000	-0.130	-0.382
-696.470	34.535	0.048	-0.042
-695.456	45.471	0.185	0.173
-694.441	800.000	0.081	-0.290
-693.426	444.618	0.092	0.206
-692.412	-56.661	-0.218	-0.098
-691.397	636.768	0.083	0.215
-690.383	145.763	0.049	0.066
-689.368	506.420	0.275	-0.646
-688.354	79.305	0.213	0.232
-687.339	67.600	0.242	-0.251
-686.324	-200.000	0.030	-0.166
-685.310	16.870	-0.179	-0.144
-684.295	-82.792	-0.231	-0.076
-683.281	-70.031	-0.401	-0.155
-682.266	800.000	-0.117	-0.350
-681.251	445.822	0.094	0.209
-680.237	177.592	0.146	0.216
-679.222	-85.767	-0.259	0.081
-678.208	-165.396	0.109	-0.005
-677.193	-36.675	-0.251	-0.137
-676.178	132.736	0.101	0.132
-675.164	-51.656	-0.163	0.077
-674.149	-200.000	-0.008	-0.106
-673.135	86.642	-0.123	-0.137
-672.120	153.830	0.113	0.157
-671.105	-70.709	-0.341	0.131
-670.091	-102.975	0.242	-0.058
-669.076	518.824	0.133	-0.316
-668.062	516.678	-0.128	-0.304
-667.047	-84.308	0.200	-0.064
-666.032	-132.093	0.136	-0.018
-665.018	800.000	0.082	-0.238
-664.003	258.735	-0.056	-0.098
-662.989	338.935	0.108	0.213
-661.974	800.000	-0.100	-0.293
-660.959	25.154	-0.097	-0.081
-659.945	83.377	0.104	0.115
-658.930	340.818	0.082	0.163
-657.916	52.869	-0.175	0.170
-656.901	350.948	0.135	0.271
-655.886	-200.000	0.054	-0.293
-654.872	-66.937	-0.368	0.147
-653.857	-95.636	0.212	0.058
-652.843	-51.262	-0.555	-0.263
-651.828	-10.246	0.130	0.088
-650.814	-90.234	0.238	0.070
-649.799	178.833	0.140	0.207
-648.784	-68.415	-0.199	-0.078
-647.770	44.703	-0.170	0.159
-646.755	-68.448	0.191	0.075
-645.741	-125.472	0.276	0.043
-644.726	194.964	0.134	0.206
-643.711	84.240	-0.056	-0.062
-642.697	-200.000	-0.026	-0.213
-641.682	-48.025	0.432	-0.212
-640.668	193.810	0.169	0.260
-639.653	-98.279	-0.102	-0.027
-638.638	42.917	-0.341	-0.315
-637.624	800.000	-0.019	0.059
-636.609	-200.000	0.066	-0.314
-635.595	-54.865	0.084	0.038
-634.580	-61.660	0.191	0.081
-633.565	86.914	-0.071	0.079
-632.551	-153.368	-0.220	0.015
-631.536	70.047	-0.025	-0.026
-630.522	737.974	0.060	-0.163
-629.507	-99.868	0.196	0.050
-628.492	-113.940	0.191	-0.038
-627.478	-110.964	0.373	0.078
-626.463	-12.728	0.025	0.016
-625.449	-0.656	-0.214	-0.153
-624.434	-75.865	0.062	-0.022
-623.419	-200.000	0.037	-0.280
-622.405	601.157	-0.127	-0.319
-621.390	-29.752	-0.174	-0.100
-620.376	-200.000	-0.013	-0.269
-619.361	-200.000	-0.029	0.162
-618.346	180.708	0.065	0.096
-617.332	145.119	0.034	0.046
-616.317	-38.409	-0.197	-0.106
-615.303	8.075	-0.194	0.147
-614.288	-74.940	0.157	-0.057
-613.273	800.000	-0.086	-0.271
-612.259	151.919	-0.179	-0.247
-611.244	-22.766	0.110	0.067
-610.230	181.721	0.106	-0.158
-609.215	-74.967	0.148	0.054
-608.201	91.066	-0.250	0.283
-607.186	83.627	0.056	0.062
-606.171	232.141	-0.119	-0.198
-605.157	-15.161	-0.102	0.066
-604.142	-92.283	0.217	0.062
-603.128	91.128	-0.041	-0.047
-602.113	572.844	0.165	0.406
-601.098	-200.000	0.038	-0.171
-600.084	-11.370	0.104	-0.069
-599.069	242.207	-0.030	0.051
-598.055	758.931	0.084	-0.229
-597.040	-200.000	-0.038	-0.357
-596.025	11.621	-0.465	0.360
-595.011	-84.027	0.124	-0.040
-593.996	-146.481	-0.159	0.014
-592.982	56.388	0.340	-0.334
-591.967	10.340	-0.227	-0.175
-590.952	-14.777	-0.265	0.172
-589.938	800.000	0.044	-0.142
-588.923	-131.249	0.153	-0.021
-587.909	11.919	0.225	0.174
-586.894	68.772	-0.109	0.113
-585.879	74.077	-0.164	-0.174
-584.865	-157.923	0.183	-0.011
-583.850	633.738	-0.079	-0.201
-582.836	-38.013	-0.069	-0.037
-581.821	800.000	0.034	-0.124
-580.806	800.000	-0.037	-0.103
-579.792	-8.801	-0.254	0.172
-578.777	239.214	0.055	-0.092
-577.763	200.010	-0.162	-0.252
-576.748	356.799	-0.094	0.189
-575.733	-200.000	-0.002	-0.038
-574.719	-200.000	0.036	-0.227
-573.704	-200.000	0.004	-0.438
-572.690	-129.962	-0.390	0.054
-571.675	-200.000	-0.011	-0.089
-570.661	221.227	-0.176	-0.285
-569.646	-167.148	0.345	0.014
-568.631	80.739	-0.073	-0.079
-567.617	490.665	-0.044	0.101
-566.602	217.977	0.088	-0.142
-565.588	-200.000	-0.025	-0.146
-564.573	800.000	-0.057	0.241
-563.558	-200.000	0.014	0.219
-562.544	-152.649	-0.218	0.016
-561.529	-94.480	0.072	0.020
-560.515	-200.000	-0.020	0.281
-559.500	-142.240	-0.037	0.004
-558.485	-200.000	-0.051	0.332
-557.471	6.219	-0.240	0.180
-556.456	77.779	0.122	-0.131
-555.442	-78.604	0.116	0.040
-554.427	61.652	-0.217	-0.218
-553.412	22.394	-0.233	-0.192
-552.398	52.985	-0.214	0.206
-551.383	-106.706	0.222	-0.050
-550.369	-92.990	0.135	0.038
-549.354	214.966	-0.163	-0.261
-548.339	-65.354	-0.178	0.072
-547.325	31.989	0.052	0.045
-546.310	5.582	0.099	0.074
-545.296	-111.485	-0.308	0.063
-544.281	-152.740	0.175	0.013
-543.266	-53.363	0.212	0.098
-542.252	47.384	0.277	-0.261
-541.237	-145.108	0.178	-0.016
-540.223	-40.280	0.114	0.060
-539.208	-200.000	-0.061	-0.370
-538.193	-111.640	0.325	-0.066
-537.179	209.461	-0.232	0.367
-536.164	554.742	-0.080	-0.195
-535.150	161.961	-0.089	-0.126
-534.135	-30.980	0.112	0.063
-533.121	26.957	-0.232	-0.196
-532.106	-23.603	0.221	0.134
-531.091	800.000	-0.057	-0.196
-530.077	-147.494	-0.313	0.027
-529.062	-87.197	0.076	0.023
-528.048	-130.224	0.203	-0.028
-527.033	-44.414	-0.135	0.068
-526.018	800.000	0.020	0.063
-525.004	-86.270	-0.407	-0.126
-523.989	454.561	0.086	-0.192
-522.975	113.555	-0.152	-0.186
-521.960	264.301	-0.074	0.130
-520.945	-19.519	-0.240	-0.150
-519.931	-200.000	-0.009	0.104
-518.916	612.121	0.063	-0.158
-517.902	-111.453	-0.042	0.009
-516.887	800.000	-0.067	-0.218
-515.872	-31.827	0.250	-0.141
-514.858	-26.267	0.299	-0.177
-513.843	800.000	0.049	-0.179
-512.829	800.000	0.027	-0.092
-511.814	131.605	-0.110	0.142
-510.799	-143.155	0.103	0.010
-509.785	-165.720	0.138	0.006
-508.770	800.000	-0.011	-0.033
-507.756	65.010	-0.114	-0.116
-506.741	72.444	0.158	0.166
-505.726	529.403	0.048	0.114
-504.712	-200.000	-0.041	0.389
-503.697	800.000	-0.111	-0.459
-502.683	102.077	-0.081	-0.095
-501.668	-107.901	0.293	-0.064
-500.653	-3.734	-0.393	0.275
-499.639	47.959	-0.077	-0.072
-498.624	-183.847	0.219	0.004
-497.610	-135.808	-0.306	0.036
-496.595	140.513	0.217	0.288
-495.581	70.499	-0.092	0.096
-494.566	-50.645	-0.166	0.079
-493.551	-30.718	-0.528	0.301
-492.537	-149.096	0.384	-0.031
-491.522	-101.763	0.012	0.003
-490.508	173.788	-0.121	-0.176
-489.493	-87.028	0.195	0.060
-488.478	140.693	0.060	0.080
-487.464	565.580	-0.121	0.295
-486.449	612.840	0.026	-0.065
-485.435	-86.148	0.098	0.031
-484.420	-47.155	0.269	0.132
-483.405	61.960	-0.069	0.069
-482.391	-101.931	-0.212	-0.052
-481.376	800.000	-0.122	-0.379
-480.362	800.000	0.108	0.318
-479.347	800.000	0.066	-0.250
-478.332	800.000	0.076	0.272
-477.318	-123.616	-0.226	0.036
-476.303	486.600	0.086	0.198
-475.289	86.388	0.032	0.036
-474.274	-92.024	-0.293	0.083
-473.259	-24.030	-0.247	-0.148
-472.245	-16.936	-0.159	0.101
-471.230	-200.000	-0.036	0.287
-470.216	633.209	0.137	0.348
-469.201	34.711	-0.150	-0.132
-468.186	800.000	0.065	0.243
-467.172	7.754	0.063	-0.047
-466.157	-200.000	-0.081	-0.395
-465.143	-57.966	0.191	-0.084
-464.128	800.000	-0.104	-0.290
-463.113	-106.060	-0.346	0.078
-462.099	-23.260	0.234	0.142
-461.084	-200.000	0.072	0.483
-460.070	-25.179	0.092	-0.055
-459.055	561.228	-0.044	-0.108
-458.040	-175.349	0.198	-0.005
-457.026	-200.000	0.018	-0.204
-456.011	-33.240	-0.052	0.029
-454.997	16.855	-0.293	-0.233
-453.982	-200.000	0.011	0.157
-452.968	-26.303	0.207	-0.122
-451.953	-30.308	-0.321	-0.183
-450.938	-48.753	-0.296	-0.143
-449.924	-103.356	0.254	-0.060
-448.909	-200.000	0.012	-0.146
-447.895	-200.000	-0.023	-0.189
-446.880	-200.000	0.046	0.252
-445.865	-86.023	-0.287	-0.089
-444.851	-200.000	0.063	-0.313
-443.836	800.000	-0.044	-0.168
-442.822	-92.000	0.347	0.099
-441.807	739.200	-0.079	-0.214
-440.792	-34.524	-0.013	0.007
-439.778	-45.567	0.076	0.038
-438.763	-200.000	-0.040	0.179
-437.749	-96.415	0.182	-0.048
-436.734	341.055	-0.179	0.351
-435.719	-200.000	-0.004	0.136
-434.705	-200.000	-0.018	0.268
-433.690	55.377	-0.115	0.111
-432.676	202.527	-0.069	0.106
-431.661	207.756	0.102	0.160
-430.646	-200.000	-0.056	-0.247
-429.632	-127.493	0.126	-0.018
-428.617	-192.238	-0.304	-0.003
-427.603	-200.000	0.037	0.227
-426.588	108.948	0.160	-0.193
-425.573	-200.000	0.000	0.044
-424.559	409.498	0.095	-0.201
-423.544	-81.648	0.233	0.077
-422.530	-92.026	-0.359	0.102
-421.515	-200.000	0.049	-0.499
-420.500	-171.928	0.148	0.005
-419.486	800.000	0.033	-0.117
-418.471	800.000	0.042	0.141
-417.457	-200.000	-0.010	0.071
-416.442	-200.000	-0.002	0.219
-415.428	512.737	0.075	0.176
-414.413	118.210	-0.067	0.083
-413.398	616.756	-0.095	-0.240
-412.384	800.000	-0.026	-0.092
-411.369	66.213	-0.072	0.074
-410.355	38.652	-0.143	0.128
-409.340	265.215	0.117	-0.204
-408.325	800.000	0.016	-0.067
-407.311	-80.002	0.166	-0.056
-406.296	443.114	-0.094	0.207
-405.282	198.731	-0.047	-0.072
-404.267	-169.182	0.206	0.008
-403.252	-200.000	0.036	-0.205
-402.238	-101.454	-0.252	-0.062
-401.223	-17.917	-0.100	0.063
-400.209	93.663	0.177	0.201
-399.194	150.330	0.239	-0.325
-398.179	-47.645	-0.190	-0.093
-397.165	-31.044	0.291	-0.165
-396.150	72.451	-0.165	-0.172
-395.136	61.886	0.153	0.153
-394.121	138.494	-0.061	0.080
-393.106	597.278	0.050	-0.125
-392.092	49.607	-0.162	-0.153
-391.077	-200.000	-0.049	0.423
-390.063	-138.639	0.155	-0.017
-389.048	-167.518	-0.138	0.006
-388.033	-130.574	-0.155	-0.021
-387.019	-200.000	-0.027	-0.203
-386.004	47.686	0.210	0.197
-384.990	151.778	-0.144	0.196
-383.975	51.142	0.258	0.246
-382.960	-8.480	0.344	0.232
-381.946	135.462	-0.101	0.131
-380.931	-176.949	-0.236	0.006
-379.917	15.948	0.110	0.087
-378.902	800.000	-0.002	0.007
-377.888	-101.242	-0.262	-0.064
-376.873	613.769	-0.121	0.304
-375.858	-9.797	0.167	0.112
-374.844	282.935	-0.141	-0.254
-373.829	61.239	0.275	-0.274
-372.815	337.929	-0.087	0.169
-371.800	28.386	-0.089	0.075
-370.785	-119.574	0.186	-0.032
-369.771	800.000	-0.112	-0.444
-368.756	294.156	-0.167	0.306
-367.742	800.000	0.061	0.172
-366.727	-200.000	-0.052	0.424
-365.712	30.270	0.100	-0.085
-364.698	-32.372	-0.087	0.049
-363.683	800.000	-0.129	0.370
-362.669	507.208	-0.027	0.063
-361.654	-144.041	0.050	0.005
-360.639	145.880	0.102	0.137
-359.625	47.004	0.165	0.154
-358.610	271.467	-0.149	0.262
-357.596	-200.000	-0.025	-0.168
-356.581	45.548	-0.418	-0.387
-355.566	-102.567	-0.211	0.051
-354.552	-48.618	0.223	-0.107
-353.537	255.713	0.027	-0.046
-352.523	-114.136	0.112	0.022
-351.508	-93.901	0.215	0.059
-350.493	-87.367	0.173	0.053
-349.479	-53.936	-0.181	-0.082
-348.464	-108.087	0.056	0.012
-347.450	-143.407	-0.199	0.019
-346.435	358.091	-0.094	-0.188
-345.420	-123.839	-0.235	-0.037
-344.406	309.034	0.134	0.250
-343.391	-64.494	-0.123	-0.050
-342.377	386.667	-0.026	-0.054
-341.362	-72.268	0.124	0.046
-340.348	-200.000	0.013	0.336
-339.333	530.590	0.153	0.362
-338.318	557.589	-0.047	0.114
-337.304	-77.656	-0.184	-0.064
-336.289	-96.189	0.318	0.084
-335.275	-200.000	-0.003	-0.292
-334.260	-200.000	-0.029	0.206
-333.245	72.842	-0.121	-0.127
-332.231	-7.261	0.288	0.195
-331.216	-123.377	0.232	-0.037
-330.202	137.511	0.163	0.213
-329.187	78.450	-0.302	0.322
-328.172	-200.000	-0.021	0.193
-327.158	-200.000	-0.013	-0.211
-326.143	-133.131	-0.313	-0.040
-325.129	257.983	0.040	0.068
-324.114	230.875	0.097	-0.158
-323.099	-123.197	0.105	-0.017
-322.085	582.733	0.048	0.117
-321.070	8.978	0.121	0.092
-320.056	393.805	0.068	-0.143
-319.041	25.234	-0.154	0.128
-318.026	184.776	-0.040	0.060
-317.012	-117.564	0.186	0.034
-315.997	8.262	-0.337	-0.253
-314.983	496.419	-0.059	-0.135
-313.968	-200.000	0.050	-0.314
-312.953	192.200	0.041	-0.062
-311.939	-200.000	-0.030	-0.142
-310.924	63.590	0.072	-0.072
-309.910	143.253	-0.083	-0.110
-308.895	106.034	0.161	0.190
-307.880	-49.444	0.251	-0.119
-306.866	-49.371	0.332	-0.159
-305.851	-200.000	0.112	0.587
-304.837	-26.367	0.257	0.151
-303.822	636.415	-0.118	0.300
-302.807	86.945	-0.114	-0.126
-301.793	-200.000	0.012	-0.379
-300.778	224.075	-0.105	-0.169
-299.764	-60.781	-0.346	0.147
-298.749	-134.094	-0.106	-0.013
-297.735	-100.709	-0.134	0.033
-296.720	-2.480	0.143	0.100
-295.705	-193.119	-0.181	-0.002
-294.691	18.993	-0.167	-0.133
-293.676	-39.547	0.198	-0.103
-292.662	86.280	-0.058	0.064
-291.647	800.000	0.044	-0.184
-290.632	192.251	-0.305	-0.459
-289.618	118.003	0.179	0.220
-288.603	63.808	0.240	0.241
-287.589	86.906	-0.218	-0.240
-286.574	-35.062	0.288	-0.157
-285.559	548.489	-0.123	0.293
-284.545	-102.061	-0.369	-0.089
-283.530	-81.637	0.267	-0.088
-282.516	392.493	0.052	0.108
-281.501	-176.055	-0.309	-0.008
-280.486	236.067	0.103	-0.170
-279.472	-54.162	0.189	0.086
-278.457	-42.175	-0.257	0.131
-277.443	397.517	0.061	-0.127
-276.428	-88.343	-0.200	-0.060
-275.413	212.049	0.060	0.095
-274.399	120.244	0.184	-0.228
-273.384	-93.283	-0.274	-0.076
-272.370	-121.639	-0.136	0.022
-271.355	284.741	-0.090	0.162
-270.340	217.678	0.019	0.030
-269.326	800.000	0.078	-0.295
-268.311	274.300	0.073	-0.128
-267.297	-16.628	0.380	-0.240
-266.282	2.358	0.176	-0.127
-265.267	327.728	0.149	-0.286
-264.253	-175.713	-0.042	-0.001
-263.238	37.378	0.072	0.063
-262.224	-200.000	0.054	0.300
-261.209	698.997	0.096	-0.253
-260.195	-200.000	-0.003	-0.090
-259.180	13.545	-0.081	0.063
-258.165	-94.602	0.148	-0.040
-257.151	401.348	-0.183	-0.383
-256.136	10.787	0.352	-0.268
-255.122	82.101	0.150	0.163
-254.107	24.925	0.246	-0.203
-253.092	-74.920	-0.243	-0.087
-252.078	99.893	0.075	-0.087
-251.063	74.505	0.131	-0.138
-250.049	-51.073	-0.088	0.041
-249.034	41.189	0.108	0.097
-248.019	209.017	-0.060	-0.094
-247.005	79.111	-0.124	-0.133
-245.990	-131.117	0.460	-0.061
-244.976	42.736	0.268	0.243
-243.961	-120.301	-0.096	0.016
-242.946	-83.918	-0.143	0.045
-241.932	-121.177	-0.135	0.022
-240.917	-111.788	0.084	0.017
-239.903	261.864	-0.082	-0.142
-238.888	-48.678	0.125	0.060
-237.873	337.943	0.244	0.472
-236.859	-90.591	-0.138	0.040
-235.844	-200.000	0.008	0.350
-234.830	-200.000	-0.003	0.082
-233.815	-200.000	0.020	0.290
-232.800	17.089	0.128	0.101
-231.786	-72.801	-0.178	0.065
-230.771	-54.331	-0.198	0.089
-229.757	285.634	0.029	0.053
-228.742	557.035	-0.156	0.375
-227.727	-153.150	-0.143	0.010
-226.713	231.325	-0.057	0.093
-225.698	133.993	-0.106	-0.136
-224.684	375.910	-0.080	0.162
-223.669	-166.572	-0.123	0.005
-222.655	15.721	0.160	0.126
-221.640	381.317	0.006	-0.012
-220.625	127.366	0.147	0.186
-219.611	-40.162	0.219	0.113
-218.596	800.000	0.048	0.187
-217.582	800.000	-0.031	0.106
-216.567	-97.719	-0.294	-0.076
-215.552	-70.795	0.380	0.143
-214.538	-200.000	-0.001	0.082
-213.523	169.539	0.236	-0.335
-212.509	29.961	-0.367	-0.312
-211.494	134.361	0.195	0.252
-210.479	201.726	-0.090	0.137
-209.465	0.736	-0.041	0.029
-208.450	520.965	-0.044	-0.103
-207.436	-6.857	-0.070	0.047
-206.421	-200.000	-0.056	-0.343
-205.406	17.557	0.167	-0.132
-204.392	-63.289	0.098	0.040
-203.377	-21.965	-0.075	-0.045
-202.363	-20.610	-0.345	-0.211
-201.348	-189.252	-0.132	0.002
-200.333	652.945	0.134	0.341
-199.319	68.080	0.189	0.192
-198.304	-79.366	0.345	-0.116
-197.290	147.096	0.137	-0.183
-196.275	-129.421	0.212	0.029
-195.260	91.672	-0.051	-0.057
-194.246	-200.000	0.057	0.417
-193.231	176.185	0.082	-0.118
-192.217	0.040	0.256	-0.182
-191.202	-200.000	0.014	-0.142
-190.187	75.481	-0.350	0.368
-189.173	92.847	0.026	0.029
-188.158	510.016	-0.025	0.058
-187.144	10.245	-0.378	0.286
-186.129	-43.646	0.159	0.080
-185.114	-91.656	-0.093	-0.026
-184.100	-171.400	0.285	-0.009
-183.085	-70.916	0.211	0.079
-182.071	15.871	-0.139	-0.109
-181.056	154.931	-0.012	-0.016
-180.042	24.666	0.276	-0.227
-179.027	-113.273	0.150	0.029
-178.012	408.650	-0.041	-0.087
-176.998	411.906	0.037	-0.078
-175.983	-70.238	-0.153	-0.058
-174.969	-200.000	-0.009	-0.165
-173.954	-51.908	-0.090	-0.041
-172.939	27.059	-0.192	0.160
-171.925	29.061	-0.080	-0.067
-170.910	-89.892	-0.233	0.068
-169.896	-179.000	0.087	0.002
-168.881	-95.570	0.277	-0.074
-167.866	800.000	-0.086	0.247
-166.852	-108.943	-0.096	0.020
-165.837	358.032	0.092	0.182
-164.823	-200.000	-0.026	0.174
-163.808	-173.912	0.308	-0.009
-162.793	184.518	0.147	-0.217
-161.779	25.505	0.319	0.263
-160.764	-54.326	-0.133	0.060
-159.750	675.770	-0.042	0.108
-158.735	-149.051	-0.457	0.036
-157.720	202.067	0.019	0.029
-156.706	6.242	-0.232	-0.171
-155.691	-200.000	0.055	-0.323
-154.677	11.942	0.257	0.196
-153.662	-148.262	-0.332	-0.027
-152.647	198.734	0.216	0.328
-151.633	-112.232	0.220	0.044
-150.618	437.025	-0.117	0.253
-149.604	-14.672	-0.133	0.085
-148.589	-130.394	-0.303	0.041
-147.574	16.271	0.357	-0.280
-146.560	800.000	-0.070	-0.205
-145.545	164.556	0.251	-0.351
-144.531	-126.344	-0.131	-0.019
-143.516	30.407	0.143	-0.122
-142.502	357.427	0.064	0.126
-141.487	-200.000	0.020	0.189
-140.472	-160.778	0.261	-0.014
-139.458	81.563	0.157	0.169
-138.443	-20.758	0.334	0.203
-137.429	323.891	0.066	0.125
-136.414	-149.318	0.157	-0.012
-135.399	-128.956	-0.221	-0.031
-134.385	437.303	-0.011	0.024
-133.370	-113.609	-0.054	0.011
-132.356	-36.121	-0.307	0.164
-131.341	-200.000	0.020	-0.091
-130.326	-77.417	-0.286	0.099
-129.312	65.556	-0.037	0.037
-128.297	-150.029	0.045	0.003
-127.283	800.000	0.065	-0.228
-126.268	159.361	-0.081	-0.112
-125.253	-137.452	-0.139	-0.016
-124.239	375.102	-0.069	0.139
-123.224	7.092	0.139	0.103
-122.210	48.853	0.162	-0.151
-121.195	562.771	-0.112	0.268
-120.180	-200.000	-0.028	0.253
