DTS Sentinel unit serial number:	SN413079Multiplexer serial number:	ORYXHardware model number:	OX4-SRSoftware version number:	ORYX F/W v4.00 Oryx Data Collector v3.7.2.0data status	okinstallation	princeton_trtdifferential loss correction	single-endedforward channel	channel 3reverse channel	N/Adate	2019/09/16time	12:44:34forward acquisition time	60.00reverse acquisition time	0.00gamma	496.2192k internal	0.2295k external	0.2295temperature offset calibration	0.9945default loss term (dB/km)	0.3790temperature slope calibration	1.0000multiplexer offset coefficient	1.0000multiplexer slope coefficient	1.0000fibre end	0.00T internal ref (°C)	40.12T ext. ref 1 (°C)	13.47T ext. ref 2 (°C)	37.27length (m)	temperature (°C)	Stokes	anti-Stokes-747.200	-200.000	0.044	-0.269
-746.185	257.842	-0.065	0.114
-745.171	-138.372	0.280	0.032
-744.156	230.152	-0.080	-0.134
-743.142	13.219	0.078	0.062
-742.127	138.937	0.207	0.278
-741.112	27.435	-0.045	0.039
-740.098	-76.165	0.191	0.069
-739.083	301.606	0.138	0.261
-738.069	94.901	-0.108	0.126
-737.054	-139.783	-0.231	0.025
-736.039	-43.778	0.206	0.106
-735.025	566.502	-0.165	0.409
-734.010	44.927	-0.198	0.186
-732.996	-0.008	-0.297	0.216
-731.981	-200.000	-0.025	0.290
-730.966	-78.527	0.247	0.086
-729.952	-57.358	0.240	-0.108
-728.937	-200.000	0.038	-0.287
-727.923	-200.000	0.010	0.091
-726.908	22.748	0.177	-0.148
-725.894	-200.000	0.045	-0.224
-724.879	800.000	-0.028	0.079
-723.864	164.491	0.147	0.212
-722.850	61.993	-0.165	0.168
-721.835	26.538	-0.105	0.090
-720.821	-200.000	-0.007	-0.096
-719.806	-170.489	-0.172	-0.006
-718.791	-46.365	0.395	-0.198
-717.777	53.207	-0.240	-0.235
-716.762	-140.146	0.145	-0.016
-715.748	-25.332	-0.220	-0.133
-714.733	-200.000	-0.012	-0.171
-713.718	-200.000	-0.034	0.171
-712.704	337.560	-0.149	-0.296
-711.689	244.931	-0.131	0.225
-710.675	-127.890	-0.157	0.023
-709.660	162.903	-0.136	0.195
-708.645	-200.000	0.022	0.269
-707.631	585.212	-0.066	0.165
-706.616	-27.591	0.280	0.166
-705.602	800.000	-0.127	-0.456
-704.587	333.548	-0.035	0.069
-703.572	-200.000	-0.009	0.250
-702.558	-90.451	0.062	0.018
-701.543	219.663	-0.233	0.380
-700.529	87.805	0.222	0.251
-699.514	800.000	-0.042	0.122
-698.499	800.000	0.075	-0.316
-697.485	-53.844	-0.274	0.127
-696.470	-71.064	0.241	0.092
-695.456	148.159	0.206	-0.283
-694.441	-32.857	-0.182	0.103
-693.426	-157.745	-0.100	0.006
-692.412	-101.787	0.375	-0.093
-691.397	-153.128	0.053	0.004
-690.383	-200.000	-0.028	-0.152
-689.368	-98.629	-0.168	-0.044
-688.354	-71.457	0.046	0.017
-687.339	-66.110	-0.308	0.125
-686.324	-200.000	-0.063	-0.317
-685.310	-136.032	0.297	0.036
-684.295	800.000	0.050	0.164
-683.281	-170.775	0.100	0.004
-682.266	-162.405	0.310	0.016
-681.251	-145.463	0.194	0.018
-680.237	-25.007	0.026	0.016
-679.222	800.000	0.047	-0.204
-678.208	-200.000	0.006	-0.133
-677.193	304.464	-0.300	-0.568
-676.178	-200.000	0.038	0.194
-675.164	-136.737	-0.375	-0.044
-674.149	264.360	-0.127	-0.225
-673.135	-27.785	0.189	0.112
-672.120	176.791	0.065	0.096
-671.105	-22.314	-0.233	-0.144
-670.091	-102.127	-0.212	0.052
-669.076	-83.544	-0.121	-0.039
-668.062	-39.683	-0.286	0.153
-667.047	411.913	0.130	-0.281
-666.032	-200.000	0.003	0.067
-665.018	17.974	-0.167	-0.135
-664.003	178.707	0.016	-0.024
-662.989	-190.524	-0.111	-0.001
-661.974	800.000	0.092	-0.319
-660.959	92.105	-0.128	-0.147
-659.945	273.335	0.101	0.181
-658.930	-150.344	-0.085	-0.007
-657.916	-200.000	-0.010	-0.089
-656.901	-74.216	-0.204	-0.075
-655.886	513.832	-0.081	0.192
-654.872	433.352	-0.115	0.254
-653.857	266.527	-0.151	-0.268
-652.843	-86.985	-0.348	-0.108
-651.828	417.486	-0.059	0.128
-650.814	-200.000	0.048	-0.226
-649.799	484.960	0.069	-0.160
-648.784	70.379	-0.142	0.149
-647.770	222.806	-0.138	0.226
-646.755	40.312	-0.156	0.143
-645.741	-135.935	-0.287	0.034
-644.726	800.000	0.071	-0.226
-643.711	-20.522	-0.069	-0.043
-642.697	58.666	0.163	0.163
-641.682	800.000	0.018	-0.061
-640.668	-200.000	0.043	0.218
-639.653	29.010	-0.190	0.164
-638.638	-200.000	-0.024	-0.429
-637.624	-200.000	-0.033	0.268
-636.609	-200.000	0.037	-0.223
-635.595	405.997	-0.061	-0.132
-634.580	-200.000	0.028	-0.205
-633.565	-200.000	-0.048	0.483
-632.551	-37.083	-0.025	-0.014
-631.536	347.975	-0.055	-0.110
-630.522	-30.874	0.111	0.064
-629.507	-74.773	0.034	-0.012
-628.492	648.151	-0.107	-0.278
-627.478	-132.197	-0.465	0.061
-626.463	-103.904	-0.470	0.112
-625.449	-17.922	-0.210	0.134
-624.434	76.432	-0.205	0.221
-623.419	-176.013	-0.587	0.016
-622.405	-54.481	-0.081	-0.038
-621.390	577.202	-0.058	-0.143
-620.376	362.324	0.053	-0.109
-619.361	-3.879	-0.273	-0.193
-618.346	-54.327	0.265	-0.122
-617.332	-161.646	-0.187	0.010
-616.317	73.734	0.184	0.196
-615.303	-26.836	-0.228	-0.136
-614.288	-77.992	-0.415	0.145
-613.273	23.166	-0.078	0.065
-612.259	-54.640	0.134	0.061
-611.244	406.861	-0.028	0.060
-610.230	795.923	-0.089	0.250
-609.215	-116.133	0.131	0.025
-608.201	83.933	-0.031	0.035
-607.186	-73.990	0.154	-0.057
-606.171	-162.016	0.316	-0.016
-605.157	-27.826	0.098	-0.058
-604.142	-65.948	-0.061	0.025
-603.128	96.163	-0.074	-0.086
-602.113	-200.000	-0.003	-0.113
-601.098	329.999	-0.057	-0.112
-600.084	-200.000	0.006	-0.044
-599.069	-200.000	-0.006	0.045
-598.055	-200.000	0.020	0.174
-597.040	176.832	-0.076	-0.112
-596.025	-194.776	-0.285	-0.002
-595.011	-165.337	0.258	0.012
-593.996	202.345	0.059	0.093
-592.982	-11.552	-0.313	0.209
-591.967	-200.000	0.010	-0.105
-590.952	-199.814	0.110	0.001
-589.938	800.000	-0.083	-0.318
-588.923	16.463	0.155	-0.124
-587.909	36.415	-0.150	0.134
-586.894	-20.671	0.279	0.174
-585.879	-178.036	-0.207	0.005
-584.865	67.535	-0.207	0.215
-583.850	189.271	0.159	-0.242
-582.836	21.229	0.373	0.308
-581.821	1.130	0.283	0.207
-580.806	33.859	0.383	-0.339
-579.792	800.000	-0.025	0.076
-578.777	-54.952	-0.243	-0.111
-577.763	-37.220	-0.329	-0.179
-576.748	800.000	0.112	-0.450
-575.733	-69.712	0.141	-0.055
-574.719	155.505	-0.282	-0.394
-573.704	164.432	-0.083	-0.119
-572.690	-167.161	0.055	-0.002
-571.675	-50.768	0.104	0.050
-570.661	343.212	0.122	-0.243
-569.646	204.064	0.092	-0.145
-568.631	10.516	-0.228	0.177
-567.617	-89.673	-0.295	0.088
-566.602	800.000	0.099	0.286
-565.588	-102.933	-0.197	0.048
-564.573	-94.084	-0.231	-0.064
-563.558	458.603	0.027	0.062
-562.544	800.000	-0.011	0.044
-561.529	9.144	-0.177	-0.136
-560.515	398.177	0.051	0.109
-559.500	-76.626	-0.390	-0.139
-558.485	-143.207	0.199	-0.019
-557.471	-70.220	-0.194	0.075
-556.456	113.552	0.149	0.184
-555.442	-48.723	0.053	0.026
-554.427	49.200	0.027	-0.026
-553.412	263.950	0.081	-0.143
-552.398	73.259	0.255	-0.271
-551.383	-200.000	0.007	-0.167
-550.369	73.432	-0.104	0.110
-549.354	-93.695	-0.044	-0.012
-548.339	800.000	0.137	0.460
-547.325	-157.481	-0.192	0.012
-546.310	115.610	-0.125	-0.155
-545.296	-156.533	0.327	-0.021
-544.281	-70.035	0.593	-0.229
-543.266	450.484	0.081	0.181
-542.252	255.617	0.081	-0.140
-541.237	-200.000	0.015	0.134
-540.223	-200.000	-0.016	0.318
-539.208	-200.000	0.030	-0.141
-538.193	493.834	-0.119	-0.278
-537.179	243.713	-0.125	-0.213
-536.164	136.600	-0.114	0.151
-535.150	56.286	-0.268	0.264
-534.135	6.550	0.155	0.117
-533.121	70.712	0.108	0.114
-532.106	-200.000	-0.079	-0.000
-531.091	-15.037	-0.230	-0.150
-530.077	-200.000	-0.051	0.373
-529.062	-200.000	0.006	0.125
-528.048	-32.339	-0.202	-0.114
-527.033	-68.055	0.275	0.108
-526.018	-50.886	0.293	-0.139
-525.004	423.764	0.120	0.261
-523.989	-200.000	0.011	-0.257
-522.975	537.304	0.032	-0.078
-521.960	80.697	0.003	-0.003
-520.945	523.505	-0.084	-0.200
-519.931	70.679	0.110	0.116
-518.916	118.327	0.064	-0.080
-517.902	210.700	0.125	-0.199
-516.887	48.847	0.113	-0.107
-515.872	245.641	-0.009	0.016
-514.858	-200.000	0.029	0.152
-513.843	-17.007	-0.184	-0.118
-512.829	-200.000	0.015	-0.314
-511.814	-195.950	0.273	-0.002
-510.799	-200.000	0.016	-0.164
-509.785	-2.985	-0.266	-0.188
-508.770	-82.434	-0.135	-0.044
-507.756	-38.009	-0.080	0.043
-506.741	-200.000	-0.026	0.149
-505.726	800.000	0.086	0.320
-504.712	-200.000	-0.001	0.056
-503.697	176.171	-0.104	-0.153
-502.683	-200.000	-0.024	-0.256
-501.668	-75.836	0.134	-0.048
-500.653	240.618	0.047	0.079
-499.639	-72.665	0.073	0.027
-498.624	-200.000	0.001	-0.105
-497.610	161.990	0.122	-0.173
-496.595	-171.913	0.048	0.002
-495.581	396.661	0.052	-0.109
-494.566	-200.000	0.014	0.068
-493.551	-157.576	-0.413	0.025
-492.537	-169.645	0.080	0.003
-491.522	800.000	0.045	0.193
-490.508	73.770	-0.207	0.220
-489.493	-3.227	0.275	0.194
-488.478	800.000	-0.108	-0.326
-487.464	390.034	0.011	-0.022
-486.449	198.944	-0.124	0.193
-485.435	183.653	0.223	-0.333
-484.420	800.000	-0.050	-0.188
-483.405	11.116	0.074	-0.058
-482.391	96.660	-0.226	0.262
-481.376	-120.425	0.172	-0.030
-480.362	-200.000	0.041	0.378
-479.347	48.874	-0.230	-0.219
-478.332	-200.000	-0.055	-0.344
-477.318	800.000	0.030	0.129
-476.303	15.520	-0.066	0.053
-475.289	-111.235	0.217	-0.045
-474.274	608.902	-0.132	-0.333
-473.259	-121.189	0.137	0.023
-472.245	-7.588	0.128	0.087
-471.230	-54.977	-0.220	0.100
-470.216	-76.947	0.105	0.037
-469.201	-200.000	-0.020	0.176
-468.186	-200.000	0.032	0.217
-467.172	-164.890	0.249	-0.011
-466.157	-90.325	0.163	0.048
-465.143	-200.000	-0.046	-0.206
-464.128	-113.192	-0.329	-0.066
-463.113	-200.000	0.002	0.113
-462.099	-200.000	0.018	0.127
-461.084	-62.686	-0.157	-0.066
-460.070	-1.216	0.169	-0.121
-459.055	-200.000	0.020	-0.285
-458.040	-200.000	-0.015	-0.082
-457.026	-82.945	-0.156	-0.051
-456.011	-110.788	0.191	-0.040
-454.997	-74.833	-0.241	0.088
-453.982	87.395	-0.073	0.082
-452.968	-99.764	-0.467	0.118
-451.953	-87.764	-0.181	0.055
-450.938	94.114	0.097	0.111
-449.924	800.000	0.032	0.091
-448.909	-200.000	0.005	0.228
-447.895	54.188	-0.176	0.171
-446.880	-71.618	0.262	0.099
-445.865	87.649	0.153	-0.171
-444.851	19.445	-0.459	-0.373
-443.836	-200.000	0.031	0.386
-442.822	497.356	0.142	0.329
-441.807	-17.986	-0.009	-0.006
-440.792	722.856	-0.074	0.200
-439.778	274.993	0.259	0.464
-438.763	200.107	0.102	-0.158
-437.749	-9.478	-0.308	0.208
-436.734	251.777	0.087	0.150
-435.719	39.694	0.111	-0.101
-434.705	800.000	0.065	0.192
-433.690	713.038	-0.107	0.286
-432.676	-94.567	-0.328	0.090
-431.661	183.755	0.110	0.165
-430.646	800.000	0.055	-0.168
-429.632	-200.000	-0.002	0.282
-428.617	-156.033	0.227	0.015
-427.603	800.000	0.108	-0.306
-426.588	-200.000	0.015	0.148
-425.573	223.973	-0.095	-0.155
-424.559	123.882	0.127	-0.161
-423.544	674.116	0.083	-0.216
-422.530	-200.000	0.022	-0.164
-421.515	84.102	-0.157	-0.173
-420.500	-159.788	-0.345	-0.019
-419.486	-5.723	-0.163	0.113
-418.471	-200.000	-0.012	-0.136
-417.457	-200.000	-0.011	-0.173
-416.442	45.933	-0.135	-0.126
-415.428	-151.415	-0.141	-0.011
-414.413	11.814	0.211	-0.163
-413.398	42.089	0.066	-0.061
-412.384	-200.000	-0.018	-0.157
-411.369	-168.267	-0.233	-0.009
-410.355	-194.108	0.247	0.002
-409.340	-200.000	-0.008	-0.177
-408.325	-147.200	-0.205	0.018
-407.311	-4.966	-0.064	0.044
-406.296	-128.098	-0.238	0.034
-405.282	505.765	-0.030	-0.071
-404.267	186.697	0.106	-0.159
-403.252	105.365	-0.159	-0.190
-402.238	297.406	-0.140	-0.260
-401.223	799.863	0.029	0.082
-400.209	34.237	-0.184	-0.162
-399.194	-141.148	-0.278	-0.029
-398.179	-16.142	0.180	-0.116
-397.165	-55.040	-0.298	-0.135
-396.150	-38.132	0.214	0.114
-395.136	-91.034	0.273	-0.079
-394.121	800.000	-0.048	-0.169
-393.106	-75.259	0.252	0.091
-392.092	-200.000	-0.007	0.165
-391.077	-7.602	0.159	0.109
-390.063	800.000	-0.083	-0.241
-389.048	-133.323	0.356	-0.045
-388.033	800.000	-0.122	-0.352
-387.019	-26.615	-0.168	-0.099
-386.004	-129.633	0.218	0.030
-384.990	121.030	0.228	-0.286
-383.975	171.045	0.148	-0.214
-382.960	-184.730	-0.205	-0.003
-381.946	241.831	0.079	0.134
-380.931	688.484	-0.119	0.313
-379.917	-65.741	0.168	-0.068
-378.902	-84.114	-0.325	0.104
-377.888	800.000	-0.137	-0.434
-376.873	126.215	-0.138	-0.176
-375.858	-85.893	0.200	0.062
-374.844	800.000	-0.006	-0.016
-373.829	-70.485	-0.245	-0.093
-372.815	365.412	0.162	0.329
-371.800	-116.373	-0.060	0.011
-370.785	-200.000	0.072	0.396
-369.771	-11.645	-0.036	0.024
-368.756	-122.341	-0.172	-0.028
-367.742	-19.816	0.186	0.116
-366.727	-89.048	0.282	0.084
-365.712	-200.000	-0.011	0.105
-364.698	800.000	-0.034	0.131
-363.683	-124.952	0.158	0.024
-362.669	-81.199	0.142	-0.047
-361.654	800.000	0.056	-0.176
-360.639	-143.675	-0.211	0.020
-359.625	-155.893	0.287	-0.018
-358.610	-47.104	0.307	-0.151
-357.596	20.456	-0.223	0.182
-356.581	-200.000	-0.009	0.201
-355.566	-200.000	-0.005	0.114
-354.552	-33.263	0.344	-0.192
-353.537	-200.000	-0.025	-0.205
-352.523	-0.403	0.105	-0.075
-351.508	-45.813	0.143	-0.071
-350.493	44.345	0.185	-0.171
-349.479	182.224	-0.165	0.245
-348.464	762.881	0.118	0.322
-347.450	65.867	-0.111	0.113
-346.435	-197.988	-0.180	-0.001
-345.420	68.942	-0.154	0.160
-344.406	-93.532	0.310	0.086
-343.391	214.581	-0.076	0.122
-342.377	365.724	0.024	0.049
-341.362	436.531	-0.073	0.159
-340.348	118.444	0.072	0.090
-339.333	423.451	0.192	-0.416
-338.318	234.569	-0.192	0.318
-337.304	-44.122	0.044	0.022
-336.289	800.000	-0.041	0.162
-335.275	141.394	-0.208	0.278
-334.260	-164.049	-0.066	0.003
-333.245	15.738	0.318	0.252
-332.231	800.000	-0.060	-0.221
-331.216	168.041	0.256	0.367
-330.202	-200.000	-0.030	-0.230
-329.187	81.033	0.110	-0.119
-328.172	-117.288	-0.158	0.029
-327.158	-56.763	-0.207	0.092
-326.143	280.779	-0.022	-0.039
-325.129	-131.998	-0.163	-0.021
-324.114	-72.835	0.051	-0.019
-323.099	-153.591	-0.148	-0.010
-322.085	356.342	0.186	-0.373
-321.070	-129.028	-0.244	-0.034
-320.056	-26.710	-0.043	-0.025
-319.041	-200.000	0.085	0.410
-318.026	-111.133	0.418	-0.086
-317.012	18.947	-0.140	0.113
-315.997	90.205	-0.050	0.057
-314.983	-85.740	0.418	0.130
-313.968	8.265	-0.537	-0.406
-312.953	-79.617	-0.221	0.075
-311.939	-22.943	0.218	-0.132
-310.924	6.158	-0.276	0.206
-309.910	29.898	0.190	0.163
-308.895	-177.247	-0.150	-0.004
-307.880	-200.000	0.037	-0.229
-306.866	408.365	0.044	-0.093
-305.851	225.961	-0.120	-0.195
-304.837	40.424	0.158	0.143
-303.822	-200.000	-0.014	-0.088
-302.807	611.671	0.118	0.297
-301.793	-101.930	-0.312	-0.076
-300.778	-74.160	0.217	-0.079
-299.764	-154.469	-0.137	-0.009
-298.749	434.029	-0.095	-0.206
-297.735	495.141	-0.032	0.074
-296.720	-9.454	0.070	-0.047
-295.705	-200.000	0.066	0.347
-294.691	-42.780	-0.118	-0.060
-293.676	574.295	0.056	-0.138
-292.662	67.742	0.102	0.104
-291.647	800.000	-0.042	0.119
-290.632	-136.885	0.540	-0.062
-289.618	465.367	0.065	-0.147
-288.603	-200.000	0.004	0.104
-287.589	105.389	0.116	0.138
-286.574	-200.000	-0.042	0.340
-285.559	-159.683	-0.376	0.021
-284.545	-19.336	0.157	-0.098
-283.530	800.000	-0.039	0.161
-282.516	-200.000	-0.124	0.555
-281.501	182.496	0.073	-0.109
-280.486	-50.082	0.177	-0.084
-279.472	800.000	-0.062	-0.237
-278.457	-6.011	-0.244	-0.167
-277.443	10.739	0.326	0.249
-276.428	800.000	-0.022	0.084
-275.413	586.705	-0.161	-0.398
-274.399	-68.010	0.343	-0.134
-273.384	-25.551	0.123	0.073
-272.370	-65.498	-0.364	0.147
-271.355	-172.344	-0.050	0.002
-270.340	13.145	0.125	-0.097
-269.326	477.821	0.123	-0.280
-268.311	-200.000	0.006	-0.342
-267.297	-113.280	-0.156	-0.031
-266.282	277.844	0.082	-0.146
-265.267	-25.802	-0.174	0.103
-264.253	3.647	0.118	-0.086
-263.238	800.000	0.138	0.501
-262.224	-200.000	0.060	0.410
-261.209	-200.000	-0.036	0.373
-260.195	10.300	0.086	-0.066
-259.180	-52.671	0.205	0.095
-258.165	-119.743	0.288	-0.050
-257.151	-200.000	-0.002	-0.074
-256.136	-135.197	0.041	-0.005
-255.122	800.000	-0.019	-0.066
-254.107	217.573	-0.059	-0.094
-253.092	800.000	0.082	0.258
-252.078	-44.607	0.135	0.068
-251.063	-146.073	0.252	-0.022
-250.049	-200.000	0.001	0.122
-249.034	90.312	0.181	-0.203
-248.019	57.151	-0.306	-0.299
-247.005	-150.112	0.099	0.008
-245.990	-200.000	0.017	0.156
-244.976	-62.925	0.150	-0.062
-243.961	177.145	0.097	0.141
-242.946	-38.282	0.198	0.105
-241.932	540.415	-0.150	0.358
-240.917	449.595	0.030	-0.067
-239.903	-172.111	-0.146	0.005
-238.888	-64.881	0.213	-0.086
-237.873	612.769	0.058	-0.145
-236.859	800.000	0.006	-0.025
-235.844	68.263	-0.149	-0.153
-234.830	218.599	-0.077	0.124
-233.815	-38.604	0.217	-0.115
-232.800	-200.000	-0.027	-0.153
-231.786	-200.000	0.013	0.168
-230.771	19.722	0.117	0.095
-229.757	236.754	-0.090	0.149
-228.742	243.954	-0.073	0.122
-227.727	-11.955	-0.181	-0.119
-226.713	-82.747	-0.190	-0.062
-225.698	151.931	-0.163	0.222
-224.684	-96.668	0.084	0.022
-223.669	143.461	-0.057	0.076
-222.655	-158.515	-0.211	-0.012
-221.640	-200.000	0.024	0.202
-220.625	-200.000	0.051	-0.391
-219.611	-36.134	-0.096	0.052
-218.596	72.300	0.072	0.075
-217.582	-200.000	-0.024	-0.132
-216.567	-97.985	-0.021	-0.005
-215.552	800.000	0.044	0.137
-214.538	34.191	-0.057	-0.050
-213.523	-37.149	-0.341	0.183
-212.509	1.780	0.052	0.038
-211.494	202.721	0.033	-0.051
-210.479	-200.000	-0.037	0.347
-209.465	-114.755	0.205	0.039
-208.450	139.564	0.249	0.328
-207.436	30.935	-0.197	0.169
-206.421	-88.309	0.152	0.045
-205.406	149.259	-0.082	0.111
-204.392	-200.000	0.019	0.315
-203.377	107.942	-0.383	-0.457
-202.363	185.844	0.256	-0.381
-201.348	221.462	0.147	0.237
-200.333	-68.452	-0.313	0.122
-199.319	-200.000	-0.002	0.015
-198.304	-121.960	0.197	-0.033
-197.290	-190.614	-0.182	-0.002
-196.275	167.050	-0.250	-0.355
-195.260	178.412	0.172	-0.252
-194.246	193.679	-0.047	-0.072
-193.231	43.545	0.092	0.084
-192.217	-91.225	0.110	-0.031
-191.202	394.167	0.099	-0.206
-190.187	200.644	0.103	0.158
-189.173	287.590	-0.128	-0.232
-188.158	-200.000	-0.017	-0.167
-187.144	-27.186	0.465	-0.271
-186.129	-168.194	0.439	0.017
-185.114	-200.000	0.007	0.101
-184.100	385.858	-0.122	0.253
-183.085	562.832	0.096	0.233
-182.071	-102.039	-0.052	0.013
-181.056	195.379	-0.122	0.186
-180.042	-200.000	0.005	-0.142
-179.027	-20.054	0.335	-0.207
-178.012	385.030	-0.030	-0.062
-176.998	572.798	0.067	-0.162
-175.983	199.738	-0.059	-0.091
-174.969	347.571	-0.028	-0.055
-173.954	-75.337	-0.352	-0.125
-172.939	-200.000	-0.009	0.146
-171.925	800.000	-0.002	-0.007
-170.910	-0.923	0.096	-0.068
-169.896	-131.768	-0.302	0.040
-168.881	-200.000	-0.025	-0.139
-167.866	-69.224	0.433	-0.166
-166.852	73.035	0.059	-0.061
-165.837	800.000	0.029	0.118
-164.823	-41.400	-0.193	0.099
-163.808	42.888	0.183	0.167
-162.793	-56.524	0.185	-0.082
-161.779	167.284	0.159	-0.226
-160.764	751.535	0.103	-0.277
-159.750	440.925	-0.154	0.337
-158.735	800.000	-0.083	0.245
-157.720	800.000	0.024	-0.073
-156.706	-152.580	0.355	-0.025
-155.691	-98.962	0.391	-0.099
-154.677	800.000	0.046	-0.173
-153.662	92.099	0.106	0.119
-152.647	117.845	-0.156	-0.191
-151.633	-97.064	0.125	-0.033
-150.618	666.381	0.055	-0.143
-149.604	-26.290	0.118	-0.069
-148.589	107.304	0.176	0.209
-147.574	-200.000	-0.006	0.192
-146.560	664.105	-0.081	-0.208
-145.545	-11.359	0.382	0.251
-144.531	-129.866	-0.051	0.007
-143.516	-28.278	0.090	-0.052
-142.502	200.769	-0.087	-0.134
-141.487	-87.957	0.284	-0.085
-140.472	-101.655	-0.167	-0.041
-139.458	-200.000	0.021	0.181
-138.443	49.035	-0.056	0.053
-137.429	293.255	-0.083	-0.151
-136.414	493.888	0.142	0.326
-135.399	-148.257	-0.198	0.016
-134.385	800.000	-0.029	-0.099
-133.370	-51.035	0.057	0.027
-132.356	-43.405	0.200	0.101
-131.341	341.752	0.150	-0.292
-130.326	-1.604	0.065	-0.046
-129.312	-112.549	0.306	0.061
-128.297	187.760	0.143	0.214
-127.283	-45.341	-0.138	0.068
-126.268	45.785	-0.226	0.208
-125.253	-43.805	0.271	0.136
-124.239	800.000	0.129	0.414
-123.224	786.670	0.064	-0.174
-122.210	214.903	-0.114	-0.181
-121.195	-102.755	-0.214	-0.051
