DTS Sentinel unit serial number:	SN413079Multiplexer serial number:	ORYXHardware model number:	OX4-SRSoftware version number:	ORYX F/W v4.00 Oryx Data Collector v3.7.2.0data status	okinstallation	princeton_trtdifferential loss correction	single-endedforward channel	channel 3reverse channel	N/Adate	2019/09/10time	15:50:11forward acquisition time	60.00reverse acquisition time	0.00gamma	496.2192k internal	0.2298k external	0.2298temperature offset calibration	0.9909default loss term (dB/km)	0.3790temperature slope calibration	1.0000multiplexer offset coefficient	1.0000multiplexer slope coefficient	1.0000fibre end	0.00T internal ref (°C)	38.06T ext. ref 1 (°C)	-0.26T ext. ref 2 (°C)	32.74length (m)	temperature (°C)	Stokes	anti-Stokes-747.200	118.935	0.303	0.382
-746.185	-200.000	-0.067	0.320
-745.171	3.508	-0.312	0.232
-744.156	-200.000	0.040	0.239
-743.142	-168.174	0.194	0.008
-742.127	35.309	-0.079	-0.070
-741.112	280.761	0.054	0.099
-740.098	-200.000	-0.017	0.183
-739.083	109.493	0.151	0.185
-738.069	-147.980	0.351	0.030
-737.054	-66.981	0.173	-0.070
-736.039	800.000	0.056	-0.224
-735.025	-44.144	-0.191	0.098
-734.010	643.046	0.099	-0.258
-732.996	-28.536	0.138	0.081
-731.981	297.003	-0.163	-0.304
-730.966	-1.501	0.266	-0.191
-729.952	-61.138	-0.296	-0.127
-728.937	343.569	-0.130	-0.260
-727.923	800.000	0.076	-0.227
-726.908	-12.140	-0.323	-0.216
-725.894	-191.447	0.010	0.000
-724.879	-51.695	0.182	0.087
-723.864	-107.333	0.145	-0.033
-722.850	800.000	0.027	0.085
-721.835	45.123	-0.352	0.331
-720.821	69.925	-0.136	-0.143
-719.806	-43.883	-0.150	-0.077
-718.791	800.000	-0.115	-0.361
-717.777	51.626	-0.251	0.243
-716.762	800.000	0.058	0.247
-715.748	236.829	-0.015	0.025
-714.733	-200.000	-0.023	0.168
-713.718	-77.957	-0.100	-0.035
-712.704	-200.000	0.020	-0.236
-711.689	800.000	-0.041	-0.153
-710.675	800.000	-0.081	-0.295
-709.660	-200.000	0.029	-0.171
-708.645	-39.007	0.341	-0.183
-707.631	-112.252	-0.170	-0.035
-706.616	-14.148	0.202	0.133
-705.602	44.377	0.154	0.144
-704.587	800.000	0.028	-0.101
-703.572	800.000	0.097	0.307
-702.558	214.004	0.074	0.119
-701.543	-158.518	0.259	0.015
-700.529	149.232	0.153	-0.210
-699.514	144.696	0.056	0.077
-698.499	-161.358	0.289	0.015
-697.485	83.378	-0.218	0.242
-696.470	152.483	0.188	-0.261
-695.456	-164.599	0.294	0.014
-694.441	800.000	0.017	0.073
-693.426	62.968	0.075	-0.077
-692.412	-200.000	0.016	-0.141
-691.397	538.586	0.063	-0.153
-690.383	-94.184	-0.259	-0.072
-689.368	637.725	-0.165	-0.427
-688.354	-134.839	-0.116	0.014
-687.339	-84.077	0.307	0.099
-686.324	8.281	-0.170	-0.130
-685.310	239.040	-0.079	-0.133
-684.295	-147.306	0.082	0.007
-683.281	-148.930	0.176	-0.014
-682.266	294.275	-0.150	-0.279
-681.251	-200.000	0.049	-0.424
-680.237	-171.829	-0.053	0.002
-679.222	145.811	0.293	0.400
-678.208	590.405	-0.159	-0.399
-677.193	9.747	0.178	-0.138
-676.178	-87.265	0.252	-0.078
-675.164	18.176	0.240	0.195
-674.149	-132.737	0.165	-0.022
-673.135	139.783	-0.180	-0.241
-672.120	-12.532	0.143	-0.095
-671.105	28.869	0.218	-0.188
-670.091	-7.615	0.205	-0.141
-669.076	-140.973	-0.123	0.013
-668.062	11.860	-0.058	-0.045
-667.047	-138.294	0.249	-0.028
-666.032	27.486	-0.198	-0.169
-665.018	-200.000	0.001	0.068
-664.003	800.000	-0.071	-0.284
-662.989	-92.881	-0.106	0.030
-661.974	-200.000	-0.000	0.019
-660.959	-101.752	-0.324	0.080
-659.945	-200.000	-0.008	-0.281
-658.930	800.000	0.014	0.052
-657.916	-200.000	0.009	0.165
-656.901	602.840	-0.049	0.124
-655.886	259.274	-0.069	-0.121
-654.872	387.899	0.045	0.094
-653.857	-200.000	0.015	0.180
-652.843	-45.953	-0.150	-0.075
-651.828	308.692	0.178	-0.339
-650.814	347.401	0.103	0.207
-649.799	73.092	-0.140	0.149
-648.784	127.204	0.080	-0.104
-647.770	-56.075	-0.149	-0.067
-646.755	84.896	-0.341	-0.380
-645.741	-40.917	0.164	-0.086
-644.726	6.634	0.219	0.165
-643.711	748.793	-0.140	0.384
-642.697	-49.472	-0.215	-0.104
-641.682	800.000	-0.029	-0.125
-640.668	481.455	0.115	0.265
-639.653	-1.474	0.115	0.083
-638.638	100.803	-0.155	-0.183
-637.624	800.000	0.069	0.206
-636.609	31.571	0.172	-0.150
-635.595	-48.056	0.228	-0.112
-634.580	-200.000	-0.048	-0.256
-633.565	3.435	0.286	0.212
-632.551	-1.895	0.376	0.269
-631.536	-200.000	0.031	-0.237
-630.522	-113.073	-0.118	-0.024
-629.507	444.495	-0.125	-0.278
-628.492	800.000	-0.047	0.196
-627.478	-107.554	0.123	0.027
-626.463	247.194	0.133	0.228
-625.449	800.000	0.073	0.315
-624.434	-16.081	0.190	0.123
-623.419	-200.000	0.057	0.261
-622.405	251.834	0.043	0.075
-621.390	-42.079	-0.201	-0.105
-620.376	-41.560	0.216	0.113
-619.361	107.241	0.281	-0.339
-618.346	289.395	-0.065	0.120
-617.332	-23.921	0.142	0.086
-616.317	-106.946	0.076	0.017
-615.303	-49.218	0.168	0.082
-614.288	220.666	-0.124	-0.202
-613.273	800.000	-0.057	-0.211
-612.259	-12.784	0.236	-0.156
-611.244	-114.245	-0.136	-0.027
-610.230	-99.301	0.209	0.054
-609.215	-159.520	-0.205	-0.012
-608.201	98.579	-0.077	0.090
-607.186	610.630	0.118	-0.299
-606.171	195.835	-0.201	0.310
-605.157	800.000	0.066	-0.269
-604.142	800.000	0.016	0.053
-603.128	-52.869	0.244	-0.114
-602.113	800.000	-0.074	-0.289
-601.098	-32.492	0.120	0.068
-600.084	-16.198	0.271	-0.175
-599.069	-200.000	-0.013	0.222
-598.055	280.813	-0.087	0.158
-597.040	178.685	-0.088	0.131
-596.025	-107.889	0.235	-0.052
-595.011	-200.000	0.035	-0.383
-593.996	800.000	0.047	0.192
-592.982	602.017	0.078	0.196
-591.967	143.721	0.069	0.093
-590.952	-92.714	0.020	-0.006
-589.938	-200.000	-0.001	0.085
-588.923	748.913	0.092	-0.253
-587.909	-15.688	0.104	0.067
-586.894	-96.314	-0.305	0.082
-585.879	-57.473	-0.460	-0.205
-584.865	-148.069	0.171	0.014
-583.850	354.167	-0.167	-0.336
-582.836	-49.203	0.394	-0.191
-581.821	242.106	0.086	-0.145
-580.806	-160.855	0.147	-0.008
-579.792	124.561	0.126	-0.160
-578.777	72.699	-0.197	-0.209
-577.763	-200.000	-0.015	0.136
-576.748	2.030	-0.120	0.088
-575.733	35.205	-0.142	0.126
-574.719	20.230	-0.216	0.177
-573.704	-200.000	0.059	-0.389
-572.690	386.494	0.073	-0.153
-571.675	-1.497	0.248	-0.178
-570.661	120.338	-0.157	0.198
-569.646	64.625	-0.301	0.308
-568.631	-80.075	-0.106	-0.036
-567.617	238.201	-0.069	0.117
-566.602	-200.000	0.085	0.424
-565.588	800.000	-0.135	-0.402
-564.573	105.834	-0.022	-0.027
-563.558	96.794	0.018	0.021
-562.544	-200.000	0.000	0.166
-561.529	249.702	-0.239	0.412
-560.515	-200.000	0.020	0.229
-559.500	-200.000	-0.013	0.340
-558.485	232.963	0.127	-0.212
-557.471	439.431	-0.048	-0.107
-556.456	165.933	-0.094	0.134
-555.442	107.305	-0.031	-0.037
-554.427	704.522	-0.114	0.305
-553.412	-200.000	-0.006	0.533
-552.398	-62.864	-0.096	0.040
-551.383	-74.720	-0.026	0.009
-550.369	-6.164	0.483	0.334
-549.354	-64.017	0.351	-0.145
-548.339	124.520	-0.148	-0.189
-547.325	-99.700	-0.128	0.033
-546.310	-84.821	0.061	-0.019
-545.296	55.884	-0.039	-0.038
-544.281	158.847	0.211	-0.296
-543.266	-7.122	0.449	-0.309
-542.252	800.000	0.080	0.288
-541.237	703.276	-0.073	-0.195
-540.223	-139.361	-0.082	0.009
-539.208	520.306	-0.048	0.114
-538.193	-67.139	-0.183	-0.073
-537.179	-144.622	-0.133	0.012
-536.164	-198.977	-0.345	0.002
-535.150	-92.823	-0.190	0.054
-534.135	-78.448	0.264	-0.092
-533.121	-135.733	0.362	0.043
-532.106	212.472	-0.066	-0.106
-531.091	280.199	0.085	0.153
-530.077	556.200	0.075	0.184
-529.062	-66.412	-0.187	-0.075
-528.048	88.017	0.138	0.155
-527.033	-20.925	-0.202	-0.125
-526.018	800.000	-0.042	-0.150
-525.004	-68.324	0.218	0.086
-523.989	-100.523	0.310	-0.078
-522.975	-112.927	-0.280	-0.056
-521.960	-91.751	-0.070	0.020
-520.945	-101.803	0.203	0.050
-519.931	-131.845	0.193	-0.026
-518.916	-83.576	-0.035	-0.011
-517.902	-28.714	0.192	-0.112
-516.887	-200.000	-0.022	-0.186
-515.872	-200.000	0.034	0.158
-514.858	697.533	0.138	0.368
-513.843	-28.651	-0.070	0.041
-512.829	-18.749	-0.305	-0.192
-511.814	797.379	-0.032	-0.089
-510.799	137.441	-0.158	0.210
-509.785	-200.000	0.009	0.163
-508.770	-167.032	-0.071	0.003
-507.756	-116.475	-0.197	-0.037
-506.741	57.400	0.058	-0.058
-505.726	-143.044	-0.073	0.007
-504.712	-52.809	-0.312	0.146
-503.697	-152.871	-0.159	0.011
-502.683	-38.845	0.169	-0.090
-501.668	-105.324	-0.285	0.066
-500.653	-34.633	0.264	0.146
-499.639	-150.376	0.254	-0.020
-498.624	-33.193	0.386	-0.216
-497.610	-150.204	0.144	0.011
-496.595	81.763	0.132	-0.144
-495.581	800.000	-0.035	0.145
-494.566	37.839	-0.062	-0.056
-493.551	-164.187	-0.254	0.012
-492.537	-18.663	0.313	0.197
-491.522	40.547	0.340	-0.310
-490.508	453.607	-0.119	0.266
-489.493	-200.000	-0.020	0.133
-488.478	800.000	-0.057	0.163
-487.464	-200.000	0.006	0.065
-486.449	-43.266	-0.229	0.117
-485.435	-69.474	0.301	-0.117
-484.420	272.760	-0.077	-0.137
-483.405	-200.000	0.004	0.237
-482.391	92.983	-0.155	0.176
-481.376	-117.279	0.037	0.007
-480.362	-106.730	-0.440	-0.099
-479.347	-74.684	0.148	-0.054
-478.332	-81.555	-0.203	0.067
-477.318	19.486	0.224	-0.182
-476.303	-156.640	-0.134	0.008
-475.289	714.764	0.134	-0.360
-474.274	217.966	-0.184	0.297
-473.259	-167.074	-0.282	-0.012
-472.245	-174.758	0.126	-0.004
-471.230	-200.000	0.036	0.163
-470.216	432.837	-0.124	0.271
-469.201	530.498	-0.062	0.148
-468.186	-200.000	0.031	-0.233
-467.172	106.690	-0.137	-0.164
-466.157	-200.000	-0.013	0.120
-465.143	9.263	-0.306	0.233
-464.128	-21.326	-0.295	0.182
-463.113	177.813	0.112	0.165
-462.099	-200.000	-0.004	0.103
-461.084	190.379	0.041	0.062
-460.070	306.826	-0.141	-0.265
-459.055	-2.167	-0.288	0.204
-458.040	-160.230	-0.276	0.015
-457.026	107.086	-0.028	-0.034
-456.011	381.743	0.083	-0.172
-454.997	36.016	0.095	-0.085
-453.982	734.628	-0.059	0.161
-452.968	106.487	0.215	0.257
-451.953	-55.470	0.070	-0.031
-450.938	205.443	-0.256	0.401
-449.924	22.617	-0.255	-0.210
-448.909	-157.698	-0.092	-0.006
-447.895	-200.000	-0.036	-0.172
-446.880	-55.326	0.027	0.012
-445.865	-200.000	-0.025	-0.168
-444.851	-173.132	0.133	0.004
-443.836	-200.000	-0.003	-0.206
-442.822	280.931	0.022	0.040
-441.807	-104.359	-0.322	0.075
-440.792	800.000	0.032	0.122
-439.778	792.098	0.084	0.233
-438.763	-133.957	-0.435	-0.054
-437.749	84.730	0.194	-0.214
-436.734	177.164	0.066	-0.097
-435.719	40.298	-0.199	0.181
-434.705	2.394	-0.163	0.119
-433.690	-46.002	0.152	-0.076
-432.676	-34.958	-0.162	-0.089
-431.661	337.893	-0.144	0.283
-430.646	-200.000	-0.009	0.249
-429.632	-200.000	-0.369	0.000
-428.617	38.484	0.082	-0.073
-427.603	-47.763	-0.116	0.057
-426.588	800.000	0.044	0.127
-425.573	52.771	0.102	-0.098
-424.559	-73.125	-0.174	0.064
-423.544	139.163	0.144	0.191
-422.530	3.293	0.494	-0.363
-421.515	21.118	0.309	-0.253
-420.500	102.268	-0.155	0.182
-419.486	-68.949	0.321	0.125
-418.471	-200.000	-0.024	-0.134
-417.457	-12.722	-0.328	-0.216
-416.442	99.542	-0.244	-0.285
-415.428	62.630	0.031	0.031
-414.413	-148.618	0.132	-0.011
-413.398	-200.000	-0.013	-0.150
-412.384	-200.000	-0.015	-0.253
-411.369	-200.000	-0.025	0.241
-410.355	-200.000	-0.010	0.234
-409.340	-60.982	-0.143	-0.061
-408.325	-126.473	-0.072	-0.011
-407.311	35.167	0.120	0.106
-406.296	-200.000	-0.066	0.371
-405.282	800.000	0.017	0.050
-404.267	-90.229	0.081	-0.024
-403.252	-128.523	0.161	0.023
-402.238	-25.030	0.084	0.050
-401.223	-15.781	-0.211	0.136
-400.209	-11.549	-0.201	-0.133
-399.194	-200.000	0.006	-0.245
-398.179	-71.971	0.220	0.082
-397.165	-76.158	0.188	0.067
-396.150	800.000	-0.095	-0.310
-395.136	-200.000	0.011	-0.054
-394.121	-200.000	-0.001	-0.198
-393.106	-108.324	0.339	-0.074
-392.092	-200.000	0.020	0.106
-391.077	200.383	-0.071	-0.109
-390.063	-200.000	0.000	-0.145
-389.048	-72.451	-0.225	-0.084
-388.033	-200.000	-0.016	0.162
-387.019	-200.000	0.032	-0.191
-386.004	56.018	0.231	0.226
-384.990	-19.546	-0.129	-0.080
-383.975	170.085	-0.081	-0.116
-382.960	-149.111	0.131	-0.011
-381.946	45.828	-0.151	0.141
-380.931	800.000	-0.033	0.116
-379.917	800.000	0.085	-0.291
-378.902	10.768	-0.099	0.076
-377.888	55.980	-0.223	0.218
-376.873	191.711	-0.149	-0.225
-375.858	-200.000	0.078	-0.362
-374.844	800.000	-0.104	-0.327
-373.829	-2.180	-0.269	-0.190
-372.815	-82.641	-0.146	0.048
-371.800	-150.754	-0.327	0.025
-370.785	-30.265	-0.254	0.145
-369.771	-135.119	0.327	-0.040
-368.756	-131.910	0.374	-0.049
-367.742	3.253	-0.236	-0.173
-366.727	-47.348	0.253	-0.124
-365.712	36.217	-0.140	0.124
-364.698	15.170	-0.256	-0.202
-363.683	-200.000	-0.002	0.168
-362.669	53.638	-0.037	-0.035
-361.654	-26.749	0.384	-0.226
-360.639	142.492	0.170	0.228
-359.625	-21.104	-0.093	-0.057
-358.610	800.000	-0.033	-0.124
-357.596	-92.239	0.050	0.014
-356.581	-143.021	-0.190	0.018
-355.566	800.000	-0.117	0.351
-354.552	800.000	-0.129	-0.438
-353.537	146.761	-0.285	-0.385
-352.523	-20.139	0.314	-0.194
-351.508	58.516	-0.161	0.159
-350.493	-200.000	0.016	-0.284
-349.479	532.714	0.153	-0.365
-348.464	-90.380	-0.097	0.028
-347.450	12.427	0.194	0.151
-346.435	-39.869	0.115	-0.060
-345.420	-44.949	-0.249	-0.124
-344.406	428.241	-0.111	-0.240
-343.391	438.079	-0.076	-0.167
-342.377	-48.099	-0.398	0.193
-341.362	-165.730	0.291	-0.013
-340.348	488.116	0.098	-0.225
-339.333	-154.358	-0.248	-0.017
-338.318	277.673	-0.132	-0.235
-337.304	70.023	-0.224	-0.233
-336.289	134.326	-0.303	-0.395
-335.275	-94.051	0.333	-0.092
-334.260	332.887	-0.038	0.074
-333.245	-200.000	-0.010	0.298
-332.231	606.362	-0.204	0.511
-331.216	-60.422	-0.312	0.133
-330.202	141.586	0.148	-0.197
-329.187	-3.358	-0.197	-0.138
-328.172	-53.728	-0.495	0.227
-327.158	28.546	0.210	0.179
-326.143	-18.168	0.025	-0.016
-325.129	-200.000	-0.016	0.279
-324.114	19.844	0.460	0.372
-323.099	-137.023	0.232	-0.027
-322.085	157.227	-0.133	0.185
-321.070	-200.000	0.056	-0.249
-320.056	-200.000	-0.046	-0.249
-319.041	-127.528	-0.425	0.062
-318.026	137.794	-0.070	0.091
-317.012	800.000	-0.092	-0.338
-315.997	-200.000	0.024	-0.188
-314.983	-109.429	-0.132	0.028
-313.968	-141.907	0.184	0.018
-312.953	67.016	0.191	-0.195
-311.939	800.000	0.187	-0.521
-310.924	67.018	-0.239	0.244
-309.910	68.494	-0.141	0.145
-308.895	-1.221	-0.308	0.219
-307.880	677.887	-0.115	0.301
-306.866	-50.417	-0.198	-0.094
-305.851	-200.000	0.030	0.182
-304.837	-155.941	-0.217	-0.014
-303.822	71.445	-0.145	0.151
-302.807	-200.000	-0.042	0.329
-301.793	175.282	0.134	0.195
-300.778	-123.111	-0.380	-0.061
-299.764	-56.298	0.378	-0.169
-298.749	-35.066	-0.320	0.175
-297.735	600.285	-0.111	-0.277
-296.720	477.406	0.153	0.346
-295.705	-132.086	0.149	0.019
-294.691	172.068	-0.146	0.210
-293.676	-68.731	0.327	0.127
-292.662	783.206	0.133	-0.365
-291.647	71.048	-0.148	-0.154
-290.632	259.299	-0.092	0.160
-289.618	-104.749	0.304	0.070
-288.603	800.000	-0.028	0.112
-287.589	-117.275	0.233	-0.042
-286.574	-124.646	0.053	-0.008
-285.559	-200.000	-0.000	0.267
-284.545	139.345	-0.173	-0.228
-283.530	2.842	0.345	0.251
-282.516	800.000	-0.041	0.124
-281.501	0.824	0.375	0.270
-280.486	800.000	0.125	-0.421
-279.472	-200.000	0.000	-0.055
-278.457	-106.805	0.070	-0.016
-277.443	-36.386	0.331	-0.179
-276.428	-139.287	0.092	-0.010
-275.413	-95.183	0.343	-0.093
-274.399	800.000	0.095	-0.352
-273.384	551.000	0.096	-0.230
-272.370	-200.000	0.000	-0.086
-271.355	-68.947	0.288	0.111
-270.340	-75.321	-0.080	0.029
-269.326	8.697	0.356	0.269
-268.311	-155.717	-0.206	-0.013
-267.297	427.667	-0.069	0.149
-266.282	-200.000	0.054	-0.312
-265.267	18.627	-0.153	0.122
-264.253	-115.181	0.069	0.013
-263.238	-83.062	-0.083	-0.027
-262.224	54.762	-0.028	0.027
-261.209	-56.266	0.320	0.143
-260.195	-200.000	0.028	-0.226
-259.180	-42.669	0.275	0.140
-258.165	-80.794	0.179	0.060
-257.151	-131.007	-0.135	0.018
-256.136	-200.000	0.021	-0.223
-255.122	-200.000	-0.044	-0.216
-254.107	-200.000	-0.071	0.420
-253.092	800.000	0.109	0.313
-252.078	49.873	-0.076	0.071
-251.063	-126.564	-0.081	0.012
-250.049	-117.785	-0.251	-0.045
-249.034	197.806	-0.128	0.196
-248.019	-102.235	0.309	-0.074
-247.005	800.000	0.071	0.240
-245.990	-72.656	0.184	-0.068
-244.976	-182.592	0.432	-0.008
-243.961	21.674	0.318	-0.259
-242.946	800.000	0.045	0.192
-241.932	17.785	-0.339	0.270
-240.917	-200.000	0.000	0.108
-239.903	-87.711	-0.171	0.052
-238.888	-91.486	0.314	0.090
-237.873	129.027	-0.124	-0.159
-236.859	300.517	0.128	-0.236
-235.844	-29.853	0.166	0.095
-234.830	-200.000	0.039	-0.485
-233.815	-12.278	-0.174	0.114
-232.800	-34.004	-0.158	-0.087
-231.786	800.000	0.125	-0.364
-230.771	-39.622	0.173	0.090
-229.757	-174.804	0.122	-0.003
-228.742	516.691	-0.075	-0.174
-227.727	-200.000	0.005	0.025
-226.713	-200.000	-0.030	0.193
-225.698	405.604	0.052	-0.109
-224.684	70.062	0.055	-0.057
-223.669	8.761	-0.158	-0.119
-222.655	70.270	-0.197	-0.204
-221.640	-59.426	0.308	0.133
-220.625	-100.396	0.175	-0.043
-219.611	-53.929	-0.204	-0.093
-218.596	-200.000	0.039	-0.202
-217.582	-200.000	-0.003	-0.115
-216.567	-200.000	0.014	-0.208
-215.552	-200.000	0.015	-0.432
-214.538	-65.756	-0.183	-0.073
-213.523	354.387	0.109	-0.216
-212.509	145.981	0.111	-0.149
-211.494	78.640	-0.070	0.075
-210.479	299.404	-0.091	0.167
-209.465	46.910	0.143	0.133
-208.450	-73.819	-0.503	0.183
-207.436	-81.007	-0.369	-0.122
-206.421	-140.341	-0.204	0.021
-205.406	-142.879	0.432	0.042
-204.392	-200.000	0.023	0.327
-203.377	12.320	-0.163	0.126
-202.363	-99.148	0.060	0.015
-201.348	228.776	-0.125	0.203
-200.333	-58.144	-0.477	-0.208
-199.319	-200.000	0.080	0.459
-198.304	-108.234	0.449	0.097
-197.290	147.886	-0.100	0.135
-196.275	-200.000	-0.043	0.214
-195.260	-97.498	0.193	0.050
-194.246	312.995	0.137	-0.257
-193.231	-91.393	-0.232	-0.066
-192.217	-17.630	-0.090	-0.057
-191.202	-64.358	0.397	0.161
-190.187	-77.261	-0.163	0.057
-189.173	198.844	0.118	0.180
-188.158	-13.141	-0.223	-0.145
-187.144	-200.000	0.001	0.304
-186.129	-77.188	0.305	-0.106
-185.114	67.137	-0.284	-0.289
-184.100	-200.000	-0.016	-0.112
-183.085	-200.000	0.004	0.140
-182.071	800.000	0.047	0.144
-181.056	87.939	0.162	-0.180
-180.042	73.299	0.040	-0.042
-179.027	292.922	-0.031	0.057
-178.012	-200.000	0.043	0.233
-176.998	97.985	0.203	-0.234
-175.983	-200.000	0.026	0.211
-174.969	13.045	0.444	-0.343
-173.954	-162.972	-0.183	0.009
-172.939	-48.889	-0.262	0.125
-171.925	-200.000	-0.030	0.279
-170.910	81.714	0.146	0.157
-169.896	-18.427	-0.228	-0.142
-168.881	118.353	-0.104	0.128
-167.866	-29.303	-0.038	0.022
-166.852	-95.594	0.145	-0.039
-165.837	222.185	-0.085	0.137
-164.823	-21.600	0.139	0.085
-163.808	254.495	-0.199	-0.340
-162.793	177.178	0.084	0.123
-161.779	800.000	0.051	0.155
-160.764	-142.238	0.303	0.030
-159.750	-122.823	0.258	0.042
-158.735	166.957	0.058	-0.082
-157.720	-191.643	0.199	-0.002
-156.706	-108.194	0.125	-0.027
-155.691	50.002	-0.275	-0.259
-154.677	-200.000	0.029	-0.129
-153.662	449.371	-0.103	-0.226
-152.647	228.331	0.024	-0.039
-151.633	-9.248	-0.139	0.093
-150.618	800.000	0.063	0.263
-149.604	-62.672	-0.173	-0.072
-148.589	42.992	0.180	0.164
-147.574	-54.869	0.224	0.101
-146.560	21.263	-0.168	-0.136
-145.545	-160.245	0.144	-0.008
-144.531	-27.284	-0.275	-0.160
-143.516	-200.000	-0.009	0.078
-142.502	46.897	0.173	0.160
-141.487	31.720	0.230	-0.197
-140.472	-1.581	-0.222	-0.156
-139.458	269.178	0.216	-0.379
-138.443	-112.894	0.558	0.110
-137.429	-157.881	0.298	0.018
-136.414	528.952	-0.120	-0.281
-135.399	193.988	0.128	-0.193
-134.385	-112.760	0.291	0.058
-133.370	355.236	0.136	0.269
-132.356	-108.982	0.457	-0.097
-131.341	-200.000	0.001	0.062
-130.326	13.939	0.424	-0.329
-129.312	-66.000	0.174	0.069
-128.297	-84.043	-0.085	0.027
-127.283	0.054	0.350	0.248
-126.268	-58.996	-0.053	-0.023
-125.253	800.000	0.050	0.194
-124.239	172.308	-0.023	-0.032
-123.224	-126.418	0.141	0.021
-122.210	-51.541	0.201	-0.094
-121.195	332.247	0.202	-0.388
