DTS Sentinel unit serial number:	SN413079Multiplexer serial number:	ORYXHardware model number:	OX4-SRSoftware version number:	ORYX F/W v4.00 Oryx Data Collector v3.7.2.0data status	okinstallation	princeton_trtdifferential loss correction	single-endedforward channel	channel 3reverse channel	N/Adate	2019/09/14time	06:28:35forward acquisition time	60.00reverse acquisition time	0.00gamma	496.2192k internal	0.2340k external	0.2340temperature offset calibration	1.0059default loss term (dB/km)	0.3790temperature slope calibration	1.0000multiplexer offset coefficient	1.0000multiplexer slope coefficient	1.0000fibre end	0.00T internal ref (°C)	26.50T ext. ref 1 (°C)	3.42T ext. ref 2 (°C)	20.42length (m)	temperature (°C)	Stokes	anti-Stokes-747.200	-114.896	-0.052	-0.010
-746.185	800.000	-0.107	0.323
-745.171	123.003	-0.122	0.153
-744.156	170.536	0.125	0.180
-743.142	124.901	-0.175	0.221
-742.127	-115.779	0.030	0.006
-741.112	24.889	0.130	-0.108
-740.098	-84.580	-0.194	0.061
-739.083	800.000	0.030	-0.114
-738.069	-200.000	0.014	-0.088
-737.054	73.345	0.108	-0.114
-736.039	-8.157	-0.134	0.090
-735.025	800.000	-0.040	0.173
-734.010	-67.880	0.133	0.052
-732.996	260.651	-0.083	0.144
-731.981	65.438	-0.146	-0.148
-730.966	-95.545	0.278	-0.075
-729.952	43.937	-0.276	-0.253
-728.937	-200.000	-0.017	0.114
-727.923	-64.068	0.373	-0.152
-726.908	20.195	0.324	0.262
-725.894	-200.000	-0.010	-0.099
-724.879	89.963	-0.079	0.088
-723.864	-14.363	-0.104	0.067
-722.850	44.344	-0.107	-0.098
-721.835	-200.000	0.014	0.291
-720.821	-200.000	-0.040	0.199
-719.806	-200.000	-0.028	0.264
-718.791	-91.292	-0.303	-0.087
-717.777	-150.841	-0.048	0.004
-716.762	800.000	0.109	-0.316
-715.748	-120.649	-0.330	0.056
-714.733	-200.000	0.023	-0.159
-713.718	-30.893	0.232	-0.131
-712.704	-200.000	-0.019	-0.292
-711.689	96.928	-0.124	-0.143
-710.675	800.000	-0.153	0.449
-709.660	256.645	0.082	0.142
-708.645	-98.793	0.114	0.029
-707.631	-113.924	0.168	-0.033
-706.616	-58.997	-0.144	0.062
-705.602	417.341	0.055	0.119
-704.587	-112.570	0.298	-0.059
-703.572	203.571	-0.198	0.307
-702.558	-3.342	-0.189	-0.132
-701.543	613.265	0.077	-0.193
-700.529	211.891	0.154	-0.243
-699.514	-130.148	-0.391	0.053
-698.499	-200.000	-0.031	-0.291
-697.485	484.127	-0.086	-0.197
-696.470	-198.851	-0.215	0.001
-695.456	-200.000	0.032	0.178
-694.441	517.478	0.033	-0.077
-693.426	558.754	0.076	-0.183
-692.412	6.355	0.187	0.139
-691.397	132.359	-0.121	-0.156
-690.383	-34.750	0.221	-0.121
-689.368	63.070	-0.137	-0.138
-688.354	-158.156	0.160	-0.009
-687.339	374.148	-0.123	-0.250
-686.324	-174.559	-0.291	-0.008
-685.310	-200.000	0.009	0.159
-684.295	-90.269	-0.314	-0.091
-683.281	68.392	0.148	-0.152
-682.266	-53.802	0.103	0.047
-681.251	506.640	-0.064	0.149
-680.237	-85.857	0.139	-0.043
-679.222	-58.878	0.200	-0.087
-678.208	-147.050	-0.312	0.027
-677.193	79.443	-0.130	0.140
-676.178	800.000	0.034	0.118
-675.164	-200.000	-0.001	-0.041
-674.149	239.389	-0.107	0.178
-673.135	-86.969	0.182	-0.055
-672.120	-46.972	0.213	-0.104
-671.105	640.344	-0.108	-0.274
-670.091	-200.000	0.052	-0.385
-669.076	391.567	0.122	-0.253
-668.062	194.043	-0.122	-0.185
-667.047	-21.397	0.148	0.090
-666.032	-55.183	-0.262	0.118
-665.018	26.632	0.141	0.118
-664.003	99.406	0.044	-0.051
-662.989	-89.055	0.034	0.010
-661.974	-200.000	0.005	0.260
-660.959	-200.000	0.014	0.162
-659.945	-200.000	0.022	0.307
-658.930	144.250	-0.163	-0.217
-657.916	118.937	-0.262	0.323
-656.901	-23.524	0.186	0.112
-655.886	94.146	-0.159	-0.180
-654.872	800.000	0.052	-0.151
-653.857	5.488	-0.383	-0.283
-652.843	-42.482	-0.121	0.062
-651.828	10.882	-0.094	-0.072
-650.814	-57.795	0.367	-0.160
-649.799	-4.622	-0.330	-0.227
-648.784	-200.000	0.076	-0.364
-647.770	-200.000	-0.012	-0.110
-646.755	33.168	-0.071	-0.062
-645.741	-200.000	-0.011	0.151
-644.726	-200.000	0.057	-0.266
-643.711	38.624	0.060	-0.054
-642.697	-64.708	0.206	-0.083
-641.682	90.066	0.156	0.174
-640.668	161.982	0.136	-0.190
-639.653	-147.577	-0.385	0.032
-638.638	675.491	0.099	-0.256
-637.624	-200.000	-0.047	0.268
-636.609	226.631	-0.250	-0.405
-635.595	-33.913	0.311	0.171
-634.580	-200.000	-0.026	0.255
-633.565	800.000	-0.066	0.187
-632.551	215.574	0.149	-0.236
-631.536	8.855	-0.321	-0.242
-630.522	73.403	0.030	0.031
-629.507	800.000	0.033	0.109
-628.492	238.658	-0.127	-0.211
-627.478	372.839	-0.111	0.226
-626.463	-161.633	-0.155	0.008
-625.449	-112.959	-0.079	0.016
-624.434	-100.856	-0.092	-0.023
-623.419	-3.245	-0.376	0.262
-622.405	-29.583	0.043	0.024
-621.390	-125.969	-0.091	0.014
-620.376	800.000	-0.039	0.127
-619.361	12.668	-0.136	-0.105
-618.346	-200.000	0.048	-0.224
-617.332	91.296	-0.157	-0.176
-616.317	346.731	0.111	0.218
-615.303	-200.000	-0.020	-0.227
-614.288	-128.522	0.394	0.056
-613.273	-48.442	0.568	-0.273
-612.259	-91.922	0.128	-0.036
-611.244	148.177	0.198	0.266
-610.230	800.000	0.118	-0.363
-609.215	-116.404	-0.130	0.024
-608.201	266.524	-0.064	-0.112
-607.186	-124.932	0.200	0.031
-606.171	-13.247	-0.118	-0.076
-605.157	120.924	-0.209	0.260
-604.142	800.000	-0.033	0.145
-603.128	320.314	-0.107	-0.202
-602.113	288.391	0.191	-0.345
-601.098	299.068	0.044	-0.080
-600.084	800.000	-0.029	0.101
-599.069	-41.964	0.434	-0.222
-598.055	-200.000	-0.002	-0.190
-597.040	-200.000	-0.006	-0.078
-596.025	161.515	0.078	0.109
-595.011	230.389	0.237	-0.386
-593.996	165.282	-0.101	-0.142
-592.982	137.350	-0.189	0.246
-591.967	-41.404	-0.014	-0.007
-590.952	572.565	-0.051	0.123
-589.938	-6.477	0.037	0.025
-588.923	800.000	0.023	0.091
-587.909	-104.642	0.099	0.023
-586.894	15.856	-0.296	0.233
-585.879	13.022	0.276	0.213
-584.865	-41.260	0.074	-0.038
-583.850	-151.465	-0.105	0.008
-582.836	-200.000	0.004	0.180
-581.821	147.704	-0.207	-0.277
-580.806	800.000	-0.103	-0.405
-579.792	190.547	-0.070	-0.105
-578.777	-200.000	0.040	0.253
-577.763	-161.208	-0.554	0.029
-576.748	800.000	-0.055	0.156
-575.733	-20.735	-0.159	-0.097
-574.719	800.000	0.039	-0.120
-573.704	-200.000	-0.029	-0.149
-572.690	132.476	0.033	-0.043
-571.675	17.916	0.066	-0.052
-570.661	-200.000	0.100	-0.458
-569.646	-90.363	-0.076	0.022
-568.631	-200.000	-0.002	-0.135
-567.617	56.951	-0.056	0.055
-566.602	40.634	-0.155	-0.139
-565.588	-200.000	0.051	-0.376
-564.573	137.479	-0.248	-0.323
-563.558	34.491	0.125	0.109
-562.544	-200.000	0.001	-0.133
-561.529	-200.000	-0.014	0.138
-560.515	-82.085	-0.075	-0.024
-559.500	113.332	0.188	0.227
-558.485	-155.509	-0.247	0.016
-557.471	800.000	-0.106	0.355
-556.456	-200.000	0.001	-0.058
-555.442	265.967	-0.152	-0.264
-554.427	800.000	-0.059	0.240
-553.412	-200.000	0.011	-0.328
-552.398	124.135	-0.084	0.105
-551.383	-17.341	-0.193	0.121
-550.369	800.000	0.038	-0.121
-549.354	1.242	0.103	0.073
-548.339	-29.677	-0.335	-0.191
-547.325	128.257	0.044	-0.055
-546.310	800.000	-0.032	-0.135
-545.296	-200.000	-0.002	-0.022
-544.281	95.927	0.131	0.149
-543.266	106.004	0.330	0.389
-542.252	-48.185	-0.382	-0.183
-541.237	-171.321	0.479	-0.016
-540.223	-77.521	0.054	0.019
-539.208	-57.899	0.087	-0.038
-538.193	-117.453	-0.222	-0.040
-537.179	109.924	-0.108	0.129
-536.164	-133.608	0.138	-0.017
-535.150	588.302	0.041	0.102
-534.135	-200.000	0.099	0.431
-533.121	-45.205	-0.207	-0.102
-532.106	41.910	-0.212	-0.191
-531.091	-87.940	-0.345	-0.103
-530.077	-200.000	0.019	-0.376
-529.062	235.485	-0.062	-0.101
-528.048	50.999	0.148	0.140
-527.033	-200.000	-0.007	-0.353
-526.018	-200.000	0.118	0.598
-525.004	-43.237	0.217	0.109
-523.989	-200.000	-0.038	0.194
-522.975	-125.358	0.122	-0.018
-521.960	-173.320	0.295	0.009
-520.945	-200.000	0.004	-0.044
-519.931	-127.197	0.133	0.019
-518.916	-169.438	-0.137	-0.005
-517.902	402.311	-0.094	0.197
-516.887	-138.861	0.257	0.028
-515.872	-37.237	-0.145	0.077
-514.858	331.214	-0.178	0.340
-513.843	177.828	-0.035	0.051
-512.829	-92.119	-0.336	-0.094
-511.814	-80.773	0.234	-0.077
-510.799	-20.841	-0.131	0.080
-509.785	340.398	-0.050	0.097
-508.770	-82.093	0.099	0.032
-507.756	-30.009	-0.407	0.230
-506.741	41.305	0.052	-0.047
-505.726	-53.975	-0.399	-0.180
-504.712	-45.780	0.207	0.102
-503.697	584.522	-0.091	0.221
-502.683	16.245	-0.292	0.229
-501.668	-200.000	-0.010	-0.152
-500.653	153.623	0.033	-0.045
-499.639	-200.000	-0.012	0.344
-498.624	800.000	0.022	0.085
-497.610	-81.498	-0.155	0.051
-496.595	-114.680	-0.358	-0.068
-495.581	53.914	-0.236	-0.226
-494.566	-17.666	0.116	-0.072
-493.551	-25.015	-0.186	0.109
-492.537	-99.359	-0.231	0.058
-491.522	578.256	0.150	-0.364
-490.508	-57.352	0.212	-0.092
-489.493	-151.427	0.505	0.037
-488.478	350.440	-0.070	-0.138
-487.464	332.082	-0.137	-0.262
-486.449	-169.153	-0.328	0.012
-485.435	144.560	-0.145	0.193
-484.420	125.104	0.151	-0.189
-483.405	-200.000	0.022	-0.197
-482.391	-200.000	0.006	-0.277
-481.376	475.324	-0.084	0.189
-480.362	167.610	0.113	0.160
-479.347	18.813	0.112	-0.089
-478.332	-200.000	0.023	-0.160
-477.318	6.737	-0.200	0.147
-476.303	482.658	0.241	0.543
-475.289	120.802	-0.218	-0.269
-474.274	-132.932	0.018	-0.002
-473.259	800.000	0.032	-0.089
-472.245	-110.502	0.035	0.007
-471.230	-83.407	0.136	-0.043
-470.216	-200.000	-0.038	0.203
-469.201	61.298	-0.196	-0.193
-468.186	-88.739	-0.130	0.038
-467.172	232.677	0.218	0.355
-466.157	83.168	0.105	-0.113
-465.143	272.978	0.086	-0.151
-464.128	676.279	0.178	-0.459
-463.113	-100.682	0.216	0.053
-462.099	6.403	0.146	0.108
-461.084	-200.000	0.031	-0.221
-460.070	-200.000	-0.006	-0.187
-459.055	-143.367	-0.252	0.024
-458.040	-23.525	-0.349	0.208
-457.026	-40.903	0.235	0.120
-456.011	363.475	-0.053	-0.105
-454.997	-53.408	0.311	-0.141
-453.982	139.978	0.062	0.082
-452.968	800.000	0.037	0.105
-451.953	-115.008	-0.181	0.034
-450.938	-33.703	0.074	-0.041
-449.924	-108.582	-0.085	-0.018
-448.909	-156.146	-0.328	0.020
-447.895	718.705	0.062	0.164
-446.880	352.994	0.094	0.185
-445.865	-84.267	0.255	0.080
-444.851	593.845	-0.169	0.414
-443.836	86.303	-0.114	0.125
-442.822	2.951	-0.068	0.049
-441.807	330.242	-0.106	-0.202
-440.792	137.447	-0.081	0.105
-439.778	-151.738	0.158	-0.012
-438.763	-200.000	0.005	-0.173
-437.749	10.900	0.040	-0.030
-436.734	-25.304	0.157	0.092
-435.719	-120.379	-0.049	-0.008
-434.705	-84.199	0.276	0.087
-433.690	4.722	-0.153	-0.111
-432.676	800.000	-0.055	0.221
-431.661	191.508	0.239	0.357
-430.646	65.898	-0.147	-0.147
-429.632	800.000	-0.021	0.074
-428.617	-73.155	-0.316	0.115
-427.603	-72.095	0.199	-0.073
-426.588	-35.210	0.331	0.179
-425.573	187.435	0.096	-0.141
-424.559	-81.057	0.161	-0.053
-423.544	-25.950	0.243	0.142
-422.530	403.350	-0.056	0.117
-421.515	-147.464	-0.423	-0.035
-420.500	-66.949	0.461	-0.180
-419.486	-32.307	-0.144	-0.080
-418.471	-200.000	0.041	-0.308
-417.457	800.000	-0.071	0.287
-416.442	-35.341	-0.088	0.047
-415.428	-3.706	0.200	-0.137
-414.413	-139.446	0.241	0.026
-413.398	251.115	-0.065	-0.109
-412.384	-200.000	0.017	-0.252
-411.369	-128.956	-0.238	0.033
-410.355	166.723	0.144	0.202
-409.340	110.159	-0.257	-0.306
-408.325	392.071	0.069	-0.143
-407.311	428.067	-0.035	-0.075
-406.296	297.902	-0.134	-0.245
-405.282	58.099	0.048	0.047
-404.267	-42.464	-0.071	0.036
-403.252	-53.246	-0.104	0.047
-402.238	-10.067	0.239	0.157
-401.223	31.940	-0.242	-0.207
-400.209	185.163	-0.163	0.240
-399.194	-40.226	-0.351	-0.181
-398.179	-37.535	0.390	0.206
-397.165	-58.310	-0.217	-0.093
-396.150	-145.071	0.290	-0.026
-395.136	244.587	-0.100	-0.166
-394.121	217.974	-0.115	0.182
-393.106	-117.976	-0.420	-0.074
-392.092	-200.000	-0.029	-0.228
-391.077	301.839	-0.193	-0.353
-390.063	6.080	0.062	-0.046
-389.048	45.721	0.420	0.383
-388.033	59.313	0.196	0.191
-387.019	-200.000	-0.025	0.118
-386.004	800.000	-0.080	-0.248
-384.990	54.282	0.120	-0.114
-383.975	31.843	-0.185	-0.157
-382.960	-123.038	0.127	-0.020
-381.946	380.153	-0.114	0.231
-380.931	270.009	-0.078	0.135
-379.917	8.590	-0.137	-0.102
-378.902	800.000	-0.039	-0.132
-377.888	-149.176	0.186	-0.015
-376.873	367.403	0.123	0.245
-375.858	-10.947	0.231	-0.151
-374.844	-85.454	-0.121	0.037
-373.829	353.042	0.085	0.166
-372.815	-17.153	0.197	-0.123
-371.800	13.312	-0.167	-0.128
-370.785	46.458	0.131	-0.121
-369.771	-60.731	0.088	0.037
-368.756	32.712	0.229	0.196
-367.742	800.000	0.073	-0.228
-366.727	75.237	-0.155	0.162
-365.712	-74.706	0.167	0.059
-364.698	287.613	0.082	0.146
-363.683	12.154	0.087	0.066
-362.669	324.560	-0.055	-0.103
-361.654	-22.467	-0.146	-0.087
-360.639	800.000	-0.047	0.187
-359.625	-200.000	-0.055	-0.283
-358.610	181.666	0.069	-0.100
-357.596	-13.952	-0.305	0.194
-356.581	-119.847	-0.532	-0.090
-355.566	365.378	-0.076	0.151
-354.552	-126.130	0.363	0.054
-353.537	23.069	-0.190	0.154
-352.523	-138.203	-0.063	-0.007
-351.508	223.455	0.093	-0.148
-350.493	243.169	-0.066	0.109
-349.479	-200.000	0.017	0.106
-348.464	-125.510	-0.226	0.034
-347.450	32.199	0.231	-0.196
-346.435	-200.000	-0.014	0.230
-345.420	-170.934	-0.282	0.010
-344.406	101.794	0.225	0.260
-343.391	182.868	-0.054	0.078
-342.377	-90.785	0.133	0.038
-341.362	246.255	0.122	-0.202
-340.348	-7.337	-0.321	0.214
-339.333	-137.759	0.263	-0.029
-338.318	-70.308	0.315	0.118
-337.304	375.983	-0.051	-0.102
-336.289	800.000	0.019	-0.053
-335.275	119.684	-0.090	0.110
-334.260	83.153	-0.036	0.038
-333.245	212.822	0.066	-0.103
-332.231	-186.118	-0.284	-0.004
-331.216	86.101	0.117	-0.127
-330.202	73.224	0.098	0.101
-329.187	-185.456	0.098	-0.001
-328.172	-120.475	0.085	0.014
-327.158	-113.266	-0.108	-0.021
-326.143	-36.635	0.127	-0.067
-325.129	387.329	-0.082	-0.167
-324.114	73.777	0.245	0.253
-323.099	800.000	-0.020	0.060
-322.085	-118.895	-0.072	0.012
-321.070	194.107	-0.105	0.157
-320.056	315.048	0.152	0.282
-319.041	-53.175	-0.059	0.027
-318.026	631.753	0.121	-0.301
-317.012	103.826	0.196	-0.228
-315.997	31.130	-0.086	0.073
-314.983	-200.000	0.002	-0.252
-313.968	192.603	0.061	0.091
-312.953	-200.000	-0.002	-0.257
-311.939	557.735	-0.037	0.088
-310.924	-92.649	0.133	-0.037
-309.910	-32.268	0.261	0.144
-308.895	145.333	0.033	-0.043
-307.880	-200.000	0.021	0.384
-306.866	-41.387	0.241	0.122
-305.851	134.468	0.246	0.315
-304.837	5.640	0.243	-0.177
-303.822	271.552	-0.096	0.166
-302.807	-92.605	0.227	0.063
-301.793	-200.000	-0.055	0.246
-300.778	-94.527	-0.091	-0.025
-299.764	-53.165	0.215	0.097
-298.749	-18.870	-0.217	0.133
-297.735	31.613	0.169	0.144
-296.720	-200.000	-0.051	0.245
-295.705	-116.976	-0.193	-0.035
-294.691	-200.000	0.409	0.001
-293.676	-200.000	0.058	0.253
-292.662	-38.559	0.143	0.075
-291.647	794.620	-0.044	0.119
-290.632	178.552	0.108	-0.155
-289.618	762.035	0.022	-0.059
-288.603	-88.255	-0.146	-0.043
-287.589	-63.218	0.204	-0.083
-286.574	285.229	-0.235	-0.418
-285.559	35.441	0.023	-0.020
-284.545	-200.000	-0.018	-0.217
-283.530	-200.000	-0.029	-0.142
-282.516	14.249	-0.071	0.055
-281.501	-64.462	0.184	0.074
-280.486	72.288	-0.134	-0.137
-279.472	800.000	0.050	-0.164
-278.457	59.876	-0.240	0.233
-277.443	-200.000	-0.025	0.186
-276.428	-34.855	0.199	0.107
-275.413	351.225	-0.129	-0.251
-274.399	67.529	0.106	0.107
-273.384	80.533	0.285	0.302
-272.370	67.174	-0.340	-0.341
-271.355	-147.905	-0.151	0.012
-270.340	-200.000	-0.024	-0.294
-269.326	-200.000	-0.050	0.280
-268.311	-13.786	0.363	-0.231
-267.297	273.642	-0.226	-0.393
-266.282	53.860	0.115	0.109
-265.267	-38.508	0.050	-0.026
-264.253	537.628	0.022	0.051
-263.238	-63.378	0.228	0.092
-262.224	233.084	0.110	-0.178
-261.209	674.780	-0.100	-0.255
-260.195	-149.215	0.025	-0.002
-259.180	6.830	-0.093	-0.068
-258.165	-160.920	-0.421	-0.022
-257.151	29.184	0.301	-0.252
-256.136	-35.143	-0.222	-0.119
-255.122	7.654	0.093	0.069
-254.107	121.720	-0.019	0.023
-253.092	244.112	-0.062	-0.103
-252.078	-114.598	0.173	0.033
-251.063	192.121	-0.110	-0.164
-250.049	764.470	-0.139	0.372
-249.034	-123.826	0.255	0.040
-248.019	-87.370	-0.293	-0.087
-247.005	168.844	0.115	0.161
-245.990	-21.643	-0.138	0.083
-244.976	25.097	-0.060	-0.049
-243.961	-200.000	0.010	0.100
-242.946	452.543	-0.073	0.158
-241.932	-72.282	0.214	0.078
-240.917	-146.923	0.277	0.023
-239.903	-49.099	0.168	0.079
-238.888	-146.927	0.354	-0.030
-237.873	320.974	-0.156	0.292
-236.859	-151.644	0.398	-0.029
-235.844	-63.245	0.256	-0.104
-234.830	-28.538	-0.261	-0.148
-233.815	-200.000	-0.019	-0.500
-232.800	102.099	-0.224	-0.257
-231.786	-54.605	0.310	-0.138
-230.771	167.776	-0.284	-0.397
-229.757	800.000	0.019	-0.052
-228.742	107.883	-0.068	0.079
-227.727	800.000	0.058	-0.187
-226.713	-68.010	0.292	0.112
-225.698	-126.967	-0.082	0.012
-224.684	-200.000	0.002	0.104
-223.669	42.773	-0.243	0.217
-222.655	-140.552	0.079	0.008
-221.640	168.179	-0.150	0.210
-220.625	-185.187	0.169	0.003
-219.611	-71.754	-0.152	0.056
-218.596	36.555	0.292	-0.254
-217.582	-120.972	-0.247	0.041
-216.567	576.882	0.008	-0.019
-215.552	233.014	-0.035	0.056
-214.538	-152.167	0.314	0.022
-213.523	-200.000	-0.004	-0.387
-212.509	-200.000	-0.041	-0.201
-211.494	-176.812	0.298	-0.007
-210.479	-105.440	-0.286	0.064
-209.465	212.549	0.114	0.177
-208.450	-51.871	0.049	-0.022
-207.436	-200.000	-0.031	-0.328
-206.421	-139.968	-0.209	-0.022
-205.406	182.022	0.044	0.063
-204.392	-140.023	0.161	0.017
-203.377	240.896	0.008	0.012
-202.363	190.114	-0.124	0.183
-201.348	-200.000	-0.012	0.090
-200.333	706.301	0.077	0.199
-199.319	-12.846	0.338	0.216
-198.304	195.689	0.121	0.180
-197.290	800.000	0.100	-0.283
-196.275	267.109	0.034	-0.058
-195.260	-145.006	0.353	0.032
-194.246	-128.915	0.242	-0.033
-193.231	-23.768	-0.084	-0.049
-192.217	-135.678	-0.084	-0.010
-191.202	-64.229	0.321	0.128
-190.187	-129.885	-0.133	-0.018
-189.173	-31.123	-0.431	0.238
-188.158	-163.747	0.240	-0.011
-187.144	-142.208	0.411	0.040
-186.129	726.515	-0.041	0.108
-185.114	800.000	-0.040	0.173
-184.100	-26.719	-0.136	0.078
-183.085	-200.000	0.027	0.144
-182.071	-200.000	-0.038	-0.343
-181.056	-70.207	-0.227	-0.084
-180.042	18.605	-0.179	0.140
-179.027	-200.000	0.003	0.041
-178.012	800.000	-0.102	0.311
-176.998	-84.216	0.047	0.015
-175.983	66.114	0.120	-0.120
-174.969	-200.000	0.025	0.461
-173.954	-79.311	-0.164	-0.054
-172.939	-30.698	0.064	-0.036
-171.925	800.000	-0.132	0.360
-170.910	800.000	-0.064	0.196
-169.896	-135.507	-0.336	-0.039
-168.881	-111.099	0.141	0.028
-167.866	-79.340	-0.427	-0.142
-166.852	800.000	0.071	-0.236
-165.837	40.438	-0.062	-0.055
-164.823	111.817	-0.228	0.269
-163.808	9.591	0.294	0.218
-162.793	-200.000	0.052	0.490
-161.779	-14.881	0.080	0.051
-160.764	-135.422	-0.155	0.018
-159.750	-75.685	-0.229	0.080
-158.735	-200.000	-0.011	0.208
-157.720	-65.651	0.228	0.090
-156.706	229.897	0.148	-0.238
-155.691	-55.832	-0.177	0.078
-154.677	65.740	-0.057	0.056
-153.662	45.238	-0.223	-0.202
-152.647	83.780	0.111	-0.119
-151.633	-125.365	-0.319	0.048
-150.618	-137.012	0.205	-0.023
-149.604	331.557	0.104	-0.196
-148.589	-46.269	-0.260	0.125
-147.574	212.341	0.243	0.375
-146.560	-172.538	0.130	0.004
-145.545	-33.500	-0.087	-0.047
-144.531	276.674	0.183	-0.319
-143.516	-99.573	0.328	0.081
-142.502	-200.000	0.021	0.138
-141.487	-74.582	-0.140	0.050
-140.472	301.772	-0.104	-0.188
-139.458	-200.000	-0.013	-0.067
-138.443	297.457	-0.077	-0.138
-137.429	-200.000	0.006	-0.129
-136.414	54.859	0.141	0.134
-135.399	378.481	0.072	0.145
-134.385	695.487	0.105	0.271
-133.370	102.761	-0.217	-0.248
-132.356	267.513	-0.142	-0.243
-131.341	55.574	0.188	-0.178
-130.326	-81.742	-0.103	0.033
-129.312	-200.000	-0.016	-0.182
-128.297	-38.628	0.240	0.124
-127.283	-200.000	0.010	0.136
-126.268	-200.000	-0.025	-0.126
-125.253	800.000	0.023	-0.091
-124.239	-170.498	-0.148	-0.005
-123.224	-8.249	-0.222	-0.147
-122.210	68.322	-0.184	0.185
-121.195	-29.476	0.258	-0.144
