DTS Sentinel unit serial number:	SN413079Multiplexer serial number:	ORYXHardware model number:	OX4-SRSoftware version number:	ORYX F/W v4.00 Oryx Data Collector v3.7.2.0data status	okinstallation	princeton_trtdifferential loss correction	single-endedforward channel	channel 3reverse channel	N/Adate	2019/09/19time	12:00:35forward acquisition time	60.00reverse acquisition time	0.00gamma	496.2192k internal	0.2340k external	0.2340temperature offset calibration	0.9986default loss term (dB/km)	0.3790temperature slope calibration	1.0000multiplexer offset coefficient	1.0000multiplexer slope coefficient	1.0000fibre end	0.00T internal ref (°C)	26.05T ext. ref 1 (°C)	0.82T ext. ref 2 (°C)	22.17length (m)	temperature (°C)	Stokes	anti-Stokes-747.200	-200.000	0.056	0.261
-746.185	726.800	0.189	0.505
-745.171	25.011	-0.151	0.125
-744.156	72.716	0.133	0.139
-743.142	-200.000	-0.035	0.271
-742.127	18.115	-0.191	0.152
-741.112	-37.769	-0.015	-0.008
-740.098	-54.008	-0.272	0.124
-739.083	-79.300	0.195	-0.066
-738.069	-200.000	-0.012	0.567
-737.054	-139.122	-0.383	-0.041
-736.039	-43.780	-0.459	0.232
-735.025	386.253	-0.169	-0.350
-734.010	-200.000	0.021	-0.285
-732.996	115.813	-0.305	0.373
-731.981	-40.820	0.088	-0.046
-730.966	100.004	0.252	-0.293
-729.952	-24.394	0.058	-0.035
-728.937	-24.122	-0.304	-0.182
-727.923	-76.758	0.245	-0.086
-726.908	315.956	-0.141	0.266
-725.894	-11.005	-0.189	0.125
-724.879	-26.278	0.258	-0.152
-723.864	34.252	0.077	-0.068
-722.850	-200.000	0.029	0.323
-721.835	8.600	0.138	-0.104
-720.821	-200.000	0.045	-0.542
-719.806	-63.143	-0.244	0.101
-718.791	167.548	-0.013	0.018
-717.777	256.040	0.209	-0.360
-716.762	800.000	-0.098	-0.360
-715.748	262.519	0.192	-0.333
-714.733	-200.000	0.001	0.261
-713.718	741.058	-0.078	0.211
-712.704	-69.508	-0.116	-0.045
-711.689	119.751	0.070	-0.086
-710.675	800.000	0.046	0.175
-709.660	-200.000	-0.033	-0.286
-708.645	-200.000	0.023	-0.132
-707.631	-200.000	-0.013	-0.056
-706.616	-26.539	-0.158	-0.093
-705.602	119.672	0.197	0.245
-704.587	800.000	-0.070	0.303
-703.572	-31.891	-0.179	0.100
-702.558	43.424	-0.190	0.173
-701.543	36.541	0.065	-0.057
-700.529	-63.352	0.046	-0.019
-699.514	-200.000	-0.034	0.207
-698.499	2.776	0.329	-0.239
-697.485	-80.091	-0.220	0.074
-696.470	800.000	0.036	-0.142
-695.456	90.484	0.288	0.323
-694.441	-80.636	-0.326	0.109
-693.426	-126.589	0.170	0.025
-692.412	-200.000	-0.044	-0.264
-691.397	615.046	0.057	0.142
-690.383	-200.000	-0.008	0.254
-689.368	-60.569	-0.179	-0.076
-688.354	137.248	0.018	0.024
-687.339	800.000	0.081	0.259
-686.324	-200.000	-0.053	0.255
-685.310	-44.542	-0.204	-0.102
-684.295	-144.913	-0.301	0.027
-683.281	800.000	-0.054	0.218
-682.266	206.863	-0.129	-0.201
-681.251	-200.000	-0.008	-0.127
-680.237	99.171	0.249	0.288
-679.222	179.622	0.060	0.088
-678.208	105.309	-0.216	0.255
-677.193	800.000	-0.148	-0.426
-676.178	-48.345	0.368	-0.177
-675.164	-200.000	-0.020	-0.304
-674.149	688.187	0.057	-0.148
-673.135	-200.000	-0.043	0.264
-672.120	539.324	0.064	-0.153
-671.105	76.214	-0.066	0.070
-670.091	48.395	-0.299	0.279
-669.076	-142.769	0.027	0.003
-668.062	-200.000	-0.030	0.144
-667.047	69.887	0.178	-0.184
-666.032	-20.571	0.359	-0.220
-665.018	-71.545	-0.250	-0.093
-664.003	8.204	0.160	-0.120
-662.989	-103.585	-0.453	0.106
-661.974	244.059	0.155	0.259
-660.959	312.913	-0.100	-0.188
-659.945	-89.925	0.098	0.029
-658.930	-139.977	-0.156	0.016
-657.916	125.875	-0.278	0.351
-656.901	637.248	0.034	0.086
-655.886	-86.824	-0.103	-0.032
-654.872	203.586	0.053	-0.081
-653.857	800.000	-0.105	0.294
-652.843	-200.000	-0.054	-0.248
-651.828	-200.000	-0.030	0.196
-650.814	-200.000	-0.002	-0.024
-649.799	-113.581	-0.097	-0.019
-648.784	541.023	0.047	0.112
-647.770	-200.000	0.035	0.376
-646.755	-161.025	-0.123	-0.006
-645.741	-146.430	-0.213	0.019
-644.726	-161.065	0.089	-0.005
-643.711	-109.305	-0.341	0.072
-642.697	-140.491	0.301	0.031
-641.682	6.530	0.160	0.119
-640.668	-200.000	0.010	0.086
-639.653	-200.000	-0.016	0.116
-638.638	-130.059	-0.161	0.022
-637.624	-69.510	0.118	-0.045
-636.609	-33.066	-0.120	0.066
-635.595	-200.000	-0.064	0.420
-634.580	-42.994	-0.234	-0.118
-633.565	135.617	-0.347	-0.451
-632.551	800.000	0.031	-0.115
-631.536	49.163	0.093	-0.087
-630.522	-136.484	0.093	-0.011
-629.507	244.406	-0.138	-0.232
-628.492	-200.000	0.003	-0.151
-627.478	800.000	0.055	-0.217
-626.463	62.232	0.093	0.093
-625.449	-131.334	0.355	0.047
-624.434	-99.789	0.172	-0.043
-623.419	-87.911	-0.225	0.068
-622.405	800.000	0.059	-0.209
-621.390	-76.513	0.037	0.013
-620.376	-200.000	0.042	0.184
-619.361	-100.796	0.403	-0.099
-618.346	-34.916	0.198	0.108
-617.332	19.746	-0.200	0.160
-616.317	-200.000	0.022	0.198
-615.303	74.065	0.213	-0.223
-614.288	649.183	0.072	0.184
-613.273	-187.852	-0.347	0.005
-612.259	-101.175	0.281	0.068
-611.244	277.473	-0.083	-0.146
-610.230	-200.000	-0.029	0.308
-609.215	-60.551	-0.472	0.200
-608.201	-12.942	0.124	0.081
-607.186	-200.000	0.030	-0.391
-606.171	244.471	-0.162	-0.271
-605.157	116.771	0.198	-0.243
-604.142	-36.896	-0.267	-0.143
-603.128	-200.000	-0.002	-0.270
-602.113	14.347	0.188	0.146
-601.098	-200.000	-0.054	0.264
-600.084	-200.000	-0.012	-0.232
-599.069	-88.056	-0.246	-0.073
-598.055	99.064	0.150	-0.173
-597.040	-71.551	0.231	-0.086
-596.025	154.403	0.303	0.415
-595.011	39.089	-0.128	-0.114
-593.996	-184.973	0.120	0.002
-592.982	800.000	0.040	-0.155
-591.967	74.425	-0.087	-0.091
-590.952	64.428	-0.190	-0.191
-589.938	141.447	0.130	-0.172
-588.923	800.000	-0.063	0.201
-587.909	100.707	-0.050	0.058
-586.894	-27.688	0.155	0.090
-585.879	408.149	0.095	0.201
-584.865	206.229	-0.175	0.272
-583.850	800.000	0.058	0.172
-582.836	-200.000	-0.010	-0.195
-581.821	-60.871	0.200	0.084
-580.806	577.806	0.117	0.285
-579.792	-117.322	-0.117	0.021
-578.777	-200.000	0.037	-0.259
-577.763	437.233	0.142	-0.307
-576.748	122.693	-0.177	-0.221
-575.733	-116.764	0.178	-0.033
-574.719	168.004	0.071	-0.101
-573.704	-177.175	0.128	-0.003
-572.690	253.865	0.156	-0.265
-571.675	101.394	-0.190	-0.220
-570.661	-114.917	0.189	0.036
-569.646	166.516	0.132	0.187
-568.631	150.803	0.024	0.032
-567.617	64.288	-0.193	0.193
-566.602	82.303	0.082	-0.089
-565.588	-23.349	-0.202	0.121
-564.573	430.158	-0.056	-0.121
-563.558	218.745	-0.112	0.178
-562.544	-95.143	0.219	0.059
-561.529	800.000	-0.035	-0.146
-560.515	-78.341	0.167	-0.057
-559.500	292.250	-0.086	-0.155
-558.485	-200.000	0.007	0.211
-557.471	150.269	-0.065	-0.087
-556.456	71.411	0.186	-0.192
-555.442	-200.000	-0.065	-0.401
-554.427	181.924	0.104	-0.153
-553.412	-45.155	-0.153	0.076
-552.398	-141.071	-0.159	0.016
-551.383	800.000	0.070	0.265
-550.369	69.429	0.174	-0.178
-549.354	-200.000	0.000	0.057
-548.339	203.850	0.044	0.067
-547.325	800.000	0.144	-0.457
-546.310	546.375	-0.105	-0.250
-545.296	-118.042	0.239	0.043
-544.281	373.168	0.111	0.224
-543.266	-85.983	-0.353	0.109
-542.252	-26.891	0.422	0.245
-541.237	-98.515	-0.247	0.063
-540.223	252.659	0.034	-0.057
-539.208	800.000	-0.078	-0.309
-538.193	-200.000	-0.058	-0.291
-537.179	-200.000	-0.056	-0.283
-536.164	-102.292	0.327	0.078
-535.150	-174.170	0.183	0.005
-534.135	420.709	-0.083	-0.177
-533.121	132.060	-0.197	-0.253
-532.106	91.768	-0.108	-0.121
-531.091	800.000	-0.046	0.171
-530.077	-154.827	-0.279	-0.018
-529.062	144.909	0.030	0.040
-528.048	-6.295	-0.219	-0.149
-527.033	800.000	-0.083	-0.276
-526.018	-169.658	-0.171	-0.006
-525.004	-128.799	-0.080	0.011
-523.989	-1.517	-0.211	-0.148
-522.975	-93.299	-0.184	0.051
-521.960	-85.262	0.200	-0.062
-520.945	-74.044	0.270	0.097
-519.931	-74.444	0.212	-0.076
-518.916	247.459	0.109	0.184
-517.902	231.730	0.173	-0.282
-516.887	-200.000	0.012	0.167
-515.872	-168.261	0.384	0.015
-514.858	67.598	-0.058	-0.059
-513.843	-72.529	-0.304	0.112
-512.829	50.937	0.296	-0.279
-511.814	-15.381	-0.223	-0.142
-510.799	800.000	0.056	-0.221
-509.785	-194.117	-0.207	0.002
-508.770	157.288	-0.205	0.281
-507.756	-78.845	0.180	0.061
-506.741	-200.000	0.013	0.197
-505.726	214.377	0.057	-0.090
-504.712	-70.313	0.146	-0.055
-503.697	-200.000	-0.008	0.262
-502.683	-5.420	-0.307	0.209
-501.668	-160.728	0.162	-0.009
-500.653	228.432	0.120	-0.194
-499.639	-200.000	-0.084	-0.466
-498.624	800.000	0.050	-0.191
-497.610	-200.000	0.065	0.295
-496.595	568.646	-0.151	-0.364
-495.581	-10.720	0.139	0.092
-494.566	16.395	-0.167	-0.131
-493.551	24.524	0.196	-0.161
-492.537	398.721	0.058	-0.121
-491.522	417.039	-0.038	0.080
-490.508	-54.752	-0.451	-0.202
-489.493	420.264	0.077	-0.165
-488.478	46.782	0.154	-0.142
-487.464	-21.231	0.280	-0.170
-486.449	-77.283	-0.432	-0.149
-485.435	800.000	-0.046	-0.141
-484.420	68.480	-0.069	0.070
-483.405	-200.000	-0.000	0.341
-482.391	-200.000	0.009	-0.113
-481.376	-139.796	0.126	-0.013
-480.362	800.000	0.045	-0.139
-479.347	-200.000	0.022	-0.110
-478.332	800.000	0.044	0.150
-477.318	508.930	-0.052	-0.121
-476.303	333.889	0.083	0.159
-475.289	86.201	-0.203	0.222
-474.274	-26.451	-0.228	-0.132
-473.259	107.435	0.045	-0.053
-472.245	-200.000	0.020	-0.120
-471.230	381.240	-0.113	0.230
-470.216	482.025	0.077	0.174
-469.201	-119.447	0.279	0.048
-468.186	-200.000	-0.003	-0.260
-467.172	270.203	-0.102	0.177
-466.157	800.000	-0.080	0.348
-465.143	88.631	0.106	-0.117
-464.128	43.299	-0.052	0.047
-463.113	-200.000	0.049	0.215
-462.099	130.351	0.202	0.256
-461.084	-127.095	-0.108	-0.016
-460.070	800.000	-0.046	-0.158
-459.055	-157.437	-0.297	0.018
-458.040	-200.000	0.010	-0.081
-457.026	-200.000	0.041	-0.284
-456.011	-200.000	0.010	0.190
-454.997	-38.818	0.202	0.106
-453.982	-29.604	-0.415	0.235
-452.968	-200.000	0.009	0.110
-451.953	800.000	-0.080	-0.244
-450.938	301.879	-0.059	0.108
-449.924	-5.756	0.095	-0.064
-448.909	-34.731	-0.076	-0.041
-447.895	-23.291	0.035	0.021
-446.880	221.540	-0.128	0.204
-445.865	-141.589	-0.408	0.041
-444.851	800.000	-0.036	0.109
-443.836	-0.520	-0.170	-0.120
-442.822	583.176	-0.032	0.077
-441.807	348.464	-0.107	0.210
-440.792	-152.146	0.102	0.007
-439.778	80.211	0.165	0.176
-438.763	172.180	0.140	0.200
-437.749	-98.082	0.077	0.020
-436.734	37.750	0.085	-0.075
-435.719	188.390	-0.059	-0.087
-434.705	210.096	0.075	0.116
-433.690	-92.235	0.400	-0.112
-432.676	42.231	0.063	-0.057
-431.661	-102.116	0.256	-0.061
-430.646	800.000	-0.112	-0.437
-429.632	-25.847	-0.154	0.090
-428.617	118.009	-0.243	-0.297
-427.603	800.000	-0.100	-0.421
-426.588	-87.080	-0.275	-0.083
-425.573	89.553	0.308	-0.341
-424.559	-111.388	-0.377	-0.076
-423.544	-177.350	0.172	-0.004
-422.530	-55.716	0.095	-0.042
-421.515	51.642	-0.152	-0.143
-420.500	38.222	-0.383	-0.338
-419.486	212.960	-0.091	-0.142
-418.471	65.305	-0.157	-0.157
-417.457	94.155	0.200	-0.225
-416.442	-200.000	0.020	-0.336
-415.428	219.347	0.147	0.233
-414.413	25.291	0.205	0.169
-413.398	-139.500	0.276	0.029
-412.384	58.301	0.258	-0.250
-411.369	-101.592	-0.212	-0.051
-410.355	-43.262	0.153	0.076
-409.340	-65.382	0.076	0.030
-408.325	-200.000	-0.001	0.010
-407.311	726.175	-0.121	0.319
-406.296	-123.726	-0.120	-0.019
-405.282	7.588	0.017	0.013
-404.267	-119.282	0.277	-0.048
-403.252	1.687	0.147	-0.105
-402.238	76.809	0.129	-0.135
-401.223	800.000	0.140	0.421
-400.209	800.000	-0.054	0.183
-399.194	-97.463	0.261	0.067
-398.179	312.001	0.092	0.170
-397.165	62.548	-0.162	0.160
-396.150	-200.000	0.029	0.277
-395.136	-5.227	0.317	0.215
-394.121	-80.514	-0.391	0.129
-393.106	240.974	-0.141	-0.233
-392.092	800.000	-0.072	0.232
-391.077	-42.412	0.292	0.147
-390.063	489.903	-0.063	0.143
-389.048	-200.000	-0.046	-0.226
-388.033	501.976	-0.056	0.127
-387.019	182.825	0.103	-0.151
-386.004	-20.342	0.174	-0.106
-384.990	-131.406	0.085	0.011
-383.975	-131.330	-0.087	0.011
-382.960	698.633	-0.036	0.092
-381.946	-149.097	-0.764	0.061
-380.931	-200.000	0.021	-0.232
-379.917	228.438	-0.243	0.391
-378.902	-11.730	0.116	0.075
-377.888	610.269	-0.095	-0.235
-376.873	-3.237	-0.348	-0.240
-375.858	-200.000	-0.009	0.245
-374.844	24.433	0.284	0.232
-373.829	800.000	0.073	-0.316
-372.815	-200.000	0.025	-0.192
-371.800	90.874	-0.116	0.128
-370.785	441.450	-0.061	0.132
-369.771	20.881	-0.256	0.205
-368.756	-83.554	-0.121	-0.038
-367.742	-49.986	0.337	0.158
-366.727	-200.000	-0.033	0.214
-365.712	265.743	0.050	0.086
-364.698	-200.000	0.050	0.249
-363.683	-42.996	-0.160	0.080
-362.669	-26.671	0.143	-0.083
-361.654	-200.000	0.056	0.246
-360.639	20.409	-0.201	0.161
-359.625	-50.771	-0.129	-0.060
-358.610	370.716	-0.039	0.079
-357.596	-200.000	0.003	-0.072
-356.581	800.000	-0.024	-0.071
-355.566	-145.328	0.327	-0.029
-354.552	72.298	-0.167	0.172
-353.537	-3.594	-0.173	0.119
-352.523	-200.000	0.008	0.056
-351.508	-131.500	0.270	0.035
-350.493	56.216	0.474	-0.455
-349.479	41.743	0.075	0.067
-348.464	11.518	-0.259	-0.196
-347.450	-200.000	0.035	-0.266
-346.435	170.531	-0.170	-0.240
-345.420	171.878	0.145	-0.205
-344.406	22.502	0.111	0.089
-343.391	-200.000	-0.014	-0.329
-342.377	-24.249	0.114	0.067
-341.362	800.000	-0.095	0.283
-340.348	62.532	-0.293	0.289
-339.333	-56.144	0.152	0.067
-338.318	255.045	-0.140	-0.237
-337.304	800.000	-0.026	0.084
-336.289	186.430	0.114	-0.167
-335.275	800.000	-0.139	-0.409
-334.260	800.000	0.064	-0.212
-333.245	800.000	-0.053	0.190
-332.231	423.686	0.054	0.115
-331.216	38.703	-0.109	0.096
-330.202	-89.386	0.251	0.073
-329.187	-163.614	0.237	0.011
-328.172	408.802	-0.062	0.129
-327.158	-200.000	0.042	-0.197
-326.143	-94.541	0.273	0.073
-325.129	-184.354	-0.288	0.005
-324.114	-143.646	0.247	0.023
-323.099	205.860	0.006	0.009
-322.085	12.887	0.234	-0.178
-321.070	800.000	-0.014	0.054
-320.056	-200.000	-0.036	-0.359
-319.041	800.000	0.117	0.328
-318.026	800.000	-0.036	0.102
-317.012	-200.000	0.029	0.135
-315.997	-56.944	-0.199	0.087
-314.983	220.018	-0.013	-0.020
-313.968	33.753	-0.069	-0.059
-312.953	388.066	-0.054	0.110
-311.939	800.000	-0.030	-0.100
-310.924	-200.000	-0.033	-0.227
-309.910	800.000	0.081	0.227
-308.895	800.000	-0.054	0.156
-307.880	-26.954	0.156	-0.090
-306.866	-200.000	-0.033	0.210
-305.851	-86.195	0.156	0.047
-304.837	35.439	0.422	-0.365
-303.822	143.547	0.102	0.134
-302.807	-146.303	0.369	-0.032
-301.793	-8.239	-0.333	-0.221
-300.778	174.406	0.110	-0.156
-299.764	172.694	-0.262	0.371
-298.749	800.000	-0.099	0.349
-297.735	-75.797	0.244	0.085
-296.720	0.148	-0.229	0.161
-295.705	-23.195	0.318	-0.188
-294.691	45.156	-0.280	-0.254
-293.676	-88.278	-0.060	-0.018
-292.662	-66.356	0.162	-0.064
-291.647	-122.503	0.085	-0.014
-290.632	350.134	0.029	0.056
-289.618	-36.521	-0.258	-0.137
-288.603	800.000	0.045	0.139
-287.589	100.242	0.158	0.180
-286.574	28.593	-0.151	-0.126
-285.559	-107.328	-0.250	-0.054
-284.545	-31.987	-0.501	0.276
-283.530	249.756	-0.060	0.099
-282.516	217.154	0.179	0.280
-281.501	-200.000	0.038	-0.206
-280.486	-200.000	0.032	-0.144
-279.472	-200.000	-0.015	0.246
-278.457	-135.600	-0.177	-0.021
-277.443	22.420	0.140	-0.112
-276.428	-20.060	0.483	-0.293
-275.413	26.446	0.258	0.212
-274.399	-179.672	-0.303	-0.006
-273.384	13.217	-0.279	-0.213
-272.370	-200.000	-0.023	0.240
-271.355	-200.000	-0.038	-0.327
-270.340	528.112	-0.137	-0.319
-269.326	-200.000	0.048	0.247
-268.311	-200.000	0.005	-0.108
-267.297	-174.199	0.169	0.005
-266.282	-170.941	0.272	-0.009
-265.267	-200.000	0.009	0.045
-264.253	329.583	-0.144	-0.272
-263.238	-200.000	-0.044	0.337
-262.224	-200.000	-0.049	0.328
-261.209	-37.525	0.082	-0.043
-260.195	-200.000	-0.032	0.290
-259.180	-200.000	-0.019	-0.125
-258.165	70.339	-0.219	-0.222
-257.151	800.000	-0.034	0.110
-256.136	-200.000	-0.025	-0.239
-255.122	8.847	0.205	0.152
-254.107	-160.079	0.071	-0.004
-253.092	56.712	-0.048	0.046
-252.078	131.526	-0.120	0.152
-251.063	-161.217	0.158	0.008
-250.049	150.620	-0.109	-0.145
-249.034	800.000	-0.012	0.053
-248.019	-200.000	0.037	-0.272
-247.005	-147.210	0.362	0.030
-245.990	800.000	-0.056	0.183
-244.976	800.000	-0.055	0.181
-243.961	-200.000	0.005	-0.109
-242.946	388.172	0.020	-0.041
-241.932	5.818	0.069	-0.051
-240.917	-200.000	0.023	-0.113
-239.903	68.007	0.192	-0.193
-238.888	116.546	0.096	0.115
-237.873	194.889	-0.198	-0.295
-236.859	800.000	0.089	0.380
-235.844	294.239	0.160	-0.287
-234.830	-32.604	-0.353	0.193
-233.815	-112.360	-0.183	-0.036
-232.800	433.984	-0.096	0.204
-231.786	39.272	0.150	0.132
-230.771	31.200	-0.297	-0.250
-229.757	3.152	0.244	0.174
-228.742	-172.582	-0.410	0.013
-227.727	-56.868	-0.031	0.014
-226.713	-162.382	-0.196	-0.010
-225.698	-200.000	0.022	0.259
-224.684	105.198	-0.182	-0.211
-223.669	-200.000	0.027	0.135
-222.655	-200.000	0.026	0.346
-221.640	-72.627	0.235	0.085
-220.625	-71.795	-0.453	0.166
-219.611	258.096	0.122	-0.207
-218.596	-46.365	0.109	-0.053
-217.582	-200.000	0.018	0.458
-216.567	-186.712	0.132	-0.002
-215.552	800.000	-0.092	0.319
-214.538	-139.976	-0.290	-0.030
-213.523	-69.735	0.181	-0.068
-212.509	779.188	-0.031	-0.084
-211.494	800.000	0.021	-0.080
-210.479	-103.680	0.334	-0.077
-209.465	-173.803	-0.155	0.005
-208.450	-200.000	-0.060	-0.340
-207.436	94.634	0.156	0.174
-206.421	800.000	-0.078	-0.323
-205.406	247.369	0.131	0.216
-204.392	-200.000	-0.033	0.200
-203.377	184.689	0.302	0.439
-202.363	-96.638	-0.064	-0.017
-201.348	-42.716	-0.333	0.166
-200.333	47.012	0.392	0.358
-199.319	195.206	0.141	0.210
-198.304	-9.165	-0.223	-0.146
-197.290	-29.161	0.264	-0.149
-196.275	-84.385	0.048	-0.015
-195.260	48.571	0.153	0.140
-194.246	-110.783	0.194	-0.039
-193.231	-147.012	0.440	0.037
-192.217	-125.152	-0.419	-0.063
-191.202	-20.445	-0.103	0.062
-190.187	187.939	-0.213	-0.312
-189.173	180.110	-0.121	-0.173
-188.158	-158.994	0.243	-0.014
-187.144	800.000	0.044	0.159
-186.129	185.930	0.118	-0.171
-185.114	154.166	-0.133	-0.178
-184.100	-54.366	-0.180	0.080
-183.085	9.741	0.079	0.058
-182.071	-11.183	0.026	0.017
-181.056	145.345	0.130	0.171
-180.042	-57.566	0.167	-0.072
-179.027	45.835	0.014	0.013
-178.012	556.235	-0.110	0.259
-176.998	-31.857	-0.190	-0.104
-175.983	-189.809	0.071	-0.001
-174.969	-200.000	-0.010	0.149
-173.954	800.000	-0.169	0.493
-172.939	227.610	-0.149	-0.237
-171.925	-122.184	-0.194	-0.031
-170.910	522.679	0.061	0.141
-169.896	-114.612	0.334	-0.063
-168.881	159.649	0.171	0.233
-167.866	-200.000	-0.008	0.083
-166.852	601.889	0.068	0.166
-165.837	-178.808	-0.162	-0.004
-164.823	-74.487	-0.223	0.079
-163.808	-80.920	0.242	0.079
-162.793	325.755	-0.092	0.173
-161.779	-158.505	-0.457	0.026
-160.764	-57.480	-0.086	0.037
-159.750	-200.000	-0.001	-0.151
-158.735	-100.164	-0.392	-0.096
-157.720	-200.000	0.000	-0.107
-156.706	-200.000	0.014	-0.265
-155.691	-42.162	-0.242	0.121
-154.677	189.782	0.151	0.222
-153.662	160.343	0.151	0.207
-152.647	-48.976	0.125	-0.059
-151.633	99.093	-0.187	0.212
-150.618	2.938	0.161	0.115
-149.604	-153.626	0.177	0.012
-148.589	-200.000	-0.019	0.091
-147.574	360.565	0.080	0.157
-146.560	-59.163	0.299	0.126
-145.545	800.000	0.073	0.273
-144.531	264.741	0.121	-0.206
-143.516	-102.136	-0.076	-0.018
-142.502	104.520	0.131	0.151
-141.487	-144.817	0.247	-0.022
-140.472	-200.000	-0.009	0.166
-139.458	-58.124	-0.175	0.075
-138.443	399.004	-0.028	-0.057
-137.429	-86.862	0.227	-0.068
-136.414	-200.000	-0.003	0.187
-135.399	-200.000	0.051	0.299
-134.385	-52.718	0.441	0.199
-133.370	-34.406	-0.174	-0.094
-132.356	-109.816	-0.373	0.077
-131.341	-78.755	-0.197	0.066
-130.326	23.060	-0.136	0.109
-129.312	-177.124	0.105	-0.003
-128.297	102.168	-0.133	-0.152
-127.283	555.590	0.057	0.135
-126.268	21.355	0.469	-0.373
-125.253	-150.614	0.078	-0.006
-124.239	181.597	0.073	0.105
-123.224	34.866	0.324	0.277
-122.210	800.000	0.085	0.268
-121.195	-200.000	0.030	0.387
