DTS Sentinel unit serial number:	SN413079Multiplexer serial number:	ORYXHardware model number:	OX4-SRSoftware version number:	ORYX F/W v4.00 Oryx Data Collector v3.7.2.0data status	okinstallation	princeton_trtdifferential loss correction	single-endedforward channel	channel 3reverse channel	N/Adate	2019/09/18time	04:24:35forward acquisition time	60.00reverse acquisition time	0.00gamma	496.2192k internal	0.2343k external	0.2343temperature offset calibration	0.9944default loss term (dB/km)	0.3790temperature slope calibration	1.0000multiplexer offset coefficient	1.0000multiplexer slope coefficient	1.0000fibre end	0.00T internal ref (°C)	23.37T ext. ref 1 (°C)	0.18T ext. ref 2 (°C)	17.54length (m)	temperature (°C)	Stokes	anti-Stokes-747.200	61.515	-0.162	0.161
-746.185	-72.102	0.242	-0.090
-745.171	800.000	-0.078	0.296
-744.156	0.916	0.236	-0.170
-743.142	-10.161	-0.050	0.033
-742.127	-146.862	0.132	-0.011
-741.112	167.109	-0.112	0.159
-740.098	137.559	-0.318	0.417
-739.083	-200.000	0.010	-0.125
-738.069	-88.240	-0.136	0.041
-737.054	-109.560	-0.104	-0.022
-736.039	800.000	0.102	-0.283
-735.025	-170.953	0.463	-0.016
-734.010	208.287	0.015	0.024
-732.996	-22.457	0.026	-0.016
-731.981	-33.429	-0.122	0.068
-730.966	-55.872	0.075	-0.033
-729.952	-131.908	0.111	-0.014
-728.937	-132.983	0.312	-0.040
-727.923	21.892	-0.106	-0.087
-726.908	-44.974	0.169	0.084
-725.894	-158.936	0.173	-0.010
-724.879	-88.918	0.113	-0.033
-723.864	-22.877	-0.185	-0.112
-722.850	-171.507	0.426	0.014
-721.835	-200.000	-0.008	-0.175
-720.821	657.566	0.041	-0.106
-719.806	287.128	-0.174	0.315
-718.791	114.907	-0.203	0.247
-717.777	-41.652	-0.187	0.096
-716.762	64.736	-0.131	-0.132
-715.748	258.980	0.070	-0.120
-714.733	-64.079	-0.107	0.044
-713.718	-99.404	-0.353	0.089
-712.704	261.128	-0.061	-0.105
-711.689	24.638	-0.195	0.162
-710.675	-31.838	-0.275	-0.154
-709.660	360.174	0.077	0.154
-708.645	-59.676	-0.144	-0.062
-707.631	-158.164	-0.240	-0.014
-706.616	63.805	0.303	0.305
-705.602	260.730	0.089	0.155
-704.587	17.713	0.150	-0.120
-703.572	-200.000	0.022	-0.245
-702.558	229.357	0.108	0.176
-701.543	65.644	-0.044	-0.045
-700.529	0.057	0.328	-0.234
-699.514	-200.000	-0.041	-0.192
-698.499	-200.000	-0.016	-0.135
-697.485	72.827	0.177	-0.185
-696.470	-169.924	0.583	-0.021
-695.456	800.000	-0.066	-0.216
-694.441	-91.066	-0.039	-0.011
-693.426	31.954	0.251	0.216
-692.412	53.434	0.068	0.065
-691.397	226.941	0.096	0.156
-690.383	63.590	0.048	-0.048
-689.368	-200.000	-0.046	-0.353
-688.354	800.000	-0.069	-0.247
-687.339	645.969	0.151	-0.386
-686.324	-144.945	-0.303	-0.028
-685.310	231.727	0.066	0.109
-684.295	-123.420	0.349	0.056
-683.281	-126.127	-0.291	-0.044
-682.266	112.215	0.051	-0.062
-681.251	-200.000	0.032	-0.156
-680.237	800.000	-0.065	-0.246
-679.222	403.423	-0.205	0.431
-678.208	8.275	-0.082	0.062
-677.193	-165.784	-0.202	-0.009
-676.178	-191.178	0.283	-0.003
-675.164	-59.770	-0.309	-0.132
-674.149	206.184	0.091	-0.141
-673.135	349.146	-0.109	-0.214
-672.120	424.931	0.064	0.137
-671.105	800.000	0.035	-0.099
-670.091	109.050	-0.126	-0.151
-669.076	-200.000	-0.019	0.116
-668.062	-9.155	0.086	0.058
-667.047	61.147	-0.021	-0.021
-666.032	47.189	-0.074	0.068
-665.018	-200.000	0.006	-0.032
-664.003	-38.399	-0.191	-0.101
-662.989	-74.157	0.094	0.034
-661.974	32.036	0.125	-0.108
-660.959	-200.000	0.026	0.121
-659.945	-200.000	-0.001	-0.024
-658.930	114.983	-0.009	-0.011
-657.916	-126.593	0.230	0.034
-656.901	114.784	-0.145	-0.177
-655.886	-25.766	-0.225	0.133
-654.872	-38.367	0.198	0.105
-653.857	-200.000	0.020	0.176
-652.843	362.510	-0.145	-0.291
-651.828	24.054	0.148	0.122
-650.814	-200.000	-0.019	0.293
-649.799	-200.000	0.039	0.216
-648.784	-4.808	0.211	0.145
-647.770	-200.000	0.025	0.168
-646.755	152.621	-0.023	-0.031
-645.741	27.080	0.216	0.181
-644.726	-160.405	0.223	0.012
-643.711	6.702	0.110	-0.082
-642.697	-84.843	-0.391	0.122
-641.682	253.370	-0.252	-0.429
-640.668	292.772	0.060	-0.109
-639.653	-69.014	0.366	-0.141
-638.638	-38.569	-0.089	-0.047
-637.624	-69.261	-0.195	0.075
-636.609	339.236	-0.084	0.163
-635.595	9.981	0.044	-0.033
-634.580	-5.232	-0.157	0.107
-633.565	-200.000	-0.012	0.295
-632.551	13.320	-0.124	0.096
-631.536	-22.703	-0.169	0.102
-630.522	21.847	-0.071	-0.057
-629.507	555.697	-0.173	0.416
-628.492	800.000	0.076	0.271
-627.478	173.553	0.038	-0.055
-626.463	800.000	-0.108	0.405
-625.449	22.215	0.078	0.063
-624.434	800.000	-0.065	-0.223
-623.419	-45.782	-0.358	-0.176
-622.405	7.855	0.204	-0.153
-621.390	43.856	0.056	0.052
-620.376	-143.326	-0.100	0.010
-619.361	-4.528	0.199	-0.137
-618.346	187.889	0.133	0.198
-617.332	-68.123	-0.070	-0.027
-616.317	-146.198	0.125	-0.011
-615.303	93.904	-0.047	-0.053
-614.288	-9.789	0.136	-0.090
-613.273	800.000	0.105	-0.303
-612.259	473.028	-0.154	-0.347
-611.244	466.356	0.080	0.178
-610.230	-174.599	-0.489	-0.014
-609.215	-196.339	0.252	-0.002
-608.201	-200.000	0.044	0.207
-607.186	9.098	0.294	-0.221
-606.171	87.532	-0.218	-0.240
-605.157	-200.000	0.047	0.341
-604.142	-125.988	0.052	0.008
-603.128	-56.757	0.249	-0.110
-602.113	800.000	-0.076	0.225
-601.098	-39.419	-0.424	-0.221
-600.084	-53.132	-0.090	0.041
-599.069	-200.000	-0.032	-0.247
-598.055	407.848	0.062	-0.130
-597.040	-200.000	-0.048	0.360
-596.025	-156.996	-0.201	0.012
-595.011	-75.359	0.523	0.185
-593.996	800.000	0.062	-0.171
-592.982	-56.835	-0.134	0.059
-591.967	-200.000	-0.020	0.206
-590.952	-22.586	-0.291	0.175
-589.938	-15.515	-0.089	0.057
-588.923	800.000	-0.076	-0.214
-587.909	85.354	0.180	0.196
-586.894	153.954	0.047	0.064
-585.879	800.000	-0.026	-0.101
-584.865	-29.331	-0.044	-0.025
-583.850	-99.275	-0.216	-0.054
-582.836	37.998	0.089	-0.079
-581.821	-87.581	0.176	0.053
-580.806	379.285	-0.069	-0.141
-579.792	-150.363	0.353	0.027
-578.777	520.693	0.060	0.139
-577.763	-163.228	-0.228	0.011
-576.748	-45.617	0.033	-0.016
-575.733	96.129	-0.091	-0.103
-574.719	155.136	-0.228	-0.313
-573.704	-52.784	-0.103	-0.047
-572.690	792.510	-0.043	0.118
-571.675	800.000	-0.038	-0.111
-570.661	272.339	-0.198	-0.347
-569.646	-107.761	0.288	-0.063
-568.631	222.998	-0.123	-0.197
-567.617	190.696	0.255	-0.381
-566.602	263.873	-0.120	-0.207
-565.588	-156.632	-0.276	-0.017
-564.573	-58.982	0.201	0.086
-563.558	270.562	0.100	0.175
-562.544	-87.479	-0.151	-0.045
-561.529	800.000	-0.039	-0.106
-560.515	-13.884	-0.145	0.093
-559.500	274.949	-0.003	-0.005
-558.485	-1.260	0.097	0.068
-557.471	-21.821	0.193	0.117
-556.456	202.124	0.105	-0.162
-555.442	-139.545	0.248	0.026
-554.427	-200.000	-0.048	0.217
-553.412	272.187	-0.211	-0.370
-552.398	-129.152	-0.242	-0.034
-551.383	-138.318	0.192	0.021
-550.369	-200.000	0.014	0.065
-549.354	253.975	-0.114	-0.193
-548.339	-20.008	0.361	-0.222
-547.325	220.154	-0.072	-0.115
-546.310	150.444	0.063	-0.085
-545.296	-103.848	-0.392	-0.091
-544.281	-78.548	0.269	-0.091
-543.266	252.866	0.197	-0.335
-542.252	449.235	0.091	-0.199
-541.237	-91.539	0.185	0.052
-540.223	-165.635	-0.426	-0.018
-539.208	342.207	0.034	0.067
-538.193	74.819	-0.153	-0.160
-537.179	-59.341	0.128	-0.055
-536.164	800.000	-0.100	-0.380
-535.150	-88.848	-0.289	0.085
-534.135	-120.835	-0.255	0.043
-533.121	-42.204	-0.167	0.085
-532.106	-169.733	0.077	-0.003
-531.091	-200.000	0.063	0.309
-530.077	-200.000	-0.056	0.260
-529.062	-110.346	-0.141	-0.029
-528.048	-63.966	0.161	-0.065
-527.033	-82.265	-0.179	0.058
-526.018	31.205	-0.253	0.215
-525.004	-100.144	0.079	-0.020
-523.989	181.628	0.044	0.064
-522.975	147.134	-0.087	0.116
-521.960	-200.000	-0.018	0.210
-520.945	77.105	-0.070	0.073
-519.931	-10.807	-0.283	-0.185
-518.916	-122.119	0.250	0.041
-517.902	556.194	-0.116	-0.278
-516.887	349.265	-0.077	0.151
-515.872	-200.000	-0.001	0.017
-514.858	-200.000	0.022	0.203
-513.843	83.476	-0.104	-0.112
-512.829	-200.000	0.020	0.215
-511.814	148.549	-0.205	-0.275
-510.799	-22.362	-0.104	0.062
-509.785	800.000	-0.022	-0.069
-508.770	-30.702	0.261	-0.147
-507.756	-19.378	0.154	-0.095
-506.741	22.167	-0.132	-0.107
-505.726	-200.000	-0.016	0.246
-504.712	464.162	0.091	0.201
-503.697	-200.000	-0.061	-0.302
-502.683	-87.280	-0.068	-0.020
-501.668	-200.000	0.017	0.081
-500.653	800.000	0.075	-0.219
-499.639	800.000	-0.022	0.071
-498.624	-17.775	0.181	-0.113
-497.610	329.169	-0.109	0.208
-496.595	-170.002	0.245	-0.009
-495.581	800.000	-0.061	0.184
-494.566	0.520	0.148	-0.105
-493.551	-44.258	-0.096	0.048
-492.537	158.272	-0.166	-0.228
-491.522	264.001	0.176	0.303
-490.508	102.350	0.108	-0.125
-489.493	-200.000	-0.015	0.137
-488.478	231.790	-0.054	0.088
-487.464	-200.000	-0.006	-0.131
-486.449	-200.000	-0.032	0.241
-485.435	77.931	-0.130	0.138
-484.420	800.000	0.079	-0.232
-483.405	800.000	-0.108	-0.401
-482.391	705.909	0.112	-0.293
-481.376	800.000	0.081	0.225
-480.362	121.829	0.127	0.158
-479.347	81.135	0.103	0.110
-478.332	25.556	-0.152	0.125
-477.318	94.461	0.059	0.066
-476.303	-42.291	-0.136	0.069
-475.289	33.953	-0.152	-0.132
-474.274	-31.596	0.190	0.106
-473.259	154.106	0.085	-0.116
-472.245	-124.889	-0.386	-0.059
-471.230	130.655	-0.073	-0.093
-470.216	-78.886	0.229	-0.077
-469.201	125.718	-0.171	0.214
-468.186	-200.000	0.045	-0.390
-467.172	-200.000	0.011	-0.089
-466.157	96.802	0.114	0.130
-465.143	160.725	0.082	0.114
-464.128	-28.267	-0.145	-0.083
-463.113	-200.000	0.006	0.120
-462.099	-200.000	0.032	0.298
-461.084	-56.332	-0.193	-0.085
-460.070	293.858	-0.119	-0.215
-459.055	-200.000	0.083	0.442
-458.040	800.000	0.078	-0.257
-457.026	-76.654	0.192	-0.067
-456.011	-200.000	0.030	0.226
-454.997	212.357	-0.247	0.386
-453.982	154.410	0.203	-0.276
-452.968	-94.864	-0.311	-0.083
-451.953	-84.288	0.259	0.081
-450.938	-85.407	-0.051	-0.016
-449.924	-35.039	0.011	0.006
-448.909	-9.558	0.364	-0.240
-447.895	59.232	-0.148	0.145
-446.880	-144.721	0.080	0.007
-445.865	-200.000	-0.037	-0.452
-444.851	-12.186	0.214	0.139
-443.836	-25.050	-0.210	0.123
-442.822	-106.399	0.236	0.052
-441.807	-200.000	0.011	0.159
-440.792	-33.063	-0.185	0.102
-439.778	175.499	-0.058	0.084
-438.763	-200.000	0.018	-0.111
-437.749	0.522	0.102	-0.072
-436.734	-38.709	-0.367	-0.192
-435.719	57.098	-0.102	-0.099
-434.705	605.063	-0.090	-0.223
-433.690	800.000	0.039	0.148
-432.676	800.000	-0.076	0.305
-431.661	-102.918	0.301	-0.071
-430.646	-138.016	-0.361	0.040
-429.632	800.000	-0.074	-0.265
-428.617	1.204	-0.158	-0.112
-427.603	317.509	-0.137	0.256
-426.588	-77.569	-0.049	-0.017
-425.573	-200.000	0.011	-0.128
-424.559	232.607	0.108	0.175
-423.544	29.215	-0.083	0.069
-422.530	-158.593	-0.144	0.008
-421.515	696.494	-0.131	0.341
-420.500	-159.780	0.034	-0.002
-419.486	-200.000	0.014	-0.064
-418.471	800.000	0.106	-0.311
-417.457	-39.031	-0.297	0.154
-416.442	685.122	-0.067	0.174
-415.428	-51.784	-0.097	0.045
-414.413	16.048	0.078	-0.061
-413.398	-200.000	0.040	-0.276
-412.384	75.045	-0.139	0.145
-411.369	155.065	-0.058	0.078
-410.355	-115.121	0.219	-0.041
-409.340	-94.815	0.036	0.010
-408.325	-200.000	0.030	-0.266
-407.311	-139.423	0.261	0.028
-406.296	449.938	-0.195	-0.425
-405.282	4.374	-0.105	-0.076
-404.267	-135.474	-0.199	0.023
-403.252	-82.277	0.292	-0.094
-402.238	141.567	0.095	-0.125
-401.223	302.766	-0.050	0.091
-400.209	93.565	0.100	0.111
-399.194	-114.331	0.278	-0.053
-398.179	800.000	0.059	-0.238
-397.165	88.119	-0.183	-0.201
-396.150	800.000	0.010	0.041
-395.136	-200.000	-0.026	-0.205
-394.121	109.368	0.098	0.116
-393.106	-15.998	-0.237	0.149
-392.092	800.000	-0.037	-0.121
-391.077	722.483	0.031	0.082
-390.063	-1.079	0.139	-0.097
-389.048	116.222	-0.131	0.158
-388.033	771.731	0.077	0.207
-387.019	394.795	0.096	0.198
-386.004	198.732	0.047	-0.071
-384.990	-56.124	0.057	-0.025
-383.975	-123.839	0.188	-0.029
-382.960	170.023	-0.211	0.298
-381.946	15.256	0.111	-0.086
-380.931	247.270	0.165	0.274
-379.917	-91.722	-0.149	0.042
-378.902	146.502	0.131	-0.174
-377.888	-138.515	0.190	-0.021
-376.873	-200.000	0.027	-0.126
-375.858	-200.000	-0.003	0.149
-374.844	289.287	-0.078	0.139
-373.829	88.596	-0.101	-0.111
-372.815	35.251	0.206	0.178
-371.800	94.008	-0.212	0.238
-370.785	37.465	-0.151	-0.132
-369.771	-200.000	0.036	-0.352
-368.756	297.521	0.034	-0.062
-367.742	302.879	0.171	0.312
-366.727	-200.000	0.018	0.288
-365.712	29.158	-0.197	0.165
-364.698	-56.595	0.198	0.086
-363.683	-29.675	0.256	-0.144
-362.669	306.991	-0.095	0.175
-361.654	339.800	0.110	-0.212
-360.639	-141.063	-0.181	0.018
-359.625	-200.000	-0.023	0.224
-358.610	267.380	-0.093	0.161
-357.596	434.593	-0.054	-0.117
-356.581	-200.000	-0.038	-0.267
-355.566	144.272	0.287	0.378
-354.552	-20.601	0.089	0.054
-353.537	-159.471	-0.166	0.009
-352.523	-79.526	-0.083	0.028
-351.508	354.736	0.078	0.153
-350.493	94.239	0.077	-0.087
-349.479	229.494	0.134	-0.217
-348.464	-59.512	-0.162	0.068
-347.450	-113.517	0.358	-0.069
-346.435	-41.499	-0.319	0.162
-345.420	-122.463	-0.214	-0.034
-344.406	-200.000	-0.014	-0.112
-343.391	2.041	0.142	-0.101
-342.377	-155.066	-0.295	-0.019
-341.362	-12.499	0.249	0.160
-340.348	-200.000	0.046	-0.290
-339.333	-146.946	0.418	-0.035
-338.318	63.975	-0.171	-0.170
-337.304	-167.805	-0.108	0.004
-336.289	-59.525	0.218	-0.092
-335.275	466.894	-0.094	-0.207
-334.260	-200.000	0.011	0.438
-333.245	-200.000	0.001	-0.141
-332.231	-83.402	-0.188	0.059
-331.216	326.975	0.210	-0.397
-330.202	-69.559	0.131	-0.049
-329.187	-48.964	0.232	-0.109
-328.172	607.197	-0.055	0.135
-327.158	121.126	-0.187	0.230
-326.143	-200.000	-0.105	0.466
-325.129	351.969	-0.078	0.153
-324.114	357.303	0.076	-0.149
-323.099	-37.107	0.237	-0.125
-322.085	164.371	0.044	-0.062
-321.070	-166.571	0.146	0.006
-320.056	118.006	0.099	0.120
-319.041	-117.930	-0.101	-0.018
-318.026	-200.000	0.004	-0.081
-317.012	-14.957	0.181	0.114
-315.997	-10.075	0.197	-0.129
-314.983	-200.000	0.002	-0.016
-313.968	-39.375	-0.207	-0.107
-312.953	171.363	0.194	-0.274
-311.939	134.711	-0.072	-0.092
-310.924	7.525	-0.165	0.122
-309.910	261.726	-0.034	-0.058
-308.895	59.076	-0.185	0.180
-307.880	-36.213	0.097	-0.051
-306.866	-141.297	0.388	-0.039
-305.851	-200.000	-0.019	0.147
-304.837	454.480	0.159	0.347
-303.822	202.026	-0.155	0.236
-302.807	471.354	-0.077	-0.171
-301.793	-200.000	-0.012	-0.074
-300.778	-150.388	-0.101	-0.008
-299.764	-145.149	0.348	0.031
-298.749	-161.302	-0.260	-0.013
-297.735	-200.000	-0.027	-0.430
-296.720	-71.633	-0.345	-0.127
-295.705	-84.381	0.056	0.017
-294.691	74.043	0.128	-0.132
-293.676	-54.532	0.057	-0.026
-292.662	-200.000	0.013	0.174
-291.647	363.779	0.061	-0.120
-290.632	-194.117	-0.195	-0.002
-289.618	-11.694	0.092	0.059
-288.603	800.000	0.063	0.205
-287.589	69.093	-0.089	0.090
-286.574	24.223	-0.096	0.078
-285.559	86.939	0.088	0.095
-284.545	332.493	0.029	0.055
-283.530	-58.889	0.346	-0.147
-282.516	566.718	-0.078	0.185
-281.501	56.099	-0.184	-0.176
-280.486	-200.000	0.019	0.132
-279.472	120.919	-0.156	-0.191
-278.457	800.000	-0.051	-0.192
-277.443	29.259	0.240	-0.200
-276.428	-200.000	-0.021	-0.221
-275.413	-200.000	-0.031	-0.260
-274.399	576.429	0.177	0.425
-273.384	93.556	-0.072	-0.080
-272.370	-200.000	-0.002	0.101
-271.355	-171.697	-0.034	0.001
-270.340	-66.045	0.396	0.155
-269.326	-57.257	-0.284	0.123
-268.311	-200.000	-0.007	-0.439
-267.297	-100.063	-0.100	-0.025
-266.282	-139.878	-0.109	-0.011
-265.267	588.898	0.113	-0.274
-264.253	48.309	-0.143	0.131
-263.238	800.000	-0.028	0.089
-262.224	432.120	-0.044	-0.094
-261.209	800.000	0.048	-0.158
-260.195	427.462	0.084	-0.179
-259.180	2.509	0.141	-0.100
-258.165	-4.574	0.133	0.090
-257.151	-83.210	0.338	0.107
-256.136	-17.632	-0.086	-0.053
-255.122	707.344	-0.114	0.296
-254.107	-100.842	0.291	-0.070
-253.092	-200.000	0.007	-0.080
-252.078	6.028	-0.161	0.117
-251.063	-119.944	-0.367	0.062
-250.049	207.528	-0.056	-0.086
-249.034	-33.660	-0.073	-0.040
-248.019	-77.458	-0.094	-0.032
-247.005	50.862	0.247	0.230
-245.990	68.582	0.162	-0.163
-244.976	208.378	0.253	-0.389
-243.961	-64.658	0.086	-0.034
-242.946	250.740	0.075	-0.126
-241.932	688.671	-0.114	-0.292
-240.917	109.574	-0.064	-0.076
-239.903	-104.452	-0.211	-0.048
-238.888	-125.039	-0.037	-0.006
-237.873	114.836	0.129	-0.155
-236.859	-147.090	0.080	-0.007
-235.844	-12.490	0.085	0.054
-234.830	-64.808	-0.208	0.083
-233.815	263.671	0.115	0.197
-232.800	-75.376	0.085	-0.030
-231.786	5.019	0.131	0.095
-230.771	-182.146	-0.181	-0.003
-229.757	-147.715	0.161	-0.013
-228.742	90.365	-0.145	0.159
-227.727	25.404	-0.166	-0.135
-226.713	51.767	-0.236	-0.220
-225.698	-109.153	0.235	0.049
-224.684	-44.765	0.316	0.155
-223.669	-37.280	0.238	-0.125
-222.655	-82.380	0.165	0.053
-221.640	1.465	0.271	0.191
-220.625	-27.650	0.251	0.143
-219.611	-101.134	-0.169	0.041
-218.596	-14.618	-0.115	0.073
-217.582	-200.000	-0.002	0.035
-216.567	-129.179	-0.264	-0.036
-215.552	27.660	-0.288	-0.238
-214.538	563.823	0.043	0.101
-213.523	699.741	-0.019	-0.050
-212.509	29.118	-0.351	-0.292
-211.494	-76.025	0.115	-0.040
-210.479	239.841	0.093	-0.153
-209.465	139.615	0.196	0.254
-208.450	-132.290	0.282	-0.036
-207.436	-3.784	0.069	0.047
-206.421	-78.081	-0.299	0.101
-205.406	-200.000	0.016	0.380
-204.392	-75.049	-0.125	0.044
-203.377	20.360	0.135	0.107
-202.363	800.000	0.080	0.239
-201.348	162.224	0.029	0.040
-200.333	7.068	0.203	-0.149
-199.319	-0.813	-0.122	-0.085
-198.304	115.859	0.083	0.100
-197.290	8.058	-0.339	0.249
-196.275	-200.000	-0.006	-0.037
-195.260	-78.603	0.308	-0.103
-194.246	4.950	-0.235	-0.170
-193.231	800.000	0.033	-0.091
-192.217	193.429	0.114	-0.169
-191.202	176.273	-0.129	0.183
-190.187	16.139	-0.209	-0.161
-189.173	-161.602	-0.223	-0.011
-188.158	727.647	0.102	0.265
-187.144	800.000	0.067	0.211
-186.129	100.650	-0.040	0.046
-185.114	-68.377	-0.221	-0.084
-184.100	28.433	0.189	0.157
-183.085	-200.000	-0.033	-0.179
-182.071	-200.000	0.116	-0.527
-181.056	9.664	-0.163	-0.121
-180.042	800.000	-0.028	0.118
-179.027	-200.000	0.012	0.200
-178.012	36.967	0.114	-0.099
-176.998	800.000	-0.014	0.057
-175.983	56.125	-0.246	0.234
-174.969	-81.197	-0.195	-0.063
-173.954	382.044	0.072	0.145
-172.939	-200.000	0.022	-0.292
-171.925	-200.000	0.037	0.308
-170.910	-14.337	0.187	0.118
-169.896	-111.262	0.238	0.048
-168.881	-13.383	-0.053	0.034
-167.866	-87.150	0.206	0.061
-166.852	55.618	0.196	0.186
-165.837	-157.038	0.182	0.011
-164.823	110.930	0.267	0.315
-163.808	71.240	0.127	0.129
-162.793	-79.414	-0.187	0.062
-161.779	39.243	-0.291	0.255
-160.764	-200.000	-0.003	0.356
-159.750	-200.000	-0.002	-0.140
-158.735	-53.652	-0.165	0.074
-157.720	-21.806	0.229	0.136
-156.706	-126.928	-0.239	0.034
-155.691	-65.662	0.139	-0.054
-154.677	249.875	-0.018	-0.031
-153.662	-58.361	0.211	0.090
-152.647	800.000	-0.055	-0.213
-151.633	-124.455	-0.267	-0.041
-150.618	-123.194	-0.077	0.012
-149.604	-200.000	-0.039	-0.173
-148.589	84.406	-0.222	-0.238
-147.574	-200.000	0.033	0.190
-146.560	266.577	0.159	-0.271
-145.545	800.000	-0.107	-0.364
-144.531	-181.321	0.349	0.007
-143.516	-200.000	0.011	-0.071
-142.502	105.807	-0.099	-0.115
-141.487	505.948	0.043	-0.098
-140.472	49.072	0.420	-0.386
-139.458	306.718	0.038	-0.070
-138.443	-115.913	-0.154	0.028
-137.429	42.478	0.332	0.295
-136.414	-200.000	0.014	0.288
-135.399	-56.771	0.360	0.156
-134.385	-94.509	0.165	-0.044
-133.370	175.519	0.219	0.310
-132.356	-98.933	0.236	-0.059
-131.341	-148.394	0.239	0.019
-130.326	-93.749	0.131	-0.035
-129.312	35.440	0.068	0.058
-128.297	800.000	-0.029	-0.095
-127.283	-200.000	-0.063	0.469
-126.268	-9.804	-0.161	0.105
-125.253	-200.000	-0.002	0.227
-124.239	-124.035	0.171	0.026
-123.224	-200.000	0.064	0.431
-122.210	800.000	0.040	-0.150
-121.195	555.648	0.270	-0.634
