DTS Sentinel unit serial number:	SN413079Multiplexer serial number:	ORYXHardware model number:	OX4-SRSoftware version number:	ORYX F/W v4.00 Oryx Data Collector v3.7.2.0data status	okinstallation	princeton_trtdifferential loss correction	single-endedforward channel	channel 3reverse channel	N/Adate	2019/09/13time	10:56:34forward acquisition time	60.00reverse acquisition time	0.00gamma	496.2192k internal	0.2319k external	0.2319temperature offset calibration	1.0142default loss term (dB/km)	0.3790temperature slope calibration	1.0000multiplexer offset coefficient	1.0000multiplexer slope coefficient	1.0000fibre end	0.00T internal ref (°C)	31.77T ext. ref 1 (°C)	4.61T ext. ref 2 (°C)	28.26length (m)	temperature (°C)	Stokes	anti-Stokes-747.200	386.904	-0.043	-0.090
-746.185	-200.000	0.053	0.341
-745.171	-41.396	0.256	-0.134
-744.156	-200.000	-0.009	0.134
-743.142	-200.000	-0.044	-0.240
-742.127	-200.000	0.041	-0.253
-741.112	800.000	0.125	0.411
-740.098	664.757	-0.058	0.152
-739.083	-85.778	-0.102	0.032
-738.069	-200.000	0.012	0.401
-737.054	-124.774	0.184	-0.029
-736.039	712.628	-0.020	0.053
-735.025	6.417	0.334	-0.251
-734.010	-200.000	-0.069	-0.397
-732.996	152.411	-0.143	-0.198
-731.981	-3.610	-0.270	-0.190
-730.966	20.627	-0.379	-0.311
-729.952	-124.678	-0.254	-0.040
-728.937	39.374	-0.248	-0.224
-727.923	-186.554	0.176	-0.003
-726.908	25.078	-0.282	-0.237
-725.894	514.963	-0.117	-0.277
-724.879	800.000	0.073	0.247
-723.864	7.467	-0.327	0.247
-722.850	536.614	0.079	-0.189
-721.835	-174.392	0.189	-0.005
-720.821	-200.000	-0.002	0.167
-719.806	-80.107	-0.346	-0.117
-718.791	-200.000	-0.098	-0.570
-717.777	-117.849	0.149	0.027
-716.762	523.930	-0.098	0.232
-715.748	-108.143	-0.307	-0.067
-714.733	-130.877	0.208	-0.028
-713.718	455.383	0.076	-0.171
-712.704	192.313	0.073	0.112
-711.689	-10.428	0.079	-0.053
-710.675	397.810	-0.086	-0.181
-709.660	-21.142	-0.257	-0.159
-708.645	-200.000	-0.001	-0.254
-707.631	-20.817	0.217	-0.135
-706.616	-176.718	-0.098	0.003
-705.602	-200.000	-0.019	0.257
-704.587	-83.978	-0.323	-0.104
-703.572	800.000	-0.065	-0.201
-702.558	-103.485	-0.368	-0.087
-701.543	340.780	0.023	-0.044
-700.529	-63.682	0.225	-0.093
-699.514	-10.392	0.032	-0.021
-698.499	-55.188	-0.058	-0.026
-697.485	59.398	0.247	-0.246
-696.470	-200.000	-0.083	-0.476
-695.456	-200.000	-0.021	0.298
-694.441	-6.459	-0.345	-0.237
-693.426	-11.943	0.172	0.114
-692.412	110.423	0.020	0.024
-691.397	800.000	0.024	0.094
-690.383	-97.739	0.108	0.028
-689.368	-92.621	0.083	-0.023
-688.354	93.374	-0.123	0.141
-687.339	-200.000	-0.039	0.174
-686.324	27.153	0.137	0.116
-685.310	-52.194	-0.254	0.119
-684.295	77.514	-0.070	-0.075
-683.281	650.753	-0.096	-0.248
-682.266	800.000	0.048	0.159
-681.251	-79.072	0.035	0.012
-680.237	-200.000	0.071	0.337
-679.222	50.741	-0.266	-0.254
-678.208	-200.000	-0.002	-0.058
-677.193	-172.013	0.191	-0.006
-676.178	654.008	0.092	-0.237
-675.164	-120.228	0.299	-0.051
-674.149	-106.603	-0.254	0.057
-673.135	44.774	-0.095	0.088
-672.120	-109.136	0.202	0.043
-671.105	-48.709	-0.134	0.065
-670.091	-5.576	0.121	0.084
-669.076	800.000	0.100	-0.436
-668.062	-27.678	0.253	-0.148
-667.047	-118.502	0.351	0.063
-666.032	-170.388	0.084	-0.003
-665.018	62.850	-0.051	-0.051
-664.003	34.503	0.118	0.104
-662.989	172.514	0.092	-0.133
-661.974	10.359	-0.154	-0.118
-660.959	242.527	-0.089	0.150
-659.945	-177.410	-0.257	-0.006
-658.930	497.242	-0.099	0.230
-657.916	30.096	0.288	-0.247
-656.901	37.720	-0.123	-0.110
-655.886	-200.000	0.013	-0.418
-654.872	667.647	0.085	0.223
-653.857	800.000	-0.055	-0.168
-652.843	397.478	0.074	-0.156
-651.828	97.001	0.168	-0.194
-650.814	-54.529	-0.172	0.078
-649.799	-106.799	-0.111	-0.025
-648.784	-13.945	0.396	-0.258
-647.770	716.707	0.083	0.223
-646.755	-10.168	-0.402	0.269
-645.741	-149.092	-0.398	-0.032
-644.726	800.000	0.042	-0.183
-643.711	368.135	0.055	0.112
-642.697	308.539	-0.055	-0.103
-641.682	-6.064	-0.108	-0.074
-640.668	264.385	0.121	-0.212
-639.653	109.407	-0.033	0.040
-638.638	-47.789	-0.277	-0.135
-637.624	-63.891	0.193	0.079
-636.609	-27.034	0.160	0.094
-635.595	-200.000	0.009	0.158
-634.580	-150.478	0.230	0.018
-633.565	-123.765	-0.252	-0.040
-632.551	298.080	0.019	0.036
-631.536	164.296	-0.124	0.176
-630.522	-200.000	-0.014	0.276
-629.507	133.734	0.133	-0.173
-628.492	-200.000	0.032	-0.423
-627.478	-200.000	-0.004	-0.107
-626.463	-118.512	0.117	-0.021
-625.449	-136.171	-0.165	-0.019
-624.434	-101.865	-0.189	0.046
-623.419	-10.888	0.243	0.162
-622.405	-70.566	0.280	-0.107
-621.390	76.607	0.142	-0.151
-620.376	160.063	-0.072	-0.102
-619.361	-23.405	-0.201	-0.121
-618.346	94.001	0.115	0.131
-617.332	127.178	-0.081	0.103
-616.317	709.574	-0.066	-0.175
-615.303	281.706	0.157	-0.282
-614.288	97.811	-0.041	-0.047
-613.273	-200.000	-0.017	-0.192
-612.259	-22.423	-0.115	-0.070
-611.244	-25.909	0.065	-0.038
-610.230	-200.000	-0.058	-0.323
-609.215	-65.115	-0.203	-0.083
-608.201	-19.791	0.315	-0.196
-607.186	800.000	-0.105	0.327
-606.171	-109.268	0.160	0.034
-605.157	188.609	-0.021	-0.031
-604.142	193.237	-0.136	-0.207
-603.128	800.000	0.037	0.157
-602.113	-100.765	-0.069	0.017
-601.098	233.216	-0.159	0.263
-600.084	-200.000	0.004	-0.188
-599.069	-8.901	0.143	-0.096
-598.055	490.042	0.030	-0.069
-597.040	-16.904	0.226	-0.143
-596.025	-200.000	-0.056	-0.408
-595.011	-179.264	0.544	-0.012
-593.996	-16.269	0.159	0.102
-592.982	90.598	-0.018	0.020
-591.967	-2.983	-0.063	-0.044
-590.952	145.333	0.209	-0.282
-589.938	-163.007	-0.198	0.010
-588.923	42.316	-0.139	0.127
-587.909	-20.373	0.086	0.053
-586.894	-150.173	-0.211	-0.016
-585.879	299.483	0.057	-0.106
-584.865	24.088	-0.249	-0.207
-583.850	-132.470	0.206	0.027
-582.836	73.871	-0.178	-0.188
-581.821	-92.624	-0.328	0.093
-580.806	142.266	-0.206	0.275
-579.792	-200.000	0.008	-0.141
-578.777	-200.000	-0.035	0.201
-577.763	-64.795	0.278	0.113
-576.748	153.742	-0.186	-0.256
-575.733	82.797	-0.180	-0.197
-574.719	-200.000	0.005	-0.062
-573.704	-23.110	0.197	-0.119
-572.690	-200.000	0.010	-0.118
-571.675	-50.833	-0.289	0.136
-570.661	-132.250	0.197	0.026
-569.646	510.991	-0.085	0.199
-568.631	-22.216	0.164	-0.100
-567.617	-52.563	-0.195	-0.090
-566.602	772.048	0.039	0.106
-565.588	248.773	0.199	0.338
-564.573	395.991	-0.025	0.053
-563.558	-200.000	0.000	0.112
-562.544	-118.501	0.250	-0.044
-561.529	90.887	-0.162	0.183
-560.515	256.076	-0.155	0.268
-559.500	40.252	-0.183	0.165
-558.485	-123.118	-0.238	0.038
-557.471	800.000	0.053	-0.172
-556.456	36.601	0.024	0.021
-555.442	-200.000	-0.089	0.400
-554.427	23.207	-0.122	0.101
-553.412	183.133	0.296	0.439
-552.398	107.630	0.077	0.092
-551.383	-144.943	-0.076	0.007
-550.369	291.029	-0.080	0.145
-549.354	28.092	0.133	0.113
-548.339	-8.662	-0.127	0.086
-547.325	27.351	0.262	-0.221
-546.310	-200.000	0.014	-0.115
-545.296	0.306	-0.250	-0.179
-544.281	-200.000	-0.009	0.144
-543.266	37.824	-0.114	0.101
-542.252	238.958	0.162	-0.270
-541.237	-68.857	0.347	-0.135
-540.223	-200.000	0.000	-0.326
-539.208	-116.073	-0.128	0.024
-538.193	380.696	-0.092	-0.189
-537.179	141.810	-0.035	-0.047
-536.164	146.172	-0.179	0.240
-535.150	124.767	-0.133	0.168
-534.135	800.000	0.087	-0.247
-533.121	-9.251	0.155	0.104
-532.106	-156.111	0.311	-0.020
-531.091	117.456	-0.079	0.097
-530.077	-94.455	0.316	0.086
-529.062	-100.500	-0.182	-0.045
-528.048	-148.779	0.080	-0.007
-527.033	3.578	0.033	-0.024
-526.018	196.020	-0.178	-0.272
-525.004	42.735	-0.130	-0.119
-523.989	-200.000	0.004	-0.029
-522.975	-145.704	0.124	0.011
-521.960	-6.682	0.043	0.029
-520.945	-148.178	0.102	0.008
-519.931	-200.000	0.023	0.182
-518.916	-200.000	-0.004	0.279
-517.902	46.968	-0.050	-0.047
-516.887	10.452	-0.071	-0.055
-515.872	-200.000	0.036	-0.165
-514.858	148.979	-0.159	0.216
-513.843	27.002	-0.033	0.028
-512.829	-200.000	0.029	-0.228
-511.814	800.000	0.094	0.363
-510.799	-200.000	0.029	-0.245
-509.785	192.438	-0.100	0.152
-508.770	800.000	0.109	0.324
-507.756	-200.000	-0.013	-0.101
-506.741	800.000	0.017	-0.053
-505.726	-200.000	-0.008	0.105
-504.712	-14.168	0.143	0.092
-503.697	-40.390	-0.320	0.167
-502.683	800.000	0.065	0.266
-501.668	-24.897	0.138	0.082
-500.653	280.248	0.054	-0.097
-499.639	-95.772	-0.261	0.070
-498.624	287.771	-0.160	0.290
-497.610	252.218	-0.110	-0.188
-496.595	269.462	-0.166	0.291
-495.581	116.031	0.205	-0.251
-494.566	219.170	-0.152	0.244
-493.551	-77.003	-0.548	-0.192
-492.537	-45.766	-0.256	0.127
-491.522	740.473	0.048	-0.130
-490.508	-200.000	-0.001	0.130
-489.493	582.114	0.052	-0.128
-488.478	-177.949	-0.341	0.008
-487.464	-200.000	-0.037	0.283
-486.449	-142.101	0.170	0.017
-485.435	88.156	0.024	-0.026
-484.420	69.591	-0.179	-0.184
-483.405	-145.385	-0.222	-0.020
-482.391	145.733	-0.148	0.199
-481.376	-165.288	-0.209	0.009
-480.362	-200.000	-0.028	0.341
-479.347	-200.000	-0.032	0.184
-478.332	-37.010	0.144	0.077
-477.318	87.813	0.166	0.184
-476.303	-55.133	0.433	0.195
-475.289	402.001	-0.041	-0.085
-474.274	-200.000	-0.045	-0.229
-473.259	800.000	0.065	-0.286
-472.245	-200.000	0.039	0.204
-471.230	-200.000	-0.015	0.347
-470.216	-95.159	0.219	0.059
-469.201	484.487	0.110	-0.251
-468.186	-1.094	-0.175	0.124
-467.172	95.173	-0.103	-0.117
-466.157	800.000	0.033	-0.137
-465.143	111.686	0.105	-0.126
-464.128	64.074	-0.181	-0.182
-463.113	252.946	0.006	-0.010
-462.099	-115.997	-0.243	-0.045
-461.084	-153.447	-0.519	-0.036
-460.070	747.877	0.142	-0.383
-459.055	-200.000	-0.083	0.417
-458.040	195.454	0.231	-0.351
-457.026	255.776	0.171	-0.293
-456.011	-23.434	-0.230	0.138
-454.997	-68.288	-0.125	-0.049
-453.982	116.612	-0.193	0.237
-452.968	64.568	-0.110	0.111
-451.953	208.627	-0.098	0.153
-450.938	317.088	-0.138	0.260
-449.924	32.922	0.178	0.154
-448.909	-88.924	0.117	-0.035
-447.895	23.388	0.076	-0.062
-446.880	-127.563	0.337	-0.049
-445.865	-33.662	-0.198	-0.109
-444.851	74.418	-0.099	-0.104
-443.836	-200.000	-0.020	-0.107
-442.822	-28.458	-0.095	0.055
-441.807	262.881	0.109	0.188
-440.792	273.511	0.137	-0.242
-439.778	206.496	0.122	-0.190
-438.763	-19.131	0.144	0.090
-437.749	-64.594	0.133	0.054
-436.734	-105.913	-0.305	0.069
-435.719	-106.582	-0.457	-0.102
-434.705	-179.480	0.102	0.002
-433.690	-200.000	-0.015	-0.108
-432.676	-90.584	-0.226	0.065
-431.661	-3.522	-0.174	-0.121
-430.646	8.680	-0.172	-0.130
-429.632	2.722	-0.255	-0.185
-428.617	-39.944	0.248	0.129
-427.603	-154.143	-0.510	0.035
-426.588	148.990	-0.044	0.059
-425.573	168.661	-0.157	-0.223
-424.559	-200.000	-0.000	-0.100
-423.544	-100.452	0.583	-0.144
-422.530	-4.222	0.193	-0.133
-421.515	-72.300	0.300	-0.111
-420.500	-10.122	-0.221	-0.147
-419.486	800.000	-0.053	0.172
-418.471	73.068	0.212	0.221
-417.457	302.323	-0.068	0.126
-416.442	410.814	0.038	0.081
-415.428	-200.000	0.003	0.094
-414.413	-200.000	-0.077	-0.365
-413.398	-200.000	0.026	-0.143
-412.384	-119.641	0.054	0.009
-411.369	-36.023	0.249	-0.135
-410.355	22.238	-0.133	0.109
-409.340	-200.000	0.014	-0.124
-408.325	-117.386	0.056	0.010
-407.311	22.354	-0.172	0.141
-406.296	-40.138	-0.056	0.029
-405.282	-22.178	0.217	-0.131
-404.267	-200.000	-0.013	-0.200
-403.252	-65.892	0.036	-0.014
-402.238	153.870	0.229	-0.314
-401.223	61.485	-0.102	0.101
-400.209	83.672	0.173	-0.189
-399.194	-200.000	-0.012	-0.226
-398.179	-200.000	0.035	-0.279
-397.165	307.030	0.192	-0.357
-396.150	175.314	-0.063	-0.091
-395.136	751.595	0.030	0.080
-394.121	-20.105	0.159	-0.098
-393.106	-200.000	-0.005	-0.118
-392.092	39.958	0.246	0.221
-391.077	-180.961	0.318	-0.006
-390.063	87.349	-0.196	-0.216
-389.048	27.624	-0.169	0.142
-388.033	-141.342	0.230	0.023
-387.019	59.858	0.071	-0.070
-386.004	-200.000	-0.015	-0.133
-384.990	196.068	0.227	-0.345
-383.975	464.609	-0.077	-0.171
-382.960	110.118	-0.066	0.079
-381.946	-28.587	0.090	0.052
-380.931	-200.000	0.005	0.033
-379.917	-100.863	0.236	0.058
-378.902	-200.000	-0.042	0.285
-377.888	278.827	0.026	0.046
-376.873	-112.438	0.318	0.063
-375.858	126.829	0.130	0.164
-374.844	800.000	-0.044	-0.177
-373.829	165.603	-0.047	-0.067
-372.815	33.177	0.093	-0.081
-371.800	336.559	0.084	0.163
-370.785	-200.000	0.013	0.077
-369.771	-200.000	-0.031	0.185
-368.756	-4.935	-0.111	-0.076
-367.742	-200.000	0.023	0.133
-366.727	70.333	-0.055	-0.057
-365.712	17.135	-0.087	0.069
-364.698	6.783	-0.125	0.093
-363.683	-122.045	0.307	0.050
-362.669	-200.000	-0.023	0.447
-361.654	-111.000	0.235	-0.048
-360.639	31.145	-0.127	0.108
-359.625	-200.000	0.042	0.187
-358.610	-200.000	0.031	0.347
-357.596	123.906	-0.141	0.177
-356.581	27.395	0.074	0.062
-355.566	-28.152	0.094	-0.054
-354.552	-193.011	-0.051	-0.000
-353.537	-5.409	-0.064	0.044
-352.523	132.189	0.167	0.215
-351.508	-62.952	0.095	-0.039
-350.493	86.514	0.203	-0.223
-349.479	-200.000	0.029	-0.257
-348.464	-62.822	-0.229	0.094
-347.450	-48.827	0.272	-0.130
-346.435	-146.442	0.050	-0.004
-345.420	160.435	0.261	-0.362
-344.406	-127.929	-0.337	-0.048
-343.391	189.809	-0.058	-0.086
-342.377	-200.000	-0.004	0.021
-341.362	-59.946	0.279	0.119
-340.348	53.210	-0.218	-0.208
-339.333	-31.316	0.076	0.042
-338.318	-92.585	-0.166	0.046
-337.304	-200.000	0.042	0.225
-336.289	-184.859	0.272	-0.004
-335.275	-200.000	-0.014	0.073
-334.260	-40.281	-0.277	-0.144
-333.245	193.793	-0.129	0.194
-332.231	164.591	-0.152	-0.213
-331.216	-97.050	0.151	0.039
-330.202	-37.732	-0.082	0.043
-329.187	151.998	0.160	0.217
-328.172	519.054	0.027	0.062
-327.158	-200.000	-0.036	-0.000
-326.143	-61.471	0.330	-0.138
-325.129	90.721	-0.120	-0.134
-324.114	51.535	0.077	-0.073
-323.099	-200.000	-0.136	-0.001
-322.085	-87.191	0.092	0.028
-321.070	11.365	0.199	0.152
-320.056	-200.000	0.042	0.253
-319.041	-200.000	0.048	-0.293
-318.026	-17.790	-0.117	-0.073
-317.012	-200.000	-0.000	-0.434
-315.997	-157.403	0.136	0.008
-314.983	-200.000	-0.005	-0.170
-313.968	-83.362	-0.089	-0.028
-312.953	800.000	-0.073	0.263
-311.939	137.430	0.124	-0.161
-310.924	-156.984	0.163	0.010
-309.910	-200.000	-0.012	-0.312
-308.895	-78.178	0.046	0.016
-307.880	28.170	0.219	0.184
-306.866	-143.530	0.454	-0.043
-305.851	-147.656	-0.357	-0.030
-304.837	34.057	-0.170	0.147
-303.822	-200.000	0.017	0.196
-302.807	-200.000	0.035	-0.159
-301.793	-200.000	-0.063	0.280
-300.778	155.169	-0.117	0.161
-299.764	800.000	0.049	-0.205
-298.749	45.558	0.093	-0.085
-297.735	549.652	-0.159	0.380
-296.720	133.363	0.198	0.254
-295.705	405.571	-0.071	0.148
-294.691	-9.041	0.050	0.033
-293.676	-37.530	0.169	0.090
-292.662	268.698	-0.096	-0.167
-291.647	-96.060	-0.263	-0.069
-290.632	-200.000	-0.005	0.252
-289.618	-146.462	0.193	-0.017
-288.603	-111.604	-0.243	-0.049
-287.589	-200.000	0.012	0.058
-286.574	-200.000	-0.022	0.269
-285.559	-200.000	-0.013	-0.227
-284.545	105.562	-0.160	0.188
-283.530	-56.474	-0.129	-0.057
-282.516	-27.727	0.222	-0.128
-281.501	-110.509	-0.066	-0.014
-280.486	-41.977	-0.260	-0.132
-279.472	-200.000	0.021	0.156
-278.457	467.807	0.075	-0.167
-277.443	800.000	0.144	-0.455
-276.428	-5.740	0.355	0.241
-275.413	-46.941	-0.066	0.032
-274.399	148.782	0.127	-0.170
-273.384	1.642	0.230	-0.164
-272.370	-154.674	0.265	-0.017
-271.355	17.401	0.025	-0.019
-270.340	-200.000	-0.015	0.157
-269.326	-66.084	-0.183	-0.072
-268.311	9.283	-0.114	0.086
-267.297	-13.693	0.178	-0.114
-266.282	57.261	-0.143	0.138
-265.267	-85.565	-0.188	0.058
-264.253	-93.047	0.167	0.046
-263.238	22.906	-0.243	-0.198
-262.224	-122.118	0.127	0.021
-261.209	29.184	-0.118	-0.099
-260.195	762.317	-0.165	0.445
-259.180	-133.375	-0.142	-0.018
-258.165	28.523	-0.250	-0.210
-257.151	-80.957	0.206	0.068
-256.136	-17.890	-0.094	-0.058
-255.122	35.103	-0.091	-0.079
-254.107	-200.000	0.004	0.107
-253.092	-200.000	-0.006	-0.222
-252.078	-122.638	-0.267	0.043
-251.063	354.111	0.048	-0.094
-250.049	-97.270	-0.363	0.094
-249.034	-200.000	0.048	-0.241
-248.019	684.934	0.062	0.162
-247.005	-200.000	0.091	0.472
-245.990	586.861	-0.103	-0.251
-244.976	-14.399	-0.068	-0.044
-243.961	-200.000	0.014	-0.150
-242.946	-200.000	0.106	0.482
-241.932	470.225	-0.062	-0.137
-240.917	192.043	0.223	-0.334
-239.903	105.219	0.257	0.301
-238.888	-158.266	0.374	0.022
-237.873	800.000	0.149	-0.513
-236.859	219.414	0.034	-0.054
-235.844	-155.210	0.296	-0.019
-234.830	-200.000	-0.003	-0.050
-233.815	-69.452	0.183	-0.070
-232.800	465.320	0.139	-0.307
-231.786	-200.000	-0.044	0.191
-230.771	-200.000	-0.034	0.295
-229.757	-200.000	0.016	0.072
-228.742	-200.000	-0.008	0.162
-227.727	712.738	0.112	0.295
-226.713	-61.434	0.371	0.155
-225.698	145.371	-0.061	-0.081
-224.684	-19.883	0.100	0.061
-223.669	-12.831	-0.246	0.159
-222.655	800.000	-0.153	0.425
-221.640	-57.236	-0.152	0.066
-220.625	800.000	0.025	0.083
-219.611	-200.000	-0.023	-0.206
-218.596	-6.613	0.377	-0.254
-217.582	-56.717	-0.097	0.043
-216.567	-113.576	0.038	-0.007
-215.552	62.591	-0.152	0.151
-214.538	343.566	-0.225	0.437
-213.523	-200.000	0.028	0.179
-212.509	-15.950	0.091	-0.057
-211.494	-40.505	0.118	0.061
-210.479	-200.000	0.010	-0.068
-209.465	-200.000	-0.219	-0.001
-208.450	271.091	-0.087	0.153
-207.436	106.053	0.090	0.105
-206.421	150.488	-0.198	-0.266
-205.406	-51.504	-0.167	-0.077
-204.392	354.351	-0.093	0.183
-203.377	-40.342	-0.110	0.057
-202.363	-108.295	-0.155	0.033
-201.348	61.546	0.073	0.071
-200.333	246.475	0.266	-0.444
-199.319	-79.882	-0.352	0.117
-198.304	-100.012	0.149	-0.037
-197.290	-22.630	0.456	0.273
-196.275	-200.000	-0.007	0.311
-195.260	-87.490	-0.264	-0.079
-194.246	-200.000	0.015	-0.223
-193.231	84.895	0.153	-0.166
-192.217	-200.000	-0.013	0.180
-191.202	283.224	0.009	0.016
-190.187	174.008	0.155	-0.222
-189.173	88.066	0.065	-0.071
-188.158	-200.000	-0.020	-0.225
-187.144	-84.979	-0.104	-0.032
-186.129	72.296	0.175	-0.180
-185.114	91.517	-0.268	0.298
-184.100	58.191	-0.182	-0.177
-183.085	-73.921	0.257	0.092
-182.071	800.000	0.054	-0.155
-181.056	800.000	-0.115	-0.340
-180.042	-200.000	-0.004	-0.118
-179.027	146.574	0.279	-0.371
-178.012	-71.258	-0.333	-0.124
-176.998	-200.000	0.005	-0.029
-175.983	800.000	0.064	0.204
-174.969	102.244	0.158	-0.182
-173.954	245.498	-0.173	0.288
-172.939	-200.000	-0.028	0.183
-171.925	-119.391	0.078	0.013
-170.910	-138.688	-0.144	-0.016
-169.896	-102.208	0.257	0.061
-168.881	800.000	0.012	-0.051
-167.866	29.047	-0.377	0.316
-166.852	-200.000	0.001	-0.107
-165.837	336.571	0.073	0.141
-164.823	246.010	0.138	0.229
-163.808	-200.000	0.002	-0.095
-162.793	214.507	0.037	-0.058
-161.779	-200.000	0.015	0.088
-160.764	-200.000	0.008	0.079
-159.750	372.334	0.131	0.263
-158.735	-123.258	-0.410	0.065
-157.720	192.201	0.075	0.112
-156.706	-183.154	0.153	0.003
-155.691	24.374	-0.114	0.093
-154.677	67.626	-0.196	-0.198
-153.662	-200.000	-0.029	-0.143
-152.647	-108.416	-0.334	-0.071
-151.633	-32.613	-0.155	-0.085
-150.618	87.979	0.072	0.079
-149.604	32.634	-0.232	-0.198
-148.589	61.810	-0.103	0.101
-147.574	-18.512	-0.177	0.109
-146.560	215.608	0.104	-0.164
-145.545	577.375	0.143	0.347
-144.531	-200.000	0.041	0.226
-143.516	347.659	-0.095	0.184
-142.502	-85.599	-0.214	-0.066
-141.487	-64.456	0.063	0.026
-140.472	-54.918	-0.004	-0.002
-139.458	241.987	0.088	-0.145
-138.443	9.114	0.049	-0.037
-137.429	183.627	-0.033	-0.048
-136.414	8.981	-0.159	-0.119
-135.399	800.000	0.070	-0.207
-134.385	-45.147	0.109	0.054
-133.370	72.799	-0.095	-0.098
-132.356	-140.958	-0.124	0.013
-131.341	88.547	-0.226	0.248
-130.326	800.000	-0.060	-0.193
-129.312	163.561	0.193	-0.268
-128.297	-200.000	0.031	0.326
-127.283	-139.065	0.160	-0.017
-126.268	21.753	-0.269	-0.216
-125.253	-200.000	-0.037	-0.246
-124.239	-107.406	0.174	-0.038
-123.224	-144.405	-0.081	-0.007
-122.210	-3.143	0.094	0.065
