DTS Sentinel unit serial number:	SN413079Multiplexer serial number:	ORYXHardware model number:	OX4-SRSoftware version number:	ORYX F/W v4.00 Oryx Data Collector v3.7.2.0data status	okinstallation	princeton_trtdifferential loss correction	single-endedforward channel	channel 3reverse channel	N/Adate	2019/09/18time	04:12:34forward acquisition time	60.00reverse acquisition time	0.00gamma	496.2192k internal	0.2342k external	0.2342temperature offset calibration	0.9948default loss term (dB/km)	0.3790temperature slope calibration	1.0000multiplexer offset coefficient	1.0000multiplexer slope coefficient	1.0000fibre end	0.00T internal ref (°C)	23.30T ext. ref 1 (°C)	0.17T ext. ref 2 (°C)	17.71length (m)	temperature (°C)	Stokes	anti-Stokes-747.200	27.537	0.060	0.050
-746.185	31.500	-0.379	0.326
-745.171	-72.198	0.053	-0.020
-744.156	-200.000	-0.000	0.417
-743.142	-90.807	-0.240	0.069
-742.127	-123.423	-0.555	0.089
-741.112	19.115	-0.316	-0.254
-740.098	140.958	0.215	0.284
-739.083	-200.000	0.044	0.198
-738.069	-51.074	-0.417	0.196
-737.054	365.704	0.074	0.150
-736.039	-142.110	-0.386	-0.038
-735.025	7.649	-0.137	0.103
-734.010	-60.766	0.063	0.027
-732.996	74.916	-0.225	-0.237
-731.981	0.268	-0.223	-0.160
-730.966	65.459	0.088	0.089
-729.952	-41.967	-0.056	-0.029
-728.937	402.824	0.108	-0.228
-727.923	26.214	0.332	-0.277
-726.908	-28.523	-0.110	-0.063
-725.894	122.051	-0.267	-0.333
-724.879	-166.937	0.111	0.005
-723.864	800.000	-0.031	0.089
-722.850	103.239	0.142	0.166
-721.835	374.480	-0.031	-0.063
-720.821	-80.726	-0.285	-0.095
-719.806	-77.292	-0.043	0.015
-718.791	-109.227	0.183	-0.039
-717.777	-52.386	0.194	-0.090
-716.762	-43.463	-0.258	-0.131
-715.748	27.688	0.141	-0.119
-714.733	-19.781	0.293	0.181
-713.718	-200.000	-0.006	0.281
-712.704	43.906	-0.111	-0.102
-711.689	-200.000	-0.005	-0.031
-710.675	-155.645	0.114	-0.007
-709.660	25.428	0.099	0.083
-708.645	-127.613	-0.262	0.038
-707.631	-95.704	-0.196	0.052
-706.616	19.508	-0.265	-0.213
-705.602	-200.000	0.072	0.324
-704.587	-47.076	-0.238	0.116
-703.572	-85.113	-0.291	-0.091
-702.558	323.813	-0.130	0.248
-701.543	-33.873	0.109	0.060
-700.529	-52.092	-0.402	-0.187
-699.514	800.000	-0.037	0.119
-698.499	-106.795	-0.136	0.030
-697.485	-43.574	-0.076	0.038
-696.470	-200.000	-0.026	-0.431
-695.456	-91.439	0.062	-0.018
-694.441	514.798	-0.197	-0.459
-693.426	-200.000	0.012	-0.297
-692.412	-69.650	0.017	-0.007
-691.397	-14.789	0.102	-0.066
-690.383	-177.441	0.101	0.002
-689.368	140.432	-0.194	-0.255
-688.354	402.046	0.087	-0.182
-687.339	-139.418	-0.157	-0.017
-686.324	0.672	-0.259	0.185
-685.310	-200.000	-0.004	-0.238
-684.295	-200.000	0.029	-0.168
-683.281	375.360	0.176	-0.358
-682.266	-200.000	0.020	-0.159
-681.251	-5.941	0.186	-0.127
-680.237	150.978	-0.209	0.283
-679.222	313.489	-0.014	0.027
-678.208	-12.958	0.196	-0.127
-677.193	78.595	0.175	0.187
-676.178	-200.000	0.035	0.198
-675.164	239.160	-0.173	-0.288
-674.149	480.963	0.097	-0.220
-673.135	332.416	-0.131	-0.253
-672.120	-14.641	0.300	0.193
-671.105	116.471	0.024	-0.029
-670.091	48.813	-0.183	-0.171
-669.076	-200.000	-0.005	-0.207
-668.062	48.400	-0.140	0.131
-667.047	-106.250	0.331	-0.074
-666.032	-158.153	-0.113	0.007
-665.018	-54.258	-0.061	-0.028
-664.003	-71.489	0.236	-0.088
-662.989	23.137	-0.077	-0.063
-661.974	-46.648	0.194	-0.095
-660.959	365.482	-0.085	0.171
-659.945	-22.347	0.177	0.107
-658.930	-79.814	-0.171	0.057
-657.916	288.306	0.200	-0.361
-656.901	255.528	-0.052	0.088
-655.886	-120.269	0.199	0.034
-654.872	-123.745	-0.196	0.031
-653.857	-200.000	-0.004	0.048
-652.843	-200.000	-0.004	0.138
-651.828	-200.000	0.045	-0.199
-650.814	-168.932	-0.443	-0.017
-649.799	800.000	0.059	-0.214
-648.784	-130.378	0.135	0.018
-647.770	-23.705	-0.205	-0.122
-646.755	6.770	0.217	0.161
-645.741	133.233	0.039	0.050
-644.726	-60.830	-0.280	0.118
-643.711	800.000	0.041	0.162
-642.697	378.404	0.075	-0.153
-641.682	5.590	-0.122	-0.090
-640.668	437.586	-0.052	0.113
-639.653	-37.059	0.184	-0.098
-638.638	800.000	-0.075	0.258
-637.624	-59.962	-0.116	-0.049
-636.609	32.332	0.281	0.242
-635.595	800.000	-0.076	-0.313
-634.580	405.040	-0.093	-0.195
-633.565	800.000	0.099	-0.311
-632.551	-25.917	-0.249	-0.146
-631.536	309.290	-0.091	-0.170
-630.522	58.730	0.299	-0.293
-629.507	171.929	-0.260	-0.372
-628.492	-200.000	0.015	0.468
-627.478	-200.000	0.004	0.140
-626.463	279.638	-0.142	0.253
-625.449	135.623	0.283	0.367
-624.434	469.392	-0.075	0.169
-623.419	108.134	0.190	-0.226
-622.405	33.932	-0.209	-0.181
-621.390	91.035	0.018	-0.020
-620.376	-200.000	0.038	-0.257
-619.361	-133.366	-0.268	-0.034
-618.346	632.839	0.015	-0.039
-617.332	-59.601	0.197	-0.084
-616.317	-80.978	-0.096	0.032
-615.303	-70.774	0.334	0.125
-614.288	154.778	-0.034	-0.046
-613.273	800.000	-0.052	-0.172
-612.259	349.460	-0.179	-0.352
-611.244	40.085	-0.237	0.213
-610.230	-51.531	0.284	-0.132
-609.215	-14.597	0.217	0.139
-608.201	196.083	-0.123	0.187
-607.186	-5.067	-0.169	0.116
-606.171	-11.980	0.221	-0.144
-605.157	-11.322	-0.198	0.130
-604.142	107.915	-0.149	0.177
-603.128	-107.393	0.065	-0.014
-602.113	-58.232	0.206	0.089
-601.098	547.358	0.078	-0.187
-600.084	-136.084	-0.179	0.021
-599.069	-200.000	-0.032	0.279
-598.055	-200.000	-0.020	-0.168
-597.040	-121.197	0.227	-0.038
-596.025	-200.000	-0.100	-0.440
-595.011	-200.000	-0.001	0.162
-593.996	-11.484	0.020	-0.013
-592.982	72.540	0.164	-0.170
-591.967	-46.442	0.116	-0.057
-590.952	-187.937	-0.371	-0.005
-589.938	800.000	0.022	-0.074
-588.923	374.814	-0.193	0.392
-587.909	331.778	0.092	-0.177
-586.894	-10.484	-0.158	-0.104
-585.879	-200.000	-0.017	0.379
-584.865	61.144	0.238	-0.235
-583.850	800.000	0.065	-0.277
-582.836	-200.000	0.216	-0.000
-581.821	-29.393	-0.255	0.145
-580.806	-137.572	-0.107	0.012
-579.792	-39.961	0.160	0.083
-578.777	103.132	-0.180	-0.210
-577.763	-118.391	-0.186	0.033
-576.748	-127.695	-0.156	-0.022
-575.733	-155.710	-0.262	-0.017
-574.719	397.265	-0.049	-0.101
-573.704	800.000	0.035	-0.138
-572.690	322.024	0.095	0.180
-571.675	-200.000	0.022	0.144
-570.661	-200.000	-0.007	0.521
-569.646	-75.994	-0.160	0.056
-568.631	800.000	0.031	-0.132
-567.617	-135.561	-0.111	0.013
-566.602	404.945	-0.022	-0.046
-565.588	800.000	-0.007	-0.026
-564.573	-126.404	0.101	-0.015
-563.558	800.000	0.049	0.159
-562.544	800.000	-0.109	0.406
-561.529	72.127	-0.184	-0.191
-560.515	424.534	0.025	0.054
-559.500	698.521	-0.085	-0.223
-558.485	-139.126	0.022	0.002
-557.471	91.306	0.175	-0.196
-556.456	-200.000	-0.004	0.131
-555.442	554.503	-0.025	0.061
-554.427	-200.000	-0.035	0.186
-553.412	800.000	0.066	0.233
-552.398	-2.636	0.200	0.139
-551.383	-66.326	0.219	0.086
-550.369	-200.000	0.036	0.215
-549.354	-83.985	-0.063	0.020
-548.339	-11.696	0.070	0.046
-547.325	1.417	-0.104	-0.074
-546.310	74.223	0.127	-0.133
-545.296	-85.798	0.258	-0.079
-544.281	146.113	-0.087	0.115
-543.266	222.625	0.083	0.133
-542.252	800.000	-0.071	0.263
-541.237	495.161	0.116	0.264
-540.223	607.802	0.036	0.088
-539.208	-21.490	0.112	-0.068
-538.193	-15.193	0.242	-0.154
-537.179	-114.870	0.120	-0.023
-536.164	-22.445	-0.114	-0.068
-535.150	125.082	0.203	-0.255
-534.135	46.334	0.061	-0.056
-533.121	301.225	-0.197	0.361
-532.106	333.878	0.113	-0.217
-531.091	-162.211	-0.202	-0.010
-530.077	225.522	-0.124	0.200
-529.062	7.031	0.229	0.170
-528.048	-160.352	-0.384	-0.021
-527.033	46.266	-0.156	0.143
-526.018	189.805	0.023	-0.034
-525.004	116.899	0.175	0.213
-523.989	115.934	0.136	0.165
-522.975	-138.181	-0.250	-0.028
-521.960	800.000	-0.084	-0.242
-520.945	-200.000	0.036	-0.247
-519.931	202.244	0.075	-0.114
-518.916	278.845	0.092	0.163
-517.902	-53.095	-0.192	-0.088
-516.887	93.404	0.363	0.408
-515.872	-105.532	0.350	-0.079
-514.858	619.841	-0.048	0.120
-513.843	33.356	0.054	0.046
-512.829	-200.000	-0.061	0.378
-511.814	-75.493	-0.186	-0.066
-510.799	-70.481	0.663	0.249
-509.785	86.734	-0.200	-0.219
-508.770	-161.286	0.109	-0.006
-507.756	-93.305	-0.497	0.137
-506.741	180.813	0.051	-0.075
-505.726	-79.701	0.287	-0.096
-504.712	800.000	-0.078	0.258
-503.697	-1.222	-0.248	0.174
-502.683	-117.939	-0.301	-0.053
-501.668	800.000	-0.034	-0.131
-500.653	-200.000	0.093	-0.545
-499.639	-200.000	0.077	0.483
-498.624	11.161	-0.161	-0.122
-497.610	800.000	-0.004	-0.012
-496.595	50.083	0.199	0.187
-495.581	-147.408	-0.305	0.026
-494.566	204.480	-0.129	-0.199
-493.551	53.599	0.039	-0.037
-492.537	-103.393	0.252	0.059
-491.522	377.274	-0.182	-0.370
-490.508	4.014	-0.112	-0.081
-489.493	127.501	-0.119	0.150
-488.478	-120.507	-0.098	0.016
-487.464	-109.101	-0.144	0.030
-486.449	-53.445	0.202	0.092
-485.435	144.212	0.123	-0.162
-484.420	110.148	-0.181	0.216
-483.405	358.490	-0.145	0.287
-482.391	228.997	0.175	0.283
-481.376	21.428	-0.088	-0.071
-480.362	-121.755	0.048	0.008
-479.347	70.624	-0.170	-0.175
-478.332	88.304	0.171	-0.188
-477.318	32.284	0.141	-0.121
-476.303	800.000	0.061	0.263
-475.289	-141.887	-0.116	0.012
-474.274	-137.026	-0.132	0.015
-473.259	-200.000	-0.034	-0.266
-472.245	-129.272	0.175	0.024
-471.230	387.130	0.145	0.298
-470.216	637.871	-0.150	-0.378
-469.201	-162.156	-0.365	-0.018
-468.186	-32.760	0.325	-0.179
-467.172	-200.000	0.032	0.173
-466.157	-26.570	-0.201	-0.117
-465.143	-30.297	-0.035	0.020
-464.128	-200.000	-0.035	0.442
-463.113	-200.000	-0.008	0.170
-462.099	704.350	-0.013	-0.034
-461.084	342.889	0.190	-0.368
-460.070	40.597	0.142	0.127
-459.055	-149.878	0.307	-0.024
-458.040	-92.364	-0.150	-0.042
-457.026	-69.583	-0.146	-0.055
-456.011	-102.232	-0.228	-0.054
-454.997	-6.284	-0.026	-0.018
-453.982	125.580	0.137	-0.171
-452.968	-80.983	-0.326	0.107
-451.953	759.570	0.031	0.083
-450.938	-145.700	0.174	0.015
-449.924	-20.809	-0.031	0.019
-448.909	-54.535	0.158	0.071
-447.895	-200.000	0.062	-0.420
-446.880	-58.031	0.215	-0.093
-445.865	-48.769	0.475	0.226
-444.851	-142.824	0.179	-0.017
-443.836	365.819	-0.091	-0.183
-442.822	127.040	0.125	0.157
-441.807	358.686	-0.250	-0.493
-440.792	-54.101	-0.264	0.119
-439.778	46.350	-0.124	0.113
-438.763	-113.778	-0.014	-0.003
-437.749	-120.986	-0.278	0.046
-436.734	180.203	-0.138	0.200
-435.719	-86.289	0.171	0.052
-434.705	-18.476	0.108	-0.067
-433.690	26.278	-0.041	-0.034
-432.676	56.044	0.211	-0.202
-431.661	-38.343	-0.151	-0.079
-430.646	-163.350	-0.189	-0.009
-429.632	800.000	0.071	-0.197
-428.617	-200.000	0.022	-0.296
-427.603	391.176	0.045	0.092
-426.588	-200.000	-0.032	-0.159
-425.573	39.692	0.332	0.295
-424.559	282.552	0.103	-0.183
-423.544	-34.615	-0.238	-0.129
-422.530	-25.185	-0.179	-0.105
-421.515	-88.302	0.276	-0.082
-420.500	-23.491	-0.074	-0.044
-419.486	-200.000	-0.022	-0.198
-418.471	164.180	-0.065	0.091
-417.457	504.075	0.067	-0.153
-416.442	280.397	0.031	-0.055
-415.428	172.891	0.071	0.101
-414.413	36.685	-0.065	0.057
-413.398	-57.617	-0.469	0.203
-412.384	624.651	0.101	0.251
-411.369	-75.763	0.372	-0.130
-410.355	-115.883	-0.404	-0.075
-409.340	-99.442	-0.164	0.041
-408.325	-12.308	-0.175	0.113
-407.311	-111.445	0.185	0.037
-406.296	-200.000	0.004	0.152
-405.282	800.000	0.066	-0.250
-404.267	-200.000	-0.026	0.134
-403.252	-200.000	0.005	0.160
-402.238	-18.235	0.192	0.119
-401.223	800.000	-0.020	0.088
-400.209	-119.776	-0.322	0.055
-399.194	-200.000	-0.003	-0.099
-398.179	72.800	-0.185	-0.190
-397.165	-114.355	-0.157	0.030
-396.150	-78.851	-0.235	0.079
-395.136	-200.000	0.003	0.186
-394.121	-148.926	-0.191	0.015
-393.106	-200.000	-0.003	-0.276
-392.092	10.890	0.148	-0.111
-391.077	338.336	-0.108	0.208
-390.063	70.670	0.070	-0.071
-389.048	-200.000	-0.033	0.363
-388.033	291.511	-0.032	-0.058
-387.019	-77.605	0.184	0.063
-386.004	13.535	0.126	0.096
-384.990	800.000	-0.028	0.113
-383.975	-50.335	-0.126	0.059
-382.960	96.600	-0.058	-0.065
-381.946	-200.000	0.009	-0.312
-380.931	-97.748	0.160	0.041
-379.917	16.678	0.165	-0.129
-378.902	-68.220	-0.165	-0.063
-377.888	95.002	-0.192	-0.216
-376.873	800.000	0.078	-0.245
-375.858	46.336	0.116	0.106
-374.844	800.000	-0.073	-0.245
-373.829	-200.000	-0.069	-0.513
-372.815	-49.055	0.268	0.126
-371.800	-31.520	0.397	-0.220
-370.785	-200.000	-0.042	0.331
-369.771	-134.181	0.075	0.009
-368.756	-7.748	0.445	-0.297
-367.742	-78.590	0.133	0.045
-366.727	178.272	-0.058	0.083
-365.712	-200.000	-0.004	0.158
-364.698	-86.079	-0.319	-0.097
-363.683	800.000	-0.024	-0.076
-362.669	356.008	-0.089	-0.174
-361.654	800.000	0.026	0.079
-360.639	432.576	0.074	0.159
-359.625	800.000	0.057	-0.197
-358.610	88.572	-0.234	0.257
-357.596	-131.906	-0.095	-0.012
-356.581	-121.679	-0.069	0.011
-355.566	113.294	0.186	-0.223
-354.552	800.000	-0.090	0.288
-353.537	-113.932	0.277	0.053
-352.523	-200.000	-0.008	0.416
-351.508	-99.624	-0.134	-0.033
-350.493	-105.960	0.169	0.038
-349.479	-27.267	-0.214	-0.123
-348.464	453.060	-0.021	0.047
-347.450	-73.484	0.318	0.114
-346.435	-128.812	0.346	-0.048
-345.420	139.783	-0.256	0.332
-344.406	2.615	0.215	0.154
-343.391	102.011	-0.149	-0.171
-342.377	82.988	-0.248	-0.265
-341.362	800.000	-0.062	0.193
-340.348	-70.134	0.213	0.080
-339.333	-10.885	-0.147	0.096
-338.318	-23.454	0.274	0.162
-337.304	-200.000	-0.024	-0.299
-336.289	-200.000	-0.067	0.302
-335.275	-200.000	0.002	-0.163
-334.260	2.365	-0.167	-0.119
-333.245	-2.990	-0.340	0.234
-332.231	-200.000	0.041	0.263
-331.216	-119.404	0.039	0.007
-330.202	-49.069	-0.228	-0.107
-329.187	10.267	0.114	0.085
-328.172	272.814	-0.188	0.327
-327.158	800.000	0.087	-0.241
-326.143	299.341	-0.072	-0.131
-325.129	245.412	-0.151	0.250
-324.114	126.197	0.169	-0.210
-323.099	19.524	-0.343	0.272
-322.085	-73.116	-0.274	0.099
-321.070	-136.932	0.151	0.017
-320.056	-200.000	-0.008	0.099
-319.041	-200.000	-0.001	-0.036
-318.026	273.848	0.067	-0.118
-317.012	800.000	-0.041	-0.150
-315.997	364.370	0.103	0.204
-314.983	-44.382	-0.127	0.063
-313.968	-27.563	-0.219	0.125
-312.953	-95.979	0.237	0.062
-311.939	11.742	0.241	0.182
-310.924	-148.899	0.473	0.038
-309.910	-200.000	0.008	0.239
-308.895	76.910	0.127	0.132
-307.880	-79.386	0.099	0.033
-306.866	-46.722	0.100	-0.048
-305.851	-200.000	0.002	-0.024
-304.837	800.000	-0.044	-0.153
-303.822	-200.000	-0.034	-0.148
-302.807	14.799	0.078	-0.060
-301.793	231.869	-0.132	0.213
-300.778	269.928	-0.118	0.203
-299.764	-177.405	-0.139	-0.003
-298.749	-200.000	0.039	-0.259
-297.735	-200.000	0.008	-0.206
-296.720	-200.000	-0.018	0.227
-295.705	365.380	0.112	-0.222
-294.691	58.826	0.138	-0.134
-293.676	-200.000	-0.049	0.359
-292.662	800.000	-0.089	0.296
-291.647	-156.474	0.134	0.008
-290.632	60.495	-0.129	0.126
-289.618	-133.729	-0.193	-0.024
-288.603	-200.000	-0.032	-0.157
-287.589	800.000	0.030	0.125
-286.574	-10.848	-0.173	-0.112
-285.559	-86.457	-0.278	-0.084
-284.545	585.722	-0.108	0.260
-283.530	616.722	0.080	-0.197
-282.516	-154.576	0.438	0.029
-281.501	331.754	-0.096	-0.181
-280.486	800.000	-0.079	0.309
-279.472	800.000	0.042	-0.152
-278.457	92.042	0.277	0.307
-277.443	-102.391	-0.181	-0.043
-276.428	468.546	0.185	0.408
-275.413	-160.021	-0.194	0.010
-274.399	96.965	0.113	0.127
-273.384	-161.920	0.330	-0.016
-272.370	-26.583	0.190	0.110
-271.355	-111.499	-0.228	0.046
-270.340	-200.000	-0.016	0.078
-269.326	795.304	0.053	-0.145
-268.311	35.133	0.393	0.338
-267.297	800.000	0.059	-0.210
-266.282	-93.391	0.276	-0.075
-265.267	-74.275	0.105	0.037
-264.253	423.083	0.052	0.109
-263.238	138.922	-0.092	-0.119
-262.224	-96.877	0.232	0.060
-261.209	-69.363	-0.387	-0.146
-260.195	346.709	0.077	0.148
-259.180	169.739	-0.224	0.315
-258.165	-191.676	-0.497	0.005
-257.151	-200.000	0.008	-0.121
-256.136	98.091	-0.130	-0.147
-255.122	715.311	-0.167	-0.436
-254.107	-112.531	0.167	0.033
-253.092	-167.300	0.300	0.012
-252.078	-97.303	-0.174	0.045
-251.063	-48.700	0.309	-0.146
-250.049	-36.904	-0.205	0.108
-249.034	-200.000	0.045	0.215
-248.019	125.449	-0.158	-0.195
-247.005	-140.581	-0.237	-0.024
-245.990	-124.432	-0.156	0.024
-244.976	-4.449	-0.054	-0.037
-243.961	-61.214	0.362	0.150
-242.946	37.350	0.090	0.078
-241.932	772.677	-0.048	-0.129
-240.917	164.075	0.255	-0.353
-239.903	-111.970	-0.233	0.046
-238.888	-200.000	-0.001	0.170
-237.873	800.000	-0.069	0.189
-236.859	-200.000	-0.001	0.037
-235.844	-200.000	0.006	-0.204
-234.830	-133.587	0.395	0.049
-233.815	-147.014	0.029	-0.002
-232.800	-132.025	-0.344	0.044
-231.786	343.465	0.155	0.299
-230.771	-105.199	-0.320	0.072
-229.757	120.889	0.130	-0.159
-228.742	440.171	-0.141	-0.302
-227.727	-21.908	-0.096	-0.057
-226.713	85.386	-0.178	-0.191
-225.698	53.461	0.175	-0.165
-224.684	141.721	-0.083	-0.108
-223.669	-43.520	-0.201	-0.099
-222.655	800.000	-0.062	0.207
-221.640	-138.701	0.345	-0.037
-220.625	800.000	-0.053	0.222
-219.611	-152.738	-0.080	0.006
-218.596	-158.027	-0.150	0.009
-217.582	99.920	0.116	-0.132
-216.567	-53.935	-0.105	-0.047
-215.552	-200.000	-0.027	-0.326
-214.538	-200.000	-0.032	-0.148
-213.523	-200.000	-0.036	-0.226
-212.509	335.772	0.225	0.428
-211.494	-72.053	0.239	0.087
-210.479	-139.740	-0.313	-0.033
-209.465	52.244	-0.225	0.211
-208.450	800.000	0.020	-0.076
-207.436	41.794	-0.172	-0.153
-206.421	-200.000	-0.073	-0.434
-205.406	-172.966	-0.155	0.005
-204.392	-36.368	-0.103	-0.055
-203.377	-14.683	0.380	-0.239
-202.363	-75.883	-0.236	-0.082
-201.348	-200.000	0.013	-0.091
-200.333	-200.000	0.028	-0.193
-199.319	-2.706	0.150	-0.103
-198.304	106.346	-0.211	-0.245
-197.290	221.185	-0.119	-0.188
-196.275	-138.422	-0.149	-0.016
-195.260	-107.799	0.213	-0.045
-194.246	800.000	0.047	-0.145
-193.231	-8.646	-0.108	0.071
-192.217	65.517	0.233	-0.231
-191.202	-38.750	0.339	-0.175
-190.187	174.286	-0.247	-0.350
-189.173	198.497	0.165	-0.247
-188.158	41.033	0.185	0.164
-187.144	-67.493	0.223	-0.086
-186.129	103.364	0.178	0.205
-185.114	277.294	-0.114	0.200
-184.100	-93.510	-0.183	0.050
-183.085	-38.521	0.086	-0.044
-182.071	105.601	0.214	-0.247
-181.056	-132.636	0.137	0.017
-180.042	-37.232	0.352	0.185
-179.027	-9.023	-0.123	0.081
-178.012	-22.620	-0.151	0.089
-176.998	250.662	0.120	-0.200
-175.983	13.721	0.137	0.104
-174.969	800.000	0.073	-0.244
-173.954	-200.000	0.050	-0.229
-172.939	319.189	-0.044	-0.082
-171.925	-47.365	-0.216	0.103
-170.910	-64.629	-0.081	-0.032
-169.896	348.633	-0.178	-0.345
-168.881	-128.687	-0.341	-0.047
-167.866	-61.962	0.211	0.086
-166.852	-200.000	0.012	0.272
-165.837	176.577	0.055	0.078
-164.823	-180.730	0.321	-0.006
-163.808	-100.704	-0.323	-0.078
-162.793	315.878	-0.071	-0.131
-161.779	-106.428	0.264	0.058
-160.764	-92.470	-0.526	0.145
-159.750	-128.096	0.287	0.040
-158.735	-35.034	0.116	-0.062
-157.720	800.000	-0.029	0.088
-156.706	-85.112	0.291	0.089
-155.691	-200.000	-0.030	-0.249
-154.677	-116.381	-0.105	-0.019
-153.662	-94.153	0.141	0.038
-152.647	800.000	0.147	0.441
-151.633	109.341	0.115	-0.134
-150.618	-113.543	-0.116	-0.022
-149.604	102.188	-0.036	0.041
-148.589	-200.000	-0.023	-0.139
-147.574	46.942	0.295	0.269
-146.560	-200.000	0.004	-0.034
-145.545	-17.855	-0.157	-0.097
-144.531	-188.640	-0.303	0.004
-143.516	800.000	-0.086	-0.286
-142.502	9.550	0.334	0.248
-141.487	800.000	0.161	-0.472
-140.472	-130.908	-0.205	-0.027
-139.458	86.208	0.148	0.160
-138.443	395.343	0.080	-0.162
-137.429	517.524	0.189	0.432
-136.414	101.999	-0.183	0.209
-135.399	-113.425	-0.346	-0.066
-134.385	-66.356	0.387	-0.151
-133.370	158.601	0.082	-0.111
-132.356	-200.000	-0.008	0.199
-131.341	-200.000	0.040	0.222
-130.326	800.000	0.036	0.152
-129.312	-72.541	0.076	0.027
-128.297	30.469	0.256	-0.214
-127.283	-200.000	-0.001	0.108
-126.268	-100.636	-0.264	-0.064
-125.253	-200.000	0.010	0.229
-124.239	232.378	-0.172	0.277
-123.224	-200.000	0.012	-0.164
-122.210	-64.477	0.402	-0.160
