DTS Sentinel unit serial number:	SN413079Multiplexer serial number:	ORYXHardware model number:	OX4-SRSoftware version number:	ORYX F/W v4.00 Oryx Data Collector v3.7.2.0data status	okinstallation	princeton_trtdifferential loss correction	single-endedforward channel	channel 3reverse channel	N/Adate	2019/09/16time	04:52:34forward acquisition time	60.00reverse acquisition time	0.00gamma	496.2192k internal	0.2336k external	0.2336temperature offset calibration	0.9955default loss term (dB/km)	0.3790temperature slope calibration	1.0000multiplexer offset coefficient	1.0000multiplexer slope coefficient	1.0000fibre end	0.00T internal ref (°C)	27.16T ext. ref 1 (°C)	10.95T ext. ref 2 (°C)	21.66length (m)	temperature (°C)	Stokes	anti-Stokes-747.200	-200.000	0.056	0.316
-746.185	-200.000	0.068	-0.344
-745.171	-200.000	-0.039	-0.291
-744.156	166.829	-0.333	0.474
-743.142	-200.000	-0.015	0.104
-742.127	-27.242	0.130	0.076
-741.112	-169.687	0.279	-0.010
-740.098	25.207	0.320	0.267
-739.083	-58.457	-0.196	0.085
-738.069	-151.136	-0.157	0.012
-737.054	31.437	-0.079	-0.068
-736.039	29.098	0.153	-0.131
-735.025	-200.000	-0.001	-0.220
-734.010	-200.000	-0.010	-0.275
-732.996	-200.000	-0.038	-0.194
-731.981	230.869	-0.158	-0.260
-730.966	546.230	0.047	-0.112
-729.952	-40.077	0.120	0.063
-728.937	-97.447	-0.368	0.096
-727.923	-19.204	-0.164	0.102
-726.908	800.000	-0.054	-0.218
-725.894	800.000	-0.112	0.466
-724.879	51.844	-0.087	0.083
-723.864	-126.446	0.053	0.008
-722.850	-72.283	-0.016	-0.006
-721.835	-112.827	-0.211	-0.042
-720.821	800.000	-0.049	-0.161
-719.806	-200.000	-0.039	-0.262
-718.791	-60.823	-0.121	-0.051
-717.777	-200.000	0.006	0.396
-716.762	0.269	0.125	0.090
-715.748	-24.743	-0.082	0.049
-714.733	10.165	-0.004	-0.003
-713.718	-149.148	0.261	-0.021
-712.704	-3.628	0.306	-0.214
-711.689	-17.229	0.107	0.068
-710.675	59.249	-0.076	-0.075
-709.660	554.189	-0.156	0.377
-708.645	-200.000	-0.002	-0.318
-707.631	48.822	0.179	0.168
-706.616	-200.000	-0.023	-0.194
-705.602	-87.173	-0.194	-0.059
-704.587	-61.581	-0.142	0.060
-703.572	450.569	-0.156	0.346
-702.558	625.883	0.053	0.135
-701.543	228.633	0.073	-0.119
-700.529	-67.100	-0.219	-0.086
-699.514	96.110	0.060	-0.068
-698.499	-115.249	-0.161	-0.031
-697.485	85.460	-0.143	-0.158
-696.470	77.766	-0.139	-0.149
-695.456	-122.190	0.233	-0.038
-694.441	-17.057	-0.193	-0.122
-693.426	34.149	0.254	-0.222
-692.412	-200.000	0.029	-0.223
-691.397	-90.601	0.338	-0.098
-690.383	7.900	0.415	-0.312
-689.368	-177.323	0.141	0.003
-688.354	-132.308	-0.354	0.046
-687.339	-125.253	0.058	0.009
-686.324	35.544	0.295	0.260
-685.310	-200.000	0.037	-0.377
-684.295	227.903	-0.259	-0.423
-683.281	-77.176	-0.072	0.025
-682.266	-140.607	0.178	-0.018
-681.251	-77.241	0.200	0.070
-680.237	11.797	-0.150	0.115
-679.222	-60.016	0.204	-0.087
-678.208	-200.000	0.033	0.165
-677.193	740.303	-0.042	-0.112
-676.178	39.559	0.298	-0.268
-675.164	800.000	-0.018	-0.074
-674.149	-88.761	0.179	0.053
-673.135	245.047	0.159	-0.267
-672.120	98.965	0.128	-0.148
-671.105	-200.000	-0.026	-0.147
-670.091	-38.563	-0.294	0.155
-669.076	243.349	0.106	0.178
-668.062	-85.892	-0.070	0.022
-667.047	101.868	0.094	-0.110
-666.032	-36.712	-0.290	-0.156
-665.018	9.927	0.327	-0.249
-664.003	-28.460	-0.153	-0.088
-662.989	59.817	0.091	0.090
-661.974	-169.801	0.150	-0.005
-660.959	-200.000	-0.019	-0.177
-659.945	157.257	-0.174	-0.241
-658.930	800.000	0.138	-0.447
-657.916	13.950	-0.042	0.033
-656.901	-19.096	0.063	0.039
-655.886	-72.261	-0.222	-0.082
-654.872	-17.000	0.138	-0.087
-653.857	-24.992	-0.094	-0.056
-652.843	217.098	-0.139	0.221
-651.828	432.075	0.072	-0.156
-650.814	-97.317	-0.249	0.065
-649.799	-116.474	-0.196	-0.036
-648.784	117.411	0.041	-0.050
-647.770	-200.000	0.076	0.387
-646.755	102.664	-0.187	0.218
-645.741	-92.887	0.435	-0.122
-644.726	-157.964	-0.147	-0.009
-643.711	-19.775	0.347	0.215
-642.697	-22.697	0.217	-0.131
-641.682	-200.000	-0.006	0.116
-640.668	-57.302	-0.202	-0.089
-639.653	-53.550	0.117	-0.054
-638.638	-131.336	-0.470	0.062
-637.624	31.552	0.267	0.230
-636.609	-41.744	-0.470	0.241
-635.595	471.349	-0.081	-0.181
-634.580	123.506	0.257	-0.323
-633.565	-154.445	-0.132	0.009
-632.551	-79.529	-0.336	0.113
-631.536	141.063	-0.095	0.125
-630.522	-200.000	0.022	0.129
-629.507	-95.676	0.306	0.082
-628.492	68.264	-0.182	-0.186
-627.478	-57.981	-0.255	0.111
-626.463	-123.114	0.103	0.017
-625.449	-60.193	-0.248	0.106
-624.434	800.000	-0.030	-0.094
-623.419	292.012	0.053	-0.096
-622.405	183.806	-0.122	-0.180
-621.390	-4.756	-0.226	-0.156
-620.376	800.000	-0.045	0.177
-619.361	-19.139	0.329	0.204
-618.346	318.679	0.181	-0.342
-617.332	-175.086	0.323	-0.009
-616.317	-4.238	-0.246	0.170
-615.303	-69.266	0.270	-0.104
-614.288	157.965	-0.142	0.196
-613.273	800.000	0.026	0.082
-612.259	274.311	-0.133	-0.235
-611.244	-74.721	-0.150	0.054
-610.230	800.000	0.012	0.049
-609.215	-1.142	-0.286	0.202
-608.201	54.947	-0.074	-0.071
-607.186	652.564	-0.132	-0.339
-606.171	6.855	0.091	0.068
-605.157	-15.911	0.197	0.125
-604.142	214.177	0.077	-0.121
-603.128	11.824	-0.250	0.192
-602.113	-166.653	-0.116	-0.005
-601.098	800.000	0.060	-0.226
-600.084	-153.791	-0.289	0.020
-599.069	575.147	-0.082	-0.200
-598.055	-151.001	-0.212	0.016
-597.040	305.565	-0.115	0.214
-596.025	-8.684	0.127	-0.085
-595.011	-22.998	-0.235	-0.141
-593.996	-9.867	0.103	0.069
-592.982	-179.653	-0.208	-0.005
-591.967	69.786	0.411	-0.423
-590.952	371.724	-0.062	-0.125
-589.938	-159.434	-0.225	0.013
-588.923	-62.310	-0.249	0.104
-587.909	-200.000	-0.008	0.083
-586.894	-200.000	-0.042	0.240
-585.879	68.458	0.114	0.117
-584.865	-24.381	-0.339	-0.202
-583.850	-138.447	-0.078	0.009
-582.836	79.910	-0.087	-0.094
-581.821	-112.332	-0.193	0.038
-580.806	-200.000	0.053	0.239
-579.792	-200.000	0.004	0.176
-578.777	400.641	0.072	0.151
-577.763	-72.313	-0.356	-0.131
-576.748	222.035	-0.096	0.154
-575.733	-140.276	-0.121	-0.013
-574.719	-108.525	0.262	0.056
-573.704	95.413	0.187	-0.212
-572.690	409.991	-0.113	-0.239
-571.675	800.000	0.068	0.259
-570.661	-138.651	-0.145	-0.016
-569.646	-56.782	0.266	0.117
-568.631	159.360	-0.106	0.146
-567.617	-81.529	0.033	-0.011
-566.602	-175.050	0.104	-0.003
-565.588	-174.000	0.149	-0.004
-564.573	62.140	0.185	-0.184
-563.558	397.386	0.063	-0.131
-562.544	-121.689	0.162	0.027
-561.529	-200.000	0.040	-0.280
-560.515	379.504	0.109	-0.222
-559.500	800.000	-0.058	0.252
-558.485	-200.000	-0.019	-0.334
-557.471	-200.000	0.018	-0.220
-556.456	159.671	0.301	-0.417
-555.442	-179.765	0.244	-0.005
-554.427	-38.095	-0.226	-0.119
-553.412	-200.000	0.016	0.213
-552.398	-86.978	0.345	-0.105
-551.383	287.304	0.079	0.143
-550.369	107.152	-0.092	-0.109
-549.354	64.682	0.305	-0.306
-548.339	64.227	0.160	0.161
-547.325	255.174	0.118	-0.201
-546.310	-56.068	0.128	0.057
-545.296	-0.426	0.149	0.106
-544.281	800.000	-0.167	-0.461
-543.266	-200.000	0.094	0.000
-542.252	800.000	-0.046	0.186
-541.237	45.745	-0.121	-0.112
-540.223	6.793	0.074	-0.055
-539.208	386.809	-0.162	-0.333
-538.193	-200.000	0.036	-0.317
-537.179	86.044	-0.125	0.137
-536.164	-200.000	-0.035	0.255
-535.150	159.127	0.244	-0.338
-534.135	58.483	0.306	-0.299
-533.121	-200.000	0.032	-0.284
-532.106	0.142	0.114	-0.081
-531.091	5.435	-0.177	-0.130
-530.077	139.469	-0.091	0.119
-529.062	-200.000	0.000	-0.041
-528.048	333.856	0.088	0.170
-527.033	800.000	-0.065	0.181
-526.018	-113.481	0.273	-0.053
-525.004	119.140	-0.241	0.296
-523.989	108.692	-0.083	-0.098
-522.975	-139.458	0.137	0.015
-521.960	21.210	-0.163	0.132
-520.945	179.792	-0.107	0.156
-519.931	148.595	0.203	0.273
-518.916	-11.963	-0.068	0.044
-517.902	-200.000	0.055	-0.260
-516.887	-162.357	-0.409	0.020
-515.872	-52.692	-0.340	0.156
-514.858	-108.033	-0.028	-0.006
-513.843	-68.542	-0.277	-0.107
-512.829	-84.472	0.074	-0.023
-511.814	222.372	-0.090	0.144
-510.799	-114.243	0.251	-0.048
-509.785	-56.272	0.269	0.119
-508.770	-21.896	0.199	0.121
-507.756	8.402	-0.229	0.171
-506.741	-88.612	-0.206	0.061
-505.726	66.460	-0.088	-0.089
-504.712	-200.000	0.045	0.200
-503.697	-107.843	0.171	-0.037
-502.683	-200.000	-0.009	-0.155
-501.668	800.000	0.063	-0.196
-500.653	-60.184	-0.305	-0.129
-499.639	-80.678	-0.181	0.060
-498.624	559.709	0.171	-0.410
-497.610	800.000	-0.135	-0.504
-496.595	92.923	-0.053	0.060
-495.581	21.886	0.187	-0.151
-494.566	800.000	0.148	-0.411
-493.551	-105.642	-0.318	0.072
-492.537	183.893	0.025	-0.037
-491.522	108.286	-0.154	-0.183
-490.508	-147.881	-0.133	-0.011
-489.493	45.430	-0.175	-0.161
-488.478	-169.450	0.406	0.015
-487.464	-200.000	-0.001	0.138
-486.449	-132.115	-0.263	0.034
-485.435	-12.429	-0.208	0.135
-484.420	-54.503	0.021	-0.009
-483.405	-44.889	-0.043	0.021
-482.391	390.653	-0.120	0.247
-481.376	-94.290	0.363	-0.099
-480.362	-127.549	0.163	-0.023
-479.347	-12.431	0.076	-0.050
-478.332	-7.178	0.135	0.091
-477.318	-123.608	0.234	0.037
-476.303	96.745	-0.113	0.129
-475.289	-41.344	-0.562	0.288
-474.274	-61.828	-0.189	0.079
-473.259	-42.498	-0.301	-0.153
-472.245	120.811	0.193	0.238
-471.230	-75.209	-0.314	0.111
-470.216	800.000	-0.086	0.243
-469.201	-200.000	0.009	0.234
-468.186	-87.070	-0.237	-0.072
-467.172	17.207	0.193	0.152
-466.157	440.039	-0.090	-0.195
-465.143	321.292	0.020	0.037
-464.128	113.125	-0.068	0.082
-463.113	-200.000	-0.002	-0.382
-462.099	-97.895	-0.228	-0.058
-461.084	-17.452	0.298	-0.186
-460.070	-200.000	0.003	0.075
-459.055	13.125	-0.060	-0.046
-458.040	315.759	-0.021	-0.039
-457.026	334.105	0.053	0.101
-456.011	17.148	0.138	0.108
-454.997	-200.000	-0.030	0.189
-453.982	-108.294	0.198	0.042
-452.968	-19.060	-0.289	-0.179
-451.953	286.298	0.145	-0.261
-450.938	-151.946	0.093	0.007
-449.924	-1.663	0.167	0.117
-448.909	-77.323	0.253	-0.087
-447.895	78.986	0.167	0.178
-446.880	-172.678	-0.164	-0.005
-445.865	-13.755	0.385	-0.247
-444.851	-200.000	-0.001	0.086
-443.836	-152.433	-0.379	-0.027
-442.822	204.023	-0.131	0.202
-441.807	-17.306	-0.136	0.085
-440.792	-73.893	0.234	-0.084
-439.778	-118.613	0.188	-0.033
-438.763	-148.879	-0.197	0.016
-437.749	-103.203	0.061	0.014
-436.734	58.162	0.116	-0.113
-435.719	12.596	0.311	-0.238
-434.705	-99.180	0.087	0.022
-433.690	512.901	-0.078	-0.181
-432.676	146.318	-0.164	0.219
-431.661	-200.000	-0.011	-0.114
-430.646	-76.264	0.341	-0.119
-429.632	-196.198	-0.077	0.001
-428.617	-54.540	0.159	0.071
-427.603	82.123	0.216	0.233
-426.588	-82.205	0.109	0.035
-425.573	273.993	0.096	-0.168
-424.559	-87.545	-0.203	-0.061
-423.544	274.656	0.055	0.096
-422.530	-70.438	0.205	-0.077
-421.515	-69.611	0.050	0.019
-420.500	-78.234	0.084	0.029
-419.486	-154.499	0.500	-0.033
-418.471	-200.000	-0.077	0.436
-417.457	-195.174	0.087	-0.001
-416.442	101.375	-0.149	0.172
-415.428	-83.258	-0.192	-0.061
-414.413	129.863	0.101	-0.128
-413.398	-73.659	-0.207	-0.075
-412.384	-200.000	0.024	-0.192
-411.369	-200.000	-0.007	0.149
-410.355	332.837	-0.077	0.147
-409.340	108.594	-0.277	-0.328
-408.325	-43.953	0.349	0.174
-407.311	-83.115	0.191	-0.061
-406.296	-200.000	-0.027	0.270
-405.282	41.229	0.124	-0.111
-404.267	-142.684	-0.094	-0.009
-403.252	-43.447	0.041	0.020
-402.238	-200.000	-0.036	-0.165
-401.223	115.050	0.200	0.242
-400.209	37.914	-0.171	-0.150
-399.194	59.493	-0.124	0.121
-398.179	-45.473	-0.179	-0.088
-397.165	-93.874	0.491	0.134
-396.150	-63.780	0.150	-0.061
-395.136	137.160	0.123	-0.159
-394.121	558.901	0.112	-0.269
-393.106	95.466	0.171	-0.194
-392.092	800.000	0.037	-0.150
-391.077	-200.000	0.006	-0.187
-390.063	-200.000	0.037	0.326
-389.048	58.636	0.115	0.111
-388.033	122.481	0.106	0.131
-387.019	42.366	0.143	0.129
-386.004	198.661	-0.174	0.264
-384.990	159.862	-0.069	-0.095
-383.975	-200.000	0.049	0.250
-382.960	-200.000	-0.005	0.064
-381.946	-47.884	-0.229	-0.110
-380.931	216.326	0.230	-0.362
-379.917	-176.531	-0.101	-0.003
-378.902	-58.274	0.305	0.131
-377.888	212.390	0.066	-0.103
-376.873	-68.973	-0.172	0.066
-375.858	-73.705	-0.259	-0.093
-374.844	-83.398	-0.388	-0.123
-373.829	-89.174	-0.115	-0.034
-372.815	-13.468	0.029	0.019
-371.800	20.560	0.195	-0.156
-370.785	-13.545	-0.226	0.145
-369.771	-128.213	-0.339	-0.048
-368.756	-141.007	-0.093	-0.009
-367.742	50.058	-0.160	-0.149
-366.727	636.861	0.048	-0.121
-365.712	-109.601	-0.329	-0.069
-364.698	154.443	0.077	-0.104
-363.683	481.570	0.085	-0.191
-362.669	-182.317	-0.157	-0.003
-361.654	577.011	0.077	0.185
-360.639	-103.891	0.290	0.067
-359.625	-137.307	-0.545	0.061
-358.610	-200.000	0.054	0.282
-357.596	615.495	0.181	-0.449
-356.581	-200.000	0.002	0.022
-355.566	-140.111	0.280	0.029
-354.552	167.424	0.131	-0.184
-353.537	-200.000	-0.029	-0.169
-352.523	383.606	-0.282	0.574
-351.508	95.626	0.230	-0.260
-350.493	562.209	0.009	0.022
-349.479	-123.336	-0.164	0.026
-348.464	254.834	0.108	0.182
-347.450	8.044	-0.119	0.088
-346.435	67.424	-0.155	0.156
-345.420	-1.514	-0.171	0.119
-344.406	170.255	0.057	-0.081
-343.391	48.881	0.192	-0.178
-342.377	-200.000	-0.017	-0.093
-341.362	-200.000	-0.035	-0.228
-340.348	-75.122	-0.263	-0.093
-339.333	104.770	-0.242	0.281
-338.318	-200.000	0.019	-0.151
-337.304	-163.983	0.105	0.005
-336.289	115.376	-0.102	-0.123
-335.275	62.666	0.133	-0.131
-334.260	-200.000	-0.027	0.169
-333.245	-42.176	-0.116	-0.059
-332.231	-80.789	0.016	-0.005
-331.216	-200.000	0.017	0.232
-330.202	-103.458	0.111	-0.026
-329.187	-200.000	0.025	0.215
-328.172	-138.534	0.131	0.014
-327.158	164.278	0.152	-0.211
-326.143	-158.741	0.085	-0.005
-325.129	56.088	-0.131	0.125
-324.114	282.543	-0.112	-0.198
-323.099	-200.000	-0.065	-0.367
-322.085	76.922	0.179	0.187
-321.070	127.649	-0.040	0.050
-320.056	-200.000	-0.012	-0.138
-319.041	22.094	-0.150	-0.121
-318.026	-54.743	-0.161	0.072
-317.012	-55.550	0.304	0.134
-315.997	-91.872	0.200	-0.056
-314.983	-150.346	-0.149	-0.011
-313.968	-200.000	-0.032	-0.181
-312.953	-200.000	-0.035	0.153
-311.939	234.571	0.126	-0.206
-310.924	610.114	-0.075	0.186
-309.910	390.244	0.218	0.447
-308.895	122.428	-0.160	0.198
-307.880	14.660	0.096	-0.074
-306.866	-200.000	-0.006	-0.343
-305.851	315.429	-0.061	0.113
-304.837	59.197	-0.233	-0.226
-303.822	185.783	-0.164	0.240
-302.807	-195.839	0.304	-0.002
-301.793	422.083	-0.112	0.238
-300.778	740.814	-0.038	-0.100
-299.764	-200.000	0.025	-0.193
-298.749	760.855	-0.060	0.161
-297.735	-3.293	-0.098	0.068
-296.720	118.247	0.065	0.079
-295.705	-144.801	0.294	0.027
-294.691	83.486	0.074	0.079
-293.676	-94.674	-0.324	0.087
-292.662	37.732	-0.097	-0.085
-291.647	236.251	-0.133	-0.217
-290.632	264.222	0.121	-0.208
-289.618	35.566	-0.121	0.105
-288.603	-64.191	-0.078	-0.031
-287.589	-200.000	-0.059	0.295
-286.574	-89.133	-0.191	-0.056
-285.559	-21.679	-0.110	-0.066
-284.545	-200.000	-0.001	-0.191
-283.530	592.930	-0.063	0.153
-282.516	-200.000	0.007	0.219
-281.501	174.801	-0.113	0.162
-280.486	-200.000	-0.026	0.145
-279.472	-200.000	-0.007	0.069
-278.457	-200.000	-0.015	0.198
-277.443	-200.000	-0.033	-0.228
-276.428	-200.000	-0.046	0.222
-275.413	44.498	-0.221	0.200
-274.399	-188.713	0.054	-0.001
-273.384	200.893	-0.196	-0.297
-272.370	-200.000	0.039	0.262
-271.355	306.563	-0.041	-0.076
-270.340	-24.380	0.311	0.183
-269.326	-161.206	0.337	0.017
-268.311	-164.515	-0.061	0.003
-267.297	546.736	0.157	-0.369
-266.282	94.092	-0.224	0.251
-265.267	703.155	-0.084	0.218
-264.253	800.000	-0.027	0.082
-263.238	-200.000	-0.012	-0.367
-262.224	-200.000	-0.109	-0.527
-261.209	103.814	-0.191	0.222
-260.195	-149.526	0.345	0.027
-259.180	-200.000	-0.007	0.032
-258.165	-200.000	-0.001	-0.050
-257.151	800.000	-0.008	-0.025
-256.136	59.120	-0.215	0.209
-255.122	43.380	0.326	-0.293
-254.107	82.324	0.167	-0.178
-253.092	270.236	0.066	-0.114
-252.078	45.851	0.304	-0.277
-251.063	-200.000	-0.067	0.291
-250.049	13.495	0.184	0.141
-249.034	186.203	-0.254	0.372
-248.019	-200.000	-0.003	-0.039
-247.005	231.424	0.147	0.237
-245.990	20.895	0.175	0.139
-244.976	384.733	0.104	-0.211
-243.961	-87.572	0.125	0.037
-242.946	-59.471	-0.173	0.073
-241.932	-92.346	0.195	-0.054
-240.917	556.695	0.087	-0.208
-239.903	371.801	0.088	0.176
-238.888	-90.578	0.234	0.067
-237.873	477.219	0.179	-0.398
-236.859	-149.510	0.342	0.027
-235.844	800.000	0.018	-0.068
-234.830	248.425	0.134	0.224
-233.815	583.950	-0.058	0.141
-232.800	-200.000	-0.052	-0.306
-231.786	43.744	-0.020	0.018
-230.771	-0.265	0.159	-0.111
-229.757	338.121	0.056	-0.107
-228.742	-22.554	0.223	-0.132
-227.727	-200.000	0.002	-0.121
-226.713	-56.411	-0.196	0.086
-225.698	-37.773	0.034	-0.018
-224.684	450.293	-0.083	0.181
-223.669	179.525	-0.142	-0.204
-222.655	-22.944	-0.320	0.190
-221.640	-170.209	-0.263	0.009
-220.625	131.586	-0.093	0.118
-219.611	-59.595	-0.076	-0.032
-218.596	-193.757	0.186	-0.002
-217.582	510.424	0.099	0.226
-216.567	-192.464	0.281	-0.003
-215.552	-162.545	0.127	0.006
-214.538	17.946	-0.331	-0.259
-213.523	135.840	0.191	0.245
-212.509	331.814	0.156	0.297
-211.494	-73.187	0.266	-0.096
-210.479	-113.011	-0.338	-0.066
-209.465	75.439	-0.089	0.092
-208.450	40.402	0.010	-0.009
-207.436	-200.000	-0.051	0.264
-206.421	215.201	0.160	0.250
-205.406	-200.000	-0.022	-0.192
-204.392	800.000	-0.039	0.139
-203.377	-200.000	0.009	0.173
-202.363	5.416	0.159	0.115
-201.348	800.000	-0.094	0.318
-200.333	149.875	-0.119	-0.158
-199.319	171.479	0.130	-0.184
-198.304	41.761	0.249	0.222
-197.290	800.000	-0.065	0.245
-196.275	-187.356	0.161	-0.002
-195.260	-99.714	-0.071	-0.018
-194.246	800.000	0.054	0.206
-193.231	-200.000	0.065	0.346
-192.217	-149.124	-0.471	-0.037
-191.202	-200.000	0.034	0.362
-190.187	-162.764	-0.051	0.002
-189.173	-52.822	0.014	0.006
-188.158	-49.488	0.311	-0.145
-187.144	-114.365	-0.156	0.029
-186.129	-88.227	-0.055	0.016
-185.114	-110.162	-0.056	-0.011
-184.100	-200.000	0.082	-0.491
-183.085	421.750	-0.081	-0.171
-182.071	-200.000	-0.000	-0.061
-181.056	316.224	-0.051	-0.095
-180.042	268.123	0.193	-0.332
-179.027	-153.471	0.132	0.009
-178.012	253.134	0.173	0.290
-176.998	0.634	-0.134	0.094
-175.983	-176.751	0.157	-0.004
-174.969	32.481	-0.123	0.104
-173.954	268.241	-0.104	-0.179
-172.939	260.240	-0.027	0.046
-171.925	800.000	-0.027	-0.083
-170.910	492.547	0.011	-0.025
-169.896	-200.000	-0.019	0.221
-168.881	800.000	-0.021	0.077
-167.866	-135.283	-0.139	0.016
-166.852	-130.747	0.119	0.016
-165.837	-152.835	-0.538	-0.037
-164.823	-9.519	0.234	-0.154
-163.808	143.322	0.190	0.248
-162.793	-200.000	0.008	-0.240
-161.779	-174.151	-0.116	-0.003
-160.764	72.624	0.132	-0.135
-159.750	-200.000	-0.019	0.085
-158.735	-121.241	0.051	-0.008
-157.720	-200.000	-0.038	0.198
-156.706	-156.993	0.164	0.010
-155.691	-62.750	-0.232	0.094
-154.677	-132.929	0.127	0.016
-153.662	-37.770	0.127	-0.066
-152.647	-72.868	0.067	0.024
-151.633	269.415	-0.152	0.262
-150.618	-62.825	0.203	0.083
-149.604	-200.000	-0.000	-0.088
-148.589	-200.000	-0.008	0.285
-147.574	573.968	-0.069	0.165
-146.560	-88.633	-0.356	0.104
-145.545	603.038	0.012	0.030
-144.531	74.478	-0.356	0.367
-143.516	-171.473	-0.097	-0.003
-142.502	71.483	-0.110	-0.112
-141.487	-200.000	0.018	0.191
-140.472	-95.285	-0.042	-0.011
-139.458	800.000	0.040	-0.171
-138.443	-200.000	0.011	-0.110
-137.429	800.000	0.017	0.053
-136.414	-6.287	-0.098	0.065
-135.399	-85.765	-0.093	-0.028
-134.385	343.319	-0.094	0.180
-133.370	338.136	-0.114	0.217
-132.356	-38.764	-0.238	-0.123
-131.341	-38.219	-0.294	0.153
-130.326	800.000	0.055	0.161
-129.312	-192.272	-0.023	-0.000
-128.297	-10.808	0.161	-0.104
-127.283	393.404	-0.112	-0.228
-126.268	311.132	0.131	0.240
-125.253	278.944	0.048	-0.084
-124.239	134.664	0.163	0.207
-123.224	192.005	-0.181	0.267
-122.210	-86.226	-0.106	0.032
