DTS Sentinel unit serial number:	SN413079Multiplexer serial number:	ORYXHardware model number:	OX4-SRSoftware version number:	ORYX F/W v4.00 Oryx Data Collector v3.7.2.0data status	okinstallation	princeton_trtdifferential loss correction	single-endedforward channel	channel 3reverse channel	N/Adate	2019/09/14time	18:16:34forward acquisition time	60.00reverse acquisition time	0.00gamma	496.2192k internal	0.2302k external	0.2302temperature offset calibration	1.0019default loss term (dB/km)	0.3790temperature slope calibration	1.0000multiplexer offset coefficient	1.0000multiplexer slope coefficient	1.0000fibre end	0.00T internal ref (°C)	37.00T ext. ref 1 (°C)	4.96T ext. ref 2 (°C)	31.14length (m)	temperature (°C)	Stokes	anti-Stokes-747.200	13.038	-0.209	0.165
-746.185	-35.134	-0.250	0.139
-745.171	-169.154	-0.067	0.003
-744.156	-58.727	-0.377	-0.167
-743.142	390.055	-0.122	-0.258
-742.127	-200.000	-0.056	0.683
-741.112	800.000	-0.048	-0.148
-740.098	-125.164	-0.204	-0.032
-739.083	699.429	0.034	0.091
-738.069	105.484	-0.236	0.284
-737.054	269.538	0.115	0.206
-736.039	17.603	-0.164	-0.133
-735.025	169.309	0.195	-0.284
-734.010	-200.000	-0.038	-0.216
-732.996	-22.199	-0.406	-0.251
-731.981	-61.016	0.082	0.035
-730.966	-104.785	-0.336	-0.079
-729.952	451.830	-0.192	-0.432
-728.937	85.903	-0.088	-0.099
-727.923	238.244	-0.050	-0.085
-726.908	-33.200	-0.111	-0.063
-725.894	800.000	-0.129	-0.367
-724.879	-200.000	0.011	-0.169
-723.864	-27.682	-0.191	-0.113
-722.850	800.000	-0.034	0.098
-721.835	429.041	0.170	-0.374
-720.821	-200.000	-0.027	-0.378
-719.806	251.250	-0.221	0.383
-718.791	199.858	-0.175	0.274
-717.777	-31.463	-0.236	-0.135
-716.762	345.114	-0.150	-0.301
-715.748	-200.000	-0.077	-0.401
-714.733	72.291	-0.060	-0.064
-713.718	56.902	0.212	0.211
-712.704	28.864	0.091	-0.078
-711.689	800.000	0.042	0.144
-710.675	-182.826	0.177	-0.003
-709.660	572.985	-0.089	-0.220
-708.645	-24.601	0.159	0.097
-707.631	800.000	-0.056	-0.221
-706.616	22.012	-0.035	-0.029
-705.602	800.000	0.087	-0.375
-704.587	-64.072	-0.081	-0.034
-703.572	-122.656	0.173	-0.029
-702.558	-122.622	0.473	-0.078
-701.543	14.596	0.170	-0.135
-700.529	491.782	-0.080	0.186
-699.514	28.122	-0.163	-0.140
-698.499	-44.291	0.194	-0.099
-697.485	800.000	0.110	-0.417
-696.470	-200.000	0.068	-0.314
-695.456	-200.000	-0.036	0.228
-694.441	-39.406	0.091	0.049
-693.426	-200.000	0.045	-0.216
-692.412	-55.051	-0.417	-0.191
-691.397	-135.519	-0.221	-0.027
-690.383	-198.519	0.127	-0.001
-689.368	-36.921	0.129	0.070
-688.354	-200.000	-0.011	0.230
-687.339	21.545	-0.296	0.245
-686.324	-124.849	-0.167	-0.026
-685.310	-200.000	0.005	-0.163
-684.295	-21.685	-0.199	0.123
-683.281	-88.858	0.163	-0.049
-682.266	-6.137	0.278	0.193
-681.251	-138.735	0.156	-0.017
-680.237	-200.000	0.001	0.082
-679.222	-39.345	0.138	-0.074
-678.208	800.000	-0.041	-0.127
-677.193	-200.000	0.002	0.180
-676.178	-43.976	-0.114	0.058
-675.164	-200.000	0.028	-0.430
-674.149	-38.754	0.233	-0.125
-673.135	257.996	-0.132	-0.231
-672.120	-60.930	0.177	-0.076
-671.105	109.019	-0.150	-0.183
-670.091	-101.490	0.140	-0.035
-669.076	51.428	-0.238	-0.230
-668.062	118.912	0.175	0.219
-667.047	-39.121	-0.321	0.172
-666.032	-18.817	0.101	-0.064
-665.018	-200.000	0.033	0.147
-664.003	300.276	-0.144	0.270
-662.989	-136.875	0.269	-0.031
-661.974	566.974	-0.229	-0.565
-660.959	-143.574	0.099	0.010
-659.945	-95.589	0.122	-0.033
-658.930	-36.246	-0.346	-0.189
-657.916	800.000	0.110	-0.420
-656.901	68.287	-0.031	-0.032
-655.886	34.300	-0.050	-0.044
-654.872	-200.000	0.063	-0.383
-653.857	-134.007	0.040	-0.005
-652.843	345.242	0.098	0.195
-651.828	-200.000	0.003	-0.057
-650.814	638.102	-0.145	-0.375
-649.799	800.000	-0.092	-0.310
-648.784	-99.547	-0.257	-0.065
-647.770	462.299	0.079	-0.180
-646.755	110.602	-0.177	-0.216
-645.741	-200.000	0.069	-0.341
-644.726	-136.262	-0.050	-0.006
-643.711	800.000	-0.138	-0.418
-642.697	-44.765	0.191	0.097
-641.682	-200.000	0.029	0.233
-640.668	800.000	0.182	0.556
-639.653	-70.224	0.124	-0.048
-638.638	695.751	-0.109	-0.290
-637.624	294.404	0.059	0.109
-636.609	7.608	0.069	-0.053
-635.595	91.738	-0.202	0.231
-634.580	-200.000	0.057	-0.340
-633.565	3.967	0.175	-0.130
-632.551	21.980	0.057	0.047
-631.536	-16.455	0.036	-0.023
-630.522	-200.000	0.072	-0.427
-629.507	42.711	-0.225	-0.208
-628.492	66.300	-0.151	0.156
-627.478	-49.938	0.067	-0.032
-626.463	156.926	-0.152	-0.213
-625.449	-136.864	-0.118	0.014
-624.434	135.770	0.087	-0.115
-623.419	233.259	0.099	-0.165
-622.405	81.066	-0.096	-0.105
-621.390	324.755	0.079	-0.152
-620.376	-200.000	-0.004	0.077
-619.361	52.072	0.193	0.187
-618.346	198.613	-0.153	0.238
-617.332	-200.000	-0.054	0.258
-616.317	-200.000	0.046	-0.212
-615.303	-98.918	-0.263	-0.068
-614.288	-84.850	-0.166	-0.053
-613.273	67.478	0.135	-0.140
-612.259	300.007	-0.120	-0.224
-611.244	76.233	0.308	0.331
-610.230	-200.000	0.057	-0.322
-609.215	-200.000	0.005	0.085
-608.201	78.241	-0.278	0.301
-607.186	372.875	0.084	0.173
-606.171	-95.053	-0.401	-0.110
-605.157	43.325	-0.185	0.171
-604.142	-200.000	-0.003	0.283
-603.128	800.000	0.060	0.220
-602.113	-200.000	0.001	0.177
-601.098	-200.000	0.031	0.257
-600.084	-200.000	0.012	-0.190
-599.069	-9.027	-0.081	-0.055
-598.055	70.823	-0.133	-0.140
-597.040	-141.875	-0.320	-0.032
-596.025	139.868	-0.076	-0.101
-595.011	33.441	0.084	-0.074
-593.996	-9.195	-0.448	0.304
-592.982	125.420	-0.253	0.323
-591.967	-76.943	0.378	0.134
-590.952	-19.643	0.079	-0.050
-589.938	-60.571	-0.138	-0.059
-588.923	293.574	0.030	0.056
-587.909	-8.141	-0.314	-0.214
-586.894	-113.590	0.540	0.107
-585.879	-84.513	0.222	-0.071
-584.865	14.977	0.011	-0.008
-583.850	197.037	0.182	0.281
-582.836	340.314	-0.078	0.155
-581.821	188.818	-0.229	0.347
-580.806	-103.736	-0.116	0.027
-579.792	10.556	-0.068	-0.052
-578.777	-195.442	0.061	0.000
-577.763	-101.520	0.184	0.045
-576.748	-84.707	-0.279	0.089
-575.733	-122.027	0.296	0.049
-574.719	256.377	0.175	-0.305
-573.704	-25.737	0.229	-0.137
-572.690	-102.143	-0.158	0.039
-571.675	95.059	0.164	0.189
-570.661	-200.000	0.000	0.332
-569.646	-200.000	-0.002	0.325
-568.631	800.000	-0.041	-0.178
-567.617	87.196	0.156	0.175
-566.602	137.895	0.165	-0.219
-565.588	207.046	0.216	0.340
-564.573	37.689	0.177	-0.159
-563.558	103.439	0.046	-0.054
-562.544	107.897	0.224	0.270
-561.529	800.000	-0.047	0.164
-560.515	-200.000	-0.029	-0.253
-559.500	385.229	-0.083	-0.172
-558.485	800.000	0.040	-0.113
-557.471	-145.168	-0.345	0.032
-556.456	800.000	0.072	-0.244
-555.442	60.663	-0.126	0.126
-554.427	-100.178	0.299	0.075
-553.412	-71.436	-0.166	-0.063
-552.398	262.829	0.140	-0.247
-551.383	61.820	0.130	-0.131
-550.369	-200.000	-0.023	-0.417
-549.354	248.823	0.147	-0.252
-548.339	-26.776	-0.295	-0.174
-547.325	-17.569	-0.065	-0.041
-546.310	-137.771	0.225	-0.025
-545.296	62.434	0.109	0.110
-544.281	-91.256	0.481	0.139
-543.266	-59.398	-0.091	-0.040
-542.252	-72.785	0.182	0.068
-541.237	3.534	0.172	-0.127
-540.223	245.686	0.051	0.087
-539.208	-67.441	-0.163	-0.065
-538.193	-119.640	0.109	-0.019
-537.179	-200.000	0.003	0.354
-536.164	18.500	-0.064	0.051
-535.150	-200.000	-0.021	-0.128
-534.135	-200.000	-0.011	-0.216
-533.121	44.862	0.112	-0.104
-532.106	641.491	0.046	0.118
-531.091	-16.906	-0.250	-0.160
-530.077	-200.000	0.010	0.198
-529.062	-57.678	0.203	0.090
-528.048	311.521	-0.104	-0.197
-527.033	24.866	0.062	-0.052
-526.018	-158.139	0.160	0.010
-525.004	-200.000	-0.026	-0.160
-523.989	120.546	0.096	0.120
-522.975	800.000	0.015	-0.043
-521.960	329.821	-0.039	-0.075
-520.945	541.816	0.132	0.317
-519.931	7.645	-0.152	0.115
-518.916	-20.174	0.052	-0.032
-517.902	2.197	-0.228	-0.167
-516.887	60.589	-0.088	-0.088
-515.872	-149.972	-0.218	-0.017
-514.858	27.194	-0.161	-0.136
-513.843	30.824	-0.146	0.127
-512.829	599.677	0.150	-0.377
-511.814	345.700	0.106	-0.210
-510.799	-110.322	-0.099	0.021
-509.785	800.000	-0.018	-0.057
-508.770	92.053	0.153	0.174
-507.756	-77.893	0.249	0.087
-506.741	-24.201	0.207	-0.125
-505.726	800.000	-0.084	-0.324
-504.712	39.490	-0.132	-0.119
-503.697	-200.000	0.020	0.147
-502.683	-200.000	-0.022	-0.165
-501.668	192.634	0.087	0.132
-500.653	181.763	-0.173	-0.257
-499.639	-200.000	0.007	-0.213
-498.624	-129.673	0.276	0.038
-497.610	85.011	0.052	-0.057
-496.595	-97.014	-0.202	0.053
-495.581	-140.890	-0.350	0.036
-494.566	3.702	0.132	0.097
-493.551	102.736	0.111	-0.132
-492.537	2.113	0.323	0.235
-491.522	29.997	-0.338	0.291
-490.508	-98.651	0.068	-0.017
-489.493	-91.738	0.127	-0.036
-488.478	-2.840	-0.099	-0.070
-487.464	124.992	-0.090	0.114
-486.449	-200.000	-0.013	0.108
-485.435	800.000	0.099	0.275
-484.420	-22.104	0.425	0.260
-483.405	-38.919	-0.405	0.215
-482.391	500.545	-0.063	-0.148
-481.376	-200.000	-0.037	-0.316
-480.362	-200.000	0.000	0.077
-479.347	-200.000	0.010	-0.252
-478.332	3.889	-0.080	-0.059
-477.318	136.736	0.099	-0.131
-476.303	335.408	0.047	-0.092
-475.289	192.165	-0.115	-0.175
-474.274	22.154	-0.112	0.092
-473.259	-200.000	-0.022	0.404
-472.245	318.020	-0.112	0.214
-471.230	-80.710	0.060	0.020
-470.216	-28.406	-0.084	-0.049
-469.201	-130.933	-0.023	-0.003
-468.186	-27.894	0.202	0.118
-467.172	-200.000	-0.013	0.118
-466.157	-200.000	0.007	-0.336
-465.143	-40.801	0.233	0.122
-464.128	-200.000	-0.024	-0.184
-463.113	-53.983	0.148	0.068
-462.099	800.000	0.064	-0.273
-461.084	800.000	-0.025	0.080
-460.070	96.984	0.114	0.131
-459.055	-41.743	-0.254	-0.132
-458.040	-13.996	0.282	-0.184
-457.026	356.880	-0.059	0.118
-456.011	-140.848	0.239	-0.025
-454.997	325.021	0.197	0.379
-453.982	191.190	-0.113	0.171
-452.968	-200.000	0.126	0.578
-451.953	216.882	-0.096	0.154
-450.938	-12.620	-0.240	0.158
-449.924	322.754	0.102	-0.196
-448.909	40.309	-0.120	-0.108
-447.895	-68.190	-0.103	0.041
-446.880	-200.000	-0.005	0.274
-445.865	-108.891	-0.160	-0.034
-444.851	20.822	-0.119	-0.097
-443.836	-71.332	0.253	0.095
-442.822	-19.884	0.208	0.130
-441.807	-50.516	-0.221	-0.105
-440.792	-118.905	0.189	-0.033
-439.778	800.000	-0.077	-0.232
-438.763	-98.963	0.106	-0.027
-437.749	19.771	0.093	-0.075
-436.734	551.403	-0.083	0.200
-435.719	609.465	0.085	0.215
-434.705	-139.515	-0.118	-0.013
-433.690	-200.000	-0.357	-0.000
-432.676	179.254	-0.119	-0.175
-431.661	439.247	0.055	-0.121
-430.646	67.529	0.117	-0.120
-429.632	309.544	-0.207	0.390
-428.617	146.052	-0.029	-0.039
-427.603	-157.338	-0.389	-0.024
-426.588	-133.739	-0.256	-0.032
-425.573	-118.795	0.110	-0.020
-424.559	166.127	0.156	0.223
-423.544	70.604	-0.292	0.304
-422.530	-42.592	-0.116	-0.059
-421.515	57.952	-0.018	0.017
-420.500	-118.339	0.244	-0.044
-419.486	-80.933	0.152	-0.051
-418.471	-94.518	-0.095	0.026
-417.457	-41.020	0.220	-0.114
-416.442	86.949	0.101	0.113
-415.428	201.407	-0.150	0.232
-414.413	339.227	-0.156	0.307
-413.398	135.555	0.063	0.082
-412.384	127.461	-0.162	0.207
-411.369	-47.128	0.101	-0.050
-410.355	381.997	0.072	-0.148
-409.340	-47.912	0.208	-0.101
-408.325	800.000	-0.098	0.362
-407.311	67.790	-0.144	-0.148
-406.296	-200.000	-0.018	-0.117
-405.282	141.992	0.142	-0.190
-404.267	48.493	-0.185	0.175
-403.252	-200.000	0.022	0.149
-402.238	284.487	-0.195	-0.352
-401.223	7.926	0.199	0.150
-400.209	-119.760	0.257	0.045
-399.194	102.452	-0.153	0.180
-398.179	-30.036	0.413	-0.237
-397.165	35.372	0.087	-0.077
-396.150	248.741	-0.125	-0.213
-395.136	-29.288	-0.258	-0.149
-394.121	-84.593	-0.070	0.022
-393.106	800.000	-0.079	-0.275
-392.092	-93.131	-0.358	-0.100
-391.077	-200.000	0.022	0.244
-390.063	-106.901	-0.339	0.075
-389.048	-29.432	-0.184	0.106
-388.033	240.910	-0.069	0.115
-387.019	83.535	0.275	-0.302
-386.004	-56.973	-0.085	-0.038
-384.990	-200.000	-0.014	-0.312
-383.975	119.205	0.076	0.094
-382.960	399.366	-0.053	-0.111
-381.946	-51.371	-0.183	0.086
-380.931	146.732	0.191	0.257
-379.917	-200.000	-0.025	0.199
-378.902	-95.149	-0.242	0.066
-377.888	-131.965	-0.087	0.011
-376.873	-200.000	0.068	0.340
-375.858	343.071	0.085	0.168
-374.844	-200.000	0.021	-0.287
-373.829	-102.986	0.356	-0.085
-372.815	-124.559	-0.101	-0.016
-371.800	623.848	0.017	0.043
-370.785	-11.493	0.289	-0.191
-369.771	800.000	-0.046	-0.191
-368.756	29.566	0.125	-0.106
-367.742	-55.872	-0.183	-0.082
-366.727	3.856	0.069	0.050
-365.712	-107.407	-0.257	0.057
-364.698	70.755	0.231	-0.240
-363.683	183.953	0.162	-0.241
-362.669	328.852	-0.078	0.150
-361.654	-84.352	-0.190	0.060
-360.639	92.386	0.105	0.119
-359.625	548.272	-0.018	0.043
-358.610	-21.873	0.177	0.108
-357.596	-83.563	-0.309	-0.099
-356.581	-85.485	-0.351	0.110
-355.566	-177.995	-0.478	0.011
-354.552	-4.513	0.210	0.146
-353.537	-105.462	0.156	-0.036
-352.523	122.538	-0.044	0.055
-351.508	186.604	-0.146	0.218
-350.493	-127.422	-0.088	-0.013
-349.479	-31.178	-0.203	-0.115
-348.464	-3.785	0.223	0.155
-347.450	215.481	-0.018	0.029
-346.435	141.879	-0.123	-0.164
-345.420	-80.660	0.211	0.070
-344.406	-1.780	0.109	0.077
-343.391	-43.961	-0.308	-0.156
-342.377	30.949	-0.061	0.053
-341.362	76.748	-0.045	-0.048
-340.348	53.887	0.291	0.281
-339.333	-24.651	-0.149	-0.089
-338.318	101.127	0.061	0.071
-337.304	-124.958	0.328	-0.051
-336.289	26.867	-0.361	0.304
-335.275	-89.591	0.141	-0.042
-334.260	-200.000	-0.049	0.385
-333.245	-156.668	0.210	-0.013
-332.231	118.451	0.067	-0.082
-331.216	800.000	-0.072	0.252
-330.202	302.685	0.052	0.097
-329.187	408.945	-0.076	0.160
-328.172	328.642	0.128	-0.246
-327.158	-200.000	0.000	0.152
-326.143	282.414	-0.043	-0.078
-325.129	135.756	-0.220	0.288
-324.114	-33.507	0.118	-0.066
-323.099	-111.749	0.356	0.072
-322.085	800.000	0.032	0.116
-321.070	-86.753	0.320	-0.098
-320.056	800.000	-0.064	0.228
-319.041	149.941	0.154	-0.210
-318.026	64.784	-0.093	0.094
-317.012	16.504	0.311	-0.246
-315.997	-200.000	-0.007	-0.147
-314.983	152.409	0.078	-0.107
-313.968	-200.000	0.023	0.152
-312.953	8.680	0.268	-0.202
-311.939	-39.136	-0.205	-0.108
-310.924	-200.000	0.007	-0.395
-309.910	-200.000	-0.017	-0.150
-308.895	-200.000	-0.035	-0.163
-307.880	73.667	-0.176	0.185
-306.866	-73.148	-0.188	0.069
-305.851	266.507	-0.186	-0.326
-304.837	800.000	0.042	0.162
-303.822	800.000	-0.080	0.320
-302.807	-200.000	0.041	-0.227
-301.793	800.000	0.062	0.248
-300.778	249.265	0.179	0.305
-299.764	481.016	0.077	0.176
-298.749	90.959	0.131	-0.147
-297.735	10.721	0.136	0.104
-296.720	-165.971	-0.124	-0.005
-295.705	89.542	-0.057	0.064
-294.691	-44.169	0.061	-0.031
-293.676	-176.734	0.213	-0.005
-292.662	-12.331	-0.092	0.060
-291.647	252.305	0.153	-0.261
-290.632	50.266	0.029	0.028
-289.618	53.542	-0.104	-0.100
-288.603	-67.177	-0.041	-0.016
-287.589	227.915	0.050	0.081
-286.574	86.371	-0.228	-0.251
-285.559	367.474	-0.104	-0.211
-284.545	43.585	0.151	0.138
-283.530	300.416	-0.149	-0.274
-282.516	75.093	-0.062	0.065
-281.501	198.725	0.064	0.098
-280.486	-200.000	-0.004	0.056
-279.472	209.824	-0.153	0.241
-278.457	503.860	-0.052	-0.121
-277.443	358.455	0.060	0.119
-276.428	-65.254	-0.076	0.031
-275.413	800.000	-0.109	-0.370
-274.399	81.764	-0.066	0.071
-273.384	800.000	-0.118	-0.349
-272.370	-97.643	-0.071	0.018
-271.355	-200.000	0.004	0.391
-270.340	2.573	-0.347	0.251
-269.326	800.000	0.028	0.110
-268.311	-71.979	0.195	0.072
-267.297	41.556	0.103	0.093
-266.282	144.594	0.095	0.127
-265.267	505.590	-0.101	0.234
-264.253	279.506	0.136	-0.242
-263.238	-200.000	0.057	-0.343
-262.224	-200.000	-0.021	-0.258
-261.209	-200.000	0.029	-0.137
-260.195	134.139	0.048	-0.062
-259.180	-95.008	-0.115	0.031
-258.165	-59.074	-0.206	0.089
-257.151	-200.000	0.045	-0.326
-256.136	800.000	-0.123	0.386
-255.122	-0.460	-0.035	0.025
-254.107	-165.247	-0.232	-0.010
-253.092	13.664	-0.212	0.164
-252.078	-22.183	-0.108	-0.066
-251.063	592.141	-0.045	0.111
-250.049	-62.626	0.176	-0.073
-249.034	303.713	-0.167	0.309
-248.019	800.000	-0.045	-0.141
-247.005	84.906	0.288	-0.316
-245.990	-111.547	-0.232	0.047
-244.976	-182.844	0.186	-0.003
-243.961	187.559	0.139	-0.207
-242.946	172.598	-0.149	-0.214
-241.932	-71.172	0.160	-0.060
-240.917	-200.000	-0.024	-0.139
-239.903	-197.768	-0.145	-0.001
-238.888	-71.831	0.487	-0.181
-237.873	-29.805	-0.219	0.125
-236.859	-200.000	0.009	-0.266
-235.844	-59.137	-0.128	0.055
-234.830	-25.723	0.165	-0.097
-233.815	-200.000	-0.006	0.172
-232.800	-198.597	-0.069	-0.000
-231.786	-30.959	0.359	-0.203
-230.771	-200.000	-0.028	-0.232
-229.757	-11.836	0.147	0.096
-228.742	-200.000	-0.008	0.172
-227.727	-200.000	0.001	-0.381
-226.713	306.296	0.232	-0.432
-225.698	290.483	-0.047	0.086
-224.684	-184.280	-0.186	-0.003
-223.669	800.000	-0.082	0.269
-222.655	-38.011	-0.067	0.036
-221.640	-71.320	-0.215	-0.081
-220.625	-61.714	0.274	0.115
-219.611	101.943	-0.080	-0.093
-218.596	-113.836	-0.304	0.059
-217.582	710.209	0.114	0.302
-216.567	27.426	-0.117	-0.098
-215.552	-32.210	-0.196	0.109
-214.538	225.625	0.082	-0.133
-213.523	704.924	-0.031	-0.083
-212.509	-17.580	-0.145	-0.091
-211.494	-123.893	-0.079	-0.012
-210.479	179.037	-0.034	0.050
-209.465	-167.899	0.322	0.013
-208.450	-111.996	0.277	0.056
-207.436	-20.870	0.211	0.129
-206.421	-105.360	-0.126	-0.029
-205.406	-7.269	-0.168	-0.114
-204.392	800.000	0.058	0.173
-203.377	-72.235	-0.294	0.109
-202.363	196.858	-0.054	0.081
-201.348	89.350	0.239	0.266
-200.333	46.269	-0.172	-0.160
-199.319	206.298	0.107	-0.166
-198.304	-76.446	-0.178	0.062
-197.290	-88.212	0.133	0.040
-196.275	800.000	-0.064	0.272
-195.260	-200.000	0.021	-0.287
-194.246	-119.514	0.364	0.063
-193.231	101.541	0.048	-0.056
-192.217	800.000	0.116	0.356
-191.202	230.477	0.105	-0.171
-190.187	-158.787	0.089	0.005
-189.173	26.505	0.231	0.193
-188.158	6.156	-0.267	0.198
-187.144	276.891	-0.081	0.143
-186.129	-191.333	-0.064	0.001
-185.114	77.865	0.161	-0.171
-184.100	15.521	0.091	0.072
-183.085	575.525	-0.036	0.089
-182.071	8.716	-0.200	0.150
-181.056	125.175	0.214	-0.269
-180.042	72.408	0.051	0.053
-179.027	-137.255	0.587	0.067
-178.012	473.592	0.055	0.125
-176.998	366.057	-0.068	-0.136
-175.983	-194.668	-0.253	0.002
-174.969	194.122	-0.089	0.135
-173.954	-67.989	-0.084	0.033
-172.939	-93.533	-0.123	0.034
-171.925	-22.906	0.296	-0.178
-170.910	581.598	-0.066	-0.162
-169.896	365.964	0.091	0.184
-168.881	-15.876	0.237	-0.151
-167.866	-104.657	-0.343	-0.079
-166.852	-160.015	-0.237	-0.013
-165.837	37.536	0.098	-0.086
-164.823	123.918	-0.175	0.219
-163.808	-200.000	0.018	-0.224
-162.793	-200.000	0.011	-0.218
-161.779	800.000	-0.086	0.293
-160.764	-95.693	0.057	0.015
-159.750	28.568	0.225	0.190
-158.735	40.919	0.119	-0.107
-157.720	-200.000	0.076	-0.346
-156.706	169.359	0.208	0.296
-155.691	121.726	-0.110	0.136
-154.677	-200.000	0.005	-0.112
-153.662	186.662	0.122	-0.181
-152.647	72.699	-0.308	-0.320
-151.633	169.545	0.069	-0.099
-150.618	-75.938	-0.097	-0.034
-149.604	-137.626	0.108	0.012
-148.589	207.060	0.170	0.264
-147.574	-173.456	-0.210	-0.006
-146.560	322.834	-0.125	0.237
-145.545	503.795	0.138	0.318
-144.531	-200.000	-0.058	0.382
-143.516	-200.000	0.016	0.185
-142.502	-14.410	-0.195	0.125
-141.487	776.766	0.040	-0.109
-140.472	-25.158	-0.253	0.149
-139.458	-2.508	0.181	0.127
-138.443	29.519	-0.355	-0.300
-137.429	97.678	0.201	0.230
-136.414	-31.575	-0.317	-0.177
-135.399	-13.239	-0.105	0.068
-134.385	-44.035	0.219	-0.110
-133.370	800.000	0.021	-0.077
-132.356	-200.000	0.052	-0.373
-131.341	800.000	0.076	-0.307
-130.326	137.200	0.208	-0.271
-129.312	168.925	0.082	-0.116
-128.297	521.636	-0.019	0.044
-127.283	426.170	0.164	-0.352
-126.268	-70.752	0.068	-0.025
-125.253	-200.000	0.021	-0.312
-124.239	-200.000	-0.009	-0.122
-123.224	653.266	-0.084	0.214
-122.210	-65.553	-0.156	-0.062
-121.195	72.028	0.310	-0.321
