DTS Sentinel unit serial number:	SN413079Multiplexer serial number:	ORYXHardware model number:	OX4-SRSoftware version number:	ORYX F/W v4.00 Oryx Data Collector v3.7.2.0data status	okinstallation	princeton_trtdifferential loss correction	single-endedforward channel	channel 3reverse channel	N/Adate	2019/09/16time	05:52:35forward acquisition time	60.00reverse acquisition time	0.00gamma	496.2192k internal	0.2335k external	0.2335temperature offset calibration	0.9956default loss term (dB/km)	0.3790temperature slope calibration	1.0000multiplexer offset coefficient	1.0000multiplexer slope coefficient	1.0000fibre end	0.00T internal ref (°C)	27.39T ext. ref 1 (°C)	11.22T ext. ref 2 (°C)	22.23length (m)	temperature (°C)	Stokes	anti-Stokes-747.200	-172.332	0.400	0.013
-746.185	224.215	-0.170	0.276
-745.171	-200.000	0.012	0.233
-744.156	-200.000	-0.034	0.166
-743.142	-47.333	-0.199	-0.097
-742.127	-20.385	0.082	-0.050
-741.112	-2.161	-0.063	-0.044
-740.098	-165.067	-0.291	-0.013
-739.083	-153.093	-0.209	0.015
-738.069	-178.165	0.390	0.009
-737.054	-47.394	-0.094	0.046
-736.039	800.000	0.026	-0.094
-735.025	78.715	0.259	-0.278
-734.010	800.000	0.009	-0.027
-732.996	-200.000	0.015	-0.321
-731.981	-104.601	0.096	0.022
-730.966	-200.000	0.023	0.267
-729.952	800.000	0.056	-0.230
-728.937	-103.316	-0.207	-0.049
-727.923	-124.042	-0.184	0.029
-726.908	-116.683	-0.493	-0.091
-725.894	486.340	-0.229	0.525
-724.879	340.754	0.076	-0.148
-723.864	96.862	-0.022	-0.025
-722.850	-54.206	-0.151	-0.069
-721.835	1.961	0.180	0.131
-720.821	-128.189	-0.210	0.030
-719.806	-200.000	0.276	0.001
-718.791	6.569	0.066	0.049
-717.777	42.066	0.107	0.098
-716.762	604.975	0.024	0.059
-715.748	381.102	-0.110	-0.226
-714.733	800.000	-0.070	0.295
-713.718	-53.609	-0.034	0.016
-712.704	-12.590	0.181	0.119
-711.689	389.828	-0.222	0.461
-710.675	-91.542	-0.230	-0.066
-709.660	93.535	-0.113	0.128
-708.645	800.000	0.066	0.245
-707.631	144.326	0.187	-0.251
-706.616	172.641	-0.275	0.397
-705.602	-200.000	-0.004	-0.165
-704.587	86.807	0.058	-0.064
-703.572	-6.172	-0.276	-0.189
-702.558	-200.000	-0.019	-0.095
-701.543	-200.000	0.011	-0.053
-700.529	-6.568	0.045	-0.030
-699.514	-0.296	0.294	-0.209
-698.499	-1.293	-0.050	0.035
-697.485	155.592	0.196	0.270
-696.470	-52.301	0.226	-0.105
-695.456	16.214	0.335	-0.265
-694.441	-13.981	0.376	-0.244
-693.426	-99.121	-0.007	0.002
-692.412	400.744	-0.067	-0.141
-691.397	-16.019	-0.119	0.076
-690.383	21.422	0.196	-0.160
-689.368	353.339	-0.111	-0.220
-688.354	254.119	-0.123	-0.211
-687.339	-10.428	0.254	0.169
-686.324	9.896	0.224	-0.171
-685.310	-200.000	-0.036	0.161
-684.295	59.351	-0.068	-0.067
-683.281	282.975	-0.069	0.124
-682.266	18.045	-0.184	-0.147
-681.251	-99.532	0.390	-0.098
-680.237	-200.000	-0.059	0.401
-679.222	160.073	-0.077	-0.108
-678.208	-35.855	-0.190	-0.103
-677.193	800.000	0.118	0.443
-676.178	38.590	0.093	-0.083
-675.164	171.036	-0.185	0.265
-674.149	-99.707	-0.241	-0.061
-673.135	-15.477	-0.145	0.093
-672.120	-6.733	-0.168	-0.114
-671.105	70.046	0.204	0.211
-670.091	-200.000	0.014	-0.528
-669.076	-80.945	0.178	0.059
-668.062	-54.401	0.191	-0.087
-667.047	-33.144	-0.056	-0.031
-666.032	-157.385	-0.281	-0.017
-665.018	141.167	-0.147	-0.195
-664.003	304.461	0.260	-0.484
-662.989	1.895	-0.249	-0.180
-661.974	129.195	0.127	-0.163
-660.959	-83.413	-0.079	0.025
-659.945	90.202	-0.240	0.269
-658.930	237.867	0.064	0.106
-657.916	-126.471	-0.391	-0.058
-656.901	-200.000	-0.018	0.279
-655.886	-96.232	-0.044	0.012
-654.872	-200.000	0.014	0.167
-653.857	-102.386	-0.098	0.024
-652.843	78.255	-0.179	-0.191
-651.828	-62.726	-0.101	0.042
-650.814	30.556	-0.111	-0.095
-649.799	301.798	-0.016	-0.029
-648.784	-78.034	-0.118	0.041
-647.770	426.883	-0.133	-0.286
-646.755	800.000	0.062	-0.175
-645.741	-104.529	0.288	-0.067
-644.726	396.177	-0.141	0.294
-643.711	29.584	0.104	0.089
-642.697	22.189	-0.098	-0.080
-641.682	-124.050	-0.129	-0.020
-640.668	-200.000	-0.009	-0.203
-639.653	28.730	0.159	0.135
-638.638	517.842	0.172	-0.402
-637.624	-46.107	0.133	-0.066
-636.609	-65.658	0.097	0.039
-635.595	-200.000	-0.034	-0.235
-634.580	-27.493	-0.290	-0.169
-633.565	-200.000	0.009	-0.058
-632.551	114.962	0.214	0.261
-631.536	7.063	-0.259	-0.193
-630.522	800.000	-0.041	0.173
-629.507	-200.000	-0.016	0.164
-628.492	303.980	0.164	-0.305
-627.478	334.882	-0.155	-0.301
-626.463	-168.039	-0.196	-0.008
-625.449	-149.448	-0.261	0.021
-624.434	248.124	0.174	-0.294
-623.419	-53.745	-0.289	0.132
-622.405	-153.427	-0.183	-0.013
-621.390	15.587	-0.154	0.121
-620.376	-98.481	0.307	0.079
-619.361	-91.881	0.240	0.068
-618.346	558.705	0.053	-0.127
-617.332	-111.981	-0.159	-0.032
-616.317	800.000	-0.121	-0.380
-615.303	-156.245	0.138	-0.009
-614.288	42.863	-0.134	0.122
-613.273	90.545	-0.095	-0.106
-612.259	293.659	-0.056	0.102
-611.244	-200.000	-0.046	-0.213
-610.230	501.943	0.049	0.114
-609.215	95.129	-0.114	-0.130
-608.201	269.772	0.054	-0.094
-607.186	-59.838	-0.294	-0.126
-606.171	49.034	0.037	0.034
-605.157	591.162	0.020	-0.049
-604.142	800.000	0.058	0.207
-603.128	-90.690	-0.191	0.055
-602.113	-75.281	0.120	-0.043
-601.098	-200.000	0.015	0.215
-600.084	-113.379	0.059	0.012
-599.069	-187.478	0.295	-0.004
-598.055	282.125	-0.070	0.126
-597.040	138.070	0.138	-0.181
-596.025	-200.000	-0.197	-0.000
-595.011	-87.149	-0.120	0.037
-593.996	-95.710	-0.106	-0.028
-592.982	-104.770	0.413	0.095
-591.967	-96.824	-0.180	-0.047
-590.952	98.069	-0.063	0.072
-589.938	55.645	0.260	-0.252
-588.923	-145.030	0.028	0.003
-587.909	800.000	0.064	0.197
-586.894	25.751	0.212	-0.177
-585.879	-135.817	-0.207	-0.024
-584.865	-114.217	0.268	-0.052
-583.850	220.521	0.108	0.173
-582.836	-187.904	-0.281	-0.004
-581.821	64.543	0.186	-0.187
-580.806	-200.000	-0.055	-0.295
-579.792	-152.068	0.343	-0.025
-578.777	-134.080	-0.033	-0.004
-577.763	611.092	-0.027	-0.068
-576.748	-58.677	-0.190	-0.082
-575.733	-200.000	-0.067	-0.370
-574.719	-55.222	0.203	0.091
-573.704	-13.387	-0.098	-0.064
-572.690	176.003	0.101	-0.146
-571.675	-200.000	-0.014	-0.090
-570.661	143.556	-0.144	0.191
-569.646	439.741	0.043	-0.093
-568.631	-153.755	-0.174	0.012
-567.617	-8.344	-0.073	-0.049
-566.602	800.000	0.055	-0.226
-565.588	800.000	-0.103	-0.341
-564.573	687.171	-0.069	0.181
-563.558	-9.325	-0.071	-0.047
-562.544	-145.898	0.101	-0.009
-561.529	404.699	0.016	-0.033
-560.515	-28.800	0.238	-0.136
-559.500	50.462	0.026	-0.024
-558.485	-200.000	0.058	0.368
-557.471	-200.000	0.016	0.125
-556.456	215.889	0.114	0.180
-555.442	800.000	0.063	-0.174
-554.427	126.551	0.327	0.412
-553.412	-200.000	0.014	0.074
-552.398	83.151	0.169	0.184
-551.383	-48.929	-0.075	-0.036
-550.369	-200.000	0.016	-0.267
-549.354	684.889	0.110	0.287
-548.339	-200.000	-0.005	0.070
-547.325	117.473	0.071	0.087
-546.310	1.315	0.236	-0.169
-545.296	500.114	0.133	0.306
-544.281	77.943	-0.015	0.016
-543.266	-200.000	-0.047	0.347
-542.252	-79.629	0.163	-0.055
-541.237	800.000	0.016	-0.047
-540.223	319.901	-0.115	0.218
-539.208	286.039	-0.091	-0.163
-538.193	-30.518	-0.108	0.061
-537.179	-200.000	0.040	-0.277
-536.164	20.925	-0.069	0.055
-535.150	-112.974	-0.322	0.063
-534.135	800.000	0.034	-0.114
-533.121	143.851	0.039	0.052
-532.106	-200.000	0.015	-0.213
-531.091	-200.000	0.008	-0.391
-530.077	-200.000	-0.026	-0.234
-529.062	-178.052	0.029	-0.001
-528.048	247.174	0.140	0.235
-527.033	80.514	0.135	0.145
-526.018	800.000	-0.069	0.243
-525.004	596.903	-0.036	-0.089
-523.989	-39.926	-0.207	0.107
-522.975	-9.484	-0.133	-0.089
-521.960	800.000	0.022	-0.062
-520.945	4.175	-0.054	0.040
-519.931	-63.918	0.242	-0.099
-518.916	56.442	-0.202	-0.196
-517.902	800.000	-0.063	-0.176
-516.887	800.000	-0.044	-0.168
-515.872	571.538	0.044	-0.106
-514.858	46.030	-0.181	0.167
-513.843	132.323	-0.082	-0.106
-512.829	-67.463	-0.149	0.058
-511.814	-200.000	0.002	0.213
-510.799	-200.000	-0.001	-0.077
-509.785	-108.391	0.115	-0.025
-508.770	800.000	0.026	-0.113
-507.756	299.147	0.174	-0.320
-506.741	-57.791	-0.155	-0.067
-505.726	-44.883	-0.195	-0.097
-504.712	294.830	-0.141	-0.257
-503.697	318.273	0.219	0.414
-502.683	-88.985	0.244	0.072
-501.668	800.000	0.059	-0.239
-500.653	223.239	-0.107	0.171
-499.639	-4.878	0.146	-0.100
-498.624	-18.962	-0.241	-0.150
-497.610	-75.111	-0.164	0.059
-496.595	-200.000	-0.141	0.000
-495.581	8.002	0.077	-0.057
-494.566	190.767	0.149	0.224
-493.551	-16.933	-0.090	0.056
-492.537	-142.534	0.414	0.040
-491.522	-200.000	0.007	-0.070
-490.508	-200.000	0.010	0.066
-489.493	-181.608	0.496	0.010
-488.478	-200.000	-0.024	0.148
-487.464	-126.424	0.173	-0.026
-486.449	-1.431	-0.245	0.172
-485.435	-53.056	0.097	0.044
-484.420	-38.979	-0.222	-0.116
-483.405	-200.000	-0.012	-0.148
-482.391	-95.733	0.143	0.038
-481.376	800.000	0.050	0.149
-480.362	15.998	0.073	0.057
-479.347	-200.000	-0.002	-0.032
-478.332	377.351	0.104	0.211
-477.318	-0.262	0.259	-0.183
-476.303	-78.478	0.243	-0.083
-475.289	-39.459	0.249	0.130
-474.274	800.000	-0.116	0.323
-473.259	-18.962	0.039	-0.024
-472.245	800.000	0.046	-0.184
-471.230	68.912	0.131	0.133
-470.216	-28.836	-0.340	-0.194
-469.201	6.379	0.111	0.082
-468.186	-200.000	0.004	0.392
-467.172	-156.483	0.267	0.017
-466.157	313.603	0.070	-0.130
-465.143	800.000	0.042	0.160
-464.128	-200.000	-0.014	-0.256
-463.113	800.000	-0.028	0.117
-462.099	-200.000	0.021	-0.144
-461.084	-143.449	0.276	0.026
-460.070	161.737	-0.144	-0.201
-459.055	206.438	0.195	0.302
-458.040	-100.159	-0.274	0.068
-457.026	-200.000	0.026	0.162
-456.011	303.189	-0.074	0.137
-454.997	-57.641	-0.134	-0.059
-453.982	23.756	0.178	0.146
-452.968	-73.762	0.417	0.151
-451.953	50.406	-0.183	-0.172
-450.938	-200.000	-0.040	-0.336
-449.924	-200.000	0.040	0.224
-448.909	-147.893	-0.119	0.010
-447.895	450.836	-0.047	-0.104
-446.880	-71.661	-0.252	0.094
-445.865	-42.233	-0.334	-0.169
-444.851	142.774	0.124	-0.163
-443.836	79.235	-0.022	0.024
-442.822	-177.332	0.070	-0.002
-441.807	69.734	0.052	-0.053
-440.792	-200.000	0.040	0.174
-439.778	-88.695	0.218	0.064
-438.763	-200.000	-0.017	0.236
-437.749	84.730	-0.279	-0.303
-436.734	-200.000	-0.012	0.312
-435.719	-113.061	0.164	0.032
-434.705	-26.434	0.277	0.162
-433.690	800.000	0.064	-0.248
-432.676	360.781	-0.128	0.255
-431.661	-11.404	-0.323	0.211
-430.646	571.241	0.133	0.321
-429.632	800.000	0.042	0.125
-428.617	-186.050	0.229	-0.003
-427.603	-28.288	0.073	-0.042
-426.588	121.544	0.028	-0.035
-425.573	39.671	0.034	0.030
-424.559	77.949	0.163	-0.172
-423.544	-200.000	-0.058	-0.303
-422.530	-19.046	0.196	-0.121
-421.515	272.622	0.079	0.139
-420.500	-31.584	0.117	-0.065
-419.486	-125.783	-0.320	0.048
-418.471	-200.000	-0.026	-0.189
-417.457	300.397	0.105	0.193
-416.442	-101.902	0.152	0.036
-415.428	-151.351	0.262	-0.019
-414.413	13.264	-0.059	-0.045
-413.398	-200.000	-0.006	-0.300
-412.384	384.627	-0.145	0.296
-411.369	800.000	-0.055	-0.169
-410.355	-200.000	-0.009	0.095
-409.340	-109.327	0.356	0.075
-408.325	267.090	-0.106	0.184
-407.311	800.000	0.128	0.462
-406.296	-200.000	-0.017	0.201
-405.282	-200.000	-0.052	0.337
-404.267	-57.576	0.081	0.035
-403.252	685.607	0.048	-0.125
-402.238	-93.079	0.304	-0.084
-401.223	-44.789	0.466	-0.231
-400.209	800.000	-0.020	-0.073
-399.194	135.251	0.089	0.114
-398.179	-80.472	-0.160	-0.053
-397.165	179.544	0.103	0.150
-396.150	-22.092	-0.181	-0.109
-395.136	22.317	0.270	-0.219
-394.121	-101.865	0.104	0.025
-393.106	-88.213	-0.108	-0.032
-392.092	72.998	-0.064	0.066
-391.077	-200.000	0.020	-0.276
-390.063	155.474	0.112	-0.153
-389.048	-109.583	0.034	0.007
-388.033	-200.000	0.010	-0.081
-387.019	-30.091	0.151	-0.085
-386.004	800.000	0.042	0.120
-384.990	-104.678	-0.092	-0.021
-383.975	800.000	-0.112	-0.310
-382.960	-200.000	0.031	-0.202
-381.946	-39.047	0.136	0.071
-380.931	63.011	0.033	-0.032
-379.917	-19.365	-0.160	-0.098
-378.902	-139.778	-0.321	-0.034
-377.888	-200.000	-0.009	-0.060
-376.873	479.003	-0.023	0.052
-375.858	800.000	0.048	0.184
-374.844	536.126	-0.165	-0.388
-373.829	236.331	-0.002	-0.004
-372.815	187.397	0.101	0.149
-371.800	-200.000	-0.008	-0.317
-370.785	-63.593	-0.144	0.059
-369.771	800.000	-0.034	0.131
-368.756	-103.717	-0.187	-0.043
-367.742	-83.663	0.122	-0.039
-366.727	800.000	0.066	-0.200
-365.712	-103.545	-0.500	-0.116
-364.698	-176.237	0.147	-0.004
-363.683	-39.497	0.226	0.117
-362.669	38.345	-0.215	0.190
-361.654	-4.520	-0.069	-0.047
-360.639	31.774	0.393	0.335
-359.625	-200.000	0.061	0.426
-358.610	-55.874	0.156	-0.069
-357.596	126.605	-0.278	0.349
-356.581	-200.000	-0.040	-0.232
-355.566	67.892	-0.248	-0.251
-354.552	-25.745	0.218	0.127
-353.537	1.934	-0.096	-0.069
-352.523	-200.000	-0.004	-0.111
-351.508	-96.364	-0.294	-0.077
-350.493	517.202	-0.049	0.114
-349.479	-200.000	-0.068	-0.304
-348.464	-40.066	-0.297	0.153
-347.450	800.000	-0.024	0.095
-346.435	59.870	0.149	0.145
-345.420	187.838	-0.133	-0.197
-344.406	108.664	-0.093	-0.110
-343.391	-119.379	0.283	0.049
-342.377	-74.786	0.243	0.086
-341.362	-200.000	0.023	-0.138
-340.348	-200.000	0.021	-0.183
-339.333	800.000	0.093	-0.262
-338.318	-200.000	-0.024	0.147
-337.304	59.533	-0.130	0.127
-336.289	147.978	-0.070	0.093
-335.275	638.584	-0.134	-0.336
-334.260	-200.000	-0.029	-0.142
-333.245	-102.673	-0.169	0.040
-332.231	800.000	0.047	0.149
-331.216	800.000	-0.035	0.121
-330.202	483.527	0.016	0.036
-329.187	-200.000	0.041	0.223
-328.172	221.139	-0.078	0.124
-327.158	113.216	0.021	0.025
-326.143	201.296	0.196	0.298
-325.129	15.251	-0.123	0.095
-324.114	735.325	0.025	-0.067
-323.099	59.490	0.135	0.132
-322.085	200.308	0.178	0.270
-321.070	800.000	-0.022	0.088
-320.056	28.243	0.142	0.118
-319.041	800.000	0.024	0.070
-318.026	-119.837	0.195	-0.033
-317.012	-200.000	0.038	-0.310
-315.997	10.225	-0.060	0.045
-314.983	3.753	-0.089	0.064
-313.968	379.702	-0.075	-0.152
-312.953	121.104	0.123	-0.151
-311.939	-144.016	-0.070	-0.006
-310.924	-200.000	-0.032	-0.197
-309.910	55.634	0.166	0.159
-308.895	-130.274	0.241	0.032
-307.880	-200.000	-0.029	-0.169
-306.866	378.005	0.081	-0.163
-305.851	-200.000	-0.055	-0.324
-304.837	-180.116	0.245	-0.005
-303.822	-200.000	0.407	0.001
-302.807	-200.000	-0.216	0.000
-301.793	-123.140	0.117	0.019
-300.778	-169.898	-0.656	0.023
-299.764	-40.280	-0.108	0.056
-298.749	28.738	0.327	0.274
-297.735	-90.799	-0.203	0.058
-296.720	800.000	-0.071	0.246
-295.705	99.588	0.443	-0.506
-294.691	-145.066	-0.158	-0.014
-293.676	126.608	-0.054	0.067
-292.662	-165.362	0.056	0.002
-291.647	-93.199	-0.144	-0.040
-290.632	-55.670	0.134	0.059
-289.618	800.000	-0.111	0.354
-288.603	-200.000	-0.026	0.451
-287.589	-133.679	-0.395	0.049
-286.574	-39.927	-0.224	-0.116
-285.559	-44.907	0.179	0.088
-284.545	242.216	-0.171	-0.282
-283.530	-47.465	0.283	-0.136
-282.516	-176.281	-0.199	-0.005
-281.501	-115.170	-0.305	0.057
-280.486	-2.193	0.264	-0.183
-279.472	66.697	-0.212	0.213
-278.457	-48.894	0.115	-0.054
-277.443	-102.336	0.092	0.022
-276.428	-42.945	-0.248	0.124
-275.413	-200.000	0.010	0.353
-274.399	-50.222	0.154	0.072
-273.384	800.000	0.037	-0.147
-272.370	-108.603	-0.254	-0.054
-271.355	-10.618	-0.285	-0.186
-270.340	800.000	0.132	0.398
-269.326	800.000	-0.149	0.554
-268.311	800.000	-0.085	-0.243
-267.297	1.124	0.140	-0.099
-266.282	192.505	-0.051	0.076
-265.267	-167.650	0.218	-0.009
-264.253	800.000	0.027	-0.074
-263.238	-146.662	-0.303	-0.026
-262.224	78.612	0.046	-0.048
-261.209	-75.475	0.295	-0.104
-260.195	-200.000	-0.001	-0.244
-259.180	122.716	0.226	-0.278
-258.165	-200.000	-0.012	-0.135
-257.151	15.517	0.303	0.235
-256.136	128.157	-0.035	-0.043
-255.122	80.525	-0.138	0.147
-254.107	-124.483	0.092	-0.014
-253.092	800.000	-0.032	0.129
-252.078	800.000	-0.128	0.349
-251.063	40.036	-0.173	0.153
-250.049	133.476	0.027	0.034
-249.034	600.659	-0.121	-0.296
-248.019	-7.563	-0.323	0.215
-247.005	-126.011	-0.328	0.049
-245.990	201.069	-0.284	-0.431
-244.976	-24.959	0.294	-0.172
-243.961	800.000	0.043	0.135
-242.946	-200.000	-0.017	0.076
-241.932	27.455	0.128	-0.106
-240.917	800.000	-0.085	0.245
-239.903	800.000	0.010	-0.038
-238.888	55.929	-0.197	-0.188
-237.873	-200.000	-0.023	0.197
-236.859	-200.000	0.014	0.246
-235.844	-100.517	0.144	-0.035
-234.830	-48.771	-0.068	0.032
-233.815	-95.428	-0.303	0.080
-232.800	65.390	-0.168	-0.168
-231.786	-54.155	-0.229	0.102
-230.771	-33.608	0.229	-0.124
-229.757	-10.263	0.227	0.148
-228.742	-12.562	-0.052	-0.033
-227.727	-200.000	-0.084	0.364
-226.713	800.000	-0.036	0.115
-225.698	-200.000	0.000	0.059
-224.684	-200.000	0.058	0.339
-223.669	-200.000	0.019	0.188
-222.655	800.000	-0.040	-0.165
-221.640	-200.000	0.035	-0.438
-220.625	-90.621	-0.308	-0.088
-219.611	-37.069	0.183	0.096
-218.596	216.426	-0.125	0.195
-217.582	-17.734	-0.369	-0.228
-216.567	-104.898	0.264	0.060
-215.552	582.764	-0.064	-0.155
-214.538	-64.424	-0.315	-0.126
-213.523	-62.721	-0.143	-0.058
-212.509	86.383	-0.031	0.034
-211.494	800.000	-0.056	-0.157
-210.479	55.092	0.224	0.213
-209.465	-15.049	0.226	0.143
-208.450	800.000	0.042	0.145
-207.436	-73.847	-0.117	-0.042
-206.421	-115.551	-0.188	0.035
-205.406	-124.536	0.057	-0.009
-204.392	2.804	-0.123	-0.088
-203.377	11.664	-0.102	-0.077
-202.363	-102.699	0.321	-0.075
-201.348	57.357	0.159	-0.152
-200.333	-200.000	-0.001	-0.283
-199.319	49.420	-0.193	0.179
-198.304	-128.013	0.310	0.044
-197.290	-200.000	-0.010	0.123
-196.275	-133.505	-0.239	0.029
-195.260	132.458	-0.157	-0.199
-194.246	-29.033	0.287	0.162
-193.231	-14.012	0.146	0.093
-192.217	-200.000	0.026	-0.232
-191.202	800.000	-0.038	0.112
-190.187	64.314	-0.105	-0.104
-189.173	406.096	-0.089	-0.185
-188.158	-33.403	0.042	-0.023
-187.144	-16.011	0.180	0.113
-186.129	800.000	-0.063	0.212
-185.114	-134.116	-0.235	0.029
-184.100	9.956	-0.403	-0.301
-183.085	103.389	-0.157	0.181
-182.071	-200.000	0.048	0.387
-181.056	511.056	-0.131	0.300
-180.042	-35.844	0.123	0.065
-179.027	-200.000	-0.024	0.157
-178.012	-21.808	0.251	0.150
-176.998	116.057	0.111	-0.134
-175.983	-200.000	-0.008	0.104
-174.969	-200.000	0.013	-0.293
-173.954	-160.723	-0.062	-0.003
-172.939	751.433	0.040	0.105
-171.925	286.846	-0.067	0.119
-170.910	-139.692	0.077	-0.008
-169.896	-200.000	0.014	-0.347
-168.881	-200.000	-0.002	0.072
-167.866	-200.000	0.051	0.323
-166.852	0.642	0.115	-0.081
-165.837	-31.352	0.323	0.178
-164.823	-151.841	-0.189	-0.014
-163.808	426.570	0.139	-0.295
-162.793	139.220	0.065	-0.085
-161.779	-118.062	-0.147	0.026
-160.764	97.267	-0.052	-0.058
-159.750	-200.000	0.048	0.313
-158.735	-167.099	-0.343	0.014
-157.720	34.431	0.182	0.156
-156.706	-142.422	-0.351	-0.034
-155.691	-113.120	-0.452	-0.088
-154.677	164.804	-0.263	-0.365
-153.662	80.467	0.016	-0.017
-152.647	-200.000	0.003	-0.191
-151.633	-200.000	-0.003	0.076
-150.618	331.264	-0.023	0.044
-149.604	189.807	-0.127	-0.187
-148.589	-128.183	0.282	-0.040
-147.574	334.555	0.068	0.130
-146.560	495.810	0.113	0.256
-145.545	48.789	0.198	-0.183
-144.531	-86.131	-0.620	0.188
-143.516	411.055	-0.124	0.259
-142.502	45.088	0.035	-0.031
-141.487	69.854	-0.148	-0.150
-140.472	390.533	0.066	-0.133
-139.458	-167.123	-0.191	0.008
-138.443	449.176	-0.051	0.110
-137.429	237.920	0.091	0.148
-136.414	-50.222	0.157	0.073
-135.399	800.000	0.110	0.321
-134.385	-200.000	0.295	0.000
-133.370	-105.095	0.250	-0.056
-132.356	-176.295	-0.269	0.007
-131.341	-18.840	0.153	-0.094
-130.326	-135.291	-0.383	0.045
-129.312	124.446	0.050	-0.061
-128.297	-59.586	-0.205	-0.086
-127.283	695.138	0.039	-0.100
-126.268	643.277	-0.070	0.176
-125.253	506.580	-0.066	-0.151
-124.239	-200.000	-0.051	-0.234
-123.224	-44.465	-0.159	0.078
-122.210	385.882	0.185	0.375
