DTS Sentinel unit serial number:	SN413079Multiplexer serial number:	ORYXHardware model number:	OX4-SRSoftware version number:	ORYX F/W v4.00 Oryx Data Collector v3.7.2.0data status	okinstallation	princeton_trtdifferential loss correction	single-endedforward channel	channel 3reverse channel	N/Adate	2019/09/19time	05:28:34forward acquisition time	60.00reverse acquisition time	0.00gamma	496.2192k internal	0.2348k external	0.2348temperature offset calibration	0.9995default loss term (dB/km)	0.3790temperature slope calibration	1.0000multiplexer offset coefficient	1.0000multiplexer slope coefficient	1.0000fibre end	0.00T internal ref (°C)	19.37T ext. ref 1 (°C)	0.59T ext. ref 2 (°C)	13.01length (m)	temperature (°C)	Stokes	anti-Stokes-747.200	67.490	0.077	0.078
-746.185	-29.542	0.173	0.099
-745.171	725.776	0.120	0.320
-744.156	255.115	0.049	0.083
-743.142	-105.705	-0.146	-0.033
-742.127	180.748	-0.343	0.504
-741.112	179.236	-0.149	-0.218
-740.098	-92.606	-0.462	-0.129
-739.083	-148.445	0.296	-0.024
-738.069	-49.534	-0.038	-0.018
-737.054	377.184	-0.139	-0.284
-736.039	145.018	-0.197	-0.263
-735.025	-199.580	-0.180	-0.001
-734.010	-51.706	0.244	-0.114
-732.996	-155.514	-0.203	-0.013
-731.981	-73.457	0.103	0.037
-730.966	82.670	-0.246	-0.267
-729.952	-20.752	-0.434	-0.266
-728.937	167.266	0.234	0.331
-727.923	331.197	0.102	0.196
-726.908	-200.000	-0.004	0.389
-725.894	-200.000	0.017	0.075
-724.879	-200.000	-0.045	-0.228
-723.864	600.460	-0.108	-0.267
-722.850	-18.632	0.134	-0.084
-721.835	765.681	-0.154	-0.417
-720.821	60.637	0.191	-0.189
-719.806	-70.843	0.187	0.071
-718.791	800.000	-0.107	-0.391
-717.777	800.000	0.130	-0.411
-716.762	642.271	-0.053	0.134
-715.748	239.801	0.223	0.371
-714.733	42.980	0.209	-0.191
-713.718	-200.000	-0.065	0.293
-712.704	-129.011	0.144	-0.020
-711.689	40.679	-0.056	-0.050
-710.675	24.873	-0.263	-0.217
-709.660	-54.841	-0.227	-0.102
-708.645	96.480	-0.125	-0.143
-707.631	-33.909	0.214	0.118
-706.616	132.164	-0.032	0.041
-705.602	800.000	-0.076	-0.326
-704.587	-161.690	0.124	0.006
-703.572	-45.168	-0.128	0.064
-702.558	-200.000	0.038	0.201
-701.543	-10.503	-0.160	-0.106
-700.529	754.042	-0.046	-0.123
-699.514	-80.072	-0.179	-0.060
-698.499	-41.692	-0.299	-0.153
-697.485	8.074	0.266	0.199
-696.470	-175.342	0.411	0.011
-695.456	141.287	-0.065	0.085
-694.441	-10.229	-0.350	-0.232
-693.426	270.800	-0.298	-0.522
-692.412	-6.943	0.291	-0.197
-691.397	12.214	0.140	0.107
-690.383	73.420	-0.370	-0.386
-689.368	667.569	0.042	0.109
-688.354	8.782	-0.187	0.140
-687.339	151.002	0.164	0.222
-686.324	-89.221	-0.530	0.156
-685.310	-81.907	0.226	0.074
-684.295	-16.591	-0.289	-0.182
-683.281	-200.000	-0.025	-0.549
-682.266	-88.055	-0.333	0.100
-681.251	170.903	-0.054	0.077
-680.237	-13.107	-0.532	-0.345
-679.222	-200.000	-0.035	0.185
-678.208	29.223	0.151	0.128
-677.193	-200.000	0.002	0.027
-676.178	-96.413	-0.345	0.091
-675.164	-133.451	0.152	-0.019
-674.149	-138.116	-0.173	-0.019
-673.135	376.986	0.184	0.375
-672.120	-94.781	-0.123	0.033
-671.105	-167.544	0.326	-0.013
-670.091	-67.623	0.124	-0.049
-669.076	202.471	0.129	-0.198
-668.062	-200.000	-0.046	-0.204
-667.047	158.877	0.039	0.055
-666.032	-200.000	0.052	0.310
-665.018	11.204	-0.198	-0.151
-664.003	203.788	-0.101	-0.155
-662.989	53.788	-0.116	-0.111
-661.974	-81.721	-0.235	-0.077
-660.959	-57.845	0.130	0.057
-659.945	-38.291	-0.110	0.058
-658.930	-200.000	0.029	0.184
-657.916	255.524	0.180	0.307
-656.901	271.099	0.072	-0.127
-655.886	800.000	-0.086	0.276
-654.872	3.362	0.015	-0.011
-653.857	-105.439	-0.370	-0.084
-652.843	30.757	0.091	-0.078
-651.828	-200.000	0.031	0.309
-650.814	-200.000	-0.008	0.084
-649.799	800.000	0.044	0.149
-648.784	-113.558	0.256	-0.050
-647.770	-123.175	-0.223	0.036
-646.755	800.000	-0.069	-0.249
-645.741	36.084	0.173	-0.151
-644.726	-200.000	0.009	0.056
-643.711	-57.136	-0.133	0.058
-642.697	226.185	0.080	0.129
-641.682	-121.143	-0.115	-0.019
-640.668	-172.877	0.180	0.006
-639.653	800.000	-0.026	-0.105
-638.638	701.603	0.166	-0.436
-637.624	287.923	-0.109	-0.196
-636.609	0.548	-0.086	0.061
-635.595	333.381	0.042	-0.080
-634.580	-200.000	0.002	0.107
-633.565	40.092	-0.067	0.060
-632.551	2.733	-0.081	-0.058
-631.536	3.976	0.225	0.164
-630.522	-200.000	-0.040	-0.199
-629.507	-200.000	-0.042	0.303
-628.492	800.000	0.093	-0.299
-627.478	-49.776	-0.106	0.050
-626.463	65.995	0.184	-0.186
-625.449	-200.000	-0.010	-0.065
-624.434	178.502	0.160	-0.232
-623.419	-124.001	0.161	-0.025
-622.405	-149.805	0.060	-0.005
-621.390	800.000	0.036	-0.148
-620.376	585.091	0.047	-0.115
-619.361	-200.000	0.046	0.313
-618.346	800.000	0.101	-0.361
-617.332	-16.169	-0.154	0.097
-616.317	252.448	0.070	-0.119
-615.303	-177.755	-0.147	0.004
-614.288	-173.060	0.187	0.006
-613.273	-200.000	0.006	0.177
-612.259	-112.325	0.070	-0.014
-611.244	187.553	-0.134	0.198
-610.230	124.972	-0.088	0.110
-609.215	-15.080	-0.134	-0.085
-608.201	-30.892	0.072	0.040
-607.186	-200.000	-0.021	-0.164
-606.171	53.136	0.172	-0.163
-605.157	451.808	0.111	0.243
-604.142	57.991	0.049	0.048
-603.128	-40.289	-0.145	-0.075
-602.113	-11.998	0.014	0.009
-601.098	-89.186	0.239	-0.070
-600.084	49.060	-0.188	-0.176
-599.069	-8.045	-0.223	-0.149
-598.055	7.075	0.244	0.181
-597.040	63.690	-0.052	0.051
-596.025	255.029	0.152	-0.259
-595.011	12.052	-0.208	-0.159
-593.996	-200.000	-0.041	-0.225
-592.982	-200.000	-0.057	-0.347
-591.967	37.835	-0.354	0.313
-590.952	398.120	0.048	0.099
-589.938	38.748	0.003	-0.002
-588.923	256.486	0.029	-0.050
-587.909	-159.942	-0.026	0.001
-586.894	-130.787	0.238	-0.032
-585.879	26.895	0.272	-0.226
-584.865	-100.628	0.345	-0.085
-583.850	-77.124	-0.160	0.055
-582.836	-72.305	0.143	-0.053
-581.821	-200.000	0.033	0.317
-580.806	-108.478	0.223	-0.048
-579.792	-1.418	-0.300	0.210
-578.777	-38.700	-0.407	-0.213
-577.763	-125.890	0.445	-0.067
-576.748	107.402	0.229	-0.270
-575.733	-77.467	-0.264	0.091
-574.719	-137.910	0.229	-0.025
-573.704	-113.607	0.113	-0.022
-572.690	-189.243	0.275	0.003
-571.675	118.805	-0.056	-0.068
-570.661	271.658	0.194	-0.340
-569.646	-171.635	-0.247	0.008
-568.631	-200.000	0.023	-0.127
-567.617	-99.806	0.340	0.084
-566.602	424.767	-0.078	-0.166
-565.588	100.124	-0.230	-0.264
-564.573	-200.000	-0.017	0.195
-563.558	237.825	0.161	-0.264
-562.544	-200.000	-0.059	-0.303
-561.529	800.000	0.102	0.307
-560.515	551.815	0.013	0.031
-559.500	2.261	0.122	-0.087
-558.485	-200.000	0.051	0.377
-557.471	-200.000	-0.002	-0.109
-556.456	-200.000	0.123	-0.631
-555.442	-105.288	-0.411	-0.093
-554.427	-162.862	-0.345	-0.017
-553.412	800.000	0.064	0.213
-552.398	-90.792	-0.134	0.038
-551.383	800.000	0.122	0.469
-550.369	-200.000	0.027	0.349
-549.354	96.330	0.169	0.192
-548.339	-157.246	-0.385	0.023
-547.325	-140.134	-0.377	0.039
-546.310	-75.317	-0.134	-0.047
-545.296	-200.000	0.117	0.000
-544.281	-103.800	-0.298	-0.069
-543.266	800.000	0.049	0.197
-542.252	-91.699	-0.139	0.039
-541.237	-45.931	-0.240	-0.117
-540.223	172.108	-0.245	-0.349
-539.208	-53.951	-0.221	-0.100
-538.193	-26.662	0.173	0.100
-537.179	389.088	0.055	-0.112
-536.164	-200.000	-0.031	0.308
-535.150	83.147	-0.165	0.177
-534.135	-55.426	0.140	0.062
-533.121	-79.209	-0.341	-0.115
-532.106	65.885	0.109	0.110
-531.091	506.361	-0.115	-0.263
-530.077	437.707	-0.158	-0.341
-529.062	-109.668	-0.289	-0.060
-528.048	106.616	-0.255	0.300
-527.033	-200.000	0.026	0.239
-526.018	-19.100	-0.174	0.107
-525.004	-200.000	-0.013	-0.056
-523.989	51.166	0.097	0.092
-522.975	23.788	-0.349	-0.285
-521.960	55.927	-0.022	0.021
-520.945	-105.575	0.291	-0.065
-519.931	800.000	-0.056	-0.197
-518.916	-45.424	0.284	0.139
-517.902	800.000	0.035	-0.147
-516.887	182.184	0.139	0.203
-515.872	322.720	0.163	-0.307
-514.858	233.617	-0.175	-0.286
-513.843	800.000	-0.049	-0.134
-512.829	-48.794	-0.144	0.068
-511.814	-81.955	0.262	0.085
-510.799	-89.742	-0.275	-0.080
-509.785	-154.550	0.363	0.024
-508.770	756.976	0.019	-0.050
-507.756	-80.942	-0.173	0.057
-506.741	-57.844	0.095	0.041
-505.726	-4.059	-0.206	-0.141
-504.712	-194.832	-0.125	-0.001
-503.697	-20.311	0.173	-0.105
-502.683	-72.120	0.053	-0.020
-501.668	51.704	0.151	0.142
-500.653	-97.346	0.264	0.068
-499.639	446.882	0.031	0.068
-498.624	-200.000	0.031	-0.237
-497.610	89.398	-0.200	0.221
-496.595	-200.000	-0.010	-0.093
-495.581	195.454	0.175	0.263
-494.566	308.698	-0.184	-0.340
-493.551	-200.000	-0.059	0.345
-492.537	-60.126	-0.031	0.013
-491.522	-115.979	-0.195	-0.036
-490.508	-113.075	0.414	0.081
-489.493	-57.309	-0.261	-0.114
-488.478	85.893	0.210	0.229
-487.464	-88.869	-0.164	-0.048
-486.449	782.491	0.055	0.148
-485.435	-200.000	0.019	0.189
-484.420	-80.234	0.228	-0.076
-483.405	-125.792	0.127	-0.019
-482.391	-200.000	-0.003	-0.031
-481.376	6.866	-0.098	-0.072
-480.362	125.115	-0.154	-0.191
-479.347	-140.366	-0.106	0.011
-478.332	-30.473	0.326	-0.183
-477.318	-200.000	0.029	0.145
-476.303	-131.889	-0.203	-0.026
-475.289	-200.000	0.001	0.228
-474.274	-103.579	0.211	-0.049
-473.259	-200.000	0.033	-0.253
-472.245	-124.497	-0.158	0.024
-471.230	-199.992	0.235	0.001
-470.216	190.674	0.197	-0.292
-469.201	-65.333	-0.276	0.110
-468.186	95.019	0.096	-0.108
-467.172	-97.596	0.182	-0.047
-466.157	-95.809	0.084	-0.022
-465.143	161.072	0.331	-0.457
-464.128	-38.643	-0.100	-0.052
-463.113	-56.894	0.372	0.162
-462.099	229.416	-0.060	-0.096
-461.084	-151.706	-0.149	-0.011
-460.070	63.435	-0.282	0.280
-459.055	-113.389	0.099	0.019
-458.040	-200.000	-0.231	-0.001
-457.026	173.609	-0.058	-0.083
-456.011	92.650	0.132	-0.147
-454.997	-72.174	-0.067	0.024
-453.982	-200.000	-0.096	-0.419
-452.968	127.468	0.368	0.461
-451.953	-85.841	0.253	0.077
-450.938	-181.360	-0.288	0.006
-449.924	-200.000	-0.005	-0.032
-448.909	-97.579	-0.302	0.078
-447.895	-149.796	-0.196	0.015
-446.880	-164.898	0.234	0.010
-445.865	-137.468	-0.225	0.025
-444.851	800.000	-0.030	0.103
-443.836	-200.000	0.020	0.347
-442.822	-200.000	0.064	0.382
-441.807	310.270	0.067	0.124
-440.792	-134.319	0.231	0.028
-439.778	-121.672	0.297	-0.049
-438.763	313.408	-0.127	0.236
-437.749	439.999	-0.135	0.291
-436.734	800.000	-0.043	-0.163
-435.719	50.800	-0.177	-0.166
-434.705	-120.467	-0.095	0.016
-433.690	4.485	0.336	0.243
-432.676	-200.000	0.020	-0.159
-431.661	-200.000	0.040	-0.404
-430.646	-171.487	0.146	-0.005
-429.632	83.751	-0.109	0.117
-428.617	258.847	-0.096	0.163
-427.603	93.514	-0.099	-0.110
-426.588	710.593	-0.061	0.158
-425.573	-200.000	0.025	0.129
-424.559	94.578	0.212	0.238
-423.544	18.801	-0.297	-0.235
-422.530	-200.000	-0.041	0.240
-421.515	5.109	-0.059	-0.043
-420.500	-149.300	-0.281	-0.022
-419.486	-97.967	0.223	0.057
-418.471	0.915	-0.269	0.190
-417.457	186.914	-0.079	-0.116
-416.442	377.127	0.079	0.160
-415.428	-135.557	-0.131	0.015
-414.413	52.209	-0.016	-0.015
-413.398	83.101	-0.247	-0.265
-412.384	-55.142	-0.313	0.139
-411.369	-200.000	-0.011	0.150
-410.355	-200.000	-0.044	0.381
-409.340	-53.303	0.294	0.133
-408.325	120.371	0.198	-0.242
-407.311	-196.194	-0.033	0.000
-406.296	-154.372	0.349	0.023
-405.282	800.000	-0.115	0.363
-404.267	-9.286	-0.149	0.098
-403.252	123.030	0.343	-0.424
-402.238	76.244	-0.160	0.167
-401.223	132.467	0.139	0.177
-400.209	392.538	-0.030	-0.062
-399.194	14.655	0.004	-0.003
-398.179	-123.546	0.261	-0.041
-397.165	-200.000	-0.010	-0.139
-396.150	15.508	0.329	-0.255
-395.136	-85.911	-0.477	-0.145
-394.121	-200.000	-0.002	-0.032
-393.106	-44.590	0.212	0.104
-392.092	41.809	0.095	0.085
-391.077	370.227	-0.140	0.279
-390.063	29.439	-0.449	-0.376
-389.048	171.157	0.069	-0.097
-388.033	112.844	0.307	-0.366
-387.019	102.853	0.141	-0.163
-386.004	144.429	0.246	0.324
-384.990	-104.124	0.013	0.003
-383.975	-200.000	0.005	-0.034
-382.960	800.000	0.075	-0.256
-381.946	-169.500	0.154	-0.006
-380.931	418.108	-0.111	-0.233
-379.917	-200.000	0.036	-0.275
-378.902	94.053	-0.079	-0.088
-377.888	259.291	0.117	0.199
-376.873	539.084	-0.145	-0.338
-375.858	-145.172	-0.561	0.050
-374.844	231.753	0.108	0.174
-373.829	-153.403	0.180	-0.012
-372.815	-117.117	0.265	-0.048
-371.800	-181.861	-0.081	-0.002
-370.785	475.513	-0.065	-0.146
-369.771	-200.000	0.007	0.134
-368.756	-167.209	-0.236	0.009
-367.742	-6.092	-0.223	-0.150
-366.727	-151.426	-0.044	-0.003
-365.712	-14.861	-0.180	-0.113
-364.698	-3.580	0.184	-0.126
-363.683	52.845	0.162	-0.152
-362.669	61.517	0.099	0.097
-361.654	445.217	-0.203	0.438
-360.639	103.202	-0.162	-0.187
-359.625	131.620	0.184	-0.232
-358.610	378.082	0.157	-0.316
-357.596	800.000	0.071	-0.232
-356.581	800.000	0.014	-0.043
-355.566	426.175	0.079	-0.168
-354.552	800.000	-0.031	-0.102
-353.537	-36.576	-0.454	-0.240
-352.523	99.439	-0.198	0.225
-351.508	295.938	0.236	-0.426
-350.493	-200.000	-0.028	0.205
-349.479	-21.144	-0.017	0.010
-348.464	-15.966	-0.202	-0.127
-347.450	719.712	0.058	-0.153
-346.435	-113.654	0.142	-0.027
-345.420	551.914	0.089	0.211
-344.406	65.094	0.193	0.192
-343.391	-40.262	0.190	-0.097
-342.377	-200.000	-0.019	-0.174
-341.362	800.000	0.088	-0.331
-340.348	-124.669	0.371	0.057
-339.333	641.421	-0.142	0.355
-338.318	512.707	0.162	0.371
-337.304	-200.000	0.054	-0.344
-336.289	-54.069	0.235	-0.105
-335.275	655.257	-0.062	-0.157
-334.260	-40.908	0.508	0.258
-333.245	800.000	-0.056	-0.218
-332.231	305.127	0.061	-0.112
-331.216	-17.205	0.264	0.164
-330.202	-200.000	-0.047	0.253
-329.187	-200.000	-0.007	0.087
-328.172	-66.695	0.157	0.061
-327.158	800.000	-0.143	-0.456
-326.143	53.333	0.172	-0.162
-325.129	180.111	-0.145	-0.209
-324.114	800.000	0.142	0.446
-323.099	800.000	0.051	0.151
-322.085	-83.360	0.314	-0.099
-321.070	290.226	0.132	-0.236
-320.056	-200.000	0.003	-0.081
-319.041	-200.000	0.005	-0.166
-318.026	490.682	0.071	-0.160
-317.012	244.242	0.157	-0.258
-315.997	-200.000	-0.017	0.291
-314.983	-134.162	-0.143	0.017
-313.968	31.714	0.062	0.053
-312.953	-53.469	-0.201	-0.090
-311.939	85.387	0.181	0.196
-310.924	-10.204	-0.137	-0.089
-309.910	150.270	0.209	0.278
-308.895	-30.376	0.071	0.040
-307.880	-86.041	-0.426	-0.129
-306.866	-200.000	0.006	-0.193
-305.851	649.876	-0.098	0.246
-304.837	-63.281	-0.363	-0.147
-303.822	-109.917	-0.083	0.017
-302.807	800.000	0.031	-0.089
-301.793	-56.313	-0.256	-0.112
-300.778	-200.000	0.400	0.002
-299.764	-7.605	-0.206	-0.137
-298.749	-11.601	-0.149	-0.096
-297.735	-147.771	-0.041	-0.003
-296.720	-161.988	-0.281	0.014
-295.705	-29.230	-0.315	-0.177
-294.691	-200.000	-0.040	-0.376
-293.676	-106.215	-0.148	0.033
-292.662	114.514	-0.108	-0.129
-291.647	800.000	0.068	0.186
-290.632	-6.498	0.170	0.113
-289.618	-72.661	0.126	-0.046
-288.603	76.206	0.127	0.132
-287.589	-200.000	-0.030	-0.168
-286.574	-61.777	0.121	0.050
-285.559	-200.000	-0.017	-0.168
-284.545	487.762	-0.084	0.189
-283.530	286.871	-0.127	0.226
-282.516	-91.238	-0.052	-0.015
-281.501	-105.918	-0.366	-0.081
-280.486	-164.941	-0.107	0.005
-279.472	81.023	-0.300	0.318
-278.457	-200.000	-0.015	0.076
-277.443	574.152	0.223	0.534
-276.428	-200.000	-0.025	0.147
-275.413	185.306	0.212	0.309
-274.399	-200.000	-0.018	-0.105
-273.384	225.748	0.283	-0.451
-272.370	71.001	0.304	0.309
-271.355	-26.795	-0.410	0.235
-270.340	122.447	0.076	0.094
-269.326	157.557	-0.142	0.193
-268.311	-200.000	-0.026	0.383
-267.297	-55.541	0.165	-0.072
-266.282	550.759	-0.142	0.333
-265.267	563.447	-0.014	0.034
-264.253	-171.466	0.508	0.017
-263.238	-200.000	0.005	0.301
-262.224	26.514	-0.152	0.125
-261.209	681.667	0.150	-0.382
-260.195	-67.947	-0.267	0.102
-259.180	756.892	0.103	0.272
-258.165	-86.675	-0.233	0.070
-257.151	800.000	-0.034	0.127
-256.136	80.770	0.143	-0.151
-255.122	-129.976	0.138	-0.018
-254.107	-68.614	-0.180	0.068
-253.092	-33.156	0.326	0.177
-252.078	24.864	0.147	0.120
-251.063	800.000	-0.132	0.403
-250.049	-29.508	-0.204	-0.115
-249.034	-200.000	0.070	-0.373
-248.019	144.349	0.114	0.149
-247.005	-2.149	0.145	0.100
-245.990	-125.070	0.081	0.012
-244.976	43.488	-0.094	0.084
-243.961	-26.427	0.180	0.104
-242.946	491.953	0.077	-0.174
-241.932	-186.546	0.194	-0.003
-240.917	-200.000	-0.019	-0.135
-239.903	-103.292	0.345	-0.080
-238.888	-75.116	-0.251	-0.088
-237.873	-200.000	-0.014	0.141
-236.859	285.481	-0.128	0.227
-235.844	-200.000	0.028	0.260
-234.830	-55.764	0.094	-0.041
-233.815	-22.498	-0.400	-0.237
-232.800	800.000	-0.067	0.264
-231.786	268.513	0.183	0.313
-230.771	142.225	0.016	-0.021
-229.757	-99.508	0.132	0.033
-228.742	-33.161	0.363	0.197
-227.727	203.436	0.038	0.057
-226.713	-63.396	-0.452	-0.182
-225.698	-200.000	0.007	-0.284
-224.684	-200.000	-0.005	0.101
-223.669	-82.038	0.102	0.033
-222.655	-89.059	-0.414	0.120
-221.640	-4.444	-0.107	-0.072
-220.625	393.856	0.126	0.256
-219.611	133.213	0.270	0.342
-218.596	-103.042	0.307	0.071
-217.582	-78.346	0.182	0.061
-216.567	533.575	0.154	0.356
-215.552	161.001	-0.160	0.219
-214.538	284.444	0.164	0.288
-213.523	144.706	0.151	-0.198
-212.509	11.442	0.119	0.089
-211.494	51.668	-0.104	0.097
-210.479	-200.000	0.085	0.390
-209.465	800.000	-0.022	0.094
-208.450	17.296	0.171	0.133
-207.436	-18.702	-0.196	-0.119
-206.421	-47.358	-0.206	-0.098
-205.406	-200.000	0.002	-0.293
-204.392	-113.126	-0.187	0.036
-203.377	219.891	0.143	0.224
-202.363	-91.699	-0.209	0.058
-201.348	58.708	-0.154	0.148
-200.333	-40.485	-0.299	0.152
-199.319	-200.000	0.004	0.048
-198.304	-52.009	-0.441	-0.201
-197.290	-200.000	-0.018	-0.143
-196.275	-76.463	0.426	-0.147
-195.260	-200.000	-0.020	0.174
-194.246	-48.458	-0.173	0.081
-193.231	-45.936	-0.198	0.096
-192.217	-6.759	-0.136	-0.091
-191.202	-107.001	0.216	-0.047
-190.187	314.768	-0.172	-0.317
-189.173	224.329	0.128	-0.202
-188.158	4.717	-0.141	0.101
-187.144	42.834	0.179	-0.160
-186.129	-169.318	0.270	0.010
-185.114	350.660	0.047	0.090
-184.100	533.310	0.065	-0.151
-183.085	203.187	-0.112	-0.170
-182.071	800.000	-0.056	0.162
-181.056	181.597	0.098	0.140
-180.042	416.803	-0.074	-0.154
-179.027	-85.594	0.207	-0.063
-178.012	-76.947	-0.480	-0.164
-176.998	259.993	-0.072	0.122
-175.983	-200.000	0.012	-0.059
-174.969	-143.239	-0.297	-0.028
-173.954	-126.866	-0.240	-0.035
-172.939	-117.651	0.063	-0.011
-171.925	224.113	-0.185	-0.292
-170.910	-37.029	-0.181	0.095
-169.896	800.000	0.030	0.128
-168.881	611.586	0.026	0.065
-167.866	800.000	-0.091	0.285
-166.852	-72.443	0.400	-0.145
-165.837	392.199	-0.023	-0.046
-164.823	-27.351	-0.173	0.099
-163.808	40.236	0.110	0.096
-162.793	-26.570	-0.273	0.156
-161.779	429.565	-0.067	0.142
-160.764	154.627	0.119	-0.159
-159.750	729.445	-0.123	0.322
-158.735	-9.455	-0.108	0.071
-157.720	140.828	0.262	0.337
-156.706	244.914	0.094	0.154
-155.691	-200.000	0.014	-0.377
-154.677	-159.735	-0.239	0.013
-153.662	72.396	-0.128	-0.130
-152.647	419.236	0.077	-0.162
-151.633	-200.000	-0.011	-0.108
-150.618	255.137	-0.196	-0.328
-149.604	-80.491	-0.226	0.073
-148.589	138.543	0.100	-0.128
-147.574	-163.327	0.186	-0.009
-146.560	-166.825	0.137	-0.006
-145.545	-81.272	0.504	0.162
-144.531	-152.371	-0.530	-0.037
-143.516	-200.000	0.009	-0.294
-142.502	800.000	-0.054	0.230
-141.487	-200.000	0.014	0.108
-140.472	-59.342	0.237	-0.100
-139.458	-152.181	-0.276	-0.019
-138.443	375.825	-0.066	0.132
-137.429	-193.741	0.188	-0.002
-136.414	-200.000	-0.018	0.277
-135.399	79.407	0.099	-0.104
-134.385	179.169	-0.129	0.184
-133.370	-162.502	-0.186	0.009
-132.356	800.000	0.044	-0.126
-131.341	-200.000	0.017	0.116
-130.326	178.418	-0.205	0.291
-129.312	-113.065	-0.136	-0.026
-128.297	-3.544	-0.193	-0.131
-127.283	460.993	0.167	-0.363
-126.268	218.468	0.112	-0.174
-125.253	279.632	0.105	0.183
-124.239	-200.000	-0.061	-0.309
-123.224	63.351	0.261	0.255
-122.210	-58.466	-0.073	0.031
