DTS Sentinel unit serial number:	SN413079Multiplexer serial number:	ORYXHardware model number:	OX4-SRSoftware version number:	ORYX F/W v4.00 Oryx Data Collector v3.7.2.0data status	okinstallation	princeton_trtdifferential loss correction	single-endedforward channel	channel 3reverse channel	N/Adate	2019/09/17time	15:12:35forward acquisition time	60.00reverse acquisition time	0.00gamma	496.2192k internal	0.2295k external	0.2295temperature offset calibration	0.9954default loss term (dB/km)	0.3790temperature slope calibration	1.0000multiplexer offset coefficient	1.0000multiplexer slope coefficient	1.0000fibre end	0.00T internal ref (°C)	37.72T ext. ref 1 (°C)	0.39T ext. ref 2 (°C)	34.49length (m)	temperature (°C)	Stokes	anti-Stokes-747.200	-59.854	-0.403	-0.176
-746.185	-98.905	0.112	-0.029
-745.171	244.010	0.184	0.316
-744.156	-51.639	-0.469	0.224
-743.142	415.516	0.061	0.134
-742.127	67.282	0.320	0.334
-741.112	203.319	-0.015	-0.024
-740.098	-200.000	-0.070	0.322
-739.083	-69.330	-0.291	0.114
-738.069	-200.000	0.020	0.371
-737.054	-170.822	-0.116	0.004
-736.039	-95.292	0.270	-0.074
-735.025	-30.702	-0.251	0.145
-734.010	800.000	0.022	-0.090
-732.996	-95.219	-0.319	0.088
-731.981	-64.577	0.260	0.108
-730.966	125.352	0.099	-0.128
-729.952	19.390	0.312	-0.256
-728.937	362.247	-0.059	-0.120
-727.923	103.675	0.135	-0.162
-726.908	-159.844	-0.419	0.024
-725.894	-15.958	0.073	0.048
-724.879	34.573	0.053	-0.048
-723.864	530.570	0.099	0.239
-722.850	-200.000	0.021	-0.101
-721.835	-93.975	-0.219	-0.061
-720.821	127.192	-0.351	-0.455
-719.806	445.426	-0.109	-0.245
-718.791	-43.674	-0.384	0.198
-717.777	253.233	-0.018	0.032
-716.762	-133.525	0.118	0.015
-715.748	-70.095	0.302	-0.117
-714.733	-200.000	0.017	0.165
-713.718	-200.000	0.020	0.338
-712.704	-1.558	-0.334	0.241
-711.689	-79.773	-0.103	-0.035
-710.675	740.861	0.051	0.141
-709.660	800.000	-0.068	0.259
-708.645	98.636	-0.198	0.233
-707.631	-200.000	-0.004	-0.069
-706.616	73.690	-0.163	-0.175
-705.602	132.721	-0.187	-0.247
-704.587	442.767	-0.141	-0.316
-703.572	17.626	0.348	-0.283
-702.558	-107.742	0.206	-0.046
-701.543	497.943	0.063	-0.148
-700.529	-200.000	-0.017	-0.307
-699.514	22.712	-0.184	-0.154
-698.499	125.607	0.146	0.188
-697.485	260.448	-0.228	-0.403
-696.470	7.809	0.183	-0.140
-695.456	-84.021	-0.145	0.047
-694.441	-63.660	0.100	-0.042
-693.426	667.428	-0.063	-0.166
-692.412	-94.639	-0.329	-0.091
-691.397	776.621	-0.074	0.207
-690.383	-200.000	-0.021	-0.178
-689.368	57.858	-0.296	-0.296
-688.354	149.363	0.026	-0.036
-687.339	52.447	0.173	-0.169
-686.324	-59.911	0.183	-0.080
-685.310	-200.000	-0.004	-0.085
-684.295	800.000	-0.038	-0.131
-683.281	-170.059	-0.372	0.014
-682.266	800.000	-0.044	0.186
-681.251	-200.000	-0.027	-0.166
-680.237	-200.000	-0.020	-0.312
-679.222	352.293	0.074	0.150
-678.208	53.329	0.306	-0.299
-677.193	98.767	-0.088	-0.103
-676.178	800.000	0.033	-0.092
-675.164	800.000	0.075	-0.299
-674.149	-200.000	-0.006	-0.253
-673.135	-77.738	-0.087	-0.031
-672.120	10.728	-0.068	-0.053
-671.105	-0.025	0.121	0.088
-670.091	-111.527	0.165	-0.034
-669.076	-36.397	0.079	-0.043
-668.062	-200.000	0.024	0.237
-667.047	-70.953	-0.300	0.115
-666.032	-200.000	0.018	0.240
-665.018	-83.926	-0.150	-0.049
-664.003	-35.390	0.042	0.023
-662.989	282.979	-0.057	-0.105
-661.974	66.553	0.149	-0.154
-660.959	-171.489	0.372	-0.013
-659.945	-82.782	0.253	0.083
-658.930	121.675	-0.096	0.122
-657.916	92.232	-0.050	0.057
-656.901	176.894	-0.209	-0.310
-655.886	69.307	0.078	0.081
-654.872	-200.000	0.008	0.121
-653.857	384.083	0.071	-0.150
-652.843	-200.000	0.009	-0.349
-651.828	800.000	0.060	-0.255
-650.814	-200.000	0.004	0.111
-649.799	30.165	-0.134	0.117
-648.784	-90.959	-0.432	0.126
-647.770	-188.985	-0.236	-0.003
-646.755	189.791	0.220	-0.337
-645.741	164.883	0.114	-0.164
-644.726	-126.647	-0.285	-0.043
-643.711	77.836	0.216	0.234
-642.697	121.324	0.137	-0.173
-641.682	800.000	-0.062	0.232
-640.668	122.072	-0.177	-0.225
-639.653	26.651	-0.235	-0.200
-638.638	-135.797	-0.145	0.018
-637.624	-168.082	-0.238	-0.009
-636.609	137.249	-0.113	0.151
-635.595	642.793	0.062	-0.161
-634.580	-143.212	0.026	-0.003
-633.565	339.670	0.164	-0.326
-632.551	-13.646	-0.069	-0.045
-631.536	269.896	0.176	-0.315
-630.522	-152.935	-0.225	-0.016
-629.507	-200.000	-0.060	0.324
-628.492	800.000	0.079	0.241
-627.478	30.840	0.138	-0.121
-626.463	24.286	-0.070	0.059
-625.449	-200.000	0.010	-0.282
-624.434	111.388	-0.076	-0.094
-623.419	800.000	-0.048	-0.145
-622.405	114.177	-0.122	0.151
-621.390	512.128	0.066	0.157
-620.376	49.974	-0.149	0.143
-619.361	127.980	-0.232	-0.300
-618.346	369.552	0.173	0.356
-617.332	496.234	-0.164	0.384
-616.317	-183.397	-0.168	-0.003
-615.303	-110.100	0.218	-0.046
-614.288	50.744	0.244	-0.235
-613.273	-200.000	-0.009	0.249
-612.259	-200.000	-0.011	-0.116
-611.244	5.675	-0.078	-0.059
-610.230	420.241	-0.080	0.174
-609.215	800.000	0.059	-0.216
-608.201	-200.000	0.006	0.362
-607.186	159.025	0.073	0.103
-606.171	46.068	-0.194	-0.182
-605.157	-116.161	-0.124	0.024
-604.142	-184.921	-0.240	0.004
-603.128	-200.000	-0.025	0.140
-602.113	-200.000	0.011	0.110
-601.098	-161.777	0.342	0.018
-600.084	-103.012	0.148	-0.036
-599.069	6.965	-0.040	0.030
-598.055	93.134	0.094	0.108
-597.040	266.410	-0.143	0.254
-596.025	-133.235	0.326	-0.042
-595.011	-80.172	0.311	-0.106
-593.996	-13.145	-0.189	-0.125
-592.982	-200.000	0.031	-0.216
-591.967	124.009	-0.137	-0.175
-590.952	24.445	0.096	0.081
-589.938	800.000	-0.062	-0.250
-588.923	-59.554	0.065	-0.028
-587.909	-200.000	-0.082	0.369
-586.894	80.237	-0.065	0.071
-585.879	-79.654	-0.163	-0.056
-584.865	-61.880	-0.181	0.077
-583.850	-200.000	0.001	0.209
-582.836	800.000	-0.060	-0.260
-581.821	800.000	0.097	0.277
-580.806	800.000	-0.015	0.059
-579.792	-23.459	-0.106	-0.065
-578.777	33.071	0.307	0.271
-577.763	614.796	-0.078	0.198
-576.748	-43.327	-0.186	-0.095
-575.733	-200.000	-0.051	-0.280
-574.719	171.520	0.227	-0.330
-573.704	400.562	0.008	0.016
-572.690	-31.179	0.258	-0.148
-571.675	149.540	0.076	-0.105
-570.661	248.431	-0.031	0.053
-569.646	49.273	-0.044	-0.042
-568.631	489.063	-0.038	-0.089
-567.617	32.000	0.323	0.282
-566.602	-131.442	0.381	0.051
-565.588	-64.146	-0.148	-0.061
-564.573	800.000	-0.023	0.083
-563.558	-86.256	-0.128	-0.040
-562.544	-166.691	-0.118	0.005
-561.529	-18.055	0.259	-0.165
-560.515	568.572	0.031	0.077
-559.500	-150.841	0.280	-0.022
-558.485	-30.533	-0.098	-0.056
-557.471	74.662	-0.336	0.359
-556.456	347.704	-0.117	0.235
-555.442	-80.939	-0.123	0.041
-554.427	800.000	0.010	0.038
-553.412	110.492	-0.324	-0.395
-552.398	-200.000	-0.042	-0.302
-551.383	49.497	0.131	0.125
-550.369	-46.341	0.169	-0.084
-549.354	-108.555	-0.167	0.036
-548.339	789.984	-0.087	0.244
-547.325	-39.449	-0.097	0.052
-546.310	0.241	0.204	-0.148
-545.296	-200.000	0.041	0.271
-544.281	-51.732	-0.065	0.031
-543.266	-90.366	0.272	-0.080
-542.252	-200.000	-0.039	0.204
-541.237	-13.973	0.229	0.150
-540.223	-135.330	0.152	0.018
-539.208	-200.000	0.013	-0.340
-538.193	4.082	-0.064	0.048
-537.179	104.822	-0.060	-0.071
-536.164	153.453	-0.221	-0.306
-535.150	5.840	0.094	0.070
-534.135	-200.000	-0.026	0.306
-533.121	333.287	-0.197	0.385
-532.106	-67.146	-0.219	0.088
-531.091	249.681	-0.079	0.135
-530.077	-81.908	-0.186	-0.062
-529.062	-200.000	-0.058	0.340
-528.048	800.000	-0.073	-0.225
-527.033	467.326	0.046	-0.103
-526.018	-122.392	0.044	0.007
-525.004	129.182	-0.254	0.328
-523.989	94.257	0.069	0.080
-522.975	-86.300	-0.105	0.033
-521.960	156.405	0.141	0.197
-520.945	261.958	0.066	0.115
-519.931	-113.560	-0.110	0.022
-518.916	-120.203	0.405	0.070
-517.902	-100.038	0.050	0.013
-516.887	-200.000	0.017	-0.143
-515.872	-116.061	-0.166	-0.031
-514.858	800.000	0.026	0.112
-513.843	-0.671	-0.049	0.035
-512.829	386.292	-0.065	0.136
-511.814	-64.654	0.125	0.051
-510.799	800.000	0.066	-0.261
-509.785	20.656	-0.166	-0.136
-508.770	-15.368	-0.097	0.063
-507.756	-200.000	0.041	0.315
-506.741	-200.000	-0.060	-0.305
-505.726	133.719	0.114	-0.150
-504.712	-43.249	-0.209	0.107
-503.697	146.576	-0.095	-0.129
-502.683	186.588	-0.158	-0.238
-501.668	-35.296	-0.182	-0.101
-500.653	471.666	0.089	0.202
-499.639	0.384	0.169	-0.122
-498.624	-200.000	-0.025	0.111
-497.610	-33.045	0.117	0.066
-496.595	-146.406	0.218	-0.019
-495.581	49.390	0.099	-0.094
-494.566	-111.277	-0.227	0.047
-493.551	-95.130	0.352	-0.096
-492.537	418.799	-0.143	0.310
-491.522	800.000	0.083	-0.257
-490.508	494.734	-0.045	0.106
-489.493	297.821	0.104	0.193
-488.478	800.000	-0.017	-0.063
-487.464	349.520	0.132	0.263
-486.449	109.781	-0.152	0.184
-485.435	-153.656	0.331	-0.023
-484.420	42.423	-0.096	0.088
-483.405	-105.492	-0.210	0.048
-482.391	-106.680	0.303	-0.068
-481.376	-50.224	-0.484	-0.232
-480.362	-102.276	0.379	-0.092
-479.347	50.378	-0.093	-0.089
-478.332	-158.420	0.430	0.025
-477.318	138.241	-0.158	0.209
-476.303	-152.497	-0.264	0.019
-475.289	155.938	0.052	-0.072
-474.274	612.282	-0.030	0.075
-473.259	-56.174	-0.059	-0.027
-472.245	-200.000	0.017	0.153
-471.230	72.378	0.247	-0.261
-470.216	-200.000	0.036	-0.262
-469.201	647.273	-0.158	-0.408
-468.186	800.000	-0.115	-0.325
-467.172	129.986	0.177	-0.229
-466.157	-115.090	-0.214	0.041
-465.143	53.025	-0.261	0.252
-464.128	589.081	-0.128	-0.318
-463.113	174.708	-0.034	0.049
-462.099	-84.370	-0.276	-0.088
-461.084	468.242	0.032	0.073
-460.070	-200.000	0.022	-0.217
-459.055	-200.000	0.013	0.075
-458.040	800.000	0.123	0.424
-457.026	307.597	-0.073	0.137
-456.011	-80.883	0.131	-0.044
-454.997	-52.914	0.060	-0.028
-453.982	285.867	0.135	0.247
-452.968	-62.881	0.190	-0.079
-451.953	51.802	0.154	0.149
-450.938	646.335	-0.122	-0.314
-449.924	-52.637	-0.094	0.044
-448.909	-36.237	-0.166	0.090
-447.895	-131.684	0.210	0.028
-446.880	-15.691	-0.064	-0.041
-445.865	521.969	0.224	-0.531
-444.851	13.395	0.206	-0.162
-443.836	288.419	-0.067	0.122
-442.822	-123.000	-0.138	0.022
-441.807	-141.913	0.163	0.016
-440.792	-100.324	-0.309	0.078
-439.778	104.653	0.120	-0.143
-438.763	-30.072	0.538	0.309
-437.749	-200.000	-0.011	0.090
-436.734	-105.085	-0.367	0.085
-435.719	-14.291	-0.093	-0.060
-434.705	740.004	0.098	-0.267
-433.690	-195.813	-0.205	-0.001
-432.676	-88.061	-0.105	-0.032
-431.661	-104.634	0.119	0.028
-430.646	-200.000	0.030	-0.157
-429.632	-200.000	-0.008	-0.194
-428.617	-126.092	-0.103	0.016
-427.603	-23.337	0.105	0.064
-426.588	-116.268	-0.149	0.028
-425.573	-60.850	-0.252	-0.108
-424.559	-27.077	0.084	0.049
-423.544	-95.915	0.255	-0.069
-422.530	39.008	-0.300	0.271
-421.515	192.516	0.244	0.371
-420.500	-25.253	0.205	0.122
-419.486	33.993	-0.192	-0.169
-418.471	-113.721	-0.101	-0.020
-417.457	77.494	0.102	0.110
-416.442	225.931	-0.082	-0.135
-415.428	230.667	-0.081	-0.134
-414.413	-5.619	-0.045	-0.031
-413.398	-21.575	0.025	-0.016
-412.384	-33.604	-0.212	0.118
-411.369	-102.110	-0.183	0.044
-410.355	70.639	0.166	-0.174
-409.340	-200.000	0.004	-0.163
-408.325	-200.000	0.054	-0.351
-407.311	84.284	-0.103	-0.114
-406.296	327.628	0.129	0.249
-405.282	88.764	0.112	0.126
-404.267	106.170	-0.023	0.027
-403.252	216.496	0.121	-0.195
-402.238	280.251	-0.091	0.163
-401.223	16.458	0.088	-0.070
-400.209	-125.670	0.330	0.050
-399.194	-98.699	0.133	-0.034
-398.179	-38.524	0.062	0.033
-397.165	113.164	0.132	0.162
-396.150	-180.624	0.089	0.002
-395.136	119.959	0.153	-0.191
-394.121	800.000	-0.121	-0.357
-393.106	-24.872	0.203	-0.122
-392.092	206.699	-0.250	-0.393
-391.077	-144.055	-0.210	0.020
-390.063	800.000	-0.089	0.284
-389.048	-149.172	-0.224	0.018
-388.033	-200.000	-0.010	-0.216
-387.019	-44.680	0.072	-0.036
-386.004	800.000	-0.082	0.302
-384.990	75.906	-0.091	-0.097
-383.975	-99.754	-0.198	-0.050
-382.960	-84.260	-0.177	-0.057
-381.946	-23.316	0.378	-0.229
-380.931	-142.329	0.109	0.011
-379.917	-200.000	0.013	0.121
-378.902	800.000	-0.061	-0.183
-377.888	-200.000	0.011	0.103
-376.873	259.643	0.051	-0.089
-375.858	-74.383	-0.119	-0.043
-374.844	-143.962	0.167	-0.016
-373.829	800.000	0.093	-0.264
-372.815	32.131	0.251	0.218
-371.800	285.518	0.088	-0.160
-370.785	19.923	-0.112	0.091
-369.771	55.758	-0.142	0.138
-368.756	800.000	-0.073	0.287
-367.742	-113.125	0.121	-0.024
-366.727	69.636	0.216	-0.225
-365.712	230.455	-0.081	0.133
-364.698	-121.471	-0.137	0.023
-363.683	-91.618	-0.342	-0.098
-362.669	-71.635	0.401	0.151
-361.654	-47.517	-0.221	-0.108
-360.639	-200.000	0.099	-0.500
-359.625	800.000	0.042	0.187
-358.610	-200.000	-0.011	-0.174
-357.596	243.246	0.120	-0.203
-356.581	-151.577	-0.225	-0.017
-355.566	800.000	-0.044	-0.164
-354.552	-80.063	0.105	0.035
-353.537	-95.812	0.069	-0.019
-352.523	-69.139	-0.417	0.162
-351.508	210.504	-0.077	0.122
-350.493	33.091	0.151	-0.132
-349.479	-63.529	0.302	-0.125
-348.464	-180.424	-0.050	0.001
-347.450	-166.370	-0.054	0.002
-346.435	800.000	0.052	-0.149
-345.420	-57.887	-0.128	-0.056
-344.406	211.603	-0.245	-0.388
-343.391	-200.000	-0.051	0.490
-342.377	-96.253	0.232	0.062
-341.362	-42.704	0.153	0.078
-340.348	4.927	0.046	-0.034
-339.333	-120.005	0.055	0.010
-338.318	121.018	0.170	-0.213
-337.304	-167.457	-0.366	0.015
-336.289	558.507	-0.063	0.154
-335.275	-110.719	0.180	0.037
-334.260	559.463	0.201	-0.488
-333.245	62.314	0.043	0.043
-332.231	-200.000	0.014	0.211
-331.216	-200.000	-0.032	0.175
-330.202	239.982	0.062	-0.104
-329.187	193.922	-0.153	0.233
-328.172	-76.578	-0.195	-0.069
-327.158	186.904	0.085	-0.128
-326.143	-123.311	-0.285	-0.046
-325.129	-200.000	0.017	0.122
-324.114	800.000	-0.043	0.166
-323.099	743.653	-0.054	-0.147
-322.085	9.938	-0.126	-0.096
-321.070	636.894	0.040	0.101
-320.056	-190.395	0.027	0.000
-319.041	-200.000	-0.093	-0.495
-318.026	-139.621	-0.194	-0.021
-317.012	-200.000	-0.022	-0.119
-315.997	-107.423	-0.518	-0.114
-314.983	26.132	-0.231	0.194
-313.968	7.125	0.182	0.137
-312.953	67.689	-0.119	-0.122
-311.939	-90.389	0.263	-0.077
-310.924	-58.258	0.213	0.093
-309.910	110.289	0.152	-0.183
-308.895	800.000	-0.051	-0.148
-307.880	-44.792	-0.202	0.101
-306.866	409.635	0.185	0.394
-305.851	-200.000	0.015	0.292
-304.837	-118.824	0.128	-0.023
-303.822	508.687	0.009	0.021
-302.807	10.887	0.237	0.182
-301.793	-117.384	0.084	0.015
-300.778	529.754	-0.163	0.388
-299.764	-200.000	-0.023	-0.276
-298.749	-39.660	0.061	-0.032
-297.735	-45.743	-0.204	0.101
-296.720	-200.000	-0.016	0.173
-295.705	-146.199	0.124	0.011
-294.691	77.993	0.109	0.117
-293.676	37.093	0.036	-0.032
-292.662	-41.934	0.074	0.038
-291.647	-200.000	-0.001	-0.351
-290.632	40.805	0.138	-0.125
-289.618	-200.000	-0.006	0.289
-288.603	79.250	0.094	-0.101
-287.589	-200.000	-0.028	-0.268
-286.574	12.318	-0.322	-0.249
-285.559	-200.000	-0.015	-0.097
-284.545	253.449	-0.082	-0.140
-283.530	127.340	0.149	-0.190
-282.516	-165.995	0.389	-0.017
-281.501	533.749	0.046	-0.110
-280.486	800.000	0.073	0.260
-279.472	800.000	-0.032	0.090
-278.457	84.055	-0.419	-0.459
-277.443	283.044	0.046	-0.083
-276.428	478.176	0.063	0.144
-275.413	-200.000	0.010	0.300
-274.399	87.674	-0.014	0.016
-273.384	-84.249	0.151	0.048
-272.370	522.974	-0.065	0.153
-271.355	-127.195	0.276	0.041
-270.340	-68.495	-0.209	-0.081
-269.326	-120.448	-0.346	-0.059
-268.311	197.640	-0.074	-0.114
-267.297	-177.749	-0.404	0.010
-266.282	209.041	0.288	0.453
-265.267	-11.428	0.366	0.242
-264.253	-200.000	0.182	0.001
-263.238	-189.011	0.221	-0.003
-262.224	800.000	-0.057	0.214
-261.209	687.779	-0.087	-0.227
-260.195	19.366	-0.198	0.160
-259.180	18.078	0.244	0.196
-258.165	800.000	-0.068	-0.279
-257.151	-68.024	-0.211	-0.082
-256.136	-106.564	-0.298	-0.067
-255.122	800.000	0.042	-0.166
-254.107	89.942	-0.078	0.088
-253.092	391.756	-0.109	0.227
-252.078	-67.413	0.360	-0.142
-251.063	-59.515	0.455	0.196
-250.049	-200.000	-0.016	0.322
-249.034	433.869	0.092	0.201
-248.019	-200.000	0.030	0.134
-247.005	-200.000	0.009	0.219
-245.990	175.453	0.069	-0.101
-244.976	-0.725	-0.106	0.075
-243.961	-91.284	0.218	0.063
-242.946	-200.000	0.019	-0.176
-241.932	50.621	-0.290	-0.275
-240.917	31.622	-0.147	0.127
-239.903	-55.525	0.057	-0.026
-238.888	-200.000	-0.077	0.437
-237.873	174.415	-0.144	-0.209
-236.859	-16.062	-0.037	0.023
-235.844	-108.587	-0.367	0.079
-234.830	-54.807	0.173	-0.078
-233.815	800.000	-0.070	-0.239
-232.800	-10.296	-0.259	-0.172
-231.786	800.000	-0.090	-0.352
-230.771	-31.433	-0.169	-0.095
-229.757	320.560	0.032	-0.061
-228.742	-200.000	-0.074	-0.347
-227.727	118.635	0.110	0.136
-226.713	-24.167	-0.139	-0.083
-225.698	64.073	0.083	-0.084
-224.684	-6.644	0.047	0.032
-223.669	800.000	0.038	0.110
-222.655	-16.252	0.151	0.096
-221.640	43.046	-0.140	0.128
-220.625	-166.306	-0.236	0.010
-219.611	110.711	0.202	0.244
-218.596	385.851	-0.019	-0.038
-217.582	-166.570	0.308	-0.013
-216.567	-163.242	0.225	0.011
-215.552	265.903	0.067	-0.117
-214.538	239.885	0.165	-0.275
-213.523	-150.420	-0.381	-0.029
-212.509	-83.437	-0.152	0.049
-211.494	499.784	0.160	0.368
-210.479	-118.908	-0.156	0.027
-209.465	-54.032	0.218	-0.099
-208.450	25.244	-0.318	-0.264
-207.436	59.272	-0.130	-0.128
-206.421	-200.000	0.035	0.181
-205.406	-82.712	-0.530	0.172
-204.392	-38.974	-0.131	0.069
-203.377	482.124	-0.047	-0.106
-202.363	-56.149	-0.111	-0.049
-201.348	205.537	0.156	0.242
-200.333	526.281	-0.106	0.250
-199.319	-47.626	0.236	0.115
-198.304	-200.000	0.062	-0.453
-197.290	-1.476	-0.360	0.254
-196.275	131.574	0.208	0.267
-195.260	-200.000	0.016	-0.243
-194.246	-160.782	0.260	-0.014
-193.231	-61.750	0.202	0.084
-192.217	-200.000	0.067	0.297
-191.202	-26.921	0.353	0.206
-190.187	80.077	0.071	0.076
-189.173	333.806	-0.111	0.214
-188.158	-200.000	0.019	-0.084
-187.144	-42.117	0.190	-0.097
-186.129	-200.000	0.016	0.133
-185.114	-200.000	0.006	0.137
-184.100	193.644	0.128	0.194
-183.085	114.103	0.290	-0.353
-182.071	-200.000	0.033	-0.144
-181.056	-200.000	0.054	0.257
-180.042	62.534	-0.276	0.276
-179.027	35.617	0.115	-0.101
-178.012	332.961	0.121	-0.235
-176.998	135.770	0.180	-0.234
-175.983	171.188	0.136	-0.196
-174.969	60.384	0.096	0.095
-173.954	-23.306	0.471	-0.283
-172.939	242.867	-0.069	0.115
-171.925	-101.356	0.142	-0.035
-170.910	63.736	-0.096	-0.097
-169.896	-200.000	-0.013	0.181
-168.881	103.942	-0.143	-0.168
-167.866	-200.000	-0.033	-0.265
-166.852	-200.000	0.019	0.185
-165.837	314.961	-0.108	-0.203
-164.823	39.454	-0.042	-0.037
-163.808	19.403	0.203	0.163
-162.793	-130.198	0.305	-0.041
-161.779	-200.000	-0.011	0.061
-160.764	253.427	0.011	-0.019
-159.750	-200.000	0.013	0.328
-158.735	-35.712	-0.390	0.211
-157.720	69.821	-0.131	0.135
-156.706	-62.002	0.095	0.040
-155.691	392.093	0.079	-0.164
-154.677	30.076	-0.073	0.062
-153.662	-200.000	0.060	0.319
-152.647	-82.606	0.204	-0.066
-151.633	-127.150	0.313	-0.046
-150.618	84.469	-0.191	0.209
-149.604	360.757	0.118	0.236
-148.589	220.367	0.109	0.175
-147.574	-191.965	0.230	-0.002
-146.560	-200.000	-0.014	-0.208
-145.545	-76.308	0.242	-0.085
-144.531	-111.731	-0.184	0.037
-143.516	-151.731	-0.392	-0.029
-142.502	800.000	0.068	0.192
-141.487	-200.000	0.005	-0.165
-140.472	271.318	0.087	0.153
-139.458	66.043	-0.042	0.042
-138.443	-127.534	0.333	0.048
-137.429	800.000	0.032	-0.091
-136.414	-31.949	0.094	0.052
-135.399	-120.704	0.204	0.034
-134.385	604.460	0.075	0.186
-133.370	-200.000	-0.014	-0.105
-132.356	-108.866	0.344	-0.073
-131.341	48.933	-0.248	-0.232
-130.326	-200.000	0.014	0.215
-129.312	44.489	-0.179	0.164
-128.297	-135.953	-0.292	-0.034
-127.283	-200.000	0.010	0.149
-126.268	-98.545	0.127	-0.032
-125.253	-76.675	-0.316	-0.111
-124.239	-66.463	-0.085	0.034
-123.224	800.000	-0.027	0.102
-122.210	-112.106	-0.359	0.072
-121.195	-68.432	0.129	-0.050
