DTS Sentinel unit serial number:	SN413079Multiplexer serial number:	ORYXHardware model number:	OX4-SRSoftware version number:	ORYX F/W v4.00 Oryx Data Collector v3.7.2.0data status	okinstallation	princeton_trtdifferential loss correction	single-endedforward channel	channel 3reverse channel	N/Adate	2019/09/19time	14:48:35forward acquisition time	60.00reverse acquisition time	0.00gamma	496.2192k internal	0.2317k external	0.2317temperature offset calibration	1.0005default loss term (dB/km)	0.3790temperature slope calibration	1.0000multiplexer offset coefficient	1.0000multiplexer slope coefficient	1.0000fibre end	0.00T internal ref (°C)	32.77T ext. ref 1 (°C)	1.10T ext. ref 2 (°C)	29.73length (m)	temperature (°C)	Stokes	anti-Stokes-747.200	-39.471	0.087	0.046
-746.185	800.000	-0.063	0.242
-745.171	-70.986	-0.275	-0.105
-744.156	-200.000	-0.024	-0.151
-743.142	328.195	-0.093	0.181
-742.127	800.000	-0.052	0.185
-741.112	29.894	0.293	-0.253
-740.098	800.000	0.072	0.265
-739.083	800.000	-0.061	0.192
-738.069	-200.000	0.320	-0.000
-737.054	-200.000	-0.015	-0.104
-736.039	607.444	-0.165	0.417
-735.025	298.438	0.109	0.204
-734.010	-200.000	-0.037	-0.242
-732.996	-122.314	-0.327	-0.054
-731.981	274.293	-0.110	0.197
-730.966	-68.800	-0.116	-0.045
-729.952	-135.241	-0.157	0.019
-728.937	122.535	0.148	0.188
-727.923	-70.683	0.308	-0.118
-726.908	133.259	-0.188	0.246
-725.894	-200.000	-0.014	-0.127
-724.879	-135.104	-0.067	-0.008
-723.864	286.287	-0.073	-0.134
-722.850	41.294	-0.012	-0.011
-721.835	514.627	0.145	0.342
-720.821	-200.000	-0.023	0.358
-719.806	56.083	-0.116	0.114
-718.791	587.072	-0.093	-0.232
-717.777	-200.000	-0.003	-0.054
-716.762	-39.054	-0.037	-0.020
-715.748	800.000	0.031	0.120
-714.733	-200.000	0.024	0.181
-713.718	-200.000	-0.024	-0.265
-712.704	-126.871	-0.125	0.019
-711.689	53.833	0.029	0.028
-710.675	-75.058	-0.255	-0.092
-709.660	-80.012	-0.524	-0.178
-708.645	706.344	-0.080	-0.214
-707.631	-200.000	-0.049	0.254
-706.616	-18.621	-0.027	-0.017
-705.602	665.331	-0.104	-0.271
-704.587	263.007	-0.097	-0.170
-703.572	-137.257	0.374	-0.043
-702.558	-0.767	0.312	0.223
-701.543	14.831	-0.237	0.187
-700.529	-24.671	0.117	0.070
-699.514	711.118	0.069	0.184
-698.499	13.275	-0.016	-0.012
-697.485	-17.100	0.354	-0.226
-696.470	404.197	0.052	0.111
-695.456	175.272	0.078	-0.115
-694.441	128.448	0.195	-0.251
-693.426	-200.000	0.021	0.163
-692.412	-112.402	-0.074	-0.015
-691.397	800.000	-0.006	0.021
-690.383	-112.579	-0.185	0.037
-689.368	-41.970	0.084	-0.043
-688.354	-5.225	0.145	-0.101
-687.339	-166.045	0.103	-0.004
-686.324	-200.000	-0.003	-0.123
-685.310	-153.108	-0.260	0.018
-684.295	-47.228	0.170	-0.084
-683.281	545.855	0.043	0.103
-682.266	128.760	0.040	-0.051
-681.251	161.114	-0.091	0.129
-680.237	-31.646	0.084	0.048
-679.222	458.130	-0.069	0.156
-678.208	181.846	-0.137	-0.204
-677.193	-200.000	0.012	0.085
-676.178	0.076	-0.281	0.202
-675.164	413.428	0.183	0.394
-674.149	-80.735	-0.295	0.099
-673.135	-200.000	-0.009	0.093
-672.120	800.000	-0.162	0.469
-671.105	-26.809	0.140	0.082
-670.091	80.603	-0.162	0.176
-669.076	-21.853	-0.265	-0.163
-668.062	-70.888	-0.059	-0.022
-667.047	159.779	-0.198	-0.278
-666.032	371.393	0.040	-0.083
-665.018	-17.251	-0.109	-0.069
-664.003	-185.074	-0.243	0.004
-662.989	37.478	0.069	0.061
-661.974	-76.549	-0.281	0.100
-660.959	-200.000	-0.046	0.373
-659.945	295.038	-0.022	-0.041
-658.930	800.000	-0.049	-0.188
-657.916	130.090	-0.187	0.242
-656.901	-126.702	-0.297	-0.044
-655.886	-75.938	0.328	0.117
-654.872	-200.000	-0.004	-0.094
-653.857	429.211	0.035	-0.077
-652.843	-200.000	0.048	-0.338
-651.828	-9.155	0.303	0.204
-650.814	-200.000	0.003	-0.105
-649.799	-127.566	-0.034	0.005
-648.784	-73.263	-0.470	-0.173
-647.770	800.000	0.125	0.422
-646.755	-116.716	-0.102	-0.019
-645.741	-85.343	0.123	0.039
-644.726	694.733	0.047	0.126
-643.711	-200.000	0.030	0.261
-642.697	123.030	0.090	-0.114
-641.682	60.729	-0.050	0.050
-640.668	532.385	0.159	-0.379
-639.653	-10.930	-0.275	-0.183
-638.638	800.000	0.062	-0.258
-637.624	800.000	-0.046	-0.149
-636.609	-87.832	0.027	-0.008
-635.595	-200.000	-0.038	0.172
-634.580	270.209	-0.046	-0.082
-633.565	-70.106	-0.252	-0.097
-632.551	800.000	0.065	-0.217
-631.536	233.603	-0.053	-0.088
-630.522	58.977	0.016	-0.016
-629.507	-144.059	-0.261	-0.025
-628.492	-80.733	0.219	-0.073
-627.478	472.023	0.072	-0.164
-626.463	-200.000	-0.004	0.151
-625.449	-91.578	0.082	0.023
-624.434	800.000	-0.007	0.024
-623.419	122.706	0.142	0.179
-622.405	131.972	-0.240	-0.312
-621.390	-157.791	-0.201	0.012
-620.376	-49.934	-0.284	-0.136
-619.361	-118.039	-0.236	-0.042
-618.346	690.774	-0.024	0.064
-617.332	384.494	-0.203	-0.421
-616.317	-98.371	-0.221	0.057
-615.303	29.465	0.179	0.153
-614.288	173.615	0.141	0.205
-613.273	-117.305	0.345	-0.063
-612.259	-73.904	-0.078	-0.028
-611.244	-127.601	0.058	-0.008
-610.230	339.332	-0.132	-0.259
-609.215	79.195	0.206	-0.222
-608.201	169.195	0.258	-0.371
-607.186	-200.000	-0.010	-0.153
-606.171	800.000	0.110	-0.330
-605.157	575.877	-0.076	0.187
-604.142	437.402	0.113	0.249
-603.128	-163.288	-0.450	-0.022
-602.113	-121.212	0.043	-0.007
-601.098	-200.000	-0.010	0.217
-600.084	-170.277	0.355	-0.013
-599.069	-166.177	0.128	0.005
-598.055	-11.746	-0.158	-0.105
-597.040	119.381	-0.048	-0.059
-596.025	800.000	0.029	0.090
-595.011	-44.209	0.180	0.091
-593.996	-69.646	0.130	0.050
-592.982	146.205	-0.050	0.067
-591.967	36.476	0.399	-0.354
-590.952	-141.859	0.221	0.022
-589.938	-155.103	-0.167	0.011
-588.923	-96.373	0.105	-0.028
-587.909	-200.000	-0.022	0.107
-586.894	-113.111	0.195	-0.039
-585.879	25.690	-0.091	-0.076
-584.865	102.575	-0.168	0.197
-583.850	-200.000	0.008	0.092
-582.836	800.000	0.092	-0.304
-581.821	-44.163	-0.232	-0.117
-580.806	-114.305	0.152	0.030
-579.792	-62.964	-0.081	-0.034
-578.777	80.323	0.192	-0.208
-577.763	-200.000	0.010	0.198
-576.748	-200.000	0.009	-0.309
-575.733	-43.940	-0.193	0.098
-574.719	-54.075	0.245	0.112
-573.704	335.946	0.045	-0.087
-572.690	-5.024	-0.055	0.038
-571.675	-200.000	-0.006	-0.068
-570.661	-200.000	-0.043	-0.282
-569.646	800.000	-0.043	0.169
-568.631	3.903	0.035	0.026
-567.617	-161.409	0.245	-0.013
-566.602	34.067	-0.035	-0.030
-565.588	-45.877	-0.182	0.090
-564.573	108.413	-0.107	0.129
-563.558	-20.531	0.179	-0.110
-562.544	-59.473	0.186	0.081
-561.529	99.354	0.169	0.197
-560.515	-63.727	0.324	-0.134
-559.500	-103.507	-0.463	-0.109
-558.485	-96.475	0.273	-0.072
-557.471	334.138	0.078	-0.152
-556.456	-81.644	0.192	-0.063
-555.442	-6.278	-0.283	-0.194
-554.427	66.050	-0.127	-0.130
-553.412	31.612	-0.104	-0.090
-552.398	-9.607	-0.188	0.126
-551.383	-64.698	-0.200	0.081
-550.369	-200.000	-0.032	0.191
-549.354	-95.239	0.155	-0.042
-548.339	-38.424	0.253	-0.135
-547.325	-200.000	-0.039	0.246
-546.310	-56.133	-0.108	-0.049
-545.296	-14.296	-0.095	0.061
-544.281	-109.250	0.145	0.031
-543.266	-200.000	0.020	0.138
-542.252	-119.671	-0.088	0.015
-541.237	-6.812	0.045	-0.031
-540.223	699.953	0.133	0.352
-539.208	800.000	-0.105	0.290
-538.193	-200.000	-0.026	0.153
-537.179	-35.806	-0.257	0.140
-536.164	372.392	-0.073	-0.150
-535.150	-200.000	0.034	0.179
-534.135	-200.000	0.024	-0.127
-533.121	371.710	0.094	-0.192
-532.106	-94.084	-0.213	0.059
-531.091	-86.948	-0.294	-0.090
-530.077	-58.789	0.034	0.015
-529.062	-200.000	0.023	-0.116
-528.048	-200.000	-0.025	0.184
-527.033	-200.000	-0.004	-0.144
-526.018	-155.882	-0.156	-0.010
-525.004	800.000	-0.095	0.374
-523.989	800.000	0.061	0.261
-522.975	-57.452	-0.064	0.028
-521.960	-99.923	-0.185	0.046
-520.945	800.000	0.106	-0.301
-519.931	72.741	0.109	0.114
-518.916	-84.959	-0.347	0.109
-517.902	366.700	-0.059	-0.120
-516.887	-149.193	-0.223	-0.018
-515.872	747.117	-0.108	-0.291
-514.858	-200.000	-0.041	-0.210
-513.843	-136.142	0.262	0.031
-512.829	234.502	0.065	-0.108
-511.814	664.594	-0.029	0.076
-510.799	376.642	0.109	0.224
-509.785	-200.000	-0.037	0.187
-508.770	-133.835	-0.182	-0.023
-507.756	195.945	-0.259	-0.395
-506.741	-10.641	0.120	0.080
-505.726	-200.000	0.015	0.193
-504.712	-200.000	0.000	-0.136
-503.697	-73.268	-0.209	0.077
-502.683	-76.906	0.179	-0.063
-501.668	211.160	-0.174	0.274
-500.653	305.039	0.171	0.319
-499.639	95.640	-0.100	-0.114
-498.624	-130.502	-0.136	0.018
-497.610	800.000	-0.078	0.292
-496.595	-14.777	-0.261	-0.168
-495.581	-15.509	0.020	-0.013
-494.566	-41.333	-0.251	-0.129
-493.551	132.836	0.112	0.146
-492.537	35.018	0.089	-0.078
-491.522	216.832	0.058	-0.093
-490.508	-12.155	-0.341	0.224
-489.493	-35.346	-0.128	0.070
-488.478	800.000	-0.040	0.127
-487.464	-130.191	0.226	0.031
-486.449	239.331	0.082	0.137
-485.435	-39.818	0.022	-0.012
-484.420	-159.171	0.181	-0.010
-483.405	77.143	0.096	0.102
-482.391	-42.914	-0.026	0.013
-481.376	800.000	0.075	0.259
-480.362	-137.823	0.034	-0.004
-479.347	800.000	0.061	0.240
-478.332	-130.679	0.380	-0.051
-477.318	674.848	-0.098	-0.255
-476.303	79.193	0.159	-0.171
-475.289	35.346	-0.148	-0.130
-474.274	248.531	0.136	0.230
-473.259	52.927	0.125	-0.119
-472.245	-200.000	0.022	-0.180
-471.230	-69.248	-0.294	-0.113
-470.216	30.070	0.156	0.134
-469.201	-147.718	-0.325	-0.027
-468.186	800.000	-0.036	0.130
-467.172	-200.000	0.040	0.190
-466.157	437.758	-0.119	0.260
-465.143	-23.687	-0.112	0.067
-464.128	-136.818	0.241	0.028
-463.113	186.398	0.243	0.363
-462.099	-200.000	-0.028	0.133
-461.084	150.700	0.088	0.120
-460.070	-70.679	-0.369	-0.140
-459.055	-18.243	0.093	-0.058
-458.040	199.888	-0.098	-0.151
-457.026	73.874	0.252	0.265
-456.011	12.939	-0.010	-0.007
-454.997	66.119	0.157	-0.160
-453.982	-70.922	-0.500	-0.189
-452.968	378.123	-0.068	0.140
-451.953	34.780	0.066	0.058
-450.938	-165.096	-0.327	-0.015
-449.924	37.521	-0.077	-0.069
-448.909	-101.920	-0.122	-0.029
-447.895	81.433	0.117	0.126
-446.880	43.305	-0.263	0.240
-445.865	-106.851	-0.268	0.060
-444.851	500.241	0.020	0.046
-443.836	800.000	-0.041	-0.147
-442.822	107.510	-0.021	0.025
-441.807	463.034	0.138	-0.309
-440.792	-102.014	-0.186	0.045
-439.778	40.497	0.086	0.078
-438.763	337.655	-0.120	0.234
-437.749	-200.000	0.013	0.261
-436.734	124.327	-0.063	0.080
-435.719	164.105	-0.045	0.064
-434.705	119.848	-0.198	-0.246
-433.690	800.000	-0.067	0.197
-432.676	-200.000	-0.315	-0.000
-431.661	-169.377	-0.368	0.014
-430.646	-146.843	-0.248	-0.021
-429.632	46.240	0.350	0.324
-428.617	800.000	0.034	0.126
-427.603	-129.738	0.294	-0.040
-426.588	575.906	0.051	-0.125
-425.573	-18.530	-0.134	-0.084
-424.559	73.915	-0.127	0.134
-423.544	27.127	0.337	0.283
-422.530	800.000	-0.028	-0.090
-421.515	-77.592	0.208	0.072
-420.500	107.450	-0.106	0.126
-419.486	-133.003	-0.064	-0.008
-418.471	-149.756	0.236	0.019
-417.457	-22.771	-0.121	-0.073
-416.442	-88.958	-0.318	-0.094
-415.428	-34.448	0.367	-0.201
-414.413	225.448	-0.102	0.165
-413.398	-30.173	-0.110	0.062
-412.384	30.032	0.112	-0.096
-411.369	-200.000	0.074	0.444
-410.355	35.168	-0.439	-0.384
-409.340	-200.000	0.037	0.252
-408.325	122.518	0.065	0.081
-407.311	597.675	-0.121	-0.299
-406.296	96.732	0.190	-0.217
-405.282	-125.244	0.095	-0.015
-404.267	-139.728	-0.210	0.022
-403.252	-183.056	0.458	-0.008
-402.238	-200.000	0.028	-0.260
-401.223	45.076	0.226	-0.208
-400.209	206.540	0.219	0.341
-399.194	245.117	0.105	0.177
-398.179	137.386	-0.207	0.270
-397.165	-200.000	-0.009	0.110
-396.150	-200.000	-0.000	0.075
-395.136	-200.000	-0.042	-0.237
-394.121	15.001	0.088	0.069
-393.106	-200.000	-0.010	0.134
-392.092	-73.264	-0.254	0.093
-391.077	-146.988	0.215	0.018
-390.063	-2.964	-0.199	-0.138
-389.048	-200.000	-0.021	-0.121
-388.033	-88.873	0.056	-0.016
-387.019	-92.866	-0.076	0.021
-386.004	737.619	-0.060	0.161
-384.990	323.273	-0.173	-0.329
-383.975	-98.940	-0.292	-0.074
-382.960	-17.487	0.110	0.069
-381.946	800.000	-0.057	0.237
-380.931	219.257	0.099	-0.158
-379.917	46.463	0.168	-0.156
-378.902	-86.024	0.147	0.045
-377.888	-15.175	-0.162	-0.104
-376.873	-118.459	-0.102	0.018
-375.858	-200.000	0.017	0.181
-374.844	-140.674	-0.207	0.021
-373.829	-200.000	0.022	0.281
-372.815	219.106	0.055	-0.087
-371.800	112.092	-0.208	-0.251
-370.785	-93.071	-0.066	-0.018
-369.771	-200.000	0.010	-0.181
-368.756	-61.364	-0.111	-0.047
-367.742	-43.134	0.079	0.040
-366.727	-41.620	-0.287	0.147
-365.712	18.287	-0.550	-0.438
-364.698	-200.000	-0.013	0.153
-363.683	800.000	-0.028	0.083
-362.669	7.232	0.175	-0.130
-361.654	-200.000	-0.039	0.223
-360.639	-195.903	-0.381	0.003
-359.625	-200.000	0.045	-0.214
-358.610	-7.072	-0.080	-0.054
-357.596	-200.000	0.011	0.187
-356.581	-18.612	-0.128	-0.079
-355.566	800.000	-0.043	-0.169
-354.552	34.740	-0.048	-0.042
-353.537	-200.000	-0.033	-0.165
-352.523	746.856	-0.094	0.254
-351.508	505.467	0.029	-0.066
-350.493	-66.690	-0.347	-0.137
-349.479	79.214	0.238	0.255
-348.464	-24.637	-0.130	-0.077
-347.450	74.426	0.112	-0.117
-346.435	-59.326	-0.233	0.100
-345.420	-24.281	0.081	0.048
-344.406	155.489	-0.186	-0.255
-343.391	133.564	0.240	0.309
-342.377	-21.248	0.071	0.043
-341.362	-43.423	0.084	-0.042
-340.348	85.620	0.234	-0.256
-339.333	800.000	-0.039	0.143
-338.318	-200.000	0.021	-0.219
-337.304	108.624	-0.128	0.152
-336.289	-48.241	0.248	0.119
-335.275	800.000	0.056	0.165
-334.260	25.749	-0.205	0.170
-333.245	-141.856	0.268	-0.027
-332.231	800.000	0.087	0.306
-331.216	218.563	-0.145	-0.231
-330.202	262.407	-0.048	-0.083
-329.187	254.177	0.110	0.188
-328.172	77.095	-0.109	0.115
-327.158	-37.515	-0.069	-0.037
-326.143	-11.305	0.220	-0.144
-325.129	-19.347	0.140	0.086
-324.114	-187.669	-0.178	-0.002
-323.099	-200.000	-0.019	0.138
-322.085	120.800	0.117	0.145
-321.070	-35.441	-0.279	0.151
-320.056	167.533	0.039	0.055
-319.041	-11.649	0.345	-0.226
-318.026	-200.000	-0.050	0.284
-317.012	208.614	0.031	0.048
-315.997	61.394	-0.208	0.206
-314.983	-110.465	0.150	-0.031
-313.968	28.317	-0.104	-0.088
-312.953	800.000	0.117	-0.342
-311.939	14.189	-0.196	-0.152
-310.924	-154.855	-0.307	-0.020
-309.910	110.670	-0.133	-0.159
-308.895	398.733	-0.171	0.356
-307.880	-200.000	0.031	-0.241
-306.866	-200.000	-0.005	-0.076
-305.851	55.799	0.148	-0.143
-304.837	-107.425	0.277	0.061
-303.822	222.402	-0.048	-0.078
-302.807	78.299	0.254	-0.270
-301.793	-200.000	0.297	0.000
-300.778	-200.000	0.056	0.308
-299.764	-138.588	-0.279	0.030
-298.749	-61.249	0.265	-0.111
-297.735	47.436	-0.160	0.148
-296.720	291.303	0.225	-0.407
-295.705	-200.000	-0.000	-0.140
-294.691	340.554	-0.159	-0.309
-293.676	650.599	0.056	-0.143
-292.662	-153.604	0.272	-0.019
-291.647	349.726	0.073	0.144
-290.632	-100.186	0.060	0.015
-289.618	320.489	-0.129	-0.243
-288.603	-46.111	0.242	-0.119
-287.589	-49.238	-0.137	-0.065
-286.574	-200.000	0.023	-0.169
-285.559	-56.803	0.337	-0.148
-284.545	728.662	0.053	0.139
-283.530	-51.142	0.130	0.061
-282.516	288.849	-0.129	-0.232
-281.501	469.074	0.029	0.065
-280.486	-179.713	-0.180	-0.004
-279.472	342.295	0.069	0.133
-278.457	538.829	-0.105	0.249
-277.443	-200.000	0.032	0.205
-276.428	-95.182	0.280	-0.075
-275.413	-200.000	0.029	0.167
-274.399	800.000	-0.099	-0.282
-273.384	800.000	0.110	-0.303
-272.370	800.000	0.083	-0.338
-271.355	9.968	-0.201	-0.152
-270.340	543.954	-0.091	-0.216
-269.326	35.482	0.202	-0.177
-268.311	146.643	0.125	-0.167
-267.297	-173.540	0.264	0.008
-266.282	-140.879	0.345	0.035
-265.267	-138.027	0.216	-0.024
-264.253	-69.815	0.172	-0.065
-263.238	708.488	-0.125	0.328
-262.224	-13.118	0.075	-0.049
-261.209	-200.000	-0.004	-0.528
-260.195	374.476	0.101	0.205
-259.180	-134.017	0.167	0.021
-258.165	337.587	-0.059	-0.114
-257.151	800.000	-0.159	0.651
-256.136	-98.574	0.178	0.045
-255.122	-81.689	0.439	-0.143
-254.107	233.077	0.131	0.215
-253.092	-155.535	0.403	-0.026
-252.078	-70.042	0.227	0.086
-251.063	86.582	0.181	0.198
-250.049	-118.979	-0.383	-0.067
-249.034	-200.000	-0.046	0.231
-248.019	-52.970	0.234	-0.107
-247.005	427.673	-0.202	-0.433
-245.990	462.879	-0.150	0.333
-244.976	95.545	0.203	0.230
-243.961	-200.000	-0.025	0.195
-242.946	200.615	-0.151	-0.230
-241.932	323.585	-0.018	0.035
-240.917	-200.000	0.049	0.263
-239.903	564.005	-0.116	-0.279
-238.888	397.886	-0.085	0.176
-237.873	247.723	0.122	-0.205
-236.859	126.718	0.076	0.095
-235.844	-113.830	-0.255	0.049
-234.830	-37.131	0.329	-0.175
-233.815	90.800	0.049	-0.054
-232.800	800.000	-0.029	-0.106
-231.786	-200.000	-0.021	0.261
-230.771	26.618	0.387	0.321
-229.757	397.761	-0.110	0.228
-228.742	-200.000	-0.038	-0.198
-227.727	259.920	-0.195	-0.334
-226.713	-153.425	-0.086	-0.006
-225.698	-168.959	0.128	0.005
-224.684	-56.548	0.093	0.041
-223.669	-54.999	-0.129	-0.058
-222.655	-19.044	-0.379	-0.234
-221.640	-172.290	0.440	-0.014
-220.625	-54.187	0.183	-0.082
-219.611	73.997	0.055	-0.057
-218.596	800.000	0.114	0.315
-217.582	-33.850	0.370	0.202
-216.567	210.403	-0.366	-0.570
-215.552	-62.050	-0.124	-0.051
-214.538	-152.198	0.006	-0.000
-213.523	-144.119	-0.396	-0.037
-212.509	-102.595	-0.171	0.040
-211.494	27.567	-0.147	0.123
-210.479	-200.000	-0.010	0.332
-209.465	-96.718	-0.228	-0.060
-208.450	63.127	-0.168	-0.167
-207.436	-165.877	-0.094	0.004
-206.421	-10.034	0.069	0.046
-205.406	-58.788	-0.057	0.024
-204.392	105.012	0.109	-0.127
-203.377	74.708	0.172	-0.180
-202.363	-97.898	0.038	0.010
-201.348	800.000	0.053	-0.180
-200.333	315.717	-0.088	-0.164
-199.319	102.371	0.199	0.231
-198.304	222.614	-0.138	-0.221
-197.290	800.000	0.101	-0.284
-196.275	-134.112	0.268	-0.033
-195.260	-200.000	0.011	-0.185
-194.246	-136.891	-0.513	-0.058
-193.231	-20.997	0.108	0.066
-192.217	199.085	0.042	0.064
-191.202	368.566	-0.038	-0.077
-190.187	800.000	-0.033	0.139
-189.173	-200.000	-0.014	0.284
-188.158	-200.000	0.011	0.257
-187.144	-29.536	0.213	0.120
-186.129	-131.817	0.257	-0.033
-185.114	477.189	-0.072	-0.160
-184.100	-35.785	0.103	-0.055
-183.085	-37.497	0.271	-0.143
-182.071	349.430	0.061	0.120
-181.056	-200.000	0.010	0.101
-180.042	794.229	0.147	0.402
-179.027	201.128	0.138	-0.210
-178.012	-12.810	0.108	-0.070
-176.998	-23.614	-0.121	0.072
-175.983	258.070	-0.071	0.121
-174.969	550.977	-0.220	-0.522
-173.954	-162.730	0.322	0.016
-172.939	-129.262	0.144	-0.020
-171.925	-97.133	0.266	0.069
-170.910	-200.000	-0.038	0.184
-169.896	-58.281	0.114	0.049
-168.881	-55.379	-0.235	0.104
-167.866	800.000	-0.030	-0.105
-166.852	104.319	-0.227	-0.265
-165.837	-5.594	0.060	-0.041
-164.823	-56.539	0.314	0.138
-163.808	140.134	-0.175	0.228
-162.793	215.484	0.049	-0.078
-161.779	-33.903	0.176	-0.096
-160.764	-200.000	-0.019	0.255
-159.750	49.927	0.166	0.155
-158.735	-131.262	0.287	0.038
-157.720	-156.339	0.302	0.019
-156.706	-200.000	-0.001	-0.053
-155.691	-49.655	-0.195	0.092
-154.677	142.871	-0.016	-0.022
-153.662	-75.765	-0.310	0.109
-152.647	800.000	-0.059	-0.205
-151.633	-200.000	0.023	0.361
-150.618	-200.000	0.005	-0.057
-149.604	-200.000	-0.041	0.225
-148.589	800.000	0.077	0.286
-147.574	800.000	0.037	0.145
-146.560	500.832	0.095	0.217
-145.545	-104.489	0.291	0.067
-144.531	94.994	-0.230	0.259
-143.516	800.000	0.122	-0.335
-142.502	182.679	-0.051	-0.074
-141.487	-157.316	0.038	0.002
-140.472	302.733	0.157	-0.287
-139.458	-69.789	0.071	-0.027
-138.443	-32.286	0.225	0.124
-137.429	219.569	0.175	0.277
-136.414	-72.898	0.038	-0.014
-135.399	46.327	0.173	0.159
-134.385	-200.000	-0.030	0.273
-133.370	57.864	-0.270	0.261
-132.356	-193.299	-0.241	-0.002
-131.341	-166.281	0.202	-0.008
-130.326	-200.000	0.009	-0.087
-129.312	-200.000	-0.043	0.271
-128.297	329.393	0.111	-0.210
-127.283	206.564	-0.218	0.335
-126.268	162.293	0.123	-0.171
-125.253	-200.000	0.019	-0.097
-124.239	-200.000	-0.015	-0.118
-123.224	-200.000	0.025	-0.432
-122.210	-44.656	0.148	-0.073
