DTS Sentinel unit serial number:	SN413079Multiplexer serial number:	ORYXHardware model number:	OX4-SRSoftware version number:	ORYX F/W v4.00 Oryx Data Collector v3.7.2.0data status	okinstallation	princeton_trtdifferential loss correction	single-endedforward channel	channel 3reverse channel	N/Adate	2019/09/13time	01:44:35forward acquisition time	60.00reverse acquisition time	0.00gamma	496.2192k internal	0.2334k external	0.2334temperature offset calibration	1.0122default loss term (dB/km)	0.3790temperature slope calibration	1.0000multiplexer offset coefficient	1.0000multiplexer slope coefficient	1.0000fibre end	0.00T internal ref (°C)	27.69T ext. ref 1 (°C)	3.80T ext. ref 2 (°C)	22.34length (m)	temperature (°C)	Stokes	anti-Stokes-747.200	49.013	0.159	-0.150
-746.185	90.716	0.121	0.136
-745.171	800.000	-0.078	-0.256
-744.156	-80.627	-0.256	-0.086
-743.142	-35.015	0.241	0.132
-742.127	-80.439	-0.321	-0.108
-741.112	-88.752	-0.039	-0.012
-740.098	-200.000	0.072	0.354
-739.083	-160.688	0.171	-0.009
-738.069	-200.000	0.002	0.051
-737.054	-64.335	0.226	-0.092
-736.039	-150.669	-0.394	-0.030
-735.025	-111.448	0.453	0.093
-734.010	717.895	-0.145	-0.388
-732.996	-6.807	0.140	0.096
-731.981	599.476	-0.122	-0.304
-730.966	-200.000	-0.002	0.301
-729.952	135.099	0.053	0.069
-728.937	800.000	-0.051	-0.181
-727.923	-116.934	0.148	0.027
-726.908	-112.421	-0.271	-0.054
-725.894	-64.863	-0.164	0.067
-724.879	139.180	0.034	0.045
-723.864	-25.673	0.194	-0.115
-722.850	21.236	0.164	0.134
-721.835	80.317	-0.222	0.240
-720.821	-24.313	0.170	-0.102
-719.806	-34.732	-0.014	-0.008
-718.791	-34.415	-0.276	-0.152
-717.777	-200.000	-0.008	-0.296
-716.762	-102.211	0.385	0.093
-715.748	43.569	0.113	0.103
-714.733	466.229	0.069	-0.154
-713.718	800.000	-0.013	0.056
-712.704	-63.987	0.225	-0.092
-711.689	-158.953	-0.056	0.003
-710.675	136.389	-0.166	0.217
-709.660	800.000	-0.090	-0.266
-708.645	-85.505	0.173	0.054
-707.631	324.458	-0.072	-0.139
-706.616	199.493	-0.046	-0.071
-705.602	-200.000	0.037	-0.204
-704.587	-200.000	-0.016	-0.225
-703.572	435.389	0.084	0.184
-702.558	-143.496	-0.094	-0.009
-701.543	-29.239	-0.279	0.160
-700.529	-200.000	-0.011	-0.126
-699.514	-200.000	0.014	-0.088
-698.499	66.555	0.213	-0.217
-697.485	105.417	-0.259	0.306
-696.470	553.580	-0.036	0.088
-695.456	-103.867	-0.410	-0.096
-694.441	-5.120	-0.253	-0.174
-693.426	143.645	-0.099	-0.132
-692.412	-88.863	0.084	0.025
-691.397	82.611	0.081	0.088
-690.383	-200.000	-0.037	0.206
-689.368	-70.992	-0.269	0.102
-688.354	56.699	0.124	0.121
-687.339	-200.000	0.005	0.044
-686.324	74.163	0.060	0.063
-685.310	-17.497	0.058	-0.037
-684.295	-167.448	0.271	0.011
-683.281	-4.032	-0.037	-0.026
-682.266	59.121	0.145	-0.143
-681.251	-100.419	-0.261	-0.065
-680.237	-192.981	0.140	0.001
-679.222	-200.000	0.002	-0.187
-678.208	206.408	-0.168	0.263
-677.193	-36.354	-0.400	0.216
-676.178	-144.639	0.233	0.022
-675.164	348.401	0.082	0.162
-674.149	-177.267	-0.057	-0.001
-673.135	-3.460	-0.399	-0.279
-672.120	-200.000	-0.037	0.232
-671.105	-143.835	0.206	0.020
-670.091	-164.539	0.171	-0.008
-669.076	15.127	-0.103	-0.081
-668.062	-200.000	-0.020	-0.160
-667.047	-140.005	0.299	-0.032
-666.032	59.736	-0.139	0.138
-665.018	324.990	-0.067	-0.129
-664.003	-200.000	0.036	0.169
-662.989	129.312	0.211	0.269
-661.974	800.000	0.082	-0.272
-660.959	-132.545	-0.209	-0.027
-659.945	-71.019	-0.255	-0.096
-658.930	293.001	0.083	-0.152
-657.916	-200.000	-0.000	0.071
-656.901	374.756	0.045	0.091
-655.886	-27.298	-0.140	-0.082
-654.872	-161.160	0.399	0.021
-653.857	328.205	0.052	-0.100
-652.843	-187.785	-0.075	0.001
-651.828	106.492	-0.145	0.172
-650.814	800.000	-0.045	-0.143
-649.799	169.898	0.216	-0.310
-648.784	800.000	-0.030	0.102
-647.770	-181.445	-0.057	-0.001
-646.755	37.105	-0.128	-0.114
-645.741	800.000	0.042	-0.149
-644.726	244.785	0.097	0.164
-643.711	-200.000	0.001	0.224
-642.697	-95.964	-0.042	-0.011
-641.682	-200.000	0.021	-0.186
-640.668	-200.000	0.004	-0.092
-639.653	-200.000	0.018	-0.295
-638.638	-59.165	-0.046	0.020
-637.624	25.271	0.217	-0.180
-636.609	-70.271	0.110	0.042
-635.595	-200.000	-0.011	-0.164
-634.580	-149.778	-0.290	0.023
-633.565	-200.000	0.039	0.232
-632.551	576.497	-0.039	0.095
-631.536	-22.162	-0.297	-0.181
-630.522	534.724	0.140	0.332
-629.507	-200.000	-0.021	-0.158
-628.492	-86.698	0.237	-0.073
-627.478	-171.460	0.283	-0.009
-626.463	800.000	0.106	0.417
-625.449	91.060	-0.136	0.153
-624.434	-200.000	-0.072	0.491
-623.419	44.358	0.109	-0.100
-622.405	245.497	-0.106	0.178
-621.390	-200.000	-0.020	0.297
-620.376	-65.165	-0.262	0.106
-619.361	-93.464	0.078	-0.022
-618.346	727.305	-0.118	-0.316
-617.332	-200.000	0.033	0.155
-616.317	800.000	0.017	-0.067
-615.303	183.304	0.133	-0.196
-614.288	-200.000	0.027	-0.242
-613.273	-141.863	0.171	-0.017
-612.259	-140.345	-0.303	-0.032
-611.244	5.811	-0.023	0.017
-610.230	-77.260	0.201	-0.070
-609.215	-200.000	-0.042	-0.203
-608.201	-104.281	-0.325	-0.075
-607.186	-168.919	-0.156	0.006
-606.171	129.439	0.021	0.027
-605.157	41.537	-0.188	0.170
-604.142	754.924	0.088	-0.239
-603.128	-8.044	0.156	-0.105
-602.113	-200.000	-0.013	-0.212
-601.098	-47.041	0.113	-0.055
-600.084	-200.000	-0.055	-0.343
-599.069	387.199	-0.187	0.385
-598.055	195.850	-0.237	0.361
-597.040	-134.700	-0.287	-0.035
-596.025	7.939	-0.176	-0.132
-595.011	25.029	0.097	-0.080
-593.996	249.376	0.044	0.075
-592.982	-8.856	-0.140	0.094
-591.967	-200.000	-0.005	0.059
-590.952	-97.557	0.077	-0.020
-589.938	-105.974	-0.191	-0.043
-588.923	-57.528	-0.206	-0.090
-587.909	-200.000	-0.014	-0.172
-586.894	55.772	0.191	-0.185
-585.879	90.261	0.172	0.192
-584.865	800.000	0.098	0.283
-583.850	-91.953	0.030	0.009
-582.836	-34.070	-0.396	-0.217
-581.821	800.000	-0.009	0.026
-580.806	190.663	0.115	-0.172
-579.792	251.364	-0.165	-0.281
-578.777	278.234	0.051	0.091
-577.763	-33.869	0.096	0.053
-576.748	36.402	0.071	-0.062
-575.733	-145.314	-0.377	-0.034
-574.719	198.970	0.161	-0.246
-573.704	104.489	-0.282	-0.332
-572.690	212.852	0.041	0.065
-571.675	-99.391	0.406	-0.102
-570.661	-87.657	-0.202	-0.061
-569.646	-164.162	0.417	0.019
-568.631	337.166	0.049	0.096
-567.617	129.099	-0.183	-0.233
-566.602	430.984	0.112	-0.242
-565.588	61.589	-0.172	0.171
-564.573	-77.969	0.161	-0.055
-563.558	740.986	-0.004	-0.011
-562.544	-102.561	-0.048	0.011
-561.529	-95.249	-0.162	0.044
-560.515	-200.000	0.004	-0.072
-559.500	12.687	0.080	0.062
-558.485	-39.396	-0.026	-0.014
-557.471	190.989	-0.098	-0.147
-556.456	57.389	-0.118	-0.115
-555.442	80.676	0.335	-0.360
-554.427	119.367	0.094	0.116
-553.412	596.479	-0.039	-0.095
-552.398	278.502	-0.245	-0.436
-551.383	-15.785	0.241	0.153
-550.369	1.184	-0.082	0.059
-549.354	-121.775	-0.113	0.019
-548.339	-200.000	-0.060	-0.000
-547.325	-63.482	0.162	-0.066
-546.310	800.000	0.022	-0.089
-545.296	-200.000	-0.041	0.281
-544.281	87.625	0.287	0.317
-543.266	-56.036	-0.255	-0.113
-542.252	82.081	0.092	-0.099
-541.237	800.000	-0.038	-0.128
-540.223	-200.000	-0.025	0.110
-539.208	101.469	-0.087	0.101
-538.193	129.904	-0.101	-0.129
-537.179	800.000	-0.024	0.088
-536.164	70.622	0.156	-0.161
-535.150	-136.104	-0.296	0.035
-534.135	620.960	-0.075	0.187
-533.121	-92.057	0.189	-0.053
-532.106	-93.385	0.364	-0.100
-531.091	-67.143	-0.194	-0.076
-530.077	-200.000	-0.015	0.161
-529.062	82.991	-0.196	0.212
-528.048	800.000	0.107	0.420
-527.033	-200.000	0.062	0.475
-526.018	67.827	-0.208	-0.212
-525.004	-166.915	0.209	0.009
-523.989	70.136	-0.142	0.146
-522.975	-132.427	-0.288	0.037
-521.960	-23.879	0.291	-0.174
-520.945	-163.475	-0.296	-0.014
-519.931	-171.680	-0.210	0.007
-518.916	-49.818	-0.236	0.112
-517.902	-75.784	0.344	0.122
-516.887	8.684	-0.140	-0.105
-515.872	324.399	0.145	0.276
-514.858	357.778	0.113	-0.224
-513.843	-61.879	0.250	-0.104
-512.829	-93.786	-0.068	-0.019
-511.814	112.793	-0.278	0.336
-510.799	-94.554	0.283	0.077
-509.785	-9.486	0.072	0.048
-508.770	800.000	0.048	-0.176
-507.756	80.941	-0.144	-0.155
-506.741	621.751	-0.073	0.183
-505.726	9.389	0.066	0.050
-504.712	130.882	0.076	-0.097
-503.697	-40.421	0.225	0.116
-502.683	53.585	0.103	0.099
-501.668	-81.623	-0.152	-0.050
-500.653	15.025	-0.080	-0.062
-499.639	656.138	0.061	0.157
-498.624	294.094	-0.014	0.025
-497.610	-107.845	-0.328	0.071
-496.595	800.000	-0.065	-0.280
-495.581	293.637	-0.224	-0.406
-494.566	-165.624	0.297	0.013
-493.551	-200.000	0.004	-0.216
-492.537	174.575	0.156	-0.224
-491.522	-200.000	0.001	-0.119
-490.508	-31.128	-0.096	-0.054
-489.493	-27.620	-0.348	-0.201
-488.478	-200.000	0.005	0.064
-487.464	-169.702	-0.196	0.007
-486.449	5.322	-0.265	0.194
-485.435	-158.051	-0.247	0.014
-484.420	-21.610	0.184	-0.112
-483.405	800.000	0.090	-0.265
-482.391	75.512	-0.173	-0.182
-481.376	-54.241	-0.240	-0.108
-480.362	-47.154	0.144	-0.070
-479.347	-78.777	0.157	-0.053
-478.332	-20.613	-0.315	0.193
-477.318	11.393	0.083	-0.064
-476.303	2.309	0.078	0.056
-475.289	709.569	-0.070	-0.184
-474.274	-200.000	0.092	0.501
-473.259	-200.000	-0.019	-0.294
-472.245	-41.978	0.252	-0.128
-471.230	59.691	-0.114	-0.112
-470.216	-58.095	0.176	0.076
-469.201	-89.060	0.155	-0.046
-468.186	142.302	0.082	-0.109
-467.172	20.238	-0.256	0.206
-466.157	-122.394	0.121	-0.020
-465.143	66.203	0.236	0.239
-464.128	-200.000	-0.001	-0.091
-463.113	-41.137	0.184	0.094
-462.099	473.540	0.066	0.148
-461.084	-156.449	0.056	0.003
-460.070	-54.409	0.233	-0.105
-459.055	-176.818	-0.109	0.003
-458.040	399.158	0.015	0.031
-457.026	-61.146	0.241	-0.101
-456.011	512.925	0.067	-0.155
-454.997	-116.552	0.248	-0.045
-453.982	-58.724	0.314	0.135
-452.968	-79.515	-0.178	0.060
-451.953	-200.000	-0.019	0.086
-450.938	-104.338	-0.329	0.076
-449.924	232.955	0.060	-0.098
-448.909	110.626	0.142	0.169
-447.895	77.261	0.184	0.194
-446.880	-18.990	0.185	0.114
-445.865	37.193	0.136	-0.120
-444.851	-97.098	0.104	-0.027
-443.836	-122.979	-0.477	-0.076
-442.822	800.000	0.038	0.105
-441.807	800.000	0.076	-0.221
-440.792	-200.000	-0.022	-0.203
-439.778	51.557	-0.242	-0.228
-438.763	-6.996	-0.062	-0.042
-437.749	-59.346	0.110	-0.047
-436.734	-105.310	-0.784	-0.177
-435.719	57.557	-0.251	0.243
-434.705	-31.892	-0.250	-0.139
-433.690	102.648	0.187	-0.217
-432.676	432.796	0.076	-0.163
-431.661	800.000	-0.025	0.083
-430.646	-78.468	0.278	-0.095
-429.632	-164.816	-0.051	-0.002
-428.617	-93.294	-0.204	0.056
-427.603	258.206	0.186	-0.318
-426.588	-114.540	-0.327	0.062
-425.573	800.000	0.047	0.147
-424.559	-69.394	-0.103	0.039
-423.544	800.000	-0.046	0.134
-422.530	75.716	-0.266	0.279
-421.515	800.000	0.031	0.121
-420.500	-63.977	0.199	-0.081
-419.486	-6.246	-0.168	0.114
-418.471	551.844	-0.065	0.156
-417.457	-80.564	0.103	-0.034
-416.442	-95.508	-0.202	0.054
-415.428	-54.335	0.275	0.124
-414.413	233.147	-0.253	-0.414
-413.398	20.425	0.148	0.119
-412.384	90.776	0.077	0.086
-411.369	294.971	-0.057	-0.104
-410.355	26.907	-0.047	0.039
-409.340	-98.500	-0.072	0.018
-408.325	-62.850	-0.265	0.109
-407.311	68.432	-0.186	0.189
-406.296	254.258	0.016	0.026
-405.282	-200.000	-0.044	0.343
-404.267	-39.142	0.324	-0.169
-403.252	-200.000	-0.060	0.309
-402.238	800.000	0.048	0.171
-401.223	180.198	0.195	0.284
-400.209	-83.717	-0.295	0.094
-399.194	800.000	0.106	-0.380
-398.179	272.449	-0.149	-0.261
-397.165	-146.549	-0.097	-0.008
-396.150	-85.150	-0.277	-0.086
-395.136	-200.000	-0.008	0.366
-394.121	-13.430	0.303	-0.195
-393.106	327.711	-0.096	-0.183
-392.092	-151.150	-0.164	-0.012
-391.077	14.078	-0.268	-0.207
-390.063	-200.000	0.043	-0.190
-389.048	303.766	0.083	0.153
-388.033	-200.000	0.033	0.242
-387.019	130.072	-0.031	0.039
-386.004	744.074	-0.102	0.273
-384.990	-38.959	-0.126	-0.066
-383.975	477.687	-0.093	-0.209
-382.960	800.000	-0.149	0.492
-381.946	138.138	0.283	-0.368
-380.931	-138.755	0.135	0.015
-379.917	38.853	0.321	-0.284
-378.902	195.766	-0.090	-0.136
-377.888	-86.371	-0.348	0.106
-376.873	-96.870	-0.249	-0.065
-375.858	507.486	-0.076	-0.174
-374.844	800.000	0.071	0.197
-373.829	271.521	-0.125	0.219
-372.815	237.284	0.156	-0.256
-371.800	-131.276	-0.256	0.034
-370.785	-84.553	0.491	-0.154
-369.771	213.035	-0.181	0.283
-368.756	269.211	0.150	-0.261
-367.742	-200.000	0.013	-0.418
-366.727	-75.311	-0.431	-0.152
-365.712	52.925	0.222	0.211
-364.698	-200.000	-0.002	0.183
-363.683	-131.609	-0.243	0.032
-362.669	-52.857	0.278	-0.127
-361.654	-200.000	0.011	-0.100
-360.639	800.000	0.154	-0.424
-359.625	436.702	-0.108	0.232
-358.610	-6.085	-0.158	-0.107
-357.596	-15.383	0.202	-0.128
-356.581	150.625	0.109	0.147
-355.566	-55.160	0.238	-0.106
-354.552	261.510	-0.040	0.069
-353.537	800.000	0.071	-0.257
-352.523	-153.063	0.261	-0.018
-351.508	-200.000	0.048	-0.255
-350.493	76.480	0.126	-0.132
-349.479	-61.924	0.298	0.123
-348.464	-76.676	0.103	-0.036
-347.450	-46.112	0.090	0.044
-346.435	105.008	-0.096	-0.113
-345.420	115.959	0.194	0.236
-344.406	800.000	0.115	0.381
-343.391	115.609	0.369	0.446
-342.377	800.000	0.057	0.215
-341.362	147.541	-0.081	0.108
-340.348	-147.725	0.310	-0.026
-339.333	42.466	0.289	0.260
-338.318	443.648	-0.218	0.472
-337.304	541.726	0.148	0.349
-336.289	-49.382	-0.282	-0.133
-335.275	-107.174	-0.321	-0.070
-334.260	-39.909	0.172	-0.089
-333.245	670.032	0.053	0.136
-332.231	-55.192	0.028	-0.013
-331.216	-200.000	0.013	0.089
-330.202	367.002	-0.045	0.089
-329.187	-136.899	-0.193	-0.022
-328.172	303.111	-0.069	0.126
-327.158	30.091	0.088	-0.074
-326.143	379.155	-0.110	-0.223
-325.129	212.202	0.089	0.138
-324.114	-45.593	0.052	0.025
-323.099	193.297	0.140	0.209
-322.085	155.612	-0.119	-0.162
-321.070	171.129	0.328	0.465
-320.056	-39.509	0.259	-0.134
-319.041	-200.000	0.031	0.148
-318.026	-189.898	0.168	0.002
-317.012	-200.000	0.025	0.190
-315.997	11.366	0.096	0.073
-314.983	-178.903	0.169	-0.004
-313.968	107.621	0.142	-0.168
-312.953	82.643	0.228	0.245
-311.939	-200.000	0.006	-0.168
-310.924	-107.965	0.262	0.056
-309.910	249.180	0.060	-0.100
-308.895	-200.000	-0.012	0.053
-307.880	-200.000	-0.004	0.235
-306.866	430.516	0.164	0.351
-305.851	-200.000	-0.002	0.020
-304.837	-200.000	-0.021	0.123
-303.822	160.133	0.226	-0.311
-302.807	-51.980	0.452	0.207
-301.793	-113.599	-0.283	0.055
-300.778	446.852	-0.118	0.257
-299.764	-67.160	-0.074	-0.029
-298.749	119.682	-0.130	-0.159
-297.735	800.000	0.085	0.238
-296.720	-78.131	-0.233	-0.079
-295.705	99.444	-0.042	0.048
-294.691	116.903	-0.115	0.140
-293.676	800.000	0.033	0.091
-292.662	-41.662	0.119	-0.060
-291.647	-170.652	-0.166	-0.006
-290.632	-97.312	0.109	0.028
-289.618	-128.868	0.419	0.058
-288.603	31.330	-0.356	-0.302
-287.589	30.606	0.156	0.131
-286.574	-200.000	0.028	-0.314
-285.559	800.000	0.008	-0.031
-284.545	-131.046	0.016	0.002
-283.530	-26.642	-0.193	-0.111
-282.516	800.000	0.044	-0.136
-281.501	-56.237	-0.448	-0.197
-280.486	20.584	-0.194	0.155
-279.472	800.000	0.105	0.347
-278.457	-200.000	0.022	-0.438
-277.443	-26.064	-0.273	-0.158
-276.428	209.853	-0.103	0.159
-275.413	293.975	0.178	0.321
-274.399	-200.000	-0.001	-0.099
-273.384	-13.907	0.180	-0.115
-272.370	-54.210	-0.409	0.183
-271.355	26.336	-0.201	0.166
-270.340	-37.790	0.179	-0.094
-269.326	-122.354	0.167	-0.027
-268.311	23.589	-0.077	-0.062
-267.297	-1.494	-0.194	-0.135
-266.282	-156.735	0.116	0.007
-265.267	-119.750	0.303	0.052
-264.253	-133.134	0.082	-0.010
-263.238	-93.902	0.382	0.104
-262.224	-200.000	-0.006	-0.053
-261.209	-127.742	-0.044	0.006
-260.195	8.928	0.043	-0.032
-259.180	-200.000	0.004	0.137
-258.165	-22.203	-0.220	0.132
-257.151	11.391	0.323	0.244
-256.136	-114.094	0.233	0.044
-255.122	321.605	0.069	0.130
-254.107	13.526	0.078	0.060
-253.092	-46.937	0.392	-0.189
-252.078	12.990	-0.141	0.107
-251.063	205.558	-0.148	-0.227
-250.049	152.513	0.066	0.088
-249.034	-177.208	0.093	-0.002
-248.019	-200.000	0.041	-0.183
-247.005	-132.486	-0.260	-0.033
-245.990	-200.000	0.058	0.328
-244.976	800.000	0.089	0.332
-243.961	248.653	-0.235	0.392
-242.946	-200.000	0.032	0.215
-241.932	10.197	-0.119	0.089
-240.917	606.180	0.105	-0.257
-239.903	-56.744	0.297	-0.130
-238.888	-200.000	0.005	0.077
-237.873	-8.536	0.162	-0.107
-236.859	645.976	-0.031	-0.077
-235.844	139.529	-0.216	-0.280
-234.830	800.000	0.078	0.226
-233.815	171.621	-0.123	-0.174
-232.800	-147.043	-0.166	0.014
-231.786	53.040	-0.170	0.160
-230.771	-135.665	0.070	-0.008
-229.757	720.481	0.214	0.562
-228.742	-200.000	0.029	0.184
-227.727	-140.233	-0.149	0.015
-226.713	-23.471	-0.045	0.027
-225.698	287.834	-0.056	0.100
-224.684	119.385	-0.149	-0.181
-223.669	800.000	-0.053	-0.143
-222.655	-200.000	0.086	-0.511
-221.640	-200.000	-0.029	-0.400
-220.625	-70.159	-0.064	0.024
-219.611	223.347	-0.051	-0.081
-218.596	800.000	-0.094	-0.310
-217.582	800.000	0.118	-0.499
-216.567	602.013	-0.040	-0.097
-215.552	-200.000	-0.008	-0.246
-214.538	296.921	-0.105	0.190
-213.523	109.966	0.054	-0.064
-212.509	-24.379	0.038	0.022
-211.494	476.896	0.167	-0.371
-210.479	-200.000	-0.001	0.251
-209.465	800.000	-0.041	0.138
-208.450	231.376	0.079	0.127
-207.436	236.583	0.123	0.200
-206.421	31.010	-0.076	-0.064
-205.406	-170.607	-0.246	0.008
-204.392	-55.551	-0.345	-0.152
-203.377	361.524	-0.211	-0.417
-202.363	-63.658	0.190	-0.077
-201.348	-91.335	0.329	-0.092
-200.333	18.031	0.026	-0.021
-199.319	-15.413	-0.132	0.083
-198.304	-200.000	-0.034	-0.210
-197.290	-115.692	0.193	0.036
-196.275	800.000	0.115	0.435
-195.260	800.000	0.036	-0.137
-194.246	-200.000	-0.093	-0.497
-193.231	293.544	0.170	0.305
-192.217	-106.616	-0.273	0.060
-191.202	781.064	0.175	0.472
-190.187	-77.894	-0.222	0.075
-189.173	-200.000	0.317	-0.001
-188.158	-70.314	0.320	0.119
-187.144	280.497	0.098	-0.173
-186.129	541.971	-0.191	-0.449
-185.114	-19.667	0.136	0.083
-184.100	341.366	-0.120	0.230
-183.085	148.953	-0.172	-0.229
-182.071	-42.939	-0.370	0.185
-181.056	-84.257	0.441	0.137
-180.042	3.605	0.325	-0.233
-179.027	-183.782	-0.137	-0.002
-178.012	-16.723	0.248	0.154
-176.998	-128.615	-0.182	-0.025
-175.983	800.000	-0.045	-0.175
-174.969	174.670	0.085	0.120
-173.954	-98.964	-0.208	-0.052
-172.939	124.193	0.241	0.298
-171.925	800.000	-0.044	-0.123
-170.910	-100.524	-0.235	0.057
-169.896	187.043	0.127	0.186
-168.881	-200.000	0.046	-0.238
-167.866	-58.178	-0.211	-0.091
-166.852	-5.259	0.100	-0.068
-165.837	800.000	-0.024	0.084
-164.823	-168.191	0.072	-0.003
-163.808	-200.000	-0.085	-0.434
-162.793	105.157	-0.352	0.409
-161.779	-182.359	-0.198	-0.004
-160.764	12.658	-0.016	-0.012
-159.750	-193.716	0.172	0.001
-158.735	-69.694	-0.251	-0.094
-157.720	133.827	-0.064	-0.081
-156.706	-200.000	-0.019	-0.112
-155.691	36.520	-0.083	-0.072
-154.677	25.037	-0.310	0.252
-153.662	360.603	0.039	0.077
-152.647	-200.000	0.061	0.307
-151.633	-44.381	0.277	0.136
-150.618	-200.000	0.000	-0.154
-149.604	800.000	0.061	-0.260
-148.589	-139.678	-0.585	0.061
-147.574	242.469	0.037	0.061
-146.560	800.000	-0.031	0.117
-145.545	64.723	-0.207	-0.205
-144.531	-62.988	0.128	0.052
-143.516	152.677	0.045	-0.060
-142.502	111.087	-0.178	0.210
-141.487	-6.731	-0.225	0.150
-140.472	551.547	0.077	0.182
-139.458	-54.719	0.343	-0.152
-138.443	-200.000	0.005	0.237
-137.429	800.000	0.100	0.327
-136.414	-200.000	-0.035	-0.340
-135.399	-200.000	-0.008	0.108
-134.385	-81.824	-0.227	0.073
-133.370	-200.000	0.010	-0.086
-132.356	-200.000	-0.001	0.193
-131.341	-7.183	-0.178	-0.118
-130.326	-129.340	0.247	-0.034
-129.312	-109.105	0.155	-0.032
-128.297	-126.167	-0.143	0.021
-127.283	1.328	-0.040	-0.028
-126.268	372.431	-0.116	-0.231
-125.253	-200.000	-0.010	-0.097
-124.239	-52.798	-0.066	0.030
-123.224	-200.000	0.001	0.282
-122.210	106.210	0.114	0.132
-121.195	-19.161	0.255	0.155
