DTS Sentinel unit serial number:	SN413079Multiplexer serial number:	ORYXHardware model number:	OX4-SRSoftware version number:	ORYX F/W v4.00 Oryx Data Collector v3.7.2.0data status	okinstallation	princeton_trtdifferential loss correction	single-endedforward channel	channel 3reverse channel	N/Adate	2019/09/14time	03:20:34forward acquisition time	60.00reverse acquisition time	0.00gamma	496.2192k internal	0.2339k external	0.2339temperature offset calibration	1.0052default loss term (dB/km)	0.3790temperature slope calibration	1.0000multiplexer offset coefficient	1.0000multiplexer slope coefficient	1.0000fibre end	0.00T internal ref (°C)	26.62T ext. ref 1 (°C)	3.27T ext. ref 2 (°C)	21.63length (m)	temperature (°C)	Stokes	anti-Stokes-747.200	339.004	0.067	-0.131
-746.185	72.644	-0.349	0.365
-745.171	280.720	0.083	0.148
-744.156	8.186	-0.075	-0.057
-743.142	-200.000	-0.079	-0.384
-742.127	-0.043	-0.125	-0.089
-741.112	-200.000	0.010	0.077
-740.098	800.000	-0.089	0.325
-739.083	-136.037	0.280	-0.033
-738.069	32.615	0.196	0.170
-737.054	-200.000	-0.037	-0.223
-736.039	471.197	-0.140	-0.317
-735.025	-6.456	0.154	0.105
-734.010	124.672	-0.071	0.089
-732.996	-82.648	0.063	-0.020
-731.981	-56.758	0.116	0.051
-730.966	-4.181	-0.095	0.066
-729.952	-161.313	-0.292	0.015
-728.937	262.517	0.096	-0.168
-727.923	470.319	-0.120	-0.271
-726.908	-200.000	0.008	-0.156
-725.894	35.343	0.277	-0.244
-724.879	-47.985	0.086	0.042
-723.864	800.000	0.075	-0.317
-722.850	-200.000	0.012	-0.112
-721.835	112.341	-0.045	-0.055
-720.821	-84.245	0.087	-0.028
-719.806	-131.666	0.162	-0.021
-718.791	11.856	-0.266	-0.205
-717.777	800.000	-0.024	-0.090
-716.762	-94.170	-0.098	0.027
-715.748	-146.673	0.446	0.039
-714.733	-200.000	-0.056	-0.303
-713.718	-200.000	0.028	0.190
-712.704	-10.268	0.161	-0.107
-711.689	374.037	-0.049	-0.100
-710.675	-200.000	0.017	0.145
-709.660	-38.763	-0.208	0.110
-708.645	52.028	-0.112	-0.107
-707.631	-200.000	-0.035	-0.434
-706.616	-104.385	0.272	0.063
-705.602	-176.186	-0.018	0.000
-704.587	-117.855	0.140	-0.025
-703.572	-152.995	0.212	-0.015
-702.558	65.374	-0.164	-0.166
-701.543	-200.000	0.012	-0.380
-700.529	381.117	0.082	0.167
-699.514	-131.438	0.070	0.009
-698.499	350.832	-0.061	-0.120
-697.485	800.000	-0.037	0.156
-696.470	-132.463	0.127	-0.016
-695.456	34.834	0.025	-0.022
-694.441	-200.000	0.042	0.212
-693.426	-17.545	0.329	0.207
-692.412	216.395	0.215	0.342
-691.397	800.000	0.049	-0.150
-690.383	-143.164	0.318	0.031
-689.368	-200.000	-0.020	-0.273
-688.354	-200.000	0.035	0.230
-687.339	-107.755	-0.156	0.034
-686.324	-66.342	0.197	-0.079
-685.310	-89.900	-0.196	0.057
-684.295	-47.467	0.275	-0.134
-683.281	-69.579	0.206	0.079
-682.266	-156.307	-0.325	0.020
-681.251	48.939	-0.105	-0.099
-680.237	24.513	-0.291	0.240
-679.222	-200.000	-0.014	0.218
-678.208	-166.195	0.387	-0.016
-677.193	-200.000	0.012	0.191
-676.178	-200.000	0.010	0.069
-675.164	591.033	0.185	-0.457
-674.149	-132.688	0.204	-0.026
-673.135	23.868	0.244	-0.201
-672.120	-200.000	0.012	0.109
-671.105	95.791	-0.152	0.174
-670.091	-70.278	-0.360	0.137
-669.076	800.000	-0.071	0.249
-668.062	66.324	0.037	-0.037
-667.047	-200.000	0.036	-0.241
-666.032	800.000	0.084	-0.324
-665.018	800.000	-0.057	0.163
-664.003	-135.175	0.103	0.012
-662.989	-171.262	0.433	0.015
-661.974	153.204	-0.192	0.263
-660.959	-53.007	0.268	0.123
-659.945	-90.065	-0.436	0.127
-658.930	164.302	-0.038	-0.054
-657.916	-62.517	0.300	0.124
-656.901	61.037	0.202	0.200
-655.886	-157.300	0.262	-0.016
-654.872	66.357	0.250	-0.254
-653.857	-72.930	0.049	-0.018
-652.843	19.812	-0.127	0.102
-651.828	-26.053	0.300	-0.176
-650.814	4.732	-0.160	-0.118
-649.799	438.599	0.135	0.294
-648.784	800.000	-0.038	0.150
-647.770	500.028	0.070	0.162
-646.755	-75.223	-0.244	-0.087
-645.741	-150.682	0.106	-0.008
-644.726	195.582	0.187	-0.284
-643.711	800.000	0.096	0.334
-642.697	9.504	-0.302	0.228
-641.682	96.806	0.201	0.230
-640.668	-108.205	-0.237	-0.051
-639.653	342.655	0.128	0.251
-638.638	-28.718	-0.209	0.120
-637.624	69.356	0.064	-0.065
-636.609	-171.341	-0.120	0.004
-635.595	-60.683	0.282	-0.119
-634.580	-92.556	-0.103	-0.029
-633.565	800.000	-0.025	0.091
-632.551	-122.036	-0.233	0.038
-631.536	-96.762	0.099	-0.026
-630.522	243.047	-0.076	-0.127
-629.507	-63.642	0.312	-0.128
-628.492	-159.227	-0.359	-0.020
-627.478	-200.000	-0.028	0.122
-626.463	-200.000	-0.013	0.172
-625.449	465.298	0.052	-0.116
-624.434	-76.976	-0.063	-0.022
-623.419	-200.000	-0.034	-0.396
-622.405	-173.301	-0.312	-0.009
-621.390	23.331	-0.130	-0.107
-620.376	36.424	0.155	0.136
-619.361	-200.000	0.045	-0.205
-618.346	-200.000	0.049	0.300
-617.332	-200.000	0.041	-0.333
-616.317	-54.698	0.365	-0.165
-615.303	800.000	-0.038	-0.117
-614.288	61.033	-0.090	0.089
-613.273	-200.000	-0.035	0.161
-612.259	-138.646	0.164	0.018
-611.244	67.965	0.092	0.094
-610.230	-55.991	-0.216	0.096
-609.215	-105.016	0.213	-0.049
-608.201	437.339	0.123	0.267
-607.186	-70.042	0.224	-0.085
-606.171	800.000	-0.008	-0.025
-605.157	-3.731	-0.408	-0.283
-604.142	-176.840	0.171	0.004
-603.128	-63.113	0.373	-0.153
-602.113	-171.626	0.194	0.006
-601.098	736.227	-0.048	0.129
-600.084	15.683	-0.091	0.072
-599.069	-157.515	-0.224	0.013
-598.055	5.822	0.436	0.322
-597.040	-60.909	-0.259	-0.109
-596.025	-44.027	0.025	0.013
-595.011	800.000	0.056	0.185
-593.996	65.386	-0.288	-0.291
-592.982	10.579	-0.125	-0.095
-591.967	-170.581	0.141	-0.005
-590.952	22.308	0.226	0.184
-589.938	294.016	-0.112	0.203
-588.923	-93.760	0.220	0.061
-587.909	-97.416	0.049	-0.013
-586.894	-200.000	-0.043	0.199
-585.879	-200.000	0.002	-0.176
-584.865	800.000	0.067	-0.220
-583.850	-87.980	0.282	0.085
-582.836	-104.873	-0.269	0.061
-581.821	-200.000	-0.070	-0.367
-580.806	-60.744	-0.096	0.040
-579.792	747.664	0.055	-0.148
-578.777	357.461	-0.096	-0.191
-577.763	-17.442	-0.261	0.164
-576.748	-48.578	-0.082	-0.039
-575.733	509.161	0.087	0.202
-574.719	-41.982	0.197	0.101
-573.704	125.407	-0.204	-0.256
-572.690	452.010	-0.062	0.137
-571.675	-133.728	-0.237	0.029
-570.661	800.000	-0.031	0.093
-569.646	-200.000	-0.015	-0.114
-568.631	-200.000	0.020	-0.109
-567.617	357.540	-0.149	-0.296
-566.602	280.429	-0.088	0.157
-565.588	-123.381	0.034	-0.005
-564.573	-113.023	0.285	-0.056
-563.558	-200.000	-0.003	-0.105
-562.544	-41.032	-0.230	-0.118
-561.529	142.483	-0.170	-0.224
-560.515	308.933	-0.057	-0.107
-559.500	89.412	0.174	-0.193
-558.485	-97.752	0.165	0.042
-557.471	-143.386	-0.268	0.026
-556.456	-200.000	0.002	0.062
-555.442	561.747	-0.127	0.306
-554.427	-29.363	-0.412	-0.235
-553.412	-53.865	0.260	0.118
-552.398	-200.000	-0.015	0.193
-551.383	-97.439	0.439	-0.114
-550.369	-142.162	-0.364	-0.036
-549.354	-200.000	-0.022	0.098
-548.339	-200.000	-0.011	-0.059
-547.325	67.124	-0.115	0.117
-546.310	-42.424	-0.194	-0.099
-545.296	-126.430	-0.188	-0.028
-544.281	26.970	0.041	-0.034
-543.266	-32.529	0.356	0.197
-542.252	95.380	0.128	-0.145
-541.237	-78.394	-0.207	-0.071
-540.223	-75.938	-0.565	-0.199
-539.208	-87.978	0.426	-0.127
-538.193	436.833	0.079	0.171
-537.179	592.502	0.105	0.257
-536.164	29.519	-0.124	0.105
-535.150	15.058	-0.197	-0.153
-534.135	637.488	0.086	0.216
-533.121	-200.000	-0.006	0.201
-532.106	141.467	-0.193	0.255
-531.091	-145.336	0.349	0.031
-530.077	-120.793	-0.096	0.016
-529.062	-87.232	0.105	-0.032
-528.048	-46.130	-0.152	-0.075
-527.033	-61.098	0.062	0.026
-526.018	31.349	0.040	0.034
-525.004	10.365	0.095	0.072
-523.989	623.075	0.113	0.284
-522.975	-118.689	-0.245	0.043
-521.960	-200.000	0.035	-0.339
-520.945	270.908	-0.100	-0.175
-519.931	-154.687	-0.080	-0.005
-518.916	800.000	0.036	-0.151
-517.902	-141.328	-0.202	-0.020
-516.887	-200.000	-0.009	0.181
-515.872	800.000	0.022	0.068
-514.858	-200.000	-0.046	-0.365
-513.843	32.957	0.180	-0.155
-512.829	-161.769	0.314	0.016
-511.814	-37.390	-0.306	0.162
-510.799	800.000	0.053	-0.173
-509.785	213.365	-0.265	0.417
-508.770	180.235	-0.130	0.189
-507.756	-122.465	0.159	0.026
-506.741	-181.239	0.345	-0.007
-505.726	14.003	0.069	-0.053
-504.712	277.955	-0.034	0.060
-503.697	-92.071	0.202	0.057
-502.683	-200.000	0.014	0.140
-501.668	43.247	-0.231	-0.209
-500.653	800.000	0.042	-0.122
-499.639	-169.420	-0.177	0.006
-498.624	-32.687	-0.195	0.108
-497.610	-125.933	-0.217	-0.032
-496.595	-200.000	0.024	0.282
-495.581	-125.626	0.148	-0.022
-494.566	-32.039	0.082	-0.046
-493.551	-136.776	0.294	-0.034
-492.537	338.215	0.068	0.131
-491.522	463.131	-0.112	-0.248
-490.508	-200.000	0.003	-0.051
-489.493	-200.000	0.014	-0.389
-488.478	-200.000	-0.020	-0.226
-487.464	40.181	-0.062	0.055
-486.449	-144.825	0.163	-0.015
-485.435	-101.877	-0.074	-0.018
-484.420	800.000	0.081	-0.294
-483.405	-11.674	-0.338	0.221
-482.391	-99.257	-0.359	0.090
-481.376	513.485	0.046	0.106
-480.362	800.000	0.038	0.130
-479.347	-122.101	0.060	-0.010
-478.332	41.521	-0.140	0.126
-477.318	13.764	0.200	-0.155
-476.303	-200.000	-0.031	0.151
-475.289	-200.000	0.039	0.217
-474.274	800.000	-0.079	-0.247
-473.259	-83.309	0.416	-0.133
-472.245	-42.942	-0.230	0.116
-471.230	310.538	0.117	0.217
-470.216	201.703	0.040	-0.062
-469.201	-200.000	-0.010	0.220
-468.186	178.258	-0.186	-0.269
-467.172	759.365	0.069	0.185
-466.157	-144.859	0.401	-0.036
-465.143	-43.126	-0.079	-0.040
-464.128	-76.748	0.163	-0.057
-463.113	133.417	-0.168	-0.215
-462.099	-178.430	0.243	-0.006
-461.084	215.545	0.101	0.158
-460.070	270.009	0.218	-0.380
-459.055	-98.074	-0.240	0.061
-458.040	-38.539	-0.173	0.091
-457.026	81.333	-0.251	-0.269
-456.011	-133.536	-0.353	0.044
-454.997	155.598	0.032	0.043
-453.982	-73.916	-0.060	0.022
-452.968	568.706	-0.112	-0.270
-451.953	191.228	-0.089	-0.133
-450.938	-200.000	-0.035	0.152
-449.924	-61.823	-0.091	-0.038
-448.909	0.592	-0.283	-0.201
-447.895	228.876	0.213	-0.344
-446.880	113.221	0.161	0.194
-445.865	-11.537	0.385	0.251
-444.851	-103.600	-0.176	-0.041
-443.836	-25.251	0.084	-0.050
-442.822	800.000	-0.073	0.264
-441.807	800.000	0.006	-0.019
-440.792	-200.000	-0.037	0.338
-439.778	-158.247	0.311	0.018
-438.763	-3.609	0.202	0.139
-437.749	-76.318	-0.175	-0.061
-436.734	800.000	-0.098	0.310
-435.719	-200.000	-0.024	0.141
-434.705	4.416	-0.206	0.150
-433.690	-200.000	-0.005	0.328
-432.676	-56.728	-0.249	-0.109
-431.661	-36.042	0.234	-0.125
-430.646	-200.000	0.028	-0.268
-429.632	74.166	-0.190	0.197
-428.617	-25.327	-0.069	0.041
-427.603	-200.000	-0.015	0.118
-426.588	-73.538	-0.299	-0.108
-425.573	-152.047	-0.170	-0.012
-424.559	-63.909	0.211	0.085
-423.544	-182.325	-0.096	-0.002
-422.530	-114.507	-0.085	-0.016
-421.515	241.671	-0.100	0.165
-420.500	175.721	0.022	0.032
-419.486	-50.070	-0.289	-0.136
-418.471	-114.967	0.197	0.037
-417.457	250.436	0.038	0.064
-416.442	8.057	0.164	0.122
-415.428	-62.051	-0.242	0.100
-414.413	-112.090	-0.253	0.050
-413.398	800.000	0.010	0.043
-412.384	-200.000	0.008	-0.346
-411.369	-200.000	-0.003	-0.108
-410.355	-200.000	0.047	-0.423
-409.340	-75.498	0.283	0.100
-408.325	138.881	-0.117	-0.152
-407.311	104.795	-0.100	-0.116
-406.296	71.909	0.060	-0.062
-405.282	-65.452	0.124	-0.049
-404.267	-79.185	-0.324	0.109
-403.252	62.490	-0.210	-0.207
-402.238	166.980	-0.146	-0.205
-401.223	-101.317	-0.268	-0.065
-400.209	-86.342	0.236	-0.072
-399.194	224.056	-0.117	-0.187
-398.179	165.407	0.139	-0.195
-397.165	49.122	-0.054	0.051
-396.150	720.093	-0.057	-0.149
-395.136	-200.000	0.103	0.448
-394.121	-88.123	-0.265	-0.079
-393.106	-102.371	-0.143	-0.034
-392.092	-200.000	-0.043	-0.441
-391.077	476.125	-0.102	0.227
-390.063	-152.183	0.312	-0.022
-389.048	-110.233	0.104	-0.021
-388.033	53.633	-0.073	0.069
-387.019	-53.324	-0.097	0.044
-386.004	-200.000	0.064	-0.588
-384.990	-54.519	0.511	0.229
-383.975	-65.339	0.154	0.061
-382.960	49.547	0.133	0.124
-381.946	5.723	0.112	0.082
-380.931	-113.541	-0.118	0.023
-379.917	-98.940	-0.206	0.052
-378.902	126.596	-0.204	-0.256
-377.888	235.023	0.039	-0.064
-376.873	1.410	0.071	0.051
-375.858	-86.873	-0.103	0.031
-374.844	800.000	0.089	0.285
-373.829	-112.720	-0.554	0.109
-372.815	131.074	-0.077	-0.098
-371.800	89.145	-0.149	-0.164
-370.785	-76.678	0.134	0.046
-369.771	-53.974	0.107	0.048
-368.756	-200.000	0.016	-0.305
-367.742	-74.716	0.095	-0.034
-366.727	-95.436	0.211	-0.056
-365.712	-12.241	-0.061	-0.039
-364.698	-200.000	0.011	0.238
-363.683	800.000	0.076	0.316
-362.669	-200.000	-0.026	0.251
-361.654	419.235	-0.139	0.294
-360.639	-57.620	0.230	-0.100
-359.625	-112.062	-0.272	-0.054
-358.610	4.834	-0.122	0.089
-357.596	8.715	0.226	-0.168
-356.581	19.012	-0.058	-0.046
-355.566	-67.140	-0.204	0.080
-354.552	-200.000	-0.044	-0.319
-353.537	-132.981	0.303	-0.038
-352.523	-200.000	-0.273	0.000
-351.508	-15.629	0.259	-0.163
-350.493	-147.143	0.065	-0.005
-349.479	-200.000	-0.032	0.138
-348.464	-22.523	0.147	-0.088
-347.450	-85.341	0.431	-0.133
-346.435	-127.452	-0.244	-0.035
-345.420	-131.727	0.160	-0.021
-344.406	-200.000	-0.005	-0.036
-343.391	-47.217	0.109	0.052
-342.377	-200.000	0.019	0.244
-341.362	-49.369	-0.197	-0.093
-340.348	-45.858	0.196	-0.095
-339.333	-192.121	0.164	0.002
-338.318	-200.000	0.045	-0.216
-337.304	42.717	0.153	0.137
-336.289	-200.000	0.016	0.298
-335.275	163.803	0.130	-0.181
-334.260	-200.000	0.011	-0.107
-333.245	39.154	-0.060	-0.053
-332.231	7.136	-0.098	-0.072
-331.216	4.694	-0.128	-0.092
-330.202	-72.950	-0.244	0.089
-329.187	30.655	-0.126	-0.107
-328.172	43.229	-0.132	-0.119
-327.158	800.000	0.119	-0.368
-326.143	-53.619	-0.128	0.058
-325.129	-8.253	0.070	-0.047
-324.114	800.000	0.149	0.450
-323.099	-136.589	0.146	-0.017
-322.085	-200.000	-0.023	0.316
-321.070	150.042	0.127	-0.170
-320.056	-155.936	-0.395	-0.025
-319.041	-172.330	-0.252	0.008
-318.026	800.000	-0.123	-0.363
-317.012	-181.977	0.496	-0.009
-315.997	-200.000	-0.025	-0.199
-314.983	-78.150	0.149	0.051
-313.968	800.000	0.095	-0.308
-312.953	-156.287	0.258	0.016
-311.939	-25.896	0.154	0.089
-310.924	5.036	0.096	-0.070
-309.910	800.000	0.058	-0.220
-308.895	521.075	-0.081	0.188
-307.880	-200.000	-0.052	-0.345
-306.866	-79.158	-0.039	0.013
-305.851	-51.420	-0.227	-0.105
-304.837	268.168	0.161	0.279
-303.822	252.176	0.064	-0.108
-302.807	82.465	-0.068	0.073
-301.793	384.786	-0.051	-0.104
-300.778	-200.000	0.010	-0.267
-299.764	-200.000	0.009	0.217
-298.749	-200.000	0.052	-0.496
-297.735	31.350	0.066	0.056
-296.720	-200.000	-0.039	0.267
-295.705	-68.295	-0.103	-0.039
-294.691	-42.802	0.039	-0.020
-293.676	-42.312	-0.200	0.100
-292.662	-56.060	0.182	-0.080
-291.647	273.056	-0.032	0.057
-290.632	-200.000	0.024	-0.167
-289.618	34.083	0.114	-0.098
-288.603	-126.027	-0.102	0.015
-287.589	40.126	0.095	-0.084
-286.574	117.905	-0.055	-0.067
-285.559	-37.617	-0.148	-0.078
-284.545	-90.859	-0.090	0.025
-283.530	78.213	0.150	-0.158
-282.516	800.000	-0.093	-0.303
-281.501	30.290	-0.267	0.224
-280.486	-40.810	0.363	0.185
-279.472	18.868	0.244	-0.192
-278.457	346.349	-0.146	-0.282
-277.443	243.775	0.127	0.210
-276.428	-155.066	-0.500	-0.032
-275.413	522.375	-0.022	-0.051
-274.399	-152.301	0.043	0.003
-273.384	37.027	0.085	0.074
-272.370	9.914	-0.240	0.179
-271.355	303.371	0.132	-0.242
-270.340	800.000	-0.061	-0.250
-269.326	-101.359	-0.151	0.036
-268.311	-47.863	-0.367	0.175
-267.297	186.059	0.063	0.092
-266.282	28.230	0.180	0.150
-265.267	197.990	0.135	-0.203
-264.253	-50.075	-0.091	0.042
-263.238	-200.000	0.019	-0.309
-262.224	79.442	0.085	-0.090
-261.209	-166.818	-0.183	0.007
-260.195	2.316	0.476	0.339
-259.180	48.923	0.121	-0.111
-258.165	-100.149	0.090	-0.022
-257.151	-3.941	-0.108	-0.074
-256.136	68.660	-0.192	-0.193
-255.122	-120.387	0.067	-0.011
-254.107	-108.250	0.271	0.058
-253.092	800.000	-0.039	-0.133
-252.078	-109.110	0.244	0.051
-251.063	800.000	0.035	0.121
-250.049	800.000	-0.040	0.167
-249.034	-115.086	-0.194	0.036
-248.019	46.256	-0.078	0.072
-247.005	358.221	-0.057	0.112
-245.990	-200.000	-0.040	-0.264
-244.976	-195.546	0.244	-0.002
-243.961	130.228	-0.139	-0.174
-242.946	541.082	-0.056	0.131
-241.932	-77.176	-0.223	-0.076
-240.917	262.724	-0.107	0.182
-239.903	429.752	-0.077	-0.164
-238.888	-153.585	0.406	-0.028
-237.873	-155.828	0.349	-0.022
-236.859	-200.000	-0.012	0.096
-235.844	-200.000	-0.035	0.210
-234.830	37.438	0.274	-0.239
-233.815	-17.937	0.104	0.064
-232.800	-75.130	0.031	0.011
-231.786	199.331	-0.032	0.049
-230.771	-29.293	0.463	-0.261
-229.757	-54.925	0.313	0.139
-228.742	-107.039	-0.414	-0.090
-227.727	261.995	-0.158	-0.269
-226.713	29.886	-0.214	-0.179
-225.698	-134.353	0.462	-0.056
-224.684	263.926	-0.133	0.227
-223.669	800.000	-0.029	0.090
-222.655	-115.343	0.296	-0.055
-221.640	800.000	-0.096	-0.317
-220.625	470.355	0.060	-0.132
-219.611	-141.344	0.129	-0.013
-218.596	-200.000	-0.016	-0.076
-217.582	187.072	0.059	0.086
-216.567	-200.000	-0.009	0.046
-215.552	-62.615	0.219	-0.089
-214.538	-9.295	0.284	-0.186
-213.523	38.551	-0.105	-0.092
-212.509	-178.852	0.079	-0.002
-211.494	-106.517	-0.185	-0.040
-210.479	542.922	-0.097	-0.227
-209.465	-191.444	-0.113	-0.001
-208.450	248.480	-0.049	0.081
-207.436	-3.235	-0.222	0.152
-206.421	115.405	-0.040	0.048
-205.406	247.503	0.140	0.231
-204.392	190.801	-0.068	0.101
-203.377	-99.518	0.262	0.065
-202.363	89.858	-0.188	0.206
-201.348	-200.000	0.170	0.001
-200.333	473.679	-0.058	-0.127
-199.319	-47.179	-0.195	0.093
-198.304	-175.172	0.348	-0.009
-197.290	-180.092	-0.067	0.001
-196.275	-200.000	0.044	0.266
-195.260	-104.833	0.153	0.034
-194.246	-160.441	0.304	-0.016
-193.231	470.432	0.109	0.241
-192.217	18.294	0.168	0.131
-191.202	800.000	-0.102	0.409
-190.187	-200.000	0.026	0.277
-189.173	-79.963	0.340	-0.112
-188.158	-188.825	-0.250	0.003
-187.144	-200.000	-0.008	0.335
-186.129	220.328	-0.090	0.141
-185.114	800.000	0.019	0.055
-184.100	-115.498	-0.084	0.015
-183.085	272.011	-0.141	0.244
-182.071	-86.627	-0.171	0.051
-181.056	574.601	-0.089	0.213
-180.042	8.904	0.327	0.242
-179.027	-127.715	-0.328	-0.046
-178.012	800.000	-0.041	-0.171
-176.998	-41.753	0.135	0.068
-175.983	260.911	0.157	0.267
-174.969	268.988	0.080	0.137
-173.954	25.258	-0.296	0.241
-172.939	-38.480	0.301	-0.156
-171.925	546.689	-0.026	-0.060
-170.910	-187.796	0.144	0.002
-169.896	-58.888	0.060	-0.025
-168.881	-102.073	-0.406	0.096
-167.866	5.677	-0.156	0.113
-166.852	-159.171	-0.168	-0.009
-165.837	-140.622	0.327	-0.033
-164.823	178.108	0.210	0.301
-163.808	569.314	-0.033	0.078
-162.793	-92.425	-0.195	0.054
-161.779	800.000	-0.029	-0.099
-160.764	-126.625	0.072	-0.010
-159.750	378.886	-0.164	0.329
-158.735	-22.957	-0.125	-0.074
-157.720	5.687	0.127	0.092
-156.706	-200.000	-0.007	0.130
-155.691	-116.024	0.329	-0.060
-154.677	-200.000	-0.057	0.309
-153.662	525.609	-0.082	-0.188
-152.647	82.174	0.180	0.191
-151.633	-200.000	0.019	-0.275
-150.618	93.259	0.182	-0.202
-149.604	800.000	-0.093	0.275
-148.589	622.577	0.108	-0.267
-147.574	116.077	0.101	0.121
-146.560	29.943	0.248	-0.207
-145.545	-200.000	0.026	0.269
-144.531	-102.557	-0.071	0.017
-143.516	19.163	0.484	-0.381
-142.502	-200.000	0.012	0.238
-141.487	-11.492	-0.239	0.154
-140.472	-92.168	0.087	-0.024
-139.458	-137.524	-0.163	-0.018
-138.443	-200.000	0.022	-0.184
-137.429	52.378	-0.282	0.264
-136.414	-106.070	-0.179	0.040
-135.399	36.648	0.034	0.029
-134.385	-83.366	0.119	0.037
-133.370	-86.852	0.113	0.034
-132.356	44.169	-0.176	0.158
-131.341	-159.868	0.144	0.008
-130.326	205.953	-0.192	0.293
-129.312	-50.244	-0.249	-0.116
-128.297	273.220	0.154	0.266
-127.283	-106.590	-0.293	-0.064
-126.268	85.104	0.183	0.196
-125.253	32.378	0.220	-0.186
-124.239	184.596	0.210	-0.305
-123.224	800.000	-0.143	-0.430
-122.210	800.000	0.133	-0.402
