DTS Sentinel unit serial number:	SN413079Multiplexer serial number:	ORYXHardware model number:	OX4-SRSoftware version number:	ORYX F/W v4.00 Oryx Data Collector v3.7.2.0data status	okinstallation	princeton_trtdifferential loss correction	single-endedforward channel	channel 3reverse channel	N/Adate	2019/09/17time	12:52:35forward acquisition time	60.00reverse acquisition time	0.00gamma	496.2192k internal	0.2313k external	0.2313temperature offset calibration	0.9959default loss term (dB/km)	0.3790temperature slope calibration	1.0000multiplexer offset coefficient	1.0000multiplexer slope coefficient	1.0000fibre end	0.00T internal ref (°C)	32.94T ext. ref 1 (°C)	0.43T ext. ref 2 (°C)	31.22length (m)	temperature (°C)	Stokes	anti-Stokes-747.200	-137.093	0.118	-0.014
-746.185	-9.115	-0.186	0.126
-745.171	388.329	0.156	0.327
-744.156	800.000	-0.030	0.116
-743.142	-163.609	-0.240	-0.011
-742.127	193.030	-0.069	0.105
-741.112	-87.732	-0.049	0.015
-740.098	148.392	-0.165	0.226
-739.083	-97.839	-0.140	-0.037
-738.069	-134.800	-0.084	-0.010
-737.054	35.178	-0.077	-0.068
-736.039	184.369	-0.184	-0.276
-735.025	-188.526	0.336	0.004
-734.010	-200.000	-0.009	0.050
-732.996	193.270	-0.134	-0.205
-731.981	-134.525	0.329	-0.041
-730.966	122.242	0.082	-0.103
-729.952	87.907	0.063	0.071
-728.937	-200.000	0.038	-0.260
-727.923	63.884	-0.092	0.093
-726.908	-137.395	0.325	-0.037
-725.894	43.117	0.058	-0.054
-724.879	14.426	-0.175	-0.138
-723.864	139.160	0.285	-0.379
-722.850	261.397	-0.124	0.217
-721.835	-200.000	0.099	0.443
-720.821	216.213	-0.123	-0.198
-719.806	-200.000	-0.023	0.157
-718.791	-64.081	0.246	-0.102
-717.777	-37.608	-0.128	-0.069
-716.762	39.645	-0.157	-0.142
-715.748	346.379	0.052	0.104
-714.733	-46.498	0.271	0.135
-713.718	0.659	-0.116	0.084
-712.704	-200.000	-0.066	0.422
-711.689	12.980	0.330	-0.258
-710.675	-200.000	-0.048	-0.260
-709.660	-200.000	0.021	-0.232
-708.645	2.791	0.097	-0.071
-707.631	-22.795	0.206	0.126
-706.616	296.757	0.049	-0.091
-705.602	347.525	-0.066	0.133
-704.587	45.825	-0.116	-0.109
-703.572	31.342	0.128	-0.111
-702.558	-82.155	-0.185	-0.061
-701.543	-62.536	0.092	-0.038
-700.529	-200.000	-0.010	-0.313
-699.514	212.647	0.098	-0.157
-698.499	594.453	-0.160	-0.401
-697.485	467.060	-0.038	-0.087
-696.470	800.000	0.006	0.020
-695.456	-147.510	-0.265	0.023
-694.441	4.806	-0.352	-0.262
-693.426	-109.668	0.242	-0.052
-692.412	-118.888	0.237	0.042
-691.397	-2.803	-0.029	-0.020
-690.383	-130.626	-0.354	0.048
-689.368	-109.440	-0.226	-0.048
-688.354	800.000	0.094	-0.314
-687.339	763.991	0.134	-0.368
-686.324	264.635	-0.298	-0.525
-685.310	-64.938	-0.108	-0.044
-684.295	-200.000	-0.044	-0.265
-683.281	12.599	0.066	0.052
-682.266	-17.820	-0.052	0.033
-681.251	429.774	-0.078	-0.170
-680.237	-153.936	-0.246	0.017
-679.222	319.511	0.050	0.097
-678.208	-30.419	-0.038	0.022
-677.193	-3.274	-0.047	-0.033
-676.178	72.282	0.184	0.194
-675.164	440.563	-0.178	-0.394
-674.149	204.172	-0.139	-0.217
-673.135	71.633	-0.063	-0.066
-672.120	-200.000	-0.060	-0.304
-671.105	31.353	0.041	0.036
-670.091	249.282	-0.062	-0.107
-669.076	-79.656	-0.314	-0.107
-668.062	360.731	0.016	-0.033
-667.047	298.509	0.046	0.086
-666.032	-38.749	-0.307	0.164
-665.018	61.608	-0.208	-0.210
-664.003	64.577	0.035	-0.036
-662.989	226.633	0.225	0.369
-661.974	800.000	-0.052	0.206
-660.959	356.731	-0.077	-0.156
-659.945	-200.000	-0.006	0.032
-658.930	-89.143	0.175	-0.052
-657.916	-200.000	0.038	0.199
-656.901	251.093	0.164	-0.281
-655.886	-130.342	-0.238	-0.033
-654.872	62.869	-0.165	0.167
-653.857	800.000	-0.037	0.139
-652.843	-200.000	-0.004	-0.189
-651.828	-44.380	-0.378	-0.191
-650.814	-147.242	0.216	-0.019
-649.799	-148.598	0.393	0.032
-648.784	4.623	-0.153	0.114
-647.770	110.892	-0.255	-0.310
-646.755	-200.000	0.004	0.098
-645.741	800.000	-0.116	0.338
-644.726	288.343	0.081	-0.149
-643.711	-42.327	0.049	0.025
-642.697	800.000	0.125	-0.387
-641.682	-200.000	0.004	0.337
-640.668	800.000	-0.048	-0.141
-639.653	-36.417	0.179	0.097
-638.638	66.326	0.202	-0.208
-637.624	0.903	0.316	0.229
-636.609	-145.119	-0.040	-0.004
-635.595	800.000	-0.082	-0.342
-634.580	273.533	-0.126	-0.225
-633.565	109.908	0.084	-0.102
-632.551	148.995	0.129	0.176
-631.536	-130.736	-0.187	-0.025
-630.522	-200.000	-0.041	0.367
-629.507	-200.000	0.052	-0.240
-628.492	-89.294	0.286	0.085
-627.478	-9.262	-0.329	0.222
-626.463	-76.228	0.091	0.032
-625.449	85.608	-0.124	-0.137
-624.434	-21.550	0.287	-0.177
-623.419	-40.863	-0.029	-0.015
-622.405	617.827	-0.075	-0.190
-621.390	-200.000	0.007	-0.144
-620.376	50.139	-0.096	0.091
-619.361	800.000	-0.084	0.238
-618.346	-180.726	0.097	-0.002
-617.332	-129.707	-0.068	0.009
-616.317	560.628	0.136	-0.333
-615.303	-200.000	0.010	-0.081
-614.288	65.587	-0.120	-0.122
-613.273	800.000	-0.158	0.534
-612.259	207.362	0.096	0.151
-611.244	-164.283	-0.267	-0.012
-610.230	-144.107	-0.062	-0.006
-609.215	-76.077	-0.182	-0.065
-608.201	48.165	0.217	0.204
-607.186	75.013	0.294	-0.313
-606.171	-90.315	0.048	0.014
-605.157	-51.835	-0.253	0.119
-604.142	-146.065	0.264	0.024
-603.128	-11.490	-0.463	-0.307
-602.113	188.013	0.098	0.147
-601.098	-35.856	-0.178	0.097
-600.084	-114.825	-0.219	0.042
-599.069	-20.660	0.276	-0.171
-598.055	57.964	0.158	-0.155
-597.040	26.150	0.193	0.163
-596.025	-52.573	-0.375	0.175
-595.011	-200.000	0.018	-0.111
-593.996	-75.976	0.217	-0.077
-592.982	64.539	0.189	0.192
-591.967	-200.000	-0.007	0.371
-590.952	-200.000	-0.005	-0.199
-589.938	-200.000	-0.035	0.179
-588.923	369.712	-0.123	0.252
-587.909	660.368	-0.079	0.204
-586.894	-130.387	-0.157	0.021
-585.879	-16.918	0.031	-0.020
-584.865	70.733	-0.170	0.177
-583.850	-40.730	-0.081	-0.042
-582.836	710.920	-0.062	0.165
-581.821	-84.543	0.108	-0.034
-580.806	-200.000	0.013	0.209
-579.792	102.620	0.123	0.145
-578.777	36.487	0.302	0.269
-577.763	-200.000	-0.012	0.106
-576.748	-177.670	-0.737	-0.018
-575.733	-144.223	-0.234	-0.022
-574.719	-196.020	-0.284	0.002
-573.704	349.337	-0.073	0.145
-572.690	-20.181	0.059	0.037
-571.675	211.599	0.175	0.278
-570.661	800.000	0.059	0.248
-569.646	-200.000	0.019	0.241
-568.631	-142.832	-0.408	-0.040
-567.617	-8.823	-0.240	-0.162
-566.602	-95.643	0.157	-0.042
-565.588	-131.247	0.186	-0.025
-564.573	800.000	0.074	0.257
-563.558	368.399	0.129	0.264
-562.544	12.710	-0.122	0.095
-561.529	-145.218	0.230	-0.021
-560.515	47.426	0.208	0.195
-559.500	181.391	0.113	-0.167
-558.485	800.000	0.022	0.065
-557.471	-127.544	-0.037	0.005
-556.456	9.164	-0.150	-0.114
-555.442	-200.000	-0.033	-0.204
-554.427	-49.066	-0.156	-0.075
-553.412	612.688	-0.032	-0.082
-552.398	174.320	0.030	0.044
-551.383	-70.055	-0.141	-0.054
-550.369	-200.000	-0.045	0.225
-549.354	-19.774	-0.148	-0.092
-548.339	799.181	-0.079	-0.219
-547.325	-23.234	0.127	0.077
-546.310	-200.000	-0.076	-0.341
-545.296	-125.648	0.455	-0.069
-544.281	80.327	0.105	0.114
-543.266	68.049	-0.048	0.049
-542.252	-200.000	0.000	0.123
-541.237	-49.574	0.085	-0.041
-540.223	-93.368	0.084	0.023
-539.208	68.243	-0.183	-0.189
-538.193	-68.724	0.187	0.073
-537.179	271.200	0.056	0.100
-536.164	376.616	0.083	0.170
-535.150	-16.943	0.284	-0.181
-534.135	-60.653	0.123	0.052
-533.121	800.000	0.040	-0.133
-532.106	68.314	-0.133	-0.137
-531.091	711.537	0.023	0.062
-530.077	-4.752	0.139	0.096
-529.062	72.257	0.201	-0.211
-528.048	440.955	0.097	0.214
-527.033	-43.805	-0.307	-0.155
-526.018	800.000	0.015	-0.062
-525.004	479.697	0.076	0.172
-523.989	202.055	-0.061	0.095
-522.975	800.000	0.018	0.061
-521.960	79.969	-0.148	-0.159
-520.945	210.077	-0.333	-0.525
-519.931	297.412	-0.048	0.088
-518.916	800.000	0.086	0.364
-517.902	7.689	-0.147	-0.111
-516.887	307.912	-0.018	0.034
-515.872	-80.235	-0.249	-0.084
-514.858	47.638	0.051	-0.048
-513.843	594.305	-0.156	0.388
-512.829	272.904	0.104	-0.184
-511.814	-125.515	0.378	-0.058
-510.799	-34.452	0.396	0.218
-509.785	-200.000	0.036	0.216
-508.770	-16.003	-0.371	-0.237
-507.756	800.000	-0.088	0.320
-506.741	-42.739	0.330	-0.169
-505.726	-51.201	-0.074	-0.035
-504.712	-41.519	-0.155	0.080
-503.697	-83.822	-0.071	-0.023
-502.683	91.049	-0.164	0.185
-501.668	-45.770	-0.125	0.062
-500.653	798.365	-0.053	-0.147
-499.639	-31.089	-0.175	-0.099
-498.624	-118.599	0.420	-0.075
-497.610	38.833	0.137	0.123
-496.595	348.822	-0.117	0.232
-495.581	231.946	0.168	-0.278
-494.566	134.610	0.142	0.185
-493.551	-200.000	-0.042	-0.219
-492.537	161.624	0.017	-0.023
-491.522	704.879	-0.147	-0.390
-490.508	800.000	-0.027	0.098
-489.493	-7.369	0.135	-0.092
-488.478	-86.769	0.309	0.095
-487.464	-72.721	-0.059	-0.022
-486.449	101.289	0.100	-0.116
-485.435	-200.000	0.027	-0.299
-484.420	-27.284	0.230	-0.134
-483.405	390.014	-0.053	0.111
-482.391	800.000	-0.116	-0.389
-481.376	800.000	0.141	-0.469
-480.362	15.628	0.106	0.083
-479.347	81.144	-0.041	-0.045
-478.332	-12.902	-0.094	-0.062
-477.318	-58.315	-0.286	-0.125
-476.303	-200.000	-0.055	0.421
-475.289	168.663	-0.119	0.171
-474.274	-21.522	0.150	-0.092
-473.259	147.113	-0.195	0.263
-472.245	-11.643	0.071	-0.047
-471.230	-198.491	0.141	-0.001
-470.216	154.700	0.146	0.201
-469.201	18.778	-0.074	0.060
-468.186	-40.270	-0.358	-0.187
-467.172	456.365	0.117	0.261
-466.157	162.723	0.074	-0.105
-465.143	-200.000	-0.003	0.132
-464.128	-28.099	0.252	-0.146
-463.113	-200.000	0.000	0.071
-462.099	102.818	-0.028	0.033
-461.084	394.608	0.057	0.120
-460.070	24.654	0.202	0.168
-459.055	-200.000	-0.018	0.191
-458.040	-200.000	-0.018	0.194
-457.026	149.312	0.198	-0.269
-456.011	-90.886	-0.330	0.095
-454.997	-90.040	-0.471	0.138
-453.982	30.156	-0.327	0.280
-452.968	-14.030	-0.110	-0.071
-451.953	-61.443	0.255	-0.108
-450.938	-101.573	0.187	-0.046
-449.924	-1.275	0.098	0.070
-448.909	-34.795	-0.068	-0.037
-447.895	558.767	0.164	-0.396
-446.880	-128.963	0.370	-0.052
-445.865	-77.987	-0.335	-0.116
-444.851	-138.014	-0.167	-0.019
-443.836	40.488	-0.153	-0.138
-442.822	-113.399	0.525	0.103
-441.807	-130.935	-0.174	-0.023
-440.792	152.449	-0.077	0.106
-439.778	-166.982	0.020	-0.001
-438.763	800.000	0.053	0.192
-437.749	-179.968	0.462	0.010
-436.734	-200.000	-0.011	-0.358
-435.719	105.183	0.127	-0.150
-434.705	-115.824	0.354	0.066
-433.690	791.626	-0.069	-0.189
-432.676	176.574	-0.218	-0.318
-431.661	-200.000	-0.083	0.364
-430.646	-130.274	0.110	-0.015
-429.632	-200.000	-0.016	-0.258
-428.617	-200.000	0.028	-0.158
-427.603	42.919	-0.250	-0.228
-426.588	62.775	-0.098	-0.098
-425.573	-200.000	0.037	0.230
-424.559	271.768	-0.093	-0.164
-423.544	-16.698	-0.022	-0.014
-422.530	-200.000	0.003	0.435
-421.515	93.103	-0.049	-0.055
-420.500	581.899	-0.087	0.213
-419.486	-62.517	-0.105	0.044
-418.471	59.078	0.115	-0.113
-417.457	116.765	-0.239	0.294
-416.442	-32.346	-0.082	-0.046
-415.428	241.743	0.016	-0.026
-414.413	223.969	0.113	-0.182
-413.398	-200.000	-0.074	0.324
-412.384	-118.745	0.127	0.022
-411.369	-200.000	-0.016	0.131
-410.355	800.000	0.056	0.213
-409.340	-131.682	-0.210	-0.028
-408.325	-200.000	-0.011	0.331
-407.311	215.629	0.162	-0.257
-406.296	-200.000	-0.031	-0.220
-405.282	-74.679	0.258	-0.093
-404.267	-109.628	0.183	-0.039
-403.252	60.982	-0.266	-0.265
-402.238	-55.948	-0.029	0.013
-401.223	-165.277	0.069	-0.003
-400.209	18.032	0.164	-0.131
-399.194	-3.813	0.103	0.072
-398.179	-200.000	0.011	0.351
-397.165	251.472	0.165	0.281
-396.150	-200.000	0.007	0.052
-395.136	657.531	0.055	-0.142
-394.121	800.000	0.114	-0.462
-393.106	524.762	0.094	-0.221
-392.092	-200.000	-0.046	-0.347
-391.077	-200.000	-0.019	-0.158
-390.063	-200.000	-0.021	0.181
-389.048	-200.000	0.024	0.164
-388.033	227.997	-0.158	-0.258
-387.019	-200.000	-0.010	-0.047
-386.004	20.131	0.259	-0.209
-384.990	-200.000	-0.034	-0.584
-383.975	-170.518	-0.304	-0.011
-382.960	134.813	-0.103	0.134
-381.946	28.681	0.135	-0.114
-380.931	659.272	0.160	-0.412
-379.917	-48.217	-0.145	-0.070
-378.902	505.012	-0.126	-0.291
-377.888	-87.986	0.190	-0.057
-376.873	800.000	-0.024	0.105
-375.858	-200.000	0.051	0.307
-374.844	269.466	0.069	-0.121
-373.829	-126.347	0.106	0.016
-372.815	-200.000	0.051	0.238
-371.800	25.805	-0.168	0.140
-370.785	-143.134	-0.321	0.031
-369.771	-86.764	-0.219	-0.067
-368.756	9.964	-0.398	-0.302
-367.742	-200.000	0.072	0.322
-366.727	11.036	-0.332	0.254
-365.712	-99.650	0.246	-0.062
-364.698	800.000	0.022	0.073
-363.683	-200.000	-0.018	-0.230
-362.669	-200.000	0.024	0.124
-361.654	800.000	-0.014	-0.044
-360.639	-147.121	0.390	0.033
-359.625	481.161	-0.112	-0.253
-358.610	-156.128	-0.448	0.028
-357.596	-200.000	0.016	0.200
-356.581	585.060	-0.131	0.322
-355.566	-44.122	-0.369	0.185
-354.552	96.296	-0.170	0.195
-353.537	-200.000	-0.030	-0.161
-352.523	800.000	-0.075	0.237
-351.508	-24.933	-0.186	0.110
-350.493	105.351	0.163	0.192
-349.479	-111.743	0.212	0.043
-348.464	-200.000	-0.016	0.185
-347.450	376.036	0.059	0.121
-346.435	-79.016	0.131	0.044
-345.420	393.439	-0.148	-0.308
-344.406	-200.000	-0.037	0.241
-343.391	-130.171	-0.324	-0.044
-342.377	478.124	-0.124	0.279
-341.362	-200.000	-0.012	0.083
-340.348	-200.000	-0.020	-0.263
-339.333	291.652	0.031	0.056
-338.318	-127.734	0.121	0.017
-337.304	-93.887	-0.417	-0.115
-336.289	800.000	0.047	0.195
-335.275	800.000	-0.036	-0.130
-334.260	-200.000	0.020	-0.191
-333.245	-41.897	-0.154	0.079
-332.231	-44.601	0.394	0.197
-331.216	177.381	0.103	-0.150
-330.202	-200.000	0.024	-0.121
-329.187	445.491	-0.117	0.256
-328.172	-133.765	-0.246	-0.031
-327.158	214.572	-0.128	-0.203
-326.143	-200.000	0.009	0.191
-325.129	-73.366	-0.139	-0.051
-324.114	-200.000	-0.047	-0.243
-323.099	-75.137	-0.129	-0.046
-322.085	-54.950	-0.259	-0.117
-321.070	-200.000	0.019	-0.112
-320.056	153.455	0.080	0.109
-319.041	52.372	0.127	-0.121
-318.026	-72.524	0.144	-0.053
-317.012	-142.186	-0.031	0.003
-315.997	-38.554	0.085	0.045
-314.983	-59.090	-0.171	-0.074
-313.968	16.293	-0.055	0.043
-312.953	-43.323	0.142	0.072
-311.939	-81.497	-0.210	0.069
-310.924	36.640	-0.193	0.170
-309.910	-200.000	0.003	-0.135
-308.895	-200.000	0.040	-0.230
-307.880	-23.655	0.132	-0.079
-306.866	-74.313	0.155	0.056
-305.851	27.197	0.247	-0.207
-304.837	543.160	-0.051	0.121
-303.822	120.387	-0.191	-0.236
-302.807	-200.000	0.029	-0.259
-301.793	145.302	-0.156	-0.208
-300.778	-136.692	0.238	-0.027
-299.764	-165.493	-0.312	0.014
-298.749	-168.191	-0.128	-0.005
-297.735	-44.865	-0.181	0.090
-296.720	143.980	-0.112	0.149
-295.705	-116.404	0.361	0.067
-294.691	-112.402	0.319	-0.064
-293.676	0.699	-0.163	-0.116
-292.662	-25.713	0.167	-0.098
-291.647	-0.437	-0.109	0.077
-290.632	-100.087	0.196	0.049
-289.618	227.267	-0.148	-0.239
-288.603	61.519	-0.160	-0.159
-287.589	28.128	-0.091	0.076
-286.574	223.768	0.035	-0.057
-285.559	-200.000	0.022	-0.122
-284.545	60.309	-0.079	-0.078
-283.530	761.551	0.089	0.240
-282.516	-7.214	-0.250	-0.169
-281.501	-81.297	0.192	0.063
-280.486	-200.000	0.015	0.091
-279.472	-46.923	-0.200	-0.097
-278.457	308.609	0.075	0.139
-277.443	34.395	0.175	0.152
-276.428	-161.614	-0.054	-0.003
-275.413	-200.000	-0.023	-0.296
-274.399	279.468	0.186	0.330
-273.384	-14.051	-0.265	0.170
-272.370	800.000	-0.076	0.241
-271.355	96.187	0.137	-0.156
-270.340	-72.712	-0.041	-0.015
-269.326	21.136	0.244	-0.197
-268.311	-90.287	0.168	0.049
-267.297	-23.933	-0.122	-0.073
-266.282	216.501	0.229	-0.362
-265.267	110.659	-0.021	-0.026
-264.253	4.217	0.137	0.100
-263.238	26.547	0.252	-0.210
-262.224	244.337	0.103	-0.173
-261.209	341.261	-0.140	0.272
-260.195	-190.385	0.361	-0.004
-259.180	19.828	-0.128	-0.103
-258.165	-86.944	0.135	-0.041
-257.151	-60.390	-0.065	-0.027
-256.136	-200.000	0.001	-0.045
-255.122	116.001	-0.046	0.056
-254.107	218.252	0.053	-0.085
-253.092	-76.033	-0.379	0.133
-252.078	-59.971	0.330	0.140
-251.063	85.933	-0.159	0.174
-250.049	5.546	-0.048	-0.035
-249.034	-47.203	0.156	0.076
-248.019	-52.083	-0.179	-0.083
-247.005	-136.725	-0.195	0.022
-245.990	-21.293	0.330	0.200
-244.976	51.956	-0.276	0.261
-243.961	611.570	-0.214	0.531
-242.946	-75.381	-0.278	-0.098
-241.932	-138.074	-0.273	-0.030
-240.917	-111.496	0.324	0.065
-239.903	-165.442	0.363	0.016
-238.888	273.234	0.116	-0.204
-237.873	380.138	0.085	0.173
-236.859	643.997	-0.085	0.216
-235.844	800.000	0.054	0.190
-234.830	67.383	-0.036	-0.037
-233.815	-99.770	0.216	-0.054
-232.800	97.129	-0.060	-0.068
-231.786	-34.595	0.123	0.067
-230.771	-70.180	0.092	0.035
-229.757	491.316	0.166	0.378
-228.742	-125.059	0.610	-0.093
-227.727	45.919	-0.158	-0.145
-226.713	-178.174	-0.339	0.008
-225.698	-64.985	-0.334	-0.134
-224.684	-2.574	0.109	0.076
-223.669	-200.000	-0.012	-0.153
-222.655	-159.118	-0.104	-0.006
-221.640	129.443	0.167	0.212
-220.625	-48.641	0.208	-0.099
-219.611	39.830	0.043	0.038
-218.596	-37.998	0.206	-0.109
-217.582	418.983	0.082	0.173
-216.567	-135.142	0.275	-0.033
-215.552	-146.840	-0.274	-0.023
-214.538	800.000	-0.125	-0.394
-213.523	-48.629	0.138	-0.066
-212.509	99.003	-0.093	0.107
-211.494	-70.282	0.173	0.065
-210.479	276.976	-0.133	-0.234
-209.465	26.871	0.156	-0.130
-208.450	800.000	0.033	-0.107
-207.436	348.819	-0.033	-0.064
-206.421	-200.000	-0.004	0.212
-205.406	4.645	0.158	-0.115
-204.392	-200.000	-0.034	0.291
-203.377	301.911	-0.079	-0.146
-202.363	105.496	-0.201	0.236
-201.348	236.152	0.127	0.209
-200.333	225.381	0.214	0.344
-199.319	-63.373	-0.110	0.045
-198.304	257.938	0.155	0.265
-197.290	143.354	-0.176	-0.232
-196.275	-22.723	-0.425	-0.255
-195.260	88.798	-0.174	-0.192
-194.246	207.631	-0.194	-0.301
-193.231	-91.341	0.265	-0.075
-192.217	-200.000	-0.011	0.090
-191.202	323.526	0.183	-0.347
-190.187	-3.654	-0.057	-0.039
-189.173	179.775	0.083	-0.120
-188.158	-200.000	-0.003	-0.279
-187.144	-116.786	0.209	0.038
-186.129	-200.000	0.022	0.180
-185.114	116.795	0.211	-0.258
-184.100	-87.170	0.280	-0.084
-183.085	95.697	-0.079	-0.089
-182.071	-140.332	0.170	-0.018
-181.056	10.559	0.184	-0.139
-180.042	800.000	0.079	0.235
-179.027	97.014	0.054	0.061
-178.012	455.092	0.085	-0.186
-176.998	117.136	-0.057	0.069
-175.983	-200.000	0.008	0.391
-174.969	-200.000	0.007	0.040
-173.954	-162.444	-0.198	-0.010
-172.939	118.675	0.058	-0.071
-171.925	202.885	-0.035	-0.054
-170.910	-118.069	-0.185	-0.033
-169.896	-200.000	0.006	-0.111
-168.881	-200.000	-0.004	0.240
-167.866	484.106	0.087	-0.196
-166.852	-106.287	0.128	0.028
-165.837	-83.337	-0.118	0.038
-164.823	33.337	0.315	-0.271
-163.808	58.263	-0.071	0.069
-162.793	-200.000	0.009	0.113
-161.779	133.239	-0.184	0.236
-160.764	-200.000	0.027	-0.205
-159.750	-71.870	-0.301	0.111
-158.735	198.739	-0.095	-0.144
-157.720	-71.451	0.111	0.041
-156.706	-34.678	0.109	-0.059
-155.691	104.931	-0.051	0.060
-154.677	-79.886	-0.124	0.041
-153.662	108.863	-0.093	-0.110
-152.647	-32.161	-0.077	0.043
-151.633	731.188	0.037	0.097
-150.618	-34.489	-0.170	0.092
-149.604	800.000	0.055	0.156
-148.589	-25.675	-0.319	-0.186
-147.574	104.132	-0.027	-0.031
-146.560	-100.627	0.278	0.068
-145.545	-116.116	0.134	0.025
-144.531	381.405	-0.036	0.073
-143.516	11.119	-0.089	0.067
-142.502	-28.207	0.147	0.084
-141.487	-200.000	0.046	-0.247
-140.472	109.197	0.071	0.084
-139.458	-109.784	-0.188	0.039
-138.443	-100.657	-0.065	0.016
-137.429	-37.301	0.081	-0.043
-136.414	-69.707	-0.187	-0.071
-135.399	800.000	0.113	0.334
-134.385	121.286	-0.118	0.145
-133.370	-200.000	0.021	0.139
-132.356	138.243	-0.141	0.183
-131.341	165.645	0.262	0.367
-130.326	618.055	-0.030	0.075
-129.312	-120.648	-0.308	0.052
-128.297	-95.441	0.070	-0.019
-127.283	-76.765	0.265	-0.092
-126.268	-200.000	0.021	-0.158
-125.253	17.342	-0.162	0.128
-124.239	-35.496	-0.194	0.104
-123.224	696.153	0.061	-0.158
-122.210	-200.000	0.035	0.239
