DTS Sentinel unit serial number:	SN413079Multiplexer serial number:	ORYXHardware model number:	OX4-SRSoftware version number:	ORYX F/W v4.00 Oryx Data Collector v3.7.2.0data status	okinstallation	princeton_trtdifferential loss correction	single-endedforward channel	channel 3reverse channel	N/Adate	2019/09/18time	00:20:35forward acquisition time	60.00reverse acquisition time	0.00gamma	496.2192k internal	0.2345k external	0.2345temperature offset calibration	0.9950default loss term (dB/km)	0.3790temperature slope calibration	1.0000multiplexer offset coefficient	1.0000multiplexer slope coefficient	1.0000fibre end	0.00T internal ref (°C)	23.64T ext. ref 1 (°C)	0.17T ext. ref 2 (°C)	17.20length (m)	temperature (°C)	Stokes	anti-Stokes-747.200	-200.000	0.004	-0.048
-746.185	800.000	-0.135	-0.413
-745.171	-117.724	0.183	0.033
-744.156	-200.000	0.018	-0.115
-743.142	120.448	0.065	-0.081
-742.127	281.288	0.081	0.145
-741.112	-25.176	0.113	-0.067
-740.098	-0.262	0.157	-0.112
-739.083	192.932	0.162	-0.245
-738.069	588.299	-0.123	0.303
-737.054	800.000	-0.043	0.163
-736.039	90.174	-0.260	0.290
-735.025	87.502	0.153	-0.169
-734.010	-200.000	-0.042	-0.458
-732.996	-97.741	0.072	-0.019
-731.981	-64.665	-0.359	-0.146
-730.966	-61.045	-0.132	0.056
-729.952	-200.000	-0.003	0.223
-728.937	781.802	0.023	0.063
-727.923	9.939	-0.248	0.188
-726.908	-73.595	-0.314	-0.114
-725.894	-132.052	-0.377	0.049
-724.879	-36.374	-0.326	0.176
-723.864	-78.041	-0.371	-0.128
-722.850	-141.723	0.100	0.010
-721.835	800.000	0.020	0.070
-720.821	-200.000	-0.068	-0.298
-719.806	557.013	0.040	-0.096
-718.791	-33.147	-0.260	-0.144
-717.777	87.828	0.095	-0.105
-716.762	-137.081	-0.218	0.025
-715.748	19.018	-0.198	0.158
-714.733	-200.000	0.007	0.188
-713.718	-47.519	-0.113	-0.055
-712.704	-200.000	0.045	-0.200
-711.689	-43.264	-0.327	-0.165
-710.675	800.000	0.010	-0.035
-709.660	484.261	0.081	-0.185
-708.645	-200.000	0.015	-0.113
-707.631	-60.090	0.243	0.103
-706.616	289.073	-0.107	-0.193
-705.602	-200.000	0.012	-0.076
-704.587	-164.618	0.356	0.016
-703.572	-121.711	0.040	0.007
-702.558	-200.000	-0.031	0.231
-701.543	-44.974	0.307	0.153
-700.529	800.000	0.017	-0.051
-699.514	80.234	-0.021	-0.022
-698.499	473.400	-0.040	0.091
-697.485	169.047	0.082	0.117
-696.470	-93.328	-0.194	0.054
-695.456	78.108	-0.152	0.162
-694.441	3.204	-0.223	-0.162
-693.426	800.000	-0.136	-0.462
-692.412	-128.406	0.081	0.012
-691.397	-141.541	-0.305	-0.031
-690.383	-120.569	-0.280	0.047
-689.368	800.000	-0.014	-0.040
-688.354	-85.092	0.100	-0.031
-687.339	73.790	0.168	0.176
-686.324	439.615	-0.099	-0.217
-685.310	393.026	0.098	0.204
-684.295	72.888	-0.101	-0.106
-683.281	124.980	0.158	-0.199
-682.266	-68.712	-0.351	0.135
-681.251	105.967	0.096	0.114
-680.237	263.569	0.158	0.273
-679.222	-106.989	0.112	-0.025
-678.208	-200.000	0.333	0.001
-677.193	800.000	0.093	0.356
-676.178	-200.000	-0.025	0.256
-675.164	-39.291	0.087	0.046
-674.149	-200.000	-0.008	-0.095
-673.135	-109.620	0.205	-0.043
-672.120	800.000	0.067	-0.200
-671.105	-28.776	0.204	0.117
-670.091	120.920	0.122	-0.152
-669.076	-41.468	-0.211	-0.108
-668.062	289.636	-0.020	-0.035
-667.047	-131.623	0.221	0.029
-666.032	-200.000	-0.019	0.096
-665.018	-91.303	0.225	-0.064
-664.003	-90.457	0.136	-0.039
-662.989	-28.048	-0.313	-0.180
-661.974	6.128	0.209	-0.155
-660.959	-68.376	-0.263	-0.102
-659.945	800.000	0.081	-0.272
-658.930	-200.000	0.054	-0.263
-657.916	-200.000	0.000	0.282
-656.901	101.247	-0.164	-0.191
-655.886	-177.356	-0.201	-0.005
-654.872	331.419	0.080	-0.155
-653.857	488.546	0.011	-0.024
-652.843	-113.286	0.051	-0.010
-651.828	-83.109	0.164	0.053
-650.814	-200.000	-0.049	-0.251
-649.799	-20.607	0.232	-0.142
-648.784	-200.000	0.007	-0.180
-647.770	-200.000	-0.022	-0.103
-646.755	191.313	0.128	-0.192
-645.741	-200.000	0.008	0.200
-644.726	-159.241	-0.115	0.006
-643.711	414.916	-0.029	0.062
-642.697	13.180	0.222	0.171
-641.682	-74.997	-0.191	0.068
-640.668	58.719	0.291	0.284
-639.653	-200.000	0.016	-0.109
-638.638	16.219	0.231	-0.181
-637.624	474.691	0.054	-0.122
-636.609	484.310	0.075	-0.170
-635.595	292.929	-0.131	-0.238
-634.580	102.713	0.094	-0.109
-633.565	-45.574	0.211	-0.104
-632.551	-108.203	-0.179	-0.039
-631.536	246.991	-0.117	0.196
-630.522	69.702	0.071	0.072
-629.507	96.309	-0.311	0.354
-628.492	113.993	-0.210	-0.255
-627.478	-83.050	-0.294	-0.094
-626.463	74.010	-0.212	0.221
-625.449	-93.691	0.374	0.103
-624.434	800.000	0.043	-0.185
-623.419	-109.430	-0.151	-0.032
-622.405	-133.060	0.191	0.024
-621.390	-29.036	0.467	0.267
-620.376	-200.000	0.022	-0.176
-619.361	268.073	0.073	-0.127
-618.346	-63.277	-0.195	-0.080
-617.332	-200.000	0.033	0.182
-616.317	-200.000	0.025	-0.205
-615.303	52.282	0.205	0.195
-614.288	-200.000	-0.009	-0.264
-613.273	246.047	0.098	-0.164
-612.259	269.511	0.173	-0.303
-611.244	800.000	0.055	-0.154
-610.230	537.345	-0.148	-0.350
-609.215	800.000	-0.073	-0.268
-608.201	-83.040	-0.188	-0.060
-607.186	-36.713	0.297	-0.159
-606.171	78.419	-0.121	0.128
-605.157	53.383	-0.193	-0.184
-604.142	-122.082	-0.443	0.072
-603.128	-85.568	-0.201	0.062
-602.113	800.000	-0.020	0.057
-601.098	772.471	0.052	0.141
-600.084	800.000	0.029	0.088
-599.069	-93.763	-0.542	0.149
-598.055	-200.000	-0.022	-0.176
-597.040	55.304	0.137	0.132
-596.025	-49.466	-0.090	0.043
-595.011	-200.000	-0.020	0.167
-593.996	-32.870	0.261	-0.144
-592.982	470.979	-0.117	-0.261
-591.967	269.774	-0.053	-0.092
-590.952	60.989	-0.210	0.207
-589.938	-200.000	-0.004	0.120
-588.923	800.000	-0.073	0.287
-587.909	-200.000	-0.030	0.146
-586.894	-200.000	0.058	0.313
-585.879	-94.586	-0.219	0.059
-584.865	41.922	0.164	-0.148
-583.850	-29.775	0.162	-0.092
-582.836	-200.000	0.004	0.134
-581.821	702.288	-0.135	-0.354
-580.806	-69.981	-0.298	-0.113
-579.792	-168.747	0.199	0.007
-578.777	23.356	-0.325	-0.265
-577.763	342.961	-0.052	-0.101
-576.748	-200.000	0.030	-0.303
-575.733	-34.239	0.028	-0.015
-574.719	589.017	0.151	-0.370
-573.704	249.752	0.141	-0.237
-572.690	-123.467	-0.355	0.056
-571.675	765.655	0.052	0.141
-570.661	-118.664	0.457	-0.080
-569.646	800.000	-0.020	0.076
-568.631	20.790	-0.037	0.030
-567.617	-105.907	-0.338	-0.076
-566.602	292.421	-0.128	-0.233
-565.588	70.510	-0.158	0.163
-564.573	-9.306	0.305	-0.202
-563.558	467.536	-0.018	0.041
-562.544	-131.811	-0.158	-0.021
-561.529	51.106	-0.207	0.195
-560.515	-112.994	-0.069	0.014
-559.500	10.024	0.051	0.038
-558.485	132.082	0.101	-0.129
-557.471	-9.193	-0.177	0.118
-556.456	127.558	0.169	-0.213
-555.442	800.000	-0.022	-0.066
-554.427	80.673	-0.098	0.105
-553.412	-34.350	0.135	-0.073
-552.398	-140.280	0.302	0.031
-551.383	-3.092	-0.171	-0.119
-550.369	327.195	0.101	0.193
-549.354	-200.000	-0.009	0.338
-548.339	2.042	0.213	-0.153
-547.325	-189.916	-0.180	-0.002
-546.310	370.193	-0.076	-0.152
-545.296	800.000	0.027	-0.078
-544.281	-74.717	-0.259	0.093
-543.266	-69.276	0.165	-0.063
-542.252	-126.635	-0.273	-0.040
-541.237	64.637	-0.189	0.190
-540.223	-12.364	-0.080	0.052
-539.208	300.041	0.184	-0.336
-538.193	-73.269	-0.138	-0.050
-537.179	-125.869	0.237	-0.036
-536.164	-92.517	-0.324	0.090
-535.150	153.889	0.179	0.244
-534.135	-128.548	0.061	0.009
-533.121	43.716	0.096	-0.087
-532.106	-31.155	-0.047	0.026
-531.091	800.000	0.013	0.051
-530.077	-111.877	-0.143	-0.029
-529.062	-4.695	-0.051	-0.035
-528.048	88.662	0.134	0.148
-527.033	10.925	0.249	0.189
-526.018	76.274	0.158	0.166
-525.004	-107.263	0.060	-0.013
-523.989	-200.000	-0.006	0.232
-522.975	84.866	-0.197	-0.214
-521.960	-200.000	-0.018	-0.181
-520.945	800.000	-0.189	0.540
-519.931	-76.014	-0.297	0.104
-518.916	95.906	-0.208	-0.236
-517.902	-200.000	-0.015	0.284
-516.887	-114.201	0.313	0.060
-515.872	-200.000	-0.013	-0.202
-514.858	390.566	0.122	-0.251
-513.843	-15.706	-0.157	-0.099
-512.829	800.000	0.051	0.171
-511.814	395.402	0.223	0.460
-510.799	800.000	-0.050	0.167
-509.785	88.883	0.070	0.078
-508.770	800.000	0.056	0.234
-507.756	-76.437	0.146	-0.051
-506.741	800.000	0.081	-0.283
-505.726	-99.796	0.212	0.053
-504.712	16.044	-0.147	-0.115
-503.697	73.702	-0.315	-0.327
-502.683	27.384	-0.134	0.112
-501.668	79.724	-0.043	0.046
-500.653	17.644	-0.077	-0.061
-499.639	674.651	-0.076	-0.197
-498.624	-76.304	0.126	-0.044
-497.610	800.000	0.053	0.170
-496.595	163.169	0.179	0.250
-495.581	-200.000	-0.026	-0.387
-494.566	66.521	-0.207	0.209
-493.551	-200.000	0.000	0.083
-492.537	41.087	-0.224	-0.200
-491.522	61.757	0.160	-0.158
-490.508	-102.291	0.148	-0.035
-489.493	108.772	-0.103	0.122
-488.478	800.000	-0.042	0.170
-487.464	-74.009	-0.267	-0.096
-486.449	-150.217	0.216	0.017
-485.435	-28.808	-0.098	-0.056
-484.420	-50.404	0.220	0.103
-483.405	114.224	0.150	0.181
-482.391	-100.419	0.128	0.032
-481.376	-200.000	-0.007	0.218
-480.362	175.615	-0.180	-0.259
-479.347	-47.632	0.234	-0.112
-478.332	800.000	-0.059	0.203
-477.318	-154.537	0.115	-0.008
-476.303	-30.103	-0.071	0.040
-475.289	-200.000	-0.019	0.098
-474.274	108.580	-0.171	-0.202
-473.259	800.000	0.026	-0.107
-472.245	16.857	-0.140	-0.109
-471.230	-200.000	-0.002	-0.166
-470.216	-200.000	-0.199	0.001
-469.201	-54.337	0.088	0.039
-468.186	-200.000	0.003	-0.189
-467.172	18.547	0.145	0.115
-466.157	-89.973	-0.134	-0.039
-465.143	125.937	0.181	-0.226
-464.128	800.000	-0.025	-0.084
-463.113	-30.370	0.258	0.145
-462.099	63.768	-0.116	-0.115
-461.084	51.709	-0.155	0.146
-460.070	-200.000	-0.238	0.001
-459.055	-45.532	-0.042	-0.021
-458.040	-33.103	-0.045	0.025
-457.026	593.305	-0.115	-0.281
-456.011	695.520	-0.026	-0.068
-454.997	-200.000	0.021	-0.140
-453.982	-112.798	-0.139	-0.027
-452.968	-79.613	0.115	-0.038
-451.953	800.000	0.080	-0.229
-450.938	751.648	-0.049	0.131
-449.924	186.577	0.106	-0.157
-448.909	162.923	0.203	-0.282
-447.895	316.609	0.074	-0.139
-446.880	-200.000	0.025	0.172
-445.865	182.646	-0.127	-0.185
-444.851	165.834	-0.171	-0.239
-443.836	800.000	0.128	-0.392
-442.822	-45.917	-0.164	0.080
-441.807	-89.288	0.155	0.045
-440.792	-182.874	-0.269	-0.005
-439.778	4.296	-0.234	-0.170
-438.763	670.571	-0.096	0.247
-437.749	107.781	0.180	-0.211
-436.734	26.964	0.128	0.106
-435.719	-144.240	0.292	-0.027
-434.705	800.000	0.096	-0.305
-433.690	-189.590	0.202	-0.002
-432.676	-95.464	0.105	-0.028
-431.661	301.729	0.046	0.085
-430.646	-57.838	0.366	0.158
-429.632	19.295	-0.046	-0.036
-428.617	-200.000	0.000	0.210
-427.603	98.840	-0.062	-0.070
-426.588	-200.000	0.030	0.157
-425.573	219.280	-0.158	0.249
-424.559	757.893	0.055	0.146
-423.544	-71.806	-0.248	-0.091
-422.530	183.805	-0.087	0.127
-421.515	-200.000	0.030	0.170
-420.500	-11.754	-0.103	-0.066
-419.486	60.678	-0.217	0.213
-418.471	-118.338	0.335	-0.059
-417.457	-200.000	-0.031	-0.294
-416.442	607.232	0.047	0.117
-415.428	800.000	0.048	0.144
-414.413	-150.248	0.217	0.017
-413.398	-95.522	-0.481	0.127
-412.384	-56.994	-0.165	0.072
-411.369	-57.285	-0.147	0.064
-410.355	117.003	-0.014	-0.017
-409.340	82.047	0.249	-0.266
-408.325	-81.856	-0.236	0.076
-407.311	-16.358	0.104	0.065
-406.296	197.242	-0.113	-0.170
-405.282	-32.243	0.062	0.034
-404.267	-158.619	0.168	-0.010
-403.252	159.921	0.103	0.142
-402.238	-17.858	0.156	0.097
-401.223	-200.000	0.033	-0.286
-400.209	714.345	0.034	0.089
-399.194	98.571	-0.039	-0.044
-398.179	-141.673	0.212	0.021
-397.165	-200.000	0.007	-0.233
-396.150	-93.474	0.396	0.108
-395.136	117.037	-0.086	-0.104
-394.121	-98.452	-0.187	-0.047
-393.106	-60.674	-0.258	-0.108
-392.092	115.191	0.118	-0.143
-391.077	90.215	-0.191	0.211
-390.063	-64.128	-0.091	-0.037
-389.048	-41.731	0.228	0.116
-388.033	-200.000	0.001	-0.395
-387.019	67.087	0.043	0.044
-386.004	428.794	-0.032	0.068
-384.990	11.021	0.196	0.147
-383.975	331.016	0.097	-0.184
-382.960	-21.632	-0.440	-0.265
-381.946	108.561	-0.018	0.021
-380.931	800.000	-0.076	0.278
-379.917	-59.130	-0.257	0.109
-378.902	424.585	0.067	-0.142
-377.888	800.000	-0.049	0.196
-376.873	104.323	-0.110	0.128
-375.858	190.456	-0.057	-0.084
-374.844	-200.000	0.013	0.420
-373.829	-37.659	-0.329	0.173
-372.815	54.459	0.331	0.314
-371.800	511.566	-0.020	0.045
-370.785	-6.452	0.258	0.174
-369.771	-200.000	0.030	-0.208
-368.756	-200.000	0.055	-0.253
-367.742	-9.791	0.103	0.067
-366.727	-200.000	0.068	-0.383
-365.712	-200.000	-0.007	-0.259
-364.698	252.107	0.111	0.186
-363.683	-137.494	-0.316	-0.035
-362.669	220.164	-0.060	-0.095
-361.654	-200.000	-0.020	0.142
-360.639	89.001	0.270	0.296
-359.625	134.335	-0.091	-0.116
-358.610	96.287	-0.119	0.134
-357.596	800.000	0.100	-0.376
-356.581	21.174	0.219	-0.175
-355.566	-32.488	-0.061	0.033
-354.552	-200.000	-0.022	0.107
-353.537	253.802	0.161	0.271
-352.523	-87.414	-0.258	0.077
-351.508	-129.995	-0.299	-0.040
-350.493	106.569	0.052	-0.060
-349.479	-200.000	0.001	0.178
-348.464	23.443	0.267	0.217
-347.450	-87.662	-0.180	0.053
-346.435	-73.067	0.193	0.070
-345.420	-80.805	-0.102	0.033
-344.406	218.701	-0.264	0.415
-343.391	435.563	0.221	-0.473
-342.377	148.970	0.091	-0.121
-341.362	-200.000	0.042	-0.191
-340.348	-144.389	-0.271	0.025
-339.333	91.814	0.249	-0.276
-338.318	553.347	0.154	-0.364
-337.304	275.548	-0.166	-0.289
-336.289	-162.320	-0.273	0.013
-335.275	-200.000	0.038	0.336
-334.260	128.109	-0.095	0.119
-333.245	-101.861	-0.057	0.013
-332.231	-182.024	-0.116	-0.002
-331.216	-200.000	-0.030	0.336
-330.202	-84.289	0.172	-0.053
-329.187	-200.000	0.007	-0.068
-328.172	-123.140	-0.301	0.048
-327.158	16.660	0.167	-0.130
-326.143	313.367	-0.051	0.094
-325.129	800.000	-0.046	-0.141
-324.114	-74.167	0.113	0.040
-323.099	474.546	0.093	-0.205
-322.085	-58.620	-0.486	0.207
-321.070	583.985	0.135	-0.326
-320.056	-200.000	0.004	-0.177
-319.041	-33.534	0.180	-0.098
-318.026	20.078	-0.174	-0.138
-317.012	-36.816	0.163	-0.086
-315.997	-53.668	-0.182	-0.082
-314.983	-200.000	-0.011	-0.356
-313.968	7.687	-0.317	-0.233
-312.953	-112.886	0.283	-0.055
-311.939	17.454	-0.192	0.150
-310.924	-30.812	0.083	-0.046
-309.910	-75.784	0.248	0.086
-308.895	117.719	-0.191	-0.231
-307.880	-108.581	0.027	0.006
-306.866	146.745	0.220	0.290
-305.851	0.742	0.041	-0.029
-304.837	292.699	-0.091	0.162
-303.822	-79.545	-0.117	0.039
-302.807	-52.229	-0.203	0.093
-301.793	-137.586	0.208	-0.023
-300.778	179.884	0.209	-0.302
-299.764	377.923	0.070	-0.141
-298.749	800.000	0.008	0.028
-297.735	342.261	-0.050	-0.096
-296.720	-49.650	0.196	0.092
-295.705	-2.835	-0.229	-0.157
-294.691	-151.800	0.282	-0.020
-293.676	264.777	-0.142	0.244
-292.662	-47.011	-0.210	0.101
-291.647	-85.697	0.142	-0.043
-290.632	194.479	-0.232	0.346
-289.618	62.884	-0.197	0.193
-288.603	-109.116	0.548	0.115
-287.589	114.663	-0.100	-0.120
-286.574	-111.389	-0.162	-0.032
-285.559	-9.900	-0.108	0.071
-284.545	-200.000	0.014	-0.094
-283.530	-90.284	0.056	0.016
-282.516	-93.148	-0.187	-0.051
-281.501	-200.000	0.039	0.347
-280.486	-102.209	-0.194	0.046
-279.472	46.382	0.187	0.171
-278.457	266.314	-0.043	0.073
-277.443	-40.796	-0.253	0.129
-276.428	87.282	0.070	0.076
-275.413	-15.974	-0.532	-0.332
-274.399	-200.000	0.033	-0.309
-273.384	-97.474	0.200	0.051
-272.370	-22.903	0.107	-0.064
-271.355	228.700	0.133	0.213
-270.340	-64.881	-0.422	-0.168
-269.326	-66.971	-0.129	-0.050
-268.311	-200.000	-0.014	-0.248
-267.297	306.478	0.184	0.336
-266.282	377.787	-0.066	0.133
-265.267	163.704	0.121	0.167
-264.253	197.802	0.130	0.195
-263.238	-67.748	0.230	-0.088
-262.224	-80.221	-0.244	-0.080
-261.209	290.265	0.091	0.162
-260.195	339.847	-0.055	0.105
-259.180	-48.875	0.361	-0.170
-258.165	-18.356	0.135	0.083
-257.151	-64.093	0.166	0.066
-256.136	73.555	-0.067	0.068
-255.122	-200.000	-0.002	0.059
-254.107	-200.000	-0.059	0.306
-253.092	-151.224	0.211	-0.016
-252.078	-120.722	0.097	0.016
-251.063	-32.701	0.135	0.074
-250.049	2.625	-0.177	0.126
-249.034	162.556	0.105	0.145
-248.019	136.160	-0.164	-0.210
-247.005	442.498	0.147	-0.316
-245.990	-11.447	0.096	-0.062
-244.976	138.274	0.112	0.144
-243.961	-200.000	0.029	0.196
-242.946	-200.000	0.001	-0.312
-241.932	-74.529	0.053	0.019
-240.917	333.077	0.053	-0.100
-239.903	-200.000	-0.038	0.228
-238.888	27.901	0.059	-0.049
-237.873	-200.000	-0.036	0.292
-236.859	-173.184	0.635	-0.019
-235.844	-121.397	0.055	-0.009
-234.830	107.159	0.163	0.190
-233.815	-48.169	0.074	0.035
-232.800	19.705	0.188	0.148
-231.786	469.957	-0.241	0.532
-230.771	800.000	-0.026	0.097
-229.757	209.112	0.090	0.138
-228.742	800.000	0.069	-0.234
-227.727	597.912	0.082	-0.198
-226.713	-127.200	0.253	-0.036
-225.698	83.420	0.062	-0.066
-224.684	-101.877	-0.301	0.071
-223.669	720.519	-0.003	-0.008
-222.655	232.030	-0.083	0.133
-221.640	39.915	0.220	0.194
-220.625	380.530	-0.046	-0.092
-219.611	269.448	-0.242	0.416
-218.596	-200.000	0.094	0.418
-217.582	-194.571	-0.348	-0.003
-216.567	-133.250	-0.110	-0.014
-215.552	-174.299	-0.074	-0.002
-214.538	11.899	0.120	-0.091
-213.523	248.631	-0.090	-0.150
-212.509	-200.000	0.009	0.045
-211.494	-200.000	-0.019	0.315
-210.479	69.482	0.246	0.248
-209.465	-53.720	-0.370	-0.166
-208.450	-200.000	-0.226	-0.001
-207.436	-200.000	0.073	0.401
-206.421	-79.885	0.125	-0.041
-205.406	49.093	0.102	0.094
-204.392	22.167	-0.072	0.058
-203.377	-200.000	-0.042	-0.241
-202.363	-200.000	0.005	-0.108
-201.348	-62.469	0.167	0.068
-200.333	-143.340	-0.125	0.012
-199.319	-14.181	-0.212	0.134
-198.304	-84.668	-0.040	0.012
-197.290	540.851	-0.173	0.403
-196.275	-200.000	0.006	0.160
-195.260	-200.000	-0.056	-0.645
-194.246	800.000	0.087	-0.338
-193.231	221.247	-0.167	-0.262
-192.217	-94.288	-0.019	-0.005
-191.202	-47.212	-0.145	-0.069
-190.187	277.884	-0.135	0.235
-189.173	-66.416	-0.111	-0.043
-188.158	410.999	0.060	-0.124
-187.144	-142.185	0.250	0.024
-186.129	-166.043	-0.212	-0.009
-185.114	800.000	0.046	-0.172
-184.100	485.873	-0.106	-0.236
-183.085	-111.419	0.109	0.022
-182.071	-200.000	0.072	-0.344
-181.056	214.841	0.093	0.144
-180.042	260.340	-0.047	-0.080
-179.027	-189.955	0.232	-0.003
-178.012	182.609	0.130	-0.188
-176.998	205.386	-0.092	0.140
-175.983	-1.673	0.339	0.233
-174.969	71.822	0.145	0.147
-173.954	-122.685	0.260	-0.041
-172.939	-200.000	-0.002	-0.066
-171.925	-175.356	0.141	-0.004
-170.910	13.879	-0.162	0.123
-169.896	-200.000	-0.002	0.220
-168.881	439.188	0.068	0.145
-167.866	28.328	0.135	0.112
-166.852	800.000	-0.064	0.267
-165.837	-200.000	0.057	0.505
-164.823	78.272	0.158	0.165
-163.808	800.000	-0.032	-0.136
-162.793	-85.121	-0.082	-0.025
-161.779	249.734	0.068	0.113
-160.764	75.159	0.261	-0.269
-159.750	449.901	-0.210	0.452
-158.735	-122.544	0.305	-0.048
-157.720	-31.845	0.118	-0.065
-156.706	143.334	0.051	0.067
-155.691	-190.441	0.048	0.001
-154.677	366.725	-0.115	-0.226
-153.662	124.036	-0.144	0.177
-152.647	49.297	0.183	-0.168
-151.633	-91.848	-0.103	-0.029
-150.618	800.000	0.118	-0.367
-149.604	-200.000	0.023	0.272
-148.589	145.833	-0.065	-0.085
-147.574	800.000	0.033	-0.129
-146.560	-106.450	-0.308	0.067
-145.545	27.822	0.034	0.028
-144.531	360.953	-0.053	-0.105
-143.516	289.072	0.110	0.196
-142.502	-67.836	-0.146	0.056
-141.487	-200.000	-0.012	-0.133
-140.472	800.000	0.063	-0.171
-139.458	-89.434	-0.303	-0.087
-138.443	-200.000	-0.027	0.204
-137.429	-40.495	-0.162	-0.082
-136.414	800.000	-0.112	-0.415
-135.399	5.068	0.113	0.081
-134.385	762.489	0.131	-0.348
-133.370	68.245	0.220	-0.220
-132.356	-98.894	0.259	0.064
-131.341	-195.604	-0.238	0.002
-130.326	-200.000	0.028	0.406
-129.312	-154.833	-0.364	-0.024
-128.297	-200.000	-0.064	-0.508
-127.283	512.968	-0.149	-0.339
-126.268	-46.670	-0.339	-0.162
-125.253	45.765	0.188	-0.170
-124.239	-4.758	-0.211	-0.142
-123.224	67.782	-0.289	-0.289
-122.210	66.823	0.287	-0.285
-121.195	-200.000	-0.006	-0.278
