DTS Sentinel unit serial number:	SN413079Multiplexer serial number:	ORYXHardware model number:	OX4-SRSoftware version number:	ORYX F/W v4.00 Oryx Data Collector v3.7.2.0data status	okinstallation	princeton_trtdifferential loss correction	single-endedforward channel	channel 3reverse channel	N/Adate	2019/09/14time	11:16:35forward acquisition time	60.00reverse acquisition time	0.00gamma	496.2192k internal	0.2298k external	0.2298temperature offset calibration	1.0063default loss term (dB/km)	0.3790temperature slope calibration	1.0000multiplexer offset coefficient	1.0000multiplexer slope coefficient	1.0000fibre end	0.00T internal ref (°C)	36.56T ext. ref 1 (°C)	4.48T ext. ref 2 (°C)	33.26length (m)	temperature (°C)	Stokes	anti-Stokes-747.200	-200.000	0.007	-0.108
-746.185	-14.779	-0.148	0.097
-745.171	-107.071	0.010	-0.002
-744.156	800.000	0.087	0.370
-743.142	-113.922	0.261	0.052
-742.127	127.460	0.043	0.055
-741.112	-23.722	0.219	0.134
-740.098	293.455	-0.136	0.254
-739.083	-60.200	-0.321	-0.140
-738.069	-35.660	0.082	-0.046
-737.054	250.451	-0.153	0.265
-736.039	-119.036	-0.167	0.030
-735.025	-62.729	-0.111	0.047
-734.010	-17.126	0.097	-0.063
-732.996	128.963	-0.126	0.165
-731.981	280.177	-0.071	-0.129
-730.966	267.998	0.108	0.194
-729.952	-52.883	0.118	-0.055
-728.937	-20.428	0.108	-0.068
-727.923	-15.263	0.271	0.177
-726.908	37.112	-0.092	0.083
-725.894	92.305	0.050	-0.058
-724.879	-103.812	-0.337	0.080
-723.864	2.699	-0.171	-0.127
-722.850	-200.000	0.008	-0.054
-721.835	-73.115	0.310	0.116
-720.821	119.733	-0.036	0.045
-719.806	-200.000	-0.002	0.051
-718.791	57.168	0.119	-0.119
-717.777	-200.000	0.035	-0.162
-716.762	-200.000	-0.004	-0.109
-715.748	99.916	-0.084	-0.099
-714.733	238.550	0.015	-0.026
-713.718	800.000	0.115	0.365
-712.704	-100.144	0.119	-0.030
-711.689	54.993	0.195	0.192
-710.675	128.559	0.106	0.137
-709.660	112.386	-0.032	0.039
-708.645	310.814	-0.049	-0.094
-707.631	-34.762	0.194	-0.108
-706.616	-118.360	0.163	0.030
-705.602	-200.000	-0.001	0.250
-704.587	374.936	-0.153	0.318
-703.572	-89.816	0.042	0.012
-702.558	-200.000	0.041	-0.189
-701.543	-123.370	-0.304	0.049
-700.529	8.805	-0.153	0.118
-699.514	-200.000	0.021	0.131
-698.499	800.000	-0.025	-0.091
-697.485	-159.219	0.261	0.015
-696.470	-31.788	0.073	-0.042
-695.456	-132.070	-0.329	-0.044
-694.441	-1.052	-0.235	0.170
-693.426	48.100	-0.148	0.141
-692.412	800.000	-0.028	-0.117
-691.397	-99.432	0.180	-0.046
-690.383	236.629	-0.040	0.068
-689.368	-60.607	-0.135	-0.058
-688.354	-48.618	-0.280	0.137
-687.339	39.573	-0.141	-0.129
-686.324	-200.000	0.266	-0.001
-685.310	361.701	0.109	-0.223
-684.295	-104.813	-0.242	-0.057
-683.281	-54.327	-0.326	-0.151
-682.266	-149.178	-0.177	0.014
-681.251	95.802	0.297	-0.346
-680.237	44.360	0.019	0.018
-679.222	324.278	-0.255	-0.495
-678.208	-36.717	0.250	0.137
-677.193	292.627	0.085	-0.158
-676.178	481.225	-0.218	-0.504
-675.164	6.754	-0.131	-0.100
-674.149	-51.769	-0.063	-0.030
-673.135	-200.000	-0.005	0.063
-672.120	800.000	-0.058	-0.205
-671.105	-170.683	-0.087	0.003
-670.091	-45.932	0.056	-0.028
-669.076	158.893	0.139	0.197
-668.062	-113.608	0.380	-0.076
-667.047	516.535	0.168	0.400
-666.032	21.387	-0.338	0.280
-665.018	342.189	-0.165	-0.328
-664.003	-117.792	0.323	-0.059
-662.989	-90.241	0.212	0.063
-661.974	-122.545	-0.122	0.020
-660.959	-110.918	0.066	0.014
-659.945	142.655	0.110	-0.148
-658.930	-175.810	0.405	-0.011
-657.916	-200.000	-0.024	-0.155
-656.901	-66.689	-0.126	0.051
-655.886	155.383	0.091	-0.127
-654.872	36.534	0.101	-0.090
-653.857	-59.459	0.187	0.082
-652.843	2.519	-0.238	0.175
-651.828	-200.000	-0.033	-0.298
-650.814	-6.581	0.023	0.016
-649.799	-50.602	-0.166	-0.079
-648.784	-96.465	0.212	0.057
-647.770	-193.765	0.202	-0.002
-646.755	800.000	-0.169	-0.485
-645.741	134.807	-0.230	0.304
-644.726	-37.473	0.158	0.086
-643.711	-78.181	0.270	0.095
-642.697	152.210	-0.092	0.127
-641.682	-180.070	0.229	0.005
-640.668	-71.898	-0.223	0.084
-639.653	-74.121	-0.278	-0.102
-638.638	56.087	-0.243	-0.240
-637.624	57.944	0.142	0.141
-636.609	23.937	-0.201	-0.169
-635.595	-116.388	-0.264	0.050
-634.580	389.590	-0.080	-0.168
-633.565	-34.810	-0.123	-0.069
-632.551	-152.145	-0.193	0.014
-631.536	100.225	0.131	-0.154
-630.522	-52.869	-0.338	-0.158
-629.507	185.756	-0.068	0.103
-628.492	62.431	0.097	-0.099
-627.478	-118.995	0.257	0.046
-626.463	-123.685	0.331	0.053
-625.449	4.868	0.199	-0.149
-624.434	62.303	-0.142	-0.144
-623.419	83.302	-0.101	-0.112
-622.405	-62.765	-0.210	-0.089
-621.390	-81.278	0.256	0.086
-620.376	19.051	0.105	0.086
-619.361	284.880	-0.086	0.157
-618.346	-34.813	0.204	-0.113
-617.332	-155.621	0.152	-0.010
-616.317	624.026	-0.101	-0.258
-615.303	-93.189	-0.076	-0.021
-614.288	-115.621	0.200	0.038
-613.273	-157.562	0.106	0.006
-612.259	-93.922	0.193	0.054
-611.244	-48.350	-0.261	-0.128
-610.230	40.438	-0.238	0.218
-609.215	-60.528	0.297	-0.128
-608.201	-34.094	-0.170	-0.095
-607.186	-83.975	-0.332	0.107
-606.171	460.097	0.036	-0.081
-605.157	437.429	0.162	-0.360
-604.142	-200.000	0.058	0.269
-603.128	-42.455	-0.205	-0.106
-602.113	499.884	-0.123	-0.287
-601.098	204.326	-0.167	0.263
-600.084	109.072	-0.189	-0.229
-599.069	-200.000	-0.011	0.070
-598.055	11.987	0.066	-0.051
-597.040	-200.000	-0.044	-0.271
-596.025	-77.116	-0.112	-0.040
-595.011	-200.000	0.086	0.458
-593.996	-21.759	0.102	-0.063
-592.982	671.557	0.051	0.135
-591.967	15.094	0.055	-0.044
-590.952	-200.000	0.035	-0.349
-589.938	539.065	0.110	0.265
-588.923	-200.000	-0.003	0.156
-587.909	142.813	0.096	0.130
-586.894	-200.000	0.023	-0.453
-585.879	258.319	-0.250	-0.437
-584.865	267.539	0.135	-0.240
-583.850	-16.634	0.110	0.071
-582.836	147.894	-0.074	-0.101
-581.821	-159.750	-0.135	0.008
-580.806	-140.198	0.204	0.022
-579.792	-38.038	-0.133	-0.072
-578.777	-83.491	-0.327	0.106
-577.763	268.211	0.066	0.117
-576.748	80.048	-0.040	-0.044
-575.733	-130.939	0.403	-0.055
-574.719	-23.168	0.072	-0.044
-573.704	-153.374	-0.081	0.006
-572.690	237.485	-0.087	0.146
-571.675	741.712	0.085	-0.231
-570.661	413.710	0.009	0.020
-569.646	-45.582	-0.136	0.068
-568.631	244.113	-0.060	-0.103
-567.617	26.198	0.240	0.203
-566.602	-17.410	0.114	-0.073
-565.588	-103.774	0.517	0.123
-564.573	-200.000	0.055	-0.414
-563.558	-144.577	-0.150	0.014
-562.544	-50.546	0.177	0.084
-561.529	334.702	0.104	-0.205
-560.515	-200.000	-0.105	-0.545
-559.500	80.229	-0.237	-0.259
-558.485	430.373	0.039	-0.086
-557.471	153.603	0.221	0.307
-556.456	-0.745	-0.198	-0.142
-555.442	121.742	0.120	-0.151
-554.427	224.600	-0.174	-0.286
-553.412	87.937	-0.149	-0.167
-552.398	-134.750	0.172	0.021
-551.383	96.353	-0.102	-0.119
-550.369	-17.516	0.041	-0.026
-549.354	-200.000	-0.047	0.358
-548.339	122.775	0.343	-0.435
-547.325	-51.432	-0.225	0.107
-546.310	249.959	-0.086	0.148
-545.296	800.000	0.114	-0.337
-544.281	800.000	0.072	-0.235
-543.266	-200.000	0.048	-0.321
-542.252	-183.452	0.124	-0.002
-541.237	-24.233	0.108	0.066
-540.223	758.230	-0.058	-0.159
-539.208	-67.697	0.035	-0.014
-538.193	-83.376	0.113	-0.037
-537.179	594.640	0.029	0.072
-536.164	800.000	-0.020	-0.061
-535.150	-45.360	0.240	0.120
-534.135	125.822	0.179	-0.229
-533.121	800.000	-0.127	-0.359
-532.106	-160.293	-0.264	0.014
-531.091	-107.128	-0.234	-0.052
-530.077	221.673	0.155	0.253
-529.062	-90.649	-0.014	-0.004
-528.048	1.050	-0.214	-0.155
-527.033	359.249	0.109	0.221
-526.018	-200.000	0.019	-0.185
-525.004	278.969	-0.261	-0.472
-523.989	-52.564	0.235	-0.110
-522.975	-137.525	-0.129	-0.015
-521.960	800.000	-0.067	-0.275
-520.945	-91.529	0.179	0.052
-519.931	-200.000	-0.040	0.270
-518.916	-127.657	0.343	0.050
-517.902	-23.035	-0.216	0.132
-516.887	-200.000	-0.019	0.191
-515.872	194.978	-0.106	-0.162
-514.858	28.611	0.187	0.160
-513.843	-134.578	0.176	0.022
-512.829	-128.996	-0.062	-0.009
-511.814	80.882	-0.149	0.163
-510.799	-179.061	-0.114	-0.003
-509.785	74.143	-0.088	0.094
-508.770	800.000	-0.021	-0.076
-507.756	15.186	0.277	0.219
-506.741	-200.000	0.084	0.428
-505.726	137.754	0.099	0.131
-504.712	-102.151	0.287	0.070
-503.697	121.096	-0.094	-0.118
-502.683	-200.000	-0.042	0.217
-501.668	-47.600	0.325	-0.159
-500.653	-27.472	-0.111	-0.065
-499.639	108.114	0.048	-0.057
-498.624	230.740	-0.098	0.162
-497.610	83.541	0.091	-0.101
-496.595	83.629	-0.074	0.081
-495.581	800.000	0.066	-0.185
-494.566	-12.409	0.277	0.183
-493.551	-157.000	-0.277	0.017
-492.537	-200.000	-0.006	-0.294
-491.522	-200.000	-0.064	-0.298
-490.508	123.416	0.164	-0.208
-489.493	-19.983	-0.320	-0.200
-488.478	113.200	-0.161	-0.197
-487.464	108.493	0.275	0.332
-486.449	234.708	-0.128	0.214
-485.435	-85.990	-0.091	-0.028
-484.420	36.568	-0.149	-0.133
-483.405	-200.000	0.007	-0.223
-482.391	131.555	-0.108	-0.140
-481.376	-36.396	-0.201	0.109
-480.362	92.935	0.213	0.243
-479.347	79.443	0.139	0.151
-478.332	800.000	-0.021	-0.090
-477.318	41.988	0.044	0.040
-476.303	-52.736	0.287	0.134
-475.289	800.000	-0.035	-0.149
-474.274	800.000	0.025	0.106
-473.259	-129.082	0.051	-0.007
-472.245	686.598	-0.095	-0.252
-471.230	-76.183	0.262	0.093
-470.216	-200.000	0.001	-0.471
-469.201	-98.227	-0.073	-0.019
-468.186	-200.000	-0.033	-0.153
-467.172	-200.000	-0.008	0.036
-466.157	89.545	0.043	-0.049
-465.143	229.077	-0.079	-0.130
-464.128	163.721	-0.111	-0.158
-463.113	-55.952	-0.289	0.130
-462.099	-66.769	-0.108	-0.043
-461.084	397.973	-0.051	0.108
-460.070	-200.000	0.044	0.208
-459.055	-80.398	-0.359	0.121
-458.040	50.478	-0.112	-0.107
-457.026	11.402	0.179	0.138
-456.011	233.970	0.132	0.219
-454.997	180.046	-0.039	-0.057
-453.982	800.000	0.117	-0.376
-452.968	-122.834	-0.333	-0.054
-451.953	155.301	0.159	-0.221
-450.938	-145.631	-0.318	0.029
-449.924	-200.000	0.030	-0.198
-448.909	-200.000	-0.078	0.350
-447.895	402.839	-0.092	0.194
-446.880	-141.466	0.296	0.030
-445.865	14.551	-0.294	0.231
-444.851	-78.798	-0.063	-0.022
-443.836	28.571	-0.199	0.170
-442.822	-167.507	0.134	0.005
-441.807	-200.000	0.020	-0.114
-440.792	107.994	-0.065	0.078
-439.778	800.000	0.060	0.196
-438.763	53.822	0.113	0.109
-437.749	-147.752	0.220	-0.019
-436.734	800.000	-0.154	0.434
-435.719	82.412	0.208	-0.228
-434.705	-19.260	0.276	0.173
-433.690	-30.024	0.107	-0.062
-432.676	413.907	0.073	0.156
-431.661	-14.959	0.019	-0.013
-430.646	49.716	-0.118	-0.113
-429.632	117.945	-0.205	0.255
-428.617	-200.000	-0.009	0.045
-427.603	45.783	-0.150	-0.140
-426.588	257.693	-0.177	0.307
-425.573	800.000	-0.074	0.209
-424.559	-154.646	-0.207	0.014
-423.544	131.495	0.129	-0.167
-422.530	-131.142	0.187	0.025
-421.515	-200.000	0.043	0.356
-420.500	-200.000	0.028	0.177
-419.486	218.057	-0.152	0.244
-418.471	26.336	-0.075	-0.063
-417.457	13.833	0.106	0.083
-416.442	-66.578	-0.373	0.149
-415.428	119.516	0.137	0.171
-414.413	150.450	0.051	-0.069
-413.398	111.709	-0.277	0.337
-412.384	-59.935	-0.254	0.110
-411.369	-200.000	-0.006	-0.058
-410.355	593.233	-0.016	-0.040
-409.340	12.975	-0.085	0.067
-408.325	-133.613	0.257	0.032
-407.311	24.577	0.105	0.088
-406.296	-56.837	0.292	-0.130
-405.282	-1.777	0.105	0.074
-404.267	800.000	0.092	-0.407
-403.252	517.276	-0.030	0.071
-402.238	50.567	-0.140	0.133
-401.223	-91.949	0.196	-0.056
-400.209	-37.703	-0.159	-0.085
-399.194	212.341	0.114	-0.181
-398.179	694.698	0.052	0.138
-397.165	-110.954	0.226	0.047
-396.150	178.709	-0.054	0.079
-395.136	-53.620	0.260	-0.120
-394.121	-131.977	-0.127	0.017
-393.106	76.864	-0.105	-0.112
-392.092	19.956	0.213	-0.173
-391.077	-103.422	-0.234	-0.055
-390.063	64.422	-0.061	0.062
-389.048	177.005	-0.088	0.130
-388.033	-200.000	-0.058	0.335
-387.019	-200.000	0.018	-0.247
-386.004	12.020	-0.060	-0.046
-384.990	30.121	-0.257	0.221
-383.975	-200.000	-0.029	-0.173
-382.960	48.705	-0.093	0.087
-381.946	-200.000	0.062	0.404
-380.931	8.255	0.437	0.330
-379.917	223.222	-0.059	-0.097
-378.902	330.407	-0.173	-0.335
-377.888	716.422	-0.087	-0.232
-376.873	528.257	0.096	0.229
-375.858	-107.889	-0.220	-0.048
-374.844	68.428	-0.090	0.093
-373.829	-45.822	0.306	0.152
-372.815	-200.000	-0.035	0.226
-371.800	192.577	-0.107	0.162
-370.785	-200.000	0.003	0.271
-369.771	-62.405	0.152	-0.064
-368.756	329.408	0.179	-0.347
-367.742	276.805	-0.031	0.056
-366.727	-64.669	0.256	0.104
-365.712	568.991	0.137	0.336
-364.698	186.857	-0.152	0.228
-363.683	-200.000	0.003	-0.137
-362.669	792.325	-0.010	0.028
-361.654	-200.000	0.028	0.157
-360.639	800.000	0.009	0.029
-359.625	-200.000	0.005	0.171
-358.610	-71.295	-0.219	-0.082
-357.596	-23.331	-0.004	-0.003
-356.581	179.479	-0.137	0.202
-355.566	-96.565	-0.271	-0.072
-354.552	-200.000	-0.007	-0.108
-353.537	58.989	-0.163	0.161
-352.523	443.407	-0.069	0.153
-351.508	-200.000	0.037	0.210
-350.493	-5.288	0.123	-0.085
-349.479	133.324	-0.071	0.092
-348.464	-63.049	0.225	-0.093
-347.450	800.000	0.044	-0.182
-346.435	476.695	-0.091	0.207
-345.420	800.000	0.030	-0.101
-344.406	-167.272	-0.236	-0.010
-343.391	-95.118	-0.046	-0.013
-342.377	800.000	-0.041	-0.143
-341.362	113.651	0.156	0.191
-340.348	-137.393	-0.064	-0.007
-339.333	-114.545	-0.147	-0.028
-338.318	-98.499	-0.256	0.066
-337.304	740.718	0.081	0.220
-336.289	127.423	0.106	0.135
-335.275	251.831	0.034	-0.059
-334.260	471.586	-0.134	-0.302
-333.245	-141.506	-0.379	0.039
-332.231	-82.082	0.271	0.089
-331.216	313.121	-0.233	0.440
-330.202	280.838	0.045	0.081
-329.187	119.020	0.094	0.117
-328.172	-102.459	0.464	0.111
-327.158	-200.000	-0.008	-0.485
-326.143	-200.000	0.035	-0.322
-325.129	-81.001	0.063	0.021
-324.114	-5.535	-0.289	0.199
-323.099	-200.000	0.014	0.152
-322.085	24.461	0.083	-0.069
-321.070	-200.000	0.009	0.115
-320.056	-121.016	0.030	0.005
-319.041	15.228	-0.194	-0.153
-318.026	128.677	-0.120	0.153
-317.012	183.832	0.074	0.110
-315.997	340.612	0.139	0.272
-314.983	222.037	-0.061	0.099
-313.968	-200.000	0.088	-0.476
-312.953	3.428	-0.152	0.111
-311.939	-101.112	0.197	-0.048
-310.924	45.894	0.121	-0.112
-309.910	48.376	0.101	0.095
-308.895	9.910	-0.183	0.140
-307.880	580.646	0.087	-0.215
-306.866	55.431	0.158	0.153
-305.851	-4.207	0.552	0.384
-304.837	274.021	0.053	-0.095
-303.822	683.291	0.080	0.210
-302.807	-22.162	0.251	-0.153
-301.793	71.149	0.070	0.073
-300.778	-167.409	0.093	0.004
-299.764	-27.203	-0.302	-0.177
-298.749	-28.421	0.285	0.165
-297.735	-200.000	-0.198	0.000
-296.720	215.673	-0.071	-0.114
-295.705	-123.809	-0.147	-0.023
-294.691	261.634	-0.015	0.027
-293.676	238.357	-0.160	-0.266
-292.662	800.000	-0.089	-0.285
-291.647	-159.273	-0.339	0.019
-290.632	-56.303	-0.219	0.098
-289.618	-44.485	0.179	-0.090
-288.603	-43.342	0.327	-0.166
-287.589	-63.442	-0.107	-0.044
-286.574	-115.460	0.258	0.049
-285.559	135.692	-0.045	-0.058
-284.545	347.381	0.144	0.284
-283.530	-9.103	0.175	-0.118
-282.516	-18.800	0.153	-0.096
-281.501	-30.085	0.199	-0.113
-280.486	162.805	0.119	0.168
-279.472	-148.283	0.213	0.018
-278.457	4.225	0.123	-0.090
-277.443	-18.846	0.051	0.032
-276.428	-9.882	-0.160	0.107
-275.413	150.528	-0.049	-0.066
-274.399	800.000	0.036	-0.112
-273.384	-200.000	0.055	0.403
-272.370	157.414	-0.143	-0.199
-271.355	67.090	-0.081	-0.083
-270.340	230.926	-0.062	-0.102
-269.326	130.233	-0.254	-0.326
-268.311	336.110	0.112	-0.218
-267.297	800.000	-0.110	-0.330
-266.282	677.939	0.062	-0.161
-265.267	-107.960	0.309	-0.067
-264.253	-47.610	-0.070	0.034
-263.238	88.029	-0.095	0.105
-262.224	146.447	0.122	0.164
-261.209	-200.000	-0.045	0.308
-260.195	634.691	-0.126	0.319
-259.180	30.935	0.106	-0.091
-258.165	16.013	-0.073	0.058
-257.151	-200.000	-0.004	0.262
-256.136	-63.527	0.021	-0.009
-255.122	-77.776	-0.063	0.022
-254.107	115.417	0.255	0.312
-253.092	-141.089	-0.092	-0.009
-252.078	-200.000	0.043	-0.296
-251.063	-0.258	-0.135	0.096
-250.049	-200.000	-0.006	-0.132
-249.034	-52.910	0.111	0.051
-248.019	-200.000	0.001	0.103
-247.005	42.014	0.145	-0.132
-245.990	215.329	-0.050	0.079
-244.976	480.638	-0.233	0.529
-243.961	800.000	-0.117	0.399
-242.946	-110.273	0.171	0.036
-241.932	77.755	-0.019	-0.020
-240.917	-18.951	-0.396	-0.247
-239.903	192.156	-0.175	-0.264
-238.888	-93.290	0.077	-0.021
-237.873	-92.126	0.235	0.067
-236.859	-39.348	-0.129	0.068
-235.844	-50.887	0.149	-0.070
-234.830	-61.180	-0.163	-0.069
-233.815	205.334	-0.099	0.154
-232.800	-60.704	-0.211	0.090
-231.786	162.654	-0.112	-0.158
-230.771	-200.000	-0.012	-0.255
-229.757	-82.554	0.239	-0.078
-228.742	119.272	-0.060	0.074
-227.727	800.000	0.065	-0.254
-226.713	-200.000	-0.005	-0.113
-225.698	-104.211	0.320	0.074
-224.684	-10.781	0.255	0.169
-223.669	-155.529	0.271	-0.017
-222.655	-5.309	-0.221	0.152
-221.640	71.067	0.071	0.073
-220.625	-16.786	-0.229	0.145
-219.611	-156.274	-0.323	-0.020
-218.596	-92.789	0.110	-0.031
-217.582	-125.006	0.059	-0.009
-216.567	682.645	0.195	0.509
-215.552	800.000	0.020	-0.078
-214.538	-200.000	-0.049	0.347
-213.523	-61.417	-0.050	0.021
-212.509	13.139	0.040	0.031
-211.494	-200.000	0.008	-0.122
-210.479	-200.000	-0.009	0.235
-209.465	568.694	-0.057	-0.139
-208.450	182.453	-0.271	-0.399
-207.436	-61.823	-0.251	-0.105
-206.421	-141.386	0.095	0.010
-205.406	-41.433	-0.179	0.092
-204.392	-200.000	-0.007	0.249
-203.377	-92.228	-0.253	0.071
-202.363	340.518	0.133	-0.259
-201.348	-121.885	-0.243	-0.040
-200.333	800.000	0.039	-0.143
-199.319	166.814	-0.082	0.117
-198.304	5.467	-0.210	-0.155
-197.290	27.162	0.274	0.230
-196.275	-200.000	-0.045	-0.239
-195.260	-200.000	-0.040	-0.333
-194.246	800.000	-0.104	-0.304
-193.231	800.000	0.042	-0.121
-192.217	76.263	-0.115	0.122
-191.202	102.585	-0.154	-0.180
-190.187	631.263	-0.114	-0.289
-189.173	4.147	0.351	0.257
-188.158	84.355	0.170	0.186
-187.144	-113.988	0.215	0.042
-186.129	800.000	-0.031	-0.125
-185.114	148.160	0.149	0.201
-184.100	-82.234	0.350	-0.114
-183.085	-80.495	-0.419	-0.139
-182.071	-137.231	-0.209	0.024
-181.056	36.384	0.318	-0.280
-180.042	45.730	-0.087	0.080
-179.027	800.000	0.022	0.060
-178.012	286.673	0.077	0.139
-176.998	-200.000	0.000	0.103
-175.983	-157.650	-0.094	0.006
-174.969	-200.000	-0.004	-0.034
-173.954	719.440	0.014	-0.036
-172.939	800.000	-0.142	0.425
-171.925	-5.633	0.230	0.158
-170.910	272.691	0.119	-0.209
-169.896	40.425	-0.158	0.142
-168.881	337.959	-0.061	-0.119
-167.866	-200.000	0.039	0.169
-166.852	274.991	0.145	0.257
-165.837	-12.075	-0.365	0.238
-164.823	84.230	-0.179	-0.195
-163.808	173.587	0.221	-0.318
-162.793	-72.539	0.533	-0.196
-161.779	37.898	-0.145	-0.129
-160.764	102.286	-0.286	-0.333
-159.750	-200.000	0.013	0.343
-158.735	800.000	-0.035	-0.102
-157.720	-200.000	0.009	0.086
-156.706	458.582	-0.132	0.293
-155.691	173.671	0.053	0.077
-154.677	197.433	-0.128	0.195
-153.662	8.218	0.190	-0.142
-152.647	228.343	0.109	0.178
-151.633	-90.521	0.252	-0.073
-150.618	-13.950	0.221	-0.142
-149.604	103.696	0.145	-0.170
-148.589	-65.301	0.254	-0.102
-147.574	-66.493	-0.232	0.092
-146.560	-114.626	0.133	-0.025
-145.545	-63.957	0.190	0.077
-144.531	337.682	-0.047	0.092
-143.516	-110.854	-0.227	-0.047
-142.502	800.000	-0.042	0.175
-141.487	-165.116	-0.113	0.005
-140.472	-88.159	0.069	0.021
-139.458	-70.747	-0.160	-0.060
-138.443	-96.802	-0.304	-0.080
-137.429	112.483	-0.181	0.219
-136.414	57.201	-0.289	0.281
-135.399	-140.627	0.225	-0.023
-134.385	462.247	0.148	-0.328
-133.370	-103.480	-0.122	-0.029
-132.356	489.773	0.064	0.146
-131.341	800.000	0.066	-0.237
-130.326	800.000	0.054	-0.215
-129.312	-24.897	0.174	0.103
-128.297	-200.000	-0.007	-0.208
-127.283	16.707	-0.202	-0.159
-126.268	-200.000	-0.091	-0.422
-125.253	170.291	-0.252	0.359
-124.239	800.000	-0.063	0.235
-123.224	-189.703	-0.239	-0.003
-122.210	800.000	-0.019	-0.056
-121.195	613.123	0.110	-0.275
