DTS Sentinel unit serial number:	SN413079Multiplexer serial number:	ORYXHardware model number:	OX4-SRSoftware version number:	ORYX F/W v4.00 Oryx Data Collector v3.7.2.0data status	okinstallation	princeton_trtdifferential loss correction	single-endedforward channel	channel 3reverse channel	N/Adate	2019/09/15time	16:08:34forward acquisition time	60.00reverse acquisition time	0.00gamma	496.2192k internal	0.2288k external	0.2288temperature offset calibration	0.9932default loss term (dB/km)	0.3790temperature slope calibration	1.0000multiplexer offset coefficient	1.0000multiplexer slope coefficient	1.0000fibre end	0.00T internal ref (°C)	43.12T ext. ref 1 (°C)	5.37T ext. ref 2 (°C)	40.65length (m)	temperature (°C)	Stokes	anti-Stokes-747.200	-200.000	-0.025	-0.372
-746.185	48.227	-0.342	0.328
-745.171	800.000	0.028	0.094
-744.156	-200.000	-0.029	0.417
-743.142	-49.560	-0.085	0.042
-742.127	79.876	0.199	0.219
-741.112	-98.191	-0.243	0.064
-740.098	-200.000	-0.009	0.043
-739.083	535.849	0.098	-0.239
-738.069	800.000	0.062	-0.185
-737.054	800.000	-0.113	-0.345
-736.039	373.151	-0.158	0.329
-735.025	-113.030	0.538	0.109
-734.010	-124.547	-0.237	0.038
-732.996	60.133	-0.148	0.150
-731.981	16.636	-0.177	-0.144
-730.966	800.000	0.097	-0.381
-729.952	26.500	0.027	-0.023
-728.937	-123.638	-0.114	-0.018
-727.923	782.994	-0.041	-0.114
-726.908	-121.709	-0.094	-0.016
-725.894	-116.718	-0.039	-0.007
-724.879	-113.415	-0.378	0.076
-723.864	-167.656	-0.163	-0.007
-722.850	-107.702	-0.464	0.104
-721.835	-104.486	0.098	-0.023
-720.821	3.454	0.108	0.081
-719.806	5.092	-0.392	-0.296
-718.791	-116.505	-0.091	-0.017
-717.777	-112.207	0.168	0.035
-716.762	-7.479	-0.145	-0.100
-715.748	60.638	0.164	-0.167
-714.733	-31.975	0.342	-0.196
-713.718	-73.481	0.607	-0.227
-712.704	-1.328	-0.196	0.142
-711.689	-152.752	-0.093	-0.007
-710.675	-200.000	0.086	-0.424
-709.660	-97.746	0.421	-0.111
-708.645	288.278	-0.115	-0.214
-707.631	148.422	0.154	0.213
-706.616	240.812	-0.139	0.238
-705.602	-19.858	-0.023	0.015
-704.587	-200.000	0.021	-0.103
-703.572	-200.000	-0.081	-0.388
-702.558	-124.912	-0.114	-0.018
-701.543	100.797	-0.262	0.311
-700.529	589.426	-0.076	0.192
-699.514	79.892	0.173	-0.190
-698.499	-200.000	-0.021	0.123
-697.485	-151.368	0.203	-0.016
-696.470	-29.599	-0.117	0.068
-695.456	-22.530	0.240	-0.148
-694.441	-200.000	0.009	0.091
-693.426	-18.251	-0.046	0.030
-692.412	-57.892	0.076	0.034
-691.397	39.765	-0.080	-0.073
-690.383	800.000	-0.047	0.201
-689.368	800.000	0.045	-0.165
-688.354	306.054	-0.247	-0.470
-687.339	-200.000	-0.054	-0.395
-686.324	2.747	-0.158	0.117
-685.310	800.000	0.027	0.095
-684.295	-29.643	-0.336	-0.196
-683.281	112.986	0.141	-0.175
-682.266	-156.601	0.476	-0.030
-681.251	-145.920	-0.243	-0.022
-680.237	-152.158	0.099	-0.007
-679.222	6.698	-0.291	-0.222
-678.208	456.098	0.062	-0.141
-677.193	-38.893	-0.321	-0.173
-676.178	-81.591	0.081	0.027
-675.164	800.000	-0.052	0.201
-674.149	800.000	0.045	0.198
-673.135	337.228	0.128	0.254
-672.120	70.152	-0.137	-0.145
-671.105	471.799	-0.194	0.446
-670.091	-167.105	-0.024	-0.001
-669.076	377.678	-0.188	-0.393
-668.062	173.717	0.068	-0.101
-667.047	40.403	0.017	0.015
-666.032	-59.323	-0.462	-0.203
-665.018	53.706	-0.118	-0.116
-664.003	21.423	-0.198	0.164
-662.989	78.590	0.286	0.312
-661.974	80.002	0.050	-0.055
-660.959	51.542	0.113	0.110
-659.945	163.728	-0.072	-0.104
-658.930	152.973	-0.087	0.121
-657.916	101.864	0.157	-0.187
-656.901	85.052	-0.068	0.076
-655.886	-200.000	0.001	0.275
-654.872	-22.496	-0.148	-0.092
-653.857	170.470	-0.167	0.244
-652.843	-67.293	0.169	0.068
-651.828	-27.446	-0.200	-0.119
-650.814	-101.068	0.114	-0.029
-649.799	-62.381	-0.389	-0.165
-648.784	7.130	-0.151	0.115
-647.770	751.371	-0.105	0.290
-646.755	200.084	-0.094	-0.147
-645.741	28.257	0.128	-0.111
-644.726	-137.836	0.185	-0.021
-643.711	-200.000	0.009	-0.048
-642.697	2.478	0.325	0.240
-641.682	-35.149	-0.227	-0.126
-640.668	572.646	-0.095	0.237
-639.653	-113.401	0.210	0.042
-638.638	-65.913	0.243	0.099
-637.624	787.791	0.081	0.226
-636.609	209.683	0.051	0.081
-635.595	-200.000	-0.006	-0.078
-634.580	-96.127	-0.004	0.001
-633.565	221.162	0.062	0.101
-632.551	-125.073	-0.055	0.009
-631.536	-147.200	0.427	0.037
-630.522	-152.877	0.335	0.024
-629.507	-34.227	-0.308	-0.173
-628.492	-33.081	0.115	0.065
-627.478	-200.000	-0.007	0.242
-626.463	-114.252	0.193	-0.038
-625.449	307.048	0.106	0.202
-624.434	-119.979	0.120	-0.021
-623.419	213.410	0.137	0.221
-622.405	-61.412	-0.117	0.050
-621.390	-200.000	-0.008	0.238
-620.376	-200.000	-0.021	-0.186
-619.361	-73.326	-0.241	-0.090
-618.346	-180.106	-0.085	0.002
-617.332	338.200	-0.118	-0.235
-616.317	0.112	-0.253	0.184
-615.303	800.000	-0.089	0.346
-614.288	-16.511	-0.325	-0.210
-613.273	269.679	-0.105	-0.188
-612.259	458.575	-0.114	-0.259
-611.244	-200.000	-0.042	-0.231
-610.230	424.845	0.122	-0.269
-609.215	-136.600	0.199	0.023
-608.201	397.375	-0.159	-0.339
-607.186	120.084	0.030	-0.038
-606.171	-92.730	-0.107	-0.031
-605.157	302.103	-0.124	-0.234
-604.142	800.000	0.046	-0.136
-603.128	44.328	-0.034	-0.032
-602.113	154.223	-0.033	-0.046
-601.098	800.000	-0.093	0.412
-600.084	-200.000	-0.001	0.013
-599.069	49.678	0.166	0.159
-598.055	192.202	0.206	0.317
-597.040	-122.225	0.454	0.076
-596.025	800.000	-0.031	-0.121
-595.011	337.301	0.078	0.155
-593.996	-75.282	-0.211	0.077
-592.982	149.057	0.231	-0.318
-591.967	281.838	0.154	-0.281
-590.952	30.699	0.286	-0.250
-589.938	-87.573	-0.260	0.080
-588.923	-149.780	0.194	-0.016
-587.909	6.007	-0.059	-0.045
-586.894	42.105	-0.160	0.148
-585.879	-200.000	-0.028	0.139
-584.865	-200.000	-0.053	0.315
-583.850	-20.701	-0.321	0.201
-582.836	-200.000	-0.051	0.282
-581.821	0.311	-0.042	0.031
-580.806	-16.176	-0.215	-0.139
-579.792	157.901	-0.097	0.137
-578.777	6.339	-0.205	0.155
-577.763	53.546	-0.071	-0.070
-576.748	800.000	-0.041	-0.160
-575.733	-87.005	0.264	-0.082
-574.719	-103.431	-0.422	-0.101
-573.704	-111.920	-0.275	0.057
-572.690	-109.076	0.056	-0.012
-571.675	-200.000	0.010	0.108
-570.661	365.125	-0.076	0.155
-569.646	26.642	-0.176	0.150
-568.631	-55.758	0.074	0.034
-567.617	-200.000	-0.082	-0.509
-566.602	-28.696	-0.095	0.056
-565.588	-35.629	0.291	-0.161
-564.573	-84.484	-0.372	-0.119
-563.558	-15.266	-0.128	0.083
-562.544	-200.000	0.080	0.000
-561.529	234.400	0.108	0.182
-560.515	-200.000	-0.010	0.071
-559.500	-23.146	0.216	0.132
-558.485	-25.444	0.088	0.053
-557.471	603.636	-0.063	-0.159
-556.456	-0.512	0.198	-0.143
-555.442	-200.000	0.004	0.062
-554.427	-44.330	0.287	0.147
-553.412	800.000	0.020	0.059
-552.398	-100.081	-0.279	-0.071
-551.383	-113.429	-0.261	0.052
-550.369	-23.891	0.455	0.277
-549.354	141.562	0.147	0.198
-548.339	-200.000	-0.013	0.334
-547.325	800.000	-0.039	0.111
-546.310	800.000	0.055	-0.231
-545.296	149.142	0.096	0.132
-544.281	-148.688	0.250	-0.021
-543.266	-25.655	-0.210	-0.126
-542.252	-147.957	-0.383	-0.032
-541.237	224.198	0.262	0.430
-540.223	-148.660	0.124	0.010
-539.208	-200.000	0.014	0.290
-538.193	-132.642	0.075	-0.010
-537.179	800.000	-0.076	0.268
-536.164	-120.308	-0.258	-0.045
-535.150	-200.000	-0.005	-0.043
-534.135	217.347	-0.149	-0.241
-533.121	126.445	-0.159	-0.205
-532.106	-200.000	-0.005	-0.357
-531.091	276.147	0.110	-0.198
-530.077	-60.858	0.265	0.114
-529.062	-144.800	-0.103	-0.010
-528.048	-200.000	0.028	0.316
-527.033	-7.691	0.127	-0.087
-526.018	217.698	-0.026	0.043
-525.004	800.000	-0.083	-0.307
-523.989	-200.000	0.075	-0.400
-522.975	116.172	0.084	-0.104
-521.960	171.887	0.065	-0.095
-520.945	-1.743	0.174	0.124
-519.931	7.809	-0.086	0.066
-518.916	156.896	-0.012	0.016
-517.902	84.231	0.034	0.038
-516.887	-83.299	-0.175	0.057
-515.872	-200.000	0.059	0.272
-514.858	447.008	-0.142	-0.316
-513.843	184.724	-0.225	-0.338
-512.829	-84.875	0.132	0.042
-511.814	-113.434	0.175	0.035
-510.799	-40.140	-0.059	0.031
-509.785	-200.000	0.041	-0.285
-508.770	800.000	-0.059	-0.176
-507.756	-48.323	-0.262	0.128
-506.741	60.493	-0.124	0.125
-505.726	438.118	-0.120	-0.266
-504.712	66.951	0.133	0.138
-503.697	-184.381	0.247	-0.004
-502.683	-200.000	0.046	-0.414
-501.668	582.030	-0.128	-0.318
-500.653	101.896	-0.029	-0.034
-499.639	800.000	-0.099	0.360
-498.624	-95.625	-0.263	-0.071
-497.610	-114.848	-0.333	-0.064
-496.595	-200.000	-0.019	0.159
-495.581	85.404	-0.215	0.239
-494.566	-75.450	0.457	-0.165
-493.551	-77.384	-0.073	-0.026
-492.537	-200.000	0.033	-0.245
-491.522	-200.000	0.018	0.316
-490.508	-200.000	-0.022	-0.312
-489.493	-87.273	0.188	-0.058
-488.478	-3.324	-0.076	0.054
-487.464	9.168	-0.074	-0.057
-486.449	-35.526	0.120	0.066
-485.435	-200.000	-0.042	0.192
-484.420	-138.092	-0.223	0.025
-483.405	224.955	0.075	-0.123
-482.391	9.636	0.193	0.148
-481.376	-24.118	0.169	-0.103
-480.362	-200.000	-0.295	0.001
-479.347	800.000	-0.054	-0.169
-478.332	-200.000	-0.019	-0.093
-477.318	-121.795	0.271	0.045
-476.303	-71.877	-0.125	0.047
-475.289	173.561	-0.152	-0.222
-474.274	52.072	-0.235	-0.227
-473.259	-120.055	0.211	0.037
-472.245	470.895	0.184	-0.420
-471.230	25.645	-0.026	0.022
-470.216	-200.000	0.020	-0.174
-469.201	-200.000	0.036	-0.189
-468.186	103.035	0.261	0.310
-467.172	118.416	0.140	0.175
-466.157	-15.502	-0.133	-0.086
-465.143	-116.092	-0.314	0.059
-464.128	-162.033	-0.463	-0.024
-463.113	449.955	-0.017	-0.038
-462.099	-103.316	0.297	0.071
-461.084	-112.801	-0.206	0.041
-460.070	800.000	-0.081	-0.248
-459.055	2.613	0.098	-0.072
-458.040	-200.000	-0.004	-0.133
-457.026	-35.786	-0.202	-0.111
-456.011	18.349	-0.279	-0.226
-454.997	-103.918	0.192	-0.045
-453.982	800.000	0.015	-0.068
-452.968	-101.772	0.477	0.117
-451.953	800.000	-0.076	-0.291
-450.938	16.051	0.225	-0.180
-449.924	-200.000	0.009	0.179
-448.909	-200.000	0.025	0.151
-447.895	-41.824	0.249	0.130
-446.880	800.000	0.104	0.349
-445.865	-200.000	-0.034	0.452
-444.851	-34.701	0.326	0.181
-443.836	34.508	0.127	0.113
-442.822	-200.000	-0.029	-0.173
-441.807	165.707	0.200	-0.287
-440.792	-78.764	0.186	0.064
-439.778	173.781	0.131	0.191
-438.763	-90.574	-0.174	-0.051
-437.749	-50.546	-0.190	-0.091
-436.734	58.532	-0.220	-0.219
-435.719	-70.083	0.054	-0.021
-434.705	-197.632	0.135	-0.001
-433.690	800.000	-0.062	-0.235
-432.676	-129.655	0.163	-0.023
-431.661	-200.000	-0.028	0.257
-430.646	51.532	0.229	-0.220
-429.632	-81.329	-0.192	-0.064
-428.617	800.000	0.006	0.021
-427.603	-113.069	-0.189	0.038
-426.588	800.000	-0.057	-0.171
-425.573	-102.068	0.079	0.019
-424.559	-177.381	0.073	0.002
-423.544	-200.000	0.031	-0.193
-422.530	148.396	-0.098	-0.134
-421.515	-130.669	0.179	0.024
-420.500	166.101	-0.149	-0.214
-419.486	-200.000	-0.055	0.351
-418.471	-200.000	-0.008	0.113
-417.457	146.092	0.131	0.177
-416.442	-88.705	0.410	-0.123
-415.428	187.541	-0.151	0.229
-414.413	-140.148	0.204	0.022
-413.398	17.174	0.095	-0.076
-412.384	800.000	0.136	-0.554
-411.369	451.572	-0.124	0.277
-410.355	-50.330	0.214	0.102
-409.340	245.304	-0.071	0.120
-408.325	168.006	-0.107	0.154
-407.311	-140.124	0.193	-0.021
-406.296	-101.189	-0.014	0.003
-405.282	-200.000	0.050	-0.250
-404.267	-40.122	0.007	-0.004
-403.252	125.658	0.103	-0.131
-402.238	-40.177	0.124	-0.065
-401.223	26.900	-0.146	-0.124
-400.209	3.702	-0.060	-0.045
-399.194	-111.409	-0.171	-0.035
-398.179	-77.064	-0.373	-0.131
-397.165	44.816	-0.340	0.317
-396.150	-200.000	0.009	0.115
-395.136	-200.000	-0.005	0.038
-394.121	-28.969	-0.212	-0.123
-393.106	72.586	-0.232	0.245
-392.092	-200.000	0.002	-0.026
-391.077	-162.803	0.275	-0.014
-390.063	-200.000	-0.044	-0.230
-389.048	-74.046	0.077	-0.028
-388.033	-1.691	-0.077	0.055
-387.019	-100.731	-0.219	0.055
-386.004	8.946	-0.042	0.032
-384.990	-19.233	-0.173	0.108
-383.975	-124.140	-0.386	0.061
-382.960	23.791	0.161	0.134
-381.946	-200.000	-0.026	-0.131
-380.931	800.000	0.030	-0.100
-379.917	-2.999	-0.124	0.087
-378.902	80.425	0.222	0.241
-377.888	-59.578	0.255	0.111
-376.873	800.000	0.087	-0.301
-375.858	800.000	0.025	0.090
-374.844	433.471	0.048	-0.106
-373.829	51.784	0.135	-0.129
-372.815	67.364	0.043	0.045
-371.800	-125.313	0.247	0.038
-370.785	-98.239	-0.374	0.097
-369.771	-28.333	-0.008	-0.005
-368.756	75.281	-0.199	0.212
-367.742	137.637	0.082	0.108
-366.727	-111.317	-0.316	0.065
-365.712	-85.832	0.351	-0.110
-364.698	42.439	-0.113	-0.104
-363.683	671.538	-0.071	-0.187
-362.669	178.676	0.083	0.123
-361.654	-21.406	-0.263	0.162
-360.639	-117.492	0.030	0.005
-359.625	-130.724	-0.205	-0.028
-358.610	91.646	-0.192	0.217
-357.596	-200.000	0.091	0.406
-356.581	-53.495	-0.286	-0.132
-355.566	-1.613	0.039	0.028
-354.552	98.653	0.170	-0.198
-353.537	-76.387	-0.128	0.045
-352.523	-160.532	0.344	0.019
-351.508	-97.913	0.268	0.070
-350.493	800.000	-0.028	-0.099
-349.479	3.412	0.272	-0.200
-348.464	-20.815	0.335	-0.207
-347.450	209.775	-0.068	-0.107
-346.435	-200.000	0.016	0.266
-345.420	-200.000	-0.020	0.234
-344.406	41.199	0.204	0.186
-343.391	306.719	-0.191	0.358
-342.377	54.536	-0.135	-0.132
-341.362	176.663	-0.085	-0.124
-340.348	-200.000	-0.063	-0.403
-339.333	483.457	0.088	0.202
-338.318	-200.000	0.004	0.112
-337.304	0.686	-0.134	0.097
-336.289	-140.141	0.199	-0.021
-335.275	-136.288	0.380	0.045
-334.260	-200.000	0.017	-0.145
-333.245	-200.000	0.014	-0.089
-332.231	-44.848	-0.030	0.015
-331.216	390.011	-0.140	-0.292
-330.202	53.669	0.111	-0.108
-329.187	285.262	-0.132	-0.240
-328.172	-138.803	-0.245	0.027
-327.158	85.572	-0.017	0.018
-326.143	800.000	0.063	0.256
-325.129	-90.021	0.321	-0.094
-324.114	1.119	-0.069	0.050
-323.099	-51.250	-0.288	-0.136
-322.085	-200.000	-0.019	-0.244
-321.070	-200.000	-0.068	-0.342
-320.056	1.731	-0.008	0.006
-319.041	87.751	-0.122	-0.136
-318.026	800.000	-0.078	-0.284
-317.012	800.000	-0.073	0.290
-315.997	394.422	0.134	0.281
-314.983	95.543	0.214	-0.246
-313.968	-8.919	0.234	-0.158
-312.953	-14.577	0.169	-0.110
-311.939	48.237	-0.149	0.140
-310.924	337.152	0.065	0.127
-309.910	-85.076	0.140	0.044
-308.895	-66.246	-0.339	-0.136
-307.880	800.000	0.072	-0.236
-306.866	-31.530	-0.169	-0.096
-305.851	-200.000	-0.021	-0.192
-304.837	601.139	-0.117	-0.294
-303.822	54.843	-0.081	-0.079
-302.807	-200.000	0.030	0.156
-301.793	-26.528	-0.024	0.014
-300.778	-100.415	0.134	0.034
-299.764	-114.104	0.166	0.032
-298.749	85.814	0.108	0.120
-297.735	59.870	-0.091	0.090
-296.720	-157.693	-0.073	-0.004
-295.705	269.279	0.149	0.264
-294.691	240.862	-0.068	0.114
-293.676	-52.850	-0.065	-0.030
-292.662	301.474	0.103	0.192
-291.647	46.295	0.216	0.202
-290.632	636.117	0.161	0.410
-289.618	-10.293	-0.088	-0.059
-288.603	-114.265	0.252	0.049
-287.589	414.892	0.177	0.381
-286.574	-97.968	0.064	0.017
-285.559	-154.384	-0.242	0.016
-284.545	-28.789	-0.032	-0.018
-283.530	-149.875	-0.289	-0.023
-282.516	296.373	-0.150	-0.277
-281.501	107.033	0.105	0.126
-280.486	-105.702	-0.229	0.052
-279.472	800.000	-0.054	-0.239
-278.457	8.374	0.217	0.164
-277.443	-47.002	0.194	-0.096
-276.428	480.926	0.189	-0.432
-275.413	-81.403	-0.106	-0.035
-274.399	671.460	-0.092	0.240
-273.384	-28.597	0.342	-0.198
-272.370	82.060	-0.229	-0.250
-271.355	-200.000	0.007	0.108
-270.340	657.644	-0.099	0.255
-269.326	-200.000	0.023	-0.239
-268.311	-200.000	0.014	-0.274
-267.297	41.794	-0.015	-0.014
-266.282	49.442	0.335	-0.317
-265.267	-139.985	-0.143	0.015
-264.253	800.000	-0.070	0.278
-263.238	68.851	-0.053	0.055
-262.224	97.842	0.192	0.222
-261.209	-200.000	0.071	0.346
-260.195	-200.000	-0.022	-0.218
-259.180	800.000	-0.097	0.297
-258.165	800.000	-0.082	-0.245
-257.151	57.204	-0.168	0.165
-256.136	252.332	-0.086	-0.147
-255.122	-200.000	-0.017	0.195
-254.107	114.507	0.087	0.106
-253.092	800.000	0.104	0.368
-252.078	-59.155	-0.323	0.140
-251.063	304.006	0.139	0.259
-250.049	-125.494	-0.251	-0.038
-249.034	41.889	-0.135	0.123
-248.019	-200.000	-0.018	0.276
-247.005	39.868	0.065	-0.059
-245.990	-115.402	-0.154	-0.029
-244.976	331.915	-0.138	0.267
-243.961	780.672	-0.063	0.173
-242.946	248.523	0.207	0.352
-241.932	248.368	0.025	0.043
-240.917	-11.640	0.236	-0.156
-239.903	-80.174	-0.283	-0.095
-238.888	-27.950	-0.071	0.041
-237.873	8.143	0.083	0.063
-236.859	-21.719	-0.267	-0.163
-235.844	61.772	0.120	0.120
-234.830	-200.000	-0.014	0.113
-233.815	-82.790	-0.124	0.040
-232.800	-135.063	-0.340	-0.041
-231.786	-200.000	-0.041	-0.266
-230.771	-70.745	0.404	-0.153
-229.757	67.340	0.075	0.077
-228.742	-120.297	0.299	-0.051
-227.727	-200.000	0.012	0.258
-226.713	113.392	-0.091	0.111
-225.698	60.038	0.231	0.229
-224.684	-98.921	-0.086	-0.022
-223.669	-63.668	-0.129	0.053
-222.655	178.615	-0.208	-0.305
-221.640	58.742	-0.157	0.155
-220.625	377.454	-0.134	-0.274
-219.611	221.983	-0.201	-0.324
-218.596	-200.000	0.020	0.196
-217.582	194.936	-0.138	-0.211
-216.567	507.354	-0.125	-0.291
-215.552	-111.473	-0.231	0.047
-214.538	389.788	0.073	-0.151
-213.523	129.556	0.079	-0.101
-212.509	75.090	0.421	0.445
-211.494	75.175	0.179	0.190
-210.479	324.086	-0.205	-0.394
-209.465	-200.000	-0.028	0.130
-208.450	-6.751	-0.172	-0.118
-207.436	535.062	0.086	0.205
-206.421	298.179	0.136	0.250
-205.406	-12.664	-0.248	-0.162
-204.392	800.000	-0.078	-0.276
-203.377	148.275	-0.064	-0.087
-202.363	-176.370	-0.230	0.006
-201.348	728.401	-0.162	-0.434
-200.333	-200.000	-0.052	0.312
-199.319	800.000	0.069	0.274
-198.304	-146.968	-0.108	-0.009
-197.290	-200.000	-0.033	-0.370
-196.275	800.000	-0.057	-0.224
-195.260	-35.273	0.114	-0.062
-194.246	-200.000	0.013	-0.074
-193.231	39.261	-0.227	0.203
-192.217	-137.934	-0.124	-0.014
-191.202	123.790	-0.216	0.272
-190.187	109.918	0.057	-0.069
-189.173	-106.122	0.239	-0.054
-188.158	-78.568	0.297	0.102
-187.144	-23.684	0.164	-0.099
-186.129	-200.000	-0.028	-0.134
-185.114	557.246	0.091	0.220
-184.100	-200.000	0.020	0.185
-183.085	18.164	-0.233	0.186
-182.071	142.387	0.150	0.199
-181.056	-161.513	0.150	0.008
-180.042	92.675	0.239	0.270
-179.027	722.587	-0.068	-0.181
-178.012	-33.410	0.117	-0.065
-176.998	-27.953	-0.136	0.079
-175.983	577.351	0.150	-0.368
-174.969	-153.561	0.185	-0.013
-173.954	-48.111	0.111	0.054
-172.939	112.883	0.047	0.058
-171.925	800.000	-0.030	0.085
-170.910	-141.187	-0.166	0.017
-169.896	-200.000	-0.018	0.162
-168.881	-68.444	0.394	0.153
-167.866	-70.462	0.195	0.074
-166.852	800.000	0.057	-0.206
-165.837	-46.170	0.203	-0.100
-164.823	800.000	-0.087	0.253
-163.808	-200.000	-0.020	0.090
-162.793	155.670	-0.152	-0.210
-161.779	-200.000	-0.001	-0.392
-160.764	-28.705	-0.375	0.216
-159.750	-137.292	0.218	-0.025
-158.735	93.182	-0.098	0.111
-157.720	800.000	0.042	0.169
-156.706	4.126	0.049	-0.036
-155.691	-200.000	0.024	-0.181
-154.677	-165.737	0.540	-0.023
-153.662	90.093	0.403	-0.451
-152.647	106.025	-0.063	0.075
-151.633	-175.230	-0.152	0.004
-150.618	33.404	-0.400	0.348
-149.604	17.707	-0.175	-0.140
-148.589	-29.763	-0.406	-0.232
-147.574	-149.939	0.266	0.021
-146.560	512.795	-0.086	-0.201
-145.545	-200.000	0.029	-0.263
-144.531	-136.794	-0.247	0.029
-143.516	800.000	-0.097	-0.292
-142.502	318.249	0.095	-0.180
-141.487	163.428	-0.210	0.296
-140.472	800.000	-0.132	0.365
-139.458	-23.080	-0.108	-0.065
-138.443	23.597	-0.070	0.058
-137.429	800.000	0.041	0.150
-136.414	-151.513	0.248	0.018
-135.399	-110.533	0.078	-0.016
-134.385	41.504	0.164	-0.149
-133.370	43.649	0.292	-0.267
-132.356	-43.830	0.381	-0.192
-131.341	-145.444	0.078	0.007
-130.326	80.155	0.100	0.108
-129.312	100.779	0.173	0.201
-128.297	-200.000	-0.038	0.272
-127.283	-61.696	0.060	0.025
-126.268	218.188	0.063	-0.100
-125.253	127.976	0.169	-0.215
-124.239	-200.000	-0.037	0.229
-123.224	-200.000	0.005	0.314
-122.210	34.675	-0.258	-0.226
-121.195	176.701	-0.046	0.067
