DTS Sentinel unit serial number:	SN413079Multiplexer serial number:	ORYXHardware model number:	OX4-SRSoftware version number:	ORYX F/W v4.00 Oryx Data Collector v3.7.2.0data status	okinstallation	princeton_trtdifferential loss correction	single-endedforward channel	channel 3reverse channel	N/Adate	2019/09/13time	17:56:35forward acquisition time	60.00reverse acquisition time	0.00gamma	496.2192k internal	0.2306k external	0.2306temperature offset calibration	1.0128default loss term (dB/km)	0.3790temperature slope calibration	1.0000multiplexer offset coefficient	1.0000multiplexer slope coefficient	1.0000fibre end	0.00T internal ref (°C)	35.19T ext. ref 1 (°C)	4.83T ext. ref 2 (°C)	28.08length (m)	temperature (°C)	Stokes	anti-Stokes-747.200	-181.513	-0.276	-0.005
-746.185	-162.586	-0.419	0.021
-745.171	277.345	0.123	0.222
-744.156	800.000	-0.031	0.110
-743.142	800.000	0.041	0.149
-742.127	14.401	0.243	0.193
-741.112	-200.000	0.012	0.245
-740.098	-154.398	0.236	0.016
-739.083	150.662	-0.082	-0.113
-738.069	-153.098	0.177	-0.013
-737.054	373.306	-0.059	-0.122
-736.039	800.000	-0.086	0.322
-735.025	-5.659	0.097	0.068
-734.010	800.000	-0.051	0.187
-732.996	-147.825	0.147	-0.012
-731.981	800.000	-0.086	-0.326
-730.966	-43.297	0.061	-0.031
-729.952	91.281	-0.063	0.072
-728.937	84.540	0.150	0.167
-727.923	31.492	-0.204	-0.179
-726.908	-34.288	-0.099	-0.055
-725.894	627.847	-0.163	0.418
-724.879	800.000	0.071	-0.276
-723.864	-200.000	0.042	-0.198
-722.850	-158.573	0.284	0.017
-721.835	-180.473	-0.235	-0.005
-720.821	-121.254	-0.134	-0.023
-719.806	-200.000	-0.514	-0.002
-718.791	-19.211	0.233	0.147
-717.777	800.000	-0.140	0.457
-716.762	800.000	0.071	0.232
-715.748	800.000	-0.040	0.136
-714.733	310.081	-0.167	0.317
-713.718	-174.146	-0.122	-0.004
-712.704	-200.000	0.030	0.151
-711.689	215.683	0.095	-0.153
-710.675	-115.204	0.234	-0.045
-709.660	-73.516	-0.287	-0.106
-708.645	-49.030	0.299	-0.145
-707.631	-200.000	0.007	-0.168
-706.616	-5.245	-0.058	-0.040
-705.602	300.961	-0.116	-0.217
-704.587	-200.000	-0.079	-0.369
-703.572	-61.848	0.190	-0.081
-702.558	111.286	0.151	-0.185
-701.543	-149.179	0.045	0.004
-700.529	-41.240	-0.163	-0.085
-699.514	124.844	-0.046	-0.058
-698.499	-75.854	0.308	-0.111
-697.485	-31.824	-0.225	0.128
-696.470	-79.076	0.055	0.019
-695.456	800.000	0.108	-0.414
-694.441	273.409	0.086	-0.154
-693.426	800.000	-0.114	-0.322
-692.412	-111.723	-0.226	0.046
-691.397	-92.075	-0.052	0.015
-690.383	94.909	0.062	-0.072
-689.368	-73.048	-0.331	-0.123
-688.354	-151.781	0.177	0.013
-687.339	-139.595	-0.186	0.020
-686.324	-76.228	-0.218	-0.078
-685.310	82.513	-0.121	-0.133
-684.295	340.325	-0.128	-0.254
-683.281	51.469	0.066	0.064
-682.266	800.000	-0.052	-0.177
-681.251	100.182	-0.160	-0.188
-680.237	-72.843	0.271	0.101
-679.222	800.000	-0.034	-0.108
-678.208	-200.000	-0.019	0.139
-677.193	-180.683	-0.139	-0.003
-676.178	-54.207	-0.072	-0.033
-675.164	-200.000	0.003	-0.198
-674.149	-169.254	0.265	0.010
-673.135	-102.295	0.092	-0.022
-672.120	-104.411	-0.093	-0.022
-671.105	78.618	-0.221	-0.240
-670.091	-60.194	-0.106	-0.046
-669.076	-67.584	0.152	0.060
-668.062	-42.518	0.114	0.059
-667.047	-94.511	-0.245	-0.068
-666.032	800.000	0.060	-0.234
-665.018	-141.746	0.218	0.022
-664.003	12.499	-0.096	-0.075
-662.989	-200.000	0.009	0.093
-661.974	-200.000	0.011	-0.146
-660.959	216.298	-0.121	-0.195
-659.945	-65.633	-0.357	0.145
-658.930	-179.587	0.360	0.008
-657.916	225.925	0.209	0.343
-656.901	800.000	0.036	0.152
-655.886	9.287	-0.239	-0.184
-654.872	-26.675	0.310	0.184
-653.857	-148.730	-0.285	0.023
-652.843	87.577	-0.243	-0.272
-651.828	-71.746	0.231	-0.087
-650.814	-200.000	0.045	-0.284
-649.799	800.000	-0.027	-0.110
-648.784	759.512	-0.061	0.168
-647.770	289.492	0.170	0.312
-646.755	79.138	0.020	-0.022
-645.741	-67.449	0.158	-0.063
-644.726	516.423	-0.166	-0.392
-643.711	-144.293	-0.038	-0.004
-642.697	800.000	0.063	0.228
-641.682	-97.614	0.135	-0.036
-640.668	-31.856	-0.115	-0.065
-639.653	-200.000	-0.043	-0.419
-638.638	145.971	0.078	-0.105
-637.624	800.000	-0.096	0.314
-636.609	-200.000	0.026	-0.229
-635.595	58.906	-0.251	0.250
-634.580	22.251	-0.187	0.155
-633.565	54.107	0.006	0.006
-632.551	-134.351	-0.277	-0.034
-631.536	-30.556	0.236	-0.135
-630.522	-54.918	-0.258	-0.118
-629.507	-109.608	-0.165	0.035
-628.492	52.818	0.131	0.127
-627.478	612.172	0.106	-0.268
-626.463	-47.124	-0.306	0.151
-625.449	-200.000	-0.037	-0.227
-624.434	448.411	-0.165	0.367
-623.419	-116.467	0.198	-0.037
-622.405	255.497	-0.146	-0.253
-621.390	-143.115	0.036	0.004
-620.376	201.450	0.073	-0.113
-619.361	-11.186	0.220	-0.147
-618.346	-115.790	0.181	-0.034
-617.332	177.798	0.077	0.114
-616.317	-78.527	0.167	0.058
-615.303	294.047	-0.094	-0.174
-614.288	84.686	0.101	0.112
-613.273	-190.381	-0.323	0.004
-612.259	-158.660	-0.093	0.005
-611.244	-51.576	-0.222	0.105
-610.230	70.292	-0.053	0.055
-609.215	-77.920	0.138	0.048
-608.201	800.000	-0.028	-0.083
-607.186	-3.916	-0.146	-0.102
-606.171	-84.563	-0.119	-0.038
-605.157	-114.764	0.207	-0.040
-604.142	54.766	0.056	0.055
-603.128	-110.972	0.053	0.011
-602.113	239.547	-0.052	-0.088
-601.098	119.378	-0.131	-0.164
-600.084	-200.000	0.005	-0.064
-599.069	-138.631	-0.034	0.004
-598.055	714.917	0.035	0.093
-597.040	-200.000	0.009	0.105
-596.025	61.586	-0.256	-0.258
-595.011	227.421	-0.115	0.188
-593.996	-200.000	0.021	-0.130
-592.982	-18.517	-0.353	-0.223
-591.967	-87.799	-0.350	-0.107
-590.952	-200.000	0.026	0.389
-589.938	-200.000	0.033	0.201
-588.923	-3.694	-0.225	-0.158
-587.909	-139.451	-0.128	0.014
-586.894	-47.397	-0.134	0.066
-585.879	301.522	-0.103	-0.192
-584.865	729.756	-0.039	-0.104
-583.850	92.854	-0.035	0.040
-582.836	-68.562	0.154	0.060
-581.821	800.000	0.069	0.215
-580.806	800.000	-0.024	0.073
-579.792	72.850	-0.174	-0.184
-578.777	-80.954	-0.522	0.175
-577.763	265.907	-0.037	0.064
-576.748	-200.000	-0.019	-0.087
-575.733	-200.000	-0.029	0.236
-574.719	41.717	-0.141	0.129
-573.704	-200.000	-0.011	-0.378
-572.690	-134.732	0.380	0.047
-571.675	800.000	0.032	-0.106
-570.661	-200.000	0.033	0.271
-569.646	-200.000	-0.015	-0.151
-568.631	-200.000	-0.011	-0.501
-567.617	-200.000	-0.033	-0.200
-566.602	800.000	-0.100	-0.378
-565.588	356.454	-0.045	0.091
-564.573	-125.074	-0.239	0.037
-563.558	800.000	0.054	-0.186
-562.544	800.000	-0.016	0.068
-561.529	102.488	-0.115	0.136
-560.515	-200.000	-0.005	-0.283
-559.500	116.427	-0.332	-0.411
-558.485	-68.586	0.196	0.077
-557.471	6.989	0.294	0.222
-556.456	-91.752	-0.282	-0.081
-555.442	313.159	-0.125	0.238
-554.427	20.403	0.048	0.039
-553.412	-53.030	0.421	0.195
-552.398	-61.663	0.129	0.055
-551.383	-56.809	-0.129	0.057
-550.369	-200.000	-0.004	-0.314
-549.354	80.068	-0.172	-0.186
-548.339	-51.708	-0.173	0.081
-547.325	-200.000	0.008	-0.061
-546.310	35.454	-0.039	0.034
-545.296	-200.000	0.059	0.000
-544.281	108.914	-0.037	-0.044
-543.266	-145.962	-0.274	-0.025
-542.252	54.558	-0.054	-0.053
-541.237	-88.737	-0.265	-0.080
-540.223	-200.000	-0.014	-0.174
-539.208	489.898	-0.107	-0.247
-538.193	-10.066	0.226	-0.151
-537.179	-81.937	-0.136	-0.045
-536.164	-127.585	-0.287	-0.042
-535.150	-176.561	0.048	-0.001
-534.135	-17.037	0.153	-0.098
-533.121	800.000	-0.052	0.226
-532.106	-51.257	0.276	0.131
-531.091	40.835	0.135	0.123
-530.077	37.979	0.229	0.205
-529.062	-162.381	-0.461	0.023
-528.048	-11.329	-0.421	-0.280
-527.033	360.878	0.195	-0.394
-526.018	800.000	0.067	-0.237
-525.004	134.742	0.276	0.362
-523.989	-139.171	0.166	0.018
-522.975	173.417	0.194	-0.283
-521.960	-50.291	-0.089	-0.043
-520.945	280.187	-0.163	-0.294
-519.931	-183.858	-0.244	0.004
-518.916	58.759	-0.221	0.219
-517.902	800.000	0.064	-0.195
-516.887	-154.440	0.275	-0.019
-515.872	61.236	0.257	-0.258
-514.858	-73.371	-0.452	-0.167
-513.843	-139.665	-0.240	-0.026
-512.829	-49.218	0.218	-0.105
-511.814	210.341	-0.075	-0.118
-510.799	-200.000	0.020	-0.369
-509.785	225.612	0.054	-0.088
-508.770	800.000	-0.086	0.284
-507.756	-200.000	-0.073	-0.468
-506.741	167.753	0.170	0.244
-505.726	465.686	-0.066	-0.148
-504.712	-79.994	-0.123	0.042
-503.697	-90.020	-0.168	-0.049
-502.683	4.624	-0.091	0.067
-501.668	162.727	-0.157	0.222
-500.653	55.785	-0.204	-0.199
-499.639	-6.049	-0.139	-0.095
-498.624	165.570	-0.206	0.294
-497.610	800.000	-0.076	-0.314
-496.595	-200.000	0.007	0.236
-495.581	-200.000	-0.031	0.337
-494.566	-200.000	0.006	-0.100
-493.551	800.000	0.035	0.117
-492.537	-11.483	-0.067	-0.044
-491.522	120.928	0.182	-0.228
-490.508	108.226	0.257	-0.309
-489.493	369.476	-0.191	0.390
-488.478	-68.137	0.142	-0.056
-487.464	-56.092	-0.079	-0.036
-486.449	-200.000	0.071	-0.380
-485.435	159.747	0.128	-0.179
-484.420	-99.999	-0.250	-0.063
-483.405	800.000	0.066	-0.262
-482.391	-161.439	0.361	-0.019
-481.376	800.000	0.047	0.193
-480.362	55.367	-0.103	-0.100
-479.347	-115.063	-0.200	0.038
-478.332	291.657	0.179	0.328
-477.318	-37.115	0.348	-0.188
-476.303	-22.244	-0.199	-0.122
-475.289	-27.129	0.323	0.190
-474.274	404.472	0.100	0.212
-473.259	-152.007	-0.188	0.014
-472.245	451.503	0.096	-0.213
-471.230	-94.817	0.088	0.024
-470.216	-200.000	0.033	0.201
-469.201	189.663	0.197	-0.298
-468.186	-200.000	0.013	0.105
-467.172	-88.960	0.241	0.072
-466.157	89.748	-0.276	0.310
-465.143	800.000	-0.044	0.163
-464.128	-158.893	-0.110	0.006
-463.113	-5.354	0.474	0.328
-462.099	-200.000	-0.015	-0.132
-461.084	223.598	-0.192	-0.311
-460.070	800.000	0.066	0.269
-459.055	58.673	0.076	-0.075
-458.040	57.713	-0.107	0.106
-457.026	800.000	0.088	0.359
-456.011	-125.504	0.116	-0.018
-454.997	79.182	-0.334	-0.360
-453.982	319.533	-0.071	-0.136
-452.968	-200.000	-0.030	0.277
-451.953	-41.917	0.278	0.143
-450.938	-85.130	-0.167	-0.053
-449.924	139.567	0.055	-0.073
-448.909	355.914	-0.082	-0.164
-447.895	605.804	-0.060	0.149
-446.880	451.209	0.108	-0.240
-445.865	-200.000	0.010	-0.044
-444.851	346.781	-0.117	-0.231
-443.836	-108.116	0.228	-0.050
-442.822	77.987	0.068	0.073
-441.807	215.717	-0.073	-0.116
-440.792	-138.544	0.122	-0.013
-439.778	-121.814	-0.197	-0.033
-438.763	-74.304	-0.116	-0.042
-437.749	800.000	-0.041	-0.121
-436.734	714.416	0.141	-0.376
-435.719	694.068	-0.115	-0.302
-434.705	304.567	0.142	0.266
-433.690	114.140	-0.178	-0.217
-432.676	-200.000	0.006	0.095
-431.661	-35.146	0.187	0.102
-430.646	-47.776	-0.136	0.066
-429.632	-71.427	0.170	0.064
-428.617	351.214	0.068	-0.135
-427.603	-15.227	-0.144	0.092
-426.588	-38.703	-0.201	-0.107
-425.573	207.097	0.077	-0.120
-424.559	201.260	-0.169	0.261
-423.544	-200.000	0.005	0.266
-422.530	161.402	0.131	-0.184
-421.515	-117.577	0.121	-0.022
-420.500	240.896	0.091	0.152
-419.486	-4.504	0.164	-0.114
-418.471	-6.245	-0.344	0.236
-417.457	171.013	0.071	0.102
-416.442	84.316	-0.268	-0.294
-415.428	423.328	0.082	0.177
-414.413	434.935	-0.117	0.256
-413.398	-144.211	0.052	0.005
-412.384	-142.251	0.364	-0.036
-411.369	74.691	0.346	0.366
-410.355	-42.122	0.268	0.137
-409.340	-174.400	-0.259	-0.007
-408.325	379.755	-0.031	-0.065
-407.311	-63.685	-0.131	-0.054
-406.296	-62.924	0.197	-0.082
-405.282	-200.000	0.003	0.034
-404.267	-200.000	-0.030	-0.186
-403.252	-200.000	0.015	-0.176
-402.238	800.000	0.040	0.152
-401.223	198.367	0.059	-0.090
-400.209	800.000	-0.104	0.319
-399.194	-119.417	0.425	0.074
-398.179	-200.000	-0.046	0.362
-397.165	65.292	-0.040	-0.041
-396.150	-80.451	-0.272	0.091
-395.136	-117.348	-0.083	0.015
-394.121	-200.000	0.032	0.152
-393.106	-84.294	0.388	0.123
-392.092	-43.372	-0.308	-0.156
-391.077	-175.275	-0.180	0.005
-390.063	41.176	-0.148	-0.134
-389.048	-57.957	0.106	-0.047
-388.033	579.703	-0.104	-0.255
-387.019	18.177	-0.041	-0.033
-386.004	-40.435	0.077	0.040
-384.990	25.579	-0.214	-0.179
-383.975	-168.873	0.134	-0.005
-382.960	-130.628	-0.298	0.040
-381.946	-8.469	0.031	-0.021
-380.931	-182.573	0.326	-0.006
-379.917	212.101	-0.205	0.324
-378.902	57.678	-0.212	0.208
-377.888	18.324	-0.088	-0.070
-376.873	-47.273	-0.119	-0.058
-375.858	-200.000	0.087	-0.385
-374.844	-100.384	-0.077	0.019
-373.829	735.839	0.115	0.309
-372.815	172.524	-0.223	0.322
-371.800	-59.307	-0.250	0.108
-370.785	361.052	-0.112	-0.225
-369.771	-54.721	0.106	0.048
-368.756	800.000	0.021	-0.067
-367.742	772.979	-0.104	-0.285
-366.727	310.813	-0.065	-0.122
-365.712	452.303	-0.161	0.356
-364.698	-200.000	0.005	-0.027
-363.683	418.808	-0.099	-0.213
-362.669	-200.000	0.042	0.331
-361.654	-98.182	-0.148	0.038
-360.639	-57.375	0.117	0.052
-359.625	-200.000	-0.019	0.111
-358.610	277.777	0.034	0.061
-357.596	59.686	0.223	-0.221
-356.581	-176.939	-0.215	0.005
-355.566	800.000	-0.056	0.178
-354.552	239.709	-0.059	0.099
-353.537	-200.000	0.031	0.234
-352.523	-23.398	0.341	-0.205
-351.508	-200.000	0.034	0.290
-350.493	-128.992	-0.188	-0.026
-349.479	237.732	0.082	0.137
-348.464	800.000	0.006	0.019
-347.450	-156.718	-0.079	-0.005
-346.435	-200.000	-0.040	-0.337
-345.420	-200.000	0.032	-0.176
-344.406	-200.000	0.047	0.323
-343.391	-103.610	-0.285	-0.067
-342.377	282.547	0.108	-0.194
-341.362	-200.000	-0.043	-0.258
-340.348	-200.000	0.034	-0.249
-339.333	270.217	0.274	-0.483
-338.318	-93.122	0.079	0.022
-337.304	-200.000	0.050	0.392
-336.289	-43.214	0.308	0.156
-335.275	-200.000	0.004	-0.104
-334.260	-200.000	0.049	0.262
-333.245	-85.032	-0.302	0.095
-332.231	67.207	0.279	0.285
-331.216	-20.467	0.284	0.175
-330.202	119.784	0.108	0.134
-329.187	-119.869	-0.197	0.034
-328.172	-18.526	0.154	-0.096
-327.158	46.453	0.162	0.150
-326.143	127.303	0.106	0.135
-325.129	59.886	-0.302	-0.299
-324.114	-42.237	-0.266	-0.136
-323.099	-53.847	0.117	-0.054
-322.085	-94.467	0.332	-0.091
-321.070	53.191	0.111	-0.106
-320.056	9.501	-0.045	0.034
-319.041	-166.258	-0.218	-0.009
-318.026	416.390	0.110	-0.236
-317.012	319.511	-0.126	-0.239
-315.997	-200.000	-0.001	-0.045
-314.983	-200.000	0.025	-0.130
-313.968	641.390	-0.081	0.208
-312.953	-122.188	-0.100	0.016
-311.939	-49.370	0.258	0.123
-310.924	172.254	-0.205	0.295
-309.910	-123.313	0.222	-0.036
-308.895	-200.000	0.008	-0.088
-307.880	158.424	-0.205	0.285
-306.866	-200.000	0.002	0.057
-305.851	-110.651	0.204	-0.042
-304.837	31.918	0.046	-0.040
-303.822	-200.000	-0.015	-0.069
-302.807	521.880	0.063	0.148
-301.793	68.473	0.141	-0.145
-300.778	133.046	-0.110	-0.142
-299.764	-136.327	0.330	0.038
-298.749	-117.686	-0.354	0.064
-297.735	79.869	-0.164	-0.176
-296.720	-200.000	0.013	0.071
-295.705	91.193	-0.059	0.066
-294.691	800.000	-0.008	0.025
-293.676	-200.000	0.006	-0.138
-292.662	69.002	0.132	0.135
-291.647	304.214	0.098	-0.182
-290.632	36.077	0.017	0.015
-289.618	-18.815	-0.095	-0.059
-288.603	39.403	0.109	0.097
-287.589	-200.000	0.047	0.242
-286.574	-200.000	0.013	0.243
-285.559	-69.063	-0.076	0.029
-284.545	-200.000	0.093	-0.516
-283.530	-38.630	0.203	0.107
-282.516	-159.339	0.162	0.009
-281.501	-119.420	0.180	0.031
-280.486	800.000	0.078	-0.337
-279.472	-102.373	0.089	0.021
-278.457	-200.000	0.000	-0.075
-277.443	-200.000	0.021	0.115
-276.428	-12.881	0.321	0.209
-275.413	-68.733	-0.222	0.086
-274.399	359.168	-0.162	0.324
-273.384	8.078	0.110	0.083
-272.370	58.628	0.269	0.264
-271.355	-95.285	-0.225	-0.061
-270.340	343.681	0.275	-0.538
-269.326	-14.330	0.283	0.182
-268.311	84.440	-0.113	0.123
-267.297	-126.035	0.337	0.051
-266.282	-153.384	0.369	-0.026
-265.267	-200.000	0.010	0.319
-264.253	-110.981	0.080	-0.016
-263.238	-200.000	0.027	-0.365
-262.224	-105.006	0.129	-0.030
-261.209	-95.913	0.229	-0.061
-260.195	-35.324	0.379	0.206
-259.180	-56.675	-0.109	-0.048
-258.165	111.792	-0.133	-0.160
-257.151	128.462	-0.155	-0.197
-256.136	-57.731	0.173	0.075
-255.122	-85.873	-0.265	-0.082
-254.107	30.715	-0.218	-0.186
-253.092	68.118	-0.055	-0.056
-252.078	-159.470	0.603	0.034
-251.063	-113.397	-0.324	0.063
-250.049	660.994	0.026	0.067
-249.034	356.698	-0.156	0.310
-248.019	324.054	-0.056	0.106
-247.005	-144.398	0.604	-0.056
-245.990	-200.000	0.039	-0.309
-244.976	-61.737	0.294	0.123
-243.961	296.920	0.128	-0.234
-242.946	800.000	0.087	-0.245
-241.932	-200.000	-0.050	0.314
-240.917	-70.354	-0.020	0.008
-239.903	128.327	0.196	0.249
-238.888	-36.400	0.100	-0.054
-237.873	482.536	0.073	-0.166
-236.859	-72.553	0.073	-0.027
-235.844	118.540	0.057	0.070
-234.830	-79.192	0.160	0.054
-233.815	-200.000	0.015	0.192
-232.800	671.053	-0.074	-0.191
-231.786	189.615	-0.132	0.198
-230.771	-8.708	0.462	0.309
-229.757	159.120	-0.101	-0.141
-228.742	462.893	-0.125	-0.278
-227.727	-64.743	0.199	0.080
-226.713	-68.222	-0.012	-0.005
-225.698	-97.704	0.311	-0.080
-224.684	-200.000	0.011	-0.209
-223.669	-200.000	-0.040	-0.186
-222.655	800.000	0.055	0.171
-221.640	22.453	-0.143	-0.116
-220.625	-77.816	0.278	-0.096
-219.611	800.000	-0.139	0.509
-218.596	-109.591	-0.238	0.050
-217.582	18.106	-0.149	0.118
-216.567	48.441	0.056	-0.052
-215.552	345.839	-0.064	-0.125
-214.538	-58.701	0.068	-0.029
-213.523	-16.043	0.177	0.112
-212.509	800.000	0.102	-0.436
-211.494	-1.016	0.127	0.089
-210.479	-89.688	-0.119	-0.035
-209.465	-200.000	-0.012	0.238
-208.450	-36.990	0.095	-0.050
-207.436	-107.328	-0.227	-0.050
-206.421	-83.849	-0.147	0.047
-205.406	-52.437	-0.032	0.015
-204.392	-200.000	0.026	-0.134
-203.377	-96.407	0.177	-0.047
-202.363	50.264	-0.203	-0.191
-201.348	343.018	0.141	-0.275
-200.333	-143.931	-0.132	-0.012
-199.319	127.728	-0.182	0.230
-198.304	136.429	0.244	-0.317
-197.290	375.044	0.035	0.071
-196.275	800.000	-0.154	0.484
-195.260	13.063	-0.151	0.116
-194.246	38.842	-0.305	-0.271
-193.231	-200.000	-0.022	0.271
-192.217	58.789	-0.135	0.132
-191.202	-97.573	-0.204	0.053
-190.187	-200.000	-0.027	0.202
-189.173	-93.415	0.244	0.067
-188.158	79.264	0.142	0.151
-187.144	113.127	-0.147	0.177
-186.129	143.075	-0.212	0.281
-185.114	-3.420	0.289	0.200
-184.100	15.972	-0.016	0.012
-183.085	401.062	0.106	-0.222
-182.071	-145.821	-0.112	0.010
-181.056	-200.000	0.021	-0.202
-180.042	-200.000	-0.007	0.066
-179.027	-200.000	0.040	0.239
-178.012	77.807	-0.222	0.235
-176.998	-10.968	-0.372	0.244
-175.983	-23.254	0.249	-0.149
-174.969	276.572	-0.225	0.398
-173.954	159.030	0.239	0.331
-172.939	91.020	0.218	0.243
-171.925	-30.929	-0.181	0.102
-170.910	33.613	0.172	0.149
-169.896	-151.112	-0.216	0.016
-168.881	-100.252	0.370	0.092
-167.866	136.475	0.091	0.118
-166.852	-200.000	-0.021	-0.112
-165.837	800.000	-0.031	-0.127
-164.823	-181.831	0.047	0.001
-163.808	32.702	-0.155	-0.133
-162.793	111.370	0.133	0.159
-161.779	173.307	-0.118	-0.169
-160.764	53.526	-0.070	0.067
-159.750	800.000	0.012	0.041
-158.735	-125.986	0.110	-0.016
-157.720	32.597	0.252	0.217
-156.706	-55.480	-0.198	-0.088
-155.691	800.000	0.076	0.309
-154.677	349.167	0.072	-0.141
-153.662	47.031	0.069	0.064
-152.647	22.440	-0.062	0.050
-151.633	-200.000	0.001	-0.006
-150.618	-15.306	-0.216	0.137
-149.604	800.000	0.030	-0.112
-148.589	-200.000	0.020	-0.184
-147.574	111.346	0.128	0.153
-146.560	96.623	0.099	-0.112
-145.545	-200.000	-0.022	0.110
-144.531	-72.279	-0.142	0.052
-143.516	-200.000	-0.046	-0.224
-142.502	229.586	0.134	0.217
-141.487	-200.000	0.006	-0.367
-140.472	800.000	-0.030	-0.125
-139.458	-200.000	-0.001	-0.037
-138.443	-200.000	-0.028	-0.258
-137.429	-200.000	0.244	-0.000
-136.414	-200.000	0.068	-0.373
-135.399	-80.753	0.286	0.095
-134.385	58.662	0.037	-0.036
-133.370	800.000	-0.053	-0.189
-132.356	-138.035	-0.320	-0.035
-131.341	160.630	0.059	0.082
-130.326	-98.329	-0.215	-0.055
-129.312	-6.499	-0.027	-0.018
-128.297	-107.866	0.285	0.062
-127.283	459.955	-0.050	-0.110
-126.268	-68.600	-0.182	0.070
-125.253	-119.233	-0.095	-0.017
-124.239	470.751	0.073	0.162
-123.224	170.533	-0.148	-0.210
-122.210	-200.000	0.017	-0.160
