DTS Sentinel unit serial number:	SN413079Multiplexer serial number:	ORYXHardware model number:	OX4-SRSoftware version number:	ORYX F/W v4.00 Oryx Data Collector v3.7.2.0data status	okinstallation	princeton_trtdifferential loss correction	single-endedforward channel	channel 3reverse channel	N/Adate	2019/09/18time	10:12:35forward acquisition time	60.00reverse acquisition time	0.00gamma	496.2192k internal	0.2332k external	0.2332temperature offset calibration	0.9950default loss term (dB/km)	0.3790temperature slope calibration	1.0000multiplexer offset coefficient	1.0000multiplexer slope coefficient	1.0000fibre end	0.00T internal ref (°C)	27.81T ext. ref 1 (°C)	0.33T ext. ref 2 (°C)	24.22length (m)	temperature (°C)	Stokes	anti-Stokes-747.200	-200.000	-0.016	0.215
-746.185	14.639	-0.317	0.249
-745.171	31.533	0.061	0.053
-744.156	-200.000	0.025	0.320
-743.142	352.408	0.214	0.427
-742.127	-200.000	0.017	0.124
-741.112	634.901	0.099	-0.252
-740.098	-200.000	-0.009	0.043
-739.083	179.694	0.034	-0.050
-738.069	38.896	-0.322	0.289
-737.054	-177.026	0.083	0.002
-736.039	284.686	-0.088	0.160
-735.025	-151.414	-0.317	-0.024
-734.010	-125.531	-0.488	-0.074
-732.996	-138.039	-0.211	-0.024
-731.981	-47.974	-0.418	0.203
-730.966	-110.903	0.266	-0.055
-729.952	234.954	-0.122	-0.202
-728.937	800.000	0.088	-0.294
-727.923	-23.667	-0.264	0.159
-726.908	-121.643	-0.225	-0.038
-725.894	-8.408	-0.173	0.117
-724.879	-57.587	-0.369	-0.163
-723.864	-41.761	0.024	-0.012
-722.850	-200.000	0.007	-0.152
-721.835	407.949	0.135	-0.288
-720.821	17.658	0.203	-0.162
-719.806	383.629	0.094	-0.194
-718.791	-97.082	-0.381	0.100
-717.777	-74.101	0.139	-0.051
-716.762	-74.073	-0.201	-0.073
-715.748	115.051	-0.174	-0.214
-714.733	-200.000	-0.010	-0.077
-713.718	225.425	-0.182	-0.295
-712.704	800.000	-0.071	-0.208
-711.689	-200.000	-0.037	-0.187
-710.675	86.899	0.226	-0.251
-709.660	322.986	-0.063	0.121
-708.645	-130.404	-0.193	0.026
-707.631	800.000	-0.052	-0.178
-706.616	-139.597	0.193	0.021
-705.602	-69.316	-0.187	-0.072
-704.587	800.000	-0.069	0.227
-703.572	-81.543	-0.275	-0.091
-702.558	594.498	-0.072	-0.178
-701.543	-181.749	0.128	0.002
-700.529	152.367	-0.155	0.212
-699.514	800.000	-0.031	0.087
-698.499	85.849	0.220	-0.243
-697.485	-160.130	-0.315	0.017
-696.470	-200.000	-0.033	0.240
-695.456	328.077	-0.099	-0.190
-694.441	-123.216	0.292	-0.047
-693.426	137.784	-0.152	0.200
-692.412	-1.989	0.292	-0.206
-691.397	-200.000	-0.019	0.167
-690.383	472.160	0.095	0.214
-689.368	-200.000	-0.028	-0.253
-688.354	800.000	0.049	0.140
-687.339	-34.504	0.150	0.083
-686.324	53.447	0.162	0.156
-685.310	1.273	0.133	-0.096
-684.295	83.471	-0.344	-0.376
-683.281	-200.000	0.071	-0.354
-682.266	49.448	-0.194	-0.183
-681.251	-200.000	-0.032	-0.217
-680.237	-77.719	-0.033	0.012
-679.222	-101.580	-0.299	-0.073
-678.208	-81.222	-0.285	0.094
-677.193	-51.069	0.116	-0.054
-676.178	452.286	-0.044	-0.097
-675.164	-75.171	0.076	0.027
-674.149	-70.150	0.392	-0.149
-673.135	-200.000	-0.077	-0.437
-672.120	47.386	0.109	0.102
-671.105	114.486	-0.146	-0.178
-670.091	-171.904	-0.177	0.006
-669.076	-166.928	0.337	-0.014
-668.062	800.000	0.047	0.170
-667.047	-40.927	0.262	0.136
-666.032	-200.000	0.001	-0.190
-665.018	-108.587	0.354	0.076
-664.003	409.420	0.051	0.109
-662.989	-112.675	-0.453	0.090
-661.974	31.333	-0.257	-0.221
-660.959	-19.894	-0.156	0.097
-659.945	800.000	-0.033	0.113
-658.930	-200.000	-0.017	0.218
-657.916	22.027	-0.132	-0.108
-656.901	165.813	0.129	0.183
-655.886	-64.428	-0.156	-0.064
-654.872	86.992	0.137	0.152
-653.857	471.861	0.087	0.197
-652.843	-200.000	0.011	0.057
-651.828	155.052	0.056	-0.077
-650.814	-200.000	0.003	0.019
-649.799	46.857	0.117	-0.109
-648.784	653.377	-0.040	0.103
-647.770	-200.000	-0.016	0.128
-646.755	-71.142	-0.319	0.120
-645.741	800.000	0.067	-0.263
-644.726	-200.000	0.021	-0.143
-643.711	-61.437	0.202	0.085
-642.697	148.576	-0.054	-0.074
-641.682	-200.000	-0.005	0.074
-640.668	141.145	-0.311	-0.412
-639.653	62.794	0.281	0.282
-638.638	-101.732	-0.214	0.052
-637.624	-74.696	0.092	-0.033
-636.609	-200.000	0.019	-0.159
-635.595	-25.113	-0.172	-0.102
-634.580	-200.000	0.012	-0.126
-633.565	34.529	-0.073	-0.064
-632.551	-39.021	0.052	-0.028
-631.536	-19.207	0.142	-0.089
-630.522	562.956	-0.095	-0.230
-629.507	182.853	-0.056	0.083
-628.492	671.918	-0.041	0.105
-627.478	-171.684	0.364	-0.012
-626.463	-103.943	-0.309	-0.072
-625.449	0.872	-0.111	-0.080
-624.434	-200.000	-0.015	-0.311
-623.419	-2.445	-0.174	-0.122
-622.405	99.202	0.351	-0.406
-621.390	-200.000	-0.019	-0.138
-620.376	-200.000	-0.018	-0.271
-619.361	-51.746	-0.200	0.093
-618.346	273.146	-0.148	-0.262
-617.332	-200.000	-0.006	0.040
-616.317	-47.400	-0.348	-0.170
-615.303	91.480	0.157	-0.177
-614.288	202.071	0.085	-0.132
-613.273	800.000	-0.125	0.527
-612.259	-104.366	0.227	-0.053
-611.244	292.889	0.110	0.201
-610.230	-200.000	0.056	-0.301
-609.215	-69.753	0.088	-0.034
-608.201	-200.000	0.003	0.085
-607.186	-200.000	-0.011	-0.080
-606.171	-59.389	0.338	0.145
-605.157	251.915	0.078	-0.133
-604.142	-63.467	-0.235	0.096
-603.128	-200.000	0.000	-0.234
-602.113	261.326	0.155	0.269
-601.098	800.000	0.026	0.095
-600.084	304.466	-0.098	0.182
-599.069	152.797	-0.113	-0.155
-598.055	-200.000	-0.007	-0.109
-597.040	-95.067	0.059	0.016
-596.025	-69.534	-0.566	-0.217
-595.011	400.909	-0.120	-0.253
-593.996	800.000	0.069	-0.282
-592.982	-116.573	-0.287	-0.053
-591.967	181.698	0.183	-0.269
-590.952	-200.000	0.049	0.265
-589.938	20.486	-0.095	-0.076
-588.923	404.339	0.082	-0.173
-587.909	-66.999	0.101	-0.040
-586.894	130.151	-0.270	-0.345
-585.879	-23.385	-0.182	-0.109
-584.865	4.538	-0.269	0.197
-583.850	-123.421	-0.025	0.004
-582.836	77.116	-0.196	-0.208
-581.821	800.000	0.105	0.349
-580.806	7.928	-0.325	0.243
-579.792	-200.000	0.036	-0.277
-578.777	800.000	0.048	-0.192
-577.763	-7.042	-0.068	0.046
-576.748	265.759	0.047	0.083
-575.733	-178.199	-0.055	0.001
-574.719	800.000	0.046	-0.172
-573.704	-45.312	0.204	0.101
-572.690	-102.034	0.040	0.010
-571.675	-12.440	0.313	0.204
-570.661	615.905	-0.032	-0.079
-569.646	9.535	-0.339	0.257
-568.631	165.344	0.217	-0.306
-567.617	125.873	-0.138	-0.174
-566.602	-187.483	0.467	0.006
-565.588	17.524	0.099	-0.079
-564.573	-112.729	-0.123	-0.024
-563.558	800.000	0.106	-0.416
-562.544	14.348	-0.268	-0.208
-561.529	800.000	0.039	-0.119
-560.515	800.000	-0.022	-0.078
-559.500	-146.919	0.222	0.019
-558.485	-200.000	-0.002	-0.381
-557.471	-92.336	0.189	0.053
-556.456	-97.291	-0.293	-0.076
-555.442	800.000	0.116	0.402
-554.427	-79.825	0.194	0.065
-553.412	800.000	0.123	-0.370
-552.398	266.491	0.052	0.090
-551.383	-200.000	0.005	-0.126
-550.369	429.254	-0.028	0.061
-549.354	191.379	-0.233	-0.351
-548.339	71.594	-0.061	0.063
-547.325	281.071	0.109	0.194
-546.310	-200.000	0.005	0.254
-545.296	-117.049	0.328	0.060
-544.281	79.203	0.188	-0.201
-543.266	28.442	-0.223	0.188
-542.252	39.788	-0.153	0.137
-541.237	-122.734	-0.229	-0.037
-540.223	190.644	0.200	-0.300
-539.208	271.729	-0.065	-0.114
-538.193	49.478	-0.168	0.158
-537.179	287.056	0.137	0.246
-536.164	-149.502	0.234	-0.019
-535.150	1.233	0.191	0.137
-534.135	733.728	-0.150	-0.400
-533.121	-112.073	-0.268	0.054
-532.106	9.044	-0.401	0.302
-531.091	165.420	0.215	0.303
-530.077	800.000	0.058	0.166
-529.062	-155.708	-0.435	-0.028
-528.048	-162.196	0.110	-0.005
-527.033	618.598	0.183	0.459
-526.018	188.737	-0.124	0.186
-525.004	-108.342	0.301	-0.065
-523.989	-21.392	0.190	0.116
-522.975	-200.000	-0.215	0.000
-521.960	-200.000	0.024	0.125
-520.945	59.808	0.264	0.260
-519.931	1.544	-0.135	0.097
-518.916	800.000	-0.139	-0.415
-517.902	-65.995	-0.066	-0.026
-516.887	70.615	0.112	-0.116
-515.872	-63.390	-0.379	0.156
-514.858	207.985	0.078	-0.121
-513.843	216.707	-0.038	-0.060
-512.829	13.199	-0.090	0.069
-511.814	800.000	-0.051	-0.170
-510.799	-105.327	-0.127	0.029
-509.785	-104.566	-0.050	0.011
-508.770	800.000	0.155	-0.440
-507.756	468.565	0.040	0.090
-506.741	-127.981	0.276	0.040
-505.726	-200.000	-0.088	0.396
-504.712	-39.355	-0.097	0.051
-503.697	139.729	0.137	-0.180
-502.683	-200.000	0.042	0.307
-501.668	-200.000	0.015	0.423
-500.653	31.779	0.128	-0.110
-499.639	163.213	0.269	0.377
-498.624	-112.704	0.436	0.086
-497.610	800.000	-0.041	0.113
-496.595	-9.560	-0.253	0.168
-495.581	14.393	-0.299	-0.233
-494.566	-200.000	-0.001	-0.018
-493.551	-200.000	0.018	0.319
-492.537	-200.000	0.005	0.216
-491.522	28.960	0.248	0.209
-490.508	-200.000	-0.031	-0.144
-489.493	-137.321	0.395	-0.045
-488.478	-104.636	-0.147	-0.034
-487.464	800.000	-0.033	0.100
-486.449	300.795	0.092	0.169
-485.435	-113.257	0.149	0.029
-484.420	800.000	-0.047	0.164
-483.405	79.303	-0.102	0.108
-482.391	149.101	-0.124	0.167
-481.376	6.399	0.394	0.291
-480.362	-200.000	0.053	0.325
-479.347	-38.636	-0.032	-0.017
-478.332	118.122	-0.132	0.162
-477.318	433.015	-0.085	0.184
-476.303	575.683	-0.097	0.237
-475.289	-200.000	0.059	0.273
-474.274	-181.597	0.172	-0.003
-473.259	-78.795	-0.177	-0.060
-472.245	546.513	0.111	0.263
-471.230	74.107	0.229	0.240
-470.216	3.141	0.148	-0.107
-469.201	-62.107	0.159	0.066
-468.186	-23.548	-0.220	0.131
-467.172	-200.000	-0.054	0.240
-466.157	-110.869	0.244	-0.050
-465.143	-200.000	0.011	-0.170
-464.128	219.595	0.070	-0.111
-463.113	26.927	-0.215	-0.179
-462.099	800.000	0.071	-0.247
-461.084	216.061	-0.021	-0.034
-460.070	-92.457	0.220	0.061
-459.055	38.955	-0.101	-0.090
-458.040	-60.849	-0.271	0.114
-457.026	100.779	-0.191	0.221
-456.011	-36.136	0.174	0.093
-454.997	88.247	0.097	0.107
-453.982	-97.344	0.299	0.077
-452.968	232.943	0.042	0.068
-451.953	-200.000	-0.517	-0.002
-450.938	101.243	0.286	0.331
-449.924	120.425	0.025	0.031
-448.909	-164.380	0.130	-0.006
-447.895	-136.629	0.224	0.026
-446.880	800.000	-0.054	0.171
-445.865	36.798	-0.394	-0.346
-444.851	-66.048	0.090	0.036
-443.836	-107.300	0.151	0.033
-442.822	754.175	-0.052	-0.139
-441.807	-114.460	-0.302	-0.058
-440.792	-200.000	0.010	0.071
-439.778	64.162	-0.123	0.123
-438.763	-107.612	-0.261	-0.057
-437.749	-200.000	-0.045	0.201
-436.734	-23.587	0.165	0.098
-435.719	358.508	-0.015	-0.031
-434.705	-124.520	-0.176	-0.027
-433.690	800.000	-0.089	-0.311
-432.676	-59.589	0.161	0.069
-431.661	102.238	-0.235	-0.273
-430.646	-200.000	-0.023	0.278
-429.632	-200.000	0.031	0.414
-428.617	453.164	-0.122	-0.268
-427.603	62.753	0.394	0.391
-426.588	544.959	-0.082	0.195
-425.573	800.000	0.117	0.346
-424.559	-127.021	-0.243	-0.035
-423.544	-200.000	0.006	-0.036
-422.530	-79.461	-0.085	0.029
-421.515	-200.000	-0.017	0.138
-420.500	-200.000	-0.022	0.135
-419.486	-200.000	0.003	0.152
-418.471	327.684	-0.100	0.190
-417.457	-90.391	-0.153	0.044
-416.442	-26.884	0.274	-0.159
-415.428	800.000	0.031	-0.130
-414.413	-200.000	0.011	-0.347
-413.398	-51.219	0.375	-0.175
-412.384	-156.051	0.420	-0.026
-411.369	122.569	0.106	-0.132
-410.355	294.142	-0.128	-0.233
-409.340	-15.335	-0.156	0.099
-408.325	596.181	-0.060	-0.147
-407.311	82.027	0.156	-0.168
-406.296	-200.000	-0.023	-0.316
-405.282	280.096	-0.164	-0.291
-404.267	57.035	0.106	-0.103
-403.252	-103.544	0.297	-0.069
-402.238	-29.339	0.225	0.128
-401.223	25.908	-0.081	0.067
-400.209	473.518	-0.141	-0.316
-399.194	101.600	-0.155	0.180
-398.179	-200.000	0.089	-0.415
-397.165	27.185	0.111	0.092
-396.150	-200.000	-0.029	0.180
-395.136	-200.000	0.002	-0.041
-394.121	246.825	-0.110	0.184
-393.106	-200.000	0.001	0.270
-392.092	-91.725	-0.026	0.007
-391.077	185.381	0.146	0.215
-390.063	-22.668	-0.152	0.091
-389.048	-40.108	0.330	-0.170
-388.033	-200.000	-0.004	0.055
-387.019	800.000	-0.064	0.188
-386.004	800.000	0.096	-0.305
-384.990	-200.000	0.056	-0.322
-383.975	-158.741	-0.277	0.016
-382.960	-200.000	-0.069	-0.428
-381.946	-200.000	0.006	0.067
-380.931	-11.951	0.194	0.126
-379.917	-119.576	0.225	-0.039
-378.902	208.941	-0.109	0.170
-377.888	-101.231	0.137	-0.033
-376.873	-200.000	0.010	0.173
-375.858	11.971	-0.106	-0.081
-374.844	-191.186	-0.092	-0.001
-373.829	168.915	-0.204	0.288
-372.815	800.000	-0.037	0.103
-371.800	-147.567	-0.181	0.015
-370.785	60.446	0.272	-0.267
-369.771	-200.000	-0.018	0.083
-368.756	240.013	-0.204	-0.338
-367.742	410.003	0.065	0.136
-366.727	-1.795	-0.194	-0.135
-365.712	-200.000	-0.002	-0.025
-364.698	-200.000	-0.045	-0.262
-363.683	-200.000	-0.014	-0.363
-362.669	-175.462	-0.101	-0.003
-361.654	270.426	-0.182	-0.316
-360.639	-200.000	0.061	-0.395
-359.625	127.062	-0.208	0.262
-358.610	-200.000	0.056	0.498
-357.596	-10.961	-0.034	0.022
-356.581	-42.874	-0.114	0.057
-355.566	62.127	0.150	0.148
-354.552	204.614	-0.203	-0.311
-353.537	-121.947	0.404	-0.066
-352.523	-44.402	-0.215	-0.106
-351.508	303.010	-0.112	-0.205
-350.493	-2.793	-0.305	-0.211
-349.479	-52.770	-0.051	0.023
-348.464	275.215	-0.165	0.290
-347.450	-12.956	-0.098	-0.063
-346.435	442.027	-0.087	0.189
-345.420	243.943	0.101	-0.169
-344.406	800.000	0.056	0.194
-343.391	73.203	-0.401	0.416
-342.377	-200.000	-0.033	0.176
-341.362	287.412	-0.109	0.195
-340.348	9.223	0.251	0.188
-339.333	800.000	-0.015	-0.046
-338.318	800.000	-0.117	0.354
-337.304	4.625	0.058	0.042
-336.289	149.681	-0.032	-0.042
-335.275	-118.615	0.424	-0.074
-334.260	-200.000	-0.077	-0.469
-333.245	-131.158	-0.077	0.010
-332.231	102.781	0.030	0.035
-331.216	739.162	-0.140	0.371
-330.202	623.822	-0.084	0.210
-329.187	800.000	0.036	0.112
-328.172	-163.847	-0.136	-0.006
-327.158	26.249	0.363	-0.300
-326.143	800.000	0.026	-0.073
-325.129	-98.817	-0.148	-0.037
-324.114	-31.910	-0.156	0.086
-323.099	800.000	0.049	0.211
-322.085	17.448	-0.177	0.139
-321.070	63.866	-0.131	-0.130
-320.056	530.042	-0.065	-0.153
-319.041	549.122	-0.129	0.307
-318.026	-120.559	-0.128	-0.021
-317.012	800.000	0.124	-0.436
-315.997	23.263	0.213	0.173
-314.983	-200.000	-0.015	-0.214
-313.968	-200.000	-0.002	-0.079
-312.953	4.209	-0.128	-0.093
-311.939	-200.000	-0.009	-0.209
-310.924	146.260	-0.247	-0.328
-309.910	800.000	-0.031	0.118
-308.895	-108.027	0.053	0.011
-307.880	800.000	-0.051	-0.220
-306.866	292.187	-0.023	0.041
-305.851	357.619	0.068	0.134
-304.837	-64.858	0.250	0.100
-303.822	-200.000	0.077	0.466
-302.807	57.356	-0.107	-0.103
-301.793	-200.000	-0.021	-0.192
-300.778	-200.000	0.011	-0.408
-299.764	285.798	0.095	-0.169
-298.749	-200.000	-0.045	0.204
-297.735	-36.886	-0.256	-0.136
-296.720	109.176	-0.369	0.437
-295.705	148.679	-0.267	-0.356
-294.691	-200.000	0.010	-0.242
-293.676	-200.000	0.007	0.200
-292.662	24.589	-0.290	-0.237
-291.647	-149.555	0.443	0.035
-290.632	-4.785	0.326	-0.222
-289.618	197.572	-0.050	0.076
-288.603	-115.565	0.153	0.028
-287.589	297.098	0.061	-0.111
-286.574	-89.289	0.108	0.031
-285.559	-120.777	0.133	-0.022
-284.545	239.030	-0.132	0.217
-283.530	11.683	0.114	0.086
-282.516	-130.828	-0.195	0.026
-281.501	-64.235	-0.258	-0.104
-280.486	-24.017	0.187	-0.111
-279.472	57.314	-0.148	0.143
-278.457	-200.000	-0.043	0.357
-277.443	-200.000	0.006	-0.243
-276.428	-107.712	0.205	-0.044
-275.413	-65.971	-0.094	0.037
-274.399	-199.181	-0.279	-0.001
-273.384	-200.000	-0.035	0.316
-272.370	-91.837	0.287	0.080
-271.355	-200.000	-0.022	-0.156
-270.340	259.802	-0.146	0.249
-269.326	260.283	-0.131	-0.224
-268.311	8.282	-0.206	-0.153
-267.297	-62.654	-0.301	-0.123
-266.282	-136.806	0.213	-0.024
-265.267	-109.773	0.187	-0.039
-264.253	-200.000	0.085	-0.637
-263.238	239.902	-0.181	-0.298
-262.224	-49.660	-0.422	-0.198
-261.209	-93.762	0.202	0.055
-260.195	106.713	0.088	-0.103
-259.180	-43.765	0.261	0.130
-258.165	190.573	-0.144	0.214
-257.151	117.944	0.276	0.335
-256.136	23.504	0.188	-0.152
-255.122	118.330	0.262	-0.319
-254.107	56.380	0.141	0.136
-253.092	206.145	-0.132	0.203
-252.078	151.154	0.070	0.094
-251.063	-142.848	0.207	0.020
-250.049	800.000	-0.022	-0.065
-249.034	-59.182	0.234	-0.099
-248.019	-5.156	-0.186	-0.126
-247.005	135.791	-0.078	0.100
-245.990	302.895	0.091	0.166
-244.976	800.000	-0.082	0.229
-243.961	58.528	0.256	0.248
-242.946	-200.000	-0.009	0.271
-241.932	99.544	-0.150	-0.171
-240.917	-142.913	-0.107	-0.010
-239.903	800.000	0.081	-0.252
-238.888	110.036	0.157	0.186
-237.873	-111.060	0.251	-0.051
-236.859	-24.709	-0.145	0.085
-235.844	43.886	-0.102	0.093
-234.830	83.942	-0.141	-0.152
-233.815	87.672	0.140	0.153
-232.800	-200.000	-0.042	-0.236
-231.786	482.063	-0.016	-0.036
-230.771	-200.000	-0.033	-0.328
-229.757	-24.399	-0.186	0.109
-228.742	-135.565	0.246	-0.029
-227.727	29.849	-0.264	0.221
-226.713	26.306	-0.123	-0.101
-225.698	-19.293	-0.336	-0.205
-224.684	104.434	-0.181	0.211
-223.669	24.676	0.150	-0.122
-222.655	-165.543	0.447	-0.019
-221.640	-200.000	0.013	0.069
-220.625	-79.399	-0.291	0.097
-219.611	21.642	-0.255	-0.204
-218.596	-200.000	0.005	0.401
-217.582	-200.000	-0.043	0.350
-216.567	-71.416	0.059	0.022
-215.552	-37.055	0.179	-0.094
-214.538	12.252	-0.136	-0.103
-213.523	35.851	0.082	0.071
-212.509	-163.212	-0.214	-0.010
-211.494	-200.000	-0.021	-0.118
-210.479	205.853	-0.022	-0.033
-209.465	-46.327	-0.542	0.262
-208.450	121.840	0.110	0.135
-207.436	-35.246	-0.307	0.164
-206.421	408.944	0.032	-0.066
-205.406	367.269	-0.049	0.097
-204.392	87.539	-0.101	0.110
-203.377	24.820	0.273	-0.223
-202.363	-163.515	0.166	-0.008
-201.348	141.386	-0.150	0.195
-200.333	-159.518	0.315	-0.017
-199.319	-12.118	-0.255	0.165
-198.304	-138.311	0.097	-0.011
-197.290	-95.484	0.339	-0.090
-196.275	132.635	0.034	-0.044
-195.260	-101.147	0.225	0.054
-194.246	-186.170	0.210	-0.003
-193.231	800.000	0.028	0.100
-192.217	-109.023	0.224	0.047
-191.202	258.155	0.174	-0.294
-190.187	220.447	-0.211	-0.333
-189.173	-51.740	0.398	-0.182
-188.158	-179.773	-0.058	-0.001
-187.144	154.982	0.136	-0.184
-186.129	388.298	-0.111	-0.227
-185.114	-200.000	-0.030	0.471
-184.100	-56.045	-0.097	-0.043
-183.085	800.000	-0.052	-0.205
-182.071	-200.000	0.003	0.412
-181.056	-0.654	0.122	0.085
-180.042	318.215	0.065	0.122
-179.027	-131.856	0.074	-0.009
-178.012	674.138	-0.094	0.239
-176.998	-38.440	0.203	-0.105
-175.983	-200.000	-0.014	-0.227
-174.969	106.412	-0.295	-0.344
-173.954	10.396	-0.036	-0.027
-172.939	632.738	-0.119	0.296
-171.925	106.277	0.075	0.088
-170.910	405.114	-0.065	0.135
-169.896	701.201	0.106	0.273
-168.881	-71.724	-0.174	-0.064
-167.866	-200.000	0.050	-0.323
-166.852	-133.675	0.386	-0.047
-165.837	-20.266	0.346	-0.210
-164.823	-169.931	0.274	-0.010
-163.808	379.145	0.039	0.079
-162.793	800.000	0.041	-0.113
-161.779	-114.179	0.355	0.067
-160.764	-47.352	0.314	-0.150
-159.750	-32.181	0.088	0.048
-158.735	-20.576	-0.014	-0.009
-157.720	-200.000	-0.050	0.585
-156.706	-102.274	0.421	-0.099
-155.691	-41.757	-0.346	0.175
-154.677	-200.000	-0.009	-0.257
-153.662	-200.000	0.014	-0.270
-152.647	17.961	-0.034	-0.026
-151.633	28.144	-0.119	0.099
-150.618	292.508	-0.128	-0.230
-149.604	-74.899	-0.118	0.042
-148.589	-200.000	-0.017	0.116
-147.574	100.023	-0.135	-0.154
-146.560	-200.000	-0.019	0.265
-145.545	-119.422	0.182	0.031
-144.531	335.781	-0.190	-0.363
-143.516	-109.759	0.304	-0.063
-142.502	800.000	-0.046	-0.144
-141.487	-37.395	-0.162	0.085
-140.472	-200.000	-0.029	0.181
-139.458	-200.000	-0.002	0.095
-138.443	64.857	0.105	0.104
-137.429	48.470	-0.254	0.233
-136.414	-12.886	0.199	-0.127
-135.399	430.206	0.109	-0.232
-134.385	82.956	0.209	0.223
-133.370	-200.000	-0.030	0.265
-132.356	-95.566	-0.084	-0.022
-131.341	800.000	0.137	-0.437
-130.326	-172.274	0.047	0.001
-129.312	-88.769	0.052	0.015
-128.297	240.893	0.039	0.064
-127.283	-21.241	-0.117	-0.070
-126.268	-162.053	0.144	-0.007
-125.253	91.228	-0.122	-0.134
-124.239	-99.995	0.303	-0.074
-123.224	-200.000	-0.045	0.236
-122.210	800.000	-0.071	0.212
