DTS Sentinel unit serial number:	SN413079Multiplexer serial number:	ORYXHardware model number:	OX4-SRSoftware version number:	ORYX F/W v4.00 Oryx Data Collector v3.7.2.0data status	okinstallation	princeton_trtdifferential loss correction	single-endedforward channel	channel 3reverse channel	N/Adate	2019/09/15time	11:32:35forward acquisition time	60.00reverse acquisition time	0.00gamma	496.2192k internal	0.2307k external	0.2307temperature offset calibration	0.9971default loss term (dB/km)	0.3790temperature slope calibration	1.0000multiplexer offset coefficient	1.0000multiplexer slope coefficient	1.0000fibre end	0.00T internal ref (°C)	34.31T ext. ref 1 (°C)	5.00T ext. ref 2 (°C)	29.87length (m)	temperature (°C)	Stokes	anti-Stokes-747.200	-122.679	0.452	-0.075
-746.185	-78.445	0.200	-0.070
-745.171	-13.336	-0.349	-0.230
-744.156	160.051	0.207	-0.293
-743.142	-200.000	-0.005	-0.058
-742.127	11.756	0.238	-0.186
-741.112	26.794	0.336	0.286
-740.098	76.500	0.052	0.056
-739.083	282.294	-0.167	-0.304
-738.069	70.324	-0.184	0.193
-737.054	-13.566	0.095	-0.063
-736.039	-200.000	-0.001	0.019
-735.025	-8.665	0.356	0.243
-734.010	-39.087	-0.053	0.028
-732.996	-89.917	-0.140	0.042
-731.981	800.000	-0.015	-0.059
-730.966	-200.000	-0.012	-0.079
-729.952	-4.563	-0.285	-0.200
-728.937	-115.692	-0.257	0.049
-727.923	-200.000	0.009	-0.087
-726.908	-61.536	-0.269	-0.115
-725.894	-154.119	-0.614	0.042
-724.879	-73.327	-0.287	-0.107
-723.864	-200.000	0.060	0.274
-722.850	233.418	-0.044	-0.073
-721.835	224.495	-0.302	-0.496
-720.821	231.103	-0.049	-0.081
-719.806	-200.000	-0.031	-0.143
-718.791	62.073	-0.190	-0.192
-717.777	-146.665	-0.494	-0.043
-716.762	800.000	0.070	-0.265
-715.748	-91.223	-0.146	0.043
-714.733	-14.554	-0.071	-0.046
-713.718	29.910	0.029	0.026
-712.704	-138.865	0.057	0.006
-711.689	-79.022	-0.110	0.038
-710.675	-136.866	-0.135	-0.016
-709.660	-165.274	-0.391	0.018
-708.645	60.265	0.323	0.325
-707.631	146.651	0.025	-0.035
-706.616	433.117	0.137	0.302
-705.602	-200.000	0.066	0.342
-704.587	49.769	-0.227	0.217
-703.572	-108.045	-0.304	0.067
-702.558	-37.054	-0.286	-0.156
-701.543	-200.000	0.033	0.221
-700.529	-180.677	0.198	0.004
-699.514	152.702	-0.095	0.132
-698.499	196.240	0.068	0.105
-697.485	-41.537	0.317	-0.165
-696.470	-65.846	-0.165	0.067
-695.456	800.000	-0.042	-0.159
-694.441	29.395	0.183	-0.158
-693.426	164.502	-0.064	-0.091
-692.412	800.000	-0.031	0.092
-691.397	40.269	0.244	-0.222
-690.383	-200.000	0.026	-0.210
-689.368	-79.877	0.221	-0.075
-688.354	12.237	0.240	-0.187
-687.339	-72.917	0.258	-0.096
-686.324	126.029	-0.093	-0.119
-685.310	-200.000	-0.027	-0.170
-684.295	-65.438	0.096	-0.039
-683.281	75.721	0.159	-0.170
-682.266	-66.224	-0.112	-0.045
-681.251	-92.328	-0.124	0.035
-680.237	55.513	-0.201	-0.198
-679.222	7.943	-0.098	0.075
-678.208	-100.150	0.372	-0.094
-677.193	-36.629	-0.242	0.132
-676.178	45.297	-0.091	0.086
-675.164	-200.000	0.022	-0.127
-674.149	-126.017	0.158	0.024
-673.135	-17.967	-0.159	0.101
-672.120	-61.051	-0.099	-0.042
-671.105	-122.720	-0.408	0.067
-670.091	800.000	0.060	0.195
-669.076	403.930	0.125	0.266
-668.062	46.783	-0.203	-0.191
-667.047	-200.000	0.011	0.366
-666.032	-171.510	-0.325	0.011
-665.018	32.447	0.184	-0.161
-664.003	118.432	-0.065	-0.081
-662.989	-86.262	-0.272	0.085
-661.974	-47.275	-0.153	0.076
-660.959	-200.000	-0.045	-0.266
-659.945	-200.000	-0.008	-0.147
-658.930	-26.528	0.335	0.199
-657.916	422.070	-0.013	0.029
-656.901	198.010	0.108	0.168
-655.886	433.299	0.120	-0.265
-654.872	284.069	-0.212	-0.387
-653.857	-17.753	-0.335	-0.213
-652.843	-163.147	-0.036	-0.002
-651.828	415.149	-0.071	-0.154
-650.814	-12.236	-0.361	-0.239
-649.799	142.358	-0.265	0.356
-648.784	268.235	-0.096	-0.171
-647.770	72.364	-0.153	-0.162
-646.755	296.609	0.212	-0.394
-645.741	-53.522	-0.159	-0.073
-644.726	65.073	0.178	-0.182
-643.711	34.129	0.287	-0.253
-642.697	-80.500	0.281	-0.095
-641.682	800.000	-0.115	0.375
-640.668	690.203	-0.051	-0.134
-639.653	-131.495	0.305	-0.041
-638.638	703.349	0.112	0.298
-637.624	-170.260	0.298	0.011
-636.609	-0.157	-0.177	-0.128
-635.595	12.358	0.330	0.257
-634.580	-79.197	-0.100	-0.034
-633.565	800.000	-0.046	-0.174
-632.551	13.753	0.143	-0.113
-631.536	-102.733	0.155	0.037
-630.522	-200.000	-0.027	0.205
-629.507	-70.681	0.159	0.061
-628.492	800.000	-0.045	-0.139
-627.478	800.000	0.056	0.163
-626.463	-85.104	-0.157	0.050
-625.449	-200.000	0.013	0.177
-624.434	116.094	-0.166	0.205
-623.419	-125.241	-0.303	0.047
-622.405	-99.200	-0.149	-0.038
-621.390	264.998	0.041	-0.072
-620.376	-200.000	-0.086	0.410
-619.361	156.654	0.031	0.043
-618.346	-63.290	0.317	0.132
-617.332	-26.700	-0.143	-0.084
-616.317	307.568	-0.103	0.194
-615.303	208.605	-0.037	-0.058
-614.288	-70.080	-0.152	0.058
-613.273	-60.252	0.216	-0.093
-612.259	78.390	-0.113	-0.123
-611.244	-17.501	0.184	-0.117
-610.230	91.354	-0.178	-0.203
-609.215	293.771	0.027	-0.050
-608.201	318.065	-0.196	0.376
-607.186	800.000	0.042	-0.120
-606.171	16.004	-0.169	-0.135
-605.157	-106.958	-0.070	0.016
-604.142	-114.659	-0.039	-0.008
-603.128	-104.645	0.327	-0.076
-602.113	318.969	-0.081	0.156
-601.098	40.421	-0.569	-0.518
-600.084	142.129	0.163	-0.219
-599.069	-105.665	0.162	-0.037
-598.055	5.785	-0.203	-0.152
-597.040	-38.973	-0.397	0.211
-596.025	398.615	0.097	-0.206
-595.011	800.000	-0.137	-0.400
-593.996	7.254	0.152	0.115
-592.982	345.384	-0.098	0.194
-591.967	-152.763	-0.219	-0.016
-590.952	-70.329	-0.422	-0.162
-589.938	632.663	-0.117	-0.300
-588.923	-53.527	-0.263	-0.122
-587.909	-8.193	0.178	0.121
-586.894	93.014	0.256	0.292
-585.879	-91.535	0.165	-0.048
-584.865	-200.000	0.017	-0.291
-583.850	-51.153	-0.063	0.030
-582.836	-79.202	-0.098	0.033
-581.821	389.700	-0.092	-0.192
-580.806	-44.072	-0.060	0.030
-579.792	103.148	-0.258	-0.306
-578.777	-154.495	0.186	0.013
-577.763	-16.741	0.159	0.102
-576.748	231.633	0.221	-0.366
-575.733	800.000	0.046	0.194
-574.719	-163.188	-0.256	0.012
-573.704	108.299	-0.211	-0.254
-572.690	-87.683	0.351	-0.107
-571.675	20.992	0.173	-0.142
-570.661	-30.014	-0.121	0.069
-569.646	68.901	0.187	-0.194
-568.631	-129.900	0.159	0.022
-567.617	800.000	-0.091	0.355
-566.602	800.000	0.042	-0.153
-565.588	-85.805	-0.116	-0.036
-564.573	800.000	0.097	-0.275
-563.558	-200.000	0.035	-0.181
-562.544	800.000	-0.086	0.315
-561.529	-118.943	0.446	-0.079
-560.515	-90.880	0.146	-0.042
-559.500	-154.724	-0.153	0.010
-558.485	45.115	0.106	0.099
-557.471	800.000	0.077	-0.251
-556.456	211.509	-0.123	-0.195
-555.442	-13.946	-0.105	-0.068
-554.427	-200.000	-0.029	0.154
-553.412	30.730	-0.116	-0.100
-552.398	-41.414	-0.395	0.205
-551.383	-59.707	-0.202	-0.087
-550.369	119.842	0.165	-0.206
-549.354	107.790	0.132	-0.159
-548.339	98.171	0.168	-0.195
-547.325	184.664	0.129	0.193
-546.310	-93.307	-0.192	0.054
-545.296	-147.399	0.167	-0.014
-544.281	-55.249	0.216	0.098
-543.266	-139.516	-0.074	-0.008
-542.252	-200.000	-0.065	0.296
-541.237	-158.826	-0.350	0.020
-540.223	-95.558	-0.061	-0.017
-539.208	-101.822	0.202	-0.049
-538.193	800.000	0.023	-0.094
-537.179	800.000	0.038	-0.133
-536.164	165.132	-0.196	0.279
-535.150	134.061	0.151	0.197
-534.135	199.983	-0.107	0.166
-533.121	-50.744	0.093	0.044
-532.106	-141.211	0.137	0.014
-531.091	179.253	-0.091	0.134
-530.077	28.245	-0.066	-0.056
-529.062	-69.734	0.131	0.050
-528.048	64.310	-0.027	-0.027
-527.033	-200.000	0.000	0.069
-526.018	-60.545	-0.137	-0.059
-525.004	-200.000	0.002	-0.202
-523.989	-200.000	0.001	0.009
-522.975	-200.000	-0.037	-0.229
-521.960	-114.835	0.219	0.042
-520.945	-57.564	-0.135	0.060
-519.931	59.424	-0.187	-0.186
-518.916	-88.127	-0.166	0.050
-517.902	-39.978	-0.198	-0.104
-516.887	-99.978	-0.250	-0.063
-515.872	108.395	0.189	0.227
-514.858	148.737	0.213	-0.291
-513.843	29.145	-0.156	-0.134
-512.829	19.383	0.353	0.286
-511.814	785.132	-0.088	-0.244
-510.799	-37.121	-0.344	0.185
-509.785	-200.000	0.009	-0.138
-508.770	9.001	0.056	0.042
-507.756	267.214	-0.106	-0.187
-506.741	-64.846	-0.404	-0.165
-505.726	-79.853	-0.168	0.057
-504.712	-146.204	-0.194	-0.017
-503.697	25.569	-0.191	-0.160
-502.683	-1.113	0.135	0.096
-501.668	-100.767	-0.188	-0.047
-500.653	760.279	0.074	-0.202
-499.639	-6.887	-0.115	-0.079
-498.624	-29.222	0.082	0.047
-497.610	-112.593	0.116	-0.023
-496.595	-20.161	-0.056	-0.035
-495.581	-47.112	-0.144	-0.071
-494.566	728.995	-0.118	0.317
-493.551	-113.458	0.181	-0.036
-492.537	429.399	-0.144	-0.314
-491.522	-200.000	-0.027	-0.143
-490.508	-27.149	-0.066	-0.039
-489.493	800.000	0.074	-0.234
-488.478	-19.605	-0.348	-0.217
-487.464	-200.000	-0.007	0.033
-486.449	51.339	0.039	0.038
-485.435	-200.000	0.112	0.510
-484.420	561.712	-0.092	0.225
-483.405	643.682	-0.009	0.023
-482.391	177.675	0.109	0.160
-481.376	50.913	0.265	-0.253
-480.362	-200.000	-0.042	0.319
-479.347	-56.192	0.093	0.042
-478.332	73.723	0.198	-0.209
-477.318	250.430	-0.133	-0.227
-476.303	-59.152	-0.187	-0.081
-475.289	69.200	-0.120	0.124
-474.274	66.577	-0.322	0.329
-473.259	-50.331	-0.288	-0.137
-472.245	-49.417	0.353	0.169
-471.230	22.357	0.032	0.027
-470.216	-200.000	0.053	-0.319
-469.201	185.451	0.078	-0.117
-468.186	800.000	0.087	-0.354
-467.172	93.092	0.059	-0.067
-466.157	344.761	0.073	0.143
-465.143	-83.775	0.159	0.051
-464.128	312.163	0.123	-0.232
-463.113	341.153	0.061	0.120
-462.099	-133.366	0.132	0.017
-461.084	48.312	0.198	-0.187
-460.070	-55.037	0.184	-0.084
-459.055	-200.000	-0.001	0.021
-458.040	-123.802	-0.304	-0.048
-457.026	-44.256	-0.266	0.134
-456.011	32.990	0.145	-0.126
-454.997	-60.876	0.521	-0.222
-453.982	-121.164	-0.203	-0.034
-452.968	-34.452	-0.372	0.205
-451.953	-134.775	-0.089	0.011
-450.938	37.065	0.033	-0.029
-449.924	-200.000	-0.022	0.137
-448.909	-200.000	0.028	-0.148
-447.895	135.566	-0.083	0.108
-446.880	-28.930	0.239	0.138
-445.865	236.641	0.106	0.177
-444.851	699.273	-0.054	-0.143
-443.836	-200.000	-0.008	-0.122
-442.822	800.000	0.091	-0.271
-441.807	-200.000	-0.012	-0.100
-440.792	-91.654	-0.269	0.077
-439.778	381.349	0.142	0.293
-438.763	777.045	0.159	0.436
-437.749	-127.135	-0.161	0.024
-436.734	-14.070	0.170	-0.110
-435.719	178.924	0.094	-0.138
-434.705	606.091	-0.082	-0.205
-433.690	800.000	-0.048	0.182
-432.676	350.581	0.095	0.189
-431.661	-200.000	-0.019	0.137
-430.646	13.793	0.054	-0.042
-429.632	-37.863	-0.195	0.104
-428.617	57.310	-0.105	0.103
-427.603	-48.363	0.264	-0.128
-426.588	89.730	0.130	0.146
-425.573	-157.462	0.300	0.018
-424.559	182.286	-0.071	-0.105
-423.544	115.203	-0.154	-0.189
-422.530	113.288	-0.043	-0.052
-421.515	800.000	-0.040	0.138
-420.500	-111.226	-0.381	0.078
-419.486	58.642	-0.132	-0.130
-418.471	-82.600	-0.240	0.078
-417.457	100.689	-0.119	0.139
-416.442	174.507	-0.066	0.096
-415.428	241.779	-0.100	0.168
-414.413	77.606	-0.140	0.150
-413.398	800.000	-0.102	-0.291
-412.384	-200.000	0.041	0.212
-411.369	342.531	0.128	0.251
-410.355	-40.840	0.011	0.006
-409.340	-200.000	0.026	-0.309
-408.325	-166.833	0.098	-0.004
-407.311	82.028	0.126	-0.137
-406.296	800.000	0.072	0.263
-405.282	800.000	-0.067	0.187
-404.267	359.171	-0.020	0.041
-403.252	-47.868	0.146	0.071
-402.238	499.385	-0.061	0.141
-401.223	-78.431	-0.284	-0.098
-400.209	247.806	-0.050	0.085
-399.194	174.195	0.128	-0.186
-398.179	247.249	-0.109	0.185
-397.165	-200.000	0.052	-0.293
-396.150	260.909	0.077	0.133
-395.136	-200.000	0.033	-0.283
-394.121	800.000	-0.050	-0.146
-393.106	36.717	0.191	-0.170
-392.092	341.370	-0.122	-0.239
-391.077	244.654	-0.048	-0.081
-390.063	129.406	-0.095	-0.122
-389.048	-103.065	0.338	-0.080
-388.033	-77.507	0.086	-0.030
-387.019	7.830	-0.277	0.208
-386.004	800.000	0.051	-0.209
-384.990	800.000	0.067	0.245
-383.975	-200.000	0.060	-0.269
-382.960	-65.848	-0.095	0.038
-381.946	-200.000	0.027	0.339
-380.931	-200.000	0.024	0.316
-379.917	-200.000	-0.257	0.000
-378.902	148.876	0.132	0.178
-377.888	173.461	0.117	0.170
-376.873	138.043	-0.201	0.264
-375.858	252.276	-0.132	0.225
-374.844	-200.000	-0.004	0.109
-373.829	315.790	0.134	-0.253
-372.815	497.011	0.132	-0.305
-371.800	-6.430	-0.178	0.122
-370.785	-200.000	-0.024	0.176
-369.771	752.676	0.071	0.193
-368.756	229.681	-0.034	0.055
-367.742	-121.850	0.304	-0.050
-366.727	-200.000	-0.003	0.108
-365.712	49.236	-0.024	-0.022
-364.698	112.916	0.207	0.252
-363.683	16.354	-0.118	0.093
-362.669	-185.670	0.039	-0.001
-361.654	800.000	0.052	0.161
-360.639	-183.458	-0.239	-0.004
-359.625	193.681	-0.041	0.063
-358.610	169.329	-0.204	0.291
-357.596	-135.514	-0.288	-0.034
-356.581	2.411	0.220	-0.159
-355.566	-9.170	0.231	0.155
-354.552	-118.537	-0.112	0.020
-353.537	22.226	-0.056	0.046
-352.523	-99.558	-0.434	0.109
-351.508	-145.670	0.195	0.017
-350.493	727.995	0.114	-0.306
-349.479	-200.000	0.004	-0.171
-348.464	-138.260	-0.258	-0.029
-347.450	26.400	-0.150	0.126
-346.435	-200.000	-0.055	0.278
-345.420	-141.147	0.437	-0.045
-344.406	101.207	0.178	-0.207
-343.391	157.435	0.147	-0.203
-342.377	-55.511	0.187	0.084
-341.362	-137.277	-0.224	0.025
-340.348	-102.163	-0.147	0.035
-339.333	-112.998	0.274	-0.054
-338.318	-200.000	0.014	0.121
-337.304	-60.105	0.213	-0.091
-336.289	-200.000	-0.010	0.270
-335.275	-142.193	0.237	0.024
-334.260	105.093	-0.155	-0.183
-333.245	-70.229	0.209	-0.080
-332.231	163.382	0.151	-0.212
-331.216	230.435	-0.056	0.092
-330.202	167.018	0.172	0.244
-329.187	-200.000	0.022	0.103
-328.172	145.438	-0.044	-0.058
-327.158	-12.122	-0.265	-0.174
-326.143	-117.918	0.290	0.052
-325.129	-200.000	0.025	0.175
-324.114	-200.000	0.012	0.067
-323.099	105.005	-0.039	-0.046
-322.085	-131.836	0.375	0.049
-321.070	-124.577	-0.151	0.023
-320.056	-200.000	-0.019	0.184
-319.041	-43.127	-0.077	-0.039
-318.026	-200.000	-0.063	-0.281
-317.012	-60.070	0.139	-0.059
-315.997	800.000	-0.045	-0.133
-314.983	12.788	-0.040	0.031
-313.968	335.253	-0.124	0.241
-312.953	105.511	-0.199	-0.235
-311.939	800.000	-0.060	0.222
-310.924	32.906	-0.239	-0.207
-309.910	-200.000	0.006	0.036
-308.895	-200.000	0.003	-0.349
-307.880	78.709	0.223	0.239
-306.866	10.341	0.079	0.060
-305.851	23.165	0.170	-0.139
-304.837	-90.288	0.113	0.033
-303.822	-94.530	-0.161	0.044
-302.807	-61.131	0.074	-0.031
-301.793	800.000	-0.080	-0.278
-300.778	372.072	-0.156	-0.318
-299.764	-200.000	-0.003	0.026
-298.749	-145.341	0.168	-0.015
-297.735	71.762	0.256	-0.266
-296.720	-111.264	-0.132	-0.027
-295.705	-106.330	0.257	0.057
-294.691	-114.850	-0.214	-0.041
-293.676	108.014	-0.063	-0.075
-292.662	-200.000	-0.030	0.148
-291.647	800.000	0.025	0.089
-290.632	-110.121	-0.305	-0.064
-289.618	-192.816	-0.212	-0.002
-288.603	20.460	0.152	0.123
-287.589	-99.786	-0.266	0.067
-286.574	-200.000	0.029	0.187
-285.559	-100.138	-0.168	0.042
-284.545	92.247	-0.157	-0.177
-283.530	-148.808	0.022	0.002
-282.516	800.000	0.016	0.054
-281.501	84.924	-0.069	0.075
-280.486	-115.898	-0.185	-0.034
-279.472	-15.569	-0.283	0.181
-278.457	-200.000	-0.008	0.060
-277.443	69.156	-0.065	-0.066
-276.428	271.582	-0.057	0.101
-275.413	462.590	0.073	0.163
-274.399	-50.418	-0.021	0.010
-273.384	-92.668	-0.168	0.047
-272.370	-44.279	0.316	0.158
-271.355	800.000	-0.012	0.034
-270.340	51.553	0.267	0.253
-269.326	-130.591	0.203	0.027
-268.311	-132.732	0.265	0.034
-267.297	219.603	-0.060	-0.096
-266.282	-34.499	-0.044	0.024
-265.267	103.896	-0.146	0.172
-264.253	-104.054	-0.103	0.024
-263.238	-163.537	0.223	-0.011
-262.224	-106.882	0.569	0.126
-261.209	-2.920	0.289	0.201
-260.195	-106.921	0.286	-0.063
-259.180	206.633	-0.119	-0.185
-258.165	-109.041	-0.360	-0.077
-257.151	124.504	0.122	0.153
-256.136	-122.736	-0.348	-0.056
-255.122	47.486	0.089	-0.082
-254.107	49.434	-0.369	-0.347
-253.092	3.597	0.206	-0.150
-252.078	-200.000	0.038	0.546
-251.063	-148.551	0.293	-0.024
-250.049	30.130	0.193	-0.164
-249.034	-5.510	-0.057	0.039
-248.019	800.000	-0.051	-0.200
-247.005	231.739	-0.130	0.212
-245.990	62.316	-0.126	0.126
-244.976	16.613	0.235	0.186
-243.961	-39.705	0.336	0.175
-242.946	-200.000	-0.040	0.207
-241.932	800.000	-0.053	-0.191
-240.917	-99.348	0.257	-0.065
-239.903	240.539	-0.201	0.334
-238.888	-71.196	0.231	0.086
-237.873	800.000	-0.122	0.374
-236.859	-48.658	-0.146	-0.070
-235.844	-115.657	-0.181	0.034
-234.830	-32.529	0.166	0.092
-233.815	-200.000	0.028	-0.346
-232.800	800.000	-0.035	-0.103
-231.786	60.984	0.053	0.052
-230.771	378.024	-0.067	-0.137
-229.757	800.000	0.028	0.082
-228.742	-89.346	0.402	-0.118
-227.727	-139.134	0.280	-0.030
-226.713	-75.050	-0.198	0.071
-225.698	-200.000	0.024	0.309
-224.684	21.344	-0.175	-0.142
-223.669	153.136	0.146	-0.199
-222.655	-200.000	-0.047	-0.410
-221.640	-163.417	0.085	-0.004
-220.625	800.000	-0.052	0.173
-219.611	-40.442	-0.156	0.081
-218.596	46.382	-0.102	0.094
-217.582	-200.000	0.009	-0.118
-216.567	124.395	-0.149	0.187
-215.552	266.566	0.015	-0.027
-214.538	11.916	0.218	-0.167
-213.523	143.043	-0.198	-0.262
-212.509	237.224	0.036	0.059
-211.494	-200.000	-0.032	0.275
-210.479	98.242	0.080	0.092
-209.465	-112.135	-0.038	0.008
-208.450	-79.033	-0.111	0.038
-207.436	-200.000	0.019	-0.100
-206.421	-12.170	-0.155	-0.101
-205.406	-70.314	-0.344	0.130
-204.392	-101.314	-0.306	-0.074
-203.377	-145.179	-0.257	0.023
-202.363	637.479	0.085	0.216
-201.348	1.774	0.237	-0.170
-200.333	567.732	-0.021	0.051
-199.319	99.917	-0.062	-0.071
-198.304	-90.570	-0.165	0.047
-197.290	-93.759	0.328	0.090
-196.275	50.777	0.284	0.268
-195.260	-70.533	0.290	0.109
-194.246	547.054	-0.040	-0.095
-193.231	61.284	-0.349	0.345
-192.217	-200.000	0.015	0.097
-191.202	275.726	0.157	-0.277
-190.187	230.817	-0.089	0.144
-189.173	-91.902	0.186	0.052
-188.158	-200.000	0.019	0.103
-187.144	800.000	-0.073	0.282
-186.129	800.000	0.068	-0.249
-185.114	735.377	0.106	0.284
-184.100	-200.000	0.005	-0.129
-183.085	-200.000	-0.014	0.152
-182.071	-15.907	-0.121	0.077
-181.056	-112.306	-0.139	-0.028
-180.042	-200.000	0.024	0.122
-179.027	501.677	-0.153	-0.352
-178.012	-120.069	0.121	0.021
-176.998	694.063	-0.056	-0.146
-175.983	-200.000	-0.016	0.192
-174.969	8.643	0.237	0.178
-173.954	69.249	-0.075	-0.077
-172.939	-200.000	0.001	-0.054
-171.925	-200.000	0.020	0.135
-170.910	6.798	0.199	0.147
-169.896	-109.891	0.369	-0.077
-168.881	51.756	-0.149	-0.141
-167.866	-65.492	-0.181	-0.072
-166.852	-200.000	0.022	0.130
-165.837	-200.000	0.020	-0.137
-164.823	-141.055	0.216	-0.022
-163.808	327.861	-0.069	-0.131
-162.793	-36.681	0.015	-0.008
-161.779	-26.706	0.281	-0.163
-160.764	-162.951	0.371	0.018
-159.750	314.568	0.123	-0.229
-158.735	-55.867	0.149	0.066
-157.720	800.000	0.044	0.182
-156.706	238.036	-0.098	-0.161
-155.691	-107.153	-0.246	-0.054
-154.677	-200.000	-0.009	0.202
-153.662	-59.536	0.283	-0.121
-152.647	800.000	0.077	-0.220
-151.633	184.669	0.105	-0.154
-150.618	-29.179	0.082	0.047
-149.604	23.994	-0.212	0.173
-148.589	78.862	0.169	0.180
-147.574	-200.000	0.038	-0.353
-146.560	-23.424	0.263	0.157
-145.545	-200.000	0.010	0.096
-144.531	315.844	0.242	0.453
-143.516	-200.000	0.059	-0.289
-142.502	45.234	-0.013	-0.012
-141.487	-200.000	-0.010	-0.192
-140.472	47.428	-0.243	0.225
-139.458	196.245	0.060	-0.090
-138.443	-36.397	-0.059	0.032
-137.429	139.492	0.196	0.256
-136.414	-116.098	-0.262	-0.048
-135.399	218.621	-0.214	0.339
-134.385	-111.259	-0.052	0.011
-133.370	17.443	-0.123	-0.097
-132.356	-127.551	0.445	0.064
-131.341	587.236	-0.127	0.312
-130.326	-150.200	0.257	-0.020
-129.312	26.174	-0.095	-0.079
-128.297	-121.116	0.248	0.041
-127.283	-14.800	0.169	-0.108
-126.268	-115.132	-0.280	-0.053
-125.253	-5.700	0.151	-0.103
-124.239	141.568	0.115	-0.151
-123.224	-73.942	-0.425	-0.153
-122.210	82.509	0.040	-0.043
-121.195	401.639	-0.052	0.108
