DTS Sentinel unit serial number:	SN413079Multiplexer serial number:	ORYXHardware model number:	OX4-SRSoftware version number:	ORYX F/W v4.00 Oryx Data Collector v3.7.2.0data status	okinstallation	princeton_trtdifferential loss correction	single-endedforward channel	channel 3reverse channel	N/Adate	2019/09/16time	03:44:34forward acquisition time	60.00reverse acquisition time	0.00gamma	496.2192k internal	0.2334k external	0.2334temperature offset calibration	0.9954default loss term (dB/km)	0.3790temperature slope calibration	1.0000multiplexer offset coefficient	1.0000multiplexer slope coefficient	1.0000fibre end	0.00T internal ref (°C)	27.56T ext. ref 1 (°C)	10.64T ext. ref 2 (°C)	21.69length (m)	temperature (°C)	Stokes	anti-Stokes-747.200	439.982	-0.141	0.309
-746.185	800.000	-0.097	-0.328
-745.171	385.848	0.322	0.669
-744.156	-87.524	-0.292	0.089
-743.142	-118.344	0.286	-0.051
-742.127	-128.591	-0.116	-0.017
-741.112	341.005	0.061	-0.120
-740.098	113.354	-0.166	0.202
-739.083	800.000	-0.048	-0.173
-738.069	-200.000	-0.004	0.203
-737.054	338.053	0.126	-0.247
-736.039	-154.253	-0.228	-0.015
-735.025	333.398	0.051	0.099
-734.010	-200.000	-0.049	-0.334
-732.996	25.274	-0.136	-0.114
-731.981	-160.781	-0.255	-0.014
-730.966	73.062	0.190	0.199
-729.952	223.266	-0.194	-0.315
-728.937	-200.000	0.030	-0.342
-727.923	55.549	-0.171	0.167
-726.908	-109.334	-0.219	-0.047
-725.894	-196.866	0.286	0.002
-724.879	43.743	0.152	-0.140
-723.864	78.208	0.185	-0.198
-722.850	-175.075	0.299	0.008
-721.835	-200.000	0.006	0.051
-720.821	224.284	0.099	0.161
-719.806	-200.000	-0.001	-0.343
-718.791	80.773	0.065	-0.070
-717.777	800.000	0.084	-0.323
-716.762	-74.875	0.250	-0.090
-715.748	-200.000	0.015	-0.160
-714.733	102.365	-0.461	-0.541
-713.718	-70.768	-0.336	-0.127
-712.704	-69.519	-0.240	0.092
-711.689	-96.922	0.263	0.069
-710.675	-107.698	0.081	0.018
-709.660	625.234	-0.075	-0.189
-708.645	-50.066	0.276	0.131
-707.631	-128.802	0.415	0.059
-706.616	36.717	-0.183	-0.162
-705.602	-84.596	-0.264	-0.084
-704.587	-200.000	0.035	-0.336
-703.572	535.244	0.067	-0.160
-702.558	-200.000	0.025	-0.171
-701.543	-115.432	-0.106	-0.020
-700.529	-200.000	0.001	-0.232
-699.514	-41.655	-0.333	-0.171
-698.499	99.956	0.116	0.134
-697.485	-169.091	0.096	-0.004
-696.470	-65.673	-0.163	0.065
-695.456	493.843	-0.144	0.333
-694.441	-12.682	-0.307	0.201
-693.426	-123.061	-0.328	-0.053
-692.412	800.000	-0.039	0.155
-691.397	-76.769	0.106	-0.037
-690.383	-200.000	0.015	0.125
-689.368	116.446	-0.030	-0.037
-688.354	-200.000	-0.022	0.104
-687.339	800.000	0.069	0.223
-686.324	-53.591	0.175	0.080
-685.310	197.231	-0.048	-0.074
-684.295	-169.218	0.229	0.009
-683.281	-65.340	-0.256	0.103
-682.266	35.862	-0.111	0.098
-681.251	80.174	-0.133	0.143
-680.237	49.754	0.115	-0.109
-679.222	-116.836	0.079	-0.014
-678.208	259.131	0.130	-0.225
-677.193	800.000	-0.064	-0.256
-676.178	-200.000	0.041	-0.323
-675.164	-92.757	0.310	-0.087
-674.149	240.172	-0.044	-0.074
-673.135	34.299	-0.145	0.127
-672.120	63.884	0.084	-0.084
-671.105	21.416	0.076	-0.062
-670.091	76.522	0.178	0.189
-669.076	78.424	-0.282	0.302
-668.062	454.463	-0.185	-0.411
-667.047	-49.842	-0.212	0.101
-666.032	73.727	0.212	0.223
-665.018	-100.543	0.383	-0.095
-664.003	28.956	0.094	-0.080
-662.989	74.439	0.109	0.115
-661.974	38.608	-0.116	-0.103
-660.959	131.431	0.048	-0.062
-659.945	152.807	0.034	0.047
-658.930	-82.019	-0.164	0.054
-657.916	-116.164	0.056	-0.010
-656.901	364.015	-0.181	-0.364
-655.886	-200.000	-0.046	-0.244
-654.872	-48.259	0.207	-0.100
-653.857	800.000	0.123	-0.345
-652.843	-129.004	-0.122	-0.017
-651.828	145.183	0.147	0.197
-650.814	387.776	-0.117	0.242
-649.799	-154.429	0.094	-0.006
-648.784	-136.852	0.152	-0.018
-647.770	446.369	-0.228	0.501
-646.755	-128.401	-0.311	-0.044
-645.741	-26.963	0.109	0.064
-644.726	-50.098	-0.227	-0.108
-643.711	-52.969	0.159	-0.073
-642.697	389.813	-0.071	0.147
-641.682	-200.000	-0.018	-0.182
-640.668	-25.199	-0.102	-0.061
-639.653	28.170	-0.092	-0.078
-638.638	-200.000	-0.005	-0.324
-637.624	-200.000	-0.046	-0.220
-636.609	351.599	-0.053	-0.104
-635.595	-200.000	-0.013	0.193
-634.580	-113.637	-0.303	0.059
-633.565	-1.023	0.044	0.031
-632.551	-200.000	-0.014	0.101
-631.536	92.929	-0.220	-0.248
-630.522	800.000	0.083	0.334
-629.507	-200.000	-0.045	0.215
-628.492	800.000	-0.021	-0.060
-627.478	168.499	0.199	0.284
-626.463	-153.050	-0.389	0.027
-625.449	-132.480	-0.319	0.041
-624.434	-147.983	-0.244	0.020
-623.419	50.910	-0.012	0.011
-622.405	238.313	0.092	0.152
-621.390	-98.319	0.536	-0.137
-620.376	-52.985	-0.216	0.099
-619.361	145.386	-0.093	0.124
-618.346	160.920	0.072	0.100
-617.332	-200.000	-0.005	-0.200
-616.317	-200.000	0.023	-0.175
-615.303	61.306	0.052	0.052
-614.288	-78.243	0.153	0.052
-613.273	11.020	-0.094	-0.072
-612.259	-54.179	-0.156	-0.071
-611.244	-40.292	0.303	0.157
-610.230	-84.032	0.120	-0.038
-609.215	18.089	-0.181	-0.145
-608.201	800.000	-0.030	-0.085
-607.186	245.255	0.089	-0.150
-606.171	-105.333	-0.288	0.066
-605.157	-200.000	-0.004	-0.471
-604.142	800.000	-0.049	0.143
-603.128	800.000	-0.095	-0.402
-602.113	139.047	-0.171	-0.225
-601.098	-100.410	-0.114	0.028
-600.084	85.872	-0.098	-0.108
-599.069	-97.203	0.216	0.056
-598.055	83.907	0.122	-0.133
-597.040	-135.101	0.202	-0.024
-596.025	-44.474	0.110	-0.055
-595.011	800.000	-0.064	-0.180
-593.996	-0.778	-0.027	0.019
-592.982	-170.837	-0.170	0.006
-591.967	-200.000	-0.053	0.239
-590.952	172.313	-0.109	-0.156
-589.938	-91.255	0.166	0.047
-588.923	362.819	-0.137	-0.274
-587.909	109.965	-0.101	0.121
-586.894	-107.678	-0.383	-0.084
-585.879	-93.151	0.346	0.096
-584.865	380.460	-0.087	0.177
-583.850	-200.000	-0.031	-0.323
-582.836	182.253	-0.143	-0.211
-581.821	108.050	0.193	-0.230
-580.806	241.801	-0.077	0.129
-579.792	-200.000	0.026	-0.269
-578.777	-104.571	-0.426	-0.098
-577.763	384.577	-0.073	-0.151
-576.748	157.187	0.141	0.194
-575.733	-200.000	0.008	0.125
-574.719	-200.000	-0.025	0.247
-573.704	800.000	-0.111	0.419
-572.690	-91.781	-0.074	-0.021
-571.675	800.000	-0.107	-0.378
-570.661	124.205	-0.216	0.272
-569.646	-36.109	0.028	0.015
-568.631	800.000	0.112	0.404
-567.617	-41.292	0.209	0.107
-566.602	78.572	0.189	-0.201
-565.588	111.584	0.198	0.239
-564.573	-194.077	-0.168	0.001
-563.558	-152.520	-0.406	0.029
-562.544	511.021	-0.067	-0.154
-561.529	-42.158	-0.239	0.122
-560.515	108.022	0.015	0.018
-559.500	-200.000	0.063	0.289
-558.485	-200.000	-0.039	0.264
-557.471	150.429	0.081	-0.110
-556.456	-132.251	-0.214	0.028
-555.442	-23.026	0.181	0.109
-554.427	-37.475	0.122	0.065
-553.412	-200.000	-0.000	-0.039
-552.398	46.069	-0.022	0.020
-551.383	-73.988	-0.055	-0.020
-550.369	45.437	0.238	0.219
-549.354	-113.727	-0.222	0.043
-548.339	-7.263	0.205	-0.138
-547.325	196.172	0.121	-0.184
-546.310	413.252	-0.071	-0.150
-545.296	456.380	-0.041	-0.090
-544.281	111.564	0.072	-0.087
-543.266	800.000	-0.067	-0.267
-542.252	36.833	0.371	0.327
-541.237	23.997	-0.079	0.065
-540.223	73.290	0.090	-0.094
-539.208	-200.000	-0.006	-0.260
-538.193	682.355	-0.127	0.331
-537.179	120.166	-0.224	-0.277
-536.164	373.348	-0.057	-0.116
-535.150	-23.955	0.392	0.234
-534.135	-97.540	0.280	-0.073
-533.121	-200.000	0.011	-0.102
-532.106	-200.000	0.014	-0.146
-531.091	-76.185	-0.477	0.168
-530.077	100.045	0.131	-0.151
-529.062	-200.000	-0.009	0.139
-528.048	-3.087	0.379	0.264
-527.033	-151.911	-0.062	0.005
-526.018	-200.000	-0.032	-0.189
-525.004	800.000	0.083	-0.235
-523.989	16.941	0.203	-0.160
-522.975	-121.275	-0.146	-0.024
-521.960	-200.000	-0.018	-0.317
-520.945	122.319	0.133	0.165
-519.931	261.441	-0.112	-0.193
-518.916	-200.000	-0.034	-0.160
-517.902	41.096	0.234	-0.211
-516.887	116.674	0.157	0.192
-515.872	-3.922	0.120	0.083
-514.858	39.193	0.144	-0.128
-513.843	-200.000	-0.031	0.218
-512.829	-14.005	-0.130	-0.084
-511.814	5.321	-0.133	0.097
-510.799	175.265	0.048	0.069
-509.785	-8.194	-0.197	-0.132
-508.770	12.443	0.119	-0.091
-507.756	-26.785	0.453	-0.263
-506.741	-22.320	-0.107	0.064
-505.726	-200.000	-0.000	-0.088
-504.712	11.377	0.239	0.182
-503.697	23.704	0.032	0.026
-502.683	800.000	0.077	0.236
-501.668	-83.920	0.332	-0.105
-500.653	43.848	0.085	-0.077
-499.639	0.705	-0.272	0.194
-498.624	298.626	-0.079	-0.144
-497.610	-46.239	0.210	-0.103
-496.595	800.000	0.039	0.148
-495.581	125.663	-0.197	-0.248
-494.566	-200.000	0.027	0.137
-493.551	800.000	-0.080	0.318
-492.537	-200.000	-0.077	-0.372
-491.522	58.197	-0.260	0.254
-490.508	-93.128	0.102	-0.028
-489.493	42.107	-0.067	-0.061
-488.478	-79.567	-0.370	-0.124
-487.464	-149.649	0.168	-0.013
-486.449	115.964	0.061	0.074
-485.435	-8.813	0.117	0.078
-484.420	-106.040	-0.146	-0.033
-483.405	-41.862	-0.375	0.191
-482.391	-200.000	-0.021	0.141
-481.376	-146.441	0.154	0.013
-480.362	221.426	-0.107	-0.171
-479.347	-165.899	-0.197	-0.008
-478.332	-200.000	-0.019	-0.116
-477.318	800.000	-0.092	-0.317
-476.303	800.000	0.081	-0.329
-475.289	-63.679	0.339	-0.138
-474.274	-46.412	0.219	0.107
-473.259	-81.642	-0.404	0.132
-472.245	800.000	0.120	-0.383
-471.230	226.327	0.184	-0.297
-470.216	-200.000	-0.004	0.226
-469.201	800.000	0.112	0.320
-468.186	-1.883	-0.311	-0.218
-467.172	-116.832	0.466	0.085
-466.157	244.406	0.039	-0.065
-465.143	-200.000	-0.027	-0.208
-464.128	-113.115	0.115	0.022
-463.113	-107.580	0.164	-0.036
-462.099	-95.741	0.048	0.013
-461.084	-200.000	0.013	0.114
-460.070	197.722	0.022	0.034
-459.055	-200.000	0.017	-0.245
-458.040	61.479	0.076	0.076
-457.026	-133.182	0.239	-0.030
-456.011	142.072	-0.154	-0.203
-454.997	-69.549	-0.205	0.078
-453.982	289.642	-0.023	0.041
-452.968	-38.420	0.199	0.105
-451.953	800.000	-0.069	0.264
-450.938	-139.353	-0.058	-0.006
-449.924	163.681	0.074	0.103
-448.909	77.754	-0.240	0.254
-447.895	-96.410	0.436	-0.115
-446.880	-99.146	-0.359	-0.090
-445.865	-97.526	0.015	0.004
-444.851	-200.000	0.027	-0.136
-443.836	506.070	0.052	0.119
-442.822	-73.435	-0.185	0.067
-441.807	17.510	-0.148	0.117
-440.792	223.844	-0.069	-0.110
-439.778	-118.879	-0.093	-0.016
-438.763	-200.000	-0.005	-0.060
-437.749	389.684	0.060	0.123
-436.734	245.378	-0.103	-0.173
-435.719	50.569	-0.145	-0.136
-434.705	-148.427	0.294	0.024
-433.690	-200.000	0.063	0.325
-432.676	-99.755	0.398	-0.099
-431.661	-200.000	0.093	-0.414
-430.646	800.000	-0.094	-0.310
-429.632	-85.791	0.218	-0.067
-428.617	-137.632	0.245	-0.027
-427.603	51.041	0.125	-0.117
-426.588	-74.195	0.070	0.025
-425.573	234.547	0.058	0.095
-424.559	-200.000	-0.030	-0.196
-423.544	617.389	0.158	0.394
-422.530	-18.142	-0.095	0.059
-421.515	76.586	0.203	-0.213
-420.500	-103.438	0.165	-0.039
-419.486	-200.000	0.047	-0.240
-418.471	-83.139	0.265	-0.085
-417.457	800.000	-0.046	-0.156
-416.442	65.276	-0.121	0.121
-415.428	-200.000	-0.048	0.349
-414.413	163.995	-0.224	0.313
-413.398	-88.125	-0.256	0.076
-412.384	800.000	-0.059	-0.245
-411.369	168.746	0.113	-0.159
-410.355	-121.144	-0.254	0.042
-409.340	-84.471	-0.507	0.159
-408.325	261.036	0.092	-0.158
-407.311	-200.000	-0.004	0.277
-406.296	-200.000	-0.020	0.289
-405.282	-42.293	0.113	-0.057
-404.267	353.442	0.129	-0.253
-403.252	-94.169	-0.024	-0.006
-402.238	800.000	0.056	-0.232
-401.223	800.000	0.078	-0.295
-400.209	194.782	-0.091	-0.136
-399.194	-84.906	0.506	0.157
-398.179	395.779	-0.161	0.334
-397.165	-71.140	0.293	0.109
-396.150	-200.000	-0.048	0.292
-395.136	-71.034	-0.543	0.203
-394.121	-200.000	-0.021	0.276
-393.106	-30.636	0.400	0.224
-392.092	-124.506	-0.417	-0.064
-391.077	-117.124	0.318	0.057
-390.063	-143.694	-0.201	0.019
-389.048	-10.834	0.146	-0.096
-388.033	800.000	-0.020	-0.064
-387.019	-119.641	0.379	-0.065
-386.004	-54.511	0.191	0.086
-384.990	44.602	0.124	-0.113
-383.975	214.251	-0.069	0.108
-382.960	-91.406	-0.120	-0.034
-381.946	-148.865	0.040	-0.003
-380.931	-86.509	0.292	-0.089
-379.917	108.278	-0.196	-0.231
-378.902	417.808	-0.073	-0.154
-377.888	800.000	0.023	-0.068
-376.873	121.555	-0.235	0.290
-375.858	800.000	0.118	-0.349
-374.844	-121.998	0.090	-0.015
-373.829	-200.000	-0.036	0.206
-372.815	-104.226	0.096	-0.022
-371.800	147.757	0.084	0.113
-370.785	-78.317	-0.297	0.101
-369.771	-92.097	-0.236	-0.066
-368.756	191.087	-0.096	0.144
-367.742	80.463	0.219	-0.233
-366.727	-168.611	0.345	0.013
-365.712	428.719	0.045	-0.097
-364.698	65.197	-0.185	0.185
-363.683	-67.478	-0.100	0.039
-362.669	-101.000	0.097	-0.024
-361.654	95.233	0.163	0.184
-360.639	800.000	0.083	0.236
-359.625	-133.507	0.501	-0.062
-358.610	-152.081	-0.049	0.004
-357.596	-200.000	-0.037	-0.303
-356.581	-15.485	-0.025	0.016
-355.566	128.327	0.214	-0.269
-354.552	230.416	-0.240	-0.389
-353.537	50.735	-0.050	0.047
-352.523	298.422	-0.111	-0.202
-351.508	-200.000	0.019	0.088
-350.493	409.558	-0.165	-0.346
-349.479	26.213	-0.348	0.288
-348.464	-33.205	-0.116	-0.063
-347.450	73.792	0.265	0.275
-346.435	-27.862	0.212	0.121
-345.420	800.000	0.049	0.147
-344.406	-177.466	0.414	0.010
-343.391	800.000	0.024	-0.076
-342.377	224.379	-0.208	0.332
-341.362	-83.017	0.087	-0.028
-340.348	-107.341	0.075	0.016
-339.333	136.303	-0.084	0.108
-338.318	-0.724	0.224	-0.157
-337.304	-140.871	-0.212	0.022
-336.289	800.000	-0.040	-0.132
-335.275	272.829	0.055	0.096
-334.260	-128.732	-0.256	-0.036
-333.245	-107.354	-0.067	0.015
-332.231	-72.388	0.132	-0.048
-331.216	276.771	0.091	0.160
-330.202	441.910	0.175	-0.380
-329.187	34.436	0.101	0.087
-328.172	139.506	0.087	-0.114
-327.158	-200.000	-0.007	-0.130
-326.143	-200.000	-0.013	-0.398
-325.129	27.909	0.228	0.190
-324.114	29.754	-0.357	0.301
-323.099	800.000	-0.017	0.070
-322.085	38.918	-0.264	0.233
-321.070	-119.314	0.130	-0.022
-320.056	-9.134	-0.198	0.131
-319.041	431.577	-0.091	0.195
-318.026	-18.353	0.171	-0.106
-317.012	-99.416	-0.153	0.038
-315.997	221.396	0.189	0.301
-314.983	125.457	0.118	0.147
-313.968	-25.216	-0.045	0.027
-312.953	405.298	-0.041	0.086
-311.939	80.882	0.116	-0.124
-310.924	-200.000	0.018	0.182
-309.910	-200.000	0.033	0.241
-308.895	-180.128	-0.175	-0.004
-307.880	-200.000	0.020	-0.104
-306.866	-194.496	-0.351	-0.003
-305.851	-152.439	0.201	-0.014
-304.837	-200.000	-0.051	0.251
-303.822	800.000	0.063	0.191
-302.807	-105.150	-0.230	-0.052
-301.793	-158.678	0.082	-0.005
-300.778	48.157	-0.154	-0.142
-299.764	-200.000	-0.027	0.196
-298.749	-200.000	-0.011	-0.227
-297.735	-119.545	-0.230	-0.039
-296.720	-114.102	-0.333	0.064
-295.705	800.000	-0.048	0.201
-294.691	-106.574	0.428	0.094
-293.676	1.806	-0.229	-0.163
-292.662	85.683	0.169	-0.183
-291.647	-200.000	0.017	0.118
-290.632	96.949	-0.090	0.101
-289.618	49.556	0.173	0.161
-288.603	595.500	0.138	0.336
-287.589	173.003	0.044	0.062
-286.574	-29.337	0.109	-0.062
-285.559	-46.913	-0.130	-0.063
-284.545	-167.528	-0.125	0.005
-283.530	800.000	-0.065	0.188
-282.516	-128.974	0.325	-0.045
-281.501	-95.643	-0.103	0.027
-280.486	243.804	0.082	0.135
-279.472	-200.000	-0.022	0.297
-278.457	-27.063	0.140	0.081
-277.443	174.404	-0.163	-0.232
-276.428	75.307	0.127	-0.133
-275.413	-200.000	-0.043	-0.213
-274.399	-200.000	0.010	0.167
-273.384	-110.356	0.235	-0.048
-272.370	800.000	-0.168	0.463
-271.355	596.413	0.052	-0.127
-270.340	87.839	0.113	-0.123
-269.326	74.141	-0.116	-0.120
-268.311	20.580	-0.359	0.286
-267.297	66.988	-0.129	0.130
-266.282	-54.464	0.269	-0.120
-265.267	-200.000	-0.041	-0.246
-264.253	-91.190	-0.129	-0.037
-263.238	-26.664	-0.205	0.119
-262.224	-61.018	0.192	0.080
-261.209	-86.341	0.226	-0.069
-260.195	-200.000	0.074	0.395
-259.180	-63.654	0.153	0.062
-258.165	-200.000	-0.012	0.088
-257.151	800.000	-0.109	0.352
-256.136	800.000	0.023	0.066
-255.122	-110.618	0.452	-0.092
-254.107	206.411	-0.221	-0.340
-253.092	800.000	0.040	-0.147
-252.078	-60.750	-0.124	-0.052
-251.063	384.235	0.147	0.298
-250.049	544.720	-0.109	-0.257
-249.034	-200.000	0.032	-0.279
-248.019	302.121	0.165	-0.300
-247.005	335.461	0.161	0.308
-245.990	800.000	-0.073	0.199
-244.976	-141.838	-0.307	-0.030
-243.961	6.090	-0.246	-0.180
-242.946	-200.000	-0.054	-0.311
-241.932	143.572	-0.115	-0.151
-240.917	-200.000	-0.005	-0.074
-239.903	800.000	0.132	0.415
-238.888	800.000	0.125	-0.341
-237.873	714.115	0.095	-0.247
-236.859	20.304	-0.180	0.143
-235.844	203.315	0.031	-0.047
-234.830	-9.729	0.221	-0.145
-233.815	-18.197	-0.133	-0.082
-232.800	-103.867	-0.249	-0.057
-231.786	76.246	-0.302	0.315
-230.771	-122.925	0.325	-0.052
-229.757	800.000	0.072	-0.200
-228.742	474.202	0.071	-0.157
-227.727	-58.473	0.180	-0.077
-226.713	-37.945	0.050	0.026
-225.698	492.929	-0.129	-0.292
-224.684	800.000	-0.033	-0.107
-223.669	39.416	-0.137	-0.121
-222.655	-200.000	-0.003	0.106
-221.640	-114.890	-0.182	-0.034
-220.625	-200.000	0.017	0.136
-219.611	-200.000	-0.018	0.426
-218.596	-170.666	-0.659	-0.022
-217.582	-200.000	-0.019	0.118
-216.567	-64.352	0.287	0.115
-215.552	-200.000	-0.009	-0.184
-214.538	-6.792	0.049	0.033
-213.523	11.547	-0.161	-0.121
-212.509	-200.000	-0.054	0.303
-211.494	-101.943	0.438	0.104
-210.479	149.750	-0.153	-0.204
-209.465	51.424	-0.112	0.105
-208.450	-200.000	0.006	-0.090
-207.436	752.832	-0.026	-0.069
-206.421	139.551	-0.084	-0.108
-205.406	52.710	-0.291	-0.274
-204.392	3.999	-0.196	0.141
-203.377	8.693	0.336	0.249
-202.363	800.000	-0.073	0.272
-201.348	-200.000	0.036	0.205
-200.333	41.996	-0.069	-0.062
-199.319	116.579	-0.176	-0.212
-198.304	-45.238	-0.248	0.121
-197.290	80.690	-0.130	-0.138
-196.275	-200.000	-0.035	-0.355
-195.260	36.593	-0.115	-0.100
-194.246	-64.501	0.143	-0.057
-193.231	-140.639	-0.115	0.012
-192.217	-2.555	-0.213	-0.147
-191.202	-130.903	0.206	-0.027
-190.187	228.010	0.170	0.273
-189.173	32.965	0.301	0.256
-188.158	-200.000	-0.272	0.000
-187.144	368.588	0.214	-0.425
-186.129	76.664	0.124	0.130
-185.114	800.000	0.036	-0.127
-184.100	-200.000	0.024	-0.233
-183.085	25.251	-0.032	-0.026
-182.071	87.946	-0.117	0.128
-181.056	-200.000	0.034	-0.231
-180.042	800.000	0.055	-0.214
-179.027	-20.209	0.069	0.042
-178.012	-146.392	0.205	0.018
-176.998	-55.369	0.174	0.077
-175.983	-138.125	0.096	0.010
-174.969	-200.000	0.039	0.483
-173.954	-200.000	-0.063	-0.364
-172.939	-200.000	0.029	-0.138
-171.925	88.383	-0.117	0.128
-170.910	0.927	-0.191	0.135
-169.896	-52.646	0.053	0.024
-168.881	210.894	0.015	-0.023
-167.866	43.016	-0.109	-0.097
-166.852	-48.459	-0.157	0.074
-165.837	800.000	-0.043	0.145
-164.823	-18.974	-0.242	0.148
-163.808	-200.000	0.008	0.083
-162.793	267.098	-0.068	-0.116
-161.779	-6.356	0.419	0.281
-160.764	608.940	-0.037	0.092
-159.750	-91.455	-0.248	0.070
-158.735	355.948	0.100	0.195
-157.720	8.410	0.106	0.078
-156.706	-170.464	-0.189	-0.006
-155.691	415.951	0.065	0.136
-154.677	-200.000	0.053	-0.229
-153.662	562.524	0.082	0.195
-152.647	800.000	0.033	0.103
-151.633	-123.565	0.399	0.062
-150.618	-94.724	-0.126	0.034
-149.604	159.735	0.202	0.277
-148.589	-200.000	-0.084	-0.361
-147.574	-133.123	-0.002	-0.000
-146.560	-200.000	0.024	0.583
-145.545	512.372	-0.159	-0.363
-144.531	429.059	-0.080	-0.169
-143.516	-22.572	0.273	0.162
-142.502	668.256	0.176	0.447
-141.487	744.401	-0.134	0.354
-140.472	800.000	-0.062	0.248
-139.458	-34.206	-0.165	-0.089
-138.443	498.339	-0.125	0.282
-137.429	-96.626	-0.148	0.038
-136.414	-70.518	0.262	-0.097
-135.399	10.711	0.175	0.131
-134.385	453.975	0.112	-0.243
-133.370	800.000	-0.082	0.223
-132.356	-137.348	-0.206	-0.023
-131.341	298.309	0.086	-0.156
-130.326	-200.000	-0.032	-0.335
-129.312	-14.120	0.282	0.179
-128.297	-200.000	0.083	0.606
-127.283	-200.000	0.035	0.275
-126.268	624.877	-0.103	-0.254
-125.253	-1.620	-0.175	-0.121
-124.239	-109.643	0.196	0.041
-123.224	54.502	-0.182	-0.172
-122.210	-200.000	-0.053	-0.325
