DTS Sentinel unit serial number:	SN413079Multiplexer serial number:	ORYXHardware model number:	OX4-SRSoftware version number:	ORYX F/W v4.00 Oryx Data Collector v3.7.2.0data status	okinstallation	princeton_trtdifferential loss correction	single-endedforward channel	channel 3reverse channel	N/Adate	2019/09/19time	05:40:35forward acquisition time	60.00reverse acquisition time	0.00gamma	496.2192k internal	0.2349k external	0.2349temperature offset calibration	0.9988default loss term (dB/km)	0.3790temperature slope calibration	1.0000multiplexer offset coefficient	1.0000multiplexer slope coefficient	1.0000fibre end	0.00T internal ref (°C)	19.31T ext. ref 1 (°C)	0.58T ext. ref 2 (°C)	12.84length (m)	temperature (°C)	Stokes	anti-Stokes-747.200	-103.008	0.054	0.013
-746.185	-0.522	-0.405	0.287
-745.171	561.657	-0.098	0.237
-744.156	6.109	-0.129	-0.095
-743.142	151.598	0.302	0.411
-742.127	-200.000	-0.036	0.325
-741.112	165.337	0.103	0.145
-740.098	319.053	-0.085	0.161
-739.083	-200.000	-0.005	0.085
-738.069	10.597	-0.128	0.097
-737.054	-143.516	-0.312	-0.030
-736.039	-24.541	-0.362	-0.215
-735.025	-165.170	0.136	-0.006
-734.010	-200.000	-0.141	-0.622
-732.996	-200.000	-0.031	-0.164
-731.981	-149.230	0.174	0.014
-730.966	-200.000	0.079	0.389
-729.952	-45.768	0.218	-0.108
-728.937	-48.903	-0.209	0.100
-727.923	479.994	-0.056	-0.127
-726.908	552.871	-0.150	-0.360
-725.894	-36.413	-0.391	-0.210
-724.879	-68.990	-0.215	-0.083
-723.864	800.000	-0.015	-0.059
-722.850	39.652	0.062	0.055
-721.835	-200.000	-0.033	0.449
-720.821	571.735	-0.065	-0.159
-719.806	43.233	0.102	-0.093
-718.791	-137.087	-0.335	0.038
-717.777	-200.000	-0.011	-0.107
-716.762	-19.709	0.280	0.173
-715.748	800.000	-0.068	-0.275
-714.733	-200.000	0.045	0.207
-713.718	-75.002	-0.240	0.086
-712.704	-80.807	0.209	0.069
-711.689	-164.690	-0.301	-0.014
-710.675	3.979	-0.142	-0.104
-709.660	-200.000	-0.009	-0.285
-708.645	800.000	0.063	-0.214
-707.631	-37.616	0.222	-0.118
-706.616	103.970	-0.089	-0.104
-705.602	-89.700	-0.086	-0.025
-704.587	-70.853	0.231	0.087
-703.572	-53.278	0.090	0.041
-702.558	-113.786	-0.360	0.070
-701.543	-101.203	-0.164	0.040
-700.529	-53.387	-0.226	-0.103
-699.514	415.284	0.122	0.258
-698.499	78.609	0.086	0.092
-697.485	-90.564	0.226	-0.065
-696.470	53.002	-0.104	-0.099
-695.456	-200.000	0.040	-0.197
-694.441	-48.833	-0.199	0.095
-693.426	-106.238	0.122	-0.027
-692.412	800.000	0.079	-0.325
-691.397	47.614	-0.247	-0.230
-690.383	172.153	0.179	0.256
-689.368	-200.000	0.022	-0.176
-688.354	-23.652	0.150	-0.090
-687.339	-41.296	-0.448	-0.230
-686.324	-3.905	-0.278	0.193
-685.310	-26.870	0.119	0.069
-684.295	-132.789	0.058	0.007
-683.281	-106.429	-0.150	-0.033
-682.266	110.445	-0.167	0.200
-681.251	-186.982	-0.189	0.003
-680.237	165.408	-0.123	-0.173
-679.222	262.039	0.034	0.059
-678.208	11.315	-0.096	0.074
-677.193	278.305	0.055	-0.097
-676.178	375.523	-0.092	0.186
-675.164	148.371	-0.182	0.245
-674.149	-119.967	0.261	-0.045
-673.135	149.347	0.154	0.208
-672.120	-145.469	-0.193	0.017
-671.105	-200.000	0.008	0.063
-670.091	34.718	0.057	-0.050
-669.076	800.000	0.071	-0.283
-668.062	-49.171	-0.219	0.104
-667.047	-22.001	0.318	-0.192
-666.032	-200.000	-0.014	-0.080
-665.018	-97.365	0.403	-0.105
-664.003	29.509	0.487	0.412
-662.989	-9.259	-0.091	0.060
-661.974	-90.927	-0.294	0.084
-660.959	-29.068	-0.303	0.173
-659.945	327.394	-0.078	-0.149
-658.930	25.557	-0.052	-0.043
-657.916	785.466	-0.101	0.276
-656.901	22.975	-0.418	0.341
-655.886	21.585	-0.095	-0.077
-654.872	-200.000	-0.012	-0.082
-653.857	254.967	-0.035	0.060
-652.843	-73.676	0.272	0.099
-651.828	366.768	0.121	-0.243
-650.814	98.212	0.197	-0.226
-649.799	22.309	-0.076	-0.062
-648.784	442.466	0.125	-0.272
-647.770	-95.187	-0.355	0.095
-646.755	150.516	0.219	0.295
-645.741	47.130	0.152	0.141
-644.726	332.968	-0.072	0.138
-643.711	95.188	-0.160	-0.181
-642.697	-200.000	0.012	-0.129
-641.682	-108.352	0.171	0.037
-640.668	338.315	-0.096	-0.186
-639.653	-89.870	-0.272	-0.079
-638.638	-25.035	-0.425	0.251
-637.624	-46.708	-0.216	0.105
-636.609	-161.308	0.139	-0.007
-635.595	288.656	0.206	0.371
-634.580	-59.670	0.304	-0.130
-633.565	144.387	0.207	-0.275
-632.551	213.786	-0.211	-0.331
-631.536	467.219	0.017	-0.038
-630.522	114.371	0.230	0.279
-629.507	18.819	0.175	0.139
-628.492	800.000	0.030	-0.109
-627.478	184.808	0.052	0.077
-626.463	54.321	-0.107	0.103
-625.449	321.320	-0.127	-0.241
-624.434	434.286	-0.120	-0.259
-623.419	56.993	-0.034	-0.033
-622.405	-5.347	0.028	-0.019
-621.390	-200.000	0.003	-0.022
-620.376	55.828	0.131	0.126
-619.361	-91.140	0.269	0.077
-618.346	-200.000	-0.009	0.046
-617.332	800.000	-0.071	0.215
-616.317	-200.000	-0.001	-0.381
-615.303	-200.000	-0.037	0.295
-614.288	106.230	-0.034	-0.040
-613.273	129.600	-0.254	-0.323
-612.259	-200.000	-0.082	-0.432
-611.244	-200.000	0.021	-0.252
-610.230	216.368	0.134	0.212
-609.215	470.237	-0.089	-0.198
-608.201	-200.000	-0.038	0.303
-607.186	-70.226	-0.074	0.028
-606.171	-5.876	-0.140	-0.095
-605.157	-9.170	0.496	0.330
-604.142	486.003	0.111	0.251
-603.128	61.237	0.033	-0.033
-602.113	227.499	0.165	-0.267
-601.098	19.503	0.247	0.198
-600.084	50.407	-0.085	0.080
-599.069	-200.000	-0.059	-0.298
-598.055	305.552	-0.180	-0.332
-597.040	-67.621	-0.019	-0.007
-596.025	-111.328	-0.349	-0.071
-595.011	-200.000	-0.027	-0.124
-593.996	-200.000	0.029	-0.159
-592.982	276.389	0.117	-0.206
-591.967	-106.964	0.112	0.025
-590.952	-114.151	0.399	0.077
-589.938	58.922	-0.236	0.231
-588.923	232.041	-0.090	-0.147
-587.909	143.425	0.136	0.179
-586.894	-61.194	-0.091	0.038
-585.879	-67.892	0.261	-0.101
-584.865	100.614	-0.203	0.235
-583.850	480.455	0.134	0.301
-582.836	65.055	0.111	-0.111
-581.821	-2.221	0.096	-0.067
-580.806	546.174	0.195	0.462
-579.792	-83.692	-0.396	-0.126
-578.777	-19.928	0.146	0.089
-577.763	-200.000	0.018	0.090
-576.748	-200.000	-0.014	0.257
-575.733	-200.000	-0.001	-0.196
-574.719	248.955	-0.113	-0.190
-573.704	231.530	-0.181	0.295
-572.690	-200.000	-0.024	0.132
-571.675	-68.110	0.319	-0.123
-570.661	-179.165	-0.345	0.008
-569.646	383.555	0.040	0.083
-568.631	-89.453	-0.256	-0.075
-567.617	-200.000	-0.034	0.155
-566.602	25.423	-0.117	-0.096
-565.588	-200.000	0.012	-0.191
-564.573	37.909	0.061	0.054
-563.558	-20.895	-0.276	0.168
-562.544	89.153	0.181	-0.200
-561.529	312.679	-0.139	0.259
-560.515	-2.342	0.107	0.074
-559.500	-12.525	-0.198	-0.128
-558.485	92.197	0.329	-0.368
-557.471	-189.079	-0.393	-0.005
-556.456	800.000	-0.028	-0.098
-555.442	161.311	-0.201	-0.278
-554.427	-55.924	0.134	0.059
-553.412	-78.288	0.246	0.084
-552.398	800.000	0.119	0.389
-551.383	394.742	-0.039	-0.081
-550.369	-76.830	-0.410	0.142
-549.354	272.679	-0.252	0.441
-548.339	3.540	-0.202	0.146
-547.325	384.985	0.090	0.184
-546.310	800.000	0.108	0.329
-545.296	800.000	-0.058	-0.210
-544.281	261.656	-0.058	0.099
-543.266	153.692	0.057	0.078
-542.252	160.026	-0.248	-0.342
-541.237	701.927	-0.050	0.130
-540.223	-105.916	0.248	0.055
-539.208	-90.721	-0.183	-0.052
-538.193	-112.581	-0.193	-0.038
-537.179	44.204	0.204	-0.185
-536.164	-0.081	-0.114	0.081
-535.150	34.322	-0.037	-0.032
-534.135	-133.715	-0.160	-0.020
-533.121	800.000	0.167	-0.465
-532.106	-200.000	0.022	-0.466
-531.091	800.000	0.063	-0.203
-530.077	28.784	-0.233	0.196
-529.062	-85.017	0.152	-0.047
-528.048	-60.169	-0.310	-0.131
-527.033	800.000	-0.027	0.096
-526.018	800.000	-0.084	-0.268
-525.004	-128.419	0.294	-0.041
-523.989	-200.000	-0.007	-0.099
-522.975	800.000	-0.088	0.251
-521.960	-139.753	-0.339	0.036
-520.945	800.000	-0.016	0.052
-519.931	-200.000	-0.048	-0.232
-518.916	-76.846	0.243	-0.084
-517.902	-98.733	-0.053	-0.013
-516.887	180.908	0.123	-0.179
-515.872	-200.000	0.024	-0.225
-514.858	53.140	-0.100	-0.094
-513.843	-187.381	-0.127	-0.002
-512.829	124.246	0.279	-0.347
-511.814	-200.000	-0.054	0.356
-510.799	35.882	0.094	-0.082
-509.785	454.860	0.037	-0.080
-508.770	800.000	0.168	0.660
-507.756	-200.000	-0.039	0.201
-506.741	800.000	-0.064	0.233
-505.726	-48.286	-0.177	0.085
-504.712	-67.219	0.106	0.041
-503.697	792.086	0.027	0.073
-502.683	45.079	-0.250	0.228
-501.668	-68.622	0.258	0.099
-500.653	-121.346	-0.104	0.017
-499.639	-20.647	0.084	-0.051
-498.624	-54.653	0.191	-0.086
-497.610	-105.188	-0.413	0.093
-496.595	-131.362	-0.319	0.042
-495.581	158.790	0.127	0.174
-494.566	14.492	-0.204	0.158
-493.551	-200.000	-0.179	0.000
-492.537	-145.603	-0.215	0.019
-491.522	-47.914	0.075	-0.036
-490.508	794.646	0.057	0.156
-489.493	106.551	0.174	0.205
-488.478	-140.316	-0.193	0.020
-487.464	97.352	0.110	-0.125
-486.449	-155.623	-0.354	-0.022
-485.435	47.675	0.121	-0.111
-484.420	-141.953	0.598	0.059
-483.405	-200.000	-0.004	0.371
-482.391	-68.560	0.313	-0.120
-481.376	3.221	-0.169	0.121
-480.362	-34.705	-0.043	-0.023
-479.347	-43.742	0.084	0.042
-478.332	-141.664	0.081	-0.008
-477.318	-200.000	-0.025	-0.284
-476.303	391.604	0.062	-0.128
-475.289	489.015	-0.176	-0.397
-474.274	-79.191	0.094	-0.032
-473.259	-200.000	-0.041	0.254
-472.245	-200.000	-0.040	0.248
-471.230	-134.816	0.205	-0.025
-470.216	411.032	0.040	-0.085
-469.201	-200.000	0.008	-0.255
-468.186	-6.177	-0.065	0.044
-467.172	-155.684	0.406	-0.026
-466.157	154.210	-0.259	-0.351
-465.143	215.111	0.176	-0.276
-464.128	250.561	0.150	-0.252
-463.113	-11.769	0.121	-0.078
-462.099	135.533	0.023	0.030
-461.084	-200.000	-0.019	-0.356
-460.070	-62.157	-0.060	-0.025
-459.055	-200.000	-0.013	0.091
-458.040	-200.000	-0.012	0.074
-457.026	800.000	-0.062	-0.184
-456.011	119.507	0.220	0.269
-454.997	-173.674	-0.264	-0.008
-453.982	278.310	-0.097	0.171
-452.968	-119.411	-0.020	-0.003
-451.953	-160.193	0.051	0.003
-450.938	-1.251	0.038	-0.026
-449.924	115.670	-0.092	0.111
-448.909	-200.000	0.011	0.105
-447.895	-200.000	-0.008	-0.046
-446.880	40.590	0.161	0.143
-445.865	36.681	0.146	0.127
-444.851	-116.830	-0.236	0.043
-443.836	162.198	0.153	0.211
-442.822	-109.947	-0.284	0.059
-441.807	-111.637	-0.555	-0.111
-440.792	393.324	0.166	-0.341
-439.778	114.864	-0.215	-0.259
-438.763	-54.907	0.107	0.048
-437.749	-48.190	-0.111	0.053
-436.734	83.527	0.098	0.106
-435.719	800.000	0.054	0.151
-434.705	-200.000	-0.016	0.143
-433.690	294.289	-0.079	0.142
-432.676	-200.000	-0.023	0.227
-431.661	750.446	0.023	0.062
-430.646	267.849	0.116	-0.201
-429.632	-70.982	-0.148	0.055
-428.617	250.759	-0.162	0.271
-427.603	29.860	-0.099	-0.083
-426.588	-200.000	-0.024	0.457
-425.573	439.110	0.085	0.184
-424.559	180.740	-0.171	-0.248
-423.544	7.266	0.143	-0.105
-422.530	-99.947	0.196	-0.048
-421.515	109.208	-0.178	-0.210
-420.500	-22.673	0.343	-0.204
-419.486	-131.357	-0.074	-0.010
-418.471	509.900	0.129	-0.296
-417.457	-30.391	-0.255	-0.142
-416.442	-200.000	0.084	0.416
-415.428	46.649	0.162	-0.148
-414.413	-58.901	0.112	0.048
-413.398	62.652	-0.082	0.081
-412.384	-49.437	-0.061	0.029
-411.369	202.926	0.052	0.079
-410.355	-90.004	0.193	0.056
-409.340	-105.776	-0.038	-0.008
-408.325	-200.000	0.006	-0.033
-407.311	405.671	-0.039	0.080
-406.296	17.995	0.095	-0.075
-405.282	-150.370	0.513	-0.039
-404.267	-18.439	-0.135	0.083
-403.252	139.721	0.069	-0.090
-402.238	-55.414	-0.205	0.090
-401.223	-200.000	-0.066	0.364
-400.209	23.561	-0.200	-0.162
-399.194	98.569	-0.168	-0.190
-398.179	-124.601	0.481	-0.074
-397.165	-200.000	-0.037	0.212
-396.150	-200.000	0.001	0.102
-395.136	308.233	0.068	0.125
-394.121	-156.392	0.215	-0.013
-393.106	451.150	-0.030	-0.065
-392.092	-155.613	-0.193	-0.012
-391.077	-119.995	-0.060	0.010
-390.063	-200.000	-0.022	0.124
-389.048	-139.384	0.057	0.006
-388.033	119.647	0.059	0.072
-387.019	-51.268	-0.230	0.106
-386.004	-68.951	0.217	-0.082
-384.990	-200.000	-0.003	-0.177
-383.975	769.146	0.018	-0.049
-382.960	-178.270	-0.318	0.007
-381.946	-200.000	0.034	-0.162
-380.931	-143.919	0.113	-0.010
-379.917	254.766	0.081	0.136
-378.902	-69.446	-0.089	-0.034
-377.888	800.000	0.046	-0.168
-376.873	-200.000	-0.002	-0.329
-375.858	0.723	0.088	0.062
-374.844	-77.540	-0.198	-0.068
-373.829	-17.428	0.125	0.078
-372.815	410.566	0.113	0.235
-371.800	188.538	-0.029	0.043
-370.785	-67.484	-0.306	0.118
-369.771	81.995	-0.098	0.105
-368.756	-132.630	0.421	0.053
-367.742	-109.496	-0.523	-0.109
-366.727	-78.452	0.245	0.083
-365.712	-56.909	0.231	-0.100
-364.698	242.693	-0.076	-0.125
-363.683	800.000	0.056	0.176
-362.669	46.857	-0.078	0.071
-361.654	251.247	-0.060	0.101
-360.639	22.131	0.123	-0.099
-359.625	367.562	-0.126	-0.250
-358.610	-29.515	0.048	0.027
-357.596	800.000	0.022	0.077
-356.581	-200.000	0.006	-0.192
-355.566	410.362	0.107	0.223
-354.552	14.403	-0.231	0.177
-353.537	-182.081	0.172	-0.003
-352.523	-51.539	0.067	-0.031
-351.508	189.460	-0.153	0.225
-350.493	64.239	-0.165	-0.164
-349.479	-88.915	0.161	0.047
-348.464	-56.967	0.268	-0.117
-347.450	800.000	-0.057	0.209
-346.435	-98.124	0.106	0.027
-345.420	800.000	-0.055	-0.171
-344.406	800.000	-0.047	-0.180
-343.391	143.965	-0.093	0.122
-342.377	7.389	-0.263	-0.194
-341.362	-138.903	0.393	0.042
-340.348	800.000	-0.074	0.268
-339.333	-123.514	0.108	0.017
-338.318	-141.673	0.388	0.038
-337.304	800.000	-0.034	0.121
-336.289	2.117	0.089	-0.063
-335.275	-28.144	0.400	0.228
-334.260	-200.000	0.005	-0.036
-333.245	-200.000	-0.361	-0.002
-332.231	472.775	0.146	-0.322
-331.216	800.000	0.053	0.203
-330.202	8.581	0.150	-0.111
-329.187	-200.000	-0.002	-0.205
-328.172	-200.000	-0.036	-0.162
-327.158	-200.000	-0.011	-0.274
-326.143	58.211	-0.385	0.371
-325.129	-176.545	0.401	-0.010
-324.114	-93.732	-0.107	-0.029
-323.099	175.999	-0.267	-0.381
-322.085	-103.940	-0.171	0.039
-321.070	-65.348	0.356	0.141
-320.056	-119.349	0.524	0.090
-319.041	-119.123	-0.103	-0.018
-318.026	-200.000	-0.043	0.331
-317.012	-63.889	-0.155	0.062
-315.997	231.540	-0.080	0.129
-314.983	-200.000	-0.035	0.297
-313.968	253.886	-0.219	0.367
-312.953	149.984	0.068	0.091
-311.939	214.079	0.198	0.307
-310.924	221.141	0.156	-0.246
-309.910	800.000	0.016	0.056
-308.895	263.539	0.084	-0.144
-307.880	-200.000	-0.031	0.220
-306.866	800.000	-0.098	0.290
-305.851	29.112	-0.110	0.092
-304.837	-12.682	-0.108	-0.069
-303.822	-14.258	0.183	-0.116
-302.807	-103.465	0.077	-0.018
-301.793	-31.178	-0.486	-0.269
-300.778	-67.754	-0.311	-0.119
-299.764	780.476	0.057	-0.152
-298.749	-200.000	-0.033	0.186
-297.735	37.274	-0.149	-0.130
-296.720	726.777	-0.098	-0.256
-295.705	141.560	-0.061	-0.079
-294.691	-95.722	0.181	-0.048
-293.676	-200.000	0.022	0.100
-292.662	-200.000	0.031	-0.152
-291.647	-200.000	0.035	0.241
-290.632	-36.206	-0.237	-0.125
-289.618	-19.175	-0.204	0.124
-288.603	173.420	0.095	-0.134
-287.589	-100.442	0.141	-0.034
-286.574	-140.866	-0.211	0.021
-285.559	-26.290	-0.133	0.076
-284.545	-106.022	-0.135	0.030
-283.530	-200.000	-0.025	-0.132
-282.516	12.301	-0.219	0.165
-281.501	192.467	0.171	0.253
-280.486	55.133	-0.157	-0.149
-279.472	800.000	0.024	-0.100
-278.457	-200.000	-0.038	-0.168
-277.443	-200.000	0.043	0.202
-276.428	-200.000	-0.178	0.000
-275.413	-200.000	0.004	-0.029
-274.399	174.348	0.095	-0.134
-273.384	-97.733	0.329	-0.083
-272.370	253.670	-0.130	-0.217
-271.355	411.003	0.075	0.155
-270.340	-89.185	0.023	0.007
-269.326	-137.095	0.235	0.026
-268.311	314.396	-0.081	-0.149
-267.297	-113.885	0.085	-0.016
-266.282	656.857	-0.171	-0.432
-265.267	100.168	0.164	0.186
-264.253	582.477	-0.180	0.434
-263.238	158.888	0.123	-0.167
-262.224	-200.000	-0.026	0.199
-261.209	800.000	-0.031	0.108
-260.195	-68.918	-0.387	0.146
-259.180	203.203	-0.208	0.315
-258.165	-61.309	-0.021	-0.009
-257.151	800.000	0.009	-0.035
-256.136	-32.828	-0.313	-0.170
-255.122	184.302	0.077	-0.112
-254.107	-117.291	-0.346	0.062
-253.092	-200.000	-0.001	-0.295
-252.078	-1.100	-0.180	-0.125
-251.063	-183.569	0.505	-0.009
-250.049	-106.684	-0.299	-0.065
-249.034	-112.215	0.351	0.069
-248.019	259.513	-0.074	-0.125
-247.005	232.675	0.239	0.385
-245.990	-152.656	0.379	0.026
-244.976	756.868	0.009	0.025
-243.961	75.729	-0.267	0.276
-242.946	208.232	-0.040	-0.061
-241.932	-200.000	-0.028	-0.233
-240.917	-52.279	-0.373	0.169
-239.903	286.604	-0.129	0.228
-238.888	-6.072	-0.102	-0.068
-237.873	158.460	0.129	-0.175
-236.859	258.716	-0.106	-0.178
-235.844	-198.419	0.041	0.000
-234.830	-155.054	0.463	-0.030
-233.815	-152.434	-0.298	-0.021
-232.800	64.547	0.068	0.068
-231.786	800.000	-0.038	0.112
-230.771	-48.207	0.300	0.142
-229.757	1.232	-0.171	-0.121
-228.742	53.795	-0.280	0.263
-227.727	-200.000	-0.006	-0.134
-226.713	3.096	0.256	-0.182
-225.698	-78.531	0.250	0.084
-224.684	-91.997	0.261	-0.072
-223.669	326.762	-0.016	-0.031
-222.655	-164.288	0.193	0.009
-221.640	367.086	-0.107	0.211
-220.625	23.339	-0.112	0.090
-219.611	328.117	0.089	0.168
-218.596	-183.039	-0.098	-0.002
-217.582	501.655	0.049	0.111
-216.567	110.209	0.223	-0.262
-215.552	-81.715	0.291	-0.094
-214.538	-200.000	-0.053	-0.242
-213.523	89.240	0.053	0.058
-212.509	-200.000	0.009	0.045
-211.494	-20.860	-0.136	-0.082
-210.479	-69.250	-0.065	-0.024
-209.465	-74.080	0.205	0.073
-208.450	-200.000	0.012	0.165
-207.436	178.446	-0.157	0.224
-206.421	-155.954	0.188	0.012
-205.406	-65.972	-0.143	-0.056
-204.392	800.000	-0.108	-0.446
-203.377	-101.282	0.261	-0.062
-202.363	28.047	0.250	0.206
-201.348	-106.773	0.063	0.014
-200.333	-200.000	0.024	-0.120
-199.319	-136.253	0.398	-0.045
-198.304	-21.697	-0.140	0.083
-197.290	-11.036	0.017	-0.011
-196.275	126.338	-0.194	0.240
-195.260	800.000	-0.048	0.177
-194.246	-200.000	0.016	-0.267
-193.231	-200.000	0.023	-0.176
-192.217	-115.805	0.193	-0.035
-191.202	-200.000	-0.003	0.046
-190.187	-111.504	-0.148	0.029
-189.173	-200.000	-0.008	-0.042
-188.158	26.643	0.108	-0.088
-187.144	800.000	0.068	-0.237
-186.129	610.729	-0.036	-0.089
-185.114	62.098	0.186	-0.182
-184.100	-85.292	-0.029	0.009
-183.085	-42.543	0.189	-0.094
-182.071	-20.910	0.231	0.138
-181.056	432.267	0.115	0.243
-180.042	-47.020	-0.063	-0.030
-179.027	-115.300	0.323	-0.060
-178.012	800.000	-0.058	-0.232
-176.998	-200.000	0.067	-0.316
-175.983	-1.659	-0.187	-0.129
-174.969	-200.000	0.010	0.220
-173.954	-166.462	-0.372	0.015
-172.939	-200.000	-0.045	-0.213
-171.925	-200.000	0.046	-0.207
-170.910	618.484	0.180	-0.442
-169.896	-109.514	0.428	0.088
-168.881	-66.907	0.473	0.182
-167.866	159.036	-0.191	0.259
-166.852	0.302	0.095	-0.067
-165.837	-200.000	0.005	-0.208
-164.823	-69.134	0.280	0.105
-163.808	85.881	-0.116	-0.125
-162.793	-200.000	-0.010	0.097
-161.779	800.000	0.086	-0.346
-160.764	119.807	0.052	0.063
-159.750	-200.000	0.030	0.238
-158.735	-129.925	0.179	-0.024
-157.720	112.853	-0.192	-0.228
-156.706	-127.657	-0.295	-0.042
-155.691	-20.389	-0.170	-0.102
-154.677	184.645	-0.199	0.287
-153.662	-40.312	-0.249	0.127
-152.647	800.000	0.100	0.317
-151.633	229.466	-0.267	-0.425
-150.618	62.435	0.069	0.068
-149.604	478.654	0.120	0.266
-148.589	800.000	-0.065	0.203
-147.574	262.123	-0.280	0.475
-146.560	-25.019	-0.391	-0.226
-145.545	110.134	-0.085	0.099
-144.531	800.000	0.112	0.381
-143.516	800.000	-0.082	0.293
-142.502	55.414	-0.056	0.053
-141.487	159.282	0.131	0.178
-140.472	523.337	0.137	-0.315
-139.458	46.577	-0.267	-0.241
-138.443	-149.405	-0.210	0.016
-137.429	-29.057	0.144	0.080
-136.414	-200.000	-0.009	0.205
-135.399	-89.626	-0.236	-0.067
-134.385	-117.016	0.135	-0.024
-133.370	247.566	0.158	-0.261
-132.356	27.136	-0.232	-0.190
-131.341	800.000	0.072	0.245
-130.326	-179.530	-0.199	0.004
-129.312	800.000	0.106	0.317
-128.297	6.174	0.095	0.068
-127.283	-76.857	-0.252	0.086
-126.268	-176.276	-0.212	-0.005
-125.253	557.455	-0.025	0.058
-124.239	800.000	0.090	0.320
-123.224	22.164	0.151	-0.120
-122.210	269.563	-0.092	-0.158
