DTS Sentinel unit serial number:	SN413079Multiplexer serial number:	ORYXHardware model number:	OX4-SRSoftware version number:	ORYX F/W v4.00 Oryx Data Collector v3.7.2.0data status	okinstallation	princeton_trtdifferential loss correction	single-endedforward channel	channel 3reverse channel	N/Adate	2019/09/12time	03:58:11forward acquisition time	60.00reverse acquisition time	0.00gamma	496.2192k internal	0.2322k external	0.2322temperature offset calibration	1.0069default loss term (dB/km)	0.3790temperature slope calibration	1.0000multiplexer offset coefficient	1.0000multiplexer slope coefficient	1.0000fibre end	0.00T internal ref (°C)	32.12T ext. ref 1 (°C)	2.19T ext. ref 2 (°C)	25.94length (m)	temperature (°C)	Stokes	anti-Stokes-747.200	-195.446	0.314	-0.002
-746.185	179.986	0.103	0.152
-745.171	-136.375	-0.248	0.029
-744.156	134.746	-0.141	0.185
-743.142	-200.000	0.012	0.147
-742.127	-200.000	-0.024	0.208
-741.112	100.238	0.131	0.153
-740.098	-125.229	-0.007	-0.001
-739.083	-11.517	-0.117	-0.078
-738.069	-100.720	-0.341	-0.085
-737.054	-200.000	0.049	0.362
-736.039	671.917	0.086	-0.226
-735.025	-106.984	-0.083	0.018
-734.010	-27.109	-0.159	-0.093
-732.996	-111.490	-0.323	0.066
-731.981	79.645	-0.188	-0.204
-730.966	183.022	0.043	-0.064
-729.952	303.493	0.090	-0.169
-728.937	305.062	0.102	-0.190
-727.923	125.906	0.121	-0.155
-726.908	-39.417	0.105	0.055
-725.894	-200.000	-0.012	-0.065
-724.879	446.246	-0.254	-0.564
-723.864	29.742	0.266	-0.229
-722.850	-4.039	0.213	-0.149
-721.835	-90.351	0.191	0.056
-720.821	-171.160	-0.173	-0.006
-719.806	-127.944	0.181	0.026
-718.791	-148.177	-0.504	0.042
-717.777	496.991	-0.175	-0.407
-716.762	145.220	-0.030	0.040
-715.748	44.644	-0.215	0.199
-714.733	800.000	0.039	0.124
-713.718	581.407	0.149	-0.369
-712.704	-200.000	0.021	-0.254
-711.689	-200.000	-0.029	0.175
-710.675	800.000	0.054	-0.158
-709.660	-200.000	-0.026	-0.190
-708.645	-131.066	-0.141	-0.019
-707.631	-15.398	0.169	-0.109
-706.616	-21.730	0.105	0.064
-705.602	61.024	0.303	0.303
-704.587	460.439	-0.163	0.366
-703.572	-200.000	-0.008	0.328
-702.558	0.057	0.338	-0.243
-701.543	-47.654	-0.211	0.103
-700.529	-4.065	-0.143	-0.100
-699.514	-29.922	-0.181	0.104
-698.499	-161.002	0.499	-0.026
-697.485	-38.591	-0.243	-0.129
-696.470	46.055	-0.323	-0.301
-695.456	-74.308	-0.120	-0.044
-694.441	181.241	-0.104	-0.154
-693.426	-22.504	0.083	0.050
-692.412	189.374	0.105	-0.159
-691.397	168.277	-0.238	0.342
-690.383	327.287	-0.053	0.103
-689.368	5.038	0.182	-0.135
-688.354	474.798	-0.025	0.058
-687.339	69.811	0.208	-0.216
-686.324	73.642	-0.126	-0.133
-685.310	-157.670	-0.354	0.021
-684.295	42.858	0.084	-0.077
-683.281	-144.669	0.235	0.022
-682.266	-200.000	-0.022	0.148
-681.251	219.071	0.100	-0.161
-680.237	-200.000	0.004	-0.287
-679.222	800.000	0.059	0.250
-678.208	-16.152	-0.191	0.122
-677.193	506.252	-0.085	0.198
-676.178	-200.000	-0.001	-0.105
-675.164	358.980	-0.090	0.180
-674.149	-107.686	0.452	0.099
-673.135	-131.284	-0.112	-0.015
-672.120	-200.000	0.002	0.013
-671.105	-200.000	-0.016	0.176
-670.091	800.000	0.103	-0.388
-669.076	-60.361	-0.055	0.024
-668.062	-16.986	-0.116	0.074
-667.047	-143.535	0.256	-0.025
-666.032	-200.000	-0.061	0.350
-665.018	-200.000	-0.048	0.316
-664.003	37.038	-0.292	0.260
-662.989	-196.400	0.112	0.001
-661.974	6.922	-0.114	-0.085
-660.959	501.840	-0.025	-0.058
-659.945	-200.000	-0.034	-0.196
-658.930	800.000	0.051	0.174
-657.916	-200.000	-0.006	0.097
-656.901	-19.627	0.124	-0.077
-655.886	-63.138	0.272	0.113
-654.872	-63.677	-0.284	0.117
-653.857	-200.000	0.038	-0.180
-652.843	591.671	0.057	0.142
-651.828	9.363	0.061	0.046
-650.814	51.706	0.169	0.162
-649.799	-120.433	-0.211	0.036
-648.784	800.000	-0.118	0.338
-647.770	-128.649	0.089	0.013
-646.755	800.000	0.070	0.236
-645.741	-200.000	-0.000	0.102
-644.726	800.000	-0.017	-0.061
-643.711	166.322	-0.023	-0.032
-642.697	-28.258	0.261	0.152
-641.682	-74.340	0.175	-0.064
-640.668	637.458	-0.066	0.168
-639.653	-146.911	-0.083	0.007
-638.638	-146.859	-0.082	-0.007
-637.624	-16.595	-0.082	-0.052
-636.609	-200.000	-0.015	0.161
-635.595	392.957	-0.059	-0.123
-634.580	-60.349	-0.166	-0.071
-633.565	-200.000	0.004	-0.261
-632.551	800.000	-0.056	0.228
-631.536	-200.000	0.001	0.082
-630.522	131.171	-0.161	-0.208
-629.507	-106.674	-0.199	0.045
-628.492	-116.506	-0.239	0.044
-627.478	-200.000	-0.023	-0.146
-626.463	-200.000	-0.072	-0.404
-625.449	-96.225	-0.169	-0.045
-624.434	-105.221	0.154	-0.035
-623.419	770.479	-0.012	-0.032
-622.405	-122.861	0.149	-0.024
-621.390	-62.112	-0.357	0.150
-620.376	17.868	0.320	0.256
-619.361	-196.461	0.244	0.002
-618.346	800.000	0.022	-0.089
-617.332	469.708	-0.093	-0.210
-616.317	-119.862	0.481	-0.083
-615.303	356.488	0.048	-0.095
-614.288	49.816	-0.094	0.089
-613.273	502.676	0.105	-0.243
-612.259	346.645	-0.084	0.167
-611.244	-200.000	0.023	-0.206
-610.230	789.027	0.066	-0.181
-609.215	800.000	0.016	0.064
-608.201	-200.000	0.002	-0.100
-607.186	131.499	0.146	-0.188
-606.171	44.674	0.163	0.151
-605.157	55.750	0.115	-0.112
-604.142	278.584	-0.080	-0.144
-603.128	800.000	0.090	-0.268
-602.113	-53.631	0.057	0.026
-601.098	-14.816	-0.044	0.029
-600.084	-81.775	0.149	-0.049
-599.069	-53.138	0.245	0.113
-598.055	509.652	0.039	-0.091
-597.040	-2.049	-0.129	-0.091
-596.025	486.151	-0.035	0.079
-595.011	115.110	-0.091	0.111
-593.996	171.483	0.157	-0.226
-592.982	-64.171	0.221	0.091
-591.967	-74.460	-0.245	-0.089
-590.952	64.010	0.087	-0.088
-589.938	564.384	0.037	-0.090
-588.923	-147.372	0.197	-0.017
-587.909	664.044	-0.033	-0.085
-586.894	113.000	-0.041	-0.050
-585.879	389.616	-0.136	-0.282
-584.865	-76.324	0.214	-0.076
-583.850	-2.352	-0.368	-0.259
-582.836	-200.000	0.028	0.173
-581.821	122.562	0.234	-0.294
-580.806	-73.628	-0.120	0.044
-579.792	-156.511	0.278	-0.017
-578.777	-91.376	0.225	0.065
-577.763	-107.246	0.199	0.044
-576.748	-200.000	0.084	0.433
-575.733	26.528	0.266	0.223
-574.719	-63.690	-0.126	0.052
-573.704	30.625	0.118	0.101
-572.690	-42.000	0.051	0.026
-571.675	18.210	-0.120	-0.096
-570.661	475.871	-0.141	0.319
-569.646	-200.000	0.018	-0.173
-568.631	118.059	-0.198	-0.245
-567.617	290.019	-0.040	-0.073
-566.602	26.780	-0.167	0.141
-565.588	-14.143	0.438	0.284
-564.573	2.608	-0.155	-0.113
-563.558	-200.000	0.048	-0.340
-562.544	800.000	0.062	0.263
-561.529	-200.000	-0.030	0.170
-560.515	800.000	-0.057	-0.168
-559.500	-200.000	0.025	0.328
-558.485	-22.351	-0.277	-0.169
-557.471	91.006	-0.184	0.207
-556.456	-7.868	-0.262	0.178
-555.442	154.211	-0.171	-0.235
-554.427	-38.620	-0.068	0.036
-553.412	-59.854	0.166	0.071
-552.398	-82.735	-0.418	0.136
-551.383	-200.000	0.032	-0.163
-550.369	800.000	-0.054	0.184
-549.354	800.000	0.110	0.401
-548.339	800.000	0.069	-0.212
-547.325	111.219	0.231	-0.279
-546.310	-200.000	0.014	0.132
-545.296	506.391	-0.080	-0.185
-544.281	490.056	-0.054	-0.123
-543.266	70.965	-0.213	-0.221
-542.252	-105.461	0.274	-0.062
-541.237	-116.023	-0.162	0.030
-540.223	800.000	0.061	0.232
-539.208	-14.344	0.201	-0.130
-538.193	131.347	-0.125	-0.161
-537.179	470.931	-0.045	0.101
-536.164	-200.000	0.057	0.299
-535.150	131.048	0.045	-0.058
-534.135	-200.000	0.001	-0.054
-533.121	-200.000	-0.040	-0.259
-532.106	-128.341	0.160	0.023
-531.091	83.258	0.071	0.078
-530.077	303.480	-0.015	0.029
-529.062	-168.709	-0.203	-0.008
-528.048	-82.274	0.030	0.010
-527.033	-200.000	0.005	-0.096
-526.018	800.000	-0.101	-0.282
-525.004	800.000	0.031	0.098
-523.989	-155.635	-0.043	-0.003
-522.975	336.849	-0.190	0.370
-521.960	-13.829	0.170	-0.110
-520.945	150.640	-0.068	0.093
-519.931	-200.000	-0.004	0.085
-518.916	91.331	0.136	-0.153
-517.902	7.160	0.196	-0.146
-516.887	800.000	-0.029	0.090
-515.872	65.721	0.100	-0.102
-514.858	800.000	0.131	0.410
-513.843	-93.238	-0.253	-0.070
-512.829	-161.748	0.171	-0.009
-511.814	-113.052	0.196	-0.039
-510.799	-2.900	-0.263	0.184
-509.785	595.408	-0.181	0.448
-508.770	184.341	-0.064	0.095
-507.756	30.236	0.084	0.072
-506.741	13.368	-0.160	0.124
-505.726	25.802	0.300	0.250
-504.712	501.112	0.053	0.122
-503.697	531.905	-0.163	-0.385
-502.683	-177.813	-0.402	0.010
-501.668	-155.734	-0.186	0.012
-500.653	60.233	-0.111	-0.110
-499.639	369.549	0.162	0.328
-498.624	-136.692	0.364	0.042
-497.610	185.022	-0.146	-0.216
-496.595	171.320	0.201	0.288
-495.581	-200.000	0.003	0.214
-494.566	-200.000	-0.012	-0.173
-493.551	-149.172	-0.132	0.011
-492.537	-31.749	0.136	-0.076
-491.522	1.070	-0.177	-0.127
-490.508	36.514	0.218	-0.192
-489.493	-93.379	-0.075	-0.021
-488.478	-19.132	-0.423	-0.263
-487.464	-80.022	0.117	-0.039
-486.449	-91.917	0.406	-0.115
-485.435	-200.000	-0.002	0.044
-484.420	409.621	-0.137	0.290
-483.405	129.483	-0.019	-0.024
-482.391	-62.065	-0.157	-0.066
-481.376	-115.411	-0.187	0.035
-480.362	62.084	-0.170	0.170
-479.347	-81.722	0.116	-0.038
-478.332	-57.348	-0.119	-0.052
-477.318	-200.000	-0.009	-0.111
-476.303	20.407	-0.219	-0.177
-475.289	-30.455	0.216	-0.122
-474.274	1.538	-0.138	0.099
-473.259	75.069	-0.192	0.202
-472.245	186.680	-0.038	-0.056
-471.230	23.795	0.127	-0.105
-470.216	-98.890	-0.185	-0.047
-469.201	800.000	0.058	0.162
-468.186	-43.863	0.248	0.125
-467.172	-45.274	0.188	0.093
-466.157	800.000	-0.116	0.406
-465.143	-107.679	0.163	0.036
-464.128	-84.609	0.267	0.084
-463.113	-183.661	-0.115	0.002
-462.099	12.767	-0.084	-0.065
-461.084	-200.000	0.042	-0.244
-460.070	-112.637	-0.150	-0.030
-459.055	-70.758	-0.037	-0.014
-458.040	64.835	0.146	-0.147
-457.026	-149.500	0.128	0.010
-456.011	800.000	0.082	0.279
-454.997	473.427	0.089	0.201
-453.982	-200.000	-0.003	0.118
-452.968	495.219	-0.074	0.169
-451.953	564.675	-0.122	0.296
-450.938	516.752	-0.027	-0.064
-449.924	288.106	-0.134	-0.243
-448.909	-141.566	0.116	-0.012
-447.895	101.640	0.148	-0.173
-446.880	-200.000	-0.056	-0.294
-445.865	-20.912	0.253	0.155
-444.851	-87.958	-0.090	0.027
-443.836	-9.479	-0.068	-0.045
-442.822	800.000	-0.185	-0.555
-441.807	-125.890	0.197	-0.030
-440.792	226.690	0.146	-0.236
-439.778	71.295	0.067	-0.070
-438.763	132.470	0.198	-0.255
-437.749	-200.000	0.022	0.175
-436.734	-55.095	0.220	-0.099
-435.719	30.642	0.232	0.198
-434.705	-93.146	0.158	0.044
-433.690	2.332	-0.212	-0.153
-432.676	88.982	-0.244	0.271
-431.661	-59.611	0.154	-0.066
-430.646	10.560	0.416	-0.317
-429.632	-38.788	-0.063	-0.033
-428.617	800.000	-0.039	-0.166
-427.603	-42.399	0.172	-0.087
-426.588	9.049	0.097	0.073
-425.573	-52.981	-0.315	-0.145
-424.559	-27.583	-0.235	0.136
-423.544	-190.887	-0.300	0.003
-422.530	-187.475	-0.287	-0.004
-421.515	-110.059	-0.207	0.043
-420.500	102.019	-0.183	0.213
-419.486	-126.066	0.239	0.036
-418.471	-140.672	0.143	0.015
-417.457	800.000	0.048	-0.171
-416.442	-9.757	0.026	0.017
-415.428	-85.615	0.229	0.071
-414.413	193.441	-0.105	-0.158
-413.398	107.365	-0.211	0.250
-412.384	-187.557	0.125	0.002
-411.369	-45.669	-0.175	-0.086
-410.355	692.922	-0.079	0.207
-409.340	263.058	0.117	0.202
-408.325	530.993	-0.114	-0.268
-407.311	-144.519	-0.083	-0.008
-406.296	115.080	-0.112	0.136
-405.282	-107.354	-0.247	-0.054
-404.267	541.376	0.096	-0.228
-403.252	-79.780	0.322	-0.108
-402.238	-29.230	0.213	0.122
-401.223	2.395	-0.371	-0.268
-400.209	800.000	0.005	-0.013
-399.194	-120.697	-0.157	0.026
-398.179	-173.047	0.241	-0.007
-397.165	800.000	0.139	-0.389
-396.150	397.112	0.168	-0.350
-395.136	-9.981	0.120	-0.080
-394.121	210.667	-0.237	0.371
-393.106	78.330	0.212	0.226
-392.092	595.911	-0.087	0.215
-391.077	-56.320	-0.221	0.098
-390.063	325.045	-0.148	0.282
-389.048	183.512	0.110	0.162
-388.033	-101.853	-0.234	-0.056
-387.019	-3.476	0.240	-0.167
-386.004	-188.710	-0.075	0.001
-384.990	-200.000	-0.027	0.597
-383.975	60.164	-0.151	-0.149
-382.960	214.930	-0.136	-0.215
-381.946	-156.140	0.345	0.022
-380.931	-200.000	-0.014	0.148
-379.917	150.246	-0.228	-0.308
-378.902	53.736	0.263	0.252
-377.888	97.736	0.106	0.121
-376.873	238.017	0.059	0.097
-375.858	-200.000	0.042	0.295
-374.844	-169.367	-0.256	0.009
-373.829	800.000	0.020	0.077
-372.815	-200.000	-0.010	-0.186
-371.800	14.553	0.168	-0.130
-370.785	-109.389	0.222	0.047
-369.771	-12.854	-0.172	-0.112
-368.756	-30.650	0.207	-0.117
-367.742	-200.000	0.023	0.181
-366.727	157.850	-0.220	0.304
-365.712	428.720	-0.088	-0.190
-364.698	100.263	-0.087	-0.100
-363.683	800.000	0.158	-0.527
-362.669	-200.000	0.058	-0.329
-361.654	-111.169	-0.188	0.038
-360.639	-36.625	-0.174	-0.093
-359.625	-82.440	0.232	0.075
-358.610	-200.000	0.026	0.133
-357.596	71.212	0.175	-0.181
-356.581	-125.209	-0.239	-0.036
-355.566	95.777	0.083	-0.094
-354.552	-200.000	-0.003	0.037
-353.537	800.000	-0.084	0.337
-352.523	32.874	0.138	0.118
-351.508	-200.000	-0.011	-0.314
-350.493	-19.202	-0.155	-0.096
-349.479	72.110	-0.088	0.091
-348.464	-55.276	0.039	-0.017
-347.450	-49.661	0.187	0.089
-346.435	-200.000	-0.037	-0.235
-345.420	-200.000	-0.022	-0.129
-344.406	-95.568	0.329	-0.088
-343.391	783.522	-0.029	-0.078
-342.377	-97.220	0.134	-0.035
-341.362	793.585	-0.022	0.060
-340.348	350.666	0.044	0.087
-339.333	-35.757	-0.131	-0.071
-338.318	2.936	-0.149	0.107
-337.304	-73.489	-0.457	-0.166
-336.289	129.399	0.127	-0.161
-335.275	627.106	-0.107	-0.269
-334.260	-18.412	-0.154	0.096
-333.245	88.279	0.182	-0.200
-332.231	-200.000	-0.016	0.210
-331.216	-200.000	0.002	0.254
-330.202	-68.337	0.514	-0.199
-329.187	-109.840	0.288	0.060
-328.172	153.339	0.010	0.013
-327.158	726.554	-0.135	-0.358
-326.143	-200.000	-0.041	-0.212
-325.129	800.000	0.041	-0.135
-324.114	-191.354	-0.341	0.003
-323.099	-136.386	0.077	-0.009
-322.085	101.293	-0.299	0.346
-321.070	18.000	0.259	0.205
-320.056	-200.000	0.042	-0.305
-319.041	-185.501	-0.080	0.001
-318.026	-74.321	0.257	0.092
-317.012	138.817	0.124	0.162
-315.997	205.543	-0.056	0.086
-314.983	-62.591	-0.139	0.057
-313.968	-200.000	-0.011	-0.277
-312.953	322.753	-0.048	0.092
-311.939	44.001	0.244	0.222
-310.924	-86.022	-0.262	0.080
-309.910	-112.536	0.216	-0.043
-308.895	-200.000	0.014	-0.260
-307.880	308.355	-0.100	-0.185
-306.866	-200.000	0.074	0.377
-305.851	550.172	-0.053	0.125
-304.837	74.551	0.073	-0.076
-303.822	110.549	-0.242	0.289
-302.807	-37.532	0.334	0.177
-301.793	45.399	-0.178	0.163
-300.778	-164.860	-0.154	0.007
-299.764	-9.201	-0.200	0.133
-298.749	126.468	0.145	-0.182
-297.735	105.507	-0.204	0.239
-296.720	-72.482	0.159	0.058
-295.705	-10.298	0.115	-0.076
-294.691	-53.487	-0.214	0.097
-293.676	-125.345	0.422	-0.064
-292.662	80.802	-0.065	-0.069
-291.647	117.345	0.010	-0.012
-290.632	-163.065	-0.120	-0.006
-289.618	-99.532	0.187	-0.047
-288.603	141.798	-0.079	-0.104
-287.589	-61.145	0.180	0.075
-286.574	213.252	-0.178	-0.279
-285.559	212.686	-0.084	-0.131
-284.545	-200.000	-0.089	-0.422
-283.530	-31.023	0.244	-0.136
-282.516	51.073	0.108	-0.102
-281.501	68.406	-0.178	-0.182
-280.486	800.000	0.079	-0.247
-279.472	19.185	0.314	0.250
-278.457	105.403	0.149	0.174
-277.443	-112.620	-0.298	0.059
-276.428	23.069	-0.249	-0.203
-275.413	171.822	0.276	-0.394
-274.399	3.185	0.023	-0.017
-273.384	800.000	0.027	-0.078
-272.370	137.040	-0.140	-0.182
-271.355	-116.609	-0.236	-0.043
-270.340	445.647	0.203	-0.443
-269.326	-200.000	0.034	-0.239
-268.311	55.427	0.154	0.148
-267.297	-69.769	-0.452	-0.171
-266.282	282.113	0.079	0.141
-265.267	34.781	-0.173	-0.150
-264.253	800.000	0.068	-0.291
-263.238	-38.047	-0.211	0.111
-262.224	355.569	0.028	-0.055
-261.209	189.818	-0.128	0.191
-260.195	17.218	0.024	-0.019
-259.180	-200.000	0.045	0.208
-258.165	-200.000	-0.000	0.148
-257.151	8.177	0.162	-0.120
-256.136	359.132	0.085	0.169
-255.122	-172.439	-0.312	0.010
-254.107	-51.178	0.024	0.011
-253.092	-62.534	0.124	-0.051
-252.078	-200.000	-0.017	-0.118
-251.063	-94.353	0.071	-0.019
-250.049	416.814	0.203	0.429
-249.034	-200.000	0.065	-0.379
-248.019	-180.510	-0.125	0.003
-247.005	22.754	-0.075	-0.061
-245.990	-145.036	-0.286	0.026
-244.976	-43.038	0.116	0.058
-243.961	250.619	0.092	0.155
-242.946	29.112	-0.053	-0.044
-241.932	-147.310	0.313	0.026
-240.917	-63.152	-0.152	-0.062
-239.903	-144.517	-0.219	0.020
-238.888	240.690	0.112	-0.186
-237.873	-171.669	0.081	-0.003
-236.859	800.000	0.097	-0.286
-235.844	-54.725	0.071	-0.032
-234.830	800.000	0.061	0.196
-233.815	-200.000	-0.031	-0.296
-232.800	215.339	-0.154	-0.243
-231.786	800.000	-0.094	0.306
-230.771	-146.028	0.230	-0.020
-229.757	0.683	-0.317	0.225
-228.742	173.534	0.095	0.135
-227.727	687.417	-0.114	0.295
-226.713	-200.000	-0.069	0.359
-225.698	417.333	0.070	0.149
-224.684	244.866	0.135	0.224
-223.669	800.000	-0.142	0.489
-222.655	9.430	-0.024	0.018
-221.640	108.890	-0.038	0.045
-220.625	131.837	-0.277	-0.352
-219.611	-200.000	0.002	0.164
-218.596	59.242	0.136	0.133
-217.582	686.571	0.022	-0.056
-216.567	-140.726	0.121	0.012
-215.552	-200.000	-0.014	0.096
-214.538	-200.000	-0.007	-0.093
-213.523	800.000	0.078	0.283
-212.509	-78.269	-0.198	-0.067
-211.494	-49.450	0.200	-0.095
-210.479	14.595	0.174	0.135
-209.465	-97.599	0.232	0.060
-208.450	800.000	-0.102	0.348
-207.436	614.207	-0.251	0.621
-206.421	-46.744	-0.136	-0.066
-205.406	343.127	0.067	-0.129
-204.392	-200.000	-0.056	0.260
-203.377	120.251	-0.135	-0.166
-202.363	-18.239	-0.061	-0.038
-201.348	-87.931	0.304	-0.090
-200.333	-87.118	-0.438	0.132
-199.319	-33.620	-0.081	0.044
-198.304	640.555	0.063	-0.158
-197.290	-119.278	-0.223	-0.038
-196.275	-200.000	-0.017	-0.203
-195.260	-200.000	0.021	-0.093
-194.246	800.000	-0.065	0.200
-193.231	-200.000	0.021	0.195
-192.217	89.315	-0.197	-0.217
-191.202	52.309	0.080	0.076
-190.187	-160.296	0.247	-0.013
-189.173	-68.200	0.181	0.069
-188.158	39.419	-0.075	-0.066
-187.144	76.153	0.052	0.055
-186.129	-200.000	-0.021	-0.105
-185.114	800.000	-0.065	-0.195
-184.100	259.532	-0.088	-0.150
-183.085	-116.903	0.425	0.077
-182.071	403.848	-0.167	-0.348
-181.056	-200.000	0.018	0.250
-180.042	-133.000	0.102	0.013
-179.027	184.677	-0.120	0.175
-178.012	-23.242	-0.082	0.049
-176.998	167.507	0.103	-0.145
-175.983	461.511	-0.112	-0.247
-174.969	-125.546	-0.334	0.050
-173.954	800.000	0.018	-0.068
-172.939	42.755	0.095	0.085
-171.925	342.708	0.103	0.200
-170.910	-26.728	-0.163	-0.094
-169.896	800.000	0.105	0.385
-168.881	28.985	0.107	0.089
-167.866	-87.902	-0.148	-0.044
-166.852	40.982	0.209	-0.186
-165.837	800.000	0.048	0.194
-164.823	382.573	-0.059	0.119
-163.808	-200.000	0.001	-0.013
-162.793	-134.462	-0.201	-0.024
-161.779	177.222	-0.094	0.135
-160.764	214.737	-0.055	-0.087
-159.750	-137.607	0.219	-0.024
-158.735	-80.866	-0.145	-0.047
-157.720	-200.000	-0.000	0.210
-156.706	788.689	-0.081	0.220
-155.691	-71.856	0.132	0.049
-154.677	117.105	-0.052	0.063
-153.662	-141.878	0.122	0.012
-152.647	205.525	0.241	0.370
-151.633	800.000	-0.046	-0.180
-150.618	-118.131	-0.322	0.057
-149.604	-200.000	-0.066	0.387
-148.589	25.852	0.235	-0.193
-147.574	800.000	0.078	-0.281
-146.560	-122.653	0.327	0.052
-145.545	-200.000	0.036	-0.259
-144.531	145.207	-0.038	0.050
-143.516	-194.697	-0.176	0.001
-142.502	760.098	-0.049	0.131
-141.487	-10.229	-0.095	-0.062
-140.472	-32.771	0.249	0.137
-139.458	800.000	0.130	-0.396
-138.443	456.042	-0.100	-0.219
-137.429	-200.000	0.045	0.207
-136.414	10.687	0.123	-0.093
-135.399	-170.508	0.346	0.012
-134.385	138.334	0.130	-0.168
-133.370	672.878	-0.077	-0.197
-132.356	-84.118	0.406	0.127
-131.341	-91.221	-0.226	0.064
-130.326	-200.000	-0.088	-0.473
-129.312	-97.863	0.334	0.085
-128.297	572.716	-0.076	-0.183
-127.283	715.763	-0.051	-0.134
-126.268	5.101	0.180	0.131
-125.253	324.545	-0.102	0.192
-124.239	602.266	-0.074	-0.182
-123.224	285.352	-0.154	0.273
-122.210	151.620	0.127	-0.170
-121.195	-200.000	-0.009	0.100
