DTS Sentinel unit serial number:	SN413079Multiplexer serial number:	ORYXHardware model number:	OX4-SRSoftware version number:	ORYX F/W v4.00 Oryx Data Collector v3.7.2.0data status	okinstallation	princeton_trtdifferential loss correction	single-endedforward channel	channel 3reverse channel	N/Adate	2019/09/17time	21:20:34forward acquisition time	60.00reverse acquisition time	0.00gamma	496.2192k internal	0.2342k external	0.2342temperature offset calibration	0.9950default loss term (dB/km)	0.3790temperature slope calibration	1.0000multiplexer offset coefficient	1.0000multiplexer slope coefficient	1.0000fibre end	0.00T internal ref (°C)	27.62T ext. ref 1 (°C)	0.19T ext. ref 2 (°C)	19.51length (m)	temperature (°C)	Stokes	anti-Stokes-747.200	-200.000	0.023	-0.107
-746.185	512.016	-0.083	0.194
-745.171	800.000	0.106	0.394
-744.156	487.844	0.181	0.414
-743.142	-57.577	-0.159	0.070
-742.127	-77.665	-0.203	0.070
-741.112	-48.338	-0.377	-0.182
-740.098	382.031	0.172	0.354
-739.083	212.464	-0.186	0.293
-738.069	491.424	-0.140	0.322
-737.054	-97.075	-0.290	-0.076
-736.039	-129.016	-0.218	-0.031
-735.025	189.346	-0.090	-0.135
-734.010	-135.376	0.234	-0.028
-732.996	-69.881	-0.160	-0.061
-731.981	-5.764	-0.107	0.073
-730.966	800.000	0.043	-0.149
-729.952	-156.203	-0.347	-0.022
-728.937	-52.038	-0.093	0.043
-727.923	-64.448	-0.210	-0.086
-726.908	382.207	-0.105	0.216
-725.894	378.881	0.091	0.186
-724.879	87.220	-0.219	-0.242
-723.864	746.153	-0.065	-0.176
-722.850	-200.000	-0.066	-0.448
-721.835	-200.000	0.008	-0.335
-720.821	800.000	0.024	0.088
-719.806	-19.182	-0.108	0.067
-718.791	-46.867	0.014	-0.007
-717.777	334.552	-0.031	-0.060
-716.762	-40.115	-0.069	0.036
-715.748	-75.158	0.170	0.061
-714.733	-173.725	0.115	0.003
-713.718	-47.179	-0.227	0.111
-712.704	-122.768	-0.452	-0.073
-711.689	-42.702	-0.280	-0.142
-710.675	-82.263	-0.161	-0.052
-709.660	47.117	-0.182	-0.169
-708.645	-200.000	-0.041	-0.214
-707.631	-57.983	0.197	-0.086
-706.616	800.000	-0.050	0.179
-705.602	800.000	-0.082	-0.232
-704.587	91.310	0.114	0.128
-703.572	-200.000	0.012	0.189
-702.558	800.000	0.099	-0.333
-701.543	-200.000	0.003	0.075
-700.529	171.085	-0.090	-0.129
-699.514	14.670	0.327	0.256
-698.499	-146.752	0.239	0.021
-697.485	645.205	-0.053	-0.136
-696.470	122.512	-0.013	0.016
-695.456	-69.040	-0.231	-0.089
-694.441	-200.000	0.022	-0.109
-693.426	593.173	0.082	0.202
-692.412	-25.808	-0.045	-0.027
-691.397	62.551	0.159	-0.159
-690.383	-200.000	0.052	-0.371
-689.368	-200.000	0.030	-0.172
-688.354	301.180	-0.138	-0.255
-687.339	288.155	0.099	0.179
-686.324	800.000	-0.036	0.159
-685.310	-42.163	-0.138	0.071
-684.295	-149.179	0.408	-0.033
-683.281	-151.863	-0.276	0.020
-682.266	800.000	-0.101	-0.406
-681.251	167.893	0.056	0.079
-680.237	-7.380	-0.101	0.069
-679.222	-145.410	0.225	0.020
-678.208	770.053	-0.159	-0.432
-677.193	-46.990	-0.126	0.062
-676.178	-200.000	-0.005	-0.426
-675.164	-90.581	-0.113	0.033
-674.149	-46.799	-0.288	-0.141
-673.135	197.060	-0.169	0.257
-672.120	149.824	-0.186	-0.251
-671.105	-22.149	-0.193	0.117
-670.091	264.840	-0.066	0.115
-669.076	-200.000	-0.051	0.224
-668.062	-77.202	0.266	0.092
-667.047	-149.442	-0.220	0.017
-666.032	167.909	0.077	-0.109
-665.018	-95.644	-0.061	0.016
-664.003	163.553	0.126	0.177
-662.989	407.568	0.063	0.133
-661.974	-153.645	-0.311	0.021
-660.959	488.845	0.037	-0.084
-659.945	204.560	-0.087	0.134
-658.930	-200.000	-0.065	-0.336
-657.916	75.514	0.324	-0.342
-656.901	-71.490	-0.186	-0.070
-655.886	-183.279	0.160	-0.003
-654.872	-48.606	0.256	-0.123
-653.857	22.368	-0.143	0.116
-652.843	91.195	0.108	0.121
-651.828	-83.254	0.253	-0.081
-650.814	236.154	-0.031	-0.051
-649.799	800.000	0.068	0.267
-648.784	108.120	0.137	-0.163
-647.770	-200.000	-0.192	-0.000
-646.755	800.000	0.029	-0.096
-645.741	-177.684	-0.392	-0.009
-644.726	-151.355	-0.204	0.015
-643.711	-87.347	-0.088	0.027
-642.697	87.146	-0.093	-0.102
-641.682	126.158	0.136	0.171
-640.668	4.129	-0.074	0.054
-639.653	-74.388	-0.241	-0.087
-638.638	-152.264	-0.293	0.021
-637.624	-32.209	0.344	0.192
-636.609	-79.388	-0.186	0.063
-635.595	-200.000	-0.031	-0.202
-634.580	-200.000	-0.015	0.084
-633.565	-132.679	-0.139	0.018
-632.551	-200.000	-0.018	0.101
-631.536	103.644	0.119	0.140
-630.522	207.512	-0.155	0.241
-629.507	61.922	-0.220	0.218
-628.492	-52.436	0.182	0.084
-627.478	-118.988	-0.351	0.061
-626.463	296.888	0.086	0.158
-625.449	-96.671	0.253	-0.066
-624.434	-47.344	0.080	0.039
-623.419	800.000	0.108	0.452
-622.405	-155.881	0.300	-0.019
-621.390	80.191	0.115	0.124
-620.376	-179.920	0.267	0.006
-619.361	32.135	-0.254	-0.219
-618.346	94.189	0.205	-0.232
-617.332	-132.589	0.409	-0.052
-616.317	-200.000	0.082	-0.440
-615.303	-95.920	-0.257	0.068
-614.288	365.027	0.109	0.220
-613.273	800.000	-0.024	0.072
-612.259	-104.729	-0.371	-0.085
-611.244	-48.957	-0.279	0.133
-610.230	192.074	0.073	0.110
-609.215	800.000	0.051	-0.168
-608.201	-46.126	-0.137	-0.067
-607.186	201.292	-0.181	0.278
-606.171	-83.438	-0.172	0.055
-605.157	-200.000	0.040	-0.596
-604.142	-200.000	-0.002	-0.191
-603.128	26.758	-0.098	-0.082
-602.113	-110.756	-0.153	-0.031
-601.098	285.295	0.184	0.330
-600.084	17.495	0.305	-0.242
-599.069	-132.515	0.061	0.008
-598.055	-200.000	0.039	-0.237
-597.040	-58.962	-0.148	0.064
-596.025	-200.000	0.013	-0.187
-595.011	-200.000	0.000	0.057
-593.996	-126.893	-0.276	-0.040
-592.982	-200.000	-0.016	0.071
-591.967	156.802	-0.205	-0.282
-590.952	-200.000	-0.021	-0.104
-589.938	-164.608	-0.205	0.009
-588.923	800.000	-0.093	0.350
-587.909	-32.169	0.282	0.157
-586.894	-90.863	-0.624	-0.179
-585.879	-200.000	-0.010	0.117
-584.865	-200.000	-0.002	0.039
-583.850	743.370	0.095	-0.255
-582.836	-29.133	-0.118	0.067
-581.821	-200.000	-0.031	0.219
-580.806	-24.329	-0.071	0.042
-579.792	-8.566	-0.363	0.243
-578.777	-200.000	0.004	-0.071
-577.763	101.194	-0.217	0.252
-576.748	-61.315	-0.215	-0.090
-575.733	97.198	0.148	-0.169
-574.719	-153.238	-0.492	-0.034
-573.704	177.207	-0.167	0.241
-572.690	-200.000	0.008	-0.098
-571.675	-200.000	0.062	-0.537
-570.661	63.899	0.148	-0.148
-569.646	800.000	-0.115	-0.374
-568.631	-72.109	0.103	-0.038
-567.617	-158.030	0.230	-0.013
-566.602	-200.000	0.075	-0.384
-565.588	-83.613	0.111	0.035
-564.573	-51.249	0.356	0.166
-563.558	-170.996	0.081	0.003
-562.544	-110.358	-0.141	0.029
-561.529	268.002	-0.117	-0.203
-560.515	55.878	-0.186	-0.179
-559.500	-58.421	-0.330	-0.143
-558.485	95.073	0.328	0.371
-557.471	133.973	0.095	-0.122
-556.456	-135.264	-0.724	-0.086
-555.442	-200.000	0.056	-0.262
-554.427	6.682	0.276	0.204
-553.412	433.390	0.119	-0.257
-552.398	-21.240	-0.146	0.089
-551.383	-22.604	-0.130	0.078
-550.369	-119.107	-0.250	0.043
-549.354	492.787	-0.107	-0.243
-548.339	261.563	0.230	-0.397
-547.325	-173.599	-0.296	0.009
-546.310	50.617	0.157	-0.148
-545.296	121.342	-0.214	0.265
-544.281	-56.042	0.064	0.028
-543.266	-150.884	-0.106	-0.008
-542.252	-200.000	-0.054	-0.258
-541.237	27.309	0.175	0.146
-540.223	-178.151	0.113	-0.003
-539.208	-200.000	-0.012	-0.153
-538.193	-59.833	-0.115	0.049
-537.179	-74.462	0.213	0.076
-536.164	13.909	0.174	-0.134
-535.150	-29.783	-0.230	0.130
-534.135	344.498	-0.173	-0.336
-533.121	64.502	0.082	0.082
-532.106	-132.090	-0.133	-0.017
-531.091	-200.000	-0.059	-0.423
-530.077	-200.000	0.021	-0.129
-529.062	-74.992	-0.110	0.039
-528.048	-200.000	0.029	-0.185
-527.033	204.884	-0.102	0.157
-526.018	392.583	0.156	0.322
-525.004	80.555	-0.155	0.166
-523.989	-79.197	0.105	0.035
-522.975	-143.944	-0.158	-0.015
-521.960	-163.102	0.273	0.013
-520.945	-115.281	-0.066	0.012
-519.931	-27.408	0.178	0.103
-518.916	123.725	0.049	-0.061
-517.902	402.955	-0.117	0.244
-516.887	6.017	-0.160	-0.118
-515.872	-146.833	0.201	-0.017
-514.858	-81.256	0.021	0.007
-513.843	-95.822	-0.392	-0.104
-512.829	-41.124	-0.118	-0.060
-511.814	-47.104	0.158	0.076
-510.799	260.783	-0.024	-0.041
-509.785	-125.932	-0.105	-0.016
-508.770	-4.091	0.263	-0.181
-507.756	-200.000	0.031	0.265
-506.741	-33.768	-0.296	0.162
-505.726	75.515	0.138	0.144
-504.712	-177.241	-0.323	-0.008
-503.697	372.279	0.035	0.071
-502.683	27.835	-0.293	-0.245
-501.668	-200.000	0.037	0.214
-500.653	-200.000	-0.012	-0.401
-499.639	800.000	-0.065	-0.241
-498.624	58.821	-0.155	0.151
-497.610	-23.577	0.162	-0.096
-496.595	20.379	0.352	-0.282
-495.581	158.904	0.076	-0.105
-494.566	89.220	0.021	-0.023
-493.551	521.683	0.041	-0.096
-492.537	49.079	0.055	0.051
-491.522	-51.114	-0.224	-0.104
-490.508	-78.111	0.186	-0.064
-489.493	16.161	0.188	-0.147
-488.478	31.144	-0.319	-0.271
-487.464	75.164	-0.034	-0.036
-486.449	-118.897	0.155	-0.027
-485.435	-33.078	-0.237	0.131
-484.420	800.000	0.083	0.253
-483.405	161.198	-0.198	0.275
-482.391	129.036	0.074	0.094
-481.376	96.124	0.051	0.057
-480.362	52.759	0.131	-0.124
-479.347	-200.000	0.002	0.155
-478.332	611.878	0.100	0.249
-477.318	80.936	0.144	0.154
-476.303	662.944	-0.089	-0.227
-475.289	-4.945	0.413	-0.282
-474.274	-59.098	0.150	-0.064
-473.259	-200.000	-0.041	0.346
-472.245	-156.064	0.332	0.021
-471.230	780.638	0.022	0.059
-470.216	800.000	0.078	0.303
-469.201	-11.397	0.329	-0.214
-468.186	-90.593	0.333	0.096
-467.172	-57.652	0.321	-0.139
-466.157	52.859	0.283	-0.269
-465.143	800.000	-0.057	-0.194
-464.128	154.746	-0.127	-0.173
-463.113	800.000	0.046	0.136
-462.099	90.660	-0.162	0.180
-461.084	-200.000	0.036	-0.280
-460.070	140.563	-0.027	-0.035
-459.055	55.528	0.170	-0.163
-458.040	800.000	0.063	-0.178
-457.026	-80.397	0.121	0.040
-456.011	64.442	0.020	0.020
-454.997	134.768	0.087	0.112
-453.982	260.334	0.184	0.315
-452.968	-181.880	0.305	-0.006
-451.953	122.540	0.073	-0.090
-450.938	800.000	0.029	0.110
-449.924	-4.817	-0.385	0.263
-448.909	-34.282	0.094	-0.051
-447.895	42.911	-0.272	-0.246
-446.880	-112.539	0.215	0.042
-445.865	-142.225	0.508	-0.050
-444.851	-192.049	-0.452	0.004
-443.836	17.552	0.269	-0.212
-442.822	193.428	-0.114	0.170
-441.807	86.293	0.126	-0.137
-440.792	341.300	-0.076	-0.147
-439.778	84.053	0.171	0.185
-438.763	83.815	0.085	-0.092
-437.749	800.000	0.077	0.246
-436.734	800.000	0.085	-0.362
-435.719	67.767	0.139	-0.140
-434.705	-200.000	0.035	-0.356
-433.690	-200.000	-0.068	0.342
-432.676	246.153	0.086	0.144
-431.661	800.000	-0.077	0.211
-430.646	-110.433	0.523	-0.107
-429.632	437.346	0.115	-0.248
-428.617	-112.583	0.223	0.044
-427.603	800.000	-0.061	0.250
-426.588	-200.000	0.015	-0.226
-425.573	-200.000	0.030	-0.241
-424.559	800.000	0.094	-0.376
-423.544	52.536	-0.093	-0.088
-422.530	-56.165	-0.092	0.041
-421.515	-90.352	0.338	-0.097
-420.500	41.363	0.139	0.124
-419.486	162.803	-0.130	-0.181
-418.471	135.627	-0.327	-0.421
-417.457	429.977	-0.068	0.145
-416.442	70.065	-0.270	0.275
-415.428	486.821	-0.099	0.222
-414.413	-48.730	0.153	-0.073
-413.398	216.313	-0.095	0.150
-412.384	25.145	0.249	0.204
-411.369	-40.029	0.248	0.128
-410.355	32.309	-0.409	-0.350
-409.340	-42.762	-0.096	0.048
-408.325	9.125	0.268	-0.200
-407.311	306.580	0.147	0.270
-406.296	-19.996	-0.208	0.127
-405.282	-106.997	-0.178	-0.039
-404.267	-58.385	-0.423	0.182
-403.252	54.308	0.178	-0.170
-402.238	-80.847	-0.072	-0.024
-401.223	21.731	0.291	0.234
-400.209	-118.961	-0.415	-0.072
-399.194	-31.947	0.095	-0.053
-398.179	-200.000	0.006	0.062
-397.165	-38.168	0.309	-0.162
-396.150	160.614	-0.170	0.234
-395.136	195.662	0.085	0.128
-394.121	-200.000	0.002	-0.070
-393.106	-88.126	0.531	-0.157
-392.092	-140.071	-0.124	-0.013
-391.077	40.776	-0.125	-0.111
-390.063	-71.087	-0.155	-0.058
-389.048	416.720	-0.061	0.129
-388.033	100.142	0.185	0.212
-387.019	-200.000	-0.020	0.197
-386.004	800.000	-0.042	0.148
-384.990	-54.876	0.132	-0.059
-383.975	-25.574	-0.163	-0.095
-382.960	-200.000	-0.042	-0.334
-381.946	212.876	0.158	0.247
-380.931	133.332	-0.093	0.119
-379.917	6.188	-0.344	0.252
-378.902	201.378	-0.025	0.037
-377.888	105.122	0.023	0.027
-376.873	197.937	-0.138	0.208
-375.858	-7.814	0.160	-0.106
-374.844	-200.000	-0.015	-0.176
-373.829	-43.359	-0.098	0.049
-372.815	-133.329	0.380	0.047
-371.800	800.000	-0.089	0.349
-370.785	-200.000	-0.028	-0.164
-369.771	0.535	0.132	-0.093
-368.756	800.000	0.045	-0.149
-367.742	-140.104	0.376	0.039
-366.727	-144.512	-0.189	0.017
-365.712	-200.000	0.007	0.000
-364.698	440.682	-0.102	-0.221
-363.683	394.467	0.166	-0.342
-362.669	-139.596	-0.160	0.017
-361.654	194.063	-0.144	0.215
-360.639	-200.000	0.061	-0.318
-359.625	89.369	-0.174	-0.192
-358.610	-114.863	-0.088	0.017
-357.596	335.582	-0.093	0.179
-356.581	-200.000	-0.029	0.162
-355.566	-46.163	0.283	0.137
-354.552	-136.418	0.171	-0.020
-353.537	102.860	-0.158	-0.183
-352.523	139.833	0.226	0.294
-351.508	-102.424	0.079	-0.019
-350.493	324.356	-0.151	-0.284
-349.479	-21.778	-0.320	-0.192
-348.464	-134.888	-0.151	-0.018
-347.450	81.468	0.119	-0.126
-346.435	-83.872	0.300	0.094
-345.420	-95.062	-0.084	0.022
-344.406	337.482	-0.124	0.238
-343.391	800.000	0.080	0.229
-342.377	67.873	-0.146	-0.147
-341.362	186.088	0.116	-0.170
-340.348	249.400	-0.036	0.061
-339.333	-200.000	0.045	0.256
-338.318	-89.205	0.213	0.062
-337.304	262.380	0.217	0.372
-336.289	78.550	-0.164	-0.172
-335.275	-152.181	-0.322	0.023
-334.260	-200.000	-0.005	0.275
-333.245	45.668	0.138	-0.126
-332.231	14.089	-0.152	-0.117
-331.216	-69.704	-0.155	-0.058
-330.202	-200.000	0.053	-0.241
-329.187	281.189	-0.029	-0.052
-328.172	-98.139	-0.128	-0.032
-327.158	173.416	0.081	0.115
-326.143	-119.379	0.073	0.013
-325.129	2.204	0.310	0.221
-324.114	-47.735	-0.042	0.020
-323.099	366.571	0.067	-0.134
-322.085	383.759	0.038	-0.076
-321.070	-200.000	-0.001	-0.230
-320.056	800.000	-0.020	0.063
-319.041	174.247	-0.235	0.334
-318.026	-200.000	-0.017	-0.274
-317.012	8.854	-0.181	-0.134
-315.997	-119.092	-0.286	-0.049
-314.983	-79.344	0.218	-0.073
-313.968	21.121	-0.066	-0.052
-312.953	-54.810	-0.127	0.057
-311.939	-200.000	0.005	-0.121
-310.924	-75.464	-0.092	-0.032
-309.910	107.454	0.274	0.322
-308.895	93.386	0.132	-0.148
-307.880	800.000	-0.072	-0.284
-306.866	150.405	-0.148	-0.199
-305.851	-83.041	-0.108	0.034
-304.837	-200.000	0.040	0.368
-303.822	59.245	-0.107	0.104
-302.807	800.000	0.087	0.278
-301.793	469.464	-0.099	-0.219
-300.778	97.988	-0.057	0.064
-299.764	-200.000	-0.028	-0.132
-298.749	180.952	0.149	0.215
-297.735	800.000	0.009	0.034
-296.720	257.776	-0.105	0.178
-295.705	127.915	0.094	-0.117
-294.691	17.920	0.156	-0.122
-293.676	121.464	-0.193	0.237
-292.662	-31.796	-0.128	-0.071
-291.647	279.960	-0.085	-0.150
-290.632	-200.000	-0.017	0.239
-289.618	-200.000	0.016	0.280
-288.603	-148.025	0.270	-0.022
-287.589	595.954	0.109	0.264
-286.574	252.713	-0.142	0.238
-285.559	-200.000	0.016	0.206
-284.545	690.970	-0.054	0.139
-283.530	369.788	-0.100	-0.198
-282.516	-104.449	-0.105	-0.024
-281.501	256.497	0.138	0.234
-280.486	53.477	-0.024	0.023
-279.472	147.915	-0.061	-0.082
-278.457	-125.916	0.247	0.037
-277.443	147.725	0.113	0.150
-276.428	-53.551	0.249	-0.112
-275.413	73.101	0.036	-0.037
-274.399	30.313	-0.151	-0.127
-273.384	-124.075	0.415	0.064
-272.370	104.569	0.199	-0.230
-271.355	440.619	-0.062	0.133
-270.340	142.654	-0.285	-0.373
-269.326	-200.000	0.060	0.288
-268.311	202.845	-0.336	0.510
-267.297	17.961	-0.081	-0.064
-266.282	-75.197	-0.127	0.045
-265.267	-200.000	0.020	0.249
-264.253	-113.796	0.335	-0.064
-263.238	15.296	-0.143	-0.110
-262.224	-94.925	0.274	-0.073
-261.209	290.475	0.136	0.244
-260.195	-48.262	-0.343	-0.163
-259.180	-107.473	-0.166	0.036
-258.165	167.429	0.103	-0.144
-257.151	85.045	-0.224	0.241
-256.136	69.028	0.389	-0.393
-255.122	114.341	0.061	0.073
-254.107	207.904	-0.051	-0.078
-253.092	-165.787	-0.317	-0.013
-252.078	-7.304	-0.191	-0.127
-251.063	-87.961	-0.360	-0.106
-250.049	195.878	0.157	-0.235
-249.034	339.275	0.125	0.240
-248.019	33.526	-0.114	0.097
-247.005	142.526	-0.175	-0.229
-245.990	-107.652	-0.324	0.070
-244.976	-143.140	0.078	-0.007
-243.961	-200.000	0.023	0.249
-242.946	-89.076	0.073	0.021
-241.932	20.530	-0.197	-0.156
-240.917	-17.920	0.204	0.125
-239.903	-200.000	0.011	-0.124
-238.888	792.218	0.024	0.065
-237.873	24.762	-0.151	-0.123
-236.859	-18.063	0.173	0.106
-235.844	-43.848	-0.129	0.064
-234.830	-76.000	0.158	0.055
-233.815	-82.395	0.255	-0.081
-232.800	605.688	-0.124	0.303
-231.786	261.963	-0.070	-0.119
-230.771	-160.911	0.532	-0.028
-229.757	17.937	-0.071	0.055
-228.742	-119.536	0.299	0.051
-227.727	37.106	-0.177	0.154
-226.713	177.763	-0.096	0.137
-225.698	-200.000	-0.062	0.283
-224.684	-53.715	0.249	0.112
-223.669	-200.000	0.007	0.288
-222.655	-70.052	-0.276	-0.103
-221.640	-200.000	-0.012	-0.086
-220.625	-200.000	0.023	0.293
-219.611	160.705	-0.227	0.311
-218.596	-109.949	-0.497	-0.102
-217.582	19.513	-0.232	-0.183
-216.567	105.974	-0.128	0.148
-215.552	-200.000	0.004	-0.222
-214.538	-1.709	-0.185	-0.128
-213.523	142.179	-0.073	0.095
-212.509	95.295	-0.185	-0.207
-211.494	800.000	0.030	0.108
-210.479	-99.080	-0.048	-0.012
-209.465	784.681	-0.080	0.214
-208.450	-200.000	0.027	0.265
-207.436	-172.869	-0.205	0.006
-206.421	-22.416	0.099	-0.059
-205.406	-200.000	-0.002	-0.059
-204.392	-200.000	-0.074	-0.418
-203.377	17.349	0.358	0.279
-202.363	22.213	-0.155	-0.125
-201.348	230.564	-0.124	-0.199
-200.333	-200.000	-0.009	0.141
-199.319	-85.941	-0.115	0.035
-198.304	-27.088	-0.118	0.068
-197.290	-105.532	0.176	-0.039
-196.275	147.580	0.261	0.345
-195.260	-48.412	0.123	-0.058
-194.246	-112.756	0.337	-0.066
-193.231	800.000	-0.050	-0.179
-192.217	-200.000	0.013	-0.246
-191.202	235.761	0.057	0.093
-190.187	8.362	0.166	0.123
-189.173	8.776	0.255	0.189
-188.158	800.000	-0.035	0.128
-187.144	-128.786	0.226	0.031
-186.129	-86.875	0.364	0.109
-185.114	-200.000	0.005	0.111
-184.100	800.000	0.113	0.308
-183.085	413.587	0.050	0.105
-182.071	-200.000	-0.015	-0.206
-181.056	-200.000	-0.074	-0.358
-180.042	202.890	0.086	-0.130
-179.027	-26.139	0.086	0.049
-178.012	-3.320	-0.136	0.093
-176.998	18.290	0.152	-0.119
-175.983	4.368	-0.140	-0.101
-174.969	129.382	0.256	0.321
-173.954	-158.222	-0.051	-0.003
-172.939	-200.000	0.068	-0.468
-171.925	295.488	0.114	0.205
-170.910	-54.671	0.062	-0.028
-169.896	10.025	-0.123	-0.091
-168.881	800.000	0.095	-0.389
-167.866	-161.454	0.415	0.021
-166.852	-81.049	0.120	0.039
-165.837	-113.968	-0.188	0.036
-164.823	73.246	0.173	0.178
-163.808	-145.477	-0.410	-0.036
-162.793	240.462	0.130	-0.212
-161.779	-153.181	-0.256	-0.018
-160.764	45.515	0.171	-0.155
-159.750	30.205	0.093	0.078
-158.735	274.397	0.163	0.283
-157.720	800.000	-0.140	0.387
-156.706	56.143	0.095	-0.091
-155.691	-83.024	0.132	-0.042
-154.677	116.791	-0.246	-0.296
-153.662	800.000	-0.061	0.213
-152.647	21.810	0.097	0.077
-151.633	-2.438	0.135	-0.092
-150.618	-39.960	0.177	0.090
-149.604	-81.517	-0.206	-0.066
-148.589	330.701	-0.108	0.204
-147.574	29.611	0.145	0.120
-146.560	-170.040	0.246	-0.009
-145.545	88.681	0.045	0.049
-144.531	-158.000	0.242	-0.014
-143.516	118.330	0.059	-0.071
-142.502	16.410	0.111	-0.086
-141.487	800.000	0.095	-0.334
-140.472	-63.341	0.152	-0.061
-139.458	-128.819	-0.174	-0.024
-138.443	-140.566	-0.181	0.018
-137.429	20.980	0.293	0.232
-136.414	440.245	0.029	0.061
-135.399	217.920	0.079	-0.123
-134.385	44.716	-0.142	0.128
-133.370	800.000	0.067	-0.229
-132.356	-200.000	-0.001	-0.284
-131.341	-42.599	-0.282	0.140
-130.326	-200.000	0.011	0.128
-129.312	800.000	0.061	0.193
-128.297	-79.389	-0.177	-0.059
-127.283	566.070	0.135	-0.321
-126.268	60.410	-0.127	-0.123
-125.253	48.252	0.206	-0.188
-124.239	-157.837	-0.338	0.020
-123.224	-52.105	0.212	0.096
-122.210	-130.316	0.108	-0.014
-121.195	33.909	0.175	-0.149
