DTS Sentinel unit serial number:	SN413079Multiplexer serial number:	ORYXHardware model number:	OX4-SRSoftware version number:	ORYX F/W v4.00 Oryx Data Collector v3.7.2.0data status	okinstallation	princeton_trtdifferential loss correction	single-endedforward channel	channel 3reverse channel	N/Adate	2019/09/15time	08:48:35forward acquisition time	60.00reverse acquisition time	0.00gamma	496.2192k internal	0.2316k external	0.2316temperature offset calibration	0.9974default loss term (dB/km)	0.3790temperature slope calibration	1.0000multiplexer offset coefficient	1.0000multiplexer slope coefficient	1.0000fibre end	0.00T internal ref (°C)	32.30T ext. ref 1 (°C)	4.98T ext. ref 2 (°C)	29.67length (m)	temperature (°C)	Stokes	anti-Stokes-747.200	-200.000	0.021	-0.292
-746.185	-153.386	0.176	-0.012
-745.171	96.731	-0.155	-0.180
-744.156	-11.836	-0.069	0.046
-743.142	298.445	0.078	0.146
-742.127	42.961	-0.164	0.152
-741.112	-198.759	0.549	0.003
-740.098	460.109	-0.081	-0.183
-739.083	-69.014	0.259	-0.101
-738.069	-97.429	-0.316	-0.083
-737.054	590.572	0.024	0.060
-736.039	30.590	0.080	-0.069
-735.025	-58.376	0.254	0.112
-734.010	-123.495	-0.122	-0.020
-732.996	800.000	0.102	-0.308
-731.981	-19.363	0.044	0.028
-730.966	-6.617	-0.076	0.052
-729.952	-200.000	0.082	0.000
-728.937	-22.801	-0.202	0.124
-727.923	-10.211	-0.240	-0.162
-726.908	-89.538	0.426	0.127
-725.894	800.000	0.099	-0.429
-724.879	-79.417	-0.329	-0.113
-723.864	-153.025	-0.059	-0.004
-722.850	108.872	0.006	0.008
-721.835	172.021	-0.226	-0.328
-720.821	32.242	0.132	-0.115
-719.806	-33.820	-0.397	0.222
-718.791	-155.434	-0.030	-0.002
-717.777	122.340	0.074	0.094
-716.762	38.813	-0.096	0.087
-715.748	-200.000	-0.006	-0.169
-714.733	-200.000	-0.015	-0.492
-713.718	-200.000	-0.043	-0.209
-712.704	800.000	0.064	0.284
-711.689	280.234	0.007	-0.013
-710.675	-81.104	0.114	-0.038
-709.660	769.153	0.182	-0.501
-708.645	406.718	-0.091	0.193
-707.631	-106.201	0.091	0.021
-706.616	-58.750	-0.314	-0.138
-705.602	-200.000	0.031	-0.158
-704.587	-200.000	-0.024	0.129
-703.572	-159.334	0.245	0.014
-702.558	-200.000	0.006	0.186
-701.543	-200.000	-0.022	0.139
-700.529	-200.000	0.014	-0.222
-699.514	118.318	0.350	-0.436
-698.499	-94.711	0.150	0.041
-697.485	-13.093	0.085	-0.056
-696.470	-112.198	0.251	-0.051
-695.456	-200.000	-0.065	-0.316
-694.441	-8.365	0.160	0.109
-693.426	352.057	-0.149	0.299
-692.412	-128.174	0.124	-0.018
-691.397	-94.968	0.282	-0.077
-690.383	53.564	0.037	-0.036
-689.368	-200.000	-0.015	-0.152
-688.354	-200.000	0.024	0.273
-687.339	219.215	0.193	0.312
-686.324	189.017	-0.174	-0.263
-685.310	-35.312	0.066	-0.036
-684.295	800.000	-0.065	0.274
-683.281	800.000	-0.033	-0.111
-682.266	-200.000	0.008	-0.304
-681.251	-91.319	0.113	-0.033
-680.237	21.786	-0.101	0.083
-679.222	38.432	0.222	-0.200
-678.208	-134.759	-0.242	-0.030
-677.193	-79.590	-0.214	-0.073
-676.178	164.315	0.187	-0.267
-675.164	32.012	0.148	0.129
-674.149	-129.979	0.220	-0.030
-673.135	-200.000	0.016	0.126
-672.120	-200.000	0.015	0.079
-671.105	94.019	0.141	-0.162
-670.091	-200.000	0.010	0.060
-669.076	-113.605	-0.285	0.056
-668.062	800.000	-0.038	0.161
-667.047	-42.063	-0.277	0.143
-666.032	800.000	0.115	-0.387
-665.018	-14.258	0.230	0.150
-664.003	-85.025	-0.261	0.082
-662.989	159.755	-0.078	-0.110
-661.974	67.446	-0.203	-0.209
-660.959	649.324	-0.068	0.176
-659.945	109.836	0.080	0.096
-658.930	447.625	0.090	-0.200
-657.916	-149.304	-0.210	0.017
-656.901	97.092	-0.083	-0.096
-655.886	387.810	0.094	0.196
-654.872	-200.000	0.022	0.212
-653.857	144.785	0.028	0.037
-652.843	58.695	0.193	0.191
-651.828	-191.623	0.086	0.001
-650.814	12.011	0.125	-0.097
-649.799	31.398	0.161	0.140
-648.784	-146.011	-0.059	0.005
-647.770	-3.805	0.248	-0.174
-646.755	363.797	-0.149	0.303
-645.741	299.577	0.153	0.284
-644.726	321.244	-0.071	0.136
-643.711	199.262	-0.082	0.127
-642.697	-97.945	-0.254	-0.066
-641.682	247.281	0.084	0.144
-640.668	49.796	0.185	-0.176
-639.653	800.000	0.069	0.210
-638.638	-67.113	-0.192	-0.076
-637.624	20.338	0.024	-0.020
-636.609	308.638	-0.003	-0.005
-635.595	195.583	0.126	0.194
-634.580	-47.139	0.098	-0.048
-633.565	-155.288	-0.181	-0.012
-632.551	800.000	-0.050	-0.167
-631.536	250.921	-0.052	-0.089
-630.522	-200.000	0.013	-0.194
-629.507	-44.724	0.128	-0.064
-628.492	383.890	0.203	-0.421
-627.478	20.369	0.141	-0.115
-626.463	319.704	-0.099	0.189
-625.449	-84.012	0.400	-0.128
-624.434	142.700	-0.208	-0.279
-623.419	800.000	0.031	0.101
-622.405	-82.404	0.139	0.045
-621.390	-82.354	-0.340	0.111
-620.376	-200.000	-0.037	-0.356
-619.361	-143.286	0.223	-0.022
-618.346	-200.000	-0.049	0.226
-617.332	100.446	-0.112	-0.131
-616.317	-57.247	0.086	0.038
-615.303	-99.878	0.088	0.022
-614.288	-141.632	0.317	0.032
-613.273	56.928	0.196	0.193
-612.259	482.692	0.064	0.148
-611.244	-98.046	0.119	0.031
-610.230	163.486	-0.200	-0.284
-609.215	249.659	0.111	0.190
-608.201	-106.229	-0.390	0.088
-607.186	49.982	-0.203	0.193
-606.171	127.206	-0.081	0.104
-605.157	628.814	-0.059	0.150
-604.142	74.408	-0.271	-0.286
-603.128	390.827	0.039	-0.082
-602.113	-200.000	-0.029	-0.228
-601.098	-52.738	-0.362	-0.168
-600.084	34.076	0.101	0.088
-599.069	12.923	-0.272	-0.212
-598.055	11.710	-0.245	0.189
-597.040	542.748	-0.027	0.066
-596.025	800.000	0.070	0.252
-595.011	-153.243	0.102	-0.007
-593.996	60.535	0.176	0.175
-592.982	-42.066	-0.199	-0.102
-591.967	338.859	-0.119	-0.233
-590.952	722.922	0.064	-0.172
-589.938	575.069	0.080	0.196
-588.923	-51.958	-0.234	0.109
-587.909	356.764	-0.155	-0.312
-586.894	-200.000	-0.018	0.178
-585.879	-83.317	0.088	-0.029
-584.865	-112.368	0.128	-0.026
-583.850	-168.101	0.240	-0.009
-582.836	-81.735	0.063	-0.021
-581.821	132.907	0.161	-0.209
-580.806	-177.492	-0.017	0.000
-579.792	343.711	0.163	-0.322
-578.777	-200.000	-0.046	-0.229
-577.763	71.223	-0.119	0.125
-576.748	-200.000	-0.025	0.293
-575.733	-200.000	0.042	0.188
-574.719	-115.930	-0.209	0.039
-573.704	-142.504	0.103	0.010
-572.690	96.725	0.129	-0.149
-571.675	-12.298	0.235	0.154
-570.661	-82.899	0.415	-0.135
-569.646	800.000	0.049	0.212
-568.631	-152.060	-0.377	0.028
-567.617	720.653	-0.057	-0.153
-566.602	-44.693	-0.210	0.105
-565.588	281.840	-0.054	-0.098
-564.573	226.020	-0.156	0.254
-563.558	621.143	-0.092	0.233
-562.544	779.035	-0.035	-0.096
-561.529	207.615	0.191	0.300
-560.515	139.138	-0.159	-0.210
-559.500	301.374	-0.192	-0.357
-558.485	751.604	-0.064	0.174
-557.471	564.763	0.132	0.323
-556.456	-200.000	0.030	0.238
-555.442	43.631	0.247	-0.227
-554.427	-116.981	0.179	0.033
-553.412	800.000	0.095	-0.271
-552.398	800.000	0.064	-0.250
-551.383	800.000	0.145	-0.437
-550.369	-60.802	0.282	-0.120
-549.354	231.679	-0.135	-0.222
-548.339	-22.849	0.113	0.068
-547.325	800.000	0.067	-0.193
-546.310	-151.425	-0.274	-0.020
-545.296	100.613	-0.094	0.110
-544.281	150.817	0.048	-0.066
-543.266	-0.812	0.054	0.038
-542.252	261.847	-0.043	-0.076
-541.237	-200.000	0.025	-0.340
-540.223	-93.823	-0.210	-0.058
-539.208	-63.902	0.172	-0.071
-538.193	-91.404	0.204	-0.059
-537.179	-72.991	-0.180	-0.067
-536.164	99.832	-0.012	-0.014
-535.150	-73.835	-0.189	0.069
-534.135	-73.218	-0.395	-0.145
-533.121	-171.037	0.072	0.002
-532.106	-200.000	-0.023	0.238
-531.091	15.634	-0.070	-0.056
-530.077	-42.877	0.246	-0.125
-529.062	-77.914	0.206	0.071
-528.048	-164.549	0.417	-0.019
-527.033	-77.957	0.052	-0.018
-526.018	4.486	0.425	-0.313
-525.004	-74.691	0.279	-0.101
-523.989	-1.143	0.143	0.102
-522.975	-38.546	-0.199	-0.106
-521.960	187.894	0.098	0.147
-520.945	4.712	0.150	0.111
-519.931	-145.098	-0.473	-0.043
-518.916	356.346	0.203	0.407
-517.902	456.812	-0.018	0.039
-516.887	113.603	-0.229	0.280
-515.872	650.517	-0.048	-0.123
-514.858	-200.000	-0.023	-0.213
-513.843	154.858	0.024	-0.034
-512.829	-200.000	0.022	-0.207
-511.814	-85.590	-0.151	0.047
-510.799	314.546	-0.054	-0.103
-509.785	1.366	-0.136	0.098
-508.770	161.304	0.133	-0.187
-507.756	-14.291	0.093	-0.060
-506.741	571.532	-0.080	-0.195
-505.726	-200.000	0.012	-0.077
-504.712	126.828	-0.112	-0.142
-503.697	-87.019	-0.322	0.098
-502.683	-179.744	0.428	0.009
-501.668	-83.015	-0.232	-0.075
-500.653	130.543	-0.146	0.188
-499.639	-113.184	-0.431	0.085
-498.624	800.000	-0.087	-0.258
-497.610	-183.376	-0.151	0.003
-496.595	-96.184	0.110	-0.029
-495.581	-200.000	-0.007	-0.100
-494.566	-200.000	-0.035	-0.169
-493.551	10.968	0.183	-0.140
-492.537	-43.695	-0.105	0.053
-491.522	-47.927	0.132	0.064
-490.508	-36.176	-0.105	0.057
-489.493	-200.000	-0.019	-0.368
-488.478	-71.747	0.381	0.142
-487.464	-200.000	0.004	0.229
-486.449	482.012	-0.080	0.183
-485.435	-100.490	-0.220	0.055
-484.420	24.011	-0.172	-0.142
-483.405	-177.218	-0.245	-0.006
-482.391	-200.000	0.013	0.081
-481.376	254.902	-0.053	0.091
-480.362	86.744	-0.081	-0.090
-479.347	77.531	-0.205	-0.219
-478.332	-1.270	-0.171	-0.121
-477.318	89.150	-0.082	0.092
-476.303	130.327	-0.090	-0.115
-475.289	141.630	0.063	0.083
-474.274	-74.783	-0.030	-0.011
-473.259	-200.000	-0.011	-0.074
-472.245	570.227	0.089	0.218
-471.230	-80.441	-0.141	0.047
-470.216	527.968	0.055	0.130
-469.201	-76.926	-0.165	0.058
-468.186	-200.000	0.028	0.326
-467.172	-200.000	-0.280	0.000
-466.157	-132.129	-0.167	0.022
-465.143	547.462	-0.128	-0.308
-464.128	-58.335	0.265	-0.116
-463.113	276.844	-0.026	0.047
-462.099	289.885	-0.100	0.183
-461.084	800.000	-0.019	0.053
-460.070	-109.308	-0.245	-0.052
-459.055	116.675	-0.221	-0.271
-458.040	-200.000	0.003	-0.085
-457.026	58.761	-0.170	-0.167
-456.011	-85.302	-0.066	0.021
-454.997	-23.682	0.068	-0.041
-453.982	-31.993	-0.063	0.036
-452.968	1.417	-0.084	0.060
-451.953	-23.955	0.227	0.136
-450.938	2.633	-0.280	0.203
-449.924	-15.141	-0.118	0.076
-448.909	-55.351	-0.264	-0.119
-447.895	-200.000	0.007	0.263
-446.880	-11.693	0.449	0.295
-445.865	-119.986	0.366	0.063
-444.851	-200.000	-0.018	0.113
-443.836	-200.000	-0.042	0.374
-442.822	16.487	0.137	0.108
-441.807	-36.814	-0.049	0.026
-440.792	234.454	-0.123	0.203
-439.778	-141.619	0.173	0.017
-438.763	165.154	-0.090	-0.127
-437.749	-200.000	0.001	-0.259
-436.734	1.657	-0.118	0.085
-435.719	12.756	0.350	0.271
-434.705	-200.000	0.033	0.164
-433.690	287.573	0.128	-0.231
-432.676	47.492	0.150	0.140
-431.661	277.828	0.066	-0.117
-430.646	-200.000	-0.003	0.179
-429.632	800.000	-0.021	-0.081
-428.617	800.000	-0.044	-0.161
-427.603	-62.389	-0.398	-0.166
-426.588	310.543	-0.288	-0.539
-425.573	244.838	0.027	0.045
-424.559	20.525	0.224	-0.181
-423.544	-200.000	0.026	0.186
-422.530	99.432	0.045	-0.052
-421.515	-98.551	-0.060	0.015
-420.500	-53.156	-0.350	-0.161
-419.486	-44.901	0.216	-0.108
-418.471	-200.000	-0.004	-0.178
-417.457	800.000	-0.109	-0.418
-416.442	-152.934	-0.292	0.021
-415.428	-153.440	0.159	-0.011
-414.413	5.688	0.409	-0.302
-413.398	33.733	-0.302	0.263
-412.384	-200.000	-0.024	-0.165
-411.369	-163.871	-0.180	0.008
-410.355	-188.693	0.540	0.007
-409.340	410.326	-0.109	0.231
-408.325	-200.000	0.013	0.223
-407.311	-38.657	0.145	-0.076
-406.296	-200.000	-0.006	0.036
-405.282	800.000	0.064	0.182
-404.267	584.332	0.114	0.280
-403.252	-200.000	0.021	0.138
-402.238	800.000	-0.051	0.209
-401.223	-200.000	-0.045	0.286
-400.209	-127.350	0.297	0.043
-399.194	588.267	0.165	-0.405
-398.179	800.000	0.068	0.193
-397.165	-200.000	-0.011	-0.110
-396.150	140.143	0.154	-0.203
-395.136	14.671	0.212	0.165
-394.121	-132.349	0.178	-0.023
-393.106	123.552	0.085	-0.106
-392.092	-1.392	-0.065	-0.046
-391.077	18.122	0.094	0.075
-390.063	-26.762	-0.137	0.080
-389.048	95.403	-0.153	-0.174
-388.033	-43.092	0.176	0.089
-387.019	-148.019	-0.130	-0.011
-386.004	-200.000	0.001	0.272
-384.990	223.073	0.114	-0.184
-383.975	-54.684	0.182	-0.082
-382.960	800.000	0.099	0.278
-381.946	52.436	0.277	-0.264
-380.931	800.000	-0.062	0.264
-379.917	31.692	-0.100	0.086
-378.902	800.000	0.101	0.391
-377.888	196.386	0.024	0.036
-376.873	151.803	-0.099	-0.134
-375.858	482.461	-0.087	-0.197
-374.844	-200.000	0.051	-0.335
-373.829	-33.352	-0.308	0.170
-372.815	2.479	-0.211	0.153
-371.800	120.324	-0.195	-0.242
-370.785	138.489	0.121	-0.158
-369.771	10.975	0.250	-0.190
-368.756	64.697	0.191	0.193
-367.742	299.508	0.194	0.356
-366.727	-77.320	-0.369	-0.128
-365.712	-98.272	-0.033	-0.008
-364.698	219.169	-0.087	0.138
-363.683	-118.534	-0.143	0.025
-362.669	-105.795	0.182	0.041
-361.654	800.000	0.088	-0.335
-360.639	-200.000	0.044	0.254
-359.625	-84.977	0.276	-0.087
-358.610	-120.346	-0.180	0.031
-357.596	-61.545	-0.085	0.036
-356.581	206.418	-0.075	0.117
-355.566	-200.000	-0.005	-0.030
-354.552	-163.728	-0.514	-0.024
-353.537	47.849	0.256	0.238
-352.523	-141.251	-0.356	-0.036
-351.508	800.000	-0.098	-0.401
-350.493	800.000	-0.032	0.123
-349.479	-92.655	-0.223	-0.062
-348.464	-200.000	0.011	-0.208
-347.450	234.024	0.130	-0.213
-346.435	118.211	0.046	0.057
-345.420	220.533	-0.115	-0.184
-344.406	610.508	0.088	0.219
-343.391	-170.644	0.237	-0.008
-342.377	800.000	-0.037	-0.122
-341.362	270.919	0.168	0.295
-340.348	-25.929	-0.169	0.099
-339.333	-121.461	-0.509	0.084
-338.318	-200.000	-0.000	0.014
-337.304	-26.652	-0.133	-0.078
-336.289	-200.000	-0.091	0.422
-335.275	800.000	-0.014	-0.057
-334.260	-149.624	-0.344	0.027
-333.245	620.396	0.116	-0.291
-332.231	12.344	-0.112	0.086
-331.216	117.407	0.158	0.193
-330.202	-81.996	0.214	0.070
-329.187	288.865	0.090	0.162
-328.172	-26.174	-0.279	-0.163
-327.158	55.069	-0.269	0.259
-326.143	-60.292	0.074	-0.032
-325.129	-200.000	0.012	-0.107
-324.114	-15.582	0.233	-0.148
-323.099	84.714	0.144	-0.157
-322.085	800.000	-0.047	-0.130
-321.070	290.548	-0.101	-0.183
-320.056	73.430	0.113	-0.118
-319.041	92.052	0.294	0.330
-318.026	119.431	0.111	0.137
-317.012	-200.000	-0.008	0.162
-315.997	-4.168	0.207	-0.143
-314.983	101.695	0.122	0.142
-313.968	32.100	-0.199	0.171
-312.953	-139.149	-0.166	-0.018
-311.939	-138.685	0.111	-0.012
-310.924	-168.402	0.368	0.014
-309.910	-200.000	0.070	0.390
-308.895	341.366	-0.185	-0.361
-307.880	-200.000	0.033	0.210
-306.866	47.004	0.082	0.076
-305.851	800.000	-0.050	-0.165
-304.837	102.612	0.192	0.224
-303.822	44.949	0.088	0.080
-302.807	-69.075	0.245	-0.094
-301.793	-200.000	-0.004	-0.162
-300.778	800.000	-0.178	0.640
-299.764	-82.825	0.365	-0.117
-298.749	535.952	-0.062	-0.147
-297.735	282.300	0.017	0.031
-296.720	499.903	-0.088	0.203
-295.705	-87.549	0.338	-0.102
-294.691	242.622	-0.174	0.290
-293.676	118.227	0.036	0.045
-292.662	800.000	0.052	0.194
-291.647	311.845	0.158	0.295
-290.632	355.073	-0.110	-0.218
-289.618	-200.000	0.066	-0.341
-288.603	735.511	0.101	0.269
-287.589	-200.000	-0.015	0.102
-286.574	-86.011	0.196	0.060
-285.559	-44.879	-0.129	0.064
-284.545	-52.420	0.148	-0.068
-283.530	-32.978	0.165	0.091
-282.516	-37.844	-0.377	-0.200
-281.501	800.000	0.058	-0.172
-280.486	102.455	0.140	0.163
-279.472	447.004	0.079	-0.173
-278.457	-117.656	-0.309	-0.055
-277.443	-200.000	-0.019	-0.229
-276.428	12.535	-0.153	0.118
-275.413	-51.272	0.189	-0.088
-274.399	32.400	0.265	0.227
-273.384	-200.000	-0.016	-0.365
-272.370	203.150	-0.015	-0.022
-271.355	76.174	-0.068	-0.072
-270.340	254.334	0.024	0.040
-269.326	-38.251	0.310	-0.163
-268.311	40.925	-0.085	0.076
-267.297	-200.000	0.052	0.306
-266.282	235.438	0.032	0.052
-265.267	-39.284	-0.151	-0.079
-264.253	800.000	0.041	-0.120
-263.238	-200.000	-0.045	-0.233
-262.224	-137.944	-0.307	0.034
-261.209	584.492	-0.029	-0.070
-260.195	800.000	0.119	-0.346
-259.180	-112.571	-0.253	-0.050
-258.165	-7.246	-0.082	0.055
-257.151	-200.000	-0.031	-0.144
-256.136	449.129	0.067	0.146
-255.122	800.000	-0.042	-0.151
-254.107	800.000	0.119	-0.358
-253.092	-72.771	0.107	-0.039
-252.078	-147.038	0.244	0.021
-251.063	-200.000	-0.027	0.175
-250.049	-102.143	-0.058	0.014
-249.034	800.000	-0.067	-0.219
-248.019	-96.837	-0.238	0.062
-247.005	160.283	-0.129	-0.179
-245.990	-11.230	0.097	-0.064
-244.976	68.679	-0.117	0.120
-243.961	118.590	0.235	0.288
-242.946	-49.802	0.158	-0.074
-241.932	-82.723	0.228	0.073
-240.917	88.470	-0.168	-0.185
-239.903	-200.000	0.029	-0.336
-238.888	53.533	0.227	-0.216
-237.873	-49.035	-0.514	0.244
-236.859	73.162	0.061	0.064
-235.844	-75.046	-0.193	0.069
-234.830	228.533	0.085	-0.137
-233.815	-81.073	-0.389	-0.128
-232.800	193.677	-0.054	-0.082
-231.786	-140.093	0.112	0.012
-230.771	79.387	0.312	0.332
-229.757	391.071	-0.165	-0.339
-228.742	800.000	0.099	-0.339
-227.727	-71.762	-0.165	0.061
-226.713	36.123	0.155	0.135
-225.698	800.000	-0.116	0.347
-224.684	-41.376	0.089	0.045
-223.669	-200.000	0.031	-0.172
-222.655	800.000	0.008	-0.032
-221.640	-145.882	0.335	-0.030
-220.625	63.974	-0.193	0.192
-219.611	-158.883	0.384	-0.022
-218.596	800.000	-0.077	-0.258
-217.582	-200.000	0.013	-0.105
-216.567	231.258	0.067	0.109
-215.552	268.044	0.127	0.221
-214.538	43.820	-0.184	0.168
-213.523	249.724	-0.079	0.132
-212.509	204.888	-0.056	-0.087
-211.494	-200.000	-0.036	-0.221
-210.479	313.079	-0.088	0.163
-209.465	-160.862	0.391	0.020
-208.450	-61.718	0.015	-0.006
-207.436	800.000	0.072	-0.283
-206.421	-170.940	0.151	-0.005
-205.406	-200.000	0.003	0.127
-204.392	800.000	0.021	0.072
-203.377	-102.424	-0.200	0.047
-202.363	-29.037	-0.110	-0.063
-201.348	478.660	-0.119	0.267
-200.333	-139.216	0.292	0.031
-199.319	-24.504	0.138	0.081
-198.304	-57.129	-0.211	-0.092
-197.290	-200.000	0.104	0.480
-196.275	-168.719	-0.294	-0.011
-195.260	-117.754	0.077	0.014
-194.246	-200.000	0.003	-0.181
-193.231	-22.552	0.157	0.094
-192.217	-127.108	-0.206	0.030
-191.202	-167.134	0.294	0.012
-190.187	37.016	0.143	0.125
-189.173	3.916	0.128	-0.093
-188.158	-20.354	0.117	-0.071
-187.144	465.870	0.128	-0.284
-186.129	191.354	-0.168	-0.251
-185.114	-120.714	0.188	0.032
-184.100	-200.000	-0.038	0.261
-183.085	51.775	0.066	-0.062
-182.071	-84.347	0.210	-0.066
-181.056	-56.250	0.551	0.243
-180.042	-46.208	-0.211	-0.103
-179.027	284.699	-0.153	-0.272
-178.012	237.580	0.205	0.337
-176.998	460.487	-0.042	-0.092
-175.983	-156.943	-0.316	-0.019
-174.969	-200.000	-0.011	-0.229
-173.954	-200.000	0.017	0.552
-172.939	800.000	-0.042	0.136
-171.925	800.000	-0.075	0.260
-170.910	-200.000	-0.068	-0.453
-169.896	-2.784	-0.042	0.029
-168.881	-37.676	0.282	-0.149
-167.866	-127.968	-0.052	0.007
-166.852	84.835	-0.139	0.151
-165.837	213.187	0.238	0.373
-164.823	-191.187	-0.303	0.003
-163.808	800.000	0.115	0.346
-162.793	151.529	-0.234	-0.315
-161.779	-60.657	0.050	0.021
-160.764	-141.553	0.102	0.010
-159.750	130.384	-0.248	0.314
-158.735	800.000	-0.029	-0.106
-157.720	-62.291	-0.502	0.207
-156.706	469.309	-0.091	0.203
-155.691	-45.843	0.170	0.083
-154.677	-8.076	-0.311	-0.208
-153.662	66.424	-0.331	-0.333
-152.647	-19.816	0.222	-0.136
-151.633	323.301	0.084	0.159
-150.618	-42.424	-0.098	0.049
-149.604	-200.000	0.013	0.306
-148.589	-109.763	0.197	-0.041
-147.574	91.624	0.238	0.265
-146.560	144.888	-0.100	0.132
-145.545	-44.222	-0.181	0.090
-144.531	-46.082	0.138	-0.067
-143.516	3.262	-0.135	-0.097
-142.502	198.365	0.225	0.341
-141.487	-154.393	-0.166	0.011
-140.472	90.059	-0.082	0.091
-139.458	249.995	0.097	-0.163
-138.443	-34.819	0.072	0.039
-137.429	37.743	0.222	-0.195
-136.414	-144.139	0.320	0.030
-135.399	800.000	-0.041	-0.144
-134.385	432.040	0.104	-0.223
-133.370	-4.028	0.293	0.201
-132.356	800.000	-0.075	-0.256
-131.341	-65.596	-0.094	-0.037
-130.326	-38.770	0.567	0.296
-129.312	-91.642	0.061	-0.017
-128.297	800.000	0.076	-0.225
-127.283	-110.255	-0.092	0.019
-126.268	-200.000	0.007	0.114
-125.253	460.480	0.171	-0.377
-124.239	-200.000	-0.017	-0.185
-123.224	-176.068	-0.076	-0.002
-122.210	-200.000	0.025	0.112
-121.195	-148.635	-0.104	0.008
