DTS Sentinel unit serial number:	SN413079Multiplexer serial number:	ORYXHardware model number:	OX4-SRSoftware version number:	ORYX F/W v4.00 Oryx Data Collector v3.7.2.0data status	okinstallation	princeton_trtdifferential loss correction	single-endedforward channel	channel 3reverse channel	N/Adate	2019/09/12time	22:20:34forward acquisition time	60.00reverse acquisition time	0.00gamma	496.2192k internal	0.2327k external	0.2327temperature offset calibration	1.0132default loss term (dB/km)	0.3790temperature slope calibration	1.0000multiplexer offset coefficient	1.0000multiplexer slope coefficient	1.0000fibre end	0.00T internal ref (°C)	29.81T ext. ref 1 (°C)	3.73T ext. ref 2 (°C)	24.40length (m)	temperature (°C)	Stokes	anti-Stokes-747.200	-52.654	0.205	0.096
-746.185	229.843	-0.200	0.329
-745.171	-59.505	-0.207	0.089
-744.156	334.199	0.129	0.251
-743.142	-200.000	-0.024	-0.129
-742.127	-113.420	0.302	0.060
-741.112	176.375	-0.143	-0.209
-740.098	-200.000	0.012	0.071
-739.083	690.321	0.056	0.148
-738.069	100.174	-0.161	0.189
-737.054	50.283	-0.073	-0.069
-736.039	-56.371	-0.641	-0.287
-735.025	291.187	0.108	0.198
-734.010	-24.231	-0.100	0.060
-732.996	-200.000	0.025	-0.170
-731.981	-200.000	-0.010	0.072
-730.966	68.414	0.066	-0.068
-729.952	33.286	-0.264	-0.231
-728.937	21.954	0.439	-0.360
-727.923	-47.879	-0.339	0.166
-726.908	-143.949	-0.356	-0.034
-725.894	-200.000	0.039	-0.240
-724.879	345.536	0.097	-0.192
-723.864	-135.679	-0.199	0.024
-722.850	40.449	0.218	0.198
-721.835	123.028	-0.167	0.211
-720.821	234.874	-0.184	-0.307
-719.806	53.963	0.090	0.087
-718.791	-167.492	-0.130	0.005
-717.777	235.477	-0.143	0.237
-716.762	128.887	0.150	-0.193
-715.748	-200.000	-0.010	0.105
-714.733	-68.337	0.293	0.115
-713.718	-89.733	-0.411	0.121
-712.704	615.324	0.029	0.074
-711.689	-135.100	0.231	0.028
-710.675	-147.306	-0.058	-0.005
-709.660	-177.729	0.289	0.007
-708.645	53.745	0.232	0.224
-707.631	18.744	-0.095	0.076
-706.616	800.000	0.051	0.220
-705.602	-44.955	-0.344	0.173
-704.587	-130.334	0.362	0.049
-703.572	-200.000	-0.013	-0.393
-702.558	-78.417	-0.122	0.042
-701.543	-180.555	0.132	-0.003
-700.529	-58.059	-0.092	-0.040
-699.514	-200.000	-0.004	0.017
-698.499	-200.000	0.013	0.110
-697.485	-187.703	-0.207	-0.003
-696.470	-132.602	-0.070	-0.009
-695.456	641.148	0.044	0.114
-694.441	-118.083	0.053	-0.010
-693.426	-71.167	0.405	0.153
-692.412	66.470	0.216	0.221
-691.397	-84.361	0.159	0.050
-690.383	-38.749	-0.134	0.071
-689.368	357.154	-0.089	0.178
-688.354	800.000	0.033	-0.133
-687.339	-33.357	0.152	-0.085
-686.324	75.832	0.150	0.160
-685.310	21.817	0.164	-0.134
-684.295	-74.427	0.077	-0.028
-683.281	-52.379	-0.214	-0.100
-682.266	-70.986	-0.073	0.028
-681.251	56.236	-0.070	0.068
-680.237	-134.930	0.234	0.029
-679.222	259.347	-0.062	-0.108
-678.208	469.867	0.022	-0.050
-677.193	-49.215	-0.249	0.120
-676.178	800.000	-0.075	-0.252
-675.164	12.972	-0.264	0.205
-674.149	376.657	0.071	0.145
-673.135	-61.672	-0.236	0.100
-672.120	-160.976	0.141	0.007
-671.105	-200.000	-0.048	0.256
-670.091	783.178	-0.068	-0.188
-669.076	800.000	0.036	-0.142
-668.062	-25.690	0.156	-0.092
-667.047	484.508	-0.044	0.100
-666.032	-196.074	-0.153	0.001
-665.018	-80.861	-0.469	-0.156
-664.003	110.662	0.091	0.110
-662.989	-200.000	-0.008	-0.045
-661.974	-200.000	-0.032	-0.329
-660.959	534.836	0.035	0.082
-659.945	81.597	0.011	-0.012
-658.930	-107.381	-0.301	-0.067
-657.916	-90.272	0.387	-0.113
-656.901	529.115	-0.041	0.097
-655.886	-54.721	0.095	-0.043
-654.872	-164.820	0.222	0.010
-653.857	40.973	-0.189	-0.171
-652.843	89.154	0.038	-0.043
-651.828	800.000	-0.036	-0.140
-650.814	-52.396	0.054	-0.025
-649.799	-84.093	0.038	0.012
-648.784	-200.000	-0.027	-0.406
-647.770	606.661	0.113	-0.282
-646.755	-20.066	0.398	0.246
-645.741	800.000	-0.027	0.077
-644.726	-200.000	-0.001	0.066
-643.711	-200.000	-0.020	-0.152
-642.697	-75.434	0.044	0.016
-641.682	197.471	-0.059	-0.090
-640.668	61.898	-0.254	0.254
-639.653	469.485	0.044	-0.100
-638.638	141.999	0.175	-0.233
-637.624	-116.214	-0.413	-0.077
-636.609	183.161	-0.070	-0.103
-635.595	367.614	-0.141	-0.285
-634.580	0.468	-0.435	0.312
-633.565	-131.367	-0.072	-0.010
-632.551	-22.137	0.219	-0.133
-631.536	-36.118	-0.078	0.042
-630.522	29.243	0.232	-0.198
-629.507	569.309	-0.017	-0.042
-628.492	99.418	-0.028	0.032
-627.478	60.533	0.093	0.093
-626.463	10.796	-0.336	-0.257
-625.449	-108.821	-0.053	0.011
-624.434	-200.000	-0.036	0.242
-623.419	-40.802	-0.112	0.058
-622.405	-103.092	-0.079	-0.019
-621.390	144.809	-0.129	-0.173
-620.376	5.256	0.286	-0.212
-619.361	-26.880	-0.092	-0.054
-618.346	-65.136	-0.310	-0.125
-617.332	35.123	-0.019	0.017
-616.317	503.156	-0.144	0.333
-615.303	-128.477	0.182	-0.026
-614.288	64.698	-0.101	0.102
-613.273	-51.425	0.311	-0.146
-612.259	-200.000	0.014	-0.262
-611.244	-58.031	0.215	-0.094
-610.230	350.867	-0.011	-0.021
-609.215	-14.038	-0.070	0.045
-608.201	26.679	0.109	0.091
-607.186	-54.607	0.151	0.069
-606.171	476.604	-0.091	0.206
-605.157	93.709	-0.247	-0.280
-604.142	377.318	0.043	-0.087
-603.128	-8.313	-0.256	0.173
-602.113	197.872	0.232	-0.356
-601.098	800.000	-0.088	-0.282
-600.084	-200.000	-0.025	-0.200
-599.069	-28.629	0.260	0.150
-598.055	-200.000	0.002	-0.010
-597.040	-46.034	-0.211	-0.105
-596.025	-200.000	-0.018	0.107
-595.011	27.728	-0.230	0.194
-593.996	1.759	0.167	-0.120
-592.982	-96.797	-0.069	0.018
-591.967	673.003	0.099	-0.259
-590.952	-33.238	-0.373	-0.207
-589.938	-200.000	-0.016	0.244
-588.923	-121.547	0.242	-0.040
-587.909	158.961	0.120	0.168
-586.894	800.000	0.082	0.323
-585.879	19.976	0.115	-0.093
-584.865	374.374	-0.144	0.293
-583.850	291.589	0.039	-0.072
-582.836	153.907	-0.164	-0.226
-581.821	305.067	0.097	-0.181
-580.806	96.683	0.099	-0.114
-579.792	-69.858	-0.270	-0.103
-578.777	351.754	0.050	-0.098
-577.763	-200.000	-0.013	-0.137
-576.748	-102.405	-0.112	-0.027
-575.733	353.607	0.129	-0.256
-574.719	13.393	0.124	-0.097
-573.704	800.000	0.086	0.346
-572.690	-84.219	-0.230	-0.073
-571.675	-145.247	-0.094	-0.009
-570.661	-33.169	0.139	-0.077
-569.646	800.000	0.015	-0.044
-568.631	-139.303	0.069	0.007
-567.617	-200.000	0.032	0.150
-566.602	-76.256	0.032	0.011
-565.588	18.837	0.012	-0.010
-564.573	321.627	-0.054	-0.102
-563.558	-163.046	0.185	0.009
-562.544	-79.925	-0.066	-0.022
-561.529	141.025	0.121	-0.160
-560.515	-200.000	0.024	-0.140
-559.500	485.466	-0.052	0.119
-558.485	800.000	-0.063	-0.238
-557.471	-153.221	0.073	0.005
-556.456	90.545	-0.140	0.157
-555.442	151.050	-0.041	0.055
-554.427	204.124	0.018	-0.028
-553.412	-200.000	-0.017	-0.305
-552.398	-200.000	0.017	0.320
-551.383	34.056	0.095	-0.083
-550.369	362.371	0.040	0.081
-549.354	-25.620	0.027	0.016
-548.339	-200.000	0.022	0.139
-547.325	-147.669	0.126	0.011
-546.310	137.380	-0.190	0.248
-545.296	-21.487	-0.111	0.068
-544.281	-200.000	0.001	-0.281
-543.266	-34.569	-0.133	0.073
-542.252	123.912	-0.135	-0.169
-541.237	180.275	0.214	-0.313
-540.223	391.585	-0.046	0.096
-539.208	800.000	-0.039	0.154
-538.193	581.757	0.037	0.090
-537.179	66.654	-0.205	0.208
-536.164	-21.074	0.144	-0.088
-535.150	-133.281	0.197	-0.025
-534.135	-200.000	-0.005	0.050
-533.121	-200.000	0.062	-0.273
-532.106	-41.278	-0.284	-0.146
-531.091	-20.142	-0.357	-0.220
-530.077	-200.000	0.021	-0.124
-529.062	800.000	0.142	0.434
-528.048	-140.069	0.373	-0.039
-527.033	14.570	-0.109	-0.085
-526.018	-200.000	-0.032	-0.237
-525.004	397.812	-0.023	0.047
-523.989	56.227	0.147	0.143
-522.975	168.204	0.128	0.182
-521.960	107.054	-0.188	-0.223
-520.945	-102.642	-0.153	0.037
-519.931	11.709	0.265	-0.203
-518.916	-94.762	-0.167	-0.045
-517.902	-114.919	0.209	-0.040
-516.887	-200.000	-0.073	-0.000
-515.872	294.634	0.191	0.350
-514.858	-75.120	0.160	0.057
-513.843	483.946	0.085	-0.193
-512.829	99.609	0.066	0.076
-511.814	-57.233	-0.365	-0.161
-510.799	-51.555	0.167	-0.078
-509.785	554.978	0.158	-0.380
-508.770	-200.000	0.010	-0.060
-507.756	601.357	0.139	-0.344
-506.741	128.157	0.144	0.183
-505.726	-170.781	0.184	-0.006
-504.712	-69.740	-0.232	0.089
-503.697	-188.893	0.119	-0.001
-502.683	-200.000	-0.054	0.275
-501.668	-183.708	0.345	-0.006
-500.653	-200.000	-0.066	-0.297
-499.639	75.442	0.098	-0.103
-498.624	-66.423	0.168	-0.067
-497.610	-162.320	0.378	-0.019
-496.595	218.277	-0.031	0.049
-495.581	-56.433	-0.159	-0.070
-494.566	800.000	0.054	-0.204
-493.551	3.084	-0.236	0.171
-492.537	-44.281	0.053	-0.026
-491.522	354.464	-0.110	0.219
-490.508	31.613	-0.092	-0.079
-489.493	-27.450	0.156	0.091
-488.478	36.468	0.122	-0.108
-487.464	-33.300	0.075	-0.042
-486.449	-187.127	-0.092	0.001
-485.435	-22.111	0.278	0.169
-484.420	-97.465	-0.181	0.047
-483.405	800.000	-0.117	0.336
-482.391	-80.896	0.132	-0.044
-481.376	-139.039	0.146	-0.016
-480.362	688.003	0.132	0.345
-479.347	-116.586	0.098	0.018
-478.332	20.620	-0.245	0.198
-477.318	-200.000	-0.015	-0.270
-476.303	215.710	0.101	-0.160
-475.289	-19.823	0.246	0.152
-474.274	-116.185	0.032	-0.006
-473.259	-200.000	-0.011	0.167
-472.245	69.582	-0.178	-0.183
-471.230	-80.558	0.216	0.072
-470.216	94.061	0.116	-0.131
-469.201	800.000	-0.122	-0.353
-468.186	-9.231	0.049	-0.033
-467.172	-136.246	-0.187	-0.022
-466.157	69.217	-0.058	-0.060
-465.143	-34.138	0.153	0.084
-464.128	-113.432	-0.165	0.032
-463.113	800.000	0.041	0.167
-462.099	93.236	-0.248	0.280
-461.084	-112.826	-0.320	0.063
-460.070	-200.000	0.031	-0.207
-459.055	-16.456	-0.065	0.041
-458.040	104.559	-0.231	0.271
-457.026	-200.000	-0.022	-0.289
-456.011	228.359	-0.174	-0.282
-454.997	-200.000	-0.055	0.340
-453.982	75.870	-0.135	0.142
-452.968	441.482	0.020	0.043
-451.953	-14.271	-0.078	0.050
-450.938	-74.190	-0.264	0.095
-449.924	-200.000	0.025	-0.191
-448.909	-166.462	0.268	0.011
-447.895	-200.000	-0.045	0.200
-446.880	34.126	-0.104	-0.091
-445.865	-200.000	-0.043	0.213
-444.851	-45.076	-0.358	0.178
-443.836	-104.169	0.201	-0.047
-442.822	-67.997	-0.239	0.093
-441.807	-128.571	-0.180	0.025
-440.792	173.727	-0.317	0.456
-439.778	59.456	0.093	-0.091
-438.763	191.989	-0.178	0.268
-437.749	-144.824	0.212	-0.019
-436.734	-36.681	0.135	0.072
-435.719	-78.930	-0.162	-0.055
-434.705	-118.480	0.328	-0.058
-433.690	-44.284	-0.138	-0.069
-432.676	16.476	0.030	0.024
-431.661	800.000	0.009	-0.030
-430.646	-58.785	0.058	-0.025
-429.632	156.353	-0.023	0.032
-428.617	-58.398	0.323	0.140
-427.603	-114.106	-0.548	-0.106
-426.588	800.000	0.056	0.170
-425.573	252.144	0.056	0.095
-424.559	-135.947	-0.334	0.039
-423.544	12.222	-0.295	0.226
-422.530	-50.836	0.134	-0.063
-421.515	-200.000	-0.014	0.216
-420.500	-45.235	0.182	0.090
-419.486	-81.462	-0.148	-0.048
-418.471	264.980	0.031	0.054
-417.457	42.633	-0.229	0.208
-416.442	-10.436	0.187	0.123
-415.428	-200.000	-0.009	0.040
-414.413	116.763	-0.176	-0.215
-413.398	152.307	0.076	0.103
-412.384	-200.000	0.029	0.238
-411.369	716.552	-0.037	-0.099
-410.355	-200.000	0.010	0.058
-409.340	47.005	0.144	-0.133
-408.325	-74.612	0.205	-0.074
-407.311	-181.589	0.234	-0.005
-406.296	-44.914	-0.292	-0.145
-405.282	219.759	-0.049	-0.077
-404.267	494.255	-0.136	0.311
-403.252	-88.140	0.381	-0.114
-402.238	121.207	-0.083	-0.103
-401.223	-68.465	-0.366	-0.141
-400.209	473.329	0.141	0.316
-399.194	-149.872	-0.188	-0.015
-398.179	777.426	0.041	0.112
-397.165	-200.000	-0.015	0.093
-396.150	28.263	-0.301	-0.253
-395.136	-200.000	-0.046	-0.211
-394.121	646.341	0.125	-0.318
-393.106	-62.842	-0.215	-0.089
-392.092	-57.505	0.283	0.123
-391.077	64.761	0.248	0.249
-390.063	212.125	0.179	0.281
-389.048	765.970	-0.184	0.497
-388.033	110.880	0.231	0.276
-387.019	15.571	-0.273	0.213
-386.004	12.871	-0.120	0.092
-384.990	800.000	0.052	0.179
-383.975	-200.000	0.038	-0.181
-382.960	-140.666	0.262	-0.027
-381.946	26.976	0.396	-0.330
-380.931	-164.118	0.040	0.002
-379.917	-134.385	-0.194	-0.024
-378.902	526.595	-0.110	-0.258
-377.888	-200.000	-0.014	-0.087
-376.873	40.372	-0.149	-0.133
-375.858	-200.000	0.040	-0.321
-374.844	76.335	0.162	0.171
-373.829	222.702	0.123	0.197
-372.815	-36.812	-0.414	-0.221
-371.800	-77.738	0.153	0.053
-370.785	600.564	-0.090	-0.223
-369.771	270.475	-0.119	-0.208
-368.756	-200.000	0.058	0.284
-367.742	-78.038	0.356	-0.122
-366.727	-156.931	-0.145	-0.009
-365.712	224.657	0.168	-0.270
-364.698	-115.264	-0.220	0.041
-363.683	-139.389	0.270	0.029
-362.669	-137.304	0.374	0.042
-361.654	-104.597	-0.240	0.055
-360.639	800.000	-0.130	-0.420
-359.625	-106.945	-0.398	-0.088
-358.610	-200.000	0.011	0.386
-357.596	-18.284	0.363	-0.225
-356.581	31.262	0.286	-0.244
-355.566	-157.620	-0.051	0.003
-354.552	-31.964	0.199	0.111
-353.537	-200.000	0.030	0.260
-352.523	41.206	-0.150	-0.135
-351.508	32.199	0.180	0.154
-350.493	800.000	0.048	-0.176
-349.479	-45.887	0.153	0.075
-348.464	-39.244	-0.241	-0.126
-347.450	99.873	-0.135	0.155
-346.435	-62.880	-0.140	0.057
-345.420	-44.169	-0.182	-0.090
-344.406	-116.720	0.192	0.035
-343.391	800.000	-0.051	-0.182
-342.377	-200.000	-0.016	-0.469
-341.362	72.368	-0.081	-0.083
-340.348	612.382	-0.065	0.161
-339.333	28.662	-0.239	0.201
-338.318	19.340	-0.072	0.058
-337.304	129.988	0.072	-0.092
-336.289	800.000	-0.029	0.100
-335.275	800.000	0.089	-0.245
-334.260	66.845	0.156	-0.158
-333.245	180.161	-0.016	-0.023
-332.231	124.801	0.169	0.212
-331.216	800.000	-0.109	0.327
-330.202	800.000	0.081	0.309
-329.187	-53.020	-0.048	0.022
-328.172	800.000	0.039	-0.110
-327.158	-88.397	-0.196	-0.058
-326.143	800.000	0.079	0.323
-325.129	-23.970	0.184	0.109
-324.114	119.992	0.253	0.311
-323.099	78.603	0.219	0.233
-322.085	47.249	-0.219	0.202
-321.070	192.760	-0.099	-0.149
-320.056	-125.287	-0.220	-0.033
-319.041	-37.448	-0.112	-0.059
-318.026	-200.000	0.003	0.027
-317.012	-116.620	0.287	0.052
-315.997	352.937	0.120	-0.236
-314.983	19.447	0.132	0.105
-313.968	149.838	-0.197	-0.264
-312.953	121.545	0.141	-0.174
-311.939	800.000	0.033	0.129
-310.924	-111.903	0.081	0.016
-309.910	103.576	0.014	-0.017
-308.895	453.121	0.093	0.204
-307.880	-12.095	-0.113	0.073
-306.866	800.000	-0.038	-0.115
-305.851	-99.584	-0.306	0.076
-304.837	193.901	-0.116	0.173
-303.822	-105.486	-0.351	-0.079
-302.807	201.004	0.201	0.306
-301.793	-200.000	0.047	0.211
-300.778	-60.065	-0.088	-0.037
-299.764	727.862	0.084	-0.223
-298.749	-119.752	0.239	-0.041
-297.735	-14.091	0.218	0.139
-296.720	-83.780	-0.401	-0.127
-295.705	-72.601	0.319	0.117
-294.691	800.000	0.085	0.346
-293.676	-9.486	-0.285	0.188
-292.662	-152.530	0.285	0.020
-291.647	-61.427	-0.075	-0.031
-290.632	800.000	0.065	0.194
-289.618	-50.211	0.141	-0.066
-288.603	394.761	-0.184	0.380
-287.589	235.426	0.056	0.092
-286.574	-200.000	-0.003	-0.306
-285.559	247.227	-0.094	0.158
-284.545	-110.546	-0.123	0.025
-283.530	634.048	0.057	-0.143
-282.516	253.874	0.050	-0.085
-281.501	800.000	0.056	-0.174
-280.486	-139.780	-0.280	0.029
-279.472	-118.384	0.273	-0.048
-278.457	180.048	-0.143	0.208
-277.443	-148.082	-0.317	-0.026
-276.428	-200.000	0.028	-0.216
-275.413	-42.814	-0.277	-0.139
-274.399	-94.008	-0.102	0.028
-273.384	-28.389	-0.066	-0.038
-272.370	-115.409	-0.306	-0.057
-271.355	-45.879	0.259	0.127
-270.340	586.249	-0.079	0.192
-269.326	800.000	0.104	-0.305
-268.311	-168.636	-0.281	0.011
-267.297	-15.307	-0.188	0.119
-266.282	26.216	-0.127	-0.105
-265.267	-38.861	-0.188	0.098
-264.253	-200.000	-0.008	0.068
-263.238	-61.878	0.182	0.075
-262.224	212.422	-0.190	0.296
-261.209	17.335	0.294	0.231
-260.195	41.865	-0.072	0.064
-259.180	-82.496	0.507	0.163
-258.165	308.152	0.048	0.088
-257.151	62.801	0.190	0.188
-256.136	-119.211	-0.097	-0.017
-255.122	333.925	-0.073	-0.139
-254.107	371.440	0.129	0.259
-253.092	-69.329	0.360	0.137
-252.078	800.000	-0.038	0.119
-251.063	-164.337	-0.169	-0.008
-250.049	-200.000	0.009	-0.164
-249.034	-23.678	0.128	-0.076
-248.019	458.595	0.076	-0.168
-247.005	37.727	0.077	-0.068
-245.990	166.167	0.047	-0.066
-244.976	305.024	-0.105	0.194
-243.961	-63.065	0.245	0.100
-242.946	-199.287	-0.326	-0.002
-241.932	40.211	0.140	0.125
-240.917	301.523	0.059	-0.108
-239.903	800.000	0.052	0.183
-238.888	38.606	0.179	-0.157
-237.873	41.704	-0.123	-0.110
-236.859	-41.477	0.319	0.162
-235.844	-200.000	-0.040	-0.334
-234.830	94.029	0.235	-0.263
-233.815	70.498	0.150	0.153
-232.800	800.000	0.088	-0.299
-231.786	-93.925	0.185	0.050
-230.771	238.358	-0.092	0.151
-229.757	800.000	0.066	-0.205
-228.742	-188.056	-0.228	0.003
-227.727	-200.000	-0.008	-0.128
-226.713	800.000	-0.033	0.096
-225.698	577.064	0.057	-0.139
-224.684	-200.000	0.020	0.348
-223.669	-200.000	-0.012	-0.175
-222.655	-139.764	-0.153	0.016
-221.640	162.355	-0.364	0.505
-220.625	254.846	0.028	0.048
-219.611	-38.797	0.119	0.062
-218.596	-4.905	0.191	0.130
-217.582	-76.303	0.040	0.014
-216.567	176.141	-0.042	0.060
-215.552	-20.506	-0.110	-0.067
-214.538	-30.473	0.250	-0.140
-213.523	-1.875	0.229	0.159
-212.509	31.107	0.121	0.103
-211.494	299.181	-0.099	0.181
-210.479	196.460	0.179	-0.268
-209.465	129.270	-0.123	-0.155
-208.450	-200.000	0.039	0.215
-207.436	-200.000	-0.026	-0.243
-206.421	2.145	-0.092	-0.066
-205.406	167.517	-0.201	0.282
-204.392	-95.787	0.172	0.045
-203.377	-61.332	-0.098	0.041
-202.363	404.478	0.166	0.344
-201.348	396.698	0.022	0.046
-200.333	145.030	-0.231	-0.305
-199.319	-200.000	0.050	-0.393
-198.304	-35.655	0.066	0.035
-197.290	71.411	-0.331	-0.339
-196.275	-149.036	-0.259	-0.021
-195.260	-1.118	0.080	-0.056
-194.246	-60.000	0.271	0.114
-193.231	-163.570	-0.329	-0.015
-192.217	-94.804	-0.231	-0.062
-191.202	-200.000	0.019	0.530
-190.187	5.166	-0.243	0.177
-189.173	-200.000	-0.008	-0.098
-188.158	334.028	0.068	-0.131
-187.144	-200.000	-0.015	0.161
-186.129	-200.000	-0.007	-0.125
-185.114	-189.761	0.075	-0.001
-184.100	-60.646	0.124	-0.052
-183.085	107.632	-0.104	-0.123
-182.071	-43.274	0.317	-0.158
-181.056	106.852	0.109	-0.128
-180.042	800.000	0.059	-0.222
-179.027	152.830	0.117	-0.158
-178.012	-118.115	-0.152	0.027
-176.998	-116.789	-0.353	0.064
-175.983	-101.387	0.068	-0.016
-174.969	-200.000	0.012	-0.141
-173.954	-4.544	0.099	0.068
-172.939	-200.000	0.001	-0.197
-171.925	800.000	0.066	-0.255
-170.910	-77.057	0.433	-0.149
-169.896	-24.099	0.138	-0.081
-168.881	34.505	0.203	-0.175
-167.866	-16.045	0.090	-0.056
-166.852	288.197	-0.107	0.191
-165.837	800.000	0.072	0.223
-164.823	-64.378	-0.129	0.052
-163.808	-200.000	0.023	-0.145
-162.793	-33.063	-0.124	-0.068
-161.779	-200.000	-0.011	-0.070
-160.764	800.000	-0.085	-0.345
-159.750	-32.395	-0.212	0.117
-158.735	135.591	0.033	-0.042
-157.720	149.792	0.074	0.098
-156.706	-190.704	0.230	0.002
-155.691	-45.728	-0.140	-0.068
-154.677	610.190	-0.098	0.242
-153.662	480.737	0.074	0.166
-152.647	-200.000	-0.005	0.127
-151.633	800.000	0.072	-0.245
-150.618	-200.000	-0.005	-0.026
-149.604	-200.000	-0.000	0.222
-148.589	-160.863	0.223	0.012
-147.574	-55.058	-0.400	-0.177
-146.560	41.714	-0.113	0.101
-145.545	194.703	0.146	0.218
-144.531	278.501	0.142	0.249
-143.516	800.000	-0.056	0.209
-142.502	-1.092	0.121	-0.084
-141.487	166.139	0.177	0.246
-140.472	147.632	0.047	0.062
-139.458	800.000	-0.073	-0.209
-138.443	-200.000	0.005	-0.076
-137.429	117.272	0.230	0.278
-136.414	800.000	-0.066	0.195
-135.399	477.032	-0.109	0.243
-134.385	0.952	0.172	-0.121
-133.370	-144.791	-0.066	-0.006
-132.356	800.000	0.027	0.097
-131.341	-200.000	-0.005	-0.325
-130.326	-104.111	-0.341	0.078
-129.312	-93.541	0.041	-0.011
-128.297	-42.669	-0.113	-0.056
-127.283	67.430	-0.037	0.038
-126.268	87.773	0.090	-0.098
-125.253	-85.435	0.138	-0.042
-124.239	-200.000	-0.020	-0.108
-123.224	800.000	-0.095	0.274
-122.210	-177.924	-0.538	0.013
-121.195	33.584	-0.184	0.158
