DTS Sentinel unit serial number:	SN413079Multiplexer serial number:	ORYXHardware model number:	OX4-SRSoftware version number:	ORYX F/W v4.00 Oryx Data Collector v3.7.2.0data status	okinstallation	princeton_trtdifferential loss correction	single-endedforward channel	channel 3reverse channel	N/Adate	2019/09/16time	01:32:35forward acquisition time	60.00reverse acquisition time	0.00gamma	496.2192k internal	0.2337k external	0.2337temperature offset calibration	0.9951default loss term (dB/km)	0.3790temperature slope calibration	1.0000multiplexer offset coefficient	1.0000multiplexer slope coefficient	1.0000fibre end	0.00T internal ref (°C)	27.31T ext. ref 1 (°C)	9.93T ext. ref 2 (°C)	22.08length (m)	temperature (°C)	Stokes	anti-Stokes-747.200	-200.000	-0.010	0.087
-746.185	-200.000	-0.009	0.470
-745.171	47.126	0.208	0.194
-744.156	157.934	-0.187	0.260
-743.142	547.557	-0.149	-0.358
-742.127	-89.744	0.059	0.017
-741.112	-68.417	0.308	-0.120
-740.098	-117.425	-0.430	0.078
-739.083	183.150	0.078	-0.116
-738.069	75.506	0.287	0.304
-737.054	-162.302	0.135	-0.007
-736.039	528.568	-0.091	-0.215
-735.025	-150.900	0.083	-0.006
-734.010	134.764	-0.255	-0.332
-732.996	388.374	-0.121	-0.251
-731.981	-95.393	0.383	-0.103
-730.966	139.381	-0.237	-0.313
-729.952	498.671	0.038	0.087
-728.937	-200.000	0.001	-0.080
-727.923	-46.786	-0.214	-0.105
-726.908	-170.432	0.260	0.009
-725.894	-158.118	-0.557	0.033
-724.879	6.649	0.108	0.080
-723.864	800.000	-0.042	0.153
-722.850	800.000	-0.016	-0.047
-721.835	-200.000	0.388	0.001
-720.821	-200.000	0.046	0.285
-719.806	-200.000	-0.039	-0.550
-718.791	-200.000	-0.016	-0.080
-717.777	124.799	-0.092	-0.117
-716.762	10.458	-0.184	-0.140
-715.748	-66.695	-0.097	-0.038
-714.733	-200.000	0.043	0.204
-713.718	253.473	0.232	-0.398
-712.704	257.339	0.046	-0.079
-711.689	-34.707	-0.018	0.010
-710.675	-151.333	-0.194	-0.014
-709.660	-167.540	-0.098	-0.004
-708.645	800.000	0.111	0.340
-707.631	-79.018	0.317	-0.108
-706.616	151.158	0.277	0.378
-705.602	78.931	-0.203	0.218
-704.587	-200.000	0.031	0.140
-703.572	800.000	0.057	0.186
-702.558	-200.000	0.011	-0.097
-701.543	800.000	-0.072	-0.210
-700.529	-189.147	0.331	-0.004
-699.514	-28.581	-0.299	-0.172
-698.499	-91.913	0.228	0.065
-697.485	-166.675	0.448	-0.019
-696.470	-81.142	-0.145	-0.048
-695.456	-43.452	0.127	0.064
-694.441	-200.000	0.023	0.158
-693.426	800.000	0.054	-0.178
-692.412	264.129	0.154	-0.268
-691.397	287.479	0.129	-0.234
-690.383	-97.221	-0.257	0.067
-689.368	-126.717	0.136	0.020
-688.354	9.435	-0.221	-0.168
-687.339	33.183	0.257	0.223
-686.324	-41.720	-0.257	-0.132
-685.310	-200.000	-0.043	-0.204
-684.295	7.071	0.247	-0.185
-683.281	305.008	0.176	-0.328
-682.266	-31.905	0.116	0.065
-681.251	385.991	-0.106	-0.218
-680.237	-128.154	0.184	0.026
-679.222	41.337	0.287	-0.260
-678.208	113.591	0.142	-0.172
-677.193	-64.175	-0.150	0.061
-676.178	93.993	0.130	-0.148
-675.164	-105.606	0.441	-0.100
-674.149	-181.158	-0.167	0.003
-673.135	-200.000	-0.050	-0.267
-672.120	132.059	0.136	0.176
-671.105	800.000	0.104	-0.381
-670.091	64.483	-0.262	0.264
-669.076	7.152	-0.216	0.161
-668.062	-27.610	-0.289	0.168
-667.047	98.269	-0.067	-0.078
-666.032	69.250	0.091	-0.093
-665.018	-181.317	0.333	-0.007
-664.003	287.671	-0.143	-0.258
-662.989	-9.690	-0.046	-0.030
-661.974	582.084	-0.092	-0.226
-660.959	-187.224	0.302	0.004
-659.945	469.659	-0.188	-0.422
-658.930	-100.035	0.110	-0.028
-657.916	-40.582	0.317	0.164
-656.901	-200.000	0.007	-0.058
-655.886	456.996	0.101	-0.224
-654.872	252.656	0.136	-0.232
-653.857	24.810	-0.073	-0.061
-652.843	-200.000	-0.035	-0.246
-651.828	129.476	-0.158	0.202
-650.814	46.099	0.123	0.114
-649.799	-18.494	0.042	-0.026
-648.784	-5.829	0.019	-0.013
-647.770	216.062	-0.121	0.192
-646.755	306.889	0.140	-0.260
-645.741	800.000	0.016	0.049
-644.726	-95.327	-0.123	0.033
-643.711	241.829	-0.082	0.137
-642.697	-172.243	0.114	0.004
-641.682	-193.325	0.413	0.004
-640.668	-109.152	-0.226	0.048
-639.653	-127.425	-0.250	0.036
-638.638	39.128	0.209	0.187
-637.624	800.000	0.121	-0.344
-636.609	228.418	-0.080	-0.130
-635.595	-46.302	0.090	-0.044
-634.580	-105.886	-0.047	0.011
-633.565	184.742	-0.179	-0.265
-632.551	-38.433	-0.139	-0.073
-631.536	236.246	0.137	-0.226
-630.522	-79.430	-0.193	0.065
-629.507	-91.552	-0.215	0.061
-628.492	-177.365	-0.279	-0.007
-627.478	-200.000	-0.004	0.469
-626.463	-200.000	0.018	-0.141
-625.449	67.249	0.162	0.165
-624.434	39.707	0.204	-0.183
-623.419	35.225	-0.215	0.188
-622.405	-72.776	-0.069	0.025
-621.390	-103.347	0.395	-0.093
-620.376	-49.281	-0.185	-0.088
-619.361	-58.740	-0.180	-0.078
-618.346	-4.428	-0.353	-0.244
-617.332	-152.462	0.419	0.030
-616.317	-6.863	0.109	-0.074
-615.303	800.000	0.096	-0.313
-614.288	59.220	0.366	0.359
-613.273	-200.000	-0.016	0.158
-612.259	183.086	-0.075	0.110
-611.244	166.763	0.077	0.108
-610.230	-109.787	-0.287	-0.060
-609.215	-200.000	0.073	-0.407
-608.201	800.000	-0.093	-0.277
-607.186	-57.621	0.107	0.047
-606.171	26.120	-0.034	-0.029
-605.157	-39.276	0.239	-0.125
-604.142	-43.902	-0.187	0.094
-603.128	800.000	0.035	-0.107
-602.113	89.827	-0.176	0.196
-601.098	90.856	-0.195	0.218
-600.084	438.161	0.075	-0.163
-599.069	-167.275	0.260	-0.010
-598.055	-200.000	-0.037	-0.278
-597.040	-200.000	0.030	0.270
-596.025	-144.711	0.235	-0.022
-595.011	-149.998	0.094	0.007
-593.996	-200.000	-0.022	0.157
-592.982	-38.879	-0.089	-0.047
-591.967	-200.000	0.023	-0.207
-590.952	93.769	-0.162	-0.183
-589.938	-195.918	-0.035	0.000
-588.923	-200.000	-0.002	-0.072
-587.909	-14.392	0.069	0.044
-586.894	32.256	0.034	-0.029
-585.879	205.025	-0.188	0.291
-584.865	-67.338	-0.331	0.130
-583.850	68.115	0.186	-0.190
-582.836	-71.081	0.130	-0.049
-581.821	651.480	-0.073	0.187
-580.806	321.194	0.110	0.209
-579.792	131.280	-0.116	0.149
-578.777	25.464	0.099	-0.082
-577.763	-35.478	-0.068	0.037
-576.748	-132.299	-0.164	-0.021
-575.733	-83.564	0.082	0.026
-574.719	63.318	0.196	0.195
-573.704	-88.021	-0.283	0.085
-572.690	59.631	-0.286	0.281
-571.675	-21.973	0.135	0.082
-570.661	-86.155	-0.416	0.128
-569.646	284.691	-0.041	0.074
-568.631	-200.000	-0.041	0.219
-567.617	-122.390	-0.449	-0.073
-566.602	789.551	0.017	-0.047
-565.588	-10.622	0.128	-0.084
-564.573	-200.000	-0.058	-0.306
-563.558	-39.653	-0.105	0.055
-562.544	-103.839	-0.405	-0.094
-561.529	339.485	-0.123	-0.239
-560.515	69.227	0.166	-0.170
-559.500	106.734	-0.066	0.078
-558.485	114.127	-0.052	-0.063
-557.471	53.035	0.190	0.181
-556.456	-91.715	-0.115	0.033
-555.442	150.252	0.107	0.145
-554.427	-28.726	0.275	-0.158
-553.412	32.445	-0.176	0.151
-552.398	-38.846	0.153	-0.080
-551.383	30.499	-0.057	-0.048
-550.369	94.590	-0.149	-0.168
-549.354	383.406	0.047	0.096
-548.339	800.000	-0.042	0.151
-547.325	-60.904	-0.151	0.064
-546.310	-200.000	0.031	-0.159
-545.296	-129.741	-0.484	-0.066
-544.281	33.954	-0.356	0.309
-543.266	150.102	0.103	0.140
-542.252	45.920	-0.325	-0.300
-541.237	-139.640	0.370	0.039
-540.223	-200.000	0.009	0.078
-539.208	800.000	0.061	-0.225
-538.193	-94.140	0.258	0.070
-537.179	59.170	-0.092	0.090
-536.164	389.180	-0.097	0.201
-535.150	177.950	-0.118	-0.171
-534.135	582.566	-0.059	-0.145
-533.121	217.353	0.073	-0.116
-532.106	-200.000	-0.007	-0.211
-531.091	33.175	0.094	0.081
-530.077	417.273	0.143	0.304
-529.062	62.336	0.132	-0.132
-528.048	-83.832	0.286	0.091
-527.033	341.762	-0.083	0.161
-526.018	800.000	0.030	-0.114
-525.004	314.270	-0.068	0.128
-523.989	319.980	0.085	-0.161
-522.975	-76.933	-0.072	-0.025
-521.960	-200.000	-0.028	-0.271
-520.945	135.479	-0.142	-0.184
-519.931	800.000	-0.077	-0.212
-518.916	800.000	0.024	-0.076
-517.902	38.840	-0.099	-0.088
-516.887	-156.046	0.482	-0.030
-515.872	-103.944	-0.205	-0.048
-514.858	800.000	-0.024	-0.088
-513.843	-1.613	-0.135	-0.094
-512.829	-160.341	-0.032	0.002
-511.814	-200.000	0.035	0.482
-510.799	212.249	-0.173	0.272
-509.785	101.122	-0.109	-0.126
-508.770	-148.613	0.146	0.012
-507.756	174.606	-0.208	0.299
-506.741	32.701	-0.230	-0.198
-505.726	733.328	0.116	0.309
-504.712	-200.000	-0.009	-0.222
-503.697	-200.000	-0.007	0.132
-502.683	130.639	-0.095	0.122
-501.668	-200.000	0.018	-0.204
-500.653	-27.433	0.184	0.107
-499.639	342.797	-0.103	0.200
-498.624	43.203	0.150	-0.136
-497.610	30.385	0.135	0.115
-496.595	736.417	0.022	-0.059
-495.581	354.659	-0.030	-0.059
-494.566	-200.000	-0.027	0.144
-493.551	-175.752	0.052	0.001
-492.537	-104.423	-0.225	0.052
-491.522	-132.521	0.107	0.014
-490.508	-200.000	-0.033	0.179
-489.493	-93.149	0.161	-0.044
-488.478	-168.063	-0.401	0.016
-487.464	-148.017	-0.041	-0.003
-486.449	14.507	-0.023	0.018
-485.435	609.684	0.079	-0.195
-484.420	800.000	0.069	-0.237
-483.405	-102.453	0.453	-0.108
-482.391	43.388	0.190	0.173
-481.376	-57.381	0.283	-0.124
-480.362	41.800	-0.140	-0.126
-479.347	2.484	-0.030	-0.022
-478.332	-200.000	-0.005	0.166
-477.318	-55.538	-0.076	-0.034
-476.303	800.000	0.089	0.331
-475.289	-56.006	-0.190	0.084
-474.274	800.000	-0.029	-0.105
-473.259	137.090	-0.266	-0.345
-472.245	-128.695	0.414	-0.058
-471.230	289.404	-0.155	0.280
-470.216	-2.509	-0.235	-0.163
-469.201	-26.666	-0.073	-0.043
-468.186	800.000	0.015	0.065
-467.172	-200.000	0.009	-0.250
-466.157	-200.000	0.014	-0.146
-465.143	-200.000	0.019	0.363
-464.128	173.605	-0.108	-0.155
-463.113	-200.000	-0.044	-0.354
-462.099	-200.000	0.005	-0.079
-461.084	-200.000	0.081	-0.378
-460.070	-96.047	0.291	0.077
-459.055	-120.205	-0.144	0.024
-458.040	-77.684	-0.195	-0.067
-457.026	-11.553	0.308	0.201
-456.011	800.000	0.070	0.216
-454.997	-70.687	0.060	0.022
-453.982	-56.319	0.257	0.113
-452.968	-200.000	0.007	0.216
-451.953	800.000	0.043	-0.120
-450.938	435.999	0.115	-0.247
-449.924	-46.587	0.035	-0.017
-448.909	-123.054	0.193	-0.031
-447.895	67.040	0.131	0.133
-446.880	-89.410	0.119	0.035
-445.865	-200.000	-0.018	-0.336
-444.851	-200.000	-0.033	-0.152
-443.836	130.812	-0.286	0.364
-442.822	-140.032	-0.303	0.032
-441.807	-29.089	-0.115	0.066
-440.792	-184.999	0.263	-0.004
-439.778	188.660	-0.066	-0.098
-438.763	555.462	0.077	0.185
-437.749	-200.000	0.012	-0.056
-436.734	-113.395	-0.155	0.030
-435.719	-200.000	0.091	-0.402
-434.705	-136.310	-0.080	0.009
-433.690	-53.605	-0.390	-0.177
-432.676	100.342	-0.053	-0.060
-431.661	-83.643	-0.296	-0.094
-430.646	800.000	0.052	0.182
-429.632	52.866	-0.062	-0.059
-428.617	-200.000	-0.006	0.058
-427.603	277.274	-0.048	-0.085
-426.588	-93.776	0.181	-0.049
-425.573	-105.530	-0.310	-0.070
-424.559	-91.168	-0.277	0.079
-423.544	-200.000	0.041	-0.214
-422.530	-13.732	-0.009	0.006
-421.515	144.633	0.264	-0.349
-420.500	79.632	-0.061	-0.065
-419.486	196.525	0.179	0.270
-418.471	16.213	-0.249	-0.195
-417.457	143.902	0.086	-0.113
-416.442	362.630	-0.096	-0.191
-415.428	280.302	0.131	-0.233
-414.413	-88.128	0.203	-0.060
-413.398	-200.000	0.032	-0.247
-412.384	-200.000	0.030	-0.338
-411.369	-71.332	0.155	0.058
-410.355	690.390	0.105	-0.272
-409.340	-96.479	-0.287	-0.075
-408.325	-190.935	-0.205	0.002
-407.311	130.594	0.078	0.099
-406.296	-200.000	-0.015	0.072
-405.282	24.586	-0.134	0.110
-404.267	-143.803	0.270	0.025
-403.252	-115.414	0.131	-0.024
-402.238	-178.206	0.168	0.004
-401.223	312.236	-0.101	0.188
-400.209	-71.775	-0.314	-0.116
-399.194	-200.000	0.044	0.243
-398.179	-86.141	0.239	0.073
-397.165	-200.000	0.027	0.167
-396.150	-200.000	0.046	-0.387
-395.136	-200.000	0.057	-0.278
-394.121	800.000	0.152	0.421
-393.106	-71.187	-0.253	0.094
-392.092	341.399	-0.062	0.119
-391.077	3.407	0.214	0.154
-390.063	-3.753	0.300	-0.206
-389.048	-200.000	0.070	0.440
-388.033	-200.000	0.026	0.144
-387.019	-157.237	0.519	0.031
-386.004	137.936	-0.072	0.093
-384.990	88.757	0.310	0.342
-383.975	-135.901	-0.235	0.027
-382.960	800.000	0.046	0.165
-381.946	-72.426	0.081	0.030
-380.931	612.121	-0.094	-0.234
-379.917	800.000	-0.112	-0.316
-378.902	736.519	-0.082	-0.217
-377.888	-20.527	0.140	-0.085
-376.873	326.873	-0.129	-0.245
-375.858	-200.000	0.078	-0.352
-374.844	68.165	-0.088	0.089
-373.829	38.598	-0.035	0.031
-372.815	-23.160	0.142	0.085
-371.800	-120.630	-0.170	-0.028
-370.785	-73.409	0.226	0.082
-369.771	-89.390	-0.043	-0.012
-368.756	-59.731	-0.205	-0.087
-367.742	7.474	-0.197	-0.146
-366.727	-200.000	0.057	-0.325
-365.712	-76.009	0.212	-0.074
-364.698	-19.388	0.082	0.050
-363.683	2.476	0.147	-0.105
-362.669	10.169	-0.320	0.240
-361.654	448.176	0.102	-0.222
-360.639	-116.425	0.260	0.047
-359.625	472.870	-0.086	0.191
-358.610	-168.964	-0.259	0.010
-357.596	-67.687	0.185	0.072
-356.581	-133.161	0.091	0.011
-355.566	-45.591	0.167	0.082
-354.552	66.262	0.241	-0.242
-353.537	-200.000	-0.059	-0.354
-352.523	-178.432	0.215	-0.005
-351.508	448.925	-0.036	0.078
-350.493	-116.329	-0.149	-0.027
-349.479	70.963	-0.187	0.191
-348.464	-200.000	0.004	0.031
-347.450	245.170	-0.050	-0.084
-346.435	800.000	0.015	0.062
-345.420	66.010	0.098	0.099
-344.406	-200.000	0.003	0.200
-343.391	149.588	0.234	-0.314
-342.377	800.000	-0.047	-0.157
-341.362	-200.000	0.003	0.021
-340.348	-34.509	-0.244	0.132
-339.333	-104.827	0.255	-0.058
-338.318	122.678	0.055	0.068
-337.304	-19.983	0.141	-0.086
-336.289	71.807	-0.040	-0.041
-335.275	730.239	0.067	0.177
-334.260	-148.716	0.149	-0.012
-333.245	478.711	0.051	0.115
-332.231	-200.000	-0.021	0.310
-331.216	-200.000	-0.022	0.463
-330.202	-44.763	-0.231	0.114
-329.187	112.538	-0.153	0.183
-328.172	-41.651	-0.166	0.084
-327.158	-200.000	-0.017	-0.192
-326.143	-16.324	-0.197	-0.123
-325.129	800.000	-0.112	0.430
-324.114	-156.259	-0.111	-0.007
-323.099	772.154	0.057	0.154
-322.085	-54.059	0.228	-0.103
-321.070	-200.000	-0.066	0.329
-320.056	-200.000	-0.002	0.193
-319.041	99.377	0.025	-0.029
-318.026	361.585	0.095	0.188
-317.012	12.453	0.061	0.047
-315.997	712.839	-0.052	-0.137
-314.983	66.224	-0.094	-0.094
-313.968	11.272	-0.393	-0.297
-312.953	-70.566	0.183	-0.068
-311.939	800.000	-0.023	-0.082
-310.924	800.000	0.050	-0.142
-309.910	-147.452	0.207	-0.017
-308.895	147.481	-0.261	-0.347
-307.880	109.036	0.246	-0.291
-306.866	-107.174	0.162	-0.035
-305.851	-58.874	-0.129	-0.055
-304.837	89.005	-0.115	0.126
-303.822	-17.768	-0.223	0.138
-302.807	793.786	0.113	0.306
-301.793	39.013	0.086	0.076
-300.778	-31.790	-0.334	0.185
-299.764	-61.972	0.291	0.120
-298.749	-28.087	-0.134	-0.076
-297.735	692.864	-0.032	-0.082
-296.720	-61.743	0.249	-0.103
-295.705	255.898	0.189	-0.320
-294.691	-96.509	0.074	-0.019
-293.676	-159.032	-0.444	-0.025
-292.662	347.016	-0.045	-0.088
-291.647	5.319	0.126	0.092
-290.632	-200.000	0.027	-0.168
-289.618	-200.000	0.037	0.281
-288.603	-200.000	0.044	0.345
-287.589	230.321	-0.199	-0.321
-286.574	-9.778	-0.250	-0.164
-285.559	402.339	0.112	0.233
-284.545	20.908	0.251	0.201
-283.530	0.140	-0.174	-0.122
-282.516	158.783	0.026	0.036
-281.501	-131.441	-0.123	0.016
-280.486	194.918	-0.171	0.256
-279.472	150.884	0.096	0.128
-278.457	216.693	0.081	0.127
-277.443	-34.658	0.251	0.135
-276.428	259.866	-0.078	-0.132
-275.413	-99.536	0.422	-0.105
-274.399	1.431	-0.194	-0.137
-273.384	-28.333	0.201	-0.114
-272.370	-200.000	-0.061	-0.381
-271.355	-200.000	0.005	-0.190
-270.340	-137.704	0.197	-0.022
-269.326	445.009	-0.099	0.214
-268.311	128.499	-0.115	0.144
-267.297	-74.441	0.160	0.057
-266.282	-184.312	-0.196	0.003
-265.267	-132.727	0.029	-0.004
-264.253	567.890	0.177	-0.423
-263.238	800.000	0.080	-0.238
-262.224	161.350	0.145	-0.199
-261.209	547.573	0.145	-0.342
-260.195	-84.267	-0.125	0.039
-259.180	-79.606	-0.194	-0.064
-258.165	-200.000	-0.007	0.090
-257.151	-200.000	-0.271	0.001
-256.136	172.771	-0.124	-0.176
-255.122	800.000	-0.055	0.226
-254.107	115.540	0.036	0.044
-253.092	-13.475	0.252	0.161
-252.078	100.039	-0.203	0.231
-251.063	162.802	-0.297	0.411
-250.049	9.786	0.271	0.202
-249.034	-88.683	0.276	-0.081
-248.019	-87.101	0.224	0.067
-247.005	-55.183	0.055	0.024
-245.990	-7.925	-0.338	0.224
-244.976	234.390	-0.117	0.190
-243.961	-131.980	-0.037	0.005
-242.946	-106.669	0.263	0.058
-241.932	160.150	-0.061	0.084
-240.917	-37.552	0.118	0.062
-239.903	31.482	-0.162	-0.137
-238.888	87.710	-0.024	0.026
-237.873	-57.406	-0.234	0.101
-236.859	50.868	0.204	0.190
-235.844	147.815	-0.192	0.255
-234.830	-47.988	0.143	0.068
-233.815	3.844	0.191	0.137
-232.800	112.382	0.050	0.059
-231.786	800.000	0.083	0.241
-230.771	130.780	-0.239	-0.302
-229.757	56.558	0.372	-0.356
-228.742	-200.000	0.001	0.012
-227.727	800.000	-0.144	-0.408
-226.713	-97.925	0.200	0.051
-225.698	117.895	-0.163	0.197
-224.684	786.474	-0.111	0.299
-223.669	800.000	0.035	-0.135
-222.655	-5.521	0.183	-0.124
-221.640	265.257	-0.107	-0.184
-220.625	351.349	0.085	-0.166
-219.611	-200.000	-0.034	0.178
-218.596	-99.828	-0.266	-0.065
-217.582	273.248	0.070	0.121
-216.567	69.679	-0.143	0.145
-215.552	-128.886	0.282	-0.039
-214.538	199.953	0.051	0.078
-213.523	800.000	0.031	0.107
-212.509	24.489	-0.164	-0.133
-211.494	-5.919	-0.238	0.160
-210.479	-8.230	-0.253	-0.167
-209.465	79.447	0.227	-0.239
-208.450	49.196	0.155	-0.143
-207.436	-109.151	-0.199	-0.041
-206.421	-16.557	0.082	-0.051
-205.406	37.458	-0.227	-0.198
-204.392	-48.848	-0.068	-0.032
-203.377	-142.459	0.352	0.034
-202.363	680.553	0.091	0.233
-201.348	388.786	0.091	-0.185
-200.333	-200.000	0.027	0.274
-199.319	447.962	-0.077	0.167
-198.304	117.089	0.140	0.169
-197.290	-200.000	0.004	0.558
-196.275	-13.880	0.062	0.040
-195.260	90.130	0.149	-0.164
-194.246	-40.952	0.266	0.135
-193.231	327.885	0.068	-0.129
-192.217	79.347	0.114	0.120
-191.202	-153.285	0.289	0.020
-190.187	-85.235	0.163	0.050
-189.173	-45.075	0.353	-0.173
-188.158	299.360	0.151	0.273
-187.144	-109.120	-0.246	-0.051
-186.129	322.412	0.037	-0.070
-185.114	-31.341	-0.203	-0.112
-184.100	-137.667	0.263	0.029
-183.085	115.622	0.176	0.211
-182.071	-68.022	0.100	-0.038
-181.056	-46.927	0.428	-0.205
-180.042	800.000	-0.066	0.267
-179.027	800.000	0.053	-0.166
-178.012	-13.324	0.027	0.017
-176.998	614.724	-0.076	-0.186
-175.983	0.533	-0.106	-0.074
-174.969	-200.000	-0.003	-0.137
-173.954	119.004	0.081	-0.098
-172.939	-54.065	-0.294	-0.131
-171.925	-116.308	0.554	-0.101
-170.910	407.769	-0.241	0.500
-169.896	-18.331	0.116	-0.071
-168.881	-80.296	-0.088	-0.029
-167.866	-200.000	0.023	0.110
-166.852	-70.706	-0.143	0.053
-165.837	800.000	-0.078	-0.218
-164.823	-200.000	0.029	0.364
-163.808	-200.000	0.035	-0.362
-162.793	584.228	0.022	-0.052
-161.779	51.831	-0.100	-0.093
-160.764	-21.605	-0.431	0.258
-159.750	-31.820	-0.221	-0.121
-158.735	275.333	-0.151	0.263
-157.720	-114.643	0.225	-0.042
-156.706	39.190	0.299	0.262
-155.691	-119.688	-0.199	0.034
-154.677	14.651	-0.269	0.206
-153.662	-88.060	-0.232	0.068
-152.647	-62.200	-0.238	0.097
-151.633	-74.805	-0.119	-0.042
-150.618	257.003	0.214	0.361
-149.604	363.262	0.183	-0.360
-148.589	582.507	0.017	-0.041
-147.574	-60.233	0.134	0.056
-146.560	228.228	0.105	0.167
-145.545	800.000	0.035	0.118
-144.531	232.943	-0.102	0.165
-143.516	-33.034	0.101	-0.055
-142.502	-27.295	-0.211	0.121
-141.487	-200.000	0.060	-0.270
-140.472	290.968	-0.102	-0.182
-139.458	-105.994	-0.275	-0.061
-138.443	133.304	-0.189	0.240
-137.429	-42.445	0.154	-0.077
-136.414	-71.417	0.105	0.038
-135.399	-200.000	-0.018	0.193
-134.385	-200.000	0.016	-0.107
-133.370	-132.048	0.395	-0.050
-132.356	130.545	0.218	0.274
-131.341	-200.000	0.037	0.232
-130.326	-84.820	0.230	0.071
-129.312	-101.265	0.199	0.048
-128.297	-200.000	0.021	0.322
-127.283	-46.051	0.146	0.070
-126.268	800.000	0.061	0.209
-125.253	11.701	0.063	-0.048
-124.239	-151.331	-0.377	0.028
-123.224	-144.309	-0.110	0.010
-122.210	-200.000	-0.034	-0.270
-121.195	-120.084	0.132	-0.022
