DTS Sentinel unit serial number:	SN413079Multiplexer serial number:	ORYXHardware model number:	OX4-SRSoftware version number:	ORYX F/W v4.00 Oryx Data Collector v3.7.2.0data status	okinstallation	princeton_trtdifferential loss correction	single-endedforward channel	channel 3reverse channel	N/Adate	2019/09/16time	20:20:34forward acquisition time	60.00reverse acquisition time	0.00gamma	496.2192k internal	0.2323k external	0.2323temperature offset calibration	0.9937default loss term (dB/km)	0.3790temperature slope calibration	1.0000multiplexer offset coefficient	1.0000multiplexer slope coefficient	1.0000fibre end	0.00T internal ref (°C)	32.86T ext. ref 1 (°C)	0.09T ext. ref 2 (°C)	26.66length (m)	temperature (°C)	Stokes	anti-Stokes-747.200	-200.000	0.032	0.185
-746.185	-106.202	-0.300	-0.068
-745.171	52.374	0.198	0.191
-744.156	800.000	0.095	0.270
-743.142	92.826	-0.202	-0.231
-742.127	147.315	0.128	0.174
-741.112	146.330	-0.018	0.025
-740.098	332.368	-0.187	0.364
-739.083	-104.570	-0.306	0.071
-738.069	800.000	-0.070	0.207
-737.054	-200.000	-0.068	-0.305
-736.039	-11.396	-0.200	-0.133
-735.025	63.365	-0.085	0.086
-734.010	406.788	-0.169	-0.360
-732.996	167.540	-0.167	-0.240
-731.981	338.126	-0.147	-0.289
-730.966	-200.000	-0.027	0.171
-729.952	-185.817	0.240	-0.004
-728.937	-200.000	0.024	-0.337
-727.923	-92.724	-0.119	-0.034
-726.908	-41.786	0.195	0.101
-725.894	-120.544	-0.185	-0.032
-724.879	56.097	-0.354	-0.347
-723.864	-200.000	-0.091	-0.449
-722.850	-31.635	-0.124	-0.070
-721.835	-0.608	-0.151	-0.108
-720.821	-38.806	-0.184	0.098
-719.806	-152.917	0.115	-0.008
-718.791	-200.000	0.035	-0.369
-717.777	73.060	0.081	-0.086
-716.762	17.274	-0.091	0.073
-715.748	-119.982	0.138	0.024
-714.733	170.363	-0.100	0.145
-713.718	800.000	0.036	-0.109
-712.704	-53.721	0.145	0.067
-711.689	288.247	-0.070	-0.128
-710.675	65.306	-0.033	-0.034
-709.660	85.205	-0.117	-0.129
-708.645	59.636	0.158	0.157
-707.631	-67.609	-0.216	0.085
-706.616	-102.109	0.188	-0.046
-705.602	-200.000	0.029	-0.161
-704.587	-95.284	-0.423	0.115
-703.572	-125.328	0.324	0.050
-702.558	-200.000	-0.025	0.207
-701.543	26.525	0.118	-0.099
-700.529	-149.701	0.206	0.016
-699.514	-117.020	-0.335	0.062
-698.499	-200.000	0.035	0.267
-697.485	-200.000	0.000	-0.027
-696.470	-47.147	-0.061	-0.030
-695.456	-172.314	-0.527	-0.017
-694.441	-200.000	0.011	-0.150
-693.426	-200.000	0.031	-0.150
-692.412	-128.080	0.671	0.097
-691.397	-200.000	-0.023	-0.168
-690.383	-200.000	-0.022	0.183
-689.368	636.832	0.109	-0.280
-688.354	126.197	-0.091	0.116
-687.339	-139.055	0.263	0.029
-686.324	39.426	0.136	-0.123
-685.310	603.470	-0.044	0.111
-684.295	-68.409	-0.334	0.131
-683.281	-200.000	-0.004	-0.103
-682.266	-25.969	-0.318	-0.189
-681.251	665.419	0.044	-0.116
-680.237	-130.982	0.103	-0.014
-679.222	-53.935	0.160	0.073
-678.208	-43.084	-0.052	0.027
-677.193	-200.000	-0.020	0.332
-676.178	-200.000	0.010	0.161
-675.164	-200.000	-0.040	-0.234
-674.149	-135.961	-0.385	-0.046
-673.135	-66.042	-0.124	0.050
-672.120	-57.500	-0.177	0.078
-671.105	-23.102	-0.085	0.052
-670.091	-200.000	-0.012	-0.307
-669.076	-175.982	0.152	-0.004
-668.062	-123.742	0.148	-0.024
-667.047	556.060	-0.106	-0.256
-666.032	-200.000	-0.040	-0.218
-665.018	-66.720	-0.221	0.088
-664.003	27.098	0.240	-0.203
-662.989	-166.040	0.365	0.016
-661.974	-200.000	-0.029	-0.222
-660.959	-200.000	0.055	0.249
-659.945	-200.000	-0.047	0.211
-658.930	-200.000	0.004	-0.232
-657.916	-200.000	0.021	-0.249
-656.901	38.714	0.114	0.102
-655.886	-101.418	-0.129	-0.032
-654.872	-141.238	0.170	0.017
-653.857	-103.007	-0.218	-0.052
-652.843	-184.424	-0.367	0.006
-651.828	399.559	-0.183	0.385
-650.814	-200.000	-0.048	-0.218
-649.799	-148.731	0.152	-0.012
-648.784	-200.000	-0.014	-0.268
-647.770	248.369	0.081	0.139
-646.755	109.093	0.151	-0.181
-645.741	2.904	0.228	0.167
-644.726	640.868	0.049	-0.127
-643.711	-93.795	-0.167	-0.046
-642.697	461.408	-0.013	0.030
-641.682	-200.000	-0.004	-0.391
-640.668	40.035	0.065	-0.059
-639.653	-48.827	-0.226	0.109
-638.638	-129.983	-0.102	-0.014
-637.624	-12.407	-0.147	-0.096
-636.609	-22.975	-0.154	0.093
-635.595	421.348	-0.053	0.114
-634.580	296.451	0.150	-0.276
-633.565	-200.000	0.001	-0.298
-632.551	-108.973	0.287	-0.062
-631.536	58.596	-0.103	0.101
-630.522	61.430	0.127	-0.127
-629.507	-200.000	0.025	0.209
-628.492	20.704	-0.172	-0.140
-627.478	800.000	0.178	-0.521
-626.463	78.199	0.329	0.353
-625.449	-200.000	-0.003	-0.201
-624.434	319.199	0.163	0.311
-623.419	5.398	0.146	-0.109
-622.405	479.427	0.077	0.174
-621.390	440.032	0.113	0.248
-620.376	-116.412	-0.175	0.033
-619.361	-73.406	-0.140	0.051
-618.346	-112.439	-0.191	-0.038
-617.332	-40.340	0.235	-0.123
-616.317	-200.000	-0.024	-0.208
-615.303	-200.000	-0.016	-0.424
-614.288	70.975	-0.223	-0.233
-613.273	131.555	-0.202	-0.262
-612.259	437.161	0.023	-0.050
-611.244	355.965	-0.088	-0.177
-610.230	-71.922	0.257	-0.096
-609.215	-40.766	0.142	0.074
-608.201	50.958	0.078	-0.074
-607.186	106.313	-0.338	0.403
-606.171	800.000	-0.053	-0.205
-605.157	172.872	0.023	-0.033
-604.142	262.942	0.330	-0.575
-603.128	-130.311	-0.025	0.003
-602.113	50.513	-0.261	-0.248
-601.098	800.000	0.160	-0.457
-600.084	283.043	-0.018	-0.032
-599.069	-200.000	0.037	-0.226
-598.055	-85.666	-0.110	0.034
-597.040	-200.000	0.021	0.285
-596.025	84.236	-0.088	0.097
-595.011	-47.590	0.247	-0.120
-593.996	660.194	0.159	0.410
-592.982	-200.000	0.011	-0.071
-591.967	558.850	0.064	0.155
-590.952	380.917	0.041	0.085
-589.938	51.133	-0.143	-0.136
-588.923	88.272	0.119	-0.133
-587.909	-168.302	0.250	-0.010
-586.894	-31.255	0.176	0.099
-585.879	-35.651	0.122	-0.067
-584.865	-200.000	-0.041	0.208
-583.850	-200.000	0.027	-0.133
-582.836	800.000	0.011	-0.047
-581.821	-200.000	-0.031	-0.261
-580.806	-19.843	-0.153	0.095
-579.792	390.775	-0.059	0.123
-578.777	0.114	-0.134	0.096
-577.763	-89.742	0.131	0.039
-576.748	-67.013	-0.214	-0.085
-575.733	-77.575	0.340	-0.118
-574.719	345.344	-0.080	-0.157
-573.704	322.914	-0.066	0.127
-572.690	-200.000	0.000	0.015
-571.675	800.000	0.057	-0.245
-570.661	26.998	-0.193	-0.162
-569.646	-200.000	0.083	-0.401
-568.631	514.386	0.119	0.278
-567.617	-25.261	-0.232	0.138
-566.602	-133.399	-0.189	0.024
-565.588	-135.671	0.216	-0.026
-564.573	307.931	0.084	-0.157
-563.558	800.000	-0.029	-0.111
-562.544	262.277	0.059	-0.103
-561.529	-200.000	0.030	0.194
-560.515	-200.000	-0.018	0.091
-559.500	-129.557	-0.131	-0.018
-558.485	-8.121	0.253	0.171
-557.471	475.829	-0.046	-0.105
-556.456	96.744	0.105	-0.120
-555.442	800.000	0.047	-0.139
-554.427	800.000	-0.071	0.287
-553.412	-200.000	0.040	-0.180
-552.398	800.000	-0.073	0.243
-551.383	66.188	-0.111	0.113
-550.369	120.577	0.253	-0.315
-549.354	82.532	-0.079	0.086
-548.339	11.628	0.021	0.017
-547.325	-87.244	-0.207	0.063
-546.310	75.077	-0.117	-0.124
-545.296	81.092	0.105	0.114
-544.281	-200.000	-0.067	0.395
-543.266	21.751	-0.139	0.113
-542.252	-0.102	-0.345	0.246
-541.237	-9.001	-0.108	-0.073
-540.223	800.000	-0.046	0.152
-539.208	757.116	-0.044	-0.120
-538.193	-200.000	-0.035	-0.274
-537.179	800.000	-0.024	0.067
-536.164	800.000	-0.109	0.383
-535.150	-200.000	0.026	-0.526
-534.135	619.612	-0.111	-0.280
-533.121	98.950	0.063	-0.073
-532.106	800.000	0.061	0.230
-531.091	10.089	-0.220	0.168
-530.077	-163.132	-0.297	-0.014
-529.062	-89.551	0.152	0.045
-528.048	800.000	0.067	-0.187
-527.033	-150.638	0.168	0.013
-526.018	226.699	-0.078	-0.126
-525.004	221.780	0.016	-0.026
-523.989	-26.351	-0.115	-0.067
-522.975	800.000	-0.064	-0.200
-521.960	-200.000	-0.014	-0.223
-520.945	-200.000	0.039	-0.238
-519.931	192.696	0.099	-0.149
-518.916	286.641	0.118	-0.213
-517.902	-200.000	0.014	0.078
-516.887	176.489	0.114	0.166
-515.872	122.875	0.111	-0.139
-514.858	-159.486	0.344	-0.019
-513.843	-145.775	-0.087	0.008
-512.829	800.000	0.072	-0.285
-511.814	-200.000	0.047	-0.526
-510.799	458.885	0.114	-0.253
-509.785	-107.497	0.520	0.114
-508.770	226.074	-0.192	-0.311
-507.756	177.201	-0.113	0.165
-506.741	-79.526	0.144	-0.049
-505.726	-200.000	0.019	-0.148
-504.712	-200.000	-0.003	-0.100
-503.697	-200.000	-0.007	-0.255
-502.683	15.174	-0.211	0.165
-501.668	-71.196	0.303	-0.114
-500.653	-155.461	-0.088	-0.006
-499.639	335.075	-0.099	0.192
-498.624	654.284	-0.156	0.401
-497.610	800.000	0.116	0.369
-496.595	129.853	-0.105	0.135
-495.581	93.601	-0.223	-0.253
-494.566	800.000	-0.026	0.109
-493.551	-53.384	0.032	0.015
-492.537	226.250	0.134	0.217
-491.522	-127.558	-0.178	0.026
-490.508	-200.000	-0.036	-0.177
-489.493	-200.000	0.036	0.234
-488.478	46.990	-0.158	0.147
-487.464	-71.875	-0.071	-0.026
-486.449	-101.059	-0.391	0.096
-485.435	-83.974	0.269	0.086
-484.420	-131.373	-0.164	0.022
-483.405	-116.348	-0.232	0.043
-482.391	673.359	0.188	0.489
-481.376	-115.460	-0.082	0.015
-480.362	69.230	-0.243	-0.249
-479.347	523.494	-0.055	-0.129
-478.332	-200.000	-0.004	-0.109
-477.318	-7.972	-0.070	-0.047
-476.303	-32.598	-0.084	-0.047
-475.289	41.469	0.202	-0.183
-474.274	141.041	-0.173	-0.229
-473.259	800.000	0.053	-0.220
-472.245	310.377	-0.063	0.119
-471.230	203.966	0.060	0.092
-470.216	-80.662	-0.349	-0.116
-469.201	-24.178	-0.103	0.062
-468.186	74.030	-0.004	0.004
-467.172	287.236	-0.090	-0.162
-466.157	-200.000	0.007	-0.090
-465.143	-116.127	-0.218	0.041
-464.128	136.065	0.231	-0.301
-463.113	-156.838	-0.110	-0.007
-462.099	61.897	-0.120	0.119
-461.084	-84.163	-0.025	-0.008
-460.070	295.730	-0.060	-0.109
-459.055	13.755	-0.221	-0.172
-458.040	-68.284	0.125	-0.048
-457.026	551.117	0.046	0.109
-456.011	215.725	0.051	-0.081
-454.997	800.000	0.070	-0.274
-453.982	-82.287	0.157	-0.051
-452.968	-200.000	-0.009	-0.157
-451.953	-200.000	0.027	-0.259
-450.938	-50.604	0.119	0.056
-449.924	800.000	-0.069	0.195
-448.909	-25.122	-0.460	0.272
-447.895	-43.468	-0.102	0.051
-446.880	-10.570	0.126	0.083
-445.865	-19.116	-0.063	0.039
-444.851	288.566	0.044	-0.080
-443.836	-59.830	-0.240	0.103
-442.822	-51.138	-0.114	0.053
-441.807	148.737	0.123	-0.166
-440.792	-77.440	0.087	-0.030
-439.778	800.000	-0.010	0.034
-438.763	10.026	-0.431	-0.327
-437.749	-200.000	0.005	0.074
-436.734	546.966	0.119	0.284
-435.719	-90.426	0.025	0.007
-434.705	216.812	0.175	0.277
-433.690	-94.706	-0.184	0.050
-432.676	800.000	0.098	-0.274
-431.661	181.309	0.091	0.133
-430.646	32.540	0.177	-0.152
-429.632	54.747	-0.075	-0.072
-428.617	-200.000	0.014	0.067
-427.603	800.000	0.079	0.240
-426.588	-81.967	0.094	0.031
-425.573	800.000	-0.080	0.225
-424.559	-129.304	-0.180	-0.025
-423.544	197.440	-0.186	-0.283
-422.530	800.000	0.079	0.228
-421.515	-200.000	0.004	0.290
-420.500	245.780	-0.090	0.151
-419.486	-146.823	0.153	0.013
-418.471	73.508	0.046	0.048
-417.457	441.098	0.094	-0.206
-416.442	415.738	-0.043	-0.091
-415.428	-137.442	0.291	0.033
-414.413	-52.416	-0.100	-0.046
-413.398	800.000	-0.107	0.308
-412.384	82.343	-0.046	0.049
-411.369	57.725	0.124	0.121
-410.355	146.344	-0.243	0.326
-409.340	520.847	0.085	0.200
-408.325	-99.137	0.292	0.074
-407.311	563.250	-0.066	0.158
-406.296	134.158	-0.142	-0.183
-405.282	-9.538	0.157	-0.104
-404.267	-200.000	0.014	-0.092
-403.252	-200.000	-0.032	0.190
-402.238	-200.000	0.045	-0.218
-401.223	57.078	-0.189	-0.184
-400.209	-41.609	0.146	0.075
-399.194	-200.000	0.007	0.288
-398.179	-176.574	-0.166	-0.004
-397.165	49.343	0.108	0.102
-396.150	93.666	0.049	0.055
-395.136	-168.253	-0.218	0.008
-394.121	323.457	-0.004	-0.008
-393.106	501.249	0.082	-0.189
-392.092	-127.021	-0.225	-0.033
-391.077	24.261	0.043	0.035
-390.063	2.639	0.291	0.210
-389.048	18.165	0.105	0.083
-388.033	57.359	-0.177	0.172
-387.019	210.478	0.188	0.294
-386.004	-166.167	0.178	-0.008
-384.990	800.000	0.028	0.123
-383.975	-66.501	-0.277	0.110
-382.960	-200.000	-0.004	-0.097
-381.946	-47.879	-0.169	-0.082
-380.931	504.151	0.095	-0.218
-379.917	-200.000	-0.001	-0.216
-378.902	606.659	-0.086	0.214
-377.888	194.153	0.086	-0.129
-376.873	599.496	0.021	0.053
-375.858	-200.000	-0.008	0.260
-374.844	3.191	-0.089	0.064
-373.829	143.918	0.123	0.163
-372.815	800.000	-0.083	0.234
-371.800	-6.351	0.126	0.085
-370.785	53.760	-0.215	-0.206
-369.771	-52.808	-0.143	-0.066
-368.756	4.115	0.098	0.071
-367.742	146.602	-0.125	0.167
-366.727	208.360	0.102	0.158
-365.712	66.995	-0.152	0.155
-364.698	146.508	-0.302	-0.403
-363.683	239.953	0.071	-0.118
-362.669	15.360	-0.297	-0.232
-361.654	-87.703	0.275	0.083
-360.639	-200.000	0.048	-0.250
-359.625	104.751	-0.221	0.259
-358.610	204.110	-0.124	0.191
-357.596	159.801	-0.128	0.178
-356.581	101.312	-0.067	0.077
-355.566	532.322	-0.069	0.163
-354.552	231.106	0.175	0.285
-353.537	-5.568	-0.066	0.045
-352.523	-115.319	-0.289	0.054
-351.508	-143.629	-0.064	-0.006
-350.493	538.060	0.070	0.165
-349.479	534.714	-0.146	0.344
-348.464	-200.000	-0.002	0.030
-347.450	2.645	0.177	-0.128
-346.435	800.000	0.088	-0.285
-345.420	-91.269	0.180	-0.051
-344.406	106.088	-0.026	-0.030
-343.391	134.177	-0.225	-0.290
-342.377	-200.000	-0.001	0.249
-341.362	78.747	-0.216	0.229
-340.348	318.491	0.193	-0.364
-339.333	-200.000	0.059	0.368
-338.318	107.612	0.122	0.145
-337.304	-91.517	-0.076	0.021
-336.289	-166.279	-0.108	0.005
-335.275	275.656	-0.081	0.144
-334.260	-33.201	-0.380	-0.209
-333.245	-200.000	0.004	-0.047
-332.231	1.123	-0.148	-0.105
-331.216	-62.924	0.284	0.117
-330.202	-200.000	-0.020	0.314
-329.187	-156.711	-0.322	0.020
-328.172	-200.000	0.026	0.133
-327.158	-200.000	0.003	-0.045
-326.143	-79.551	0.281	0.094
-325.129	5.513	-0.201	-0.148
-324.114	537.180	0.132	-0.311
-323.099	-43.544	-0.371	-0.186
-322.085	27.356	0.055	-0.046
-321.070	800.000	0.073	-0.248
-320.056	-138.782	-0.209	0.023
-319.041	-86.141	-0.175	-0.054
-318.026	-45.000	-0.116	-0.057
-317.012	-63.347	0.161	-0.066
-315.997	800.000	0.026	0.100
-314.983	194.181	0.119	-0.178
-313.968	-15.662	-0.097	0.061
-312.953	-103.334	0.444	0.104
-311.939	-16.202	-0.211	-0.133
-310.924	50.255	-0.343	-0.322
-309.910	-39.040	0.237	0.124
-308.895	-200.000	-0.001	-0.379
-307.880	55.279	-0.122	0.117
-306.866	76.482	0.045	-0.047
-305.851	-168.226	0.117	-0.005
-304.837	63.458	-0.178	0.178
-303.822	790.168	-0.093	0.255
-302.807	15.265	0.099	-0.077
-301.793	-200.000	0.017	0.143
-300.778	800.000	-0.069	0.295
-299.764	56.504	-0.081	-0.079
-298.749	-200.000	0.059	0.409
-297.735	-200.000	-0.005	-0.061
-296.720	424.449	-0.126	0.270
-295.705	401.460	0.059	-0.123
-294.691	210.323	0.311	0.485
-293.676	-60.072	-0.362	0.153
-292.662	-200.000	-0.045	-0.304
-291.647	-93.462	-0.213	-0.058
-290.632	800.000	-0.029	0.114
-289.618	54.440	0.249	-0.238
-288.603	-200.000	0.019	0.163
-287.589	-48.791	-0.205	0.098
-286.574	-118.594	0.086	-0.015
-285.559	800.000	-0.038	-0.122
-284.545	-71.821	-0.136	0.050
-283.530	-179.247	0.420	-0.009
-282.516	800.000	0.060	0.195
-281.501	-135.079	0.156	0.019
-280.486	136.268	-0.022	0.028
-279.472	-12.507	0.052	0.034
-278.457	800.000	-0.029	-0.102
-277.443	123.601	0.207	0.258
-276.428	343.593	-0.112	-0.218
-275.413	592.462	-0.045	0.111
-274.399	-153.494	0.255	0.018
-273.384	-145.716	0.091	-0.008
-272.370	800.000	-0.054	0.174
-271.355	-200.000	-0.054	0.291
-270.340	301.838	-0.153	0.281
-269.326	235.607	-0.126	-0.206
-268.311	545.560	-0.061	0.146
-267.297	97.808	0.059	0.068
-266.282	121.428	0.113	0.139
-265.267	800.000	0.042	0.169
-264.253	-171.290	0.351	-0.012
-263.238	-200.000	-0.007	0.034
-262.224	-128.342	-0.130	0.018
-261.209	-44.922	-0.162	-0.080
-260.195	-200.000	0.040	-0.197
-259.180	-158.508	0.068	-0.004
-258.165	800.000	0.008	0.031
-257.151	333.751	-0.127	0.243
-256.136	800.000	-0.088	0.268
-255.122	-200.000	0.048	0.259
-254.107	-9.900	-0.239	0.157
-253.092	-122.719	0.146	-0.023
-252.078	-200.000	0.086	0.384
-251.063	247.286	-0.116	0.194
-250.049	-200.000	0.017	-0.218
-249.034	21.742	0.126	-0.102
-248.019	406.156	-0.057	0.120
-247.005	-137.351	0.144	-0.016
-245.990	-17.830	0.128	0.079
-244.976	-69.672	-0.097	0.037
-243.961	-11.910	0.082	0.053
-242.946	-41.653	0.095	-0.048
-241.932	739.911	0.034	0.091
-240.917	-91.941	-0.163	-0.046
-239.903	163.141	-0.115	0.159
-238.888	-17.547	0.053	0.033
-237.873	223.939	0.109	-0.175
-236.859	110.542	-0.266	-0.316
-235.844	-146.287	0.204	0.018
-234.830	315.880	-0.092	-0.171
-233.815	-85.031	0.104	0.032
-232.800	-41.755	0.121	-0.062
-231.786	222.949	-0.124	0.198
-230.771	-200.000	-0.074	0.603
-229.757	-200.000	0.075	0.456
-228.742	-200.000	0.023	0.100
-227.727	-11.309	-0.068	0.044
-226.713	258.851	-0.124	-0.212
-225.698	-1.419	-0.165	-0.115
-224.684	34.570	-0.192	-0.166
-223.669	-71.622	0.236	0.087
-222.655	-176.420	-0.270	0.007
-221.640	-112.010	-0.333	-0.066
-220.625	-200.000	0.041	0.275
-219.611	-200.000	0.063	-0.396
-218.596	26.650	-0.343	-0.284
-217.582	4.140	0.268	0.194
-216.567	-100.284	-0.264	0.065
-215.552	556.705	-0.100	0.238
-214.538	593.361	-0.095	0.233
-213.523	322.910	0.187	-0.353
-212.509	509.093	0.120	0.276
-211.494	-44.118	0.152	0.076
-210.479	487.262	-0.053	-0.119
-209.465	-200.000	-0.021	-0.248
-208.450	395.266	-0.023	0.048
-207.436	-65.425	0.113	-0.045
-206.421	-9.353	-0.040	0.026
-205.406	-158.244	-0.191	0.011
-204.392	-200.000	-0.017	0.144
-203.377	-43.077	0.203	-0.102
-202.363	-48.972	0.095	-0.045
-201.348	-104.012	0.141	0.033
-200.333	42.099	-0.155	0.139
-199.319	-200.000	0.009	-0.089
-198.304	752.198	-0.052	0.138
-197.290	-200.000	-0.052	0.279
-196.275	178.039	0.111	-0.161
-195.260	-200.000	0.013	-0.474
-194.246	411.937	0.056	0.118
-193.231	110.584	0.167	0.199
-192.217	-129.847	0.515	-0.070
-191.202	116.500	-0.063	-0.076
-190.187	275.276	0.164	-0.287
-189.173	32.622	0.059	-0.051
-188.158	-103.135	0.168	-0.039
-187.144	-38.469	0.337	0.176
-186.129	-102.291	0.105	-0.025
-185.114	46.125	0.126	-0.115
-184.100	398.675	-0.108	0.223
-183.085	-146.320	0.246	-0.021
-182.071	-97.027	0.106	0.028
-181.056	-200.000	-0.063	-0.311
-180.042	-35.754	-0.214	0.115
-179.027	-195.297	0.314	-0.002
-178.012	211.563	0.114	0.177
-176.998	109.670	0.174	-0.206
-175.983	-31.968	0.336	-0.186
-174.969	800.000	-0.079	-0.223
-173.954	-93.650	0.191	-0.052
-172.939	-65.595	0.168	-0.066
-171.925	-192.670	0.186	-0.002
-170.910	-200.000	-0.004	0.034
-169.896	-42.590	0.158	-0.080
-168.881	445.824	0.182	-0.394
-167.866	-35.973	0.152	0.081
-166.852	44.281	-0.167	-0.151
-165.837	-200.000	-0.004	0.065
-164.823	-12.177	-0.095	0.061
-163.808	-29.723	0.065	-0.036
-162.793	539.322	-0.080	-0.187
-161.779	48.892	0.278	0.258
-160.764	137.164	0.095	-0.123
-159.750	800.000	-0.094	0.280
-158.735	-200.000	-0.004	0.018
-157.720	312.596	-0.045	-0.084
-156.706	225.680	0.013	-0.020
-155.691	528.121	-0.121	-0.282
-154.677	-135.305	0.087	0.010
-153.662	-188.236	0.090	0.001
-152.647	-103.636	0.077	-0.018
-151.633	-69.481	0.162	-0.061
-150.618	77.591	0.178	-0.187
-149.604	-96.423	-0.249	0.065
-148.589	-48.406	-0.079	0.038
-147.574	88.960	0.112	0.123
-146.560	-63.552	0.154	-0.062
-145.545	-99.266	0.256	-0.064
-144.531	458.309	-0.117	-0.256
-143.516	800.000	-0.032	0.112
-142.502	36.634	0.122	0.107
-141.487	14.376	0.129	0.099
-140.472	404.558	0.188	-0.390
-139.458	-140.188	-0.231	-0.024
-138.443	-62.754	0.168	0.069
-137.429	-39.079	0.230	-0.119
-136.414	86.020	0.074	0.080
-135.399	315.054	-0.091	-0.169
-134.385	-200.000	-0.005	0.384
-133.370	-200.000	-0.057	-0.384
-132.356	-66.546	0.179	0.070
-131.341	-190.706	-0.175	-0.002
-130.326	-56.304	-0.081	0.035
-129.312	800.000	0.057	0.222
-128.297	272.658	-0.160	-0.279
-127.283	-62.139	-0.103	0.042
-126.268	-100.308	-0.243	0.059
-125.253	-30.298	0.161	-0.090
-124.239	-134.215	0.350	-0.043
-123.224	-200.000	0.078	-0.345
-122.210	800.000	0.026	-0.092
