DTS Sentinel unit serial number:	SN413079Multiplexer serial number:	ORYXHardware model number:	OX4-SRSoftware version number:	ORYX F/W v4.00 Oryx Data Collector v3.7.2.0data status	okinstallation	princeton_trtdifferential loss correction	single-endedforward channel	channel 3reverse channel	N/Adate	2019/09/16time	18:12:35forward acquisition time	60.00reverse acquisition time	0.00gamma	496.2192k internal	0.2302k external	0.2302temperature offset calibration	0.9947default loss term (dB/km)	0.3790temperature slope calibration	1.0000multiplexer offset coefficient	1.0000multiplexer slope coefficient	1.0000fibre end	0.00T internal ref (°C)	37.23T ext. ref 1 (°C)	15.72T ext. ref 2 (°C)	30.82length (m)	temperature (°C)	Stokes	anti-Stokes-747.200	-189.392	-0.072	-0.001
-746.185	-200.000	0.059	0.363
-745.171	35.665	-0.049	0.044
-744.156	143.594	-0.114	0.155
-743.142	370.077	-0.208	-0.429
-742.127	147.633	0.226	-0.310
-741.112	145.682	-0.063	-0.086
-740.098	-125.318	-0.090	0.014
-739.083	-15.724	0.025	-0.016
-738.069	-11.952	0.165	0.110
-737.054	9.112	0.175	-0.135
-736.039	-101.615	0.272	0.067
-735.025	-37.037	0.113	0.061
-734.010	89.676	-0.152	-0.173
-732.996	-1.151	-0.359	0.259
-731.981	-114.363	-0.223	-0.044
-730.966	-32.151	0.272	0.155
-729.952	800.000	-0.111	-0.379
-728.937	172.239	-0.133	0.194
-727.923	800.000	-0.042	0.143
-726.908	-200.000	-0.035	0.292
-725.894	-200.000	0.031	0.241
-724.879	-100.619	0.332	0.084
-723.864	10.279	-0.286	0.222
-722.850	-5.571	0.119	-0.083
-721.835	-129.889	0.022	-0.003
-720.821	-63.982	-0.156	-0.065
-719.806	13.220	-0.134	0.106
-718.791	-19.242	0.136	0.086
-717.777	-17.296	-0.201	0.129
-716.762	439.444	-0.174	-0.387
-715.748	596.076	0.037	0.093
-714.733	-53.474	-0.138	0.064
-713.718	800.000	-0.055	0.159
-712.704	-38.479	-0.279	-0.150
-711.689	-23.881	-0.115	-0.070
-710.675	-200.000	0.006	-0.130
-709.660	49.774	0.243	-0.233
-708.645	434.355	0.132	-0.292
-707.631	-200.000	-0.011	-0.110
-706.616	-200.000	-0.023	-0.129
-705.602	-90.892	0.220	-0.064
-704.587	-127.451	-0.220	-0.033
-703.572	-95.873	-0.269	0.073
-702.558	-130.854	0.148	-0.020
-701.543	74.623	-0.197	-0.211
-700.529	800.000	0.100	0.375
-699.514	159.872	-0.124	0.176
-698.499	105.750	-0.131	-0.158
-697.485	23.268	0.128	-0.107
-696.470	237.348	0.103	-0.173
-695.456	108.099	-0.083	-0.101
-694.441	-200.000	0.018	0.380
-693.426	-96.835	0.304	-0.081
-692.412	-200.000	-0.003	-0.087
-691.397	635.458	-0.087	0.225
-690.383	-103.652	-0.398	-0.095
-689.368	752.580	0.097	0.267
-688.354	-186.508	-0.049	-0.001
-687.339	181.772	0.151	-0.226
-686.324	35.117	-0.266	-0.237
-685.310	638.641	-0.100	-0.260
-684.295	60.477	0.445	-0.448
-683.281	-200.000	0.036	-0.173
-682.266	-44.169	-0.114	0.058
-681.251	-157.193	-0.214	-0.013
-680.237	-114.540	-0.130	-0.025
-679.222	-155.916	-0.110	-0.007
-678.208	-52.308	-0.077	-0.036
-677.193	10.390	-0.163	-0.126
-676.178	58.060	0.202	-0.201
-675.164	294.095	-0.036	0.067
-674.149	258.150	-0.106	-0.186
-673.135	-120.100	-0.238	-0.041
-672.120	108.536	-0.097	-0.117
-671.105	348.286	0.083	0.167
-670.091	304.787	-0.132	-0.249
-669.076	-95.609	0.229	-0.062
-668.062	-104.649	-0.129	0.030
-667.047	800.000	-0.054	0.190
-666.032	-54.961	-0.385	-0.176
-665.018	-76.639	-0.173	-0.062
-664.003	124.651	0.300	-0.384
-662.989	-200.000	0.040	-0.298
-661.974	-74.574	-0.367	-0.134
-660.959	285.349	-0.155	-0.283
-659.945	11.996	-0.113	-0.088
-658.930	-200.000	0.004	0.185
-657.916	79.728	-0.112	0.122
-656.901	-147.354	0.410	0.035
-655.886	343.477	-0.118	-0.235
-654.872	-59.449	0.323	-0.141
-653.857	587.098	-0.153	-0.383
-652.843	-43.039	0.145	-0.075
-651.828	112.143	0.014	0.017
-650.814	-39.049	0.254	0.136
-649.799	-117.005	-0.107	0.020
-648.784	-200.000	0.002	-0.107
-647.770	14.399	-0.103	-0.081
-646.755	38.252	-0.042	0.038
-645.741	-91.910	-0.079	-0.023
-644.726	66.234	-0.275	0.283
-643.711	-200.000	0.007	0.326
-642.697	38.929	-0.110	0.100
-641.682	140.160	-0.043	-0.058
-640.668	121.992	0.042	0.053
-639.653	-130.493	0.291	-0.040
-638.638	-62.518	0.081	0.034
-637.624	-200.000	0.035	0.221
-636.609	-200.000	-0.023	0.203
-635.595	114.143	-0.179	-0.222
-634.580	33.453	-0.066	0.058
-633.565	21.378	-0.216	0.178
-632.551	54.338	0.174	0.170
-631.536	410.691	-0.156	-0.337
-630.522	-61.097	-0.124	-0.053
-629.507	-92.095	-0.169	-0.049
-628.492	-106.655	0.076	-0.017
-627.478	242.392	-0.048	0.081
-626.463	-62.605	-0.278	0.117
-625.449	-72.569	0.360	-0.135
-624.434	268.947	-0.073	-0.129
-623.419	800.000	-0.127	0.372
-622.405	-41.966	0.062	-0.032
-621.390	-72.147	-0.121	0.046
-620.376	56.705	0.208	0.206
-619.361	554.336	-0.060	0.147
-618.346	343.919	0.123	-0.244
-617.332	67.758	0.207	-0.215
-616.317	173.206	-0.137	-0.200
-615.303	-200.000	-0.016	-0.316
-614.288	172.109	-0.072	0.105
-613.273	-147.031	-0.093	0.008
-612.259	-181.466	-0.188	-0.004
-611.244	-200.000	-0.011	-0.209
-610.230	7.403	0.339	0.257
-609.215	-66.922	-0.076	0.030
-608.201	34.300	0.182	0.161
-607.186	800.000	0.036	-0.134
-606.171	-169.899	-0.245	0.009
-605.157	-26.011	0.248	-0.148
-604.142	-200.000	-0.011	-0.074
-603.128	-119.594	0.229	-0.040
-602.113	60.607	-0.147	0.147
-601.098	-145.018	-0.058	0.005
-600.084	-81.158	-0.182	0.061
-599.069	43.605	0.094	-0.087
-598.055	71.779	-0.039	-0.041
-597.040	-19.467	-0.158	-0.099
-596.025	800.000	-0.004	-0.013
-595.011	-192.305	0.229	-0.002
-593.996	422.939	0.134	-0.292
-592.982	-70.096	-0.311	-0.120
-591.967	-94.746	0.182	-0.050
-590.952	267.440	-0.165	-0.292
-589.938	74.288	-0.021	0.022
-588.923	53.812	-0.070	0.068
-587.909	-19.135	-0.070	-0.044
-586.894	27.294	-0.280	0.238
-585.879	-137.651	0.147	0.017
-584.865	-157.006	0.110	-0.007
-583.850	-51.194	0.113	0.054
-582.836	30.118	-0.254	-0.219
-581.821	186.119	0.135	0.203
-580.806	-83.050	-0.071	0.023
-579.792	-200.000	-0.086	0.457
-578.777	225.092	-0.011	-0.018
-577.763	-200.000	0.018	0.168
-576.748	124.048	-0.144	-0.183
-575.733	633.431	-0.037	-0.096
-574.719	106.415	0.203	-0.244
-573.704	37.039	-0.149	-0.134
-572.690	-7.289	-0.056	0.038
-571.675	-200.000	0.019	0.286
-570.661	17.111	-0.125	-0.100
-569.646	800.000	0.042	0.167
-568.631	149.673	0.142	0.195
-567.617	800.000	0.071	-0.212
-566.602	-21.414	0.123	-0.076
-565.588	-11.494	-0.162	-0.108
-564.573	200.880	-0.110	-0.171
-563.558	-64.587	-0.291	0.120
-562.544	-200.000	0.003	-0.035
-561.529	406.546	0.147	-0.314
-560.515	-124.833	0.186	0.029
-559.500	800.000	0.008	0.026
-558.485	71.416	-0.023	-0.024
-557.471	-200.000	-0.027	-0.300
-556.456	606.932	-0.037	-0.092
-555.442	-200.000	0.010	0.125
-554.427	-48.425	-0.209	-0.102
-553.412	225.318	0.115	0.188
-552.398	122.124	-0.230	-0.290
-551.383	541.253	-0.110	-0.266
-550.369	-103.273	0.086	0.021
-549.354	-200.000	0.032	-0.289
-548.339	800.000	0.045	-0.127
-547.325	-200.000	-0.006	-0.229
-546.310	6.781	0.190	0.143
-545.296	-46.435	0.267	-0.133
-544.281	414.128	-0.038	-0.082
-543.266	800.000	-0.096	0.298
-542.252	-200.000	0.011	0.060
-541.237	800.000	0.073	-0.235
-540.223	252.487	0.106	-0.182
-539.208	4.856	0.284	-0.211
-538.193	216.759	-0.050	-0.081
-537.179	-200.000	0.030	0.281
-536.164	-200.000	0.043	-0.375
-535.150	-147.186	-0.282	-0.024
-534.135	188.081	0.038	0.058
-533.121	800.000	-0.026	-0.093
-532.106	-200.000	0.006	-0.050
-531.091	-107.434	0.312	-0.069
-530.077	328.593	0.108	0.210
-529.062	-135.990	0.113	0.013
-528.048	-14.030	-0.150	-0.098
-527.033	-112.179	0.106	-0.022
-526.018	217.946	-0.044	-0.071
-525.004	320.333	-0.124	-0.237
-523.989	-89.132	-0.257	0.077
-522.975	122.100	-0.254	-0.320
-521.960	-97.015	0.375	-0.099
-520.945	9.983	0.082	0.063
-519.931	800.000	0.034	0.096
-518.916	-56.076	0.124	-0.056
-517.902	-200.000	-0.044	0.282
-516.887	377.140	0.064	-0.131
-515.872	116.494	0.148	0.183
-514.858	800.000	-0.148	0.500
-513.843	77.818	0.035	-0.037
-512.829	75.973	-0.030	0.032
-511.814	-157.407	0.165	-0.010
-510.799	800.000	-0.031	-0.093
-509.785	-200.000	0.024	-0.200
-508.770	-200.000	0.007	0.122
-507.756	-86.163	0.317	-0.099
-506.741	-55.001	-0.277	-0.126
-505.726	238.925	0.164	-0.275
-504.712	800.000	0.116	0.397
-503.697	-200.000	0.007	-0.105
-502.683	-200.000	0.023	-0.197
-501.668	-200.000	0.033	-0.178
-500.653	-43.138	-0.142	0.073
-499.639	-78.573	-0.265	0.091
-498.624	800.000	-0.083	-0.283
-497.610	-200.000	0.063	0.391
-496.595	-73.573	-0.431	0.159
-495.581	800.000	0.122	0.371
-494.566	-35.684	-0.364	-0.199
-493.551	119.911	-0.073	0.091
-492.537	125.570	-0.055	-0.070
-491.522	-200.000	0.061	0.315
-490.508	-125.137	0.210	0.032
-489.493	482.506	-0.011	-0.025
-488.478	352.548	-0.130	-0.260
-487.464	37.808	-0.217	-0.195
-486.449	-97.545	0.210	0.055
-485.435	120.443	-0.232	-0.290
-484.420	125.155	-0.050	-0.064
-483.405	-149.719	0.045	0.004
-482.391	-126.886	-0.221	-0.033
-481.376	-93.981	0.468	-0.130
-480.362	-200.000	0.048	0.411
-479.347	675.965	-0.155	0.405
-478.332	-121.088	0.241	0.041
-477.318	15.973	-0.110	-0.088
-476.303	40.320	-0.211	-0.192
-475.289	-127.326	0.282	-0.041
-474.274	-95.592	0.265	0.072
-473.259	-82.193	0.080	-0.026
-472.245	-100.416	0.286	-0.071
-471.230	-128.863	-0.143	-0.020
-470.216	-118.131	0.173	0.031
-469.201	-86.574	0.272	0.084
-468.186	-36.040	-0.250	0.136
-467.172	-200.000	-0.006	0.292
-466.157	-55.341	-0.331	-0.150
-465.143	-200.000	0.031	-0.391
-464.128	501.699	-0.148	-0.345
-463.113	-9.733	-0.199	0.134
-462.099	-139.460	-0.503	0.054
-461.084	-76.288	-0.053	-0.019
-460.070	33.177	0.463	-0.405
-459.055	-66.161	0.235	-0.094
-458.040	-50.522	0.159	0.076
-457.026	-182.820	0.276	-0.005
-456.011	59.244	0.187	-0.185
-454.997	-200.000	0.050	-0.301
-453.982	144.723	0.085	-0.114
-452.968	452.571	0.144	-0.320
-451.953	117.960	-0.108	-0.134
-450.938	201.110	0.207	-0.321
-449.924	-70.574	0.207	-0.079
-448.909	173.658	0.137	0.200
-447.895	-145.926	0.159	0.014
-446.880	-92.818	-0.163	-0.046
-445.865	800.000	0.048	-0.196
-444.851	199.222	0.152	-0.235
-443.836	79.814	0.062	-0.067
-442.822	-200.000	0.011	-0.149
-441.807	-6.989	-0.326	0.223
-440.792	800.000	-0.096	0.269
-439.778	-200.000	-0.012	-0.058
-438.763	390.970	-0.165	0.346
-437.749	22.752	-0.053	-0.044
-436.734	-93.703	0.206	-0.057
-435.719	226.994	0.102	0.167
-434.705	800.000	-0.122	0.346
-433.690	18.187	0.330	0.265
-432.676	33.741	-0.090	-0.078
-431.661	800.000	0.047	0.167
-430.646	-200.000	-0.001	0.150
-429.632	-200.000	-0.035	-0.157
-428.617	-102.364	0.151	0.036
-427.603	800.000	0.048	0.179
-426.588	-67.976	0.106	-0.042
-425.573	87.299	-0.127	0.141
-424.559	110.588	-0.117	0.141
-423.544	343.133	0.051	0.101
-422.530	-123.945	-0.238	0.038
-421.515	800.000	-0.072	0.251
-420.500	800.000	0.023	0.085
-419.486	86.430	0.139	-0.154
-418.471	204.134	0.209	-0.326
-417.457	84.757	0.097	0.107
-416.442	-2.623	0.216	0.152
-415.428	-50.209	0.368	0.175
-414.413	800.000	0.076	0.325
-413.398	-135.039	-0.243	0.029
-412.384	23.037	-0.146	-0.121
-411.369	234.193	-0.033	0.055
-410.355	-25.095	0.171	-0.102
-409.340	-149.372	0.241	0.019
-408.325	800.000	-0.067	0.255
-407.311	122.998	-0.078	-0.098
-406.296	393.147	-0.127	0.267
-405.282	800.000	0.010	-0.042
-404.267	-21.265	0.105	0.064
-403.252	27.876	0.258	-0.219
-402.238	-16.867	0.087	-0.055
-401.223	-83.023	0.072	-0.023
-400.209	800.000	-0.036	-0.150
-399.194	-31.516	0.101	-0.057
-398.179	588.207	-0.050	0.124
-397.165	-58.543	-0.122	0.053
-396.150	351.648	-0.159	-0.316
-395.136	263.576	0.184	-0.321
-394.121	545.155	0.060	0.145
-393.106	-200.000	0.003	-0.131
-392.092	269.446	0.036	0.064
-391.077	332.762	-0.101	-0.197
-390.063	193.229	-0.139	0.211
-389.048	-200.000	0.077	-0.419
-388.033	-113.967	0.271	0.053
-387.019	342.465	-0.177	0.348
-386.004	-87.244	-0.113	0.034
-384.990	-13.285	0.114	0.074
-383.975	-17.212	0.186	0.118
-382.960	-200.000	-0.025	-0.167
-381.946	-120.430	0.260	-0.044
-380.931	-18.166	0.166	0.104
-379.917	88.859	0.088	0.099
-378.902	102.939	-0.074	-0.087
-377.888	-26.073	-0.124	0.073
-376.873	-63.243	-0.148	0.061
-375.858	184.004	-0.183	0.272
-374.844	-133.317	-0.196	-0.025
-373.829	-0.342	-0.139	0.099
-372.815	-114.880	-0.411	-0.079
-371.800	-18.777	-0.285	0.179
-370.785	-200.000	-0.021	-0.205
-369.771	-12.636	-0.052	0.034
-368.756	-154.278	0.190	0.013
-367.742	-16.648	-0.376	-0.239
-366.727	597.890	0.104	-0.258
-365.712	263.650	0.128	0.224
-364.698	-33.349	-0.076	-0.042
-363.683	-200.000	-0.011	0.104
-362.669	324.402	0.176	0.337
-361.654	183.988	0.230	0.341
-360.639	29.023	0.163	0.138
-359.625	615.156	-0.116	0.292
-358.610	39.425	0.126	0.114
-357.596	-200.000	0.027	-0.293
-356.581	-17.797	0.160	0.101
-355.566	97.991	0.072	0.083
-354.552	-200.000	0.015	-0.219
-353.537	-200.000	-0.112	-0.000
-352.523	228.627	-0.109	0.178
-351.508	164.275	0.054	-0.076
-350.493	-200.000	0.024	0.338
-349.479	379.695	-0.061	-0.125
-348.464	-200.000	-0.025	0.287
-347.450	-123.206	-0.237	0.038
-346.435	-93.974	0.211	0.058
-345.420	-200.000	0.035	-0.170
-344.406	14.210	-0.154	0.120
-343.391	-82.521	0.154	0.050
-342.377	50.871	-0.134	-0.128
-341.362	800.000	0.088	-0.262
-340.348	208.645	0.020	-0.031
-339.333	552.658	-0.017	-0.042
-338.318	-200.000	0.051	0.319
-337.304	800.000	-0.056	0.219
-336.289	144.817	-0.080	0.107
-335.275	-200.000	-0.011	0.073
-334.260	-200.000	-0.012	0.090
-333.245	556.272	-0.051	0.124
-332.231	79.882	-0.289	0.312
-331.216	-106.790	-0.234	-0.052
-330.202	-77.531	0.424	0.148
-329.187	-135.149	-0.177	-0.021
-328.172	-86.231	0.294	0.091
-327.158	46.623	-0.167	-0.156
-326.143	33.584	0.267	0.233
-325.129	20.932	-0.250	0.203
-324.114	-200.000	-0.017	0.103
-323.099	-109.818	0.090	0.019
-322.085	-98.387	-0.240	0.062
-321.070	800.000	-0.057	0.205
-320.056	800.000	-0.085	0.355
-319.041	-200.000	-0.039	0.207
-318.026	-89.084	-0.085	0.025
-317.012	39.635	0.111	0.100
-315.997	800.000	0.039	0.157
-314.983	-154.216	-0.145	0.010
-313.968	117.316	-0.134	0.165
-312.953	800.000	0.032	0.104
-311.939	261.107	0.034	-0.059
-310.924	-54.077	0.250	-0.114
-309.910	572.219	-0.064	-0.155
-308.895	26.336	0.223	0.187
-307.880	47.488	-0.226	-0.211
-306.866	-79.366	0.194	0.066
-305.851	76.346	0.124	0.131
-304.837	-200.000	-0.048	-0.431
-303.822	74.890	-0.114	-0.120
-302.807	-200.000	0.024	-0.561
-301.793	-74.206	-0.339	0.123
-300.778	-200.000	0.013	0.108
-299.764	800.000	-0.030	-0.089
-298.749	195.932	0.185	-0.282
-297.735	800.000	-0.064	0.182
-296.720	-200.000	-0.003	0.030
-295.705	95.411	-0.089	0.102
-294.691	-200.000	-0.004	-0.148
-293.676	324.644	0.083	-0.159
-292.662	-123.701	-0.247	-0.039
-291.647	658.350	-0.032	-0.082
-290.632	209.521	-0.112	0.176
-289.618	284.228	-0.136	-0.245
-288.603	-61.095	-0.238	0.100
-287.589	-91.914	-0.160	0.045
-286.574	800.000	0.079	-0.271
-285.559	-18.240	0.168	0.105
-284.545	-39.923	-0.134	0.070
-283.530	-200.000	-0.002	-0.460
-282.516	-8.324	-0.049	-0.033
-281.501	175.796	0.034	-0.049
-280.486	800.000	0.020	-0.056
-279.472	-88.489	0.068	-0.020
-278.457	-163.185	-0.101	-0.005
-277.443	-80.095	-0.077	-0.026
-276.428	-46.990	-0.009	-0.004
-275.413	-9.958	-0.138	-0.092
-274.399	-45.253	0.552	0.274
-273.384	48.934	0.219	0.206
-272.370	800.000	-0.071	0.226
-271.355	-51.384	-0.180	0.084
-270.340	800.000	-0.087	-0.264
-269.326	173.821	0.211	0.305
-268.311	-93.105	-0.056	-0.016
-267.297	-200.000	-0.043	0.235
-266.282	-200.000	0.028	0.159
-265.267	-149.663	-0.115	0.009
-264.253	-36.904	-0.460	-0.247
-263.238	-200.000	0.021	-0.300
-262.224	-80.055	0.276	0.093
-261.209	-126.606	0.284	0.042
-260.195	25.801	-0.186	0.155
-259.180	47.113	0.294	-0.273
-258.165	-90.176	0.279	-0.081
-257.151	34.729	0.137	0.120
-256.136	-89.648	0.063	0.019
-255.122	285.553	-0.176	0.317
-254.107	382.221	-0.041	-0.084
-253.092	800.000	0.066	-0.269
-252.078	-34.090	0.254	-0.140
-251.063	425.935	0.070	0.152
-250.049	33.680	0.294	-0.255
-249.034	-123.243	0.235	-0.038
-248.019	-109.737	0.285	0.060
-247.005	717.562	0.114	0.302
-245.990	-200.000	-0.006	-0.087
-244.976	-200.000	-0.065	-0.300
-243.961	80.199	0.128	-0.138
-242.946	79.474	-0.152	0.163
-241.932	262.771	-0.114	0.197
-240.917	-96.717	-0.446	-0.117
-239.903	-200.000	-0.006	-0.181
-238.888	371.812	-0.084	0.170
-237.873	-200.000	0.003	-0.243
-236.859	212.698	-0.203	0.320
-235.844	-124.086	-0.300	-0.047
-234.830	-200.000	-0.009	0.050
-233.815	28.332	-0.159	0.135
-232.800	800.000	0.054	0.174
-231.786	762.111	-0.116	0.314
-230.771	31.805	-0.154	-0.133
-229.757	104.758	0.316	-0.372
-228.742	-200.000	0.014	0.182
-227.727	800.000	-0.076	0.245
-226.713	-4.838	0.273	0.188
-225.698	-139.325	-0.560	0.060
-224.684	231.787	-0.066	-0.108
-223.669	-200.000	-0.028	0.140
-222.655	-174.662	-0.267	-0.008
-221.640	13.855	0.053	0.041
-220.625	-66.087	0.242	0.096
-219.611	-116.611	-0.401	0.074
-218.596	-22.521	0.131	-0.079
-217.582	-200.000	-0.041	0.194
-216.567	157.968	-0.032	-0.044
-215.552	28.358	-0.182	0.153
-214.538	-61.247	0.109	-0.046
-213.523	397.614	0.041	0.086
-212.509	140.608	-0.206	-0.272
-211.494	-54.141	-0.212	0.096
-210.479	800.000	0.038	0.140
-209.465	-200.000	0.025	-0.245
-208.450	-95.134	-0.377	0.102
-207.436	366.712	-0.071	0.143
-206.421	800.000	-0.069	-0.302
-205.406	-3.085	0.120	-0.083
-204.392	-200.000	0.008	0.116
-203.377	-92.827	-0.205	0.057
-202.363	-190.169	-0.120	0.001
-201.348	-200.000	-0.017	0.135
-200.333	-76.440	-0.103	-0.036
-199.319	-15.145	0.400	-0.256
-198.304	727.030	-0.088	-0.235
-197.290	-149.369	-0.125	-0.010
-196.275	212.656	0.067	-0.105
-195.260	628.527	-0.075	0.189
-194.246	81.693	-0.191	0.206
-193.231	-189.335	0.293	0.003
-192.217	97.112	0.175	-0.201
-191.202	13.953	0.192	-0.149
-190.187	298.407	-0.013	0.025
-189.173	-200.000	-0.021	0.240
-188.158	-200.000	-0.025	-0.344
-187.144	-80.223	0.200	-0.067
-186.129	82.345	-0.194	0.210
-185.114	49.529	-0.123	-0.116
-184.100	25.992	0.253	-0.210
-183.085	-55.942	-0.294	-0.131
-182.071	60.038	0.267	-0.263
-181.056	-55.759	0.243	0.108
-180.042	420.118	0.260	-0.554
-179.027	-24.200	-0.113	0.067
-178.012	-72.129	0.301	-0.112
-176.998	54.814	0.160	-0.154
-175.983	124.850	-0.183	-0.230
-174.969	-156.524	0.161	0.010
-173.954	800.000	-0.062	-0.193
-172.939	-200.000	0.049	-0.324
-171.925	-107.306	-0.223	-0.049
-170.910	48.751	0.209	-0.195
-169.896	-100.247	-0.172	0.043
-168.881	165.773	-0.143	-0.201
-167.866	-32.550	-0.280	0.155
-166.852	123.243	-0.400	0.500
-165.837	-200.000	-0.034	-0.289
-164.823	-114.448	-0.076	0.015
-163.808	-61.083	0.302	0.127
-162.793	117.867	0.207	0.254
-161.779	6.805	0.356	0.264
-160.764	175.611	-0.082	0.118
-159.750	800.000	-0.063	-0.222
-158.735	-200.000	-0.028	-0.152
-157.720	599.615	-0.072	-0.178
-156.706	-200.000	-0.022	0.273
-155.691	800.000	0.050	0.144
-154.677	63.725	0.125	0.125
-153.662	-200.000	0.026	0.178
-152.647	61.062	0.241	0.239
-151.633	-70.324	0.280	-0.106
-150.618	800.000	0.065	-0.192
-149.604	107.628	-0.148	0.176
-148.589	476.337	-0.156	0.352
-147.574	219.849	0.129	0.206
-146.560	32.478	0.161	-0.139
-145.545	-82.125	0.276	0.090
-144.531	39.600	-0.069	-0.062
-143.516	47.461	0.045	-0.042
-142.502	41.213	-0.325	0.292
-141.487	-37.816	0.357	0.189
-140.472	-83.310	0.116	-0.037
-139.458	-179.850	0.312	0.007
-138.443	197.495	0.055	0.083
-137.429	588.608	0.076	-0.186
-136.414	-200.000	0.019	0.197
-135.399	299.615	-0.127	-0.233
-134.385	-82.711	0.281	0.090
-133.370	333.074	0.171	0.329
-132.356	-75.856	0.301	-0.106
-131.341	-139.865	0.182	0.019
-130.326	-65.245	-0.174	0.070
-129.312	-200.000	-0.053	-0.358
-128.297	-43.101	-0.190	-0.096
-127.283	-30.540	0.075	0.043
-126.268	-200.000	0.005	-0.157
-125.253	-200.000	-0.017	0.133
-124.239	-200.000	0.028	-0.207
-123.224	408.608	0.175	-0.368
-122.210	-200.000	-0.015	-0.140
