DTS Sentinel unit serial number:	SN413079Multiplexer serial number:	ORYXHardware model number:	OX4-SRSoftware version number:	ORYX F/W v4.00 Oryx Data Collector v3.7.2.0data status	okinstallation	princeton_trtdifferential loss correction	single-endedforward channel	channel 3reverse channel	N/Adate	2019/09/14time	14:52:34forward acquisition time	60.00reverse acquisition time	0.00gamma	496.2192k internal	0.2293k external	0.2293temperature offset calibration	1.0056default loss term (dB/km)	0.3790temperature slope calibration	1.0000multiplexer offset coefficient	1.0000multiplexer slope coefficient	1.0000fibre end	0.00T internal ref (°C)	39.12T ext. ref 1 (°C)	5.01T ext. ref 2 (°C)	33.84length (m)	temperature (°C)	Stokes	anti-Stokes-747.200	150.281	-0.037	-0.052
-746.185	-9.892	0.261	0.178
-745.171	371.114	0.064	-0.133
-744.156	800.000	-0.063	0.224
-743.142	-200.000	0.019	0.182
-742.127	-102.472	0.067	0.017
-741.112	146.361	-0.066	0.091
-740.098	108.502	0.185	0.226
-739.083	-200.000	0.000	0.352
-738.069	800.000	0.120	0.339
-737.054	-63.778	-0.074	0.031
-736.039	-200.000	-0.068	-0.336
-735.025	-200.000	0.005	-0.044
-734.010	-193.877	0.304	-0.003
-732.996	-57.968	-0.156	-0.069
-731.981	-200.000	0.013	0.237
-730.966	69.023	0.383	-0.402
-729.952	-110.929	-0.156	-0.033
-728.937	524.982	-0.074	-0.178
-727.923	775.599	-0.057	0.159
-726.908	-37.901	-0.360	-0.195
-725.894	-200.000	0.076	-0.506
-724.879	265.483	0.100	0.179
-723.864	-179.283	-0.101	0.002
-722.850	-200.000	-0.038	-0.281
-721.835	-183.596	-0.385	-0.007
-720.821	67.128	0.057	-0.059
-719.806	15.643	-0.162	-0.130
-718.791	641.427	-0.081	-0.210
-717.777	475.065	-0.112	0.258
-716.762	293.338	-0.097	-0.181
-715.748	-127.299	-0.116	-0.017
-714.733	263.472	0.298	-0.528
-713.718	75.072	-0.314	-0.338
-712.704	369.086	-0.129	-0.267
-711.689	62.163	0.135	-0.138
-710.675	-53.133	0.235	-0.110
-709.660	800.000	-0.204	-0.588
-708.645	472.103	0.029	0.067
-707.631	-75.579	0.206	0.075
-706.616	-13.382	0.201	-0.133
-705.602	-200.000	-0.044	-0.491
-704.587	-102.189	-0.188	-0.046
-703.572	-83.196	-0.275	0.090
-702.558	3.245	-0.422	-0.314
-701.543	-200.000	0.025	-0.138
-700.529	8.916	0.060	0.046
-699.514	198.453	-0.076	-0.119
-698.499	244.601	0.093	-0.160
-697.485	59.154	0.131	-0.131
-696.470	-168.883	0.316	-0.012
-695.456	-200.000	-0.044	-0.198
-694.441	157.680	-0.113	-0.160
-693.426	-122.569	0.155	0.026
-692.412	1.290	0.333	0.244
-691.397	98.106	0.117	-0.138
-690.383	683.275	0.199	-0.530
-689.368	-200.000	-0.011	0.197
-688.354	-102.453	-0.099	-0.024
-687.339	800.000	0.080	0.231
-686.324	-27.317	-0.084	0.050
-685.310	800.000	-0.056	-0.212
-684.295	-200.000	0.032	0.177
-683.281	-122.999	-0.456	-0.075
-682.266	268.423	-0.114	-0.204
-681.251	116.138	0.396	-0.494
-680.237	-200.000	-0.041	-0.337
-679.222	384.633	0.081	-0.171
-678.208	-200.000	-0.010	-0.208
-677.193	800.000	-0.027	0.108
-676.178	-126.370	0.204	0.031
-675.164	-139.477	0.272	-0.030
-674.149	-109.662	-0.256	-0.055
-673.135	13.834	-0.297	-0.236
-672.120	-200.000	-0.036	-0.185
-671.105	203.909	-0.224	-0.353
-670.091	-110.343	0.094	0.020
-669.076	800.000	-0.058	0.201
-668.062	-98.672	-0.250	-0.065
-667.047	184.275	-0.099	0.150
-666.032	800.000	-0.091	-0.358
-665.018	-47.250	0.146	0.072
-664.003	-87.801	-0.069	0.021
-662.989	800.000	0.038	0.116
-661.974	-137.011	-0.279	-0.033
-660.959	542.182	-0.024	0.057
-659.945	-41.705	0.512	-0.268
-658.930	82.841	0.167	0.185
-657.916	20.201	-0.192	-0.158
-656.901	165.075	-0.016	0.023
-655.886	311.051	-0.135	-0.257
-654.872	430.294	-0.088	0.194
-653.857	-81.461	-0.432	-0.145
-652.843	-200.000	-0.024	-0.168
-651.828	38.203	-0.088	-0.080
-650.814	-26.444	-0.333	0.199
-649.799	95.124	0.055	-0.064
-648.784	-42.616	-0.263	-0.137
-647.770	-200.000	0.009	-0.227
-646.755	596.117	0.089	-0.224
-645.741	259.320	0.231	0.406
-644.726	-79.166	-0.082	-0.028
-643.711	800.000	0.076	-0.334
-642.697	191.007	-0.163	-0.250
-641.682	800.000	0.043	-0.188
-640.668	-70.729	0.122	0.047
-639.653	-120.362	-0.149	-0.026
-638.638	-200.000	0.041	0.251
-637.624	800.000	-0.128	-0.369
-636.609	711.705	-0.078	-0.212
-635.595	-129.925	0.203	0.028
-634.580	50.254	0.029	-0.028
-633.565	604.025	0.013	0.033
-632.551	-126.624	0.324	0.049
-631.536	-93.436	-0.262	0.074
-630.522	-103.289	0.140	0.034
-629.507	-171.156	0.153	0.005
-628.492	-117.533	0.361	-0.066
-627.478	24.339	-0.211	0.177
-626.463	39.384	-0.125	-0.114
-625.449	-200.000	-0.017	0.159
-624.434	-27.532	-0.117	0.069
-623.419	-66.075	-0.119	0.048
-622.405	-20.014	-0.389	-0.244
-621.390	-200.000	-0.005	0.025
-620.376	-153.453	0.284	0.020
-619.361	-43.894	-0.197	0.101
-618.346	29.576	-0.194	0.168
-617.332	-79.751	0.144	0.049
-616.317	-200.000	-0.038	-0.320
-615.303	-200.000	0.037	-0.257
-614.288	687.948	0.006	-0.017
-613.273	-200.000	0.004	-0.049
-612.259	800.000	-0.060	0.193
-611.244	-52.425	0.262	0.123
-610.230	-115.150	-0.166	0.032
-609.215	-200.000	0.043	-0.228
-608.201	177.384	-0.165	-0.244
-607.186	170.933	-0.018	-0.026
-606.171	-200.000	-0.065	-0.427
-605.157	236.429	-0.095	0.161
-604.142	-200.000	0.087	0.486
-603.128	-200.000	-0.009	0.101
-602.113	156.261	-0.181	-0.255
-601.098	222.240	0.033	-0.055
-600.084	-88.796	0.371	0.112
-599.069	-200.000	0.007	-0.113
-598.055	475.535	0.061	0.139
-597.040	314.155	-0.126	-0.241
-596.025	-0.971	0.091	-0.065
-595.011	-45.183	-0.209	0.106
-593.996	-26.933	0.205	0.122
-592.982	110.884	0.120	-0.147
-591.967	-200.000	-0.052	-0.245
-590.952	-103.883	-0.346	-0.082
-589.938	-200.000	-0.021	-0.263
-588.923	-107.911	0.271	-0.060
-587.909	29.763	0.199	0.172
-586.894	187.249	-0.109	-0.165
-585.879	40.549	0.043	-0.040
-584.865	-200.000	0.100	-0.452
-583.850	123.064	0.129	-0.165
-582.836	49.187	-0.237	0.226
-581.821	-68.249	0.123	-0.049
-580.806	-7.337	-0.205	0.141
-579.792	161.823	-0.119	0.169
-578.777	-155.913	0.295	-0.019
-577.763	566.230	-0.073	-0.180
-576.748	68.875	-0.068	-0.071
-575.733	114.130	0.116	-0.143
-574.719	262.515	0.085	-0.150
-573.704	-77.754	-0.151	-0.053
-572.690	184.137	-0.150	-0.226
-571.675	-59.577	0.259	0.113
-570.661	168.390	-0.229	0.332
-569.646	-200.000	-0.003	-0.209
-568.631	-200.000	0.032	-0.339
-567.617	198.925	0.156	0.242
-566.602	-172.556	-0.247	0.008
-565.588	59.327	-0.094	0.094
-564.573	18.410	0.317	0.257
-563.558	16.599	-0.131	-0.105
-562.544	68.056	-0.330	0.343
-561.529	419.999	0.085	-0.185
-560.515	122.126	-0.137	0.173
-559.500	-91.926	-0.158	-0.045
-558.485	-200.000	0.036	-0.313
-557.471	-193.110	-0.239	-0.002
-556.456	200.955	-0.171	-0.267
-555.442	148.886	0.032	0.044
-554.427	-39.466	-0.140	-0.074
-553.412	-63.505	-0.426	-0.178
-552.398	256.724	0.208	0.364
-551.383	-71.025	-0.188	-0.072
-550.369	468.890	-0.205	-0.467
-549.354	-68.484	0.254	-0.100
-548.339	3.576	0.177	0.131
-547.325	-114.709	-0.407	0.079
-546.310	-108.004	-0.104	0.023
-545.296	-200.000	-0.022	-0.130
-544.281	98.408	0.130	-0.152
-543.266	75.106	0.194	-0.208
-542.252	-106.340	-0.131	0.030
-541.237	-132.465	-0.089	0.012
-540.223	-200.000	0.036	-0.165
-539.208	234.739	0.088	0.147
-538.193	254.250	0.111	-0.192
-537.179	-151.657	0.120	0.009
-536.164	-44.551	0.088	-0.045
-535.150	222.636	-0.047	-0.077
-534.135	-134.468	-0.236	-0.029
-533.121	163.095	0.280	-0.400
-532.106	-148.940	-0.187	0.015
-531.091	268.387	0.157	-0.279
-530.077	49.040	0.060	-0.057
-529.062	-200.000	0.003	-0.024
-528.048	-43.056	0.166	0.086
-527.033	136.936	-0.158	0.210
-526.018	49.295	0.302	-0.288
-525.004	-17.309	-0.150	-0.096
-523.989	10.650	-0.136	0.105
-522.975	234.684	0.049	0.082
-521.960	-161.514	0.118	0.006
-520.945	308.744	-0.024	0.046
-519.931	-200.000	0.049	0.419
-518.916	-200.000	-0.050	0.287
-517.902	-200.000	-0.054	-0.535
-516.887	-200.000	-0.035	0.180
-515.872	-79.656	-0.194	0.066
-514.858	289.673	0.113	0.207
-513.843	-15.630	0.125	-0.081
-512.829	-200.000	0.002	-0.338
-511.814	-200.000	-0.041	0.407
-510.799	-133.098	0.249	-0.032
-509.785	800.000	-0.121	0.449
-508.770	-20.080	0.139	0.087
-507.756	-35.498	-0.241	-0.133
-506.741	-200.000	0.003	-0.222
-505.726	-200.000	-0.014	0.095
-504.712	52.690	-0.251	-0.243
-503.697	579.385	-0.022	0.054
-502.683	800.000	0.024	-0.093
-501.668	-146.011	-0.258	-0.023
-500.653	-121.895	-0.549	0.092
-499.639	57.275	-0.256	0.253
-498.624	-122.718	0.198	0.033
-497.610	-200.000	-0.055	0.277
-496.595	36.913	0.189	0.169
-495.581	800.000	0.080	0.229
-494.566	-200.000	-0.057	-0.327
-493.551	0.279	-0.078	-0.056
-492.537	-172.820	-0.176	0.006
-491.522	523.718	-0.126	-0.299
-490.508	-200.000	-0.012	-0.125
-489.493	117.012	-0.081	-0.101
-488.478	519.369	-0.062	-0.146
-487.464	-104.632	0.146	0.034
-486.449	-200.000	-0.033	-0.207
-485.435	189.445	-0.100	0.153
-484.420	-84.235	-0.251	-0.081
-483.405	800.000	0.011	0.048
-482.391	-141.150	0.197	0.020
-481.376	-200.000	0.383	0.000
-480.362	-173.532	0.299	0.009
-479.347	608.240	0.009	0.022
-478.332	-59.881	0.156	-0.068
-477.318	800.000	0.081	-0.347
-476.303	-200.000	-0.003	0.121
-475.289	-200.000	-0.001	0.019
-474.274	-51.128	-0.126	0.060
-473.259	-129.404	-0.151	0.021
-472.245	-123.632	-0.175	-0.028
-471.230	-102.563	-0.136	0.033
-470.216	289.996	-0.123	0.225
-469.201	-111.013	-0.134	0.028
-468.186	-200.000	-0.013	-0.058
-467.172	383.649	-0.062	-0.129
-466.157	123.818	0.272	0.345
-465.143	9.098	-0.055	-0.042
-464.128	338.499	-0.052	0.102
-463.113	575.094	0.049	0.122
-462.099	-62.177	-0.162	-0.068
-461.084	-200.000	-0.044	0.295
-460.070	800.000	0.025	-0.074
-459.055	368.371	0.057	-0.117
-458.040	379.911	0.033	0.068
-457.026	473.595	-0.143	-0.326
-456.011	-113.424	0.358	0.071
-454.997	800.000	-0.057	-0.181
-453.982	218.863	0.119	-0.192
-452.968	-99.246	0.372	0.095
-451.953	-200.000	-0.022	0.135
-450.938	57.357	-0.116	-0.115
-449.924	-112.344	-0.169	0.034
-448.909	8.762	0.149	0.113
-447.895	34.157	-0.065	0.057
-446.880	800.000	0.026	0.106
-445.865	-63.076	-0.191	0.080
-444.851	383.594	0.068	0.142
-443.836	146.611	-0.169	-0.230
-442.822	-145.394	-0.191	0.017
-441.807	352.687	0.072	0.145
-440.792	-36.963	-0.220	0.119
-439.778	211.846	0.079	-0.125
-438.763	-200.000	0.010	-0.151
-437.749	-49.882	0.240	0.115
-436.734	-200.000	-0.026	0.130
-435.719	60.074	-0.079	0.079
-434.705	-200.000	-0.005	-0.044
-433.690	-141.222	0.353	0.036
-432.676	25.841	0.116	-0.097
-431.661	-200.000	0.043	-0.237
-430.646	-200.000	0.029	0.193
-429.632	-128.749	-0.334	-0.048
-428.617	-113.908	-0.115	-0.022
-427.603	512.746	0.018	0.043
-426.588	-200.000	0.020	-0.090
-425.573	-82.311	-0.105	0.034
-424.559	-151.518	0.209	-0.016
-423.544	800.000	-0.059	-0.165
-422.530	-96.781	0.048	0.013
-421.515	3.138	0.166	-0.122
-420.500	96.491	0.225	0.260
-419.486	800.000	-0.045	-0.171
-418.471	800.000	0.044	0.190
-417.457	-113.403	-0.253	-0.050
-416.442	331.719	-0.124	-0.243
-415.428	162.576	0.080	0.113
-414.413	504.121	-0.119	0.277
-413.398	359.836	-0.178	0.359
-412.384	-45.592	-0.143	-0.072
-411.369	-128.822	-0.356	0.051
-410.355	-88.230	0.374	-0.113
-409.340	800.000	0.068	0.263
-408.325	-14.526	0.209	0.136
-407.311	350.282	-0.161	0.322
-406.296	-25.433	-0.355	-0.212
-405.282	-70.057	-0.328	0.126
-404.267	9.840	0.051	0.039
-403.252	-124.258	0.373	0.059
-402.238	74.020	-0.261	-0.276
-401.223	473.367	0.097	0.221
-400.209	-107.368	-0.296	-0.066
-399.194	800.000	0.061	-0.216
-398.179	-200.000	0.001	-0.040
-397.165	-200.000	-0.024	-0.273
-396.150	-200.000	0.033	-0.194
-395.136	-163.926	-0.140	0.007
-394.121	41.897	0.214	0.196
-393.106	800.000	-0.086	0.299
-392.092	508.191	-0.167	0.391
-391.077	-200.000	0.019	-0.117
-390.063	-54.631	-0.253	0.115
-389.048	175.521	0.084	0.123
-388.033	-151.653	-0.258	0.019
-387.019	-135.472	-0.073	0.009
-386.004	711.430	-0.061	0.162
-384.990	-155.532	0.133	0.009
-383.975	-163.352	0.192	0.009
-382.960	-4.132	-0.362	-0.253
-381.946	289.598	-0.067	-0.123
-380.931	800.000	-0.067	0.223
-379.917	-125.556	-0.276	-0.042
-378.902	800.000	0.005	-0.019
-377.888	190.921	0.067	0.101
-376.873	61.290	-0.313	0.314
-375.858	-143.520	-0.163	0.016
-374.844	-200.000	0.059	0.354
-373.829	-72.069	-0.133	0.050
-372.815	-92.088	0.240	-0.068
-371.800	45.762	0.324	0.302
-370.785	-62.396	-0.194	0.081
-369.771	800.000	-0.081	-0.292
-368.756	-38.576	-0.332	-0.177
-367.742	-114.164	0.089	0.017
-366.727	-200.000	0.001	0.034
-365.712	-128.908	0.265	0.038
-364.698	-127.835	0.366	-0.053
-363.683	55.693	0.019	-0.018
-362.669	67.165	0.261	-0.269
-361.654	-200.000	0.072	0.426
-360.639	75.951	-0.123	0.131
-359.625	-144.206	0.309	0.029
-358.610	147.222	-0.059	0.080
-357.596	456.777	0.030	0.068
-356.581	-82.040	0.149	0.049
-355.566	-101.407	-0.207	0.051
-354.552	-42.516	0.401	0.206
-353.537	183.126	0.300	0.447
-352.523	800.000	0.073	0.297
-351.508	175.678	-0.197	-0.288
-350.493	56.609	-0.236	0.232
-349.479	556.761	0.049	0.119
-348.464	56.612	0.192	0.188
-347.450	51.781	0.135	-0.130
-346.435	-61.115	0.091	0.039
-345.420	87.871	-0.059	-0.066
-344.406	-34.225	0.039	-0.022
-343.391	-166.663	-0.229	-0.010
-342.377	-88.729	0.269	0.080
-341.362	71.826	0.073	-0.076
-340.348	551.594	0.117	0.284
-339.333	317.101	0.075	0.142
-338.318	-18.033	-0.248	-0.157
-337.304	259.704	0.085	-0.148
-336.289	-157.264	0.110	0.007
-335.275	-85.121	-0.348	0.110
-334.260	-128.238	-0.183	-0.026
-333.245	29.555	0.224	-0.192
-332.231	132.259	-0.143	-0.186
-331.216	150.575	-0.077	-0.105
-330.202	800.000	-0.052	-0.146
-329.187	-200.000	0.049	0.391
-328.172	124.735	-0.254	0.322
-327.158	-2.925	-0.154	-0.108
-326.143	-79.583	0.114	-0.039
-325.129	-10.540	0.238	0.159
-324.114	241.058	0.234	0.394
-323.099	524.951	-0.142	0.336
-322.085	42.763	0.272	0.249
-321.070	39.613	0.082	-0.074
-320.056	-74.144	-0.208	0.076
-319.041	-48.818	-0.172	-0.083
-318.026	-46.971	0.216	-0.106
-317.012	356.525	0.106	0.213
-315.997	-83.641	-0.242	-0.078
-314.983	-200.000	-0.049	-0.371
-313.968	104.394	0.136	-0.161
-312.953	800.000	0.120	-0.385
-311.939	74.450	-0.379	0.401
-310.924	-152.313	-0.224	-0.016
-309.910	800.000	0.073	-0.322
-308.895	178.033	-0.160	0.234
-307.880	128.642	-0.241	0.309
-306.866	314.426	0.102	0.192
-305.851	383.901	-0.163	0.337
-304.837	133.367	-0.191	0.248
-303.822	171.496	0.110	0.159
-302.807	15.508	-0.097	-0.077
-301.793	623.504	-0.090	-0.229
-300.778	181.942	0.103	0.153
-299.764	99.988	-0.200	0.234
-298.749	2.407	0.260	-0.189
-297.735	-15.857	0.238	-0.153
-296.720	-174.688	-0.163	0.005
-295.705	499.272	-0.120	-0.278
-294.691	138.621	0.185	-0.244
-293.676	800.000	0.133	-0.436
-292.662	-83.612	0.249	-0.080
-291.647	514.372	0.093	-0.217
-290.632	235.993	-0.044	-0.074
-289.618	800.000	-0.026	0.078
-288.603	15.932	0.143	-0.113
-287.589	152.048	-0.085	-0.116
-286.574	800.000	0.090	0.317
-285.559	86.428	-0.082	-0.091
-284.545	30.667	-0.315	-0.271
-283.530	-200.000	-0.007	-0.455
-282.516	800.000	-0.105	0.297
-281.501	-7.339	0.283	0.193
-280.486	-200.000	-0.013	-0.267
-279.472	60.687	-0.250	-0.248
-278.457	-136.354	0.231	-0.027
-277.443	276.251	-0.144	0.256
-276.428	78.408	0.106	-0.114
-275.413	-135.770	0.133	-0.016
-274.399	-200.000	-0.020	-0.137
-273.384	-63.193	-0.095	-0.039
-272.370	-119.601	-0.402	0.070
-271.355	117.709	-0.160	0.198
-270.340	-138.045	0.364	-0.041
-269.326	-8.992	0.241	0.162
-268.311	-68.234	-0.155	-0.060
-267.297	252.864	0.086	-0.147
-266.282	-37.627	0.157	0.084
-265.267	-99.060	0.340	-0.087
-264.253	-34.166	0.097	0.053
-263.238	73.134	-0.113	-0.118
-262.224	-16.903	-0.249	0.158
-261.209	-83.503	0.137	-0.044
-260.195	81.167	0.148	0.160
-259.180	-200.000	-0.013	0.268
-258.165	-117.348	0.233	0.042
-257.151	241.992	0.132	-0.221
-256.136	-87.083	0.189	0.058
-255.122	-200.000	0.024	0.195
-254.107	67.270	-0.156	0.160
-253.092	800.000	-0.056	0.199
-252.078	585.012	0.092	0.228
-251.063	47.820	0.300	-0.281
-250.049	623.307	0.150	0.378
-249.034	800.000	0.020	-0.080
-248.019	-128.364	0.217	0.031
-247.005	-44.789	0.120	0.060
-245.990	-68.658	0.267	-0.104
-244.976	-20.543	-0.218	-0.134
-243.961	469.195	-0.071	0.161
-242.946	339.627	-0.102	0.200
-241.932	-52.995	-0.097	-0.045
-240.917	41.584	0.095	-0.086
-239.903	152.507	-0.112	-0.154
-238.888	-45.717	-0.285	-0.141
-237.873	269.045	-0.141	-0.248
-236.859	108.928	-0.239	-0.286
-235.844	176.583	0.094	-0.137
-234.830	17.156	-0.195	0.155
-233.815	-49.925	0.032	-0.015
-232.800	800.000	0.009	0.029
-231.786	800.000	-0.055	-0.204
-230.771	5.953	0.235	-0.175
-229.757	243.019	0.038	-0.063
-228.742	31.897	-0.309	0.267
-227.727	-12.470	0.215	0.141
-226.713	-164.230	-0.127	0.006
-225.698	800.000	-0.068	-0.208
-224.684	64.537	0.076	0.077
-223.669	-138.920	0.069	0.007
-222.655	3.732	0.140	-0.102
-221.640	661.144	-0.138	0.357
-220.625	-60.324	-0.149	-0.064
-219.611	34.017	-0.173	-0.151
-218.596	542.166	0.069	0.164
-217.582	-19.188	0.213	-0.133
-216.567	800.000	0.114	0.331
-215.552	-114.380	-0.168	0.032
-214.538	-66.651	0.165	0.066
-213.523	30.019	-0.132	0.113
-212.509	15.691	-0.234	0.185
-211.494	36.615	-0.047	-0.042
-210.479	207.284	0.158	-0.247
-209.465	-133.056	0.402	0.051
-208.450	46.096	-0.312	-0.290
-207.436	490.824	0.009	0.021
-206.421	19.596	0.253	0.204
-205.406	-129.099	-0.142	0.020
-204.392	580.724	-0.024	0.060
-203.377	-98.219	-0.113	0.029
-202.363	-91.561	0.169	-0.048
-201.348	638.765	0.056	-0.143
-200.333	217.785	0.056	-0.089
-199.319	63.476	0.064	-0.064
-198.304	84.996	0.154	0.169
-197.290	7.748	0.206	-0.155
-196.275	-15.463	0.125	-0.080
-195.260	-56.330	-0.131	-0.058
-194.246	800.000	-0.040	0.157
-193.231	-56.726	-0.061	-0.027
-192.217	-34.575	0.149	0.082
-191.202	645.244	0.020	0.051
-190.187	27.239	-0.175	-0.147
-189.173	-200.000	0.038	0.186
-188.158	-119.048	-0.247	0.043
-187.144	-104.573	0.479	0.111
-186.129	17.784	0.139	-0.111
-185.114	-200.000	-0.037	0.441
-184.100	-42.818	0.136	0.069
-183.085	82.826	0.336	-0.365
-182.071	-47.685	0.244	-0.119
-181.056	44.140	0.142	-0.131
-180.042	-200.000	0.061	0.294
-179.027	-165.037	0.268	0.012
-178.012	-99.860	0.412	-0.103
-176.998	-49.328	0.115	0.055
-175.983	-48.436	0.201	0.097
-174.969	800.000	-0.082	0.288
-173.954	283.947	-0.066	0.119
-172.939	87.303	0.189	-0.210
-171.925	-106.715	0.098	0.022
-170.910	-156.909	0.293	0.018
-169.896	-40.925	0.110	0.057
-168.881	447.851	0.094	-0.208
-167.866	684.517	-0.150	-0.392
-166.852	-58.857	-0.169	-0.073
-165.837	-80.069	-0.102	0.034
-164.823	-200.000	-0.035	-0.221
-163.808	-78.827	-0.418	0.143
-162.793	-200.000	0.068	-0.430
-161.779	4.376	0.305	-0.224
-160.764	464.066	0.093	0.208
-159.750	53.437	0.150	0.144
-158.735	-200.000	-0.005	-0.037
-157.720	65.136	0.218	0.220
-156.706	11.421	-0.199	-0.152
-155.691	-111.641	-0.312	0.063
-154.677	-200.000	-0.040	0.323
-153.662	115.381	0.116	-0.142
-152.647	-34.628	-0.061	-0.033
-151.633	51.033	-0.175	0.166
-150.618	800.000	0.038	0.161
-149.604	7.606	0.455	-0.340
-148.589	11.248	0.165	-0.126
-147.574	-28.743	-0.163	-0.094
-146.560	-111.637	0.310	0.063
-145.545	-81.442	-0.335	-0.110
-144.531	-117.365	0.389	0.070
-143.516	43.398	0.184	0.168
-142.502	208.305	0.071	0.110
-141.487	-16.053	0.114	0.072
-140.472	-45.185	-0.206	0.102
-139.458	-137.693	-0.146	-0.016
-138.443	-5.563	0.175	0.120
-137.429	593.880	-0.088	0.218
-136.414	106.668	0.075	0.089
-135.399	-45.629	0.264	0.130
-134.385	-151.810	0.446	-0.033
-133.370	-200.000	-0.015	0.337
-132.356	-51.313	-0.314	-0.147
-131.341	-141.421	0.100	0.010
-130.326	-149.795	0.315	0.025
-129.312	-42.069	-0.122	-0.062
-128.297	-70.449	-0.152	-0.057
-127.283	-200.000	-0.019	0.204
-126.268	-84.958	0.196	-0.061
-125.253	-45.623	-0.035	-0.017
-124.239	121.961	0.253	-0.315
-123.224	-104.881	0.213	0.049
-122.210	-66.060	0.114	0.046
-121.195	-183.829	0.163	-0.003
