DTS Sentinel unit serial number:	SN413079Multiplexer serial number:	ORYXHardware model number:	OX4-SRSoftware version number:	ORYX F/W v4.00 Oryx Data Collector v3.7.2.0data status	okinstallation	princeton_trtdifferential loss correction	single-endedforward channel	channel 3reverse channel	N/Adate	2019/09/16time	13:00:35forward acquisition time	60.00reverse acquisition time	0.00gamma	496.2192k internal	0.2295k external	0.2295temperature offset calibration	0.9942default loss term (dB/km)	0.3790temperature slope calibration	1.0000multiplexer offset coefficient	1.0000multiplexer slope coefficient	1.0000fibre end	0.00T internal ref (°C)	40.56T ext. ref 1 (°C)	13.59T ext. ref 2 (°C)	37.84length (m)	temperature (°C)	Stokes	anti-Stokes-747.200	460.183	0.162	-0.368
-746.185	800.000	-0.040	0.162
-745.171	286.937	0.071	0.132
-744.156	-57.710	0.274	0.123
-743.142	153.736	0.151	0.212
-742.127	-84.266	0.086	0.028
-741.112	-16.239	-0.176	0.114
-740.098	-11.200	-0.150	0.101
-739.083	-88.091	0.147	-0.045
-738.069	800.000	-0.101	0.330
-737.054	-200.000	0.001	0.108
-736.039	-11.915	-0.185	-0.124
-735.025	50.071	0.085	0.082
-734.010	-40.714	-0.077	-0.041
-732.996	-172.668	0.124	-0.004
-731.981	-173.870	-0.177	-0.005
-730.966	229.774	0.292	-0.488
-729.952	-135.707	-0.133	-0.016
-728.937	39.774	0.100	0.092
-727.923	800.000	-0.138	-0.410
-726.908	28.137	-0.329	-0.283
-725.894	148.494	-0.205	0.282
-724.879	-11.794	0.105	0.070
-723.864	314.640	-0.038	0.073
-722.850	77.241	-0.133	-0.145
-721.835	155.785	-0.099	0.139
-720.821	-94.647	0.095	0.026
-719.806	-24.969	-0.349	0.211
-718.791	87.331	-0.059	-0.066
-717.777	205.572	-0.127	0.201
-716.762	-39.976	0.158	-0.084
-715.748	-58.850	0.276	0.122
-714.733	-200.000	0.010	0.288
-713.718	-118.758	-0.220	0.039
-712.704	-200.000	-0.055	-0.314
-711.689	-67.187	0.169	0.068
-710.675	-127.938	0.237	0.035
-709.660	464.651	0.081	0.186
-708.645	100.166	0.190	-0.225
-707.631	-200.000	-0.018	0.145
-706.616	558.308	-0.141	0.348
-705.602	-109.246	-0.274	-0.059
-704.587	-48.629	-0.071	0.035
-703.572	800.000	-0.117	-0.368
-702.558	800.000	-0.141	-0.520
-701.543	-73.430	-0.214	-0.080
-700.529	-5.245	-0.285	-0.200
-699.514	-200.000	0.008	-0.349
-698.499	-45.250	-0.077	0.039
-697.485	127.451	0.190	0.246
-696.470	-143.391	0.260	-0.025
-695.456	-55.800	0.091	-0.042
-694.441	-200.000	0.035	0.183
-693.426	66.613	-0.178	0.185
-692.412	388.198	0.053	0.111
-691.397	-136.960	-0.357	-0.042
-690.383	-142.699	-0.255	0.025
-689.368	-167.271	-0.184	-0.008
-688.354	-138.665	-0.157	0.018
-687.339	227.706	0.096	0.159
-686.324	800.000	0.032	-0.127
-685.310	-200.000	0.045	0.302
-684.295	-200.000	0.016	-0.256
-683.281	605.462	-0.007	-0.017
-682.266	89.753	0.185	-0.210
-681.251	87.408	0.048	-0.054
-680.237	-200.000	-0.038	-0.261
-679.222	-200.000	-0.023	-0.202
-678.208	-200.000	-0.022	0.512
-677.193	158.280	-0.032	-0.045
-676.178	-105.469	-0.244	0.056
-675.164	-5.563	-0.308	0.215
-674.149	800.000	0.010	0.043
-673.135	-55.958	-0.024	-0.011
-672.120	14.351	-0.126	0.100
-671.105	53.535	-0.140	0.137
-670.091	-200.000	-0.008	-0.044
-669.076	-92.629	-0.166	-0.048
-668.062	58.614	-0.209	-0.210
-667.047	-64.629	0.210	0.087
-666.032	518.047	0.085	0.202
-665.018	71.183	0.218	0.231
-664.003	-191.510	0.242	-0.002
-662.989	-67.062	0.104	-0.042
-661.974	244.121	-0.231	-0.396
-660.959	46.454	0.155	0.147
-659.945	-33.142	0.083	0.047
-658.930	-200.000	-0.015	-0.296
-657.916	-43.936	-0.318	-0.163
-656.901	-7.587	0.240	-0.166
-655.886	114.688	-0.027	-0.033
-654.872	50.220	-0.156	-0.150
-653.857	-34.339	0.101	-0.056
-652.843	-200.000	0.018	0.200
-651.828	800.000	-0.054	-0.187
-650.814	800.000	0.030	-0.098
-649.799	319.712	0.183	-0.354
-648.784	-200.000	-0.000	0.013
-647.770	800.000	0.087	-0.266
-646.755	-59.247	-0.041	0.018
-645.741	132.180	-0.053	-0.069
-644.726	-200.000	-0.005	-0.333
-643.711	52.637	0.056	0.054
-642.697	-144.159	-0.164	0.016
-641.682	-101.243	-0.302	-0.075
-640.668	-200.000	-0.006	-0.032
-639.653	-188.471	0.132	0.002
-638.638	-30.799	0.150	-0.086
-637.624	-31.704	-0.170	0.097
-636.609	223.344	-0.198	-0.326
-635.595	-150.288	0.373	0.029
-634.580	237.490	-0.168	-0.283
-633.565	-200.000	-0.005	-0.090
-632.551	121.313	0.217	0.275
-631.536	152.010	-0.179	0.248
-630.522	-200.000	0.024	-0.205
-629.507	-87.928	-0.190	0.058
-628.492	92.897	0.026	-0.029
-627.478	-44.290	-0.347	-0.177
-626.463	-51.036	0.255	-0.122
-625.449	66.816	0.210	0.218
-624.434	-59.608	0.188	-0.082
-623.419	-200.000	-0.025	-0.229
-622.405	-161.298	0.225	0.012
-621.390	318.563	-0.163	0.314
-620.376	236.579	-0.132	0.223
-619.361	-4.096	-0.146	-0.103
-618.346	744.841	0.055	-0.150
-617.332	800.000	0.036	-0.133
-616.317	5.445	0.179	0.134
-615.303	-47.712	0.244	-0.120
-614.288	-2.508	0.116	0.083
-613.273	108.095	-0.137	0.166
-612.259	99.323	0.308	0.363
-611.244	360.320	-0.073	-0.148
-610.230	-200.000	-0.001	-0.067
-609.215	800.000	0.070	-0.210
-608.201	174.624	0.046	-0.067
-607.186	-200.000	-0.025	0.172
-606.171	800.000	-0.058	0.178
-605.157	-0.755	-0.282	-0.203
-604.142	-200.000	-0.006	0.038
-603.128	191.861	0.096	0.148
-602.113	-63.524	-0.177	-0.074
-601.098	273.638	-0.038	-0.069
-600.084	53.224	-0.151	-0.147
-599.069	58.344	-0.136	-0.135
-598.055	-129.640	-0.226	0.032
-597.040	-200.000	0.051	-0.369
-596.025	-58.422	-0.208	-0.092
-595.011	196.740	0.135	-0.209
-593.996	-103.214	-0.242	0.058
-592.982	27.891	0.241	-0.206
-591.967	800.000	0.019	-0.056
-590.952	-200.000	-0.001	0.231
-589.938	800.000	0.050	-0.149
-588.923	623.918	-0.074	-0.190
-587.909	359.290	-0.130	0.264
-586.894	800.000	-0.046	-0.204
-585.879	107.855	0.125	0.152
-584.865	-200.000	0.005	0.161
-583.850	800.000	-0.021	0.075
-582.836	111.290	0.063	-0.077
-581.821	-132.863	0.325	0.042
-580.806	-200.000	-0.033	0.350
-579.792	685.325	0.081	0.214
-578.777	-200.000	-0.378	0.001
-577.763	797.070	0.035	-0.099
-576.748	-127.973	-0.208	0.030
-575.733	-106.960	0.217	0.049
-574.719	-38.930	0.107	0.057
-573.704	-40.442	-0.163	-0.086
-572.690	-200.000	-0.024	0.125
-571.675	-96.633	0.250	0.067
-570.661	800.000	0.048	0.177
-569.646	-26.343	-0.096	-0.057
-568.631	800.000	0.016	0.071
-567.617	800.000	0.095	-0.345
-566.602	-113.835	-0.483	0.095
-565.588	-200.000	-0.033	0.206
-564.573	276.050	-0.066	0.119
-563.558	189.913	0.156	0.238
-562.544	24.293	-0.095	-0.079
-561.529	128.103	-0.050	-0.065
-560.515	-104.716	0.347	-0.081
-559.500	-43.826	-0.058	-0.029
-558.485	229.119	0.048	0.079
-557.471	105.166	-0.119	0.143
-556.456	-200.000	-0.008	-0.040
-555.442	-47.684	-0.219	0.108
-554.427	379.837	0.119	-0.247
-553.412	19.393	0.045	0.037
-552.398	84.905	-0.040	-0.044
-551.383	-99.237	-0.326	-0.084
-550.369	-200.000	-0.085	0.381
-549.354	334.534	-0.115	0.227
-548.339	24.822	0.051	0.043
-547.325	800.000	-0.017	0.065
-546.310	-20.378	0.178	0.111
-545.296	-155.331	0.165	-0.011
-544.281	-51.625	0.100	-0.047
-543.266	-77.969	0.307	0.107
-542.252	717.996	-0.020	-0.053
-541.237	746.795	-0.102	-0.279
-540.223	546.966	-0.105	0.255
-539.208	800.000	0.053	-0.198
-538.193	-42.853	-0.224	-0.116
-537.179	14.335	-0.172	0.136
-536.164	-164.011	-0.187	0.009
-535.150	-141.528	-0.151	0.015
-534.135	-148.517	-0.115	0.010
-533.121	800.000	0.091	0.369
-532.106	25.004	-0.090	0.076
-531.091	-111.898	-0.339	0.069
-530.077	239.366	-0.169	0.285
-529.062	3.198	0.052	-0.038
-528.048	71.601	-0.089	0.094
-527.033	-20.481	-0.173	-0.108
-526.018	69.572	0.186	-0.194
-525.004	-200.000	-0.008	-0.220
-523.989	6.229	0.192	-0.145
-522.975	294.150	-0.054	0.099
-521.960	172.834	0.129	-0.188
-520.945	71.602	-0.206	-0.217
-519.931	-12.830	-0.061	0.040
-518.916	-53.109	-0.149	0.069
-517.902	-52.592	0.274	-0.128
-516.887	-200.000	-0.027	0.212
-515.872	-20.830	-0.123	-0.076
-514.858	469.565	0.066	-0.151
-513.843	480.703	0.046	-0.105
-512.829	27.583	-0.094	-0.080
-511.814	-170.142	0.100	0.004
-510.799	-200.000	0.021	0.256
-509.785	-41.194	0.053	0.028
-508.770	-200.000	0.034	0.272
-507.756	-90.492	-0.211	-0.062
-506.741	-83.517	-0.102	0.033
-505.726	-200.000	-0.023	0.191
-504.712	163.464	0.013	0.018
-503.697	-159.917	0.349	0.019
-502.683	-200.000	0.016	0.175
-501.668	800.000	-0.052	-0.184
-500.653	-200.000	-0.036	0.323
-499.639	-200.000	-0.042	0.275
-498.624	-200.000	-0.009	-0.049
-497.610	143.535	-0.193	-0.260
-496.595	-200.000	0.408	-0.001
-495.581	274.562	0.164	-0.294
-494.566	284.195	-0.091	0.165
-493.551	-200.000	0.026	0.322
-492.537	6.326	0.075	0.057
-491.522	182.215	0.141	0.211
-490.508	-200.000	-0.019	-0.147
-489.493	194.203	-0.085	-0.131
-488.478	-66.393	0.038	0.015
-487.464	-200.000	0.022	0.130
-486.449	800.000	-0.107	-0.447
-485.435	248.766	0.054	-0.092
-484.420	70.637	-0.260	0.272
-483.405	111.589	-0.111	0.136
-482.391	120.981	0.132	-0.167
-481.376	-76.345	0.228	-0.081
-480.362	98.050	0.116	0.135
-479.347	-44.348	0.208	0.106
-478.332	-200.000	0.002	0.156
-477.318	-121.802	0.223	0.037
-476.303	-200.000	0.029	0.221
-475.289	-124.593	-0.201	-0.032
-474.274	108.443	0.129	-0.155
-473.259	-120.857	-0.274	-0.047
-472.245	-122.623	-0.377	0.062
-471.230	12.404	0.241	0.188
-470.216	217.844	-0.181	-0.292
-469.201	-124.416	0.287	0.045
-468.186	25.704	-0.322	-0.272
-467.172	1.109	-0.216	-0.157
-466.157	800.000	0.090	-0.348
-465.143	-102.176	-0.084	0.021
-464.128	-57.739	-0.284	0.126
-463.113	488.440	0.114	-0.262
-462.099	-141.777	0.424	0.043
-461.084	133.335	0.107	0.140
-460.070	216.922	0.060	-0.096
-459.055	7.746	-0.424	0.321
-458.040	-200.000	-0.047	0.242
-457.026	-200.000	-0.041	-0.333
-456.011	-11.996	0.086	-0.057
-454.997	-68.856	0.232	-0.090
-453.982	262.060	-0.074	0.130
-452.968	-55.598	-0.163	-0.074
-451.953	-114.626	-0.245	0.047
-450.938	-163.065	-0.068	0.003
-449.924	385.830	-0.156	-0.325
-448.909	-51.405	0.156	0.074
-447.895	-200.000	0.009	-0.164
-446.880	-27.567	-0.211	0.124
-445.865	-200.000	0.067	0.342
-444.851	31.851	-0.129	-0.112
-443.836	102.004	0.221	0.261
-442.822	-200.000	-0.013	0.157
-441.807	-4.672	-0.085	0.059
-440.792	507.175	-0.120	0.282
-439.778	101.593	-0.031	0.037
-438.763	404.827	0.095	0.202
-437.749	-156.467	0.269	0.017
-436.734	-118.163	-0.402	0.072
-435.719	-113.557	-0.088	-0.017
-434.705	77.513	-0.149	-0.160
-433.690	-123.416	0.211	0.034
-432.676	80.255	0.106	0.115
-431.661	28.419	-0.060	0.051
-430.646	800.000	0.056	0.170
-429.632	800.000	-0.125	-0.372
-428.617	12.835	0.102	-0.080
-427.603	280.161	0.202	0.364
-426.588	143.095	-0.212	0.285
-425.573	-103.681	0.211	0.050
-424.559	-200.000	0.037	-0.272
-423.544	582.661	-0.051	0.126
-422.530	800.000	-0.039	-0.141
-421.515	-0.505	-0.312	-0.223
-420.500	-51.382	-0.077	0.036
-419.486	-14.461	0.084	0.054
-418.471	-200.000	0.015	-0.131
-417.457	800.000	0.073	-0.231
-416.442	61.332	-0.083	0.083
-415.428	-57.391	-0.323	-0.143
-414.413	800.000	0.067	0.238
-413.398	113.921	0.042	-0.052
-412.384	60.709	-0.126	-0.126
-411.369	102.579	-0.175	-0.206
-410.355	-124.329	0.093	-0.015
-409.340	-73.170	-0.086	-0.032
-408.325	-92.233	0.344	-0.098
-407.311	406.699	-0.055	-0.118
-406.296	647.302	-0.101	0.261
-405.282	94.987	0.170	0.195
-404.267	82.233	-0.276	0.302
-403.252	-10.252	0.297	-0.199
-402.238	139.451	-0.115	-0.152
-401.223	800.000	-0.041	-0.173
-400.209	16.028	0.178	-0.141
-399.194	-3.470	-0.191	-0.134
-398.179	-113.037	0.115	-0.023
-397.165	448.690	-0.064	-0.142
-396.150	111.314	-0.140	-0.170
-395.136	800.000	0.065	-0.257
-394.121	-39.174	0.198	-0.105
-393.106	-3.513	-0.119	-0.084
-392.092	254.606	-0.113	-0.195
-391.077	-188.210	0.279	-0.004
-390.063	127.532	0.134	0.171
-389.048	-57.347	-0.407	0.181
-388.033	-28.630	0.119	0.069
-387.019	-60.511	-0.408	-0.175
-386.004	-200.000	-0.001	-0.053
-384.990	-191.675	0.343	-0.003
-383.975	-50.937	-0.229	0.109
-382.960	16.801	0.228	0.182
-381.946	112.261	0.036	0.044
-380.931	-71.748	-0.076	-0.029
-379.917	-200.000	-0.090	0.447
-378.902	-53.605	0.244	-0.112
-377.888	-5.182	-0.302	-0.209
-376.873	-200.000	0.022	-0.404
-375.858	142.928	0.033	-0.044
-374.844	17.505	0.316	-0.253
-373.829	485.860	-0.082	-0.188
-372.815	-141.365	-0.080	-0.008
-371.800	-167.185	0.215	0.009
-370.785	116.006	0.126	-0.155
-369.771	217.155	0.191	0.306
-368.756	-134.766	0.069	0.008
-367.742	-106.588	-0.171	-0.038
-366.727	-76.238	-0.261	0.093
-365.712	-200.000	-0.054	-0.337
-364.698	-59.629	-0.349	-0.151
-363.683	598.595	-0.041	-0.103
-362.669	347.842	0.046	0.091
-361.654	-106.419	0.194	0.044
-360.639	87.894	-0.068	-0.076
-359.625	40.135	-0.174	-0.157
-358.610	51.717	-0.119	0.114
-357.596	42.598	0.199	-0.182
-356.581	52.508	-0.206	-0.198
-355.566	800.000	-0.113	-0.381
-354.552	74.573	-0.145	-0.153
-353.537	-87.857	-0.156	0.047
-352.523	-132.737	-0.306	-0.039
-351.508	196.323	-0.187	0.287
-350.493	190.050	-0.119	0.180
-349.479	194.330	-0.074	-0.113
-348.464	245.291	0.138	0.234
-347.450	-42.517	-0.361	0.185
-346.435	9.742	0.335	0.256
-345.420	132.440	0.233	-0.303
-344.406	-69.994	-0.359	-0.138
-343.391	386.391	-0.125	-0.259
-342.377	296.977	0.188	-0.348
-341.362	196.845	-0.168	0.257
-340.348	315.382	-0.032	-0.061
-339.333	-60.794	0.425	-0.181
-338.318	57.100	0.312	0.306
-337.304	132.617	-0.081	0.105
-336.289	-17.943	0.345	-0.218
-335.275	105.398	0.111	-0.132
-334.260	60.407	-0.057	-0.057
-333.245	19.633	-0.262	0.212
-332.231	411.157	0.110	-0.234
-331.216	63.631	0.138	-0.139
-330.202	113.222	-0.169	-0.207
-329.187	-80.820	-0.027	0.009
-328.172	-200.000	0.014	0.175
-327.158	-200.000	0.009	0.127
-326.143	-66.344	-0.149	-0.060
-325.129	-27.634	0.026	0.015
-324.114	-19.210	-0.120	0.075
-323.099	-150.002	0.109	-0.009
-322.085	33.409	-0.212	0.185
-321.070	-59.732	-0.071	-0.031
-320.056	800.000	-0.056	0.205
-319.041	-73.613	-0.044	0.016
-318.026	-200.000	0.016	0.204
-317.012	-51.062	0.159	0.075
-315.997	280.340	-0.049	0.087
-314.983	-26.833	0.107	0.063
-313.968	-25.406	-0.202	0.120
-312.953	326.353	-0.108	-0.207
-311.939	800.000	-0.063	0.195
-310.924	-99.229	-0.172	-0.044
-309.910	18.982	0.279	-0.225
-308.895	-27.536	-0.271	0.158
-307.880	-200.000	0.008	0.432
-306.866	30.525	0.378	0.325
-305.851	11.464	-0.229	0.177
-304.837	-87.731	0.339	0.103
-303.822	-38.119	0.284	-0.152
-302.807	471.580	-0.138	-0.313
-301.793	-103.239	0.270	-0.064
-300.778	-95.159	0.240	0.065
-299.764	-63.599	0.228	-0.094
-298.749	82.617	-0.079	0.087
-297.735	37.034	0.066	-0.059
-296.720	-68.064	0.216	-0.085
-295.705	-32.962	0.272	0.152
-294.691	-52.360	-0.389	0.181
-293.676	232.612	0.115	0.189
-292.662	-200.000	0.029	-0.272
-291.647	-12.033	-0.115	-0.076
-290.632	-130.762	0.217	0.029
-289.618	800.000	-0.062	-0.230
-288.603	-34.937	-0.084	0.046
-287.589	-200.000	0.004	-0.284
-286.574	-150.327	-0.224	-0.017
-285.559	-18.067	-0.137	0.086
-284.545	800.000	0.012	-0.033
-283.530	-91.930	-0.334	-0.095
-282.516	26.011	0.242	0.203
-281.501	-53.743	0.098	-0.045
-280.486	283.806	0.121	0.218
-279.472	-103.696	-0.418	0.098
-278.457	-63.460	0.443	-0.183
-277.443	-123.462	0.313	0.050
-276.428	242.496	-0.078	0.131
-275.413	-55.761	-0.171	-0.077
-274.399	-37.816	-0.054	-0.029
-273.384	538.467	0.018	-0.043
-272.370	530.263	0.183	-0.433
-271.355	-87.035	-0.113	0.034
-270.340	-200.000	-0.001	-0.125
-269.326	-200.000	-0.003	0.206
-268.311	-200.000	-0.001	0.093
-267.297	186.904	-0.045	-0.067
-266.282	-190.606	-0.134	-0.001
-265.267	205.918	-0.054	-0.084
-264.253	-200.000	0.015	0.320
-263.238	-137.871	0.142	-0.016
-262.224	-83.540	0.061	-0.020
-261.209	168.156	0.048	0.069
-260.195	-169.561	0.147	0.005
-259.180	143.557	0.073	-0.097
-258.165	-105.997	0.073	0.016
-257.151	800.000	0.145	-0.447
-256.136	-143.500	0.152	-0.015
-255.122	-200.000	-0.027	0.365
-254.107	-200.000	-0.024	-0.149
-253.092	-86.995	-0.121	0.037
-252.078	381.632	-0.081	0.166
-251.063	800.000	0.030	0.112
-250.049	189.549	-0.215	-0.323
-249.034	77.143	-0.087	0.092
-248.019	777.279	-0.047	0.130
-247.005	-200.000	0.051	0.405
-245.990	127.040	-0.041	0.052
-244.976	-93.970	-0.264	-0.073
-243.961	318.005	-0.166	0.315
-242.946	-153.097	0.160	0.011
-241.932	27.215	0.132	0.112
-240.917	190.644	-0.142	0.214
-239.903	119.790	-0.066	-0.082
-238.888	157.493	0.075	0.103
-237.873	-200.000	-0.017	-0.091
-236.859	72.944	0.068	0.072
-235.844	800.000	0.078	0.324
-234.830	77.411	0.143	0.152
-233.815	-73.375	0.134	0.049
-232.800	-200.000	-0.004	0.140
-231.786	526.888	0.019	-0.045
-230.771	-200.000	-0.015	-0.194
-229.757	-154.811	0.098	-0.006
-228.742	-200.000	-0.017	0.158
-227.727	-7.627	-0.111	-0.075
-226.713	-114.668	0.514	0.099
-225.698	-9.369	-0.186	0.125
-224.684	66.283	-0.053	0.054
-223.669	88.998	-0.205	0.228
-222.655	-14.895	0.426	0.274
-221.640	-200.000	0.000	0.375
-220.625	89.521	-0.032	-0.036
-219.611	-200.000	0.017	-0.132
-218.596	-111.437	-0.050	-0.010
-217.582	-200.000	-0.005	-0.332
-216.567	124.858	-0.131	-0.166
-215.552	-200.000	-0.013	-0.139
-214.538	187.315	0.104	0.155
-213.523	-125.442	0.131	-0.020
-212.509	71.292	0.186	0.193
-211.494	2.322	0.187	0.136
-210.479	800.000	-0.089	-0.318
-209.465	-182.434	0.183	-0.003
-208.450	-59.635	-0.343	-0.147
-207.436	-152.626	0.225	0.016
-206.421	260.922	0.047	-0.082
-205.406	-31.944	-0.316	0.177
-204.392	-200.000	0.127	-0.569
-203.377	190.333	-0.172	-0.259
-202.363	61.427	-0.081	-0.080
-201.348	58.168	0.083	-0.081
-200.333	-11.654	0.101	0.066
-199.319	325.019	-0.081	0.156
-198.304	800.000	-0.033	0.138
-197.290	800.000	0.028	-0.085
-196.275	-200.000	-0.013	-0.165
-195.260	-200.000	0.012	-0.184
-194.246	-80.116	0.086	0.029
-193.231	-85.384	-0.059	-0.018
-192.217	-10.337	-0.057	0.038
-191.202	-20.853	0.423	0.259
-190.187	143.895	0.123	-0.164
-189.173	46.448	-0.123	-0.114
-188.158	-127.150	-0.052	0.008
-187.144	227.310	-0.074	0.121
-186.129	453.409	-0.028	-0.061
-185.114	800.000	-0.082	0.263
-184.100	-91.442	0.159	-0.045
-183.085	-200.000	0.002	0.060
-182.071	-193.789	-0.192	0.002
-181.056	451.881	0.086	0.189
-180.042	-200.000	-0.022	0.157
-179.027	222.714	0.180	-0.289
-178.012	5.581	0.074	-0.055
-176.998	800.000	-0.010	0.033
-175.983	-20.348	-0.099	-0.061
-174.969	102.545	0.158	-0.185
-173.954	-76.940	0.102	-0.036
-172.939	309.059	-0.075	-0.139
-171.925	-130.871	0.291	0.039
-170.910	-10.444	-0.375	-0.248
-169.896	150.593	-0.048	0.065
-168.881	-87.576	0.245	-0.074
-167.866	-143.812	0.189	-0.018
-166.852	418.453	0.113	0.242
-165.837	133.589	0.165	0.213
-164.823	119.583	-0.164	-0.203
-163.808	522.551	0.081	0.191
-162.793	151.051	-0.072	-0.098
-161.779	-157.033	-0.323	0.020
-160.764	35.504	0.412	0.362
-159.750	800.000	-0.079	0.219
-158.735	800.000	0.094	0.310
-157.720	-69.576	0.221	0.084
-156.706	542.580	0.116	-0.277
-155.691	-200.000	-0.019	-0.166
-154.677	-140.976	0.330	-0.034
-153.662	-113.194	0.134	0.026
-152.647	180.325	0.088	-0.129
-151.633	-19.759	0.172	-0.106
-150.618	-200.000	-0.009	0.066
-149.604	12.443	0.242	0.186
-148.589	-137.999	0.076	-0.008
-147.574	19.821	0.181	-0.145
-146.560	710.570	0.148	-0.391
-145.545	7.432	-0.174	-0.130
-144.531	211.583	0.069	-0.109
-143.516	-57.066	0.085	-0.037
-142.502	-58.534	-0.059	-0.026
-141.487	-94.083	-0.264	-0.072
-140.472	-62.913	-0.294	-0.122
-139.458	-158.419	-0.144	-0.008
-138.443	-168.580	-0.313	0.012
-137.429	-200.000	0.010	-0.120
-136.414	-158.309	0.343	0.020
-135.399	-141.770	-0.357	-0.036
-134.385	800.000	-0.111	-0.350
-133.370	800.000	-0.095	0.314
-132.356	61.013	0.098	0.097
-131.341	-4.435	0.370	0.255
-130.326	246.933	-0.093	0.157
-129.312	-200.000	0.030	-0.339
-128.297	494.861	-0.104	0.239
-127.283	800.000	-0.062	0.199
-126.268	388.221	-0.097	0.200
-125.253	48.930	-0.171	0.160
-124.239	348.193	-0.207	0.408
-123.224	800.000	0.070	0.295
-122.210	-16.485	0.162	0.102
-121.195	800.000	-0.036	-0.139
