DTS Sentinel unit serial number:	SN413079Multiplexer serial number:	ORYXHardware model number:	OX4-SRSoftware version number:	ORYX F/W v4.00 Oryx Data Collector v3.7.2.0data status	okinstallation	princeton_trtdifferential loss correction	single-endedforward channel	channel 3reverse channel	N/Adate	2019/09/17time	21:00:34forward acquisition time	60.00reverse acquisition time	0.00gamma	496.2192k internal	0.2337k external	0.2337temperature offset calibration	0.9955default loss term (dB/km)	0.3790temperature slope calibration	1.0000multiplexer offset coefficient	1.0000multiplexer slope coefficient	1.0000fibre end	0.00T internal ref (°C)	28.64T ext. ref 1 (°C)	0.20T ext. ref 2 (°C)	20.13length (m)	temperature (°C)	Stokes	anti-Stokes-747.200	91.958	0.205	0.232
-746.185	800.000	0.040	0.123
-745.171	55.508	0.258	0.251
-744.156	-200.000	0.051	0.337
-743.142	694.011	0.074	-0.196
-742.127	-46.877	-0.269	0.132
-741.112	349.414	0.073	0.145
-740.098	223.664	-0.194	-0.315
-739.083	-11.418	-0.068	-0.045
-738.069	800.000	0.012	0.035
-737.054	800.000	-0.064	-0.181
-736.039	-122.048	-0.222	0.037
-735.025	106.468	0.323	0.384
-734.010	212.234	-0.240	-0.380
-732.996	-200.000	-0.044	0.376
-731.981	800.000	-0.071	-0.236
-730.966	24.774	-0.319	-0.265
-729.952	800.000	-0.132	-0.475
-728.937	-151.529	-0.300	0.022
-727.923	-200.000	-0.017	-0.386
-726.908	-200.000	0.022	-0.315
-725.894	-122.949	-0.191	0.031
-724.879	81.979	-0.194	-0.211
-723.864	-37.163	-0.076	0.041
-722.850	-58.445	-0.126	-0.055
-721.835	-53.384	-0.421	0.193
-720.821	2.053	-0.140	0.102
-719.806	-99.945	-0.371	-0.093
-718.791	13.628	0.132	0.103
-717.777	-200.000	-0.017	0.076
-716.762	147.695	0.116	-0.157
-715.748	233.801	-0.154	-0.254
-714.733	-7.159	0.239	-0.163
-713.718	800.000	0.032	0.133
-712.704	-18.177	-0.363	-0.228
-711.689	-102.244	-0.234	-0.056
-710.675	-143.851	-0.258	-0.024
-709.660	155.396	0.182	-0.251
-708.645	-60.584	-0.320	-0.136
-707.631	800.000	-0.088	0.256
-706.616	207.421	-0.050	-0.079
-705.602	6.183	0.384	0.286
-704.587	117.748	-0.139	0.172
-703.572	-15.037	-0.126	-0.081
-702.558	-7.983	0.227	-0.153
-701.543	58.755	0.282	0.278
-700.529	-200.000	-0.025	-0.202
-699.514	-200.000	-0.007	-0.112
-698.499	207.641	-0.214	0.335
-697.485	-40.616	0.256	0.133
-696.470	-84.768	-0.083	0.026
-695.456	-136.501	-0.206	-0.024
-694.441	-105.102	-0.140	-0.032
-693.426	33.897	0.152	-0.133
-692.412	123.377	-0.046	0.058
-691.397	-200.000	-0.013	0.307
-690.383	-200.000	0.042	0.310
-689.368	35.496	-0.059	0.051
-688.354	800.000	-0.016	-0.065
-687.339	115.669	-0.022	-0.027
-686.324	-18.381	-0.150	0.094
-685.310	-165.599	-0.082	0.004
-684.295	-64.095	-0.357	0.146
-683.281	38.834	-0.243	-0.217
-682.266	-200.000	0.002	0.397
-681.251	338.137	-0.025	-0.049
-680.237	800.000	-0.021	-0.063
-679.222	-152.063	0.083	-0.006
-678.208	-64.947	-0.136	0.055
-677.193	104.622	0.165	-0.194
-676.178	-200.000	0.023	0.284
-675.164	-200.000	0.002	0.124
-674.149	79.766	-0.128	0.138
-673.135	800.000	-0.071	0.223
-672.120	216.102	0.158	-0.251
-671.105	-200.000	0.021	-0.276
-670.091	800.000	-0.093	-0.347
-669.076	-136.494	-0.116	-0.013
-668.062	308.208	-0.046	-0.086
-667.047	-5.150	0.152	0.105
-666.032	-53.006	0.366	0.168
-665.018	-200.000	0.042	-0.255
-664.003	800.000	0.008	0.029
-662.989	-157.216	0.139	-0.008
-661.974	-37.312	0.159	-0.085
-660.959	-200.000	-0.023	0.128
-659.945	-82.561	-0.154	0.050
-658.930	798.833	-0.071	-0.195
-657.916	-95.662	-0.206	0.055
-656.901	63.330	0.074	-0.074
-655.886	800.000	-0.036	0.105
-654.872	-130.721	0.188	0.025
-653.857	-200.000	0.416	0.000
-652.843	-1.993	-0.039	0.028
-651.828	-200.000	-0.044	0.197
-650.814	-144.926	-0.346	0.032
-649.799	421.117	-0.181	0.387
-648.784	-200.000	0.001	0.102
-647.770	-200.000	0.012	-0.366
-646.755	5.116	0.513	-0.378
-645.741	800.000	-0.114	-0.368
-644.726	-35.726	-0.262	0.142
-643.711	-200.000	0.018	0.098
-642.697	-200.000	0.014	-0.367
-641.682	800.000	0.094	-0.361
-640.668	-200.000	0.004	-0.109
-639.653	156.073	-0.303	-0.418
-638.638	800.000	0.058	-0.222
-637.624	-24.218	-0.151	0.090
-636.609	-200.000	0.028	0.321
-635.595	51.504	0.266	0.253
-634.580	44.533	0.010	-0.009
-633.565	800.000	0.067	-0.197
-632.551	190.976	0.104	-0.156
-631.536	50.088	0.125	0.118
-630.522	29.961	0.270	-0.230
-629.507	119.481	0.013	0.016
-628.492	728.249	0.146	-0.388
-627.478	800.000	-0.014	-0.060
-626.463	136.967	0.300	-0.392
-625.449	66.905	0.245	0.250
-624.434	-42.985	-0.207	0.105
-623.419	30.140	0.064	0.055
-622.405	-40.776	-0.249	0.129
-621.390	18.848	0.101	0.081
-620.376	800.000	-0.107	0.306
-619.361	25.624	0.155	-0.129
-618.346	-20.140	-0.223	-0.137
-617.332	80.869	0.130	-0.140
-616.317	-200.000	0.024	0.496
-615.303	-69.219	0.159	-0.061
-614.288	-168.099	-0.191	0.007
-613.273	800.000	-0.072	0.273
-612.259	-200.000	-0.028	-0.536
-611.244	-37.332	-0.102	0.054
-610.230	-177.639	0.148	0.004
-609.215	-200.000	-0.059	0.342
-608.201	-61.488	-0.232	-0.097
-607.186	305.320	0.156	0.289
-606.171	167.188	-0.275	0.390
-605.157	-45.159	0.154	0.077
-604.142	-114.115	0.352	0.068
-603.128	-172.600	0.169	-0.005
-602.113	214.937	0.083	-0.132
-601.098	228.949	-0.033	0.054
-600.084	-120.121	0.087	-0.015
-599.069	376.740	-0.022	-0.046
-598.055	-74.271	-0.167	0.060
-597.040	-40.047	0.292	0.152
-596.025	800.000	0.020	-0.070
-595.011	-200.000	-0.039	-0.184
-593.996	-42.073	-0.130	-0.067
-592.982	347.666	-0.106	-0.209
-591.967	-67.644	-0.375	-0.146
-590.952	800.000	-0.069	-0.268
-589.938	81.534	-0.129	-0.139
-588.923	-19.498	-0.146	0.090
-587.909	-44.797	0.123	0.061
-586.894	-150.400	-0.118	-0.009
-585.879	-200.000	-0.025	0.160
-584.865	-117.675	-0.377	0.068
-583.850	53.455	-0.273	0.261
-582.836	7.561	-0.146	-0.109
-581.821	171.991	-0.162	0.233
-580.806	-200.000	-0.070	0.345
-579.792	-200.000	-0.017	0.158
-578.777	120.265	-0.136	-0.169
-577.763	-172.700	-0.084	-0.003
-576.748	800.000	-0.087	-0.290
-575.733	644.370	0.173	-0.439
-574.719	-99.813	-0.214	0.053
-573.704	-15.410	0.054	0.034
-572.690	-9.426	0.026	0.017
-571.675	-200.000	-0.033	-0.313
-570.661	800.000	-0.088	0.244
-569.646	-200.000	0.034	0.203
-568.631	-200.000	0.032	-0.247
-567.617	-85.615	-0.216	-0.067
-566.602	159.421	-0.214	0.297
-565.588	-156.008	-0.274	-0.017
-564.573	131.241	0.088	0.113
-563.558	371.042	-0.262	0.530
-562.544	178.110	0.147	-0.214
-561.529	92.282	0.049	-0.055
-560.515	54.690	0.187	0.180
-559.500	-200.000	0.002	-0.356
-558.485	-200.000	-0.089	-0.412
-557.471	409.702	-0.064	-0.136
-556.456	-108.024	0.163	0.035
-555.442	800.000	-0.088	-0.259
-554.427	535.927	-0.116	-0.274
-553.412	-15.835	0.186	0.118
-552.398	107.094	-0.240	-0.284
-551.383	325.065	0.115	-0.218
-550.369	75.809	-0.137	0.144
-549.354	800.000	0.112	0.401
-548.339	-200.000	-0.038	-0.222
-547.325	27.743	-0.174	0.146
-546.310	-200.000	-0.001	0.072
-545.296	-66.229	0.429	0.170
-544.281	-94.145	-0.091	-0.025
-543.266	-36.312	0.119	-0.064
-542.252	52.119	0.102	0.097
-541.237	-200.000	0.011	0.217
-540.223	-66.644	-0.120	0.047
-539.208	-38.934	-0.075	-0.039
-538.193	19.370	-0.240	0.192
-537.179	-86.296	-0.065	-0.020
-536.164	-148.734	-0.372	-0.030
-535.150	-43.088	0.284	0.143
-534.135	-81.305	-0.257	-0.084
-533.121	78.354	-0.220	-0.234
-532.106	7.334	0.210	-0.156
-531.091	-200.000	-0.033	-0.465
-530.077	-200.000	0.010	-0.147
-529.062	-200.000	0.025	0.196
-528.048	115.060	-0.024	-0.029
-527.033	18.144	0.247	-0.196
-526.018	-124.913	-0.136	0.021
-525.004	800.000	0.024	-0.069
-523.989	800.000	-0.050	-0.162
-522.975	-140.174	0.233	-0.024
-521.960	-42.406	-0.166	0.084
-520.945	-12.137	-0.082	0.053
-519.931	318.994	-0.080	-0.151
-518.916	269.256	-0.153	0.267
-517.902	3.233	0.085	-0.062
-516.887	153.237	-0.229	0.312
-515.872	-200.000	-0.001	0.053
-514.858	800.000	-0.086	0.254
-513.843	-168.159	0.385	0.015
-512.829	306.262	0.043	-0.080
-511.814	141.023	-0.057	-0.075
-510.799	-21.216	-0.200	-0.122
-509.785	-84.498	0.245	0.077
-508.770	103.884	0.106	-0.124
-507.756	283.320	-0.096	-0.172
-506.741	17.634	0.172	0.136
-505.726	-56.744	-0.131	-0.058
-504.712	157.906	-0.192	0.264
-503.697	782.859	-0.065	0.177
-502.683	-46.287	-0.345	-0.169
-501.668	-200.000	0.078	-0.413
-500.653	-200.000	-0.113	-0.624
-499.639	-131.894	0.312	0.041
-498.624	701.641	-0.069	0.181
-497.610	31.240	0.079	0.067
-496.595	-200.000	0.012	-0.149
-495.581	420.108	-0.086	0.183
-494.566	-48.301	-0.435	-0.209
-493.551	-71.679	0.107	0.040
-492.537	274.210	0.126	-0.222
-491.522	343.627	-0.135	0.262
-490.508	-200.000	0.010	0.079
-489.493	7.052	0.233	-0.172
-488.478	34.320	-0.107	0.093
-487.464	40.769	-0.166	-0.149
-486.449	-27.361	-0.105	0.061
-485.435	-11.883	-0.261	-0.170
-484.420	-190.206	-0.416	-0.005
-483.405	-106.915	-0.200	-0.044
-482.391	-81.349	0.135	-0.044
-481.376	34.071	-0.063	-0.055
-480.362	344.340	0.100	0.195
-479.347	45.948	-0.201	-0.185
-478.332	127.630	-0.091	0.115
-477.318	419.487	-0.040	-0.084
-476.303	130.627	-0.081	0.103
-475.289	-99.125	-0.166	-0.042
-474.274	269.527	0.107	-0.187
-473.259	10.432	0.255	0.193
-472.245	-64.473	-0.206	0.083
-471.230	90.729	-0.231	-0.257
-470.216	-200.000	-0.090	0.496
-469.201	643.890	0.148	0.376
-468.186	-53.932	-0.247	0.112
-467.172	29.206	0.107	-0.090
-466.157	-93.518	0.264	-0.072
-465.143	-156.636	-0.205	0.013
-464.128	-200.000	-0.041	-0.178
-463.113	237.047	-0.040	-0.066
-462.099	40.032	-0.133	0.119
-461.084	-31.180	0.248	0.139
-460.070	-196.207	0.112	0.001
-459.055	477.788	0.122	-0.274
-458.040	11.708	-0.040	-0.030
-457.026	-164.146	0.369	0.017
-456.011	-2.362	0.036	0.025
-454.997	-200.000	0.001	0.245
-453.982	291.304	0.176	-0.318
-452.968	-200.000	0.004	-0.043
-451.953	100.599	-0.180	0.207
-450.938	302.364	0.180	-0.331
-449.924	67.392	-0.167	0.169
-448.909	-141.932	-0.332	0.033
-447.895	-21.058	0.404	0.245
-446.880	97.331	-0.048	0.055
-445.865	88.483	-0.070	-0.077
-444.851	-149.450	0.299	-0.024
-443.836	-84.255	-0.250	-0.079
-442.822	-200.000	0.016	0.259
-441.807	544.055	0.077	0.183
-440.792	-42.264	0.201	0.102
-439.778	-200.000	0.010	0.179
-438.763	-200.000	-0.053	-0.363
-437.749	-123.629	0.184	-0.029
-436.734	-127.458	0.175	0.025
-435.719	-155.942	0.337	0.021
-434.705	-200.000	-0.000	-0.141
-433.690	-96.113	-0.170	0.045
-432.676	8.601	0.129	0.097
-431.661	-200.000	-0.005	0.259
-430.646	-116.848	0.114	0.021
-429.632	405.604	-0.030	0.063
-428.617	-200.000	-0.058	0.321
-427.603	-18.451	-0.255	0.158
-426.588	-4.181	-0.338	-0.232
-425.573	498.560	0.152	0.347
-424.559	-140.607	0.124	0.013
-423.544	-112.974	0.267	-0.052
-422.530	-84.770	0.302	0.094
-421.515	-46.243	0.209	0.102
-420.500	290.331	0.152	-0.274
-419.486	-200.000	-0.011	0.148
-418.471	-107.427	-0.112	-0.024
-417.457	151.695	-0.247	0.333
-416.442	-62.173	0.108	0.045
-415.428	-200.000	-0.007	0.147
-414.413	369.221	-0.028	0.057
-413.398	457.100	0.142	0.311
-412.384	-68.032	0.272	-0.105
-411.369	-200.000	0.020	-0.177
-410.355	800.000	-0.050	-0.181
-409.340	-40.305	0.388	-0.200
-408.325	-63.937	-0.182	-0.074
-407.311	-57.633	0.150	0.065
-406.296	-37.574	-0.252	-0.133
-405.282	121.996	0.188	0.233
-404.267	-71.179	0.112	-0.042
-403.252	118.648	0.115	-0.140
-402.238	-8.648	0.157	0.104
-401.223	134.924	0.102	-0.131
-400.209	44.869	-0.079	0.072
-399.194	45.567	0.303	0.277
-398.179	135.115	0.051	-0.065
-397.165	-200.000	-0.019	-0.196
-396.150	-200.000	-0.003	0.116
-395.136	5.199	-0.240	-0.175
-394.121	800.000	0.026	-0.110
-393.106	-102.396	0.171	0.041
-392.092	91.068	0.177	0.196
-391.077	-49.313	0.322	-0.152
-390.063	-110.007	-0.187	-0.039
-389.048	-15.887	-0.074	-0.047
-388.033	800.000	0.085	-0.303
-387.019	-60.465	0.055	0.023
-386.004	137.028	-0.031	-0.040
-384.990	-200.000	-0.029	0.382
-383.975	288.788	0.347	0.622
-382.960	-171.240	-0.059	0.002
-381.946	-200.000	-0.029	-0.375
-380.931	-30.807	-0.111	0.062
-379.917	6.910	-0.244	0.180
-378.902	191.713	-0.023	-0.035
-377.888	-116.681	0.112	0.020
-376.873	-167.089	-0.257	-0.010
-375.858	292.101	0.071	-0.129
-374.844	49.879	0.182	0.170
-373.829	283.830	0.199	0.354
-372.815	-72.565	-0.233	0.085
-371.800	116.087	0.163	0.198
-370.785	85.354	-0.097	0.105
-369.771	-137.365	-0.455	0.051
-368.756	800.000	0.049	-0.135
-367.742	146.086	-0.036	-0.048
-366.727	-200.000	-0.006	-0.198
-365.712	-164.269	0.151	0.007
-364.698	-200.000	0.008	0.299
-363.683	-83.937	0.023	0.007
-362.669	77.752	-0.041	-0.044
-361.654	800.000	0.136	-0.408
-360.639	289.338	0.090	-0.162
-359.625	-119.705	-0.108	0.018
-358.610	-200.000	0.049	-0.330
-357.596	514.006	0.119	-0.275
-356.581	-2.605	-0.126	0.087
-355.566	-200.000	-0.071	0.584
-354.552	-200.000	0.002	-0.286
-353.537	186.635	0.164	-0.241
-352.523	-90.419	0.306	-0.088
-351.508	-200.000	-0.009	-0.206
-350.493	-110.478	0.304	-0.062
-349.479	-200.000	0.044	0.249
-348.464	-106.242	0.318	-0.070
-347.450	-143.164	0.258	-0.025
-346.435	800.000	0.076	-0.305
-345.420	-34.946	0.109	-0.059
-344.406	-200.000	0.042	0.285
-343.391	559.781	-0.080	0.190
-342.377	-200.000	0.004	-0.117
-341.362	-189.559	0.387	-0.004
-340.348	-62.260	-0.320	-0.132
-339.333	800.000	0.058	0.240
-338.318	-200.000	-0.009	-0.163
-337.304	13.704	0.083	-0.064
-336.289	175.795	-0.159	-0.228
-335.275	-115.072	0.265	0.050
-334.260	8.508	0.265	0.197
-333.245	52.879	0.121	-0.115
-332.231	-145.697	-0.163	0.014
-331.216	-200.000	-0.009	0.347
-330.202	-174.171	0.336	0.010
-329.187	-103.845	-0.346	0.080
-328.172	-200.000	0.037	-0.377
-327.158	-7.313	-0.236	0.158
-326.143	800.000	0.098	0.357
-325.129	347.300	-0.107	0.209
-324.114	-137.053	0.224	0.025
-323.099	250.546	-0.147	-0.246
-322.085	800.000	0.006	0.025
-321.070	-200.000	-0.007	0.270
-320.056	-0.444	0.356	-0.249
-319.041	561.016	-0.063	0.151
-318.026	-200.000	-0.027	0.172
-317.012	-147.418	-0.187	0.016
-315.997	288.004	-0.173	0.310
-314.983	800.000	0.024	-0.072
-313.968	-200.000	-0.099	0.429
-312.953	1.062	0.144	-0.102
-311.939	155.062	-0.079	0.107
-310.924	119.225	-0.192	0.234
-309.910	-8.520	-0.212	-0.140
-308.895	800.000	-0.056	0.179
-307.880	427.520	0.049	0.104
-306.866	-120.553	0.254	-0.043
-305.851	-50.996	0.201	-0.093
-304.837	-162.028	-0.340	-0.017
-303.822	60.980	-0.164	-0.161
-302.807	293.008	-0.158	0.285
-301.793	723.461	0.068	-0.178
-300.778	-98.769	-0.170	-0.043
-299.764	-200.000	-0.011	0.054
-298.749	-200.000	0.020	0.363
-297.735	-2.336	0.146	-0.101
-296.720	-142.710	0.174	0.017
-295.705	201.975	0.309	0.470
-294.691	49.710	-0.252	0.234
-293.676	-95.261	0.321	-0.085
-292.662	-200.000	-0.033	-0.185
-291.647	-103.588	-0.088	-0.020
-290.632	-200.000	-0.032	-0.230
-289.618	-130.335	-0.230	0.031
-288.603	778.650	0.101	-0.272
-287.589	426.393	-0.095	-0.201
-286.574	-3.451	-0.278	0.191
-285.559	-47.003	-0.290	0.140
-284.545	-9.818	-0.272	0.179
-283.530	-200.000	-0.027	-0.366
-282.516	-71.116	0.324	-0.120
-281.501	22.352	-0.180	-0.145
-280.486	-110.995	0.292	0.059
-279.472	40.186	0.050	-0.044
-278.457	107.492	-0.098	-0.116
-277.443	-200.000	-0.006	0.042
-276.428	-200.000	0.011	0.112
-275.413	59.449	0.172	0.167
-274.399	-25.104	-0.123	0.072
-273.384	-200.000	-0.041	-0.438
-272.370	120.217	0.100	0.122
-271.355	5.286	-0.180	0.131
-270.340	-78.847	-0.186	-0.062
-269.326	-101.746	-0.165	0.039
-268.311	-31.134	-0.198	0.110
-267.297	752.596	0.090	-0.240
-266.282	-4.110	0.100	0.069
-265.267	800.000	-0.045	-0.187
-264.253	4.105	0.267	0.193
-263.238	800.000	0.077	0.263
-262.224	-88.385	-0.170	-0.050
-261.209	35.704	-0.190	-0.164
-260.195	43.753	0.135	-0.121
-259.180	648.760	-0.119	-0.301
-258.165	-79.551	-0.168	-0.056
-257.151	800.000	0.120	-0.343
-256.136	244.464	0.096	-0.159
-255.122	800.000	0.059	-0.220
-254.107	800.000	-0.062	0.262
-253.092	-86.083	-0.112	-0.034
-252.078	-35.326	0.265	0.142
-251.063	-200.000	-0.016	-0.204
-250.049	204.402	-0.218	-0.332
-249.034	-7.778	0.241	-0.161
-248.019	-200.000	-0.034	-0.198
-247.005	-117.662	0.156	-0.028
-245.990	-128.534	0.319	-0.044
-244.976	87.632	-0.181	-0.197
-243.961	692.424	-0.023	-0.059
-242.946	-131.366	-0.435	-0.057
-241.932	-198.410	-0.233	-0.001
-240.917	800.000	-0.039	-0.153
-239.903	328.830	-0.198	-0.375
-238.888	-50.092	-0.150	-0.070
-237.873	-28.060	0.095	-0.054
-236.859	90.091	0.233	-0.257
-235.844	-200.000	0.019	0.100
-234.830	800.000	-0.043	0.144
-233.815	800.000	0.011	-0.035
-232.800	5.240	0.158	-0.115
-231.786	-200.000	0.019	-0.188
-230.771	-200.000	0.010	0.230
-229.757	3.967	0.323	-0.233
-228.742	-46.654	-0.155	0.075
-227.727	800.000	-0.164	-0.455
-226.713	800.000	-0.099	-0.322
-225.698	-200.000	-0.046	0.199
-224.684	651.219	-0.069	0.173
-223.669	-200.000	0.005	-0.105
-222.655	791.478	-0.054	-0.146
-221.640	-78.202	0.246	-0.083
-220.625	-81.518	-0.258	-0.083
-219.611	3.379	-0.217	-0.155
-218.596	464.432	-0.083	-0.182
-217.582	151.263	0.178	-0.239
-216.567	800.000	0.036	0.106
-215.552	-94.013	0.120	0.032
-214.538	-29.399	-0.055	0.031
-213.523	37.264	-0.082	0.071
-212.509	-64.953	0.357	0.142
-211.494	27.182	0.178	0.147
-210.479	-200.000	-0.004	-0.176
-209.465	-200.000	-0.040	0.335
-208.450	-54.826	0.205	-0.091
-207.436	-200.000	0.017	0.354
-206.421	57.177	-0.369	-0.354
-205.406	800.000	-0.063	0.221
-204.392	195.498	0.150	0.223
-203.377	-79.340	-0.156	0.052
-202.363	-114.280	-0.333	0.063
-201.348	13.237	0.139	0.105
-200.333	142.187	0.150	0.195
-199.319	-28.755	-0.261	-0.147
-198.304	-71.484	0.255	0.094
-197.290	34.609	0.158	0.136
-196.275	438.782	-0.120	0.257
-195.260	38.340	-0.112	0.098
-194.246	378.725	-0.062	0.125
-193.231	-200.000	-0.013	-0.104
-192.217	109.891	0.209	0.247
-191.202	45.376	0.111	0.100
-190.187	259.474	0.197	0.335
-189.173	-200.000	-0.092	0.000
-188.158	-200.000	0.010	0.139
-187.144	1.956	-0.422	-0.299
-186.129	800.000	0.038	0.163
-185.114	-53.167	0.327	0.147
-184.100	-32.977	0.255	-0.139
-183.085	800.000	0.053	-0.149
-182.071	-68.885	0.167	-0.063
-181.056	29.147	-0.136	0.113
-180.042	-54.608	0.214	0.095
-179.027	-55.964	0.164	-0.072
-178.012	142.247	-0.068	0.088
-176.998	17.952	-0.426	0.333
-175.983	72.968	0.241	0.248
-174.969	127.184	0.145	-0.180
-173.954	504.555	-0.109	-0.249
-172.939	-133.696	0.391	0.048
-171.925	247.766	-0.136	0.226
-170.910	193.408	-0.135	-0.200
-169.896	800.000	-0.045	0.164
-168.881	507.199	0.133	0.304
-167.866	39.022	-0.076	0.066
-166.852	-200.000	-0.005	0.256
-165.837	-99.312	-0.032	0.008
-164.823	117.363	0.238	0.287
-163.808	212.969	-0.111	0.172
-162.793	-200.000	0.015	-0.170
-161.779	-200.000	0.016	-0.243
-160.764	192.501	-0.144	-0.213
-159.750	-29.859	-0.046	-0.026
-158.735	800.000	0.059	0.161
-157.720	-26.482	-0.091	-0.052
-156.706	600.621	0.048	0.118
-155.691	-82.268	0.091	0.029
-154.677	-200.000	-0.025	-0.502
-153.662	-173.167	0.129	0.004
-152.647	455.866	-0.192	0.418
-151.633	800.000	-0.074	0.301
-150.618	34.583	-0.135	-0.116
-149.604	393.566	0.083	-0.170
-148.589	-15.611	0.353	0.221
-147.574	-200.000	0.029	0.234
-146.560	-60.555	-0.174	-0.072
-145.545	-90.388	0.180	-0.051
-144.531	-134.329	-0.399	-0.048
-143.516	-22.933	0.192	0.113
-142.502	-120.107	0.100	0.017
-141.487	-53.586	-0.338	0.151
-140.472	-128.965	-0.303	0.042
-139.458	524.719	0.070	0.162
-138.443	266.050	-0.033	0.057
-137.429	133.629	-0.093	-0.118
-136.414	257.154	0.179	-0.301
-135.399	-151.462	-0.036	-0.003
-134.385	-32.186	-0.303	-0.166
-133.370	29.260	0.327	-0.272
-132.356	-61.029	0.183	-0.076
-131.341	-59.010	0.065	0.027
-130.326	-200.000	-0.005	-0.094
-129.312	-86.909	-0.178	-0.053
-128.297	94.522	-0.146	-0.163
-127.283	-200.000	0.005	-0.087
-126.268	-200.000	0.051	0.370
-125.253	-73.630	0.059	-0.021
-124.239	356.942	-0.166	-0.324
-123.224	598.421	-0.059	0.142
-122.210	-200.000	-0.005	0.090
-121.195	800.000	-0.076	0.207
