DTS Sentinel unit serial number:	SN413079Multiplexer serial number:	ORYXHardware model number:	OX4-SRSoftware version number:	ORYX F/W v4.00 Oryx Data Collector v3.7.2.0data status	okinstallation	princeton_trtdifferential loss correction	single-endedforward channel	channel 3reverse channel	N/Adate	2019/09/18time	05:20:35forward acquisition time	60.00reverse acquisition time	0.00gamma	496.2192k internal	0.2343k external	0.2343temperature offset calibration	0.9948default loss term (dB/km)	0.3790temperature slope calibration	1.0000multiplexer offset coefficient	1.0000multiplexer slope coefficient	1.0000fibre end	0.00T internal ref (°C)	23.50T ext. ref 1 (°C)	0.19T ext. ref 2 (°C)	17.22length (m)	temperature (°C)	Stokes	anti-Stokes-747.200	-78.518	0.396	-0.136
-746.185	-84.735	0.062	-0.020
-745.171	-200.000	-0.036	0.208
-744.156	574.199	-0.156	0.380
-743.142	-14.168	0.102	0.066
-742.127	356.352	-0.117	0.234
-741.112	156.898	0.124	0.171
-740.098	800.000	0.105	0.327
-739.083	800.000	0.071	0.307
-738.069	-25.224	-0.276	0.164
-737.054	800.000	-0.050	-0.188
-736.039	123.149	0.084	-0.105
-735.025	185.968	0.109	-0.163
-734.010	-200.000	0.004	-0.466
-732.996	263.209	-0.202	-0.352
-731.981	361.097	0.010	-0.020
-730.966	-31.528	-0.206	0.116
-729.952	250.790	-0.120	-0.205
-728.937	-43.108	0.145	-0.073
-727.923	53.520	-0.356	0.342
-726.908	-24.888	-0.039	-0.023
-725.894	24.001	0.147	-0.121
-724.879	-31.926	0.280	-0.157
-723.864	54.543	0.066	0.063
-722.850	-123.386	0.228	0.036
-721.835	-20.072	-0.070	-0.043
-720.821	-200.000	0.027	-0.168
-719.806	-89.045	0.140	0.041
-718.791	193.215	-0.087	-0.132
-717.777	800.000	-0.026	0.087
-716.762	-100.248	-0.424	0.105
-715.748	-53.345	-0.058	-0.026
-714.733	-160.693	0.256	-0.014
-713.718	-200.000	-0.057	0.278
-712.704	-56.183	-0.455	0.203
-711.689	800.000	0.030	-0.088
-710.675	-200.000	0.065	-0.654
-709.660	-116.609	-0.054	0.010
-708.645	-30.214	-0.426	-0.242
-707.631	407.594	0.071	-0.150
-706.616	800.000	-0.042	-0.181
-705.602	800.000	-0.041	-0.129
-704.587	-8.322	0.382	0.257
-703.572	100.728	0.245	-0.285
-702.558	731.747	-0.037	-0.100
-701.543	-200.000	-0.008	-0.049
-700.529	800.000	0.068	0.191
-699.514	222.743	-0.139	0.224
-698.499	52.291	-0.106	-0.101
-697.485	343.032	0.106	0.208
-696.470	-10.681	0.259	-0.171
-695.456	-200.000	-0.029	0.128
-694.441	118.288	-0.148	0.182
-693.426	271.825	-0.111	-0.195
-692.412	-48.957	-0.051	-0.025
-691.397	-21.900	0.285	-0.173
-690.383	-200.000	-0.046	-0.325
-689.368	278.392	-0.033	-0.060
-688.354	-82.530	0.443	-0.144
-687.339	-11.447	0.124	0.082
-686.324	-35.462	-0.258	-0.140
-685.310	159.698	-0.131	-0.182
-684.295	14.536	-0.180	0.140
-683.281	-78.734	-0.409	0.139
-682.266	800.000	0.056	-0.169
-681.251	77.675	0.187	0.199
-680.237	-138.326	0.110	0.012
-679.222	-3.943	-0.172	-0.119
-678.208	22.904	-0.193	0.158
-677.193	-37.941	0.112	0.059
-676.178	-78.750	0.054	0.018
-675.164	-97.247	-0.151	0.039
-674.149	-200.000	0.050	0.428
-673.135	54.266	0.049	0.047
-672.120	-37.514	-0.046	-0.025
-671.105	800.000	-0.201	-0.772
-670.091	-54.384	0.170	-0.077
-669.076	-62.516	0.076	0.031
-668.062	-172.029	0.122	-0.004
-667.047	-133.748	-0.165	0.020
-666.032	-10.274	0.149	0.098
-665.018	-17.872	-0.128	-0.080
-664.003	16.503	0.043	0.034
-662.989	245.602	-0.363	0.609
-661.974	800.000	0.113	0.334
-660.959	-102.241	0.363	0.087
-659.945	65.190	0.175	-0.176
-658.930	64.727	0.157	-0.158
-657.916	-80.035	-0.620	0.208
-656.901	666.460	0.062	0.161
-655.886	252.834	-0.178	0.302
-654.872	-180.906	-0.287	-0.006
-653.857	115.421	0.096	-0.117
-652.843	-60.802	-0.176	-0.075
-651.828	-84.210	-0.242	0.077
-650.814	800.000	0.020	-0.078
-649.799	128.678	-0.161	-0.205
-648.784	78.270	0.149	0.159
-647.770	-145.020	-0.086	0.008
-646.755	-176.439	0.167	0.004
-645.741	259.265	-0.083	-0.142
-644.726	800.000	0.042	-0.134
-643.711	-115.821	-0.185	-0.035
-642.697	-200.000	0.036	0.193
-641.682	38.556	-0.077	-0.068
-640.668	800.000	0.101	-0.372
-639.653	69.758	-0.078	0.080
-638.638	-61.489	0.244	-0.102
-637.624	-200.000	0.027	0.240
-636.609	203.904	-0.124	-0.191
-635.595	8.340	0.093	-0.070
-634.580	-53.854	0.341	0.155
-633.565	207.897	-0.198	-0.309
-632.551	-200.000	0.017	-0.231
-631.536	-52.431	0.391	-0.180
-630.522	581.045	0.094	0.230
-629.507	-200.000	0.025	-0.141
-628.492	-121.753	-0.051	0.008
-627.478	-200.000	0.029	0.319
-626.463	-16.977	-0.160	0.101
-625.449	134.322	0.211	0.272
-624.434	800.000	-0.064	-0.191
-623.419	469.193	0.090	-0.201
-622.405	4.199	0.243	0.177
-621.390	-28.505	0.080	-0.046
-620.376	26.148	-0.323	0.268
-619.361	328.036	0.018	-0.035
-618.346	-132.911	-0.387	0.049
-617.332	-200.000	0.011	0.133
-616.317	184.105	-0.220	0.324
-615.303	-198.945	-0.261	-0.001
-614.288	679.740	-0.135	-0.349
-613.273	202.098	0.132	-0.202
-612.259	587.836	-0.068	-0.166
-611.244	184.252	0.248	-0.365
-610.230	-34.752	-0.315	-0.172
-609.215	-200.000	0.050	0.275
-608.201	251.658	0.105	-0.178
-607.186	-98.926	0.091	-0.023
-606.171	800.000	-0.141	-0.452
-605.157	141.407	-0.097	-0.128
-604.142	-128.777	-0.138	-0.019
-603.128	168.604	-0.186	-0.264
-602.113	58.837	-0.127	0.124
-601.098	-9.738	0.257	0.170
-600.084	-4.858	-0.120	0.083
-599.069	-200.000	-0.037	0.184
-598.055	240.369	-0.188	-0.313
-597.040	-8.668	-0.219	0.147
-596.025	163.991	-0.168	-0.236
-595.011	9.606	-0.212	0.160
-593.996	147.807	0.162	0.217
-592.982	297.710	0.153	0.280
-591.967	800.000	-0.036	0.114
-590.952	-61.132	-0.185	-0.078
-589.938	800.000	0.068	0.196
-588.923	-58.285	-0.223	0.097
-587.909	-91.452	-0.082	0.023
-586.894	464.063	0.090	-0.201
-585.879	126.191	-0.147	-0.186
-584.865	-200.000	-0.105	-0.000
-583.850	82.430	0.184	0.199
-582.836	-200.000	-0.042	-0.206
-581.821	-116.191	0.310	-0.057
-580.806	800.000	0.114	0.326
-579.792	5.419	-0.229	-0.168
-578.777	368.097	-0.111	-0.222
-577.763	262.799	-0.086	-0.149
-576.748	-200.000	0.040	-0.338
-575.733	-79.180	-0.364	0.123
-574.719	-107.610	-0.255	0.055
-573.704	-200.000	0.007	0.050
-572.690	82.394	0.169	-0.183
-571.675	-77.890	-0.414	0.142
-570.661	42.429	-0.074	0.067
-569.646	70.320	-0.058	0.060
-568.631	-120.705	0.060	0.010
-567.617	-200.000	0.000	0.210
-566.602	412.050	0.061	-0.130
-565.588	719.774	0.123	-0.326
-564.573	518.809	-0.071	-0.164
-563.558	15.575	-0.134	-0.105
-562.544	435.293	0.107	-0.232
-561.529	359.465	0.095	-0.190
-560.515	-200.000	0.047	0.228
-559.500	-200.000	0.026	-0.221
-558.485	-74.125	0.047	0.017
-557.471	-200.000	0.054	0.244
-556.456	-140.967	-0.277	0.028
-555.442	-2.387	-0.077	-0.053
-554.427	576.969	0.033	-0.081
-553.412	-200.000	-0.183	0.000
-552.398	-200.000	0.037	0.231
-551.383	-99.022	0.269	-0.068
-550.369	-71.277	0.057	-0.021
-549.354	289.219	0.330	0.594
-548.339	181.196	0.065	-0.095
-547.325	178.711	-0.197	0.286
-546.310	800.000	0.071	0.202
-545.296	642.564	-0.090	-0.228
-544.281	497.925	0.020	0.046
-543.266	54.628	-0.053	0.051
-542.252	-11.438	-0.278	0.182
-541.237	-200.000	0.128	0.000
-540.223	-119.524	0.118	-0.020
-539.208	-117.277	-0.258	-0.046
-538.193	454.988	-0.037	0.082
-537.179	-31.813	-0.418	0.233
-536.164	84.562	0.113	0.123
-535.150	-200.000	0.191	0.001
-534.135	800.000	-0.095	-0.286
-533.121	323.898	-0.083	0.157
-532.106	-33.089	-0.132	-0.073
-531.091	90.772	-0.072	0.080
-530.077	-25.200	-0.044	-0.026
-529.062	-44.177	0.312	0.155
-528.048	-128.602	0.065	-0.009
-527.033	-111.483	0.106	0.021
-526.018	-153.269	-0.134	0.009
-525.004	-148.560	-0.471	0.038
-523.989	37.168	-0.100	-0.088
-522.975	-112.568	0.393	-0.078
-521.960	-200.000	-0.031	0.202
-520.945	-23.286	0.070	0.042
-519.931	102.269	0.103	-0.119
-518.916	-200.000	0.041	-0.330
-517.902	-15.770	0.235	0.148
-516.887	39.647	0.035	-0.031
-515.872	-76.079	-0.183	-0.064
-514.858	-28.799	0.225	-0.128
-513.843	800.000	-0.091	-0.329
-512.829	521.897	0.141	-0.329
-511.814	-45.413	0.235	0.115
-510.799	527.449	-0.066	0.153
-509.785	800.000	0.038	0.125
-508.770	-17.963	-0.135	0.084
-507.756	752.370	0.105	0.281
-506.741	70.930	-0.181	-0.186
-505.726	29.097	-0.197	0.166
-504.712	80.736	-0.029	-0.031
-503.697	-200.000	0.003	0.266
-502.683	-200.000	-0.005	-0.041
-501.668	9.181	-0.131	0.098
-500.653	195.267	0.074	-0.111
-499.639	-56.125	0.232	0.102
-498.624	79.430	-0.151	-0.161
-497.610	-89.683	-0.088	0.025
-496.595	-200.000	-0.033	-0.295
-495.581	327.942	-0.071	-0.134
-494.566	58.187	0.062	-0.060
-493.551	-200.000	0.027	0.119
-492.537	-57.975	-0.111	0.048
-491.522	-139.950	0.240	0.025
-490.508	-200.000	0.007	0.125
-489.493	-170.030	-0.124	-0.004
-488.478	800.000	-0.136	0.400
-487.464	270.006	-0.175	0.304
-486.449	-200.000	-0.025	0.159
-485.435	368.174	-0.081	-0.163
-484.420	-12.469	0.152	0.098
-483.405	-151.506	-0.136	0.010
-482.391	45.983	-0.054	-0.050
-481.376	-200.000	0.023	0.124
-480.362	196.807	-0.170	-0.257
-479.347	128.832	0.206	-0.261
-478.332	-152.790	0.139	0.010
-477.318	-200.000	0.008	0.255
-476.303	39.680	0.163	-0.144
-475.289	113.233	0.104	-0.125
-474.274	89.383	0.044	0.049
-473.259	645.754	0.066	-0.166
-472.245	-121.590	-0.315	0.052
-471.230	-51.688	0.263	-0.121
-470.216	-84.888	-0.202	0.063
-469.201	-102.614	0.201	-0.047
-468.186	-150.882	0.313	-0.023
-467.172	160.679	-0.060	-0.084
-466.157	770.824	0.176	-0.474
-465.143	-200.000	-0.012	-0.064
-464.128	-32.736	0.318	-0.175
-463.113	-159.443	-0.399	-0.022
-462.099	800.000	-0.101	0.311
-461.084	460.038	0.081	0.179
-460.070	-15.758	0.068	0.043
-459.055	452.874	0.121	-0.265
-458.040	204.296	0.068	-0.104
-457.026	395.090	-0.016	0.032
-456.011	-13.977	0.179	0.114
-454.997	69.216	0.093	-0.095
-453.982	800.000	0.109	-0.372
-452.968	-60.594	0.225	-0.095
-451.953	-151.043	-0.090	0.007
-450.938	-86.046	-0.187	-0.057
-449.924	54.112	0.148	0.141
-448.909	-200.000	0.019	-0.244
-447.895	800.000	0.044	-0.126
-446.880	649.894	0.110	-0.279
-445.865	115.167	-0.142	-0.172
-444.851	401.762	-0.047	-0.097
-443.836	-58.140	-0.210	-0.091
-442.822	696.819	-0.195	0.507
-441.807	96.937	-0.135	-0.153
-440.792	482.634	0.136	-0.307
-439.778	800.000	0.105	0.414
-438.763	88.794	0.105	-0.116
-437.749	-120.697	0.329	-0.055
-436.734	-200.000	0.024	0.138
-435.719	229.937	0.209	-0.337
-434.705	483.686	-0.097	0.219
-433.690	-200.000	-0.051	0.286
-432.676	165.663	-0.159	0.223
-431.661	-200.000	-0.008	-0.124
-430.646	51.397	0.497	-0.467
-429.632	-96.454	-0.373	0.097
-428.617	-200.000	0.047	-0.213
-427.603	-41.397	-0.094	-0.048
-426.588	201.310	0.087	-0.133
-425.573	-200.000	-0.022	0.138
-424.559	23.739	-0.080	0.065
-423.544	-138.997	0.253	0.027
-422.530	51.827	-0.215	0.202
-421.515	800.000	0.069	0.226
-420.500	-200.000	0.019	-0.342
-419.486	800.000	0.061	-0.255
-418.471	360.860	-0.191	-0.378
-417.457	-57.497	-0.254	-0.110
-416.442	-124.635	-0.147	0.022
-415.428	-200.000	-0.033	0.336
-414.413	364.303	0.126	-0.251
-413.398	-37.966	0.205	0.108
-412.384	-129.009	-0.141	-0.020
-411.369	34.919	0.130	-0.112
-410.355	-39.013	-0.340	-0.177
-409.340	-100.095	0.038	-0.009
-408.325	81.456	-0.082	-0.087
-407.311	-200.000	-0.012	-0.225
-406.296	-9.585	0.502	0.331
-405.282	-132.614	0.142	0.018
-404.267	-144.567	-0.214	0.020
-403.252	380.113	-0.038	-0.078
-402.238	-153.814	0.295	0.020
-401.223	172.951	-0.193	-0.275
-400.209	543.058	-0.113	0.266
-399.194	-9.977	0.164	0.108
-398.179	177.263	0.103	0.148
-397.165	-200.000	0.012	-0.290
-396.150	-144.285	-0.204	0.019
-395.136	103.331	0.112	0.129
-394.121	-150.493	0.181	-0.014
-393.106	194.460	-0.076	0.113
-392.092	28.695	0.103	-0.086
-391.077	66.125	0.079	0.079
-390.063	140.405	0.111	-0.144
-389.048	-200.000	0.036	-0.242
-388.033	363.501	0.047	0.093
-387.019	800.000	0.056	0.168
-386.004	-45.146	0.108	0.053
-384.990	61.920	0.311	-0.306
-383.975	-80.144	0.131	0.043
-382.960	-200.000	0.019	0.143
-381.946	-0.189	-0.362	-0.254
-380.931	120.548	0.249	0.305
-379.917	-175.725	-0.328	-0.009
-378.902	-200.000	0.007	-0.160
-377.888	-200.000	0.001	0.239
-376.873	250.986	0.192	0.322
-375.858	166.957	-0.205	0.287
-374.844	800.000	-0.120	0.404
-373.829	8.413	0.225	-0.167
-372.815	-143.683	-0.292	-0.027
-371.800	242.681	0.184	0.305
-370.785	29.887	0.129	0.109
-369.771	-57.836	-0.237	-0.102
-368.756	-137.967	0.213	0.023
-367.742	800.000	-0.075	-0.208
-366.727	-200.000	0.042	0.350
-365.712	-200.000	0.037	0.366
-364.698	-84.536	-0.205	-0.064
-363.683	688.109	-0.068	0.175
-362.669	76.987	0.212	0.223
-361.654	183.170	0.223	0.325
-360.639	-71.439	-0.086	-0.032
-359.625	-78.027	-0.259	-0.088
-358.610	-135.327	0.221	-0.026
-357.596	800.000	-0.039	0.151
-356.581	645.907	0.041	0.102
-355.566	-200.000	-0.007	-0.446
-354.552	-184.531	0.501	-0.008
-353.537	170.483	0.153	0.216
-352.523	-155.308	-0.229	-0.015
-351.508	-0.567	0.253	0.177
-350.493	47.507	0.117	0.108
-349.479	800.000	-0.016	-0.045
-348.464	-55.030	0.227	0.101
-347.450	-200.000	-0.070	0.409
-346.435	-107.086	-0.168	-0.037
-345.420	-200.000	-0.016	-0.161
-344.406	800.000	-0.038	0.146
-343.391	148.043	0.094	-0.125
-342.377	-148.100	-0.256	-0.021
-341.362	-44.207	-0.234	-0.116
-340.348	22.407	-0.287	0.231
-339.333	-76.005	0.423	-0.147
-338.318	-92.961	-0.208	0.057
-337.304	-47.342	-0.068	-0.033
-336.289	322.109	0.114	0.215
-335.275	-119.210	-0.263	0.045
-334.260	-119.989	-0.309	-0.052
-333.245	-59.406	0.333	-0.141
-332.231	-17.578	0.177	-0.109
-331.216	285.158	0.115	-0.204
-330.202	-200.000	0.004	0.121
-329.187	-60.535	0.130	-0.054
-328.172	-167.674	-0.319	0.012
-327.158	-200.000	-0.057	-0.301
-326.143	-200.000	-0.028	0.189
-325.129	800.000	0.098	-0.309
-324.114	-34.602	-0.131	-0.070
-323.099	-1.715	0.154	0.107
-322.085	-113.693	-0.107	-0.020
-321.070	-63.269	-0.292	-0.118
-320.056	-200.000	0.017	0.343
-319.041	540.862	0.047	-0.110
-318.026	82.112	0.183	-0.195
-317.012	-200.000	-0.008	0.084
-315.997	302.240	-0.059	-0.107
-314.983	-83.648	0.092	0.029
-313.968	-120.809	0.204	-0.034
-312.953	-18.543	-0.180	-0.111
-311.939	186.908	0.118	0.173
-310.924	-112.123	-0.130	-0.026
-309.910	165.811	-0.162	-0.226
-308.895	65.461	-0.293	0.292
-307.880	-94.393	0.106	-0.028
-306.866	389.439	-0.056	0.113
-305.851	-128.315	-0.217	0.030
-304.837	800.000	0.028	0.086
-303.822	-74.777	0.160	0.057
-302.807	-4.018	-0.091	0.062
-301.793	-114.394	-0.040	-0.008
-300.778	134.086	0.080	-0.102
-299.764	105.331	0.171	0.199
-298.749	167.235	-0.094	0.131
-297.735	163.919	-0.079	0.110
-296.720	800.000	0.064	0.260
-295.705	87.126	-0.105	-0.114
-294.691	-94.939	0.462	-0.123
-293.676	-200.000	0.041	0.194
-292.662	70.209	-0.202	-0.205
-291.647	-50.816	0.071	-0.033
-290.632	800.000	0.047	-0.192
-289.618	-99.000	-0.232	-0.058
-288.603	-101.213	0.163	-0.039
-287.589	800.000	-0.130	-0.397
-286.574	497.003	0.088	-0.199
-285.559	-27.030	-0.122	-0.070
-284.545	83.220	0.150	0.160
-283.530	43.814	0.140	-0.126
-282.516	-167.738	0.147	-0.006
-281.501	-16.894	-0.186	-0.116
-280.486	-1.328	0.061	0.042
-279.472	353.605	0.054	-0.106
-278.457	-200.000	-0.036	0.260
-277.443	102.383	0.174	-0.200
-276.428	196.367	0.093	0.140
-275.413	-155.906	-0.328	0.020
-274.399	-13.760	0.069	0.044
-273.384	-200.000	-0.001	-0.004
-272.370	-134.515	-0.104	0.013
-271.355	188.647	-0.115	-0.170
-270.340	278.698	-0.076	0.133
-269.326	65.412	-0.087	-0.087
-268.311	53.010	-0.181	-0.170
-267.297	-101.392	-0.250	-0.060
-266.282	48.365	-0.162	0.149
-265.267	74.570	0.081	-0.083
-264.253	-200.000	0.076	0.357
-263.238	-200.000	-0.011	0.193
-262.224	-57.196	0.213	-0.092
-261.209	-40.502	0.229	0.117
-260.195	97.348	-0.210	0.236
-259.180	100.790	-0.150	0.172
-258.165	-200.000	-0.123	0.613
-257.151	-2.666	0.022	-0.015
-256.136	800.000	0.097	-0.348
-255.122	-154.001	0.084	0.006
-254.107	93.433	-0.150	0.166
-253.092	237.905	0.178	-0.290
-252.078	40.863	-0.029	0.026
-251.063	347.349	0.078	0.151
-250.049	-51.022	0.206	0.095
-249.034	203.462	0.091	0.139
-248.019	329.618	-0.074	0.140
-247.005	-18.719	0.212	-0.129
-245.990	239.980	0.088	0.143
-244.976	-75.693	-0.174	-0.061
-243.961	800.000	-0.022	0.060
-242.946	-117.040	-0.120	-0.022
-241.932	187.273	-0.252	-0.369
-240.917	58.480	0.137	-0.132
-239.903	129.333	-0.071	-0.089
-238.888	-144.125	0.291	0.027
-237.873	-200.000	-0.035	0.215
-236.859	554.089	-0.183	-0.431
-235.844	182.230	0.087	0.126
-234.830	-76.024	0.254	-0.088
-233.815	91.999	0.224	-0.248
-232.800	-200.000	0.004	-0.126
-231.786	14.237	-0.190	0.145
-230.771	-135.427	-0.155	-0.018
-229.757	-86.628	-0.182	-0.055
-228.742	-122.447	0.389	0.062
-227.727	610.148	-0.094	-0.230
-226.713	-78.315	0.120	0.040
-225.698	73.570	0.368	-0.378
-224.684	97.620	-0.152	-0.172
-223.669	800.000	-0.105	-0.310
-222.655	-54.962	0.389	-0.172
-221.640	-151.431	-0.264	-0.019
-220.625	7.763	0.213	-0.157
-219.611	-66.023	0.359	-0.141
-218.596	122.791	-0.074	0.090
-217.582	219.025	-0.046	0.072
-216.567	-111.293	0.431	-0.086
-215.552	43.319	-0.112	-0.100
-214.538	197.532	-0.188	0.282
-213.523	352.810	0.089	0.172
-212.509	-5.867	-0.319	-0.214
-211.494	-90.566	0.235	-0.067
-210.479	32.284	0.238	0.201
-209.465	-180.210	0.242	-0.005
-208.450	82.899	-0.177	0.189
-207.436	-123.489	-0.379	-0.059
-206.421	-200.000	0.015	-0.159
-205.406	-200.000	-0.005	-0.212
-204.392	33.049	-0.213	-0.181
-203.377	300.594	-0.115	-0.208
-202.363	3.733	-0.101	0.072
-201.348	198.966	-0.184	-0.277
-200.333	28.284	-0.117	-0.097
-199.319	-200.000	0.010	-0.292
-198.304	73.223	-0.129	0.133
-197.290	-104.669	0.290	-0.066
-196.275	201.088	0.024	0.036
-195.260	18.160	-0.050	-0.039
-194.246	-159.735	-0.052	0.003
-193.231	-200.000	-0.016	0.351
-192.217	-200.000	0.061	-0.300
-191.202	-25.309	-0.002	0.001
-190.187	76.994	0.172	-0.179
-189.173	249.864	-0.136	0.227
-188.158	-200.000	-0.012	0.099
-187.144	-1.393	0.034	0.024
-186.129	230.004	0.104	0.167
-185.114	-127.888	0.228	-0.032
-184.100	800.000	-0.093	0.281
-183.085	190.055	-0.264	0.389
-182.071	-65.822	-0.236	0.093
-181.056	355.484	0.110	0.215
-180.042	-45.269	0.064	-0.031
-179.027	154.559	0.058	0.078
-178.012	-183.512	0.237	-0.004
-176.998	-200.000	-0.093	0.418
-175.983	-200.000	-0.075	0.321
-174.969	349.784	-0.025	-0.049
-173.954	-200.000	-0.059	-0.305
-172.939	49.626	-0.163	0.150
-171.925	758.553	0.015	0.039
-170.910	573.111	0.130	-0.311
-169.896	-41.012	0.078	0.040
-168.881	-74.907	0.098	0.035
-167.866	-55.384	-0.300	-0.132
-166.852	-200.000	0.002	0.257
-165.837	53.404	-0.107	0.100
-164.823	363.974	0.103	0.202
-163.808	-193.403	0.105	0.001
-162.793	408.050	0.209	-0.432
-161.779	-200.000	0.057	0.407
-160.764	23.666	-0.258	-0.208
-159.750	-200.000	-0.007	0.096
-158.735	14.613	-0.158	-0.121
-157.720	-73.488	0.125	0.045
-156.706	-100.663	-0.382	0.092
-155.691	339.193	0.222	0.423
-154.677	800.000	0.204	0.590
-153.662	800.000	0.013	-0.041
-152.647	-11.890	0.294	0.189
-151.633	294.349	-0.096	0.172
-150.618	31.198	0.188	0.157
-149.604	800.000	-0.035	0.111
-148.589	552.014	-0.056	-0.131
-147.574	-200.000	-0.022	-0.236
-146.560	54.714	-0.064	0.061
-145.545	191.441	0.108	-0.159
-144.531	142.478	0.042	0.054
-143.516	-200.000	-0.011	-0.142
-142.502	-200.000	-0.037	0.300
-141.487	661.825	0.073	-0.183
-140.472	-200.000	0.032	0.448
-139.458	-84.391	0.215	0.066
-138.443	-17.174	0.167	-0.103
-137.429	48.530	0.147	0.134
-136.414	-200.000	-0.007	0.108
-135.399	-92.118	-0.169	-0.047
-134.385	645.121	-0.083	-0.208
-133.370	-200.000	-0.024	-0.354
-132.356	-66.340	-0.117	-0.045
-131.341	800.000	0.160	0.477
-130.326	-200.000	0.061	0.482
-129.312	-200.000	-0.004	-0.159
-128.297	-200.000	-0.036	-0.177
-127.283	800.000	-0.040	-0.163
-126.268	-200.000	-0.033	0.242
-125.253	-55.096	0.149	0.066
-124.239	6.366	-0.148	0.108
-123.224	84.853	0.038	-0.041
-122.210	-88.125	-0.387	0.114
-121.195	-18.461	-0.222	-0.136
