DTS Sentinel unit serial number:	SN413079Multiplexer serial number:	ORYXHardware model number:	OX4-SRSoftware version number:	ORYX F/W v4.00 Oryx Data Collector v3.7.2.0data status	okinstallation	princeton_trtdifferential loss correction	single-endedforward channel	channel 3reverse channel	N/Adate	2019/09/13time	10:12:34forward acquisition time	60.00reverse acquisition time	0.00gamma	496.2192k internal	0.2323k external	0.2323temperature offset calibration	1.0137default loss term (dB/km)	0.3790temperature slope calibration	1.0000multiplexer offset coefficient	1.0000multiplexer slope coefficient	1.0000fibre end	0.00T internal ref (°C)	30.61T ext. ref 1 (°C)	4.51T ext. ref 2 (°C)	27.87length (m)	temperature (°C)	Stokes	anti-Stokes-747.200	800.000	0.073	0.242
-746.185	-84.405	0.245	0.078
-745.171	101.122	-0.121	-0.142
-744.156	52.643	0.324	0.313
-743.142	-200.000	-0.002	0.055
-742.127	321.158	-0.207	0.398
-741.112	174.161	0.227	-0.331
-740.098	1.682	-0.260	-0.189
-739.083	-60.772	-0.225	0.096
-738.069	721.853	0.014	0.038
-737.054	-35.248	0.300	0.165
-736.039	554.058	-0.086	-0.209
-735.025	168.098	-0.068	0.098
-734.010	165.330	0.058	0.083
-732.996	249.776	0.061	0.105
-731.981	800.000	-0.032	0.137
-730.966	-163.178	-0.113	0.005
-729.952	-108.807	-0.277	-0.060
-728.937	800.000	0.087	-0.378
-727.923	-46.251	0.339	-0.168
-726.908	261.343	0.146	-0.254
-725.894	-32.782	-0.257	0.144
-724.879	646.917	0.111	0.287
-723.864	187.516	0.234	0.352
-722.850	95.708	0.088	0.101
-721.835	-200.000	-0.050	-0.316
-720.821	-60.610	-0.168	0.072
-719.806	-200.000	-0.022	-0.372
-718.791	-200.000	-0.002	-0.024
-717.777	-200.000	0.011	0.151
-716.762	-113.565	-0.371	-0.073
-715.748	-142.828	-0.202	-0.020
-714.733	-200.000	-0.022	0.208
-713.718	-121.362	-0.183	0.031
-712.704	606.696	0.103	-0.259
-711.689	61.526	-0.124	-0.124
-710.675	-200.000	-0.015	-0.172
-709.660	-97.749	0.112	-0.029
-708.645	-42.919	0.227	-0.116
-707.631	-142.444	0.381	-0.038
-706.616	626.816	-0.088	0.225
-705.602	-93.882	-0.064	-0.018
-704.587	-68.549	0.265	0.104
-703.572	-151.886	0.361	-0.027
-702.558	19.303	0.268	0.217
-701.543	800.000	0.019	-0.063
-700.529	-124.917	-0.125	0.019
-699.514	282.366	0.086	-0.155
-698.499	-124.415	-0.215	-0.034
-697.485	173.902	-0.178	-0.259
-696.470	-33.722	0.198	-0.110
-695.456	270.895	-0.102	0.180
-694.441	287.918	0.046	0.084
-693.426	-1.539	-0.250	0.178
-692.412	-19.788	-0.209	0.130
-691.397	88.494	-0.350	-0.392
-690.383	-95.059	0.250	-0.068
-689.368	400.186	-0.170	-0.359
-688.354	143.200	-0.061	0.082
-687.339	212.613	0.153	0.244
-686.324	-200.000	0.033	0.180
-685.310	800.000	0.070	-0.278
-684.295	-35.561	-0.040	-0.022
-683.281	27.787	0.151	-0.128
-682.266	395.921	0.058	-0.122
-681.251	413.230	0.060	0.128
-680.237	1.816	-0.280	0.203
-679.222	71.264	-0.075	-0.079
-678.208	43.851	0.033	-0.031
-677.193	3.288	0.171	0.125
-676.178	-200.000	-0.035	-0.189
-675.164	424.192	-0.175	-0.380
-674.149	19.832	-0.076	-0.062
-673.135	800.000	-0.053	-0.191
-672.120	-143.279	-0.167	0.016
-671.105	3.437	-0.462	-0.339
-670.091	-12.479	0.188	-0.123
-669.076	73.881	0.098	-0.103
-668.062	-200.000	0.002	-0.087
-667.047	800.000	-0.064	-0.231
-666.032	-31.219	0.186	-0.105
-665.018	101.470	-0.134	-0.158
-664.003	-184.367	-0.260	0.004
-662.989	-129.880	-0.108	-0.015
-661.974	800.000	0.010	0.038
-660.959	800.000	-0.098	0.412
-659.945	203.844	-0.040	-0.062
-658.930	68.327	0.061	-0.063
-657.916	-151.163	-0.314	0.024
-656.901	166.217	-0.195	0.278
-655.886	800.000	-0.036	-0.131
-654.872	69.072	0.069	-0.071
-653.857	-200.000	-0.023	0.259
-652.843	-33.374	0.388	0.216
-651.828	-200.000	-0.058	0.276
-650.814	15.733	-0.290	-0.230
-649.799	56.684	-0.313	-0.307
-648.784	478.082	-0.124	-0.283
-647.770	-200.000	-0.025	-0.125
-646.755	24.345	-0.431	0.359
-645.741	800.000	0.047	0.161
-644.726	-200.000	0.045	0.424
-643.711	577.789	0.097	0.239
-642.697	-200.000	-0.026	0.222
-641.682	-121.463	-0.314	0.052
-640.668	127.335	0.249	-0.317
-639.653	83.028	0.116	0.127
-638.638	26.937	0.305	-0.257
-637.624	-74.399	0.224	-0.081
-636.609	800.000	0.088	-0.315
-635.595	-50.128	0.381	-0.181
-634.580	233.850	0.101	-0.168
-633.565	-65.521	0.204	0.082
-632.551	-188.271	-0.185	-0.002
-631.536	74.863	0.189	-0.200
-630.522	-80.785	-0.108	0.036
-629.507	-93.682	-0.317	-0.088
-628.492	-200.000	0.055	0.242
-627.478	225.085	-0.170	0.277
-626.463	-15.270	0.172	-0.111
-625.449	-200.000	-0.004	-0.022
-624.434	9.712	-0.398	-0.304
-623.419	-142.925	-0.169	0.016
-622.405	44.378	-0.127	0.117
-621.390	-74.665	0.317	0.114
-620.376	-200.000	0.002	0.007
-619.361	-42.048	0.071	-0.036
-618.346	-101.241	0.122	-0.030
-617.332	196.844	-0.175	-0.268
-616.317	-8.204	0.305	-0.206
-615.303	-120.689	0.130	-0.022
-614.288	-200.000	0.025	0.376
-613.273	-45.553	0.279	-0.139
-612.259	-14.849	0.348	-0.224
-611.244	-87.464	-0.178	-0.054
-610.230	-13.851	0.105	0.068
-609.215	-200.000	-0.040	0.296
-608.201	-200.000	0.009	0.286
-607.186	482.350	0.083	0.190
-606.171	-200.000	0.006	0.048
-605.157	-14.796	-0.265	-0.171
-604.142	-62.883	-0.280	-0.117
-603.128	116.595	-0.240	-0.296
-602.113	800.000	0.103	-0.449
-601.098	528.256	-0.081	0.191
-600.084	800.000	0.067	-0.196
-599.069	199.677	0.088	-0.135
-598.055	-200.000	-0.032	-0.376
-597.040	-200.000	-0.031	0.172
-596.025	82.072	0.067	-0.073
-595.011	-200.000	-0.037	-0.245
-593.996	-200.000	-0.054	-0.293
-592.982	61.363	-0.200	0.200
-591.967	115.872	0.104	0.128
-590.952	-200.000	0.027	-0.258
-589.938	-46.606	-0.307	0.151
-588.923	-200.000	-0.052	-0.261
-587.909	-62.177	-0.259	0.109
-586.894	-15.704	0.083	0.053
-585.879	-77.112	-0.306	-0.107
-584.865	-64.991	0.200	0.081
-583.850	-107.369	0.135	0.030
-582.836	129.490	-0.110	0.141
-581.821	-5.979	0.162	-0.111
-580.806	117.616	-0.192	-0.237
-579.792	68.371	-0.057	-0.058
-578.777	338.209	0.055	-0.108
-577.763	32.393	-0.110	0.095
-576.748	185.756	0.077	0.115
-575.733	-41.160	-0.419	0.217
-574.719	498.810	-0.101	0.233
-573.704	-84.080	-0.200	0.064
-572.690	800.000	0.051	-0.206
-571.675	154.568	0.169	0.233
-570.661	706.679	-0.079	-0.210
-569.646	-200.000	-0.021	-0.263
-568.631	-38.201	0.186	-0.099
-567.617	-188.938	-0.148	0.002
-566.602	377.222	0.124	0.255
-565.588	-32.830	0.161	-0.090
-564.573	-90.441	-0.241	0.070
-563.558	-98.556	0.034	0.009
-562.544	94.246	0.247	0.281
-561.529	47.141	-0.258	-0.241
-560.515	-146.162	-0.257	0.023
-559.500	-81.499	-0.163	-0.054
-558.485	-33.831	-0.063	0.035
-557.471	237.786	-0.085	0.142
-556.456	-125.727	-0.033	0.005
-555.442	238.737	-0.081	0.135
-554.427	-118.301	0.357	-0.064
-553.412	79.923	-0.119	-0.128
-552.398	-0.448	-0.067	-0.047
-551.383	399.010	0.151	0.318
-550.369	-103.295	0.041	-0.010
-549.354	-200.000	-0.011	0.202
-548.339	248.977	0.189	0.321
-547.325	-74.080	-0.142	0.051
-546.310	-62.097	0.191	0.080
-545.296	352.999	0.208	-0.413
-544.281	-178.902	-0.451	-0.010
-543.266	169.513	0.110	0.158
-542.252	8.145	-0.240	0.180
-541.237	-56.222	0.142	-0.063
-540.223	-91.388	-0.193	-0.055
-539.208	-81.765	0.096	0.031
-538.193	206.967	-0.029	0.045
-537.179	645.348	-0.049	0.126
-536.164	-48.764	-0.216	0.104
-535.150	126.909	0.124	0.157
-534.135	-142.046	-0.065	0.007
-533.121	34.749	-0.276	-0.242
-532.106	152.545	-0.049	0.067
-531.091	-29.557	0.102	0.058
-530.077	112.914	-0.215	-0.261
-529.062	30.105	-0.025	-0.021
-528.048	-44.781	0.093	0.046
-527.033	-89.364	-0.388	0.114
-526.018	-120.596	-0.296	-0.050
-525.004	800.000	-0.055	-0.210
-523.989	-200.000	0.000	-0.190
-522.975	-63.781	-0.087	0.036
-521.960	-120.293	0.098	0.017
-520.945	174.511	0.152	0.220
-519.931	-36.520	-0.066	-0.036
-518.916	45.032	0.315	-0.290
-517.902	800.000	-0.053	-0.181
-516.887	166.715	-0.277	-0.393
-515.872	532.199	0.140	-0.332
-514.858	-126.301	0.177	0.026
-513.843	208.280	-0.154	-0.241
-512.829	-67.632	0.337	-0.132
-511.814	-59.579	0.341	-0.146
-510.799	-33.523	-0.058	-0.032
-509.785	-154.388	0.406	-0.027
-508.770	-166.525	0.170	-0.007
-507.756	-146.334	-0.252	-0.022
-506.741	800.000	0.035	-0.111
-505.726	3.031	-0.259	0.188
-504.712	-198.176	-0.181	0.001
-503.697	146.108	-0.099	-0.132
-502.683	-200.000	0.008	0.197
-501.668	204.075	0.137	0.212
-500.653	152.936	-0.078	0.106
-499.639	55.960	0.338	-0.328
-498.624	800.000	-0.027	-0.097
-497.610	-7.626	0.144	0.097
-496.595	226.624	-0.200	0.325
-495.581	-132.104	-0.393	-0.051
-494.566	-14.705	0.199	-0.128
-493.551	-129.573	-0.060	-0.008
-492.537	-86.542	-0.224	0.069
-491.522	97.163	0.154	0.176
-490.508	-200.000	0.011	0.123
-489.493	-105.485	-0.185	0.042
-488.478	-200.000	0.031	-0.144
-487.464	-135.066	-0.340	-0.041
-486.449	-42.257	0.306	0.156
-485.435	191.783	-0.044	0.067
-484.420	313.029	0.120	-0.225
-483.405	-200.000	0.052	-0.229
-482.391	134.122	-0.093	-0.120
-481.376	-191.985	0.154	-0.001
-480.362	-24.019	0.144	-0.086
-479.347	273.995	0.174	0.308
-478.332	520.849	-0.073	0.172
-477.318	505.117	0.060	-0.138
-476.303	-11.706	0.169	0.111
-475.289	-200.000	-0.047	-0.346
-474.274	31.906	-0.085	-0.074
-473.259	-72.788	-0.153	0.056
-472.245	-137.091	0.078	0.009
-471.230	1.451	0.267	-0.192
-470.216	-200.000	-0.015	0.083
-469.201	-6.525	-0.153	0.104
-468.186	800.000	0.026	-0.095
-467.172	8.582	-0.118	0.089
-466.157	-14.345	0.184	0.119
-465.143	800.000	0.090	0.335
-464.128	-30.412	0.242	-0.137
-463.113	75.280	-0.095	-0.101
-462.099	21.454	-0.176	-0.143
-461.084	-42.555	0.197	0.100
-460.070	-82.219	0.308	0.100
-459.055	-200.000	0.012	0.151
-458.040	24.508	0.241	0.199
-457.026	-200.000	0.027	-0.119
-456.011	-118.232	0.109	-0.019
-454.997	800.000	0.092	-0.276
-453.982	127.099	-0.113	-0.144
-452.968	-61.403	-0.193	-0.081
-451.953	43.566	-0.107	0.098
-450.938	-200.000	0.053	-0.265
-449.924	-145.469	-0.194	0.017
-448.909	-200.000	0.039	-0.202
-447.895	800.000	0.077	-0.254
-446.880	160.818	-0.070	-0.097
-445.865	343.557	-0.298	0.583
-444.851	409.214	0.191	0.403
-443.836	-83.160	0.191	0.061
-442.822	0.884	0.111	0.079
-441.807	17.328	-0.208	-0.165
-440.792	-3.025	0.198	0.138
-439.778	-174.688	0.198	-0.006
-438.763	25.682	0.193	0.160
-437.749	-124.065	0.339	-0.053
-436.734	-97.153	-0.316	-0.082
-435.719	-104.629	0.012	-0.003
-434.705	18.256	-0.140	0.111
-433.690	-7.413	-0.234	0.158
-432.676	-182.255	-0.176	-0.003
-431.661	-24.771	0.199	-0.118
-430.646	800.000	0.115	-0.378
-429.632	-83.759	-0.263	0.084
-428.617	800.000	-0.070	0.209
-427.603	168.136	-0.187	0.266
-426.588	-200.000	-0.045	0.268
-425.573	-49.122	0.283	0.135
-424.559	-82.795	-0.417	-0.135
-423.544	-200.000	-0.089	-0.651
-422.530	348.447	-0.082	0.161
-421.515	66.849	0.076	-0.078
-420.500	116.310	0.186	0.227
-419.486	29.658	-0.016	0.013
-418.471	27.385	0.300	0.251
-417.457	-90.706	0.140	-0.040
-416.442	6.837	-0.282	-0.210
-415.428	-200.000	0.057	-0.410
-414.413	-200.000	-0.041	-0.251
-413.398	800.000	0.036	0.143
-412.384	-25.721	-0.317	0.187
-411.369	100.077	-0.218	-0.252
-410.355	-72.651	0.349	0.128
-409.340	51.694	-0.102	0.097
-408.325	-200.000	-0.003	-0.494
-407.311	65.002	0.219	-0.220
-406.296	-155.197	-0.205	0.013
-405.282	156.937	-0.108	0.148
-404.267	-200.000	-0.073	-0.328
-403.252	-134.920	-0.204	-0.025
-402.238	-200.000	-0.031	0.350
-401.223	-147.566	-0.261	-0.022
-400.209	103.323	-0.145	-0.169
-399.194	135.238	0.069	-0.090
-398.179	66.319	-0.151	0.153
-397.165	-64.195	0.281	-0.114
-396.150	-26.407	-0.244	0.143
-395.136	-17.765	-0.123	-0.077
-394.121	-200.000	-0.021	-0.133
-393.106	55.968	0.213	-0.205
-392.092	678.024	-0.098	0.254
-391.077	468.047	0.032	-0.071
-390.063	-148.634	-0.267	0.022
-389.048	-200.000	-0.027	0.160
-388.033	460.026	0.044	0.097
-387.019	-24.678	-0.240	0.142
-386.004	273.765	0.119	0.210
-384.990	800.000	-0.091	0.318
-383.975	5.571	0.255	0.188
-382.960	135.795	-0.155	0.200
-381.946	637.113	0.177	-0.447
-380.931	-24.945	0.197	-0.117
-379.917	800.000	0.065	0.245
-378.902	107.546	-0.063	0.075
-377.888	73.600	0.088	0.092
-376.873	-78.427	0.357	0.122
-375.858	28.430	0.053	0.044
-374.844	97.058	0.154	0.176
-373.829	-69.340	0.065	0.025
-372.815	-200.000	0.016	0.150
-371.800	-200.000	0.011	-0.297
-370.785	-108.866	0.087	-0.019
-369.771	-200.000	0.025	-0.377
-368.756	-98.963	0.125	0.032
-367.742	-126.338	0.227	0.034
-366.727	-54.634	0.101	0.045
-365.712	-61.417	-0.142	0.059
-364.698	128.764	-0.093	-0.118
-363.683	4.551	-0.204	0.149
-362.669	-45.053	0.115	0.057
-361.654	-200.000	-0.033	0.306
-360.639	-21.302	0.262	-0.159
-359.625	58.405	-0.208	0.203
-358.610	-122.812	0.338	0.054
-357.596	-78.969	-0.121	-0.041
-356.581	36.270	-0.220	-0.193
-355.566	-77.175	0.101	-0.035
-354.552	-200.000	-0.031	0.294
-353.537	-124.756	-0.204	0.031
-352.523	-200.000	0.016	0.104
-351.508	-101.544	-0.176	0.043
-350.493	-131.211	-0.243	0.032
-349.479	-117.176	0.211	0.038
-348.464	268.246	0.123	0.214
-347.450	-85.065	0.234	0.073
-346.435	-4.185	-0.064	-0.044
-345.420	508.231	-0.114	-0.264
-344.406	-119.251	-0.220	-0.038
-343.391	-103.007	0.104	-0.025
-342.377	-200.000	-0.015	-0.139
-341.362	54.145	0.134	0.128
-340.348	92.244	0.091	-0.102
-339.333	-76.036	0.015	0.005
-338.318	149.220	0.218	0.293
-337.304	-95.058	-0.104	0.028
-336.289	60.614	0.118	-0.116
-335.275	243.925	0.084	-0.140
-334.260	-200.000	0.027	0.141
-333.245	167.628	0.115	0.162
-332.231	-28.107	-0.095	-0.055
-331.216	-200.000	0.061	0.290
-330.202	258.073	-0.227	-0.389
-329.187	-107.753	-0.188	-0.041
-328.172	-124.294	-0.396	0.061
-327.158	-200.000	0.003	0.321
-326.143	124.697	0.354	-0.443
-325.129	38.015	0.388	-0.342
-324.114	368.625	-0.246	0.494
-323.099	-143.108	0.313	-0.030
-322.085	-200.000	-0.059	0.297
-321.070	-200.000	0.004	0.249
-320.056	-56.744	0.291	0.128
-319.041	-200.000	-0.046	0.274
-318.026	-108.211	0.135	0.029
-317.012	26.764	0.155	-0.129
-315.997	800.000	0.120	0.379
-314.983	99.273	-0.180	0.206
-313.968	-67.584	-0.168	-0.066
-312.953	123.698	0.063	-0.079
-311.939	137.287	0.200	-0.260
-310.924	516.470	-0.119	-0.277
-309.910	800.000	0.078	-0.228
-308.895	-200.000	-0.051	-0.406
-307.880	142.344	-0.174	0.229
-306.866	277.145	0.093	0.164
-305.851	309.541	-0.109	0.203
-304.837	-124.143	0.121	-0.019
-303.822	171.062	-0.111	0.158
-302.807	800.000	-0.067	0.243
-301.793	-200.000	-0.002	-0.088
-300.778	14.031	-0.063	-0.049
-299.764	-162.900	-0.151	0.007
-298.749	56.850	0.242	-0.234
-297.735	365.478	0.015	-0.029
-296.720	-200.000	-0.011	-0.118
-295.705	398.833	0.103	-0.214
-294.691	90.525	-0.150	0.167
-293.676	-88.148	0.246	0.073
-292.662	-88.799	0.302	-0.089
-291.647	79.378	-0.401	0.427
-290.632	800.000	0.072	0.214
-289.618	221.137	-0.028	0.045
-288.603	2.870	0.110	0.079
-287.589	-49.618	0.188	0.089
-286.574	-39.371	0.203	-0.106
-285.559	-200.000	-0.028	-0.525
-284.545	-18.740	-0.144	0.089
-283.530	-0.648	-0.217	0.152
-282.516	64.312	0.182	0.182
-281.501	800.000	0.080	-0.228
-280.486	89.983	-0.102	-0.113
-279.472	-47.661	0.215	0.104
-278.457	-110.986	-0.371	-0.075
-277.443	21.605	-0.180	0.146
-276.428	84.421	-0.149	0.162
-275.413	45.895	-0.046	0.043
-274.399	432.561	0.111	-0.238
-273.384	-200.000	-0.001	-0.022
-272.370	512.541	0.098	0.226
-271.355	463.899	-0.111	-0.246
-270.340	-53.858	0.207	-0.094
-269.326	-200.000	0.026	-0.154
-268.311	5.663	-0.247	-0.181
-267.297	-65.743	-0.156	-0.062
-266.282	-29.266	-0.196	-0.112
-265.267	-137.016	-0.016	0.002
-264.253	-200.000	-0.008	0.106
-263.238	754.545	0.129	0.347
-262.224	-200.000	-0.055	0.324
-261.209	396.059	-0.043	0.090
-260.195	-55.686	0.223	0.099
-259.180	-89.851	0.280	-0.081
-258.165	-200.000	0.027	-0.169
-257.151	-48.659	-0.420	-0.200
-256.136	552.862	-0.080	0.192
-255.122	46.583	-0.206	0.190
-254.107	442.763	-0.053	-0.115
-253.092	-200.000	-0.007	-0.036
-252.078	349.893	-0.106	0.207
-251.063	32.174	-0.254	0.217
-250.049	-200.000	-0.041	-0.287
-249.034	-3.132	0.244	-0.169
-248.019	9.683	-0.080	0.060
-247.005	-113.619	-0.226	-0.044
-245.990	11.205	-0.122	0.092
-244.976	-73.323	-0.228	-0.083
-243.961	-150.973	0.242	-0.018
-242.946	-166.007	0.498	-0.021
-241.932	92.094	-0.156	0.174
-240.917	-129.089	0.180	-0.025
-239.903	-119.840	0.150	-0.026
-238.888	-200.000	0.036	0.168
-237.873	428.850	0.075	0.159
-236.859	-90.284	-0.221	-0.064
-235.844	-200.000	0.072	0.000
-234.830	64.262	0.276	-0.276
-233.815	-132.113	0.314	0.040
-232.800	-200.000	-0.014	0.201
-231.786	404.035	0.083	-0.173
-230.771	-124.136	0.313	-0.049
-229.757	-200.000	0.003	0.194
-228.742	-79.404	-0.147	-0.049
-227.727	-95.870	-0.345	0.091
-226.713	329.362	0.159	0.302
-225.698	255.043	-0.085	-0.143
-224.684	-200.000	-0.014	0.122
-223.669	137.735	0.147	0.190
-222.655	800.000	0.031	-0.113
-221.640	5.361	0.138	0.100
-220.625	526.940	0.067	-0.157
-219.611	183.662	-0.153	0.223
-218.596	-68.113	0.548	0.211
-217.582	-40.396	-0.158	0.081
-216.567	-75.295	-0.034	0.012
-215.552	-200.000	-0.006	0.242
-214.538	148.759	0.128	0.171
-213.523	-155.204	0.251	-0.016
-212.509	155.962	-0.056	-0.077
-211.494	100.272	-0.223	0.256
-210.479	41.231	0.113	0.101
-209.465	800.000	-0.062	0.173
-208.450	-200.000	-0.055	0.337
-207.436	9.898	0.182	-0.136
-206.421	-52.136	0.173	0.079
-205.406	82.244	-0.136	0.145
-204.392	-69.164	0.147	0.056
-203.377	190.930	-0.172	-0.256
-202.363	-49.915	-0.343	-0.161
-201.348	-133.771	0.282	-0.035
-200.333	195.059	-0.077	0.116
-199.319	-200.000	0.010	-0.086
-198.304	-42.363	0.095	-0.048
-197.290	-200.000	-0.031	-0.144
-196.275	425.179	0.102	0.217
-195.260	-100.494	0.587	0.144
-194.246	278.687	0.075	-0.132
-193.231	53.591	0.136	-0.129
-192.217	563.742	0.050	0.119
-191.202	-62.573	-0.230	-0.094
-190.187	-61.641	0.227	0.094
-189.173	62.692	0.204	-0.201
-188.158	-200.000	-0.007	-0.071
-187.144	168.967	-0.143	0.202
-186.129	800.000	0.007	0.028
-185.114	436.667	0.051	-0.110
-184.100	-61.888	-0.028	0.012
-183.085	318.979	0.158	0.296
-182.071	-140.026	-0.311	0.032
-181.056	208.965	0.202	-0.313
-180.042	-21.654	0.155	-0.093
-179.027	430.381	0.044	-0.095
-178.012	-175.166	-0.308	-0.008
-176.998	-200.000	-0.026	-0.263
-175.983	-112.976	-0.439	-0.086
-174.969	-148.316	0.104	-0.008
-173.954	213.935	0.041	-0.065
-172.939	-78.304	-0.267	-0.091
-171.925	-154.233	0.176	0.012
-170.910	800.000	-0.007	0.023
-169.896	148.699	0.203	-0.271
-168.881	74.187	-0.107	-0.110
-167.866	-200.000	0.030	-0.263
-166.852	-200.000	0.021	0.134
-165.837	-25.382	-0.240	0.140
-164.823	800.000	-0.025	-0.071
-163.808	599.414	-0.067	-0.164
-162.793	172.226	0.160	-0.227
-161.779	-92.644	-0.131	-0.036
-160.764	111.967	0.239	-0.285
-159.750	-200.000	-0.013	-0.145
-158.735	785.382	-0.052	0.141
-157.720	-90.323	-0.420	-0.120
-156.706	534.195	0.102	-0.239
-155.691	251.230	0.126	0.212
-154.677	270.845	-0.092	0.160
-153.662	-20.627	-0.239	0.145
-152.647	-200.000	-0.044	-0.326
-151.633	4.889	-0.181	0.131
-150.618	189.441	-0.142	0.209
-149.604	260.873	-0.076	0.130
-148.589	149.962	0.055	0.073
-147.574	800.000	0.042	0.125
-146.560	155.001	-0.124	0.168
-145.545	800.000	-0.032	0.099
-144.531	305.578	-0.129	0.236
-143.516	-21.249	-0.329	0.198
-142.502	-15.657	-0.016	-0.010
-141.487	106.816	-0.062	0.072
-140.472	155.794	-0.117	0.160
-139.458	-200.000	0.020	0.088
-138.443	472.025	-0.139	0.309
-137.429	168.812	-0.151	-0.212
-136.414	134.184	-0.138	-0.176
-135.399	-200.000	-0.010	0.149
-134.385	160.476	0.044	0.061
-133.370	-41.027	-0.240	-0.122
-132.356	-182.638	0.190	-0.003
-131.341	800.000	0.174	0.477
-130.326	-72.693	-0.094	0.034
-129.312	-102.245	0.114	-0.027
-128.297	38.154	0.154	-0.135
-127.283	-9.470	-0.212	0.139
-126.268	567.721	0.030	0.072
-125.253	58.352	0.175	-0.169
-124.239	-200.000	0.043	-0.271
-123.224	310.665	-0.106	-0.196
-122.210	-142.726	0.083	-0.008
-121.195	-133.796	0.209	0.026
