DTS Sentinel unit serial number:	SN413079Multiplexer serial number:	ORYXHardware model number:	OX4-SRSoftware version number:	ORYX F/W v4.00 Oryx Data Collector v3.7.2.0data status	okinstallation	princeton_trtdifferential loss correction	single-endedforward channel	channel 3reverse channel	N/Adate	2019/09/15time	11:24:34forward acquisition time	60.00reverse acquisition time	0.00gamma	496.2192k internal	0.2307k external	0.2307temperature offset calibration	0.9975default loss term (dB/km)	0.3790temperature slope calibration	1.0000multiplexer offset coefficient	1.0000multiplexer slope coefficient	1.0000fibre end	0.00T internal ref (°C)	34.30T ext. ref 1 (°C)	5.03T ext. ref 2 (°C)	29.51length (m)	temperature (°C)	Stokes	anti-Stokes-747.200	82.342	-0.206	-0.227
-746.185	-200.000	-0.008	0.115
-745.171	3.224	-0.235	-0.174
-744.156	-60.632	-0.341	-0.147
-743.142	-46.380	-0.327	0.163
-742.127	-200.000	0.020	0.184
-741.112	148.859	0.108	-0.148
-740.098	800.000	-0.048	-0.195
-739.083	-200.000	0.044	0.303
-738.069	7.777	-0.184	0.140
-737.054	29.538	-0.035	-0.031
-736.039	800.000	0.013	-0.046
-735.025	-200.000	0.019	0.122
-734.010	-200.000	0.013	0.111
-732.996	-200.000	0.006	0.061
-731.981	117.643	-0.275	-0.344
-730.966	-37.492	-0.297	-0.161
-729.952	57.675	-0.218	-0.217
-728.937	-82.827	-0.343	-0.113
-727.923	48.160	-0.084	-0.080
-726.908	93.884	-0.160	0.184
-725.894	3.140	-0.200	0.148
-724.879	6.480	-0.106	-0.080
-723.864	274.356	0.080	-0.144
-722.850	131.423	0.135	0.177
-721.835	-200.000	-0.080	0.380
-720.821	1.948	-0.254	-0.186
-719.806	-97.711	0.196	0.052
-718.791	-116.848	-0.415	-0.077
-717.777	-200.000	0.029	0.205
-716.762	93.426	-0.092	0.106
-715.748	460.485	0.157	-0.355
-714.733	57.697	-0.110	0.110
-713.718	18.337	0.185	0.150
-712.704	-90.221	0.339	0.100
-711.689	-200.000	-0.080	-0.391
-710.675	96.040	0.050	0.058
-709.660	-200.000	-0.032	-0.535
-708.645	-200.000	0.043	-0.198
-707.631	194.202	0.139	0.214
-706.616	345.454	-0.062	0.125
-705.602	61.816	-0.076	-0.077
-704.587	-200.000	0.018	0.389
-703.572	234.673	-0.093	0.157
-702.558	108.775	0.188	-0.228
-701.543	-0.825	0.156	0.112
-700.529	-200.000	-0.008	-0.165
-699.514	34.805	-0.265	-0.235
-698.499	207.290	-0.153	-0.243
-697.485	396.152	-0.110	-0.233
-696.470	-112.204	-0.168	-0.034
-695.456	769.876	-0.153	0.423
-694.441	520.947	-0.071	-0.168
-693.426	-200.000	0.013	-0.232
-692.412	-89.980	0.234	-0.069
-691.397	3.138	0.146	-0.108
-690.383	-105.561	-0.235	-0.054
-689.368	-79.782	0.265	-0.091
-688.354	-131.113	0.242	0.033
-687.339	800.000	0.034	0.099
-686.324	23.807	-0.090	0.076
-685.310	17.626	0.045	-0.036
-684.295	-54.920	0.212	0.097
-683.281	-195.657	-0.317	0.002
-682.266	214.878	0.130	-0.210
-681.251	415.172	0.054	-0.117
-680.237	504.400	0.139	0.327
-679.222	-83.008	-0.089	-0.029
-678.208	800.000	-0.077	0.280
-677.193	-119.947	-0.216	-0.038
-676.178	-54.499	-0.102	0.047
-675.164	275.624	-0.025	0.044
-674.149	-172.354	0.083	0.003
-673.135	-200.000	-0.003	-0.074
-672.120	145.997	0.043	-0.058
-671.105	-79.597	0.091	-0.031
-670.091	-24.919	-0.143	-0.086
-669.076	77.030	-0.043	0.046
-668.062	497.674	0.121	0.281
-667.047	-80.566	-0.373	-0.126
-666.032	800.000	-0.024	-0.075
-665.018	11.846	-0.131	0.102
-664.003	-200.000	-0.016	-0.266
-662.989	800.000	0.044	0.148
-661.974	271.926	0.068	-0.122
-660.959	-200.000	-0.004	-0.202
-659.945	-41.586	-0.117	0.061
-658.930	-173.065	0.084	0.003
-657.916	-152.197	0.153	-0.011
-656.901	-54.927	-0.071	-0.032
-655.886	-57.801	-0.110	0.049
-654.872	-34.840	-0.168	0.093
-653.857	-37.433	0.136	-0.073
-652.843	-200.000	-0.011	-0.140
-651.828	800.000	-0.019	0.059
-650.814	-101.770	-0.164	-0.040
-649.799	-33.039	0.060	-0.033
-648.784	4.046	0.164	-0.121
-647.770	-200.000	-0.009	-0.296
-646.755	-7.872	0.164	-0.112
-645.741	5.762	-0.037	-0.028
-644.726	378.746	0.066	0.137
-643.711	84.463	-0.124	-0.138
-642.697	276.877	0.094	-0.168
-641.682	-200.000	0.059	0.315
-640.668	-200.000	0.010	0.051
-639.653	-137.173	0.443	0.051
-638.638	-76.566	0.123	-0.044
-637.624	-184.964	-0.315	-0.005
-636.609	800.000	0.077	-0.332
-635.595	619.622	0.139	-0.353
-634.580	-58.527	0.253	0.111
-633.565	-61.031	-0.316	0.135
-632.551	46.917	-0.094	-0.088
-631.536	-200.000	-0.036	-0.413
-630.522	458.945	-0.124	-0.278
-629.507	45.672	-0.154	0.144
-628.492	-200.000	-0.015	-0.250
-627.478	-77.120	0.225	-0.079
-626.463	132.263	-0.211	-0.275
-625.449	-200.000	0.085	0.453
-624.434	200.300	0.222	0.346
-623.419	-124.033	-0.172	-0.027
-622.405	-81.169	-0.117	0.039
-621.390	800.000	0.096	0.332
-620.376	3.829	-0.108	-0.080
-619.361	2.518	0.054	-0.040
-618.346	-29.403	0.168	-0.097
-617.332	-81.168	0.208	0.069
-616.317	247.905	-0.051	0.088
-615.303	-76.879	-0.117	-0.042
-614.288	-200.000	-0.021	-0.305
-613.273	-33.573	-0.154	-0.086
-612.259	-160.386	0.026	0.001
-611.244	-90.797	-0.253	-0.074
-610.230	-196.096	0.224	0.002
-609.215	-200.000	0.016	0.108
-608.201	378.074	-0.046	-0.095
-607.186	-37.208	-0.167	-0.091
-606.171	113.456	0.048	0.059
-605.157	-200.000	0.039	0.191
-604.142	-69.804	0.123	0.048
-603.128	137.998	-0.239	-0.317
-602.113	46.635	0.105	-0.099
-601.098	-118.368	-0.131	0.024
-600.084	-134.449	-0.276	0.034
-599.069	-49.255	0.079	-0.038
-598.055	-21.013	-0.246	0.152
-597.040	96.853	0.105	0.121
-596.025	800.000	0.072	-0.202
-595.011	-49.230	-0.153	0.074
-593.996	-58.425	0.242	0.106
-592.982	425.558	-0.109	0.236
-591.967	80.669	0.094	-0.102
-590.952	6.108	0.102	-0.076
-589.938	103.772	0.177	0.210
-588.923	-134.518	-0.079	0.010
-587.909	156.035	-0.037	-0.051
-586.894	21.196	-0.221	0.181
-585.879	-113.700	-0.082	-0.016
-584.865	-200.000	0.029	-0.379
-583.850	157.959	-0.103	0.144
-582.836	-80.724	0.357	-0.120
-581.821	800.000	-0.035	-0.120
-580.806	-200.000	-0.050	0.276
-579.792	-28.418	-0.180	-0.105
-578.777	-71.499	0.178	0.067
-577.763	127.096	-0.119	0.152
-576.748	-111.588	0.413	0.085
-575.733	-132.225	-0.268	-0.035
-574.719	259.137	0.078	-0.135
-573.704	-94.357	-0.278	-0.077
-572.690	142.363	-0.166	-0.223
-571.675	-200.000	-0.020	-0.101
-570.661	233.878	-0.062	0.103
-569.646	67.402	0.221	-0.227
-568.631	-106.532	-0.171	-0.039
-567.617	-101.913	-0.225	-0.055
-566.602	49.404	0.157	0.149
-565.588	-78.505	-0.050	0.017
-564.573	-167.610	0.118	-0.005
-563.558	-65.389	-0.306	0.124
-562.544	308.901	-0.081	-0.153
-561.529	-147.564	-0.042	-0.004
-560.515	-200.000	-0.012	-0.286
-559.500	39.542	-0.237	-0.215
-558.485	-88.715	-0.292	0.088
-557.471	-200.000	0.005	-0.069
-556.456	100.309	-0.172	0.202
-555.442	218.026	0.170	0.273
-554.427	-3.543	0.321	-0.225
-553.412	612.660	0.046	-0.116
-552.398	76.845	-0.241	0.258
-551.383	-138.456	0.132	0.015
-550.369	-138.568	0.226	0.025
-549.354	-161.779	0.086	0.004
-548.339	-3.390	-0.124	-0.087
-547.325	412.041	-0.099	0.212
-546.310	800.000	0.023	0.097
-545.296	645.670	-0.079	0.203
-544.281	-68.140	-0.193	0.076
-543.266	-200.000	-0.042	0.258
-542.252	63.937	0.238	-0.241
-541.237	797.803	0.126	-0.350
-540.223	-172.967	0.324	0.010
-539.208	4.919	0.139	0.103
-538.193	466.984	-0.098	-0.221
-537.179	-21.283	0.133	-0.082
-536.164	800.000	-0.126	-0.438
-535.150	55.939	-0.111	-0.109
-534.135	-200.000	-0.023	0.232
-533.121	-42.426	0.057	-0.029
-532.106	-6.573	-0.264	-0.182
-531.091	-44.188	-0.149	0.076
-530.077	35.952	0.064	-0.057
-529.062	-55.531	0.293	-0.132
-528.048	-200.000	-0.017	0.325
-527.033	21.838	0.090	0.074
-526.018	800.000	0.069	-0.202
-525.004	454.267	-0.076	-0.169
-523.989	190.076	0.141	0.213
-522.975	75.961	0.128	0.136
-521.960	-122.168	-0.248	0.041
-520.945	-130.936	-0.022	-0.003
-519.931	-200.000	-0.011	0.276
-518.916	-146.220	-0.175	-0.015
-517.902	170.511	0.091	0.131
-516.887	400.157	-0.121	-0.255
-515.872	137.209	0.324	-0.427
-514.858	-200.000	-0.023	0.117
-513.843	105.184	0.088	0.104
-512.829	84.652	0.127	0.140
-511.814	43.007	-0.347	-0.319
-510.799	212.938	0.090	-0.143
-509.785	-73.029	-0.340	0.126
-508.770	20.926	-0.160	0.131
-507.756	-200.000	-0.003	0.020
-506.741	-48.844	0.332	0.160
-505.726	-4.534	-0.255	0.177
-504.712	-99.647	-0.163	0.041
-503.697	-200.000	0.047	-0.237
-502.683	599.616	0.087	0.218
-501.668	-124.232	-0.413	-0.065
-500.653	800.000	-0.010	-0.035
-499.639	48.866	-0.070	0.067
-498.624	246.951	0.203	-0.345
-497.610	800.000	0.037	0.153
-496.595	-70.217	-0.313	-0.120
-495.581	54.101	-0.090	0.087
-494.566	-32.797	0.064	0.036
-493.551	52.845	-0.057	-0.055
-492.537	-44.134	0.354	0.179
-491.522	-200.000	-0.039	0.268
-490.508	-68.825	-0.206	-0.080
-489.493	-38.181	-0.080	-0.043
-488.478	14.786	-0.179	-0.141
-487.464	53.010	-0.054	-0.052
-486.449	-200.000	-0.029	-0.136
-485.435	-200.000	0.059	-0.273
-484.420	40.268	0.296	-0.268
-483.405	-54.079	-0.057	-0.026
-482.391	800.000	0.023	-0.085
-481.376	-88.388	-0.371	-0.112
-480.362	-58.956	-0.279	0.121
-479.347	544.459	0.033	0.080
-478.332	-16.205	-0.141	0.090
-477.318	-117.125	-0.241	-0.044
-476.303	-200.000	0.029	-0.375
-475.289	-200.000	-0.019	0.136
-474.274	-32.846	0.177	0.099
-473.259	-157.290	0.232	0.014
-472.245	-81.291	-0.129	-0.043
-471.230	-36.951	0.212	-0.115
-470.216	-200.000	-0.034	-0.234
-469.201	-200.000	0.011	0.304
-468.186	-3.814	0.201	0.140
-467.172	-99.013	0.378	-0.096
-466.157	237.763	0.150	0.251
-465.143	743.474	0.090	-0.245
-464.128	-30.915	-0.238	0.135
-463.113	706.349	0.152	-0.403
-462.099	254.797	-0.081	-0.140
-461.084	44.796	0.212	0.196
-460.070	110.665	0.125	-0.151
-459.055	800.000	0.019	-0.066
-458.040	-142.501	-0.127	-0.012
-457.026	-140.216	0.214	0.023
-456.011	31.711	-0.136	0.118
-454.997	-142.019	0.130	0.013
-453.982	68.098	0.143	0.148
-452.968	-158.140	-0.272	0.016
-451.953	-200.000	0.038	-0.414
-450.938	-112.407	0.105	0.021
-449.924	-64.146	0.190	0.078
-448.909	-152.626	0.314	-0.023
-447.895	638.068	0.086	0.220
-446.880	-154.643	0.118	0.008
-445.865	34.849	-0.214	0.188
-444.851	240.725	0.202	-0.338
-443.836	800.000	-0.049	-0.172
-442.822	142.163	0.144	0.192
-441.807	349.028	0.281	0.558
-440.792	-118.685	-0.193	0.034
-439.778	-200.000	0.039	0.220
-438.763	82.969	0.115	-0.126
-437.749	464.475	0.092	0.206
-436.734	800.000	0.124	0.361
-435.719	-61.639	0.107	-0.045
-434.705	-25.479	0.019	0.011
-433.690	800.000	0.062	-0.242
-432.676	10.963	0.065	0.050
-431.661	-200.000	-0.036	0.225
-430.646	-200.000	-0.024	-0.106
-429.632	717.104	0.115	0.307
-428.617	-72.054	0.395	0.147
-427.603	-152.776	0.263	-0.019
-426.588	-91.764	0.162	-0.046
-425.573	-200.000	0.006	0.129
-424.559	-122.584	0.150	0.024
-423.544	-200.000	-0.031	-0.317
-422.530	-200.000	0.032	0.265
-421.515	-200.000	-0.004	0.171
-420.500	-42.353	-0.194	-0.099
-419.486	-132.995	0.149	-0.019
-418.471	378.902	-0.023	-0.048
-417.457	-131.594	0.210	-0.028
-416.442	-27.223	0.228	-0.133
-415.428	125.772	0.256	-0.325
-414.413	-11.354	-0.120	0.079
-413.398	-50.379	-0.100	-0.047
-412.384	179.648	0.118	0.173
-411.369	-170.935	-0.020	0.001
-410.355	800.000	-0.043	0.174
-409.340	-94.288	-0.036	0.010
-408.325	66.297	0.086	0.087
-407.311	800.000	0.086	0.244
-406.296	21.242	-0.152	0.124
-405.282	113.390	0.103	-0.125
-404.267	-148.180	-0.209	0.017
-403.252	-124.631	0.211	0.033
-402.238	-110.335	-0.032	-0.007
-401.223	165.481	-0.089	-0.126
-400.209	-10.616	-0.106	-0.071
-399.194	118.332	0.172	-0.213
-398.179	197.661	-0.102	-0.157
-397.165	-200.000	-0.027	-0.175
-396.150	351.475	0.178	0.353
-395.136	-14.802	-0.235	-0.151
-394.121	-200.000	-0.023	0.160
-393.106	17.666	0.162	-0.130
-392.092	377.493	0.069	0.142
-391.077	302.942	0.117	-0.217
-390.063	-200.000	0.053	0.388
-389.048	-104.263	-0.358	0.083
-388.033	-81.743	-0.093	-0.031
-387.019	800.000	0.032	-0.094
-386.004	282.953	0.091	0.164
-384.990	371.973	0.147	0.299
-383.975	-197.996	0.346	-0.002
-382.960	154.583	-0.066	0.091
-381.946	138.966	0.108	-0.142
-380.931	-36.469	-0.093	0.050
-379.917	-152.506	-0.159	-0.011
-378.902	59.915	0.177	0.176
-377.888	800.000	-0.017	0.054
-376.873	-6.606	0.192	0.131
-375.858	-200.000	-0.002	0.363
-374.844	248.110	-0.196	-0.333
-373.829	-42.640	0.319	-0.163
-372.815	-200.000	0.034	0.264
-371.800	-108.216	0.204	-0.044
-370.785	155.012	-0.165	-0.227
-369.771	12.481	-0.279	0.216
-368.756	615.732	0.111	0.280
-367.742	800.000	0.066	0.208
-366.727	532.674	0.125	0.297
-365.712	-20.600	0.073	0.045
-364.698	-126.107	0.193	-0.029
-363.683	-35.551	-0.186	0.101
-362.669	-37.553	0.301	0.161
-361.654	800.000	0.094	-0.266
-360.639	-59.927	0.179	0.077
-359.625	-200.000	-0.040	0.337
-358.610	66.652	0.084	-0.086
-357.596	457.817	-0.088	-0.195
-356.581	239.187	0.145	0.242
-355.566	533.033	-0.076	0.180
-354.552	-33.624	0.299	0.165
-353.537	532.789	0.079	0.188
-352.523	250.172	-0.106	-0.180
-351.508	-71.872	-0.250	0.093
-350.493	269.909	0.168	-0.296
-349.479	-200.000	-0.024	-0.144
-348.464	800.000	-0.080	-0.251
-347.450	-11.040	-0.162	-0.107
-346.435	-181.239	0.289	0.006
-345.420	305.317	-0.123	0.230
-344.406	-7.955	-0.155	0.105
-343.391	154.413	-0.145	-0.199
-342.377	741.003	-0.035	-0.095
-341.362	-200.000	0.000	0.068
-340.348	-12.291	0.326	0.213
-339.333	663.215	-0.162	0.419
-338.318	-122.114	-0.183	-0.030
-337.304	-131.777	-0.173	-0.023
-336.289	30.233	-0.061	0.052
-335.275	-179.028	-0.151	-0.003
-334.260	-88.354	0.318	-0.095
-333.245	-176.641	0.046	-0.001
-332.231	485.995	-0.094	-0.215
-331.216	-86.632	0.370	-0.113
-330.202	-109.440	0.105	0.022
-329.187	287.572	-0.042	0.076
-328.172	281.913	0.018	-0.033
-327.158	130.762	-0.135	-0.173
-326.143	-200.000	-0.007	0.107
-325.129	-200.000	-0.015	-0.217
-324.114	-57.659	0.082	0.036
-323.099	-132.054	-0.303	-0.039
-322.085	19.888	0.135	-0.109
-321.070	800.000	0.023	-0.089
-320.056	89.637	-0.230	0.257
-319.041	-80.479	0.164	-0.055
-318.026	800.000	0.106	-0.409
-317.012	420.347	-0.131	0.281
-315.997	129.385	-0.187	0.239
-314.983	59.172	0.038	-0.037
-313.968	98.874	-0.089	0.102
-312.953	-88.964	0.158	0.047
-311.939	-16.809	-0.067	0.043
-310.924	-0.158	-0.228	-0.162
-309.910	800.000	-0.052	-0.199
-308.895	-200.000	0.027	-0.454
-307.880	5.484	-0.303	0.223
-306.866	-200.000	-0.040	0.322
-305.851	-114.725	-0.216	0.041
-304.837	-200.000	0.007	0.122
-303.822	-46.465	-0.111	0.055
-302.807	261.484	0.246	0.426
-301.793	-165.361	-0.187	-0.008
-300.778	129.157	0.055	0.070
-299.764	800.000	0.041	-0.126
-298.749	-143.717	0.140	0.013
-297.735	-181.224	0.114	-0.002
-296.720	660.242	-0.106	-0.272
-295.705	-113.824	-0.286	0.056
-294.691	406.465	-0.177	0.374
-293.676	-200.000	0.010	0.145
-292.662	-200.000	-0.007	-0.147
-291.647	-70.247	-0.175	-0.066
-290.632	-200.000	0.059	0.416
-289.618	-117.259	0.303	-0.055
-288.603	-44.001	-0.149	0.075
-287.589	527.117	-0.053	0.126
-286.574	335.023	-0.176	-0.340
-285.559	-110.693	-0.005	-0.001
-284.545	364.507	-0.161	-0.323
-283.530	54.787	0.163	0.157
-282.516	-37.200	-0.190	-0.101
-281.501	-70.411	-0.157	-0.059
-280.486	774.238	-0.049	-0.134
-279.472	-22.235	-0.091	0.055
-278.457	30.386	0.240	-0.205
-277.443	-200.000	0.010	0.091
-276.428	-200.000	0.021	-0.164
-275.413	193.861	-0.069	0.104
-274.399	30.332	-0.229	0.195
-273.384	-94.705	-0.420	-0.114
-272.370	800.000	0.021	-0.071
-271.355	-73.836	0.117	0.042
-270.340	-139.202	-0.258	0.028
-269.326	-125.945	0.196	-0.029
-268.311	72.709	0.220	-0.230
-267.297	-200.000	-0.027	0.304
-266.282	-88.142	0.347	0.104
-265.267	67.830	-0.079	-0.080
-264.253	-200.000	0.064	-0.297
-263.238	-200.000	-0.042	0.331
-262.224	48.104	0.186	0.173
-261.209	42.372	0.126	0.114
-260.195	-131.499	0.239	-0.031
-259.180	-176.500	-0.200	0.005
-258.165	-115.258	-0.130	-0.025
-257.151	-103.783	-0.182	-0.043
-256.136	-80.342	-0.301	0.100
-255.122	601.631	0.116	-0.289
-254.107	145.918	-0.145	0.194
-253.092	-96.064	-0.177	-0.047
-252.078	27.332	-0.186	0.156
-251.063	44.110	0.090	0.082
-250.049	376.246	-0.033	0.067
-249.034	149.161	-0.034	0.046
-248.019	-92.065	-0.271	-0.076
-247.005	46.386	-0.122	0.113
-245.990	-12.455	-0.354	-0.230
-244.976	72.522	0.300	-0.312
-243.961	210.682	-0.065	-0.102
-242.946	-2.658	0.175	0.122
-241.932	-40.651	-0.234	-0.121
-240.917	-87.182	0.118	0.036
-239.903	-109.843	0.235	0.049
-238.888	-150.755	-0.314	0.024
-237.873	166.653	-0.082	-0.116
-236.859	-25.480	0.182	0.107
-235.844	198.942	0.076	0.116
-234.830	289.548	0.112	0.203
-233.815	-86.908	0.143	-0.043
-232.800	152.321	-0.049	-0.066
-231.786	245.484	-0.080	0.134
-230.771	155.520	-0.175	0.240
-229.757	800.000	0.029	0.103
-228.742	1.439	-0.110	0.079
-227.727	193.257	-0.243	0.366
-226.713	149.522	-0.087	-0.117
-225.698	123.930	-0.052	-0.065
-224.684	-141.933	-0.298	0.030
-223.669	-16.562	-0.105	-0.067
-222.655	-102.808	-0.324	0.077
-221.640	158.843	-0.126	0.175
-220.625	-63.154	-0.264	0.109
-219.611	-200.000	-0.035	-0.348
-218.596	123.749	-0.189	-0.236
-217.582	-200.000	-0.009	-0.119
-216.567	96.018	0.300	0.341
-215.552	-200.000	0.060	-0.319
-214.538	-147.830	-0.245	-0.020
-213.523	18.225	0.238	-0.189
-212.509	-200.000	-0.015	0.127
-211.494	-25.823	-0.131	0.077
-210.479	228.133	0.117	0.190
-209.465	-200.000	-0.032	0.194
-208.450	-55.772	0.315	0.140
-207.436	-12.365	0.335	0.218
-206.421	-200.000	0.037	0.231
-205.406	800.000	0.061	-0.239
-204.392	18.352	0.096	-0.077
-203.377	-162.381	-0.027	0.001
-202.363	4.307	0.183	-0.134
-201.348	140.100	0.198	-0.260
-200.333	700.047	-0.139	-0.364
-199.319	-200.000	-0.044	-0.262
-198.304	151.636	0.242	0.328
-197.290	-1.670	0.188	-0.132
-196.275	0.932	0.283	0.202
-195.260	-50.027	0.020	0.010
-194.246	129.335	-0.220	0.279
-193.231	-101.020	0.335	-0.082
-192.217	-40.663	-0.168	-0.087
-191.202	76.682	0.259	-0.273
-190.187	81.802	-0.189	-0.204
-189.173	-118.803	-0.180	0.032
-188.158	-137.032	-0.092	-0.010
-187.144	-134.806	0.335	-0.040
-186.129	47.278	-0.314	-0.291
-185.114	97.098	-0.114	-0.130
-184.100	-80.407	-0.150	-0.050
-183.085	147.901	0.117	-0.157
-182.071	693.029	0.093	-0.243
-181.056	-146.151	0.272	-0.024
-180.042	11.282	0.333	-0.254
-179.027	204.345	0.230	0.355
-178.012	6.988	0.042	0.031
-176.998	61.429	-0.178	-0.176
-175.983	-116.724	-0.294	0.054
-174.969	171.402	0.142	0.203
-173.954	-138.990	-0.295	-0.032
-172.939	169.699	-0.042	-0.059
-171.925	309.631	-0.127	0.236
-170.910	-19.146	-0.151	0.093
-169.896	800.000	0.071	-0.198
-168.881	27.441	-0.227	-0.190
-167.866	-60.816	-0.018	0.008
-166.852	-157.541	-0.125	0.007
-165.837	-162.582	-0.220	0.011
-164.823	-200.000	0.033	-0.162
-163.808	800.000	0.058	0.175
-162.793	-35.658	-0.149	-0.081
-161.779	-124.730	0.227	-0.035
-160.764	-22.879	0.403	0.242
-159.750	800.000	-0.078	0.215
-158.735	-132.159	-0.056	-0.007
-157.720	-177.928	-0.358	-0.008
-156.706	681.916	-0.036	0.093
-155.691	497.945	0.118	-0.269
-154.677	-200.000	0.031	-0.192
-153.662	528.409	-0.109	-0.256
-152.647	-110.080	0.297	0.062
-151.633	-12.345	-0.227	-0.148
-150.618	-33.193	-0.467	0.257
-149.604	-126.153	-0.242	0.036
-148.589	672.835	-0.087	-0.223
-147.574	340.717	-0.164	-0.318
-146.560	-41.077	-0.231	-0.118
-145.545	800.000	-0.059	0.169
-144.531	-29.237	0.127	0.072
-143.516	-25.300	-0.053	0.031
-142.502	-123.475	0.099	0.016
-141.487	102.659	0.018	0.021
-140.472	-200.000	0.015	0.124
-139.458	111.299	0.066	0.079
-138.443	800.000	0.064	0.264
-137.429	-1.652	0.099	0.069
-136.414	-26.240	0.294	0.172
-135.399	153.959	0.153	0.208
-134.385	-200.000	-0.034	-0.243
-133.370	143.240	-0.058	-0.076
-132.356	800.000	0.066	0.244
-131.341	800.000	-0.046	-0.189
-130.326	-200.000	0.021	-0.272
-129.312	-200.000	0.015	-0.154
-128.297	533.836	-0.106	-0.249
-127.283	-8.176	-0.206	-0.138
-126.268	-200.000	0.012	0.120
-125.253	67.919	0.226	0.229
-124.239	800.000	-0.112	0.435
-123.224	57.165	0.307	0.297
-122.210	-139.094	0.323	-0.035
-121.195	107.136	-0.445	0.525
