DTS Sentinel unit serial number:	SN413079Multiplexer serial number:	ORYXHardware model number:	OX4-SRSoftware version number:	ORYX F/W v4.00 Oryx Data Collector v3.7.2.0data status	okinstallation	princeton_trtdifferential loss correction	single-endedforward channel	channel 3reverse channel	N/Adate	2019/09/17time	15:56:35forward acquisition time	60.00reverse acquisition time	0.00gamma	496.2192k internal	0.2292k external	0.2292temperature offset calibration	0.9952default loss term (dB/km)	0.3790temperature slope calibration	1.0000multiplexer offset coefficient	1.0000multiplexer slope coefficient	1.0000fibre end	0.00T internal ref (°C)	39.64T ext. ref 1 (°C)	0.37T ext. ref 2 (°C)	38.64length (m)	temperature (°C)	Stokes	anti-Stokes-747.200	-151.326	0.363	0.028
-746.185	-15.667	-0.278	0.181
-745.171	-200.000	-0.014	0.081
-744.156	-200.000	-0.014	0.349
-743.142	-200.000	0.053	0.317
-742.127	-74.706	-0.198	0.073
-741.112	-79.172	0.145	-0.050
-740.098	-21.168	0.207	-0.130
-739.083	66.002	-0.316	-0.328
-738.069	71.859	0.063	0.067
-737.054	-145.533	-0.278	0.026
-736.039	-27.360	-0.259	0.154
-735.025	23.587	-0.202	-0.171
-734.010	271.764	-0.081	-0.146
-732.996	-76.790	-0.440	-0.158
-731.981	-105.794	0.321	-0.074
-730.966	-200.000	0.008	-0.209
-729.952	-200.000	0.002	-0.281
-728.937	-200.000	-0.023	-0.165
-727.923	24.981	-0.133	0.113
-726.908	-159.138	-0.249	-0.014
-725.894	-96.969	0.174	0.047
-724.879	-96.723	0.114	0.031
-723.864	-82.565	0.061	0.020
-722.850	-183.456	-0.177	0.003
-721.835	-140.097	0.079	-0.008
-720.821	-168.699	-0.180	0.007
-719.806	11.778	0.135	-0.106
-718.791	800.000	-0.039	-0.137
-717.777	757.910	-0.029	0.081
-716.762	-162.813	-0.235	0.012
-715.748	-200.000	0.022	0.210
-714.733	231.470	0.094	0.157
-713.718	11.576	-0.118	0.093
-712.704	-160.654	0.180	0.010
-711.689	-113.259	0.431	-0.087
-710.675	317.517	0.124	-0.239
-709.660	293.901	-0.044	0.083
-708.645	-44.867	0.165	-0.084
-707.631	60.650	0.305	0.308
-706.616	480.831	0.104	0.241
-705.602	-200.000	-0.003	0.052
-704.587	160.234	0.148	-0.210
-703.572	-200.000	-0.007	0.047
-702.558	-200.000	0.017	0.251
-701.543	-200.000	0.078	-0.498
-700.529	188.568	0.155	-0.237
-699.514	-58.650	0.180	0.080
-698.499	376.938	-0.243	0.506
-697.485	-173.697	0.279	-0.008
-696.470	800.000	-0.091	-0.399
-695.456	-200.000	0.046	-0.313
-694.441	-18.190	-0.331	-0.211
-693.426	-10.412	0.017	0.012
-692.412	92.864	0.060	0.070
-691.397	-200.000	0.021	-0.212
-690.383	18.674	-0.164	0.134
-689.368	-200.000	-0.025	-0.204
-688.354	129.073	-0.169	0.220
-687.339	-142.099	0.212	0.021
-686.324	67.012	0.181	0.188
-685.310	-25.354	0.282	0.170
-684.295	141.666	0.109	-0.148
-683.281	-200.000	0.015	0.424
-682.266	543.412	-0.106	-0.258
-681.251	18.817	0.249	0.203
-680.237	370.810	-0.065	-0.136
-679.222	-26.671	0.425	-0.254
-678.208	76.215	0.076	-0.082
-677.193	-200.000	0.024	-0.210
-676.178	800.000	-0.047	0.168
-675.164	-181.338	0.212	0.004
-674.149	607.138	0.142	0.361
-673.135	187.189	0.096	0.146
-672.120	-5.169	0.196	-0.138
-671.105	334.281	0.147	0.290
-670.091	777.026	-0.104	-0.290
-669.076	-200.000	0.004	0.087
-668.062	338.843	-0.093	0.185
-667.047	117.638	-0.209	0.263
-666.032	-5.112	0.112	-0.079
-665.018	-137.893	-0.173	0.020
-664.003	-63.218	-0.064	-0.027
-662.989	-143.981	0.269	-0.026
-661.974	23.272	-0.056	-0.047
-660.959	800.000	0.024	-0.104
-659.945	-175.266	-0.180	0.005
-658.930	-138.577	-0.194	-0.022
-657.916	-0.308	-0.104	0.076
-656.901	172.155	-0.095	-0.140
-655.886	-58.993	-0.083	0.036
-654.872	-169.782	0.045	-0.002
-653.857	5.924	0.127	-0.096
-652.843	163.309	0.130	-0.187
-651.828	82.137	-0.034	-0.038
-650.814	800.000	0.060	0.257
-649.799	800.000	0.049	0.161
-648.784	-10.683	-0.184	0.124
-647.770	-80.175	0.109	-0.037
-646.755	107.198	-0.076	-0.092
-645.741	-157.444	-0.349	0.021
-644.726	-19.332	0.195	-0.123
-643.711	161.659	0.117	0.166
-642.697	-200.000	0.007	-0.132
-641.682	52.387	0.080	-0.078
-640.668	-200.000	0.010	-0.167
-639.653	28.552	-0.327	0.282
-638.638	173.231	-0.090	0.132
-637.624	-142.656	-0.225	0.022
-636.609	238.408	0.059	-0.099
-635.595	305.676	0.185	0.351
-634.580	186.416	-0.115	-0.174
-633.565	-23.505	0.343	-0.210
-632.551	-17.751	0.146	0.094
-631.536	-200.000	-0.035	0.222
-630.522	800.000	0.044	-0.168
-629.507	-200.000	-0.017	0.086
-628.492	10.586	0.093	-0.072
-627.478	233.091	-0.059	0.098
-626.463	-123.764	-0.171	-0.027
-625.449	189.134	-0.065	0.100
-624.434	157.089	-0.101	-0.143
-623.419	199.352	-0.076	-0.119
-622.405	-98.517	-0.439	-0.114
-621.390	190.397	0.201	0.308
-620.376	20.455	0.232	0.191
-619.361	-169.377	0.059	-0.002
-618.346	272.812	0.108	-0.195
-617.332	800.000	-0.042	0.134
-616.317	-200.000	0.021	-0.118
-615.303	-18.854	0.076	0.048
-614.288	-47.325	-0.372	-0.185
-613.273	-127.236	0.158	0.023
-612.259	606.431	-0.106	-0.270
-611.244	-71.218	0.188	0.072
-610.230	-126.147	0.474	-0.072
-609.215	0.038	0.149	0.108
-608.201	306.571	0.147	-0.278
-607.186	-74.619	-0.203	0.074
-606.171	24.130	0.246	0.207
-605.157	-200.000	0.025	-0.134
-604.142	110.904	-0.055	0.068
-603.128	800.000	-0.033	-0.146
-602.113	-29.713	-0.170	0.099
-601.098	-200.000	-0.017	-0.124
-600.084	-114.408	-0.291	-0.057
-599.069	-200.000	0.008	0.184
-598.055	542.732	0.061	-0.149
-597.040	800.000	-0.059	0.206
-596.025	-108.624	0.080	-0.018
-595.011	79.392	-0.202	-0.221
-593.996	75.074	-0.205	0.220
-592.982	-114.689	-0.366	-0.071
-591.967	25.191	-0.063	0.053
-590.952	-200.000	0.021	0.216
-589.938	800.000	-0.049	-0.162
-588.923	224.526	0.039	-0.065
-587.909	-200.000	-0.009	-0.227
-586.894	11.928	-0.108	0.085
-585.879	100.154	-0.089	0.105
-584.865	-200.000	0.001	-0.117
-583.850	-111.611	-0.322	0.067
-582.836	182.768	-0.275	-0.413
-581.821	1.790	-0.322	-0.236
-580.806	-200.000	0.011	0.066
-579.792	800.000	-0.023	-0.089
-578.777	199.544	0.245	-0.383
-577.763	-200.000	0.023	0.111
-576.748	-200.000	0.003	-0.065
-575.733	-93.909	0.141	0.039
-574.719	-112.843	-0.094	0.019
-573.704	133.379	0.122	-0.161
-572.690	-114.975	-0.220	-0.043
-571.675	152.807	0.200	0.278
-570.661	-18.017	0.143	0.091
-569.646	368.463	-0.087	-0.180
-568.631	94.920	-0.108	-0.125
-567.617	-136.691	0.187	-0.022
-566.602	800.000	0.058	-0.253
-565.588	222.098	0.189	-0.309
-564.573	48.955	-0.189	0.181
-563.558	272.189	-0.132	0.237
-562.544	-108.622	0.198	-0.043
-561.529	-185.027	0.105	-0.002
-560.515	-200.000	-0.026	-0.199
-559.500	-200.000	0.001	0.124
-558.485	-90.071	-0.303	-0.090
-557.471	-91.945	0.333	-0.096
-556.456	-35.950	0.139	-0.077
-555.442	-34.107	-0.181	-0.101
-554.427	-26.822	0.094	-0.056
-553.412	-200.000	0.019	0.199
-552.398	-128.550	-0.068	0.010
-551.383	-88.479	0.369	0.112
-550.369	-60.358	0.115	0.050
-549.354	-21.689	0.216	0.133
-548.339	-18.773	0.154	-0.098
-547.325	393.986	-0.081	-0.171
-546.310	524.798	-0.097	-0.232
-545.296	162.007	-0.207	-0.295
-544.281	-200.000	-0.022	0.203
-543.266	392.079	0.189	-0.398
-542.252	44.180	0.071	-0.066
-541.237	732.391	0.105	-0.287
-540.223	-200.000	-0.044	-0.274
-539.208	-71.379	-0.208	0.079
-538.193	87.313	0.084	0.094
-537.179	62.947	0.302	0.307
-536.164	240.382	0.005	-0.008
-535.150	-200.000	0.013	0.448
-534.135	-167.798	-0.159	-0.006
-533.121	44.520	-0.227	0.212
-532.106	-170.701	-0.229	0.008
-531.091	136.009	-0.047	-0.062
-530.077	-130.001	0.211	-0.029
-529.062	106.226	-0.011	-0.014
-528.048	680.497	-0.035	-0.093
-527.033	-97.244	-0.201	-0.053
-526.018	15.608	0.269	-0.214
-525.004	800.000	-0.055	0.176
-523.989	800.000	0.047	-0.141
-522.975	-40.595	0.074	-0.039
-521.960	143.275	-0.163	0.220
-520.945	-93.075	0.203	0.057
-519.931	-127.221	0.134	-0.020
-518.916	800.000	0.077	-0.234
-517.902	18.364	0.112	0.091
-516.887	579.304	0.073	0.181
-515.872	-200.000	0.028	0.347
-514.858	376.608	-0.032	0.066
-513.843	-38.304	-0.344	-0.185
-512.829	-200.000	0.071	0.436
-511.814	659.486	0.062	-0.162
-510.799	155.067	0.269	-0.376
-509.785	-89.218	0.211	0.063
-508.770	163.095	-0.180	0.257
-507.756	800.000	0.100	-0.371
-506.741	-15.383	-0.333	0.216
-505.726	-200.000	-0.043	-0.306
-504.712	-58.925	-0.156	-0.069
-503.697	800.000	0.039	0.126
-502.683	-79.631	-0.091	-0.031
-501.668	800.000	-0.174	-0.494
-500.653	800.000	0.135	0.398
-499.639	800.000	0.064	-0.242
-498.624	94.934	-0.151	0.175
-497.610	-3.227	-0.275	0.194
-496.595	-200.000	0.040	0.228
-495.581	800.000	0.079	0.231
-494.566	165.070	0.111	-0.158
-493.551	-88.451	0.180	0.054
-492.537	11.353	0.217	0.169
-491.522	-54.848	0.260	0.119
-490.508	-200.000	0.014	0.209
-489.493	-2.375	0.123	-0.088
-488.478	34.073	0.081	0.071
-487.464	-70.733	-0.250	-0.096
-486.449	-86.423	-0.153	-0.048
-485.435	56.319	-0.034	-0.034
-484.420	-200.000	0.038	-0.210
-483.405	-78.308	0.290	0.101
-482.391	-149.923	0.247	0.020
-481.376	-200.000	0.021	-0.360
-480.362	-33.792	-0.104	0.058
-479.347	-11.724	-0.073	-0.049
-478.332	-78.525	-0.175	0.061
-477.318	-144.548	0.177	-0.017
-476.303	-100.582	-0.294	0.074
-475.289	-200.000	0.036	0.202
-474.274	584.079	-0.098	-0.243
-473.259	-200.000	0.016	-0.184
-472.245	412.295	0.069	-0.149
-471.230	-200.000	-0.006	0.080
-470.216	-200.000	-0.048	0.365
-469.201	474.347	-0.090	0.205
-468.186	-45.994	-0.250	0.125
-467.172	-16.836	0.153	0.098
-466.157	21.473	-0.174	-0.143
-465.143	-14.620	-0.348	0.226
-464.128	1.531	-0.056	0.041
-463.113	-165.790	0.283	0.012
-462.099	-200.000	0.037	-0.187
-461.084	-114.180	-0.074	-0.015
-460.070	-82.762	-0.008	-0.003
-459.055	-101.247	0.127	-0.031
-458.040	49.054	-0.146	-0.139
-457.026	-132.997	-0.198	-0.025
-456.011	-124.546	0.205	-0.032
-454.997	-200.000	-0.125	0.000
-453.982	-200.000	0.047	0.274
-452.968	-10.399	-0.240	0.161
-451.953	-141.057	-0.476	0.049
-450.938	-10.434	-0.093	0.063
-449.924	-36.828	-0.077	-0.042
-448.909	-200.000	0.013	0.087
-447.895	-127.827	-0.125	0.018
-446.880	-105.088	0.094	-0.022
-445.865	-90.290	0.229	0.067
-444.851	800.000	-0.054	0.193
-443.836	-43.542	0.239	-0.122
-442.822	800.000	0.083	-0.261
-441.807	565.822	-0.099	-0.243
-440.792	-200.000	-0.019	0.377
-439.778	511.744	0.179	-0.422
-438.763	678.142	-0.031	0.082
-437.749	63.735	-0.024	-0.024
-436.734	89.006	0.255	-0.287
-435.719	-200.000	-0.033	-0.243
-434.705	-22.729	-0.080	0.049
-433.690	-106.261	0.425	0.096
-432.676	7.937	0.053	-0.040
-431.661	-200.000	-0.005	-0.165
-430.646	-41.486	0.096	-0.050
-429.632	-149.464	0.159	0.013
-428.617	-36.869	0.152	-0.083
-427.603	-44.565	0.140	0.071
-426.588	336.851	-0.155	0.304
-425.573	59.822	-0.076	0.075
-424.559	11.205	0.091	-0.070
-423.544	-144.705	-0.251	-0.023
-422.530	-200.000	-0.036	0.174
-421.515	489.840	-0.047	0.108
-420.500	24.872	-0.173	0.145
-419.486	372.349	-0.107	0.219
-418.471	-34.753	-0.174	0.096
-417.457	145.678	-0.140	0.190
-416.442	-200.000	0.008	0.129
-415.428	300.497	0.171	-0.319
-414.413	800.000	-0.069	0.271
-413.398	-112.099	-0.105	-0.021
-412.384	800.000	-0.075	-0.217
-411.369	37.107	0.133	0.119
-410.355	-200.000	-0.038	-0.343
-409.340	71.724	-0.280	-0.294
-408.325	-13.183	0.375	-0.246
-407.311	-200.000	-0.075	-0.356
-406.296	-33.860	-0.092	0.051
-405.282	538.763	-0.036	-0.086
-404.267	800.000	0.047	-0.173
-403.252	-200.000	-0.020	0.359
-402.238	-10.744	-0.343	0.229
-401.223	745.949	0.191	-0.520
-400.209	-200.000	0.010	-0.317
-399.194	-99.819	-0.127	0.032
-398.179	44.251	0.088	-0.082
-397.165	-200.000	0.015	0.170
-396.150	554.837	0.120	-0.291
-395.136	800.000	0.006	0.018
-394.121	-126.363	0.130	0.020
-393.106	-45.922	-0.135	0.067
-392.092	-78.026	-0.314	0.109
-391.077	800.000	0.062	0.238
-390.063	-6.371	0.314	0.216
-389.048	-154.334	-0.224	0.015
-388.033	-43.217	0.292	0.149
-387.019	233.674	0.122	-0.203
-386.004	-106.911	0.074	0.017
-384.990	88.789	0.183	0.206
-383.975	-39.285	-0.158	0.084
-382.960	800.000	-0.047	0.174
-381.946	95.643	-0.226	0.260
-380.931	-106.243	0.207	-0.047
-379.917	40.813	-0.134	0.122
-378.902	124.731	0.228	0.289
-377.888	207.236	0.126	0.198
-376.873	6.506	-0.219	0.164
-375.858	-90.197	0.293	0.086
-374.844	-86.416	0.229	0.071
-373.829	-54.061	-0.352	0.161
-372.815	-182.715	0.144	0.003
-371.800	-76.072	-0.275	-0.098
-370.785	-114.365	0.174	-0.034
-369.771	-78.169	-0.216	-0.075
-368.756	-200.000	0.018	0.089
-367.742	48.425	0.211	-0.199
-366.727	-49.939	-0.173	-0.083
-365.712	-34.576	0.207	0.114
-364.698	453.374	-0.130	-0.289
-363.683	-200.000	-0.022	0.328
-362.669	-147.398	-0.019	0.002
-361.654	-76.794	0.513	-0.181
-360.639	-53.690	0.118	0.054
-359.625	221.328	-0.032	0.052
-358.610	89.249	-0.207	0.232
-357.596	-18.383	0.112	0.070
-356.581	-178.444	-0.245	0.006
-355.566	-35.087	-0.222	0.122
-354.552	342.035	0.070	-0.138
-353.537	-200.000	0.033	0.245
-352.523	235.380	-0.037	0.061
-351.508	40.965	-0.082	-0.074
-350.493	21.296	0.196	0.161
-349.479	100.308	-0.241	-0.282
-348.464	0.124	-0.216	0.155
-347.450	6.447	-0.102	0.076
-346.435	-31.436	-0.220	0.125
-345.420	478.627	-0.076	0.173
-344.406	-200.000	-0.023	0.129
-343.391	308.828	-0.117	-0.220
-342.377	-23.573	0.106	-0.064
-341.362	249.633	-0.059	0.101
-340.348	-94.814	-0.109	0.030
-339.333	-149.238	-0.134	-0.011
-338.318	-24.696	0.071	0.043
-337.304	-9.712	0.104	-0.070
-336.289	-183.685	-0.200	-0.003
-335.275	-200.000	-0.007	-0.419
-334.260	-64.686	0.063	-0.026
-333.245	-155.059	-0.202	0.013
-332.231	43.567	0.236	0.218
-331.216	443.401	-0.066	-0.145
-330.202	800.000	0.035	-0.107
-329.187	76.369	-0.050	-0.053
-328.172	80.983	0.225	-0.245
-327.158	152.062	0.163	-0.224
-326.143	-62.508	0.431	-0.181
-325.129	297.151	-0.157	-0.291
-324.114	-200.000	0.034	0.000
-323.099	186.282	-0.039	0.059
-322.085	800.000	-0.039	-0.146
-321.070	-35.157	-0.263	-0.144
-320.056	218.823	0.071	0.115
-319.041	-69.123	0.197	-0.076
-318.026	800.000	-0.031	-0.100
-317.012	-44.578	0.192	-0.097
-315.997	-69.940	-0.127	0.049
-314.983	251.472	0.078	0.133
-313.968	-200.000	-0.025	0.126
-312.953	-40.484	-0.140	0.073
-311.939	-8.766	0.220	-0.148
-310.924	3.009	0.202	0.148
-309.910	-58.961	-0.294	0.128
-308.895	146.059	-0.062	-0.084
-307.880	-200.000	-0.046	-0.236
-306.866	-112.046	-0.203	-0.041
-305.851	-74.069	-0.068	-0.025
-304.837	104.157	0.282	0.333
-303.822	-200.000	-0.021	0.122
-302.807	47.420	0.336	0.315
-301.793	-200.000	-0.033	-0.281
-300.778	-110.468	0.387	-0.081
-299.764	647.358	-0.014	-0.037
-298.749	-89.567	0.169	-0.050
-297.735	800.000	-0.066	0.283
-296.720	-21.453	-0.296	-0.182
-295.705	-77.310	0.358	0.125
-294.691	132.332	-0.101	0.132
-293.676	-58.320	0.126	-0.055
-292.662	-200.000	0.005	-0.132
-291.647	-94.442	0.096	-0.026
-290.632	-134.622	-0.255	0.031
-289.618	241.146	0.187	-0.314
-288.603	-25.926	-0.218	0.129
-287.589	47.785	0.136	-0.127
-286.574	-23.572	0.149	-0.090
-285.559	800.000	0.063	-0.239
-284.545	-58.980	-0.134	-0.058
-283.530	-200.000	0.005	0.078
-282.516	12.593	0.195	-0.151
-281.501	-200.000	-0.021	0.235
-280.486	19.554	-0.021	0.017
-279.472	341.339	0.182	0.357
-278.457	-117.344	0.432	-0.079
-277.443	-33.839	-0.064	0.036
-276.428	-200.000	-0.019	-0.327
-275.413	-115.693	-0.258	-0.049
-274.399	-200.000	-0.002	-0.356
-273.384	-200.000	0.029	-0.308
-272.370	723.175	0.121	0.323
-271.355	-35.198	0.219	-0.120
-270.340	106.856	0.084	0.100
-269.326	24.245	-0.223	-0.185
-268.311	567.400	-0.085	-0.207
-267.297	36.366	-0.059	-0.052
-266.282	6.560	-0.275	0.206
-265.267	-17.589	0.331	0.209
-264.253	506.763	-0.114	-0.266
-263.238	-148.399	0.126	-0.010
-262.224	16.039	0.216	0.171
-261.209	-198.675	-0.112	-0.001
-260.195	385.810	0.171	-0.354
-259.180	-12.012	0.135	0.089
-258.165	-80.980	0.184	0.061
-257.151	-200.000	0.005	-0.055
-256.136	800.000	0.051	0.162
-255.122	-159.105	0.129	-0.007
-254.107	-200.000	-0.007	0.311
-253.092	182.861	-0.139	0.206
-252.078	558.403	-0.095	0.229
-251.063	206.192	0.110	-0.172
-250.049	-62.667	-0.026	-0.011
-249.034	221.556	-0.209	0.338
-248.019	73.869	-0.176	-0.185
-247.005	-107.572	-0.267	-0.059
-245.990	-100.762	-0.300	-0.074
-244.976	800.000	-0.081	0.355
-243.961	-200.000	0.020	0.244
-242.946	-138.704	0.092	0.010
-241.932	800.000	0.064	-0.195
-240.917	-200.000	-0.018	-0.146
-239.903	43.670	-0.228	-0.209
-238.888	10.359	-0.058	-0.044
-237.873	-151.118	-0.167	0.013
-236.859	796.543	0.034	-0.095
-235.844	247.810	0.076	-0.129
-234.830	-200.000	-0.014	-0.177
-233.815	271.413	-0.276	-0.487
-232.800	-170.609	-0.346	-0.012
-231.786	12.106	0.111	0.086
-230.771	260.000	-0.084	-0.146
-229.757	-117.962	0.153	0.027
-228.742	-200.000	-0.009	0.203
-227.727	800.000	0.056	0.203
-226.713	61.238	0.154	0.154
-225.698	288.200	0.094	-0.170
-224.684	131.155	0.057	-0.074
-223.669	-128.747	0.145	0.020
-222.655	166.424	-0.142	0.202
-221.640	800.000	0.080	0.231
-220.625	-29.370	-0.178	0.102
-219.611	-104.094	0.067	-0.016
-218.596	60.119	0.112	0.111
-217.582	-200.000	-0.024	0.245
-216.567	49.227	0.181	-0.171
-215.552	-183.181	0.202	0.004
-214.538	459.260	-0.149	-0.333
-213.523	-200.000	0.007	-0.063
-212.509	-2.291	-0.034	-0.024
-211.494	623.083	-0.162	-0.408
-210.479	56.084	0.141	0.137
-209.465	-81.820	0.181	0.059
-208.450	800.000	0.053	0.177
-207.436	-200.000	0.008	0.241
-206.421	-166.291	0.250	-0.011
-205.406	-88.199	0.066	-0.020
-204.392	-181.597	0.368	-0.007
-203.377	800.000	0.022	0.096
-202.363	337.146	-0.102	-0.199
-201.348	-90.652	0.076	0.022
-200.333	267.869	-0.062	0.108
-199.319	-32.348	0.202	-0.113
-198.304	-200.000	0.027	0.262
-197.290	108.912	-0.084	0.100
-196.275	-92.487	-0.258	0.073
-195.260	-200.000	0.033	0.186
-194.246	800.000	0.084	0.329
-193.231	-175.939	-0.257	0.007
-192.217	-58.279	0.169	-0.074
-191.202	-43.477	-0.305	-0.154
-190.187	58.881	-0.292	0.287
-189.173	-200.000	-0.008	-0.147
-188.158	-16.265	-0.063	0.040
-187.144	207.605	-0.095	-0.149
-186.129	56.251	-0.161	-0.157
-185.114	566.115	-0.147	-0.358
-184.100	-28.932	0.212	0.122
-183.085	445.192	0.101	0.223
-182.071	-181.830	0.385	0.007
-181.056	800.000	0.050	0.163
-180.042	800.000	-0.040	-0.152
-179.027	278.235	-0.079	0.140
-178.012	-200.000	-0.030	-0.399
-176.998	-200.000	0.035	0.246
-175.983	-200.000	-0.048	-0.265
-174.969	762.408	0.081	0.220
-173.954	800.000	0.036	-0.108
-172.939	-80.446	0.203	0.068
-171.925	126.612	0.145	-0.183
-170.910	520.866	-0.161	0.377
-169.896	222.919	-0.068	-0.109
-168.881	7.852	-0.168	-0.126
-167.866	38.053	-0.413	0.368
-166.852	202.703	0.130	-0.201
-165.837	-200.000	-0.032	0.155
-164.823	289.849	0.099	0.180
-163.808	50.555	0.127	0.120
-162.793	-49.614	-0.072	0.034
-161.779	800.000	0.130	0.422
-160.764	22.035	0.165	0.135
-159.750	-77.117	-0.077	-0.027
-158.735	545.484	-0.117	0.280
-157.720	-200.000	-0.068	-0.328
-156.706	85.702	0.131	-0.144
-155.691	212.822	-0.057	-0.090
-154.677	74.367	0.114	-0.120
-153.662	-13.733	-0.183	0.119
-152.647	-121.509	-0.084	0.014
-151.633	704.343	0.064	0.168
-150.618	40.666	0.115	0.104
-149.604	-98.068	0.280	-0.072
-148.589	-70.536	-0.420	-0.159
-147.574	-11.685	0.177	0.116
-146.560	-170.600	-0.231	0.008
-145.545	41.664	0.096	-0.087
-144.531	101.698	-0.286	0.333
-143.516	-112.582	0.121	-0.024
-142.502	51.380	0.366	0.347
-141.487	37.617	0.232	-0.206
-140.472	119.615	0.161	-0.199
-139.458	800.000	0.058	0.239
-138.443	170.163	-0.025	0.036
-137.429	469.577	0.122	0.273
-136.414	30.823	0.145	-0.124
-135.399	-200.000	0.045	0.316
-134.385	-87.564	0.304	-0.092
-133.370	647.573	-0.027	-0.069
-132.356	-61.149	0.196	-0.082
-131.341	-9.657	0.217	-0.145
-130.326	-116.602	0.197	-0.036
-129.312	85.474	0.280	-0.307
-128.297	105.293	-0.114	-0.135
-127.283	-53.614	0.108	-0.049
-126.268	142.478	-0.264	0.350
-125.253	201.763	-0.151	0.233
-124.239	-54.444	0.416	-0.188
-123.224	193.657	-0.057	0.086
-122.210	-200.000	-0.002	-0.097
-121.195	2.721	-0.080	0.058
