DTS Sentinel unit serial number:	SN413079Multiplexer serial number:	ORYXHardware model number:	OX4-SRSoftware version number:	ORYX F/W v4.00 Oryx Data Collector v3.7.2.0data status	okinstallation	princeton_trtdifferential loss correction	single-endedforward channel	channel 3reverse channel	N/Adate	2019/09/14time	12:36:35forward acquisition time	60.00reverse acquisition time	0.00gamma	496.2192k internal	0.2294k external	0.2294temperature offset calibration	1.0068default loss term (dB/km)	0.3790temperature slope calibration	1.0000multiplexer offset coefficient	1.0000multiplexer slope coefficient	1.0000fibre end	0.00T internal ref (°C)	38.00T ext. ref 1 (°C)	4.79T ext. ref 2 (°C)	33.90length (m)	temperature (°C)	Stokes	anti-Stokes-747.200	399.213	-0.072	-0.155
-746.185	50.176	-0.195	0.188
-745.171	800.000	-0.019	-0.060
-744.156	800.000	0.046	-0.140
-743.142	110.297	-0.198	-0.243
-742.127	-85.713	0.210	0.067
-741.112	-24.060	-0.175	0.107
-740.098	-60.313	-0.135	0.059
-739.083	144.183	0.114	-0.156
-738.069	-168.437	0.246	-0.010
-737.054	4.103	0.237	-0.177
-736.039	-123.279	0.203	-0.033
-735.025	-74.367	0.389	0.144
-734.010	-82.283	-0.120	-0.040
-732.996	500.391	-0.163	-0.384
-731.981	-41.826	0.406	-0.213
-730.966	-101.690	-0.061	0.015
-729.952	-69.084	0.257	-0.101
-728.937	-140.534	0.220	-0.023
-727.923	-15.197	-0.225	0.147
-726.908	800.000	0.030	0.097
-725.894	-181.085	0.190	-0.004
-724.879	167.306	0.020	-0.028
-723.864	655.326	-0.104	0.274
-722.850	-173.792	-0.344	0.010
-721.835	-200.000	0.053	-0.530
-720.821	-68.158	0.278	-0.111
-719.806	73.356	-0.162	-0.173
-718.791	-22.461	0.085	0.053
-717.777	-200.000	-0.026	-0.242
-716.762	-82.716	-0.130	-0.043
-715.748	729.180	-0.137	0.373
-714.733	-200.000	-0.033	-0.153
-713.718	-157.671	0.153	0.009
-712.704	-98.608	0.040	0.010
-711.689	-78.687	0.064	-0.022
-710.675	-23.334	0.345	0.212
-709.660	-19.863	0.304	-0.192
-708.645	-200.000	-0.009	-0.120
-707.631	-200.000	0.023	-0.533
-706.616	-129.205	-0.473	0.067
-705.602	-75.999	0.253	-0.091
-704.587	-200.000	-0.040	0.199
-703.572	-79.657	0.258	0.089
-702.558	35.085	0.387	-0.346
-701.543	-80.530	0.128	-0.043
-700.529	-200.000	-0.104	-0.464
-699.514	800.000	0.046	0.168
-698.499	-200.000	-0.003	0.089
-697.485	-200.000	-0.051	-0.270
-696.470	110.013	-0.084	0.103
-695.456	269.764	0.133	-0.239
-694.441	182.473	0.247	-0.372
-693.426	-43.641	-0.217	0.112
-692.412	-200.000	0.022	-0.174
-691.397	25.403	0.298	0.253
-690.383	-131.553	-0.169	0.023
-689.368	26.703	-0.079	-0.068
-688.354	-200.000	0.036	0.190
-687.339	6.729	0.169	0.128
-686.324	-200.000	-0.069	-0.357
-685.310	-200.000	0.014	-0.223
-684.295	446.139	-0.049	-0.110
-683.281	644.969	-0.011	-0.029
-682.266	97.479	0.105	0.123
-681.251	58.779	0.151	0.151
-680.237	-60.208	-0.286	-0.125
-679.222	-199.883	-0.171	0.001
-678.208	-7.188	-0.078	-0.054
-677.193	76.580	0.083	-0.090
-676.178	204.114	-0.138	-0.218
-675.164	315.977	-0.105	-0.203
-674.149	278.871	0.091	-0.165
-673.135	-200.000	-0.011	0.212
-672.120	-200.000	-0.032	-0.284
-671.105	195.517	0.139	0.216
-670.091	-27.662	0.439	0.260
-669.076	10.381	-0.254	-0.197
-668.062	152.153	-0.255	-0.355
-667.047	-53.038	-0.375	-0.176
-666.032	-137.655	-0.314	-0.036
-665.018	-132.443	-0.348	0.046
-664.003	97.188	-0.057	0.067
-662.989	194.137	-0.028	-0.044
-661.974	412.782	0.056	-0.121
-660.959	263.143	-0.153	-0.271
-659.945	-147.763	-0.157	0.013
-658.930	247.292	-0.004	-0.008
-657.916	-89.162	0.014	-0.004
-656.901	32.789	0.135	0.119
-655.886	777.022	-0.075	-0.209
-654.872	2.936	0.069	0.051
-653.857	300.405	0.141	-0.266
-652.843	-60.722	-0.043	-0.019
-651.828	118.165	-0.079	0.099
-650.814	20.244	0.225	-0.185
-649.799	332.121	0.118	-0.232
-648.784	-200.000	-0.009	0.233
-647.770	122.350	0.170	-0.217
-646.755	-200.000	-0.087	-0.530
-645.741	255.649	0.127	0.222
-644.726	-61.196	-0.039	-0.017
-643.711	-75.729	-0.356	-0.129
-642.697	-70.507	-0.108	0.042
-641.682	290.218	-0.055	-0.101
-640.668	15.254	0.137	-0.109
-639.653	-152.295	-0.184	0.014
-638.638	76.593	0.096	-0.104
-637.624	-112.587	-0.240	-0.049
-636.609	-26.818	-0.219	0.130
-635.595	-48.452	-0.124	0.061
-634.580	23.187	0.049	0.041
-633.565	-175.813	0.133	0.004
-632.551	107.382	-0.105	-0.127
-631.536	-100.151	-0.061	0.015
-630.522	157.800	-0.191	0.270
-629.507	374.993	0.074	0.154
-628.492	116.942	-0.144	0.179
-627.478	-67.923	0.143	-0.057
-626.463	-60.192	0.310	-0.135
-625.449	761.842	-0.084	-0.231
-624.434	-86.305	0.266	0.083
-623.419	93.596	0.053	0.061
-622.405	624.303	-0.171	-0.439
-621.390	287.127	0.035	-0.064
-620.376	-57.864	-0.140	0.062
-619.361	13.759	0.105	-0.083
-618.346	-18.082	-0.065	0.042
-617.332	-65.140	-0.316	-0.130
-616.317	602.594	0.062	0.157
-615.303	-197.809	-0.251	0.002
-614.288	-37.389	-0.091	-0.050
-613.273	139.653	-0.152	-0.204
-612.259	-5.401	0.126	-0.088
-611.244	-132.136	0.201	-0.026
-610.230	37.105	-0.365	-0.329
-609.215	101.312	0.076	0.090
-608.201	-56.815	-0.341	-0.154
-607.186	-200.000	-0.072	-0.000
-606.171	-89.225	0.109	-0.033
-605.157	29.905	0.157	0.136
-604.142	64.865	-0.367	0.377
-603.128	-14.871	-0.239	-0.156
-602.113	405.135	-0.100	0.215
-601.098	400.464	-0.100	-0.213
-600.084	217.801	-0.083	0.134
-599.069	60.130	0.237	-0.238
-598.055	800.000	0.056	-0.161
-597.040	800.000	0.038	-0.136
-596.025	-200.000	-0.037	-0.238
-595.011	41.056	0.166	0.153
-593.996	-106.645	-0.125	0.028
-592.982	2.412	-0.161	-0.119
-591.967	-200.000	0.070	-0.395
-590.952	61.178	-0.112	0.114
-589.938	-127.441	-0.070	0.010
-588.923	400.699	-0.106	-0.225
-587.909	65.496	0.327	-0.337
-586.894	721.895	0.122	0.329
-585.879	-7.156	-0.256	0.177
-584.865	127.209	-0.079	-0.102
-583.850	53.184	-0.100	0.097
-582.836	86.086	0.224	-0.251
-581.821	127.715	0.095	0.123
-580.806	697.424	-0.066	0.177
-579.792	-67.240	0.185	0.074
-578.777	141.827	-0.148	0.200
-577.763	800.000	0.007	-0.031
-576.748	800.000	0.028	-0.099
-575.733	-152.840	-0.336	-0.024
-574.719	-200.000	0.021	-0.144
-573.704	565.772	0.200	-0.494
-572.690	350.805	-0.191	0.384
-571.675	-125.226	0.084	0.013
-570.661	-99.598	0.650	0.166
-569.646	800.000	-0.048	0.162
-568.631	800.000	0.093	-0.384
-567.617	17.082	0.162	0.130
-566.602	-38.817	-0.294	0.158
-565.588	800.000	0.014	0.057
-564.573	95.101	-0.059	-0.069
-563.558	-73.617	-0.053	-0.020
-562.544	800.000	0.073	0.252
-561.529	-54.336	0.281	-0.130
-560.515	-200.000	0.004	0.053
-559.500	-179.188	-0.281	0.006
-558.485	-200.000	-0.018	-0.261
-557.471	-11.483	-0.170	-0.114
-556.456	800.000	0.105	-0.319
-555.442	-200.000	-0.021	0.109
-554.427	48.043	0.176	0.167
-553.412	800.000	-0.055	0.166
-552.398	800.000	-0.035	0.108
-551.383	348.709	-0.086	0.172
-550.369	-31.044	-0.106	0.061
-549.354	-47.291	-0.077	0.038
-548.339	-83.523	0.208	0.067
-547.325	-45.033	0.182	0.092
-546.310	-16.384	0.153	0.099
-545.296	120.640	0.113	0.142
-544.281	-179.113	-0.133	0.003
-543.266	-75.808	-0.259	0.093
-542.252	-200.000	-0.002	-0.248
-541.237	-200.000	0.019	0.155
-540.223	27.411	0.325	-0.278
-539.208	349.780	0.077	0.154
-538.193	-200.000	-0.007	-0.352
-537.179	50.987	-0.088	0.085
-536.164	83.022	0.098	0.108
-535.150	-69.893	-0.215	-0.083
-534.135	25.220	-0.088	-0.074
-533.121	548.549	0.072	0.174
-532.106	-38.235	-0.177	0.095
-531.091	-14.730	0.195	-0.127
-530.077	-157.940	0.068	-0.004
-529.062	-200.000	-0.031	-0.278
-528.048	-200.000	0.024	0.268
-527.033	-70.671	0.229	-0.088
-526.018	57.016	0.370	0.366
-525.004	-108.727	0.158	-0.034
-523.989	764.369	-0.060	-0.165
-522.975	-200.000	0.025	-0.142
-521.960	-3.074	-0.074	-0.052
-520.945	25.142	-0.172	-0.145
-519.931	-200.000	-0.003	0.152
-518.916	-200.000	-0.014	-0.203
-517.902	-110.048	-0.025	0.005
-516.887	-31.038	-0.200	-0.115
-515.872	-67.081	-0.101	-0.040
-514.858	-105.281	0.023	-0.005
-513.843	800.000	-0.110	0.331
-512.829	200.690	-0.071	0.110
-511.814	263.128	-0.148	-0.260
-510.799	-40.139	0.117	-0.062
-509.785	-88.621	-0.246	-0.074
-508.770	-200.000	0.080	0.361
-507.756	-151.942	-0.165	0.012
-506.741	693.013	-0.085	-0.225
-505.726	-97.313	0.336	0.089
-504.712	-200.000	0.012	-0.267
-503.697	-200.000	0.009	-0.131
-502.683	21.484	0.110	-0.090
-501.668	50.940	-0.002	0.002
-500.653	236.909	0.221	0.370
-499.639	-30.989	0.181	-0.103
-498.624	-25.531	0.218	-0.130
-497.610	63.479	0.223	-0.227
-496.595	-98.488	-0.319	-0.083
-495.581	54.047	-0.156	-0.152
-494.566	170.828	0.041	-0.059
-493.551	-187.487	0.050	-0.001
-492.537	-11.527	0.212	-0.141
-491.522	125.741	0.191	-0.245
-490.508	800.000	0.043	-0.153
-489.493	67.898	0.206	0.213
-488.478	-77.226	0.091	-0.032
-487.464	58.503	-0.293	-0.291
-486.449	111.103	0.144	0.175
-485.435	72.882	0.089	-0.095
-484.420	259.904	0.104	0.181
-483.405	-116.924	-0.322	-0.060
-482.391	-135.468	0.169	0.020
-481.376	-22.010	-0.153	0.094
-480.362	39.798	0.177	0.161
-479.347	337.731	-0.186	-0.365
-478.332	222.840	-0.252	0.411
-477.318	-51.333	0.160	0.076
-476.303	-58.299	0.203	0.090
-475.289	235.928	0.155	0.259
-474.274	-200.000	-0.022	-0.183
-473.259	300.517	-0.142	-0.265
-472.245	284.148	-0.121	-0.221
-471.230	210.298	-0.083	-0.132
-470.216	-37.492	-0.383	-0.207
-469.201	-200.000	0.063	0.300
-468.186	-176.207	0.040	-0.001
-467.172	-63.736	0.240	0.099
-466.157	231.706	0.103	-0.171
-465.143	-144.526	-0.375	0.035
-464.128	-58.034	0.300	-0.133
-463.113	214.206	0.171	0.274
-462.099	800.000	-0.118	0.400
-461.084	-16.740	-0.161	-0.103
-460.070	26.482	-0.135	0.114
-459.055	-49.471	-0.198	-0.095
-458.040	-101.693	0.281	0.069
-457.026	60.313	-0.144	-0.144
-456.011	183.222	-0.046	-0.069
-454.997	-200.000	0.002	0.178
-453.982	800.000	-0.028	-0.086
-452.968	8.383	0.293	0.223
-451.953	-200.000	0.030	-0.283
-450.938	-200.000	0.016	0.230
-449.924	8.438	0.197	0.150
-448.909	-49.408	-0.163	0.079
-447.895	117.167	-0.141	-0.175
-446.880	135.749	0.046	0.060
-445.865	300.093	-0.172	0.320
-444.851	-6.516	0.364	-0.251
-443.836	-54.696	0.168	0.077
-442.822	79.278	-0.203	0.220
-441.807	369.802	-0.132	-0.270
-440.792	-134.148	0.052	0.006
-439.778	2.547	0.177	0.130
-438.763	774.756	-0.055	0.151
-437.749	123.471	-0.088	0.112
-436.734	-24.735	-0.166	0.099
-435.719	79.121	0.151	-0.163
-434.705	-200.000	-0.005	-0.092
-433.690	326.314	0.029	0.056
-432.676	-200.000	0.055	0.358
-431.661	100.363	0.110	0.129
-430.646	-111.667	-0.381	-0.078
-429.632	-137.199	0.480	-0.055
-428.617	-200.000	0.011	0.050
-427.603	-71.601	0.149	0.056
-426.588	-11.290	0.290	0.193
-425.573	-129.156	-0.159	0.022
-424.559	-21.291	-0.247	0.152
-423.544	800.000	0.145	0.421
-422.530	62.492	-0.225	-0.227
-421.515	4.291	-0.105	0.078
-420.500	34.556	0.062	0.055
-419.486	-56.781	-0.041	-0.018
-418.471	-200.000	-0.007	-0.093
-417.457	14.646	-0.108	-0.085
-416.442	800.000	-0.063	0.248
-415.428	800.000	0.051	-0.211
-414.413	225.280	0.145	0.237
-413.398	-112.520	0.166	0.033
-412.384	-5.263	0.022	0.015
-411.369	-172.650	-0.244	-0.008
-410.355	476.956	0.099	0.227
-409.340	-46.959	-0.107	0.053
-408.325	-3.748	0.123	-0.086
-407.311	800.000	0.062	-0.259
-406.296	-71.550	0.058	0.022
-405.282	-200.000	0.008	-0.117
-404.267	341.349	0.051	0.101
-403.252	51.729	-0.085	0.081
-402.238	290.506	0.115	-0.211
-401.223	108.994	-0.175	-0.212
-400.209	-116.773	-0.154	-0.028
-399.194	-58.452	-0.331	0.145
-398.179	-79.696	-0.219	-0.075
-397.165	-163.426	0.074	0.004
-396.150	-200.000	0.017	-0.207
-395.136	800.000	0.099	0.288
-394.121	494.522	-0.195	-0.451
-393.106	112.323	-0.219	0.267
-392.092	-73.353	-0.227	0.084
-391.077	-200.000	0.036	0.192
-390.063	124.325	-0.086	0.110
-389.048	-3.997	0.147	0.103
-388.033	93.563	0.225	0.257
-387.019	-41.766	-0.310	-0.161
-386.004	222.600	-0.081	0.132
-384.990	-174.734	-0.337	0.010
-383.975	800.000	0.029	-0.104
-382.960	200.635	-0.122	0.189
-381.946	-200.000	0.003	0.088
-380.931	-14.823	-0.218	-0.141
-379.917	-32.819	0.177	-0.099
-378.902	-0.615	-0.225	-0.161
-377.888	707.282	0.108	0.288
-376.873	23.618	-0.172	0.142
-375.858	34.701	-0.164	-0.145
-374.844	800.000	-0.056	-0.222
-373.829	-200.000	-0.012	-0.194
-372.815	193.291	-0.109	0.166
-371.800	275.368	0.075	-0.134
-370.785	-200.000	-0.006	-0.238
-369.771	800.000	-0.073	-0.221
-368.756	645.755	-0.078	-0.200
-367.742	-130.437	-0.105	-0.014
-366.727	740.680	0.077	0.208
-365.712	-101.537	0.264	0.065
-364.698	-200.000	0.072	-0.382
-363.683	34.838	-0.153	-0.135
-362.669	-35.344	-0.122	-0.067
-361.654	-46.684	0.158	-0.078
-360.639	-27.422	0.090	-0.053
-359.625	-182.542	0.085	-0.002
-358.610	-200.000	-0.024	0.223
-357.596	126.179	0.066	0.084
-356.581	-101.839	-0.160	-0.039
-355.566	-113.559	-0.276	-0.054
-354.552	-200.000	-0.006	0.197
-353.537	800.000	0.093	-0.285
-352.523	312.765	0.040	0.075
-351.508	578.281	-0.138	0.341
-350.493	-167.539	-0.130	-0.005
-349.479	800.000	-0.089	0.327
-348.464	-200.000	-0.020	-0.112
-347.450	-100.380	-0.145	0.036
-346.435	-130.938	-0.114	-0.015
-345.420	98.457	0.201	0.233
-344.406	1.802	-0.203	0.148
-343.391	-2.200	-0.131	-0.092
-342.377	800.000	0.019	-0.064
-341.362	-115.702	0.253	0.048
-340.348	-200.000	0.022	-0.126
-339.333	-46.087	-0.124	-0.062
-338.318	301.120	0.027	0.050
-337.304	104.672	-0.153	0.182
-336.289	-130.563	-0.156	0.021
-335.275	-200.000	-0.007	-0.094
-334.260	187.772	0.115	-0.173
-333.245	-192.208	-0.350	-0.003
-332.231	-200.000	0.024	-0.255
-331.216	-48.213	-0.340	-0.165
-330.202	-91.098	0.058	0.017
-329.187	-90.938	-0.027	0.008
-328.172	-159.779	-0.233	-0.013
-327.158	-122.070	-0.268	-0.044
-326.143	-21.668	0.181	-0.111
-325.129	-32.474	-0.094	-0.053
-324.114	737.231	0.045	-0.120
-323.099	-200.000	-0.078	0.450
-322.085	-82.175	-0.266	0.087
-321.070	-74.813	0.131	-0.047
-320.056	582.517	0.057	0.142
-319.041	231.050	0.228	-0.375
-318.026	-137.829	0.072	0.008
-317.012	-200.000	0.008	0.086
-315.997	-39.025	-0.240	-0.127
-314.983	459.272	0.093	-0.207
-313.968	-133.105	0.280	-0.036
-312.953	203.265	-0.111	-0.172
-311.939	120.712	0.164	0.204
-310.924	800.000	0.066	0.285
-309.910	19.250	0.190	-0.153
-308.895	-200.000	0.048	0.268
-307.880	635.268	-0.055	-0.139
-306.866	-33.313	-0.102	0.057
-305.851	-49.281	0.147	0.071
-304.837	-102.039	0.125	-0.030
-303.822	13.655	-0.072	0.056
-302.807	107.472	0.199	0.238
-301.793	722.315	-0.062	0.165
-300.778	-200.000	0.088	0.409
-299.764	-7.195	-0.189	0.129
-298.749	-58.794	-0.238	-0.104
-297.735	-121.876	0.434	-0.072
-296.720	-119.483	0.073	-0.013
-295.705	-11.686	0.300	-0.198
-294.691	542.588	0.131	0.313
-293.676	106.117	-0.100	0.119
-292.662	-60.060	-0.270	0.116
-291.647	-200.000	0.021	-0.167
-290.632	-121.858	0.186	-0.031
-289.618	65.209	-0.096	0.098
-288.603	-200.000	0.032	0.308
-287.589	-94.836	-0.046	0.013
-286.574	-181.912	-0.391	0.007
-285.559	20.885	0.284	0.231
-284.545	30.137	-0.147	0.126
-283.530	-88.401	0.194	0.058
-282.516	-200.000	-0.001	-0.071
-281.501	800.000	0.016	0.048
-280.486	-32.840	-0.238	-0.133
-279.472	33.764	0.071	0.062
-278.457	-51.433	0.102	0.048
-277.443	523.953	-0.078	0.184
-276.428	30.303	-0.128	0.110
-275.413	-200.000	-0.000	-0.186
-274.399	-61.119	0.351	-0.149
-273.384	-32.834	-0.183	0.102
-272.370	-27.004	-0.366	-0.214
-271.355	-200.000	-0.046	0.266
-270.340	-200.000	0.042	0.282
-269.326	-17.331	-0.110	0.070
-268.311	-7.116	0.035	0.024
-267.297	-200.000	-0.015	0.169
-266.282	-100.803	-0.197	0.049
-265.267	-200.000	0.029	-0.142
-264.253	-93.344	0.200	-0.056
-263.238	235.225	0.071	0.118
-262.224	-99.970	0.248	-0.062
-261.209	-106.275	0.316	0.071
-260.195	24.866	-0.128	0.107
-259.180	-200.000	0.030	0.375
-258.165	39.760	0.069	0.063
-257.151	109.790	-0.148	-0.178
-256.136	107.283	-0.038	-0.045
-255.122	157.994	0.111	-0.155
-254.107	-163.004	0.126	0.006
-253.092	243.501	0.196	-0.331
-252.078	537.159	0.123	0.293
-251.063	-133.811	0.032	0.004
-250.049	-94.021	0.353	-0.097
-249.034	70.186	0.106	0.109
-248.019	800.000	-0.101	-0.332
-247.005	-200.000	-0.064	-0.472
-245.990	135.855	0.176	-0.230
-244.976	342.235	-0.142	-0.279
-243.961	123.045	0.091	0.114
-242.946	17.695	0.081	0.065
-241.932	-131.958	0.423	-0.055
-240.917	-23.559	0.092	0.055
-239.903	21.337	-0.149	-0.121
-238.888	104.816	0.128	0.152
-237.873	-63.440	-0.102	0.042
-236.859	-116.460	-0.276	0.051
-235.844	40.270	0.205	-0.185
-234.830	-30.733	0.198	0.112
-233.815	-95.283	0.167	0.045
-232.800	-200.000	-0.073	0.385
-231.786	800.000	0.058	-0.248
-230.771	37.785	-0.174	0.155
-229.757	-46.123	0.290	-0.143
-228.742	-98.053	0.337	-0.087
-227.727	-200.000	0.011	0.283
-226.713	1.497	0.083	-0.060
-225.698	-121.457	-0.281	0.047
-224.684	-107.589	0.285	0.063
-223.669	-12.433	0.204	0.134
-222.655	-117.730	0.328	-0.059
-221.640	-157.062	-0.399	0.024
-220.625	36.410	0.118	-0.104
-219.611	-15.653	0.228	0.145
-218.596	173.175	0.073	-0.105
-217.582	-200.000	0.015	0.227
-216.567	60.586	0.200	-0.199
-215.552	-18.134	0.154	-0.097
-214.538	-200.000	0.019	-0.237
-213.523	2.718	0.109	0.079
-212.509	20.158	0.261	0.211
-211.494	-2.440	0.317	-0.222
-210.479	-200.000	0.013	0.197
-209.465	-200.000	0.003	0.082
-208.450	-97.168	0.312	-0.082
-207.436	-129.298	-0.133	-0.018
-206.421	214.256	-0.045	0.071
-205.406	695.152	-0.023	0.060
-204.392	64.109	0.130	0.131
-203.377	-30.630	0.117	0.066
-202.363	-20.064	-0.331	0.205
-201.348	14.607	0.149	-0.117
-200.333	-81.904	-0.370	0.121
-199.319	-152.295	-0.233	0.017
-198.304	-3.496	0.231	-0.161
-197.290	-76.753	0.169	0.059
-196.275	1.851	-0.296	0.214
-195.260	204.554	-0.096	0.149
-194.246	-200.000	-0.002	-0.011
-193.231	24.721	-0.077	-0.064
-192.217	18.006	-0.174	-0.138
-191.202	265.199	0.079	0.138
-190.187	-200.000	0.004	0.169
-189.173	-138.088	0.165	0.018
-188.158	-86.569	-0.100	-0.031
-187.144	-112.518	0.093	-0.018
-186.129	-69.538	-0.300	-0.115
-185.114	30.161	0.253	-0.216
-184.100	800.000	-0.035	-0.144
-183.085	1.231	-0.434	-0.311
-182.071	487.994	-0.164	0.375
-181.056	-200.000	-0.001	0.218
-180.042	-154.517	0.284	0.019
-179.027	-81.758	0.094	-0.031
-178.012	800.000	0.066	-0.212
-176.998	-200.000	0.087	0.436
-175.983	800.000	-0.062	-0.227
-174.969	-200.000	-0.028	0.132
-173.954	-115.655	-0.441	0.083
-172.939	800.000	0.080	-0.317
-171.925	62.919	0.085	0.085
-170.910	85.828	-0.347	0.381
-169.896	-157.467	-0.175	0.011
-168.881	-20.596	-0.150	-0.092
-167.866	73.656	-0.032	-0.034
-166.852	97.261	0.185	0.213
-165.837	-34.010	0.215	-0.118
-164.823	25.632	0.059	-0.049
-163.808	125.905	0.167	0.211
-162.793	800.000	-0.085	-0.331
-161.779	-200.000	0.005	0.096
-160.764	409.237	-0.034	0.071
-159.750	72.208	-0.077	-0.081
-158.735	781.294	-0.049	-0.133
-157.720	-5.465	0.180	-0.124
-156.706	-200.000	-0.018	-0.366
-155.691	87.899	0.053	0.059
-154.677	119.166	-0.141	-0.174
-153.662	299.272	-0.087	0.160
-152.647	84.880	0.355	-0.389
-151.633	-50.897	0.417	-0.196
-150.618	-147.500	0.407	-0.034
-149.604	-200.000	0.017	-0.247
-148.589	32.339	0.154	-0.133
-147.574	200.468	-0.145	0.223
-146.560	-200.000	0.005	-0.238
-145.545	-67.528	-0.238	0.093
-144.531	800.000	-0.084	0.257
-143.516	351.044	0.005	0.009
-142.502	21.405	-0.329	0.267
-141.487	43.535	-0.099	0.090
-140.472	-68.602	-0.362	0.140
-139.458	-3.756	0.390	0.270
-138.443	66.021	-0.152	-0.154
-137.429	-65.580	0.071	0.029
-136.414	-18.435	-0.282	0.176
-135.399	4.894	0.152	0.111
-134.385	-110.186	0.161	0.034
-133.370	367.664	0.158	0.319
-132.356	13.303	0.151	0.117
-131.341	692.529	-0.018	0.047
-130.326	138.811	0.307	0.403
-129.312	800.000	-0.059	0.243
-128.297	-2.029	0.075	-0.052
-127.283	160.626	0.214	-0.298
-126.268	140.622	-0.059	0.078
-125.253	-92.877	-0.222	0.062
-124.239	335.309	0.022	0.042
-123.224	592.514	-0.058	0.142
-122.210	-85.819	-0.146	0.045
-121.195	800.000	-0.020	0.075
-120.180	30.448	0.307	0.261
