DTS Sentinel unit serial number:	SN413079Multiplexer serial number:	ORYXHardware model number:	OX4-SRSoftware version number:	ORYX F/W v4.00 Oryx Data Collector v3.7.2.0data status	okinstallation	princeton_trtdifferential loss correction	single-endedforward channel	channel 3reverse channel	N/Adate	2019/09/17time	13:20:35forward acquisition time	60.00reverse acquisition time	0.00gamma	496.2192k internal	0.2308k external	0.2308temperature offset calibration	0.9959default loss term (dB/km)	0.3790temperature slope calibration	1.0000multiplexer offset coefficient	1.0000multiplexer slope coefficient	1.0000fibre end	0.00T internal ref (°C)	34.22T ext. ref 1 (°C)	0.42T ext. ref 2 (°C)	31.43length (m)	temperature (°C)	Stokes	anti-Stokes-747.200	-200.000	-0.003	0.031
-746.185	-91.273	-0.219	0.064
-745.171	-74.001	0.253	0.093
-744.156	-43.263	0.171	0.088
-743.142	46.384	0.160	-0.151
-742.127	-125.453	0.074	-0.011
-741.112	288.440	-0.095	-0.174
-740.098	800.000	-0.139	0.424
-739.083	-131.910	0.308	0.041
-738.069	-200.000	-0.056	0.326
-737.054	146.110	0.123	-0.168
-736.039	-200.000	-0.036	-0.235
-735.025	279.388	-0.030	-0.055
-734.010	534.621	0.053	-0.129
-732.996	236.983	-0.010	-0.017
-731.981	412.658	-0.109	-0.235
-730.966	-200.000	-0.004	0.047
-729.952	-187.926	-0.134	0.002
-728.937	-56.184	0.166	0.075
-727.923	13.262	0.237	-0.187
-726.908	225.870	-0.082	-0.135
-725.894	3.376	-0.085	-0.063
-724.879	112.698	-0.132	-0.162
-723.864	-200.000	0.004	-0.377
-722.850	800.000	-0.140	-0.447
-721.835	21.460	-0.248	0.205
-720.821	-58.970	-0.421	0.185
-719.806	-93.820	0.217	0.061
-718.791	227.781	-0.094	-0.156
-717.777	-32.740	-0.251	-0.142
-716.762	-91.537	0.413	0.120
-715.748	179.922	-0.100	0.149
-714.733	-90.127	-0.491	-0.145
-713.718	-200.000	0.011	0.345
-712.704	337.779	-0.045	0.088
-711.689	176.459	-0.138	0.204
-710.675	-115.670	-0.221	0.042
-709.660	-61.661	-0.208	0.089
-708.645	-200.000	-0.011	0.119
-707.631	800.000	-0.014	0.044
-706.616	-55.653	-0.137	0.062
-705.602	800.000	-0.049	0.143
-704.587	488.407	-0.149	-0.346
-703.572	267.983	0.050	0.089
-702.558	360.216	-0.106	0.216
-701.543	121.590	-0.025	-0.031
-700.529	11.344	0.207	0.161
-699.514	147.073	0.138	0.188
-698.499	-106.535	-0.215	0.049
-697.485	-127.929	-0.040	0.006
-696.470	-12.987	-0.362	-0.239
-695.456	117.917	0.065	-0.081
-694.441	299.266	0.050	-0.093
-693.426	-19.359	0.216	-0.136
-692.412	174.538	0.099	0.146
-691.397	151.405	-0.131	-0.181
-690.383	77.492	0.062	0.067
-689.368	134.964	-0.065	0.085
-688.354	-200.000	-0.007	0.040
-687.339	800.000	0.013	0.039
-686.324	-127.400	-0.173	-0.026
-685.310	-86.705	-0.219	0.068
-684.295	-200.000	0.008	-0.042
-683.281	-92.053	0.070	-0.020
-682.266	-4.753	0.052	-0.037
-681.251	10.584	0.240	0.185
-680.237	339.535	-0.036	0.071
-679.222	800.000	0.053	0.174
-678.208	53.663	-0.154	0.150
-677.193	-200.000	0.015	0.331
-676.178	-74.173	-0.164	-0.060
-675.164	-200.000	-0.023	0.316
-674.149	-92.379	-0.473	0.135
-673.135	43.052	0.316	-0.292
-672.120	445.267	0.102	0.228
-671.105	-150.386	-0.320	0.025
-670.091	154.316	-0.111	0.154
-669.076	-126.409	0.151	-0.023
-668.062	619.881	0.123	0.314
-667.047	-62.226	-0.184	0.078
-666.032	200.471	0.091	0.141
-665.018	-15.861	-0.183	-0.118
-664.003	676.129	0.126	-0.332
-662.989	-200.000	-0.012	0.156
-661.974	-200.000	0.015	0.182
-660.959	-50.053	0.262	-0.126
-659.945	155.471	0.195	-0.272
-658.930	-95.441	0.359	0.098
-657.916	-200.000	-0.005	0.080
-656.901	25.003	0.153	-0.128
-655.886	449.577	0.066	-0.147
-654.872	800.000	0.038	-0.127
-653.857	-81.297	-0.643	-0.215
-652.843	180.341	-0.116	0.172
-651.828	358.730	-0.148	0.299
-650.814	-133.086	0.284	-0.036
-649.799	-47.187	0.338	-0.167
-648.784	-100.948	-0.104	-0.026
-647.770	745.603	0.116	-0.317
-646.755	-63.599	0.093	-0.038
-645.741	800.000	0.061	-0.249
-644.726	42.214	0.175	-0.161
-643.711	-200.000	-0.012	-0.103
-642.697	-185.388	0.374	-0.006
-641.682	-163.890	-0.380	-0.018
-640.668	46.921	-0.109	-0.102
-639.653	800.000	0.034	-0.103
-638.638	-72.928	-0.205	-0.076
-637.624	800.000	-0.023	0.074
-636.609	-69.257	-0.408	0.159
-635.595	178.867	-0.208	-0.308
-634.580	144.401	0.227	-0.307
-633.565	-200.000	-0.036	-0.249
-632.551	-200.000	0.051	0.309
-631.536	-200.000	0.018	-0.256
-630.522	208.326	0.100	0.157
-629.507	-62.317	-0.257	-0.108
-628.492	-200.000	-0.033	-0.170
-627.478	800.000	-0.079	0.224
-626.463	-185.060	0.186	0.003
-625.449	19.741	-0.054	-0.044
-624.434	-140.002	-0.384	-0.041
-623.419	-200.000	0.000	-0.205
-622.405	-46.391	0.212	0.106
-621.390	257.029	-0.194	0.337
-620.376	-73.747	-0.152	0.056
-619.361	-95.178	-0.109	-0.030
-618.346	264.970	0.106	-0.187
-617.332	-200.000	0.022	-0.319
-616.317	-200.000	0.048	0.223
-615.303	-22.186	0.476	0.292
-614.288	359.470	-0.076	-0.154
-613.273	-137.801	-0.185	0.021
-612.259	-84.124	-0.254	0.081
-611.244	306.394	-0.111	0.210
-610.230	-130.131	-0.160	0.022
-609.215	800.000	-0.038	0.124
-608.201	210.483	-0.238	-0.378
-607.186	-200.000	0.068	-0.489
-606.171	-200.000	0.013	0.123
-605.157	477.877	0.031	0.071
-604.142	95.687	-0.052	-0.060
-603.128	8.200	-0.329	-0.250
-602.113	-69.134	-0.120	0.047
-601.098	22.602	-0.264	-0.218
-600.084	-200.000	-0.056	0.372
-599.069	-60.423	0.152	0.065
-598.055	-200.000	-0.060	0.447
-597.040	-200.000	-0.014	0.071
-596.025	447.035	-0.024	-0.054
-595.011	-152.092	0.156	0.011
-593.996	14.099	-0.139	-0.110
-592.982	165.539	-0.077	-0.109
-591.967	185.120	0.141	-0.211
-590.952	800.000	-0.017	-0.057
-589.938	324.551	-0.020	-0.039
-588.923	-123.341	0.118	0.019
-587.909	-6.983	0.128	-0.088
-586.894	93.357	-0.134	-0.153
-585.879	-200.000	0.002	-0.090
-584.865	81.876	0.111	0.121
-583.850	-127.358	0.322	0.047
-582.836	45.888	-0.219	0.204
-581.821	4.456	-0.105	-0.078
-580.806	546.885	0.092	0.223
-579.792	-71.296	-0.304	-0.115
-578.777	-200.000	-0.003	-0.214
-577.763	449.345	-0.083	0.184
-576.748	-200.000	-0.003	0.046
-575.733	94.405	-0.128	0.147
-574.719	5.101	-0.279	0.207
-573.704	590.463	-0.096	-0.239
-572.690	44.832	-0.236	0.219
-571.675	-127.475	-0.198	-0.029
-570.661	-74.143	-0.273	-0.100
-569.646	-57.867	0.244	-0.108
-568.631	-134.115	-0.231	-0.029
-567.617	-200.000	-0.003	-0.251
-566.602	333.700	-0.214	-0.418
-565.588	-200.000	-0.038	-0.219
-564.573	-200.000	0.002	-0.052
-563.558	142.646	0.135	0.181
-562.544	-84.908	-0.138	-0.044
-561.529	209.804	-0.156	0.247
-560.515	-52.072	0.185	-0.087
-559.500	-34.302	-0.162	0.090
-558.485	102.243	0.121	0.143
-557.471	45.987	0.097	-0.091
-556.456	142.900	0.048	0.065
-555.442	273.134	-0.101	0.180
-554.427	800.000	-0.087	-0.285
-553.412	-200.000	0.033	-0.276
-552.398	-50.493	-0.086	-0.041
-551.383	-4.987	-0.284	-0.197
-550.369	-60.952	-0.263	-0.112
-549.354	-32.550	-0.095	-0.053
-548.339	272.056	-0.137	-0.243
-547.325	-172.122	-0.269	0.009
-546.310	-45.372	-0.270	-0.135
-545.296	408.877	-0.079	-0.168
-544.281	-159.716	-0.451	-0.025
-543.266	105.823	0.118	-0.141
-542.252	-50.736	0.182	-0.086
-541.237	-130.964	-0.155	-0.021
-540.223	405.595	0.041	-0.087
-539.208	407.395	0.096	0.205
-538.193	-80.047	-0.294	-0.099
-537.179	-6.290	0.093	-0.064
-536.164	-200.000	0.010	-0.322
-535.150	218.855	0.150	0.242
-534.135	-124.846	0.086	-0.013
-533.121	-200.000	0.016	-0.107
-532.106	420.115	0.148	-0.320
-531.091	-107.730	-0.248	-0.055
-530.077	117.692	0.165	0.204
-529.062	4.925	0.182	-0.135
-528.048	800.000	0.090	0.287
-527.033	800.000	-0.117	-0.377
-526.018	79.779	-0.128	-0.139
-525.004	-151.103	-0.288	0.022
-523.989	185.385	0.194	0.291
-522.975	-55.987	0.308	0.138
-521.960	-50.813	0.287	0.136
-520.945	38.287	0.099	0.089
-519.931	-155.223	0.310	-0.020
-518.916	800.000	-0.060	0.212
-517.902	-125.737	0.152	0.023
-516.887	119.560	0.115	-0.144
-515.872	143.465	0.120	-0.162
-514.858	251.128	-0.194	0.333
-513.843	47.869	-0.122	0.115
-512.829	-11.615	0.161	0.107
-511.814	-200.000	-0.026	-0.378
-510.799	-200.000	0.022	-0.373
-509.785	275.566	-0.049	-0.087
-508.770	-104.135	0.089	-0.021
-507.756	800.000	0.057	-0.173
-506.741	-12.110	0.166	0.110
-505.726	-55.892	0.266	0.120
-504.712	800.000	0.106	0.353
-503.697	-98.588	0.305	0.078
-502.683	540.715	0.082	0.197
-501.668	22.679	-0.105	0.086
-500.653	-15.757	-0.123	-0.079
-499.639	-200.000	-0.053	0.429
-498.624	-27.841	0.131	-0.077
-497.610	363.301	0.156	-0.317
-496.595	-33.038	-0.170	-0.095
-495.581	-6.570	-0.145	0.099
-494.566	800.000	0.023	-0.098
-493.551	-147.636	0.179	0.015
-492.537	29.135	-0.064	0.054
-491.522	126.577	-0.270	0.344
-490.508	-200.000	-0.032	-0.158
-489.493	42.565	-0.162	0.148
-488.478	281.269	0.254	-0.458
-487.464	-200.000	0.058	-0.312
-486.449	-62.477	0.033	0.014
-485.435	-200.000	-0.026	0.272
-484.420	-38.454	0.168	-0.089
-483.405	-127.574	0.193	0.028
-482.391	151.109	-0.146	0.200
-481.376	-200.000	0.002	-0.061
-480.362	800.000	0.058	0.195
-479.347	800.000	0.019	-0.083
-478.332	-19.963	0.166	-0.103
-477.318	-87.158	0.123	-0.038
-476.303	-92.207	0.279	-0.079
-475.289	-200.000	0.009	-0.181
-474.274	-67.507	0.074	-0.029
-473.259	-152.404	-0.240	-0.017
-472.245	-92.822	-0.106	-0.030
-471.230	-92.490	0.235	-0.067
-470.216	-200.000	0.031	-0.516
-469.201	-138.761	0.372	0.041
-468.186	-117.586	-0.340	-0.062
-467.172	-34.781	0.078	-0.043
-466.157	800.000	0.061	-0.236
-465.143	-200.000	0.011	0.227
-464.128	-49.703	0.135	0.065
-463.113	565.943	-0.046	0.113
-462.099	14.002	-0.227	0.178
-461.084	800.000	-0.074	-0.274
-460.070	207.622	-0.094	-0.147
-459.055	-121.209	0.092	0.015
-458.040	322.165	-0.098	0.187
-457.026	310.498	-0.090	0.170
-456.011	-196.503	-0.172	0.001
-454.997	699.502	0.051	0.135
-453.982	-85.451	-0.044	-0.014
-452.968	-200.000	-0.067	-0.363
-451.953	-61.541	0.419	-0.177
-450.938	307.653	0.200	-0.374
-449.924	84.676	-0.095	-0.104
-448.909	164.763	-0.041	-0.058
-447.895	-125.970	0.264	0.040
-446.880	-200.000	0.026	-0.136
-445.865	-200.000	0.019	-0.096
-444.851	-159.678	-0.176	-0.010
-443.836	467.984	-0.174	0.391
-442.822	800.000	0.071	0.282
-441.807	-14.313	0.146	0.094
-440.792	769.384	0.050	-0.136
-439.778	63.861	0.214	-0.216
-438.763	800.000	-0.060	-0.250
-437.749	133.200	-0.124	0.162
-436.734	-170.534	0.183	0.006
-435.719	800.000	0.101	0.322
-434.705	-59.182	-0.277	0.120
-433.690	509.285	-0.023	0.053
-432.676	800.000	0.058	0.193
-431.661	-200.000	-0.053	0.279
-430.646	274.775	0.137	0.245
-429.632	-109.760	-0.191	0.040
-428.617	42.986	0.100	-0.092
-427.603	-148.219	-0.402	-0.033
-426.588	-200.000	0.000	-0.046
-425.573	-139.015	0.114	0.012
-424.559	222.781	0.030	-0.048
-423.544	11.455	0.090	0.069
-422.530	-114.165	-0.439	-0.085
-421.515	-79.015	0.080	-0.027
-420.500	-200.000	-0.001	-0.188
-419.486	280.138	-0.029	-0.052
-418.471	281.425	-0.074	-0.133
-417.457	-87.730	-0.071	-0.021
-416.442	111.578	0.184	-0.223
-415.428	-200.000	0.015	0.241
-414.413	57.777	0.105	-0.103
-413.398	163.817	-0.064	-0.090
-412.384	-200.000	0.013	0.124
-411.369	115.003	-0.084	0.103
-410.355	34.846	-0.354	-0.311
-409.340	65.355	0.183	0.186
-408.325	450.678	0.071	0.156
-407.311	-91.905	-0.140	-0.040
-406.296	-200.000	0.015	-0.333
-405.282	222.565	-0.171	-0.276
-404.267	-97.893	-0.191	0.050
-403.252	91.772	-0.154	0.173
-402.238	-200.000	-0.026	-0.194
-401.223	-66.465	0.328	0.130
-400.209	187.330	0.021	0.031
-399.194	110.214	0.317	0.382
-398.179	37.269	-0.106	-0.094
-397.165	-200.000	-0.009	0.059
-396.150	-47.977	0.084	0.041
-395.136	103.849	0.111	0.131
-394.121	-14.223	-0.148	-0.096
-393.106	-134.104	-0.289	-0.036
-392.092	800.000	-0.024	0.103
-391.077	9.926	-0.331	0.252
-390.063	3.161	0.160	-0.117
-389.048	599.334	0.104	0.260
-388.033	-149.385	-0.551	-0.044
-387.019	177.197	0.010	-0.015
-386.004	-93.601	-0.118	-0.033
-384.990	605.587	-0.054	-0.135
-383.975	29.749	-0.165	0.141
-382.960	-104.660	-0.247	-0.057
-381.946	-50.383	-0.042	-0.020
-380.931	-94.791	0.197	0.054
-379.917	31.713	-0.123	-0.106
-378.902	-200.000	0.034	0.382
-377.888	-200.000	0.008	0.253
-376.873	244.679	0.088	0.148
-375.858	563.873	0.101	0.246
-374.844	800.000	-0.115	-0.320
-373.829	-200.000	0.046	0.280
-372.815	602.715	0.108	0.269
-371.800	-41.589	0.190	0.098
-370.785	174.509	0.204	-0.296
-369.771	800.000	0.090	0.261
-368.756	0.676	0.089	-0.064
-367.742	54.335	0.075	0.072
-366.727	-164.672	-0.223	0.010
-365.712	-200.000	0.022	-0.147
-364.698	-80.277	-0.165	0.055
-363.683	800.000	-0.042	0.179
-362.669	178.754	-0.060	-0.088
-361.654	79.015	0.249	0.267
-360.639	404.105	0.109	0.230
-359.625	-83.112	-0.253	0.081
-358.610	800.000	-0.034	0.114
-357.596	558.005	0.112	0.271
-356.581	70.847	-0.168	0.174
-355.566	-200.000	-0.013	0.120
-354.552	-105.293	-0.244	-0.056
-353.537	-200.000	0.048	-0.231
-352.523	-55.182	0.322	-0.145
-351.508	-36.454	0.166	0.089
-350.493	-200.000	-0.008	-0.126
-349.479	75.797	0.023	-0.024
-348.464	694.674	0.082	0.216
-347.450	-70.234	0.273	0.104
-346.435	-165.788	0.217	-0.009
-345.420	-200.000	-0.000	0.098
-344.406	260.876	-0.089	-0.154
-343.391	219.434	0.170	0.273
-342.377	-200.000	-0.013	-0.091
-341.362	-200.000	-0.028	-0.173
-340.348	-33.826	-0.142	0.079
-339.333	800.000	-0.093	0.274
-338.318	-200.000	0.034	-0.181
-337.304	666.322	-0.080	0.206
-336.289	-200.000	-0.043	0.342
-335.275	-116.278	-0.210	0.039
-334.260	-200.000	0.006	-0.026
-333.245	-144.786	0.159	0.015
-332.231	28.447	0.340	0.288
-331.216	800.000	0.106	-0.315
-330.202	65.678	-0.066	-0.067
-329.187	-95.105	0.138	0.037
-328.172	-152.569	0.278	0.020
-327.158	-118.323	-0.329	-0.058
-326.143	110.398	0.221	-0.266
-325.129	-40.695	0.277	-0.143
-324.114	101.281	-0.218	0.253
-323.099	49.833	-0.170	0.160
-322.085	-118.940	-0.087	0.015
-321.070	29.117	-0.186	-0.158
-320.056	-200.000	0.001	-0.063
-319.041	-16.071	0.128	-0.081
-318.026	800.000	-0.072	0.259
-317.012	800.000	0.028	0.100
-315.997	756.587	-0.024	-0.065
-314.983	100.093	-0.071	-0.082
-313.968	-136.330	-0.311	0.036
-312.953	-172.846	-0.296	0.009
-311.939	-200.000	-0.011	-0.154
-310.924	-131.928	-0.136	0.018
-309.910	-93.472	0.141	-0.039
-308.895	124.948	0.071	0.089
-307.880	-86.863	-0.191	-0.058
-306.866	-70.759	0.133	0.050
-305.851	103.502	0.042	0.049
-304.837	-189.366	0.493	-0.006
-303.822	-152.923	0.057	-0.004
-302.807	-99.154	0.358	0.090
-301.793	-123.004	-0.142	-0.023
-300.778	-165.538	-0.314	0.014
-299.764	-200.000	-0.053	0.300
-298.749	800.000	0.037	0.109
-297.735	-200.000	-0.025	0.115
-296.720	-136.628	0.284	-0.033
-295.705	-85.590	-0.518	0.161
-294.691	800.000	-0.079	0.307
-293.676	800.000	-0.104	-0.315
-292.662	26.000	-0.077	0.064
-291.647	153.829	0.198	0.271
-290.632	-21.296	-0.230	-0.140
-289.618	279.417	-0.084	-0.150
-288.603	106.919	0.270	0.321
-287.589	-77.422	0.118	-0.041
-286.574	114.623	-0.131	-0.159
-285.559	-112.391	-0.152	-0.030
-284.545	555.084	-0.034	-0.082
-283.530	465.151	-0.098	0.219
-282.516	-160.018	0.423	-0.023
-281.501	800.000	0.055	-0.209
-280.486	-126.051	0.290	0.044
-279.472	65.501	0.220	0.223
-278.457	-81.344	-0.104	-0.034
-277.443	28.461	0.170	0.143
-276.428	-200.000	0.001	0.135
-275.413	-65.023	-0.100	-0.040
-274.399	485.301	-0.136	-0.309
-273.384	-112.559	0.250	-0.050
-272.370	-164.448	-0.147	0.007
-271.355	800.000	-0.011	-0.047
-270.340	112.929	-0.221	-0.267
-269.326	-200.000	0.013	-0.150
-268.311	25.064	0.180	-0.149
-267.297	800.000	0.019	-0.071
-266.282	98.783	0.147	-0.169
-265.267	-38.366	0.395	0.208
-264.253	-85.089	-0.084	0.026
-263.238	234.169	0.125	-0.205
-262.224	-14.596	-0.098	0.063
-261.209	-200.000	-0.017	0.091
-260.195	-200.000	-0.021	-0.226
-259.180	-129.276	0.242	-0.034
-258.165	-113.154	0.081	-0.016
-257.151	414.753	0.095	-0.201
-256.136	800.000	0.027	-0.102
-255.122	33.451	0.323	0.280
-254.107	-200.000	0.005	-0.130
-253.092	-94.936	-0.193	-0.052
-252.078	158.929	-0.188	-0.260
-251.063	800.000	-0.033	0.119
-250.049	228.975	0.180	0.293
-249.034	-7.978	0.212	-0.142
-248.019	-200.000	0.025	0.168
-247.005	395.982	-0.188	0.392
-245.990	-83.439	-0.342	0.109
-244.976	-200.000	0.027	-0.420
-243.961	-81.150	-0.212	0.070
-242.946	340.773	0.048	0.093
-241.932	-82.482	-0.240	0.078
-240.917	800.000	0.026	-0.110
-239.903	688.146	0.069	-0.180
-238.888	95.673	0.217	-0.247
-237.873	-12.248	-0.133	-0.086
-236.859	800.000	-0.139	0.456
-235.844	470.704	0.115	0.258
-234.830	-200.000	0.027	-0.367
-233.815	181.881	0.113	-0.166
-232.800	-152.427	0.209	0.015
-231.786	233.212	0.133	0.218
-230.771	-73.558	0.220	-0.080
-229.757	800.000	0.014	-0.049
-228.742	-200.000	0.005	0.200
-227.727	249.144	0.093	0.157
-226.713	421.351	0.054	0.116
-225.698	-89.217	0.329	0.097
-224.684	800.000	-0.070	0.241
-223.669	-200.000	-0.040	0.198
-222.655	800.000	-0.068	0.201
-221.640	445.969	-0.117	0.256
-220.625	-169.172	0.164	0.006
-219.611	-129.219	-0.113	0.016
-218.596	509.957	-0.076	-0.176
-217.582	26.654	0.154	-0.129
-216.567	29.291	-0.168	-0.142
-215.552	2.854	0.059	-0.043
-214.538	-18.419	0.090	0.056
-213.523	17.303	0.064	0.050
-212.509	-185.403	-0.135	0.002
-211.494	-43.422	-0.249	-0.125
-210.479	147.259	-0.078	0.105
-209.465	-107.189	0.549	0.120
-208.450	-180.676	0.220	-0.004
-207.436	-68.825	0.202	0.078
-206.421	3.013	-0.123	-0.089
-205.406	-200.000	-0.035	0.196
-204.392	-125.482	0.048	-0.007
-203.377	-200.000	-0.002	-0.096
-202.363	-200.000	-0.035	-0.309
-201.348	800.000	0.073	0.226
-200.333	-44.498	-0.308	0.153
-199.319	81.017	-0.137	0.147
-198.304	800.000	0.108	0.361
-197.290	652.371	-0.054	0.139
-196.275	-168.126	0.384	-0.015
-195.260	800.000	0.055	0.165
-194.246	220.954	-0.122	-0.195
-193.231	688.110	0.044	-0.114
-192.217	-57.279	0.349	-0.152
-191.202	-89.889	0.269	-0.078
-190.187	-200.000	0.075	-0.685
-189.173	-200.000	-0.043	-0.238
-188.158	-144.415	0.249	0.023
-187.144	37.208	0.090	0.079
-186.129	-200.000	0.018	0.174
-185.114	-200.000	0.036	0.234
-184.100	-79.953	0.072	0.024
-183.085	-200.000	0.041	0.253
-182.071	-200.000	-0.045	-0.265
-181.056	-62.022	0.256	0.106
-180.042	-200.000	0.006	-0.198
-179.027	-200.000	-0.080	0.440
-178.012	-49.618	0.259	0.123
-176.998	272.269	0.139	0.244
-175.983	-14.811	-0.327	-0.209
-174.969	-96.723	-0.328	-0.086
-173.954	-125.453	-0.179	0.027
-172.939	237.150	0.224	0.368
-171.925	-32.570	-0.052	0.029
-170.910	141.853	-0.254	-0.335
-169.896	545.015	-0.166	-0.393
-168.881	-117.361	0.149	0.027
-167.866	-50.211	-0.147	-0.069
-166.852	27.720	-0.085	0.071
-165.837	-200.000	0.059	0.261
-164.823	800.000	0.102	0.407
-163.808	-75.648	0.126	0.045
-162.793	-200.000	0.030	-0.267
-161.779	53.106	-0.117	0.111
-160.764	6.650	0.177	0.131
-159.750	56.546	-0.248	-0.239
-158.735	-200.000	-0.042	-0.198
-157.720	15.632	0.212	0.166
-156.706	-130.217	-0.159	0.022
-155.691	-200.000	0.025	-0.174
-154.677	-200.000	0.001	0.159
-153.662	-104.197	-0.048	-0.011
-152.647	630.317	0.021	0.054
-151.633	-200.000	0.006	-0.179
-150.618	7.170	-0.206	-0.152
-149.604	800.000	-0.067	0.194
-148.589	-53.090	-0.144	-0.066
-147.574	355.029	-0.115	-0.226
-146.560	-36.927	0.380	0.203
-145.545	-200.000	-0.093	0.496
-144.531	-200.000	-0.065	-0.329
-143.516	-151.619	0.249	-0.018
-142.502	2.455	-0.291	-0.209
-141.487	800.000	0.055	-0.185
-140.472	-39.746	-0.169	0.088
-139.458	40.555	0.191	0.170
-138.443	-200.000	0.316	-0.000
-137.429	-200.000	0.027	-0.176
-136.414	-200.000	0.015	0.181
-135.399	334.441	-0.030	0.058
-134.385	304.783	-0.132	0.243
-133.370	-200.000	0.005	-0.284
-132.356	-200.000	0.024	0.106
-131.341	49.440	-0.261	0.244
-130.326	22.811	-0.169	-0.137
-129.312	13.735	-0.178	-0.137
-128.297	171.018	0.171	0.244
-127.283	-200.000	-0.003	-0.144
-126.268	-115.068	-0.227	-0.043
-125.253	31.181	0.135	-0.115
-124.239	800.000	0.110	0.310
-123.224	111.642	-0.067	0.081
-122.210	-163.458	0.060	0.003
