DTS Sentinel unit serial number:	SN413079Multiplexer serial number:	ORYXHardware model number:	OX4-SRSoftware version number:	ORYX F/W v4.00 Oryx Data Collector v3.7.2.0data status	okinstallation	princeton_trtdifferential loss correction	single-endedforward channel	channel 3reverse channel	N/Adate	2019/09/15time	19:40:34forward acquisition time	60.00reverse acquisition time	0.00gamma	496.2192k internal	0.2306k external	0.2306temperature offset calibration	0.9934default loss term (dB/km)	0.3790temperature slope calibration	1.0000multiplexer offset coefficient	1.0000multiplexer slope coefficient	1.0000fibre end	0.00T internal ref (°C)	37.61T ext. ref 1 (°C)	7.39T ext. ref 2 (°C)	27.45length (m)	temperature (°C)	Stokes	anti-Stokes-747.200	800.000	0.051	-0.171
-746.185	-168.660	0.173	-0.007
-745.171	209.482	-0.139	-0.222
-744.156	173.443	-0.104	0.153
-743.142	800.000	-0.026	0.081
-742.127	398.624	-0.052	-0.110
-741.112	-200.000	0.054	-0.256
-740.098	-113.087	-0.067	-0.013
-739.083	-142.981	-0.128	0.013
-738.069	23.164	0.056	0.047
-737.054	-177.816	0.103	-0.003
-736.039	-91.720	-0.393	0.114
-735.025	53.213	0.030	0.029
-734.010	-200.000	0.075	-0.357
-732.996	-200.000	0.036	-0.211
-731.981	-200.000	0.022	-0.211
-730.966	318.344	-0.150	0.290
-729.952	108.711	0.041	0.050
-728.937	-44.918	-0.117	0.059
-727.923	-200.000	0.010	0.084
-726.908	-3.738	-0.280	-0.198
-725.894	-200.000	-0.001	0.169
-724.879	800.000	0.042	-0.162
-723.864	377.522	0.122	-0.253
-722.850	414.684	-0.097	0.209
-721.835	161.711	-0.291	-0.414
-720.821	800.000	-0.092	-0.338
-719.806	-200.000	0.007	-0.286
-718.791	800.000	-0.045	0.139
-717.777	573.910	0.073	0.182
-716.762	-81.082	0.143	-0.048
-715.748	-98.996	0.188	0.048
-714.733	-165.267	0.133	0.006
-713.718	113.873	-0.154	0.190
-712.704	-167.394	0.091	-0.004
-711.689	25.108	0.145	0.122
-710.675	196.604	-0.229	-0.354
-709.660	3.092	0.050	-0.037
-708.645	-92.050	-0.160	0.046
-707.631	-200.000	0.028	0.256
-706.616	-200.000	0.032	0.294
-705.602	-94.325	-0.192	-0.053
-704.587	-116.984	-0.113	-0.021
-703.572	-200.000	-0.003	-0.282
-702.558	320.256	-0.197	-0.380
-701.543	72.830	-0.160	0.170
-700.529	218.408	-0.095	-0.154
-699.514	139.701	-0.123	-0.164
-698.499	237.043	-0.137	-0.230
-697.485	288.019	0.075	0.138
-696.470	60.228	0.295	0.297
-695.456	-200.000	0.025	0.219
-694.441	-3.327	-0.034	-0.024
-693.426	800.000	0.061	0.243
-692.412	-200.000	0.062	0.452
-691.397	95.580	-0.326	0.377
-690.383	77.082	-0.110	-0.118
-689.368	225.309	-0.133	-0.219
-688.354	-70.912	0.120	-0.046
-687.339	-61.076	-0.248	-0.106
-686.324	-20.471	0.101	0.063
-685.310	-105.565	0.333	-0.077
-684.295	124.599	0.211	0.270
-683.281	-200.000	-0.003	0.146
-682.266	-52.506	-0.248	-0.116
-681.251	32.666	-0.145	-0.127
-680.237	-92.444	-0.155	-0.044
-679.222	-200.000	-0.034	-0.213
-678.208	228.485	0.121	0.201
-677.193	-99.539	0.249	0.064
-676.178	-20.858	-0.181	0.112
-675.164	-200.000	0.126	0.000
-674.149	-128.759	-0.338	0.048
-673.135	800.000	0.046	-0.148
-672.120	158.746	0.070	0.098
-671.105	-133.293	0.100	-0.013
-670.091	76.679	-0.205	0.221
-669.076	-200.000	0.017	0.090
-668.062	-200.000	0.047	0.290
-667.047	118.809	0.037	0.047
-666.032	-67.049	0.212	0.085
-665.018	800.000	-0.075	-0.271
-664.003	0.790	-0.326	-0.237
-662.989	61.846	-0.080	-0.081
-661.974	20.943	0.233	-0.192
-660.959	651.220	0.088	-0.227
-659.945	800.000	-0.090	0.394
-658.930	-25.451	0.353	0.212
-657.916	-102.013	-0.247	-0.060
-656.901	-81.573	-0.385	0.128
-655.886	-200.000	0.007	0.129
-654.872	667.008	0.024	-0.062
-653.857	-90.176	-0.184	-0.054
-652.843	-152.618	-0.098	0.007
-651.828	789.745	0.110	-0.305
-650.814	100.974	-0.270	-0.319
-649.799	-32.404	-0.068	0.039
-648.784	-144.408	-0.249	-0.023
-647.770	92.894	-0.067	-0.076
-646.755	138.891	-0.002	0.003
-645.741	800.000	0.111	0.345
-644.726	679.179	-0.098	0.258
-643.711	35.393	0.116	-0.103
-642.697	207.535	0.075	0.118
-641.682	194.401	-0.091	-0.140
-640.668	-69.196	0.433	-0.169
-639.653	-124.747	0.069	0.011
-638.638	436.321	0.121	-0.267
-637.624	-200.000	-0.014	-0.129
-636.609	-68.865	-0.159	0.062
-635.595	-200.000	0.051	-0.342
-634.580	-200.000	0.025	-0.248
-633.565	-91.216	0.146	0.042
-632.551	-200.000	0.013	-0.108
-631.536	56.288	-0.261	-0.257
-630.522	194.459	-0.014	-0.021
-629.507	-114.789	0.245	0.047
-628.492	800.000	0.064	0.261
-627.478	-100.299	-0.380	0.096
-626.463	590.547	0.072	0.181
-625.449	-200.000	0.012	-0.119
-624.434	638.727	0.136	0.349
-623.419	1.826	-0.277	0.202
-622.405	-69.369	-0.212	0.082
-621.390	-92.428	0.144	0.041
-620.376	-158.022	0.122	0.007
-619.361	-15.075	0.216	-0.140
-618.346	-200.000	-0.002	-0.120
-617.332	-200.000	-0.062	0.367
-616.317	167.318	-0.363	-0.522
-615.303	-200.000	-0.030	-0.261
-614.288	800.000	-0.049	-0.167
-613.273	-200.000	-0.009	-0.129
-612.259	-49.837	0.410	0.197
-611.244	-184.793	-0.174	-0.003
-610.230	-79.346	0.277	0.095
-609.215	-200.000	-0.037	0.209
-608.201	118.428	0.117	0.146
-607.186	-102.895	0.175	0.042
-606.171	800.000	0.115	-0.388
-605.157	800.000	-0.046	-0.160
-604.142	-200.000	0.013	0.225
-603.128	-200.000	0.002	-0.163
-602.113	419.192	-0.187	-0.405
-601.098	-124.195	-0.115	0.018
-600.084	-101.888	0.161	0.039
-599.069	41.279	-0.097	0.089
-598.055	12.340	-0.136	0.106
-597.040	-132.551	-0.059	0.008
-596.025	125.025	0.186	0.238
-595.011	-44.435	0.283	0.143
-593.996	154.494	-0.181	0.251
-592.982	-195.311	-0.041	0.000
-591.967	-200.000	-0.026	0.152
-590.952	-15.710	-0.256	0.165
-589.938	-200.000	-0.333	0.001
-588.923	-120.594	0.096	-0.016
-587.909	68.386	0.096	0.099
-586.894	-200.000	-0.022	0.138
-585.879	273.291	0.100	-0.179
-584.865	78.105	0.190	0.205
-583.850	800.000	-0.030	-0.113
-582.836	119.251	0.054	-0.068
-581.821	7.085	-0.059	0.044
-580.806	800.000	0.020	-0.088
-579.792	-84.164	0.243	-0.078
-578.777	303.030	-0.084	0.157
-577.763	-82.327	0.169	-0.056
-576.748	26.070	0.180	0.152
-575.733	-200.000	0.026	-0.135
-574.719	-121.880	-0.380	-0.063
-573.704	231.911	0.066	0.110
-572.690	510.326	0.076	0.178
-571.675	177.817	0.026	-0.039
-570.661	88.129	0.129	-0.145
-569.646	-74.109	-0.181	0.066
-568.631	-200.000	0.031	0.175
-567.617	-200.000	-0.012	-0.123
-566.602	-39.826	-0.224	-0.118
-565.588	-52.293	-0.050	-0.023
-564.573	180.213	-0.190	0.282
-563.558	-185.282	0.266	0.004
-562.544	-200.000	-0.003	-0.186
-561.529	4.964	-0.279	-0.207
-560.515	-66.723	-0.352	0.141
-559.500	-36.506	-0.299	0.163
-558.485	-176.552	0.149	0.004
-557.471	-200.000	-0.026	-0.160
-556.456	-126.919	-0.195	-0.029
-555.442	88.950	-0.155	0.174
-554.427	93.993	-0.090	0.103
-553.412	74.565	-0.130	-0.139
-552.398	-74.494	-0.119	-0.043
-551.383	-56.436	0.195	-0.088
-550.369	266.876	0.109	-0.192
-549.354	-200.000	-0.003	-0.103
-548.339	800.000	0.141	0.571
-547.325	276.818	-0.192	-0.345
-546.310	-35.836	-0.433	-0.237
-545.296	76.795	0.140	0.150
-544.281	-15.120	-0.148	0.095
-543.266	107.297	-0.328	-0.394
-542.252	467.218	0.093	-0.211
-541.237	-124.625	-0.240	0.038
-540.223	-20.683	0.089	-0.055
-539.208	-200.000	0.036	-0.175
-538.193	181.591	-0.179	0.266
-537.179	-72.388	0.085	-0.032
-536.164	62.618	-0.074	0.074
-535.150	164.235	0.120	0.171
-534.135	-47.600	-0.301	-0.147
-533.121	-112.984	-0.444	0.089
-532.106	-146.156	0.307	0.027
-531.091	464.641	0.236	-0.532
-530.077	-83.820	-0.426	0.137
-529.062	36.869	0.060	-0.053
-528.048	-23.371	0.135	-0.082
-527.033	-200.000	-0.003	0.305
-526.018	482.310	0.081	0.185
-525.004	-133.593	0.161	-0.020
-523.989	-83.123	-0.164	-0.053
-522.975	1.736	-0.155	-0.113
-521.960	-200.000	-0.043	-0.565
-520.945	-30.612	0.426	-0.244
-519.931	-200.000	-0.012	-0.077
-518.916	-200.000	-0.037	-0.317
-517.902	-62.182	-0.250	-0.105
-516.887	90.014	-0.068	-0.077
-515.872	203.520	-0.095	0.148
-514.858	800.000	-0.041	0.146
-513.843	85.770	0.085	-0.095
-512.829	-22.901	-0.079	-0.048
-511.814	-200.000	0.019	0.092
-510.799	-200.000	-0.004	-0.216
-509.785	-188.518	0.294	-0.004
-508.770	-122.126	-0.092	-0.015
-507.756	121.741	0.237	0.298
-506.741	-172.470	-0.195	-0.006
-505.726	-200.000	-0.009	0.057
-504.712	-33.100	-0.070	0.039
-503.697	23.108	0.109	0.090
-502.683	-64.336	-0.172	-0.071
-501.668	134.039	-0.270	0.352
-500.653	-200.000	-0.069	0.352
-499.639	62.701	-0.084	0.085
-498.624	-118.735	0.236	0.042
-497.610	-116.377	-0.079	0.015
-496.595	-39.918	-0.022	-0.011
-495.581	133.465	-0.107	0.139
-494.566	800.000	0.054	-0.201
-493.551	210.913	-0.222	0.352
-492.537	-118.875	-0.427	-0.076
-491.522	-28.555	0.234	-0.136
-490.508	-183.826	0.148	-0.003
-489.493	124.502	0.039	-0.050
-488.478	232.743	0.127	0.210
-487.464	35.054	0.249	0.220
-486.449	127.396	0.099	0.126
-485.435	800.000	-0.058	0.255
-484.420	730.482	-0.092	-0.246
-483.405	-66.020	0.144	-0.058
-482.391	-60.949	0.290	0.124
-481.376	-57.863	-0.175	-0.077
-480.362	287.670	0.286	0.520
-479.347	225.513	0.036	-0.058
-478.332	-107.817	-0.373	-0.082
-477.318	40.690	0.203	0.184
-476.303	-141.208	-0.136	0.014
-475.289	-200.000	0.001	0.057
-474.274	296.598	0.099	0.182
-473.259	-70.216	0.092	0.035
-472.245	211.724	0.145	0.230
-471.230	-132.904	-0.139	0.018
-470.216	305.519	0.155	0.291
-469.201	52.981	0.105	0.101
-468.186	748.862	-0.032	0.088
-467.172	800.000	0.029	0.110
-466.157	342.736	-0.114	-0.225
-465.143	138.914	-0.116	-0.153
-464.128	-163.527	-0.128	-0.006
-463.113	-200.000	0.063	0.287
-462.099	800.000	0.050	0.157
-461.084	-200.000	-0.002	0.062
-460.070	42.354	-0.319	-0.292
-459.055	313.344	0.119	-0.225
-458.040	-81.420	-0.340	0.113
-457.026	793.073	-0.116	0.322
-456.011	293.055	0.081	-0.148
-454.997	196.906	0.171	-0.262
-453.982	800.000	-0.069	-0.294
-452.968	6.976	0.148	-0.111
-451.953	528.631	-0.024	-0.058
-450.938	207.089	0.200	-0.313
-449.924	-200.000	-0.011	0.187
-448.909	-200.000	-0.042	0.258
-447.895	7.925	0.322	0.243
-446.880	311.370	0.157	0.296
-445.865	-106.520	0.284	-0.064
-444.851	-76.062	-0.165	0.059
-443.836	-16.978	-0.212	-0.135
-442.822	-160.981	0.270	0.014
-441.807	-158.931	0.179	-0.010
-440.792	0.686	-0.195	-0.140
-439.778	-200.000	-0.020	-0.185
-438.763	182.760	-0.067	0.100
-437.749	-200.000	-0.004	-0.514
-436.734	-55.593	-0.030	-0.013
-435.719	-18.579	0.274	-0.172
-434.705	800.000	-0.032	-0.111
-433.690	-200.000	-0.016	0.090
-432.676	17.344	-0.080	-0.064
-431.661	-200.000	0.038	-0.217
-430.646	-66.057	0.169	-0.068
-429.632	-40.507	-0.288	0.150
-428.617	11.727	0.124	-0.096
-427.603	800.000	-0.078	-0.259
-426.588	-200.000	-0.013	-0.225
-425.573	-122.526	-0.483	0.079
-424.559	47.422	0.306	0.287
-423.544	-200.000	0.035	0.245
-422.530	-49.174	-0.218	-0.105
-421.515	-178.942	0.379	0.009
-420.500	288.158	0.139	-0.254
-419.486	81.598	-0.129	0.140
-418.471	-189.689	-0.218	-0.003
-417.457	-87.181	0.172	-0.053
-416.442	171.193	-0.070	0.101
-415.428	213.968	0.095	-0.151
-414.413	22.953	0.255	-0.210
-413.398	-123.201	0.244	0.039
-412.384	-44.539	-0.312	-0.156
-411.369	465.757	-0.011	0.026
-410.355	607.743	0.141	0.353
-409.340	63.463	-0.090	-0.091
-408.325	-148.120	0.077	0.006
-407.311	180.273	-0.211	-0.311
-406.296	226.734	-0.057	-0.093
-405.282	118.374	-0.027	-0.034
-404.267	-44.998	0.036	0.018
-403.252	-21.415	-0.236	0.144
-402.238	-134.753	-0.037	0.004
-401.223	486.071	-0.076	-0.173
-400.209	800.000	0.080	-0.238
-399.194	-140.207	-0.209	-0.022
-398.179	-33.138	0.363	0.202
-397.165	800.000	-0.023	0.080
-396.150	51.525	-0.122	-0.116
-395.136	800.000	0.090	-0.291
-394.121	290.339	0.065	0.118
-393.106	244.531	0.085	-0.143
-392.092	-85.270	0.191	0.060
-391.077	0.344	0.315	0.225
-390.063	24.251	-0.073	0.061
-389.048	483.918	0.036	-0.081
-388.033	161.767	0.086	-0.120
-387.019	-200.000	-0.074	0.373
-386.004	-200.000	-0.050	-0.284
-384.990	-162.487	0.203	0.010
-383.975	319.496	-0.074	-0.141
-382.960	-200.000	0.012	-0.145
-381.946	-70.787	-0.072	0.027
-380.931	750.365	0.064	0.173
-379.917	111.398	-0.070	-0.085
-378.902	-62.276	0.181	0.076
-377.888	-200.000	-0.009	-0.079
-376.873	43.404	0.015	0.014
-375.858	800.000	0.102	-0.335
-374.844	107.619	0.113	-0.135
-373.829	103.533	0.233	0.274
-372.815	50.733	0.078	-0.074
-371.800	800.000	-0.091	-0.334
-370.785	-17.039	0.311	0.197
-369.771	-200.000	0.010	0.199
-368.756	-125.155	0.041	0.006
-367.742	541.720	-0.141	0.337
-366.727	800.000	0.045	0.194
-365.712	125.281	-0.145	-0.184
-364.698	-200.000	0.025	0.254
-363.683	-200.000	-0.019	0.207
-362.669	148.660	-0.279	-0.378
-361.654	-39.405	0.023	0.012
-360.639	-200.000	0.065	-0.289
-359.625	179.754	-0.110	0.161
-358.610	-200.000	-0.009	0.325
-357.596	3.787	-0.187	-0.137
-356.581	627.558	0.039	-0.100
-355.566	17.769	0.191	-0.152
-354.552	110.436	0.210	-0.253
-353.537	60.662	-0.077	0.076
-352.523	10.106	0.156	-0.119
-351.508	225.143	0.051	0.082
-350.493	58.199	-0.291	0.286
-349.479	-134.261	0.197	0.024
-348.464	248.134	-0.015	0.026
-347.450	-92.384	0.091	0.026
-346.435	222.322	-0.132	0.213
-345.420	117.721	0.084	0.103
-344.406	-57.139	-0.293	-0.129
-343.391	800.000	0.070	-0.284
-342.377	68.489	-0.119	-0.122
-341.362	-121.343	0.395	0.066
-340.348	-76.505	0.092	-0.032
-339.333	154.154	-0.182	0.250
-338.318	48.455	-0.023	0.021
-337.304	48.547	0.133	0.124
-336.289	374.798	0.104	-0.212
-335.275	309.170	0.115	0.214
-334.260	-116.146	0.219	-0.041
-333.245	79.266	0.038	0.041
-332.231	-44.994	-0.168	0.084
-331.216	-200.000	0.012	0.088
-330.202	-50.810	-0.159	0.075
-329.187	-200.000	0.014	0.132
-328.172	675.885	0.152	0.395
-327.158	-200.000	0.024	-0.187
-326.143	74.545	-0.134	0.141
-325.129	56.592	-0.044	-0.043
-324.114	-63.074	-0.222	0.092
-323.099	44.989	-0.090	0.083
-322.085	94.050	-0.141	-0.160
-321.070	-121.010	0.269	-0.045
-320.056	-102.650	-0.120	-0.029
-319.041	-200.000	-0.029	-0.308
-318.026	427.505	0.031	0.066
-317.012	-200.000	0.018	0.141
-315.997	448.259	-0.039	-0.087
-314.983	800.000	-0.037	0.120
-313.968	38.090	0.184	0.164
-312.953	20.534	0.069	0.056
-311.939	-136.943	-0.557	-0.064
-310.924	-65.333	0.128	0.051
-309.910	137.138	0.151	0.198
-308.895	-77.999	-0.087	-0.030
-307.880	-54.426	0.300	0.136
-306.866	-66.682	-0.386	0.153
-305.851	-200.000	0.042	0.191
-304.837	800.000	-0.119	0.339
-303.822	-49.415	-0.229	-0.109
-302.807	76.138	-0.133	0.141
-301.793	34.528	0.127	0.111
-300.778	800.000	0.038	-0.140
-299.764	800.000	-0.075	0.309
-298.749	-88.790	0.317	-0.094
-297.735	6.042	-0.126	-0.093
-296.720	76.310	0.125	-0.132
-295.705	-14.437	0.062	0.040
-294.691	-92.555	-0.215	-0.060
-293.676	-139.807	0.306	0.032
-292.662	227.809	-0.203	0.330
-291.647	25.479	-0.233	-0.194
-290.632	-145.812	0.070	0.006
-289.618	-26.684	-0.138	0.081
-288.603	67.187	-0.250	-0.255
-287.589	800.000	0.044	-0.127
-286.574	-70.296	0.205	0.078
-285.559	84.490	0.201	0.219
-284.545	227.244	0.253	-0.411
-283.530	278.868	-0.048	-0.086
-282.516	-27.227	0.090	-0.052
-281.501	33.428	0.243	0.211
-280.486	-42.102	-0.280	-0.143
-279.472	23.979	0.089	-0.073
-278.457	80.205	0.033	-0.035
-277.443	-148.489	0.570	-0.047
-276.428	98.582	-0.184	0.212
-275.413	-71.403	-0.230	-0.086
-274.399	-17.133	-0.119	-0.075
-273.384	-113.330	0.076	0.015
-272.370	-19.509	-0.329	-0.203
-271.355	113.034	0.240	0.291
-270.340	-200.000	0.065	-0.477
-269.326	-30.438	-0.204	-0.115
-268.311	-33.372	0.091	-0.050
-267.297	-101.942	0.213	0.051
-266.282	-29.898	-0.230	-0.131
-265.267	-200.000	0.024	0.301
-264.253	800.000	0.069	-0.227
-263.238	508.777	0.059	0.138
-262.224	-120.667	0.245	0.041
-261.209	370.040	-0.080	-0.161
-260.195	-167.393	-0.085	0.003
-259.180	800.000	-0.052	0.190
-258.165	800.000	0.020	-0.081
-257.151	-110.430	-0.099	0.021
-256.136	-44.005	0.314	0.158
-255.122	-200.000	-0.004	-0.056
-254.107	-83.739	0.098	-0.031
-253.092	-53.918	0.331	0.150
-252.078	-144.049	-0.158	0.015
-251.063	-111.322	-0.283	-0.058
-250.049	-147.239	-0.230	-0.020
-249.034	-200.000	-0.046	-0.205
-248.019	86.979	-0.082	0.090
-247.005	209.266	-0.041	-0.064
-245.990	-29.378	-0.180	-0.103
-244.976	-200.000	0.026	-0.212
-243.961	-64.393	-0.250	-0.102
-242.946	-112.553	-0.092	-0.018
-241.932	-200.000	0.011	-0.198
-240.917	-200.000	0.000	0.058
-239.903	-200.000	0.038	0.178
-238.888	-98.196	0.145	-0.037
-237.873	507.610	0.022	-0.051
-236.859	-62.937	-0.231	0.095
-235.844	-56.869	-0.253	0.112
-234.830	-62.242	0.144	0.060
-233.815	-68.260	0.132	-0.051
-232.800	145.761	0.116	0.155
-231.786	-114.965	0.296	0.056
-230.771	-200.000	0.014	0.215
-229.757	800.000	0.061	-0.197
-228.742	-200.000	0.054	0.246
-227.727	502.028	-0.171	-0.393
-226.713	118.306	-0.252	-0.310
-225.698	13.314	-0.399	0.308
-224.684	-130.666	0.169	0.023
-223.669	-138.016	0.024	-0.003
-222.655	-93.115	0.358	-0.099
-221.640	132.629	0.215	0.277
-220.625	-200.000	0.015	0.111
-219.611	-6.209	0.342	0.233
-218.596	59.424	0.189	0.185
-217.582	800.000	0.022	-0.078
-216.567	800.000	-0.011	0.048
-215.552	-79.605	-0.168	-0.056
-214.538	-75.238	-0.210	-0.075
-213.523	-111.800	-0.163	-0.033
-212.509	17.540	0.313	-0.248
-211.494	127.167	-0.184	0.232
-210.479	-200.000	0.021	0.143
-209.465	-73.373	-0.217	0.079
-208.450	77.129	-0.145	0.153
-207.436	-200.000	-0.058	-0.274
-206.421	-104.281	-0.158	0.037
-205.406	26.354	-0.079	-0.066
-204.392	310.632	-0.182	-0.340
-203.377	-57.597	0.343	0.150
-202.363	-23.647	0.103	-0.062
-201.348	184.294	0.021	-0.031
-200.333	-200.000	-0.036	0.244
-199.319	800.000	0.091	-0.375
-198.304	32.106	0.117	-0.101
-197.290	205.710	0.229	-0.355
-196.275	-38.033	-0.128	-0.068
-195.260	252.891	0.108	-0.184
-194.246	204.368	-0.095	0.146
-193.231	419.849	-0.098	-0.209
-192.217	-200.000	-0.006	0.198
-191.202	12.378	0.240	0.184
-190.187	298.139	-0.089	-0.163
-189.173	495.966	0.179	0.409
-188.158	-200.000	-0.034	-0.235
-187.144	-190.151	0.160	-0.002
-186.129	-200.000	0.023	0.124
-185.114	-111.380	-0.147	-0.030
-184.100	-95.127	0.176	0.047
-183.085	19.010	0.169	-0.135
-182.071	800.000	-0.020	0.081
-181.056	800.000	0.071	-0.253
-180.042	196.866	-0.088	0.133
-179.027	800.000	-0.027	-0.095
-178.012	-49.457	-0.262	0.124
-176.998	167.061	0.080	0.113
-175.983	-200.000	0.012	-0.106
-174.969	-200.000	-0.020	-0.109
-173.954	-91.257	-0.339	0.097
-172.939	-200.000	0.021	-0.467
-171.925	102.748	-0.108	0.125
-170.910	241.546	-0.084	0.139
-169.896	800.000	-0.070	-0.256
-168.881	-57.595	-0.436	0.190
-167.866	-200.000	0.009	-0.115
-166.852	-120.379	0.264	0.045
-165.837	42.390	0.185	-0.168
-164.823	800.000	0.066	0.183
-163.808	45.843	0.260	0.239
-162.793	368.067	-0.036	-0.073
-161.779	293.953	-0.043	-0.078
-160.764	-31.434	0.378	-0.211
-159.750	-21.935	-0.102	0.062
-158.735	800.000	0.030	0.119
-157.720	-9.283	0.138	0.092
-156.706	800.000	-0.023	-0.074
-155.691	-16.005	0.201	-0.127
-154.677	71.226	0.122	-0.126
-153.662	-154.971	-0.258	0.017
-152.647	-200.000	-0.033	0.197
-151.633	372.533	-0.067	0.136
-150.618	328.792	-0.118	0.225
-149.604	-84.258	-0.380	0.120
-148.589	-200.000	0.025	-0.237
-147.574	25.304	0.325	-0.268
-146.560	800.000	-0.067	0.232
-145.545	28.585	0.127	0.107
-144.531	-200.000	-0.024	-0.181
-143.516	-120.933	0.205	0.034
-142.502	-162.431	0.201	-0.010
-141.487	29.982	0.139	0.118
-140.472	-34.865	-0.106	-0.058
-139.458	800.000	0.103	0.284
-138.443	-73.436	-0.165	0.060
-137.429	409.272	0.061	-0.129
-136.414	-200.000	-0.010	-0.144
-135.399	66.681	0.104	-0.105
-134.385	-142.003	-0.071	0.007
-133.370	226.315	0.061	-0.098
-132.356	425.228	0.151	-0.323
-131.341	-134.285	0.452	0.055
-130.326	-109.146	-0.148	0.031
-129.312	294.313	0.100	-0.182
-128.297	-104.705	-0.086	-0.020
-127.283	201.113	0.046	-0.070
-126.268	525.422	0.106	0.248
-125.253	-81.045	-0.057	-0.019
-124.239	-40.939	-0.280	-0.144
-123.224	82.996	-0.090	0.097
-122.210	-7.960	-0.115	-0.077
-121.195	133.029	-0.273	0.351
