DTS Sentinel unit serial number:	SN413079Multiplexer serial number:	ORYXHardware model number:	OX4-SRSoftware version number:	ORYX F/W v4.00 Oryx Data Collector v3.7.2.0data status	okinstallation	princeton_trtdifferential loss correction	single-endedforward channel	channel 3reverse channel	N/Adate	2019/09/13time	16:24:35forward acquisition time	60.00reverse acquisition time	0.00gamma	496.2192k internal	0.2302k external	0.2302temperature offset calibration	1.0145default loss term (dB/km)	0.3790temperature slope calibration	1.0000multiplexer offset coefficient	1.0000multiplexer slope coefficient	1.0000fibre end	0.00T internal ref (°C)	35.00T ext. ref 1 (°C)	4.88T ext. ref 2 (°C)	31.05length (m)	temperature (°C)	Stokes	anti-Stokes-747.200	-147.395	-0.235	0.020
-746.185	-131.874	0.103	-0.014
-745.171	800.000	-0.078	-0.302
-744.156	581.650	0.057	0.141
-743.142	-44.924	0.392	-0.199
-742.127	-200.000	-0.017	-0.176
-741.112	64.204	-0.358	-0.367
-740.098	44.453	-0.183	-0.171
-739.083	668.460	0.047	-0.123
-738.069	-36.283	-0.247	0.136
-737.054	219.747	0.148	-0.242
-736.039	-8.082	0.089	-0.061
-735.025	-126.013	0.219	-0.034
-734.010	4.680	0.110	0.082
-732.996	-56.625	0.185	0.084
-731.981	-96.854	0.148	0.040
-730.966	39.973	-0.340	-0.311
-729.952	-59.379	-0.056	0.025
-728.937	-123.916	0.265	-0.043
-727.923	-127.644	-0.191	0.028
-726.908	-200.000	-0.053	-0.284
-725.894	-132.913	-0.201	0.026
-724.879	327.078	0.180	-0.352
-723.864	-108.531	0.121	-0.026
-722.850	91.238	0.046	0.052
-721.835	-188.612	-0.311	-0.004
-720.821	-74.285	0.305	-0.112
-719.806	-86.543	-0.290	0.091
-718.791	124.904	-0.286	0.367
-717.777	-200.000	-0.004	-0.042
-716.762	204.941	0.115	-0.182
-715.748	167.021	-0.092	-0.132
-714.733	-135.575	-0.282	0.034
-713.718	800.000	0.043	0.185
-712.704	800.000	0.050	-0.223
-711.689	800.000	0.065	0.290
-710.675	195.780	0.192	0.297
-709.660	800.000	-0.097	-0.321
-708.645	103.009	-0.294	0.350
-707.631	-200.000	0.006	0.135
-706.616	284.027	-0.069	-0.127
-705.602	-122.388	-0.144	0.024
-704.587	-200.000	-0.025	0.124
-703.572	445.726	0.195	0.437
-702.558	800.000	0.121	0.482
-701.543	78.740	-0.166	-0.181
-700.529	113.242	0.164	0.203
-699.514	800.000	0.083	-0.247
-698.499	32.763	0.053	0.047
-697.485	2.490	-0.129	-0.095
-696.470	-118.826	-0.281	0.050
-695.456	162.932	-0.168	0.239
-694.441	-56.489	0.096	0.043
-693.426	0.627	-0.098	0.072
-692.412	-81.545	0.314	-0.105
-691.397	-139.206	-0.179	0.020
-690.383	88.694	-0.153	0.173
-689.368	-50.084	0.170	-0.082
-688.354	32.670	0.248	-0.218
-687.339	-130.809	0.293	-0.040
-686.324	439.229	0.136	-0.302
-685.310	-171.080	-0.217	-0.007
-684.295	36.577	0.142	0.127
-683.281	800.000	0.072	0.238
-682.266	425.566	-0.137	0.300
-681.251	-200.000	0.015	0.116
-680.237	-58.190	0.111	0.049
-679.222	390.362	-0.066	-0.140
-678.208	19.209	-0.158	-0.129
-677.193	63.632	0.230	-0.234
-676.178	-200.000	0.001	-0.191
-675.164	19.458	-0.180	0.147
-674.149	-77.541	0.189	-0.067
-673.135	-34.324	0.266	0.148
-672.120	-0.926	-0.345	0.248
-671.105	-200.000	0.016	0.144
-670.091	3.741	0.257	-0.190
-669.076	-92.660	0.037	-0.011
-668.062	373.789	-0.067	-0.139
-667.047	-26.995	0.203	-0.121
-666.032	-91.483	-0.306	0.089
-665.018	-105.468	-0.462	-0.107
-664.003	-99.516	-0.394	-0.101
-662.989	145.904	-0.190	-0.259
-661.974	-35.494	0.134	0.074
-660.959	478.720	-0.043	0.100
-659.945	800.000	0.015	0.064
-658.930	38.580	0.154	0.140
-657.916	111.722	-0.094	-0.115
-656.901	154.194	-0.026	-0.036
-655.886	19.123	0.124	0.101
-654.872	-127.307	0.393	-0.058
-653.857	4.017	0.337	-0.250
-652.843	124.156	-0.221	0.282
-651.828	-200.000	-0.050	-0.299
-650.814	-92.943	0.173	0.049
-649.799	89.230	-0.123	0.139
-648.784	585.189	-0.052	-0.130
-647.770	119.006	-0.175	0.219
-646.755	800.000	-0.025	-0.083
-645.741	-200.000	-0.000	-0.057
-644.726	1.486	-0.037	-0.027
-643.711	-19.905	-0.154	-0.097
-642.697	-26.973	-0.191	0.113
-641.682	-200.000	-0.044	0.220
-640.668	-200.000	-0.045	0.310
-639.653	-67.800	-0.367	-0.146
-638.638	-59.427	0.239	0.104
-637.624	21.822	-0.101	0.083
-636.609	323.159	0.204	-0.395
-635.595	-200.000	-0.049	-0.533
-634.580	-80.151	-0.221	0.075
-633.565	290.856	0.148	-0.273
-632.551	-133.269	-0.107	0.014
-631.536	147.074	0.147	0.200
-630.522	-200.000	0.022	-0.188
-629.507	-136.994	0.252	-0.029
-628.492	-200.000	-0.025	0.230
-627.478	-58.974	-0.132	-0.058
-626.463	800.000	0.107	-0.325
-625.449	473.130	0.137	-0.314
-624.434	-200.000	0.024	0.321
-623.419	-18.390	0.144	0.091
-622.405	-142.392	0.152	-0.015
-621.390	-200.000	0.022	0.117
-620.376	-193.912	-0.217	-0.002
-619.361	800.000	0.098	0.422
-618.346	-2.087	0.073	0.052
-617.332	-118.000	0.375	-0.068
-616.317	-200.000	0.002	0.084
-615.303	32.435	0.254	0.223
-614.288	59.896	-0.026	0.026
-613.273	472.190	-0.073	0.167
-612.259	-136.140	-0.302	0.036
-611.244	-58.029	-0.210	-0.093
-610.230	-200.000	0.054	0.383
-609.215	-60.833	-0.052	0.022
-608.201	-200.000	-0.054	-0.428
-607.186	131.246	0.165	0.214
-606.171	0.326	-0.175	-0.127
-605.157	-63.891	-0.174	0.072
-604.142	-29.443	-0.184	0.107
-603.128	-44.013	0.168	0.086
-602.113	-13.884	0.158	0.104
-601.098	800.000	-0.056	-0.187
-600.084	185.875	-0.048	0.072
-599.069	-109.680	-0.287	0.061
-598.055	57.002	0.253	0.250
-597.040	-200.000	0.003	-0.032
-596.025	159.731	0.105	0.149
-595.011	-200.000	0.007	-0.158
-593.996	-131.116	0.173	-0.023
-592.982	800.000	0.030	0.119
-591.967	38.858	-0.076	0.069
-590.952	-80.290	-0.258	-0.087
-589.938	103.501	0.141	-0.168
-588.923	-39.931	0.339	0.179
-587.909	-150.043	0.260	-0.021
-586.894	-200.000	-0.002	0.305
-585.879	-200.000	-0.016	0.376
-584.865	136.633	-0.143	0.188
-583.850	-200.000	0.015	-0.097
-582.836	-78.141	0.052	-0.018
-581.821	-17.840	0.160	-0.101
-580.806	17.524	-0.187	0.151
-579.792	-2.391	0.172	-0.122
-578.777	-131.256	0.197	-0.026
-577.763	-56.251	0.261	0.118
-576.748	-80.926	-0.193	-0.065
-575.733	-123.493	-0.100	0.016
-574.719	-19.905	0.154	-0.096
-573.704	243.505	-0.117	-0.198
-572.690	34.215	0.039	-0.034
-571.675	-151.259	-0.203	0.015
-570.661	-39.042	-0.378	-0.201
-569.646	359.449	0.118	-0.239
-568.631	65.578	-0.111	0.114
-567.617	28.760	0.154	-0.132
-566.602	-142.292	-0.212	-0.021
-565.588	-165.450	0.089	0.004
-564.573	617.614	-0.063	0.161
-563.558	45.267	-0.147	-0.137
-562.544	131.106	0.056	-0.072
-561.529	-200.000	-0.039	-0.182
-560.515	0.608	0.354	-0.256
-559.500	-169.828	0.194	0.007
-558.485	800.000	0.104	-0.321
-557.471	-200.000	-0.006	-0.072
-556.456	161.216	0.223	0.316
-555.442	331.237	-0.168	-0.327
-554.427	800.000	-0.074	-0.256
-553.412	83.693	-0.178	-0.196
-552.398	55.319	0.237	-0.232
-551.383	-113.911	0.106	-0.021
-550.369	-77.864	0.155	-0.054
-549.354	-40.854	0.167	0.087
-548.339	536.535	-0.200	0.479
-547.325	-200.000	-0.023	0.224
-546.310	800.000	-0.118	0.334
-545.296	67.088	0.136	0.140
-544.281	-132.216	0.250	-0.033
-543.266	-200.000	0.015	0.290
-542.252	14.338	0.146	0.115
-541.237	213.046	0.116	0.186
-540.223	-92.684	0.317	0.090
-539.208	-27.634	-0.153	-0.090
-538.193	-200.000	0.030	0.142
-537.179	72.023	0.274	0.288
-536.164	-92.848	0.409	0.116
-535.150	71.048	-0.143	-0.150
-534.135	-45.655	0.156	0.078
-533.121	562.655	0.118	0.287
-532.106	800.000	0.126	-0.458
-531.091	289.221	0.057	0.105
-530.077	-3.292	-0.242	0.170
-529.062	-200.000	0.054	0.442
-528.048	25.243	0.221	-0.186
-527.033	260.117	-0.076	0.133
-526.018	544.481	0.149	0.360
-525.004	-158.876	-0.287	-0.017
-523.989	-118.175	-0.362	0.065
-522.975	497.345	-0.038	-0.089
-521.960	-164.122	-0.304	0.014
-520.945	-88.331	-0.218	-0.066
-519.931	-200.000	0.008	-0.283
-518.916	329.974	0.079	0.153
-517.902	113.783	0.139	-0.171
-516.887	-162.416	-0.315	-0.016
-515.872	800.000	-0.052	-0.182
-514.858	-192.915	0.201	-0.002
-513.843	51.850	0.195	0.187
-512.829	64.048	0.176	-0.179
-511.814	95.410	-0.102	-0.117
-510.799	800.000	0.139	-0.523
-509.785	3.602	-0.292	0.215
-508.770	-34.419	-0.175	-0.097
-507.756	96.711	0.171	0.197
-506.741	-56.920	-0.143	0.064
-505.726	509.932	-0.151	-0.355
-504.712	551.853	0.101	-0.245
-503.697	-200.000	-0.043	0.273
-502.683	-200.000	-0.011	-0.189
-501.668	20.617	0.223	-0.182
-500.653	-200.000	-0.019	-0.360
-499.639	-188.417	0.505	-0.006
-498.624	-200.000	-0.024	0.251
-497.610	-200.000	0.015	-0.207
-496.595	-5.787	-0.202	0.139
-495.581	232.895	-0.129	0.215
-494.566	60.018	-0.093	0.093
-493.551	800.000	0.028	0.095
-492.537	-80.030	0.219	0.074
-491.522	35.635	0.078	-0.069
-490.508	92.986	0.165	-0.188
-489.493	-103.204	-0.334	-0.080
-488.478	88.119	-0.274	0.306
-487.464	2.901	-0.098	0.072
-486.449	622.174	-0.023	0.059
-485.435	548.930	0.045	-0.109
-484.420	-72.838	-0.239	-0.089
-483.405	800.000	-0.025	-0.095
-482.391	10.455	0.246	0.189
-481.376	-91.403	0.159	-0.046
-480.362	50.815	0.054	-0.052
-479.347	-200.000	-0.005	-0.062
-478.332	-200.000	0.026	0.150
-477.318	60.208	0.103	0.103
-476.303	-17.753	0.084	-0.053
-475.289	40.515	-0.107	0.098
-474.274	31.706	0.158	0.137
-473.259	-66.051	0.212	-0.085
-472.245	-184.787	-0.142	-0.002
-471.230	65.161	0.275	-0.280
-470.216	800.000	-0.033	-0.120
-469.201	-26.068	-0.135	-0.080
-468.186	800.000	-0.098	0.314
-467.172	3.430	0.149	-0.110
-466.157	800.000	-0.014	0.049
-465.143	791.085	-0.096	0.267
-464.128	800.000	-0.097	0.309
-463.113	-200.000	0.021	0.119
-462.099	103.804	-0.121	0.143
-461.084	800.000	0.058	-0.181
-460.070	354.235	-0.104	-0.208
-459.055	66.122	-0.095	0.097
-458.040	-200.000	-0.031	0.198
-457.026	-200.000	-0.049	-0.229
-456.011	-200.000	0.002	-0.498
-454.997	-16.670	0.050	-0.032
-453.982	364.898	0.100	-0.202
-452.968	432.922	-0.016	-0.036
-451.953	147.297	0.081	0.110
-450.938	-200.000	-0.031	0.168
-449.924	-5.620	0.369	0.255
-448.909	800.000	0.040	0.128
-447.895	613.742	0.042	-0.105
-446.880	-11.799	0.209	0.138
-445.865	-23.212	0.117	-0.071
-444.851	-112.767	-0.124	0.025
-443.836	-142.352	-0.260	-0.026
-442.822	483.214	0.166	-0.379
-441.807	-200.000	0.067	0.341
-440.792	97.472	0.213	0.246
-439.778	46.076	-0.132	-0.123
-438.763	473.606	-0.170	-0.386
-437.749	-44.070	-0.031	-0.016
-436.734	-65.137	0.141	0.057
-435.719	-35.760	-0.124	0.067
-434.705	37.795	0.123	0.110
-433.690	-136.096	0.208	0.025
-432.676	-145.778	-0.205	-0.018
-431.661	-18.616	0.153	0.096
-430.646	28.927	0.313	-0.267
-429.632	-152.633	0.340	0.024
-428.617	-17.382	0.255	-0.162
-427.603	-200.000	-0.042	-0.192
-426.588	-48.009	-0.101	-0.049
-425.573	-54.953	0.272	-0.123
-424.559	-116.953	-0.099	-0.018
-423.544	190.618	0.126	0.190
-422.530	-130.661	-0.044	0.006
-421.515	504.608	0.096	-0.223
-420.500	-108.468	-0.294	0.064
-419.486	800.000	0.044	-0.160
-418.471	-41.360	0.359	-0.186
-417.457	128.018	-0.133	-0.170
-416.442	-98.371	0.270	0.070
-415.428	-78.013	-0.191	0.066
-414.413	-167.097	-0.363	-0.015
-413.398	-115.841	-0.133	-0.025
-412.384	49.186	-0.204	-0.193
-411.369	-200.000	0.010	0.143
-410.355	-200.000	0.010	0.235
-409.340	5.278	0.041	0.031
-408.325	176.151	-0.145	0.211
-407.311	39.545	-0.110	0.099
-406.296	-70.541	0.198	-0.076
-405.282	172.481	0.188	-0.272
-404.267	-70.596	0.090	0.034
-403.252	236.812	0.203	-0.338
-402.238	751.808	-0.085	-0.230
-401.223	-200.000	0.017	-0.272
-400.209	245.135	0.064	-0.108
-399.194	-48.682	0.102	0.049
-398.179	-200.000	-0.045	-0.392
-397.165	225.106	-0.160	0.261
-396.150	52.751	-0.327	-0.314
-395.136	-200.000	-0.030	0.172
-394.121	-200.000	-0.059	-0.426
-393.106	-200.000	-0.033	-0.255
-392.092	-53.278	0.312	0.144
-391.077	719.182	-0.054	0.144
-390.063	451.398	-0.132	-0.294
-389.048	800.000	0.060	0.248
-388.033	439.755	-0.076	0.167
-387.019	800.000	-0.101	-0.304
-386.004	-50.761	-0.326	0.154
-384.990	525.987	0.068	0.161
-383.975	-10.251	0.071	0.047
-382.960	255.453	0.036	0.061
-381.946	-57.908	-0.073	-0.032
-380.931	26.495	-0.341	-0.287
-379.917	66.502	0.072	-0.074
-378.902	-103.726	-0.341	-0.080
-377.888	-67.818	0.245	0.096
-376.873	-90.713	-0.262	0.076
-375.858	-153.523	0.139	-0.010
-374.844	-200.000	0.006	0.161
-373.829	-35.847	-0.153	0.083
-372.815	314.439	-0.046	-0.086
-371.800	-93.172	-0.189	-0.053
-370.785	-89.670	0.186	-0.055
-369.771	621.302	0.180	-0.454
-368.756	-159.359	0.347	0.020
-367.742	-66.214	0.076	0.030
-366.727	-12.872	0.135	-0.088
-365.712	-91.756	-0.485	0.138
-364.698	-70.293	0.180	-0.068
-363.683	-101.358	-0.157	0.039
-362.669	-7.524	0.101	-0.069
-361.654	-156.239	0.268	0.017
-360.639	800.000	0.067	0.275
-359.625	83.046	-0.124	-0.135
-358.610	-86.951	0.121	-0.037
-357.596	-67.192	-0.360	-0.142
-356.581	800.000	-0.073	0.222
-355.566	-119.307	-0.290	0.051
-354.552	800.000	-0.009	0.027
-353.537	59.414	-0.232	-0.229
-352.523	800.000	-0.153	-0.483
-351.508	291.076	-0.038	0.069
-350.493	-200.000	0.008	-0.039
-349.479	-137.487	-0.358	-0.041
-348.464	800.000	-0.100	0.382
-347.450	-96.061	-0.228	0.061
-346.435	-200.000	0.032	0.149
-345.420	-200.000	-0.002	-0.158
-344.406	718.685	-0.039	-0.105
-343.391	-200.000	0.010	-0.242
-342.377	-200.000	-0.027	-0.297
-341.362	-200.000	0.042	0.243
-340.348	97.282	0.071	-0.082
-339.333	-76.061	-0.183	-0.065
-338.318	800.000	-0.047	-0.179
-337.304	-82.733	-0.311	0.101
-336.289	16.814	-0.194	-0.154
-335.275	-29.781	0.297	-0.170
-334.260	88.336	-0.178	0.198
-333.245	-200.000	0.028	-0.167
-332.231	127.692	0.080	-0.103
-331.216	31.612	0.288	-0.249
-330.202	249.412	0.041	0.070
-329.187	-10.746	-0.094	0.063
-328.172	789.490	-0.093	-0.255
-327.158	-33.821	-0.121	0.067
-326.143	-200.000	0.049	-0.343
-325.129	-51.928	-0.383	0.179
-324.114	-22.087	0.121	0.074
-323.099	-200.000	0.021	0.655
-322.085	181.974	-0.209	0.309
-321.070	75.348	-0.180	-0.190
-320.056	-123.328	0.274	-0.044
-319.041	265.233	0.073	-0.127
-318.026	-30.944	0.231	-0.131
-317.012	-24.591	0.207	0.123
-315.997	356.121	0.100	-0.200
-314.983	-82.071	-0.071	-0.023
-313.968	-200.000	0.013	-0.247
-312.953	14.714	0.073	-0.057
-311.939	-71.711	0.092	-0.034
-310.924	-111.137	0.207	0.042
-309.910	97.138	-0.239	0.275
-308.895	-75.138	-0.104	-0.037
-307.880	-104.731	-0.076	0.018
-306.866	121.679	-0.209	0.261
-305.851	-87.487	-0.097	-0.029
-304.837	800.000	-0.048	-0.178
-303.822	-200.000	0.123	-0.562
-302.807	37.495	0.417	0.371
-301.793	-37.703	-0.152	-0.081
-300.778	158.200	0.142	-0.197
-299.764	-101.445	-0.388	-0.095
-298.749	359.384	-0.075	0.150
-297.735	510.611	-0.076	-0.177
-296.720	-183.541	0.121	-0.002
-295.705	-107.481	-0.327	0.072
-294.691	800.000	-0.011	0.038
-293.676	800.000	-0.089	-0.255
-292.662	-200.000	0.016	0.437
-291.647	-20.014	-0.110	0.068
-290.632	341.870	0.253	-0.496
-289.618	-200.000	-0.025	-0.185
-288.603	800.000	-0.019	0.058
-287.589	89.338	-0.041	-0.046
-286.574	-167.437	0.285	-0.011
-285.559	44.654	0.090	-0.083
-284.545	499.174	0.148	-0.342
-283.530	-13.979	0.179	0.116
-282.516	188.187	0.193	-0.288
-281.501	800.000	0.063	-0.247
-280.486	344.958	-0.184	0.362
-279.472	34.495	-0.113	0.098
-278.457	83.550	-0.075	-0.082
-277.443	-117.786	-0.202	0.036
-276.428	-146.547	-0.134	0.012
-275.413	-12.444	0.083	-0.054
-274.399	-118.524	-0.438	-0.078
-273.384	-92.948	0.280	0.078
-272.370	-200.000	0.025	0.244
-271.355	-66.793	-0.203	0.080
-270.340	100.434	-0.149	-0.173
-269.326	-200.000	-0.010	-0.061
-268.311	-53.803	-0.165	-0.075
-267.297	351.169	0.121	0.239
-266.282	-134.491	-0.217	-0.027
-265.267	-87.614	-0.249	-0.075
-264.253	-59.385	0.210	0.090
-263.238	20.298	-0.265	0.214
-262.224	-135.596	-0.200	0.024
-261.209	486.299	0.079	-0.179
-260.195	139.966	0.121	0.160
-259.180	-200.000	-0.025	-0.261
-258.165	-200.000	0.026	0.140
-257.151	-49.542	-0.239	-0.114
-256.136	32.901	-0.022	-0.019
-255.122	-86.632	-0.110	-0.034
-254.107	54.641	0.086	0.083
-253.092	-24.745	-0.222	-0.132
-252.078	-200.000	0.006	-0.104
-251.063	521.742	-0.139	0.326
-250.049	-71.236	-0.208	-0.078
-249.034	-117.896	0.238	-0.043
-248.019	60.141	0.286	0.282
-247.005	172.878	0.056	0.081
-245.990	152.759	-0.110	-0.150
-244.976	-34.233	-0.269	0.148
-243.961	11.311	-0.131	0.100
-242.946	-53.315	-0.079	-0.036
-241.932	123.227	0.106	-0.133
-240.917	30.547	0.320	0.273
-239.903	-200.000	0.022	-0.117
-238.888	-54.743	-0.244	0.110
-237.873	-147.961	0.266	0.022
-236.859	9.066	0.047	0.036
-235.844	-200.000	0.031	0.315
-234.830	-36.567	-0.242	0.130
-233.815	-14.498	-0.142	0.091
-232.800	-97.529	0.066	0.017
-231.786	566.769	0.067	0.163
-230.771	-108.803	-0.047	0.010
-229.757	-200.000	-0.009	0.076
-228.742	-147.175	0.059	0.005
-227.727	-19.595	-0.182	-0.112
-226.713	705.406	0.079	0.208
-225.698	-200.000	0.030	0.380
-224.684	221.172	-0.085	0.137
-223.669	-200.000	0.078	0.429
-222.655	-97.899	0.114	-0.029
-221.640	20.305	-0.363	-0.292
-220.625	800.000	-0.087	0.254
-219.611	265.788	0.096	0.167
-218.596	-200.000	0.043	0.385
-217.582	-200.000	-0.010	0.192
-216.567	-110.846	0.255	0.052
-215.552	800.000	0.034	0.117
-214.538	140.470	-0.150	-0.198
-213.523	228.349	0.110	-0.178
-212.509	-22.513	0.166	-0.100
-211.494	-200.000	0.005	0.103
-210.479	95.549	0.088	0.100
-209.465	-105.125	-0.088	-0.020
-208.450	-135.212	0.152	0.018
-207.436	114.248	0.021	-0.026
-206.421	143.610	-0.094	0.125
-205.406	-23.833	-0.109	-0.065
-204.392	-200.000	-0.074	0.414
-203.377	-200.000	0.007	0.066
-202.363	-35.832	-0.224	-0.121
-201.348	-68.305	0.403	0.156
-200.333	-200.000	0.021	0.101
-199.319	-58.606	-0.242	0.105
-198.304	160.280	0.306	-0.426
-197.290	-11.011	0.100	0.066
-196.275	-23.099	0.166	0.100
-195.260	800.000	-0.013	0.056
-194.246	-115.810	0.255	-0.048
-193.231	-79.813	0.319	-0.107
-192.217	-200.000	0.010	-0.088
-191.202	800.000	0.082	-0.311
-190.187	164.079	0.178	-0.250
-189.173	104.568	-0.127	-0.150
-188.158	800.000	-0.117	0.327
-187.144	-175.343	0.353	-0.010
-186.129	-102.175	-0.255	0.061
-185.114	-200.000	0.014	0.151
-184.100	-200.000	0.012	0.122
-183.085	-57.528	0.226	0.099
-182.071	-146.344	-0.242	0.021
-181.056	15.068	-0.224	0.175
-180.042	-49.508	0.109	-0.052
-179.027	-200.000	0.064	-0.320
-178.012	-200.000	0.003	0.164
-176.998	-200.000	0.009	0.125
-175.983	-78.230	-0.041	0.014
-174.969	190.118	0.145	0.216
-173.954	-142.971	0.021	-0.002
-172.939	-42.629	-0.207	0.105
-171.925	394.246	0.069	0.143
-170.910	82.746	0.240	0.260
-169.896	454.104	-0.039	0.085
-168.881	166.175	-0.157	-0.222
-167.866	565.671	-0.021	0.051
-166.852	341.580	-0.032	-0.063
-165.837	102.889	0.023	-0.027
-164.823	800.000	0.067	0.229
-163.808	-121.670	0.177	-0.029
-162.793	-58.188	-0.252	-0.109
-161.779	-118.037	0.079	-0.014
-160.764	-69.140	-0.369	0.141
-159.750	-190.007	0.088	0.001
-158.735	-151.532	0.410	-0.030
-157.720	45.795	0.096	-0.088
-156.706	800.000	-0.084	-0.359
-155.691	-6.583	0.234	-0.159
-154.677	53.323	-0.173	-0.165
-153.662	23.893	-0.023	-0.019
-152.647	25.684	-0.078	0.065
-151.633	-48.754	-0.135	0.065
-150.618	-143.560	0.159	0.015
-149.604	-27.569	0.112	0.065
-148.589	37.392	0.180	0.159
-147.574	298.136	-0.183	0.334
-146.560	695.251	0.145	0.379
-145.545	357.085	0.067	-0.134
-144.531	-144.903	-0.101	-0.009
-143.516	458.882	0.126	-0.279
-142.502	-62.570	0.208	-0.086
-141.487	408.214	-0.154	-0.325
-140.472	141.041	0.098	0.129
-139.458	-54.131	0.094	0.043
-138.443	-78.248	0.318	0.109
-137.429	-14.172	0.143	-0.092
-136.414	800.000	-0.046	-0.178
-135.399	116.053	0.171	-0.208
-134.385	-99.937	0.178	0.044
-133.370	-1.813	-0.033	0.023
-132.356	689.467	-0.110	0.287
-131.341	194.929	-0.001	0.001
-130.326	88.814	0.124	-0.137
-129.312	-200.000	0.009	-0.418
-128.297	800.000	0.107	0.390
-127.283	800.000	0.047	-0.168
-126.268	-200.000	0.001	-0.050
-125.253	800.000	-0.077	-0.298
-124.239	-37.944	0.304	0.161
-123.224	160.976	-0.085	-0.118
-122.210	-32.576	0.337	-0.187
-121.195	246.506	-0.091	-0.153
-120.180	-81.107	-0.253	0.083
