DTS Sentinel unit serial number:	SN413079Multiplexer serial number:	ORYXHardware model number:	OX4-SRSoftware version number:	ORYX F/W v4.00 Oryx Data Collector v3.7.2.0data status	okinstallation	princeton_trtdifferential loss correction	single-endedforward channel	channel 3reverse channel	N/Adate	2019/09/18time	12:52:35forward acquisition time	60.00reverse acquisition time	0.00gamma	496.2192k internal	0.2315k external	0.2315temperature offset calibration	0.9969default loss term (dB/km)	0.3790temperature slope calibration	1.0000multiplexer offset coefficient	1.0000multiplexer slope coefficient	1.0000fibre end	0.00T internal ref (°C)	33.12T ext. ref 1 (°C)	0.56T ext. ref 2 (°C)	28.98length (m)	temperature (°C)	Stokes	anti-Stokes-747.200	-200.000	0.010	0.257
-746.185	-200.000	0.033	-0.188
-745.171	-200.000	-0.027	0.244
-744.156	-200.000	0.006	0.323
-743.142	-16.494	0.030	0.019
-742.127	204.219	0.210	0.329
-741.112	-170.069	-0.080	-0.003
-740.098	-64.598	-0.200	-0.082
-739.083	-200.000	0.098	-0.553
-738.069	800.000	-0.083	-0.286
-737.054	345.997	0.107	-0.213
-736.039	-193.019	-0.202	0.002
-735.025	-98.679	0.405	0.105
-734.010	512.965	-0.047	-0.112
-732.996	-116.544	-0.374	0.070
-731.981	-81.698	-0.132	-0.044
-730.966	800.000	0.016	-0.052
-729.952	800.000	-0.040	-0.131
-728.937	199.015	0.104	-0.162
-727.923	-135.307	0.224	0.027
-726.908	-24.066	-0.232	0.141
-725.894	-88.576	-0.116	0.035
-724.879	-200.000	-0.036	-0.216
-723.864	-200.000	0.019	-0.286
-722.850	297.641	0.067	0.124
-721.835	47.346	0.075	-0.071
-720.821	-90.417	-0.246	-0.072
-719.806	-199.865	0.274	0.001
-718.791	38.283	0.327	-0.294
-717.777	88.293	0.189	-0.212
-716.762	529.857	-0.027	-0.064
-715.748	169.813	-0.118	-0.171
-714.733	-58.424	0.082	-0.036
-713.718	-58.233	0.340	-0.150
-712.704	-200.000	0.005	0.171
-711.689	800.000	-0.083	-0.272
-710.675	-164.922	-0.310	0.014
-709.660	800.000	0.035	-0.128
-708.645	-140.048	-0.392	-0.042
-707.631	-119.712	-0.226	-0.039
-706.616	-36.042	0.259	-0.142
-705.602	-62.592	0.201	0.084
-704.587	198.424	0.163	-0.252
-703.572	146.876	0.147	0.200
-702.558	-25.385	-0.208	0.124
-701.543	7.145	0.230	-0.174
-700.529	-200.000	0.018	0.159
-699.514	800.000	-0.108	-0.354
-698.499	-73.518	-0.105	0.039
-697.485	37.370	0.087	0.078
-696.470	800.000	-0.106	-0.370
-695.456	-103.809	0.251	-0.059
-694.441	-53.431	0.130	-0.060
-693.426	-138.225	-0.072	-0.008
-692.412	109.415	0.083	0.101
-691.397	537.104	0.016	-0.039
-690.383	2.995	-0.068	-0.050
-689.368	424.480	0.124	0.270
-688.354	-57.323	-0.180	0.080
-687.339	-16.315	0.209	0.134
-686.324	800.000	-0.036	0.153
-685.310	102.338	-0.148	0.175
-684.295	800.000	0.057	-0.253
-683.281	133.818	-0.233	-0.305
-682.266	800.000	-0.146	-0.493
-681.251	785.866	0.068	0.189
-680.237	448.939	0.041	-0.091
-679.222	-45.641	-0.105	0.053
-678.208	400.695	-0.115	0.243
-677.193	140.329	0.078	-0.103
-676.178	-200.000	0.011	-0.054
-675.164	-139.041	0.120	0.013
-674.149	34.269	0.144	0.127
-673.135	145.089	0.190	0.257
-672.120	800.000	0.084	0.278
-671.105	-73.186	0.508	-0.188
-670.091	-45.719	0.027	0.013
-669.076	-71.528	0.113	-0.043
-668.062	800.000	-0.043	0.158
-667.047	266.524	-0.238	-0.420
-666.032	-26.560	-0.134	0.079
-665.018	527.600	0.047	-0.113
-664.003	-55.705	0.081	-0.036
-662.989	176.065	0.085	0.124
-661.974	85.840	0.200	-0.222
-660.959	-93.834	-0.332	0.092
-659.945	442.885	0.047	0.105
-658.930	-200.000	0.029	0.197
-657.916	135.978	-0.058	-0.076
-656.901	800.000	0.022	0.062
-655.886	-200.000	-0.013	0.139
-654.872	415.261	0.159	0.342
-653.857	-200.000	0.019	-0.121
-652.843	331.101	0.051	0.098
-651.828	-47.885	0.259	0.127
-650.814	-200.000	0.018	0.081
-649.799	456.734	0.050	-0.113
-648.784	239.048	0.038	0.064
-647.770	-95.006	-0.221	0.060
-646.755	709.295	0.047	0.125
-645.741	112.979	-0.056	-0.068
-644.726	-200.000	-0.002	-0.057
-643.711	-49.938	-0.459	-0.220
-642.697	800.000	-0.012	0.045
-641.682	-66.025	-0.091	-0.037
-640.668	31.664	-0.067	0.058
-639.653	368.752	-0.040	-0.081
-638.638	-3.920	-0.207	-0.145
-637.624	66.562	0.121	0.124
-636.609	137.761	-0.258	0.341
-635.595	-67.697	-0.194	0.077
-634.580	298.699	-0.098	0.182
-633.565	-61.813	-0.066	-0.028
-632.551	-200.000	0.060	-0.348
-631.536	-200.000	-0.008	-0.228
-630.522	-200.000	-0.045	0.348
-629.507	-100.353	0.185	0.046
-628.492	-144.841	-0.250	-0.023
-627.478	800.000	0.104	0.373
-626.463	-113.461	0.040	-0.008
-625.449	-23.508	-0.063	0.038
-624.434	-200.000	0.002	0.109
-623.419	-200.000	0.050	0.273
-622.405	-118.963	-0.533	0.094
-621.390	276.177	0.171	0.307
-620.376	-52.328	-0.272	0.127
-619.361	795.604	-0.058	-0.162
-618.346	16.352	0.219	0.174
-617.332	-40.162	0.197	0.104
-616.317	-100.581	0.203	0.051
-615.303	-81.158	-0.148	-0.049
-614.288	-24.575	-0.078	-0.047
-613.273	162.262	-0.056	0.079
-612.259	322.529	0.064	0.123
-611.244	-1.484	-0.143	-0.102
-610.230	660.989	-0.080	-0.208
-609.215	800.000	-0.066	0.266
-608.201	-103.281	-0.126	0.030
-607.186	-127.198	-0.169	0.025
-606.171	160.888	-0.063	0.089
-605.157	322.030	-0.074	0.143
-604.142	34.512	-0.067	0.059
-603.128	-31.176	0.398	-0.226
-602.113	-173.452	-0.237	-0.007
-601.098	-12.387	-0.246	-0.162
-600.084	-79.082	0.299	-0.102
-599.069	-57.129	-0.152	0.067
-598.055	-26.693	-0.034	0.020
-597.040	-85.420	0.083	0.026
-596.025	749.942	0.066	0.180
-595.011	84.854	-0.066	0.072
-593.996	-152.929	-0.352	-0.025
-592.982	149.223	0.041	0.055
-591.967	-60.538	0.240	0.103
-590.952	-136.832	0.156	0.018
-589.938	-78.496	-0.273	0.094
-588.923	-16.606	-0.157	0.100
-587.909	-200.000	0.020	0.153
-586.894	259.355	-0.128	-0.223
-585.879	-73.044	0.368	-0.136
-584.865	-200.000	-0.013	0.334
-583.850	-200.000	-0.037	-0.419
-582.836	-200.000	0.012	-0.167
-581.821	-200.000	0.004	0.125
-580.806	-137.020	-0.093	0.011
-579.792	74.974	0.229	-0.242
-578.777	139.356	0.102	-0.136
-577.763	400.037	0.013	0.027
-576.748	126.666	-0.246	-0.314
-575.733	-200.000	-0.004	0.043
-574.719	-80.173	0.163	0.055
-573.704	-53.762	0.196	-0.090
-572.690	-64.569	-0.176	-0.072
-571.675	51.966	0.078	-0.074
-570.661	144.849	0.248	0.333
-569.646	-189.143	0.119	-0.001
-568.631	-79.246	-0.256	-0.087
-567.617	-200.000	-0.009	-0.185
-566.602	152.127	0.219	0.300
-565.588	-200.000	0.083	0.558
-564.573	7.339	-0.115	0.087
-563.558	-166.012	-0.274	0.012
-562.544	23.425	-0.188	0.156
-561.529	-79.221	0.211	-0.072
-560.515	522.333	-0.101	-0.239
-559.500	-61.891	-0.163	0.069
-558.485	-177.818	-0.316	-0.008
-557.471	800.000	-0.040	-0.133
-556.456	-186.487	0.161	0.002
-555.442	-33.821	-0.058	-0.032
-554.427	-181.217	0.227	0.005
-553.412	322.024	-0.147	-0.281
-552.398	800.000	-0.066	0.250
-551.383	3.517	-0.190	0.139
-550.369	15.555	-0.085	-0.067
-549.354	528.435	-0.040	0.095
-548.339	-200.000	0.003	0.336
-547.325	-118.311	0.275	-0.049
-546.310	-163.369	0.224	-0.011
-545.296	-200.000	0.059	0.411
-544.281	-97.368	-0.163	-0.043
-543.266	-200.000	0.076	0.000
-542.252	-160.658	0.232	0.012
-541.237	1.034	-0.052	0.037
-540.223	38.309	0.219	0.196
-539.208	800.000	-0.114	0.332
-538.193	-8.179	-0.033	-0.022
-537.179	-163.663	0.237	-0.011
-536.164	-97.351	-0.127	0.033
-535.150	298.783	0.109	-0.202
-534.135	800.000	-0.067	0.248
-533.121	-200.000	0.008	-0.039
-532.106	565.846	0.081	-0.198
-531.091	153.097	-0.047	0.065
-530.077	-98.482	-0.241	0.062
-529.062	-35.217	0.255	0.139
-528.048	-63.839	0.586	0.241
-527.033	-66.912	-0.109	-0.043
-526.018	-200.000	-0.009	-0.339
-525.004	-200.000	-0.010	0.161
-523.989	-61.685	0.225	0.095
-522.975	-89.404	0.141	0.042
-521.960	55.745	-0.046	-0.045
-520.945	224.856	-0.203	0.330
-519.931	4.627	-0.068	0.050
-518.916	-168.326	0.155	0.006
-517.902	-85.883	0.340	0.106
-516.887	-141.939	-0.125	0.013
-515.872	800.000	0.072	-0.223
-514.858	215.221	-0.063	-0.101
-513.843	-118.492	-0.124	-0.022
-512.829	-138.848	-0.122	-0.013
-511.814	-99.511	-0.426	-0.108
-510.799	-15.718	0.117	0.075
-509.785	386.586	-0.161	0.335
-508.770	45.012	-0.105	-0.097
-507.756	-200.000	-0.033	-0.229
-506.741	4.728	-0.228	0.168
-505.726	-200.000	0.006	-0.166
-504.712	125.971	-0.304	-0.386
-503.697	65.945	-0.065	0.066
-502.683	448.414	-0.112	0.247
-501.668	800.000	0.063	0.196
-500.653	-58.869	-0.138	-0.060
-499.639	-125.762	0.040	0.006
-498.624	-139.457	-0.325	-0.035
-497.610	-177.667	-0.210	-0.005
-496.595	149.999	0.138	-0.188
-495.581	-97.776	0.288	-0.075
-494.566	-200.000	0.019	-0.161
-493.551	126.040	0.102	0.130
-492.537	-93.553	-0.084	0.023
-491.522	125.920	0.170	0.216
-490.508	-72.652	-0.096	0.036
-489.493	81.356	-0.052	-0.057
-488.478	-200.000	-0.016	0.153
-487.464	279.637	-0.070	0.126
-486.449	406.612	0.076	0.161
-485.435	-200.000	-0.018	-0.149
-484.420	-70.426	-0.109	-0.041
-483.405	330.939	-0.064	-0.124
-482.391	-23.296	-0.278	-0.168
-481.376	69.668	0.205	-0.212
-480.362	-75.599	-0.208	-0.074
-479.347	-182.167	-0.390	-0.007
-478.332	550.783	-0.094	0.227
-477.318	-74.343	-0.220	0.080
-476.303	36.407	0.048	-0.043
-475.289	-152.460	-0.339	-0.024
-474.274	-200.000	-0.002	0.132
-473.259	51.633	0.145	0.139
-472.245	-123.991	0.255	0.040
-471.230	-33.185	0.080	-0.044
-470.216	74.979	-0.138	-0.145
-469.201	285.467	0.155	-0.281
-468.186	-200.000	0.018	-0.275
-467.172	-17.066	0.078	0.049
-466.157	-162.612	-0.243	-0.012
-465.143	137.318	0.186	-0.243
-464.128	21.750	-0.355	-0.289
-463.113	408.820	0.071	0.151
-462.099	-80.592	0.337	0.113
-461.084	-78.942	-0.080	-0.027
-460.070	800.000	0.071	-0.200
-459.055	-77.311	-0.183	0.064
-458.040	104.173	0.154	-0.181
-457.026	116.969	-0.030	-0.037
-456.011	800.000	-0.094	-0.321
-454.997	-3.340	0.097	0.068
-453.982	92.326	-0.329	0.372
-452.968	-200.000	0.216	0.001
-451.953	127.493	-0.125	-0.159
-450.938	-200.000	0.020	-0.118
-449.924	-168.479	0.280	0.011
-448.909	-98.534	0.003	-0.001
-447.895	165.569	-0.197	0.279
-446.880	-200.000	0.004	-0.132
-445.865	-101.973	0.296	-0.071
-444.851	800.000	-0.042	0.153
-443.836	103.552	0.144	0.169
-442.822	-58.780	-0.267	0.116
-441.807	20.269	0.156	-0.127
-440.792	89.393	0.105	0.117
-439.778	-4.516	0.117	0.081
-438.763	-52.126	0.133	0.062
-437.749	-200.000	0.028	0.200
-436.734	193.239	-0.053	0.081
-435.719	-200.000	0.002	-0.058
-434.705	610.425	0.081	0.202
-433.690	-200.000	0.028	0.224
-432.676	800.000	0.068	0.256
-431.661	-49.600	0.295	0.141
-430.646	71.045	-0.201	-0.209
-429.632	321.620	-0.175	0.333
-428.617	185.939	-0.106	-0.158
-427.603	339.865	-0.017	-0.034
-426.588	63.089	0.133	-0.134
-425.573	-55.207	-0.232	-0.104
-424.559	148.907	0.149	0.201
-423.544	-200.000	0.041	0.194
-422.530	-87.031	0.181	0.055
-421.515	-140.751	-0.206	0.021
-420.500	168.607	-0.196	0.279
-419.486	497.757	-0.144	0.333
-418.471	257.200	0.243	-0.417
-417.457	90.692	0.246	-0.276
-416.442	-200.000	-0.002	0.355
-415.428	-200.000	0.026	-0.162
-414.413	253.173	-0.157	-0.267
-413.398	185.332	-0.235	-0.349
-412.384	-200.000	0.014	-0.074
-411.369	-179.923	0.065	0.001
-410.355	-97.755	-0.384	0.100
-409.340	25.254	0.214	-0.178
-408.325	-54.437	0.262	0.119
-407.311	-200.000	-0.010	0.206
-406.296	-200.000	-0.015	0.208
-405.282	-38.371	0.150	0.080
-404.267	-73.126	-0.265	0.097
-403.252	-59.703	0.107	0.046
-402.238	-156.214	0.463	-0.029
-401.223	-91.051	0.460	0.132
-400.209	-83.647	-0.189	-0.060
-399.194	-49.805	-0.053	0.025
-398.179	373.417	-0.014	0.028
-397.165	-44.807	0.309	-0.154
-396.150	-30.598	-0.283	-0.160
-395.136	16.760	-0.219	-0.173
-394.121	-200.000	-0.034	0.162
-393.106	177.590	-0.041	0.060
-392.092	128.567	0.146	0.186
-391.077	54.420	0.060	0.057
-390.063	286.264	0.162	0.293
-389.048	-13.850	-0.072	0.047
-388.033	-200.000	-0.016	-0.150
-387.019	800.000	0.103	0.291
-386.004	36.793	-0.087	-0.076
-384.990	-84.200	0.153	0.048
-383.975	-33.474	0.253	0.140
-382.960	411.101	-0.152	-0.321
-381.946	-37.943	-0.200	-0.106
-380.931	-73.005	-0.217	-0.080
-379.917	800.000	0.072	0.278
-378.902	322.528	-0.148	0.281
-377.888	518.895	0.080	-0.186
-376.873	14.212	0.311	-0.242
-375.858	640.527	-0.081	-0.206
-374.844	-200.000	-0.003	-0.089
-373.829	-63.644	0.191	0.078
-372.815	-132.322	0.209	0.027
-371.800	-200.000	0.015	-0.523
-370.785	-138.846	0.256	-0.028
-369.771	-118.571	0.388	0.068
-368.756	197.603	-0.166	-0.253
-367.742	-1.532	-0.143	0.101
-366.727	251.434	0.109	-0.186
-365.712	410.847	0.046	-0.098
-364.698	198.237	-0.197	0.301
-363.683	489.598	0.144	-0.329
-362.669	66.191	0.234	-0.237
-361.654	-119.296	0.221	0.038
-360.639	199.362	-0.079	-0.121
-359.625	-72.815	-0.296	-0.109
-358.610	-103.990	0.455	-0.106
-357.596	-200.000	-0.057	-0.304
-356.581	-77.094	0.130	-0.045
-355.566	800.000	0.074	0.245
-354.552	95.619	0.116	-0.132
-353.537	-102.613	0.095	0.023
-352.523	28.472	-0.096	-0.081
-351.508	-7.823	-0.030	0.020
-350.493	742.479	-0.063	-0.168
-349.479	-97.789	-0.204	0.053
-348.464	169.520	-0.137	-0.196
-347.450	30.914	-0.103	-0.088
-346.435	69.224	0.133	-0.136
-345.420	-124.077	0.274	0.043
-344.406	-6.411	0.115	0.078
-343.391	-157.488	-0.276	0.017
-342.377	734.001	-0.063	-0.169
-341.362	191.779	-0.187	0.281
-340.348	-200.000	-0.003	-0.022
-339.333	-15.092	-0.251	-0.160
-338.318	-20.690	0.278	0.170
-337.304	-200.000	-0.017	-0.082
-336.289	730.853	0.079	0.210
-335.275	19.822	-0.128	0.102
-334.260	125.846	-0.012	0.016
-333.245	-200.000	-0.031	0.282
-332.231	603.279	-0.080	0.199
-331.216	145.516	0.077	-0.103
-330.202	178.130	0.193	-0.281
-329.187	693.859	-0.084	0.220
-328.172	298.526	-0.108	-0.197
-327.158	-200.000	-0.001	-0.374
-326.143	-70.886	0.250	-0.094
-325.129	233.387	-0.140	0.230
-324.114	60.471	-0.286	0.283
-323.099	-1.905	0.142	-0.100
-322.085	800.000	-0.096	-0.271
-321.070	800.000	0.140	-0.451
-320.056	738.411	0.035	-0.094
-319.041	406.929	0.104	-0.220
-318.026	-53.531	-0.299	0.136
-317.012	-200.000	0.010	-0.076
-315.997	725.827	0.015	-0.040
-314.983	-200.000	0.038	0.322
-313.968	-24.432	0.317	-0.188
-312.953	-66.835	0.251	0.099
-311.939	-85.645	-0.371	-0.115
-310.924	-200.000	0.017	0.098
-309.910	-77.218	0.079	-0.027
-308.895	-200.000	0.007	-0.437
-307.880	-200.000	-0.042	-0.388
-306.866	800.000	0.147	-0.464
-305.851	-200.000	-0.025	0.191
-304.837	-1.444	0.309	-0.217
-303.822	-96.269	-0.284	0.075
-302.807	294.763	0.107	0.195
-301.793	179.937	0.136	0.199
-300.778	225.938	0.104	-0.168
-299.764	-100.527	0.366	-0.090
-298.749	-200.000	0.023	0.281
-297.735	-40.934	0.196	0.101
-296.720	-176.606	-0.102	0.003
-295.705	-200.000	-0.002	-0.125
-294.691	-88.399	-0.194	0.058
-293.676	290.156	0.118	-0.214
-292.662	18.889	-0.361	-0.288
-291.647	49.392	-0.204	0.191
-290.632	-98.810	0.159	0.040
-289.618	-200.000	0.022	-0.216
-288.603	-139.450	-0.222	-0.024
-287.589	170.871	0.264	-0.377
-286.574	125.544	0.106	0.133
-285.559	-39.166	0.206	-0.108
-284.545	58.378	-0.108	-0.105
-283.530	-200.000	0.000	0.156
-282.516	-133.137	0.304	-0.038
-281.501	-200.000	0.002	0.064
-280.486	-200.000	0.028	-0.275
-279.472	121.979	0.070	-0.086
-278.457	5.933	0.060	0.044
-277.443	800.000	0.072	0.239
-276.428	97.702	-0.259	-0.296
-275.413	20.202	0.109	0.088
-274.399	328.933	-0.116	-0.222
-273.384	126.541	-0.228	0.287
-272.370	-38.401	0.213	0.112
-271.355	-200.000	0.003	0.270
-270.340	-82.270	0.223	-0.072
-269.326	158.290	0.032	0.044
-268.311	23.927	0.159	0.130
-267.297	142.926	0.261	0.345
-266.282	-100.520	-0.134	0.033
-265.267	-136.556	-0.161	-0.018
-264.253	-155.065	-0.111	0.007
-263.238	153.946	-0.094	-0.129
-262.224	211.125	-0.146	-0.229
-261.209	287.622	-0.134	-0.242
-260.195	800.000	-0.035	0.149
-259.180	-200.000	0.019	-0.266
-258.165	198.329	0.231	0.351
-257.151	-200.000	0.025	0.185
-256.136	73.853	0.053	0.056
-255.122	82.429	0.051	0.055
-254.107	122.326	-0.110	-0.137
-253.092	800.000	-0.066	0.190
-252.078	453.871	-0.102	0.225
-251.063	-118.121	0.400	-0.071
-250.049	-145.705	0.081	0.007
-249.034	-200.000	0.063	0.386
-248.019	-175.690	-0.257	-0.007
-247.005	800.000	0.054	-0.189
-245.990	-45.981	0.039	0.019
-244.976	800.000	-0.087	-0.254
-243.961	111.863	0.105	-0.126
-242.946	-44.850	-0.157	0.078
-241.932	800.000	-0.034	-0.120
-240.917	116.651	-0.106	-0.129
-239.903	800.000	-0.070	-0.227
-238.888	-200.000	-0.007	0.130
-237.873	800.000	0.065	0.201
-236.859	-200.000	0.001	-0.115
-235.844	800.000	0.147	0.410
-234.830	-110.453	0.075	0.015
-233.815	178.385	0.150	0.218
-232.800	800.000	-0.033	0.135
-231.786	800.000	0.123	0.418
-230.771	-75.588	-0.244	-0.086
-229.757	-200.000	0.018	0.331
-228.742	800.000	0.021	-0.059
-227.727	294.298	0.050	-0.090
-226.713	102.465	0.283	-0.329
-225.698	800.000	-0.098	0.318
-224.684	-200.000	-0.025	0.128
-223.669	-200.000	0.070	-0.422
-222.655	187.514	0.041	0.061
-221.640	94.916	0.133	-0.150
-220.625	531.830	0.094	-0.220
-219.611	-118.907	-0.099	0.017
-218.596	426.964	-0.120	-0.258
-217.582	-55.072	0.160	-0.071
-216.567	77.811	0.052	-0.055
-215.552	22.191	-0.162	0.131
-214.538	800.000	0.113	0.363
-213.523	-50.679	0.290	-0.135
-212.509	-101.189	0.117	-0.028
-211.494	618.113	-0.077	0.193
-210.479	392.781	-0.038	-0.078
-209.465	800.000	0.085	0.340
-208.450	-116.928	-0.243	-0.044
-207.436	-29.822	0.271	-0.153
-206.421	-101.090	-0.349	0.085
-205.406	-70.904	-0.072	-0.027
-204.392	240.994	-0.241	-0.400
-203.377	-89.539	0.118	-0.034
-202.363	30.767	-0.421	0.357
-201.348	17.294	0.204	-0.160
-200.333	168.510	0.075	0.107
-199.319	80.753	-0.226	-0.242
-198.304	800.000	-0.032	-0.120
-197.290	-68.140	-0.085	-0.033
-196.275	357.755	0.116	0.230
-195.260	-197.024	-0.383	0.002
-194.246	-200.000	0.040	-0.186
-193.231	-6.847	-0.231	-0.155
-192.217	-60.345	0.069	0.029
-191.202	-47.519	-0.047	0.023
-190.187	-97.294	-0.361	-0.093
-189.173	-200.000	-0.014	-0.255
-188.158	-138.843	0.369	0.040
-187.144	197.629	-0.142	0.215
-186.129	220.082	0.090	0.142
-185.114	-200.000	-0.003	-0.155
-184.100	-157.869	0.059	0.003
-183.085	175.374	0.150	-0.215
-182.071	134.518	-0.129	0.165
-181.056	-176.429	0.194	0.005
-180.042	-14.795	0.051	0.033
-179.027	35.735	-0.146	0.128
-178.012	300.926	0.179	-0.328
-176.998	56.395	-0.033	-0.032
-175.983	12.001	-0.258	0.197
-174.969	-66.801	-0.306	-0.120
-173.954	26.482	0.087	-0.072
-172.939	-30.074	0.182	-0.103
-171.925	-62.644	-0.063	0.026
-170.910	800.000	0.081	-0.258
-169.896	79.895	0.044	0.047
-168.881	800.000	0.100	0.315
-167.866	13.648	-0.043	-0.033
-166.852	309.482	0.091	-0.169
-165.837	-3.052	0.125	-0.086
-164.823	52.087	-0.135	0.128
-163.808	-109.357	-0.101	0.021
-162.793	113.168	0.174	-0.209
-161.779	36.628	0.281	-0.246
-160.764	228.974	-0.128	-0.208
-159.750	-84.564	0.232	0.072
-158.735	-32.905	-0.169	-0.093
-157.720	-87.824	-0.153	0.046
-156.706	121.903	-0.065	0.081
-155.691	-118.670	-0.217	0.038
-154.677	-132.399	0.418	0.053
-153.662	800.000	-0.044	-0.148
-152.647	56.014	-0.046	-0.045
-151.633	-5.322	0.308	0.209
-150.618	120.399	-0.097	-0.119
-149.604	301.078	0.084	-0.153
-148.589	-103.202	-0.210	0.049
-147.574	167.788	0.114	0.161
-146.560	800.000	-0.090	0.368
-145.545	800.000	-0.111	0.371
-144.531	-98.687	0.217	-0.055
-143.516	-158.084	0.246	0.014
-142.502	737.471	-0.118	0.313
-141.487	-55.043	-0.179	0.080
-140.472	-14.564	-0.049	0.031
-139.458	800.000	0.050	0.170
-138.443	-200.000	0.026	-0.256
-137.429	184.085	0.085	0.124
-136.414	-75.651	0.148	0.052
-135.399	-175.963	-0.196	-0.005
-134.385	800.000	0.077	-0.211
-133.370	-120.241	0.193	-0.033
-132.356	4.009	-0.070	-0.051
-131.341	59.076	0.262	0.255
-130.326	800.000	-0.078	0.234
-129.312	316.277	-0.090	-0.169
-128.297	-144.274	-0.253	-0.023
-127.283	318.012	-0.076	-0.143
-126.268	162.084	0.262	-0.363
-125.253	96.018	0.239	0.270
-124.239	800.000	-0.039	0.107
-123.224	-117.415	-0.320	0.057
-122.210	-99.446	-0.163	0.041
-121.195	-46.373	0.346	-0.168
