DTS Sentinel unit serial number:	SN413079Multiplexer serial number:	ORYXHardware model number:	OX4-SRSoftware version number:	ORYX F/W v4.00 Oryx Data Collector v3.7.2.0data status	okinstallation	princeton_trtdifferential loss correction	single-endedforward channel	channel 3reverse channel	N/Adate	2019/09/17time	05:12:35forward acquisition time	60.00reverse acquisition time	0.00gamma	496.2192k internal	0.2324k external	0.2324temperature offset calibration	0.9946default loss term (dB/km)	0.3790temperature slope calibration	1.0000multiplexer offset coefficient	1.0000multiplexer slope coefficient	1.0000fibre end	0.00T internal ref (°C)	29.39T ext. ref 1 (°C)	0.13T ext. ref 2 (°C)	23.84length (m)	temperature (°C)	Stokes	anti-Stokes-747.200	-114.861	-0.084	-0.016
-746.185	-200.000	-0.024	0.273
-745.171	-200.000	0.020	-0.369
-744.156	50.306	-0.030	0.029
-743.142	-200.000	-0.043	0.315
-742.127	632.945	-0.024	-0.060
-741.112	343.161	-0.020	-0.040
-740.098	267.748	-0.053	0.093
-739.083	80.366	-0.168	0.183
-738.069	66.213	-0.160	0.164
-737.054	244.893	0.051	-0.086
-736.039	-115.575	-0.185	-0.035
-735.025	152.535	0.298	0.410
-734.010	58.191	-0.299	0.295
-732.996	-80.355	-0.115	-0.039
-731.981	-31.502	0.175	-0.099
-730.966	-200.000	-0.029	-0.156
-729.952	-81.984	-0.271	-0.089
-728.937	62.495	0.039	0.040
-727.923	-200.000	0.009	0.131
-726.908	800.000	-0.057	-0.169
-725.894	204.623	-0.100	0.157
-724.879	206.028	0.104	-0.163
-723.864	-71.312	0.254	0.096
-722.850	98.117	-0.134	-0.156
-721.835	-89.309	-0.361	-0.107
-720.821	-54.695	-0.256	-0.117
-719.806	71.108	-0.215	-0.225
-718.791	-103.046	-0.183	-0.044
-717.777	-112.937	0.305	-0.061
-716.762	-110.018	-0.310	-0.065
-715.748	24.165	-0.253	-0.211
-714.733	181.829	-0.140	-0.207
-713.718	-200.000	0.006	-0.037
-712.704	-23.523	-0.364	-0.220
-711.689	-200.000	-0.011	-0.244
-710.675	-13.147	-0.247	0.162
-709.660	-127.053	0.385	-0.057
-708.645	-99.790	0.137	-0.035
-707.631	-195.745	0.146	-0.001
-706.616	227.850	0.117	-0.191
-705.602	-19.943	-0.303	-0.188
-704.587	800.000	0.082	-0.258
-703.572	-62.911	0.234	-0.098
-702.558	158.357	0.125	-0.174
-701.543	33.356	-0.132	0.115
-700.529	181.709	0.058	-0.086
-699.514	-8.028	0.236	-0.160
-698.499	-200.000	-0.018	-0.230
-697.485	-200.000	0.001	-0.040
-696.470	352.577	-0.070	-0.140
-695.456	162.178	0.052	-0.073
-694.441	800.000	-0.075	-0.285
-693.426	261.671	0.092	-0.160
-692.412	-20.096	-0.301	0.187
-691.397	165.693	-0.050	-0.071
-690.383	-200.000	0.062	0.323
-689.368	330.571	0.056	0.110
-688.354	-78.226	-0.547	0.189
-687.339	45.192	-0.120	-0.112
-686.324	-200.000	-0.047	-0.259
-685.310	-20.047	-0.100	0.062
-684.295	-133.142	0.152	-0.019
-683.281	474.712	-0.050	0.114
-682.266	30.174	0.183	0.158
-681.251	66.819	0.018	0.018
-680.237	-179.069	0.459	-0.010
-679.222	-105.522	-0.231	-0.053
-678.208	-200.000	0.000	0.321
-677.193	-137.174	-0.252	0.029
-676.178	-134.156	-0.406	-0.050
-675.164	-200.000	0.004	-0.051
-674.149	-71.712	-0.360	-0.135
-673.135	-47.872	-0.194	-0.094
-672.120	-200.000	0.006	-0.053
-671.105	-200.000	-0.196	-0.001
-670.091	-200.000	0.003	-0.234
-669.076	103.938	-0.259	-0.307
-668.062	800.000	-0.043	0.133
-667.047	238.023	0.162	-0.270
-666.032	36.639	0.203	-0.180
-665.018	82.023	0.137	-0.149
-664.003	800.000	-0.099	0.352
-662.989	385.461	-0.094	-0.195
-661.974	118.838	-0.093	0.115
-660.959	6.669	0.044	-0.033
-659.945	-200.000	-0.007	-0.040
-658.930	-7.885	0.344	-0.234
-657.916	111.274	0.337	-0.409
-656.901	-84.372	0.043	0.014
-655.886	73.982	0.088	-0.093
-654.872	-200.000	0.021	-0.096
-653.857	509.029	0.236	-0.551
-652.843	-75.522	-0.029	0.010
-651.828	172.989	0.076	-0.110
-650.814	-200.000	-0.013	0.100
-649.799	398.475	0.071	-0.149
-648.784	179.108	0.117	0.172
-647.770	55.465	0.161	0.157
-646.755	29.240	-0.053	0.045
-645.741	-193.832	0.069	-0.001
-644.726	-29.914	0.395	0.226
-643.711	-80.703	-0.133	-0.045
-642.697	-200.000	0.017	-0.427
-641.682	800.000	0.058	0.191
-640.668	203.044	0.057	0.088
-639.653	-45.016	-0.157	-0.079
-638.638	800.000	-0.177	0.508
-637.624	-11.416	-0.354	0.234
-636.609	800.000	-0.024	-0.091
-635.595	-61.127	0.272	-0.115
-634.580	-87.482	-0.215	0.065
-633.565	-134.550	0.144	-0.018
-632.551	-200.000	-0.008	-0.195
-631.536	-200.000	-0.004	-0.066
-630.522	299.791	-0.207	-0.383
-629.507	324.801	0.047	-0.089
-628.492	-139.742	0.118	0.013
-627.478	-200.000	-0.017	-0.098
-626.463	800.000	0.040	0.142
-625.449	4.513	-0.235	-0.173
-624.434	-123.400	0.167	0.027
-623.419	-16.550	0.359	0.229
-622.405	-127.849	-0.169	0.024
-621.390	800.000	0.090	0.279
-620.376	174.871	0.025	0.037
-619.361	472.313	-0.105	-0.238
-618.346	163.764	-0.210	0.297
-617.332	146.863	0.145	0.196
-616.317	-19.047	-0.156	0.098
-615.303	-3.900	-0.149	0.104
-614.288	-143.321	0.317	-0.031
-613.273	31.446	0.061	-0.052
-612.259	56.401	-0.015	0.014
-611.244	-14.929	0.222	0.143
-610.230	-139.989	-0.101	0.011
-609.215	-200.000	0.002	-0.042
-608.201	800.000	0.135	-0.488
-607.186	284.001	0.126	0.228
-606.171	639.615	0.114	0.291
-605.157	537.979	0.094	-0.224
-604.142	-200.000	0.000	-0.156
-603.128	479.834	-0.068	-0.155
-602.113	-5.846	0.115	0.079
-601.098	-139.125	0.210	-0.023
-600.084	-13.552	0.257	0.167
-599.069	322.583	0.121	0.232
-598.055	800.000	0.107	-0.297
-597.040	157.493	0.178	-0.248
-596.025	-174.474	-0.339	0.010
-595.011	-105.582	0.149	-0.034
-593.996	-37.018	-0.167	-0.090
-592.982	123.472	0.157	0.197
-591.967	-112.416	0.304	0.061
-590.952	230.813	0.102	0.167
-589.938	-20.712	0.105	0.065
-588.923	-200.000	-0.034	-0.261
-587.909	-200.000	-0.027	0.282
-586.894	786.977	0.061	0.167
-585.879	-200.000	0.019	-0.152
-584.865	733.577	0.107	-0.288
-583.850	664.464	0.079	-0.205
-582.836	17.328	-0.224	0.179
-581.821	-74.792	0.366	-0.132
-580.806	241.413	0.151	-0.253
-579.792	123.613	-0.119	-0.150
-578.777	187.894	-0.152	-0.227
-577.763	-143.105	-0.237	0.023
-576.748	-93.235	0.389	0.108
-575.733	-147.794	0.274	0.023
-574.719	-29.119	-0.181	0.104
-573.704	-29.848	-0.177	-0.101
-572.690	-200.000	-0.030	0.320
-571.675	-32.463	0.173	-0.097
-570.661	5.433	-0.108	-0.080
-569.646	-200.000	0.020	0.257
-568.631	-200.000	-0.022	0.225
-567.617	-200.000	-0.042	-0.392
-566.602	-200.000	0.009	-0.061
-565.588	-186.400	0.156	-0.002
-564.573	15.794	0.046	0.036
-563.558	-62.213	-0.305	-0.127
-562.544	502.795	0.102	-0.237
-561.529	224.126	-0.229	0.370
-560.515	419.688	0.150	0.321
-559.500	-94.399	0.227	-0.062
-558.485	800.000	0.084	-0.279
-557.471	-142.067	-0.073	-0.007
-556.456	-85.011	0.323	0.102
-555.442	-200.000	0.052	0.291
-554.427	51.318	0.179	0.171
-553.412	-200.000	-0.023	-0.131
-552.398	-25.191	-0.078	-0.047
-551.383	216.681	0.091	0.145
-550.369	787.941	0.028	-0.077
-549.354	132.706	0.246	-0.317
-548.339	-89.623	-0.391	0.115
-547.325	109.990	-0.280	0.337
-546.310	800.000	-0.029	0.091
-545.296	-68.729	-0.245	0.095
-544.281	-200.000	0.003	0.133
-543.266	-200.000	0.019	-0.658
-542.252	130.007	-0.226	-0.289
-541.237	98.024	-0.245	0.282
-540.223	800.000	0.117	-0.416
-539.208	-200.000	0.005	-0.071
-538.193	-161.009	0.282	-0.015
-537.179	27.076	-0.133	0.112
-536.164	-135.107	0.147	0.018
-535.150	281.070	0.082	0.147
-534.135	-200.000	0.029	0.189
-533.121	475.322	0.063	0.143
-532.106	-122.283	-0.298	-0.049
-531.091	51.541	-0.330	-0.314
-530.077	596.696	-0.029	0.071
-529.062	-39.002	-0.335	0.177
-528.048	-133.773	-0.036	-0.004
-527.033	-200.000	-0.080	-0.385
-526.018	132.177	-0.205	-0.264
-525.004	-62.278	0.317	0.132
-523.989	335.413	-0.087	0.169
-522.975	800.000	-0.131	0.364
-521.960	800.000	0.121	-0.345
-520.945	686.326	0.063	-0.165
-519.931	-73.817	0.307	-0.112
-518.916	113.825	0.067	-0.082
-517.902	-161.559	-0.101	-0.005
-516.887	-200.000	0.030	0.139
-515.872	-200.000	0.011	-0.253
-514.858	606.182	0.157	0.391
-513.843	800.000	-0.068	0.236
-512.829	119.147	-0.164	-0.203
-511.814	800.000	-0.065	-0.189
-510.799	-69.569	-0.295	0.113
-509.785	276.212	0.077	0.137
-508.770	-54.388	0.347	0.157
-507.756	310.836	-0.122	0.229
-506.741	-85.284	-0.110	0.034
-505.726	-38.654	0.177	-0.093
-504.712	-200.000	0.083	0.386
-503.697	-37.766	0.060	0.032
-502.683	-200.000	0.019	0.130
-501.668	-74.211	0.084	0.030
-500.653	-200.000	-0.006	0.070
-499.639	191.331	0.088	0.133
-498.624	-114.361	-0.106	0.020
-497.610	800.000	-0.028	0.092
-496.595	65.976	0.254	0.258
-495.581	-157.893	-0.211	0.012
-494.566	800.000	-0.109	-0.338
-493.551	-153.945	0.374	0.026
-492.537	-200.000	-0.008	-0.366
-491.522	0.672	-0.128	0.091
-490.508	-200.000	0.027	0.215
-489.493	435.183	0.144	-0.314
-488.478	-23.639	0.256	-0.154
-487.464	-62.946	0.422	-0.174
-486.449	372.637	0.157	-0.319
-485.435	93.854	-0.041	0.047
-484.420	-200.000	-0.011	-0.115
-483.405	9.482	0.071	0.053
-482.391	-99.344	0.105	0.026
-481.376	-200.000	-0.048	0.241
-480.362	538.776	-0.164	-0.390
-479.347	77.560	-0.121	-0.129
-478.332	-33.956	0.103	-0.057
-477.318	-200.000	-0.015	-0.128
-476.303	-59.933	-0.334	-0.143
-475.289	-200.000	0.054	0.282
-474.274	349.786	0.143	0.283
-473.259	-60.100	0.217	-0.093
-472.245	-42.360	0.220	0.112
-471.230	-200.000	-0.002	0.057
-470.216	-111.617	-0.098	0.020
-469.201	-200.000	0.005	0.025
-468.186	186.036	0.065	-0.096
-467.172	69.375	-0.145	0.149
-466.157	126.229	-0.079	-0.100
-465.143	81.438	-0.280	0.302
-464.128	-120.978	0.419	-0.070
-463.113	-135.152	-0.207	-0.025
-462.099	162.383	0.163	-0.228
-461.084	-200.000	0.002	-0.486
-460.070	17.611	-0.192	-0.152
-459.055	-200.000	0.005	0.228
-458.040	-118.523	-0.266	-0.047
-457.026	60.695	-0.124	0.123
-456.011	-84.496	0.289	-0.091
-454.997	-200.000	-0.036	-0.175
-453.982	63.373	0.208	-0.208
-452.968	-130.194	-0.267	0.036
-451.953	97.144	-0.066	0.076
-450.938	-200.000	-0.001	-0.063
-449.924	-200.000	0.013	0.238
-448.909	800.000	-0.080	0.340
-447.895	294.301	0.089	-0.162
-446.880	-93.953	0.223	-0.061
-445.865	532.271	0.060	0.143
-444.851	-126.552	-0.203	0.030
-443.836	112.097	0.051	-0.062
-442.822	187.437	-0.025	0.038
-441.807	-200.000	-0.020	-0.097
-440.792	-200.000	0.011	0.055
-439.778	755.008	0.085	-0.229
-438.763	79.477	0.081	0.086
-437.749	-200.000	0.045	0.372
-436.734	457.994	-0.088	-0.195
-435.719	228.753	-0.084	0.137
-434.705	59.550	-0.144	-0.141
-433.690	389.335	0.083	0.172
-432.676	-200.000	-0.002	0.090
-431.661	-38.418	-0.113	-0.060
-430.646	-200.000	-0.011	-0.220
-429.632	-35.105	0.125	0.068
-428.617	-63.392	0.129	0.053
-427.603	-27.625	-0.249	0.144
-426.588	-149.272	0.156	-0.012
-425.573	594.672	-0.057	0.141
-424.559	-19.189	0.412	0.255
-423.544	-96.991	-0.413	-0.108
-422.530	-200.000	0.009	0.148
-421.515	-200.000	-0.007	-0.280
-420.500	163.462	0.158	-0.221
-419.486	-114.090	0.113	-0.022
-418.471	800.000	-0.120	0.386
-417.457	-164.219	0.255	0.012
-416.442	-103.685	-0.361	0.084
-415.428	81.099	0.042	-0.045
-414.413	-109.154	0.179	0.038
-413.398	19.238	-0.238	0.191
-412.384	57.225	-0.305	0.296
-411.369	-133.364	0.017	-0.002
-410.355	527.070	-0.111	-0.261
-409.340	-200.000	-0.038	-0.179
-408.325	118.736	0.193	-0.237
-407.311	-163.107	-0.565	-0.027
-406.296	-72.006	0.224	-0.083
-405.282	39.211	-0.107	-0.095
-404.267	28.845	-0.183	0.155
-403.252	-199.937	-0.154	-0.001
-402.238	131.783	0.117	0.150
-401.223	-47.079	0.093	-0.045
-400.209	-24.152	-0.234	0.139
-399.194	-20.129	0.101	-0.062
-398.179	-52.038	-0.115	0.053
-397.165	634.607	0.101	-0.254
-396.150	17.491	0.100	-0.079
-395.136	-39.303	-0.057	0.030
-394.121	800.000	-0.043	-0.172
-393.106	-173.756	-0.146	-0.004
-392.092	-200.000	-0.019	-0.165
-391.077	800.000	-0.093	-0.310
-390.063	-144.695	-0.070	0.006
-389.048	-59.461	0.117	0.050
-388.033	-200.000	-0.028	0.322
-387.019	258.327	0.122	0.209
-386.004	-167.030	-0.241	0.010
-384.990	5.187	0.249	0.182
-383.975	12.931	-0.323	0.248
-382.960	800.000	-0.096	0.401
-381.946	-121.274	-0.286	-0.048
-380.931	142.741	0.217	-0.287
-379.917	-99.227	-0.261	0.066
-378.902	-19.180	-0.121	-0.075
-377.888	800.000	-0.011	-0.032
-376.873	109.291	0.225	0.268
-375.858	-64.042	-0.312	-0.127
-374.844	-200.000	0.063	0.315
-373.829	42.542	-0.118	-0.106
-372.815	-12.112	0.182	-0.119
-371.800	-111.767	0.250	-0.050
-370.785	-200.000	0.035	-0.255
-369.771	130.464	0.190	-0.242
-368.756	800.000	-0.017	-0.052
-367.742	372.911	-0.095	0.192
-366.727	800.000	-0.046	-0.175
-365.712	724.269	0.013	0.036
-364.698	-200.000	-0.046	-0.356
-363.683	-200.000	-0.023	-0.171
-362.669	-36.941	0.223	0.119
-361.654	45.383	-0.150	-0.137
-360.639	800.000	-0.016	-0.063
-359.625	91.816	0.334	-0.373
-358.610	53.450	-0.163	-0.155
-357.596	-21.546	0.142	-0.086
-356.581	-200.000	0.036	-0.282
-355.566	90.625	0.289	0.322
-354.552	-200.000	0.054	0.369
-353.537	-38.720	-0.292	-0.153
-352.523	128.422	-0.101	-0.128
-351.508	118.476	-0.061	-0.075
-350.493	-163.748	-0.220	-0.010
-349.479	203.027	0.099	0.152
-348.464	677.250	-0.032	-0.083
-347.450	324.806	-0.125	-0.238
-346.435	81.253	-0.084	0.090
-345.420	101.017	0.083	0.096
-344.406	74.623	-0.247	0.259
-343.391	-65.801	0.108	-0.043
-342.377	-49.081	-0.241	-0.115
-341.362	2.444	-0.280	-0.201
-340.348	-62.695	0.237	0.098
-339.333	-157.981	0.106	-0.006
-338.318	81.967	-0.146	-0.157
-337.304	-200.000	0.012	0.133
-336.289	-69.538	0.090	-0.034
-335.275	-60.228	0.219	-0.093
-334.260	-41.894	0.354	0.180
-333.245	800.000	0.058	0.161
-332.231	-86.855	-0.217	-0.066
-331.216	-143.488	0.188	0.018
-330.202	101.872	0.225	0.261
-329.187	351.564	-0.093	0.183
-328.172	-200.000	0.044	0.392
-327.158	-124.685	0.365	0.056
-326.143	-200.000	0.001	0.087
-325.129	-200.000	0.027	0.306
-324.114	33.951	0.222	0.192
-323.099	-70.288	0.160	-0.060
-322.085	-15.904	-0.303	0.192
-321.070	-15.403	-0.036	-0.023
-320.056	-146.311	0.167	0.015
-319.041	800.000	-0.013	0.053
-318.026	-200.000	0.022	-0.430
-317.012	-150.349	-0.231	-0.018
-315.997	800.000	-0.106	-0.313
-314.983	86.392	-0.250	-0.274
-313.968	-200.000	-0.056	0.475
-312.953	242.862	-0.190	0.316
-311.939	-87.886	0.076	0.023
-310.924	-55.362	-0.207	-0.092
-309.910	137.812	0.282	0.366
-308.895	-110.398	-0.271	0.056
-307.880	800.000	0.089	-0.265
-306.866	-158.866	-0.205	0.012
-305.851	800.000	-0.103	0.305
-304.837	-95.102	0.118	-0.032
-303.822	-170.694	-0.442	-0.015
-302.807	800.000	0.086	-0.336
-301.793	-127.239	-0.241	-0.035
-300.778	45.655	0.146	0.134
-299.764	155.915	0.234	0.320
-298.749	-177.959	-0.281	-0.007
-297.735	77.675	0.292	0.308
-296.720	800.000	-0.048	-0.138
-295.705	-46.006	-0.209	-0.102
-294.691	800.000	-0.011	-0.040
-293.676	800.000	0.056	-0.173
-292.662	-200.000	-0.009	-0.192
-291.647	196.544	0.218	-0.329
-290.632	800.000	0.095	0.381
-289.618	16.604	-0.203	0.159
-288.603	-200.000	0.037	0.172
-287.589	800.000	0.058	-0.199
-286.574	-84.644	-0.316	0.099
-285.559	-95.988	0.297	-0.078
-284.545	800.000	-0.050	-0.165
-283.530	352.317	0.223	0.439
-282.516	800.000	0.082	-0.232
-281.501	-200.000	-0.055	-0.256
-280.486	-200.000	0.067	0.362
-279.472	740.613	0.125	-0.332
-278.457	96.047	0.096	0.109
-277.443	-200.000	-0.032	0.200
-276.428	-33.225	0.324	0.178
-275.413	-123.085	0.146	0.023
-274.399	-73.035	-0.105	-0.038
-273.384	4.444	-0.156	-0.114
-272.370	-200.000	-0.003	0.161
-271.355	78.032	-0.200	0.211
-270.340	-96.177	-0.229	0.060
-269.326	205.478	-0.104	-0.161
-268.311	40.997	0.128	-0.115
-267.297	-200.000	0.045	0.321
-266.282	-200.000	0.007	-0.045
-265.267	-0.005	0.372	-0.263
-264.253	-130.498	-0.165	-0.022
-263.238	-128.683	-0.274	-0.038
-262.224	521.248	0.081	-0.187
-261.209	75.420	0.082	0.086
-260.195	40.177	-0.396	0.353
-259.180	-63.876	-0.056	0.023
-258.165	-17.673	-0.256	0.159
-257.151	800.000	0.084	0.244
-256.136	151.923	-0.240	-0.324
-255.122	-200.000	0.009	0.260
-254.107	-200.000	0.030	0.140
-253.092	800.000	0.084	0.283
-252.078	-51.877	-0.293	-0.135
-251.063	106.604	-0.247	-0.290
-250.049	-200.000	0.063	0.341
-249.034	-162.827	-0.153	0.007
-248.019	5.990	0.106	0.077
-247.005	309.389	-0.044	-0.081
-245.990	103.263	-0.019	-0.022
-244.976	139.793	0.086	0.113
-243.961	4.160	0.051	0.037
-242.946	-200.000	-0.029	-0.227
-241.932	-200.000	-0.018	-0.659
-240.917	159.756	0.131	0.180
-239.903	-18.051	-0.139	0.086
-238.888	-38.425	-0.046	0.024
-237.873	166.340	0.098	-0.137
-236.859	122.040	-0.122	-0.151
-235.844	-99.807	-0.163	-0.040
-234.830	-20.644	0.249	0.152
-233.815	800.000	0.023	0.090
-232.800	105.984	0.176	-0.206
-231.786	148.325	0.248	-0.332
-230.771	96.367	0.275	-0.311
-229.757	-200.000	0.029	-0.186
-228.742	15.296	-0.081	-0.063
-227.727	-124.596	-0.155	-0.024
-226.713	-42.779	-0.183	-0.092
-225.698	-200.000	-0.059	0.312
-224.684	-200.000	-0.003	0.217
-223.669	-184.368	0.110	0.002
-222.655	355.929	-0.046	0.090
-221.640	83.619	0.225	0.243
-220.625	765.911	-0.070	0.187
-219.611	-141.434	-0.027	-0.003
-218.596	-57.773	-0.207	-0.090
-217.582	-200.000	0.069	-0.378
-216.567	-200.000	0.034	-0.219
-215.552	225.081	-0.105	0.168
-214.538	50.835	0.030	-0.028
-213.523	800.000	-0.056	0.219
-212.509	-173.580	-0.214	0.006
-211.494	-44.766	-0.200	-0.098
-210.479	207.366	0.108	-0.167
-209.465	-73.509	0.184	-0.066
-208.450	-14.246	-0.040	-0.026
-207.436	-64.032	-0.229	-0.092
-206.421	-200.000	-0.015	-0.072
-205.406	800.000	0.038	-0.143
-204.392	552.439	-0.104	-0.247
-203.377	265.220	0.272	-0.468
-202.363	543.722	-0.147	-0.348
-201.348	361.486	0.213	-0.422
-200.333	31.658	-0.220	-0.187
-199.319	87.269	-0.067	0.073
-198.304	298.031	-0.236	0.429
-197.290	-4.761	-0.110	0.075
-196.275	566.338	-0.106	0.255
-195.260	800.000	-0.099	0.363
-194.246	27.499	0.209	0.173
-193.231	310.493	0.133	0.246
-192.217	604.497	-0.128	-0.316
-191.202	426.952	0.118	0.252
-190.187	-134.594	0.356	-0.043
-189.173	58.217	0.093	0.090
-188.158	140.257	0.293	-0.381
-187.144	-110.718	0.145	0.030
-186.129	-102.722	0.133	0.031
-185.114	-85.201	0.035	-0.011
-184.100	25.847	-0.243	0.200
-183.085	800.000	-0.006	-0.021
-182.071	-200.000	-0.003	0.054
-181.056	81.281	0.060	0.064
-180.042	238.093	-0.157	0.257
-179.027	-75.637	-0.223	-0.078
-178.012	-83.504	-0.213	0.067
-176.998	800.000	0.080	-0.248
-175.983	-200.000	0.002	-0.215
-174.969	-200.000	0.110	-0.492
-173.954	-64.948	-0.356	0.142
-172.939	26.153	0.089	-0.074
-171.925	783.729	0.066	-0.180
-170.910	-114.616	-0.124	0.023
-169.896	-200.000	0.021	0.177
-168.881	-140.314	-0.136	-0.014
-167.866	-200.000	0.014	-0.127
-166.852	-55.155	-0.286	0.127
-165.837	354.828	-0.063	-0.125
-164.823	800.000	-0.003	0.007
-163.808	-54.097	0.077	0.035
-162.793	-200.000	0.024	0.232
-161.779	377.195	0.067	0.136
-160.764	800.000	-0.053	0.213
-159.750	-153.193	-0.050	-0.003
-158.735	-200.000	0.023	-0.268
-157.720	-200.000	-0.014	-0.074
-156.706	-97.253	0.067	0.017
-155.691	-200.000	0.021	0.379
-154.677	800.000	0.068	-0.227
-153.662	4.593	-0.314	-0.228
-152.647	-153.097	0.296	0.020
-151.633	-88.811	0.365	0.107
-150.618	-25.585	-0.416	-0.242
-149.604	165.861	-0.109	-0.153
-148.589	-158.990	0.323	-0.018
-147.574	4.758	-0.233	0.169
-146.560	105.694	0.139	0.163
-145.545	491.589	0.078	-0.177
-144.531	-68.076	-0.184	-0.071
-143.516	-20.556	0.464	-0.281
-142.502	83.434	-0.108	-0.116
-141.487	22.697	-0.091	0.074
-140.472	-70.694	-0.062	-0.023
-139.458	60.170	0.104	-0.101
-138.443	-95.502	0.106	0.028
-137.429	-147.383	-0.241	0.020
-136.414	-116.771	0.217	-0.039
-135.399	-139.642	0.227	0.024
-134.385	28.158	0.159	0.132
-133.370	283.243	-0.056	-0.098
-132.356	-6.209	-0.360	0.242
-131.341	12.302	-0.282	0.214
-130.326	135.892	0.105	-0.134
-129.312	-73.849	0.191	0.068
-128.297	-86.874	0.240	0.072
-127.283	120.008	0.223	-0.272
-126.268	-91.005	0.029	-0.008
-125.253	-200.000	0.048	0.298
-124.239	14.215	0.247	-0.190
-123.224	120.424	-0.058	0.071
-122.210	30.235	0.236	-0.199
