DTS Sentinel unit serial number:	SN413079Multiplexer serial number:	ORYXHardware model number:	OX4-SRSoftware version number:	ORYX F/W v4.00 Oryx Data Collector v3.7.2.0data status	okinstallation	princeton_trtdifferential loss correction	single-endedforward channel	channel 3reverse channel	N/Adate	2019/09/14time	15:24:35forward acquisition time	60.00reverse acquisition time	0.00gamma	496.2192k internal	0.2293k external	0.2293temperature offset calibration	1.0058default loss term (dB/km)	0.3790temperature slope calibration	1.0000multiplexer offset coefficient	1.0000multiplexer slope coefficient	1.0000fibre end	0.00T internal ref (°C)	39.00T ext. ref 1 (°C)	5.12T ext. ref 2 (°C)	33.54length (m)	temperature (°C)	Stokes	anti-Stokes-747.200	-200.000	-0.001	0.278
-746.185	-148.205	0.244	0.021
-745.171	57.931	0.251	0.252
-744.156	98.966	0.233	0.276
-743.142	-32.294	0.086	-0.049
-742.127	-73.188	-0.160	-0.060
-741.112	-10.899	0.147	-0.099
-740.098	440.647	0.109	0.245
-739.083	-2.309	-0.092	0.066
-738.069	800.000	0.084	0.283
-737.054	207.992	0.203	0.324
-736.039	-34.661	-0.276	-0.154
-735.025	552.183	-0.079	-0.195
-734.010	-88.309	-0.448	0.137
-732.996	183.355	0.176	0.266
-731.981	-200.000	-0.031	-0.321
-730.966	27.668	0.189	-0.163
-729.952	-23.952	-0.264	0.161
-728.937	-200.000	0.044	0.460
-727.923	231.997	-0.317	0.531
-726.908	800.000	0.033	0.132
-725.894	49.709	0.059	-0.057
-724.879	-149.201	0.108	-0.009
-723.864	-52.164	-0.312	-0.148
-722.850	771.610	-0.096	-0.268
-721.835	-200.000	-0.023	-0.156
-720.821	-200.000	0.010	-0.260
-719.806	-137.828	0.179	-0.021
-718.791	800.000	0.057	-0.236
-717.777	-200.000	0.007	-0.374
-716.762	365.042	0.097	-0.199
-715.748	-200.000	0.017	-0.338
-714.733	-200.000	-0.052	-0.331
-713.718	-200.000	-0.018	-0.104
-712.704	-72.505	0.155	0.059
-711.689	276.392	-0.117	-0.212
-710.675	800.000	0.054	-0.153
-709.660	-200.000	0.019	0.165
-708.645	406.206	0.061	0.133
-707.631	-83.386	0.216	0.071
-706.616	-200.000	-0.008	-0.465
-705.602	-200.000	-0.053	0.263
-704.587	-144.140	0.088	0.008
-703.572	800.000	-0.110	0.370
-702.558	800.000	0.065	-0.206
-701.543	200.317	-0.206	-0.323
-700.529	-200.000	0.024	0.194
-699.514	-64.760	0.326	-0.135
-698.499	43.497	-0.199	0.185
-697.485	376.486	-0.127	-0.266
-696.470	-200.000	-0.029	0.182
-695.456	-120.736	0.313	-0.054
-694.441	-133.259	0.503	-0.065
-693.426	40.578	-0.312	-0.287
-692.412	40.441	0.301	-0.276
-691.397	-61.240	-0.079	-0.034
-690.383	66.014	-0.072	-0.075
-689.368	103.522	0.273	-0.327
-688.354	145.312	0.124	-0.169
-687.339	-55.842	0.267	-0.122
-686.324	-68.897	-0.088	0.035
-685.310	-200.000	0.023	-0.172
-684.295	-35.775	-0.133	-0.074
-683.281	276.244	-0.070	0.127
-682.266	3.698	0.114	0.085
-681.251	-112.155	0.128	-0.026
-680.237	190.498	-0.139	0.213
-679.222	253.458	-0.108	-0.187
-678.208	659.944	0.041	0.107
-677.193	192.845	0.219	0.337
-676.178	74.765	0.104	0.111
-675.164	667.278	-0.014	0.037
-674.149	91.934	-0.154	0.177
-673.135	-30.936	-0.302	-0.174
-672.120	-149.144	0.110	0.009
-671.105	800.000	0.020	0.078
-670.091	80.006	-0.039	0.043
-669.076	-103.711	-0.127	0.030
-668.062	0.785	-0.431	-0.315
-667.047	165.428	0.153	-0.221
-666.032	52.908	0.100	0.097
-665.018	-26.150	0.141	-0.085
-664.003	73.210	0.180	-0.192
-662.989	-94.620	0.105	0.029
-661.974	-74.872	-0.238	0.087
-660.959	-200.000	0.000	-0.176
-659.945	-200.000	-0.026	-0.166
-658.930	671.100	0.083	0.218
-657.916	21.357	0.106	-0.088
-656.901	-86.665	-0.233	0.073
-655.886	-155.738	-0.167	0.011
-654.872	-48.731	0.153	-0.075
-653.857	-200.000	0.004	0.062
-652.843	184.886	0.124	-0.188
-651.828	800.000	0.059	-0.262
-650.814	106.723	0.101	-0.122
-649.799	-74.982	-0.072	-0.026
-648.784	-186.327	0.443	0.007
-647.770	-88.785	0.051	0.015
-646.755	-80.879	0.337	-0.114
-645.741	-77.087	-0.364	-0.129
-644.726	-200.000	-0.064	0.333
-643.711	9.481	-0.046	-0.035
-642.697	53.859	-0.159	0.155
-641.682	800.000	-0.051	0.177
-640.668	9.547	0.120	0.092
-639.653	-25.804	-0.125	-0.075
-638.638	-160.924	-0.260	0.014
-637.624	120.711	-0.046	-0.058
-636.609	-148.384	0.181	-0.015
-635.595	-51.937	-0.119	-0.056
-634.580	177.142	-0.078	0.115
-633.565	800.000	0.072	-0.250
-632.551	-28.900	-0.154	0.090
-631.536	800.000	0.132	-0.428
-630.522	86.677	-0.232	0.261
-629.507	474.752	0.088	0.202
-628.492	-114.519	-0.096	-0.019
-627.478	418.459	0.052	-0.112
-626.463	52.787	-0.068	-0.066
-625.449	56.603	-0.059	0.059
-624.434	-0.653	-0.048	0.035
-623.419	51.075	-0.063	0.061
-622.405	-35.967	-0.088	-0.048
-621.390	113.541	0.100	0.123
-620.376	-3.142	0.366	-0.260
-619.361	-162.428	0.122	0.006
-618.346	617.589	-0.064	-0.164
-617.332	-3.299	0.045	-0.032
-616.317	800.000	0.060	0.199
-615.303	103.594	0.122	-0.145
-614.288	318.649	0.157	0.303
-613.273	-64.788	0.117	0.048
-612.259	15.286	0.277	0.222
-611.244	134.129	0.115	-0.152
-610.230	-37.787	0.095	-0.052
-609.215	-92.314	-0.323	-0.093
-608.201	203.074	0.156	0.245
-607.186	-128.732	0.016	0.002
-606.171	-31.689	0.087	-0.050
-605.157	144.561	-0.155	0.210
-604.142	67.848	-0.224	-0.233
-603.128	-104.334	-0.433	0.102
-602.113	800.000	0.098	0.322
-601.098	800.000	-0.101	-0.401
-600.084	-81.921	-0.052	0.017
-599.069	-23.261	-0.032	0.020
-598.055	259.043	-0.066	-0.116
-597.040	-7.418	0.089	0.061
-596.025	17.563	0.070	-0.057
-595.011	237.175	-0.136	-0.229
-593.996	-85.314	-0.305	-0.097
-592.982	800.000	0.053	-0.201
-591.967	-200.000	-0.011	0.063
-590.952	-200.000	-0.005	0.430
-589.938	-47.204	-0.143	0.071
-588.923	-200.000	-0.013	-0.072
-587.909	-153.099	0.345	0.025
-586.894	302.169	-0.040	-0.074
-585.879	-122.795	0.243	0.040
-584.865	28.613	0.249	-0.214
-583.850	85.968	-0.015	0.016
-582.836	-97.681	0.376	0.099
-581.821	194.715	-0.050	-0.077
-580.806	-200.000	-0.017	-0.262
-579.792	800.000	0.063	0.225
-578.777	800.000	0.038	-0.148
-577.763	-5.431	0.151	0.105
-576.748	-46.413	-0.372	-0.186
-575.733	-200.000	0.019	0.255
-574.719	0.854	0.255	0.186
-573.704	236.185	0.013	0.022
-572.690	-200.000	0.021	0.113
-571.675	4.051	0.106	-0.079
-570.661	197.803	-0.039	-0.061
-569.646	800.000	0.035	0.137
-568.631	260.433	-0.083	-0.147
-567.617	800.000	-0.067	-0.293
-566.602	-200.000	-0.007	-0.253
-565.588	62.531	-0.212	0.215
-564.573	-103.681	-0.270	0.064
-563.558	27.337	-0.106	0.090
-562.544	-134.657	0.331	0.041
-561.529	-48.190	0.135	-0.066
-560.515	-126.334	-0.138	-0.021
-559.500	135.020	-0.174	0.230
-558.485	-16.957	-0.283	-0.182
-557.471	327.510	-0.087	-0.169
-556.456	800.000	-0.097	-0.373
-555.442	-134.470	0.300	0.037
-554.427	-24.470	0.499	0.302
-553.412	-200.000	-0.051	-0.236
-552.398	-26.404	-0.159	-0.095
-551.383	-151.548	0.126	0.009
-550.369	-55.266	-0.183	-0.084
-549.354	-102.140	0.174	-0.042
-548.339	-41.861	-0.570	-0.297
-547.325	73.033	0.203	-0.215
-546.310	800.000	0.009	-0.030
-545.296	680.578	-0.087	-0.231
-544.281	176.462	-0.076	-0.112
-543.266	519.510	0.084	0.199
-542.252	562.650	-0.049	0.120
-541.237	-120.633	-0.131	-0.023
-540.223	-200.000	0.018	0.175
-539.208	-200.000	-0.015	0.416
-538.193	-200.000	0.002	0.394
-537.179	800.000	0.076	0.262
-536.164	14.609	0.065	0.052
-535.150	87.531	0.136	0.153
-534.135	-27.071	0.125	-0.074
-533.121	164.441	-0.201	-0.288
-532.106	800.000	0.101	0.308
-531.091	143.895	-0.145	0.196
-530.077	-47.472	-0.100	0.049
-529.062	-200.000	-0.013	0.113
-528.048	-200.000	-0.037	0.285
-527.033	-68.494	-0.157	-0.062
-526.018	800.000	0.033	-0.129
-525.004	-200.000	0.033	-0.253
-523.989	-200.000	-0.023	-0.282
-522.975	-200.000	0.011	0.074
-521.960	-142.250	0.190	-0.019
-520.945	-200.000	-0.099	-0.606
-519.931	-138.428	-0.332	0.037
-518.916	132.753	0.102	-0.133
-517.902	171.875	0.070	-0.102
-516.887	-20.483	-0.202	-0.126
-515.872	54.329	0.046	-0.045
-514.858	-120.317	0.058	0.010
-513.843	43.044	0.163	0.151
-512.829	-26.872	-0.342	-0.203
-511.814	-81.400	0.196	0.065
-510.799	-200.000	0.001	0.125
-509.785	-200.000	-0.052	0.238
-508.770	-96.075	0.032	0.009
-507.756	61.685	0.190	-0.192
-506.741	-117.213	0.129	-0.024
-505.726	-17.125	0.258	0.165
-504.712	-163.815	-0.275	0.013
-503.697	-200.000	0.015	-0.093
-502.683	800.000	-0.060	0.238
-501.668	4.736	0.335	0.250
-500.653	-86.993	-0.112	0.035
-499.639	-200.000	0.039	-0.203
-498.624	-125.691	-0.309	0.047
-497.610	-137.246	0.480	0.055
-496.595	136.790	-0.072	-0.095
-495.581	-200.000	0.009	0.101
-494.566	-197.998	0.145	0.001
-493.551	-200.000	-0.033	0.161
-492.537	-97.728	0.334	-0.088
-491.522	-1.597	-0.197	-0.141
-490.508	-136.789	0.353	-0.041
-489.493	261.669	0.190	0.334
-488.478	-200.000	0.047	-0.260
-487.464	39.134	0.121	-0.109
-486.449	-101.617	0.057	0.014
-485.435	-72.357	-0.089	0.033
-484.420	-200.000	-0.035	0.293
-483.405	53.879	-0.037	-0.036
-482.391	168.434	0.132	0.191
-481.376	800.000	-0.081	-0.326
-480.362	136.627	0.150	-0.198
-479.347	-43.137	-0.130	0.067
-478.332	-139.944	-0.183	-0.020
-477.318	-58.863	0.130	-0.057
-476.303	800.000	-0.060	0.238
-475.289	265.448	-0.213	0.375
-474.274	519.488	0.090	-0.213
-473.259	-38.909	0.188	-0.100
-472.245	324.089	-0.113	0.219
-471.230	-200.000	0.004	-0.251
-470.216	65.340	0.137	0.141
-469.201	800.000	-0.030	0.089
-468.186	-117.105	-0.320	-0.059
-467.172	800.000	0.080	-0.332
-466.157	64.817	-0.263	-0.269
-465.143	-115.650	-0.067	0.013
-464.128	-125.429	0.525	0.081
-463.113	-189.028	-0.238	0.003
-462.099	-200.000	-0.026	0.224
-461.084	800.000	-0.007	-0.023
-460.070	-200.000	-0.009	-0.042
-459.055	-200.000	0.023	-0.270
-458.040	148.802	0.206	0.281
-457.026	83.180	0.194	-0.214
-456.011	-31.680	-0.396	0.225
-454.997	652.645	-0.028	-0.073
-453.982	80.888	0.186	-0.203
-452.968	800.000	0.080	-0.226
-451.953	-111.612	-0.472	0.097
-450.938	-113.760	-0.217	0.043
-449.924	-54.333	-0.253	-0.116
-448.909	-200.000	-0.036	0.191
-447.895	-167.019	-0.108	-0.004
-446.880	-54.862	-0.135	0.061
-445.865	-200.000	0.042	0.203
-444.851	-200.000	0.000	0.047
-443.836	47.468	-0.314	0.296
-442.822	56.258	-0.198	0.194
-441.807	493.873	-0.022	0.050
-440.792	223.162	-0.079	-0.128
-439.778	-200.000	0.036	-0.261
-438.763	-8.616	-0.222	0.150
-437.749	15.875	0.307	0.244
-436.734	25.269	0.262	0.220
-435.719	-200.000	0.069	-0.445
-434.705	-19.502	0.185	0.116
-433.690	-200.000	-0.014	-0.088
-432.676	-200.000	0.012	-0.203
-431.661	-91.885	-0.122	-0.035
-430.646	-109.119	-0.214	0.046
-429.632	-32.068	-0.202	-0.114
-428.617	-198.373	0.294	-0.002
-427.603	40.300	0.103	0.094
-426.588	800.000	-0.067	0.256
-425.573	397.998	0.057	0.120
-424.559	800.000	-0.055	0.203
-423.544	197.046	-0.153	0.235
-422.530	-126.220	0.293	0.044
-421.515	-200.000	-0.000	0.013
-420.500	-75.200	-0.045	0.016
-419.486	481.535	-0.046	0.105
-418.471	-138.329	-0.018	-0.002
-417.457	-126.099	-0.315	0.048
-416.442	114.240	-0.248	-0.305
-415.428	-16.589	0.331	-0.212
-414.413	800.000	0.022	-0.067
-413.398	131.724	0.079	0.103
-412.384	-200.000	-0.036	0.180
-411.369	-65.149	0.262	0.107
-410.355	47.491	-0.230	-0.216
-409.340	18.898	-0.232	0.188
-408.325	-122.216	-0.188	-0.031
-407.311	-143.985	-0.317	0.030
-406.296	800.000	0.047	0.178
-405.282	-200.000	0.012	0.075
-404.267	365.165	-0.090	0.184
-403.252	-109.293	-0.066	0.014
-402.238	800.000	0.049	0.173
-401.223	-103.588	-0.142	-0.034
-400.209	76.696	0.190	-0.203
-399.194	419.069	0.054	-0.118
-398.179	379.335	0.094	-0.195
-397.165	-106.654	-0.224	-0.050
-396.150	-67.154	-0.200	0.079
-395.136	800.000	-0.036	-0.110
-394.121	-148.025	0.180	0.015
-393.106	-133.955	-0.255	0.032
-392.092	464.491	-0.206	-0.464
-391.077	-106.907	0.360	-0.080
-390.063	-200.000	0.047	0.244
-389.048	-200.000	0.002	0.019
-388.033	-136.559	0.288	-0.034
-387.019	-162.481	-0.155	-0.008
-386.004	254.367	-0.102	0.176
-384.990	174.613	0.193	0.282
-383.975	-200.000	-0.005	-0.065
-382.960	47.540	0.172	0.162
-381.946	-30.895	-0.216	0.123
-380.931	-152.323	-0.090	0.007
-379.917	21.106	0.212	0.174
-378.902	-200.000	-0.002	-0.039
-377.888	800.000	0.046	-0.131
-376.873	212.302	0.103	-0.164
-375.858	-200.000	-0.017	0.132
-374.844	68.006	-0.056	-0.057
-373.829	471.545	-0.067	0.152
-372.815	-200.000	0.025	-0.200
-371.800	164.870	0.086	-0.122
-370.785	800.000	0.032	0.140
-369.771	-200.000	0.003	0.103
-368.756	306.747	-0.067	-0.126
-367.742	800.000	-0.060	-0.222
-366.727	-157.810	0.198	0.012
-365.712	578.765	-0.078	-0.192
-364.698	-67.148	-0.242	0.096
-363.683	-85.544	-0.197	-0.062
-362.669	80.030	0.155	-0.168
-361.654	127.238	0.087	-0.111
-360.639	-112.990	0.141	0.028
-359.625	247.514	0.118	0.202
-358.610	-121.637	0.153	-0.026
-357.596	35.984	-0.367	-0.326
-356.581	454.231	0.185	-0.414
-355.566	-177.162	-0.210	0.005
-354.552	125.098	-0.106	0.135
-353.537	-20.766	-0.115	0.071
-352.523	610.911	0.081	-0.205
-351.508	435.260	-0.101	-0.222
-350.493	26.233	0.367	-0.309
-349.479	-130.964	-0.361	0.049
-348.464	20.046	0.207	0.169
-347.450	-200.000	-0.001	0.032
-346.435	116.418	-0.050	0.062
-345.420	-200.000	-0.033	0.152
-344.406	800.000	0.083	0.358
-343.391	-40.519	-0.120	0.063
-342.377	800.000	0.040	-0.159
-341.362	-132.683	0.308	0.040
-340.348	-87.807	-0.104	-0.031
-339.333	-200.000	0.011	-0.112
-338.318	-131.398	0.216	-0.029
-337.304	683.234	-0.064	0.169
-336.289	-53.694	-0.142	-0.065
-335.275	-110.629	0.315	-0.066
-334.260	-8.351	-0.305	0.206
-333.245	-45.403	0.193	0.096
-332.231	800.000	-0.019	0.074
-331.216	-126.400	-0.353	-0.053
-330.202	-85.531	-0.108	-0.034
-329.187	-141.344	0.036	-0.004
-328.172	-61.167	-0.331	0.140
-327.158	-200.000	-0.001	0.036
-326.143	203.477	-0.150	-0.234
-325.129	381.390	-0.030	0.061
-324.114	574.532	-0.135	0.332
-323.099	-18.976	0.243	0.152
-322.085	5.902	-0.126	-0.094
-321.070	214.481	0.055	0.088
-320.056	52.422	0.206	0.197
-319.041	-114.344	0.121	0.024
-318.026	-146.886	-0.259	0.022
-317.012	-197.467	-0.154	0.001
-315.997	167.504	0.097	-0.139
-314.983	-200.000	0.022	0.123
-313.968	-131.892	0.319	-0.042
-312.953	800.000	-0.086	-0.258
-311.939	-1.319	-0.307	0.218
-310.924	104.445	0.062	-0.073
-309.910	148.529	0.135	-0.184
-308.895	348.844	-0.075	-0.149
-307.880	-109.138	-0.187	-0.040
-306.866	-126.856	-0.398	-0.059
-305.851	-18.032	-0.168	-0.106
-304.837	218.045	0.069	-0.111
-303.822	800.000	0.029	0.110
-302.807	-63.706	-0.229	-0.095
-301.793	51.142	-0.107	0.102
-300.778	360.894	-0.167	0.337
-299.764	-121.619	0.231	-0.038
-298.749	-200.000	0.006	0.245
-297.735	117.447	0.087	0.108
-296.720	-89.559	0.136	0.040
-295.705	-127.927	0.202	-0.029
-294.691	-200.000	-0.012	0.225
-293.676	-200.000	-0.020	0.205
-292.662	304.433	-0.033	-0.061
-291.647	-31.619	-0.161	-0.091
-290.632	127.677	0.126	0.161
-289.618	-110.697	0.232	0.048
-288.603	-44.867	0.164	0.082
-287.589	56.350	-0.390	-0.381
-286.574	-148.663	0.192	0.016
-285.559	-200.000	-0.000	-0.121
-284.545	-88.232	-0.242	-0.073
-283.530	800.000	0.061	-0.201
-282.516	800.000	0.097	-0.290
-281.501	453.718	0.137	-0.305
-280.486	212.920	0.178	0.282
-279.472	-200.000	0.026	-0.400
-278.457	-200.000	-0.003	-0.404
-277.443	-200.000	0.015	-0.256
-276.428	800.000	0.099	-0.292
-275.413	24.390	0.019	-0.016
-274.399	-130.630	0.394	0.053
-273.384	218.306	-0.084	-0.135
-272.370	-39.073	-0.285	0.151
-271.355	-169.618	-0.098	-0.004
-270.340	-19.678	0.398	0.248
-269.326	-57.597	0.163	0.072
-268.311	-58.273	-0.015	-0.007
-267.297	-95.561	-0.138	0.037
-266.282	-125.131	0.074	-0.011
-265.267	-142.960	-0.288	0.028
-264.253	-4.482	-0.008	0.005
-263.238	-200.000	0.040	0.212
-262.224	-67.860	-0.238	-0.093
-261.209	800.000	-0.090	-0.371
-260.195	60.032	-0.087	0.086
-259.180	-200.000	0.050	-0.250
-258.165	-128.066	-0.393	-0.056
-257.151	125.855	-0.213	-0.270
-256.136	-159.868	-0.177	0.010
-255.122	51.275	-0.334	0.318
-254.107	510.389	-0.104	0.243
-253.092	-75.698	0.179	0.064
-252.078	-145.384	0.066	-0.006
-251.063	-77.587	0.158	0.055
-250.049	-101.864	0.262	-0.064
-249.034	183.939	0.196	-0.292
-248.019	147.045	-0.174	0.235
-247.005	592.744	0.084	0.209
-245.990	326.546	-0.215	0.412
-244.976	61.015	-0.110	-0.109
-243.961	569.075	0.167	-0.407
-242.946	176.841	-0.159	-0.233
-241.932	110.007	0.094	0.113
-240.917	-17.456	-0.131	0.083
-239.903	276.442	0.055	0.097
-238.888	-136.171	-0.274	0.032
-237.873	45.409	-0.145	-0.134
-236.859	193.075	0.115	-0.175
-235.844	800.000	0.033	0.094
-234.830	-48.281	-0.373	-0.180
-233.815	163.612	0.103	-0.145
-232.800	800.000	-0.064	-0.280
-231.786	273.100	0.040	-0.070
-230.771	610.159	0.074	-0.185
-229.757	800.000	0.081	-0.342
-228.742	-200.000	-0.023	-0.330
-227.727	-200.000	-0.041	0.240
-226.713	42.704	-0.050	0.046
-225.698	45.070	-0.110	-0.102
-224.684	-132.890	0.138	0.018
-223.669	281.751	-0.170	0.306
-222.655	-101.126	0.262	0.064
-221.640	101.391	0.106	-0.124
-220.625	-200.000	-0.048	-0.275
-219.611	11.789	0.261	-0.201
-218.596	800.000	-0.158	0.463
-217.582	-96.002	-0.221	0.059
-216.567	-200.000	0.042	0.339
-215.552	97.300	-0.061	-0.070
-214.538	-74.544	0.134	0.048
-213.523	37.562	-0.179	-0.159
-212.509	-200.000	0.022	0.266
-211.494	40.130	0.201	-0.181
-210.479	-119.629	-0.256	-0.044
-209.465	4.527	0.154	-0.113
-208.450	-200.000	-0.018	-0.223
-207.436	800.000	-0.044	0.133
-206.421	-118.760	-0.141	-0.025
-205.406	152.423	0.058	-0.079
-204.392	-172.428	-0.117	-0.004
-203.377	-94.857	0.284	0.077
-202.363	281.742	-0.070	0.125
-201.348	-200.000	0.020	-0.190
-200.333	515.695	0.118	-0.277
-199.319	-130.573	0.216	0.029
-198.304	42.216	0.261	-0.238
-197.290	19.030	0.443	-0.355
-196.275	-85.123	0.154	0.048
-195.260	-115.769	0.081	-0.015
-194.246	53.313	0.183	0.176
-193.231	-9.317	-0.181	-0.121
-192.217	-32.800	0.033	-0.019
-191.202	7.858	-0.159	0.119
-190.187	800.000	-0.015	0.046
-189.173	-111.059	-0.348	0.071
-188.158	-34.457	-0.176	-0.096
-187.144	-81.967	0.345	0.113
-186.129	-68.872	-0.125	0.048
-185.114	-168.173	0.147	-0.006
-184.100	220.610	0.182	-0.293
-183.085	-22.430	0.020	-0.012
-182.071	-81.078	0.206	0.068
-181.056	62.200	-0.169	0.169
-180.042	239.274	-0.193	0.321
-179.027	-200.000	-0.002	0.299
-178.012	-144.174	0.130	-0.012
-176.998	800.000	0.056	0.190
-175.983	-200.000	-0.024	0.319
-174.969	14.792	0.100	0.078
-173.954	91.814	-0.150	-0.169
-172.939	800.000	0.116	0.399
-171.925	-74.778	0.018	-0.007
-170.910	800.000	-0.101	0.409
-169.896	2.726	0.279	0.202
-168.881	-19.444	0.303	0.188
-167.866	59.126	0.083	-0.082
-166.852	-200.000	0.053	-0.275
-165.837	195.016	-0.017	0.025
-164.823	30.461	-0.117	0.100
-163.808	-33.781	0.198	0.109
-162.793	-178.496	-0.157	-0.004
-161.779	-200.000	0.020	-0.281
-160.764	-71.585	0.177	0.066
-159.750	359.712	0.129	0.257
-158.735	39.008	0.234	-0.209
-157.720	145.956	0.265	0.355
-156.706	290.271	-0.120	0.218
-155.691	-200.000	0.001	-0.052
-154.677	94.210	0.038	0.043
-153.662	-161.113	0.281	0.015
-152.647	-4.255	0.197	0.137
-151.633	-200.000	0.067	-0.316
-150.618	-200.000	-0.017	0.147
-149.604	-31.428	0.148	-0.083
-148.589	-200.000	0.008	-0.124
-147.574	58.203	0.129	-0.126
-146.560	-109.967	-0.260	-0.054
-145.545	-200.000	-0.050	-0.266
-144.531	-200.000	-0.050	0.259
-143.516	800.000	-0.150	0.450
-142.502	-97.672	0.075	-0.020
-141.487	-170.450	0.106	0.004
-140.472	-135.566	0.202	0.024
-139.458	-200.000	-0.009	0.085
-138.443	-150.450	-0.195	-0.015
-137.429	218.415	0.234	0.373
-136.414	-127.627	0.089	0.013
-135.399	-200.000	0.022	-0.209
-134.385	800.000	-0.091	0.282
-133.370	101.614	-0.135	-0.158
-132.356	-81.092	0.126	0.042
-131.341	-200.000	-0.071	-0.397
-130.326	-1.210	0.042	-0.029
-129.312	-200.000	0.041	0.242
-128.297	340.890	-0.086	0.168
-127.283	-20.571	-0.133	-0.082
-126.268	-200.000	-0.011	0.296
-125.253	151.072	0.191	-0.260
-124.239	-200.000	-0.007	-0.375
-123.224	180.150	0.050	-0.073
-122.210	-59.322	0.324	-0.139
