DTS Sentinel unit serial number:	SN413079Multiplexer serial number:	ORYXHardware model number:	OX4-SRSoftware version number:	ORYX F/W v4.00 Oryx Data Collector v3.7.2.0data status	okinstallation	princeton_trtdifferential loss correction	single-endedforward channel	channel 3reverse channel	N/Adate	2019/09/15time	01:52:34forward acquisition time	60.00reverse acquisition time	0.00gamma	496.2192k internal	0.2321k external	0.2321temperature offset calibration	0.9966default loss term (dB/km)	0.3790temperature slope calibration	1.0000multiplexer offset coefficient	1.0000multiplexer slope coefficient	1.0000fibre end	0.00T internal ref (°C)	31.77T ext. ref 1 (°C)	4.51T ext. ref 2 (°C)	26.72length (m)	temperature (°C)	Stokes	anti-Stokes-747.200	168.948	0.088	0.127
-746.185	800.000	-0.107	0.336
-745.171	-20.820	0.102	0.063
-744.156	-200.000	-0.039	0.205
-743.142	67.779	-0.061	-0.063
-742.127	800.000	-0.057	0.236
-741.112	800.000	-0.101	0.337
-740.098	-123.679	0.102	-0.016
-739.083	-133.955	-0.212	0.027
-738.069	72.195	-0.316	0.332
-737.054	-94.748	-0.222	0.061
-736.039	64.933	-0.391	0.399
-735.025	22.417	-0.372	-0.307
-734.010	-156.144	-0.361	-0.023
-732.996	-83.699	0.194	-0.063
-731.981	112.180	-0.108	-0.132
-730.966	-109.551	-0.135	0.029
-729.952	-74.529	-0.373	-0.136
-728.937	-150.217	-0.100	0.008
-727.923	505.956	-0.087	0.203
-726.908	265.292	-0.147	-0.260
-725.894	-41.766	0.170	0.088
-724.879	358.094	-0.076	0.153
-723.864	-61.424	-0.365	-0.155
-722.850	-101.043	-0.481	-0.119
-721.835	-168.784	-0.374	-0.014
-720.821	-87.369	0.127	0.039
-719.806	-113.881	0.217	0.043
-718.791	97.990	-0.227	0.264
-717.777	-68.622	-0.079	-0.031
-716.762	-133.352	-0.282	0.036
-715.748	-33.585	-0.140	-0.078
-714.733	800.000	0.059	0.183
-713.718	-61.922	-0.082	0.035
-712.704	-200.000	0.021	0.173
-711.689	800.000	-0.017	-0.075
-710.675	-37.169	0.176	-0.095
-709.660	224.548	-0.107	-0.175
-708.645	182.557	0.072	-0.107
-707.631	-59.692	0.135	0.059
-706.616	566.396	-0.036	-0.089
-705.602	190.652	0.085	0.128
-704.587	129.889	0.044	0.057
-703.572	277.927	-0.313	-0.563
-702.558	-200.000	0.022	-0.318
-701.543	-23.484	0.262	-0.159
-700.529	-104.585	0.271	0.063
-699.514	-137.508	0.099	0.011
-698.499	-154.024	0.029	0.002
-697.485	304.032	0.092	0.172
-696.470	2.059	-0.128	0.093
-695.456	-54.538	-0.345	-0.158
-694.441	800.000	0.054	-0.232
-693.426	800.000	0.049	-0.144
-692.412	-36.897	-0.166	-0.090
-691.397	130.817	-0.078	-0.100
-690.383	800.000	-0.077	-0.248
-689.368	-166.530	0.342	-0.014
-688.354	148.338	0.083	-0.113
-687.339	-200.000	0.013	0.167
-686.324	-46.364	0.085	0.042
-685.310	-112.898	-0.211	-0.042
-684.295	253.585	0.148	-0.255
-683.281	-96.450	-0.491	0.131
-682.266	-59.073	0.071	-0.031
-681.251	30.782	0.233	-0.201
-680.237	242.647	-0.130	-0.220
-679.222	-29.291	-0.201	-0.116
-678.208	-123.663	0.067	-0.011
-677.193	62.134	0.090	-0.090
-676.178	-200.000	0.044	-0.202
-675.164	161.297	0.137	-0.193
-674.149	236.741	-0.196	-0.328
-673.135	-200.000	-0.003	0.455
-672.120	57.677	0.148	-0.146
-671.105	-200.000	0.007	-0.458
-670.091	-57.890	0.283	-0.125
-669.076	-200.000	-0.007	-0.399
-668.062	-18.350	0.112	-0.071
-667.047	550.041	0.081	-0.197
-666.032	-109.565	-0.244	-0.052
-665.018	167.464	-0.141	-0.202
-664.003	-200.000	-0.006	0.041
-662.989	-126.555	0.240	-0.036
-661.974	-77.434	0.146	-0.051
-660.959	446.379	-0.135	-0.299
-659.945	800.000	-0.047	0.207
-658.930	-200.000	-0.000	0.252
-657.916	800.000	-0.039	0.139
-656.901	104.454	-0.152	0.180
-655.886	-71.083	0.062	-0.023
-654.872	55.651	-0.168	0.164
-653.857	-98.295	0.362	-0.094
-652.843	141.637	0.025	-0.033
-651.828	-132.709	0.149	-0.019
-650.814	-105.448	0.203	0.046
-649.799	-70.392	0.078	0.030
-648.784	-76.144	-0.168	-0.060
-647.770	-35.845	-0.405	0.221
-646.755	-19.776	-0.171	-0.107
-645.741	-200.000	0.037	0.232
-644.726	-45.817	0.265	-0.132
-643.711	-86.376	-0.222	0.069
-642.697	58.558	-0.142	-0.140
-641.682	651.279	0.034	0.087
-640.668	28.963	0.079	0.067
-639.653	-47.244	0.023	-0.011
-638.638	-70.787	0.403	-0.153
-637.624	-96.788	-0.293	-0.077
-636.609	152.327	-0.185	0.255
-635.595	-48.287	0.447	0.217
-634.580	-34.617	-0.125	-0.069
-633.565	60.988	-0.068	0.068
-632.551	-10.552	-0.190	0.127
-631.536	-35.793	-0.038	0.021
-630.522	-200.000	-0.014	-0.119
-629.507	-183.946	-0.135	0.002
-628.492	27.655	-0.071	-0.060
-627.478	67.848	-0.306	-0.315
-626.463	-185.264	-0.256	0.004
-625.449	129.709	0.319	-0.411
-624.434	141.123	-0.164	-0.218
-623.419	137.189	-0.109	-0.143
-622.405	-152.583	-0.272	-0.020
-621.390	653.179	0.101	0.261
-620.376	-54.292	-0.310	0.142
-619.361	-174.770	0.628	0.018
-618.346	164.101	-0.230	-0.327
-617.332	800.000	-0.109	-0.469
-616.317	-71.022	0.113	0.043
-615.303	-19.512	0.114	0.071
-614.288	-6.236	-0.019	-0.013
-613.273	800.000	-0.049	-0.177
-612.259	-115.684	0.187	-0.035
-611.244	-54.985	-0.253	0.115
-610.230	800.000	0.048	0.162
-609.215	-25.937	-0.135	0.080
-608.201	451.779	0.098	-0.218
-607.186	136.560	-0.218	-0.286
-606.171	-100.575	0.337	-0.084
-605.157	-114.669	-0.374	-0.072
-604.142	-200.000	0.003	0.306
-603.128	-146.561	0.211	-0.018
-602.113	734.373	-0.061	0.163
-601.098	-7.413	-0.114	0.078
-600.084	-118.781	0.277	-0.049
-599.069	-200.000	-0.008	-0.053
-598.055	64.100	-0.210	-0.213
-597.040	-37.699	-0.028	-0.015
-596.025	-22.353	-0.206	0.125
-595.011	-95.420	-0.433	0.117
-593.996	-63.474	-0.274	-0.113
-592.982	44.938	0.047	0.043
-591.967	-200.000	-0.014	0.156
-590.952	193.182	-0.121	-0.183
-589.938	800.000	-0.089	0.334
-588.923	41.731	-0.105	0.096
-587.909	503.160	-0.137	-0.318
-586.894	-76.070	0.045	-0.016
-585.879	34.847	-0.297	0.261
-584.865	-81.422	-0.322	-0.107
-583.850	17.001	-0.077	0.062
-582.836	-67.297	-0.125	0.049
-581.821	-98.200	0.320	-0.083
-580.806	-101.125	0.229	0.056
-579.792	325.666	0.050	-0.096
-578.777	59.015	-0.104	-0.102
-577.763	-17.946	-0.092	0.058
-576.748	53.374	-0.133	-0.128
-575.733	94.253	0.213	-0.243
-574.719	369.315	-0.085	-0.173
-573.704	-21.386	-0.130	-0.080
-572.690	203.438	0.035	0.054
-571.675	18.598	-0.144	-0.116
-570.661	-1.130	-0.296	0.210
-569.646	623.129	-0.032	0.081
-568.631	75.489	0.175	0.185
-567.617	-74.331	0.333	0.121
-566.602	-200.000	0.048	-0.242
-565.588	-128.660	-0.444	-0.063
-564.573	326.677	0.088	0.169
-563.558	-44.034	-0.130	0.066
-562.544	206.465	0.082	-0.127
-561.529	269.979	-0.223	0.394
-560.515	-5.223	-0.274	0.189
-559.500	61.991	0.161	-0.162
-558.485	-14.464	-0.292	-0.189
-557.471	-106.519	0.204	0.046
-556.456	118.118	0.233	0.288
-555.442	-15.527	0.125	0.080
-554.427	23.916	0.083	0.069
-553.412	-43.932	0.106	-0.054
-552.398	798.644	-0.063	0.175
-551.383	4.473	0.204	0.150
-550.369	-15.594	0.180	0.115
-549.354	800.000	0.011	0.032
-548.339	-15.025	0.331	-0.213
-547.325	-11.926	0.154	-0.101
-546.310	372.512	-0.190	-0.387
-545.296	-18.465	-0.182	0.114
-544.281	356.119	0.082	-0.163
-543.266	800.000	-0.131	0.403
-542.252	180.810	0.189	0.278
-541.237	616.221	0.108	0.272
-540.223	-114.210	0.376	0.073
-539.208	800.000	0.062	-0.195
-538.193	217.436	-0.183	-0.293
-537.179	-71.343	0.091	0.034
-536.164	-185.191	0.299	0.005
-535.150	86.783	0.211	0.234
-534.135	206.306	0.113	0.176
-533.121	-121.995	-0.255	0.042
-532.106	-200.000	0.019	0.152
-531.091	-120.807	0.451	-0.076
-530.077	-153.958	-0.396	0.027
-529.062	-122.518	0.310	-0.051
-528.048	178.392	-0.053	0.077
-527.033	-200.000	-0.005	-0.152
-526.018	-200.000	0.035	-0.247
-525.004	-25.649	-0.359	-0.212
-523.989	-20.262	-0.178	0.110
-522.975	-200.000	0.021	-0.149
-521.960	-200.000	-0.016	-0.173
-520.945	-111.517	-0.009	0.002
-519.931	3.842	0.146	0.107
-518.916	177.803	-0.120	-0.176
-517.902	-153.638	-0.351	-0.024
-516.887	-33.770	0.269	0.149
-515.872	-89.860	0.066	0.019
-514.858	-118.114	-0.139	-0.025
-513.843	-125.149	-0.116	-0.018
-512.829	-200.000	-0.014	-0.137
-511.814	-22.223	0.227	0.138
-510.799	393.795	0.098	-0.205
-509.785	397.960	-0.032	-0.067
-508.770	-140.534	-0.066	-0.007
-507.756	-200.000	-0.041	-0.183
-506.741	25.783	0.223	0.186
-505.726	25.301	0.232	0.193
-504.712	28.581	-0.141	-0.119
-503.697	-200.000	0.010	-0.194
-502.683	-200.000	0.021	0.107
-501.668	-200.000	0.026	0.127
-500.653	-200.000	0.073	-0.323
-499.639	-137.070	-0.379	0.043
-498.624	118.009	0.232	0.287
-497.610	-200.000	-0.009	-0.258
-496.595	4.994	-0.233	0.172
-495.581	-52.200	-0.135	0.063
-494.566	800.000	0.038	0.111
-493.551	62.664	-0.111	-0.111
-492.537	266.161	-0.146	-0.255
-491.522	-200.000	-0.011	-0.118
-490.508	800.000	-0.064	-0.198
-489.493	-85.882	-0.416	-0.129
-488.478	-200.000	-0.019	-0.397
-487.464	237.154	-0.015	0.026
-486.449	300.086	-0.144	-0.265
-485.435	80.479	-0.213	-0.229
-484.420	380.748	0.036	-0.073
-483.405	90.558	0.087	-0.097
-482.391	-200.000	-0.041	-0.255
-481.376	-8.322	-0.196	-0.132
-480.362	-200.000	0.010	0.217
-479.347	-89.283	-0.192	-0.057
-478.332	41.619	0.061	0.056
-477.318	-200.000	-0.032	0.350
-476.303	-149.610	-0.019	-0.002
-475.289	-200.000	0.001	0.063
-474.274	-73.799	0.219	-0.080
-473.259	97.704	0.165	-0.190
-472.245	-140.483	0.168	0.017
-471.230	800.000	-0.023	0.080
-470.216	-61.622	0.166	0.070
-469.201	244.114	0.240	0.403
-468.186	-171.866	-0.069	-0.002
-467.172	33.006	0.062	-0.053
-466.157	198.520	0.099	-0.151
-465.143	376.372	-0.060	0.122
-464.128	-153.040	-0.109	0.008
-463.113	177.076	-0.155	0.226
-462.099	-200.000	-0.004	0.130
-461.084	215.748	-0.112	-0.178
-460.070	-18.455	-0.132	0.082
-459.055	800.000	-0.057	-0.207
-458.040	-200.000	0.012	0.058
-457.026	481.280	-0.054	-0.122
-456.011	101.454	-0.080	-0.093
-454.997	195.753	0.075	-0.114
-453.982	50.430	0.220	0.208
-452.968	-163.220	0.270	0.013
-451.953	-104.757	-0.083	-0.019
-450.938	476.639	-0.104	-0.235
-449.924	202.079	-0.019	-0.029
-448.909	-40.559	-0.169	-0.087
-447.895	800.000	-0.051	-0.151
-446.880	166.173	0.174	0.245
-445.865	-66.690	0.181	-0.072
-444.851	-46.212	-0.052	-0.026
-443.836	-200.000	-0.010	0.098
-442.822	-108.598	0.065	-0.014
-441.807	-63.740	0.258	-0.106
-440.792	-200.000	-0.019	-0.096
-439.778	95.755	-0.160	-0.182
-438.763	-58.379	-0.214	0.093
-437.749	-200.000	-0.000	-0.110
-436.734	-200.000	-0.020	-0.336
-435.719	-21.866	0.440	-0.267
-434.705	-111.314	0.154	0.031
-433.690	-121.756	-0.212	0.035
-432.676	220.210	-0.150	-0.240
-431.661	-73.073	0.146	-0.054
-430.646	186.398	-0.133	-0.197
-429.632	458.074	0.077	-0.170
-428.617	-133.705	0.166	-0.021
-427.603	193.725	0.214	0.323
-426.588	-102.880	-0.342	0.081
-425.573	-200.000	0.025	0.257
-424.559	800.000	0.058	0.222
-423.544	80.088	0.170	-0.183
-422.530	16.991	-0.179	-0.142
-421.515	123.002	-0.147	-0.184
-420.500	102.788	0.098	0.115
-419.486	800.000	-0.061	0.233
-418.471	56.034	0.148	-0.144
-417.457	-149.975	-0.155	-0.012
-416.442	-200.000	0.022	-0.195
-415.428	800.000	0.057	-0.226
-414.413	-40.694	0.449	-0.232
-413.398	297.189	-0.156	0.287
-412.384	-9.767	-0.237	0.158
-411.369	800.000	0.054	0.216
-410.355	-145.244	-0.341	-0.031
-409.340	599.910	0.033	-0.081
-408.325	-105.182	0.183	0.042
-407.311	-60.185	-0.171	0.073
-406.296	-39.791	-0.330	0.172
-405.282	-76.090	-0.154	0.054
-404.267	-170.809	0.163	-0.006
-403.252	-111.638	0.057	0.012
-402.238	475.287	0.144	0.324
-401.223	142.667	0.158	-0.209
-400.209	-151.969	0.331	-0.024
-399.194	800.000	0.018	0.061
-398.179	169.472	-0.135	-0.192
-397.165	554.474	-0.045	-0.108
-396.150	-80.613	-0.133	0.044
-395.136	34.669	-0.144	0.125
-394.121	-50.715	0.070	-0.033
-393.106	-116.611	0.296	0.054
-392.092	-154.906	0.204	0.013
-391.077	136.599	0.053	-0.069
-390.063	278.448	-0.058	0.103
-389.048	-143.618	0.260	0.025
-388.033	800.000	0.041	0.115
-387.019	286.633	0.085	-0.153
-386.004	289.384	-0.112	0.203
-384.990	-200.000	-0.001	-0.082
-383.975	375.106	-0.092	0.188
-382.960	-41.689	-0.160	0.082
-381.946	800.000	0.092	0.268
-380.931	104.963	0.268	0.315
-379.917	-200.000	0.011	0.075
-378.902	-200.000	-0.002	-0.060
-377.888	-21.429	0.082	0.050
-376.873	-165.763	0.138	0.006
-375.858	-26.564	-0.216	0.126
-374.844	-70.505	-0.405	-0.153
-373.829	-200.000	0.042	-0.275
-372.815	-200.000	0.009	0.132
-371.800	77.814	0.261	0.277
-370.785	-200.000	0.004	0.191
-369.771	97.099	-0.281	-0.321
-368.756	343.409	0.112	0.219
-367.742	-200.000	0.031	-0.139
-366.727	564.969	-0.111	0.268
-365.712	-151.265	-0.119	-0.009
-364.698	615.742	0.062	-0.154
-363.683	-143.312	-0.144	-0.014
-362.669	53.574	-0.057	-0.055
-361.654	-119.091	0.218	-0.038
-360.639	-4.865	-0.236	-0.162
-359.625	-200.000	0.002	-0.026
-358.610	800.000	-0.095	0.266
-357.596	-149.148	-0.033	-0.003
-356.581	800.000	-0.051	-0.155
-355.566	-73.014	0.206	0.075
-354.552	215.238	0.154	-0.244
-353.537	-83.496	0.222	0.071
-352.523	800.000	0.074	0.263
-351.508	-200.000	-0.040	-0.302
-350.493	-170.289	-0.287	0.010
-349.479	98.717	-0.119	0.137
-348.464	-200.000	-0.000	0.367
-347.450	-141.002	0.076	0.008
-346.435	800.000	0.049	-0.183
-345.420	-84.570	-0.304	0.095
-344.406	-36.237	0.106	-0.057
-343.391	-54.448	0.258	-0.116
-342.377	-63.853	-0.276	-0.112
-341.362	14.459	0.258	-0.201
-340.348	-87.999	0.167	0.050
-339.333	800.000	-0.117	-0.363
-338.318	263.805	-0.135	-0.233
-337.304	-82.854	-0.200	0.064
-336.289	-91.901	-0.230	0.065
-335.275	37.471	0.193	-0.170
-334.260	-66.864	-0.285	-0.112
-333.245	65.292	0.088	-0.089
-332.231	566.182	-0.092	0.221
-331.216	-70.412	0.370	0.139
-330.202	-50.215	-0.254	-0.120
-329.187	-88.237	-0.173	0.052
-328.172	-4.448	-0.109	-0.075
-327.158	336.366	0.029	0.056
-326.143	-200.000	-0.010	0.426
-325.129	205.124	-0.051	0.078
-324.114	7.308	0.150	-0.111
-323.099	496.508	-0.092	0.211
-322.085	121.541	0.176	0.218
-321.070	623.090	0.089	-0.223
-320.056	568.031	0.096	-0.233
-319.041	182.413	0.140	-0.206
-318.026	-11.079	0.295	0.193
-317.012	134.885	-0.202	-0.261
-315.997	-172.202	-0.270	-0.009
-314.983	132.981	-0.065	0.084
-313.968	-9.504	-0.128	-0.085
-312.953	515.889	0.098	-0.227
-311.939	42.910	0.099	0.090
-310.924	62.229	-0.097	-0.097
-309.910	-149.304	-0.249	0.020
-308.895	-200.000	0.014	-0.255
-307.880	800.000	0.076	-0.305
-306.866	-15.969	0.153	0.097
-305.851	800.000	0.106	0.343
-304.837	-77.441	-0.074	0.026
-303.822	29.772	0.248	-0.210
-302.807	-139.855	-0.087	-0.009
-301.793	-152.414	-0.257	0.018
-300.778	410.157	0.092	-0.194
-299.764	-200.000	0.048	-0.331
-298.749	66.924	-0.082	0.083
-297.735	-200.000	0.012	-0.204
-296.720	-74.926	0.132	-0.047
-295.705	233.714	-0.094	-0.153
-294.691	-184.121	0.408	0.007
-293.676	-200.000	-0.012	0.108
-292.662	-57.993	0.107	0.046
-291.647	125.571	-0.117	0.147
-290.632	188.465	-0.085	0.126
-289.618	-141.898	-0.127	0.013
-288.603	800.000	0.014	-0.050
-287.589	-42.644	-0.254	0.128
-286.574	-200.000	0.052	0.269
-285.559	12.883	-0.067	-0.051
-284.545	94.767	0.220	0.248
-283.530	-200.000	-0.002	-0.024
-282.516	-15.492	-0.181	0.115
-281.501	665.885	-0.050	-0.127
-280.486	46.692	-0.210	-0.193
-279.472	-200.000	0.034	-0.337
-278.457	-26.846	0.264	0.153
-277.443	60.323	0.206	0.202
-276.428	-200.000	-0.063	0.301
-275.413	210.909	0.136	0.213
-274.399	-60.362	-0.349	-0.147
-273.384	122.238	-0.205	-0.255
-272.370	-77.948	0.236	0.081
-271.355	-67.417	-0.403	0.157
-270.340	47.032	-0.011	0.010
-269.326	-105.876	-0.219	0.049
-268.311	-118.640	-0.300	-0.053
-267.297	-82.228	0.298	0.096
-266.282	-75.041	0.214	0.076
-265.267	113.531	0.108	0.130
-264.253	761.032	-0.102	0.274
-263.238	387.161	0.082	-0.168
-262.224	800.000	0.017	-0.068
-261.209	-42.300	0.262	0.133
-260.195	-54.337	0.214	0.096
-259.180	227.003	0.100	0.161
-258.165	-43.913	-0.198	0.099
-257.151	-78.372	0.130	0.044
-256.136	-200.000	0.013	-0.096
-255.122	-200.000	-0.053	0.324
-254.107	137.547	-0.076	-0.099
-253.092	-100.163	0.115	0.028
-252.078	75.239	0.183	0.192
-251.063	249.634	0.056	0.094
-250.049	-200.000	0.042	0.275
-249.034	203.359	-0.038	0.058
-248.019	87.373	-0.165	0.181
-247.005	-200.000	0.012	0.197
-245.990	-200.000	0.053	0.244
-244.976	-169.206	-0.061	-0.002
-243.961	800.000	0.069	-0.263
-242.946	13.741	-0.155	0.120
-241.932	35.126	0.218	-0.189
-240.917	800.000	0.070	0.219
-239.903	43.357	0.118	-0.107
-238.888	-79.241	-0.191	0.064
-237.873	379.446	0.136	0.276
-236.859	167.647	0.091	-0.128
-235.844	661.956	-0.125	0.319
-234.830	-176.762	-0.389	-0.010
-233.815	420.376	-0.137	0.291
-232.800	-116.634	-0.236	0.043
-231.786	800.000	-0.186	0.605
-230.771	-200.000	0.004	0.119
-229.757	316.329	0.121	0.226
-228.742	-78.405	0.086	0.029
-227.727	-200.000	-0.034	0.268
-226.713	411.896	-0.101	-0.213
-225.698	-63.419	0.136	-0.055
-224.684	201.073	0.083	-0.126
-223.669	-200.000	0.249	-0.000
-222.655	9.159	0.259	0.194
-221.640	38.321	0.162	-0.143
-220.625	268.011	-0.104	-0.181
-219.611	-102.014	0.300	0.072
-218.596	-200.000	0.019	-0.137
-217.582	-163.925	-0.114	-0.005
-216.567	13.174	0.325	-0.249
-215.552	-21.834	-0.387	0.233
-214.538	-1.405	-0.281	0.196
-213.523	-100.101	0.490	0.121
-212.509	-200.000	-0.047	0.360
-211.494	-139.649	0.157	0.017
-210.479	137.663	0.163	0.211
-209.465	485.757	0.047	-0.107
-208.450	-118.385	-0.431	-0.076
-207.436	107.303	0.285	-0.335
-206.421	-200.000	-0.016	-0.207
-205.406	-109.476	0.112	-0.024
-204.392	-149.961	0.061	0.005
-203.377	-98.993	0.079	-0.020
-202.363	-200.000	0.026	0.257
-201.348	20.591	0.058	0.046
-200.333	-132.845	0.264	0.033
-199.319	34.910	0.026	-0.022
-198.304	-87.175	0.076	-0.023
-197.290	-66.363	0.087	-0.034
-196.275	121.278	0.137	0.169
-195.260	-200.000	0.005	0.111
-194.246	-149.740	0.229	0.018
-193.231	-200.000	-0.001	-0.104
-192.217	-120.610	-0.125	-0.021
-191.202	211.410	-0.110	-0.172
-190.187	70.275	-0.162	-0.166
-189.173	-200.000	-0.026	-0.148
-188.158	47.966	0.236	-0.218
-187.144	91.708	-0.132	-0.146
-186.129	81.366	-0.195	-0.209
-185.114	-200.000	0.020	0.141
-184.100	199.238	-0.099	0.151
-183.085	800.000	-0.107	0.298
-182.071	110.781	0.223	0.265
-181.056	800.000	0.081	0.293
-180.042	153.676	0.163	-0.221
-179.027	-200.000	0.035	-0.368
-178.012	732.585	0.064	0.171
-176.998	-200.000	0.030	-0.210
-175.983	-200.000	-0.019	0.100
-174.969	365.441	0.044	0.089
-173.954	-67.963	-0.190	-0.073
-172.939	161.899	-0.177	-0.245
-171.925	-189.852	0.465	-0.005
-170.910	-200.000	0.035	0.262
-169.896	800.000	-0.141	-0.585
-168.881	788.837	-0.091	-0.248
-167.866	-11.630	0.216	0.141
-166.852	-135.182	0.353	-0.042
-165.837	306.401	-0.142	-0.260
-164.823	-200.000	0.027	-0.487
-163.808	-200.000	-0.016	0.072
-162.793	65.589	0.120	0.120
-161.779	800.000	0.046	0.141
-160.764	-200.000	-0.001	0.374
-159.750	-200.000	0.043	0.277
-158.735	-200.000	0.020	0.231
-157.720	-200.000	0.024	0.257
-156.706	-87.076	-0.134	0.040
-155.691	-94.840	0.302	-0.081
-154.677	-94.725	0.296	-0.079
-153.662	-200.000	-0.039	-0.365
-152.647	800.000	-0.101	-0.332
-151.633	-24.841	0.272	-0.159
-150.618	-130.109	-0.247	-0.033
-149.604	109.509	-0.166	0.196
-148.589	152.748	0.157	-0.212
-147.574	-161.824	0.215	0.011
-146.560	187.895	0.044	-0.065
-145.545	116.483	0.099	0.120
-144.531	-29.180	0.148	-0.084
-143.516	-94.175	0.103	-0.028
-142.502	538.645	-0.065	-0.152
-141.487	166.544	-0.128	0.179
-140.472	-92.489	0.054	-0.015
-139.458	-200.000	-0.041	-0.322
-138.443	-40.360	-0.130	-0.067
-137.429	-200.000	0.006	-0.155
-136.414	-200.000	0.016	0.146
-135.399	-65.763	0.129	-0.051
-134.385	283.371	-0.045	0.079
-133.370	-200.000	0.013	0.156
-132.356	-61.728	0.128	-0.053
-131.341	-52.874	0.291	-0.132
-130.326	-200.000	0.017	-0.135
-129.312	-68.827	-0.135	-0.052
-128.297	-200.000	-0.005	0.154
-127.283	-107.505	0.362	0.078
-126.268	28.485	0.112	0.093
-125.253	-160.768	-0.161	0.008
-124.239	-55.207	-0.132	0.058
-123.224	-99.134	-0.191	0.048
-122.210	-200.000	-0.065	0.326
