DTS Sentinel unit serial number:	SN413079Multiplexer serial number:	ORYXHardware model number:	OX4-SRSoftware version number:	ORYX F/W v4.00 Oryx Data Collector v3.7.2.0data status	okinstallation	princeton_trtdifferential loss correction	single-endedforward channel	channel 3reverse channel	N/Adate	2019/09/15time	14:52:35forward acquisition time	60.00reverse acquisition time	0.00gamma	496.2192k internal	0.2292k external	0.2292temperature offset calibration	0.9949default loss term (dB/km)	0.3790temperature slope calibration	1.0000multiplexer offset coefficient	1.0000multiplexer slope coefficient	1.0000fibre end	0.00T internal ref (°C)	39.94T ext. ref 1 (°C)	4.86T ext. ref 2 (°C)	37.00length (m)	temperature (°C)	Stokes	anti-Stokes-747.200	-200.000	0.008	-0.350
-746.185	-99.239	-0.116	0.030
-745.171	555.877	-0.139	0.342
-744.156	-11.822	0.175	-0.117
-743.142	-150.774	-0.177	0.014
-742.127	82.041	-0.010	-0.011
-741.112	-107.986	-0.279	-0.062
-740.098	609.449	0.138	0.354
-739.083	-136.803	0.413	0.049
-738.069	800.000	-0.037	0.163
-737.054	-200.000	-0.015	-0.073
-736.039	-200.000	0.065	-0.496
-735.025	23.045	-0.182	-0.153
-734.010	77.521	-0.273	0.297
-732.996	-114.757	0.101	-0.020
-731.981	404.731	-0.100	-0.216
-730.966	-40.656	0.113	-0.060
-729.952	132.990	-0.213	-0.281
-728.937	-200.000	-0.070	0.439
-727.923	47.804	-0.050	0.048
-726.908	-39.485	-0.245	-0.131
-725.894	-200.000	0.052	-0.428
-724.879	-78.075	0.304	-0.107
-723.864	-36.492	0.235	-0.129
-722.850	110.901	-0.252	0.310
-721.835	-95.058	0.106	0.029
-720.821	-54.684	-0.380	0.175
-719.806	-148.183	0.284	-0.024
-718.791	19.861	-0.158	-0.130
-717.777	-13.912	-0.060	0.039
-716.762	435.322	0.111	0.246
-715.748	-200.000	-0.046	-0.294
-714.733	87.982	-0.161	-0.183
-713.718	-112.514	0.392	-0.080
-712.704	180.564	0.072	-0.108
-711.689	34.335	0.065	-0.058
-710.675	244.680	-0.138	-0.237
-709.660	475.651	-0.166	0.384
-708.645	800.000	-0.069	-0.222
-707.631	800.000	-0.012	0.037
-706.616	-64.467	-0.197	-0.082
-705.602	181.401	-0.158	-0.238
-704.587	-112.289	0.225	-0.046
-703.572	-145.085	-0.205	0.019
-702.558	185.894	0.173	-0.263
-701.543	-200.000	-0.032	-0.218
-700.529	800.000	-0.146	0.489
-699.514	39.742	-0.208	-0.191
-698.499	167.015	-0.066	-0.096
-697.485	171.458	-0.158	-0.231
-696.470	615.320	-0.043	-0.110
-695.456	800.000	0.124	0.411
-694.441	-75.101	-0.072	0.026
-693.426	800.000	-0.116	-0.328
-692.412	-13.560	0.163	-0.108
-691.397	-200.000	-0.030	-0.272
-690.383	64.060	0.248	0.254
-689.368	110.805	-0.188	0.231
-688.354	107.005	0.131	0.159
-687.339	-62.331	0.083	-0.035
-686.324	800.000	0.030	-0.126
-685.310	51.968	0.176	-0.171
-684.295	800.000	0.088	-0.340
-683.281	-39.682	-0.330	-0.176
-682.266	800.000	-0.035	0.155
-681.251	-200.000	-0.011	-0.271
-680.237	-135.355	-0.057	0.007
-679.222	-200.000	-0.004	-0.229
-678.208	314.091	-0.232	-0.446
-677.193	-145.327	-0.054	0.005
-676.178	68.030	0.149	-0.155
-675.164	-117.315	0.346	0.064
-674.149	-200.000	0.011	-0.393
-673.135	800.000	-0.066	-0.193
-672.120	306.956	0.114	-0.217
-671.105	206.375	0.241	-0.382
-670.091	127.901	-0.141	-0.183
-669.076	800.000	0.034	-0.102
-668.062	800.000	0.071	-0.279
-667.047	239.390	0.040	0.067
-666.032	31.839	-0.216	0.190
-665.018	219.908	0.138	0.226
-664.003	46.622	-0.047	-0.044
-662.989	-129.935	0.159	-0.022
-661.974	-8.226	0.276	-0.190
-660.959	122.267	0.193	-0.245
-659.945	-97.326	0.290	-0.077
-658.930	-107.426	-0.101	0.023
-657.916	211.200	-0.003	0.004
-656.901	800.000	-0.064	-0.268
-655.886	-117.358	-0.239	0.044
-654.872	-152.865	-0.254	-0.018
-653.857	800.000	0.069	-0.268
-652.843	-200.000	-0.007	-0.159
-651.828	124.009	-0.014	-0.018
-650.814	183.780	0.082	-0.123
-649.799	-89.093	-0.321	-0.097
-648.784	-149.880	0.144	0.011
-647.770	86.517	0.096	0.108
-646.755	-200.000	-0.001	-0.336
-645.741	532.547	0.093	-0.225
-644.726	58.708	-0.104	-0.104
-643.711	-13.616	0.201	-0.132
-642.697	-69.938	0.167	0.065
-641.682	713.943	0.014	0.038
-640.668	-114.887	0.137	0.027
-639.653	-17.337	-0.072	-0.046
-638.638	-200.000	-0.005	-0.232
-637.624	-200.000	0.002	0.097
-636.609	-200.000	-0.016	-0.448
-635.595	-56.851	0.203	-0.091
-634.580	624.908	-0.062	0.160
-633.565	623.334	0.052	0.133
-632.551	-200.000	-0.017	-0.219
-631.536	-200.000	0.048	-0.292
-630.522	38.610	0.050	-0.045
-629.507	-19.137	-0.123	-0.078
-628.492	-175.637	-0.174	0.005
-627.478	-31.492	-0.194	0.111
-626.463	-8.022	-0.141	-0.097
-625.449	-66.897	-0.253	-0.102
-624.434	-54.801	-0.522	0.240
-623.419	-200.000	0.023	-0.148
-622.405	-124.011	0.437	0.070
-621.390	-168.971	-0.278	-0.011
-620.376	800.000	0.077	0.293
-619.361	-128.007	0.141	0.021
-618.346	-28.965	-0.177	-0.104
-617.332	-0.502	-0.240	0.173
-616.317	-88.454	0.103	0.031
-615.303	23.160	-0.293	0.245
-614.288	-68.148	-0.128	-0.051
-613.273	-131.402	-0.126	-0.017
-612.259	-132.516	0.182	0.024
-611.244	-120.080	-0.099	0.017
-610.230	800.000	-0.051	-0.223
-609.215	17.090	0.123	0.099
-608.201	59.967	0.266	-0.268
-607.186	800.000	0.036	0.134
-606.171	63.692	0.059	0.061
-605.157	-142.705	0.035	0.003
-604.142	-47.607	-0.151	0.075
-603.128	-145.487	0.196	0.018
-602.113	-99.123	0.206	-0.053
-601.098	11.228	0.320	0.249
-600.084	105.049	-0.075	0.090
-599.069	619.835	0.062	-0.159
-598.055	17.083	0.283	0.229
-597.040	41.110	-0.128	0.118
-596.025	-64.462	-0.387	-0.160
-595.011	-45.126	0.053	0.027
-593.996	-71.644	-0.462	0.176
-592.982	-100.768	0.304	-0.076
-591.967	103.990	0.123	0.147
-590.952	264.194	0.017	0.030
-589.938	-19.831	-0.321	0.202
-588.923	-29.502	0.248	0.144
-587.909	-200.000	-0.287	-0.001
-586.894	437.522	0.063	0.139
-585.879	-200.000	-0.004	0.158
-584.865	-134.737	0.220	0.027
-583.850	-72.862	-0.505	-0.189
-582.836	-200.000	0.062	-0.360
-581.821	0.312	-0.190	-0.138
-580.806	168.918	-0.062	-0.090
-579.792	800.000	-0.018	-0.058
-578.777	88.990	0.210	0.238
-577.763	-200.000	0.017	-0.082
-576.748	-200.000	-0.006	-0.391
-575.733	309.142	0.017	0.032
-574.719	-200.000	0.044	0.210
-573.704	222.689	-0.204	0.334
-572.690	-123.205	-0.282	-0.046
-571.675	-9.054	-0.340	0.232
-570.661	163.324	0.205	0.293
-569.646	129.442	-0.087	-0.114
-568.631	-200.000	-0.011	0.050
-567.617	60.767	0.210	0.212
-566.602	245.878	-0.136	-0.233
-565.588	800.000	0.055	0.242
-564.573	-35.569	-0.230	-0.127
-563.558	-184.905	-0.200	-0.003
-562.544	-155.134	-0.204	-0.014
-561.529	-175.500	0.272	-0.008
-560.515	-29.784	0.112	-0.065
-559.500	-68.825	-0.121	0.048
-558.485	-200.000	-0.078	-0.368
-557.471	-69.016	-0.187	-0.073
-556.456	674.401	0.058	0.154
-555.442	-200.000	0.013	-0.245
-554.427	160.632	0.221	0.314
-553.412	800.000	-0.074	0.295
-552.398	106.609	0.138	-0.166
-551.383	-200.000	-0.073	-0.471
-550.369	13.261	-0.117	0.092
-549.354	-200.000	0.085	0.000
-548.339	-200.000	-0.022	-0.302
-547.325	800.000	0.070	0.205
-546.310	1.368	-0.199	0.145
-545.296	-100.841	-0.292	0.073
-544.281	110.116	0.044	0.054
-543.266	478.390	0.127	0.291
-542.252	-162.773	0.157	-0.008
-541.237	220.028	-0.090	-0.147
-540.223	-200.000	0.043	0.332
-539.208	-200.000	-0.018	-0.312
-538.193	800.000	0.058	-0.167
-537.179	-70.238	-0.260	-0.100
-536.164	-200.000	0.008	-0.134
-535.150	-200.000	0.006	0.186
-534.135	780.547	-0.080	-0.222
-533.121	-144.511	-0.083	-0.008
-532.106	208.905	0.178	0.282
-531.091	584.381	0.029	-0.073
-530.077	50.969	0.361	-0.347
-529.062	223.646	0.051	0.084
-528.048	492.861	-0.033	0.077
-527.033	22.545	-0.179	0.149
-526.018	23.503	-0.145	0.121
-525.004	-200.000	0.027	-0.133
-523.989	-200.000	0.008	0.179
-522.975	-4.219	0.144	-0.101
-521.960	-116.153	-0.311	0.059
-520.945	718.752	0.099	-0.266
-519.931	-105.070	0.062	-0.014
-518.916	45.977	0.067	-0.063
-517.902	705.464	0.084	-0.224
-516.887	-27.988	0.130	-0.076
-515.872	-200.000	-0.013	-0.164
-514.858	-200.000	0.032	-0.188
-513.843	234.848	0.011	0.018
-512.829	266.453	0.183	0.324
-511.814	-200.000	0.038	0.195
-510.799	800.000	-0.044	-0.175
-509.785	229.344	-0.118	0.196
-508.770	-84.567	0.075	0.024
-507.756	-129.895	-0.511	0.071
-506.741	-185.930	0.151	0.002
-505.726	8.667	0.295	0.225
-504.712	-101.632	-0.118	0.029
-503.697	-200.000	-0.035	0.335
-502.683	69.584	0.094	0.098
-501.668	-200.000	0.057	-0.310
-500.653	-97.067	-0.203	0.054
-499.639	58.975	0.268	-0.267
-498.624	-100.893	-0.087	-0.022
-497.610	-200.000	0.016	0.076
-496.595	-132.478	-0.195	-0.025
-495.581	800.000	-0.150	-0.426
-494.566	-67.513	0.153	0.061
-493.551	33.870	0.019	0.017
-492.537	-107.831	-0.359	-0.079
-491.522	-102.873	0.057	-0.014
-490.508	261.206	0.119	-0.209
-489.493	-148.564	-0.256	-0.021
-488.478	188.205	0.160	-0.242
-487.464	-40.612	-0.252	-0.132
-486.449	18.756	-0.149	-0.121
-485.435	-104.699	0.117	0.027
-484.420	24.336	-0.074	-0.062
-483.405	800.000	-0.048	-0.198
-482.391	399.634	0.040	-0.084
-481.376	-200.000	0.097	0.484
-480.362	800.000	-0.053	0.168
-479.347	-145.694	0.175	0.016
-478.332	-111.003	-0.126	0.026
-477.318	6.125	-0.121	0.091
-476.303	-176.375	0.188	0.005
-475.289	27.124	0.261	-0.222
-474.274	613.149	0.031	0.079
-473.259	-56.122	0.163	0.074
-472.245	-127.586	-0.145	0.021
-471.230	-21.918	0.232	0.143
-470.216	207.978	-0.243	-0.384
-469.201	-200.000	-0.024	-0.197
-468.186	-98.800	-0.341	-0.088
-467.172	319.594	0.249	-0.478
-466.157	17.111	-0.112	0.090
-465.143	296.153	-0.140	0.260
-464.128	-35.356	0.193	-0.106
-463.113	-131.339	0.346	-0.046
-462.099	-131.389	0.129	-0.017
-461.084	800.000	0.015	-0.045
-460.070	-129.160	0.306	0.043
-459.055	168.584	-0.053	0.077
-458.040	78.408	-0.133	0.144
-457.026	800.000	-0.014	-0.051
-456.011	-200.000	-0.027	-0.284
-454.997	-13.572	-0.115	-0.076
-453.982	-200.000	-0.005	0.146
-452.968	-161.497	0.178	0.009
-451.953	-42.605	0.151	-0.078
-450.938	-200.000	0.007	-0.118
-449.924	-4.721	-0.107	0.075
-448.909	-200.000	0.004	-0.217
-447.895	-99.021	0.144	-0.037
-446.880	-200.000	-0.001	0.270
-445.865	-49.702	0.106	-0.051
-444.851	-21.418	0.070	0.043
-443.836	32.468	0.302	-0.264
-442.822	800.000	0.029	0.093
-441.807	75.102	0.189	0.201
-440.792	-200.000	-0.016	0.076
-439.778	-99.560	-0.331	-0.084
-438.763	28.605	0.153	-0.131
-437.749	-85.093	-0.304	-0.096
-436.734	-144.971	0.068	0.006
-435.719	-200.000	-0.033	-0.290
-434.705	366.086	0.149	0.304
-433.690	-200.000	-0.007	-0.228
-432.676	336.085	0.087	-0.170
-431.661	155.536	0.043	-0.060
-430.646	-200.000	0.002	0.237
-429.632	-84.852	0.133	0.042
-428.617	-200.000	0.030	0.162
-427.603	170.411	-0.018	0.027
-426.588	-153.246	-0.089	-0.006
-425.573	-66.549	-0.114	-0.046
-424.559	175.896	0.095	-0.140
-423.544	147.743	0.180	-0.246
-422.530	281.831	-0.123	0.223
-421.515	-178.663	0.043	-0.001
-420.500	800.000	0.071	0.277
-419.486	110.235	0.259	-0.314
-418.471	-200.000	0.018	-0.097
-417.457	96.003	-0.200	-0.231
-416.442	369.580	0.022	0.045
-415.428	-200.000	-0.005	0.092
-414.413	-200.000	-0.050	0.315
-413.398	-96.764	-0.348	0.092
-412.384	-79.989	-0.292	0.099
-411.369	-68.520	0.179	0.070
-410.355	-200.000	0.012	-0.146
-409.340	-52.527	0.295	0.138
-408.325	-200.000	0.034	-0.195
-407.311	-20.035	-0.238	-0.148
-406.296	-179.805	-0.249	-0.005
-405.282	79.920	-0.095	0.103
-404.267	-26.821	0.058	0.034
-403.252	605.966	0.138	0.348
-402.238	-164.531	-0.412	0.019
-401.223	42.733	-0.201	-0.185
-400.209	48.138	-0.087	0.082
-399.194	12.115	-0.192	0.149
-398.179	-200.000	0.006	-0.112
-397.165	673.259	0.057	-0.149
-396.150	230.910	-0.164	0.271
-395.136	-29.349	-0.308	-0.178
-394.121	-3.398	-0.116	-0.082
-393.106	-30.901	0.205	0.117
-392.092	115.214	-0.209	0.257
-391.077	-13.632	-0.278	-0.181
-390.063	-200.000	0.003	0.183
-389.048	132.309	0.131	0.171
-388.033	228.424	-0.112	-0.184
-387.019	800.000	-0.045	0.170
-386.004	800.000	0.030	-0.127
-384.990	-69.186	0.300	-0.116
-383.975	-200.000	-0.039	-0.294
-382.960	196.695	0.188	-0.290
-381.946	-113.878	-0.335	-0.066
-380.931	-91.877	0.230	0.066
-379.917	-198.720	0.199	0.001
-378.902	43.365	-0.166	0.153
-377.888	-11.124	-0.184	-0.123
-376.873	144.754	0.229	0.308
-375.858	-103.255	0.204	0.049
-374.844	-59.699	0.065	-0.028
-373.829	85.741	-0.173	-0.192
-372.815	800.000	-0.037	0.140
-371.800	4.829	-0.192	-0.142
-370.785	133.859	-0.107	0.140
-369.771	-146.402	-0.127	0.011
-368.756	-178.480	-0.072	0.002
-367.742	-93.350	-0.172	0.048
-366.727	-200.000	-0.017	0.259
-365.712	-200.000	0.033	0.152
-364.698	-89.936	-0.243	0.071
-363.683	-47.014	0.444	0.218
-362.669	800.000	-0.100	0.302
-361.654	-200.000	0.025	-0.445
-360.639	800.000	0.019	-0.072
-359.625	-68.248	-0.132	-0.052
-358.610	-114.080	0.025	-0.005
-357.596	-200.000	-0.015	0.098
-356.581	800.000	0.067	-0.263
-355.566	-24.655	0.227	0.136
-354.552	-200.000	-0.005	-0.036
-353.537	-200.000	0.004	-0.163
-352.523	280.853	-0.108	0.194
-351.508	61.924	0.157	-0.157
-350.493	-200.000	0.010	-0.307
-349.479	423.064	-0.062	0.135
-348.464	489.020	-0.017	0.038
-347.450	-147.350	0.285	-0.024
-346.435	-200.000	-0.058	-0.320
-345.420	80.622	0.056	-0.061
-344.406	-16.578	0.148	-0.094
-343.391	582.973	0.042	-0.103
-342.377	-107.959	0.124	0.027
-341.362	-39.614	0.090	0.048
-340.348	800.000	-0.066	0.247
-339.333	12.887	0.389	-0.303
-338.318	-78.785	0.277	0.095
-337.304	-50.128	-0.145	0.069
-336.289	-21.624	-0.153	0.094
-335.275	-200.000	0.028	-0.209
-334.260	-200.000	0.059	0.374
-333.245	67.620	-0.259	0.267
-332.231	800.000	-0.051	-0.178
-331.216	342.843	-0.125	0.247
-330.202	55.715	0.074	0.072
-329.187	-72.687	-0.019	-0.007
-328.172	-110.249	0.143	-0.030
-327.158	-93.816	0.128	0.036
-326.143	276.060	0.099	0.176
-325.129	-200.000	0.061	-0.324
-324.114	800.000	-0.058	-0.175
-323.099	86.567	-0.170	-0.188
-322.085	84.726	-0.402	0.443
-321.070	-123.796	-0.228	0.036
-320.056	306.209	0.152	0.286
-319.041	800.000	0.099	0.313
-318.026	-93.381	0.245	-0.068
-317.012	286.144	0.158	0.287
-315.997	40.467	0.174	-0.158
-314.983	-200.000	-0.033	-0.164
-313.968	-126.593	0.410	0.061
-312.953	45.662	0.212	0.197
-311.939	-200.000	-0.032	-0.185
-310.924	350.730	-0.074	0.147
-309.910	-43.970	-0.174	-0.088
-308.895	800.000	-0.032	0.112
-307.880	-3.196	-0.145	-0.101
-306.866	476.788	0.167	0.381
-305.851	-149.077	0.157	-0.013
-304.837	11.732	0.151	0.116
-303.822	-104.044	-0.140	-0.033
-302.807	-63.877	0.169	0.070
-301.793	18.495	0.104	0.083
-300.778	-200.000	-0.022	-0.186
-299.764	-35.714	-0.297	0.162
-298.749	-104.213	-0.138	0.032
-297.735	244.398	-0.160	0.271
-296.720	218.730	-0.083	0.133
-295.705	-200.000	0.006	0.155
-294.691	102.199	-0.204	-0.240
-293.676	-36.397	0.231	-0.125
-292.662	40.654	0.145	-0.131
-291.647	-200.000	-0.014	0.088
-290.632	-49.064	-0.103	-0.050
-289.618	-58.699	0.210	-0.091
-288.603	-30.054	0.475	0.272
-287.589	80.230	-0.125	-0.136
-286.574	430.091	-0.070	0.151
-285.559	800.000	0.042	0.127
-284.545	-71.550	-0.170	-0.064
-283.530	19.633	0.317	0.257
-282.516	483.879	-0.078	-0.179
-281.501	-76.001	0.299	0.106
-280.486	-59.770	0.307	-0.132
-279.472	-10.825	0.257	-0.171
-278.457	13.057	-0.243	0.189
-277.443	-200.000	-0.074	-0.326
-276.428	-200.000	0.030	0.282
-275.413	527.665	0.052	0.124
-274.399	-123.818	-0.264	0.042
-273.384	800.000	-0.068	-0.251
-272.370	39.439	-0.141	0.126
-271.355	-137.082	0.214	0.025
-270.340	800.000	-0.018	-0.069
-269.326	-200.000	0.017	-0.146
-268.311	800.000	0.026	-0.110
-267.297	-22.793	0.240	0.145
-266.282	-97.789	0.326	0.085
-265.267	-28.847	-0.026	-0.015
-264.253	-176.664	-0.517	0.013
-263.238	-155.837	0.036	0.002
-262.224	-156.038	-0.277	0.018
-261.209	216.923	-0.156	-0.249
-260.195	-200.000	-0.000	-0.318
-259.180	-4.249	-0.206	0.144
-258.165	78.969	0.147	-0.159
-257.151	-48.999	0.321	0.154
-256.136	-200.000	-0.019	-0.129
-255.122	-184.351	-0.105	-0.002
-254.107	-88.412	-0.467	-0.140
-253.092	-26.784	0.250	0.147
-252.078	20.610	-0.110	0.090
-251.063	144.421	0.322	0.432
-250.049	-160.330	0.240	-0.013
-249.034	-200.000	-0.067	-0.534
-248.019	450.002	-0.095	-0.210
-247.005	-166.407	-0.146	0.006
-245.990	12.103	0.081	0.063
-244.976	-182.538	-0.473	-0.009
-243.961	799.344	-0.071	-0.197
-242.946	53.639	-0.215	0.207
-241.932	286.539	-0.172	0.311
-240.917	-85.875	0.222	0.069
-239.903	-200.000	-0.006	-0.064
-238.888	234.980	0.201	0.333
-237.873	106.842	-0.163	0.194
-236.859	266.201	0.268	0.469
-235.844	800.000	0.105	-0.291
-234.830	-200.000	0.008	0.096
-233.815	-66.444	-0.034	0.013
-232.800	-200.000	-0.004	0.099
-231.786	126.414	0.067	-0.086
-230.771	-127.555	0.204	-0.030
-229.757	800.000	-0.029	-0.089
-228.742	-26.388	-0.243	-0.143
-227.727	800.000	-0.065	-0.194
-226.713	-200.000	-0.009	-0.313
-225.698	-92.273	-0.236	0.067
-224.684	800.000	0.018	-0.074
-223.669	-200.000	-0.075	-0.507
-222.655	-12.598	0.274	0.179
-221.640	68.968	-0.046	0.047
-220.625	-18.715	0.071	0.044
-219.611	33.253	0.181	0.157
-218.596	364.877	0.165	0.333
-217.582	132.058	0.168	0.217
-216.567	800.000	-0.063	0.253
-215.552	244.534	0.201	-0.338
-214.538	-172.497	-0.288	-0.009
-213.523	79.493	-0.213	-0.229
-212.509	-111.003	-0.116	0.024
-211.494	126.269	0.329	0.417
-210.479	429.883	-0.090	0.195
-209.465	-80.012	-0.085	-0.029
-208.450	-115.481	0.246	0.046
-207.436	-120.395	0.127	-0.022
-206.421	800.000	0.069	-0.251
-205.406	-74.783	-0.334	0.120
-204.392	-200.000	0.007	0.146
-203.377	163.864	-0.186	0.263
-202.363	-39.316	0.209	-0.110
-201.348	-45.508	0.080	-0.040
-200.333	-143.536	0.329	-0.031
-199.319	-176.705	0.194	0.005
-198.304	37.415	0.105	0.093
-197.290	88.880	-0.048	-0.054
-196.275	800.000	-0.108	-0.456
-195.260	-0.613	-0.293	0.208
-194.246	800.000	-0.036	0.153
-193.231	26.910	-0.252	0.211
-192.217	90.073	0.112	-0.125
-191.202	-200.000	-0.012	0.119
-190.187	198.488	-0.234	-0.359
-189.173	-152.247	-0.036	0.003
-188.158	800.000	0.099	-0.298
-187.144	-78.848	0.190	-0.065
-186.129	-125.706	-0.286	0.043
-185.114	-49.504	-0.244	-0.116
-184.100	53.533	-0.201	0.193
-183.085	800.000	0.086	0.243
-182.071	-5.949	-0.332	-0.228
-181.056	-200.000	0.043	-0.391
-180.042	-32.859	0.323	-0.180
-179.027	117.166	0.117	-0.144
-178.012	-49.887	0.242	-0.115
-176.998	-79.608	0.442	-0.149
-175.983	258.900	0.200	-0.346
-174.969	36.394	0.237	0.209
-173.954	-200.000	0.005	0.112
-172.939	799.778	0.044	-0.120
-171.925	-200.000	-0.010	0.410
-170.910	-167.689	-0.394	-0.016
-169.896	800.000	-0.029	-0.089
-168.881	-179.501	0.118	-0.003
-167.866	148.463	-0.094	0.128
-166.852	298.422	-0.075	-0.138
-165.837	-173.310	-0.284	0.009
-164.823	-200.000	0.003	0.224
-163.808	-33.732	-0.143	0.079
-162.793	43.942	0.334	-0.306
-161.779	800.000	0.018	-0.058
-160.764	126.651	-0.171	0.216
-159.750	37.851	-0.060	0.054
-158.735	373.948	0.095	0.193
-157.720	-153.955	0.302	-0.021
-156.706	-200.000	-0.016	-0.078
-155.691	137.727	0.094	0.123
-154.677	-200.000	0.014	-0.072
-153.662	178.535	-0.152	0.221
-152.647	-75.781	0.181	0.064
-151.633	-53.127	0.347	0.159
-150.618	-200.000	-0.026	0.129
-149.604	800.000	0.005	-0.016
-148.589	-30.600	0.126	-0.072
-147.574	-200.000	-0.012	0.087
-146.560	247.920	-0.135	0.228
-145.545	-31.343	0.137	0.077
-144.531	-200.000	-0.022	0.099
-143.516	48.520	0.252	-0.236
-142.502	242.548	-0.130	0.217
-141.487	-130.437	-0.102	0.014
-140.472	-200.000	-0.038	0.335
-139.458	-200.000	0.002	-0.079
-138.443	138.623	0.137	-0.180
-137.429	800.000	0.071	-0.218
-136.414	5.845	0.299	0.221
-135.399	44.293	-0.166	0.152
-134.385	-200.000	0.017	-0.094
-133.370	-193.750	-0.064	-0.001
-132.356	-60.656	0.015	-0.006
-131.341	-91.943	0.308	-0.087
-130.326	-200.000	0.003	-0.297
-129.312	-186.207	0.252	-0.004
-128.297	-81.513	0.223	0.073
-127.283	0.130	0.271	0.193
-126.268	-200.000	0.030	-0.152
-125.253	124.323	0.114	-0.144
-124.239	286.955	0.221	-0.398
-123.224	-200.000	-0.019	0.180
-122.210	81.298	0.205	0.221
