DTS Sentinel unit serial number:	SN413079Multiplexer serial number:	ORYXHardware model number:	OX4-SRSoftware version number:	ORYX F/W v4.00 Oryx Data Collector v3.7.2.0data status	okinstallation	princeton_trtdifferential loss correction	single-endedforward channel	channel 3reverse channel	N/Adate	2019/09/18time	07:44:35forward acquisition time	60.00reverse acquisition time	0.00gamma	496.2192k internal	0.2343k external	0.2343temperature offset calibration	0.9949default loss term (dB/km)	0.3790temperature slope calibration	1.0000multiplexer offset coefficient	1.0000multiplexer slope coefficient	1.0000fibre end	0.00T internal ref (°C)	23.28T ext. ref 1 (°C)	0.20T ext. ref 2 (°C)	18.36length (m)	temperature (°C)	Stokes	anti-Stokes-747.200	44.319	0.169	-0.155
-746.185	335.869	0.042	0.081
-745.171	15.132	-0.060	-0.047
-744.156	-27.962	0.049	0.028
-743.142	-200.000	0.004	-0.104
-742.127	-122.203	-0.366	0.060
-741.112	-164.063	0.469	0.022
-740.098	140.267	-0.222	0.293
-739.083	-147.126	-0.200	-0.017
-738.069	-200.000	0.016	0.175
-737.054	-200.000	0.074	-0.384
-736.039	134.187	-0.040	-0.052
-735.025	625.589	0.211	0.533
-734.010	221.782	0.095	0.152
-732.996	108.951	-0.149	-0.178
-731.981	139.628	-0.174	0.230
-730.966	-200.000	-0.005	0.144
-729.952	340.144	0.145	-0.283
-728.937	-61.081	-0.371	-0.157
-727.923	65.517	0.203	-0.205
-726.908	-41.685	-0.258	0.133
-725.894	-100.872	-0.328	0.081
-724.879	83.061	-0.230	-0.250
-723.864	318.074	0.210	-0.398
-722.850	-39.961	-0.322	-0.168
-721.835	-200.000	-0.062	-0.611
-720.821	-25.783	0.171	-0.101
-719.806	11.545	-0.298	-0.228
-718.791	-200.000	-0.007	-0.248
-717.777	244.207	-0.099	0.166
-716.762	-122.826	-0.207	-0.033
-715.748	620.029	0.171	0.431
-714.733	-137.163	-0.293	-0.033
-713.718	800.000	0.101	0.315
-712.704	800.000	-0.119	-0.339
-711.689	-200.000	0.033	-0.206
-710.675	-9.105	-0.218	-0.146
-709.660	152.017	0.028	-0.038
-708.645	72.244	-0.033	0.035
-707.631	-200.000	0.038	-0.181
-706.616	-124.276	-0.178	-0.028
-705.602	-77.323	0.348	-0.121
-704.587	800.000	0.037	-0.150
-703.572	241.729	0.312	-0.521
-702.558	-123.278	0.243	-0.039
-701.543	-149.427	0.195	0.015
-700.529	-136.591	0.165	0.019
-699.514	668.953	0.049	0.126
-698.499	234.753	0.225	0.371
-697.485	-54.617	0.157	0.071
-696.470	-200.000	-0.029	0.285
-695.456	-38.776	-0.332	-0.175
-694.441	-123.172	0.232	-0.037
-693.426	-58.605	-0.125	-0.054
-692.412	800.000	-0.032	-0.139
-691.397	-149.673	-0.472	0.037
-690.383	-61.207	0.283	0.119
-689.368	-19.196	0.325	-0.201
-688.354	-200.000	-0.012	-0.187
-687.339	-101.640	-0.235	-0.057
-686.324	101.363	0.249	0.290
-685.310	92.441	-0.229	0.258
-684.295	129.616	-0.010	-0.012
-683.281	800.000	0.024	-0.070
-682.266	800.000	0.036	-0.099
-681.251	-121.551	-0.412	0.068
-680.237	159.147	-0.248	-0.344
-679.222	-67.898	0.196	0.076
-678.208	35.363	0.278	0.244
-677.193	800.000	-0.057	0.190
-676.178	-93.010	0.081	0.023
-675.164	-200.000	-0.012	-0.178
-674.149	337.746	0.136	0.263
-673.135	322.128	0.076	-0.144
-672.120	222.099	0.075	0.121
-671.105	800.000	-0.055	-0.162
-670.091	800.000	0.087	-0.281
-669.076	-70.553	0.158	-0.060
-668.062	-83.028	-0.229	0.074
-667.047	-200.000	-0.001	-0.415
-666.032	-200.000	-0.002	-0.111
-665.018	51.846	0.123	-0.117
-664.003	-109.911	0.129	0.027
-662.989	754.627	-0.091	0.247
-661.974	-44.925	-0.202	-0.101
-660.959	-52.741	0.063	-0.029
-659.945	-113.880	0.161	-0.031
-658.930	-109.597	0.367	-0.077
-657.916	-200.000	-0.007	0.312
-656.901	689.714	-0.065	-0.169
-655.886	215.645	0.101	-0.160
-654.872	94.367	-0.109	0.123
-653.857	482.410	-0.033	0.074
-652.843	94.454	-0.110	0.124
-651.828	-200.000	-0.055	-0.330
-650.814	-146.116	-0.320	-0.028
-649.799	800.000	-0.086	-0.337
-648.784	-97.529	-0.291	-0.075
-647.770	-200.000	0.018	0.369
-646.755	-200.000	-0.017	0.123
-645.741	-200.000	0.049	-0.317
-644.726	-75.942	0.283	-0.100
-643.711	800.000	0.007	0.019
-642.697	-32.970	0.232	0.128
-641.682	677.940	0.106	-0.275
-640.668	-200.000	-0.402	0.001
-639.653	800.000	-0.070	-0.266
-638.638	-200.000	0.005	0.116
-637.624	-200.000	-0.001	-0.150
-636.609	388.258	-0.069	-0.143
-635.595	800.000	-0.077	0.320
-634.580	58.292	0.223	0.218
-633.565	411.010	-0.179	-0.379
-632.551	774.366	0.129	-0.351
-631.536	-175.050	0.079	0.002
-630.522	800.000	0.078	0.309
-629.507	-200.000	0.003	0.055
-628.492	-137.947	-0.096	-0.011
-627.478	256.032	0.232	0.397
-626.463	92.873	0.199	-0.224
-625.449	798.377	-0.049	-0.136
-624.434	14.743	-0.104	0.081
-623.419	800.000	0.028	-0.095
-622.405	324.992	-0.115	0.219
-621.390	-115.803	-0.044	0.008
-620.376	350.130	-0.039	0.077
-619.361	-200.000	0.015	0.166
-618.346	124.412	0.173	-0.217
-617.332	-83.512	-0.316	-0.101
-616.317	-147.884	-0.112	-0.009
-615.303	-174.175	-0.290	0.008
-614.288	-200.000	0.060	-0.478
-613.273	-66.298	-0.263	-0.104
-612.259	800.000	-0.113	-0.354
-611.244	-38.035	-0.029	-0.015
-610.230	23.154	-0.106	-0.086
-609.215	-200.000	-0.022	0.117
-608.201	-126.023	-0.248	-0.037
-607.186	110.586	-0.058	-0.069
-606.171	-10.414	-0.182	0.120
-605.157	-145.662	0.326	-0.029
-604.142	50.565	-0.194	-0.183
-603.128	83.777	-0.027	-0.030
-602.113	492.548	-0.150	-0.343
-601.098	15.305	0.285	0.223
-600.084	42.939	-0.267	0.243
-599.069	1.150	-0.183	-0.131
-598.055	165.448	0.237	-0.334
-597.040	90.517	-0.117	-0.130
-596.025	-16.341	0.209	-0.132
-595.011	-127.852	-0.105	0.015
-593.996	-32.756	-0.397	0.220
-592.982	-78.545	-0.271	-0.092
-591.967	148.084	0.129	-0.174
-590.952	365.677	0.092	-0.184
-589.938	-200.000	0.014	0.245
-588.923	-12.143	-0.110	-0.072
-587.909	-42.967	-0.071	-0.036
-586.894	-200.000	0.029	-0.132
-585.879	657.044	0.055	-0.140
-584.865	352.046	-0.053	0.104
-583.850	-113.752	0.254	0.049
-582.836	-200.000	-0.020	-0.153
-581.821	90.247	0.100	0.111
-580.806	2.176	0.373	-0.268
-579.792	171.990	0.072	-0.103
-578.777	-68.550	-0.152	-0.059
-577.763	-95.292	-0.290	-0.078
-576.748	800.000	0.088	0.308
-575.733	-169.191	-0.124	-0.005
-574.719	122.262	-0.205	0.254
-573.704	800.000	-0.094	0.330
-572.690	532.740	0.063	-0.148
-571.675	-118.387	0.072	0.013
-570.661	88.216	0.183	-0.202
-569.646	800.000	-0.061	-0.202
-568.631	-200.000	0.028	0.297
-567.617	71.944	0.139	0.143
-566.602	800.000	-0.111	-0.398
-565.588	-200.000	-0.033	0.296
-564.573	-200.000	0.004	-0.094
-563.558	-200.000	-0.021	0.541
-562.544	-170.864	0.134	0.005
-561.529	135.976	-0.111	-0.143
-560.515	571.420	0.117	-0.283
-559.500	-46.729	-0.200	0.098
-558.485	376.368	-0.080	-0.162
-557.471	78.078	-0.117	0.124
-556.456	198.994	-0.081	-0.123
-555.442	-200.000	0.367	-0.001
-554.427	128.221	-0.149	-0.189
-553.412	264.513	0.076	-0.132
-552.398	-90.624	0.230	-0.066
-551.383	162.745	0.035	-0.048
-550.369	-94.447	0.403	-0.109
-549.354	427.708	0.052	-0.111
-548.339	-200.000	0.012	0.148
-547.325	-27.696	0.474	0.273
-546.310	198.348	0.171	0.260
-545.296	396.158	0.083	-0.172
-544.281	-27.089	-0.251	0.145
-543.266	-8.645	0.233	0.155
-542.252	-57.065	-0.210	0.092
-541.237	137.653	-0.093	0.121
-540.223	-200.000	-0.026	-0.181
-539.208	-200.000	-0.020	0.184
-538.193	-174.947	-0.409	0.011
-537.179	90.462	-0.125	-0.139
-536.164	-118.567	0.634	0.111
-535.150	-83.715	0.152	0.048
-534.135	-16.363	-0.322	-0.203
-533.121	35.412	0.144	0.125
-532.106	177.381	-0.121	-0.175
-531.091	-18.572	0.304	-0.188
-530.077	114.944	-0.143	-0.174
-529.062	-103.258	0.229	0.054
-528.048	374.377	0.127	-0.257
-527.033	-120.893	-0.165	0.027
-526.018	295.202	0.050	-0.091
-525.004	11.559	0.150	-0.114
-523.989	183.782	-0.130	0.191
-522.975	189.018	0.093	-0.139
-521.960	800.000	0.100	-0.432
-520.945	33.581	0.141	0.122
-519.931	115.585	-0.118	0.144
-518.916	146.543	0.148	0.197
-517.902	-120.548	-0.224	0.038
-516.887	-107.826	-0.171	-0.037
-515.872	102.478	0.121	-0.141
-514.858	-141.302	-0.209	0.021
-513.843	53.974	-0.140	0.134
-512.829	152.584	-0.052	0.071
-511.814	-106.158	0.046	0.010
-510.799	-200.000	-0.062	-0.366
-509.785	-141.443	0.084	0.008
-508.770	-36.405	0.024	-0.013
-507.756	-200.000	0.017	-0.213
-506.741	-200.000	0.047	-0.222
-505.726	-200.000	-0.054	0.239
-504.712	-200.000	0.007	-0.365
-503.697	-86.850	0.069	-0.021
-502.683	-169.960	-0.152	0.005
-501.668	0.532	0.245	-0.174
-500.653	-96.948	-0.458	-0.119
-499.639	113.816	-0.170	0.205
-498.624	-53.176	-0.344	-0.157
-497.610	-26.439	0.184	-0.107
-496.595	-200.000	-0.008	0.261
-495.581	-146.981	-0.120	0.010
-494.566	-91.227	0.092	0.026
-493.551	-86.295	0.041	-0.013
-492.537	109.372	-0.242	-0.287
-491.522	-200.000	-0.043	0.455
-490.508	-32.485	-0.082	0.045
-489.493	33.692	-0.122	-0.105
-488.478	281.448	-0.154	-0.274
-487.464	-8.690	-0.150	0.100
-486.449	292.576	0.099	-0.178
-485.435	-200.000	0.034	-0.187
-484.420	-52.168	-0.094	-0.043
-483.405	84.290	-0.260	-0.281
-482.391	118.915	0.134	-0.164
-481.376	-88.256	-0.075	-0.022
-480.362	-176.656	0.195	0.005
-479.347	-136.052	-0.165	-0.019
-478.332	-62.606	0.162	-0.067
-477.318	-200.000	-0.012	-0.292
-476.303	370.195	-0.120	0.242
-475.289	94.132	0.263	-0.295
-474.274	800.000	0.067	-0.198
-473.259	-10.624	0.258	0.169
-472.245	800.000	0.079	0.291
-471.230	-4.697	-0.283	-0.193
-470.216	-93.656	-0.577	-0.158
-469.201	219.653	0.158	0.250
-468.186	800.000	-0.091	0.353
-467.172	27.199	0.012	-0.010
-466.157	-200.000	-0.081	0.409
-465.143	46.054	-0.289	-0.265
-464.128	92.595	-0.214	-0.239
-463.113	61.072	0.182	0.178
-462.099	-19.482	-0.345	0.212
-461.084	83.819	-0.135	0.146
-460.070	-200.000	0.024	-0.293
-459.055	-49.585	0.197	0.093
-458.040	-200.000	0.062	0.577
-457.026	-41.270	0.215	0.109
-456.011	219.769	-0.127	0.201
-454.997	-124.913	-0.351	0.054
-453.982	-129.342	-0.128	-0.018
-452.968	-200.000	-0.069	-0.350
-451.953	25.735	-0.207	0.170
-450.938	800.000	0.044	-0.138
-449.924	800.000	-0.054	-0.231
-448.909	174.300	0.155	0.222
-447.895	800.000	0.085	0.330
-446.880	-110.879	-0.072	-0.015
-445.865	161.853	-0.189	-0.261
-444.851	-139.505	0.075	0.008
-443.836	16.641	0.307	0.240
-442.822	3.923	-0.031	-0.022
-441.807	-22.943	-0.084	-0.050
-440.792	-154.668	0.367	0.024
-439.778	-200.000	0.011	-0.087
-438.763	461.770	0.082	0.180
-437.749	463.213	0.117	0.258
-436.734	-137.292	-0.103	0.012
-435.719	-200.000	-0.030	0.152
-434.705	-114.850	-0.184	-0.035
-433.690	800.000	0.068	0.207
-432.676	-200.000	-0.025	0.132
-431.661	-177.858	0.148	-0.004
-430.646	374.478	0.099	-0.199
-429.632	627.311	-0.083	-0.208
-428.617	101.849	-0.165	0.191
-427.603	444.179	0.059	0.129
-426.588	-200.000	-0.006	-0.179
-425.573	506.672	0.029	0.067
-424.559	0.753	0.276	0.195
-423.544	800.000	0.107	-0.463
-422.530	41.220	0.272	-0.243
-421.515	262.081	-0.222	-0.381
-420.500	-25.829	0.239	-0.139
-419.486	-62.133	-0.122	-0.050
-418.471	-20.573	-0.382	-0.232
-417.457	-17.085	0.421	0.262
-416.442	50.628	0.232	-0.217
-415.428	441.349	-0.108	-0.234
-414.413	477.154	0.079	0.177
-413.398	218.765	0.089	0.140
-412.384	46.053	0.198	0.181
-411.369	-65.435	-0.207	-0.082
-410.355	236.933	0.189	-0.309
-409.340	13.048	-0.122	0.093
-408.325	188.920	0.186	0.275
-407.311	-114.980	0.139	0.026
-406.296	27.021	0.048	-0.040
-405.282	489.332	-0.159	-0.360
-404.267	-200.000	0.003	0.136
-403.252	-200.000	0.035	-0.294
-402.238	249.886	-0.295	0.495
-401.223	52.702	-0.170	0.161
-400.209	-29.288	0.166	0.094
-399.194	26.408	-0.213	-0.176
-398.179	-132.041	-0.225	-0.029
-397.165	317.212	0.185	-0.346
-396.150	-200.000	0.017	-0.154
-395.136	-38.424	-0.095	0.050
-394.121	403.178	-0.072	-0.149
-393.106	-200.000	-0.005	-0.111
-392.092	-200.000	-0.015	0.186
-391.077	8.839	0.357	0.266
-390.063	-47.915	-0.081	0.039
-389.048	597.952	-0.038	0.093
-388.033	311.330	-0.054	0.100
-387.019	-15.151	-0.163	-0.103
-386.004	47.125	-0.227	-0.208
-384.990	286.938	-0.032	0.058
-383.975	364.952	0.098	0.194
-382.960	316.463	-0.105	0.196
-381.946	234.941	0.071	0.115
-380.931	-160.938	-0.292	0.015
-379.917	47.421	-0.222	-0.204
-378.902	292.611	-0.026	-0.046
-377.888	165.305	-0.200	0.278
-376.873	206.004	0.044	-0.067
-375.858	90.797	0.146	0.161
-374.844	-100.696	0.240	0.058
-373.829	153.028	-0.154	-0.207
-372.815	521.271	0.117	-0.272
-371.800	176.418	-0.203	0.292
-370.785	34.463	-0.223	0.192
-369.771	800.000	0.092	0.337
-368.756	-112.137	-0.144	0.029
-367.742	387.723	0.158	0.323
-366.727	66.122	-0.072	0.072
-365.712	170.690	-0.042	-0.059
-364.698	-200.000	0.009	-0.344
-363.683	727.898	-0.115	0.304
-362.669	12.964	0.044	0.034
-361.654	-33.355	0.109	0.059
-360.639	40.132	-0.200	-0.177
-359.625	189.401	0.051	-0.075
-358.610	295.150	-0.191	0.345
-357.596	-125.285	-0.134	-0.020
-356.581	-93.533	-0.099	0.027
-355.566	-32.020	0.087	-0.048
-354.552	-95.794	-0.213	-0.056
-353.537	-141.198	0.296	0.030
-352.523	-200.000	0.014	0.206
-351.508	-113.367	-0.320	-0.062
-350.493	326.928	0.159	-0.301
-349.479	446.225	-0.124	0.269
-348.464	76.732	0.058	0.061
-347.450	-102.660	0.353	-0.083
-346.435	-68.982	0.171	0.065
-345.420	216.348	-0.025	-0.038
-344.406	-156.583	0.349	-0.021
-343.391	-200.000	0.047	0.238
-342.377	-51.581	0.072	-0.033
-341.362	182.599	0.091	-0.132
-340.348	-40.539	0.099	0.051
-339.333	-65.504	-0.301	0.119
-338.318	183.062	0.126	-0.183
-337.304	-57.399	0.245	-0.106
-336.289	800.000	0.055	-0.222
-335.275	-200.000	-0.033	0.179
-334.260	221.132	0.159	0.252
-333.245	-88.609	-0.276	-0.081
-332.231	0.619	-0.087	0.061
-331.216	-150.334	0.166	0.013
-330.202	-34.228	0.196	-0.106
-329.187	251.542	0.044	0.073
-328.172	-200.000	-0.029	0.205
-327.158	-154.216	-0.224	-0.015
-326.143	-5.330	0.215	0.146
-325.129	-155.621	0.120	-0.008
-324.114	-200.000	0.001	-0.169
-323.099	179.608	-0.153	-0.221
-322.085	19.656	0.202	0.160
-321.070	-158.079	0.065	-0.004
-320.056	-200.000	-0.009	-0.221
-319.041	-146.651	0.378	-0.032
-318.026	800.000	-0.106	0.371
-317.012	-21.506	-0.142	-0.085
-315.997	-200.000	0.080	0.351
-314.983	101.802	0.285	0.328
-313.968	657.668	-0.055	0.139
-312.953	87.461	0.093	0.102
-311.939	16.604	0.258	-0.201
-310.924	-9.870	-0.135	0.088
-309.910	28.083	-0.042	0.035
-308.895	-200.000	-0.049	-0.251
-307.880	-200.000	0.002	0.213
-306.866	800.000	0.160	0.466
-305.851	223.567	0.138	-0.219
-304.837	-106.689	-0.044	-0.010
-303.822	-200.000	0.034	-0.199
-302.807	230.959	-0.069	-0.111
-301.793	277.051	0.055	0.097
-300.778	-42.251	-0.088	-0.044
-299.764	-192.148	-0.115	0.001
-298.749	-200.000	-0.035	0.238
-297.735	-5.981	0.246	-0.165
-296.720	-89.523	0.353	0.102
-295.705	-190.413	-0.135	-0.001
-294.691	-200.000	-0.024	0.223
-293.676	36.024	-0.102	-0.088
-292.662	-200.000	0.030	-0.165
-291.647	-200.000	-0.008	-0.230
-290.632	-200.000	-0.018	-0.221
-289.618	-94.422	-0.150	-0.040
-288.603	249.079	-0.116	0.193
-287.589	-85.176	-0.084	0.026
-286.574	486.173	-0.058	0.131
-285.559	-22.990	0.103	0.061
-284.545	115.244	0.179	-0.215
-283.530	800.000	0.089	0.249
-282.516	-130.628	-0.052	0.007
-281.501	32.284	0.305	-0.259
-280.486	554.872	-0.051	-0.121
-279.472	120.820	0.163	0.199
-278.457	-28.837	0.190	-0.108
-277.443	33.872	-0.262	0.225
-276.428	-200.000	0.028	-0.177
-275.413	11.052	-0.026	0.019
-274.399	716.643	0.089	0.231
-273.384	800.000	0.144	0.465
-272.370	-95.753	0.348	0.092
-271.355	800.000	-0.040	0.139
-270.340	-200.000	-0.066	-0.394
-269.326	22.692	0.234	-0.188
-268.311	53.441	0.103	-0.097
-267.297	-153.306	-0.272	-0.019
-266.282	-200.000	-0.031	0.400
-265.267	505.445	-0.144	0.329
-264.253	217.475	-0.183	0.286
-263.238	115.951	-0.215	-0.259
-262.224	-76.341	0.117	0.040
-261.209	-32.157	0.061	0.033
-260.195	800.000	0.024	0.069
-259.180	657.851	0.052	-0.131
-258.165	-58.007	0.219	-0.094
-257.151	-62.873	-0.255	-0.104
-256.136	-20.047	-0.163	-0.099
-255.122	-200.000	-0.004	-0.107
-254.107	-200.000	-0.000	0.089
-253.092	800.000	-0.025	-0.104
-252.078	32.245	0.149	0.126
-251.063	800.000	0.019	-0.055
-250.049	-104.964	-0.303	-0.068
-249.034	373.552	0.104	-0.208
-248.019	-200.000	-0.029	-0.276
-247.005	72.099	-0.128	-0.131
-245.990	213.930	0.106	-0.165
-244.976	800.000	-0.073	0.263
-243.961	-74.188	0.155	-0.055
-242.946	-40.176	0.121	0.062
-241.932	170.325	-0.093	0.130
-240.917	-52.830	-0.182	0.082
-239.903	-93.904	0.207	0.056
-238.888	-187.978	-0.102	-0.001
-237.873	113.291	0.086	-0.103
-236.859	545.752	0.083	-0.194
-235.844	42.268	-0.092	-0.082
-234.830	16.402	-0.147	0.114
-233.815	-14.046	0.088	0.056
-232.800	404.798	-0.031	-0.064
-231.786	-40.956	-0.172	0.087
-230.771	719.308	-0.043	0.111
-229.757	240.401	0.070	0.114
-228.742	-4.343	0.195	0.133
-227.727	48.923	0.113	-0.104
-226.713	-120.154	-0.410	-0.069
-225.698	508.869	-0.095	-0.216
-224.684	-2.788	0.203	-0.139
-223.669	322.465	-0.068	0.127
-222.655	-200.000	-0.007	-0.097
-221.640	534.706	-0.099	0.231
-220.625	-66.089	0.159	0.062
-219.611	-22.947	0.162	-0.096
-218.596	800.000	0.025	-0.077
-217.582	742.517	-0.039	-0.102
-216.567	800.000	0.088	0.293
-215.552	800.000	-0.087	0.359
-214.538	791.985	0.063	-0.170
-213.523	-32.825	-0.098	-0.053
-212.509	-200.000	-0.047	-0.204
-211.494	119.759	-0.181	-0.220
-210.479	508.303	-0.121	0.276
-209.465	-91.341	-0.194	0.054
-208.450	-9.466	-0.169	0.111
-207.436	104.999	0.222	0.257
-206.421	-104.834	0.362	-0.081
-205.406	-200.000	-0.007	0.224
-204.392	546.413	-0.101	-0.236
-203.377	-40.486	0.156	0.080
-202.363	800.000	0.153	0.430
-201.348	-89.034	-0.134	-0.039
-200.333	-180.683	0.165	0.003
-199.319	-37.246	-0.213	0.112
-198.304	-200.000	-0.001	-0.016
-197.290	364.246	-0.044	-0.088
-196.275	-155.619	0.220	0.014
-195.260	125.352	0.149	-0.184
-194.246	-39.388	0.221	0.113
-193.231	-50.216	0.073	-0.034
-192.217	-35.849	-0.112	0.059
-191.202	-27.999	0.250	0.142
-190.187	-200.000	-0.022	-0.172
-189.173	-112.182	-0.408	-0.080
-188.158	-200.000	0.030	-0.184
-187.144	-44.674	-0.170	-0.083
-186.129	541.107	-0.189	0.440
-185.114	-200.000	0.021	0.124
-184.100	-75.148	0.374	-0.131
-183.085	-83.509	-0.419	0.131
-182.071	-140.738	0.135	0.014
-181.056	127.340	0.343	-0.426
-180.042	-76.134	0.292	-0.101
-179.027	5.324	-0.066	0.048
-178.012	-150.792	0.356	0.026
-176.998	248.655	0.161	0.267
-175.983	-31.355	-0.151	-0.083
-174.969	-200.000	-0.017	-0.271
-173.954	-200.000	0.003	-0.112
-172.939	282.969	0.171	-0.301
-171.925	-21.572	0.167	0.099
-170.910	-44.308	0.314	0.154
-169.896	-200.000	-0.009	0.317
-168.881	-173.736	0.177	0.005
-167.866	-122.716	0.148	0.023
-166.852	800.000	0.035	0.140
-165.837	-25.519	0.193	0.112
-164.823	111.620	-0.246	0.291
-163.808	62.210	-0.091	0.089
-162.793	-53.988	0.149	0.066
-161.779	800.000	-0.092	-0.291
-160.764	59.563	-0.253	0.244
-159.750	-200.000	-0.012	0.157
-158.735	-53.547	-0.178	0.080
-157.720	-67.619	-0.260	-0.100
-156.706	-133.538	-0.046	0.006
-155.691	-200.000	-0.013	0.308
-154.677	55.938	0.148	0.140
-153.662	628.908	0.059	0.147
-152.647	43.264	-0.102	-0.091
-151.633	-200.000	-0.041	-0.433
-150.618	-158.656	-0.088	-0.005
-149.604	-63.794	-0.055	0.022
-148.589	344.424	-0.077	0.148
-147.574	2.845	-0.036	-0.026
-146.560	-137.200	-0.140	-0.016
-145.545	800.000	-0.025	-0.078
-144.531	800.000	-0.082	0.222
-143.516	-200.000	-0.034	0.190
-142.502	-46.036	0.201	-0.097
-141.487	290.420	0.230	0.409
-140.472	42.391	-0.210	-0.187
-139.458	147.742	0.031	-0.042
-138.443	-45.602	-0.208	0.100
-137.429	25.014	0.049	0.040
-136.414	-103.384	0.092	0.021
-135.399	-46.778	-0.128	-0.061
-134.385	9.848	0.109	-0.081
-133.370	425.603	0.076	-0.161
-132.356	144.779	0.128	0.168
-131.341	-186.918	0.084	-0.001
-130.326	78.745	0.264	-0.276
-129.312	-87.726	0.180	-0.053
-128.297	-6.953	0.140	0.093
-127.283	139.737	-0.059	-0.076
-126.268	107.563	-0.107	0.124
-125.253	696.364	-0.025	-0.065
-124.239	-200.000	-0.011	-0.208
-123.224	800.000	-0.048	0.161
-122.210	-42.631	0.116	0.058
