DTS Sentinel unit serial number:	SN413079Multiplexer serial number:	ORYXHardware model number:	OX4-SRSoftware version number:	ORYX F/W v4.00 Oryx Data Collector v3.7.2.0data status	okinstallation	princeton_trtdifferential loss correction	single-endedforward channel	channel 3reverse channel	N/Adate	2019/09/16time	11:44:35forward acquisition time	60.00reverse acquisition time	0.00gamma	496.2192k internal	0.2297k external	0.2297temperature offset calibration	0.9941default loss term (dB/km)	0.3790temperature slope calibration	1.0000multiplexer offset coefficient	1.0000multiplexer slope coefficient	1.0000fibre end	0.00T internal ref (°C)	38.14T ext. ref 1 (°C)	13.04T ext. ref 2 (°C)	35.35length (m)	temperature (°C)	Stokes	anti-Stokes-747.200	-102.844	0.223	0.054
-746.185	-36.803	-0.279	0.153
-745.171	-45.600	-0.201	0.102
-744.156	-200.000	-0.006	0.465
-743.142	-93.577	-0.220	0.062
-742.127	-200.000	0.028	0.373
-741.112	-149.568	0.037	-0.003
-740.098	-200.000	-0.007	0.249
-739.083	-117.442	0.101	-0.019
-738.069	-200.000	0.005	0.309
-737.054	-200.000	0.040	-0.278
-736.039	-178.177	-0.436	0.010
-735.025	-123.471	0.358	-0.058
-734.010	-106.396	-0.211	0.048
-732.996	714.674	-0.123	-0.334
-731.981	431.950	-0.126	-0.279
-730.966	-200.000	0.049	-0.286
-729.952	42.986	-0.123	-0.115
-728.937	13.784	-0.243	-0.192
-727.923	-136.883	-0.380	-0.045
-726.908	-29.329	-0.194	-0.113
-725.894	-200.000	0.056	0.265
-724.879	-24.564	-0.227	-0.138
-723.864	-200.000	0.003	0.058
-722.850	40.767	0.084	-0.077
-721.835	221.559	0.077	-0.126
-720.821	462.256	0.089	-0.204
-719.806	-200.000	-0.005	-0.144
-718.791	-200.000	-0.001	0.155
-717.777	547.734	-0.010	0.024
-716.762	-93.893	-0.274	-0.077
-715.748	-90.618	-0.251	-0.074
-714.733	193.614	0.086	-0.132
-713.718	-95.392	0.061	-0.017
-712.704	83.000	-0.036	-0.040
-711.689	-200.000	0.085	-0.402
-710.675	-65.343	0.399	-0.164
-709.660	0.008	0.163	0.119
-708.645	-175.606	0.123	-0.003
-707.631	-200.000	0.006	-0.070
-706.616	247.313	-0.047	0.081
-705.602	-61.910	0.428	0.183
-704.587	-81.679	0.161	0.054
-703.572	89.056	0.156	0.177
-702.558	66.738	-0.165	0.172
-701.543	155.117	0.065	-0.092
-700.529	-126.363	0.254	0.039
-699.514	-3.248	0.331	-0.235
-698.499	717.463	-0.080	-0.218
-697.485	800.000	0.023	0.065
-696.470	744.691	-0.007	-0.020
-695.456	-2.349	0.291	-0.208
-694.441	800.000	-0.046	-0.179
-693.426	800.000	0.059	-0.185
-692.412	-55.732	0.253	0.115
-691.397	-112.009	-0.023	-0.005
-690.383	38.652	-0.061	-0.056
-689.368	-200.000	0.030	0.227
-688.354	800.000	0.030	-0.110
-687.339	-80.662	0.082	-0.028
-686.324	46.072	-0.213	0.201
-685.310	-36.454	-0.273	-0.150
-684.295	307.734	0.112	0.212
-683.281	-3.500	-0.154	-0.109
-682.266	-200.000	0.003	-0.257
-681.251	800.000	-0.032	0.103
-680.237	-57.088	-0.224	-0.101
-679.222	800.000	-0.078	-0.222
-678.208	300.674	-0.140	-0.264
-677.193	-200.000	-0.014	0.129
-676.178	-81.141	-0.178	0.060
-675.164	54.292	-0.195	-0.191
-674.149	-114.860	0.320	-0.062
-673.135	-145.264	-0.294	-0.027
-672.120	-158.297	0.301	0.018
-671.105	-200.000	-0.010	0.521
-670.091	237.172	-0.064	-0.108
-669.076	-49.609	-0.209	-0.101
-668.062	800.000	0.050	0.216
-667.047	-24.091	-0.082	0.050
-666.032	-129.972	-0.075	0.010
-665.018	227.520	0.076	0.125
-664.003	-86.781	0.201	-0.062
-662.989	753.703	0.056	-0.155
-661.974	800.000	-0.078	-0.328
-660.959	-200.000	-0.020	-0.194
-659.945	-45.948	0.110	0.055
-658.930	185.147	-0.144	-0.218
-657.916	-125.216	0.612	0.095
-656.901	118.153	0.157	-0.197
-655.886	-3.924	-0.084	0.060
-654.872	13.187	-0.115	0.091
-653.857	598.303	-0.120	-0.303
-652.843	206.142	-0.201	-0.319
-651.828	68.020	-0.286	-0.298
-650.814	265.926	0.119	-0.212
-649.799	-120.145	0.384	-0.067
-648.784	-143.470	0.286	-0.028
-647.770	482.962	0.086	-0.200
-646.755	-125.193	-0.248	0.039
-645.741	1.850	0.154	-0.113
-644.726	283.728	-0.031	0.056
-643.711	70.247	0.070	-0.073
-642.697	772.410	0.060	-0.165
-641.682	1.687	-0.436	0.320
-640.668	-24.758	-0.343	-0.208
-639.653	-71.033	-0.079	-0.030
-638.638	730.062	0.043	0.117
-637.624	-200.000	0.026	-0.141
-636.609	44.876	-0.033	-0.031
-635.595	238.422	0.131	0.222
-634.580	-149.742	-0.235	-0.019
-633.565	246.737	0.065	0.112
-632.551	-91.284	-0.287	0.083
-631.536	121.326	0.247	0.313
-630.522	43.809	0.259	-0.241
-629.507	-181.015	0.147	0.003
-628.492	-200.000	-0.087	-0.000
-627.478	45.304	0.208	-0.195
-626.463	5.668	0.172	-0.129
-625.449	20.649	-0.101	0.083
-624.434	-200.000	0.044	0.000
-623.419	-200.000	-0.035	-0.233
-622.405	-82.147	-0.125	-0.041
-621.390	212.273	0.132	-0.212
-620.376	-76.572	0.176	0.063
-619.361	148.464	0.196	0.270
-618.346	504.567	-0.050	0.117
-617.332	540.910	-0.039	-0.095
-616.317	-43.597	0.168	0.086
-615.303	-118.902	-0.251	0.045
-614.288	-109.407	0.462	-0.099
-613.273	-98.200	0.128	-0.034
-612.259	-122.852	-0.254	0.042
-611.244	226.629	0.170	-0.280
-610.230	-63.515	-0.256	0.107
-609.215	800.000	-0.028	-0.120
-608.201	-33.864	0.216	-0.121
-607.186	19.035	-0.127	0.103
-606.171	274.606	-0.040	0.071
-605.157	-2.285	0.089	-0.063
-604.142	-136.312	0.212	-0.025
-603.128	668.394	0.060	-0.157
-602.113	-17.347	-0.083	-0.053
-601.098	-25.753	-0.307	0.184
-600.084	513.054	0.072	0.171
-599.069	-200.000	0.010	0.110
-598.055	-62.429	0.508	0.215
-597.040	6.230	-0.091	-0.069
-596.025	-37.755	0.046	-0.025
-595.011	-13.527	0.203	-0.134
-593.996	-67.668	-0.114	0.045
-592.982	-86.367	0.368	-0.115
-591.967	97.650	-0.180	-0.210
-590.952	-200.000	0.018	-0.418
-589.938	-181.210	0.231	-0.005
-588.923	91.240	0.224	0.256
-587.909	372.129	0.028	0.059
-586.894	59.064	0.273	-0.273
-585.879	800.000	-0.093	-0.286
-584.865	-141.896	0.271	0.027
-583.850	-58.130	-0.170	-0.075
-582.836	-4.175	0.312	0.219
-581.821	662.227	-0.036	-0.095
-580.806	42.314	-0.225	-0.207
-579.792	-200.000	0.006	-0.063
-578.777	-200.000	-0.012	-0.157
-577.763	162.950	0.017	-0.025
-576.748	148.465	-0.252	-0.345
-575.733	-200.000	0.007	0.303
-574.719	-77.893	-0.231	-0.081
-573.704	-73.636	0.302	-0.112
-572.690	-200.000	0.029	0.175
-571.675	-1.263	0.164	-0.117
-570.661	-116.415	-0.287	-0.054
-569.646	-200.000	-0.066	-0.408
-568.631	-76.789	-0.430	-0.153
-567.617	-88.193	0.066	0.020
-566.602	-200.000	0.047	0.332
-565.588	800.000	0.080	0.258
-564.573	-10.631	0.167	0.112
-563.558	-90.974	-0.251	-0.073
-562.544	10.942	-0.083	-0.064
-561.529	19.371	-0.052	0.042
-560.515	-78.847	0.015	-0.005
-559.500	87.682	-0.103	-0.116
-558.485	50.857	-0.050	-0.048
-557.471	142.442	0.078	-0.104
-556.456	326.839	0.078	0.151
-555.442	-200.000	-0.015	0.088
-554.427	-135.797	0.311	-0.037
-553.412	14.230	-0.149	0.117
-552.398	-141.632	0.131	0.013
-551.383	62.667	-0.139	-0.141
-550.369	-89.816	0.268	-0.080
-549.354	-47.289	-0.178	0.088
-548.339	315.848	-0.229	-0.437
-547.325	-200.000	0.004	0.103
-546.310	-160.265	0.244	-0.013
-545.296	-200.000	0.072	-0.326
-544.281	-200.000	-0.006	-0.065
-543.266	-109.679	-0.269	-0.057
-542.252	19.140	-0.231	-0.188
-541.237	45.633	0.217	-0.203
-540.223	-86.581	0.143	-0.044
-539.208	54.809	0.222	-0.217
-538.193	468.214	-0.055	-0.126
-537.179	-200.000	0.017	0.236
-536.164	-200.000	-0.012	0.379
-535.150	64.677	0.164	0.168
-534.135	-200.000	-0.005	-0.137
-533.121	-200.000	-0.026	-0.272
-532.106	-127.556	-0.073	-0.011
-531.091	800.000	-0.125	-0.350
-530.077	-200.000	0.026	-0.220
-529.062	800.000	0.081	-0.278
-528.048	-1.118	-0.123	-0.088
-527.033	351.433	-0.159	0.318
-526.018	-101.381	0.125	0.031
-525.004	118.398	0.143	-0.178
-523.989	800.000	0.064	0.220
-522.975	73.871	-0.173	0.183
-521.960	-123.615	-0.129	0.021
-520.945	287.379	-0.190	-0.348
-519.931	-131.666	-0.211	0.028
-518.916	-200.000	0.003	-0.070
-517.902	-54.291	0.131	-0.060
-516.887	115.540	0.280	-0.347
-515.872	68.549	-0.222	0.230
-514.858	180.906	-0.153	0.227
-513.843	-131.863	0.129	-0.017
-512.829	-70.265	0.162	-0.062
-511.814	-17.637	-0.046	-0.029
-510.799	-1.537	-0.275	0.196
-509.785	248.876	0.091	0.157
-508.770	718.124	-0.017	0.045
-507.756	253.109	0.119	0.206
-506.741	-200.000	-0.041	0.449
-505.726	58.747	-0.187	-0.186
-504.712	155.749	-0.211	0.294
-503.697	-167.154	0.216	-0.009
-502.683	-184.998	-0.267	0.004
-501.668	800.000	0.016	-0.047
-500.653	364.855	0.028	0.056
-499.639	-49.928	-0.222	0.107
-498.624	40.078	-0.072	-0.066
-497.610	800.000	-0.126	0.370
-496.595	-21.841	-0.078	0.048
-495.581	786.631	-0.040	0.110
-494.566	800.000	-0.055	0.235
-493.551	255.783	-0.144	-0.250
-492.537	48.374	-0.059	-0.056
-491.522	800.000	0.063	0.225
-490.508	33.020	0.248	0.218
-489.493	-33.586	-0.203	-0.113
-488.478	-130.824	-0.224	-0.030
-487.464	57.139	-0.144	-0.142
-486.449	-200.000	-0.035	-0.190
-485.435	-132.218	0.106	0.014
-484.420	-40.604	0.251	0.132
-483.405	215.572	-0.087	-0.140
-482.391	51.382	-0.038	-0.037
-481.376	-25.913	-0.244	0.145
-480.362	448.479	-0.077	0.173
-479.347	11.921	-0.185	0.144
-478.332	15.649	-0.229	-0.182
-477.318	53.308	-0.162	-0.157
-476.303	179.707	-0.163	0.241
-475.289	-196.600	-0.266	0.002
-474.274	-56.107	0.286	0.129
-473.259	-200.000	0.029	0.194
-472.245	-102.392	0.295	0.071
-471.230	-138.411	0.168	-0.019
-470.216	-126.183	0.555	0.084
-469.201	92.500	-0.135	-0.154
-468.186	800.000	0.013	-0.050
-467.172	32.266	0.233	-0.204
-466.157	-16.671	0.045	-0.029
-465.143	-48.130	-0.036	0.017
-464.128	151.535	-0.101	-0.139
-463.113	-58.388	0.316	-0.139
-462.099	-123.340	-0.122	0.020
-461.084	-21.262	0.127	0.078
-460.070	800.000	0.114	0.338
-459.055	-73.546	0.257	-0.095
-458.040	-6.953	0.099	-0.068
-457.026	-83.178	-0.327	-0.106
-456.011	-85.349	-0.034	0.011
-454.997	-200.000	-0.015	0.207
-453.982	-110.969	0.119	-0.025
-452.968	-60.524	0.249	-0.107
-451.953	-91.119	-0.487	0.141
-450.938	-200.000	-0.022	0.252
-449.924	-200.000	-0.009	-0.192
-448.909	122.630	-0.052	-0.066
-447.895	22.706	0.096	0.079
-446.880	198.055	-0.088	-0.136
-445.865	800.000	0.101	0.301
-444.851	27.646	0.144	0.123
-443.836	-35.587	-0.076	-0.042
-442.822	-200.000	0.023	-0.104
-441.807	3.396	-0.039	-0.029
-440.792	-73.881	-0.185	-0.068
-439.778	-29.855	0.163	0.094
-438.763	241.006	-0.118	-0.199
-437.749	-200.000	-0.062	-0.419
-436.734	-138.166	0.071	-0.008
-435.719	12.543	-0.099	0.077
-434.705	205.921	0.286	0.448
-433.690	108.868	0.088	0.106
-432.676	-51.775	0.634	-0.298
-431.661	11.895	-0.298	-0.231
-430.646	800.000	0.042	-0.146
-429.632	-18.834	0.352	-0.221
-428.617	-159.442	0.005	-0.000
-427.603	-79.876	-0.147	0.050
-426.588	-8.246	-0.121	-0.082
-425.573	-200.000	0.198	0.000
-424.559	-122.589	-0.085	0.014
-423.544	-37.362	0.175	-0.094
-422.530	800.000	0.025	0.093
-421.515	-105.352	-0.239	-0.055
-420.500	443.709	-0.063	0.140
-419.486	90.873	0.233	0.264
-418.471	171.795	0.044	-0.063
-417.457	780.464	0.089	0.246
-416.442	-56.652	-0.257	0.115
-415.428	-131.175	0.278	0.037
-414.413	-200.000	-0.029	-0.265
-413.398	113.593	0.030	-0.037
-412.384	317.125	-0.187	0.356
-411.369	-168.007	-0.382	-0.015
-410.355	-25.251	-0.241	0.144
-409.340	4.225	0.180	0.133
-408.325	-115.861	0.314	-0.059
-407.311	-70.706	-0.529	0.201
-406.296	502.515	-0.176	0.410
-405.282	-72.201	0.254	0.095
-404.267	-105.200	-0.214	0.049
-403.252	196.022	0.134	0.206
-402.238	-86.861	0.158	0.049
-401.223	-29.940	0.256	-0.147
-400.209	176.378	-0.199	0.292
-399.194	-125.106	-0.234	-0.036
-398.179	-200.000	0.019	-0.189
-397.165	507.187	0.068	-0.159
-396.150	-200.000	-0.015	0.280
-395.136	19.370	-0.056	0.045
-394.121	-43.815	0.182	-0.092
-393.106	-200.000	-0.030	0.156
-392.092	57.127	-0.096	-0.094
-391.077	-87.575	-0.300	0.091
-390.063	92.962	-0.043	0.049
-389.048	-200.000	-0.012	0.159
-388.033	109.173	-0.242	0.292
-387.019	750.980	-0.016	0.045
-386.004	-82.937	-0.440	-0.143
-384.990	-120.078	-0.086	0.015
-383.975	542.645	-0.094	-0.227
-382.960	-121.305	0.188	-0.032
-381.946	-200.000	0.015	0.158
-380.931	270.491	0.144	-0.255
-379.917	-87.754	-0.387	-0.117
-378.902	-22.409	0.123	-0.075
-377.888	-24.655	0.190	-0.114
-376.873	800.000	-0.050	-0.140
-375.858	-200.000	0.028	0.260
-374.844	-96.622	0.407	0.108
-373.829	-43.675	0.363	-0.184
-372.815	-143.555	0.072	-0.007
-371.800	-61.079	-0.107	0.045
-370.785	-200.000	-0.039	0.195
-369.771	-31.548	0.306	0.173
-368.756	-88.871	0.247	-0.074
-367.742	232.356	-0.101	0.167
-366.727	141.383	-0.105	-0.140
-365.712	166.794	0.135	-0.193
-364.698	67.157	-0.078	-0.081
-363.683	197.398	-0.034	-0.052
-362.669	-42.008	0.191	-0.098
-361.654	371.505	-0.039	0.079
-360.639	295.075	0.159	0.293
-359.625	-37.019	-0.375	-0.202
-358.610	7.899	-0.213	-0.161
-357.596	-200.000	-0.064	-0.296
-356.581	297.166	-0.152	-0.281
-355.566	-122.176	-0.364	0.060
-354.552	369.833	-0.040	-0.082
-353.537	800.000	-0.034	-0.127
-352.523	800.000	0.130	-0.509
-351.508	300.752	0.106	-0.196
-350.493	62.662	0.112	0.113
-349.479	389.623	0.090	-0.187
-348.464	751.790	-0.066	0.179
-347.450	686.051	0.031	0.082
-346.435	57.026	0.221	-0.216
-345.420	311.210	0.124	-0.234
-344.406	-57.943	-0.201	0.088
-343.391	13.392	0.113	0.088
-342.377	-66.125	0.204	0.082
-341.362	-200.000	-0.006	0.121
-340.348	137.457	0.106	-0.139
-339.333	87.643	0.083	0.092
-338.318	34.652	0.211	-0.185
-337.304	-200.000	-0.277	0.000
-336.289	800.000	0.058	0.170
-335.275	154.687	-0.026	0.036
-334.260	-73.680	0.423	-0.155
-333.245	-102.409	-0.100	-0.024
-332.231	-200.000	-0.009	0.264
-331.216	-75.008	0.358	0.129
-330.202	-200.000	-0.006	0.318
-329.187	800.000	0.017	-0.052
-328.172	140.514	-0.210	0.279
-327.158	800.000	-0.034	0.140
-326.143	-73.714	0.541	-0.198
-325.129	62.032	-0.225	-0.225
-324.114	-39.670	-0.115	0.060
-323.099	28.047	-0.124	0.105
-322.085	-100.105	0.037	0.009
-321.070	178.222	0.155	-0.227
-320.056	-200.000	-0.447	0.001
-319.041	-39.183	0.226	-0.119
-318.026	800.000	-0.029	0.095
-317.012	598.395	-0.065	0.161
-315.997	-200.000	-0.032	0.203
-314.983	646.048	-0.055	-0.141
-313.968	-99.205	-0.160	-0.041
-312.953	-140.653	0.262	0.027
-311.939	2.361	-0.085	-0.062
-310.924	348.248	0.103	0.204
-309.910	23.739	-0.081	0.067
-308.895	-200.000	-0.043	-0.190
-307.880	-63.671	0.291	0.120
-306.866	-109.218	0.298	0.064
-305.851	51.957	-0.181	-0.173
-304.837	792.339	0.065	0.180
-303.822	-128.742	-0.016	0.002
-302.807	106.924	-0.130	-0.155
-301.793	-200.000	-0.009	-0.218
-300.778	-38.598	0.067	0.036
-299.764	-129.107	-0.171	-0.024
-298.749	-53.906	0.120	0.055
-297.735	33.667	-0.136	-0.118
-296.720	-200.000	0.080	0.425
-295.705	800.000	-0.056	-0.196
-294.691	-67.543	0.120	-0.047
-293.676	770.986	-0.072	0.197
-292.662	-27.684	0.081	0.047
-291.647	353.335	-0.114	0.228
-290.632	-73.223	-0.270	-0.099
-289.618	-200.000	-0.072	0.371
-288.603	-200.000	0.019	0.122
-287.589	-200.000	-0.014	-0.094
-286.574	-177.984	-0.204	-0.005
-285.559	-36.867	-0.100	0.054
-284.545	800.000	0.077	0.248
-283.530	302.280	0.139	0.258
-282.516	120.710	0.201	-0.251
-281.501	-64.831	-0.169	0.069
-280.486	761.900	-0.087	0.236
-279.472	-50.450	-0.341	-0.161
-278.457	338.656	0.161	-0.315
-277.443	-51.274	-0.309	-0.145
-276.428	-0.208	0.145	-0.103
-275.413	254.733	0.134	-0.230
-274.399	-118.184	0.129	-0.023
-273.384	522.040	0.043	0.100
-272.370	-99.054	0.140	-0.036
-271.355	-23.732	0.147	-0.088
-270.340	235.325	-0.153	-0.253
-269.326	24.022	-0.040	0.033
-268.311	-200.000	-0.008	-0.040
-267.297	-200.000	-0.024	0.181
-266.282	800.000	0.017	0.046
-265.267	314.049	0.072	0.137
-264.253	22.736	-0.192	0.158
-263.238	-98.494	-0.133	-0.034
-262.224	-81.059	0.078	0.026
-261.209	267.137	-0.064	-0.113
-260.195	120.893	-0.383	0.477
-259.180	698.875	0.102	0.268
-258.165	-141.329	0.448	0.046
-257.151	-151.752	-0.128	-0.009
-256.136	-200.000	0.006	-0.136
-255.122	-87.129	-0.263	-0.080
-254.107	56.740	0.104	-0.102
-253.092	-127.286	0.094	-0.014
-252.078	334.493	0.143	0.278
-251.063	800.000	-0.042	0.163
-250.049	-200.000	-0.030	0.220
-249.034	135.779	0.024	0.031
-248.019	-39.842	-0.324	-0.170
-247.005	-128.819	-0.058	0.008
-245.990	2.887	-0.158	-0.115
-244.976	-101.260	0.202	0.049
-243.961	87.640	0.351	0.389
-242.946	-200.000	-0.039	0.198
-241.932	26.398	0.206	-0.173
-240.917	176.640	-0.012	-0.017
-239.903	-60.027	-0.125	-0.053
-238.888	-132.541	-0.423	0.054
-237.873	-200.000	0.008	-0.075
-236.859	55.770	-0.102	-0.099
-235.844	-173.176	-0.272	0.008
-234.830	127.188	0.220	0.280
-233.815	111.653	-0.170	0.206
-232.800	62.202	0.157	-0.157
-231.786	-96.199	0.073	0.019
-230.771	800.000	0.065	0.214
-229.757	-134.371	-0.212	0.026
-228.742	-174.790	0.046	0.001
-227.727	-160.310	-0.145	-0.008
-226.713	-62.445	-0.211	0.088
-225.698	-200.000	-0.012	-0.294
-224.684	357.173	0.054	-0.109
-223.669	353.000	0.123	-0.243
-222.655	800.000	-0.067	-0.248
-221.640	-88.913	-0.346	0.103
-220.625	-152.805	0.177	0.013
-219.611	151.943	-0.068	0.093
-218.596	148.897	0.043	0.059
-217.582	349.703	0.108	-0.214
-216.567	-200.000	-0.026	0.133
-215.552	800.000	-0.120	0.420
-214.538	-64.976	-0.067	-0.027
-213.523	81.578	-0.219	0.237
-212.509	-95.207	-0.130	-0.035
-211.494	800.000	0.035	0.119
-210.479	26.349	-0.145	-0.121
-209.465	-200.000	-0.002	0.130
-208.450	645.556	-0.082	0.209
-207.436	-90.948	0.160	0.046
-206.421	-99.557	0.081	-0.020
-205.406	-200.000	0.053	0.236
-204.392	57.396	-0.059	-0.057
-203.377	-200.000	-0.021	0.127
-202.363	781.263	-0.083	-0.228
-201.348	-29.886	0.237	0.135
-200.333	-7.981	0.084	-0.057
-199.319	-34.620	-0.202	-0.111
-198.304	800.000	-0.054	-0.199
-197.290	132.121	-0.079	-0.102
-196.275	28.005	-0.364	0.307
-195.260	800.000	0.108	-0.339
-194.246	-1.617	-0.055	0.039
-193.231	470.068	-0.067	0.150
-192.217	-152.302	-0.077	-0.006
-191.202	194.781	0.139	0.211
-190.187	-22.948	-0.190	0.114
-189.173	-16.130	-0.245	0.156
-188.158	73.206	0.126	0.131
-187.144	134.659	0.326	-0.423
-186.129	-40.242	0.241	-0.125
-185.114	-200.000	0.007	-0.048
-184.100	288.521	-0.162	-0.294
-183.085	-141.038	0.110	0.011
-182.071	5.521	-0.206	0.152
-181.056	-4.194	-0.066	-0.045
-180.042	108.252	-0.139	-0.166
-179.027	-200.000	-0.017	-0.320
-178.012	-179.393	0.191	-0.004
-176.998	333.431	-0.091	0.176
-175.983	628.031	0.064	-0.161
-174.969	-146.133	-0.120	-0.011
-173.954	800.000	0.001	0.005
-172.939	134.412	0.054	-0.070
-171.925	-167.879	0.347	0.014
-170.910	444.093	-0.135	-0.296
-169.896	-141.400	-0.202	0.020
-168.881	-97.604	0.092	0.024
-167.866	514.180	0.133	-0.310
-166.852	-79.805	0.099	0.033
-165.837	-200.000	0.031	-0.207
-164.823	-162.340	-0.237	0.012
-163.808	56.302	0.050	-0.049
-162.793	324.019	-0.098	-0.187
-161.779	-101.416	0.111	-0.027
-160.764	82.619	0.225	0.244
-159.750	-19.958	0.230	0.142
-158.735	95.018	0.112	0.128
-157.720	-121.039	0.074	-0.012
-156.706	196.928	-0.168	0.256
-155.691	-66.978	0.068	0.027
-154.677	800.000	-0.031	0.116
-153.662	-155.501	0.174	-0.011
-152.647	122.404	-0.083	-0.104
-151.633	189.680	0.037	-0.055
-150.618	300.598	-0.050	-0.092
-149.604	-9.314	0.113	0.075
-148.589	-200.000	0.029	0.178
-147.574	-116.258	0.358	-0.066
-146.560	-200.000	0.089	-0.404
-145.545	100.387	0.311	0.360
-144.531	800.000	0.053	0.157
-143.516	800.000	-0.079	-0.280
-142.502	-160.817	-0.078	-0.004
-141.487	-138.767	0.107	0.012
-140.472	358.895	0.064	0.128
-139.458	8.215	-0.225	0.169
-138.443	800.000	0.072	0.285
-137.429	800.000	-0.061	-0.253
-136.414	5.464	0.106	0.078
-135.399	544.687	-0.175	0.418
-134.385	621.624	0.094	0.236
-133.370	463.232	0.045	-0.101
-132.356	4.837	-0.136	0.100
-131.341	3.759	0.039	-0.028
-130.326	800.000	-0.182	0.579
-129.312	-200.000	-0.007	0.037
-128.297	1.813	0.196	-0.141
-127.283	69.287	-0.185	0.189
-126.268	-144.782	-0.029	-0.003
-125.253	7.861	-0.244	0.182
-124.239	800.000	0.060	0.253
-123.224	-73.965	-0.011	-0.004
-122.210	800.000	-0.074	0.244
-121.195	-200.000	0.026	0.310
