DTS Sentinel unit serial number:	SN413079Multiplexer serial number:	ORYXHardware model number:	OX4-SRSoftware version number:	ORYX F/W v4.00 Oryx Data Collector v3.7.2.0data status	okinstallation	princeton_trtdifferential loss correction	single-endedforward channel	channel 3reverse channel	N/Adate	2019/09/17time	11:36:35forward acquisition time	60.00reverse acquisition time	0.00gamma	496.2192k internal	0.2322k external	0.2322temperature offset calibration	0.9957default loss term (dB/km)	0.3790temperature slope calibration	1.0000multiplexer offset coefficient	1.0000multiplexer slope coefficient	1.0000fibre end	0.00T internal ref (°C)	30.75T ext. ref 1 (°C)	0.37T ext. ref 2 (°C)	26.57length (m)	temperature (°C)	Stokes	anti-Stokes-747.200	12.674	0.164	0.128
-746.185	-200.000	-0.032	0.333
-745.171	3.738	0.263	-0.194
-744.156	800.000	-0.156	0.449
-743.142	-139.353	0.250	-0.027
-742.127	-17.949	0.196	0.124
-741.112	800.000	-0.046	0.129
-740.098	800.000	0.020	0.088
-739.083	-200.000	-0.002	0.278
-738.069	-200.000	-0.012	0.444
-737.054	121.507	-0.073	0.091
-736.039	800.000	-0.052	-0.211
-735.025	-200.000	-0.022	0.296
-734.010	-35.401	-0.244	0.134
-732.996	5.622	0.051	0.038
-731.981	73.629	0.218	-0.230
-730.966	-200.000	-0.005	0.205
-729.952	-112.865	0.116	-0.023
-728.937	116.588	-0.122	0.151
-727.923	-200.000	0.003	-0.205
-726.908	-145.674	-0.327	0.029
-725.894	81.481	0.125	0.136
-724.879	83.966	0.048	-0.053
-723.864	-200.000	0.009	-0.136
-722.850	796.248	0.098	0.273
-721.835	-132.028	0.173	-0.023
-720.821	385.849	-0.070	0.145
-719.806	800.000	0.128	0.441
-718.791	-100.596	-0.364	-0.091
-717.777	253.244	0.060	0.104
-716.762	3.009	0.178	-0.130
-715.748	-200.000	-0.009	-0.149
-714.733	-105.308	-0.207	-0.048
-713.718	-200.000	0.011	-0.183
-712.704	-200.000	0.053	-0.269
-711.689	-105.111	0.377	0.087
-710.675	361.968	-0.098	-0.199
-709.660	207.686	0.105	-0.165
-708.645	74.312	0.038	0.040
-707.631	-166.627	0.250	0.010
-706.616	-49.715	-0.134	0.064
-705.602	1.911	-0.205	0.149
-704.587	-71.504	0.267	0.101
-703.572	800.000	-0.111	-0.360
-702.558	524.180	0.084	-0.200
-701.543	108.900	-0.058	-0.070
-700.529	-125.253	0.249	0.038
-699.514	-114.666	-0.087	0.017
-698.499	-200.000	-0.019	-0.092
-697.485	-200.000	0.010	-0.350
-696.470	-120.008	0.144	-0.025
-695.456	194.090	-0.218	-0.333
-694.441	115.705	-0.032	-0.039
-693.426	-146.231	0.346	0.031
-692.412	-38.940	0.302	0.160
-691.397	63.912	-0.145	-0.147
-690.383	800.000	-0.072	0.214
-689.368	-200.000	-0.053	-0.000
-688.354	-5.680	-0.370	0.255
-687.339	93.132	-0.126	0.143
-686.324	67.480	0.043	0.044
-685.310	252.515	0.133	-0.229
-684.295	-200.000	0.036	0.175
-683.281	-149.133	-0.054	-0.004
-682.266	358.785	0.111	-0.224
-681.251	180.090	0.029	0.043
-680.237	240.560	-0.171	0.288
-679.222	-86.347	0.231	0.071
-678.208	-166.549	0.224	-0.009
-677.193	202.967	-0.152	-0.237
-676.178	241.479	0.059	-0.099
-675.164	57.475	0.180	-0.178
-674.149	-200.000	0.023	0.294
-673.135	-200.000	0.043	0.316
-672.120	-83.927	-0.238	0.076
-671.105	-200.000	-0.084	-0.385
-670.091	-47.392	0.179	0.088
-669.076	82.008	0.058	0.064
-668.062	-163.179	0.164	0.008
-667.047	-149.357	0.275	0.022
-666.032	-62.474	0.147	-0.061
-665.018	-79.543	-0.332	0.113
-664.003	181.538	-0.031	-0.045
-662.989	-53.043	-0.253	0.117
-661.974	-138.994	-0.092	-0.010
-660.959	121.037	-0.083	0.105
-659.945	-66.877	0.396	-0.157
-658.930	-108.358	-0.400	-0.087
-657.916	-66.500	-0.233	-0.093
-656.901	-78.901	-0.168	0.058
-655.886	85.208	0.067	0.074
-654.872	-200.000	0.050	-0.245
-653.857	-200.000	0.043	-0.196
-652.843	41.071	0.062	0.057
-651.828	32.449	-0.115	0.100
-650.814	405.015	0.131	-0.277
-649.799	662.628	0.105	0.272
-648.784	36.032	-0.218	-0.194
-647.770	-97.566	-0.321	0.084
-646.755	-200.000	-0.022	0.185
-645.741	-157.388	0.114	0.007
-644.726	-41.970	0.405	-0.209
-643.711	800.000	0.007	-0.021
-642.697	32.678	0.032	0.028
-641.682	49.655	0.121	-0.115
-640.668	409.833	-0.129	-0.275
-639.653	800.000	-0.065	-0.205
-638.638	-200.000	-0.008	0.042
-637.624	-114.404	-0.253	-0.049
-636.609	-200.000	-0.009	0.142
-635.595	-22.742	-0.235	-0.142
-634.580	21.599	-0.249	-0.204
-633.565	493.114	0.027	-0.062
-632.551	88.715	-0.080	0.090
-631.536	152.511	-0.074	-0.101
-630.522	59.445	-0.353	-0.350
-629.507	800.000	-0.067	0.209
-628.492	-183.204	0.156	0.003
-627.478	541.982	-0.048	0.116
-626.463	5.197	0.020	0.014
-625.449	372.264	0.092	0.188
-624.434	-87.905	0.275	0.083
-623.419	1.298	-0.310	0.224
-622.405	-191.069	0.148	-0.002
-621.390	32.105	0.149	0.129
-620.376	-156.913	-0.364	-0.022
-619.361	800.000	0.111	0.324
-618.346	243.908	-0.117	0.197
-617.332	-149.818	-0.157	0.012
-616.317	13.176	-0.164	-0.128
-615.303	198.876	0.092	-0.141
-614.288	-1.745	-0.142	0.101
-613.273	-200.000	-0.050	-0.459
-612.259	800.000	-0.027	0.090
-611.244	679.499	0.083	0.217
-610.230	-28.204	0.135	-0.079
-609.215	-200.000	-0.055	0.305
-608.201	-70.248	-0.354	-0.135
-607.186	-119.855	-0.210	0.036
-606.171	-90.481	0.237	0.069
-605.157	142.217	0.027	-0.036
-604.142	-150.694	-0.373	0.029
-603.128	-200.000	0.007	-0.040
-602.113	19.408	0.292	-0.236
-601.098	130.864	-0.220	0.284
-600.084	32.576	-0.117	0.102
-599.069	297.846	0.168	-0.310
-598.055	77.221	0.205	-0.219
-597.040	-22.597	-0.153	-0.093
-596.025	-96.215	-0.109	-0.029
-595.011	-200.000	-0.060	-0.344
-593.996	47.691	0.305	-0.286
-592.982	-0.645	0.163	-0.116
-591.967	-89.655	-0.173	-0.051
-590.952	184.541	0.120	-0.179
-589.938	650.088	0.111	0.286
-588.923	800.000	-0.049	-0.146
-587.909	30.828	-0.146	0.125
-586.894	421.695	-0.212	0.456
-585.879	270.201	-0.167	-0.294
-584.865	33.270	0.272	0.237
-583.850	-19.274	-0.120	0.075
-582.836	162.620	-0.164	-0.232
-581.821	800.000	-0.086	0.240
-580.806	-156.518	-0.229	-0.014
-579.792	164.747	-0.153	0.217
-578.777	-200.000	-0.068	-0.369
-577.763	800.000	-0.081	-0.242
-576.748	17.775	0.125	0.100
-575.733	-56.111	-0.096	-0.043
-574.719	-200.000	0.026	-0.201
-573.704	-87.968	-0.087	-0.026
-572.690	-149.975	-0.119	0.009
-571.675	-200.000	0.027	-0.304
-570.661	800.000	-0.116	0.418
-569.646	-162.155	-0.179	0.009
-568.631	734.254	-0.088	0.235
-567.617	45.151	0.065	0.060
-566.602	261.831	0.010	0.017
-565.588	319.195	-0.015	-0.029
-564.573	800.000	-0.080	-0.303
-563.558	-23.541	0.251	-0.151
-562.544	37.271	-0.296	0.263
-561.529	155.182	-0.122	-0.169
-560.515	-200.000	-0.003	-0.032
-559.500	800.000	-0.067	0.232
-558.485	-116.317	-0.334	0.062
-557.471	800.000	-0.108	-0.313
-556.456	2.132	-0.209	-0.151
-555.442	-70.412	-0.418	-0.159
-554.427	282.349	-0.130	0.234
-553.412	-91.491	0.037	0.010
-552.398	291.292	0.122	-0.222
-551.383	-200.000	-0.025	0.187
-550.369	308.505	0.127	0.238
-549.354	-15.385	0.055	-0.036
-548.339	-154.395	0.204	-0.014
-547.325	571.519	-0.113	-0.276
-546.310	620.642	-0.034	-0.086
-545.296	-109.503	-0.070	-0.015
-544.281	33.002	0.091	-0.079
-543.266	471.593	-0.245	0.552
-542.252	184.849	0.088	0.131
-541.237	319.742	0.078	-0.149
-540.223	-200.000	-0.013	-0.083
-539.208	67.317	-0.061	0.063
-538.193	64.591	-0.195	-0.197
-537.179	800.000	-0.027	-0.080
-536.164	101.677	0.031	0.036
-535.150	-182.062	0.309	-0.006
-534.135	-199.930	-0.251	-0.001
-533.121	-138.702	-0.307	0.034
-532.106	-119.048	-0.239	0.042
-531.091	-69.382	0.131	0.050
-530.077	175.693	0.095	0.139
-529.062	144.320	-0.246	-0.328
-528.048	-60.689	-0.300	-0.128
-527.033	471.016	-0.028	0.063
-526.018	-33.024	0.135	-0.075
-525.004	63.907	-0.241	-0.243
-523.989	282.503	0.122	0.220
-522.975	800.000	0.059	0.165
-521.960	154.614	0.277	0.382
-520.945	670.038	-0.097	0.252
-519.931	71.800	-0.078	-0.081
-518.916	227.008	0.028	0.046
-517.902	-200.000	-0.039	-0.398
-516.887	-41.537	0.100	-0.052
-515.872	-7.775	0.306	0.207
-514.858	82.364	-0.267	0.290
-513.843	-200.000	-0.050	-0.257
-512.829	69.905	-0.055	-0.057
-511.814	-200.000	-0.061	-0.333
-510.799	427.289	0.112	-0.243
-509.785	202.590	0.128	-0.198
-508.770	76.610	-0.191	0.203
-507.756	-200.000	-0.001	0.161
-506.741	-25.343	-0.257	-0.152
-505.726	-89.578	-0.277	-0.081
-504.712	-13.026	0.213	-0.139
-503.697	291.211	-0.035	-0.063
-502.683	-200.000	-0.011	-0.140
-501.668	283.879	-0.197	0.355
-500.653	380.665	0.088	0.181
-499.639	131.503	-0.228	0.293
-498.624	182.931	0.049	-0.072
-497.610	-95.875	-0.249	-0.067
-496.595	-26.330	-0.090	0.053
-495.581	-129.569	-0.048	0.007
-494.566	14.310	-0.144	0.112
-493.551	297.580	-0.151	0.277
-492.537	68.427	-0.148	0.152
-491.522	-200.000	0.045	0.242
-490.508	142.777	-0.105	0.139
-489.493	-37.977	-0.180	-0.096
-488.478	92.787	0.211	0.238
-487.464	-200.000	0.034	-0.208
-486.449	-173.364	-0.306	0.009
-485.435	-14.543	0.136	0.088
-484.420	157.505	0.200	0.277
-483.405	-58.538	-0.180	-0.078
-482.391	604.971	0.129	-0.321
-481.376	123.778	0.318	-0.400
-480.362	114.806	-0.151	0.184
-479.347	-94.994	0.445	0.120
-478.332	65.547	-0.294	-0.297
-477.318	800.000	-0.027	0.083
-476.303	800.000	0.061	0.268
-475.289	-30.480	-0.232	0.132
-474.274	64.237	-0.147	0.148
-473.259	309.388	-0.089	-0.167
-472.245	-200.000	-0.056	-0.294
-471.230	106.533	0.027	0.032
-470.216	7.762	0.190	-0.142
-469.201	289.504	-0.198	-0.358
-468.186	112.180	-0.180	0.217
-467.172	-72.446	0.183	0.067
-466.157	-136.826	0.264	0.030
-465.143	-148.054	0.273	-0.023
-464.128	383.466	0.119	-0.244
-463.113	690.930	-0.074	-0.192
-462.099	-100.666	0.255	-0.063
-461.084	-35.536	-0.137	0.074
-460.070	-182.372	0.173	0.003
-459.055	-92.638	0.280	-0.079
-458.040	-23.943	-0.123	-0.073
-457.026	-137.087	-0.135	-0.015
-456.011	-179.441	-0.166	0.004
-454.997	375.677	-0.031	0.064
-453.982	266.223	0.038	-0.066
-452.968	800.000	-0.065	0.250
-451.953	71.216	-0.224	-0.232
-450.938	-68.061	0.268	0.104
-449.924	-181.984	0.287	0.005
-448.909	-200.000	0.046	0.262
-447.895	-121.256	0.292	0.049
-446.880	-200.000	-0.016	-0.265
-445.865	170.920	0.027	0.038
-444.851	82.563	-0.246	0.267
-443.836	9.099	0.115	-0.087
-442.822	-55.329	0.065	0.029
-441.807	-36.831	0.145	-0.078
-440.792	113.248	-0.232	0.281
-439.778	-139.512	-0.088	-0.009
-438.763	-15.454	0.211	-0.135
-437.749	70.305	-0.034	0.035
-436.734	-57.148	0.317	0.140
-435.719	-143.430	0.265	-0.025
-434.705	-114.693	-0.095	0.018
-433.690	65.157	0.149	-0.151
-432.676	184.828	0.215	-0.318
-431.661	800.000	-0.039	0.157
-430.646	800.000	0.038	-0.137
-429.632	-200.000	-0.051	0.276
-428.617	-115.210	-0.145	0.027
-427.603	482.086	-0.115	-0.261
-426.588	-23.467	-0.210	0.126
-425.573	218.091	0.105	-0.167
-424.559	-15.706	-0.141	-0.090
-423.544	480.351	0.066	0.149
-422.530	-102.683	-0.113	-0.027
-421.515	629.216	0.069	-0.174
-420.500	21.140	-0.495	-0.401
-419.486	-158.071	0.571	0.033
-418.471	262.412	0.192	-0.333
-417.457	215.398	0.182	0.289
-416.442	53.521	-0.303	-0.290
-415.428	265.912	-0.026	-0.045
-414.413	-200.000	0.003	0.141
-413.398	24.218	0.135	0.111
-412.384	285.095	-0.074	-0.134
-411.369	-25.273	-0.111	-0.066
-410.355	-200.000	0.049	0.417
-409.340	336.460	0.147	0.285
-408.325	-76.498	0.214	0.075
-407.311	-200.000	-0.011	0.092
-406.296	178.042	-0.116	-0.169
-405.282	83.740	0.162	-0.176
-404.267	-200.000	0.006	-0.185
-403.252	40.699	0.144	-0.129
-402.238	-86.445	0.200	-0.061
-401.223	800.000	0.034	-0.140
-400.209	196.991	0.296	0.450
-399.194	-70.803	-0.143	0.054
-398.179	20.050	0.132	0.106
-397.165	154.630	0.073	-0.100
-396.150	61.177	-0.209	-0.207
-395.136	800.000	0.102	-0.295
-394.121	-200.000	0.020	0.223
-393.106	-104.331	0.152	-0.035
-392.092	44.995	-0.102	-0.093
-391.077	21.112	0.144	-0.117
-390.063	22.782	-0.117	0.096
-389.048	-68.480	0.396	-0.153
-388.033	90.115	0.098	0.110
-387.019	175.618	0.029	0.042
-386.004	-200.000	-0.011	0.090
-384.990	241.770	-0.059	0.099
-383.975	296.180	-0.177	0.323
-382.960	8.450	0.136	0.102
-381.946	-200.000	-0.003	-0.315
-380.931	63.195	-0.068	-0.068
-379.917	10.914	0.384	0.292
-378.902	800.000	0.062	0.203
-377.888	34.933	0.237	-0.206
-376.873	44.477	-0.169	-0.154
-375.858	118.675	-0.203	-0.250
-374.844	-15.866	0.149	-0.094
-373.829	0.878	0.143	0.102
-372.815	800.000	0.104	0.354
-371.800	28.755	0.243	0.205
-370.785	-60.142	-0.368	-0.156
-369.771	-200.000	-0.054	0.274
-368.756	54.580	-0.043	0.041
-367.742	-34.975	0.424	-0.230
-366.727	-200.000	-0.030	-0.540
-365.712	247.990	0.150	-0.253
-364.698	329.502	0.043	-0.083
-363.683	289.280	0.057	-0.103
-362.669	-47.337	0.266	-0.129
-361.654	-87.493	0.224	-0.067
-360.639	-141.109	0.215	0.022
-359.625	800.000	-0.047	0.145
-358.610	306.699	-0.081	0.150
-357.596	-200.000	-0.008	-0.199
-356.581	286.325	0.323	-0.579
-355.566	-152.541	0.255	0.018
-354.552	-27.296	0.233	0.135
-353.537	-51.909	-0.366	0.169
-352.523	3.092	0.158	-0.114
-351.508	108.367	0.271	0.322
-350.493	800.000	-0.110	0.317
-349.479	-105.280	-0.413	0.094
-348.464	547.474	-0.055	-0.132
-347.450	-200.000	0.052	0.421
-346.435	800.000	0.098	0.333
-345.420	-54.575	0.345	-0.155
-344.406	28.113	0.208	-0.175
-343.391	-200.000	0.014	0.116
-342.377	-129.427	-0.314	0.043
-341.362	183.121	0.025	0.036
-340.348	332.960	-0.042	0.080
-339.333	-113.496	-0.247	0.048
-338.318	-158.249	0.457	0.026
-337.304	-94.379	-0.331	0.090
-336.289	186.936	-0.080	0.118
-335.275	-134.228	-0.242	0.030
-334.260	378.774	0.116	-0.235
-333.245	340.048	-0.193	0.375
-332.231	-97.466	0.206	-0.053
-331.216	22.711	0.222	0.181
-330.202	-79.273	0.149	-0.050
-329.187	-108.145	-0.227	0.049
-328.172	199.857	0.160	-0.245
-327.158	258.446	-0.084	-0.143
-326.143	203.649	-0.139	0.213
-325.129	422.064	0.025	-0.053
-324.114	-68.567	-0.386	-0.149
-323.099	363.861	0.059	-0.118
-322.085	-200.000	-0.004	-0.133
-321.070	14.016	0.239	0.185
-320.056	59.606	0.030	0.030
-319.041	-200.000	0.032	0.149
-318.026	-200.000	-0.032	-0.264
-317.012	-200.000	0.040	-0.492
-315.997	213.250	0.145	-0.228
-314.983	-99.994	-0.137	-0.034
-313.968	-200.000	0.062	0.418
-312.953	221.611	0.013	0.020
-311.939	-76.806	0.244	-0.085
-310.924	-37.190	0.189	-0.100
-309.910	-18.714	-0.263	-0.163
-308.895	800.000	0.069	-0.216
-307.880	195.543	0.211	0.319
-306.866	214.505	-0.046	0.073
-305.851	17.767	0.209	0.165
-304.837	800.000	0.065	-0.275
-303.822	-139.121	-0.240	0.026
-302.807	-108.923	0.275	-0.058
-301.793	120.491	-0.176	0.217
-300.778	54.744	0.044	0.043
-299.764	358.668	0.132	0.262
-298.749	-32.445	-0.224	-0.124
-297.735	-172.457	-0.036	0.001
-296.720	-178.921	0.142	0.003
-295.705	699.991	0.082	-0.215
-294.691	60.047	-0.213	0.209
-293.676	347.727	0.039	0.077
-292.662	130.123	0.221	-0.280
-291.647	-200.000	0.050	0.243
-290.632	18.178	0.138	-0.109
-289.618	-200.000	-0.044	0.279
-288.603	230.452	-0.190	0.308
-287.589	800.000	0.030	-0.104
-286.574	800.000	0.029	0.113
-285.559	-126.947	0.179	0.026
-284.545	-133.976	0.255	0.031
-283.530	450.452	-0.023	0.049
-282.516	-26.572	0.072	-0.042
-281.501	-154.313	-0.323	-0.022
-280.486	752.964	0.078	-0.210
-279.472	-161.553	0.339	-0.017
-278.457	-116.305	0.245	0.045
-277.443	-200.000	-0.017	-0.247
-276.428	24.729	-0.324	0.266
-275.413	53.918	-0.183	0.175
-274.399	-47.676	-0.070	-0.034
-273.384	232.757	-0.187	-0.305
-272.370	-149.818	-0.110	0.009
-271.355	-30.200	0.292	0.165
-270.340	-46.920	0.063	0.031
-269.326	-200.000	0.021	-0.272
-268.311	-200.000	0.095	0.459
-267.297	-1.412	0.087	0.061
-266.282	171.699	-0.086	0.123
-265.267	-82.621	-0.389	-0.125
-264.253	-55.227	-0.086	0.038
-263.238	159.896	0.107	0.147
-262.224	177.447	0.216	-0.311
-261.209	162.104	0.122	0.169
-260.195	-21.365	0.238	-0.144
-259.180	486.624	0.055	0.124
-258.165	-200.000	0.074	-0.340
-257.151	19.749	0.202	-0.161
-256.136	-200.000	-0.008	-0.144
-255.122	800.000	0.030	-0.113
-254.107	-200.000	-0.003	-0.090
-253.092	-187.587	-0.242	-0.003
-252.078	189.399	0.103	-0.152
-251.063	800.000	0.135	0.420
-250.049	800.000	-0.045	0.193
-249.034	61.420	-0.209	-0.206
-248.019	3.885	-0.436	-0.315
-247.005	33.885	-0.125	-0.108
-245.990	4.898	-0.151	-0.110
-244.976	383.264	-0.100	-0.204
-243.961	-148.046	0.286	0.024
-242.946	-71.400	0.169	-0.063
-241.932	-200.000	0.079	0.441
-240.917	-171.972	-0.057	-0.002
-239.903	-200.000	0.015	-0.106
-238.888	230.429	-0.144	0.233
-237.873	-29.357	0.204	0.116
-236.859	54.196	0.063	0.060
-235.844	344.910	0.108	0.211
-234.830	-43.869	0.122	-0.061
-233.815	-87.975	-0.078	-0.023
-232.800	-200.000	-0.015	0.275
-231.786	-179.718	0.253	-0.005
-230.771	800.000	0.027	0.109
-229.757	-10.392	0.138	-0.091
-228.742	-200.000	0.028	0.155
-227.727	9.643	-0.071	0.053
-226.713	-15.155	-0.190	0.120
-225.698	71.641	0.137	0.141
-224.684	25.066	-0.185	-0.152
-223.669	-11.179	-0.245	-0.160
-222.655	120.487	0.038	0.047
-221.640	429.918	0.073	-0.156
-220.625	800.000	-0.078	0.241
-219.611	-68.279	0.347	-0.134
-218.596	800.000	0.059	-0.180
-217.582	-192.664	-0.268	-0.002
-216.567	-123.608	0.201	0.032
-215.552	-82.890	0.170	-0.054
-214.538	73.233	0.207	-0.215
-213.523	-102.752	0.303	0.071
-212.509	82.293	0.097	-0.104
-211.494	67.528	-0.197	-0.199
-210.479	-53.065	0.293	0.133
-209.465	800.000	-0.022	-0.060
-208.450	155.181	-0.212	-0.288
-207.436	326.680	0.136	-0.257
-206.421	-75.108	0.339	0.120
-205.406	669.021	-0.105	-0.270
-204.392	132.208	-0.098	0.124
-203.377	-155.047	0.335	0.022
-202.363	-23.883	-0.092	-0.054
-201.348	285.830	0.086	0.154
-200.333	800.000	0.046	0.188
-199.319	221.778	-0.083	0.132
-198.304	-200.000	-0.042	0.256
-197.290	800.000	-0.060	-0.170
-196.275	58.592	-0.141	0.137
-195.260	122.229	0.024	-0.030
-194.246	-126.120	-0.168	0.025
-193.231	800.000	0.087	-0.345
-192.217	75.630	-0.044	-0.046
-191.202	-200.000	0.010	0.077
-190.187	-146.131	-0.343	0.030
-189.173	-164.682	-0.304	-0.014
-188.158	-200.000	0.014	0.604
-187.144	30.756	0.208	-0.176
-186.129	82.108	-0.385	0.412
-185.114	378.472	-0.185	-0.375
-184.100	-174.860	-0.258	-0.007
-183.085	0.801	-0.112	0.079
-182.071	28.051	-0.195	-0.163
-181.056	-200.000	-0.052	0.433
-180.042	-41.231	0.173	0.088
-179.027	-72.609	0.246	-0.090
-178.012	-200.000	0.040	0.321
-176.998	800.000	-0.024	0.097
-175.983	800.000	0.035	0.119
-174.969	-200.000	0.011	-0.058
-173.954	-174.263	-0.381	0.011
-172.939	-132.301	-0.185	0.024
-171.925	800.000	-0.105	-0.357
-170.910	225.962	-0.127	-0.204
-169.896	-119.185	0.086	-0.015
-168.881	800.000	0.070	-0.243
-167.866	-200.000	-0.030	0.277
-166.852	316.707	0.219	-0.408
-165.837	800.000	-0.140	0.479
-164.823	279.619	0.269	0.475
-163.808	485.780	0.036	0.080
-162.793	-190.911	-0.121	-0.001
-161.779	800.000	0.099	-0.371
-160.764	347.624	0.102	0.199
-159.750	-200.000	-0.084	0.394
-158.735	-78.785	0.207	0.070
-157.720	328.395	0.120	-0.227
-156.706	-1.679	0.104	-0.072
-155.691	-127.980	0.302	-0.043
-154.677	171.360	-0.183	0.259
-153.662	800.000	-0.082	-0.276
-152.647	-200.000	-0.006	0.356
-151.633	100.902	0.016	-0.018
-150.618	-107.855	0.058	-0.013
-149.604	-200.000	0.011	0.061
-148.589	371.213	0.085	-0.170
-147.574	416.671	-0.102	0.214
-146.560	298.559	-0.114	0.207
-145.545	-55.467	0.249	-0.110
-144.531	800.000	0.028	-0.114
-143.516	17.133	0.299	0.234
-142.502	75.853	0.101	0.105
-141.487	50.419	-0.075	0.070
-140.472	99.905	0.143	-0.164
-139.458	229.101	0.164	-0.265
-138.443	800.000	0.081	0.322
-137.429	13.424	0.259	-0.198
-136.414	-151.001	0.105	0.008
-135.399	598.956	-0.034	0.084
-134.385	51.953	0.131	-0.123
-133.370	38.014	-0.238	-0.209
-132.356	484.175	0.041	0.092
-131.341	54.222	0.248	0.236
-130.326	-200.000	-0.005	-0.035
-129.312	12.719	0.095	-0.072
-128.297	800.000	0.121	0.426
-127.283	-200.000	-0.007	-0.100
-126.268	-47.579	0.316	0.151
-125.253	46.101	0.289	-0.264
-124.239	-50.477	0.427	0.199
-123.224	-86.019	-0.029	-0.009
-122.210	-72.835	0.131	-0.048
-121.195	-86.718	-0.051	0.015
-120.180	139.335	0.217	0.282
