DTS Sentinel unit serial number:	SN413079Multiplexer serial number:	ORYXHardware model number:	OX4-SRSoftware version number:	ORYX F/W v4.00 Oryx Data Collector v3.7.2.0data status	okinstallation	princeton_trtdifferential loss correction	single-endedforward channel	channel 3reverse channel	N/Adate	2019/09/18time	06:40:35forward acquisition time	60.00reverse acquisition time	0.00gamma	496.2192k internal	0.2343k external	0.2343temperature offset calibration	0.9953default loss term (dB/km)	0.3790temperature slope calibration	1.0000multiplexer offset coefficient	1.0000multiplexer slope coefficient	1.0000fibre end	0.00T internal ref (°C)	23.27T ext. ref 1 (°C)	0.19T ext. ref 2 (°C)	17.10length (m)	temperature (°C)	Stokes	anti-Stokes-747.200	87.306	0.102	0.113
-746.185	-56.807	-0.338	0.150
-745.171	622.971	-0.047	0.118
-744.156	-18.579	-0.337	-0.211
-743.142	28.054	-0.096	-0.081
-742.127	-158.231	-0.146	0.009
-741.112	6.879	-0.029	-0.022
-740.098	-101.470	-0.829	-0.202
-739.083	16.773	0.086	0.068
-738.069	143.314	-0.263	0.351
-737.054	-154.642	0.234	-0.016
-736.039	334.561	-0.139	-0.269
-735.025	197.647	0.053	0.082
-734.010	27.733	0.257	-0.217
-732.996	-87.292	-0.699	0.212
-731.981	-163.974	0.251	0.012
-730.966	-24.689	0.122	0.073
-729.952	-26.183	-0.179	0.106
-728.937	230.534	-0.027	0.045
-727.923	-150.649	0.178	0.014
-726.908	-200.000	0.072	0.318
-725.894	345.621	-0.134	-0.264
-724.879	662.485	-0.083	0.213
-723.864	-200.000	-0.003	-0.174
-722.850	-27.420	-0.100	-0.058
-721.835	-151.625	-0.280	0.021
-720.821	64.738	-0.092	-0.093
-719.806	-63.228	-0.252	-0.104
-718.791	-88.417	0.264	-0.079
-717.777	1.732	0.075	-0.054
-716.762	582.608	0.142	0.350
-715.748	-11.836	-0.197	0.129
-714.733	-200.000	-0.032	0.285
-713.718	-200.000	0.019	-0.330
-712.704	276.993	-0.193	0.343
-711.689	-137.352	0.219	-0.025
-710.675	-200.000	-0.223	0.001
-709.660	340.908	-0.134	-0.262
-708.645	-35.488	0.239	-0.130
-707.631	181.888	0.205	0.302
-706.616	371.614	-0.108	-0.220
-705.602	-76.588	-0.029	-0.010
-704.587	-68.330	0.053	-0.020
-703.572	67.112	0.153	-0.156
-702.558	-45.455	0.149	0.074
-701.543	-200.000	-0.028	0.169
-700.529	-119.863	-0.090	0.016
-699.514	800.000	0.037	-0.149
-698.499	252.880	0.145	0.247
-697.485	-98.427	-0.167	0.043
-696.470	12.823	-0.098	0.076
-695.456	-32.531	-0.201	-0.112
-694.441	-22.728	0.071	-0.043
-693.426	-4.063	-0.034	-0.024
-692.412	33.302	-0.303	-0.263
-691.397	516.075	0.058	0.135
-690.383	240.871	0.069	0.116
-689.368	416.282	0.130	-0.276
-688.354	87.781	-0.062	-0.069
-687.339	800.000	-0.031	0.098
-686.324	25.308	0.208	-0.173
-685.310	254.332	-0.245	-0.419
-684.295	-75.861	-0.125	-0.044
-683.281	167.773	-0.137	-0.194
-682.266	4.414	-0.157	-0.115
-681.251	-200.000	0.006	-0.238
-680.237	17.006	0.172	0.136
-679.222	-76.354	-0.183	0.064
-678.208	-173.215	-0.038	0.001
-677.193	21.513	0.130	0.106
-676.178	800.000	-0.020	0.073
-675.164	-200.000	0.033	-0.461
-674.149	-139.316	0.181	0.019
-673.135	-181.911	0.166	-0.003
-672.120	-200.000	0.073	-0.416
-671.105	596.442	-0.091	-0.225
-670.091	800.000	0.124	0.402
-669.076	-51.440	-0.288	0.135
-668.062	-33.214	-0.271	-0.150
-667.047	800.000	0.019	-0.066
-666.032	260.389	-0.173	-0.298
-665.018	-132.032	0.106	0.014
-664.003	343.619	-0.047	0.092
-662.989	-200.000	-0.088	0.398
-661.974	265.398	0.201	0.350
-660.959	-75.328	0.062	0.022
-659.945	-129.637	0.087	0.012
-658.930	-149.615	0.055	-0.004
-657.916	-200.000	-0.045	-0.202
-656.901	38.987	-0.089	0.079
-655.886	-200.000	0.002	-0.097
-654.872	-200.000	0.007	0.048
-653.857	-94.099	0.080	0.022
-652.843	61.346	-0.138	0.137
-651.828	-200.000	0.005	-0.191
-650.814	58.184	-0.098	0.096
-649.799	113.057	0.161	-0.195
-648.784	-200.000	-0.001	0.247
-647.770	20.987	-0.117	-0.095
-646.755	34.739	-0.296	0.258
-645.741	633.946	0.059	-0.148
-644.726	800.000	0.076	0.267
-643.711	24.252	0.038	0.031
-642.697	800.000	-0.017	0.062
-641.682	-67.893	0.441	-0.172
-640.668	306.422	-0.123	0.228
-639.653	75.618	-0.054	0.057
-638.638	-7.895	-0.074	0.050
-637.624	186.947	-0.071	0.106
-636.609	-85.492	0.234	0.073
-635.595	-200.000	0.004	0.083
-634.580	-200.000	0.043	-0.223
-633.565	-200.000	-0.017	-0.117
-632.551	330.593	0.093	-0.179
-631.536	-146.291	-0.532	0.047
-630.522	79.762	0.267	0.286
-629.507	-145.743	-0.256	-0.023
-628.492	-200.000	-0.007	-0.113
-627.478	5.071	0.054	-0.039
-626.463	-22.298	0.327	0.198
-625.449	-200.000	0.011	0.252
-624.434	46.333	0.218	0.202
-623.419	-57.674	-0.211	0.092
-622.405	259.356	-0.064	0.109
-621.390	-88.575	-0.165	0.049
-620.376	-62.776	-0.536	-0.221
-619.361	13.200	0.316	0.244
-618.346	-8.370	-0.062	0.041
-617.332	-122.996	-0.152	-0.024
-616.317	-178.085	0.231	0.005
-615.303	800.000	0.080	-0.272
-614.288	-200.000	-0.077	-0.435
-613.273	377.680	-0.079	-0.161
-612.259	117.807	0.104	0.128
-611.244	85.814	-0.183	-0.200
-610.230	220.842	0.122	0.196
-609.215	-103.508	-0.099	0.023
-608.201	5.850	0.054	-0.040
-607.186	800.000	0.176	-0.521
-606.171	-102.042	0.103	-0.025
-605.157	-200.000	0.025	-0.202
-604.142	-200.000	-0.012	0.383
-603.128	54.462	-0.136	-0.131
-602.113	-46.472	0.225	-0.110
-601.098	-200.000	0.027	0.234
-600.084	-49.246	-0.164	-0.078
-599.069	-200.000	-0.063	0.280
-598.055	-200.000	-0.000	-0.068
-597.040	-200.000	-0.034	-0.254
-596.025	-50.525	-0.348	-0.163
-595.011	-37.311	-0.295	0.157
-593.996	20.645	-0.423	0.341
-592.982	-85.664	-0.155	0.048
-591.967	246.070	-0.127	0.214
-590.952	-77.112	0.158	0.055
-589.938	-114.573	0.272	-0.052
-588.923	148.520	0.089	0.119
-587.909	-48.575	0.118	0.057
-586.894	-8.740	0.168	-0.112
-585.879	-101.298	0.388	0.094
-584.865	36.090	0.145	0.127
-583.850	-200.000	-0.013	0.289
-582.836	-137.209	-0.053	0.006
-581.821	-26.965	-0.127	0.074
-580.806	-5.230	-0.428	0.293
-579.792	-86.513	-0.145	0.044
-578.777	131.721	0.137	0.175
-577.763	60.858	-0.091	-0.090
-576.748	-8.844	0.057	-0.038
-575.733	-200.000	-0.019	-0.135
-574.719	737.397	0.077	-0.206
-573.704	512.252	0.052	0.121
-572.690	230.256	-0.080	0.130
-571.675	-154.093	-0.285	0.019
-570.661	-131.962	-0.262	0.034
-569.646	-34.461	0.173	-0.094
-568.631	79.491	-0.105	0.112
-567.617	-64.712	-0.251	-0.101
-566.602	97.727	0.151	-0.172
-565.588	381.949	0.029	0.060
-564.573	30.790	0.204	0.174
-563.558	235.819	-0.095	0.157
-562.544	-46.690	0.116	-0.056
-561.529	154.918	0.046	-0.063
-560.515	800.000	0.116	0.351
-559.500	-179.273	-0.166	0.004
-558.485	-24.263	0.332	-0.197
-557.471	-200.000	-0.020	0.135
-556.456	-200.000	-0.060	-0.376
-555.442	800.000	-0.044	-0.144
-554.427	-134.558	0.178	0.022
-553.412	-109.688	0.093	0.020
-552.398	-6.947	0.239	-0.161
-551.383	-140.137	0.160	0.017
-550.369	-200.000	-0.059	0.357
-549.354	78.774	-0.177	0.188
-548.339	610.360	0.060	0.148
-547.325	-200.000	0.009	-0.049
-546.310	-75.405	-0.251	-0.089
-545.296	-200.000	-0.014	-0.313
-544.281	800.000	0.032	-0.130
-543.266	-200.000	0.026	-0.220
-542.252	202.025	-0.128	-0.196
-541.237	800.000	-0.016	0.058
-540.223	344.972	-0.089	0.174
-539.208	-61.260	-0.337	0.141
-538.193	-75.305	-0.350	0.124
-537.179	-200.000	-0.023	-0.265
-536.164	-200.000	0.002	-0.392
-535.150	498.499	-0.038	-0.087
-534.135	27.442	-0.228	0.190
-533.121	-53.258	0.075	0.034
-532.106	-44.316	0.318	-0.158
-531.091	180.262	-0.045	-0.066
-530.077	-55.636	-0.159	-0.071
-529.062	800.000	0.013	0.058
-528.048	-200.000	-0.027	-0.206
-527.033	-113.926	0.059	-0.011
-526.018	547.170	0.106	-0.251
-525.004	26.774	0.056	0.047
-523.989	-12.474	0.026	-0.017
-522.975	-40.513	0.221	0.114
-521.960	-200.000	0.075	-0.427
-520.945	-56.436	0.102	-0.045
-519.931	-4.037	0.197	0.135
-518.916	-149.292	0.133	0.010
-517.902	-200.000	-0.024	-0.217
-516.887	-200.000	0.026	-0.182
-515.872	401.118	-0.102	-0.213
-514.858	222.683	-0.035	-0.056
-513.843	-200.000	0.020	0.113
-512.829	-121.842	-0.274	0.045
-511.814	254.453	0.079	0.134
-510.799	800.000	-0.072	-0.270
-509.785	570.381	-0.106	0.257
-508.770	239.071	-0.125	0.206
-507.756	-25.970	0.068	0.040
-506.741	800.000	0.105	0.289
-505.726	20.099	0.253	-0.202
-504.712	75.985	-0.099	-0.104
-503.697	-200.000	-0.062	-0.280
-502.683	309.023	-0.057	-0.106
-501.668	-200.000	-0.009	-0.233
-500.653	259.186	0.226	0.387
-499.639	-183.613	-0.199	0.003
-498.624	-90.002	0.121	-0.035
-497.610	-39.834	-0.111	-0.057
-496.595	-85.412	0.289	0.089
-495.581	-104.370	-0.250	0.058
-494.566	87.936	-0.095	-0.105
-493.551	-14.572	-0.179	-0.114
-492.537	-200.000	-0.038	-0.212
-491.522	-45.947	-0.096	-0.047
-490.508	-200.000	-0.036	-0.206
-489.493	-69.454	-0.207	-0.079
-488.478	-69.396	0.325	-0.124
-487.464	800.000	0.018	0.061
-486.449	-200.000	0.015	0.153
-485.435	196.835	0.178	0.268
-484.420	139.643	0.197	0.257
-483.405	-61.945	0.283	0.117
-482.391	54.073	0.256	0.245
-481.376	70.042	-0.139	0.142
-480.362	-200.000	-0.002	0.125
-479.347	446.412	-0.090	0.195
-478.332	800.000	0.089	-0.381
-477.318	-50.880	-0.348	-0.162
-476.303	-162.181	0.331	0.016
-475.289	-200.000	-0.009	0.296
-474.274	64.801	-0.255	-0.255
-473.259	218.496	-0.146	0.230
-472.245	-200.000	0.012	-0.143
-471.230	105.514	-0.015	0.018
-470.216	-149.571	-0.109	0.009
-469.201	257.293	0.156	-0.265
-468.186	800.000	0.051	-0.166
-467.172	-96.754	0.177	-0.046
-466.157	-24.021	-0.190	-0.112
-465.143	-200.000	0.049	0.290
-464.128	-55.121	0.223	0.099
-463.113	-97.150	0.646	0.167
-462.099	556.576	-0.157	0.376
-461.084	18.726	0.285	0.226
-460.070	-147.813	-0.313	0.026
-459.055	-126.100	-0.197	-0.029
-458.040	8.616	0.348	-0.259
-457.026	-130.892	0.048	-0.006
-456.011	-138.343	0.371	-0.041
-454.997	-32.831	-0.100	-0.055
-453.982	412.377	0.059	-0.124
-452.968	-169.743	0.240	0.009
-451.953	-122.699	-0.173	-0.028
-450.938	70.965	-0.207	-0.213
-449.924	712.291	-0.086	0.226
-448.909	488.166	0.070	0.159
-447.895	-98.473	-0.263	-0.066
-446.880	-99.571	0.235	0.058
-445.865	800.000	0.050	-0.146
-444.851	129.962	-0.065	0.082
-443.836	71.754	-0.082	-0.084
-442.822	213.017	-0.131	-0.204
-441.807	-200.000	-0.017	0.072
-440.792	-112.765	-0.379	-0.074
-439.778	-86.405	0.150	-0.046
-438.763	800.000	-0.018	-0.063
-437.749	-57.719	0.253	0.110
-436.734	348.399	-0.077	-0.151
-435.719	800.000	0.071	-0.246
-434.705	-200.000	0.009	0.149
-433.690	800.000	0.141	0.440
-432.676	274.692	0.071	-0.124
-431.661	800.000	-0.079	0.285
-430.646	-71.564	0.085	0.032
-429.632	-118.165	-0.370	0.065
-428.617	223.383	-0.069	-0.111
-427.603	220.033	0.007	-0.011
-426.588	-200.000	0.006	0.055
-425.573	-22.495	0.205	-0.123
-424.559	220.674	0.238	0.377
-423.544	-200.000	-0.015	-0.125
-422.530	18.024	-0.142	-0.112
-421.515	-200.000	0.063	0.318
-420.500	-68.060	-0.216	-0.083
-419.486	800.000	-0.096	-0.406
-418.471	-200.000	0.030	0.320
-417.457	-105.087	0.270	0.061
-416.442	-27.881	0.070	-0.040
-415.428	-128.583	0.309	0.043
-414.413	-200.000	-0.003	0.078
-413.398	223.901	0.137	0.219
-412.384	-78.624	0.369	-0.125
-411.369	-105.414	0.354	0.080
-410.355	453.188	0.090	-0.197
-409.340	-200.000	-0.050	0.265
-408.325	-129.278	-0.039	0.005
-407.311	198.050	-0.086	-0.130
-406.296	-200.000	0.034	0.181
-405.282	-48.535	-0.358	-0.170
-404.267	-200.000	-0.018	-0.261
-403.252	469.262	-0.090	-0.201
-402.238	-40.311	0.213	0.110
-401.223	800.000	0.043	0.135
-400.209	-56.183	0.336	0.148
-399.194	-175.848	0.296	0.008
-398.179	526.478	0.075	0.173
-397.165	107.883	-0.191	0.225
-396.150	-97.048	0.126	-0.033
-395.136	-16.522	0.213	-0.133
-394.121	-139.219	-0.156	0.017
-393.106	83.467	-0.147	-0.159
-392.092	-200.000	0.016	0.096
-391.077	-16.540	0.256	0.160
-390.063	-55.642	-0.209	0.093
-389.048	800.000	0.030	0.131
-388.033	-200.000	-0.025	-0.126
-387.019	-113.333	0.300	0.058
-386.004	-61.299	-0.344	-0.143
-384.990	-97.466	0.211	0.054
-383.975	181.454	-0.179	0.261
-382.960	539.696	-0.074	-0.173
-381.946	800.000	-0.040	0.129
-380.931	-43.366	-0.493	-0.246
-379.917	-200.000	-0.014	-0.185
-378.902	123.930	0.039	-0.049
-377.888	-57.022	0.026	-0.011
-376.873	-125.281	0.144	0.022
-375.858	-200.000	-0.004	-0.120
-374.844	-200.000	0.066	0.359
-373.829	252.842	0.199	0.336
-372.815	-2.601	-0.023	0.016
-371.800	198.168	-0.069	-0.104
-370.785	8.874	-0.138	-0.102
-369.771	-110.104	0.151	-0.031
-368.756	-21.529	-0.401	-0.241
-367.742	-200.000	-0.001	0.143
-366.727	390.785	0.066	-0.134
-365.712	-134.551	-0.044	0.005
-364.698	-28.624	-0.426	-0.242
-363.683	-139.750	0.157	0.016
-362.669	-111.050	0.155	-0.031
-361.654	176.438	-0.218	-0.313
-360.639	800.000	-0.027	-0.103
-359.625	-48.692	-0.186	0.088
-358.610	44.765	-0.145	0.132
-357.596	62.235	-0.011	-0.011
-356.581	-200.000	0.058	-0.287
-355.566	153.179	0.040	0.053
-354.552	-141.832	-0.328	-0.032
-353.537	-121.948	0.134	-0.022
-352.523	-129.014	-0.286	0.040
-351.508	306.266	0.088	-0.162
-350.493	26.264	0.120	0.099
-349.479	-177.850	-0.202	-0.005
-348.464	-143.854	0.298	0.028
-347.450	-24.943	-0.122	-0.071
-346.435	800.000	0.078	-0.225
-345.420	-120.843	-0.208	-0.035
-344.406	-200.000	0.009	-0.173
-343.391	56.571	-0.200	-0.191
-342.377	800.000	-0.033	-0.099
-341.362	800.000	-0.109	-0.444
-340.348	-114.996	-0.155	-0.029
-339.333	544.164	0.086	0.203
-338.318	528.634	-0.155	-0.362
-337.304	-113.028	0.087	0.017
-336.289	507.302	-0.075	0.170
-335.275	-44.992	0.066	-0.032
-334.260	47.835	-0.211	0.194
-333.245	342.104	0.134	0.258
-332.231	585.138	-0.134	0.325
-331.216	715.858	0.131	-0.343
-330.202	-10.021	0.204	-0.134
-329.187	-82.156	0.328	0.105
-328.172	-144.322	-0.063	0.006
-327.158	-174.867	0.172	-0.005
-326.143	159.802	-0.079	0.108
-325.129	800.000	0.063	-0.219
-324.114	-15.488	-0.146	-0.092
-323.099	-200.000	-0.018	-0.087
-322.085	216.986	0.215	0.337
-321.070	224.217	0.066	-0.105
-320.056	-80.546	-0.275	-0.090
-319.041	3.509	0.262	0.188
-318.026	194.621	-0.092	0.137
-317.012	-163.330	-0.252	0.012
-315.997	410.906	0.074	0.155
-314.983	49.212	0.011	-0.010
-313.968	-200.000	-0.013	0.121
-312.953	-92.176	-0.132	0.037
-311.939	529.611	0.051	-0.118
-310.924	-109.333	0.143	0.030
-309.910	-85.616	-0.429	0.131
-308.895	-200.000	-0.015	-0.334
-307.880	-55.534	0.246	-0.108
-306.866	-58.360	-0.246	0.105
-305.851	800.000	-0.093	-0.373
-304.837	-70.438	-0.358	0.134
-303.822	130.651	0.114	0.144
-302.807	27.827	0.211	0.175
-301.793	108.907	0.233	0.274
-300.778	-58.112	-0.116	0.050
-299.764	-102.290	0.245	0.058
-298.749	800.000	-0.020	0.071
-297.735	396.334	0.165	-0.340
-296.720	-200.000	0.032	0.230
-295.705	-94.536	-0.201	0.054
-294.691	-200.000	0.037	-0.161
-293.676	638.543	-0.074	0.186
-292.662	1.518	0.328	-0.232
-291.647	-200.000	-0.018	-0.124
-290.632	-200.000	0.002	-0.082
-289.618	-42.168	0.225	-0.113
-288.603	121.667	0.125	-0.154
-287.589	129.863	-0.254	-0.320
-286.574	-164.228	0.176	0.008
-285.559	85.531	0.163	-0.177
-284.545	-63.430	0.441	0.178
-283.530	-112.412	0.162	-0.032
-282.516	-127.773	-0.181	-0.026
-281.501	-170.066	-0.035	-0.001
-280.486	-39.146	-0.291	0.150
-279.472	-1.725	-0.217	-0.150
-278.457	133.323	0.010	-0.012
-277.443	-28.101	-0.219	0.125
-276.428	-200.000	-0.025	0.166
-275.413	-90.152	0.030	-0.009
-274.399	-179.165	-0.073	0.002
-273.384	-130.894	-0.264	0.035
-272.370	576.781	0.012	-0.029
-271.355	800.000	0.055	-0.224
-270.340	-32.859	-0.259	-0.141
-269.326	-200.000	-0.005	-0.218
-268.311	-65.031	0.411	0.163
-267.297	-200.000	0.002	0.185
-266.282	33.164	0.057	0.049
-265.267	-200.000	0.010	-0.291
-264.253	10.717	-0.238	0.178
-263.238	74.180	0.117	0.121
-262.224	-158.432	-0.099	-0.006
-261.209	8.364	0.188	0.139
-260.195	-64.699	-0.215	0.086
-259.180	-62.872	0.168	-0.068
-258.165	-99.002	0.283	0.071
-257.151	67.414	0.146	-0.146
-256.136	790.222	0.041	0.111
-255.122	-56.294	0.084	0.037
-254.107	29.980	-0.294	-0.246
-253.092	-200.000	-0.014	0.322
-252.078	-194.304	-0.171	-0.001
-251.063	-55.801	-0.121	0.053
-250.049	665.238	0.060	0.153
-249.034	-49.843	0.047	-0.022
-248.019	214.160	-0.050	0.078
-247.005	394.724	-0.161	0.329
-245.990	800.000	-0.027	-0.074
-244.976	-124.328	-0.167	0.026
-243.961	-200.000	0.092	-0.422
-242.946	198.152	0.094	0.141
-241.932	221.369	0.085	0.134
-240.917	-34.925	-0.163	0.088
-239.903	5.131	0.182	0.132
-238.888	-28.217	-0.157	-0.089
-237.873	459.331	0.014	-0.031
-236.859	-88.034	0.061	0.018
-235.844	-200.000	-0.004	-0.031
-234.830	-200.000	0.001	-0.063
-233.815	428.214	-0.087	0.184
-232.800	-47.312	-0.104	0.049
-231.786	-11.920	-0.293	0.189
-230.771	131.930	-0.154	-0.194
-229.757	665.622	-0.079	0.200
-228.742	95.046	0.213	-0.238
-227.727	-189.237	0.432	0.005
-226.713	-142.632	0.268	0.026
-225.698	-200.000	0.016	-0.261
-224.684	800.000	-0.084	-0.312
-223.669	800.000	0.087	-0.320
-222.655	800.000	-0.086	-0.330
-221.640	-83.471	0.189	-0.059
-220.625	68.076	0.132	-0.133
-219.611	-200.000	0.037	0.170
-218.596	-88.052	-0.218	-0.064
-217.582	-77.669	0.087	-0.030
-216.567	-119.654	0.178	0.030
-215.552	-57.609	-0.134	0.058
-214.538	119.395	-0.306	0.372
-213.523	-150.528	-0.345	0.026
-212.509	7.757	-0.151	-0.111
-211.494	-80.678	-0.089	0.029
-210.479	34.344	-0.209	0.179
-209.465	52.998	0.307	-0.288
-208.450	78.421	-0.073	0.076
-207.436	-200.000	-0.029	-0.150
-206.421	-200.000	0.031	0.197
-205.406	-45.916	-0.077	0.037
-204.392	-24.820	-0.172	-0.100
-203.377	-200.000	-0.002	0.123
-202.363	-62.817	0.273	0.111
-201.348	-200.000	0.021	0.409
-200.333	-6.806	0.351	-0.234
-199.319	-9.489	-0.150	-0.098
-198.304	-132.399	0.016	0.002
-197.290	2.941	-0.095	0.068
-196.275	702.409	0.048	-0.124
-195.260	-2.425	0.296	0.204
-194.246	-3.388	-0.259	0.177
-193.231	300.390	-0.081	0.146
-192.217	-78.086	-0.240	-0.081
-191.202	69.102	-0.151	0.152
-190.187	-107.129	-0.375	0.081
-189.173	-98.727	0.286	-0.072
-188.158	-132.115	0.167	-0.021
-187.144	-85.328	-0.030	-0.009
-186.129	-158.845	-0.396	-0.022
-185.114	800.000	-0.035	-0.098
-184.100	191.380	0.057	0.085
-183.085	25.640	0.137	0.111
-182.071	-133.508	-0.123	-0.015
-181.056	-169.420	-0.158	-0.006
-180.042	-74.032	0.129	0.046
-179.027	-98.531	-0.231	0.058
-178.012	-30.576	-0.132	0.074
-176.998	23.850	-0.117	-0.094
-175.983	-115.672	-0.174	0.032
-174.969	-174.156	-0.093	0.003
-173.954	-144.459	0.263	-0.024
-172.939	-200.000	0.059	-0.261
-171.925	274.005	0.072	-0.125
-170.910	800.000	0.034	0.125
-169.896	-62.402	0.208	-0.085
-168.881	-127.853	-0.340	0.048
-167.866	-45.836	0.252	-0.122
-166.852	6.572	0.210	0.153
-165.837	606.976	0.088	-0.216
-164.823	-31.725	0.286	-0.157
-163.808	-200.000	0.015	0.277
-162.793	-57.059	0.346	-0.149
-161.779	-200.000	-0.031	-0.207
-160.764	-150.395	-0.266	-0.020
-159.750	153.284	0.135	0.180
-158.735	161.820	0.147	0.201
-157.720	-43.594	0.131	-0.065
-156.706	800.000	-0.007	-0.030
-155.691	183.755	0.134	0.194
-154.677	-200.000	0.012	0.357
-153.662	335.784	-0.045	0.086
-152.647	42.990	0.089	-0.079
-151.633	800.000	0.073	-0.295
-150.618	74.881	0.228	-0.235
-149.604	257.446	0.074	-0.124
-148.589	800.000	-0.091	0.246
-147.574	800.000	0.087	0.267
-146.560	684.316	-0.054	-0.139
-145.545	-65.501	0.157	-0.062
-144.531	-85.574	-0.183	-0.056
-143.516	574.638	-0.027	0.065
-142.502	254.217	0.129	-0.216
-141.487	-200.000	0.025	-0.339
-140.472	-88.837	0.326	0.095
-139.458	354.194	0.075	-0.146
-138.443	-200.000	0.085	-0.460
-137.429	-81.784	0.099	-0.032
-136.414	-156.532	-0.258	0.016
-135.399	133.478	-0.105	-0.133
-134.385	800.000	-0.126	-0.508
-133.370	264.700	0.225	-0.383
-132.356	45.702	-0.055	0.049
-131.341	-99.313	0.420	0.104
-130.326	192.349	-0.031	0.046
-129.312	134.319	0.177	-0.225
-128.297	800.000	0.124	0.412
-127.283	62.452	0.081	0.079
-126.268	779.303	-0.070	0.187
-125.253	298.567	0.213	0.383
-124.239	-27.734	-0.208	0.118
-123.224	273.731	-0.189	-0.327
-122.210	-153.951	0.447	0.030
-121.195	77.112	-0.117	0.122
