DTS Sentinel unit serial number:	SN413079Multiplexer serial number:	ORYXHardware model number:	OX4-SRSoftware version number:	ORYX F/W v4.00 Oryx Data Collector v3.7.2.0data status	okinstallation	princeton_trtdifferential loss correction	single-endedforward channel	channel 3reverse channel	N/Adate	2019/09/16time	23:36:34forward acquisition time	60.00reverse acquisition time	0.00gamma	496.2192k internal	0.2325k external	0.2325temperature offset calibration	0.9942default loss term (dB/km)	0.3790temperature slope calibration	1.0000multiplexer offset coefficient	1.0000multiplexer slope coefficient	1.0000fibre end	0.00T internal ref (°C)	29.81T ext. ref 1 (°C)	0.09T ext. ref 2 (°C)	23.59length (m)	temperature (°C)	Stokes	anti-Stokes-747.200	-3.559	0.140	0.098
-746.185	367.826	-0.068	0.138
-745.171	238.373	0.184	0.308
-744.156	-181.991	-0.104	-0.002
-743.142	-200.000	-0.019	0.275
-742.127	800.000	-0.067	0.257
-741.112	-36.842	0.249	0.135
-740.098	-200.000	-0.037	0.274
-739.083	514.569	0.138	0.326
-738.069	575.529	-0.161	0.396
-737.054	162.232	0.194	0.275
-736.039	-200.000	-0.024	-0.168
-735.025	261.169	0.167	0.292
-734.010	-101.782	0.322	0.079
-732.996	-100.474	-0.364	-0.091
-731.981	44.400	-0.128	-0.119
-730.966	-64.393	0.236	-0.097
-729.952	-89.463	-0.233	0.069
-728.937	224.807	0.041	0.066
-727.923	-140.062	0.062	0.007
-726.908	-101.514	-0.254	0.062
-725.894	-116.320	0.483	-0.090
-724.879	-28.704	0.184	-0.107
-723.864	-18.189	0.112	-0.071
-722.850	278.771	-0.148	-0.267
-721.835	-19.568	-0.273	0.171
-720.821	354.083	-0.095	-0.190
-719.806	800.000	0.084	-0.267
-718.791	800.000	-0.074	-0.231
-717.777	12.583	-0.270	-0.210
-716.762	800.000	-0.086	-0.315
-715.748	-166.577	0.224	-0.009
-714.733	278.842	0.079	-0.141
-713.718	-1.930	0.229	0.163
-712.704	368.291	0.041	-0.084
-711.689	15.966	0.197	0.157
-710.675	108.081	-0.118	-0.142
-709.660	227.429	-0.050	0.082
-708.645	175.760	0.200	-0.292
-707.631	-39.995	0.397	-0.209
-706.616	-58.434	0.143	0.063
-705.602	-70.788	0.132	-0.050
-704.587	-47.960	-0.070	0.034
-703.572	-200.000	-0.015	-0.206
-702.558	-200.000	-0.008	0.081
-701.543	25.497	-0.233	-0.195
-700.529	-200.000	0.007	0.101
-699.514	123.791	-0.164	0.207
-698.499	-57.267	-0.145	-0.064
-697.485	-141.908	0.263	0.026
-696.470	-177.192	0.159	-0.004
-695.456	579.113	0.005	0.013
-694.441	65.115	0.240	0.244
-693.426	-67.261	0.159	0.063
-692.412	-38.734	0.292	-0.155
-691.397	800.000	-0.115	-0.361
-690.383	-195.423	0.043	0.000
-689.368	19.865	-0.165	0.134
-688.354	97.549	0.183	0.212
-687.339	58.755	-0.189	0.187
-686.324	-200.000	-0.019	0.416
-685.310	-200.000	0.002	0.038
-684.295	800.000	0.023	-0.090
-683.281	-200.000	0.008	-0.522
-682.266	-24.859	0.161	0.096
-681.251	-200.000	-0.011	0.291
-680.237	39.668	0.234	0.211
-679.222	-49.768	-0.271	0.129
-678.208	169.719	-0.108	-0.155
-677.193	211.309	0.161	-0.255
-676.178	-123.655	-0.211	-0.034
-675.164	-200.000	0.037	0.170
-674.149	-91.435	-0.207	-0.059
-673.135	767.666	-0.053	0.146
-672.120	800.000	0.096	0.362
-671.105	-78.306	0.305	-0.105
-670.091	-200.000	0.000	-0.184
-669.076	800.000	0.023	-0.075
-668.062	4.760	0.075	-0.055
-667.047	-4.012	-0.402	0.281
-666.032	109.110	-0.132	-0.159
-665.018	-45.305	0.043	0.021
-664.003	-200.000	-0.020	-0.379
-662.989	-142.336	0.153	-0.015
-661.974	-65.412	-0.071	0.029
-660.959	202.803	-0.038	0.060
-659.945	-152.971	-0.366	0.026
-658.930	-200.000	-0.006	-0.063
-657.916	44.187	-0.176	0.162
-656.901	800.000	-0.051	0.144
-655.886	-53.550	0.222	-0.102
-654.872	-200.000	0.029	-0.158
-653.857	-200.000	-0.005	-0.072
-652.843	-200.000	-0.017	-0.160
-651.828	-38.388	0.095	-0.050
-650.814	41.215	0.170	0.155
-649.799	-35.895	-0.086	0.047
-648.784	313.838	0.040	-0.076
-647.770	-106.784	0.231	-0.051
-646.755	-51.237	-0.433	0.204
-645.741	-82.985	0.250	-0.081
-644.726	122.464	0.075	0.095
-643.711	800.000	0.091	0.399
-642.697	-200.000	0.002	0.097
-641.682	-200.000	-0.019	0.177
-640.668	372.647	-0.034	0.069
-639.653	59.787	-0.254	0.252
-638.638	-66.992	-0.159	0.063
-637.624	800.000	0.077	-0.279
-636.609	-83.035	-0.292	-0.095
-635.595	800.000	-0.029	0.096
-634.580	-200.000	0.067	0.316
-633.565	-18.329	0.268	-0.168
-632.551	-60.766	-0.407	-0.173
-631.536	19.138	-0.265	-0.213
-630.522	-77.646	-0.179	0.062
-629.507	-9.649	-0.129	-0.086
-628.492	-29.264	0.051	-0.029
-627.478	121.345	0.189	-0.237
-626.463	132.161	-0.250	0.324
-625.449	214.541	0.092	-0.146
-624.434	-102.423	0.272	0.065
-623.419	-200.000	0.000	0.094
-622.405	-200.000	-0.014	0.201
-621.390	-200.000	0.026	0.269
-620.376	478.533	-0.090	0.204
-619.361	145.717	0.145	-0.195
-618.346	379.040	0.140	-0.288
-617.332	-200.000	-0.005	-0.071
-616.317	-147.572	-0.392	-0.033
-615.303	7.231	0.052	-0.039
-614.288	164.682	0.263	-0.372
-613.273	214.994	-0.054	-0.085
-612.259	-200.000	0.021	0.243
-611.244	-122.065	-0.095	0.016
-610.230	-75.461	0.313	0.112
-609.215	262.870	0.146	-0.254
-608.201	-68.420	0.103	0.040
-607.186	-38.753	0.088	-0.047
-606.171	-28.779	0.308	0.178
-605.157	-83.042	-0.204	-0.066
-604.142	-16.839	-0.180	-0.114
-603.128	149.936	-0.101	-0.137
-602.113	1.697	-0.148	-0.107
-601.098	-125.259	-0.118	0.018
-600.084	94.519	0.182	-0.208
-599.069	-200.000	0.029	-0.183
-598.055	800.000	0.100	-0.328
-597.040	123.396	0.146	0.183
-596.025	-105.624	-0.169	0.038
-595.011	-20.728	-0.206	-0.127
-593.996	-200.000	-0.030	-0.157
-592.982	-200.000	-0.058	0.264
-591.967	-27.562	0.247	0.144
-590.952	-200.000	-0.059	-0.460
-589.938	-73.050	0.111	-0.041
-588.923	-200.000	-0.005	0.176
-587.909	4.994	0.161	0.119
-586.894	-122.541	-0.382	0.062
-585.879	84.038	-0.072	-0.079
-584.865	-109.241	0.240	-0.051
-583.850	800.000	-0.006	0.022
-582.836	-19.551	-0.169	-0.105
-581.821	-200.000	-0.010	0.156
-580.806	55.829	-0.006	0.006
-579.792	-75.718	0.167	-0.060
-578.777	-115.653	0.273	-0.051
-577.763	-200.000	0.012	-0.145
-576.748	800.000	0.111	-0.333
-575.733	800.000	0.184	-0.585
-574.719	800.000	0.023	0.092
-573.704	58.678	0.132	0.130
-572.690	7.007	-0.213	0.159
-571.675	-85.172	-0.052	0.016
-570.661	123.681	-0.087	-0.109
-569.646	-16.057	-0.200	0.128
-568.631	472.372	0.042	-0.096
-567.617	-171.529	-0.092	0.003
-566.602	-2.604	-0.101	-0.071
-565.588	800.000	-0.040	-0.131
-564.573	79.856	-0.080	0.086
-563.558	-36.325	0.197	-0.106
-562.544	-54.726	-0.247	-0.112
-561.529	-200.000	-0.003	0.304
-560.515	-200.000	-0.043	-0.363
-559.500	-188.809	-0.140	0.002
-558.485	800.000	0.032	-0.128
-557.471	306.318	-0.114	-0.212
-556.456	22.635	0.148	0.121
-555.442	161.320	0.078	0.109
-554.427	-200.000	-0.005	0.354
-553.412	-137.970	-0.133	-0.015
-552.398	-66.819	-0.096	0.038
-551.383	416.488	-0.151	-0.324
-550.369	-200.000	-0.000	-0.238
-549.354	-118.867	0.138	0.024
-548.339	-139.047	0.144	0.016
-547.325	800.000	0.060	-0.188
-546.310	-110.610	0.120	0.025
-545.296	30.458	0.180	-0.154
-544.281	-89.634	-0.286	-0.084
-543.266	-149.511	0.285	0.023
-542.252	-7.177	-0.384	0.261
-541.237	-200.000	-0.023	-0.450
-540.223	-63.959	-0.157	0.064
-539.208	-133.746	-0.216	-0.027
-538.193	-200.000	-0.049	-0.270
-537.179	-55.981	-0.287	-0.128
-536.164	800.000	-0.049	0.136
-535.150	38.158	-0.140	-0.124
-534.135	177.604	-0.093	0.135
-533.121	47.870	-0.120	0.112
-532.106	800.000	0.035	-0.130
-531.091	33.004	0.017	0.014
-530.077	-24.412	-0.318	0.190
-529.062	33.750	0.154	-0.134
-528.048	-200.000	-0.002	-0.139
-527.033	-157.153	0.213	-0.013
-526.018	787.621	0.024	0.066
-525.004	-200.000	-0.023	0.349
-523.989	-67.805	0.185	0.073
-522.975	139.310	-0.144	-0.189
-521.960	112.919	0.182	-0.220
-520.945	-200.000	0.008	0.039
-519.931	-57.953	0.110	-0.048
-518.916	-169.879	0.337	-0.012
-517.902	-83.036	-0.225	0.072
-516.887	9.538	-0.130	0.099
-515.872	330.684	-0.194	0.373
-514.858	-43.239	-0.080	0.040
-513.843	-149.023	-0.289	-0.023
-512.829	-200.000	-0.024	-0.281
-511.814	286.203	-0.056	0.101
-510.799	-200.000	0.037	-0.172
-509.785	3.621	-0.200	0.146
-508.770	264.264	0.103	-0.180
-507.756	800.000	0.085	-0.326
-506.741	7.939	0.175	0.131
-505.726	107.290	-0.032	0.038
-504.712	27.612	0.193	-0.163
-503.697	531.311	0.051	0.121
-502.683	243.166	0.138	0.232
-501.668	800.000	0.019	0.069
-500.653	224.247	0.044	0.071
-499.639	-200.000	0.061	-0.307
-498.624	88.826	0.190	0.211
-497.610	-168.574	-0.377	-0.014
-496.595	-200.000	0.073	0.365
-495.581	218.635	-0.128	0.204
-494.566	51.649	-0.101	0.096
-493.551	-200.000	-0.054	-0.361
-492.537	31.618	-0.266	0.229
-491.522	315.044	0.091	-0.171
-490.508	163.565	-0.095	0.133
-489.493	625.192	-0.032	0.080
-488.478	-150.627	-0.431	-0.033
-487.464	-95.669	-0.104	-0.028
-486.449	-150.440	0.188	-0.014
-485.435	-68.988	-0.307	0.118
-484.420	800.000	-0.069	-0.222
-483.405	139.383	-0.159	0.208
-482.391	-55.225	0.166	0.075
-481.376	-78.566	0.089	-0.030
-480.362	58.246	-0.119	0.116
-479.347	-99.402	0.275	-0.069
-478.332	164.006	0.202	0.285
-477.318	91.321	-0.237	-0.266
-476.303	269.688	0.263	0.461
-475.289	-200.000	0.046	0.229
-474.274	156.521	0.168	0.231
-473.259	178.889	-0.056	-0.082
-472.245	-200.000	0.015	0.088
-471.230	-200.000	-0.012	-0.086
-470.216	-0.818	0.147	0.104
-469.201	107.846	0.029	0.035
-468.186	61.843	-0.103	-0.102
-467.172	-200.000	0.058	-0.512
-466.157	50.920	-0.240	-0.227
-465.143	91.350	-0.201	-0.225
-464.128	-18.981	-0.247	0.154
-463.113	-13.664	-0.078	-0.051
-462.099	513.174	-0.080	0.187
-461.084	410.006	0.099	0.210
-460.070	-61.924	0.230	0.096
-459.055	800.000	-0.022	0.070
-458.040	4.617	0.348	-0.255
-457.026	555.086	-0.044	-0.105
-456.011	117.812	-0.228	0.280
-454.997	-66.076	0.253	-0.101
-453.982	-200.000	-0.009	0.062
-452.968	800.000	0.069	0.293
-451.953	41.753	0.272	-0.246
-450.938	660.393	0.082	-0.211
-449.924	-52.838	0.118	-0.054
-448.909	85.644	-0.071	0.078
-447.895	-151.362	0.193	-0.014
-446.880	-200.000	0.022	0.140
-445.865	800.000	0.082	-0.359
-444.851	-110.913	-0.311	-0.064
-443.836	-135.802	-0.133	0.016
-442.822	394.011	-0.030	-0.062
-441.807	800.000	0.068	0.246
-440.792	-198.097	0.249	-0.001
-439.778	-200.000	-0.050	-0.295
-438.763	-151.176	0.004	0.000
-437.749	-118.569	-0.228	-0.040
-436.734	73.660	-0.206	-0.215
-435.719	-200.000	0.030	-0.136
-434.705	-200.000	-0.030	-0.167
-433.690	85.070	0.217	-0.237
-432.676	-18.985	0.053	0.033
-431.661	-131.691	0.277	-0.036
-430.646	-13.633	-0.289	-0.186
-429.632	-108.358	0.184	-0.040
-428.617	56.902	0.258	0.250
-427.603	288.368	0.235	0.423
-426.588	231.437	0.103	-0.169
-425.573	218.232	0.169	-0.268
-424.559	761.496	-0.081	0.219
-423.544	-200.000	0.024	0.170
-422.530	564.844	0.146	-0.353
-421.515	148.461	0.239	-0.322
-420.500	800.000	-0.022	-0.083
-419.486	-32.212	0.231	0.129
-418.471	-200.000	0.033	0.515
-417.457	-200.000	0.001	0.195
-416.442	155.862	-0.205	0.282
-415.428	26.135	-0.216	-0.180
-414.413	800.000	0.058	0.206
-413.398	164.691	0.046	-0.065
-412.384	82.949	0.043	-0.047
-411.369	202.829	0.044	0.067
-410.355	-93.124	-0.046	0.013
-409.340	-7.489	-0.201	-0.136
-408.325	127.361	0.095	-0.120
-407.311	-146.988	-0.277	0.024
-406.296	800.000	0.107	0.333
-405.282	27.822	0.006	-0.005
-404.267	184.794	-0.119	0.176
-403.252	-99.992	-0.152	-0.038
-402.238	-63.474	0.192	0.079
-401.223	605.198	-0.129	0.320
-400.209	800.000	-0.061	-0.169
-399.194	240.407	0.140	-0.232
-398.179	800.000	-0.031	0.133
-397.165	235.631	-0.118	-0.194
-396.150	-137.151	0.302	0.034
-395.136	-200.000	0.010	-0.193
-394.121	-43.124	-0.217	-0.109
-393.106	-200.000	0.014	-0.293
-392.092	30.268	0.067	0.057
-391.077	-35.299	-0.180	-0.098
-390.063	654.420	0.161	0.412
-389.048	-52.183	-0.234	0.108
-388.033	-47.022	-0.400	0.194
-387.019	-200.000	0.007	-0.052
-386.004	294.785	0.087	0.158
-384.990	654.241	-0.029	-0.074
-383.975	624.622	0.036	-0.090
-382.960	-128.291	-0.184	-0.026
-381.946	-121.395	0.170	0.028
-380.931	-65.159	0.267	-0.107
-379.917	158.432	0.203	-0.280
-378.902	-46.868	0.019	-0.009
-377.888	17.615	-0.290	-0.230
-376.873	-23.692	-0.068	0.040
-375.858	12.161	-0.147	0.112
-374.844	-26.675	0.156	-0.091
-373.829	180.560	0.060	-0.087
-372.815	-59.488	0.047	-0.020
-371.800	-119.051	-0.418	-0.073
-370.785	-3.072	-0.149	-0.103
-369.771	800.000	-0.035	-0.147
-368.756	174.533	-0.056	-0.080
-367.742	106.318	-0.159	0.187
-366.727	-91.351	0.153	-0.044
-365.712	-38.955	0.062	0.032
-364.698	42.229	0.210	-0.189
-363.683	-178.585	0.033	0.001
-362.669	-97.735	0.149	-0.038
-361.654	22.885	0.169	0.137
-360.639	-96.106	-0.126	0.033
-359.625	109.773	0.259	0.309
-358.610	-165.893	-0.426	0.018
-357.596	-27.079	0.498	0.289
-356.581	-17.364	0.176	0.110
-355.566	-50.408	-0.059	-0.028
-354.552	-144.676	0.280	0.026
-353.537	19.410	-0.086	-0.069
-352.523	74.903	0.250	0.262
-351.508	483.990	0.023	-0.052
-350.493	204.479	-0.154	0.237
-349.479	339.805	-0.091	-0.177
-348.464	244.901	-0.126	-0.211
-347.450	48.189	0.339	-0.315
-346.435	800.000	0.029	0.110
-345.420	30.631	0.036	-0.031
-344.406	800.000	0.089	-0.260
-343.391	-99.544	-0.086	-0.021
-342.377	-28.718	0.351	0.201
-341.362	695.989	-0.047	-0.123
-340.348	-200.000	0.007	-0.099
-339.333	800.000	0.106	0.404
-338.318	391.989	-0.046	0.094
-337.304	800.000	-0.071	-0.287
-336.289	800.000	-0.038	-0.108
-335.275	607.303	0.079	0.196
-334.260	389.358	-0.066	-0.137
-333.245	599.672	0.105	0.260
-332.231	-200.000	0.047	0.417
-331.216	65.756	0.301	-0.303
-330.202	-109.241	-0.325	0.068
-329.187	-77.793	-0.170	0.058
-328.172	-110.395	0.166	-0.034
-327.158	-107.538	-0.294	0.064
-326.143	51.093	0.182	0.171
-325.129	-200.000	0.011	-0.342
-324.114	-138.541	-0.548	0.060
-323.099	739.212	0.072	-0.193
-322.085	-200.000	0.008	0.442
-321.070	-11.751	0.146	0.095
-320.056	-82.893	-0.182	0.058
-319.041	-160.122	0.162	-0.009
-318.026	383.084	0.067	0.137
-317.012	422.071	-0.066	0.141
-315.997	-200.000	-0.012	0.100
-314.983	-200.000	0.030	-0.206
-313.968	45.709	-0.202	-0.185
-312.953	-76.279	-0.397	-0.139
-311.939	-200.000	0.040	-0.242
-310.924	-200.000	0.004	0.453
-309.910	181.197	-0.080	0.117
-308.895	-61.316	0.267	0.111
-307.880	-119.518	0.220	0.038
-306.866	800.000	0.048	-0.140
-305.851	-200.000	0.033	-0.415
-304.837	-200.000	0.025	-0.158
-303.822	800.000	-0.024	0.073
-302.807	-200.000	-0.023	-0.204
-301.793	-98.021	-0.083	-0.021
-300.778	-200.000	0.028	-0.311
-299.764	-9.365	0.234	0.155
-298.749	-200.000	-0.163	0.000
-297.735	-73.202	0.053	-0.019
-296.720	800.000	0.035	-0.140
-295.705	79.908	0.130	0.138
-294.691	-77.778	0.244	-0.084
-293.676	-90.720	0.313	0.090
-292.662	-4.383	0.095	-0.065
-291.647	-155.317	-0.185	0.012
-290.632	118.764	0.125	0.152
-289.618	-200.000	-0.030	-0.260
-288.603	667.255	0.150	0.384
-287.589	-200.000	-0.012	0.272
-286.574	-91.891	-0.138	0.039
-285.559	3.055	0.155	0.111
-284.545	659.327	-0.041	-0.104
-283.530	9.171	-0.046	-0.034
-282.516	113.834	-0.074	-0.090
-281.501	-9.800	-0.262	0.173
-280.486	-200.000	-0.016	-0.129
-279.472	35.789	-0.052	0.045
-278.457	366.539	-0.054	-0.108
-277.443	-89.034	0.306	-0.090
-276.428	-200.000	-0.049	-0.239
-275.413	423.608	0.020	0.043
-274.399	-65.604	0.164	0.065
-273.384	358.023	0.036	0.071
-272.370	203.583	-0.049	0.076
-271.355	-113.331	0.369	0.072
-270.340	62.166	0.143	0.141
-269.326	-25.114	-0.149	0.087
-268.311	87.759	-0.073	0.080
-267.297	328.533	-0.108	-0.206
-266.282	412.778	-0.060	-0.126
-265.267	58.932	0.011	-0.011
-264.253	800.000	0.047	0.168
-263.238	-200.000	-0.026	-0.137
-262.224	800.000	0.079	-0.321
-261.209	349.458	-0.005	-0.010
-260.195	50.779	0.118	-0.111
-259.180	-200.000	-0.009	0.174
-258.165	493.657	0.033	0.075
-257.151	-171.142	0.056	0.002
-256.136	20.327	0.026	0.020
-255.122	-105.023	-0.220	-0.050
-254.107	-10.750	-0.032	-0.021
-253.092	-20.876	-0.067	-0.041
-252.078	452.012	-0.058	0.128
-251.063	-91.087	-0.311	0.088
-250.049	39.714	-0.256	0.228
-249.034	160.773	-0.110	0.152
-248.019	-200.000	0.027	-0.128
-247.005	679.769	-0.081	0.209
-245.990	-89.002	0.249	-0.073
-244.976	-78.064	-0.136	0.046
-243.961	13.574	0.326	0.250
-242.946	151.422	-0.212	0.285
-241.932	-200.000	-0.019	0.126
-240.917	-19.742	0.259	-0.159
-239.903	-51.861	-0.466	-0.215
-238.888	-52.458	0.212	-0.097
-237.873	25.277	-0.267	0.220
-236.859	38.534	0.283	0.249
-235.844	124.685	0.090	0.112
-234.830	-200.000	0.034	0.183
-233.815	23.292	0.151	0.123
-232.800	-200.000	-0.004	-0.098
-231.786	182.692	-0.094	0.138
-230.771	-110.393	0.312	0.064
-229.757	-84.443	-0.160	-0.050
-228.742	-119.248	-0.203	0.035
-227.727	15.044	-0.225	0.175
-226.713	-87.637	-0.407	-0.121
-225.698	369.339	0.193	-0.386
-224.684	703.771	-0.197	-0.513
-223.669	202.070	0.064	-0.098
-222.655	-137.285	-0.447	-0.050
-221.640	-68.602	0.219	0.084
-220.625	355.954	0.081	-0.160
-219.611	-200.000	0.040	-0.226
-218.596	13.849	-0.095	0.073
-217.582	-118.817	0.249	-0.043
-216.567	-113.742	0.219	0.042
-215.552	-200.000	-0.002	0.267
-214.538	800.000	0.092	0.268
-213.523	-73.004	-0.315	-0.114
-212.509	-117.647	0.352	-0.063
-211.494	265.996	0.199	0.343
-210.479	-25.382	-0.247	0.144
-209.465	152.866	-0.036	0.049
-208.450	-106.821	-0.197	-0.043
-207.436	278.797	0.214	0.377
-206.421	249.842	0.041	-0.069
-205.406	-200.000	0.006	-0.092
-204.392	71.304	-0.018	0.019
-203.377	-50.206	0.246	-0.115
-202.363	16.766	0.144	-0.112
-201.348	699.542	-0.156	-0.407
-200.333	-200.000	0.040	0.191
-199.319	-53.037	0.380	-0.172
-198.304	-105.114	0.315	-0.071
-197.290	-55.205	0.127	-0.056
-196.275	-113.324	0.367	-0.071
-195.260	-33.696	0.078	-0.042
-194.246	95.059	-0.352	-0.396
-193.231	800.000	-0.056	0.234
-192.217	-56.834	0.237	0.103
-191.202	-200.000	-0.073	0.357
-190.187	-132.662	0.046	0.006
-189.173	-200.000	-0.046	-0.262
-188.158	-44.132	-0.141	-0.070
-187.144	-88.489	0.324	-0.095
-186.129	-46.033	-0.323	-0.157
-185.114	22.843	-0.034	-0.028
-184.100	-70.652	-0.217	0.081
-183.085	99.320	0.142	0.162
-182.071	-13.926	-0.071	-0.045
-181.056	205.035	0.102	0.156
-180.042	38.803	0.132	-0.117
-179.027	256.534	0.119	0.201
-178.012	-111.831	-0.292	0.058
-176.998	23.114	-0.119	0.097
-175.983	402.345	-0.065	0.135
-174.969	205.631	-0.251	0.385
-173.954	144.383	-0.105	0.139
-172.939	120.553	0.103	0.126
-171.925	-2.072	0.129	0.089
-170.910	800.000	-0.051	-0.157
-169.896	-169.174	-0.270	0.010
-168.881	-200.000	0.044	-0.282
-167.866	73.760	0.136	0.140
-166.852	-200.000	0.004	0.028
-165.837	4.764	0.240	0.174
-164.823	335.301	-0.028	-0.053
-163.808	48.560	-0.141	-0.130
-162.793	-28.803	-0.267	0.151
-161.779	-131.514	-0.170	-0.022
-160.764	-35.977	0.213	0.114
-159.750	-109.781	-0.317	0.066
-158.735	150.635	0.111	0.149
-157.720	-200.000	0.055	-0.471
-156.706	25.433	0.271	0.222
-155.691	758.252	0.078	0.209
-154.677	3.219	-0.183	-0.131
-153.662	-200.000	-0.031	-0.179
-152.647	763.168	0.124	0.332
-151.633	-25.899	-0.209	-0.121
-150.618	-13.691	-0.186	0.119
-149.604	6.232	-0.351	-0.257
-148.589	-64.604	-0.086	-0.035
-147.574	-162.286	0.330	-0.016
-146.560	-54.391	-0.262	-0.117
-145.545	800.000	-0.038	0.118
-144.531	-163.970	0.191	0.009
-143.516	-108.052	0.291	0.062
-142.502	140.744	0.105	-0.136
-141.487	-173.558	0.168	-0.005
-140.472	-128.372	0.323	0.045
-139.458	467.418	0.071	-0.157
-138.443	15.869	0.148	0.115
-137.429	240.085	0.148	0.243
-136.414	-23.897	0.167	0.098
-135.399	39.010	0.145	0.128
-134.385	89.945	-0.411	-0.452
-133.370	-23.843	0.301	0.178
-132.356	-55.524	0.150	0.066
-131.341	-49.495	-0.403	-0.189
-130.326	800.000	0.056	0.222
-129.312	-128.172	-0.038	0.005
-128.297	-67.565	0.312	0.121
-127.283	124.418	0.242	0.300
-126.268	10.643	0.121	-0.091
-125.253	164.392	-0.271	0.377
-124.239	-74.219	0.370	0.132
-123.224	-104.213	-0.112	-0.026
-122.210	662.282	0.073	-0.186
-121.195	353.754	0.110	-0.216
-120.180	-15.511	0.187	-0.118
