DTS Sentinel unit serial number:	SN413079Multiplexer serial number:	ORYXHardware model number:	OX4-SRSoftware version number:	ORYX F/W v4.00 Oryx Data Collector v3.7.2.0data status	okinstallation	princeton_trtdifferential loss correction	single-endedforward channel	channel 3reverse channel	N/Adate	2019/09/18time	06:08:35forward acquisition time	60.00reverse acquisition time	0.00gamma	496.2192k internal	0.2343k external	0.2343temperature offset calibration	0.9950default loss term (dB/km)	0.3790temperature slope calibration	1.0000multiplexer offset coefficient	1.0000multiplexer slope coefficient	1.0000fibre end	0.00T internal ref (°C)	23.19T ext. ref 1 (°C)	0.18T ext. ref 2 (°C)	17.66length (m)	temperature (°C)	Stokes	anti-Stokes-747.200	-5.046	0.291	-0.201
-746.185	102.101	-0.092	0.107
-745.171	800.000	-0.132	0.378
-744.156	-35.162	-0.392	0.214
-743.142	-110.486	0.042	-0.009
-742.127	63.778	-0.145	0.146
-741.112	-200.000	0.028	0.314
-740.098	91.655	-0.154	-0.174
-739.083	-141.424	-0.377	0.038
-738.069	307.588	0.169	0.315
-737.054	633.305	-0.103	0.262
-736.039	-91.120	-0.235	-0.068
-735.025	-175.826	0.125	0.003
-734.010	-129.681	-0.082	-0.011
-732.996	-200.000	-0.040	0.249
-731.981	-200.000	0.015	0.151
-730.966	8.108	-0.226	-0.170
-729.952	59.143	-0.152	-0.150
-728.937	-101.871	-0.131	0.032
-727.923	77.177	0.211	0.224
-726.908	43.664	-0.041	-0.037
-725.894	379.350	-0.102	0.210
-724.879	95.637	-0.098	-0.112
-723.864	-129.633	0.091	0.013
-722.850	-200.000	0.005	0.095
-721.835	88.843	0.082	0.091
-720.821	-104.188	-0.110	-0.026
-719.806	125.597	-0.208	-0.262
-718.791	538.551	0.045	-0.107
-717.777	800.000	0.052	-0.154
-716.762	64.444	0.228	-0.230
-715.748	42.896	0.260	0.237
-714.733	418.996	-0.084	0.180
-713.718	269.791	-0.042	0.074
-712.704	800.000	0.019	-0.054
-711.689	-112.208	0.433	-0.087
-710.675	708.598	-0.108	-0.287
-709.660	192.616	-0.119	0.180
-708.645	-200.000	0.006	0.139
-707.631	69.604	0.342	-0.352
-706.616	-200.000	0.010	-0.114
-705.602	154.573	-0.131	-0.180
-704.587	1.231	-0.152	0.109
-703.572	800.000	-0.039	0.165
-702.558	-139.420	0.261	-0.028
-701.543	-73.688	0.191	-0.069
-700.529	-135.311	0.194	0.023
-699.514	-200.000	0.086	0.561
-698.499	-137.284	-0.114	-0.013
-697.485	161.226	0.246	0.343
-696.470	2.851	0.014	-0.010
-695.456	262.711	-0.085	0.148
-694.441	79.566	-0.186	-0.199
-693.426	800.000	-0.047	-0.169
-692.412	-200.000	0.021	-0.233
-691.397	-200.000	-0.011	-0.063
-690.383	23.756	0.124	0.102
-689.368	-54.475	0.217	0.098
-688.354	-174.911	-0.135	0.004
-687.339	-116.373	0.135	0.025
-686.324	17.488	0.272	-0.216
-685.310	363.151	-0.105	-0.211
-684.295	-200.000	-0.111	-0.534
-683.281	800.000	0.028	-0.091
-682.266	-32.696	0.105	0.058
-681.251	71.695	-0.159	-0.165
-680.237	-200.000	-0.041	0.293
-679.222	-147.864	-0.140	-0.012
-678.208	39.173	-0.062	-0.055
-677.193	-115.233	-0.250	0.047
-676.178	796.190	0.035	-0.096
-675.164	11.264	0.112	0.086
-674.149	-200.000	-0.015	-0.105
-673.135	-37.434	-0.050	0.027
-672.120	-77.473	-0.228	-0.079
-671.105	-26.016	0.175	0.103
-670.091	157.709	0.108	-0.149
-669.076	786.001	0.082	-0.226
-668.062	158.072	-0.164	-0.227
-667.047	-126.488	-0.149	-0.022
-666.032	139.178	-0.104	0.137
-665.018	-200.000	0.038	-0.193
-664.003	-38.711	0.320	-0.169
-662.989	64.518	-0.261	-0.263
-661.974	-47.284	0.251	0.122
-660.959	-200.000	0.003	0.105
-659.945	800.000	0.114	0.461
-658.930	289.380	-0.051	0.092
-657.916	-200.000	0.001	-0.135
-656.901	-200.000	0.020	0.321
-655.886	306.235	-0.057	0.105
-654.872	-149.801	-0.107	0.008
-653.857	-85.778	-0.416	0.129
-652.843	304.381	-0.067	0.124
-651.828	800.000	0.049	0.156
-650.814	-79.784	-0.137	0.046
-649.799	164.400	-0.198	-0.278
-648.784	-200.000	-0.015	0.315
-647.770	-117.110	-0.221	0.040
-646.755	800.000	0.047	-0.138
-645.741	800.000	0.051	0.161
-644.726	-200.000	0.049	0.248
-643.711	-14.819	0.192	0.123
-642.697	-79.975	-0.189	0.063
-641.682	-159.624	-0.055	-0.003
-640.668	-200.000	-0.006	-0.253
-639.653	-147.913	0.129	-0.011
-638.638	-101.571	-0.220	0.053
-637.624	800.000	-0.044	-0.183
-636.609	531.261	0.069	0.162
-635.595	-50.016	0.185	0.088
-634.580	800.000	-0.100	-0.379
-633.565	65.945	0.174	-0.176
-632.551	-84.692	-0.185	-0.058
-631.536	-200.000	0.021	-0.317
-630.522	185.000	-0.053	0.078
-629.507	-200.000	-0.072	0.372
-628.492	538.926	-0.082	-0.195
-627.478	439.168	0.125	0.273
-626.463	800.000	-0.085	-0.356
-625.449	53.516	-0.085	0.081
-624.434	-94.503	-0.308	-0.084
-623.419	-16.221	0.184	0.116
-622.405	-19.459	-0.056	-0.034
-621.390	-4.363	0.347	0.239
-620.376	-27.599	0.145	0.084
-619.361	-59.108	-0.275	0.118
-618.346	-107.284	-0.307	0.067
-617.332	-103.026	-0.359	0.085
-616.317	-119.460	-0.189	-0.033
-615.303	-38.376	0.179	0.094
-614.288	-200.000	-0.029	-0.179
-613.273	171.936	-0.163	-0.233
-612.259	-59.821	0.276	0.118
-611.244	-19.878	0.373	-0.230
-610.230	144.998	-0.249	-0.331
-609.215	189.421	-0.044	-0.066
-608.201	37.915	0.313	-0.277
-607.186	-153.139	-0.241	-0.017
-606.171	16.236	0.054	0.042
-605.157	-37.803	-0.169	-0.090
-604.142	-187.060	-0.211	-0.003
-603.128	-41.247	-0.149	-0.077
-602.113	403.235	-0.211	0.442
-601.098	-124.831	-0.337	-0.052
-600.084	77.105	-0.112	-0.118
-599.069	31.466	0.226	-0.193
-598.055	-95.905	0.252	-0.067
-597.040	-200.000	-0.022	-0.159
-596.025	-113.557	0.238	0.046
-595.011	-180.446	-0.169	0.004
-593.996	196.012	-0.040	0.060
-592.982	-115.963	-0.202	0.037
-591.967	155.882	0.025	0.035
-590.952	-139.498	-0.200	0.021
-589.938	-153.789	0.208	0.014
-588.923	35.461	-0.297	-0.260
-587.909	715.388	-0.113	0.298
-586.894	800.000	0.069	0.276
-585.879	6.769	-0.356	0.263
-584.865	143.187	-0.082	-0.109
-583.850	800.000	-0.011	0.036
-582.836	800.000	-0.053	-0.162
-581.821	10.688	-0.220	0.167
-580.806	-164.115	-0.137	-0.006
-579.792	-200.000	-0.034	0.161
-578.777	60.429	0.048	-0.047
-577.763	-196.169	0.313	0.002
-576.748	34.156	0.305	0.264
-575.733	-200.000	-0.059	-0.268
-574.719	486.973	-0.085	-0.193
-573.704	196.398	0.201	-0.304
-572.690	800.000	0.080	0.297
-571.675	-200.000	0.014	0.092
-570.661	-200.000	-0.031	0.139
-569.646	-126.057	0.205	0.031
-568.631	-10.349	-0.191	0.126
-567.617	208.052	-0.121	0.189
-566.602	-200.000	0.002	0.198
-565.588	-3.901	-0.244	-0.169
-564.573	-99.264	0.115	-0.029
-563.558	-70.816	-0.211	0.079
-562.544	377.778	0.158	-0.321
-561.529	-6.512	0.210	-0.142
-560.515	-200.000	-0.021	0.140
-559.500	-200.000	0.016	0.290
-558.485	-115.926	-0.088	0.016
-557.471	-120.008	-0.189	0.032
-556.456	-149.076	0.170	0.014
-555.442	-150.074	0.103	0.008
-554.427	300.565	0.139	0.256
-553.412	-22.011	0.058	-0.035
-552.398	-0.590	0.269	0.190
-551.383	-112.601	-0.191	0.038
-550.369	-125.964	-0.039	0.006
-549.354	800.000	-0.038	-0.139
-548.339	48.459	-0.384	0.357
-547.325	-200.000	0.017	0.318
-546.310	19.938	-0.039	0.031
-545.296	1.989	0.126	0.090
-544.281	-49.132	-0.255	0.121
-543.266	110.588	0.206	0.246
-542.252	273.242	-0.212	-0.372
-541.237	152.565	-0.213	0.289
-540.223	-127.666	0.041	-0.006
-539.208	459.442	0.028	0.061
-538.193	70.627	0.195	0.200
-537.179	-200.000	-0.019	0.206
-536.164	-36.368	0.222	-0.119
-535.150	-200.000	0.036	0.303
-534.135	-48.939	0.291	-0.138
-533.121	-200.000	-0.021	-0.390
-532.106	247.708	-0.169	-0.284
-531.091	-127.545	0.278	0.040
-530.077	86.049	-0.092	-0.101
-529.062	-146.752	0.214	-0.018
-528.048	-78.901	0.384	0.130
-527.033	37.641	0.309	0.272
-526.018	208.888	-0.198	-0.307
-525.004	-133.827	0.344	0.043
-523.989	42.528	0.046	0.041
-522.975	-59.815	-0.158	0.067
-521.960	142.276	-0.040	0.053
-520.945	56.698	-0.032	0.031
-519.931	72.163	-0.075	0.077
-518.916	-200.000	-0.061	0.329
-517.902	-90.832	-0.053	0.015
-516.887	-200.000	-0.017	0.159
-515.872	282.042	-0.077	-0.136
-514.858	117.201	-0.079	0.096
-513.843	-30.922	-0.123	-0.069
-512.829	-200.000	0.012	-0.188
-511.814	-47.776	0.220	-0.106
-510.799	800.000	0.050	-0.146
-509.785	-120.831	0.089	0.015
-508.770	-193.776	-0.327	-0.003
-507.756	-64.116	-0.380	0.154
-506.741	-35.903	-0.137	-0.074
-505.726	-93.709	0.198	0.054
-504.712	-140.685	0.245	0.025
-503.697	-0.501	-0.178	0.126
-502.683	-200.000	-0.037	-0.248
-501.668	195.175	-0.183	-0.275
-500.653	-169.482	-0.121	0.004
-499.639	542.522	0.092	-0.217
-498.624	166.157	-0.093	-0.131
-497.610	-144.753	0.135	0.012
-496.595	-113.577	0.123	0.024
-495.581	-81.646	-0.207	-0.067
-494.566	59.199	0.148	0.144
-493.551	800.000	0.096	-0.265
-492.537	-21.943	0.306	-0.185
-491.522	11.210	-0.131	-0.099
-490.508	301.820	0.098	0.179
-489.493	60.391	0.101	0.099
-488.478	-103.605	-0.339	-0.079
-487.464	-89.822	0.077	0.022
-486.449	-98.032	0.110	0.028
-485.435	-200.000	0.044	0.205
-484.420	-200.000	-0.000	-0.115
-483.405	101.243	0.225	-0.259
-482.391	-0.595	-0.212	-0.149
-481.376	-200.000	-0.046	-0.261
-480.362	43.840	-0.179	-0.162
-479.347	-60.125	-0.233	0.099
-478.332	-200.000	0.046	-0.341
-477.318	800.000	-0.124	-0.406
-476.303	-130.676	0.247	0.033
-475.289	-27.609	0.041	-0.024
-474.274	-101.050	0.178	0.043
-473.259	8.614	0.116	-0.086
-472.245	387.895	-0.054	0.112
-471.230	-116.920	-0.199	0.036
-470.216	-40.420	-0.328	-0.169
-469.201	-42.490	0.252	0.127
-468.186	800.000	0.108	-0.328
-467.172	-79.393	-0.176	-0.059
-466.157	-200.000	0.081	-0.389
-465.143	800.000	-0.121	-0.373
-464.128	214.625	0.189	-0.297
-463.113	800.000	0.036	-0.128
-462.099	800.000	-0.018	0.070
-461.084	-200.000	-0.027	-0.158
-460.070	776.704	-0.152	0.410
-459.055	800.000	0.033	0.105
-458.040	449.442	-0.059	-0.129
-457.026	-47.956	0.174	0.083
-456.011	800.000	0.040	0.137
-454.997	-135.408	0.096	-0.011
-453.982	-174.625	-0.314	0.009
-452.968	-200.000	0.044	0.198
-451.953	-1.105	0.070	0.049
-450.938	217.249	-0.025	-0.039
-449.924	-10.187	-0.205	-0.135
-448.909	658.949	-0.060	0.152
-447.895	138.289	-0.087	-0.113
-446.880	-163.439	0.165	-0.008
-445.865	-168.696	0.133	0.005
-444.851	234.719	-0.260	0.425
-443.836	-161.218	-0.321	-0.017
-442.822	201.769	-0.085	-0.129
-441.807	-106.196	-0.232	-0.051
-440.792	800.000	-0.097	-0.279
-439.778	631.578	-0.016	-0.039
-438.763	-51.946	0.208	0.096
-437.749	-69.470	-0.283	-0.107
-436.734	-99.126	0.094	0.024
-435.719	32.976	-0.118	-0.101
-434.705	662.142	-0.074	0.188
-433.690	-45.690	0.189	-0.092
-432.676	-50.967	0.180	0.084
-431.661	-66.553	-0.096	-0.038
-430.646	-41.510	0.167	0.085
-429.632	81.113	-0.133	-0.142
-428.617	-93.536	0.400	0.109
-427.603	-58.483	0.194	-0.083
-426.588	-153.692	-0.090	-0.006
-425.573	571.883	0.081	0.196
-424.559	170.046	-0.139	0.197
-423.544	-95.572	0.119	0.032
-422.530	106.122	0.145	-0.170
-421.515	70.383	0.077	0.078
-420.500	535.498	-0.086	0.201
-419.486	-96.516	-0.169	-0.044
-418.471	-1.730	-0.233	-0.162
-417.457	303.838	-0.058	-0.106
-416.442	385.087	0.093	0.190
-415.428	-200.000	-0.124	-0.001
-414.413	-88.642	-0.222	-0.065
-413.398	311.558	0.099	0.184
-412.384	202.684	0.161	0.245
-411.369	800.000	-0.020	0.088
-410.355	617.809	-0.057	0.140
-409.340	-143.803	0.083	-0.008
-408.325	76.217	0.081	0.085
-407.311	95.755	-0.157	0.178
-406.296	-182.424	-0.101	-0.002
-405.282	-200.000	-0.034	0.191
-404.267	98.329	0.224	0.255
-403.252	-146.232	-0.209	-0.018
-402.238	-9.774	0.177	-0.117
-401.223	58.753	0.237	0.230
-400.209	-161.450	0.048	-0.002
-399.194	110.372	-0.189	0.224
-398.179	204.238	0.113	-0.173
-397.165	86.890	-0.071	-0.078
-396.150	176.508	0.144	0.207
-395.136	-200.000	0.022	-0.271
-394.121	-131.298	-0.137	-0.018
-393.106	-200.000	0.075	-0.428
-392.092	800.000	0.090	0.284
-391.077	328.526	-0.058	-0.109
-390.063	-200.000	0.006	0.033
-389.048	-200.000	-0.037	0.255
-388.033	-200.000	-0.013	0.280
-387.019	-93.251	0.218	0.060
-386.004	-200.000	-0.031	-0.240
-384.990	-149.344	0.084	-0.007
-383.975	213.031	0.156	-0.243
-382.960	436.409	0.113	0.243
-381.946	59.216	-0.080	0.078
-380.931	-200.000	0.047	-0.259
-379.917	332.578	0.145	-0.276
-378.902	549.678	-0.015	-0.035
-377.888	-101.280	-0.109	0.026
-376.873	376.613	-0.108	0.218
-375.858	-133.558	-0.249	-0.031
-374.844	-143.148	-0.026	-0.002
-373.829	-136.358	-0.196	0.023
-372.815	800.000	0.038	-0.153
-371.800	-155.925	0.158	0.010
-370.785	23.517	0.110	0.089
-369.771	-200.000	-0.013	-0.206
-368.756	-200.000	-0.030	0.209
-367.742	273.507	-0.123	-0.215
-366.727	800.000	-0.055	-0.230
-365.712	-44.149	0.277	0.137
-364.698	-59.791	-0.046	0.019
-363.683	418.471	-0.052	-0.109
-362.669	-20.904	-0.342	-0.207
-361.654	-200.000	0.059	0.328
-360.639	-61.200	-0.240	0.100
-359.625	-200.000	0.006	-0.163
-358.610	349.049	-0.203	0.396
-357.596	-89.633	0.121	0.035
-356.581	-37.473	0.109	-0.057
-355.566	137.692	-0.307	-0.396
-354.552	800.000	0.051	-0.197
-353.537	-147.898	0.517	0.043
-352.523	282.706	-0.070	0.124
-351.508	207.203	-0.098	-0.150
-350.493	-85.807	0.187	0.057
-349.479	47.233	0.264	-0.243
-348.464	-140.101	0.286	-0.030
-347.450	-200.000	-0.023	0.239
-346.435	800.000	0.040	-0.145
-345.420	415.543	-0.024	0.050
-344.406	118.518	-0.104	-0.126
-343.391	-133.530	0.129	-0.016
-342.377	-200.000	-0.020	0.153
-341.362	-86.427	-0.053	-0.016
-340.348	314.975	-0.068	0.126
-339.333	800.000	0.101	0.350
-338.318	7.199	0.149	-0.110
-337.304	202.747	-0.080	-0.121
-336.289	800.000	0.150	-0.425
-335.275	-200.000	0.171	0.001
-334.260	-31.343	0.118	-0.065
-333.245	800.000	-0.084	0.261
-332.231	166.208	0.124	0.173
-331.216	86.781	0.006	0.006
-330.202	-78.577	-0.211	-0.071
-329.187	-200.000	0.020	0.129
-328.172	-200.000	-0.008	0.234
-327.158	86.918	0.173	0.188
-326.143	-159.508	0.245	-0.013
-325.129	-18.020	0.197	0.122
-324.114	-200.000	0.014	-0.074
-323.099	800.000	-0.060	-0.166
-322.085	-99.337	-0.235	-0.058
-321.070	493.816	-0.112	0.252
-320.056	800.000	0.031	0.124
-319.041	-200.000	0.030	0.413
-318.026	364.011	-0.015	0.029
-317.012	17.829	-0.234	-0.183
-315.997	-98.176	0.065	-0.017
-314.983	92.870	-0.022	0.025
-313.968	178.143	-0.128	0.184
-312.953	-142.969	0.354	-0.034
-311.939	28.849	0.227	0.190
-310.924	9.676	-0.116	0.087
-309.910	-119.363	0.296	-0.051
-308.895	-85.073	0.133	-0.041
-307.880	400.698	-0.097	-0.201
-306.866	394.944	-0.072	0.147
-305.851	264.382	0.143	0.246
-304.837	800.000	0.024	-0.086
-303.822	800.000	0.042	0.130
-302.807	-128.829	0.343	-0.048
-301.793	-35.325	0.179	0.096
-300.778	-92.679	-0.541	0.149
-299.764	800.000	-0.037	-0.151
-298.749	640.136	-0.030	0.075
-297.735	-39.833	0.226	-0.116
-296.720	-119.024	0.114	0.020
-295.705	-132.573	-0.121	0.015
-294.691	-25.067	0.157	0.091
-293.676	24.378	0.195	-0.158
-292.662	800.000	0.163	-0.613
-291.647	190.593	-0.060	-0.089
-290.632	40.025	-0.236	-0.208
-289.618	2.012	0.228	-0.162
-288.603	800.000	-0.077	-0.315
-287.589	-20.494	-0.140	-0.085
-286.574	-200.000	0.014	0.073
-285.559	-200.000	-0.011	-0.332
-284.545	800.000	0.044	-0.130
-283.530	168.509	0.231	0.324
-282.516	-35.413	0.115	-0.062
-281.501	28.000	-0.121	0.100
-280.486	761.689	0.080	0.214
-279.472	-163.374	0.407	-0.019
-278.457	-75.456	0.219	0.077
-277.443	16.939	0.155	-0.121
-276.428	243.603	-0.074	-0.121
-275.413	-43.423	-0.360	0.179
-274.399	-166.293	-0.102	-0.004
-273.384	10.759	0.217	-0.163
-272.370	-200.000	-0.030	0.204
-271.355	-200.000	-0.003	0.278
-270.340	626.372	0.096	-0.237
-269.326	-200.000	0.014	-0.113
-268.311	37.727	-0.129	0.112
-267.297	236.344	0.073	-0.119
-266.282	104.212	0.157	0.182
-265.267	11.176	0.171	0.128
-264.253	-87.779	-0.080	-0.024
-263.238	-167.194	0.218	-0.009
-262.224	-200.000	-0.019	-0.150
-261.209	25.730	0.117	0.096
-260.195	27.643	-0.201	-0.166
-259.180	-200.000	0.015	-0.375
-258.165	238.028	0.060	0.098
-257.151	-79.268	-0.146	0.049
-256.136	-200.000	0.004	0.031
-255.122	-36.946	-0.167	-0.088
-254.107	-112.074	-0.254	0.050
-253.092	-108.633	-0.145	0.031
-252.078	42.471	0.242	0.216
-251.063	294.897	-0.053	0.094
-250.049	336.543	0.119	-0.226
-249.034	-200.000	-0.039	0.221
-248.019	-89.347	0.163	0.047
-247.005	29.996	0.226	0.189
-245.990	-80.834	0.421	0.137
-244.976	800.000	-0.106	0.319
-243.961	174.021	-0.060	0.085
-242.946	-17.436	-0.248	0.153
-241.932	-89.874	0.427	-0.123
-240.917	800.000	0.109	-0.324
-239.903	197.884	0.102	0.153
-238.888	85.840	-0.149	0.160
-237.873	536.291	0.038	0.088
-236.859	800.000	0.038	0.139
-235.844	213.776	-0.122	0.189
-234.830	-34.109	-0.194	-0.104
-233.815	-200.000	-0.019	0.126
-232.800	428.708	-0.044	0.094
-231.786	-86.018	0.237	0.072
-230.771	-177.252	0.400	0.010
-229.757	110.481	0.075	-0.089
-228.742	-200.000	0.005	-0.109
-227.727	800.000	-0.110	-0.394
-226.713	-190.146	-0.185	0.002
-225.698	-62.276	0.012	-0.005
-224.684	139.224	-0.299	0.386
-223.669	-64.845	0.165	-0.065
-222.655	-62.288	0.115	0.047
-221.640	-200.000	-0.036	0.178
-220.625	-118.566	-0.207	-0.036
-219.611	-56.040	0.150	-0.065
-218.596	-27.359	-0.177	-0.101
-217.582	-21.263	-0.105	0.063
-216.567	-4.079	0.239	0.163
-215.552	800.000	-0.047	-0.148
-214.538	100.644	-0.043	-0.049
-213.523	31.592	-0.091	0.077
-212.509	700.805	0.116	-0.299
-211.494	231.896	-0.012	0.019
-210.479	75.628	0.221	0.229
-209.465	-200.000	-0.015	0.251
-208.450	-200.000	0.046	0.296
-207.436	800.000	-0.082	0.345
-206.421	-200.000	-0.009	0.230
-205.406	119.060	-0.103	0.125
-204.392	-200.000	-0.005	-0.106
-203.377	-76.166	-0.306	0.106
-202.363	-45.405	-0.364	-0.177
-201.348	800.000	0.046	0.152
-200.333	107.308	-0.153	-0.178
-199.319	492.143	0.080	-0.180
-198.304	797.327	0.041	-0.112
-197.290	-200.000	-0.046	-0.298
-196.275	800.000	-0.097	-0.323
-195.260	124.234	-0.123	-0.151
-194.246	-200.000	0.014	-0.323
-193.231	144.003	-0.138	-0.180
-192.217	-143.189	-0.150	-0.014
-191.202	466.455	0.081	0.179
-190.187	-48.533	0.260	0.122
-189.173	-15.966	0.287	0.179
-188.158	3.875	0.049	0.035
-187.144	-72.010	-0.255	0.093
-186.129	-200.000	-0.001	0.092
-185.114	-33.093	-0.243	0.132
-184.100	-154.503	-0.114	-0.007
-183.085	105.943	0.060	-0.069
-182.071	94.915	0.232	0.259
-181.056	-76.514	-0.076	-0.026
-180.042	8.079	0.248	0.182
-179.027	800.000	-0.109	-0.308
-178.012	-38.859	0.223	-0.115
-176.998	5.230	-0.271	0.196
-175.983	50.886	0.082	-0.076
-174.969	-0.714	-0.089	-0.062
-173.954	-7.428	0.205	-0.136
-172.939	-96.019	-0.225	-0.059
-171.925	800.000	-0.058	0.207
-170.910	608.662	0.121	0.296
-169.896	145.118	0.054	-0.071
-168.881	-43.038	-0.160	0.079
-167.866	-200.000	0.000	0.093
-166.852	66.074	-0.118	-0.118
-165.837	-200.000	0.034	-0.198
-164.823	-140.178	-0.507	0.052
-163.808	507.272	0.162	-0.367
-162.793	66.303	0.280	-0.278
-161.779	452.695	-0.177	-0.384
-160.764	-73.999	0.130	-0.046
-159.750	-165.641	0.089	-0.004
-158.735	-37.595	-0.388	-0.202
-157.720	175.483	-0.169	0.240
-156.706	55.613	0.301	-0.286
-155.691	272.381	0.057	-0.098
-154.677	287.186	-0.068	-0.120
-153.662	628.528	0.041	0.102
-152.647	50.532	-0.166	-0.154
-151.633	10.857	0.038	-0.028
-150.618	-200.000	-0.020	0.386
-149.604	54.469	0.297	-0.280
-148.589	-139.091	-0.402	-0.043
-147.574	157.805	-0.198	0.268
-146.560	10.959	0.291	0.218
-145.545	-97.454	0.199	-0.051
-144.531	-119.941	-0.051	-0.009
-143.516	-200.000	0.040	-0.199
-142.502	56.493	0.063	0.060
-141.487	-176.343	0.177	-0.005
-140.472	187.276	-0.220	-0.321
-139.458	-53.157	0.280	0.126
-138.443	-120.324	-0.193	-0.032
-137.429	-4.156	0.181	-0.123
-136.414	628.744	0.144	0.356
-135.399	370.894	0.052	-0.103
-134.385	-8.524	0.045	0.029
-133.370	-17.977	0.154	-0.095
-132.356	-57.225	-0.123	0.053
-131.341	-200.000	-0.038	0.195
-130.326	-93.647	-0.343	-0.093
-129.312	125.191	0.168	-0.207
-128.297	22.726	0.248	0.199
-127.283	351.294	-0.096	-0.185
-126.268	-112.835	0.403	0.078
-125.253	800.000	0.045	0.130
-124.239	-46.828	0.034	0.016
-123.224	195.192	-0.106	-0.157
-122.210	-161.511	-0.214	-0.011
-121.195	-90.948	0.149	0.042
