DTS Sentinel unit serial number:	SN413079Multiplexer serial number:	ORYXHardware model number:	OX4-SRSoftware version number:	ORYX F/W v4.00 Oryx Data Collector v3.7.2.0data status	okinstallation	princeton_trtdifferential loss correction	single-endedforward channel	channel 3reverse channel	N/Adate	2019/09/16time	07:00:35forward acquisition time	60.00reverse acquisition time	0.00gamma	496.2192k internal	0.2335k external	0.2335temperature offset calibration	0.9959default loss term (dB/km)	0.3790temperature slope calibration	1.0000multiplexer offset coefficient	1.0000multiplexer slope coefficient	1.0000fibre end	0.00T internal ref (°C)	27.37T ext. ref 1 (°C)	11.49T ext. ref 2 (°C)	21.81length (m)	temperature (°C)	Stokes	anti-Stokes-747.200	-38.265	0.372	-0.198
-746.185	-200.000	0.022	0.400
-745.171	-200.000	-0.016	-0.166
-744.156	-114.056	-0.254	-0.049
-743.142	229.861	-0.106	0.174
-742.127	-126.803	-0.168	0.025
-741.112	-200.000	0.020	-0.375
-740.098	337.393	0.242	0.472
-739.083	32.436	0.096	0.084
-738.069	611.310	-0.151	0.379
-737.054	11.100	-0.058	0.044
-736.039	-55.494	-0.148	-0.067
-735.025	89.073	0.199	0.222
-734.010	78.454	-0.232	-0.249
-732.996	-70.905	-0.333	0.126
-731.981	-200.000	0.025	0.128
-730.966	-200.000	0.024	0.108
-729.952	-73.443	0.573	0.210
-728.937	-200.000	0.022	-0.166
-727.923	-122.419	-0.311	0.051
-726.908	-65.510	-0.109	-0.044
-725.894	-54.928	-0.370	0.167
-724.879	-200.000	0.037	-0.232
-723.864	-109.745	-0.219	0.046
-722.850	53.446	-0.036	0.034
-721.835	284.238	-0.144	-0.261
-720.821	800.000	0.028	-0.088
-719.806	-200.000	-0.017	-0.076
-718.791	-75.456	-0.358	-0.128
-717.777	-200.000	0.070	-0.340
-716.762	-164.881	-0.109	-0.005
-715.748	670.831	0.117	-0.303
-714.733	492.857	0.066	-0.151
-713.718	-15.800	-0.125	-0.080
-712.704	44.820	-0.244	0.225
-711.689	-36.192	0.461	0.250
-710.675	15.458	-0.134	-0.106
-709.660	-159.693	0.131	-0.007
-708.645	2.206	0.031	0.022
-707.631	-160.740	0.284	-0.015
-706.616	112.072	-0.121	0.147
-705.602	-32.569	0.182	0.102
-704.587	800.000	-0.047	0.180
-703.572	-31.377	0.053	-0.030
-702.558	126.350	-0.062	0.078
-701.543	-200.000	-0.015	-0.162
-700.529	631.271	-0.139	0.353
-699.514	-43.728	0.225	0.114
-698.499	-157.431	0.219	0.013
-697.485	-119.378	0.108	0.019
-696.470	67.043	0.028	0.029
-695.456	-71.895	-0.477	-0.178
-694.441	-15.697	0.167	-0.107
-693.426	-45.844	-0.162	0.080
-692.412	177.662	-0.317	-0.463
-691.397	97.656	-0.095	-0.109
-690.383	339.162	-0.058	-0.113
-689.368	-8.326	-0.176	0.118
-688.354	-200.000	-0.004	0.095
-687.339	25.968	-0.178	0.149
-686.324	-101.653	0.202	0.049
-685.310	-200.000	-0.049	0.341
-684.295	72.469	0.185	-0.193
-683.281	44.243	-0.107	-0.099
-682.266	-17.630	-0.311	-0.196
-681.251	-69.623	0.181	-0.069
-680.237	160.866	0.119	0.166
-679.222	118.389	0.117	-0.145
-678.208	44.143	-0.270	-0.248
-677.193	-120.554	0.126	0.021
-676.178	-200.000	-0.026	0.191
-675.164	683.500	0.139	0.364
-674.149	-100.087	-0.349	0.087
-673.135	30.700	-0.267	0.229
-672.120	231.951	0.185	0.304
-671.105	-32.846	-0.391	0.218
-670.091	-144.045	-0.420	0.040
-669.076	-200.000	0.046	-0.511
-668.062	-200.000	-0.005	-0.091
-667.047	186.386	-0.186	0.277
-666.032	-141.357	0.247	-0.025
-665.018	-146.678	-0.233	0.020
-664.003	-180.090	0.077	0.002
-662.989	184.728	0.141	0.209
-661.974	-42.216	0.088	-0.045
-660.959	-109.236	0.154	-0.033
-659.945	-200.000	0.044	-0.310
-658.930	-38.343	0.021	-0.011
-657.916	-139.474	-0.111	-0.012
-656.901	-141.195	-0.049	-0.005
-655.886	6.654	0.187	-0.139
-654.872	263.729	-0.046	-0.081
-653.857	-87.783	-0.341	0.103
-652.843	-29.330	-0.182	0.104
-651.828	115.729	0.133	-0.163
-650.814	800.000	-0.036	0.139
-649.799	800.000	-0.083	0.257
-648.784	-137.948	0.022	-0.003
-647.770	-26.659	-0.067	0.039
-646.755	204.300	-0.144	-0.224
-645.741	-189.622	0.323	0.004
-644.726	-33.376	0.131	-0.073
-643.711	-200.000	-0.029	0.283
-642.697	20.599	0.262	-0.212
-641.682	-200.000	0.009	-0.126
-640.668	-200.000	-0.025	0.191
-639.653	20.479	0.154	0.124
-638.638	-69.708	0.264	-0.101
-637.624	608.173	0.140	-0.350
-636.609	-200.000	0.000	-0.039
-635.595	800.000	-0.030	-0.090
-634.580	-86.199	-0.034	-0.011
-633.565	-97.671	0.128	-0.033
-632.551	800.000	-0.055	-0.213
-631.536	459.485	0.133	-0.295
-630.522	25.623	-0.487	-0.405
-629.507	-58.221	-0.244	0.106
-628.492	46.124	-0.030	0.027
-627.478	-138.879	0.289	-0.031
-626.463	-200.000	0.002	-0.120
-625.449	95.887	0.352	0.401
-624.434	-66.530	-0.153	-0.061
-623.419	-74.751	-0.340	-0.122
-622.405	-27.750	0.064	-0.037
-621.390	93.040	-0.079	-0.089
-620.376	84.587	-0.163	0.178
-619.361	-53.562	0.217	0.099
-618.346	800.000	0.029	-0.099
-617.332	-119.929	-0.262	0.045
-616.317	-168.188	0.153	-0.006
-615.303	-167.546	-0.115	-0.005
-614.288	-95.521	0.048	-0.013
-613.273	-28.108	-0.181	-0.104
-612.259	322.827	0.145	-0.277
-611.244	-139.552	0.239	0.026
-610.230	-115.397	-0.202	-0.038
-609.215	800.000	-0.027	-0.079
-608.201	-200.000	0.008	-0.173
-607.186	-42.768	-0.128	-0.065
-606.171	-91.240	-0.283	0.081
-605.157	-200.000	0.063	-0.293
-604.142	-131.486	-0.277	0.037
-603.128	55.942	0.091	-0.089
-602.113	-138.315	0.350	-0.039
-601.098	-80.283	-0.186	-0.062
-600.084	-200.000	0.023	-0.317
-599.069	-31.882	0.277	-0.155
-598.055	-200.000	0.027	-0.181
-597.040	21.708	-0.026	-0.021
-596.025	87.094	-0.106	0.117
-595.011	-27.293	-0.164	0.095
-593.996	643.787	0.068	-0.173
-592.982	-200.000	0.015	0.075
-591.967	800.000	-0.082	0.285
-590.952	800.000	0.031	-0.094
-589.938	81.757	-0.083	-0.089
-588.923	108.720	-0.261	-0.311
-587.909	-38.919	-0.169	-0.089
-586.894	-200.000	-0.042	0.437
-585.879	233.394	-0.094	-0.154
-584.865	50.476	-0.218	-0.206
-583.850	127.808	0.141	-0.178
-582.836	-81.350	0.188	-0.062
-581.821	-200.000	0.001	0.088
-580.806	-49.157	-0.269	-0.128
-579.792	-129.524	0.416	-0.057
-578.777	25.969	0.244	0.203
-577.763	-200.000	0.001	0.230
-576.748	-129.230	0.201	-0.028
-575.733	109.313	-0.242	-0.290
-574.719	499.799	-0.034	0.079
-573.704	402.990	0.057	0.119
-572.690	800.000	0.056	-0.202
-571.675	-200.000	-0.010	-0.403
-570.661	-22.405	-0.170	-0.103
-569.646	587.842	-0.154	0.377
-568.631	800.000	-0.007	-0.028
-567.617	422.288	-0.036	-0.077
-566.602	75.025	0.041	-0.043
-565.588	-77.680	0.250	0.086
-564.573	-119.900	-0.281	0.048
-563.558	-144.495	-0.208	0.019
-562.544	-8.842	-0.240	-0.161
-561.529	800.000	0.107	-0.357
-560.515	800.000	-0.119	-0.391
-559.500	590.640	-0.127	-0.313
-558.485	0.317	-0.097	-0.069
-557.471	-200.000	-0.028	0.161
-556.456	-86.480	0.198	0.061
-555.442	294.425	-0.192	-0.350
-554.427	242.851	0.090	0.150
-553.412	51.051	0.110	-0.104
-552.398	-200.000	-0.029	-0.167
-551.383	-97.447	0.236	-0.061
-550.369	-127.817	0.313	-0.045
-549.354	-33.782	0.245	-0.135
-548.339	130.421	-0.143	-0.183
-547.325	425.354	-0.124	0.266
-546.310	24.788	-0.140	-0.116
-545.296	281.428	0.018	-0.031
-544.281	26.527	-0.081	0.067
-543.266	-200.000	-0.028	-0.301
-542.252	97.743	0.117	-0.134
-541.237	-17.194	-0.052	0.033
-540.223	73.767	-0.163	0.170
-539.208	-70.407	0.139	-0.052
-538.193	80.079	0.278	0.298
-537.179	-161.329	-0.239	0.012
-536.164	313.446	-0.217	-0.406
-535.150	-159.911	0.101	0.006
-534.135	800.000	0.080	-0.313
-533.121	-77.904	0.512	0.176
-532.106	-101.157	-0.113	0.028
-531.091	3.960	0.183	-0.133
-530.077	-103.187	-0.103	-0.024
-529.062	115.742	-0.169	0.206
-528.048	167.012	0.265	0.375
-527.033	-45.850	-0.238	-0.117
-526.018	800.000	-0.070	0.288
-525.004	-20.773	0.082	0.050
-523.989	32.448	-0.072	-0.062
-522.975	-76.200	-0.321	0.113
-521.960	-172.185	-0.292	0.009
-520.945	-35.801	-0.317	-0.171
-519.931	-141.752	0.112	0.011
-518.916	800.000	0.062	0.225
-517.902	-132.125	0.046	-0.006
-516.887	583.135	-0.099	-0.242
-515.872	-64.641	-0.070	0.028
-514.858	-102.121	-0.218	0.052
-513.843	-162.324	0.222	-0.011
-512.829	-145.494	-0.171	0.015
-511.814	364.378	0.155	-0.311
-510.799	45.103	0.090	0.082
-509.785	-200.000	0.008	0.280
-508.770	122.462	-0.045	0.055
-507.756	-200.000	0.071	0.361
-506.741	-200.000	-0.031	0.195
-505.726	-200.000	-0.057	0.304
-504.712	313.173	0.027	0.050
-503.697	-75.741	0.250	-0.088
-502.683	231.322	-0.052	-0.084
-501.668	-122.253	-0.410	0.067
-500.653	-61.241	0.308	-0.129
-499.639	627.664	0.051	-0.129
-498.624	-200.000	0.039	-0.270
-497.610	-11.043	0.307	0.201
-496.595	-106.828	-0.199	-0.044
-495.581	21.250	0.236	0.191
-494.566	38.011	-0.268	-0.237
-493.551	800.000	0.061	-0.191
-492.537	-68.053	0.085	-0.033
-491.522	-61.735	-0.177	-0.074
-490.508	20.299	-0.174	0.139
-489.493	278.549	-0.115	-0.204
-488.478	48.487	-0.015	0.014
-487.464	321.261	-0.023	0.044
-486.449	-200.000	-0.026	-0.177
-485.435	-34.665	-0.093	0.050
-484.420	-200.000	-0.051	0.319
-483.405	-56.122	0.269	0.119
-482.391	-85.190	-0.173	0.054
-481.376	4.226	0.134	0.097
-480.362	-200.000	-0.011	-0.183
-479.347	147.915	0.090	0.120
-478.332	37.028	-0.094	-0.083
-477.318	-186.378	-0.239	0.003
-476.303	2.639	0.281	-0.203
-475.289	134.077	0.155	0.200
-474.274	88.412	-0.101	-0.112
-473.259	-90.483	0.267	-0.077
-472.245	-135.881	-0.339	-0.040
-471.230	-200.000	-0.009	0.220
-470.216	275.873	0.020	-0.036
-469.201	-200.000	-0.009	-0.184
-468.186	-200.000	0.085	-0.384
-467.172	345.520	-0.113	-0.221
-466.157	414.853	0.019	0.040
-465.143	701.164	-0.114	0.298
-464.128	274.683	0.124	0.219
-463.113	-200.000	-0.055	0.273
-462.099	33.219	-0.184	-0.158
-461.084	-94.313	-0.119	0.032
-460.070	-200.000	0.048	0.277
-459.055	412.271	-0.083	0.176
-458.040	243.722	0.068	-0.114
-457.026	2.309	-0.057	-0.041
-456.011	64.920	0.297	0.298
-454.997	-200.000	-0.006	-0.040
-453.982	-93.714	-0.174	-0.048
-452.968	-141.775	0.131	-0.013
-451.953	56.390	-0.129	-0.124
-450.938	-93.879	-0.323	0.088
-449.924	-200.000	-0.012	-0.222
-448.909	-130.930	-0.281	-0.037
-447.895	-12.573	-0.022	0.014
-446.880	-23.751	0.181	0.108
-445.865	-53.347	0.302	-0.137
-444.851	482.466	-0.165	-0.373
-443.836	-191.746	0.032	0.000
-442.822	21.056	-0.134	-0.108
-441.807	-37.506	0.231	0.122
-440.792	-62.998	-0.157	0.064
-439.778	-126.568	0.285	-0.042
-438.763	-200.000	-0.017	0.090
-437.749	-48.682	-0.302	-0.144
-436.734	800.000	-0.089	-0.316
-435.719	800.000	-0.054	0.167
-434.705	255.506	0.252	0.428
-433.690	-91.749	-0.140	0.039
-432.676	45.964	-0.190	-0.174
-431.661	28.567	-0.128	0.107
-430.646	66.710	-0.106	0.107
-429.632	332.636	0.079	0.151
-428.617	80.788	-0.081	0.086
-427.603	-112.136	-0.080	-0.016
-426.588	-107.819	0.197	0.043
-425.573	135.517	-0.151	0.195
-424.559	-200.000	-0.048	-0.216
-423.544	508.713	0.040	0.093
-422.530	-200.000	0.000	-0.350
-421.515	-177.811	0.124	-0.003
-420.500	-127.101	-0.277	0.040
-419.486	-168.785	-0.027	-0.001
-418.471	192.829	-0.053	0.079
-417.457	-114.477	0.184	-0.035
-416.442	-22.530	0.235	0.141
-415.428	61.193	-0.140	-0.138
-414.413	-18.435	0.247	0.153
-413.398	28.924	-0.118	-0.099
-412.384	392.394	0.080	-0.164
-411.369	-200.000	0.002	0.189
-410.355	-200.000	0.037	0.172
-409.340	297.906	0.038	-0.069
-408.325	-82.514	-0.462	-0.148
-407.311	-180.126	0.143	0.003
-406.296	-67.281	-0.228	-0.089
-405.282	4.403	0.215	0.156
-404.267	99.412	-0.157	-0.180
-403.252	-35.443	-0.039	0.021
-402.238	-30.494	0.113	-0.063
-401.223	-164.379	0.235	-0.011
-400.209	-200.000	-0.024	0.243
-399.194	293.880	-0.087	0.157
-398.179	-16.307	-0.050	0.031
-397.165	-80.381	0.095	-0.031
-396.150	233.087	0.149	-0.242
-395.136	-148.568	-0.316	-0.026
-394.121	65.574	0.306	-0.307
-393.106	-84.976	0.304	-0.094
-392.092	-41.204	0.033	-0.017
-391.077	51.136	0.142	-0.133
-390.063	75.006	-0.172	-0.180
-389.048	26.624	-0.146	0.121
-388.033	-42.012	0.401	0.203
-387.019	-79.598	0.177	-0.059
-386.004	187.958	-0.108	-0.159
-384.990	-200.000	-0.003	-0.081
-383.975	43.266	-0.210	-0.190
-382.960	7.789	-0.131	0.097
-381.946	-120.236	0.220	-0.037
-380.931	-200.000	-0.022	0.157
-379.917	114.313	-0.218	-0.263
-378.902	140.019	0.027	0.036
-377.888	59.887	0.229	-0.224
-376.873	800.000	-0.074	0.238
-375.858	114.562	0.127	-0.154
-374.844	-73.095	0.100	0.036
-373.829	33.792	0.213	0.184
-372.815	-200.000	0.033	0.155
-371.800	51.234	0.248	0.233
-370.785	61.303	-0.231	-0.227
-369.771	38.701	-0.081	-0.071
-368.756	59.267	0.124	0.121
-367.742	-200.000	-0.051	0.314
-366.727	65.044	-0.061	-0.061
-365.712	67.168	-0.176	-0.177
-364.698	-30.077	0.242	0.136
-363.683	800.000	-0.059	-0.191
-362.669	5.297	0.320	0.233
-361.654	-200.000	-0.015	0.229
-360.639	-200.000	-0.006	0.159
-359.625	213.062	-0.061	-0.096
-358.610	-73.330	-0.268	0.097
-357.596	89.185	-0.068	0.075
-356.581	114.990	0.185	0.223
-355.566	-44.177	0.017	0.009
-354.552	-21.631	-0.258	-0.155
-353.537	-167.850	0.473	-0.018
-352.523	-200.000	0.009	0.183
-351.508	87.561	0.306	0.335
-350.493	-5.220	-0.134	0.091
-349.479	-35.750	-0.336	-0.180
-348.464	-9.702	-0.150	-0.099
-347.450	-19.024	-0.182	0.112
-346.435	-200.000	0.010	-0.271
-345.420	-200.000	-0.013	0.414
-344.406	34.568	-0.159	0.138
-343.391	-76.087	0.199	0.069
-342.377	86.256	-0.103	0.113
-341.362	-73.880	0.222	0.080
-340.348	-24.577	0.281	0.165
-339.333	-72.980	0.294	0.107
-338.318	-143.680	-0.263	0.025
-337.304	547.064	0.074	0.175
-336.289	-200.000	-0.012	-0.236
-335.275	-116.050	-0.153	-0.028
-334.260	-34.606	0.212	0.115
-333.245	-148.853	-0.204	-0.016
-332.231	-200.000	-0.018	-0.237
-331.216	-200.000	0.007	0.151
-330.202	-41.521	-0.153	0.078
-329.187	97.126	-0.333	-0.377
-328.172	193.026	0.068	-0.101
-327.158	167.663	0.096	-0.135
-326.143	327.081	0.113	0.214
-325.129	800.000	0.057	0.206
-324.114	-6.269	0.233	0.157
-323.099	800.000	-0.046	-0.135
-322.085	-107.157	0.175	0.038
-321.070	800.000	-0.106	-0.437
-320.056	242.118	0.111	0.184
-319.041	241.625	0.054	-0.089
-318.026	309.832	0.064	0.118
-317.012	562.643	-0.102	0.244
-315.997	-104.782	0.118	-0.027
-314.983	-33.533	0.093	0.051
-313.968	800.000	-0.105	-0.399
-312.953	118.265	-0.176	-0.215
-311.939	44.066	-0.083	0.075
-310.924	482.361	0.041	-0.093
-309.910	322.309	0.013	0.024
-308.895	512.781	-0.060	0.138
-307.880	800.000	0.008	0.034
-306.866	-96.815	0.109	-0.028
-305.851	211.474	0.097	0.151
-304.837	41.488	0.154	0.137
-303.822	447.765	-0.135	0.294
-302.807	-103.509	0.237	0.055
-301.793	63.395	0.185	0.183
-300.778	-81.148	0.304	0.099
-299.764	101.087	-0.158	-0.181
-298.749	-193.333	0.087	0.001
-297.735	143.291	-0.141	0.185
-296.720	-121.706	-0.257	0.042
-295.705	124.904	-0.084	-0.105
-294.691	109.530	0.132	-0.156
-293.676	-99.776	-0.162	0.040
-292.662	-2.418	-0.152	0.105
-291.647	54.059	-0.313	-0.297
-290.632	234.216	0.063	0.103
-289.618	-48.860	0.243	-0.115
-288.603	28.229	0.309	0.258
-287.589	544.258	0.027	-0.064
-286.574	399.986	-0.092	-0.191
-285.559	137.564	-0.125	0.161
-284.545	-200.000	0.045	-0.358
-283.530	-69.953	0.168	0.063
-282.516	217.416	0.150	-0.236
-281.501	800.000	0.038	0.137
-280.486	90.253	0.217	-0.239
-279.472	167.220	0.128	-0.179
-278.457	17.566	-0.118	-0.092
-277.443	95.940	-0.148	0.167
-276.428	-75.179	-0.005	-0.002
-275.413	-154.983	-0.225	0.015
-274.399	15.499	0.113	-0.088
-273.384	-25.053	-0.229	0.134
-272.370	-95.981	0.210	0.055
-271.355	426.961	0.111	-0.235
-270.340	-200.000	-0.028	-0.256
-269.326	-65.047	0.266	-0.106
-268.311	-198.988	0.389	0.002
-267.297	-131.619	-0.119	0.015
-266.282	194.882	0.168	-0.251
-265.267	-117.927	0.072	-0.013
-264.253	321.037	-0.124	0.232
-263.238	800.000	-0.099	0.320
-262.224	3.905	0.226	-0.163
-261.209	-115.207	0.111	-0.021
-260.195	107.562	-0.113	0.133
-259.180	388.645	-0.114	-0.232
-258.165	-36.180	0.218	0.116
-257.151	800.000	0.033	-0.095
-256.136	75.416	0.041	0.043
-255.122	48.336	0.160	-0.147
-254.107	308.966	0.097	0.179
-253.092	391.743	-0.092	0.189
-252.078	-86.870	0.096	-0.029
-251.063	125.067	0.065	-0.081
-250.049	-200.000	-0.038	0.397
-249.034	-200.000	0.003	-0.091
-248.019	362.100	0.025	-0.050
-247.005	-2.533	-0.116	0.080
-245.990	-8.261	0.038	0.025
-244.976	92.604	0.185	0.206
-243.961	800.000	-0.111	0.365
-242.946	402.073	0.107	-0.222
-241.932	15.830	0.063	0.049
-240.917	-76.697	-0.160	0.055
-239.903	-200.000	0.019	-0.304
-238.888	-51.907	0.340	0.156
-237.873	-200.000	0.017	0.108
-236.859	-200.000	-0.017	-0.106
-235.844	116.991	-0.302	-0.365
-234.830	46.852	0.007	-0.007
-233.815	25.096	-0.003	-0.002
-232.800	216.539	-0.113	-0.177
-231.786	-125.145	0.294	0.044
-230.771	-32.819	0.043	-0.024
-229.757	12.495	-0.162	0.123
-228.742	49.376	-0.211	-0.196
-227.727	-80.506	-0.165	0.054
-226.713	255.197	0.084	0.142
-225.698	800.000	-0.054	-0.229
-224.684	-61.532	-0.372	0.154
-223.669	268.619	-0.068	0.118
-222.655	-200.000	0.030	0.183
-221.640	-200.000	-0.027	0.145
-220.625	29.757	0.172	0.144
-219.611	-43.078	-0.138	0.069
-218.596	707.466	0.071	-0.184
-217.582	72.911	0.144	0.148
-216.567	-200.000	0.031	0.180
-215.552	-200.000	-0.007	0.316
-214.538	113.643	0.098	-0.117
-213.523	-35.148	0.320	-0.171
-212.509	192.925	0.202	0.301
-211.494	89.963	0.117	-0.128
-210.479	-119.652	-0.443	0.075
-209.465	156.053	-0.101	-0.137
-208.450	-200.000	-0.002	0.099
-207.436	-176.196	-0.087	0.002
-206.421	466.281	0.146	-0.321
-205.406	135.538	-0.155	0.198
-204.392	318.038	0.137	-0.255
-203.377	800.000	-0.070	0.202
-202.363	-14.213	0.094	0.060
-201.348	-200.000	-0.012	0.141
-200.333	66.328	-0.157	-0.157
-199.319	96.135	0.102	-0.114
-198.304	-159.343	-0.159	0.009
-197.290	-50.497	-0.406	0.188
-196.275	439.282	0.155	0.334
-195.260	800.000	-0.005	0.014
-194.246	800.000	-0.058	-0.178
-193.231	90.768	0.248	0.273
-192.217	800.000	-0.160	0.515
-191.202	89.160	-0.375	-0.410
-190.187	156.483	-0.058	0.079
-189.173	708.694	-0.135	0.350
-188.158	-118.047	0.265	0.046
-187.144	92.372	-0.242	0.268
-186.129	-153.986	0.148	-0.010
-185.114	-200.000	0.019	-0.377
-184.100	125.469	-0.129	0.160
-183.085	800.000	0.064	0.204
-182.071	207.511	0.097	0.148
-181.056	-70.947	0.106	-0.039
-180.042	86.989	-0.143	0.155
-179.027	97.693	0.118	-0.133
-178.012	-17.388	0.153	-0.095
-176.998	612.377	0.139	-0.341
-175.983	445.387	0.128	-0.277
-174.969	-189.858	-0.321	0.004
-173.954	-47.107	0.143	0.068
-172.939	151.664	-0.121	0.162
-171.925	18.989	-0.078	0.061
-170.910	-36.498	-0.459	0.243
-169.896	800.000	0.130	0.534
-168.881	105.989	-0.276	0.320
-167.866	-200.000	0.021	0.235
-166.852	256.629	0.055	0.093
-165.837	800.000	0.024	0.067
-164.823	-14.836	0.144	-0.091
-163.808	-121.224	0.098	-0.016
-162.793	410.336	-0.056	-0.116
-161.779	-200.000	-0.019	-0.241
-160.764	206.550	0.130	-0.198
-159.750	800.000	0.019	-0.063
-158.735	800.000	-0.047	-0.144
-157.720	800.000	0.017	-0.047
-156.706	79.940	-0.075	0.079
-155.691	800.000	0.086	0.301
-154.677	7.799	0.104	0.076
-153.662	-54.725	0.203	0.090
-152.647	-49.421	-0.384	0.180
-151.633	-200.000	-0.004	0.225
-150.618	4.770	-0.310	0.223
-149.604	-90.974	-0.066	0.019
-148.589	159.267	0.250	0.342
-147.574	800.000	-0.053	0.163
-146.560	94.494	-0.156	0.174
-145.545	-200.000	0.180	0.000
-144.531	-61.839	-0.210	0.086
-143.516	-0.846	0.026	0.018
-142.502	7.861	-0.104	0.077
-141.487	800.000	0.035	0.132
-140.472	-102.557	0.313	0.073
-139.458	-87.900	0.197	0.058
-138.443	-61.462	-0.023	-0.009
-137.429	-71.156	0.164	-0.060
-136.414	16.532	0.131	-0.102
-135.399	86.242	-0.172	0.186
-134.385	-200.000	0.007	0.060
-133.370	-200.000	-0.040	0.278
-132.356	800.000	0.055	-0.218
-131.341	265.758	-0.121	0.207
-130.326	800.000	-0.097	0.295
-129.312	-64.599	0.042	-0.017
-128.297	-200.000	0.000	-0.197
-127.283	-200.000	0.011	0.224
-126.268	-200.000	0.029	-0.170
-125.253	-69.358	-0.204	-0.077
-124.239	-73.060	0.131	0.047
-123.224	737.294	0.041	-0.109
-122.210	-200.000	-0.007	0.246
-121.195	-200.000	0.011	0.197
-120.180	47.570	-0.144	0.132
