DTS Sentinel unit serial number:	SN413079Multiplexer serial number:	ORYXHardware model number:	OX4-SRSoftware version number:	ORYX F/W v4.00 Oryx Data Collector v3.7.2.0data status	okinstallation	princeton_trtdifferential loss correction	single-endedforward channel	channel 3reverse channel	N/Adate	2019/09/15time	07:44:35forward acquisition time	60.00reverse acquisition time	0.00gamma	496.2192k internal	0.2324k external	0.2324temperature offset calibration	0.9985default loss term (dB/km)	0.3790temperature slope calibration	1.0000multiplexer offset coefficient	1.0000multiplexer slope coefficient	1.0000fibre end	0.00T internal ref (°C)	30.62T ext. ref 1 (°C)	4.97T ext. ref 2 (°C)	25.75length (m)	temperature (°C)	Stokes	anti-Stokes-747.200	-200.000	0.036	-0.189
-746.185	-200.000	0.011	0.402
-745.171	631.104	-0.085	0.218
-744.156	136.383	-0.135	-0.178
-743.142	134.473	-0.159	0.208
-742.127	504.009	0.190	0.444
-741.112	709.499	-0.109	0.290
-740.098	65.807	-0.337	0.345
-739.083	246.988	-0.076	0.130
-738.069	800.000	0.115	0.384
-737.054	-200.000	0.010	0.179
-736.039	-200.000	0.184	-0.000
-735.025	125.730	-0.155	0.197
-734.010	1.645	0.071	-0.051
-732.996	415.952	-0.035	-0.075
-731.981	-200.000	-0.032	-0.389
-730.966	265.374	-0.078	0.137
-729.952	-148.555	-0.259	0.021
-728.937	-120.365	0.111	0.019
-727.923	36.792	0.096	-0.086
-726.908	14.928	-0.179	0.141
-725.894	-200.000	-0.020	0.203
-724.879	800.000	-0.059	-0.210
-723.864	-2.350	-0.169	0.119
-722.850	-200.000	-0.008	-0.064
-721.835	98.731	0.213	-0.248
-720.821	-48.738	0.121	-0.059
-719.806	-200.000	0.007	0.206
-718.791	-15.035	-0.257	0.166
-717.777	-135.585	0.060	-0.007
-716.762	12.837	-0.222	-0.173
-715.748	28.222	0.235	-0.200
-714.733	327.201	-0.078	0.151
-713.718	-200.000	0.004	0.085
-712.704	114.794	0.389	-0.478
-711.689	3.194	0.242	0.177
-710.675	-62.280	0.192	-0.081
-709.660	800.000	-0.053	-0.166
-708.645	60.922	0.186	0.186
-707.631	100.799	0.149	0.175
-706.616	109.747	-0.137	0.166
-705.602	800.000	0.028	0.085
-704.587	584.381	-0.038	-0.095
-703.572	-200.000	0.045	0.248
-702.558	-200.000	0.013	0.063
-701.543	-56.113	-0.209	-0.094
-700.529	-66.814	0.061	0.024
-699.514	-5.049	0.064	-0.044
-698.499	414.568	0.039	0.083
-697.485	-60.276	0.229	-0.098
-696.470	5.172	-0.146	-0.109
-695.456	134.171	-0.255	0.333
-694.441	-200.000	-0.007	0.144
-693.426	97.747	0.156	0.181
-692.412	-49.149	0.129	0.062
-691.397	800.000	0.064	0.257
-690.383	-200.000	0.034	-0.296
-689.368	800.000	-0.079	-0.220
-688.354	-111.014	-0.647	0.134
-687.339	-169.744	0.478	-0.017
-686.324	9.619	-0.103	0.079
-685.310	42.178	-0.017	0.016
-684.295	262.039	-0.080	0.139
-683.281	-75.442	-0.121	0.043
-682.266	-78.271	0.092	-0.032
-681.251	800.000	-0.061	0.190
-680.237	-80.415	0.196	0.066
-679.222	557.967	0.087	-0.212
-678.208	39.525	-0.267	0.241
-677.193	-200.000	-0.046	-0.273
-676.178	44.258	-0.111	0.103
-675.164	-85.218	0.341	-0.107
-674.149	-2.401	-0.321	-0.226
-673.135	-48.295	0.310	-0.151
-672.120	40.144	0.209	0.189
-671.105	372.082	-0.110	-0.226
-670.091	-22.352	0.070	0.043
-669.076	26.799	-0.095	-0.080
-668.062	62.798	-0.173	-0.174
-667.047	800.000	-0.059	0.199
-666.032	235.540	0.052	-0.087
-665.018	-131.772	0.227	0.030
-664.003	-200.000	-0.026	-0.146
-662.989	699.288	0.065	-0.173
-661.974	-200.000	-0.011	0.072
-660.959	-149.406	0.126	0.010
-659.945	-135.046	-0.125	-0.015
-658.930	-200.000	-0.012	-0.096
-657.916	800.000	0.032	-0.134
-656.901	800.000	0.057	-0.179
-655.886	140.392	-0.222	-0.294
-654.872	-79.818	-0.334	-0.113
-653.857	-76.424	0.119	0.042
-652.843	776.637	0.026	0.071
-651.828	82.088	0.166	0.181
-650.814	-200.000	0.002	0.144
-649.799	111.578	0.070	0.085
-648.784	1.056	-0.026	0.019
-647.770	40.803	-0.147	-0.133
-646.755	800.000	0.074	0.316
-645.741	-200.000	0.003	0.188
-644.726	-87.548	-0.107	-0.032
-643.711	-200.000	-0.028	-0.153
-642.697	177.862	0.278	0.408
-641.682	-55.264	-0.312	0.141
-640.668	800.000	0.071	0.250
-639.653	-138.043	-0.310	-0.035
-638.638	-200.000	-0.001	0.061
-637.624	-6.985	-0.273	0.187
-636.609	48.344	0.201	-0.190
-635.595	-77.902	-0.124	0.043
-634.580	-200.000	-0.022	-0.361
-633.565	800.000	-0.027	-0.110
-632.551	-7.637	0.232	0.158
-631.536	-169.226	0.072	0.003
-630.522	800.000	0.016	-0.067
-629.507	-200.000	0.005	-0.069
-628.492	3.603	-0.433	0.317
-627.478	313.363	0.237	-0.447
-626.463	-200.000	-0.028	-0.155
-625.449	-200.000	-0.022	-0.196
-624.434	308.828	-0.135	0.254
-623.419	-129.999	0.271	-0.037
-622.405	-43.795	0.163	-0.082
-621.390	409.392	-0.116	0.247
-620.376	5.384	0.170	-0.126
-619.361	793.723	0.116	-0.321
-618.346	-200.000	0.000	-0.170
-617.332	-105.541	-0.412	0.094
-616.317	-182.438	-0.439	0.008
-615.303	32.163	0.197	0.171
-614.288	-154.818	-0.328	-0.022
-613.273	-200.000	0.009	0.179
-612.259	656.374	-0.112	-0.289
-611.244	-200.000	0.083	0.505
-610.230	-84.001	0.046	-0.015
-609.215	109.875	-0.037	-0.044
-608.201	-128.245	0.222	-0.032
-607.186	87.629	0.110	-0.123
-606.171	90.496	0.066	0.075
-605.157	28.384	-0.166	-0.140
-604.142	108.340	0.150	0.180
-603.128	52.137	0.161	-0.154
-602.113	-200.000	-0.032	-0.329
-601.098	72.129	0.020	0.021
-600.084	-36.454	0.236	-0.128
-599.069	800.000	-0.055	-0.178
-598.055	110.840	0.123	0.149
-597.040	60.409	0.065	-0.065
-596.025	-107.046	0.019	0.004
-595.011	235.267	0.145	-0.240
-593.996	-68.462	-0.227	-0.089
-592.982	-11.323	-0.128	0.085
-591.967	345.547	-0.164	0.323
-590.952	800.000	0.030	0.126
-589.938	-96.377	-0.165	0.044
-588.923	-85.291	0.300	-0.094
-587.909	-98.142	-0.128	-0.033
-586.894	406.019	-0.147	0.311
-585.879	800.000	0.095	-0.339
-584.865	-102.780	0.040	0.009
-583.850	-200.000	-0.010	-0.103
-582.836	-65.640	0.271	0.109
-581.821	39.434	0.220	0.198
-580.806	3.633	0.370	0.271
-579.792	-107.945	-0.267	-0.058
-578.777	-54.599	-0.292	0.133
-577.763	800.000	0.034	0.124
-576.748	-200.000	-0.022	-0.222
-575.733	-35.092	-0.325	-0.177
-574.719	800.000	0.093	-0.341
-573.704	11.890	-0.205	-0.158
-572.690	498.138	-0.060	0.138
-571.675	51.472	0.201	-0.191
-570.661	-85.060	0.230	-0.072
-569.646	-101.470	-0.382	-0.093
-568.631	92.076	-0.095	-0.108
-567.617	-200.000	-0.004	-0.229
-566.602	-129.141	-0.202	-0.028
-565.588	516.069	0.002	0.005
-564.573	428.393	-0.127	-0.276
-563.558	-8.197	-0.115	0.078
-562.544	-171.623	0.076	0.003
-561.529	800.000	-0.040	0.134
-560.515	173.074	-0.089	-0.129
-559.500	-18.084	0.147	0.092
-558.485	-171.500	0.236	-0.008
-557.471	-89.100	-0.236	-0.070
-556.456	89.160	-0.257	-0.286
-555.442	-89.964	0.094	-0.028
-554.427	-38.762	0.182	-0.096
-553.412	80.990	-0.309	0.334
-552.398	568.541	0.058	0.142
-551.383	-176.819	-0.157	0.004
-550.369	-125.636	-0.209	-0.032
-549.354	-135.142	-0.212	-0.026
-548.339	191.103	-0.161	-0.242
-547.325	-79.328	0.162	0.055
-546.310	800.000	-0.079	-0.247
-545.296	167.150	-0.146	0.207
-544.281	259.853	-0.139	0.240
-543.266	4.130	-0.084	0.061
-542.252	736.897	0.108	-0.290
-541.237	-200.000	0.011	-0.117
-540.223	-95.782	-0.368	-0.098
-539.208	35.184	-0.243	-0.213
-538.193	-66.849	-0.160	-0.063
-537.179	86.286	0.210	-0.231
-536.164	-200.000	-0.002	-0.115
-535.150	48.482	-0.016	-0.015
-534.135	-58.830	-0.138	0.060
-533.121	-50.593	0.008	-0.004
-532.106	-28.922	0.135	0.078
-531.091	800.000	0.085	0.236
-530.077	-200.000	0.046	0.265
-529.062	68.082	-0.069	-0.071
-528.048	-64.988	-0.134	0.054
-527.033	-200.000	-0.024	-0.140
-526.018	155.488	-0.093	0.128
-525.004	-127.667	0.298	0.043
-523.989	161.050	0.101	-0.141
-522.975	60.595	0.073	-0.072
-521.960	-200.000	0.020	-0.244
-520.945	-200.000	0.022	-0.209
-519.931	-10.999	-0.216	-0.143
-518.916	26.533	-0.026	0.022
-517.902	-68.507	-0.101	-0.039
-516.887	-47.239	-0.079	-0.039
-515.872	-43.138	-0.085	0.043
-514.858	-200.000	0.013	0.129
-513.843	299.579	-0.153	0.282
-512.829	-168.926	-0.226	-0.008
-511.814	38.415	0.324	0.288
-510.799	-44.667	0.323	-0.161
-509.785	257.834	-0.059	0.102
-508.770	69.686	0.104	0.108
-507.756	-192.206	-0.155	0.001
-506.741	351.781	0.120	-0.237
-505.726	-200.000	0.015	-0.370
-504.712	436.013	-0.064	0.140
-503.697	-50.935	-0.064	-0.030
-502.683	141.409	-0.129	-0.171
-501.668	523.017	0.012	-0.027
-500.653	2.009	0.256	-0.185
-499.639	160.546	-0.130	0.181
-498.624	-68.567	0.349	0.135
-497.610	-96.857	-0.205	0.054
-496.595	169.613	0.132	-0.188
-495.581	64.082	-0.155	-0.156
-494.566	113.670	0.113	-0.137
-493.551	195.173	0.231	-0.351
-492.537	-200.000	-0.038	-0.254
-491.522	-80.368	0.100	0.033
-490.508	-200.000	-0.012	-0.269
-489.493	-107.625	-0.399	0.087
-488.478	-127.722	-0.398	0.058
-487.464	14.892	0.058	-0.046
-486.449	572.809	0.039	0.095
-485.435	-148.285	-0.171	0.014
-484.420	-200.000	-0.018	-0.163
-483.405	-78.622	0.133	-0.046
-482.391	800.000	0.069	-0.267
-481.376	7.895	0.023	-0.017
-480.362	-200.000	0.075	-0.355
-479.347	-69.532	0.196	-0.075
-478.332	113.863	-0.222	-0.269
-477.318	763.442	0.139	0.378
-476.303	800.000	-0.035	-0.150
-475.289	-200.000	0.040	-0.268
-474.274	491.819	-0.170	0.390
-473.259	800.000	0.064	0.229
-472.245	79.531	0.190	0.203
-471.230	800.000	0.050	-0.161
-470.216	125.305	-0.230	0.290
-469.201	-154.035	0.035	-0.002
-468.186	800.000	0.055	0.182
-467.172	-57.683	-0.463	-0.202
-466.157	-200.000	0.084	-0.477
-465.143	-90.440	0.300	0.087
-464.128	-200.000	0.025	0.117
-463.113	-200.000	0.032	-0.478
-462.099	7.304	-0.375	0.279
-461.084	119.696	-0.188	-0.232
-460.070	75.975	-0.184	0.194
-459.055	29.785	0.185	-0.157
-458.040	618.790	-0.054	0.135
-457.026	62.352	-0.091	0.090
-456.011	16.987	0.176	-0.139
-454.997	-88.666	0.265	0.079
-453.982	-117.784	-0.079	0.014
-452.968	-57.606	0.174	0.076
-451.953	800.000	-0.041	0.150
-450.938	-28.768	0.254	-0.146
-449.924	800.000	0.027	0.087
-448.909	306.706	0.077	0.143
-447.895	-88.194	0.159	-0.048
-446.880	-153.403	0.376	0.026
-445.865	-170.441	-0.229	0.008
-444.851	-128.979	0.113	-0.016
-443.836	24.788	-0.098	-0.081
-442.822	73.206	0.059	0.061
-441.807	24.021	-0.146	0.120
-440.792	119.222	0.194	0.239
-439.778	-82.733	-0.172	0.055
-438.763	140.113	-0.166	0.219
-437.749	11.345	0.116	-0.089
-436.734	-129.391	0.072	-0.010
-435.719	-34.695	0.030	0.016
-434.705	-200.000	0.007	-0.142
-433.690	94.480	0.092	-0.105
-432.676	-200.000	-0.039	-0.431
-431.661	-175.188	0.145	0.004
-430.646	364.836	0.086	0.172
-429.632	187.987	0.086	0.128
-428.617	788.142	-0.081	0.221
-427.603	338.365	-0.083	0.162
-426.588	74.426	0.109	-0.114
-425.573	-200.000	0.013	-0.195
-424.559	-39.537	-0.087	0.045
-423.544	800.000	0.023	-0.071
-422.530	-53.849	-0.189	-0.086
-421.515	-200.000	0.026	-0.151
-420.500	-200.000	-0.012	-0.320
-419.486	-121.902	-0.443	0.073
-418.471	-33.514	-0.234	0.129
-417.457	396.424	-0.084	-0.174
-416.442	-80.461	0.167	0.055
-415.428	29.804	0.158	0.134
-414.413	162.608	0.201	0.281
-413.398	-119.903	0.334	0.057
-412.384	388.150	0.061	0.125
-411.369	-200.000	0.016	0.498
-410.355	-200.000	0.048	0.444
-409.340	-52.710	-0.291	-0.134
-408.325	80.663	-0.151	0.162
-407.311	-154.487	-0.234	-0.016
-406.296	-55.059	0.013	0.006
-405.282	42.036	0.217	0.196
-404.267	389.453	0.063	0.130
-403.252	-187.762	-0.285	-0.004
-402.238	-75.219	-0.256	-0.091
-401.223	-37.353	-0.030	0.016
-400.209	26.017	-0.192	-0.160
-399.194	800.000	0.094	0.309
-398.179	167.903	-0.141	0.199
-397.165	-150.042	-0.118	0.009
-396.150	22.532	-0.166	-0.135
-395.136	627.391	0.102	0.257
-394.121	-200.000	0.356	0.000
-393.106	-200.000	0.007	-0.072
-392.092	800.000	0.059	0.187
-391.077	-82.837	0.194	-0.062
-390.063	265.893	-0.170	0.296
-389.048	-175.558	0.270	-0.007
-388.033	160.048	0.139	0.193
-387.019	-49.182	0.320	0.152
-386.004	118.667	-0.131	-0.161
-384.990	54.755	-0.189	-0.181
-383.975	-100.569	-0.139	0.034
-382.960	81.496	-0.069	-0.074
-381.946	-117.578	0.298	0.054
-380.931	-122.305	0.194	-0.032
-379.917	11.203	-0.313	0.238
-378.902	-200.000	-0.029	-0.261
-377.888	49.165	-0.233	0.218
-376.873	-115.478	-0.223	-0.042
-375.858	32.092	-0.209	-0.179
-374.844	-163.240	-0.503	0.024
-373.829	-200.000	-0.021	0.204
-372.815	140.489	-0.105	-0.138
-371.800	-5.066	-0.144	0.099
-370.785	800.000	-0.058	0.175
-369.771	90.633	0.103	-0.114
-368.756	372.377	-0.076	0.153
-367.742	-70.448	0.307	-0.116
-366.727	-70.398	0.192	0.072
-365.712	-200.000	0.004	0.100
-364.698	30.334	0.215	0.183
-363.683	-145.500	-0.272	-0.024
-362.669	-107.172	0.156	-0.034
-361.654	-144.558	0.166	-0.015
-360.639	-152.086	0.100	0.007
-359.625	-115.761	-0.182	-0.034
-358.610	-200.000	-0.051	0.320
-357.596	800.000	-0.158	0.460
-356.581	-200.000	0.003	-0.045
-355.566	8.722	-0.138	-0.103
-354.552	-96.646	0.047	-0.012
-353.537	-153.728	0.167	0.011
-352.523	36.587	-0.173	-0.152
-351.508	-200.000	0.046	-0.341
-350.493	-2.146	0.103	0.072
-349.479	-27.951	0.043	-0.025
-348.464	-200.000	-0.004	-0.175
-347.450	11.042	0.131	-0.099
-346.435	-78.375	-0.130	-0.044
-345.420	80.776	0.093	-0.100
-344.406	-46.364	-0.025	0.012
-343.391	-182.626	-0.139	0.003
-342.377	53.077	-0.091	0.086
-341.362	47.623	-0.185	-0.171
-340.348	-200.000	0.011	-0.086
-339.333	-114.264	0.326	-0.062
-338.318	263.474	0.197	-0.341
-337.304	81.529	0.241	0.259
-336.289	-129.544	0.127	-0.018
-335.275	-200.000	0.020	0.220
-334.260	84.834	-0.027	0.030
-333.245	119.580	0.117	-0.144
-332.231	-200.000	0.017	0.224
-331.216	469.179	0.082	0.183
-330.202	161.228	-0.207	-0.288
-329.187	-102.474	0.331	-0.079
-328.172	-139.826	-0.306	-0.032
-327.158	-122.809	0.027	-0.004
-326.143	-108.026	0.415	-0.089
-325.129	-73.972	-0.174	0.063
-324.114	236.117	0.175	0.288
-323.099	-200.000	-0.059	-0.268
-322.085	262.083	0.089	0.154
-321.070	-200.000	0.017	-0.372
-320.056	-45.357	-0.293	-0.144
-319.041	-183.066	-0.269	-0.005
-318.026	344.281	0.165	0.322
-317.012	377.256	-0.183	-0.371
-315.997	800.000	0.011	0.046
-314.983	108.624	0.073	-0.086
-313.968	-167.629	-0.109	-0.004
-312.953	296.158	0.062	-0.113
-311.939	-200.000	-0.029	-0.163
-310.924	24.618	-0.204	-0.167
-309.910	435.938	0.154	-0.332
-308.895	92.197	-0.334	-0.374
-307.880	141.860	-0.077	0.101
-306.866	120.100	0.097	0.119
-305.851	49.347	0.061	0.057
-304.837	120.258	-0.176	0.217
-303.822	-66.053	-0.123	-0.049
-302.807	424.009	-0.071	-0.151
-301.793	440.482	0.064	-0.138
-300.778	-24.511	0.205	-0.121
-299.764	-13.242	-0.229	-0.147
-298.749	-78.853	-0.187	0.063
-297.735	-200.000	0.025	0.148
-296.720	-200.000	-0.031	0.142
-295.705	634.213	0.127	0.319
-294.691	800.000	0.125	-0.407
-293.676	-68.160	0.052	0.020
-292.662	-200.000	-0.006	0.329
-291.647	12.902	0.123	-0.094
-290.632	7.007	-0.187	-0.138
-289.618	707.858	-0.060	0.158
-288.603	91.413	-0.023	0.026
-287.589	-200.000	0.005	-0.270
-286.574	800.000	-0.036	-0.145
-285.559	-149.643	0.211	-0.016
-284.545	-200.000	-0.034	0.280
-283.530	-62.174	0.231	-0.096
-282.516	-23.518	-0.375	-0.223
-281.501	-133.306	0.109	0.014
-280.486	-109.859	0.208	-0.043
-279.472	62.587	-0.057	-0.056
-278.457	58.595	0.077	0.075
-277.443	-200.000	-0.027	-0.261
-276.428	-149.454	0.221	0.017
-275.413	121.974	-0.144	-0.178
-274.399	-36.246	0.114	-0.061
-273.384	41.105	0.187	-0.168
-272.370	-115.056	-0.303	-0.057
-271.355	-92.116	0.206	-0.058
-270.340	-200.000	0.015	0.145
-269.326	399.144	0.081	0.168
-268.311	568.034	-0.083	-0.200
-267.297	-139.236	0.224	0.024
-266.282	-86.265	0.222	-0.068
-265.267	-200.000	-0.002	-0.090
-264.253	-126.444	0.231	0.034
-263.238	800.000	0.040	0.133
-262.224	800.000	-0.067	-0.198
-261.209	385.702	-0.115	-0.234
-260.195	800.000	0.107	-0.334
-259.180	-64.547	0.136	-0.055
-258.165	-171.762	0.424	0.014
-257.151	800.000	0.131	0.366
-256.136	49.217	-0.135	-0.126
-255.122	-62.494	-0.307	-0.126
-254.107	-200.000	-0.016	0.164
-253.092	-200.000	-0.013	0.116
-252.078	-128.108	0.346	0.049
-251.063	33.883	0.105	0.090
-250.049	-58.241	-0.313	-0.135
-249.034	-45.878	0.293	0.143
-248.019	-59.604	-0.057	0.024
-247.005	-65.505	0.331	0.132
-245.990	269.604	-0.083	-0.144
-244.976	-31.365	0.230	-0.128
-243.961	101.559	0.125	0.144
-242.946	730.719	-0.045	-0.118
-241.932	213.571	-0.022	-0.034
-240.917	212.965	0.149	0.233
-239.903	-200.000	0.033	0.369
-238.888	800.000	0.059	-0.182
-237.873	-105.436	0.203	0.046
-236.859	-200.000	-0.008	0.112
-235.844	-76.186	0.123	-0.043
-234.830	-94.295	0.107	-0.029
-233.815	-33.689	-0.176	0.096
-232.800	-141.621	0.191	-0.019
-231.786	800.000	-0.050	0.147
-230.771	-101.158	-0.179	0.043
-229.757	86.931	0.266	-0.291
-228.742	-200.000	-0.035	0.156
-227.727	-190.805	0.142	-0.001
-226.713	25.048	0.217	0.178
-225.698	-137.973	-0.187	-0.021
-224.684	-98.632	0.051	0.013
-223.669	800.000	-0.074	-0.213
-222.655	48.063	0.179	-0.166
-221.640	19.812	0.378	0.301
-220.625	-89.757	-0.359	0.104
-219.611	-103.362	0.059	0.014
-218.596	796.998	0.118	0.322
-217.582	27.815	0.081	0.067
-216.567	-154.560	0.070	-0.005
-215.552	-93.074	-0.276	-0.076
-214.538	190.561	-0.119	-0.178
-213.523	-121.763	-0.277	-0.045
-212.509	95.614	-0.062	-0.070
-211.494	-94.865	0.218	0.058
-210.479	52.484	-0.402	-0.379
-209.465	366.974	0.146	0.292
-208.450	-10.975	-0.039	-0.025
-207.436	800.000	-0.017	-0.056
-206.421	706.207	-0.104	0.272
-205.406	-200.000	0.026	0.210
-204.392	566.035	0.129	-0.309
-203.377	788.436	0.034	0.091
-202.363	800.000	0.057	0.228
-201.348	131.574	0.233	-0.296
-200.333	270.973	0.130	-0.225
-199.319	-200.000	0.006	0.036
-198.304	503.995	-0.125	0.286
-197.290	-109.745	-0.305	0.063
-196.275	70.847	0.177	0.181
-195.260	686.498	0.134	0.345
-194.246	-200.000	-0.010	-0.304
-193.231	-78.193	0.570	-0.194
-192.217	-32.991	-0.125	-0.069
-191.202	144.914	-0.297	-0.392
-190.187	-16.136	0.451	0.283
-189.173	-50.321	0.156	0.073
-188.158	164.604	0.230	0.320
-187.144	55.489	-0.172	-0.165
-186.129	224.006	0.113	-0.180
-185.114	-94.372	-0.249	-0.067
-184.100	19.155	-0.067	-0.053
-183.085	286.095	-0.112	0.199
-182.071	-200.000	-0.005	-0.154
-181.056	153.413	-0.023	-0.031
-180.042	23.588	0.182	0.148
-179.027	-200.000	0.051	0.258
-178.012	21.878	-0.081	-0.065
-176.998	342.153	0.129	0.249
-175.983	-171.821	0.097	-0.003
-174.969	-32.697	0.188	0.103
-173.954	-53.633	-0.487	0.220
-172.939	-200.000	0.048	0.377
-171.925	396.125	0.128	0.264
-170.910	-200.000	0.002	-0.240
-169.896	219.239	0.068	-0.108
-168.881	229.344	-0.074	0.119
-167.866	-160.024	-0.312	-0.017
-166.852	-15.826	0.356	0.224
-165.837	-92.356	0.152	-0.042
-164.823	-152.190	-0.023	-0.002
-163.808	-122.182	0.189	0.031
-162.793	105.886	-0.064	0.074
-161.779	-48.431	-0.177	-0.084
-160.764	181.499	0.033	0.048
-159.750	-106.396	-0.282	0.062
-158.735	-200.000	0.032	0.206
-157.720	-75.380	-0.276	0.097
-156.706	-200.000	0.074	0.445
-155.691	247.365	0.158	0.262
-154.677	-200.000	-0.042	0.216
-153.662	-200.000	0.003	-0.197
-152.647	-200.000	-0.023	0.189
-151.633	189.622	-0.096	0.142
-150.618	-97.204	-0.148	-0.038
-149.604	-200.000	-0.068	0.394
-148.589	39.559	0.328	-0.290
-147.574	213.978	-0.034	0.053
-146.560	-110.281	0.214	-0.044
-145.545	37.621	0.103	0.090
-144.531	-50.652	0.315	-0.146
-143.516	-81.883	0.269	-0.087
-142.502	-18.091	-0.272	0.168
-141.487	-22.213	0.282	-0.169
-140.472	-17.852	0.113	0.070
-139.458	-200.000	0.038	0.195
-138.443	-200.000	0.013	-0.113
-137.429	-81.459	0.195	-0.063
-136.414	-76.074	-0.199	-0.069
-135.399	800.000	0.045	-0.139
-134.385	-116.351	0.074	0.013
-133.370	-83.303	0.398	0.126
-132.356	-5.466	0.152	0.103
-131.341	78.315	-0.057	0.060
-130.326	535.121	-0.073	-0.171
-129.312	-117.411	-0.185	-0.033
-128.297	-98.445	-0.321	0.081
-127.283	-48.876	-0.204	0.096
-126.268	-63.820	-0.322	0.130
-125.253	-200.000	-0.023	0.206
-124.239	800.000	-0.082	0.331
-123.224	225.731	0.224	-0.358
-122.210	70.290	-0.208	0.211
-121.195	-105.844	0.166	-0.037
-120.180	11.739	0.513	0.388
