DTS Sentinel unit serial number:	SN413079Multiplexer serial number:	ORYXHardware model number:	OX4-SRSoftware version number:	ORYX F/W v4.00 Oryx Data Collector v3.7.2.0data status	okinstallation	princeton_trtdifferential loss correction	single-endedforward channel	channel 3reverse channel	N/Adate	2019/09/18time	08:40:35forward acquisition time	60.00reverse acquisition time	0.00gamma	496.2192k internal	0.2340k external	0.2340temperature offset calibration	0.9947default loss term (dB/km)	0.3790temperature slope calibration	1.0000multiplexer offset coefficient	1.0000multiplexer slope coefficient	1.0000fibre end	0.00T internal ref (°C)	24.55T ext. ref 1 (°C)	0.22T ext. ref 2 (°C)	20.28length (m)	temperature (°C)	Stokes	anti-Stokes-747.200	-200.000	-0.012	-0.127
-746.185	-200.000	0.078	0.450
-745.171	-20.418	-0.360	0.222
-744.156	152.672	0.105	0.143
-743.142	-88.301	-0.284	0.085
-742.127	800.000	-0.036	-0.108
-741.112	-200.000	0.049	0.312
-740.098	-14.075	0.143	0.093
-739.083	-62.888	0.252	0.104
-738.069	455.856	-0.133	0.296
-737.054	130.521	0.296	0.380
-736.039	59.515	-0.239	-0.236
-735.025	427.061	-0.103	0.223
-734.010	312.668	-0.089	0.168
-732.996	-143.417	-0.294	0.028
-731.981	-69.302	0.253	0.097
-730.966	789.676	0.102	0.281
-729.952	800.000	-0.029	0.103
-728.937	128.787	-0.006	-0.007
-727.923	800.000	-0.027	0.107
-726.908	9.668	0.113	0.086
-725.894	488.026	-0.100	0.230
-724.879	-33.714	0.030	-0.017
-723.864	-48.577	0.083	-0.040
-722.850	800.000	-0.038	-0.126
-721.835	412.237	-0.108	0.230
-720.821	74.844	-0.114	-0.120
-719.806	4.311	0.084	-0.062
-718.791	208.739	0.103	0.162
-717.777	39.745	-0.174	0.156
-716.762	-96.927	-0.138	-0.036
-715.748	800.000	0.110	-0.424
-714.733	48.959	0.198	0.186
-713.718	66.681	0.129	0.131
-712.704	96.746	-0.114	-0.131
-711.689	-200.000	0.035	0.253
-710.675	479.406	0.129	-0.292
-709.660	-120.773	0.313	0.053
-708.645	413.429	-0.063	0.135
-707.631	-200.000	-0.021	0.307
-706.616	219.922	0.148	0.237
-705.602	800.000	-0.062	-0.192
-704.587	68.467	0.103	-0.106
-703.572	-57.903	-0.315	0.138
-702.558	35.432	-0.060	0.053
-701.543	-200.000	0.049	0.292
-700.529	107.283	-0.139	0.166
-699.514	-80.655	0.227	-0.076
-698.499	-200.000	-0.012	0.341
-697.485	268.519	-0.191	0.335
-696.470	-68.320	-0.331	-0.129
-695.456	47.697	0.098	0.092
-694.441	143.344	0.030	-0.040
-693.426	-113.155	-0.362	-0.071
-692.412	-106.519	0.226	-0.050
-691.397	77.125	-0.178	-0.189
-690.383	279.370	0.090	0.161
-689.368	182.203	0.047	-0.069
-688.354	-105.680	-0.202	-0.046
-687.339	16.242	-0.224	0.177
-686.324	-48.377	0.222	0.107
-685.310	800.000	0.043	0.121
-684.295	109.835	-0.064	-0.077
-683.281	-188.129	-0.107	0.001
-682.266	67.190	-0.255	-0.260
-681.251	800.000	-0.058	-0.220
-680.237	-200.000	0.031	-0.253
-679.222	-74.052	0.145	-0.053
-678.208	28.956	-0.217	-0.184
-677.193	119.409	0.294	-0.364
-676.178	-26.175	0.176	0.103
-675.164	-200.000	-0.005	0.043
-674.149	-47.115	-0.268	0.131
-673.135	184.499	0.132	0.196
-672.120	-30.566	-0.202	0.114
-671.105	-139.257	-0.042	-0.005
-670.091	-170.297	0.061	-0.002
-669.076	-200.000	0.041	-0.408
-668.062	226.092	-0.185	0.300
-667.047	-17.078	0.067	-0.042
-666.032	321.733	-0.082	-0.155
-665.018	528.968	0.120	-0.282
-664.003	-2.944	-0.253	-0.177
-662.989	-88.365	-0.396	-0.118
-661.974	59.502	-0.061	0.060
-660.959	218.358	0.080	0.127
-659.945	38.092	-0.059	-0.053
-658.930	-133.204	0.077	-0.010
-657.916	-13.495	-0.220	0.142
-656.901	212.384	-0.139	-0.220
-655.886	-120.544	0.313	-0.053
-654.872	-200.000	0.000	0.264
-653.857	-36.708	0.244	-0.131
-652.843	-26.898	0.066	-0.039
-651.828	-51.803	-0.078	-0.036
-650.814	800.000	0.068	-0.285
-649.799	25.384	0.220	-0.183
-648.784	-138.383	0.187	-0.021
-647.770	8.254	0.303	-0.227
-646.755	56.750	-0.152	-0.148
-645.741	-178.099	0.293	0.007
-644.726	512.580	-0.021	0.048
-643.711	-200.000	-0.007	0.236
-642.697	283.198	-0.117	-0.209
-641.682	-73.955	-0.103	-0.037
-640.668	180.941	0.079	0.116
-639.653	-82.944	-0.661	-0.213
-638.638	800.000	0.042	0.141
-637.624	34.816	-0.238	0.208
-636.609	243.309	0.130	0.217
-635.595	54.195	-0.117	0.113
-634.580	20.804	-0.293	-0.237
-633.565	613.520	0.144	-0.359
-632.551	800.000	0.013	-0.053
-631.536	-94.195	0.137	0.038
-630.522	-9.782	-0.110	-0.073
-629.507	-200.000	0.007	-0.043
-628.492	39.685	0.184	0.164
-627.478	698.200	0.058	0.152
-626.463	85.935	-0.196	0.215
-625.449	-85.271	0.180	-0.056
-624.434	-78.320	-0.366	-0.125
-623.419	-96.620	0.325	-0.085
-622.405	-43.024	-0.140	0.071
-621.390	-60.184	-0.229	-0.097
-620.376	45.709	0.163	0.151
-619.361	800.000	0.082	0.257
-618.346	154.026	-0.125	0.171
-617.332	-88.598	-0.424	-0.126
-616.317	181.825	-0.067	-0.099
-615.303	108.459	-0.170	0.203
-614.288	258.785	0.199	0.342
-613.273	-174.007	0.074	0.002
-612.259	-76.400	-0.165	-0.058
-611.244	800.000	-0.111	-0.356
-610.230	154.415	-0.110	-0.150
-609.215	-200.000	-0.017	0.162
-608.201	-135.842	-0.130	-0.015
-607.186	-200.000	-0.017	-0.131
-606.171	-47.445	-0.184	0.089
-605.157	-100.538	0.081	-0.020
-604.142	-200.000	0.048	-0.323
-603.128	-66.640	0.422	0.167
-602.113	-35.691	-0.151	0.082
-601.098	-112.498	0.182	-0.036
-600.084	270.786	-0.199	0.350
-599.069	-200.000	0.050	-0.274
-598.055	1.322	0.200	0.144
-597.040	240.124	-0.123	-0.204
-596.025	-200.000	0.008	0.108
-595.011	800.000	0.011	-0.037
-593.996	-127.623	0.344	-0.050
-592.982	579.872	0.024	0.059
-591.967	800.000	0.023	-0.082
-590.952	49.271	-0.212	0.199
-589.938	-44.346	-0.214	-0.107
-588.923	-76.315	-0.244	-0.085
-587.909	800.000	0.061	-0.211
-586.894	-15.329	-0.192	-0.123
-585.879	800.000	0.039	-0.147
-584.865	-3.972	-0.201	0.139
-583.850	-118.727	0.227	-0.040
-582.836	-200.000	-0.013	-0.323
-581.821	44.495	-0.101	0.093
-580.806	800.000	-0.062	0.252
-579.792	444.231	0.082	0.179
-578.777	221.841	0.034	-0.054
-577.763	-89.596	0.160	-0.047
-576.748	64.799	-0.202	0.203
-575.733	206.418	0.139	-0.216
-574.719	-94.438	0.179	0.049
-573.704	-134.424	-0.079	-0.010
-572.690	-59.723	0.264	-0.113
-571.675	-39.278	0.214	-0.112
-570.661	800.000	-0.066	-0.275
-569.646	-15.550	-0.292	0.186
-568.631	547.090	-0.117	0.279
-567.617	-133.367	0.434	-0.054
-566.602	-200.000	0.036	-0.279
-565.588	23.362	0.428	-0.351
-564.573	14.235	0.242	0.188
-563.558	106.624	-0.187	0.220
-562.544	-9.261	-0.178	-0.118
-561.529	-200.000	0.019	0.250
-560.515	532.952	0.090	-0.213
-559.500	800.000	0.052	-0.188
-558.485	-79.376	0.282	-0.095
-557.471	273.126	0.056	0.098
-556.456	-81.938	0.255	0.083
-555.442	-18.965	0.118	0.073
-554.427	498.983	-0.064	0.147
-553.412	266.912	-0.047	-0.082
-552.398	-200.000	-0.006	-0.313
-551.383	800.000	-0.080	0.235
-550.369	143.105	-0.088	-0.116
-549.354	-129.123	0.247	0.034
-548.339	-48.147	-0.124	-0.060
-547.325	-48.100	-0.056	0.027
-546.310	-200.000	0.011	0.209
-545.296	-57.855	0.093	0.040
-544.281	-200.000	0.021	-0.282
-543.266	-75.117	-0.302	-0.107
-542.252	-200.000	0.016	0.178
-541.237	-200.000	-0.009	0.169
-540.223	29.611	0.264	-0.224
-539.208	-200.000	-0.043	-0.397
-538.193	91.662	-0.061	0.069
-537.179	348.298	-0.081	-0.158
-536.164	-200.000	0.029	0.250
-535.150	-200.000	0.011	-0.134
-534.135	110.228	-0.062	0.074
-533.121	-70.087	0.159	-0.060
-532.106	19.870	0.313	-0.250
-531.091	-200.000	-0.014	-0.107
-530.077	-124.798	0.443	0.068
-529.062	-34.096	0.140	0.076
-528.048	-14.869	-0.176	0.112
-527.033	-61.470	-0.234	-0.098
-526.018	800.000	-0.016	-0.045
-525.004	-25.145	0.251	0.148
-523.989	728.984	-0.097	-0.256
-522.975	182.846	-0.118	0.173
-521.960	-168.508	0.264	0.010
-520.945	-150.694	0.025	-0.002
-519.931	-200.000	0.041	0.240
-518.916	-141.335	-0.126	-0.013
-517.902	727.180	-0.076	0.203
-516.887	-53.817	0.117	0.053
-515.872	-57.902	0.392	0.170
-514.858	-200.000	0.025	0.153
-513.843	-38.793	-0.109	-0.057
-512.829	800.000	-0.031	-0.137
-511.814	-97.529	0.007	-0.002
-510.799	224.372	-0.042	0.067
-509.785	-71.124	0.079	0.029
-508.770	46.736	-0.085	-0.078
-507.756	424.409	-0.121	-0.258
-506.741	800.000	-0.057	-0.208
-505.726	-76.228	0.138	-0.048
-504.712	-169.362	-0.435	-0.016
-503.697	295.887	0.177	0.322
-502.683	800.000	0.093	0.281
-501.668	295.318	0.126	-0.228
-500.653	382.729	0.184	-0.377
-499.639	-69.396	0.257	-0.098
-498.624	153.885	-0.161	-0.219
-497.610	-90.356	0.171	-0.049
-496.595	-196.063	0.081	-0.001
-495.581	227.387	-0.104	-0.168
-494.566	-154.734	-0.051	-0.003
-493.551	800.000	-0.053	0.183
-492.537	68.899	0.090	-0.092
-491.522	-200.000	-0.029	0.369
-490.508	316.225	-0.179	0.335
-489.493	-200.000	-0.000	-0.186
-488.478	-200.000	0.049	-0.439
-487.464	-200.000	-0.010	-0.198
-486.449	-39.417	0.198	0.103
-485.435	-200.000	0.002	-0.051
-484.420	-200.000	0.021	-0.280
-483.405	-63.826	0.259	0.105
-482.391	-55.295	-0.220	-0.098
-481.376	129.192	0.118	0.150
-480.362	-200.000	0.060	0.392
-479.347	71.130	0.016	-0.017
-478.332	-142.814	0.176	0.017
-477.318	110.462	-0.175	-0.209
-476.303	-143.460	-0.341	0.032
-475.289	-49.134	0.154	0.073
-474.274	101.521	0.212	0.245
-473.259	-93.585	-0.146	0.040
-472.245	130.200	0.073	-0.093
-471.230	-110.450	-0.158	0.033
-470.216	190.815	-0.082	-0.123
-469.201	800.000	0.086	-0.253
-468.186	-12.930	-0.174	0.112
-467.172	218.054	0.093	0.147
-466.157	-200.000	-0.007	0.292
-465.143	-53.678	-0.270	-0.122
-464.128	-200.000	-0.000	-0.116
-463.113	343.347	0.132	-0.257
-462.099	370.658	0.005	0.009
-461.084	-49.352	0.150	0.071
-460.070	682.147	-0.068	0.176
-459.055	-68.027	-0.258	0.100
-458.040	-22.752	0.246	0.148
-457.026	533.857	0.069	-0.162
-456.011	491.313	0.142	0.322
-454.997	-12.453	0.202	0.131
-453.982	-77.789	-0.052	0.018
-452.968	738.430	-0.100	-0.266
-451.953	-92.143	0.161	-0.045
-450.938	-0.203	0.072	-0.051
-449.924	101.062	-0.094	0.109
-448.909	213.764	0.051	0.080
-447.895	545.027	-0.061	-0.144
-446.880	-42.262	-0.291	-0.147
-445.865	6.449	-0.101	-0.074
-444.851	85.350	0.163	-0.177
-443.836	-151.480	0.071	0.005
-442.822	-123.841	0.402	-0.063
-441.807	131.727	-0.056	-0.072
-440.792	-200.000	0.017	-0.105
-439.778	-149.343	0.281	0.022
-438.763	28.039	0.130	-0.109
-437.749	-200.000	-0.009	-0.407
-436.734	25.578	0.126	-0.104
-435.719	-113.295	-0.101	-0.020
-434.705	-126.329	-0.130	0.019
-433.690	85.181	0.223	-0.242
-432.676	275.661	0.141	0.247
-431.661	47.793	-0.290	-0.268
-430.646	35.060	-0.264	-0.229
-429.632	-37.762	-0.210	-0.111
-428.617	51.241	0.059	-0.055
-427.603	-16.839	-0.144	0.090
-426.588	220.329	-0.219	0.348
-425.573	-200.000	0.043	-0.211
-424.559	63.323	0.078	-0.078
-423.544	800.000	-0.031	0.113
-422.530	-77.796	0.207	0.071
-421.515	-128.555	-0.158	-0.022
-420.500	-200.000	-0.075	-0.345
-419.486	362.909	0.112	-0.222
-418.471	-98.485	-0.090	0.023
-417.457	-200.000	0.021	0.118
-416.442	167.076	-0.131	-0.184
-415.428	-200.000	0.016	0.090
-414.413	800.000	-0.071	0.229
-413.398	-46.343	0.209	0.102
-412.384	190.384	-0.155	-0.231
-411.369	800.000	0.087	-0.319
-410.355	-150.705	0.178	-0.013
-409.340	-16.987	0.201	0.126
-408.325	-88.825	0.172	0.050
-407.311	-200.000	-0.057	0.307
-406.296	800.000	-0.034	-0.106
-405.282	240.399	-0.222	0.367
-404.267	273.579	0.098	0.172
-403.252	43.790	0.135	0.122
-402.238	27.855	-0.193	-0.161
-401.223	468.689	0.089	-0.198
-400.209	-138.673	0.098	0.011
-399.194	-43.645	-0.260	-0.129
-398.179	-40.037	0.131	-0.067
-397.165	66.008	0.286	0.287
-396.150	-200.000	0.076	0.402
-395.136	-29.818	-0.211	-0.119
-394.121	-48.149	-0.167	0.080
-393.106	140.816	-0.237	0.310
-392.092	-200.000	0.002	-0.153
-391.077	506.837	-0.039	-0.090
-390.063	30.842	0.106	0.090
-389.048	-99.762	0.220	0.054
-388.033	63.280	0.411	0.408
-387.019	-119.047	-0.440	-0.076
-386.004	-77.753	0.429	-0.147
-384.990	50.674	-0.171	-0.160
-383.975	-61.387	0.125	-0.052
-382.960	13.123	-0.016	0.013
-381.946	641.215	0.155	-0.390
-380.931	404.276	-0.044	0.091
-379.917	50.420	-0.105	-0.098
-378.902	-46.859	-0.126	-0.061
-377.888	-200.000	0.039	-0.185
-376.873	20.755	0.259	0.207
-375.858	-186.695	-0.486	0.007
-374.844	13.803	-0.194	0.149
-373.829	112.092	0.143	-0.171
-372.815	58.137	-0.139	0.134
-371.800	800.000	0.084	-0.261
-370.785	-101.514	-0.084	-0.020
-369.771	-200.000	-0.064	0.296
-368.756	762.293	0.074	-0.199
-367.742	-200.000	0.037	0.305
-366.727	-200.000	0.030	0.164
-365.712	-200.000	0.053	0.272
-364.698	-200.000	-0.011	-0.107
-363.683	-200.000	0.057	-0.266
-362.669	-97.471	-0.088	-0.023
-361.654	800.000	-0.025	0.076
-360.639	-60.118	0.293	-0.123
-359.625	304.021	0.106	0.194
-358.610	800.000	0.024	0.101
-357.596	-64.463	0.149	-0.060
-356.581	-113.890	0.066	-0.013
-355.566	-31.590	-0.131	-0.073
-354.552	-61.453	0.140	0.058
-353.537	-36.311	0.075	0.040
-352.523	-103.193	-0.342	-0.080
-351.508	-74.526	-0.120	0.043
-350.493	53.840	-0.032	-0.031
-349.479	48.746	-0.147	-0.136
-348.464	-200.000	-0.002	0.185
-347.450	-62.878	-0.126	-0.052
-346.435	-200.000	0.007	-0.127
-345.420	-103.638	-0.275	-0.064
-344.406	-127.916	-0.219	0.031
-343.391	85.160	0.182	0.197
-342.377	581.473	-0.057	0.138
-341.362	-10.135	-0.027	-0.018
-340.348	242.057	-0.129	0.213
-339.333	-200.000	0.002	-0.266
-338.318	800.000	-0.112	0.354
-337.304	231.269	-0.091	0.146
-336.289	800.000	0.059	-0.202
-335.275	-38.887	-0.196	-0.102
-334.260	-200.000	0.115	0.000
-333.245	83.800	-0.176	-0.190
-332.231	-200.000	0.055	-0.368
-331.216	199.816	-0.096	-0.145
-330.202	-19.899	-0.230	-0.140
-329.187	64.926	0.099	0.099
-328.172	-21.383	0.043	-0.026
-327.158	800.000	0.032	-0.126
-326.143	-80.442	0.310	-0.102
-325.129	488.249	0.106	0.238
-324.114	-29.326	0.236	-0.134
-323.099	373.921	0.061	-0.123
-322.085	220.770	0.066	-0.104
-321.070	-200.000	0.063	-0.363
-320.056	-49.594	0.103	-0.048
-319.041	-200.000	0.013	-0.127
-318.026	-135.985	-0.248	-0.029
-317.012	-200.000	0.024	0.111
-315.997	-117.546	-0.081	0.014
-314.983	570.979	-0.099	0.238
-313.968	-66.525	-0.224	0.088
-312.953	-108.477	-0.252	-0.054
-311.939	-74.963	-0.116	-0.041
-310.924	286.643	-0.119	0.211
-309.910	134.639	0.101	0.130
-308.895	-21.974	0.293	0.175
-307.880	-200.000	0.007	0.293
-306.866	188.681	-0.277	0.408
-305.851	46.101	0.098	0.089
-304.837	255.081	-0.207	-0.350
-303.822	33.452	0.157	-0.134
-302.807	20.093	0.212	0.169
-301.793	-24.397	-0.347	-0.204
-300.778	66.758	-0.377	0.378
-299.764	-135.741	0.530	-0.062
-298.749	-105.674	-0.213	-0.048
-297.735	37.787	-0.304	0.266
-296.720	-72.833	-0.142	-0.051
-295.705	-81.380	0.143	0.047
-294.691	800.000	-0.101	-0.277
-293.676	12.288	-0.148	0.112
-292.662	44.487	-0.189	-0.171
-291.647	-108.467	0.264	-0.056
-290.632	-116.465	-0.168	0.031
-289.618	378.064	0.126	-0.253
-288.603	17.109	-0.156	0.122
-287.589	-59.469	0.052	-0.022
-286.574	351.530	-0.080	-0.155
-285.559	-40.251	-0.201	-0.103
-284.545	184.426	-0.187	0.272
-283.530	55.391	0.200	0.191
-282.516	-200.000	0.027	0.189
-281.501	185.981	-0.173	-0.254
-280.486	72.465	0.057	-0.059
-279.472	354.049	-0.044	-0.087
-278.457	208.484	-0.158	0.244
-277.443	-200.000	0.022	0.209
-276.428	280.839	0.145	0.256
-275.413	3.931	-0.270	-0.194
-274.399	82.775	-0.162	0.173
-273.384	33.862	0.162	-0.139
-272.370	800.000	-0.094	-0.380
-271.355	76.621	0.166	-0.173
-270.340	-200.000	0.037	0.467
-269.326	-112.997	-0.131	0.025
-268.311	-44.803	-0.141	0.069
-267.297	-130.645	0.139	-0.018
-266.282	-42.285	-0.102	0.051
-265.267	382.571	-0.151	0.306
-264.253	-49.654	0.115	-0.054
-263.238	-17.200	0.325	0.201
-262.224	352.017	-0.066	0.130
-261.209	-127.896	0.474	0.067
-260.195	-41.312	-0.152	-0.077
-259.180	567.518	-0.051	0.121
-258.165	-13.842	0.153	-0.098
-257.151	191.104	0.228	0.337
-256.136	-72.629	0.258	-0.094
-255.122	800.000	-0.096	-0.318
-254.107	800.000	0.107	-0.308
-253.092	800.000	-0.090	0.265
-252.078	-114.160	-0.304	0.058
-251.063	120.539	-0.074	0.090
-250.049	-1.846	0.240	0.166
-249.034	-106.549	-0.152	0.033
-248.019	205.201	-0.150	0.229
-247.005	-200.000	0.020	-0.263
-245.990	-76.178	0.165	-0.057
-244.976	-200.000	0.023	-0.131
-243.961	8.160	-0.170	-0.126
-242.946	30.723	-0.098	0.083
-241.932	84.379	0.204	0.220
-240.917	147.281	-0.130	-0.171
-239.903	800.000	-0.100	-0.313
-238.888	-200.000	0.005	0.151
-237.873	160.205	0.051	-0.070
-236.859	-200.000	-0.013	-0.369
-235.844	57.552	-0.259	0.249
-234.830	-13.717	0.242	0.154
-233.815	-46.201	0.151	-0.073
-232.800	-200.000	-0.023	0.249
-231.786	-200.000	0.001	-0.130
-230.771	800.000	0.037	0.120
-229.757	-61.261	-0.340	0.141
-228.742	-78.757	-0.093	0.031
-227.727	330.983	0.205	0.388
-226.713	-32.014	0.149	-0.082
-225.698	54.152	-0.036	-0.034
-224.684	-200.000	0.016	0.096
-223.669	-200.000	-0.018	0.162
-222.655	-101.821	0.214	-0.051
-221.640	112.687	0.114	0.136
-220.625	136.647	-0.143	0.183
-219.611	-7.814	-0.114	-0.076
-218.596	-200.000	0.023	0.154
-217.582	800.000	0.060	-0.217
-216.567	231.117	0.001	-0.002
-215.552	-85.543	-0.221	-0.068
-214.538	-64.654	0.179	0.071
-213.523	526.232	0.114	0.263
-212.509	176.798	0.262	0.375
-211.494	-200.000	0.049	0.257
-210.479	262.770	-0.063	-0.108
-209.465	-47.917	-0.330	0.157
-208.450	-200.000	-0.029	-0.306
-207.436	232.189	-0.201	-0.324
-206.421	-91.037	0.230	0.065
-205.406	-84.858	-0.102	-0.031
-204.392	135.364	-0.179	0.228
-203.377	-110.806	0.122	0.025
-202.363	800.000	-0.097	0.358
-201.348	-74.711	0.261	0.092
-200.333	-200.000	-0.021	0.276
-199.319	204.726	0.054	0.082
-198.304	295.061	-0.114	-0.205
-197.290	-54.138	0.178	0.079
-196.275	800.000	0.070	0.219
-195.260	110.821	-0.082	0.097
-194.246	72.484	0.060	0.061
-193.231	-75.548	-0.298	0.104
-192.217	119.551	-0.049	0.060
-191.202	-81.698	0.255	-0.082
-190.187	-200.000	-0.044	-0.278
-189.173	63.719	0.280	0.276
-188.158	-16.109	0.158	-0.098
-187.144	-147.627	-0.174	0.014
-186.129	-49.160	-0.307	-0.144
-185.114	-73.684	-0.176	-0.063
-184.100	39.231	0.264	-0.231
-183.085	198.375	-0.016	0.024
-182.071	800.000	0.140	-0.388
-181.056	190.751	-0.114	-0.167
-180.042	709.214	-0.109	-0.283
-179.027	-96.385	0.265	0.069
-178.012	286.350	0.048	-0.085
-176.998	403.897	-0.183	0.377
-175.983	-200.000	0.002	-0.221
-174.969	-200.000	-0.028	0.241
-173.954	800.000	-0.046	-0.173
-172.939	-200.000	0.046	0.377
-171.925	603.739	-0.140	0.342
-170.910	-200.000	-0.042	0.255
-169.896	76.379	-0.041	-0.043
-168.881	119.552	-0.171	0.207
-167.866	40.731	-0.188	-0.166
-166.852	681.707	-0.116	-0.297
-165.837	800.000	0.066	-0.238
-164.823	15.711	0.081	-0.062
-163.808	61.722	-0.197	-0.192
-162.793	-172.010	0.128	-0.004
-161.779	-85.943	0.019	-0.006
-160.764	51.641	-0.192	-0.179
-159.750	-103.683	0.137	0.032
-158.735	-152.760	0.329	-0.023
-157.720	-200.000	-0.043	0.214
-156.706	-74.568	-0.225	-0.080
-155.691	217.804	0.105	-0.163
-154.677	800.000	-0.081	-0.324
-153.662	-200.000	-0.002	-0.085
-152.647	0.367	0.067	0.047
-151.633	172.782	0.241	0.340
-150.618	-64.909	-0.072	0.028
-149.604	-138.021	-0.279	0.030
-148.589	4.255	-0.086	0.062
-147.574	-131.794	0.226	-0.029
-146.560	-128.950	-0.288	0.040
-145.545	5.466	-0.141	0.102
-144.531	597.100	0.043	0.103
-143.516	282.525	0.152	0.267
-142.502	-59.659	-0.117	-0.049
-141.487	48.372	-0.053	0.049
-140.472	-127.126	0.249	-0.036
-139.458	-200.000	0.005	-0.106
-138.443	-18.234	-0.168	-0.103
-137.429	10.262	-0.184	-0.137
-136.414	-70.508	-0.062	-0.023
-135.399	290.078	0.072	0.129
-134.385	-25.597	-0.282	-0.163
-133.370	345.568	-0.159	-0.306
-132.356	-12.493	0.341	0.218
-131.341	262.485	-0.142	-0.241
-130.326	-69.798	0.221	-0.083
-129.312	-200.000	-0.048	-0.351
-128.297	800.000	-0.025	-0.070
-127.283	-200.000	-0.072	0.331
-126.268	-200.000	-0.008	-0.089
-125.253	-26.545	0.318	0.182
-124.239	300.465	0.097	-0.175
-123.224	-107.375	0.274	0.059
-122.210	-7.786	0.133	0.088
-121.195	800.000	0.113	-0.428
