DTS Sentinel unit serial number:	SN413079Multiplexer serial number:	ORYXHardware model number:	OX4-SRSoftware version number:	ORYX F/W v4.00 Oryx Data Collector v3.7.2.0data status	okinstallation	princeton_trtdifferential loss correction	single-endedforward channel	channel 3reverse channel	N/Adate	2019/09/12time	19:19:04forward acquisition time	15.00reverse acquisition time	0.00gamma	496.2192k internal	0.2320k external	0.2320temperature offset calibration	1.0104default loss term (dB/km)	0.3790temperature slope calibration	1.0000multiplexer offset coefficient	1.0000multiplexer slope coefficient	1.0000fibre end	0.00T internal ref (°C)	32.44T ext. ref 1 (°C)	3.19T ext. ref 2 (°C)	27.00length (m)	temperature (°C)	Stokes	anti-Stokes-747.200	68.985	-0.187	0.194
-746.185	259.993	0.157	-0.273
-745.171	118.049	-0.582	-0.725
-744.156	-40.703	0.644	0.337
-743.142	-77.977	1.091	-0.380
-742.127	-90.389	-0.500	-0.147
-741.112	31.208	-0.318	-0.276
-740.098	-108.807	0.365	-0.079
-739.083	800.000	-0.094	-0.285
-738.069	800.000	0.150	0.516
-737.054	78.069	-0.369	0.398
-736.039	-107.542	-0.855	-0.189
-735.025	609.608	0.324	-0.817
-734.010	-200.000	0.103	0.462
-732.996	-138.385	-0.223	-0.025
-731.981	-132.230	0.319	0.042
-730.966	45.570	0.183	0.171
-729.952	-103.834	-0.090	-0.021
-728.937	-22.967	0.162	0.098
-727.923	-200.000	0.015	-0.139
-726.908	-151.738	-0.529	-0.039
-725.894	216.852	0.341	0.548
-724.879	72.195	-0.552	-0.580
-723.864	-114.521	-1.043	-0.202
-722.850	-14.920	-0.742	0.480
-721.835	238.190	0.232	-0.389
-720.821	-150.992	0.526	-0.040
-719.806	-93.569	-0.371	-0.104
-718.791	338.731	0.681	-1.340
-717.777	8.465	0.587	-0.446
-716.762	-154.450	-0.191	-0.013
-715.748	619.286	0.115	-0.292
-714.733	26.456	-0.308	0.260
-713.718	-26.114	-0.647	-0.384
-712.704	800.000	0.119	-0.442
-711.689	-130.765	0.553	-0.075
-710.675	-200.000	0.029	0.540
-709.660	77.846	-0.359	-0.386
-708.645	31.213	0.291	-0.252
-707.631	96.135	0.273	-0.315
-706.616	-77.041	-0.577	-0.203
-705.602	-70.056	-0.701	0.269
-704.587	-16.177	0.130	-0.083
-703.572	800.000	0.193	0.671
-702.558	245.164	0.623	-1.058
-701.543	493.429	-0.207	-0.480
-700.529	800.000	0.153	-0.434
-699.514	91.837	-0.466	0.529
-698.499	190.341	0.611	-0.926
-697.485	-62.652	0.776	-0.325
-696.470	-119.215	-0.188	-0.033
-695.456	-200.000	-0.082	-0.463
-694.441	800.000	-0.045	-0.139
-693.426	65.836	0.643	-0.658
-692.412	-200.000	0.034	-0.966
-691.397	133.517	0.047	-0.062
-690.383	283.246	0.063	0.114
-689.368	-127.854	-0.458	-0.067
-688.354	36.315	0.349	-0.310
-687.339	76.671	0.521	0.558
-686.324	800.000	-0.081	0.269
-685.310	299.588	0.357	0.664
-684.295	-177.270	0.107	-0.003
-683.281	800.000	0.327	-0.946
-682.266	-200.000	0.075	-0.392
-681.251	361.150	0.319	-0.646
-680.237	-200.000	-0.061	0.301
-679.222	215.629	-0.314	0.503
-678.208	800.000	0.083	0.282
-677.193	287.584	0.184	0.336
-676.178	68.050	-0.154	0.159
-675.164	-46.877	0.522	-0.257
-674.149	39.349	0.455	-0.411
-673.135	-118.937	0.480	0.085
-672.120	-95.130	-0.607	0.165
-671.105	200.632	0.249	-0.385
-670.091	-47.380	0.312	-0.153
-669.076	729.847	-0.297	0.800
-668.062	-200.000	-0.070	-0.422
-667.047	321.830	-0.313	-0.601
-666.032	-153.353	-0.038	0.003
-665.018	800.000	0.217	0.919
-664.003	54.199	-0.535	-0.519
-662.989	-65.698	-0.697	-0.281
-661.974	-200.000	-0.002	0.511
-660.959	-111.147	0.171	-0.035
-659.945	-184.563	0.438	-0.007
-658.930	-23.256	0.940	0.570
-657.916	-143.835	0.535	-0.051
-656.901	-200.000	-0.090	0.628
-655.886	800.000	0.159	-0.505
-654.872	36.913	0.168	-0.150
-653.857	800.000	-0.094	-0.311
-652.843	-200.000	-0.061	-1.126
-651.828	70.829	-0.225	0.235
-650.814	-50.425	0.328	0.156
-649.799	-106.445	0.715	-0.161
-648.784	800.000	0.216	-0.867
-647.770	144.010	-0.203	-0.273
-646.755	402.855	0.214	-0.454
-645.741	-181.688	0.618	0.012
-644.726	-143.943	-0.342	-0.032
-643.711	-66.606	-0.529	-0.211
-642.697	-54.819	-0.326	-0.148
-641.682	-200.000	0.233	1.130
-640.668	33.462	-0.200	0.175
-639.653	-60.297	0.799	0.342
-638.638	-200.000	0.077	0.511
-637.624	-200.000	0.024	0.209
-636.609	450.303	0.028	0.061
-635.595	29.070	0.029	0.024
-634.580	-109.634	-0.199	0.042
-633.565	-200.000	0.077	-0.881
-632.551	227.201	-0.437	-0.716
-631.536	-200.000	0.014	0.472
-630.522	-135.385	-0.651	-0.078
-629.507	169.128	-0.589	-0.846
-628.492	-37.933	-0.218	0.116
-627.478	49.202	-0.624	0.591
-626.463	-200.000	0.041	-0.234
-625.449	753.150	0.410	1.116
-624.434	361.461	-0.197	0.398
-623.419	208.138	-0.077	-0.121
-622.405	-92.275	-0.899	0.255
-621.390	800.000	-0.153	0.433
-620.376	-135.767	-0.311	-0.037
-619.361	253.756	-0.032	0.055
-618.346	-24.634	0.153	0.091
-617.332	-151.906	0.455	-0.034
-616.317	104.062	0.158	-0.187
-615.303	45.332	0.346	0.321
-614.288	-32.787	-0.517	-0.289
-613.273	800.000	0.286	-1.197
-612.259	-113.032	0.735	0.146
-611.244	-200.000	-0.039	-0.553
-610.230	-36.435	0.311	0.169
-609.215	589.625	0.114	-0.283
-608.201	446.924	0.118	-0.261
-607.186	-143.760	0.401	0.038
-606.171	-200.000	-0.045	-0.346
-605.157	-200.000	0.013	0.116
-604.142	-170.601	0.485	0.017
-603.128	58.254	-0.269	-0.265
-602.113	-200.000	-0.032	0.504
-601.098	407.913	0.241	-0.513
-600.084	5.049	-0.160	-0.118
-599.069	2.726	-0.510	-0.372
-598.055	-146.571	-0.871	0.076
-597.040	800.000	0.055	0.161
-596.025	-36.371	-0.449	0.243
-595.011	-71.376	-0.293	-0.110
-593.996	800.000	0.209	0.860
-592.982	800.000	0.059	0.245
-591.967	-200.000	-0.095	-0.823
-590.952	-16.771	0.312	-0.199
-589.938	-59.927	0.582	-0.250
-588.923	800.000	0.121	-0.350
-587.909	70.116	0.132	0.137
-586.894	-183.442	0.753	0.013
-585.879	202.249	-0.393	0.609
-584.865	-200.000	-0.043	-0.627
-583.850	-59.075	-0.309	0.134
-582.836	-72.321	-0.127	-0.047
-581.821	-200.000	0.062	-0.960
-580.806	800.000	-0.062	-0.210
-579.792	-152.077	-0.763	-0.056
-578.777	-141.295	-0.859	-0.088
-577.763	-63.584	0.715	-0.295
-576.748	-3.128	0.329	-0.231
-575.733	800.000	0.159	-0.570
-574.719	-48.486	0.182	-0.088
-573.704	-200.000	-0.092	0.439
-572.690	172.745	-0.310	0.448
-571.675	-162.473	-0.708	-0.035
-570.661	127.568	-0.286	-0.365
-569.646	800.000	0.218	0.629
-568.631	-200.000	0.041	0.218
-567.617	800.000	-0.101	-0.338
-566.602	43.312	-0.401	0.368
-565.588	-17.917	-0.144	0.091
-564.573	800.000	-0.239	-0.786
-563.558	-200.000	-0.076	0.737
-562.544	-200.000	-0.017	0.294
-561.529	800.000	0.074	0.213
-560.515	-62.787	0.565	0.235
-559.500	-200.000	0.000	0.155
-558.485	344.928	-0.160	0.316
-557.471	-152.068	-0.267	0.019
-556.456	-34.421	-0.289	-0.159
-555.442	712.711	0.078	0.208
-554.427	-46.990	0.376	0.185
-553.412	-5.284	-0.242	-0.167
-552.398	-54.242	-0.820	-0.374
-551.383	-10.371	-0.226	-0.150
-550.369	415.542	0.301	0.644
-549.354	411.204	0.194	-0.413
-548.339	-85.086	-1.238	0.389
-547.325	-31.700	-1.062	-0.598
-546.310	-200.000	-0.293	-1.385
-545.296	23.299	0.882	-0.727
-544.281	379.367	0.254	-0.522
-543.266	291.167	0.362	0.661
-542.252	-115.374	-0.686	-0.130
-541.237	800.000	0.147	0.472
-540.223	239.059	0.200	-0.334
-539.208	544.366	0.402	-0.964
-538.193	-200.000	-0.021	-0.314
-537.179	-0.028	0.589	-0.421
-536.164	800.000	0.132	0.412
-535.150	-200.000	-0.004	0.220
-534.135	181.595	0.249	-0.367
-533.121	163.432	-0.157	-0.221
-532.106	558.290	-0.240	0.580
-531.091	-200.000	0.012	0.209
-530.077	-105.996	-0.970	0.219
-529.062	-200.000	0.037	0.388
-528.048	7.711	0.122	-0.091
-527.033	108.515	0.488	-0.584
-526.018	592.451	-0.230	0.570
-525.004	-200.000	-0.059	0.470
-523.989	-45.977	0.274	0.135
-522.975	58.980	0.776	-0.765
-521.960	-49.016	-0.598	0.287
-520.945	634.670	0.244	-0.621
-519.931	-134.592	-0.819	0.100
-518.916	-200.000	-0.014	0.159
-517.902	-65.777	-0.757	-0.304
-516.887	41.781	-0.218	-0.198
-515.872	223.532	0.150	-0.243
-514.858	-200.000	-0.001	-0.410
-513.843	-200.000	0.090	0.493
-512.829	-200.000	-0.079	1.016
-511.814	32.397	0.479	0.414
-510.799	22.839	-0.794	-0.652
-509.785	244.726	-0.259	-0.436
-508.770	96.195	-0.457	-0.524
-507.756	-200.000	0.058	0.400
-506.741	-200.000	-0.095	0.501
-505.726	-48.112	0.640	-0.310
-504.712	-16.254	0.628	-0.399
-503.697	352.907	-0.317	-0.630
-502.683	-21.061	-0.650	-0.399
-501.668	-9.155	-0.361	-0.242
-500.653	121.982	-0.426	0.533
-499.639	-54.773	-1.093	-0.494
-498.624	-200.000	0.009	0.620
-497.610	322.313	0.666	-1.270
-496.595	-53.737	0.710	-0.324
-495.581	-111.113	-0.221	0.045
-494.566	21.262	0.629	0.512
-493.551	-148.137	-0.403	0.033
-492.537	151.267	-0.170	-0.231
-491.522	-200.000	-0.250	1.169
-490.508	-59.961	0.248	0.106
-489.493	233.073	0.312	-0.514
-488.478	117.432	-0.383	-0.471
-487.464	-24.707	-0.565	-0.336
-486.449	-200.000	-0.021	-0.139
-485.435	-151.137	0.920	-0.069
-484.420	372.994	-0.157	0.320
-483.405	235.060	-0.495	0.817
-482.391	-200.000	-0.038	0.284
-481.376	42.654	0.558	0.508
-480.362	-125.953	-0.212	-0.032
-479.347	33.801	0.720	0.627
-478.332	152.828	-0.399	-0.545
-477.318	-139.631	0.950	0.101
-476.303	75.853	-0.365	0.386
-475.289	-200.000	-0.049	-0.644
-474.274	-68.442	0.371	-0.144
-473.259	-80.602	-0.504	0.168
-472.245	-118.247	-0.483	-0.086
-471.230	-16.807	-0.080	0.051
-470.216	13.834	-0.595	-0.463
-469.201	-126.024	-0.643	0.097
-468.186	-122.511	-0.756	0.123
-467.172	-8.489	0.581	0.391
-466.157	-16.633	-0.342	0.217
-465.143	-103.760	-0.472	0.110
-464.128	60.833	-0.481	-0.477
-463.113	241.249	0.260	0.435
-462.099	-67.661	-0.464	0.182
-461.084	-78.505	-0.757	-0.259
-460.070	631.086	0.376	0.953
-459.055	-200.000	-0.011	-0.592
-458.040	-15.296	0.203	0.130
-457.026	-200.000	-0.002	-0.064
-456.011	-114.226	-0.566	0.109
-454.997	377.495	0.196	-0.401
-453.982	-79.352	-0.113	-0.038
-452.968	115.932	-0.153	-0.187
-451.953	-107.129	0.462	0.102
-450.938	94.974	-0.370	0.421
-449.924	-117.867	1.217	0.218
-448.909	86.811	-0.240	-0.264
-447.895	-28.195	0.886	-0.512
-446.880	-106.301	-0.799	0.179
-445.865	113.961	0.026	-0.032
-444.851	-190.318	0.743	-0.008
-443.836	-6.099	-0.327	0.223
-442.822	800.000	0.244	0.885
-441.807	-30.539	1.139	0.645
-440.792	-66.646	0.876	0.347
-439.778	-147.488	0.154	-0.013
-438.763	10.923	-0.294	0.224
-437.749	-46.727	-0.285	0.139
-436.734	-200.000	0.029	-0.293
-435.719	-43.006	0.506	-0.256
-434.705	800.000	0.238	0.851
-433.690	653.237	-0.239	0.611
-432.676	800.000	-0.126	-0.396
-431.661	-93.185	0.741	0.206
-430.646	-200.000	0.481	0.002
-429.632	800.000	0.100	-0.347
-428.617	231.552	0.146	-0.238
-427.603	-200.000	-0.077	0.946
-426.588	201.025	0.135	0.207
-425.573	-73.843	-0.275	-0.100
-424.559	144.844	0.642	-0.858
-423.544	290.119	0.371	0.672
-422.530	151.221	0.402	0.547
-421.515	127.172	-0.151	0.191
-420.500	-6.847	0.140	-0.095
-419.486	48.194	0.346	-0.323
-418.471	199.249	0.259	-0.396
-417.457	-76.338	0.804	-0.283
-416.442	-34.367	-0.775	-0.424
-415.428	1.603	0.656	0.471
-414.413	695.454	0.165	0.434
-413.398	28.522	0.444	0.375
-412.384	147.159	0.436	-0.586
-411.369	-23.980	-0.731	-0.436
-410.355	-200.000	-0.056	0.693
-409.340	-108.601	-0.263	0.056
-408.325	-200.000	0.088	-0.743
-407.311	-114.047	0.400	-0.077
-406.296	452.913	0.104	0.229
-405.282	-121.973	0.296	0.049
-404.267	-8.484	-0.224	-0.150
-403.252	-200.000	-0.025	0.235
-402.238	43.031	-0.153	-0.139
-401.223	102.373	-0.167	-0.195
-400.209	176.731	0.603	0.875
-399.194	64.446	0.595	0.598
-398.179	-33.628	0.197	0.109
-397.165	47.215	-1.107	-1.028
-396.150	49.652	-0.284	-0.267
-395.136	-52.832	-0.374	0.172
-394.121	637.037	0.291	-0.736
-393.106	-105.569	0.783	0.177
-392.092	-59.430	-0.219	-0.094
-391.077	147.191	-0.134	-0.179
-390.063	-200.000	-0.034	-0.403
-389.048	137.120	-0.157	-0.204
-388.033	423.583	-0.172	-0.370
-387.019	53.644	-0.307	-0.294
-386.004	-52.689	0.863	-0.397
-384.990	188.833	0.112	-0.168
-383.975	-37.624	0.332	-0.177
-382.960	498.312	0.299	-0.687
-381.946	-54.147	-0.467	0.211
-380.931	-135.483	-0.525	-0.062
-379.917	638.102	-0.240	0.607
-378.902	-77.106	-0.349	0.121
-377.888	-169.909	-0.991	0.035
-376.873	-200.000	0.028	0.778
-375.858	-61.579	-0.556	-0.233
-374.844	300.587	-0.013	-0.024
-373.829	31.978	0.560	0.481
-372.815	-200.000	-0.001	-0.736
-371.800	-153.523	0.513	-0.035
-370.785	207.063	-0.353	-0.548
-369.771	87.828	0.267	-0.294
-368.756	-48.961	0.117	0.056
-367.742	234.703	-0.525	0.863
-366.727	-130.514	-0.179	-0.024
-365.712	187.781	0.286	-0.426
-364.698	-200.000	0.321	0.001
-363.683	1.456	0.278	0.199
-362.669	-200.000	-0.011	-0.214
-361.654	-50.717	0.781	0.366
-360.639	12.613	0.317	-0.244
-359.625	-200.000	-0.065	-0.552
-358.610	-33.689	-0.408	0.224
-357.596	-144.634	1.017	-0.093
-356.581	70.938	-0.255	0.263
-355.566	10.867	0.217	0.165
-354.552	258.799	-0.305	0.524
-353.537	-200.000	-0.067	-0.739
-352.523	48.420	-0.447	-0.417
-351.508	-100.500	-0.496	-0.122
-350.493	-200.000	0.173	0.787
-349.479	-145.180	-0.695	0.063
-348.464	-200.000	0.063	0.758
-347.450	-64.547	-0.679	0.274
-346.435	800.000	0.090	0.257
-345.420	-82.564	-0.156	-0.050
-344.406	800.000	0.034	0.129
-343.391	569.707	0.084	0.203
-342.377	75.812	0.313	-0.329
-341.362	79.050	-0.182	-0.194
-340.348	-96.328	0.474	0.125
-339.333	737.652	-0.139	-0.372
-338.318	-45.966	-0.252	0.124
-337.304	113.243	-0.186	-0.224
-336.289	-173.012	-0.525	-0.016
-335.275	55.241	-0.396	0.381
-334.260	170.107	-0.140	0.200
-333.245	751.443	-0.347	-0.933
-332.231	-107.150	0.314	-0.069
-331.216	245.310	-0.460	0.770
-330.202	0.814	0.505	0.360
-329.187	-56.192	-0.426	0.189
-328.172	-200.000	0.029	-0.143
-327.158	-78.272	1.062	0.363
-326.143	800.000	0.151	-0.499
-325.129	-92.218	-0.326	0.091
-324.114	-0.193	0.618	-0.438
-323.099	101.610	-0.677	-0.785
-322.085	160.657	0.059	0.081
-321.070	93.856	0.399	-0.450
-320.056	-200.000	-0.186	-0.879
-319.041	-138.711	-0.597	-0.065
-318.026	290.485	-0.295	0.533
-317.012	-77.381	-0.904	-0.312
-315.997	-5.841	-0.386	-0.263
-314.983	-200.000	-0.121	-0.584
-313.968	-30.641	-0.135	-0.076
-312.953	-200.000	-0.010	0.187
-311.939	-175.808	0.280	0.007
-310.924	26.206	0.365	0.303
-309.910	-12.118	-0.640	0.416
-308.895	449.153	0.262	0.574
-307.880	-8.027	-0.298	0.200
-306.866	146.249	-0.513	0.684
-305.851	-0.052	-0.234	-0.166
-304.837	-44.205	0.399	0.199
-303.822	-76.764	-0.481	0.168
-302.807	-72.434	0.837	0.307
-301.793	761.568	-0.329	0.887
-300.778	-200.000	-0.006	0.360
-299.764	-123.639	-0.882	-0.139
-298.749	88.385	-0.161	-0.177
-297.735	-4.714	1.199	-0.822
-296.720	-162.986	-0.423	-0.020
-295.705	800.000	0.123	-0.446
-294.691	669.429	-0.166	0.427
-293.676	800.000	0.062	-0.192
-292.662	153.278	0.553	0.752
-291.647	-53.914	-0.728	-0.330
-290.632	225.125	0.245	0.395
-289.618	-148.551	-0.895	0.073
-288.603	-182.505	0.885	-0.016
-287.589	-96.807	0.800	0.209
-286.574	98.758	0.457	0.524
-285.559	572.480	-0.353	0.853
-284.545	-159.134	0.838	0.047
-283.530	800.000	0.152	-0.453
-282.516	448.559	0.457	1.000
-281.501	288.120	-0.296	-0.532
-280.486	-68.543	1.298	-0.500
-279.472	-8.758	-0.254	-0.169
-278.457	-49.596	-0.515	-0.244
-277.443	-200.000	-0.041	0.177
-276.428	449.260	0.124	0.272
-275.413	-144.076	0.409	-0.038
-274.399	-200.000	0.079	-0.611
-273.384	-23.753	-0.934	-0.555
-272.370	67.085	0.100	0.101
-271.355	-121.085	0.274	0.046
-270.340	800.000	0.315	-0.974
-269.326	-123.391	0.167	0.026
-268.311	-29.933	-0.983	0.556
-267.297	-10.262	-0.063	-0.042
-266.282	-77.682	0.495	0.170
-265.267	-200.000	0.059	0.571
-264.253	-41.150	0.547	0.280
-263.238	-33.494	0.624	-0.342
-262.224	149.771	-0.270	-0.364
-261.209	76.740	0.436	-0.459
-260.195	-200.000	-0.053	0.276
-259.180	-120.049	-0.507	-0.086
-258.165	-96.489	-0.452	0.119
-257.151	-64.773	-0.318	0.128
-256.136	115.652	0.407	-0.494
-255.122	-93.146	0.867	0.239
-254.107	-200.000	-0.115	0.511
-253.092	103.134	0.433	-0.504
-252.078	-200.000	0.051	1.053
-251.063	-37.494	-0.297	0.157
-250.049	571.872	0.109	0.263
-249.034	-39.626	0.353	-0.183
-248.019	-200.000	0.063	0.332
-247.005	32.337	-0.156	0.133
-245.990	73.202	0.237	-0.246
-244.976	-200.000	0.207	1.198
-243.961	-96.972	0.289	0.075
-242.946	-200.000	-0.028	-0.128
-241.932	800.000	0.219	0.800
-240.917	-181.730	0.438	-0.008
-239.903	-148.080	0.724	0.060
-238.888	-200.000	0.169	0.800
-237.873	19.600	0.462	-0.368
-236.859	-135.085	-0.219	0.026
-235.844	-21.838	0.689	-0.416
-234.830	-200.000	0.017	0.732
-233.815	7.511	0.273	0.203
-232.800	-200.000	-0.025	-0.408
-231.786	-62.245	-0.641	-0.265
-230.771	103.767	0.213	-0.248
-229.757	-128.163	-0.680	0.096
-228.742	-186.091	0.705	0.010
-227.727	317.558	-0.066	-0.123
-226.713	-7.141	0.395	-0.266
-225.698	-0.097	0.245	0.173
-224.684	-117.126	-0.633	0.114
-223.669	-38.478	0.413	0.216
-222.655	800.000	-0.172	0.625
-221.640	-47.881	-0.991	0.475
-220.625	800.000	0.240	0.701
-219.611	46.468	0.301	-0.277
-218.596	-200.000	0.026	0.172
-217.582	277.555	-0.318	-0.561
-216.567	-200.000	0.080	0.407
-215.552	37.341	-0.355	0.311
-214.538	-130.607	0.846	-0.113
-213.523	48.517	-0.493	0.457
-212.509	233.237	-0.461	-0.751
-211.494	-37.900	-0.717	0.378
-210.479	140.832	-0.117	-0.153
-209.465	-130.422	-0.705	-0.095
-208.450	800.000	0.096	-0.280
-207.436	52.004	-0.388	0.366
-206.421	-123.972	-0.755	0.118
-205.406	207.226	-0.516	-0.797
-204.392	363.150	-0.039	0.078
-203.377	192.373	0.029	-0.043
-202.363	616.571	0.022	0.055
-201.348	-121.168	0.187	0.031
-200.333	33.912	0.503	0.433
-199.319	-200.000	0.028	-0.187
-198.304	-200.000	0.012	-0.475
-197.290	296.203	-0.357	0.648
-196.275	37.083	-0.771	0.675
-195.260	376.461	-0.371	0.749
-194.246	356.798	0.266	0.525
-193.231	106.264	0.483	-0.566
-192.217	70.322	0.395	-0.404
-191.202	134.594	-0.052	-0.067
-190.187	625.533	-0.031	-0.078
-189.173	-200.000	0.029	0.670
-188.158	-158.624	0.225	-0.013
-187.144	800.000	-0.243	0.814
-186.129	800.000	-0.069	0.294
-185.114	335.646	0.113	-0.217
-184.100	91.791	0.164	-0.183
-183.085	-200.000	0.030	0.494
-182.071	585.054	-0.235	0.571
-181.056	-200.000	-0.055	-0.541
-180.042	-53.063	-0.505	-0.230
-179.027	104.133	0.722	-0.840
-178.012	273.847	0.300	0.526
-176.998	47.410	0.415	0.383
-175.983	-162.791	0.256	0.012
-174.969	-200.000	0.059	0.287
-173.954	60.918	0.336	0.330
-172.939	-142.818	-0.818	-0.079
-171.925	787.646	0.182	-0.494
-170.910	-27.833	0.278	-0.159
-169.896	-200.000	0.089	-0.951
-168.881	800.000	-0.163	-0.698
-167.866	-200.000	0.003	-0.345
-166.852	129.536	-0.287	-0.363
-165.837	-114.141	0.079	0.015
-164.823	-188.558	0.688	0.008
-163.808	54.474	0.555	-0.528
-162.793	800.000	0.068	0.251
-161.779	263.352	-0.195	0.334
-160.764	177.416	0.434	-0.624
-159.750	467.315	0.200	-0.444
-158.735	200.119	-0.262	-0.398
-157.720	-50.657	-0.062	-0.029
-156.706	-200.000	-0.024	-0.313
-155.691	293.426	-0.333	0.601
-154.677	-69.405	0.180	-0.068
-153.662	-28.847	0.366	-0.208
-152.647	-200.000	-0.013	-0.751
-151.633	-140.806	0.926	-0.094
-150.618	-200.000	0.023	-0.438
-149.604	17.972	-1.243	0.979
-148.589	-7.782	-0.915	0.611
-147.574	-14.211	-0.638	0.406
-146.560	60.576	-0.410	-0.401
-145.545	6.925	0.391	-0.288
-144.531	-10.270	-0.945	-0.620
-143.516	14.497	0.340	0.262
-142.502	-60.593	-0.640	-0.268
-141.487	-200.000	0.032	-0.371
-140.472	-11.499	0.349	0.227
-139.458	263.303	0.404	0.693
-138.443	-9.759	-0.665	-0.437
-137.429	397.037	-0.557	-1.150
-136.414	-22.809	-0.488	0.291
-135.399	-53.639	0.778	-0.351
-134.385	30.942	0.939	-0.795
-133.370	510.758	-0.371	-0.852
-132.356	-60.115	0.800	0.337
-131.341	26.870	0.306	0.253
-130.326	800.000	0.018	0.066
-129.312	-115.404	0.428	0.080
-128.297	-169.880	-0.584	0.021
-127.283	156.002	-0.483	0.657
-126.268	78.143	-0.715	0.753
-125.253	-200.000	0.037	-0.333
-124.239	66.092	-0.116	-0.116
-123.224	593.827	0.058	0.141
-122.210	108.646	-0.519	0.612
-121.195	4.312	0.595	-0.430
