DTS Sentinel unit serial number:	SN413079Multiplexer serial number:	ORYXHardware model number:	OX4-SRSoftware version number:	ORYX F/W v4.00 Oryx Data Collector v3.7.2.0data status	okinstallation	princeton_trtdifferential loss correction	single-endedforward channel	channel 3reverse channel	N/Adate	2019/09/17time	10:56:35forward acquisition time	60.00reverse acquisition time	0.00gamma	496.2192k internal	0.2322k external	0.2322temperature offset calibration	0.9945default loss term (dB/km)	0.3790temperature slope calibration	1.0000multiplexer offset coefficient	1.0000multiplexer slope coefficient	1.0000fibre end	0.00T internal ref (°C)	30.27T ext. ref 1 (°C)	0.18T ext. ref 2 (°C)	25.83length (m)	temperature (°C)	Stokes	anti-Stokes-747.200	27.061	0.094	0.080
-746.185	34.904	-0.315	0.278
-745.171	-200.000	-0.043	0.256
-744.156	240.764	0.175	0.294
-743.142	28.578	0.135	0.116
-742.127	-200.000	-0.008	-0.193
-741.112	-35.033	0.111	-0.061
-740.098	-200.000	0.018	0.231
-739.083	-200.000	0.005	-0.377
-738.069	-51.377	0.074	-0.035
-737.054	31.884	-0.036	0.032
-736.039	-39.116	-0.109	0.058
-735.025	368.471	0.139	0.284
-734.010	32.296	-0.180	-0.157
-732.996	-154.063	0.127	0.009
-731.981	-158.149	0.082	0.005
-730.966	-98.286	0.128	-0.033
-729.952	-123.397	-0.247	0.040
-728.937	-43.929	-0.053	-0.027
-727.923	129.139	-0.104	0.134
-726.908	-113.713	-0.225	-0.044
-725.894	800.000	0.093	-0.288
-724.879	-44.077	-0.411	-0.209
-723.864	-30.172	-0.332	-0.190
-722.850	428.382	-0.066	-0.145
-721.835	22.931	0.055	0.045
-720.821	-37.582	-0.379	-0.204
-719.806	38.610	-0.150	-0.135
-718.791	-200.000	0.064	-0.303
-717.777	800.000	-0.032	-0.107
-716.762	-120.774	-0.203	-0.035
-715.748	387.880	-0.137	-0.285
-714.733	-31.303	0.079	-0.045
-713.718	124.724	0.216	0.274
-712.704	399.375	-0.096	0.202
-711.689	-90.562	0.310	0.090
-710.675	107.996	-0.124	-0.149
-709.660	209.860	-0.168	0.266
-708.645	-34.076	-0.214	-0.119
-707.631	-54.354	-0.249	0.114
-706.616	661.108	0.099	0.256
-705.602	800.000	-0.018	0.070
-704.587	-200.000	0.023	0.134
-703.572	235.990	-0.133	-0.222
-702.558	-137.366	0.101	-0.012
-701.543	78.875	-0.195	0.210
-700.529	-40.941	0.257	0.134
-699.514	-200.000	-0.001	0.039
-698.499	-100.371	0.281	-0.070
-697.485	101.093	0.090	0.106
-696.470	-85.013	-0.227	0.072
-695.456	-31.080	-0.238	-0.136
-694.441	36.261	0.127	-0.113
-693.426	-119.399	-0.049	-0.009
-692.412	-200.000	0.015	-0.129
-691.397	241.582	0.131	0.220
-690.383	243.328	-0.146	0.247
-689.368	-84.339	-0.291	0.093
-688.354	800.000	0.018	-0.069
-687.339	285.386	-0.153	-0.277
-686.324	-164.427	-0.242	-0.011
-685.310	-98.197	-0.165	-0.043
-684.295	109.669	0.311	-0.376
-683.281	495.581	0.097	0.225
-682.266	127.007	-0.151	0.192
-681.251	-200.000	0.046	0.274
-680.237	800.000	0.022	-0.074
-679.222	-107.126	-0.585	-0.130
-678.208	-28.221	0.116	0.067
-677.193	158.946	-0.089	0.125
-676.178	800.000	0.036	0.115
-675.164	2.122	-0.199	0.145
-674.149	-200.000	-0.009	-0.228
-673.135	49.382	0.032	-0.030
-672.120	187.037	0.116	-0.174
-671.105	-200.000	-0.017	-0.274
-670.091	-78.461	0.503	-0.173
-669.076	-95.736	-0.143	-0.038
-668.062	-200.000	0.045	-0.201
-667.047	-103.361	-0.109	0.026
-666.032	-76.674	0.364	0.128
-665.018	61.092	-0.201	-0.201
-664.003	-200.000	0.021	0.255
-662.989	-187.562	-0.173	0.002
-661.974	504.448	0.093	-0.217
-660.959	-74.585	0.033	-0.012
-659.945	-200.000	0.100	-0.446
-658.930	100.123	-0.217	-0.253
-657.916	-200.000	0.262	-0.001
-656.901	298.905	-0.067	0.124
-655.886	-131.237	0.166	0.022
-654.872	800.000	0.067	-0.210
-653.857	363.567	-0.030	-0.061
-652.843	95.531	0.155	0.178
-651.828	-55.772	0.269	-0.121
-650.814	249.397	-0.150	-0.256
-649.799	-200.000	0.008	0.116
-648.784	-142.261	0.117	-0.012
-647.770	-200.000	0.013	0.139
-646.755	-157.188	-0.215	0.013
-645.741	-61.789	0.095	-0.040
-644.726	234.379	0.133	0.221
-643.711	533.335	0.086	0.205
-642.697	179.409	0.017	0.025
-641.682	-200.000	-0.053	-0.364
-640.668	60.334	-0.139	-0.138
-639.653	-5.537	0.230	-0.159
-638.638	137.330	-0.157	-0.206
-637.624	745.466	0.040	0.107
-636.609	-151.632	0.294	-0.022
-635.595	127.169	0.118	-0.151
-634.580	-200.000	0.057	0.361
-633.565	361.017	-0.122	-0.247
-632.551	-44.392	-0.302	0.152
-631.536	132.279	-0.047	0.060
-630.522	-200.000	0.033	-0.318
-629.507	-200.000	-0.008	-0.203
-628.492	277.748	-0.145	-0.259
-627.478	19.473	0.078	0.063
-626.463	-200.000	-0.059	-0.271
-625.449	272.152	0.224	0.398
-624.434	643.307	-0.134	-0.344
-623.419	-200.000	0.040	0.321
-622.405	-200.000	0.002	0.254
-621.390	-68.835	-0.140	0.054
-620.376	-162.709	0.173	-0.009
-619.361	-163.642	-0.251	-0.012
-618.346	77.811	0.342	0.366
-617.332	368.961	-0.209	0.425
-616.317	-116.769	-0.146	-0.027
-615.303	580.350	-0.117	-0.289
-614.288	165.819	-0.096	-0.136
-613.273	-98.248	0.088	0.023
-612.259	-118.834	-0.170	0.030
-611.244	800.000	0.029	-0.089
-610.230	-136.157	-0.156	-0.018
-609.215	-200.000	-0.002	-0.038
-608.201	-76.363	0.387	0.137
-607.186	-19.765	-0.222	-0.138
-606.171	148.599	-0.090	0.122
-605.157	-44.963	-0.326	-0.163
-604.142	-200.000	0.013	-0.142
-603.128	-52.453	-0.117	-0.054
-602.113	-61.064	-0.345	-0.146
-601.098	106.970	0.190	-0.227
-600.084	800.000	-0.130	-0.382
-599.069	-57.137	-0.337	0.149
-598.055	800.000	-0.071	-0.200
-597.040	-200.000	0.011	-0.238
-596.025	8.410	-0.041	0.031
-595.011	-200.000	0.003	-0.218
-593.996	-50.884	0.147	-0.070
-592.982	110.172	0.196	0.237
-591.967	-63.164	0.304	0.126
-590.952	-24.009	-0.219	0.132
-589.938	800.000	0.073	0.225
-588.923	-200.000	-0.021	0.268
-587.909	451.034	0.068	-0.150
-586.894	800.000	-0.031	-0.093
-585.879	-200.000	-0.025	0.281
-584.865	52.428	0.082	-0.079
-583.850	-107.234	-0.477	0.106
-582.836	-186.425	0.259	-0.004
-581.821	-15.272	-0.057	0.036
-580.806	-13.399	0.042	-0.027
-579.792	-52.859	-0.314	0.145
-578.777	-44.877	0.297	-0.148
-577.763	20.852	-0.150	0.122
-576.748	-104.742	0.193	0.044
-575.733	800.000	0.059	0.204
-574.719	-200.000	0.021	-0.224
-573.704	-200.000	-0.026	0.198
-572.690	234.391	0.042	0.070
-571.675	800.000	0.098	-0.282
-570.661	127.860	0.083	-0.106
-569.646	-200.000	-0.037	0.207
-568.631	800.000	0.071	-0.204
-567.617	233.880	0.076	0.126
-566.602	192.902	-0.132	-0.200
-565.588	-200.000	0.017	-0.414
-564.573	-115.235	0.162	-0.031
-563.558	-200.000	-0.026	0.202
-562.544	334.609	0.079	-0.153
-561.529	800.000	-0.129	-0.392
-560.515	-115.269	0.286	-0.054
-559.500	-151.809	0.253	-0.019
-558.485	-76.603	-0.284	-0.100
-557.471	203.521	-0.137	-0.212
-556.456	-200.000	0.027	0.147
-555.442	-147.178	-0.119	-0.010
-554.427	4.541	-0.135	0.099
-553.412	295.616	0.037	0.069
-552.398	413.420	0.142	-0.302
-551.383	800.000	-0.028	-0.080
-550.369	776.642	0.126	-0.344
-549.354	-200.000	0.026	-0.273
-548.339	-14.155	-0.232	-0.150
-547.325	-200.000	0.001	-0.223
-546.310	-200.000	-0.006	0.257
-545.296	-5.448	0.053	0.036
-544.281	-200.000	-0.042	-0.296
-543.266	-52.216	-0.138	-0.064
-542.252	62.324	0.157	0.157
-541.237	-200.000	-0.004	-0.030
-540.223	-200.000	-0.020	-0.109
-539.208	405.166	-0.111	0.235
-538.193	-167.273	0.194	0.008
-537.179	-38.665	-0.188	0.100
-536.164	-200.000	-0.026	-0.274
-535.150	-52.007	-0.228	-0.106
-534.135	-43.389	0.384	0.195
-533.121	-128.131	0.050	-0.007
-532.106	-200.000	-0.032	0.216
-531.091	704.869	-0.040	-0.104
-530.077	-86.205	-0.188	-0.058
-529.062	-89.444	0.017	0.005
-528.048	-200.000	-0.022	-0.115
-527.033	-53.151	-0.008	0.004
-526.018	11.612	0.353	-0.271
-525.004	-21.485	0.188	0.115
-523.989	-200.000	0.007	0.188
-522.975	59.389	-0.337	0.332
-521.960	-33.347	-0.274	0.152
-520.945	510.479	0.106	-0.247
-519.931	520.960	-0.090	-0.211
-518.916	-200.000	0.008	-0.150
-517.902	-200.000	0.045	0.462
-516.887	40.100	-0.299	0.269
-515.872	174.126	0.135	0.195
-514.858	398.137	-0.151	0.317
-513.843	800.000	-0.026	0.098
-512.829	-200.000	-0.015	0.321
-511.814	76.581	-0.111	0.118
-510.799	798.042	-0.063	-0.173
-509.785	-100.542	0.188	-0.047
-508.770	-15.521	0.120	0.077
-507.756	-200.000	-0.005	0.126
-506.741	-109.186	-0.149	0.032
-505.726	110.345	0.097	-0.117
-504.712	138.781	-0.223	-0.293
-503.697	59.638	0.178	0.176
-502.683	-58.274	-0.125	-0.054
-501.668	81.331	0.138	0.149
-500.653	48.303	0.182	0.170
-499.639	800.000	-0.060	-0.191
-498.624	-126.775	-0.263	-0.039
-497.610	124.458	0.031	-0.039
-496.595	800.000	-0.046	-0.180
-495.581	-200.000	-0.030	0.219
-494.566	-108.477	0.212	0.046
-493.551	-195.723	0.147	-0.001
-492.537	31.467	-0.273	0.234
-491.522	25.291	0.058	0.048
-490.508	107.048	-0.188	0.223
-489.493	0.676	-0.294	-0.211
-488.478	364.175	0.160	0.321
-487.464	-131.636	-0.167	-0.022
-486.449	-23.929	0.010	-0.006
-485.435	-118.352	0.109	-0.019
-484.420	729.686	0.075	-0.199
-483.405	-200.000	0.061	-0.418
-482.391	300.918	-0.111	-0.205
-481.376	-200.000	-0.051	0.235
-480.362	304.885	-0.107	-0.199
-479.347	447.414	0.119	0.263
-478.332	70.033	0.131	0.135
-477.318	-69.997	-0.299	0.114
-476.303	-104.985	0.268	-0.061
-475.289	-200.000	-0.072	-0.432
-474.274	-87.898	-0.026	-0.008
-473.259	-86.998	-0.231	-0.070
-472.245	132.155	-0.180	0.232
-471.230	168.810	0.129	0.183
-470.216	-132.088	0.432	-0.056
-469.201	-61.596	-0.413	-0.173
-468.186	31.326	0.300	-0.258
-467.172	47.976	-0.143	0.134
-466.157	208.669	-0.131	-0.205
-465.143	800.000	-0.112	-0.483
-464.128	76.819	0.174	-0.184
-463.113	11.104	0.147	-0.112
-462.099	-124.851	-0.291	0.045
-461.084	139.697	0.176	-0.232
-460.070	161.787	-0.036	0.051
-459.055	-129.129	-0.173	0.024
-458.040	-51.935	-0.168	0.078
-457.026	-200.000	-0.069	0.314
-456.011	311.249	0.153	0.286
-454.997	-200.000	-0.048	0.310
-453.982	116.251	0.161	0.197
-452.968	86.924	-0.127	-0.140
-451.953	-200.000	-0.008	-0.146
-450.938	-5.784	-0.063	0.043
-449.924	-105.394	-0.101	0.023
-448.909	-171.656	-0.172	-0.006
-447.895	-35.255	0.240	0.131
-446.880	-5.125	-0.107	-0.073
-445.865	-200.000	0.029	-0.159
-444.851	-86.714	0.202	-0.062
-443.836	-147.464	0.187	-0.016
-442.822	800.000	-0.020	-0.070
-441.807	800.000	0.031	-0.105
-440.792	-111.243	-0.267	-0.054
-439.778	-200.000	-0.080	-0.356
-438.763	-106.142	0.375	0.084
-437.749	800.000	0.010	0.032
-436.734	-92.900	0.100	-0.028
-435.719	-95.450	-0.177	0.048
-434.705	-200.000	-0.007	0.234
-433.690	-22.400	0.078	0.047
-432.676	-51.131	0.318	-0.149
-431.661	-63.397	0.180	-0.074
-430.646	477.329	0.061	-0.139
-429.632	-96.662	0.339	-0.089
-428.617	-9.449	-0.219	-0.146
-427.603	-200.000	-0.038	0.190
-426.588	88.243	-0.082	-0.091
-425.573	-12.815	-0.377	-0.245
-424.559	193.068	-0.099	0.149
-423.544	146.547	0.082	-0.110
-422.530	158.762	-0.236	0.327
-421.515	126.883	0.332	-0.419
-420.500	800.000	-0.036	0.146
-419.486	57.971	0.512	0.500
-418.471	-110.675	-0.221	0.046
-417.457	-42.179	0.070	-0.036
-416.442	-71.595	-0.157	-0.058
-415.428	-121.054	0.344	0.058
-414.413	-65.175	0.075	-0.030
-413.398	65.693	0.027	-0.028
-412.384	-200.000	-0.019	-0.174
-411.369	-32.888	0.019	0.010
-410.355	-142.239	0.252	0.025
-409.340	100.524	0.073	-0.085
-408.325	-200.000	0.044	0.612
-407.311	-75.469	-0.232	0.082
-406.296	278.292	-0.136	-0.242
-405.282	310.028	0.099	-0.184
-404.267	800.000	0.043	-0.169
-403.252	-92.243	-0.133	-0.037
-402.238	134.591	-0.107	-0.138
-401.223	-200.000	0.013	-0.187
-400.209	-120.184	0.512	-0.087
-399.194	-140.815	-0.069	0.007
-398.179	110.897	0.151	-0.182
-397.165	-67.109	0.128	0.050
-396.150	77.544	0.102	-0.108
-395.136	800.000	-0.145	-0.404
-394.121	188.801	-0.168	0.250
-393.106	284.713	-0.158	-0.283
-392.092	48.280	0.110	-0.103
-391.077	-161.257	-0.188	0.010
-390.063	-46.811	-0.141	0.069
-389.048	95.947	0.253	0.288
-388.033	15.907	0.140	-0.110
-387.019	-50.913	-0.221	0.103
-386.004	50.153	-0.144	0.136
-384.990	-61.024	-0.166	0.070
-383.975	800.000	-0.080	0.255
-382.960	-0.266	0.194	0.137
-381.946	-148.000	0.288	0.024
-380.931	-157.982	-0.146	0.009
-379.917	101.050	0.132	0.153
-378.902	-200.000	-0.021	0.147
-377.888	490.047	-0.063	-0.144
-376.873	-57.260	-0.226	0.099
-375.858	-200.000	0.003	0.036
-374.844	31.928	-0.135	0.116
-373.829	800.000	-0.027	-0.090
-372.815	117.664	0.250	-0.306
-371.800	71.292	-0.110	-0.114
-370.785	800.000	0.153	0.435
-369.771	241.488	0.040	0.067
-368.756	722.824	-0.067	0.179
-367.742	-200.000	-0.093	0.410
-366.727	-30.059	0.275	-0.156
-365.712	-200.000	-0.004	-0.047
-364.698	217.938	-0.059	-0.093
-363.683	60.946	-0.162	-0.160
-362.669	-80.711	-0.171	-0.057
-361.654	185.913	0.116	0.172
-360.639	-58.399	-0.326	-0.141
-359.625	-96.753	-0.135	0.035
-358.610	-200.000	0.037	0.249
-357.596	21.189	-0.059	0.047
-356.581	194.919	-0.156	0.236
-355.566	44.512	0.215	0.197
-354.552	-82.661	-0.012	0.004
-353.537	331.768	0.040	0.077
-352.523	800.000	0.081	0.253
-351.508	-89.597	0.113	-0.033
-350.493	-200.000	0.011	-0.119
-349.479	82.223	0.312	-0.337
-348.464	-200.000	0.016	-0.322
-347.450	-200.000	0.008	0.166
-346.435	239.148	-0.211	-0.349
-345.420	-83.112	0.227	0.073
-344.406	469.783	0.096	0.214
-343.391	-69.064	0.046	0.018
-342.377	49.992	0.046	-0.043
-341.362	-129.968	0.248	-0.034
-340.348	134.211	-0.144	0.186
-339.333	-89.774	0.299	-0.087
-338.318	-200.000	0.039	0.220
-337.304	62.505	-0.086	0.085
-336.289	-200.000	0.014	-0.089
-335.275	-48.357	-0.092	0.044
-334.260	-200.000	-0.011	-0.206
-333.245	180.774	0.025	-0.037
-332.231	-200.000	-0.005	0.025
-331.216	800.000	-0.073	-0.292
-330.202	19.851	-0.039	0.032
-329.187	-200.000	0.034	0.161
-328.172	-200.000	0.087	0.417
-327.158	102.930	0.163	0.190
-326.143	463.903	-0.157	0.348
-325.129	-144.548	-0.235	0.022
-324.114	-76.244	0.091	0.032
-323.099	-180.863	-0.227	0.005
-322.085	123.677	-0.213	-0.265
-321.070	-200.000	0.014	-0.141
-320.056	-138.849	-0.238	-0.026
-319.041	-1.563	-0.263	0.184
-318.026	-120.859	0.144	0.024
-317.012	-200.000	-0.000	-0.044
-315.997	-200.000	-0.003	-0.063
-314.983	800.000	-0.036	0.121
-313.968	800.000	0.039	0.158
-312.953	-54.102	-0.261	0.118
-311.939	-82.219	-0.267	0.087
-310.924	-107.661	-0.374	0.081
-309.910	-200.000	-0.046	0.272
-308.895	95.016	-0.124	-0.140
-307.880	285.024	-0.102	-0.183
-306.866	54.597	-0.097	0.093
-305.851	-131.010	0.486	-0.064
-304.837	800.000	0.080	0.243
-303.822	-30.102	0.289	-0.163
-302.807	-193.472	0.032	0.000
-301.793	396.097	-0.064	-0.133
-300.778	-200.000	-0.028	0.135
-299.764	-26.041	0.114	0.066
-298.749	99.957	0.074	-0.085
-297.735	739.133	0.057	-0.153
-296.720	-192.712	0.507	-0.005
-295.705	-64.445	0.102	0.041
-294.691	139.113	-0.166	0.216
-293.676	-200.000	-0.015	-0.087
-292.662	-200.000	-0.025	-0.297
-291.647	171.582	-0.086	0.123
-290.632	-200.000	-0.002	-0.061
-289.618	-138.633	0.275	-0.030
-288.603	-9.957	-0.214	-0.141
-287.589	-22.396	0.073	-0.044
-286.574	51.661	0.288	0.272
-285.559	800.000	-0.029	-0.103
-284.545	12.043	-0.122	-0.093
-283.530	-27.055	0.060	-0.034
-282.516	-200.000	0.094	-0.483
-281.501	160.534	0.058	-0.081
-280.486	151.271	0.173	-0.234
-279.472	-48.136	-0.233	-0.112
-278.457	-105.898	0.210	-0.047
-277.443	-66.580	-0.294	-0.116
-276.428	-78.169	0.218	-0.074
-275.413	223.697	-0.064	-0.103
-274.399	-92.477	-0.154	0.043
-273.384	13.089	0.218	-0.168
-272.370	476.585	-0.122	-0.273
-271.355	303.568	0.129	0.236
-270.340	-56.276	0.305	-0.134
-269.326	-200.000	-0.016	-0.282
-268.311	-111.058	-0.327	-0.066
-267.297	-42.443	-0.056	-0.028
-266.282	225.891	0.095	-0.153
-265.267	800.000	-0.088	-0.318
-264.253	-56.251	0.303	0.134
-263.238	-200.000	-0.025	-0.114
-262.224	-200.000	0.031	0.381
-261.209	272.188	-0.129	0.226
-260.195	-200.000	-0.029	0.283
-259.180	15.313	0.144	0.112
-258.165	-113.565	-0.250	-0.048
-257.151	-44.434	0.183	-0.091
-256.136	8.293	0.017	0.013
-255.122	-61.152	0.163	0.068
-254.107	1.243	0.383	-0.273
-253.092	557.087	-0.089	-0.213
-252.078	-70.975	0.102	-0.038
-251.063	282.662	-0.070	-0.124
-250.049	188.901	0.090	0.133
-249.034	800.000	-0.040	0.164
-248.019	800.000	0.041	-0.158
-247.005	190.161	-0.118	-0.175
-245.990	-92.580	0.151	-0.042
-244.976	-107.494	-0.105	-0.023
-243.961	128.770	0.072	0.091
-242.946	440.989	0.158	0.343
-241.932	298.213	-0.101	0.184
-240.917	108.787	-0.126	0.149
-239.903	160.026	-0.253	0.349
-238.888	89.678	0.162	0.179
-237.873	200.855	-0.083	-0.126
-236.859	-135.687	0.202	0.024
-235.844	800.000	-0.058	0.161
-234.830	-200.000	0.011	-0.196
-233.815	-200.000	-0.012	-0.074
-232.800	275.749	0.033	-0.057
-231.786	441.921	-0.148	-0.322
-230.771	800.000	0.077	0.263
-229.757	199.030	0.097	0.147
-228.742	175.789	-0.170	-0.244
-227.727	-147.676	-0.371	-0.031
-226.713	-156.741	0.154	-0.009
-225.698	167.236	-0.147	0.207
-224.684	800.000	0.074	0.234
-223.669	-5.056	-0.068	0.046
-222.655	800.000	0.054	-0.147
-221.640	-200.000	-0.032	0.170
-220.625	-122.625	-0.135	0.022
-219.611	-134.819	0.161	-0.019
-218.596	-59.684	-0.310	-0.131
-217.582	-116.192	-0.274	0.050
-216.567	144.338	0.153	0.201
-215.552	-71.512	0.293	-0.109
-214.538	724.860	0.069	0.181
-213.523	-200.000	-0.003	-0.045
-212.509	800.000	0.090	0.281
-211.494	-200.000	0.037	-0.279
-210.479	71.473	0.179	-0.184
-209.465	-200.000	0.005	-0.198
-208.450	-167.594	-0.145	-0.006
-207.436	-200.000	-0.028	0.182
-206.421	381.184	-0.008	0.016
-205.406	253.441	0.112	-0.190
-204.392	392.007	-0.004	-0.007
-203.377	-66.366	0.296	0.117
-202.363	-30.515	-0.091	-0.051
-201.348	638.909	-0.099	0.249
-200.333	-152.817	-0.048	0.003
-199.319	-12.573	-0.222	-0.143
-198.304	-200.000	-0.020	-0.095
-197.290	-38.415	-0.358	0.187
-196.275	800.000	-0.044	0.129
-195.260	-200.000	-0.010	0.209
-194.246	-200.000	-0.057	0.413
-193.231	74.365	0.426	0.442
-192.217	-200.000	0.009	0.156
-191.202	-42.542	-0.253	-0.128
-190.187	-166.730	0.434	0.018
-189.173	535.737	-0.085	0.199
-188.158	-200.000	0.001	-0.061
-187.144	81.968	-0.126	0.135
-186.129	87.227	-0.038	0.042
-185.114	-14.636	0.148	0.094
-184.100	-147.134	0.412	0.035
-183.085	164.538	-0.160	-0.223
-182.071	800.000	0.045	0.134
-181.056	191.987	-0.006	-0.010
-180.042	-7.067	-0.131	0.088
-179.027	-196.624	0.244	0.002
-178.012	92.094	0.136	0.151
-176.998	-32.948	-0.152	-0.083
-175.983	-200.000	0.007	-0.336
-174.969	-22.848	0.096	-0.057
-173.954	-105.349	0.318	0.072
-172.939	225.833	0.283	0.454
-171.925	-160.441	0.354	-0.019
-170.910	208.333	-0.136	-0.210
-169.896	-200.000	-0.053	-0.517
-168.881	158.447	-0.293	0.401
-167.866	-100.146	-0.213	0.052
-166.852	152.418	0.258	-0.348
-165.837	-180.196	0.217	-0.005
-164.823	-123.377	-0.116	-0.018
-163.808	-92.072	-0.170	-0.047
-162.793	87.506	-0.276	0.302
-161.779	91.625	0.089	0.099
-160.764	-200.000	-0.004	0.087
-159.750	-200.000	-0.017	0.253
-158.735	94.407	-0.018	0.021
-157.720	-200.000	0.057	-0.258
-156.706	-82.481	-0.128	-0.041
-155.691	239.095	-0.091	0.150
-154.677	144.170	-0.078	-0.103
-153.662	-200.000	0.003	0.117
-152.647	-200.000	-0.069	-0.421
-151.633	240.255	0.068	0.112
-150.618	-67.671	0.047	0.018
-149.604	-29.498	0.262	0.148
-148.589	-88.935	-0.137	0.040
-147.574	229.966	0.054	0.087
-146.560	-161.009	-0.167	-0.009
-145.545	-124.550	-0.293	-0.045
-144.531	-127.023	0.265	-0.038
-143.516	-135.764	0.053	0.006
-142.502	4.082	0.357	-0.258
-141.487	-21.105	0.232	0.140
-140.472	-128.838	-0.093	0.013
-139.458	-200.000	-0.027	0.173
-138.443	96.757	0.210	-0.238
-137.429	-90.358	-0.125	0.036
-136.414	-62.727	0.250	0.102
-135.399	338.917	0.076	0.146
-134.385	-132.785	-0.412	0.052
-133.370	213.458	-0.112	0.174
-132.356	-104.368	-0.176	-0.040
-131.341	749.163	-0.050	-0.132
-130.326	87.304	-0.175	-0.191
-129.312	-34.738	-0.315	-0.170
-128.297	167.696	-0.203	-0.284
-127.283	41.544	0.228	-0.204
-126.268	-125.727	0.317	0.047
-125.253	-116.369	0.126	-0.023
-124.239	800.000	0.096	-0.313
-123.224	184.984	-0.207	-0.303
