DTS Sentinel unit serial number:	SN413079Multiplexer serial number:	ORYXHardware model number:	OX4-SRSoftware version number:	ORYX F/W v4.00 Oryx Data Collector v3.7.2.0data status	okinstallation	princeton_trtdifferential loss correction	single-endedforward channel	channel 3reverse channel	N/Adate	2019/09/13time	19:48:35forward acquisition time	60.00reverse acquisition time	0.00gamma	496.2192k internal	0.2328k external	0.2328temperature offset calibration	1.0061default loss term (dB/km)	0.3790temperature slope calibration	1.0000multiplexer offset coefficient	1.0000multiplexer slope coefficient	1.0000fibre end	0.00T internal ref (°C)	30.12T ext. ref 1 (°C)	3.29T ext. ref 2 (°C)	24.32length (m)	temperature (°C)	Stokes	anti-Stokes-747.200	36.551	0.245	0.218
-746.185	219.973	0.057	0.092
-745.171	-51.469	0.056	-0.027
-744.156	198.120	-0.163	0.251
-743.142	373.396	-0.050	-0.103
-742.127	-200.000	-0.018	0.198
-741.112	800.000	0.030	0.093
-740.098	262.209	-0.113	0.198
-739.083	788.616	-0.082	-0.227
-738.069	712.193	0.052	0.138
-737.054	1.545	-0.124	-0.090
-736.039	14.364	-0.256	-0.201
-735.025	477.825	0.047	-0.108
-734.010	12.379	-0.088	0.068
-732.996	-200.000	0.074	0.346
-731.981	-159.556	-0.118	-0.007
-730.966	-200.000	-0.007	0.086
-729.952	-200.000	-0.039	0.315
-728.937	23.563	-0.203	0.169
-727.923	10.012	0.197	-0.151
-726.908	98.449	-0.035	0.041
-725.894	222.464	-0.157	-0.255
-724.879	-200.000	0.001	-0.029
-723.864	49.373	-0.192	-0.182
-722.850	800.000	0.067	0.230
-721.835	124.486	0.193	-0.244
-720.821	-136.162	-0.176	0.021
-719.806	-48.259	-0.368	-0.179
-718.791	-182.378	-0.126	0.002
-717.777	-200.000	0.030	-0.222
-716.762	98.899	-0.269	-0.313
-715.748	-79.879	0.391	0.132
-714.733	362.437	0.082	-0.166
-713.718	275.097	-0.127	-0.227
-712.704	-2.653	-0.367	-0.259
-711.689	-57.875	-0.160	0.070
-710.675	601.539	-0.046	0.115
-709.660	-200.000	-0.020	-0.261
-708.645	-109.611	0.193	0.041
-707.631	-176.994	-0.256	0.006
-706.616	47.074	0.283	0.265
-705.602	-200.000	0.007	0.046
-704.587	-72.833	0.052	-0.019
-703.572	165.624	-0.067	-0.095
-702.558	-200.000	0.062	-0.503
-701.543	-13.421	0.097	0.063
-700.529	-138.745	0.432	-0.047
-699.514	-200.000	0.009	-0.191
-698.499	-91.171	0.149	-0.043
-697.485	-123.110	-0.214	-0.035
-696.470	142.028	0.134	-0.179
-695.456	79.536	-0.130	-0.141
-694.441	96.046	0.069	0.079
-693.426	-47.205	-0.341	-0.167
-692.412	-193.900	0.510	0.004
-691.397	43.446	-0.261	-0.240
-690.383	-200.000	0.037	0.179
-689.368	39.832	0.090	-0.081
-688.354	21.575	-0.065	-0.053
-687.339	107.424	-0.080	0.096
-686.324	-167.483	0.185	-0.007
-685.310	-200.000	0.002	-0.138
-684.295	38.959	-0.059	-0.053
-683.281	-92.891	0.075	0.021
-682.266	-86.236	-0.059	-0.018
-681.251	-156.880	-0.191	0.012
-680.237	-65.061	-0.364	0.148
-679.222	432.078	0.121	0.263
-678.208	-200.000	0.029	0.173
-677.193	67.446	-0.262	0.269
-676.178	86.044	-0.117	0.130
-675.164	-186.914	-0.188	0.003
-674.149	-76.049	0.231	0.082
-673.135	-200.000	0.063	-0.343
-672.120	800.000	0.094	0.278
-671.105	-65.288	-0.111	0.045
-670.091	482.852	-0.104	-0.237
-669.076	-200.000	0.015	-0.363
-668.062	60.727	-0.058	-0.058
-667.047	-67.380	-0.106	-0.042
-666.032	-16.626	-0.252	-0.160
-665.018	199.609	0.157	0.242
-664.003	-140.479	-0.135	0.014
-662.989	-149.153	-0.254	0.020
-661.974	800.000	0.047	0.165
-660.959	104.542	-0.067	0.080
-659.945	800.000	0.011	-0.040
-658.930	151.996	-0.083	-0.114
-657.916	199.976	-0.028	0.043
-656.901	-49.419	-0.026	0.012
-655.886	481.817	-0.190	-0.432
-654.872	-200.000	0.014	-0.115
-653.857	-200.000	0.009	-0.043
-652.843	20.995	-0.202	-0.165
-651.828	-73.859	-0.036	0.013
-650.814	66.973	-0.102	-0.104
-649.799	106.082	-0.120	0.142
-648.784	800.000	-0.059	0.165
-647.770	250.942	-0.043	-0.074
-646.755	-147.665	-0.314	-0.026
-645.741	800.000	-0.072	0.286
-644.726	150.511	0.131	-0.179
-643.711	118.864	0.122	0.151
-642.697	72.320	0.116	-0.121
-641.682	-131.137	0.146	-0.019
-640.668	-89.372	-0.147	0.044
-639.653	333.994	-0.122	0.237
-638.638	-34.790	-0.292	0.160
-637.624	163.591	-0.142	0.201
-636.609	374.265	-0.107	-0.218
-635.595	53.595	-0.212	0.204
-634.580	-84.371	0.340	0.108
-633.565	699.463	-0.081	-0.214
-632.551	-47.211	0.169	0.083
-631.536	-65.845	0.230	-0.092
-630.522	55.975	-0.207	0.201
-629.507	36.551	-0.167	0.148
-628.492	-67.214	0.245	-0.097
-627.478	-62.985	0.172	-0.071
-626.463	654.163	0.007	-0.017
-625.449	-200.000	0.053	-0.370
-624.434	-47.207	0.154	0.075
-623.419	42.066	-0.076	0.069
-622.405	800.000	-0.057	0.198
-621.390	6.556	-0.080	-0.059
-620.376	-22.448	0.318	0.193
-619.361	166.383	0.125	0.178
-618.346	800.000	0.033	-0.144
-617.332	119.399	-0.123	0.153
-616.317	226.532	-0.014	-0.023
-615.303	80.990	0.145	0.157
-614.288	728.206	0.057	0.152
-613.273	-50.148	-0.152	0.072
-612.259	188.806	-0.060	0.090
-611.244	-22.425	-0.220	0.133
-610.230	-147.035	0.080	-0.007
-609.215	586.322	0.063	0.156
-608.201	88.546	0.099	0.110
-607.186	-200.000	-0.041	0.230
-606.171	513.981	0.060	-0.140
-605.157	800.000	0.059	-0.198
-604.142	-115.797	-0.194	0.036
-603.128	141.520	-0.188	-0.250
-602.113	-200.000	-0.011	-0.126
-601.098	-57.563	-0.375	-0.165
-600.084	-47.509	0.234	0.114
-599.069	-200.000	-0.035	-0.213
-598.055	800.000	0.083	-0.285
-597.040	307.447	-0.065	-0.122
-596.025	73.649	-0.229	-0.240
-595.011	499.825	-0.109	-0.251
-593.996	-178.936	-0.395	-0.009
-592.982	-90.537	0.244	-0.071
-591.967	132.461	-0.125	-0.161
-590.952	800.000	0.081	-0.227
-589.938	-28.917	0.016	0.009
-588.923	29.661	0.078	0.066
-587.909	765.272	0.066	-0.180
-586.894	130.073	-0.111	-0.143
-585.879	131.403	0.135	-0.173
-584.865	23.484	-0.093	0.077
-583.850	-22.233	0.247	-0.150
-582.836	-56.061	-0.509	-0.227
-581.821	-122.342	-0.202	-0.033
-580.806	-162.657	0.112	-0.006
-579.792	-128.043	-0.314	-0.045
-578.777	-86.736	-0.232	0.071
-577.763	-127.692	0.158	0.023
-576.748	9.318	-0.104	-0.079
-575.733	800.000	-0.088	-0.371
-574.719	-111.569	0.268	0.055
-573.704	-200.000	-0.046	0.354
-572.690	43.885	0.276	0.253
-571.675	-41.057	-0.122	-0.063
-570.661	74.888	0.067	0.071
-569.646	-109.354	0.454	0.096
-568.631	30.706	-0.195	-0.167
-567.617	-51.406	-0.187	-0.088
-566.602	28.665	-0.016	0.014
-565.588	-97.842	0.207	0.054
-564.573	5.532	0.070	-0.052
-563.558	226.111	0.129	-0.210
-562.544	225.470	-0.093	-0.150
-561.529	4.688	-0.074	0.055
-560.515	200.498	0.036	-0.055
-559.500	-200.000	0.003	-0.074
-558.485	-200.000	0.000	-0.016
-557.471	509.120	0.034	0.079
-556.456	-200.000	-0.010	-0.064
-555.442	523.007	-0.144	-0.338
-554.427	604.512	0.070	0.173
-553.412	98.634	0.160	-0.185
-552.398	111.619	-0.331	-0.399
-551.383	9.781	0.243	-0.184
-550.369	-14.304	0.388	-0.250
-549.354	-134.628	-0.215	-0.026
-548.339	71.285	0.219	0.227
-547.325	111.469	0.171	-0.206
-546.310	-88.362	0.259	0.077
-545.296	-90.808	-0.220	0.063
-544.281	629.771	-0.269	0.680
-543.266	800.000	0.032	0.134
-542.252	-79.295	-0.299	0.101
-541.237	-56.159	0.189	0.084
-540.223	349.824	-0.177	0.350
-539.208	259.448	0.060	0.103
-538.193	224.419	0.141	-0.228
-537.179	-81.227	0.251	-0.083
-536.164	-52.093	0.233	0.108
-535.150	164.316	0.279	0.393
-534.135	-61.301	-0.214	-0.090
-533.121	-39.967	-0.155	-0.081
-532.106	-128.153	0.342	-0.049
-531.091	-71.082	-0.158	0.059
-530.077	282.517	0.210	-0.376
-529.062	341.418	-0.087	0.170
-528.048	-55.701	0.139	0.062
-527.033	5.455	0.227	0.167
-526.018	-57.567	-0.015	-0.007
-525.004	89.807	-0.178	-0.198
-523.989	317.699	-0.031	-0.059
-522.975	-130.164	0.105	-0.014
-521.960	-6.968	0.139	-0.094
-520.945	251.174	-0.236	0.401
-519.931	-120.297	0.384	-0.065
-518.916	161.503	0.054	-0.076
-517.902	-82.496	-0.070	0.023
-516.887	-200.000	0.007	-0.092
-515.872	-67.577	-0.081	0.032
-514.858	245.979	0.046	0.077
-513.843	-147.895	0.468	0.039
-512.829	-200.000	0.015	-0.152
-511.814	21.954	-0.064	0.052
-510.799	-7.646	0.252	0.170
-509.785	800.000	-0.044	0.151
-508.770	43.386	0.114	-0.104
-507.756	644.422	-0.097	0.247
-506.741	-113.322	-0.180	0.035
-505.726	-65.054	0.085	-0.034
-504.712	-108.315	0.133	0.029
-503.697	-51.214	0.297	0.139
-502.683	-200.000	0.076	0.363
-501.668	-51.482	-0.292	-0.136
-500.653	-175.236	-0.424	0.012
-499.639	800.000	-0.067	-0.235
-498.624	30.300	0.160	-0.136
-497.610	-39.170	0.255	0.134
-496.595	85.461	-0.157	-0.172
-495.581	-105.546	-0.185	-0.042
-494.566	800.000	0.060	0.258
-493.551	213.365	-0.069	0.109
-492.537	800.000	-0.047	-0.131
-491.522	-200.000	0.060	-0.267
-490.508	-200.000	-0.022	-0.176
-489.493	800.000	0.118	-0.360
-488.478	800.000	0.070	0.227
-487.464	639.385	-0.076	-0.192
-486.449	767.491	-0.019	0.052
-485.435	-19.959	-0.081	0.050
-484.420	-5.338	0.154	0.105
-483.405	800.000	-0.064	-0.193
-482.391	102.742	-0.081	0.094
-481.376	-122.857	-0.174	0.028
-480.362	184.504	-0.122	-0.180
-479.347	800.000	-0.053	0.177
-478.332	-157.569	0.208	0.012
-477.318	58.514	-0.076	0.074
-476.303	342.426	0.157	0.306
-475.289	-53.735	0.294	-0.134
-474.274	-43.545	0.065	0.033
-473.259	144.278	0.267	0.356
-472.245	-50.788	0.196	-0.092
-471.230	42.415	0.244	-0.221
-470.216	-200.000	-0.014	0.182
-469.201	-58.759	-0.240	0.104
-468.186	340.906	-0.120	-0.234
-467.172	36.078	-0.314	-0.276
-466.157	-53.446	0.203	0.093
-465.143	615.555	0.054	-0.136
-464.128	-95.886	-0.347	-0.092
-463.113	54.656	-0.186	-0.179
-462.099	-137.352	-0.224	0.025
-461.084	800.000	0.040	0.109
-460.070	-91.445	-0.239	-0.068
-459.055	-155.473	-0.284	-0.018
-458.040	128.389	0.046	0.058
-457.026	-26.095	-0.366	-0.215
-456.011	134.044	-0.160	0.207
-454.997	182.628	-0.067	0.098
-453.982	-61.520	-0.237	-0.099
-452.968	-153.316	-0.184	-0.013
-451.953	29.714	0.214	0.181
-450.938	166.016	0.191	-0.270
-449.924	-156.258	0.110	-0.007
-448.909	162.575	0.160	0.223
-447.895	182.261	-0.038	0.056
-446.880	128.161	-0.055	-0.070
-445.865	250.042	0.249	-0.420
-444.851	139.551	-0.163	0.214
-443.836	-10.789	-0.333	0.219
-442.822	161.533	-0.191	0.266
-441.807	60.466	-0.260	-0.256
-440.792	-200.000	-0.062	-0.281
-439.778	-200.000	-0.032	0.307
-438.763	2.676	-0.097	-0.070
-437.749	-127.421	0.281	-0.041
-436.734	57.266	0.261	0.253
-435.719	-200.000	0.067	0.321
-434.705	-200.000	-0.011	-0.400
-433.690	-119.016	0.190	-0.033
-432.676	-157.548	-0.055	-0.003
-431.661	-18.878	-0.089	-0.055
-430.646	155.407	0.089	-0.122
-429.632	191.897	-0.097	-0.146
-428.617	-83.979	0.139	-0.044
-427.603	-38.072	0.144	0.076
-426.588	-49.028	0.076	-0.036
-425.573	-100.092	-0.203	-0.050
-424.559	332.904	-0.112	-0.216
-423.544	520.246	-0.153	-0.357
-422.530	-200.000	-0.018	0.134
-421.515	57.960	-0.354	-0.345
-420.500	59.324	-0.021	0.020
-419.486	410.467	0.073	0.153
-418.471	-54.279	0.205	-0.092
-417.457	64.708	0.128	0.128
-416.442	-174.718	0.078	0.002
-415.428	-14.990	0.286	0.182
-414.413	800.000	-0.069	-0.293
-413.398	177.331	-0.091	0.131
-412.384	66.152	0.219	0.221
-411.369	-92.677	-0.164	0.046
-410.355	370.078	0.130	-0.262
-409.340	-75.049	0.180	0.064
-408.325	-135.205	0.130	0.016
-407.311	195.515	-0.157	-0.237
-406.296	-6.080	-0.388	-0.264
-405.282	72.777	0.137	0.142
-404.267	-200.000	0.025	-0.140
-403.252	-116.736	-0.291	-0.053
-402.238	-68.112	-0.155	-0.060
-401.223	374.995	-0.082	0.165
-400.209	29.842	0.188	0.159
-399.194	-138.070	-0.151	-0.017
-398.179	-143.628	-0.107	0.010
-397.165	-123.807	-0.244	-0.038
-396.150	-142.072	0.240	0.024
-395.136	800.000	-0.117	0.400
-394.121	-179.391	-0.182	0.004
-393.106	-126.948	-0.107	0.016
-392.092	-79.451	0.273	0.092
-391.077	-146.090	-0.276	-0.024
-390.063	-39.407	0.103	0.054
-389.048	-200.000	0.047	-0.371
-388.033	112.008	-0.211	0.253
-387.019	52.064	0.351	0.333
-386.004	-36.747	0.148	0.079
-384.990	-14.075	-0.219	-0.141
-383.975	160.563	-0.131	0.182
-382.960	-80.132	0.191	0.063
-381.946	-200.000	0.020	0.262
-380.931	219.658	0.151	-0.240
-379.917	800.000	-0.030	-0.100
-378.902	75.925	0.064	-0.067
-377.888	800.000	0.078	0.244
-376.873	800.000	-0.064	-0.181
-375.858	186.951	0.119	0.176
-374.844	-87.983	0.185	-0.055
-373.829	228.944	0.039	0.064
-372.815	18.861	-0.148	-0.118
-371.800	629.509	0.051	0.128
-370.785	197.476	-0.104	-0.158
-369.771	67.391	-0.060	-0.061
-368.756	-139.770	-0.202	-0.021
-367.742	800.000	0.026	0.103
-366.727	-200.000	-0.041	-0.263
-365.712	-200.000	0.005	-0.124
-364.698	800.000	0.040	-0.151
-363.683	89.126	0.182	-0.201
-362.669	35.889	0.249	-0.217
-361.654	-142.519	-0.044	-0.004
-360.639	-134.391	-0.142	-0.017
-359.625	800.000	0.070	0.293
-358.610	800.000	0.050	0.177
-357.596	-200.000	0.000	0.048
-356.581	-18.018	0.103	0.064
-355.566	800.000	0.096	0.265
-354.552	-200.000	0.022	0.119
-353.537	41.236	-0.320	0.287
-352.523	136.326	0.104	0.134
-351.508	180.300	0.106	0.155
-350.493	-25.404	0.100	-0.059
-349.479	-200.000	0.033	-0.151
-348.464	-85.501	0.183	0.057
-347.450	800.000	0.085	0.237
-346.435	-200.000	-0.001	-0.021
-345.420	115.679	0.237	0.287
-344.406	-137.920	0.138	-0.015
-343.391	5.217	-0.191	-0.139
-342.377	800.000	-0.052	0.179
-341.362	180.415	0.078	-0.114
-340.348	-0.808	0.092	0.064
-339.333	-200.000	0.000	-0.024
-338.318	-16.278	0.189	-0.119
-337.304	-169.435	0.074	-0.003
-336.289	-54.972	0.135	0.060
-335.275	293.667	-0.190	-0.344
-334.260	139.547	0.095	0.124
-333.245	-154.473	-0.194	0.013
-332.231	15.740	0.198	-0.155
-331.216	-78.767	-0.138	0.047
-330.202	-84.382	0.036	-0.011
-329.187	-200.000	0.014	0.067
-328.172	-150.565	-0.404	0.031
-327.158	800.000	0.033	0.130
-326.143	38.488	0.134	0.118
-325.129	800.000	-0.113	-0.438
-324.114	434.223	-0.019	0.040
-323.099	42.208	0.226	0.204
-322.085	341.653	0.058	0.112
-321.070	-200.000	-0.031	-0.325
-320.056	29.762	0.129	-0.108
-319.041	263.311	-0.141	-0.242
-318.026	-17.196	0.200	0.125
-317.012	-90.852	0.258	0.074
-315.997	800.000	0.045	0.196
-314.983	127.657	0.092	-0.116
-313.968	88.018	-0.063	0.069
-312.953	-79.119	0.174	0.059
-311.939	-200.000	-0.072	0.428
-310.924	-19.851	-0.067	-0.041
-309.910	-119.740	0.107	-0.018
-308.895	-110.534	-0.100	0.020
-307.880	-200.000	0.049	0.229
-306.866	35.915	0.179	-0.156
-305.851	57.638	0.099	-0.096
-304.837	-97.046	0.215	-0.056
-303.822	-9.711	0.220	0.145
-302.807	189.403	-0.217	-0.322
-301.793	-200.000	0.150	0.001
-300.778	-98.343	0.106	0.027
-299.764	-175.568	0.284	-0.008
-298.749	-110.250	-0.257	0.053
-297.735	9.899	-0.040	0.030
-296.720	-172.257	0.196	0.006
-295.705	530.321	-0.097	0.226
-294.691	67.424	0.218	-0.220
-293.676	-95.125	0.242	0.065
-292.662	303.412	0.041	0.075
-291.647	-0.345	0.358	-0.252
-290.632	763.865	0.027	0.072
-289.618	800.000	0.090	-0.379
-288.603	110.410	0.094	0.112
-287.589	17.173	0.175	0.138
-286.574	-144.284	0.119	-0.011
-285.559	277.644	-0.176	0.310
-284.545	-127.102	-0.152	-0.022
-283.530	213.555	-0.034	0.053
-282.516	124.572	-0.229	0.285
-281.501	212.989	-0.087	0.136
-280.486	-200.000	0.069	0.440
-279.472	-200.000	-0.007	-0.374
-278.457	-200.000	-0.016	-0.243
-277.443	-108.786	0.028	-0.006
-276.428	88.488	0.132	-0.146
-275.413	-200.000	-0.009	0.204
-274.399	-48.903	0.036	0.017
-273.384	-200.000	0.014	0.207
-272.370	-170.149	-0.110	0.004
-271.355	214.653	-0.110	-0.172
-270.340	374.568	-0.075	0.151
-269.326	-200.000	-0.014	0.123
-268.311	358.204	0.117	-0.232
-267.297	800.000	0.014	-0.050
-266.282	-200.000	-0.024	0.112
-265.267	112.632	0.086	0.103
-264.253	184.436	-0.149	-0.218
-263.238	167.634	-0.400	-0.562
-262.224	-30.946	0.164	-0.092
-261.209	-200.000	-0.007	-0.172
-260.195	-117.272	0.084	0.015
-259.180	-65.114	0.171	-0.068
-258.165	-200.000	-0.005	-0.074
-257.151	-181.241	0.369	0.007
-256.136	108.330	-0.135	0.159
-255.122	236.951	-0.277	-0.454
-254.107	-117.142	-0.207	0.037
-253.092	-200.000	0.013	0.255
-252.078	-80.521	-0.287	0.095
-251.063	-24.962	-0.158	0.093
-250.049	328.195	-0.115	0.219
-249.034	-158.191	0.196	-0.011
-248.019	170.139	-0.097	-0.138
-247.005	-200.000	0.017	-0.218
-245.990	182.164	-0.156	-0.227
-244.976	508.451	-0.029	-0.066
-243.961	-148.760	-0.274	0.022
-242.946	-30.258	-0.226	0.127
-241.932	-200.000	-0.021	-0.308
-240.917	-187.997	-0.426	0.005
-239.903	-200.000	0.067	0.408
-238.888	-69.197	0.056	0.021
-237.873	367.290	0.048	-0.095
-236.859	-192.397	0.309	-0.003
-235.844	35.576	0.108	-0.094
-234.830	115.991	0.138	0.166
-233.815	800.000	0.091	0.322
-232.800	-114.240	0.015	-0.003
-231.786	-200.000	0.007	0.063
-230.771	-136.035	-0.410	-0.048
-229.757	-44.064	-0.150	0.074
-228.742	-134.430	-0.089	0.011
-227.727	45.901	0.118	0.108
-226.713	19.654	-0.278	0.221
-225.698	367.631	0.139	0.278
-224.684	-200.000	-0.024	-0.330
-223.669	6.053	0.179	0.131
-222.655	-11.784	0.157	0.102
-221.640	145.767	-0.132	-0.175
-220.625	-116.672	-0.157	-0.029
-219.611	-200.000	0.009	-0.216
-218.596	132.051	-0.093	-0.118
-217.582	242.655	0.131	0.217
-216.567	-58.844	0.096	-0.041
-215.552	58.728	0.198	-0.192
-214.538	-90.425	0.083	0.024
-213.523	-200.000	0.038	-0.243
-212.509	79.729	0.171	0.182
-211.494	800.000	0.006	-0.018
-210.479	-78.427	0.227	-0.077
-209.465	83.686	0.215	-0.231
-208.450	-200.000	0.047	-0.332
-207.436	-42.905	-0.209	0.105
-206.421	-160.769	-0.303	0.016
-205.406	178.765	-0.140	0.202
-204.392	-192.125	-0.303	-0.003
-203.377	-200.000	0.371	-0.001
-202.363	-65.663	0.167	-0.066
-201.348	236.534	0.086	-0.140
-200.333	800.000	0.112	-0.433
-199.319	-57.642	-0.311	-0.134
-198.304	282.621	-0.066	0.116
-197.290	-200.000	0.015	0.246
-196.275	3.317	0.105	-0.075
-195.260	74.637	-0.068	0.070
-194.246	-94.563	0.093	0.025
-193.231	-112.577	0.130	0.025
-192.217	79.451	-0.248	0.263
-191.202	-144.485	-0.433	0.040
-190.187	-82.012	-0.305	-0.098
-189.173	800.000	0.019	0.053
-188.158	-200.000	-0.013	0.257
-187.144	-16.220	-0.203	-0.127
-186.129	178.776	0.121	0.174
-185.114	-153.216	0.280	-0.019
-184.100	-200.000	-0.003	0.181
-183.085	68.003	0.211	0.213
-182.071	-119.584	-0.194	-0.033
-181.056	-91.213	-0.163	0.046
-180.042	-162.227	-0.531	-0.026
-179.027	207.335	-0.128	-0.197
-178.012	-200.000	-0.170	-0.000
-176.998	282.257	0.013	-0.022
-175.983	191.371	-0.196	-0.291
-174.969	-130.992	0.305	-0.040
-173.954	181.038	0.087	0.127
-172.939	-116.144	-0.264	0.048
-171.925	-17.229	0.097	0.060
-170.910	-81.225	-0.012	0.004
-169.896	-112.701	-0.087	-0.017
-168.881	2.741	0.024	0.017
-167.866	-43.944	-0.234	0.116
-166.852	-99.541	0.141	0.035
-165.837	218.510	0.252	-0.397
-164.823	800.000	0.018	-0.067
-163.808	-192.178	0.310	0.003
-162.793	387.388	-0.067	0.137
-161.779	604.558	0.032	0.079
-160.764	25.423	0.101	-0.083
-159.750	211.116	-0.057	-0.089
-158.735	-34.329	0.271	0.146
-157.720	-195.234	-0.354	0.003
-156.706	-69.295	-0.266	0.101
-155.691	92.398	0.129	0.144
-154.677	20.033	-0.140	0.112
-153.662	-82.453	-0.068	0.022
-152.647	-77.462	0.176	-0.060
-151.633	326.640	-0.063	0.120
-150.618	-136.239	0.066	0.008
-149.604	-78.534	0.225	-0.076
-148.589	800.000	-0.080	0.235
-147.574	175.004	-0.063	-0.090
-146.560	30.836	0.201	0.170
-145.545	377.330	0.133	-0.268
-144.531	-150.677	-0.223	0.017
-143.516	-200.000	-0.013	0.151
-142.502	-110.064	0.160	-0.033
-141.487	800.000	-0.108	-0.412
-140.472	253.812	0.022	0.038
-139.458	-29.869	0.103	0.058
-138.443	-117.241	-0.032	-0.006
-137.429	-200.000	-0.010	0.083
-136.414	-111.660	-0.091	-0.018
-135.399	-166.380	-0.159	-0.007
-134.385	-112.916	-0.139	-0.027
-133.370	-121.150	0.174	0.029
-132.356	-118.118	0.136	-0.024
-131.341	160.217	-0.035	-0.049
-130.326	-200.000	0.034	-0.195
-129.312	-64.094	-0.289	0.116
-128.297	306.140	-0.101	0.185
-127.283	-47.693	0.139	-0.066
-126.268	394.828	-0.102	-0.209
-125.253	-96.435	-0.129	-0.033
-124.239	-73.048	-0.255	-0.092
-123.224	242.559	-0.062	-0.102
-122.210	800.000	-0.060	-0.254
-121.195	221.935	-0.059	0.094
