DTS Sentinel unit serial number:	SN413079Multiplexer serial number:	ORYXHardware model number:	OX4-SRSoftware version number:	ORYX F/W v4.00 Oryx Data Collector v3.7.2.0data status	okinstallation	princeton_trtdifferential loss correction	single-endedforward channel	channel 3reverse channel	N/Adate	2019/09/15time	09:56:35forward acquisition time	60.00reverse acquisition time	0.00gamma	496.2192k internal	0.2307k external	0.2307temperature offset calibration	0.9968default loss term (dB/km)	0.3790temperature slope calibration	1.0000multiplexer offset coefficient	1.0000multiplexer slope coefficient	1.0000fibre end	0.00T internal ref (°C)	34.06T ext. ref 1 (°C)	4.99T ext. ref 2 (°C)	29.87length (m)	temperature (°C)	Stokes	anti-Stokes-747.200	-193.721	0.107	0.001
-746.185	3.453	0.194	-0.144
-745.171	604.720	-0.068	0.173
-744.156	-54.249	-0.252	-0.116
-743.142	190.985	-0.109	-0.166
-742.127	-200.000	-0.035	0.165
-741.112	233.174	-0.089	0.150
-740.098	-17.747	-0.121	0.077
-739.083	800.000	0.068	0.203
-738.069	800.000	-0.054	0.165
-737.054	-108.044	-0.224	0.049
-736.039	230.085	-0.186	-0.310
-735.025	237.426	-0.052	0.087
-734.010	371.907	-0.082	0.170
-732.996	-113.683	-0.252	-0.050
-731.981	196.945	-0.159	-0.246
-730.966	88.692	-0.190	-0.215
-729.952	186.272	0.024	0.036
-728.937	75.626	0.119	0.128
-727.923	74.257	-0.177	0.189
-726.908	-1.100	0.137	0.099
-725.894	-200.000	-0.003	-0.026
-724.879	237.500	-0.030	-0.050
-723.864	9.081	-0.233	0.179
-722.850	-200.000	-0.017	0.249
-721.835	-77.868	-0.157	0.055
-720.821	57.645	0.092	0.091
-719.806	517.893	-0.039	0.094
-718.791	-22.132	0.064	0.040
-717.777	99.802	-0.245	0.288
-716.762	800.000	0.071	0.216
-715.748	-116.446	0.146	-0.027
-714.733	-82.845	0.190	-0.062
-713.718	48.898	0.019	-0.019
-712.704	-200.000	-0.027	-0.198
-711.689	307.162	0.189	0.357
-710.675	-76.207	-0.376	0.135
-709.660	329.598	-0.088	-0.172
-708.645	800.000	0.143	-0.452
-707.631	26.991	-0.054	0.046
-706.616	34.658	-0.180	0.159
-705.602	108.535	-0.118	0.143
-704.587	-179.295	0.186	0.004
-703.572	-103.213	-0.241	0.058
-702.558	-52.489	0.172	0.081
-701.543	-200.000	-0.017	-0.077
-700.529	222.614	0.162	0.265
-699.514	-6.434	0.128	-0.089
-698.499	197.736	0.121	-0.187
-697.485	-119.137	-0.293	0.052
-696.470	321.136	0.111	0.214
-695.456	-108.328	-0.333	-0.073
-694.441	-52.762	0.150	0.070
-693.426	-128.228	0.151	0.022
-692.412	-121.467	0.108	-0.018
-691.397	-58.078	-0.182	-0.081
-690.383	124.667	-0.032	-0.041
-689.368	38.479	0.152	-0.138
-688.354	-200.000	0.010	0.174
-687.339	99.063	0.041	0.048
-686.324	-200.000	-0.028	0.202
-685.310	339.744	0.123	-0.244
-684.295	232.314	-0.187	-0.312
-683.281	-10.500	-0.076	-0.051
-682.266	293.085	-0.040	-0.074
-681.251	-200.000	-0.012	0.392
-680.237	-200.000	-0.007	0.186
-679.222	531.078	0.081	-0.194
-678.208	-200.000	-0.024	-0.373
-677.193	3.875	0.047	-0.035
-676.178	-117.231	0.408	-0.075
-675.164	-200.000	-0.016	0.079
-674.149	-200.000	-0.005	0.075
-673.135	-200.000	-0.005	0.244
-672.120	-109.069	0.133	-0.029
-671.105	-156.656	0.040	-0.003
-670.091	-100.737	0.366	0.091
-669.076	800.000	-0.011	0.037
-668.062	800.000	0.058	0.221
-667.047	163.191	0.138	0.196
-666.032	-200.000	-0.038	-0.211
-665.018	-25.070	0.127	0.076
-664.003	-200.000	0.012	0.440
-662.989	55.285	0.270	0.265
-661.974	-26.679	-0.183	-0.108
-660.959	224.460	0.161	-0.264
-659.945	647.272	-0.200	-0.517
-658.930	303.126	-0.160	0.301
-657.916	4.102	-0.320	-0.237
-656.901	-25.599	-0.211	-0.126
-655.886	-74.611	-0.135	-0.049
-654.872	-93.834	-0.023	0.007
-653.857	800.000	0.091	0.317
-652.843	331.348	0.087	-0.170
-651.828	-60.428	0.227	0.098
-650.814	204.940	-0.044	-0.070
-649.799	-89.332	-0.458	-0.137
-648.784	55.165	0.171	0.167
-647.770	-61.430	0.106	-0.045
-646.755	-200.000	-0.022	-0.138
-645.741	-58.647	-0.122	0.053
-644.726	-200.000	0.024	-0.129
-643.711	-140.578	0.257	-0.027
-642.697	-127.143	-0.274	0.041
-641.682	233.531	-0.040	-0.067
-640.668	-200.000	-0.015	-0.113
-639.653	-189.896	-0.179	-0.002
-638.638	-124.808	-0.132	0.021
-637.624	-116.427	-0.302	-0.057
-636.609	-200.000	-0.015	0.260
-635.595	-200.000	-0.020	0.091
-634.580	102.652	0.051	-0.061
-633.565	-34.595	-0.233	0.129
-632.551	-142.959	0.052	0.005
-631.536	-166.899	-0.276	0.011
-630.522	800.000	0.063	0.224
-629.507	155.129	0.122	-0.170
-628.492	-39.133	-0.158	0.084
-627.478	511.172	0.115	-0.270
-626.463	-15.346	-0.110	0.071
-625.449	-200.000	-0.096	-0.000
-624.434	-200.000	0.020	-0.172
-623.419	639.499	0.087	-0.223
-622.405	118.058	-0.122	0.152
-621.390	20.872	0.065	-0.053
-620.376	-108.575	-0.087	-0.019
-619.361	-99.772	-0.192	0.049
-618.346	-200.000	-0.016	-0.148
-617.332	-200.000	0.025	0.234
-616.317	-32.179	-0.406	0.230
-615.303	123.872	0.174	-0.221
-614.288	258.676	0.020	0.034
-613.273	-200.000	-0.051	-0.301
-612.259	612.478	0.133	-0.337
-611.244	-139.140	0.122	-0.013
-610.230	119.747	-0.135	-0.169
-609.215	0.351	-0.192	0.139
-608.201	-200.000	0.012	-0.371
-607.186	360.097	0.165	-0.335
-606.171	800.000	-0.036	-0.125
-605.157	-87.600	0.207	-0.063
-604.142	800.000	0.055	0.193
-603.128	83.815	0.099	-0.110
-602.113	-200.000	-0.029	-0.179
-601.098	89.418	0.181	-0.204
-600.084	-200.000	0.003	-0.173
-599.069	245.340	-0.127	-0.217
-598.055	-200.000	-0.005	-0.086
-597.040	32.931	0.147	0.129
-596.025	331.323	0.146	0.285
-595.011	800.000	-0.088	0.361
-593.996	800.000	-0.041	0.127
-592.982	115.205	-0.135	-0.166
-591.967	-29.716	0.097	-0.056
-590.952	-15.143	0.064	0.041
-589.938	384.245	-0.026	-0.053
-588.923	-112.062	-0.263	-0.053
-587.909	105.594	-0.099	0.119
-586.894	-105.445	0.156	-0.036
-585.879	-120.127	0.151	0.026
-584.865	-152.431	-0.107	0.008
-583.850	-200.000	-0.028	-0.164
-582.836	-99.272	0.295	-0.075
-581.821	-61.801	-0.542	-0.229
-580.806	-74.952	0.379	-0.137
-579.792	800.000	-0.090	0.357
-578.777	-103.401	-0.128	-0.030
-577.763	-188.853	0.422	-0.005
-576.748	-200.000	-0.025	0.245
-575.733	-59.893	-0.129	0.056
-574.719	-200.000	-0.015	-0.088
-573.704	-15.226	0.348	-0.225
-572.690	163.025	-0.163	-0.232
-571.675	228.563	-0.091	0.150
-570.661	14.793	-0.212	-0.167
-569.646	800.000	0.043	0.163
-568.631	-200.000	0.024	0.332
-567.617	239.847	0.042	0.070
-566.602	72.368	-0.221	0.232
-565.588	124.632	-0.042	0.054
-564.573	-200.000	0.005	-0.309
-563.558	129.734	0.208	0.268
-562.544	28.030	0.026	-0.022
-561.529	66.703	-0.115	0.119
-560.515	-20.300	-0.135	0.084
-559.500	4.604	0.093	-0.069
-558.485	-200.000	-0.053	-0.355
-557.471	800.000	0.023	-0.085
-556.456	-200.000	-0.004	-0.270
-555.442	510.998	-0.067	0.157
-554.427	-112.791	0.242	0.049
-553.412	163.501	-0.061	-0.086
-552.398	-72.808	-0.124	0.046
-551.383	-89.089	0.234	-0.070
-550.369	-140.783	0.308	-0.032
-549.354	663.281	-0.033	-0.085
-548.339	-200.000	0.011	0.300
-547.325	-107.395	-0.235	-0.052
-546.310	14.755	0.140	0.110
-545.296	-47.970	-0.291	-0.142
-544.281	-107.094	0.041	0.009
-543.266	43.932	0.102	0.094
-542.252	244.441	0.124	0.211
-541.237	-200.000	0.039	0.248
-540.223	104.458	0.106	-0.126
-539.208	800.000	-0.041	-0.118
-538.193	117.677	0.182	0.226
-537.179	52.356	-0.247	-0.238
-536.164	-157.934	-0.524	0.031
-535.150	-174.414	0.282	0.008
-534.135	-145.819	-0.312	0.028
-533.121	100.098	-0.155	0.181
-532.106	335.870	0.074	0.144
-531.091	-86.139	-0.057	0.018
-530.077	523.718	-0.144	0.341
-529.062	-45.225	-0.088	-0.044
-528.048	800.000	-0.037	0.165
-527.033	-200.000	-0.038	-0.329
-526.018	90.542	0.258	0.291
-525.004	-89.865	-0.260	-0.077
-523.989	-200.000	0.033	-0.212
-522.975	75.471	-0.348	-0.370
-521.960	406.381	0.029	-0.061
-520.945	93.204	0.104	-0.118
-519.931	-3.237	-0.278	-0.195
-518.916	-11.899	-0.266	-0.176
-517.902	220.459	0.171	-0.276
-516.887	-186.496	0.072	-0.001
-515.872	-166.478	-0.159	0.007
-514.858	190.089	-0.107	0.163
-513.843	236.104	-0.187	-0.312
-512.829	-65.118	0.053	-0.022
-511.814	334.331	0.213	0.415
-510.799	800.000	-0.028	0.085
-509.785	-71.172	0.202	-0.076
-508.770	121.498	0.201	-0.252
-507.756	233.920	-0.134	0.222
-506.741	-163.824	0.157	-0.007
-505.726	800.000	-0.006	-0.019
-504.712	2.766	-0.269	-0.197
-503.697	397.407	-0.053	-0.112
-502.683	-136.671	0.260	-0.030
-501.668	800.000	0.137	-0.467
-500.653	165.897	0.077	-0.109
-499.639	182.622	0.056	0.084
-498.624	-200.000	0.005	-0.211
-497.610	465.962	-0.114	0.257
-496.595	232.089	0.174	0.288
-495.581	-93.587	-0.421	-0.117
-494.566	-70.096	-0.128	-0.049
-493.551	-50.562	-0.337	-0.160
-492.537	701.224	-0.102	0.269
-491.522	383.508	-0.042	0.087
-490.508	-154.699	-0.371	-0.025
-489.493	-138.417	-0.119	0.013
-488.478	-200.000	0.055	0.310
-487.464	-163.595	0.258	-0.012
-486.449	800.000	-0.062	-0.174
-485.435	800.000	-0.075	-0.257
-484.420	-75.329	0.404	0.145
-483.405	800.000	-0.006	0.024
-482.391	-54.924	-0.167	0.076
-481.376	84.738	-0.292	0.322
-480.362	-104.212	-0.345	-0.081
-479.347	-200.000	-0.045	0.210
-478.332	-123.598	0.361	-0.058
-477.318	-109.722	0.309	0.066
-476.303	-200.000	0.026	0.120
-475.289	-90.668	0.244	-0.071
-474.274	2.511	-0.173	-0.126
-473.259	143.166	0.161	0.215
-472.245	-40.060	0.173	0.091
-471.230	-89.430	0.560	-0.166
-470.216	15.820	-0.162	0.128
-469.201	-104.170	0.299	0.070
-468.186	-200.000	0.027	0.126
-467.172	800.000	0.050	0.160
-466.157	25.739	-0.295	0.247
-465.143	800.000	-0.049	-0.136
-464.128	83.721	0.078	-0.085
-463.113	-86.385	-0.115	-0.036
-462.099	-200.000	-0.027	0.123
-461.084	-8.912	-0.037	-0.025
-460.070	800.000	-0.116	-0.485
-459.055	-200.000	0.014	-0.191
-458.040	200.853	-0.079	0.122
-457.026	63.054	0.156	-0.157
-456.011	-174.875	0.157	-0.004
-454.997	-123.548	-0.114	-0.018
-453.982	-42.158	0.170	0.087
-452.968	1.509	0.095	0.069
-451.953	-200.000	0.009	-0.385
-450.938	1.457	0.186	-0.134
-449.924	800.000	-0.061	0.178
-448.909	-200.000	-0.011	0.192
-447.895	-130.237	0.197	0.027
-446.880	89.653	-0.220	-0.247
-445.865	39.512	-0.007	0.007
-444.851	-200.000	0.034	0.177
-443.836	-200.000	-0.013	-0.068
-442.822	77.769	-0.249	-0.266
-441.807	-200.000	-0.042	-0.384
-440.792	-200.000	-0.010	0.055
-439.778	-200.000	0.036	-0.176
-438.763	173.829	-0.102	0.148
-437.749	-200.000	0.013	0.206
-436.734	-34.453	-0.100	0.055
-435.719	269.682	-0.119	-0.210
-434.705	-158.130	0.367	-0.022
-433.690	42.300	-0.090	-0.082
-432.676	-200.000	-0.032	0.242
-431.661	-200.000	-0.009	0.133
-430.646	-66.133	-0.195	-0.078
-429.632	4.290	-0.175	-0.129
-428.617	-103.293	0.081	-0.019
-427.603	-152.545	-0.151	-0.011
-426.588	-72.213	-0.032	0.012
-425.573	140.686	-0.205	0.272
-424.559	-200.000	-0.226	0.000
-423.544	18.036	-0.008	-0.007
-422.530	233.311	0.076	-0.125
-421.515	-114.102	-0.252	0.049
-420.500	-93.995	-0.343	-0.095
-419.486	215.368	0.139	-0.221
-418.471	800.000	0.007	0.032
-417.457	-41.424	0.177	0.091
-416.442	-191.651	0.294	-0.003
-415.428	1.423	0.128	-0.092
-414.413	47.671	-0.243	-0.227
-413.398	-31.786	0.155	-0.087
-412.384	800.000	-0.055	-0.188
-411.369	92.612	-0.171	0.193
-410.355	800.000	0.047	-0.172
-409.340	-100.722	-0.157	-0.039
-408.325	66.679	0.154	0.157
-407.311	13.504	0.170	-0.133
-406.296	800.000	-0.048	-0.149
-405.282	198.425	0.063	0.097
-404.267	-95.696	0.597	0.160
-403.252	183.088	0.110	-0.163
-402.238	448.269	-0.153	0.338
-401.223	-200.000	0.020	0.125
-400.209	151.378	-0.063	-0.086
-399.194	-1.040	0.241	0.171
-398.179	-200.000	-0.043	-0.211
-397.165	216.020	-0.111	-0.177
-396.150	800.000	0.018	-0.070
-395.136	-64.938	-0.191	-0.078
-394.121	-200.000	0.000	0.040
-393.106	708.515	0.117	-0.311
-392.092	137.467	-0.171	-0.225
-391.077	36.163	0.117	0.103
-390.063	-182.160	-0.298	-0.006
-389.048	-200.000	0.000	0.242
-388.033	211.462	0.115	-0.182
-387.019	-128.263	0.167	0.024
-386.004	19.256	-0.167	-0.135
-384.990	279.240	-0.072	-0.128
-383.975	-112.758	-0.125	-0.025
-382.960	384.744	0.159	0.329
-381.946	54.042	0.466	0.450
-380.931	-54.811	0.135	0.061
-379.917	-179.536	-0.144	0.003
-378.902	150.099	0.265	0.360
-377.888	21.402	0.078	-0.064
-376.873	-57.261	0.458	-0.202
-375.858	-200.000	0.019	0.101
-374.844	-200.000	-0.027	0.176
-373.829	-200.000	-0.026	0.446
-372.815	171.751	0.009	0.013
-371.800	-164.001	-0.077	0.004
-370.785	70.004	0.078	-0.081
-369.771	213.115	0.137	-0.217
-368.756	-175.049	-0.170	-0.005
-367.742	-200.000	-0.012	-0.319
-366.727	-115.432	0.446	0.084
-365.712	88.118	-0.322	0.358
-364.698	-11.106	0.208	0.137
-363.683	158.207	-0.184	0.255
-362.669	-108.096	0.135	-0.029
-361.654	-62.196	-0.160	0.067
-360.639	170.911	-0.038	-0.054
-359.625	258.876	0.067	0.115
-358.610	-169.757	0.107	-0.004
-357.596	-12.276	-0.028	-0.019
-356.581	460.110	0.113	-0.253
-355.566	800.000	-0.069	-0.244
-354.552	-152.124	0.151	-0.011
-353.537	59.462	-0.162	0.160
-352.523	-200.000	0.030	0.173
-351.508	160.362	-0.063	0.088
-350.493	-100.048	-0.240	0.060
-349.479	-108.172	0.323	0.070
-348.464	-96.504	0.176	0.047
-347.450	10.954	0.206	-0.158
-346.435	11.225	-0.253	0.193
-345.420	-200.000	-0.008	0.147
-344.406	800.000	0.015	0.047
-343.391	-86.411	0.166	-0.051
-342.377	-26.523	-0.268	0.157
-341.362	-137.542	0.232	0.026
-340.348	-200.000	0.051	0.343
-339.333	-22.824	-0.078	0.047
-338.318	-46.481	0.178	-0.087
-337.304	800.000	-0.095	0.264
-336.289	-3.801	0.147	-0.102
-335.275	51.891	-0.079	0.075
-334.260	362.732	0.062	-0.125
-333.245	-61.685	-0.266	-0.111
-332.231	-200.000	0.008	-0.112
-331.216	634.893	0.062	-0.158
-330.202	-13.908	0.189	0.122
-329.187	-111.389	-0.192	0.039
-328.172	282.147	0.105	-0.189
-327.158	-200.000	0.060	-0.382
-326.143	292.116	-0.038	0.069
-325.129	-180.650	0.067	0.001
-324.114	454.864	0.051	-0.114
-323.099	-170.954	-0.230	-0.008
-322.085	102.455	-0.055	0.065
-321.070	83.992	-0.202	-0.221
-320.056	-60.089	-0.094	-0.040
-319.041	-145.290	0.215	-0.019
-318.026	146.437	0.130	0.174
-317.012	198.531	0.274	-0.419
-315.997	363.543	0.122	0.245
-314.983	-200.000	0.059	0.470
-313.968	-200.000	0.031	-0.273
-312.953	110.658	0.272	-0.327
-311.939	-0.500	0.036	-0.026
-310.924	-48.839	-0.065	0.031
-309.910	6.922	0.213	0.159
-308.895	-61.130	0.239	-0.101
-307.880	597.635	-0.061	-0.150
-306.866	89.146	-0.076	-0.085
-305.851	44.540	0.046	0.042
-304.837	-46.174	0.083	0.041
-303.822	800.000	0.037	0.103
-302.807	-44.309	0.099	-0.049
-301.793	800.000	0.101	-0.348
-300.778	800.000	-0.102	-0.288
-299.764	-113.804	-0.221	-0.043
-298.749	-200.000	0.000	0.478
-297.735	-29.341	0.093	-0.053
-296.720	248.846	0.201	0.341
-295.705	-52.337	0.082	0.038
-294.691	-160.849	-0.203	0.011
-293.676	-91.419	0.310	-0.088
-292.662	-200.000	0.014	-0.278
-291.647	-200.000	0.021	-0.098
-290.632	-14.571	0.171	0.110
-289.618	109.480	0.236	-0.282
-288.603	-98.921	-0.331	0.084
-287.589	-81.085	-0.306	-0.101
-286.574	-200.000	0.015	-0.121
-285.559	-50.569	0.092	-0.043
-284.545	-11.273	-0.086	0.056
-283.530	800.000	0.043	0.159
-282.516	-38.804	0.132	-0.069
-281.501	-200.000	-0.035	-0.219
-280.486	-4.123	-0.217	0.150
-279.472	164.059	-0.047	0.066
-278.457	-9.028	0.183	-0.122
-277.443	57.744	0.259	-0.253
-276.428	197.656	0.048	0.073
-275.413	-200.000	0.032	-0.226
-274.399	-9.965	-0.202	-0.134
-273.384	-111.865	0.284	0.057
-272.370	-45.246	-0.260	-0.129
-271.355	266.612	-0.151	0.264
-270.340	-132.519	0.102	0.013
-269.326	633.655	0.090	0.229
-268.311	132.400	0.064	0.082
-267.297	122.613	-0.145	-0.182
-266.282	181.521	0.037	0.055
-265.267	-20.374	-0.194	0.119
-264.253	800.000	0.047	-0.131
-263.238	108.554	-0.207	0.247
-262.224	-94.587	0.422	-0.115
-261.209	-74.628	-0.277	-0.100
-260.195	-200.000	-0.058	0.257
-259.180	187.470	0.093	-0.138
-258.165	-200.000	0.001	-0.229
-257.151	-200.000	0.018	-0.200
-256.136	-200.000	0.028	-0.156
-255.122	115.182	-0.202	0.247
-254.107	103.896	0.172	0.202
-253.092	23.444	0.268	0.219
-252.078	631.077	0.058	0.145
-251.063	-200.000	0.006	-0.056
-250.049	-200.000	0.031	-0.178
-249.034	379.428	-0.126	-0.257
-248.019	-200.000	0.017	0.362
-247.005	577.314	0.091	-0.223
-245.990	800.000	-0.157	0.529
-244.976	94.315	0.193	0.219
-243.961	1.921	-0.132	0.095
-242.946	-62.023	-0.148	-0.061
-241.932	-200.000	-0.053	0.248
-240.917	-200.000	0.008	0.386
-239.903	800.000	-0.086	0.285
-238.888	800.000	-0.061	-0.185
-237.873	-200.000	-0.062	0.410
-236.859	-52.623	0.116	0.053
-235.844	-104.583	0.330	-0.076
-234.830	65.488	0.033	0.033
-233.815	-117.241	0.297	-0.054
-232.800	-89.155	-0.273	0.080
-231.786	165.191	-0.071	-0.100
-230.771	800.000	-0.038	-0.152
-229.757	21.578	0.090	-0.073
-228.742	-95.390	-0.180	0.048
-227.727	-137.845	-0.258	-0.029
-226.713	175.570	0.272	0.393
-225.698	-32.977	0.186	0.103
-224.684	-38.906	-0.371	0.195
-223.669	293.841	0.114	-0.207
-222.655	221.032	-0.194	0.310
-221.640	166.842	0.100	-0.141
-220.625	-174.623	-0.052	-0.001
-219.611	151.467	0.097	-0.131
-218.596	-109.219	0.213	-0.045
-217.582	13.415	0.138	0.106
-216.567	244.516	-0.172	-0.288
-215.552	-44.716	0.207	-0.103
-214.538	3.346	0.368	0.267
-213.523	800.000	-0.033	0.119
-212.509	-41.203	0.118	-0.061
-211.494	224.650	0.174	0.281
-210.479	35.374	0.220	0.192
-209.465	800.000	-0.058	-0.230
-208.450	-5.026	-0.142	-0.097
-207.436	4.112	0.117	-0.085
-206.421	131.406	-0.144	-0.184
-205.406	502.350	0.167	-0.385
-204.392	-49.309	-0.068	0.033
-203.377	448.760	-0.015	0.032
-202.363	329.671	-0.089	0.170
-201.348	118.178	0.100	0.123
-200.333	66.169	-0.500	0.505
-199.319	-138.204	-0.323	-0.036
-198.304	-200.000	-0.041	-0.225
-197.290	-93.236	-0.192	0.053
-196.275	148.048	-0.231	0.310
-195.260	56.806	0.271	0.262
-194.246	316.463	0.133	-0.250
-193.231	31.154	-0.182	-0.156
-192.217	90.857	-0.044	-0.049
-191.202	-68.840	-0.163	-0.063
-190.187	48.159	-0.051	-0.048
-189.173	-29.622	0.214	-0.122
-188.158	-175.257	0.174	0.005
-187.144	800.000	-0.047	-0.157
-186.129	-6.857	-0.115	0.078
-185.114	277.594	-0.098	-0.173
-184.100	452.859	0.055	-0.122
-183.085	137.123	-0.056	-0.073
-182.071	-200.000	0.020	-0.116
-181.056	156.357	-0.157	0.216
-180.042	800.000	-0.081	-0.241
-179.027	-3.481	0.091	0.063
-178.012	-49.339	0.311	-0.147
-176.998	800.000	0.015	-0.059
-175.983	-77.176	-0.095	-0.033
-174.969	-119.270	0.105	-0.018
-173.954	-55.144	-0.051	-0.023
-172.939	-100.019	0.138	0.034
-171.925	100.806	-0.053	-0.062
-170.910	199.617	-0.059	-0.091
-169.896	-27.570	-0.333	0.193
-168.881	-118.473	0.238	0.042
-167.866	-64.172	0.039	0.016
-166.852	-200.000	0.006	0.421
-165.837	39.203	0.024	0.022
-164.823	-200.000	-0.070	0.363
-163.808	-84.107	0.241	0.076
-162.793	70.839	-0.238	0.245
-161.779	-4.490	-0.092	0.063
-160.764	-105.233	-0.164	-0.037
-159.750	484.908	0.076	-0.171
-158.735	-19.647	-0.094	-0.058
-157.720	800.000	0.083	0.353
-156.706	15.031	-0.254	0.197
-155.691	27.195	-0.119	0.099
-154.677	-113.716	0.282	-0.055
-153.662	-106.062	0.190	-0.042
-152.647	53.238	-0.149	0.141
-151.633	-129.629	-0.027	-0.004
-150.618	-8.049	-0.343	0.230
-149.604	-76.894	-0.110	-0.038
-148.589	26.100	0.347	-0.288
-147.574	800.000	-0.051	-0.158
-146.560	70.491	0.218	0.224
-145.545	-200.000	-0.014	-0.086
-144.531	6.230	0.395	0.291
-143.516	166.639	0.274	0.386
-142.502	445.742	0.011	-0.024
-141.487	-200.000	-0.031	0.142
-140.472	755.475	-0.071	0.192
-139.458	43.333	-0.271	0.246
-138.443	-92.156	-0.260	0.073
-137.429	-200.000	-0.049	-0.224
-136.414	238.956	-0.084	0.138
-135.399	-33.452	0.127	-0.070
-134.385	-74.460	0.052	-0.019
-133.370	44.000	-0.148	-0.135
-132.356	15.069	0.204	0.158
-131.341	-91.890	0.353	0.099
-130.326	-84.241	-0.094	0.030
-129.312	-39.971	0.237	0.123
-128.297	256.536	-0.137	-0.233
-127.283	-200.000	-0.069	-0.338
-126.268	162.788	0.015	0.020
-125.253	232.335	0.075	-0.122
-124.239	-200.000	0.025	-0.231
-123.224	-21.925	0.147	0.088
-122.210	-158.615	0.216	0.012
-121.195	-200.000	-0.003	0.040
