DTS Sentinel unit serial number:	SN413079Multiplexer serial number:	ORYXHardware model number:	OX4-SRSoftware version number:	ORYX F/W v4.00 Oryx Data Collector v3.7.2.0data status	okinstallation	princeton_trtdifferential loss correction	single-endedforward channel	channel 3reverse channel	N/Adate	2019/09/17time	12:32:35forward acquisition time	60.00reverse acquisition time	0.00gamma	496.2192k internal	0.2317k external	0.2317temperature offset calibration	0.9961default loss term (dB/km)	0.3790temperature slope calibration	1.0000multiplexer offset coefficient	1.0000multiplexer slope coefficient	1.0000fibre end	0.00T internal ref (°C)	32.00T ext. ref 1 (°C)	0.43T ext. ref 2 (°C)	29.34length (m)	temperature (°C)	Stokes	anti-Stokes-747.200	250.536	-0.013	-0.022
-746.185	800.000	0.046	-0.203
-745.171	-161.211	0.296	0.016
-744.156	-200.000	0.020	0.145
-743.142	117.784	0.031	-0.039
-742.127	-200.000	0.008	0.300
-741.112	-6.832	-0.208	-0.143
-740.098	109.228	-0.164	0.198
-739.083	-21.780	0.093	0.057
-738.069	-200.000	-0.018	-0.115
-737.054	142.565	-0.264	-0.355
-736.039	-23.395	-0.118	-0.072
-735.025	309.491	0.063	0.118
-734.010	800.000	-0.033	0.145
-732.996	226.171	-0.339	-0.557
-731.981	-123.862	0.033	0.005
-730.966	800.000	0.016	-0.052
-729.952	11.458	-0.312	-0.242
-728.937	175.913	0.136	-0.200
-727.923	668.520	-0.113	0.295
-726.908	-115.403	0.149	-0.029
-725.894	-70.005	-0.026	0.010
-724.879	-200.000	-0.007	-0.082
-723.864	22.232	-0.269	0.222
-722.850	111.221	-0.098	0.119
-721.835	-200.000	0.000	-0.030
-720.821	76.465	-0.142	0.153
-719.806	272.789	-0.063	-0.113
-718.791	144.865	-0.105	0.143
-717.777	-200.000	-0.003	0.369
-716.762	800.000	0.158	0.572
-715.748	47.647	-0.192	0.181
-714.733	44.915	0.108	0.101
-713.718	800.000	-0.069	0.209
-712.704	-200.000	-0.038	0.203
-711.689	550.572	0.179	0.435
-710.675	-200.000	0.016	-0.498
-709.660	-92.688	-0.239	-0.068
-708.645	67.460	-0.227	0.234
-707.631	-103.732	0.418	0.099
-706.616	-200.000	-0.016	0.416
-705.602	-51.119	-0.098	-0.046
-704.587	-168.064	-0.139	0.005
-703.572	355.345	0.181	0.364
-702.558	-200.000	-0.024	-0.241
-701.543	141.066	0.112	0.149
-700.529	-200.000	-0.028	0.124
-699.514	382.876	0.177	0.368
-698.499	-200.000	-0.028	-0.281
-697.485	-166.003	0.245	0.011
-696.470	800.000	0.088	-0.311
-695.456	-41.112	-0.322	0.168
-694.441	800.000	0.030	-0.112
-693.426	62.778	-0.305	0.309
-692.412	-40.556	-0.271	0.142
-691.397	-200.000	0.011	-0.066
-690.383	-200.000	-0.005	0.126
-689.368	32.101	-0.085	-0.074
-688.354	506.181	-0.073	0.172
-687.339	-87.395	-0.084	0.026
-686.324	-200.000	-0.012	-0.291
-685.310	-85.522	-0.142	-0.045
-684.295	-200.000	-0.005	-0.326
-683.281	-200.000	-0.018	-0.235
-682.266	-73.578	-0.344	-0.127
-681.251	10.393	-0.160	0.123
-680.237	800.000	-0.028	0.096
-679.222	-200.000	0.003	-0.055
-678.208	286.745	0.122	0.222
-677.193	-118.734	-0.092	-0.016
-676.178	-57.377	0.135	0.060
-675.164	115.516	-0.108	0.133
-674.149	-150.036	0.278	-0.022
-673.135	800.000	-0.052	-0.227
-672.120	86.550	0.085	0.094
-671.105	36.757	0.178	0.158
-670.091	62.863	0.272	0.275
-669.076	-10.802	-0.057	0.038
-668.062	-200.000	-0.049	-0.220
-667.047	-200.000	-0.005	-0.062
-666.032	96.283	0.218	-0.252
-665.018	-155.286	0.116	0.008
-664.003	-180.738	0.051	0.001
-662.989	-200.000	-0.027	-0.137
-661.974	308.031	0.273	0.515
-660.959	176.685	0.165	0.242
-659.945	-9.584	-0.309	-0.208
-658.930	-113.130	0.131	0.026
-657.916	-130.602	-0.303	-0.041
-656.901	-54.314	0.139	0.064
-655.886	-200.000	0.003	0.225
-654.872	-48.740	0.083	-0.040
-653.857	-84.571	-0.121	0.038
-652.843	66.884	0.204	-0.210
-651.828	800.000	0.091	-0.278
-650.814	-200.000	-0.072	-0.395
-649.799	-134.778	-0.205	-0.025
-648.784	800.000	-0.076	-0.250
-647.770	-200.000	-0.007	-0.093
-646.755	-200.000	0.003	0.171
-645.741	379.121	0.040	0.083
-644.726	-200.000	-0.015	0.284
-643.711	-129.920	-0.435	-0.060
-642.697	800.000	-0.059	0.176
-641.682	-200.000	0.011	0.056
-640.668	-66.048	0.162	0.065
-639.653	-107.728	-0.447	-0.098
-638.638	-97.429	0.353	0.093
-637.624	-177.798	-0.220	-0.005
-636.609	800.000	0.114	0.348
-635.595	109.288	-0.168	0.203
-634.580	30.574	-0.172	0.149
-633.565	54.208	-0.094	-0.091
-632.551	-88.103	0.280	0.085
-631.536	34.489	0.129	0.114
-630.522	81.927	0.132	-0.144
-629.507	-24.832	0.228	-0.137
-628.492	42.643	0.179	0.164
-627.478	-21.191	0.284	0.175
-626.463	73.905	-0.198	-0.209
-625.449	-5.210	-0.147	0.102
-624.434	169.757	-0.248	-0.357
-623.419	782.053	0.127	-0.350
-622.405	644.923	-0.071	0.183
-621.390	208.593	-0.133	0.209
-620.376	118.935	-0.122	-0.151
-619.361	-200.000	0.055	-0.281
-618.346	37.375	0.291	-0.260
-617.332	800.000	-0.049	-0.196
-616.317	-200.000	-0.006	-0.095
-615.303	-200.000	-0.036	-0.187
-614.288	8.414	-0.333	-0.253
-613.273	-67.397	0.143	-0.056
-612.259	-62.748	0.235	-0.098
-611.244	-84.398	0.230	-0.073
-610.230	38.672	-0.321	-0.289
-609.215	270.343	0.100	0.177
-608.201	-101.431	-0.161	0.040
-607.186	127.273	0.089	0.114
-606.171	-200.000	0.057	-0.254
-605.157	504.325	0.080	0.186
-604.142	459.507	-0.063	-0.141
-603.128	-200.000	0.004	0.471
-602.113	-147.659	0.144	0.012
-601.098	483.020	-0.020	-0.046
-600.084	36.197	0.118	0.105
-599.069	42.995	-0.132	-0.121
-598.055	81.980	-0.225	0.245
-597.040	-18.742	0.075	-0.047
-596.025	-101.776	0.147	0.036
-595.011	800.000	0.014	0.055
-593.996	106.021	-0.130	0.154
-592.982	782.601	0.104	0.287
-591.967	193.515	0.029	0.044
-590.952	-200.000	0.002	-0.279
-589.938	202.295	-0.067	-0.105
-588.923	221.947	-0.153	-0.248
-587.909	47.605	0.166	-0.155
-586.894	-200.000	-0.005	-0.120
-585.879	-84.015	-0.200	0.064
-584.865	-200.000	-0.005	-0.174
-583.850	-142.633	-0.280	-0.028
-582.836	174.534	-0.147	0.214
-581.821	-200.000	-0.018	-0.201
-580.806	-34.250	0.024	0.013
-579.792	-200.000	-0.009	0.179
-578.777	-33.260	-0.128	0.071
-577.763	-200.000	0.042	0.232
-576.748	299.337	0.107	-0.198
-575.733	76.587	-0.074	0.079
-574.719	-200.000	-0.034	0.308
-573.704	-55.912	-0.134	-0.060
-572.690	-200.000	0.285	-0.000
-571.675	136.767	-0.144	-0.189
-570.661	-172.987	0.397	0.012
-569.646	-136.527	-0.272	-0.032
-568.631	-200.000	-0.023	-0.178
-567.617	-113.269	-0.088	-0.017
-566.602	-200.000	0.002	0.111
-565.588	4.746	0.243	-0.180
-564.573	-17.174	-0.135	-0.085
-563.558	49.620	0.107	-0.102
-562.544	800.000	-0.055	0.153
-561.529	148.411	0.049	-0.066
-560.515	-36.072	0.438	-0.238
-559.500	530.087	0.016	-0.038
-558.485	532.951	0.099	0.235
-557.471	54.477	0.181	-0.175
-556.456	-41.891	0.199	-0.103
-555.442	-121.964	-0.490	0.081
-554.427	24.263	-0.077	-0.064
-553.412	-200.000	-0.001	0.154
-552.398	-200.000	0.031	-0.298
-551.383	251.144	-0.123	-0.210
-550.369	-37.038	-0.178	0.096
-549.354	57.551	0.143	-0.140
-548.339	-41.625	-0.478	-0.247
-547.325	-200.000	-0.017	-0.173
-546.310	-200.000	0.009	0.366
-545.296	325.994	0.120	0.231
-544.281	-124.615	0.335	0.052
-543.266	800.000	0.042	0.157
-542.252	-200.000	0.062	0.289
-541.237	521.259	-0.039	0.092
-540.223	800.000	0.097	0.282
-539.208	-40.047	-0.231	-0.121
-538.193	452.301	-0.165	-0.366
-537.179	-200.000	-0.004	-0.272
-536.164	97.497	-0.207	-0.239
-535.150	53.803	-0.101	-0.097
-534.135	732.090	-0.028	-0.076
-533.121	-102.482	-0.327	-0.079
-532.106	655.786	-0.139	-0.357
-531.091	800.000	0.028	-0.090
-530.077	341.549	-0.110	-0.217
-529.062	-2.343	-0.377	0.265
-528.048	283.680	0.070	0.127
-527.033	-131.904	0.123	-0.016
-526.018	-89.142	0.243	0.072
-525.004	144.002	0.089	-0.119
-523.989	13.356	0.097	-0.075
-522.975	43.911	-0.123	0.113
-521.960	-62.958	0.194	0.080
-520.945	244.825	0.064	0.108
-519.931	49.184	-0.160	-0.151
-518.916	800.000	0.019	0.057
-517.902	115.966	0.176	-0.216
-516.887	-200.000	0.014	0.061
-515.872	-200.000	0.045	-0.219
-514.858	81.473	0.141	-0.153
-513.843	61.048	-0.378	-0.377
-512.829	-61.689	0.055	0.023
-511.814	-200.000	-0.020	-0.126
-510.799	-200.000	0.001	-0.055
-509.785	458.368	0.078	0.175
-508.770	99.791	-0.203	0.236
-507.756	-200.000	-0.007	0.055
-506.741	436.800	0.083	-0.181
-505.726	654.411	-0.122	-0.315
-504.712	163.117	-0.196	0.276
-503.697	-68.781	0.360	-0.140
-502.683	-33.608	0.277	0.153
-501.668	210.986	-0.163	0.258
-500.653	800.000	0.075	-0.219
-499.639	44.572	0.059	-0.054
-498.624	94.114	0.241	0.274
-497.610	-60.719	0.152	0.064
-496.595	-200.000	0.017	-0.213
-495.581	800.000	0.077	-0.223
-494.566	-153.018	0.366	0.026
-493.551	-6.751	-0.091	-0.062
-492.537	-200.000	0.031	0.300
-491.522	95.153	-0.186	-0.213
-490.508	205.211	-0.021	-0.033
-489.493	-200.000	0.037	0.210
-488.478	32.967	-0.092	0.080
-487.464	208.284	-0.099	-0.155
-486.449	-142.734	0.479	0.047
-485.435	-100.724	-0.430	0.106
-484.420	-107.581	-0.091	-0.020
-483.405	71.527	-0.186	0.193
-482.391	-165.375	-0.038	0.002
-481.376	-54.792	-0.036	0.016
-480.362	-109.018	0.179	-0.038
-479.347	91.039	-0.239	0.269
-478.332	28.274	-0.185	-0.156
-477.318	800.000	-0.047	-0.193
-476.303	2.660	0.060	-0.043
-475.289	213.952	-0.138	0.219
-474.274	-127.190	0.193	-0.028
-473.259	-200.000	-0.011	-0.183
-472.245	5.409	-0.084	-0.062
-471.230	148.138	0.074	-0.100
-470.216	308.775	-0.105	0.197
-469.201	118.543	0.093	0.115
-468.186	-139.418	0.251	0.027
-467.172	190.623	0.169	-0.255
-466.157	-118.017	0.186	-0.033
-465.143	-200.000	-0.000	0.036
-464.128	-29.951	0.114	0.065
-463.113	800.000	0.096	0.301
-462.099	-11.980	0.157	-0.103
-461.084	601.705	0.024	-0.059
-460.070	-182.319	0.134	-0.003
-459.055	-200.000	-0.027	-0.224
-458.040	-200.000	-0.021	0.138
-457.026	46.218	0.154	-0.143
-456.011	-76.856	-0.114	-0.040
-454.997	-200.000	-0.006	-0.091
-453.982	-43.422	-0.162	-0.082
-452.968	-200.000	0.012	-0.232
-451.953	572.420	0.065	-0.158
-450.938	-25.910	0.271	-0.160
-449.924	-200.000	-0.052	-0.308
-448.909	152.680	-0.135	-0.185
-447.895	84.774	0.275	-0.302
-446.880	33.336	0.109	0.094
-445.865	-120.888	0.253	-0.043
-444.851	-31.949	0.211	-0.118
-443.836	-108.876	-0.308	-0.066
-442.822	709.948	-0.052	0.139
-441.807	-120.629	-0.226	-0.038
-440.792	274.378	0.031	0.056
-439.778	85.453	-0.127	0.139
-438.763	800.000	0.040	0.117
-437.749	-142.296	0.138	-0.014
-436.734	-88.894	-0.220	0.065
-435.719	-156.019	0.099	0.006
-434.705	455.826	0.148	-0.329
-433.690	-118.995	0.360	0.063
-432.676	-200.000	-0.007	0.177
-431.661	12.239	0.117	-0.090
-430.646	-18.814	-0.126	0.079
-429.632	-14.679	0.187	0.120
-428.617	-39.521	0.192	0.101
-427.603	188.660	0.289	0.432
-426.588	-63.720	0.330	0.135
-425.573	67.106	0.105	-0.107
-424.559	800.000	0.054	-0.184
-423.544	-46.528	0.161	-0.079
-422.530	-120.058	0.173	0.030
-421.515	586.524	0.078	0.193
-420.500	-93.249	0.206	0.057
-419.486	-71.389	-0.225	0.084
-418.471	32.617	-0.174	0.150
-417.457	800.000	-0.095	-0.331
-416.442	-200.000	-0.008	-0.090
-415.428	125.865	-0.135	-0.170
-414.413	394.809	-0.045	-0.093
-413.398	-118.159	0.361	0.064
-412.384	704.693	-0.049	-0.130
-411.369	-76.373	0.151	-0.053
-410.355	-51.355	-0.061	0.029
-409.340	-200.000	0.034	-0.258
-408.325	-109.852	0.259	0.054
-407.311	-36.158	-0.118	-0.064
-406.296	127.583	-0.098	0.124
-405.282	-85.716	-0.242	0.075
-404.267	800.000	-0.050	-0.175
-403.252	-200.000	0.010	-0.212
-402.238	72.677	0.254	-0.265
-401.223	-126.347	-0.059	-0.009
-400.209	184.499	0.155	-0.230
-399.194	43.602	0.270	0.247
-398.179	98.386	-0.130	-0.149
-397.165	132.087	0.142	-0.183
-396.150	438.504	-0.027	-0.058
-395.136	-200.000	0.044	-0.255
-394.121	800.000	-0.034	0.112
-393.106	-160.082	-0.170	0.009
-392.092	-129.626	-0.218	0.030
-391.077	-117.283	0.110	-0.020
-390.063	800.000	-0.035	0.122
-389.048	105.681	-0.127	-0.149
-388.033	800.000	-0.061	0.170
-387.019	-119.966	0.469	-0.080
-386.004	236.323	-0.347	-0.573
-384.990	-125.813	-0.347	0.052
-383.975	-21.104	-0.163	0.099
-382.960	-185.157	-0.256	-0.004
-381.946	-200.000	-0.041	0.299
-380.931	545.575	0.060	0.142
-379.917	-12.968	-0.250	0.163
-378.902	-55.578	0.297	-0.133
-377.888	-200.000	0.031	0.166
-376.873	-200.000	-0.009	0.248
-375.858	-83.122	-0.061	-0.019
-374.844	-153.572	-0.071	0.005
-373.829	-92.990	0.078	0.022
-372.815	800.000	0.041	-0.148
-371.800	41.585	-0.142	0.128
-370.785	-79.785	-0.108	0.036
-369.771	49.402	-0.140	-0.132
-368.756	79.722	0.265	-0.284
-367.742	146.604	-0.156	-0.209
-366.727	-200.000	0.023	-0.164
-365.712	125.872	0.188	0.237
-364.698	-55.773	0.182	-0.081
-363.683	800.000	0.049	-0.199
-362.669	190.353	-0.153	0.230
-361.654	800.000	0.131	-0.537
-360.639	379.130	0.218	-0.446
-359.625	-160.344	-0.202	-0.011
-358.610	-200.000	-0.027	-0.398
-357.596	-134.685	-0.296	-0.036
-356.581	569.017	0.132	0.320
-355.566	308.494	-0.115	-0.214
-354.552	-39.269	-0.149	0.078
-353.537	362.900	0.151	0.302
-352.523	512.628	0.140	0.325
-351.508	-120.129	-0.176	0.030
-350.493	542.332	0.071	0.169
-349.479	-200.000	-0.026	0.280
-348.464	126.428	-0.154	-0.194
-347.450	-87.035	0.378	-0.115
-346.435	51.981	-0.099	0.094
-345.420	-200.000	-0.002	-0.061
-344.406	198.377	0.134	0.204
-343.391	-200.000	0.039	-0.202
-342.377	463.004	0.052	0.115
-341.362	-74.802	0.137	0.049
-340.348	172.688	0.262	0.375
-339.333	-200.000	0.035	-0.392
-338.318	124.460	-0.086	0.107
-337.304	134.444	0.065	-0.084
-336.289	-19.320	0.170	0.105
-335.275	-200.000	-0.052	-0.392
-334.260	-200.000	-0.099	-0.434
-333.245	-200.000	0.059	0.334
-332.231	-117.991	-0.090	-0.016
-331.216	41.271	-0.251	0.226
-330.202	800.000	0.085	0.281
-329.187	608.738	0.083	-0.206
-328.172	157.803	-0.176	0.242
-327.158	-200.000	-0.074	-0.526
-326.143	800.000	0.133	-0.515
-325.129	19.851	-0.114	0.092
-324.114	157.788	-0.110	0.151
-323.099	-92.880	0.157	-0.044
-322.085	-187.510	-0.345	-0.005
-321.070	-200.000	0.011	0.274
-320.056	274.909	0.102	-0.181
-319.041	323.098	-0.122	0.233
-318.026	800.000	-0.064	0.275
-317.012	372.260	0.064	0.129
-315.997	72.861	-0.188	0.195
-314.983	-67.898	0.036	-0.014
-313.968	800.000	-0.050	0.150
-312.953	-148.187	-0.033	0.003
-311.939	64.559	-0.081	-0.081
-310.924	-102.175	-0.091	0.022
-309.910	8.722	-0.293	0.220
-308.895	-40.624	-0.179	-0.092
-307.880	-97.266	-0.152	-0.039
-306.866	8.848	-0.431	-0.324
-305.851	-200.000	0.002	-0.072
-304.837	-200.000	0.004	0.069
-303.822	-46.427	0.108	-0.053
-302.807	5.618	0.100	0.074
-301.793	-25.585	-0.197	-0.116
-300.778	-107.952	-0.130	-0.028
-299.764	191.769	-0.047	0.070
-298.749	-200.000	0.034	0.170
-297.735	-200.000	-0.088	0.444
-296.720	-200.000	0.056	0.290
-295.705	-200.000	0.008	-0.115
-294.691	-200.000	-0.019	0.217
-293.676	127.067	0.165	0.208
-292.662	-83.117	0.233	0.075
-291.647	63.779	-0.188	0.187
-290.632	800.000	-0.042	-0.160
-289.618	-38.571	0.419	-0.220
-288.603	301.227	0.096	0.176
-287.589	94.281	-0.090	0.102
-286.574	125.349	-0.070	-0.088
-285.559	-200.000	0.012	-0.056
-284.545	313.134	-0.153	0.286
-283.530	-147.659	-0.118	0.010
-282.516	-200.000	-0.031	0.258
-281.501	165.005	0.222	0.312
-280.486	-32.708	0.423	0.234
-279.472	-11.926	-0.175	0.114
-278.457	-200.000	-0.054	0.358
-277.443	-136.823	0.138	0.016
-276.428	168.548	0.096	0.135
-275.413	-97.050	-0.094	0.024
-274.399	56.557	0.109	-0.105
-273.384	-153.537	-0.054	0.004
-272.370	46.571	0.087	-0.080
-271.355	10.232	0.348	-0.263
-270.340	800.000	0.070	0.221
-269.326	-100.699	0.097	-0.024
-268.311	-200.000	-0.035	-0.365
-267.297	-69.164	0.254	0.097
-266.282	800.000	-0.087	0.322
-265.267	576.367	0.055	0.134
-264.253	-200.000	-0.043	0.224
-263.238	-53.118	-0.221	0.101
-262.224	800.000	0.105	-0.447
-261.209	214.962	0.156	-0.246
-260.195	253.391	-0.208	-0.353
-259.180	-142.505	-0.265	-0.026
-258.165	-125.501	0.100	0.015
-257.151	-52.253	-0.268	0.123
-256.136	-152.961	-0.095	-0.007
-255.122	64.953	-0.189	-0.189
-254.107	-1.496	0.277	0.194
-253.092	24.538	-0.225	0.185
-252.078	-200.000	0.205	0.000
-251.063	-14.754	0.068	-0.043
-250.049	275.395	0.176	0.310
-249.034	-200.000	0.006	0.081
-248.019	115.219	-0.272	0.330
-247.005	-15.451	0.145	0.092
-245.990	-48.972	0.229	-0.109
-244.976	800.000	-0.112	0.332
-243.961	-104.188	-0.156	0.036
-242.946	35.930	-0.147	-0.128
-241.932	-200.000	-0.131	0.001
-240.917	62.298	-0.177	0.175
-239.903	-115.716	0.452	0.084
-238.888	-40.413	-0.147	0.076
-237.873	29.189	-0.253	0.213
-236.859	-200.000	-0.008	-0.323
-235.844	56.517	-0.090	-0.087
-234.830	-200.000	-0.009	0.402
-233.815	359.299	-0.036	-0.071
-232.800	70.914	-0.181	0.187
-231.786	800.000	0.018	-0.058
-230.771	-74.329	0.480	-0.172
-229.757	-127.103	-0.205	0.030
-228.742	800.000	-0.076	0.219
-227.727	346.188	-0.018	-0.034
-226.713	-200.000	-0.001	0.135
-225.698	328.521	-0.178	0.339
-224.684	-200.000	-0.026	-0.222
-223.669	-141.591	-0.082	0.008
-222.655	-50.481	0.225	-0.105
-221.640	-200.000	-0.080	0.000
-220.625	-117.440	-0.298	-0.054
-219.611	-200.000	-0.000	0.046
-218.596	-48.618	-0.301	-0.144
-217.582	240.761	-0.094	-0.156
-216.567	-136.842	-0.228	0.026
-215.552	-185.486	0.226	-0.003
-214.538	-34.495	-0.092	0.050
-213.523	-65.740	-0.157	0.062
-212.509	309.441	-0.194	-0.360
-211.494	-46.945	-0.067	0.032
-210.479	-200.000	-0.003	-0.104
-209.465	-170.050	-0.050	-0.002
-208.450	-41.002	0.061	0.031
-207.436	-95.722	0.298	0.079
-206.421	-103.797	-0.330	-0.077
-205.406	-200.000	-0.013	0.277
-204.392	-41.561	0.589	0.300
-203.377	19.083	-0.180	-0.143
-202.363	-200.000	0.023	0.332
-201.348	800.000	-0.033	0.115
-200.333	-17.969	-0.201	0.125
-199.319	-59.499	0.018	-0.008
-198.304	-165.208	0.132	-0.006
-197.290	-38.860	-0.137	0.071
-196.275	-42.287	-0.300	-0.152
-195.260	177.949	0.183	0.264
-194.246	-137.167	-0.406	0.046
-193.231	-97.501	0.217	0.056
-192.217	-30.975	0.137	-0.076
-191.202	-19.921	0.265	0.162
-190.187	800.000	0.086	0.368
-189.173	75.262	-0.162	0.170
-188.158	-200.000	0.113	0.000
-187.144	800.000	0.033	0.126
-186.129	800.000	0.049	-0.139
-185.114	-108.514	-0.175	0.037
-184.100	-100.408	-0.231	0.057
-183.085	9.376	0.237	0.178
-182.071	-27.604	-0.236	-0.136
-181.056	-200.000	-0.020	-0.268
-180.042	85.062	-0.125	0.135
-179.027	-52.660	-0.364	-0.166
-178.012	33.433	-0.159	-0.137
-176.998	312.130	0.215	0.399
-175.983	800.000	0.034	-0.111
-174.969	546.446	0.041	-0.097
-173.954	-200.000	-0.004	-0.117
-172.939	-166.767	0.145	-0.006
-171.925	149.111	-0.213	-0.286
-170.910	171.734	-0.159	-0.226
-169.896	55.314	0.298	0.285
-168.881	-200.000	0.039	0.284
-167.866	126.644	-0.157	-0.197
-166.852	57.781	0.179	0.173
-165.837	-22.901	0.387	-0.231
-164.823	72.967	0.378	0.391
-163.808	439.103	0.025	-0.055
-162.793	-130.681	0.271	-0.036
-161.779	-67.335	0.282	-0.110
-160.764	-109.105	-0.258	-0.054
-159.750	625.677	0.056	0.139
-158.735	-200.000	0.029	-0.226
-157.720	-62.066	-0.065	0.027
-156.706	559.185	0.038	0.092
-155.691	-200.000	0.003	-0.064
-154.677	-200.000	-0.007	-0.038
-153.662	-85.860	0.230	-0.070
-152.647	-200.000	0.025	-0.212
-151.633	-200.000	0.040	0.366
-150.618	800.000	0.065	0.194
-149.604	-82.932	-0.099	-0.032
-148.589	800.000	-0.049	-0.143
-147.574	-200.000	0.024	-0.122
-146.560	146.687	-0.090	0.120
-145.545	-200.000	0.012	0.084
-144.531	-200.000	0.009	-0.112
-143.516	-61.471	0.047	-0.020
-142.502	213.797	0.144	0.226
-141.487	-59.917	0.113	-0.048
-140.472	-83.650	0.182	-0.058
-139.458	-200.000	-0.038	-0.341
-138.443	-5.260	0.124	0.084
-137.429	-136.782	0.229	-0.026
-136.414	800.000	-0.098	-0.284
-135.399	189.991	0.114	-0.170
-134.385	-200.000	-0.023	-0.233
-133.370	218.022	-0.121	0.190
-132.356	-200.000	0.026	0.198
-131.341	-200.000	0.000	0.246
-130.326	82.570	0.087	0.093
-129.312	800.000	0.072	-0.283
-128.297	-200.000	0.037	-0.185
-127.283	3.453	-0.017	0.012
-126.268	-11.172	0.289	-0.189
-125.253	-67.608	0.254	0.098
-124.239	-59.120	0.393	0.167
-123.224	331.873	-0.119	-0.228
-122.210	24.739	0.269	0.221
