DTS Sentinel unit serial number:	SN413079Multiplexer serial number:	ORYXHardware model number:	OX4-SRSoftware version number:	ORYX F/W v4.00 Oryx Data Collector v3.7.2.0data status	okinstallation	princeton_trtdifferential loss correction	single-endedforward channel	channel 3reverse channel	N/Adate	2019/09/15time	20:40:35forward acquisition time	60.00reverse acquisition time	0.00gamma	496.2192k internal	0.2325k external	0.2325temperature offset calibration	0.9940default loss term (dB/km)	0.3790temperature slope calibration	1.0000multiplexer offset coefficient	1.0000multiplexer slope coefficient	1.0000fibre end	0.00T internal ref (°C)	32.83T ext. ref 1 (°C)	7.90T ext. ref 2 (°C)	24.60length (m)	temperature (°C)	Stokes	anti-Stokes-747.200	67.567	-0.144	-0.149
-746.185	-200.000	0.020	-0.251
-745.171	-119.049	0.242	0.043
-744.156	776.428	0.052	0.144
-743.142	-56.801	0.240	0.107
-742.127	780.207	0.029	0.081
-741.112	-165.292	0.250	-0.011
-740.098	-65.628	0.350	0.142
-739.083	43.028	0.098	-0.091
-738.069	800.000	-0.053	-0.204
-737.054	-118.656	0.160	-0.028
-736.039	16.703	-0.070	0.056
-735.025	593.575	0.145	0.362
-734.010	278.142	-0.195	-0.350
-732.996	800.000	-0.064	0.180
-731.981	-200.000	-0.009	-0.175
-730.966	-70.238	-0.148	0.057
-729.952	800.000	-0.137	-0.537
-728.937	-190.469	-0.394	0.004
-727.923	-4.418	0.138	-0.096
-726.908	800.000	-0.076	-0.248
-725.894	800.000	-0.011	0.049
-724.879	-200.000	-0.013	-0.097
-723.864	-33.111	-0.288	-0.161
-722.850	-79.761	0.180	0.061
-721.835	-200.000	0.003	-0.031
-720.821	595.762	0.044	-0.109
-719.806	397.268	-0.154	-0.324
-718.791	-42.695	0.311	-0.160
-717.777	-200.000	-0.048	0.354
-716.762	-81.121	0.226	-0.075
-715.748	314.561	0.125	-0.238
-714.733	1.344	0.296	-0.215
-713.718	-50.975	-0.165	-0.078
-712.704	-100.711	0.207	0.051
-711.689	-139.753	-0.349	-0.037
-710.675	-75.514	0.058	0.021
-709.660	-200.000	-0.012	-0.287
-708.645	-110.441	-0.245	-0.051
-707.631	55.508	-0.130	-0.127
-706.616	58.583	0.096	-0.095
-705.602	800.000	-0.047	0.180
-704.587	61.271	-0.139	0.139
-703.572	-179.416	-0.241	-0.005
-702.558	800.000	-0.055	-0.178
-701.543	-12.156	-0.197	-0.130
-700.529	800.000	-0.087	0.309
-699.514	-57.450	-0.267	0.118
-698.499	83.932	0.039	-0.043
-697.485	-137.307	0.376	-0.043
-696.470	-194.366	0.166	0.001
-695.456	-108.831	-0.157	-0.034
-694.441	-120.432	0.182	-0.031
-693.426	-200.000	0.006	0.049
-692.412	437.203	-0.106	-0.232
-691.397	-200.000	-0.006	-0.062
-690.383	14.119	0.239	-0.188
-689.368	113.376	0.087	-0.106
-688.354	-200.000	-0.004	0.120
-687.339	790.515	0.044	0.122
-686.324	306.995	0.162	-0.303
-685.310	-138.911	-0.211	0.023
-684.295	646.687	0.012	0.031
-683.281	800.000	-0.125	-0.516
-682.266	33.340	0.228	-0.199
-681.251	-42.442	-0.287	0.147
-680.237	538.934	0.198	-0.474
-679.222	531.601	0.042	-0.099
-678.208	-200.000	0.054	-0.366
-677.193	800.000	0.039	-0.147
-676.178	4.914	0.195	0.144
-675.164	800.000	0.154	-0.491
-674.149	-156.940	0.363	0.022
-673.135	-163.713	0.031	0.001
-672.120	-196.750	-0.136	0.001
-671.105	-200.000	-0.037	-0.342
-670.091	208.498	0.173	0.272
-669.076	-17.032	0.418	0.265
-668.062	59.675	0.395	0.392
-667.047	-51.757	-0.212	-0.099
-666.032	54.366	-0.072	-0.070
-665.018	369.740	-0.128	-0.261
-664.003	363.858	-0.231	0.466
-662.989	126.726	-0.169	0.215
-661.974	138.210	-0.201	0.265
-660.959	217.599	0.040	0.064
-659.945	4.486	0.109	-0.081
-658.930	7.687	-0.300	0.226
-657.916	-25.870	-0.046	0.027
-656.901	93.670	0.168	0.191
-655.886	424.018	0.123	-0.267
-654.872	-46.761	-0.468	0.230
-653.857	54.861	-0.212	-0.206
-652.843	-154.933	0.170	-0.011
-651.828	-200.000	-0.036	-0.161
-650.814	-58.235	-0.285	0.125
-649.799	-51.893	0.226	0.106
-648.784	170.369	-0.071	0.102
-647.770	34.188	0.266	0.233
-646.755	-200.000	-0.029	-0.177
-645.741	301.693	-0.044	-0.082
-644.726	-200.000	0.047	0.411
-643.711	-87.415	0.173	-0.053
-642.697	-200.000	-0.011	-0.139
-641.682	-54.309	0.345	-0.157
-640.668	800.000	0.021	-0.087
-639.653	21.744	-0.225	0.184
-638.638	-58.900	-0.038	0.016
-637.624	-62.538	-0.315	-0.132
-636.609	-18.477	0.139	0.087
-635.595	-200.000	-0.020	-0.214
-634.580	8.748	0.096	0.073
-633.565	35.237	-0.125	-0.110
-632.551	-200.000	0.003	0.020
-631.536	171.403	-0.103	0.149
-630.522	-52.718	0.392	0.182
-629.507	308.553	-0.184	0.344
-628.492	-200.000	-0.002	-0.010
-627.478	-0.053	0.224	0.160
-626.463	-132.926	-0.211	-0.027
-625.449	5.633	-0.140	-0.104
-624.434	-176.589	0.121	-0.003
-623.419	-200.000	0.007	-0.086
-622.405	-128.698	0.265	-0.038
-621.390	209.169	0.071	-0.112
-620.376	438.743	0.114	0.250
-619.361	55.198	-0.132	0.128
-618.346	244.818	-0.073	-0.123
-617.332	118.230	0.051	0.063
-616.317	800.000	0.027	0.105
-615.303	415.716	0.174	-0.373
-614.288	794.425	-0.074	0.204
-613.273	611.933	0.140	0.351
-612.259	-65.216	0.365	0.148
-611.244	218.046	0.189	0.302
-610.230	-65.432	-0.155	0.062
-609.215	351.256	0.130	0.259
-608.201	-3.387	0.168	-0.117
-607.186	-200.000	-0.006	-0.414
-606.171	-149.626	0.094	-0.007
-605.157	203.072	-0.157	-0.244
-604.142	-200.000	0.007	-0.250
-603.128	-119.828	0.167	0.029
-602.113	227.228	-0.142	-0.232
-601.098	-200.000	0.052	0.378
-600.084	80.784	0.272	-0.295
-599.069	-143.876	-0.583	-0.055
-598.055	-133.364	-0.092	-0.012
-597.040	-200.000	0.049	0.325
-596.025	-19.673	-0.351	-0.218
-595.011	267.775	-0.111	-0.195
-593.996	218.687	0.309	0.495
-592.982	49.708	-0.038	0.036
-591.967	-83.936	-0.058	0.018
-590.952	800.000	-0.109	-0.423
-589.938	800.000	0.053	-0.213
-588.923	-113.988	-0.094	-0.018
-587.909	-109.996	-0.256	-0.054
-586.894	-2.265	-0.283	-0.199
-585.879	48.728	-0.220	0.207
-584.865	263.173	0.146	0.255
-583.850	-45.697	-0.207	-0.102
-582.836	-200.000	0.007	-0.047
-581.821	138.685	0.158	0.207
-580.806	203.639	-0.177	0.274
-579.792	-200.000	0.018	0.126
-578.777	291.505	-0.159	-0.290
-577.763	-15.946	-0.164	0.105
-576.748	314.370	0.053	-0.099
-575.733	655.602	-0.092	-0.237
-574.719	-66.225	0.160	-0.064
-573.704	71.138	0.165	0.171
-572.690	526.899	0.156	-0.369
-571.675	-200.000	0.021	0.097
-570.661	-200.000	0.048	-0.313
-569.646	-82.809	-0.060	-0.020
-568.631	97.508	0.211	-0.243
-567.617	61.929	-0.059	-0.059
-566.602	456.414	0.105	0.234
-565.588	-200.000	-0.039	0.430
-564.573	-50.051	0.083	-0.039
-563.558	189.919	-0.073	0.109
-562.544	-84.282	0.423	0.134
-561.529	-200.000	0.045	-0.249
-560.515	575.009	-0.204	-0.500
-559.500	-119.437	-0.202	0.035
-558.485	-168.596	-0.109	-0.004
-557.471	350.039	0.057	-0.114
-556.456	-29.828	0.115	0.066
-555.442	-67.435	0.173	0.068
-554.427	141.901	-0.176	0.234
-553.412	526.831	0.018	0.043
-552.398	-118.847	-0.249	0.044
-551.383	-117.107	-0.102	0.019
-550.369	67.076	-0.230	-0.234
-549.354	800.000	0.056	0.229
-548.339	-45.965	-0.132	0.065
-547.325	-200.000	-0.026	0.152
-546.310	126.512	-0.029	0.037
-545.296	800.000	0.032	-0.122
-544.281	2.937	0.437	0.318
-543.266	21.371	-0.067	0.055
-542.252	408.274	-0.082	-0.173
-541.237	-200.000	0.033	-0.193
-540.223	-200.000	-0.027	-0.286
-539.208	6.510	0.170	-0.127
-538.193	800.000	-0.125	-0.465
-537.179	85.626	0.222	-0.244
-536.164	-68.335	-0.018	0.007
-535.150	343.048	-0.067	-0.132
-534.135	-149.726	0.413	-0.032
-533.121	139.398	0.069	0.091
-532.106	800.000	0.035	0.139
-531.091	262.309	-0.030	0.053
-530.077	-200.000	-0.004	0.321
-529.062	-135.405	0.274	0.033
-528.048	731.058	-0.037	-0.099
-527.033	11.903	-0.164	-0.126
-526.018	-84.265	-0.154	-0.049
-525.004	-21.761	-0.158	0.096
-523.989	-16.323	-0.243	-0.155
-522.975	418.186	-0.061	-0.130
-521.960	-13.263	0.068	0.044
-520.945	88.819	-0.139	-0.154
-519.931	390.737	-0.094	-0.195
-518.916	621.460	0.061	-0.153
-517.902	-16.736	0.163	0.103
-516.887	23.274	-0.166	0.136
-515.872	34.651	0.165	0.144
-514.858	-62.553	-0.293	-0.122
-513.843	70.189	-0.099	-0.102
-512.829	-100.646	-0.400	0.099
-511.814	528.431	-0.090	-0.213
-510.799	-108.268	0.323	0.070
-509.785	-200.000	0.022	0.209
-508.770	220.496	-0.071	0.114
-507.756	-52.957	0.421	0.194
-506.741	1.987	-0.291	0.210
-505.726	-28.701	0.310	-0.178
-504.712	-26.472	0.151	-0.088
-503.697	186.523	-0.022	-0.032
-502.683	122.423	-0.136	-0.170
-501.668	-113.149	-0.275	-0.054
-500.653	800.000	0.054	0.212
-499.639	800.000	0.100	-0.289
-498.624	149.120	-0.147	0.198
-497.610	10.405	-0.205	-0.156
-496.595	-200.000	0.014	-0.331
-495.581	-124.434	-0.093	0.015
-494.566	-37.886	-0.248	-0.132
-493.551	-200.000	-0.045	0.284
-492.537	-88.014	0.294	-0.088
-491.522	-118.851	0.476	-0.084
-490.508	-200.000	0.037	-0.350
-489.493	-200.000	-0.033	0.152
-488.478	-200.000	-0.454	0.002
-487.464	204.685	-0.166	0.258
-486.449	-39.514	-0.364	-0.190
-485.435	-39.028	0.364	-0.192
-484.420	122.318	0.150	-0.188
-483.405	-25.033	-0.200	0.118
-482.391	-78.200	-0.295	-0.101
-481.376	42.507	-0.023	-0.021
-480.362	52.033	-0.118	-0.112
-479.347	-125.426	-0.195	-0.030
-478.332	23.496	0.071	0.058
-477.318	230.814	-0.129	0.212
-476.303	800.000	-0.043	0.125
-475.289	800.000	0.049	0.188
-474.274	-200.000	0.047	0.247
-473.259	-7.925	0.138	0.093
-472.245	101.265	-0.056	0.065
-471.230	30.755	-0.180	-0.154
-470.216	-18.669	0.257	-0.160
-469.201	-200.000	-0.006	0.190
-468.186	-58.089	-0.442	0.192
-467.172	-200.000	-0.047	0.417
-466.157	-3.386	-0.202	-0.141
-465.143	6.975	-0.028	-0.021
-464.128	-46.070	-0.329	-0.162
-463.113	-31.756	-0.202	-0.113
-462.099	800.000	-0.068	0.216
-461.084	800.000	0.050	-0.178
-460.070	35.653	0.371	0.325
-459.055	26.349	-0.351	-0.293
-458.040	124.962	-0.122	0.153
-457.026	800.000	-0.149	-0.545
-456.011	-180.203	0.134	0.003
-454.997	-61.239	-0.303	0.127
-453.982	-200.000	-0.027	-0.248
-452.968	-200.000	-0.014	-0.106
-451.953	-103.471	-0.147	0.034
-450.938	360.694	0.190	0.380
-449.924	474.637	-0.089	0.201
-448.909	-109.722	0.071	-0.015
-447.895	-8.485	-0.478	0.320
-446.880	493.620	-0.098	0.225
-445.865	-136.596	0.330	-0.038
-444.851	-200.000	-0.005	0.065
-443.836	-48.011	0.248	-0.120
-442.822	800.000	-0.038	0.157
-441.807	-86.956	0.082	-0.025
-440.792	124.769	-0.143	-0.180
-439.778	191.130	-0.069	-0.104
-438.763	322.057	-0.020	0.039
-437.749	-70.655	-0.390	0.147
-436.734	-181.689	-0.223	-0.004
-435.719	-137.539	-0.277	-0.031
-434.705	173.530	0.262	-0.376
-433.690	-139.279	-0.366	0.039
-432.676	-46.457	-0.030	-0.015
-431.661	-49.136	0.208	-0.099
-430.646	-52.315	0.052	0.024
-429.632	800.000	0.046	-0.196
-428.617	73.083	0.373	-0.389
-427.603	-67.135	-0.249	0.098
-426.588	76.194	0.108	-0.114
-425.573	123.924	-0.088	0.110
-424.559	-16.016	-0.167	-0.106
-423.544	-200.000	0.035	0.354
-422.530	-42.959	-0.296	-0.150
-421.515	27.348	0.097	0.081
-420.500	66.836	-0.143	-0.145
-419.486	-34.075	-0.305	0.167
-418.471	-102.019	-0.228	0.055
-417.457	21.108	0.198	0.160
-416.442	800.000	0.034	0.114
-415.428	-200.000	0.021	-0.240
-414.413	-200.000	-0.021	0.193
-413.398	229.105	-0.148	-0.240
-412.384	141.920	0.218	-0.287
-411.369	-51.295	-0.352	-0.164
-410.355	102.675	0.203	0.236
-409.340	44.939	0.115	-0.106
-408.325	-65.580	-0.269	0.107
-407.311	-200.000	-0.018	0.164
-406.296	-162.333	-0.291	0.014
-405.282	-200.000	-0.028	0.172
-404.267	-200.000	-0.002	-0.031
-403.252	800.000	0.033	0.139
-402.238	0.824	0.070	0.050
-401.223	-90.556	0.200	0.058
-400.209	160.195	-0.282	-0.392
-399.194	179.899	0.087	0.127
-398.179	129.635	0.251	0.319
-397.165	-123.012	0.256	0.041
-396.150	800.000	-0.039	0.141
-395.136	-6.340	0.132	-0.090
-394.121	-78.481	-0.192	0.065
-393.106	-200.000	-0.033	0.193
-392.092	-92.768	-0.211	-0.059
-391.077	60.529	-0.088	0.087
-390.063	-93.022	-0.425	0.118
-389.048	226.922	0.024	-0.039
-388.033	-21.213	0.393	0.239
-387.019	-101.948	-0.021	0.005
-386.004	185.349	-0.121	0.178
-384.990	59.410	0.034	-0.033
-383.975	-57.048	0.131	-0.057
-382.960	-143.310	0.361	0.034
-381.946	-200.000	0.049	-0.000
-380.931	-200.000	0.066	0.414
-379.917	14.777	0.253	-0.197
-378.902	-95.172	-0.432	-0.116
-377.888	72.499	-0.051	-0.053
-376.873	-25.189	-0.304	-0.179
-375.858	-117.221	0.291	0.053
-374.844	-183.074	0.050	-0.001
-373.829	291.607	-0.148	-0.269
-372.815	-95.215	-0.143	0.038
-371.800	-133.247	0.281	-0.035
-370.785	461.156	-0.163	-0.361
-369.771	-60.582	-0.169	-0.071
-368.756	33.223	-0.169	-0.146
-367.742	595.097	0.109	-0.268
-366.727	-113.389	-0.341	0.066
-365.712	-176.571	0.076	0.002
-364.698	270.951	0.105	0.185
-363.683	73.165	-0.048	-0.050
-362.669	45.020	-0.344	0.315
-361.654	-113.966	0.105	-0.020
-360.639	22.463	0.125	-0.101
-359.625	193.080	-0.090	0.136
-358.610	26.177	-0.150	-0.124
-357.596	619.028	-0.032	0.080
-356.581	800.000	0.130	-0.407
-355.566	-74.134	-0.401	-0.144
-354.552	137.447	0.078	-0.101
-353.537	-54.989	-0.199	0.089
-352.523	-16.824	0.310	-0.195
-351.508	158.819	-0.065	0.090
-350.493	34.152	0.215	-0.187
-349.479	305.841	-0.037	0.069
-348.464	-34.562	0.178	0.097
-347.450	-200.000	0.083	0.456
-346.435	-162.226	0.287	0.014
-345.420	-28.072	-0.117	-0.067
-344.406	-200.000	0.002	0.015
-343.391	731.563	0.070	0.186
-342.377	387.122	0.107	0.220
-341.362	-100.003	0.393	0.097
-340.348	87.425	0.203	-0.223
-339.333	-200.000	0.016	-0.269
-338.318	-68.670	-0.334	0.128
-337.304	800.000	-0.102	-0.321
-336.289	-74.840	-0.353	0.126
-335.275	-42.059	0.243	-0.124
-334.260	-130.457	0.221	0.030
-333.245	45.308	-0.079	0.073
-332.231	-36.488	0.345	0.184
-331.216	-142.050	-0.125	0.012
-330.202	-200.000	-0.008	0.264
-329.187	-180.156	-0.155	-0.003
-328.172	800.000	-0.119	-0.368
-327.158	11.340	-0.272	0.207
-326.143	505.479	-0.070	-0.161
-325.129	39.455	0.106	0.094
-324.114	-30.006	0.251	0.142
-323.099	-89.976	0.407	0.118
-322.085	800.000	-0.172	0.537
-321.070	-129.448	0.216	0.030
-320.056	12.939	-0.120	-0.092
-319.041	136.821	0.100	-0.129
-318.026	200.641	0.190	-0.289
-317.012	173.925	0.264	0.378
-315.997	-200.000	0.058	0.439
-314.983	97.041	-0.077	0.088
-313.968	-200.000	-0.045	0.272
-312.953	-90.385	0.192	0.055
-311.939	44.098	0.158	-0.144
-310.924	141.770	-0.122	0.160
-309.910	-154.507	-0.110	-0.007
-308.895	-109.140	0.113	0.024
-307.880	-184.532	0.240	0.004
-306.866	-67.306	-0.182	-0.071
-305.851	-82.070	-0.055	0.018
-304.837	75.371	0.182	-0.190
-303.822	-72.331	-0.109	0.040
-302.807	228.175	0.099	-0.160
-301.793	-13.610	0.323	0.208
-300.778	249.016	0.060	-0.101
-299.764	-200.000	-0.025	-0.156
-298.749	800.000	-0.140	-0.511
-297.735	132.555	-0.136	-0.174
-296.720	343.329	-0.132	-0.257
-295.705	-200.000	-0.013	-0.236
-294.691	-85.509	0.031	0.010
-293.676	162.714	0.084	0.116
-292.662	201.937	-0.046	-0.070
-291.647	-113.470	0.110	-0.021
-290.632	-200.000	0.022	0.291
-289.618	-73.688	-0.184	-0.066
-288.603	-114.289	-0.331	-0.063
-287.589	-200.000	-0.018	0.134
-286.574	306.285	0.109	-0.200
-285.559	-200.000	0.017	-0.166
-284.545	800.000	-0.077	-0.211
-283.530	92.838	0.171	0.192
-282.516	-167.716	0.204	-0.008
-281.501	-200.000	-0.022	0.277
-280.486	-4.813	0.118	0.081
-279.472	-150.689	0.320	0.024
-278.457	205.036	0.128	0.196
-277.443	489.218	0.023	0.052
-276.428	-126.572	0.146	0.022
-275.413	630.180	0.081	0.202
-274.399	-200.000	0.021	-0.109
-273.384	-3.094	0.182	-0.126
-272.370	717.490	0.027	0.071
-271.355	800.000	0.049	-0.146
-270.340	37.363	-0.152	0.133
-269.326	-177.578	0.375	-0.009
-268.311	143.924	0.204	-0.270
-267.297	-200.000	0.011	0.090
-266.282	-106.750	0.084	-0.019
-265.267	-200.000	-0.006	-0.164
-264.253	89.037	0.101	-0.112
-263.238	106.261	0.075	0.088
-262.224	615.905	-0.044	0.110
-261.209	-200.000	-0.011	-0.347
-260.195	800.000	-0.192	-0.603
-259.180	42.504	0.252	-0.227
-258.165	-10.560	0.060	0.039
-257.151	-23.583	0.281	0.167
-256.136	-200.000	-0.000	-0.066
-255.122	74.091	0.223	0.231
-254.107	-200.000	0.009	0.193
-253.092	-0.830	0.209	-0.147
-252.078	-200.000	0.015	0.124
-251.063	-187.182	-0.308	0.004
-250.049	-200.000	0.027	-0.195
-249.034	-77.815	0.124	-0.043
-248.019	-56.412	0.182	-0.080
-247.005	56.231	0.166	0.160
-245.990	11.315	-0.241	0.183
-244.976	-200.000	-0.052	0.370
-243.961	-68.086	0.252	0.097
-242.946	800.000	-0.045	0.151
-241.932	49.769	0.063	0.059
-240.917	-192.304	0.142	-0.001
-239.903	-135.193	0.125	-0.015
-238.888	-21.761	-0.212	-0.128
-237.873	-117.717	0.230	0.041
-236.859	441.116	0.085	-0.184
-235.844	800.000	0.076	0.212
-234.830	-200.000	0.003	0.316
-233.815	669.004	-0.179	0.459
-232.800	165.530	0.159	0.223
-231.786	-151.057	-0.050	0.004
-230.771	533.009	0.168	-0.393
-229.757	-159.932	-0.153	-0.008
-228.742	-107.480	-0.066	0.014
-227.727	-153.039	-0.567	-0.039
-226.713	136.479	0.094	-0.121
-225.698	-200.000	-0.000	0.014
-224.684	596.290	0.082	-0.201
-223.669	-117.352	-0.148	0.027
-222.655	133.049	-0.148	-0.189
-221.640	130.003	-0.155	-0.197
-220.625	-79.112	0.215	-0.072
-219.611	-118.478	0.066	-0.012
-218.596	-44.894	0.074	0.037
-217.582	-200.000	-0.037	0.161
-216.567	-149.791	0.048	0.004
-215.552	800.000	0.129	0.391
-214.538	136.819	0.229	-0.296
-213.523	-200.000	0.011	-0.047
-212.509	332.538	-0.037	-0.071
-211.494	-120.704	0.427	0.071
-210.479	-200.000	-0.019	0.156
-209.465	64.322	-0.248	-0.247
-208.450	-15.933	0.365	-0.230
-207.436	61.506	0.129	-0.127
-206.421	-200.000	-0.032	0.000
-205.406	-115.962	-0.227	0.042
-204.392	392.227	0.114	0.234
-203.377	108.497	0.056	0.066
-202.363	194.442	0.081	-0.121
-201.348	-54.977	0.122	-0.054
-200.333	-200.000	-0.012	0.160
-199.319	-200.000	0.002	0.054
-198.304	800.000	-0.048	-0.198
-197.290	-186.314	0.105	0.001
-196.275	-85.135	-0.284	-0.088
-195.260	33.917	-0.094	-0.081
-194.246	-53.720	-0.155	-0.070
-193.231	-16.693	0.221	-0.138
-192.217	-67.402	0.231	0.089
-191.202	800.000	-0.056	-0.154
-190.187	-120.148	0.161	-0.027
-189.173	-170.235	0.209	0.007
-188.158	-55.721	-0.209	0.092
-187.144	104.016	-0.226	0.262
-186.129	800.000	-0.072	0.251
-185.114	353.444	-0.066	0.129
-184.100	-200.000	0.000	-0.697
-183.085	-200.000	0.067	0.383
-182.071	-200.000	-0.036	0.463
-181.056	260.432	0.157	0.269
-180.042	800.000	-0.062	0.236
-179.027	-117.063	-0.312	-0.056
-178.012	10.420	-0.056	-0.042
-176.998	-57.264	-0.053	-0.023
-175.983	-177.679	0.484	0.012
-174.969	-7.741	0.309	-0.206
-173.954	-56.954	-0.434	-0.189
-172.939	255.607	0.086	-0.145
-171.925	39.383	-0.224	0.198
-170.910	-25.147	-0.094	0.055
-169.896	-84.645	-0.256	0.080
-168.881	-71.733	-0.077	-0.028
-167.866	-50.386	0.156	-0.073
-166.852	73.449	0.082	-0.084
-165.837	800.000	-0.055	-0.222
-164.823	800.000	-0.037	0.124
-163.808	223.521	0.068	0.108
-162.793	172.567	-0.281	0.399
-161.779	5.919	0.318	-0.233
-160.764	800.000	-0.132	0.541
-159.750	23.495	0.117	-0.095
-158.735	-200.000	-0.069	0.431
-157.720	534.382	-0.115	-0.269
-156.706	-195.271	0.199	-0.001
-155.691	257.675	-0.202	-0.343
-154.677	-0.200	0.256	-0.179
-153.662	800.000	-0.091	-0.318
-152.647	-128.398	0.195	-0.027
-151.633	-127.166	-0.170	0.024
-150.618	305.042	0.029	0.053
-149.604	-200.000	0.067	0.439
-148.589	-200.000	0.020	-0.349
-147.574	-57.549	0.182	0.079
-146.560	-93.448	0.114	0.031
-145.545	-157.456	0.133	-0.008
-144.531	-200.000	-0.046	0.282
-143.516	289.389	-0.135	0.241
-142.502	-157.668	0.255	-0.015
-141.487	482.440	-0.061	-0.137
-140.472	-136.849	-0.210	0.024
-139.458	33.683	-0.259	-0.222
-138.443	800.000	0.090	0.297
-137.429	548.132	0.060	-0.141
-136.414	1.913	-0.029	0.021
-135.399	79.039	0.066	0.070
-134.385	-200.000	0.021	-0.372
-133.370	-200.000	0.022	-0.125
-132.356	191.399	0.156	-0.231
-131.341	-188.360	-0.359	0.004
-130.326	173.978	-0.228	0.324
-129.312	139.069	-0.115	-0.149
-128.297	-174.018	-0.600	0.017
-127.283	258.022	-0.142	-0.241
-126.268	44.696	-0.085	-0.077
-125.253	-157.245	-0.263	-0.016
-124.239	274.110	-0.066	-0.115
-123.224	800.000	0.057	-0.195
-122.210	-200.000	0.021	0.102
