DTS Sentinel unit serial number:	SN413079Multiplexer serial number:	ORYXHardware model number:	OX4-SRSoftware version number:	ORYX F/W v4.00 Oryx Data Collector v3.7.2.0data status	okinstallation	princeton_trtdifferential loss correction	single-endedforward channel	channel 3reverse channel	N/Adate	2019/09/12time	08:30:11forward acquisition time	60.00reverse acquisition time	0.00gamma	496.2192k internal	0.2311k external	0.2311temperature offset calibration	1.0036default loss term (dB/km)	0.3790temperature slope calibration	1.0000multiplexer offset coefficient	1.0000multiplexer slope coefficient	1.0000fibre end	0.00T internal ref (°C)	33.64T ext. ref 1 (°C)	1.71T ext. ref 2 (°C)	29.73length (m)	temperature (°C)	Stokes	anti-Stokes-747.200	-75.517	-0.140	-0.051
-746.185	-200.000	0.084	0.496
-745.171	-99.653	0.540	-0.138
-744.156	-200.000	-0.006	-0.054
-743.142	-119.722	-0.302	0.053
-742.127	-200.000	-0.026	0.228
-741.112	205.558	0.122	0.193
-740.098	-104.630	0.178	-0.042
-739.083	103.149	-0.296	0.353
-738.069	-200.000	-0.003	0.048
-737.054	-88.255	0.058	-0.018
-736.039	48.334	0.185	-0.176
-735.025	-200.000	0.019	0.135
-734.010	-200.000	0.039	-0.314
-732.996	12.003	-0.174	0.136
-731.981	251.048	0.050	-0.086
-730.966	214.179	-0.089	-0.142
-729.952	19.260	0.140	-0.114
-728.937	350.518	-0.186	-0.373
-727.923	-200.000	-0.062	0.452
-726.908	-200.000	-0.027	0.170
-725.894	61.917	0.116	0.117
-724.879	632.124	0.162	-0.415
-723.864	288.945	0.091	-0.167
-722.850	688.782	0.133	0.352
-721.835	-200.000	-0.013	-0.085
-720.821	157.683	-0.192	-0.270
-719.806	169.725	-0.284	0.411
-718.791	13.721	-0.249	0.196
-717.777	77.552	0.131	-0.142
-716.762	35.974	-0.126	0.112
-715.748	9.571	0.158	0.122
-714.733	47.337	0.112	-0.105
-713.718	149.322	-0.080	-0.110
-712.704	93.473	-0.109	-0.126
-711.689	170.858	-0.169	-0.245
-710.675	-110.487	-0.123	0.026
-709.660	-30.975	0.031	-0.018
-708.645	-60.707	0.024	-0.010
-707.631	800.000	-0.065	-0.258
-706.616	-137.703	-0.090	0.010
-705.602	269.624	-0.192	-0.342
-704.587	405.962	-0.040	-0.086
-703.572	-123.357	0.289	-0.047
-702.558	-93.762	-0.418	0.117
-701.543	-188.570	0.236	-0.003
-700.529	800.000	-0.044	-0.140
-699.514	-159.507	-0.174	-0.010
-698.499	800.000	-0.040	0.174
-697.485	253.337	-0.125	0.216
-696.470	164.241	0.124	-0.177
-695.456	-200.000	-0.004	-0.053
-694.441	234.404	0.074	0.123
-693.426	-50.900	0.247	-0.117
-692.412	156.971	-0.148	-0.207
-691.397	-113.662	-0.379	0.075
-690.383	343.520	-0.095	0.188
-689.368	-200.000	0.046	-0.204
-688.354	-106.696	-0.236	-0.053
-687.339	-200.000	-0.000	0.205
-686.324	66.289	-0.262	0.270
-685.310	366.076	-0.086	-0.175
-684.295	-149.006	-0.077	-0.006
-683.281	-1.543	-0.330	-0.235
-682.266	-111.758	-0.373	-0.076
-681.251	211.724	-0.016	0.026
-680.237	126.033	0.123	-0.158
-679.222	251.213	0.027	0.046
-678.208	274.507	-0.155	-0.278
-677.193	349.348	-0.117	0.234
-676.178	-180.703	-0.021	0.000
-675.164	87.073	-0.106	-0.118
-674.149	-109.270	0.104	0.022
-673.135	-19.127	-0.233	-0.146
-672.120	-200.000	-0.005	-0.297
-671.105	686.414	0.058	-0.152
-670.091	469.911	0.032	0.072
-669.076	27.234	0.358	-0.304
-668.062	800.000	0.036	0.133
-667.047	-200.000	0.027	-0.135
-666.032	-4.058	-0.129	-0.091
-665.018	-38.284	-0.314	-0.168
-664.003	44.247	0.108	0.100
-662.989	-33.105	-0.193	0.108
-661.974	-90.007	0.097	-0.028
-660.959	-129.800	-0.236	-0.033
-659.945	351.246	0.023	0.045
-658.930	-58.271	0.121	0.053
-657.916	125.152	0.173	0.220
-656.901	800.000	0.042	-0.134
-655.886	-3.235	0.166	0.117
-654.872	-200.000	-0.003	0.100
-653.857	665.291	-0.050	-0.131
-652.843	84.683	0.180	-0.199
-651.828	-126.136	0.140	0.021
-650.814	-20.116	-0.479	-0.299
-649.799	-15.063	-0.071	0.046
-648.784	-191.945	-0.105	-0.001
-647.770	-200.000	0.051	-0.389
-646.755	271.167	-0.051	0.091
-645.741	-200.000	0.016	-0.336
-644.726	-19.339	0.058	-0.036
-643.711	-200.000	-0.086	-0.430
-642.697	-63.375	-0.165	0.069
-641.682	-200.000	0.018	-0.283
-640.668	-27.514	0.257	0.151
-639.653	64.482	-0.062	-0.063
-638.638	-51.000	0.101	0.048
-637.624	283.885	-0.064	0.116
-636.609	363.709	-0.038	-0.077
-635.595	32.794	0.193	0.169
-634.580	-200.000	-0.046	0.214
-633.565	23.644	-0.188	0.157
-632.551	-200.000	-0.011	0.199
-631.536	-89.613	-0.122	0.036
-630.522	551.666	-0.042	0.102
-629.507	80.960	0.066	0.072
-628.492	446.542	-0.083	-0.184
-627.478	496.928	0.165	0.383
-626.463	20.874	-0.179	0.146
-625.449	78.967	0.022	0.024
-624.434	113.209	-0.126	-0.154
-623.419	800.000	0.109	-0.319
-622.405	794.749	-0.068	0.189
-621.390	-20.448	-0.195	-0.121
-620.376	-200.000	-0.035	-0.217
-619.361	427.380	-0.124	0.271
-618.346	325.179	0.061	-0.118
-617.332	312.405	-0.122	-0.232
-616.317	-31.132	0.104	0.059
-615.303	-103.049	-0.132	-0.032
-614.288	-70.925	0.167	-0.064
-613.273	-136.045	0.184	0.022
-612.259	-113.390	0.076	-0.015
-611.244	-200.000	0.006	-0.273
-610.230	-98.580	-0.362	0.093
-609.215	-139.621	-0.251	0.027
-608.201	-200.000	0.029	-0.141
-607.186	-106.694	-0.182	0.041
-606.171	19.083	0.121	0.098
-605.157	172.882	0.046	0.067
-604.142	-74.244	-0.109	-0.040
-603.128	800.000	0.056	-0.199
-602.113	52.117	-0.342	-0.329
-601.098	-159.687	0.229	0.013
-600.084	27.124	0.185	0.157
-599.069	-67.183	-0.133	-0.053
-598.055	48.760	0.213	0.202
-597.040	-59.525	0.240	-0.104
-596.025	7.070	0.114	-0.086
-595.011	-63.617	0.091	0.038
-593.996	29.165	0.099	-0.085
-592.982	-14.403	0.550	0.357
-591.967	-73.785	0.211	0.077
-590.952	-200.000	-0.047	-0.285
-589.938	167.835	0.130	0.186
-588.923	-85.554	-0.113	0.035
-587.909	776.661	0.141	-0.388
-586.894	800.000	-0.074	-0.251
-585.879	-200.000	-0.028	0.126
-584.865	-119.706	0.273	0.047
-583.850	-200.000	-0.012	-0.058
-582.836	-125.650	0.137	0.021
-581.821	-200.000	0.002	0.021
-580.806	-86.630	0.146	0.045
-579.792	-98.833	0.448	0.115
-578.777	195.713	-0.219	0.336
-577.763	67.319	0.059	0.060
-576.748	-60.759	0.122	0.052
-575.733	-62.788	-0.286	0.119
-574.719	-127.298	-0.130	0.019
-573.704	-174.821	-0.198	-0.006
-572.690	9.710	-0.207	-0.158
-571.675	-200.000	0.075	0.393
-570.661	-144.674	-0.395	0.037
-569.646	93.220	-0.255	-0.290
-568.631	219.290	-0.137	-0.221
-567.617	-137.358	-0.158	0.018
-566.602	175.740	-0.108	0.158
-565.588	800.000	-0.035	-0.117
-564.573	51.443	-0.053	-0.051
-563.558	-145.002	0.076	0.007
-562.544	800.000	-0.040	-0.176
-561.529	397.725	0.124	0.261
-560.515	31.487	-0.108	0.093
-559.500	93.853	-0.148	-0.169
-558.485	-132.832	-0.173	-0.022
-557.471	220.565	0.149	-0.241
-556.456	-200.000	-0.012	-0.118
-555.442	203.128	0.066	-0.103
-554.427	12.199	-0.153	0.119
-553.412	529.783	0.107	0.254
-552.398	51.181	-0.176	0.168
-551.383	619.693	0.087	0.222
-550.369	152.908	0.149	0.205
-549.354	800.000	0.087	0.319
-548.339	-200.000	-0.019	0.178
-547.325	800.000	0.026	0.096
-546.310	-9.679	-0.074	-0.050
-545.296	-200.000	0.031	-0.270
-544.281	16.389	-0.314	0.250
-543.266	39.206	-0.214	0.193
-542.252	-200.000	-0.045	-0.205
-541.237	-200.000	-0.080	0.388
-540.223	800.000	0.064	0.214
-539.208	305.588	-0.096	0.180
-538.193	-200.000	0.065	0.442
-537.179	286.445	-0.132	0.239
-536.164	51.978	0.151	0.145
-535.150	-200.000	0.034	-0.201
-534.135	-24.187	-0.384	-0.231
-533.121	318.079	0.134	0.256
-532.106	158.527	-0.196	-0.274
-531.091	-181.413	-0.248	-0.005
-530.077	-200.000	-0.018	0.307
-529.062	181.268	-0.152	0.225
-528.048	-200.000	0.061	0.291
-527.033	-129.350	0.240	0.034
-526.018	109.714	-0.257	0.310
-525.004	599.265	-0.119	0.296
-523.989	800.000	-0.026	0.077
-522.975	-182.556	0.298	0.005
-521.960	-200.000	0.010	0.157
-520.945	-200.000	0.023	-0.233
-519.931	-154.124	0.272	0.019
-518.916	75.966	-0.262	-0.279
-517.902	-107.857	0.129	-0.028
-516.887	-32.631	0.179	-0.100
-515.872	26.427	0.200	-0.168
-514.858	-200.000	0.002	0.258
-513.843	-200.000	0.029	0.259
-512.829	56.298	0.234	-0.229
-511.814	-200.000	0.037	-0.277
-510.799	250.961	0.112	-0.191
-509.785	-36.776	-0.215	-0.116
-508.770	-37.825	-0.171	0.091
-507.756	-93.472	0.257	0.072
-506.741	21.867	0.318	0.261
-505.726	246.728	-0.223	0.378
-504.712	800.000	-0.025	-0.088
-503.697	800.000	0.073	0.252
-502.683	254.635	-0.101	-0.174
-501.668	-85.006	0.056	-0.018
-500.653	176.563	0.167	0.245
-499.639	-113.876	0.383	0.075
-498.624	-12.265	0.245	0.161
-497.610	-83.054	-0.540	-0.175
-496.595	366.567	-0.006	-0.013
-495.581	35.082	-0.093	-0.082
-494.566	26.111	0.100	0.084
-493.551	-200.000	0.005	-0.306
-492.537	645.937	0.171	-0.439
-491.522	-42.777	0.097	-0.050
-490.508	-15.316	-0.132	-0.085
-489.493	-73.607	-0.269	-0.098
-488.478	-42.541	-0.121	0.062
-487.464	800.000	0.059	0.178
-486.449	-15.139	0.111	-0.072
-485.435	-4.189	-0.327	-0.227
-484.420	-186.621	-0.302	-0.004
-483.405	-20.776	-0.087	0.054
-482.391	33.960	0.016	0.014
-481.376	-150.305	-0.475	-0.037
-480.362	-200.000	0.045	-0.273
-479.347	-111.997	0.259	-0.052
-478.332	7.663	-0.300	0.226
-477.318	12.389	-0.145	-0.112
-476.303	-146.645	0.220	-0.019
-475.289	-200.000	-0.063	-0.372
-474.274	-71.960	-0.159	0.060
-473.259	-51.042	0.397	-0.187
-472.245	-88.460	-0.217	-0.065
-471.230	-200.000	-0.010	-0.208
-470.216	51.291	-0.176	-0.168
-469.201	-200.000	-0.010	0.049
-468.186	-200.000	0.025	0.134
-467.172	13.698	0.158	-0.123
-466.157	188.481	-0.205	-0.308
-465.143	369.516	-0.215	0.437
-464.128	-200.000	-0.020	0.111
-463.113	-15.169	-0.230	-0.148
-462.099	63.463	-0.278	-0.280
-461.084	-162.042	-0.112	-0.006
-460.070	129.773	-0.092	-0.119
-459.055	-133.397	-0.153	-0.019
-458.040	350.969	-0.274	0.545
-457.026	179.829	-0.081	0.119
-456.011	-53.223	-0.127	0.058
-454.997	-159.492	0.308	-0.017
-453.982	315.085	0.084	-0.159
-452.968	-200.000	0.024	0.257
-451.953	139.851	0.175	-0.231
-450.938	-33.916	-0.405	-0.224
-449.924	-116.406	0.426	0.079
-448.909	67.397	0.342	-0.350
-447.895	-154.845	0.087	0.006
-446.880	-200.000	-0.168	0.000
-445.865	421.371	-0.088	-0.190
-444.851	315.956	0.096	0.181
-443.836	-200.000	-0.001	-0.020
-442.822	-94.814	-0.399	-0.109
-441.807	156.646	0.045	0.063
-440.792	-129.460	0.336	-0.047
-439.778	-200.000	-0.033	0.566
-438.763	-75.483	-0.317	-0.113
-437.749	-117.177	-0.533	-0.097
-436.734	-154.793	0.058	-0.004
-435.719	-54.288	0.120	0.055
-434.705	38.557	-0.312	-0.279
-433.690	120.812	0.146	0.182
-432.676	183.082	-0.092	0.136
-431.661	243.470	0.123	-0.207
-430.646	-200.000	-0.034	-0.180
-429.632	155.897	-0.138	-0.191
-428.617	-200.000	0.037	0.252
-427.603	370.893	0.066	0.135
-426.588	604.265	0.124	-0.309
-425.573	210.693	-0.082	-0.129
-424.559	-200.000	0.004	0.422
-423.544	212.525	0.216	-0.341
-422.530	-134.922	0.099	-0.012
-421.515	-200.000	-0.024	-0.137
-420.500	75.025	0.064	0.068
-419.486	-66.184	-0.078	0.031
-418.471	-54.959	0.320	0.145
-417.457	92.584	0.151	0.171
-416.442	-1.051	0.103	0.073
-415.428	15.933	0.247	-0.195
-414.413	421.306	0.052	-0.112
-413.398	-21.377	-0.295	0.181
-412.384	243.297	-0.238	0.400
-411.369	-200.000	-0.026	0.199
-410.355	-146.829	0.276	0.024
-409.340	800.000	0.027	-0.079
-408.325	25.078	-0.203	0.169
-407.311	574.458	0.055	0.134
-406.296	-200.000	0.030	-0.207
-405.282	-81.631	0.336	-0.111
-404.267	-200.000	-0.052	-0.243
-403.252	-51.108	-0.082	-0.038
-402.238	-76.110	0.070	0.025
-401.223	28.945	-0.091	-0.077
-400.209	-20.527	-0.105	-0.064
-399.194	-112.095	-0.172	-0.035
-398.179	469.476	-0.188	-0.424
-397.165	-200.000	-0.022	-0.221
-396.150	-200.000	-0.047	0.215
-395.136	-11.243	-0.220	0.145
-394.121	-32.273	0.222	0.124
-393.106	-31.337	-0.082	0.046
-392.092	84.729	-0.127	0.139
-391.077	671.534	0.199	-0.516
-390.063	-28.253	0.514	0.297
-389.048	184.091	0.065	-0.096
-388.033	647.326	0.103	-0.264
-387.019	86.183	0.053	0.058
-386.004	75.871	0.250	0.264
-384.990	-158.450	-0.141	-0.008
-383.975	-51.764	0.189	0.088
-382.960	-72.509	0.140	0.052
-381.946	-116.440	0.145	0.027
-380.931	2.297	0.208	-0.150
-379.917	-50.513	0.194	0.091
-378.902	-200.000	0.004	0.058
-377.888	7.099	0.244	-0.182
-376.873	-49.368	-0.281	-0.134
-375.858	51.354	-0.176	-0.167
-374.844	-106.558	0.122	-0.027
-373.829	239.712	-0.026	0.043
-372.815	100.289	-0.126	-0.146
-371.800	142.681	-0.220	-0.293
-370.785	398.466	-0.081	0.170
-369.771	-200.000	-0.066	0.303
-368.756	115.639	0.229	0.280
-367.742	800.000	-0.045	0.185
-366.727	-161.777	-0.460	-0.023
-365.712	162.136	0.151	0.212
-364.698	-111.929	-0.234	-0.047
-363.683	188.327	0.192	0.287
-362.669	800.000	0.062	-0.179
-361.654	353.081	-0.171	0.339
-360.639	800.000	-0.058	-0.243
-359.625	76.815	-0.084	0.089
-358.610	-200.000	-0.022	-0.236
-357.596	245.116	-0.177	-0.298
-356.581	-108.097	0.081	0.018
-355.566	24.998	-0.252	0.209
-354.552	34.253	-0.076	0.066
-353.537	-92.160	0.165	0.047
-352.523	190.968	-0.136	-0.204
-351.508	-200.000	0.067	0.443
-350.493	800.000	-0.048	-0.149
-349.479	800.000	0.079	-0.236
-348.464	-46.465	-0.233	-0.114
-347.450	-200.000	0.159	-0.001
-346.435	-140.957	0.155	-0.016
-345.420	-138.772	0.309	0.034
-344.406	-54.291	0.119	-0.054
-343.391	-70.002	0.327	-0.124
-342.377	252.691	0.069	0.117
-341.362	652.189	-0.089	-0.227
-340.348	-116.863	0.118	0.022
-339.333	426.121	-0.062	-0.133
-338.318	-200.000	-0.030	-0.171
-337.304	48.205	0.213	0.199
-336.289	95.861	0.134	-0.153
-335.275	800.000	0.077	-0.262
-334.260	9.608	0.061	0.046
-333.245	-200.000	0.024	0.263
-332.231	800.000	0.084	0.341
-331.216	-44.711	-0.179	0.089
-330.202	281.202	-0.041	-0.074
-329.187	-84.980	-0.238	-0.075
-328.172	100.009	-0.172	-0.199
-327.158	-69.615	0.223	0.085
-326.143	309.410	0.030	-0.057
-325.129	14.191	-0.298	0.232
-324.114	-200.000	-0.005	-0.273
-323.099	-200.000	0.016	0.190
-322.085	-14.055	-0.189	-0.122
-321.070	-45.150	-0.108	0.054
-320.056	-7.363	-0.289	-0.195
-319.041	108.915	-0.219	-0.261
-318.026	-122.347	-0.049	-0.008
-317.012	263.075	-0.233	0.404
-315.997	-28.619	-0.205	-0.118
-314.983	-53.554	-0.389	-0.178
-313.968	-123.463	0.346	0.055
-312.953	-15.629	-0.110	-0.070
-311.939	-12.383	0.154	0.101
-310.924	203.944	0.154	0.238
-309.910	-21.556	-0.289	0.176
-308.895	800.000	0.145	-0.418
-307.880	-40.911	0.070	-0.036
-306.866	111.852	0.107	-0.129
-305.851	43.698	0.257	-0.235
-304.837	-2.805	0.139	-0.097
-303.822	-154.261	0.282	-0.019
-302.807	-53.757	-0.304	-0.139
-301.793	-66.364	-0.314	-0.125
-300.778	55.811	-0.209	-0.202
-299.764	-200.000	0.013	-0.158
-298.749	-108.574	0.262	0.056
-297.735	800.000	0.054	0.186
-296.720	-82.494	-0.193	0.063
-295.705	400.330	0.011	-0.023
-294.691	-118.400	0.347	-0.061
-293.676	107.474	0.125	0.149
-292.662	-151.185	-0.053	0.004
-291.647	16.349	-0.092	-0.072
-290.632	-28.132	0.295	0.170
-289.618	800.000	0.137	0.487
-288.603	-86.267	-0.055	-0.017
-287.589	1.297	-0.179	-0.128
-286.574	-75.167	0.143	-0.051
-285.559	-2.603	-0.175	0.122
-284.545	-200.000	0.033	0.382
-283.530	0.445	0.139	-0.099
-282.516	-39.773	0.174	-0.091
-281.501	12.843	0.172	-0.133
-280.486	-155.767	0.282	-0.018
-279.472	103.265	-0.224	-0.262
-278.457	477.180	-0.062	-0.139
-277.443	296.983	-0.111	0.203
-276.428	267.880	0.199	-0.347
-275.413	-200.000	0.012	-0.145
-274.399	679.344	-0.035	0.090
-273.384	63.683	0.068	-0.068
-272.370	-17.502	-0.277	-0.174
-271.355	-111.339	0.304	0.062
-270.340	-13.802	-0.305	-0.196
-269.326	-75.731	0.196	-0.069
-268.311	-151.769	0.529	-0.039
-267.297	-119.759	-0.376	-0.065
-266.282	60.130	-0.249	0.246
-265.267	-158.505	0.273	-0.016
-264.253	314.577	0.151	-0.283
-263.238	-130.446	-0.096	0.013
-262.224	86.902	0.288	-0.317
-261.209	154.992	-0.122	-0.167
-260.195	800.000	0.085	0.362
-259.180	-55.334	-0.045	0.020
-258.165	49.223	0.069	-0.065
-257.151	-200.000	0.021	0.151
-256.136	-78.762	-0.249	0.085
-255.122	-91.737	0.204	-0.058
-254.107	-200.000	-0.015	-0.234
-253.092	-200.000	0.019	0.215
-252.078	-200.000	-0.013	0.109
-251.063	-21.991	0.192	-0.116
-250.049	-130.484	-0.296	0.040
-249.034	-100.364	-0.375	-0.093
-248.019	-9.112	0.234	0.156
-247.005	238.310	0.119	-0.196
-245.990	620.406	0.053	-0.132
-244.976	-200.000	0.025	-0.291
-243.961	-48.845	-0.047	0.023
-242.946	800.000	0.014	0.040
-241.932	800.000	0.060	-0.167
-240.917	800.000	0.043	-0.185
-239.903	800.000	0.033	0.118
-238.888	-109.903	0.293	0.061
-237.873	800.000	0.031	-0.128
-236.859	-91.831	0.075	-0.021
-235.844	-25.186	0.097	0.057
-234.830	124.478	0.316	-0.396
-233.815	-200.000	-0.015	0.251
-232.800	91.818	0.130	0.145
-231.786	-30.297	0.186	-0.105
-230.771	800.000	0.035	-0.125
-229.757	-3.601	-0.128	-0.089
-228.742	139.760	0.212	0.278
-227.727	800.000	-0.033	0.128
-226.713	-42.426	0.286	-0.145
-225.698	800.000	-0.067	-0.237
-224.684	176.071	0.183	-0.264
-223.669	-109.635	0.195	0.041
-222.655	-78.358	-0.099	0.034
-221.640	22.219	0.347	-0.281
-220.625	15.007	0.221	-0.172
-219.611	800.000	0.103	0.285
-218.596	19.162	-0.169	-0.135
-217.582	-200.000	0.015	0.163
-216.567	-105.509	0.128	-0.029
-215.552	-9.193	0.103	0.068
-214.538	230.299	-0.064	0.104
-213.523	-56.507	0.249	0.110
-212.509	-200.000	0.026	0.141
-211.494	-116.232	-0.118	-0.022
-210.479	496.964	-0.016	0.036
-209.465	-73.472	0.408	0.148
-208.450	389.569	-0.090	-0.184
-207.436	-200.000	0.062	-0.341
-206.421	-67.053	0.348	0.137
-205.406	37.618	0.086	-0.076
-204.392	6.659	0.120	-0.089
-203.377	154.058	0.173	-0.236
-202.363	36.156	-0.115	0.100
-201.348	-1.475	0.140	0.098
-200.333	800.000	-0.114	0.433
-199.319	379.603	-0.090	-0.182
-198.304	60.804	-0.246	0.242
-197.290	800.000	0.088	0.245
-196.275	800.000	0.079	-0.226
-195.260	61.968	0.135	0.133
-194.246	800.000	0.086	0.359
-193.231	352.604	-0.085	-0.168
-192.217	390.026	0.089	0.183
-191.202	-127.769	-0.398	-0.057
-190.187	20.253	-0.219	0.176
-189.173	-200.000	0.017	0.160
-188.158	-53.431	-0.160	-0.073
-187.144	-60.481	-0.069	-0.029
-186.129	-200.000	-0.000	0.041
-185.114	171.022	-0.062	0.089
-184.100	-200.000	-0.008	0.048
-183.085	41.239	0.190	-0.170
-182.071	-200.000	-0.024	-0.147
-181.056	-142.276	0.201	-0.020
-180.042	480.609	0.070	0.159
-179.027	-200.000	-0.023	0.254
-178.012	-178.973	-0.219	0.005
-176.998	-82.842	-0.061	0.019
-175.983	78.605	-0.118	0.125
-174.969	444.324	-0.067	-0.146
-173.954	-19.069	0.294	0.181
-172.939	102.180	-0.100	0.116
-171.925	-200.000	0.045	0.280
-170.910	116.666	-0.088	-0.108
-169.896	-45.909	0.041	-0.020
-168.881	760.610	-0.034	0.093
-167.866	276.123	-0.196	0.345
-166.852	-182.722	0.189	0.003
-165.837	107.217	0.202	0.238
-164.823	-200.000	0.014	0.160
-163.808	-36.630	-0.187	0.100
-162.793	101.784	-0.219	-0.254
-161.779	-62.985	-0.175	0.072
-160.764	102.921	0.063	-0.073
-159.750	-45.967	-0.059	-0.029
-158.735	-200.000	0.019	-0.145
-157.720	62.405	-0.134	-0.133
-156.706	-129.339	-0.094	0.013
-155.691	-26.831	-0.176	-0.102
-154.677	-131.638	-0.227	0.030
-153.662	800.000	-0.049	0.174
-152.647	-127.699	-0.095	-0.014
-151.633	290.843	-0.077	0.139
-150.618	-26.702	0.042	-0.024
-149.604	76.579	0.041	0.044
-148.589	381.463	0.125	0.254
-147.574	-20.344	0.211	0.129
-146.560	800.000	-0.062	-0.245
-145.545	-144.821	0.173	-0.016
-144.531	-200.000	0.035	0.229
-143.516	188.529	0.065	0.096
-142.502	300.074	0.046	-0.084
-141.487	-146.280	-0.352	0.031
-140.472	-4.488	0.209	-0.143
-139.458	621.383	0.040	-0.101
-138.443	800.000	0.004	0.010
-137.429	52.511	0.104	0.099
-136.414	800.000	0.035	0.099
-135.399	-20.507	-0.253	0.154
-134.385	-149.082	-0.162	-0.013
-133.370	800.000	0.131	-0.387
-132.356	30.813	0.113	-0.096
-131.341	-200.000	-0.002	-0.051
-130.326	38.722	-0.084	-0.074
-129.312	102.055	-0.202	-0.234
-128.297	-1.042	0.166	0.116
-127.283	-4.763	0.135	-0.092
-126.268	193.246	-0.078	0.117
-125.253	3.042	0.205	-0.148
-124.239	-81.589	-0.162	0.053
-123.224	26.834	0.031	0.026
-122.210	-193.893	-0.267	0.002
-121.195	-136.535	0.456	-0.052
