DTS Sentinel unit serial number:	SN413079Multiplexer serial number:	ORYXHardware model number:	OX4-SRSoftware version number:	ORYX F/W v4.00 Oryx Data Collector v3.7.2.0data status	okinstallation	princeton_trtdifferential loss correction	single-endedforward channel	channel 3reverse channel	N/Adate	2019/09/16time	22:00:35forward acquisition time	60.00reverse acquisition time	0.00gamma	496.2192k internal	0.2324k external	0.2324temperature offset calibration	0.9940default loss term (dB/km)	0.3790temperature slope calibration	1.0000multiplexer offset coefficient	1.0000multiplexer slope coefficient	1.0000fibre end	0.00T internal ref (°C)	31.19T ext. ref 1 (°C)	0.07T ext. ref 2 (°C)	25.33length (m)	temperature (°C)	Stokes	anti-Stokes-747.200	18.536	-0.153	0.124
-746.185	-200.000	-0.038	0.222
-745.171	80.731	-0.120	-0.130
-744.156	-200.000	0.026	0.134
-743.142	-72.383	-0.120	-0.045
-742.127	445.060	0.047	0.104
-741.112	195.684	-0.108	-0.166
-740.098	800.000	-0.053	-0.175
-739.083	-67.917	0.211	-0.083
-738.069	398.013	-0.253	0.535
-737.054	-188.107	-0.214	-0.003
-736.039	-60.733	-0.252	-0.108
-735.025	599.297	0.088	-0.219
-734.010	-109.595	-0.198	0.042
-732.996	23.175	0.219	0.181
-731.981	163.844	0.153	0.217
-730.966	213.305	-0.191	-0.305
-729.952	432.093	0.139	-0.304
-728.937	-126.793	-0.140	0.021
-727.923	109.604	0.219	-0.265
-726.908	710.564	0.112	-0.299
-725.894	96.784	-0.266	-0.308
-724.879	-133.748	-0.215	-0.027
-723.864	-200.000	0.001	-0.210
-722.850	-69.684	0.158	0.061
-721.835	-95.280	0.244	0.066
-720.821	-13.284	-0.256	-0.167
-719.806	288.152	-0.102	-0.186
-718.791	800.000	-0.037	0.122
-717.777	6.308	-0.324	0.242
-716.762	-74.310	0.343	0.125
-715.748	60.072	0.139	-0.138
-714.733	-128.065	0.202	0.029
-713.718	48.438	0.218	0.206
-712.704	-108.012	-0.126	0.028
-711.689	-115.287	0.064	0.012
-710.675	52.552	0.063	0.061
-709.660	800.000	-0.109	0.376
-708.645	364.964	0.107	-0.217
-707.631	342.256	-0.057	0.113
-706.616	59.728	-0.225	0.224
-705.602	-21.420	-0.283	0.174
-704.587	279.948	0.132	-0.237
-703.572	157.726	0.051	-0.071
-702.558	-65.203	-0.169	0.069
-701.543	-160.583	0.176	0.009
-700.529	-29.784	-0.170	-0.098
-699.514	-70.090	0.326	-0.125
-698.499	800.000	-0.043	-0.124
-697.485	-200.000	0.002	-0.283
-696.470	-29.393	0.302	-0.174
-695.456	413.247	-0.108	-0.232
-694.441	-22.470	0.166	-0.101
-693.426	800.000	0.035	-0.113
-692.412	104.544	-0.069	-0.082
-691.397	-125.865	0.304	-0.046
-690.383	800.000	-0.086	0.268
-689.368	88.411	0.057	-0.064
-688.354	800.000	0.062	0.187
-687.339	800.000	0.064	-0.220
-686.324	-200.000	-0.047	0.210
-685.310	56.400	-0.047	0.046
-684.295	-84.444	-0.236	0.075
-683.281	-200.000	-0.004	0.102
-682.266	-37.641	0.212	-0.114
-681.251	178.541	-0.241	0.354
-680.237	47.130	0.245	0.229
-679.222	369.533	0.141	0.287
-678.208	52.108	-0.147	0.141
-677.193	32.590	0.160	0.140
-676.178	-72.821	0.461	0.171
-675.164	-200.000	-0.005	0.115
-674.149	-31.562	0.078	-0.044
-673.135	-66.604	0.118	-0.047
-672.120	-74.852	0.254	-0.092
-671.105	-200.000	-0.025	0.149
-670.091	-44.683	0.088	-0.044
-669.076	-200.000	-0.002	0.107
-668.062	153.827	0.187	-0.258
-667.047	-200.000	0.009	0.154
-666.032	320.670	-0.136	0.260
-665.018	-10.407	0.111	-0.074
-664.003	-200.000	-0.003	0.384
-662.989	191.758	0.190	0.287
-661.974	800.000	-0.052	-0.208
-660.959	-53.503	-0.413	-0.190
-659.945	669.676	0.080	0.209
-658.930	-200.000	-0.055	0.289
-657.916	158.292	0.115	-0.161
-656.901	-111.190	0.259	-0.053
-655.886	-78.945	0.180	0.062
-654.872	-129.350	0.147	0.021
-653.857	-200.000	-0.005	0.099
-652.843	800.000	0.072	-0.211
-651.828	42.398	0.205	0.187
-650.814	-27.646	-0.021	0.012
-649.799	-65.314	0.085	-0.034
-648.784	80.336	0.167	-0.181
-647.770	297.261	-0.189	0.349
-646.755	-200.000	-0.032	0.279
-645.741	-200.000	0.023	-0.215
-644.726	400.385	0.169	-0.357
-643.711	-6.546	-0.122	0.083
-642.697	306.536	-0.061	0.114
-641.682	800.000	-0.098	-0.320
-640.668	-78.035	-0.194	0.067
-639.653	62.926	-0.072	-0.072
-638.638	10.272	0.218	-0.167
-637.624	30.781	-0.109	0.094
-636.609	202.598	-0.148	-0.229
-635.595	11.839	-0.170	0.131
-634.580	-94.691	0.130	0.036
-633.565	90.394	-0.089	0.100
-632.551	217.582	-0.212	-0.340
-631.536	-165.498	0.107	-0.005
-630.522	163.775	-0.151	-0.214
-629.507	-200.000	-0.024	-0.126
-628.492	-113.709	-0.228	-0.045
-627.478	800.000	0.053	-0.163
-626.463	-200.000	-0.051	0.239
-625.449	336.727	-0.152	0.296
-624.434	800.000	-0.026	0.079
-623.419	40.760	-0.049	0.045
-622.405	-200.000	0.052	0.373
-621.390	402.747	-0.075	-0.157
-620.376	-200.000	0.025	0.267
-619.361	-125.538	0.284	0.043
-618.346	-200.000	-0.015	-0.118
-617.332	-200.000	-0.024	-0.178
-616.317	-200.000	-0.047	-0.486
-615.303	174.165	0.208	0.302
-614.288	14.306	0.190	0.148
-613.273	800.000	0.067	-0.211
-612.259	91.342	-0.075	-0.084
-611.244	-200.000	-0.004	-0.249
-610.230	-200.000	-0.006	0.156
-609.215	16.473	0.141	0.112
-608.201	145.514	-0.154	-0.207
-607.186	744.682	0.035	0.095
-606.171	10.313	0.217	0.166
-605.157	-158.126	-0.284	0.017
-604.142	373.250	-0.166	0.340
-603.128	-66.623	-0.333	0.133
-602.113	-102.579	-0.358	0.086
-601.098	-37.634	0.069	0.037
-600.084	258.516	-0.115	0.199
-599.069	12.832	0.191	-0.148
-598.055	-83.865	-0.178	0.057
-597.040	514.075	-0.119	0.278
-596.025	-140.200	-0.219	-0.023
-595.011	-76.912	0.238	-0.084
-593.996	-200.000	-0.026	-0.142
-592.982	-131.753	-0.223	-0.029
-591.967	-200.000	0.063	-0.282
-590.952	-200.000	0.247	-0.000
-589.938	-79.121	0.292	-0.100
-588.923	-200.000	0.029	0.131
-587.909	63.474	-0.117	-0.118
-586.894	-200.000	0.014	-0.403
-585.879	21.385	-0.244	0.199
-584.865	237.490	0.134	-0.222
-583.850	-200.000	-0.011	-0.430
-582.836	39.268	0.111	-0.100
-581.821	378.499	0.034	-0.070
-580.806	-200.000	-0.005	0.070
-579.792	147.518	0.057	-0.078
-578.777	-135.893	-0.285	-0.034
-577.763	-187.902	-0.175	-0.002
-576.748	-114.987	0.229	-0.044
-575.733	30.630	0.106	-0.091
-574.719	-75.915	0.073	0.026
-573.704	-48.663	0.075	0.036
-572.690	14.852	0.212	0.166
-571.675	112.308	-0.146	0.177
-570.661	341.166	0.069	0.134
-569.646	-43.731	-0.124	-0.063
-568.631	-130.806	-0.214	-0.029
-567.617	79.588	-0.052	0.056
-566.602	-200.000	-0.014	-0.220
-565.588	506.516	-0.129	-0.300
-564.573	-7.512	-0.253	0.172
-563.558	-87.698	-0.406	0.123
-562.544	800.000	0.055	0.174
-561.529	800.000	-0.128	-0.464
-560.515	339.913	0.172	-0.337
-559.500	-71.966	0.112	0.042
-558.485	-75.519	-0.215	0.077
-557.471	-105.376	0.120	0.027
-556.456	-200.000	0.048	0.254
-555.442	800.000	0.037	0.138
-554.427	-200.000	0.020	-0.246
-553.412	-200.000	-0.031	-0.378
-552.398	-200.000	0.035	-0.175
-551.383	31.205	-0.111	0.095
-550.369	-35.579	-0.346	0.188
-549.354	-200.000	0.015	0.273
-548.339	17.398	0.072	-0.058
-547.325	140.245	-0.140	-0.184
-546.310	38.685	-0.113	-0.101
-545.296	26.862	-0.043	0.036
-544.281	17.252	0.195	0.155
-543.266	-57.548	0.130	0.057
-542.252	-66.811	-0.154	-0.061
-541.237	61.928	0.006	0.006
-540.223	663.399	-0.056	-0.146
-539.208	800.000	-0.154	-0.434
-538.193	-200.000	-0.010	-0.095
-537.179	788.317	-0.062	0.169
-536.164	-200.000	-0.014	-0.181
-535.150	-200.000	0.055	-0.388
-534.135	16.751	-0.187	-0.148
-533.121	10.010	0.080	-0.061
-532.106	-22.272	-0.244	0.148
-531.091	-61.234	0.065	-0.027
-530.077	-60.157	0.182	0.078
-529.062	-139.801	0.154	-0.016
-528.048	319.796	0.071	-0.134
-527.033	47.659	0.117	-0.110
-526.018	368.837	-0.051	-0.102
-525.004	-112.090	0.214	0.043
-523.989	-200.000	-0.010	-0.240
-522.975	-200.000	-0.005	0.068
-521.960	-200.000	0.008	0.052
-520.945	800.000	0.016	-0.060
-519.931	54.461	0.172	0.166
-518.916	16.273	0.075	-0.059
-517.902	466.041	0.087	0.195
-516.887	-200.000	0.022	0.180
-515.872	800.000	0.056	0.198
-514.858	125.083	0.118	-0.148
-513.843	134.814	-0.132	0.172
-512.829	-6.744	0.077	0.053
-511.814	247.894	0.167	-0.282
-510.799	185.699	-0.204	0.303
-509.785	-124.070	0.228	-0.036
-508.770	236.926	-0.116	-0.193
-507.756	-55.030	0.029	-0.013
-506.741	240.803	-0.158	0.264
-505.726	19.498	-0.331	-0.266
-504.712	-127.606	-0.066	0.010
-503.697	-200.000	0.009	0.058
-502.683	124.247	0.164	0.206
-501.668	-200.000	-0.000	0.163
-500.653	-160.425	0.430	-0.023
-499.639	120.497	-0.031	0.039
-498.624	-200.000	-0.083	-0.448
-497.610	-52.316	-0.147	-0.068
-496.595	-34.124	-0.154	-0.085
-495.581	13.623	0.129	0.100
-494.566	-102.343	-0.386	0.092
-493.551	-200.000	0.011	0.113
-492.537	800.000	0.016	-0.068
-491.522	800.000	0.246	-0.778
-490.508	610.958	0.070	-0.174
-489.493	126.469	0.047	-0.060
-488.478	46.232	0.257	0.238
-487.464	-164.927	-0.217	0.010
-486.449	-200.000	0.039	-0.353
-485.435	800.000	-0.075	-0.272
-484.420	396.256	-0.022	-0.046
-483.405	-200.000	-0.004	0.110
-482.391	-200.000	-0.030	0.195
-481.376	95.153	0.253	0.288
-480.362	119.811	0.234	-0.290
-479.347	-200.000	-0.019	-0.215
-478.332	453.212	-0.111	0.245
-477.318	351.332	-0.083	-0.163
-476.303	-147.032	-0.284	0.024
-475.289	78.240	-0.110	-0.117
-474.274	-89.940	0.249	0.073
-473.259	198.066	0.211	-0.322
-472.245	-200.000	0.000	-0.073
-471.230	677.307	0.197	-0.512
-470.216	-8.884	0.251	0.168
-469.201	-153.255	-0.318	0.022
-468.186	-200.000	0.020	-0.320
-467.172	-43.640	-0.270	-0.136
-466.157	183.331	0.125	0.184
-465.143	-28.328	0.283	-0.163
-464.128	800.000	-0.020	-0.082
-463.113	-43.423	0.252	-0.127
-462.099	-4.331	0.194	0.134
-461.084	-72.106	0.304	-0.113
-460.070	-200.000	-0.023	0.284
-459.055	-65.918	0.096	-0.038
-458.040	-98.995	-0.063	0.016
-457.026	161.315	0.189	0.263
-456.011	-200.000	0.018	0.181
-454.997	240.171	-0.073	0.121
-453.982	800.000	-0.113	-0.329
-452.968	42.849	0.332	-0.302
-451.953	-200.000	0.006	0.039
-450.938	-57.169	0.150	0.066
-449.924	55.293	0.216	0.209
-448.909	-200.000	-0.014	-0.094
-447.895	244.456	-0.115	0.193
-446.880	-106.565	0.224	-0.050
-445.865	60.583	0.102	0.100
-444.851	-103.004	-0.435	0.103
-443.836	148.000	-0.156	0.210
-442.822	434.447	0.148	0.320
-441.807	645.223	-0.097	0.247
-440.792	-41.346	-0.387	0.199
-439.778	-86.898	0.126	0.038
-438.763	-80.917	0.268	-0.089
-437.749	-54.820	0.116	-0.052
-436.734	-168.963	0.133	0.005
-435.719	200.214	0.161	-0.247
-434.705	-200.000	-0.010	0.109
-433.690	-162.822	0.362	0.018
-432.676	-200.000	-0.003	0.100
-431.661	-104.413	-0.349	-0.081
-430.646	-21.176	0.106	-0.064
-429.632	-104.121	0.124	-0.029
-428.617	-77.314	0.175	0.060
-427.603	800.000	-0.069	-0.253
-426.588	-200.000	0.006	-0.132
-425.573	144.940	0.188	-0.251
-424.559	800.000	-0.046	0.200
-423.544	380.729	-0.026	-0.053
-422.530	-69.874	-0.185	0.070
-421.515	-200.000	0.002	-0.253
-420.500	-200.000	-0.031	-0.140
-419.486	431.754	-0.189	0.408
-418.471	-200.000	0.002	0.213
-417.457	47.547	-0.094	0.087
-416.442	-66.510	-0.090	0.035
-415.428	555.496	0.088	0.210
-414.413	-72.241	-0.310	0.115
-413.398	-45.183	0.121	-0.060
-412.384	129.185	0.159	-0.203
-411.369	-50.939	0.225	-0.105
-410.355	509.433	-0.107	-0.247
-409.340	-58.275	-0.165	0.072
-408.325	-49.497	0.106	-0.050
-407.311	167.030	-0.083	-0.117
-406.296	136.598	0.047	-0.061
-405.282	-19.553	-0.073	-0.045
-404.267	-200.000	0.039	-0.194
-403.252	-78.279	-0.200	-0.068
-402.238	-200.000	-0.006	0.139
-401.223	-115.804	-0.158	0.029
-400.209	120.583	-0.169	-0.209
-399.194	-178.560	-0.011	0.000
-398.179	85.156	0.045	0.049
-397.165	-34.602	0.063	-0.034
-396.150	121.648	0.273	0.339
-395.136	107.249	-0.035	0.042
-394.121	141.127	0.049	-0.064
-393.106	800.000	-0.133	-0.417
-392.092	15.126	-0.147	-0.114
-391.077	391.290	-0.076	0.157
-390.063	-68.107	-0.171	-0.066
-389.048	800.000	-0.029	-0.098
-388.033	85.128	0.096	0.104
-387.019	-39.922	-0.507	0.263
-386.004	517.443	0.141	-0.328
-384.990	45.522	-0.168	0.154
-383.975	-200.000	-0.001	-0.427
-382.960	-200.000	-0.000	0.002
-381.946	657.425	-0.156	0.400
-380.931	273.463	0.170	0.300
-379.917	800.000	0.124	-0.396
-378.902	-28.843	0.157	-0.090
-377.888	-181.047	-0.295	-0.006
-376.873	-167.557	0.032	0.001
-375.858	387.087	-0.080	0.164
-374.844	-106.654	-0.388	-0.086
-373.829	-81.603	0.246	-0.080
-372.815	50.283	-0.064	-0.060
-371.800	-200.000	0.026	0.141
-370.785	800.000	-0.111	0.324
-369.771	231.536	0.216	0.352
-368.756	-93.008	-0.242	0.067
-367.742	-200.000	-0.025	0.249
-366.727	800.000	-0.039	0.155
-365.712	-68.098	-0.238	0.092
-364.698	120.003	0.133	-0.165
-363.683	14.621	-0.271	-0.210
-362.669	65.177	0.195	-0.196
-361.654	-60.400	-0.098	0.041
-360.639	-200.000	-0.004	0.186
-359.625	-200.000	0.013	0.641
-358.610	267.027	-0.237	0.412
-357.596	114.862	-0.171	0.207
-356.581	16.424	0.197	0.155
-355.566	-46.080	0.131	-0.064
-354.552	-89.360	-0.290	-0.085
-353.537	10.551	-0.042	-0.032
-352.523	-35.819	0.221	0.119
-351.508	18.332	0.109	0.087
-350.493	-200.000	-0.029	-0.273
-349.479	-84.464	0.108	-0.034
-348.464	-155.808	0.366	-0.023
-347.450	155.778	-0.259	-0.355
-346.435	106.855	0.093	-0.110
-345.420	45.425	-0.275	0.252
-344.406	-116.406	0.123	0.023
-343.391	-77.773	0.445	-0.153
-342.377	308.761	0.040	-0.075
-341.362	-200.000	0.021	-0.230
-340.348	-200.000	-0.016	0.082
-339.333	62.160	0.028	-0.028
-338.318	64.899	-0.070	0.071
-337.304	-3.039	0.064	-0.044
-336.289	800.000	-0.045	-0.164
-335.275	72.895	0.152	-0.158
-334.260	-192.935	-0.011	0.000
-333.245	9.538	-0.331	-0.249
-332.231	-11.598	-0.200	0.131
-331.216	98.097	-0.119	0.136
-330.202	-104.658	0.420	0.096
-329.187	-155.718	-0.248	0.016
-328.172	800.000	0.020	-0.086
-327.158	800.000	-0.102	0.333
-326.143	-200.000	0.039	-0.184
-325.129	-106.330	0.609	-0.135
-324.114	-200.000	0.011	0.367
-323.099	337.520	-0.136	-0.262
-322.085	190.390	0.093	0.139
-321.070	-200.000	-0.024	-0.104
-320.056	-114.911	0.149	-0.028
-319.041	32.139	-0.075	-0.065
-318.026	198.982	0.095	0.144
-317.012	37.121	0.284	0.249
-315.997	739.884	0.047	0.126
-314.983	127.033	-0.198	0.249
-313.968	-200.000	0.017	0.222
-312.953	-20.571	0.283	-0.173
-311.939	671.614	0.049	0.127
-310.924	-143.222	-0.256	0.024
-309.910	440.621	-0.021	0.046
-308.895	56.048	0.096	0.092
-307.880	-105.281	-0.113	0.026
-306.866	-55.473	0.101	-0.045
-305.851	-53.420	0.392	-0.178
-304.837	123.098	0.160	0.199
-303.822	120.293	0.026	0.032
-302.807	-84.750	-0.211	0.066
-301.793	-82.070	0.217	-0.070
-300.778	800.000	0.029	0.101
-299.764	49.969	0.139	0.130
-298.749	-58.763	0.197	0.085
-297.735	785.643	0.073	-0.199
-296.720	-3.985	-0.070	0.048
-295.705	29.221	-0.097	-0.081
-294.691	29.694	0.221	-0.186
-293.676	89.814	0.050	0.055
-292.662	283.465	0.016	-0.028
-291.647	800.000	0.098	-0.369
-290.632	-190.706	0.174	0.002
-289.618	121.014	0.204	-0.252
-288.603	-126.145	0.038	0.006
-287.589	107.656	-0.166	0.196
-286.574	16.572	-0.095	-0.074
-285.559	-200.000	0.056	0.385
-284.545	-155.682	-0.185	0.012
-283.530	800.000	-0.052	-0.204
-282.516	140.325	0.152	0.199
-281.501	24.463	0.265	-0.217
-280.486	-30.640	-0.330	0.185
-279.472	-103.303	0.210	-0.049
-278.457	-85.461	-0.118	-0.036
-277.443	-34.741	0.273	0.148
-276.428	-200.000	0.022	0.104
-275.413	476.923	-0.067	0.149
-274.399	46.702	-0.146	0.134
-273.384	95.353	-0.122	0.138
-272.370	-6.059	-0.162	0.110
-271.355	-176.008	-0.122	0.003
-270.340	-3.991	0.388	-0.267
-269.326	42.398	-0.042	-0.038
-268.311	666.304	0.129	0.329
-267.297	-91.247	0.094	0.027
-266.282	-20.038	0.198	0.121
-265.267	-200.000	0.077	-0.387
-264.253	-44.180	-0.132	-0.065
-263.238	-175.548	0.086	0.002
-262.224	-200.000	-0.014	0.134
-261.209	800.000	0.107	-0.304
-260.195	60.146	-0.244	0.239
-259.180	-26.917	0.078	0.045
-258.165	334.162	0.192	-0.369
-257.151	-72.094	0.219	0.081
-256.136	-123.966	-0.256	0.040
-255.122	-167.639	-0.137	-0.005
-254.107	-200.000	-0.036	0.333
-253.092	-114.239	-0.223	0.043
-252.078	48.012	-0.318	-0.294
-251.063	-115.300	-0.186	0.035
-250.049	227.698	-0.038	-0.062
-249.034	-34.641	0.208	0.113
-248.019	-89.393	-0.448	0.130
-247.005	-54.311	-0.208	0.093
-245.990	-200.000	0.050	0.228
-244.976	314.633	-0.098	-0.182
-243.961	-21.098	-0.209	-0.127
-242.946	81.904	-0.238	-0.255
-241.932	5.891	0.060	-0.044
-240.917	-46.239	0.290	0.141
-239.903	800.000	-0.056	0.220
-238.888	352.487	0.024	-0.046
-237.873	54.031	0.118	-0.113
-236.859	-200.000	-0.218	0.001
-235.844	-36.973	0.384	-0.204
-234.830	164.510	-0.142	0.198
-233.815	109.971	-0.087	-0.104
-232.800	43.770	0.271	-0.246
-231.786	305.118	0.073	0.135
-230.771	-200.000	-0.004	-0.239
-229.757	-80.672	0.156	-0.051
-228.742	305.065	0.067	0.124
-227.727	-200.000	-0.040	-0.211
-226.713	11.737	-0.195	0.148
-225.698	33.126	0.393	-0.337
-224.684	-129.386	-0.195	0.027
-223.669	732.525	0.048	-0.128
-222.655	-200.000	0.047	0.342
-221.640	-41.091	-0.046	-0.023
-220.625	14.474	0.272	-0.210
-219.611	21.882	0.145	-0.117
-218.596	109.277	-0.127	0.151
-217.582	-43.565	0.141	-0.070
-216.567	135.948	-0.143	0.184
-215.552	355.957	-0.145	0.286
-214.538	43.202	0.163	-0.148
-213.523	800.000	0.045	-0.126
-212.509	800.000	-0.010	0.039
-211.494	425.653	-0.020	0.042
-210.479	800.000	0.170	0.473
-209.465	-200.000	0.031	-0.191
-208.450	-85.713	-0.334	-0.102
-207.436	76.805	-0.097	-0.102
-206.421	-91.978	0.182	-0.051
-205.406	8.648	0.094	-0.070
-204.392	-200.000	0.023	-0.109
-203.377	-73.464	-0.311	-0.112
-202.363	-200.000	0.014	0.147
-201.348	800.000	0.097	0.273
-200.333	522.492	0.012	-0.027
-199.319	65.787	-0.195	0.195
-198.304	129.857	-0.071	-0.090
-197.290	258.434	0.178	0.302
-196.275	-136.458	0.116	-0.013
-195.260	32.605	0.187	0.160
-194.246	-32.521	-0.099	0.054
-193.231	-94.253	0.221	0.060
-192.217	97.993	-0.227	0.257
-191.202	-200.000	0.014	0.227
-190.187	150.833	0.044	-0.059
-189.173	27.320	-0.170	0.141
-188.158	307.403	-0.143	0.264
-187.144	-116.481	-0.208	-0.038
-186.129	8.983	0.060	0.045
-185.114	-59.656	-0.292	0.123
-184.100	800.000	-0.086	-0.324
-183.085	-47.629	-0.253	0.121
-182.071	274.662	-0.176	-0.307
-181.056	-94.687	0.312	0.084
-180.042	-149.074	-0.378	0.030
-179.027	-181.684	0.026	0.001
-178.012	11.683	0.124	0.094
-176.998	800.000	-0.099	0.379
-175.983	-55.652	-0.093	0.041
-174.969	451.155	0.073	0.160
-173.954	-200.000	-0.010	0.222
-172.939	-74.038	0.121	-0.043
-171.925	-20.273	0.079	-0.048
-170.910	-24.053	0.061	-0.036
-169.896	742.123	0.137	-0.363
-168.881	-200.000	0.013	-0.061
-167.866	-65.583	0.344	0.136
-166.852	-200.000	0.019	-0.163
-165.837	107.517	-0.131	-0.154
-164.823	391.683	0.006	-0.012
-163.808	800.000	0.125	0.511
-162.793	29.173	0.053	0.044
-161.779	487.042	0.079	-0.179
-160.764	-64.916	0.220	-0.088
-159.750	-200.000	0.000	0.202
-158.735	-200.000	0.055	0.240
-157.720	374.761	0.098	0.196
-156.706	299.155	-0.331	0.601
-155.691	-93.758	-0.243	0.066
-154.677	-200.000	0.024	-0.357
-153.662	800.000	0.125	-0.372
-152.647	-27.540	-0.347	0.199
-151.633	-115.212	0.191	0.036
-150.618	105.425	0.272	0.317
-149.604	-0.573	-0.180	0.126
-148.589	85.142	-0.065	0.070
-147.574	320.269	-0.151	0.283
-146.560	800.000	-0.079	0.300
-145.545	-36.571	-0.051	0.027
-144.531	-126.581	-0.199	0.029
-143.516	44.964	0.317	0.288
-142.502	-78.381	0.346	0.117
-141.487	-200.000	0.062	0.307
-140.472	-31.977	0.085	0.047
-139.458	800.000	0.023	-0.068
-138.443	198.770	-0.047	0.071
-137.429	-200.000	-0.015	0.187
-136.414	-200.000	-0.037	0.185
-135.399	-200.000	0.013	-0.265
-134.385	488.141	-0.112	0.253
-133.370	-43.452	0.622	0.310
-132.356	-71.611	0.196	-0.072
-131.341	205.183	-0.300	0.460
-130.326	195.304	0.099	0.148
-129.312	-200.000	0.018	0.376
-128.297	-69.441	-0.145	-0.055
-127.283	-200.000	0.011	0.245
-126.268	-16.024	0.312	0.196
-125.253	-78.438	-0.139	-0.047
-124.239	-106.512	-0.348	0.077
-123.224	-200.000	0.019	0.399
-122.210	45.058	0.149	0.135
-121.195	-138.145	0.135	-0.015
-120.180	-200.000	-0.019	0.185
