DTS Sentinel unit serial number:	SN413079Multiplexer serial number:	ORYXHardware model number:	OX4-SRSoftware version number:	ORYX F/W v4.00 Oryx Data Collector v3.7.2.0data status	okinstallation	princeton_trtdifferential loss correction	single-endedforward channel	channel 3reverse channel	N/Adate	2019/09/14time	09:16:35forward acquisition time	60.00reverse acquisition time	0.00gamma	496.2192k internal	0.2323k external	0.2323temperature offset calibration	1.0052default loss term (dB/km)	0.3790temperature slope calibration	1.0000multiplexer offset coefficient	1.0000multiplexer slope coefficient	1.0000fibre end	0.00T internal ref (°C)	30.80T ext. ref 1 (°C)	3.80T ext. ref 2 (°C)	28.69length (m)	temperature (°C)	Stokes	anti-Stokes-747.200	-75.770	-0.345	0.124
-746.185	-46.080	-0.037	0.019
-745.171	800.000	0.031	-0.105
-744.156	457.322	0.168	0.376
-743.142	10.482	0.409	-0.315
-742.127	-102.746	-0.381	-0.092
-741.112	44.995	0.052	0.048
-740.098	96.628	-0.343	0.396
-739.083	-107.869	-0.283	-0.062
-738.069	-105.918	0.149	0.034
-737.054	-77.172	-0.122	0.043
-736.039	800.000	-0.054	0.159
-735.025	-117.905	0.371	0.067
-734.010	180.071	-0.097	-0.143
-732.996	800.000	-0.064	-0.202
-731.981	-200.000	0.033	-0.354
-730.966	-177.404	0.150	-0.004
-729.952	-200.000	-0.006	0.028
-728.937	111.666	0.280	0.341
-727.923	-200.000	-0.001	-0.138
-726.908	-74.507	0.281	0.102
-725.894	259.466	-0.173	0.301
-724.879	618.513	-0.063	0.160
-723.864	51.993	-0.235	-0.226
-722.850	-200.000	0.008	0.047
-721.835	-115.241	-0.275	-0.052
-720.821	-200.000	0.043	-0.377
-719.806	-82.572	0.139	0.046
-718.791	47.795	0.151	-0.142
-717.777	307.840	-0.127	-0.239
-716.762	513.894	0.075	0.177
-715.748	282.469	0.036	-0.065
-714.733	85.776	0.065	-0.072
-713.718	-199.955	-0.479	0.002
-712.704	-169.464	-0.290	-0.011
-711.689	-200.000	-0.022	0.235
-710.675	-33.122	0.169	0.094
-709.660	145.775	-0.160	0.216
-708.645	-128.951	-0.180	-0.026
-707.631	-90.528	0.197	-0.057
-706.616	73.895	0.066	-0.070
-705.602	-77.273	0.239	-0.084
-704.587	-200.000	0.048	0.269
-703.572	525.336	0.122	-0.289
-702.558	202.230	-0.136	0.211
-701.543	762.689	-0.074	0.202
-700.529	24.625	0.183	0.153
-699.514	-73.523	-0.316	-0.116
-698.499	-5.283	0.246	0.171
-697.485	-19.437	0.207	0.129
-696.470	-16.905	-0.206	0.131
-695.456	9.676	0.225	-0.172
-694.441	-46.346	-0.035	-0.018
-693.426	177.004	-0.145	0.212
-692.412	-200.000	0.033	0.388
-691.397	-52.553	-0.186	-0.086
-690.383	-200.000	0.164	0.001
-689.368	165.707	-0.233	0.333
-688.354	800.000	0.029	-0.111
-687.339	204.122	-0.050	-0.077
-686.324	7.105	-0.231	-0.173
-685.310	800.000	0.074	0.225
-684.295	744.475	0.049	-0.134
-683.281	278.690	0.078	0.140
-682.266	110.056	-0.267	-0.322
-681.251	132.627	0.202	0.263
-680.237	-114.524	-0.407	0.079
-679.222	36.078	0.082	-0.073
-678.208	338.329	-0.108	-0.211
-677.193	800.000	-0.091	-0.262
-676.178	86.255	0.032	-0.036
-675.164	520.707	-0.124	0.293
-674.149	800.000	0.072	-0.274
-673.135	-71.093	-0.326	0.123
-672.120	-84.074	-0.288	0.092
-671.105	283.281	-0.240	0.434
-670.091	20.060	0.129	0.105
-669.076	-130.383	-0.077	-0.011
-668.062	-33.330	0.263	0.146
-667.047	800.000	-0.057	0.192
-666.032	324.472	0.061	0.118
-665.018	-200.000	-0.047	0.269
-664.003	-200.000	-0.019	0.334
-662.989	-200.000	0.050	0.230
-661.974	-200.000	-0.020	0.206
-660.959	-111.758	0.179	0.037
-659.945	53.520	-0.179	0.172
-658.930	-200.000	-0.015	-0.152
-657.916	350.682	0.073	-0.146
-656.901	800.000	-0.086	0.297
-655.886	704.339	-0.057	-0.152
-654.872	-50.135	-0.234	0.111
-653.857	800.000	-0.058	0.226
-652.843	24.924	-0.310	-0.259
-651.828	-200.000	-0.019	0.130
-650.814	-55.419	0.204	-0.092
-649.799	-200.000	-0.001	-0.270
-648.784	-80.589	0.090	-0.030
-647.770	10.221	0.207	-0.159
-646.755	800.000	0.012	0.041
-645.741	24.886	0.173	-0.144
-644.726	-47.880	0.226	-0.110
-643.711	-90.664	0.326	-0.095
-642.697	-97.995	0.075	-0.020
-641.682	-31.303	-0.393	0.223
-640.668	-121.255	0.241	0.041
-639.653	-200.000	-0.011	-0.470
-638.638	224.658	-0.097	-0.158
-637.624	-200.000	0.032	0.171
-636.609	-125.724	0.039	0.006
-635.595	240.677	-0.225	-0.377
-634.580	478.763	-0.217	-0.494
-633.565	359.801	0.042	-0.085
-632.551	316.767	0.129	0.245
-631.536	454.244	0.041	-0.091
-630.522	-56.817	-0.113	-0.050
-629.507	-108.115	0.275	-0.060
-628.492	99.912	-0.149	-0.173
-627.478	-51.798	0.100	-0.047
-626.463	359.048	-0.064	0.130
-625.449	-200.000	0.019	-0.553
-624.434	31.078	0.120	-0.103
-623.419	-52.101	0.082	-0.038
-622.405	800.000	0.025	-0.081
-621.390	800.000	0.076	-0.237
-620.376	800.000	-0.042	-0.123
-619.361	-200.000	-0.008	-0.084
-618.346	210.321	0.230	-0.362
-617.332	-132.003	-0.342	0.045
-616.317	-200.000	0.001	-0.313
-615.303	-82.011	0.136	-0.045
-614.288	-23.480	0.158	0.095
-613.273	-73.497	-0.096	-0.035
-612.259	58.433	-0.117	0.116
-611.244	243.637	-0.076	0.128
-610.230	282.648	-0.052	0.094
-609.215	327.811	-0.110	-0.212
-608.201	407.924	0.056	0.119
-607.186	84.949	0.201	0.221
-606.171	-200.000	-0.034	0.438
-605.157	-200.000	-0.033	-0.203
-604.142	-84.742	-0.319	0.101
-603.128	-129.693	-0.189	0.026
-602.113	619.622	-0.025	0.064
-601.098	800.000	0.049	-0.203
-600.084	167.774	0.087	-0.124
-599.069	-0.614	-0.099	0.071
-598.055	-36.843	-0.164	0.088
-597.040	-200.000	0.004	-0.025
-596.025	32.330	0.246	0.213
-595.011	-200.000	-0.051	0.402
-593.996	22.337	-0.150	0.123
-592.982	-200.000	0.041	-0.195
-591.967	109.427	-0.196	0.235
-590.952	90.513	0.113	0.127
-589.938	-96.633	-0.089	-0.023
-588.923	57.152	-0.117	0.115
-587.909	-150.221	-0.081	0.006
-586.894	29.469	-0.165	0.141
-585.879	800.000	0.030	-0.095
-584.865	276.857	0.070	-0.124
-583.850	800.000	0.088	0.372
-582.836	-119.153	-0.244	0.043
-581.821	134.157	0.106	-0.137
-580.806	319.262	0.153	0.292
-579.792	-124.766	-0.141	-0.022
-578.777	50.137	-0.144	-0.137
-577.763	26.488	-0.196	-0.165
-576.748	111.825	-0.140	-0.169
-575.733	-200.000	-0.007	-0.273
-574.719	106.783	0.029	-0.034
-573.704	154.535	-0.211	-0.290
-572.690	-124.540	-0.457	0.071
-571.675	151.706	-0.188	0.257
-570.661	-37.353	0.192	0.103
-569.646	-50.516	0.165	0.078
-568.631	-173.704	-0.140	-0.004
-567.617	175.237	0.092	0.134
-566.602	67.115	-0.103	0.105
-565.588	800.000	0.010	-0.033
-564.573	-101.723	-0.330	0.080
-563.558	361.237	0.057	0.114
-562.544	-68.837	0.277	-0.107
-561.529	800.000	-0.077	-0.257
-560.515	-83.947	0.161	0.051
-559.500	282.620	-0.044	0.078
-558.485	528.430	0.146	0.345
-557.471	253.868	0.102	0.174
-556.456	-125.700	0.312	0.047
-555.442	208.257	-0.097	0.152
-554.427	-200.000	-0.059	0.303
-553.412	800.000	0.157	0.472
-552.398	413.749	0.090	-0.192
-551.383	156.713	-0.216	0.300
-550.369	107.748	-0.124	0.148
-549.354	353.257	0.158	0.314
-548.339	7.004	0.323	0.241
-547.325	-62.524	0.222	0.092
-546.310	800.000	0.069	0.269
-545.296	-200.000	-0.013	-0.331
-544.281	-200.000	0.011	0.065
-543.266	117.946	-0.199	0.245
-542.252	119.211	0.165	0.204
-541.237	11.809	0.223	-0.171
-540.223	-89.389	0.116	-0.034
-539.208	-87.229	0.025	0.008
-538.193	14.757	-0.168	0.132
-537.179	315.723	0.140	0.265
-536.164	-118.872	-0.222	0.039
-535.150	114.028	-0.029	-0.036
-534.135	260.104	0.139	-0.241
-533.121	-109.716	-0.159	-0.033
-532.106	-200.000	-0.048	0.304
-531.091	-113.888	0.362	0.070
-530.077	800.000	-0.048	-0.169
-529.062	357.920	0.080	-0.160
-528.048	98.732	0.241	-0.278
-527.033	-184.265	-0.137	0.002
-526.018	15.659	0.032	-0.025
-525.004	-200.000	0.006	0.195
-523.989	-77.279	0.103	0.036
-522.975	-8.323	0.145	0.098
-521.960	-105.098	0.192	0.044
-520.945	-52.555	0.152	0.070
-519.931	3.703	0.205	0.150
-518.916	800.000	-0.036	0.156
-517.902	-189.608	0.075	0.001
-516.887	-128.034	-0.378	0.054
-515.872	22.236	0.302	-0.246
-514.858	-53.008	-0.256	-0.118
-513.843	-1.974	0.235	-0.165
-512.829	71.054	0.066	-0.068
-511.814	800.000	0.053	-0.168
-510.799	4.057	0.301	-0.220
-509.785	117.268	-0.050	-0.062
-508.770	-68.931	0.306	-0.118
-507.756	223.971	0.055	0.089
-506.741	-61.041	0.075	0.031
-505.726	181.912	-0.041	0.060
-504.712	21.590	0.080	-0.065
-503.697	-97.586	0.241	-0.062
-502.683	800.000	-0.078	-0.259
-501.668	24.737	0.137	0.114
-500.653	229.163	0.105	0.171
-499.639	-41.714	-0.114	-0.059
-498.624	430.587	0.157	-0.339
-497.610	-31.755	-0.226	-0.127
-496.595	-139.163	-0.394	-0.043
-495.581	800.000	-0.026	0.074
-494.566	800.000	0.012	-0.042
-493.551	-28.331	0.122	-0.070
-492.537	800.000	0.070	-0.232
-491.522	-136.966	-0.063	0.007
-490.508	165.997	0.220	0.311
-489.493	-200.000	0.012	0.463
-488.478	547.840	-0.018	0.043
-487.464	550.922	0.125	-0.300
-486.449	-200.000	0.059	-0.373
-485.435	-111.456	-0.144	-0.029
-484.420	-200.000	0.038	0.195
-483.405	3.635	0.129	-0.094
-482.391	-95.545	0.198	0.053
-481.376	3.674	-0.056	-0.041
-480.362	-114.233	-0.215	0.041
-479.347	344.103	-0.167	0.326
-478.332	-107.821	-0.165	0.036
-477.318	-77.547	-0.242	-0.084
-476.303	59.853	-0.076	-0.075
-475.289	-123.250	0.437	0.070
-474.274	-183.939	-0.201	-0.003
-473.259	49.804	-0.299	-0.282
-472.245	663.288	0.042	-0.109
-471.230	16.763	-0.138	-0.109
-470.216	140.000	0.219	0.288
-469.201	87.018	0.274	0.302
-468.186	422.581	0.072	0.155
-467.172	800.000	-0.062	-0.261
-466.157	8.422	0.248	0.186
-465.143	394.309	0.114	-0.238
-464.128	268.511	0.100	-0.175
-463.113	-174.177	0.224	0.007
-462.099	800.000	0.047	0.197
-461.084	182.287	0.165	0.242
-460.070	-105.872	0.256	0.058
-459.055	-200.000	0.052	0.256
-458.040	-84.433	0.310	0.098
-457.026	-200.000	-0.014	-0.106
-456.011	104.055	-0.234	-0.275
-454.997	-50.352	0.303	0.143
-453.982	-97.602	0.164	-0.043
-452.968	-200.000	-0.013	0.178
-451.953	-39.415	-0.389	-0.204
-450.938	-107.911	0.398	-0.086
-449.924	-94.642	-0.363	-0.099
-448.909	800.000	-0.046	0.131
-447.895	237.573	0.104	-0.172
-446.880	-61.972	-0.229	-0.096
-445.865	-200.000	-0.037	-0.244
-444.851	135.753	-0.036	-0.047
-443.836	-73.727	-0.084	-0.031
-442.822	0.064	-0.158	-0.113
-441.807	83.390	-0.118	-0.128
-440.792	800.000	-0.098	-0.367
-439.778	793.175	-0.086	-0.235
-438.763	236.138	-0.206	-0.340
-437.749	-17.067	0.211	-0.133
-436.734	-200.000	0.001	0.086
-435.719	11.887	-0.184	-0.141
-434.705	-56.292	-0.176	-0.078
-433.690	-200.000	-0.003	0.012
-432.676	737.067	-0.080	0.213
-431.661	93.873	-0.099	0.112
-430.646	-128.951	0.128	-0.018
-429.632	70.055	0.328	0.338
-428.617	60.926	0.159	-0.158
-427.603	-200.000	0.031	0.189
-426.588	743.084	0.120	0.322
-425.573	-41.021	-0.135	0.069
-424.559	9.610	-0.315	-0.238
-423.544	-17.746	-0.095	0.059
-422.530	98.593	-0.114	0.131
-421.515	-152.272	0.224	-0.016
-420.500	-87.364	0.204	-0.062
-419.486	-11.052	0.351	0.231
-418.471	800.000	0.034	-0.094
-417.457	800.000	0.040	0.137
-416.442	-78.981	0.274	0.093
-415.428	246.959	0.123	-0.206
-414.413	-19.695	0.377	-0.233
-413.398	800.000	-0.051	0.170
-412.384	87.675	0.146	0.161
-411.369	-134.173	0.238	-0.029
-410.355	-156.991	0.253	0.015
-409.340	-7.828	-0.121	-0.081
-408.325	-62.992	0.147	0.061
-407.311	-200.000	-0.020	0.096
-406.296	-28.056	0.121	-0.070
-405.282	-200.000	-0.024	0.107
-404.267	237.660	-0.040	-0.066
-403.252	28.194	-0.100	0.084
-402.238	21.108	-0.078	0.063
-401.223	96.191	-0.033	0.037
-400.209	20.448	-0.202	0.162
-399.194	-200.000	0.040	0.415
-398.179	39.112	-0.183	-0.163
-397.165	67.272	0.097	-0.099
-396.150	-200.000	-0.010	-0.119
-395.136	41.529	0.011	0.010
-394.121	800.000	0.042	0.170
-393.106	-200.000	-0.013	-0.169
-392.092	465.773	-0.055	0.122
-391.077	-107.653	0.374	0.081
-390.063	-53.604	-0.075	-0.034
-389.048	298.085	0.118	0.217
-388.033	800.000	-0.014	0.062
-387.019	639.104	-0.069	0.174
-386.004	-200.000	-0.063	-0.283
-384.990	-200.000	0.022	-0.106
-383.975	-200.000	0.071	-0.311
-382.960	179.612	0.120	-0.175
-381.946	-104.440	-0.047	-0.011
-380.931	-66.972	-0.393	0.154
-379.917	-42.743	-0.110	0.056
-378.902	-14.336	0.099	0.063
-377.888	-56.852	-0.021	-0.009
-376.873	-137.583	-0.265	0.030
-375.858	-200.000	-0.006	0.342
-374.844	40.965	-0.132	0.119
-373.829	800.000	0.033	-0.129
-372.815	-119.679	-0.187	0.032
-371.800	-200.000	0.006	0.056
-370.785	-200.000	-0.024	-0.163
-369.771	800.000	0.110	-0.385
-368.756	387.474	0.124	0.255
-367.742	800.000	-0.132	-0.393
-366.727	12.722	0.196	-0.151
-365.712	-200.000	-0.081	0.463
-364.698	675.071	0.042	0.108
-363.683	470.131	-0.178	-0.398
-362.669	35.065	0.163	-0.142
-361.654	-59.945	-0.444	-0.189
-360.639	11.126	-0.093	0.071
-359.625	345.925	-0.189	0.370
-358.610	-65.564	-0.084	-0.033
-357.596	139.429	-0.200	0.262
-356.581	-89.118	-0.339	0.100
-355.566	78.945	-0.235	0.250
-354.552	-37.004	0.143	-0.076
-353.537	-48.727	0.216	0.103
-352.523	-138.528	-0.086	0.009
-351.508	-200.000	0.030	0.252
-350.493	328.716	-0.134	0.256
-349.479	-104.359	-0.209	-0.048
-348.464	161.161	0.041	0.057
-347.450	-200.000	0.003	-0.244
-346.435	28.934	0.167	-0.140
-345.420	800.000	-0.098	0.353
-344.406	-25.387	-0.129	-0.076
-343.391	-200.000	0.004	-0.063
-342.377	-19.577	-0.077	-0.047
-341.362	-71.073	-0.225	0.084
-340.348	389.243	0.095	0.195
-339.333	44.445	0.090	0.082
-338.318	184.316	0.046	-0.067
-337.304	-87.435	0.098	0.029
-336.289	-6.501	-0.334	-0.226
-335.275	-200.000	0.021	-0.349
-334.260	196.021	0.158	0.239
-333.245	-145.013	-0.404	0.037
-332.231	-113.484	0.183	-0.036
-331.216	-141.124	-0.218	0.022
-330.202	-200.000	0.039	0.189
-329.187	17.563	0.166	0.131
-328.172	742.658	0.010	-0.027
-327.158	-200.000	0.038	0.192
-326.143	16.721	-0.245	0.192
-325.129	517.820	-0.086	0.201
-324.114	11.888	-0.036	0.027
-323.099	-105.682	0.069	0.016
-322.085	105.776	0.074	0.087
-321.070	-62.138	0.126	-0.052
-320.056	268.422	-0.201	0.350
-319.041	-170.132	0.181	0.006
-318.026	57.158	-0.208	-0.201
-317.012	-84.797	-0.372	-0.116
-315.997	-95.679	-0.155	0.041
-314.983	800.000	-0.133	-0.444
-313.968	76.066	0.146	0.154
-312.953	135.073	-0.115	0.148
-311.939	52.834	-0.224	0.212
-310.924	-91.941	-0.193	0.054
-309.910	445.905	-0.134	-0.292
-308.895	41.865	-0.042	-0.038
-307.880	636.960	0.072	0.183
-306.866	-200.000	0.051	0.304
-305.851	-147.720	-0.139	-0.012
-304.837	91.894	-0.155	0.173
-303.822	-123.843	-0.216	0.034
-302.807	-70.787	-0.189	0.071
-301.793	12.052	-0.242	0.185
-300.778	-108.735	0.108	0.023
-299.764	69.809	-0.078	-0.080
-298.749	-186.680	0.266	-0.004
-297.735	-200.000	-0.037	0.270
-296.720	-200.000	0.033	0.234
-295.705	-2.515	0.265	0.184
-294.691	-113.768	0.144	-0.028
-293.676	512.555	0.069	0.160
-292.662	800.000	-0.037	-0.114
-291.647	-7.653	0.263	-0.177
-290.632	74.268	0.037	0.038
-289.618	-92.588	-0.201	-0.056
-288.603	-118.124	0.205	0.036
-287.589	103.372	0.168	-0.196
-286.574	-200.000	0.100	-0.494
-285.559	-73.642	0.057	0.021
-284.545	-94.938	0.260	0.070
-283.530	18.046	-0.251	-0.198
-282.516	78.680	-0.119	0.126
-281.501	236.065	-0.102	0.168
-280.486	-63.105	0.141	-0.058
-279.472	-168.950	0.171	-0.006
-278.457	800.000	0.053	-0.194
-277.443	-69.665	-0.197	-0.075
-276.428	-200.000	0.018	-0.148
-275.413	-85.405	0.570	-0.176
-274.399	-200.000	0.003	0.065
-273.384	-107.986	-0.251	0.054
-272.370	145.956	0.161	0.214
-271.355	-200.000	0.041	-0.210
-270.340	610.587	0.037	0.092
-269.326	-42.501	-0.155	0.078
-268.311	74.475	0.148	-0.154
-267.297	-200.000	0.039	-0.334
-266.282	-128.465	-0.491	0.069
-265.267	183.621	-0.114	-0.167
-264.253	-119.676	-0.069	0.012
-263.238	397.757	-0.067	0.140
-262.224	268.817	0.057	-0.099
-261.209	-11.592	0.057	0.037
-260.195	122.251	-0.051	0.064
-259.180	4.145	0.248	0.180
-258.165	258.696	-0.046	-0.078
-257.151	227.699	-0.052	-0.084
-256.136	42.370	0.132	-0.119
-255.122	-36.671	0.096	0.051
-254.107	-200.000	-0.007	0.047
-253.092	-184.739	0.241	-0.004
-252.078	10.115	0.081	-0.061
-251.063	-14.866	-0.119	-0.075
-250.049	800.000	-0.069	-0.282
-249.034	-105.534	0.249	0.056
-248.019	800.000	0.055	-0.218
-247.005	83.346	0.236	0.254
-245.990	146.837	-0.041	-0.054
-244.976	-200.000	0.009	0.131
-243.961	-78.805	0.149	-0.050
-242.946	12.960	-0.422	-0.323
-241.932	-200.000	-0.011	-0.074
-240.917	12.306	0.275	0.210
-239.903	-29.967	-0.270	0.152
-238.888	-20.232	0.134	0.082
-237.873	135.490	-0.303	-0.390
-236.859	199.599	0.083	0.126
-235.844	63.529	-0.216	0.214
-234.830	213.433	0.047	0.073
-233.815	-68.528	0.326	-0.125
-232.800	199.953	-0.125	-0.191
-231.786	-48.283	0.162	0.077
-230.771	-49.808	-0.055	-0.026
-229.757	166.036	-0.089	0.125
-228.742	273.351	0.104	0.181
-227.727	1.324	0.132	0.094
-226.713	265.350	0.042	-0.073
-225.698	-121.997	-0.134	-0.022
-224.684	79.718	-0.163	0.173
-223.669	800.000	0.060	-0.245
-222.655	-200.000	-0.033	-0.518
-221.640	282.475	0.085	0.151
-220.625	-120.594	-0.408	0.068
-219.611	596.692	0.092	-0.226
-218.596	-73.103	0.118	-0.043
-217.582	800.000	0.105	0.300
-216.567	-56.898	0.107	-0.047
-215.552	359.293	-0.098	-0.194
-214.538	-200.000	-0.016	0.144
-213.523	-78.474	-0.093	0.031
-212.509	-84.063	-0.289	-0.091
-211.494	-200.000	0.021	-0.272
-210.479	-152.394	-0.324	0.023
-209.465	-200.000	0.002	0.131
-208.450	116.704	0.135	-0.163
-207.436	-32.738	-0.167	0.092
-206.421	284.560	-0.052	-0.093
-205.406	-51.250	0.129	0.060
-204.392	275.040	-0.094	0.165
-203.377	128.392	0.149	-0.187
-202.363	800.000	0.167	-0.495
-201.348	-108.120	0.371	0.079
-200.333	100.284	-0.070	-0.080
-199.319	-200.000	0.000	0.465
-198.304	755.100	0.097	0.259
-197.290	442.065	-0.128	0.278
-196.275	411.163	-0.030	0.064
-195.260	499.200	-0.202	0.461
-194.246	-13.901	-0.151	-0.097
-193.231	-200.000	-0.033	0.301
-192.217	-95.518	0.350	0.093
-191.202	-41.408	-0.265	0.135
-190.187	800.000	-0.058	-0.168
-189.173	800.000	-0.049	0.155
-188.158	-200.000	-0.043	-0.275
-187.144	93.393	-0.271	0.303
-186.129	-45.412	-0.119	0.058
-185.114	3.871	-0.029	-0.021
-184.100	-34.698	0.201	0.109
-183.085	68.297	0.130	0.131
-182.071	91.853	-0.213	-0.237
-181.056	-138.483	0.288	-0.031
-180.042	-78.057	0.278	-0.094
-179.027	64.540	0.252	0.251
-178.012	800.000	-0.065	-0.181
-176.998	131.599	-0.145	-0.185
-175.983	566.810	-0.019	0.045
-174.969	286.814	0.191	-0.341
-173.954	112.689	-0.069	-0.083
-172.939	-170.539	-0.333	-0.011
-171.925	173.851	0.097	-0.138
-170.910	292.168	0.142	0.255
-169.896	-79.218	-0.221	-0.074
-168.881	-63.299	0.138	0.056
-167.866	800.000	0.065	0.215
-166.852	137.537	0.140	0.181
-165.837	95.150	-0.071	-0.079
-164.823	53.529	0.113	-0.107
-163.808	48.809	-0.201	0.187
-162.793	136.522	-0.134	0.172
-161.779	-200.000	-0.009	-0.091
-160.764	-52.850	-0.092	-0.042
-159.750	-200.000	-0.041	-0.239
-158.735	604.265	-0.040	-0.097
-157.720	800.000	0.187	-0.573
-156.706	-48.112	-0.414	-0.197
-155.691	-48.304	0.042	-0.020
-154.677	59.544	-0.330	-0.321
-153.662	462.997	-0.192	-0.422
-152.647	-6.129	-0.090	0.061
-151.633	78.694	0.212	-0.223
-150.618	-160.794	-0.218	0.011
-149.604	-104.570	0.341	-0.078
-148.589	-109.195	-0.133	0.028
-147.574	-200.000	0.032	0.145
-146.560	-12.829	0.101	0.065
-145.545	136.532	-0.036	-0.046
-144.531	-87.871	-0.313	0.093
-143.516	-172.923	0.271	-0.008
-142.502	153.216	-0.203	-0.274
-141.487	196.810	-0.241	-0.363
-140.472	-59.689	0.145	0.061
-139.458	-200.000	-0.017	0.372
-138.443	-29.889	-0.220	0.123
-137.429	-200.000	-0.009	0.293
-136.414	-200.000	-0.010	0.116
-135.399	111.976	-0.059	0.071
-134.385	657.826	0.112	-0.284
-133.370	-72.111	-0.119	-0.044
-132.356	-17.009	-0.227	0.142
-131.341	800.000	-0.094	-0.259
-130.326	-53.861	0.215	0.097
-129.312	-1.031	0.111	0.078
-128.297	150.733	-0.297	-0.397
-127.283	165.079	0.070	0.097
-126.268	333.594	0.046	0.088
-125.253	-200.000	-0.040	0.239
-124.239	-56.631	0.269	-0.117
-123.224	99.486	-0.263	-0.300
-122.210	34.495	-0.100	0.086
-121.195	512.145	-0.066	0.152
-120.180	86.168	0.088	-0.096
