DTS Sentinel unit serial number:	SN413079Multiplexer serial number:	ORYXHardware model number:	OX4-SRSoftware version number:	ORYX F/W v4.00 Oryx Data Collector v3.7.2.0data status	okinstallation	princeton_trtdifferential loss correction	single-endedforward channel	channel 3reverse channel	N/Adate	2019/09/11time	00:14:11forward acquisition time	60.00reverse acquisition time	0.00gamma	496.2192k internal	0.2331k external	0.2331temperature offset calibration	0.9920default loss term (dB/km)	0.3790temperature slope calibration	1.0000multiplexer offset coefficient	1.0000multiplexer slope coefficient	1.0000fibre end	0.00T internal ref (°C)	29.31T ext. ref 1 (°C)	-0.32T ext. ref 2 (°C)	22.93length (m)	temperature (°C)	Stokes	anti-Stokes-747.200	-128.566	-0.247	0.035
-746.185	350.552	0.114	0.226
-745.171	-86.850	-0.052	-0.016
-744.156	264.683	-0.233	0.408
-743.142	-200.000	0.025	-0.167
-742.127	-8.731	-0.183	0.124
-741.112	-80.086	0.505	0.170
-740.098	-191.224	-0.187	-0.002
-739.083	800.000	-0.154	-0.576
-738.069	-85.908	-0.249	-0.078
-737.054	-4.907	0.048	0.033
-736.039	551.497	-0.020	-0.048
-735.025	166.840	-0.055	0.079
-734.010	561.577	0.065	-0.159
-732.996	-200.000	-0.010	-0.068
-731.981	-25.691	-0.116	-0.069
-730.966	-98.721	-0.431	-0.111
-729.952	-200.000	-0.013	-0.283
-728.937	-46.206	-0.111	0.055
-727.923	5.030	-0.262	-0.194
-726.908	22.011	-0.103	-0.084
-725.894	800.000	-0.108	0.315
-724.879	-114.711	-0.147	-0.028
-723.864	-200.000	-0.084	-0.474
-722.850	-89.534	0.283	0.084
-721.835	132.533	0.058	0.075
-720.821	-48.291	-0.444	0.215
-719.806	314.809	-0.040	-0.076
-718.791	148.496	-0.027	-0.037
-717.777	-120.293	-0.102	-0.018
-716.762	102.684	-0.152	0.179
-715.748	-200.000	-0.003	-0.182
-714.733	178.052	0.153	-0.224
-713.718	-200.000	-0.006	0.106
-712.704	124.594	-0.163	-0.206
-711.689	-124.408	0.131	0.020
-710.675	320.219	-0.153	0.291
-709.660	198.140	-0.055	0.084
-708.645	800.000	-0.058	-0.242
-707.631	800.000	0.081	-0.334
-706.616	-91.674	0.088	-0.025
-705.602	15.108	0.142	-0.112
-704.587	34.979	-0.166	-0.146
-703.572	128.334	-0.122	0.156
-702.558	51.436	-0.111	0.106
-701.543	188.732	-0.062	0.094
-700.529	-98.394	-0.091	-0.024
-699.514	-66.103	-0.188	-0.075
-698.499	-66.126	0.089	-0.036
-697.485	-200.000	0.006	0.116
-696.470	530.453	-0.147	-0.349
-695.456	-101.768	-0.107	-0.026
-694.441	-200.000	-0.003	0.038
-693.426	-169.462	-0.496	0.018
-692.412	-200.000	0.001	0.374
-691.397	800.000	0.046	0.192
-690.383	35.321	-0.135	-0.119
-689.368	-178.177	-0.432	0.010
-688.354	-200.000	0.051	-0.261
-687.339	-20.332	-0.107	0.066
-686.324	-100.405	-0.152	0.038
-685.310	509.722	-0.092	-0.215
-684.295	3.342	0.054	-0.040
-683.281	214.991	0.060	-0.095
-682.266	-14.972	-0.137	-0.088
-681.251	14.462	0.158	-0.124
-680.237	-35.599	-0.408	-0.222
-679.222	-78.862	-0.213	0.073
-678.208	18.283	-0.230	-0.184
-677.193	159.880	0.123	0.172
-676.178	-140.155	-0.268	-0.028
-675.164	-133.039	0.173	-0.022
-674.149	-200.000	-0.022	-0.265
-673.135	292.566	-0.101	0.185
-672.120	-166.135	0.218	-0.009
-671.105	506.207	-0.065	-0.152
-670.091	-17.707	-0.069	0.043
-669.076	-91.882	0.126	0.036
-668.062	-164.211	0.050	-0.002
-667.047	117.438	0.034	0.042
-666.032	800.000	0.054	-0.199
-665.018	-133.485	0.187	0.024
-664.003	-75.840	-0.137	-0.049
-662.989	-200.000	0.015	-0.389
-661.974	-200.000	-0.035	-0.188
-660.959	-34.081	0.095	-0.053
-659.945	-113.212	-0.420	0.083
-658.930	12.437	-0.257	-0.199
-657.916	466.984	-0.029	-0.066
-656.901	800.000	-0.068	0.188
-655.886	-103.998	0.466	-0.109
-654.872	800.000	-0.028	0.113
-653.857	-200.000	-0.004	0.186
-652.843	-69.004	-0.207	-0.080
-651.828	-120.059	-0.086	0.015
-650.814	67.314	0.435	-0.445
-649.799	800.000	0.041	-0.149
-648.784	19.461	0.231	-0.186
-647.770	-71.229	-0.349	0.131
-646.755	24.664	0.211	-0.175
-645.741	-155.479	-0.198	-0.013
-644.726	-59.872	0.162	-0.070
-643.711	-28.419	-0.037	-0.021
-642.697	800.000	-0.084	0.261
-641.682	112.391	-0.127	-0.154
-640.668	800.000	-0.033	-0.120
-639.653	79.776	-0.140	-0.151
-638.638	184.135	-0.100	0.149
-637.624	-8.602	-0.239	0.161
-636.609	-40.108	-0.106	0.055
-635.595	-40.488	-0.424	0.220
-634.580	-60.635	-0.213	-0.091
-633.565	-110.867	0.334	-0.069
-632.551	-76.767	-0.134	-0.047
-631.536	-122.343	-0.125	0.020
-630.522	-57.260	-0.161	-0.071
-629.507	494.036	0.003	-0.006
-628.492	644.857	0.067	0.172
-627.478	615.898	-0.056	0.139
-626.463	252.239	-0.070	0.120
-625.449	800.000	0.009	0.031
-624.434	12.309	0.189	0.146
-623.419	-125.872	0.401	0.061
-622.405	-200.000	0.072	0.362
-621.390	40.852	0.036	0.032
-620.376	-31.453	-0.099	0.056
-619.361	322.117	-0.010	0.019
-618.346	-2.734	-0.204	0.143
-617.332	-200.000	-0.010	0.117
-616.317	37.156	0.078	0.069
-615.303	-124.571	-0.090	-0.014
-614.288	-47.899	-0.055	0.027
-613.273	-144.291	0.222	-0.021
-612.259	-155.271	-0.139	-0.009
-611.244	-87.918	-0.160	-0.048
-610.230	-36.339	0.201	0.108
-609.215	408.457	-0.135	-0.287
-608.201	-200.000	0.014	0.099
-607.186	-93.578	-0.164	0.045
-606.171	167.252	0.107	-0.152
-605.157	-62.909	0.251	0.104
-604.142	-98.202	0.074	0.019
-603.128	172.525	-0.024	0.034
-602.113	237.970	-0.041	0.068
-601.098	-89.551	0.324	0.095
-600.084	15.566	-0.093	-0.073
-599.069	-35.118	0.182	0.099
-598.055	293.561	0.148	0.269
-597.040	-75.139	0.371	-0.133
-596.025	-119.663	-0.322	0.056
-595.011	-88.970	-0.171	0.051
-593.996	-13.832	-0.144	0.093
-592.982	541.972	0.020	0.047
-591.967	-92.022	0.286	0.081
-590.952	-72.566	0.318	0.117
-589.938	140.032	-0.080	0.106
-588.923	123.221	0.155	0.194
-587.909	-200.000	0.001	0.097
-586.894	-200.000	0.046	-0.319
-585.879	-108.875	0.269	-0.057
-584.865	555.968	0.125	0.301
-583.850	-152.889	-0.054	0.004
-582.836	75.849	-0.151	-0.160
-581.821	-200.000	0.012	-0.318
-580.806	52.939	0.093	-0.089
-579.792	800.000	-0.062	-0.220
-578.777	86.377	0.069	0.076
-577.763	91.995	0.107	0.120
-576.748	144.702	0.027	0.036
-575.733	25.267	0.050	0.041
-574.719	-187.507	-0.318	-0.004
-573.704	-200.000	0.012	-0.273
-572.690	-61.407	0.244	0.103
-571.675	-200.000	0.005	-0.198
-570.661	-26.108	-0.310	-0.182
-569.646	95.580	0.086	0.098
-568.631	800.000	0.071	0.256
-567.617	90.446	-0.127	0.142
-566.602	185.058	0.016	-0.024
-565.588	-118.806	0.262	-0.046
-564.573	40.599	0.135	0.121
-563.558	-200.000	0.021	0.158
-562.544	83.720	0.087	-0.095
-561.529	387.436	0.101	-0.208
-560.515	-71.830	0.378	0.141
-559.500	198.575	-0.020	0.031
-558.485	-59.934	0.163	0.069
-557.471	-90.096	-0.355	-0.103
-556.456	-43.049	0.192	0.097
-555.442	-143.083	-0.131	-0.013
-554.427	326.394	0.092	-0.176
-553.412	-57.430	-0.190	-0.083
-552.398	-200.000	0.002	-0.296
-551.383	97.015	-0.144	-0.166
-550.369	800.000	-0.062	-0.207
-549.354	345.693	-0.126	0.248
-548.339	265.223	-0.120	-0.208
-547.325	-24.672	-0.237	0.141
-546.310	164.889	0.196	0.276
-545.296	-66.440	-0.241	-0.096
-544.281	540.416	0.046	0.110
-543.266	-56.172	-0.358	0.159
-542.252	-25.822	0.219	-0.129
-541.237	-87.779	0.097	0.029
-540.223	-200.000	0.014	0.067
-539.208	-74.625	-0.396	0.142
-538.193	-173.956	0.168	0.005
-537.179	800.000	-0.041	0.171
-536.164	83.994	-0.291	0.318
-535.150	-106.346	0.175	0.039
-534.135	37.820	-0.236	-0.209
-533.121	15.284	-0.073	0.057
-532.106	578.516	-0.066	-0.161
-531.091	-124.451	0.191	0.030
-530.077	98.182	0.158	-0.181
-529.062	6.251	0.189	-0.140
-528.048	-109.237	0.166	-0.035
-527.033	-56.818	-0.265	0.117
-526.018	-21.943	-0.209	0.127
-525.004	207.297	-0.165	-0.257
-523.989	370.089	-0.062	-0.125
-522.975	162.272	-0.171	0.240
-521.960	337.914	-0.085	-0.166
-520.945	-51.366	0.130	0.061
-519.931	-173.620	0.112	-0.003
-518.916	-45.616	0.044	0.022
-517.902	344.518	-0.101	-0.198
-516.887	162.945	-0.092	0.129
-515.872	-70.719	0.154	-0.058
-514.858	-200.000	0.030	-0.196
-513.843	14.318	0.135	-0.105
-512.829	-35.495	-0.204	0.111
-511.814	456.531	0.066	0.146
-510.799	-170.481	0.183	0.006
-509.785	-158.664	0.059	-0.003
-508.770	-169.500	0.399	-0.015
-507.756	-10.437	0.239	0.158
-506.741	651.234	-0.029	-0.075
-505.726	-32.786	-0.072	-0.040
-504.712	-83.944	0.238	0.076
-503.697	-69.208	-0.248	0.095
-502.683	143.330	0.108	0.143
-501.668	-47.879	-0.285	0.138
-500.653	-108.053	0.117	0.025
-499.639	-63.579	-0.178	-0.073
-498.624	7.340	-0.221	0.164
-497.610	80.848	0.053	-0.057
-496.595	-11.519	0.265	0.174
-495.581	34.024	-0.343	-0.298
-494.566	-24.268	0.151	-0.090
-493.551	-37.992	-0.183	0.097
-492.537	63.217	-0.279	-0.279
-491.522	460.553	-0.190	0.423
-490.508	508.532	-0.193	0.447
-489.493	-200.000	0.006	-0.316
-488.478	800.000	0.095	0.368
-487.464	17.215	-0.066	0.053
-486.449	-186.260	0.041	-0.001
-485.435	-36.104	-0.089	-0.048
-484.420	-119.188	0.145	-0.025
-483.405	-200.000	0.007	0.176
-482.391	-1.861	0.112	0.079
-481.376	195.256	-0.230	0.348
-480.362	-37.678	-0.249	0.132
-479.347	378.046	-0.119	0.243
-478.332	82.913	0.047	0.051
-477.318	-157.036	0.387	-0.024
-476.303	1.980	0.021	0.015
-475.289	67.362	-0.450	0.457
-474.274	-22.517	0.127	0.076
-473.259	-31.285	0.211	0.118
-472.245	-193.322	-0.306	0.003
-471.230	-48.470	-0.051	-0.024
-470.216	-177.439	0.127	0.003
-469.201	-200.000	0.009	0.327
-468.186	-200.000	-0.021	0.356
-467.172	-142.545	0.218	-0.021
-466.157	727.828	0.116	0.308
-465.143	30.411	-0.160	-0.136
-464.128	560.199	-0.039	-0.093
-463.113	-200.000	0.033	-0.237
-462.099	-200.000	0.021	-0.355
-461.084	800.000	0.104	0.293
-460.070	-39.070	0.294	-0.154
-459.055	-76.492	0.194	0.068
-458.040	-200.000	-0.073	-0.352
-457.026	-6.971	0.380	-0.257
-456.011	297.877	-0.140	-0.256
-454.997	-200.000	-0.045	-0.277
-453.982	32.996	-0.281	0.242
-452.968	-80.237	-0.191	-0.064
-451.953	227.218	0.037	-0.060
-450.938	-79.471	-0.389	-0.131
-449.924	39.990	0.069	0.062
-448.909	-168.725	-0.101	-0.004
-447.895	-30.809	-0.297	-0.167
-446.880	10.959	-0.197	-0.150
-445.865	-102.603	-0.076	0.018
-444.851	135.684	-0.122	0.158
-443.836	-124.107	0.090	-0.014
-442.822	-33.421	0.044	-0.024
-441.807	148.662	-0.166	-0.223
-440.792	8.496	-0.168	0.126
-439.778	-180.724	-0.080	-0.002
-438.763	70.887	0.112	0.116
-437.749	73.649	0.178	-0.186
-436.734	-49.837	0.149	0.070
-435.719	136.667	-0.083	0.108
-434.705	149.366	-0.210	0.283
-433.690	7.848	-0.053	-0.039
-432.676	52.067	0.153	0.145
-431.661	-200.000	0.044	0.273
-430.646	-41.138	-0.219	-0.112
-429.632	-25.333	-0.384	-0.226
-428.617	800.000	-0.101	-0.281
-427.603	-128.336	0.368	0.052
-426.588	348.182	-0.155	-0.303
-425.573	299.371	-0.014	-0.025
-424.559	-200.000	0.012	0.189
-423.544	800.000	0.076	0.250
-422.530	620.020	-0.045	0.112
-421.515	431.315	-0.087	-0.187
-420.500	123.998	0.144	-0.180
-419.486	-94.569	0.366	-0.099
-418.471	-82.887	0.449	-0.144
-417.457	139.799	0.255	-0.334
-416.442	-200.000	0.014	-0.205
-415.428	800.000	0.063	-0.182
-414.413	145.380	-0.128	0.171
-413.398	91.825	0.092	0.103
-412.384	-128.779	0.530	0.074
-411.369	-87.659	0.648	-0.194
-410.355	22.983	0.238	0.194
-409.340	-200.000	-0.045	-0.291
-408.325	81.470	-0.129	-0.138
-407.311	267.196	0.171	-0.297
-406.296	-103.223	-0.038	0.009
-405.282	236.752	0.172	0.284
-404.267	-200.000	0.033	-0.243
-403.252	17.896	0.303	0.239
-402.238	5.095	0.162	-0.118
-401.223	800.000	0.111	-0.371
-400.209	-200.000	-0.091	0.510
-399.194	-200.000	0.016	0.152
-398.179	-200.000	0.034	0.197
-397.165	-200.000	-0.003	-0.155
-396.150	800.000	-0.005	-0.018
-395.136	-200.000	-0.019	0.200
-394.121	-50.502	-0.275	0.129
-393.106	-110.048	-0.292	0.061
-392.092	800.000	0.066	0.251
-391.077	120.585	0.119	0.147
-390.063	-104.448	-0.352	-0.081
-389.048	-3.852	0.184	0.127
-388.033	800.000	0.037	0.111
-387.019	-200.000	0.019	0.165
-386.004	800.000	-0.080	-0.275
-384.990	-159.019	0.287	0.016
-383.975	-200.000	-0.020	-0.212
-382.960	800.000	-0.075	0.205
-381.946	-16.667	-0.146	0.091
-380.931	54.096	-0.183	0.175
-379.917	800.000	0.050	0.161
-378.902	23.531	0.185	0.151
-377.888	-108.083	-0.306	-0.066
-376.873	800.000	0.082	-0.229
-375.858	161.442	-0.119	-0.165
-374.844	273.479	0.173	-0.303
-373.829	32.868	-0.204	-0.175
-372.815	48.385	-0.321	-0.298
-371.800	-36.009	0.237	-0.127
-370.785	619.979	-0.085	-0.212
-369.771	198.000	-0.050	0.076
-368.756	-200.000	-0.046	0.250
-367.742	144.326	0.091	0.120
-366.727	-200.000	0.031	-0.218
-365.712	-200.000	-0.001	0.059
-364.698	-15.805	0.333	-0.211
-363.683	360.436	-0.112	-0.221
-362.669	-29.541	-0.032	-0.018
-361.654	-200.000	0.010	0.082
-360.639	-175.151	-0.092	-0.003
-359.625	-200.000	0.000	0.127
-358.610	-200.000	0.019	-0.107
-357.596	-69.590	0.045	-0.017
-356.581	23.898	0.171	-0.140
-355.566	-28.396	-0.239	0.136
-354.552	-200.000	-0.011	0.241
-353.537	-106.245	-0.202	0.045
-352.523	-200.000	-0.002	0.335
-351.508	-200.000	0.039	0.446
-350.493	-200.000	-0.019	0.289
-349.479	-99.538	0.089	0.022
-348.464	7.118	-0.265	-0.196
-347.450	93.371	0.113	0.127
-346.435	-151.486	0.186	-0.014
-345.420	-99.627	-0.257	-0.064
-344.406	46.929	-0.097	0.089
-343.391	152.646	-0.152	-0.206
-342.377	-34.827	-0.050	-0.027
-341.362	-91.268	0.282	-0.080
-340.348	-79.316	-0.103	0.035
-339.333	-27.780	0.095	-0.055
-338.318	34.585	-0.057	-0.049
-337.304	-27.685	-0.169	0.097
-336.289	112.983	-0.165	-0.199
-335.275	-68.940	0.345	-0.132
-334.260	379.070	-0.108	-0.220
-333.245	378.770	-0.208	-0.421
-332.231	-13.021	-0.061	-0.039
-331.216	-200.000	-0.002	-0.156
-330.202	-200.000	0.000	-0.016
-329.187	-121.923	-0.335	0.055
-328.172	-6.806	-0.329	-0.221
-327.158	-160.924	-0.246	0.013
-326.143	-200.000	-0.025	0.363
-325.129	43.013	0.124	0.112
-324.114	45.252	0.119	0.108
-323.099	78.318	0.072	0.076
-322.085	-181.867	-0.282	0.005
-321.070	30.934	-0.152	-0.129
-320.056	38.418	0.079	-0.070
-319.041	51.824	0.218	-0.205
-318.026	-200.000	0.024	-0.240
-317.012	396.910	-0.081	-0.167
-315.997	-200.000	0.031	0.233
-314.983	-200.000	-0.006	0.185
-313.968	-185.508	-0.158	-0.002
-312.953	-44.580	-0.125	-0.062
-311.939	1.630	0.138	0.098
-310.924	42.687	0.322	-0.290
-309.910	-125.601	-0.430	0.065
-308.895	800.000	-0.054	-0.159
-307.880	-109.489	-0.084	-0.018
-306.866	-169.088	-0.070	0.003
-305.851	-122.676	-0.329	-0.053
-304.837	592.341	0.149	-0.364
-303.822	-200.000	0.033	0.216
-302.807	-163.601	-0.230	-0.011
-301.793	-171.127	0.363	-0.012
-300.778	223.430	-0.211	-0.337
-299.764	800.000	-0.060	0.194
-298.749	-73.809	0.110	0.040
-297.735	-83.647	0.056	-0.018
-296.720	-190.915	-0.334	0.003
-295.705	251.879	-0.132	0.223
-294.691	-50.971	0.393	0.182
-293.676	-200.000	0.038	0.370
-292.662	-200.000	0.050	0.232
-291.647	-55.607	-0.117	0.052
-290.632	274.250	0.087	0.151
-289.618	800.000	0.057	0.233
-288.603	-113.424	0.433	0.084
-287.589	634.563	-0.082	0.205
-286.574	-12.017	0.206	0.134
-285.559	-143.875	-0.194	0.018
-284.545	800.000	-0.053	-0.154
-283.530	-7.213	0.105	0.070
-282.516	82.512	-0.078	-0.083
-281.501	-165.174	0.332	-0.015
-280.486	-77.501	-0.411	0.141
-279.472	-200.000	-0.001	-0.041
-278.457	-52.018	0.048	-0.022
-277.443	-137.294	-0.137	0.015
-276.428	-126.498	-0.160	0.023
-275.413	800.000	-0.026	-0.107
-274.399	-138.171	-0.075	-0.008
-273.384	-144.459	-0.096	-0.009
-272.370	-200.000	-0.019	-0.092
-271.355	-22.159	0.055	-0.033
-270.340	800.000	0.012	0.034
-269.326	5.870	-0.082	-0.060
-268.311	20.496	0.192	0.153
-267.297	-34.823	0.150	0.081
-266.282	800.000	-0.109	0.335
-265.267	-22.576	-0.147	0.088
-264.253	303.036	-0.071	-0.130
-263.238	82.290	-0.193	-0.206
-262.224	60.217	0.179	-0.175
-261.209	800.000	-0.090	-0.297
-260.195	-200.000	-0.004	-0.168
-259.180	-200.000	0.037	-0.290
-258.165	-91.599	-0.067	0.019
-257.151	32.183	0.179	-0.152
-256.136	-21.434	-0.024	-0.014
-255.122	-200.000	-0.021	-0.091
-254.107	-22.464	0.038	0.023
-253.092	23.318	0.122	0.099
-252.078	-18.421	0.265	-0.164
-251.063	100.397	0.068	-0.078
-250.049	-11.231	0.179	-0.116
-249.034	132.894	-0.126	-0.160
-248.019	191.466	-0.084	0.124
-247.005	-155.822	-0.094	-0.006
-245.990	645.821	-0.079	-0.198
-244.976	-18.186	0.049	0.030
-243.961	152.838	0.307	0.414
-242.946	143.979	0.105	-0.138
-241.932	187.450	-0.099	-0.145
-240.917	-143.938	0.461	0.043
-239.903	800.000	-0.047	-0.131
-238.888	800.000	0.027	0.104
-237.873	-127.997	-0.423	0.060
-236.859	800.000	-0.067	-0.202
-235.844	531.909	-0.061	0.143
-234.830	138.002	-0.248	-0.321
-233.815	243.975	0.116	-0.192
-232.800	800.000	-0.066	-0.194
-231.786	-200.000	-0.010	0.348
-230.771	-32.936	0.102	-0.056
-229.757	-200.000	0.044	0.505
-228.742	64.258	0.163	0.162
-227.727	63.227	0.207	-0.205
-226.713	443.845	0.080	-0.172
-225.698	115.985	-0.020	0.024
-224.684	-80.533	-0.343	-0.113
-223.669	224.329	-0.208	0.332
-222.655	-32.358	0.104	-0.057
-221.640	-125.048	-0.437	0.066
-220.625	-200.000	-0.048	-0.414
-219.611	422.443	0.028	-0.060
-218.596	208.750	-0.038	0.059
-217.582	62.757	-0.232	-0.228
-216.567	-200.000	0.015	0.421
-215.552	100.365	-0.349	0.399
-214.538	276.279	0.201	-0.352
-213.523	-200.000	-0.029	-0.181
-212.509	32.274	-0.103	0.087
-211.494	-151.139	-0.175	0.013
-210.479	-137.753	0.150	0.017
-209.465	-145.667	-0.203	-0.018
-208.450	-115.508	0.453	0.084
-207.436	20.171	0.140	-0.111
-206.421	-45.519	0.198	0.097
-205.406	498.609	0.034	-0.078
-204.392	-43.680	0.151	0.075
-203.377	-65.371	-0.191	0.076
-202.363	598.504	-0.048	0.117
-201.348	-9.223	0.168	0.111
-200.333	-30.011	-0.079	0.044
-199.319	800.000	0.165	0.453
-198.304	80.857	-0.170	-0.180
-197.290	-84.341	0.157	-0.049
-196.275	26.101	-0.199	0.163
-195.260	800.000	0.104	0.286
-194.246	-88.669	0.341	0.100
-193.231	-27.748	0.206	0.118
-192.217	800.000	0.044	-0.130
-191.202	-108.349	0.495	-0.105
-190.187	195.437	0.131	-0.196
-189.173	315.949	-0.120	-0.222
-188.158	598.140	0.075	0.183
-187.144	135.584	0.133	-0.171
-186.129	800.000	0.020	-0.076
-185.114	-200.000	0.006	-0.085
-184.100	-200.000	-0.045	-0.563
-183.085	-200.000	0.058	-0.330
-182.071	800.000	-0.096	-0.319
-181.056	19.766	0.211	0.167
-180.042	304.634	-0.125	0.229
-179.027	-200.000	0.028	-0.156
-178.012	42.259	-0.186	-0.166
-176.998	-135.730	-0.188	-0.022
-175.983	-118.743	-0.200	0.035
-174.969	-124.585	0.548	-0.084
-173.954	-110.884	0.290	-0.059
-172.939	-132.955	0.022	-0.003
-171.925	108.400	-0.043	-0.051
-170.910	-130.533	0.391	-0.052
-169.896	-90.605	-0.151	-0.043
-168.881	-87.991	0.180	0.053
-167.866	-145.113	-0.075	-0.007
-166.852	-77.319	-0.309	0.106
-165.837	-200.000	0.002	-0.052
-164.823	-200.000	-0.038	-0.201
-163.808	211.237	0.084	0.130
-162.793	221.565	-0.196	-0.310
-161.779	421.435	0.051	-0.107
-160.764	-200.000	0.041	-0.182
-159.750	-71.723	0.336	-0.123
-158.735	330.046	0.126	-0.239
-157.720	-77.788	-0.178	-0.061
-156.706	-1.922	0.157	-0.109
-155.691	-34.608	-0.261	0.140
-154.677	-160.398	0.237	0.013
-153.662	-200.000	-0.036	0.276
-152.647	133.589	0.069	0.088
-151.633	35.975	0.077	0.066
-150.618	31.273	-0.129	0.109
-149.604	69.577	0.166	-0.168
-148.589	-200.000	-0.006	-0.126
-147.574	800.000	-0.080	-0.300
-146.560	-36.039	0.176	-0.094
-145.545	246.626	0.160	0.266
-144.531	-8.035	0.205	0.136
-143.516	-200.000	-0.008	-0.163
-142.502	-148.883	-0.203	-0.016
-141.487	-49.173	0.300	0.141
-140.472	634.660	0.117	0.291
-139.458	-87.623	-0.113	-0.034
-138.443	-91.433	-0.012	0.003
-137.429	800.000	-0.087	0.284
-136.414	-143.056	-0.375	0.036
-135.399	-103.958	-0.230	0.053
-134.385	89.116	0.295	-0.323
-133.370	-200.000	-0.011	0.094
-132.356	157.505	-0.144	-0.196
-131.341	-200.000	0.002	-0.118
-130.326	-111.780	0.147	0.029
-129.312	490.677	0.044	0.099
-128.297	800.000	-0.126	-0.404
-127.283	-134.182	-0.121	0.015
-126.268	800.000	0.038	-0.106
-125.253	14.267	0.089	0.068
-124.239	342.296	0.226	0.434
-123.224	35.643	0.322	-0.278
-122.210	-139.450	-0.030	0.003
