DTS Sentinel unit serial number:	SN413079Multiplexer serial number:	ORYXHardware model number:	OX4-SRSoftware version number:	ORYX F/W v4.00 Oryx Data Collector v3.7.2.0data status	okinstallation	princeton_trtdifferential loss correction	single-endedforward channel	channel 3reverse channel	N/Adate	2019/09/11time	19:30:11forward acquisition time	60.00reverse acquisition time	0.00gamma	496.2192k internal	0.2296k external	0.2296temperature offset calibration	1.0020default loss term (dB/km)	0.3790temperature slope calibration	1.0000multiplexer offset coefficient	1.0000multiplexer slope coefficient	1.0000fibre end	0.00T internal ref (°C)	40.44T ext. ref 1 (°C)	1.34T ext. ref 2 (°C)	32.55length (m)	temperature (°C)	Stokes	anti-Stokes-747.200	-26.430	0.219	0.131
-746.185	76.711	-0.171	0.185
-745.171	44.256	-0.233	0.219
-744.156	-133.011	-0.073	-0.009
-743.142	-85.962	0.160	-0.050
-742.127	336.390	-0.236	0.469
-741.112	800.000	-0.058	-0.185
-740.098	398.182	-0.282	0.603
-739.083	800.000	0.060	-0.174
-738.069	-200.000	-0.042	0.207
-737.054	-21.556	0.153	0.095
-736.039	-70.587	-0.166	-0.064
-735.025	59.933	-0.136	-0.138
-734.010	-31.015	-0.251	-0.145
-732.996	-53.972	-0.189	0.088
-731.981	332.951	0.121	-0.240
-730.966	-28.690	0.058	-0.034
-729.952	-200.000	-0.065	-0.330
-728.937	-46.851	0.243	-0.121
-727.923	44.234	0.082	0.077
-726.908	30.141	-0.087	-0.076
-725.894	54.070	-0.158	-0.155
-724.879	303.839	-0.088	-0.167
-723.864	-200.000	-0.006	-0.179
-722.850	18.060	-0.186	-0.152
-721.835	480.664	-0.138	0.319
-720.821	-31.164	-0.145	0.084
-719.806	81.450	0.099	0.109
-718.791	-31.208	-0.339	-0.195
-717.777	-60.553	-0.156	-0.068
-716.762	-106.954	0.124	-0.028
-715.748	-200.000	-0.064	-0.378
-714.733	28.384	0.061	0.052
-713.718	-131.336	0.093	0.013
-712.704	146.956	-0.102	-0.140
-711.689	-104.228	0.133	0.032
-710.675	800.000	-0.012	0.034
-709.660	-135.962	-0.194	0.023
-708.645	-67.028	0.172	-0.069
-707.631	-9.681	0.125	0.085
-706.616	-200.000	-0.008	0.152
-705.602	-200.000	-0.003	0.107
-704.587	-104.885	-0.281	-0.066
-703.572	587.200	-0.116	-0.292
-702.558	-7.576	-0.328	-0.226
-701.543	-32.253	0.131	-0.075
-700.529	259.228	0.058	-0.102
-699.514	232.124	-0.028	-0.047
-698.499	64.795	-0.239	-0.246
-697.485	-200.000	0.015	-0.199
-696.470	39.202	0.139	0.127
-695.456	-200.000	0.015	0.242
-694.441	-200.000	0.071	-0.372
-693.426	55.790	-0.119	0.117
-692.412	-114.188	-0.180	0.035
-691.397	-30.008	0.280	0.163
-690.383	-7.414	-0.188	-0.130
-689.368	-200.000	-0.023	-0.367
-688.354	-110.984	-0.262	0.055
-687.339	-75.160	-0.253	-0.092
-686.324	171.083	0.215	0.314
-685.310	800.000	-0.084	0.290
-684.295	-83.250	-0.039	-0.013
-683.281	-129.386	0.243	-0.034
-682.266	-88.935	0.254	-0.077
-681.251	-101.997	-0.174	-0.043
-680.237	800.000	-0.055	-0.223
-679.222	235.888	0.174	-0.293
-678.208	-200.000	-0.019	-0.279
-677.193	484.599	-0.119	-0.275
-676.178	117.066	-0.227	-0.285
-675.164	-168.187	-0.158	-0.006
-674.149	-0.553	-0.093	-0.067
-673.135	-61.635	0.210	0.090
-672.120	-28.385	-0.099	-0.058
-671.105	-200.000	-0.011	0.149
-670.091	225.831	-0.091	-0.151
-669.076	800.000	0.162	-0.573
-668.062	-144.839	-0.072	-0.007
-667.047	800.000	-0.068	0.232
-666.032	-145.419	0.144	-0.013
-665.018	77.708	0.103	-0.112
-664.003	-32.941	0.040	-0.022
-662.989	-106.638	-0.191	0.043
-661.974	-46.190	-0.171	0.086
-660.959	-17.473	-0.182	-0.117
-659.945	-61.492	-0.076	0.033
-658.930	800.000	-0.031	0.130
-657.916	-63.975	-0.112	0.046
-656.901	183.113	-0.145	-0.218
-655.886	249.858	0.215	-0.372
-654.872	71.773	0.117	-0.124
-653.857	800.000	-0.060	-0.175
-652.843	800.000	0.067	0.229
-651.828	800.000	-0.048	0.209
-650.814	-186.008	-0.316	-0.005
-649.799	106.271	0.171	0.206
-648.784	-200.000	0.003	-0.359
-647.770	-200.000	-0.003	0.282
-646.755	129.136	0.100	-0.130
-645.741	146.781	-0.357	-0.488
-644.726	80.429	-0.205	-0.225
-643.711	65.779	-0.127	0.131
-642.697	800.000	-0.070	0.216
-641.682	121.012	0.106	-0.135
-640.668	800.000	-0.100	-0.304
-639.653	-200.000	-0.022	-0.123
-638.638	-69.063	0.128	-0.050
-637.624	-65.633	-0.165	0.067
-636.609	232.253	0.066	0.111
-635.595	53.392	-0.169	0.165
-634.580	-127.246	0.338	-0.050
-633.565	-16.549	0.144	0.093
-632.551	88.061	0.056	0.063
-631.536	800.000	-0.030	-0.103
-630.522	18.186	-0.133	0.108
-629.507	-89.462	0.280	-0.084
-628.492	127.095	0.143	0.185
-627.478	591.939	0.079	0.199
-626.463	124.104	-0.010	-0.012
-625.449	-200.000	-0.001	0.019
-624.434	18.097	0.176	0.143
-623.419	218.473	0.066	0.107
-622.405	48.037	0.081	0.077
-621.390	148.114	0.129	-0.177
-620.376	-200.000	-0.018	0.334
-619.361	370.382	0.158	-0.326
-618.346	-200.000	-0.003	-0.134
-617.332	152.617	-0.136	0.189
-616.317	-200.000	0.414	-0.002
-615.303	482.567	-0.058	-0.133
-614.288	129.000	0.033	-0.043
-613.273	111.623	-0.260	-0.319
-612.259	800.000	0.083	0.264
-611.244	404.086	-0.035	0.075
-610.230	14.469	0.104	-0.082
-609.215	-177.007	-0.301	0.008
-608.201	-127.085	0.388	-0.058
-607.186	-90.896	-0.107	-0.031
-606.171	-119.952	0.154	0.027
-605.157	-200.000	-0.017	-0.161
-604.142	-17.423	-0.302	0.193
-603.128	463.893	-0.118	0.267
-602.113	552.757	0.031	0.075
-601.098	-43.358	-0.206	-0.106
-600.084	315.746	-0.049	-0.094
-599.069	275.203	-0.094	-0.169
-598.055	-118.924	-0.036	-0.006
-597.040	-99.965	-0.108	-0.027
-596.025	278.230	0.029	-0.052
-595.011	-95.496	-0.309	0.084
-593.996	-110.381	0.204	-0.043
-592.982	-200.000	-0.020	-0.138
-591.967	246.951	-0.016	0.027
-590.952	-95.551	-0.071	0.019
-589.938	-163.769	-0.286	0.014
-588.923	-200.000	0.008	-0.086
-587.909	-48.258	0.094	0.046
-586.894	280.036	0.166	-0.301
-585.879	-200.000	0.030	-0.289
-584.865	-87.518	-0.340	0.105
-583.850	-35.147	-0.222	0.123
-582.836	-8.370	0.079	-0.054
-581.821	-52.166	-0.154	-0.073
-580.806	345.234	0.129	-0.258
-579.792	-117.497	0.374	-0.069
-578.777	-200.000	0.015	0.200
-577.763	275.139	0.077	-0.138
-576.748	-76.452	0.257	0.092
-575.733	241.661	0.222	0.377
-574.719	280.372	-0.102	-0.185
-573.704	204.785	-0.065	0.102
-572.690	-193.790	-0.137	0.001
-571.675	-154.438	-0.390	-0.027
-570.661	672.416	0.119	0.313
-569.646	371.792	-0.172	-0.354
-568.631	-58.084	-0.231	0.102
-567.617	534.410	-0.034	-0.082
-566.602	800.000	0.015	0.060
-565.588	-14.930	-0.376	0.245
-564.573	-73.107	0.128	0.048
-563.558	800.000	0.084	0.358
-562.544	-48.758	0.154	-0.075
-561.529	1.881	-0.072	-0.053
-560.515	800.000	0.053	0.221
-559.500	5.727	0.215	-0.161
-558.485	75.802	0.289	-0.310
-557.471	-72.261	0.274	0.103
-556.456	381.120	-0.120	0.250
-555.442	-200.000	-0.220	0.001
-554.427	-146.597	0.091	0.008
-553.412	-15.468	0.206	0.134
-552.398	-200.000	0.004	-0.226
-551.383	108.889	-0.167	0.203
-550.369	-105.364	0.106	-0.024
-549.354	157.757	0.102	-0.144
-548.339	100.718	0.296	-0.349
-547.325	48.466	-0.083	-0.079
-546.310	-54.907	-0.146	0.067
-545.296	-145.254	-0.475	0.044
-544.281	225.253	0.065	-0.107
-543.266	-80.682	-0.227	-0.077
-542.252	-85.442	-0.365	0.115
-541.237	71.331	0.092	0.097
-540.223	40.534	-0.401	-0.366
-539.208	240.219	-0.122	-0.206
-538.193	341.363	0.078	-0.155
-537.179	-92.646	0.340	0.097
-536.164	-123.217	-0.214	-0.035
-535.150	-200.000	-0.017	0.178
-534.135	790.019	-0.070	0.195
-533.121	-131.422	-0.095	-0.013
-532.106	-200.000	-0.003	0.186
-531.091	165.359	0.140	0.201
-530.077	53.716	0.083	0.081
-529.062	-200.000	-0.010	-0.198
-528.048	-60.608	-0.093	-0.040
-527.033	720.248	0.013	-0.036
-526.018	163.802	-0.164	0.234
-525.004	-167.705	-0.174	-0.007
-523.989	63.313	0.404	0.410
-522.975	-162.472	-0.098	0.005
-521.960	-134.309	-0.148	-0.018
-520.945	89.662	-0.280	0.316
-519.931	-34.241	0.197	0.109
-518.916	-200.000	0.014	-0.184
-517.902	279.742	-0.150	-0.272
-516.887	137.416	-0.112	-0.149
-515.872	800.000	-0.058	-0.222
-514.858	-197.586	-0.166	0.001
-513.843	-6.575	0.062	-0.043
-512.829	-81.946	-0.138	0.046
-511.814	388.851	0.113	0.237
-510.799	-73.843	0.125	-0.046
-509.785	180.650	-0.112	-0.166
-508.770	-197.342	-0.210	-0.001
-507.756	316.944	0.125	0.240
-506.741	-158.156	0.420	0.025
-505.726	263.765	-0.175	0.308
-504.712	-35.085	0.125	0.069
-503.697	800.000	-0.036	-0.147
-502.683	370.758	-0.127	0.260
-501.668	-200.000	0.032	-0.304
-500.653	800.000	-0.058	0.186
-499.639	145.141	-0.086	0.117
-498.624	25.800	0.360	0.304
-497.610	-24.935	-0.181	-0.109
-496.595	800.000	-0.020	0.078
-495.581	117.262	-0.016	0.020
-494.566	-116.335	0.242	0.045
-493.551	127.792	0.092	-0.119
-492.537	-21.944	-0.314	0.193
-491.522	-65.755	-0.142	-0.058
-490.508	800.000	-0.121	-0.473
-489.493	-61.199	0.171	-0.073
-488.478	696.114	-0.051	-0.135
-487.464	121.367	-0.174	0.219
-486.449	453.948	-0.042	-0.095
-485.435	-125.939	0.414	-0.063
-484.420	-200.000	0.003	0.065
-483.405	141.879	0.123	0.164
-482.391	287.089	0.123	-0.224
-481.376	-80.686	-0.136	-0.046
-480.362	56.620	-0.048	-0.047
-479.347	-71.958	0.101	-0.038
-478.332	-78.337	-0.322	0.112
-477.318	57.829	-0.123	-0.121
-476.303	800.000	0.077	-0.219
-475.289	800.000	-0.109	0.356
-474.274	44.244	-0.109	0.101
-473.259	-106.865	0.106	0.024
-472.245	800.000	0.102	-0.424
-471.230	12.049	0.050	0.039
-470.216	17.612	0.151	-0.121
-469.201	-41.407	-0.070	-0.036
-468.186	-200.000	0.046	-0.300
-467.172	800.000	0.041	0.134
-466.157	179.879	0.033	-0.049
-465.143	-125.174	-0.229	0.035
-464.128	-32.971	-0.073	0.041
-463.113	124.997	-0.058	0.073
-462.099	-33.606	-0.183	-0.102
-461.084	-70.310	0.364	0.140
-460.070	-137.807	0.096	-0.011
-459.055	-39.338	0.184	-0.098
-458.040	72.574	-0.096	-0.101
-457.026	278.508	-0.264	0.475
-456.011	-16.622	-0.205	-0.131
-454.997	373.042	0.153	-0.315
-453.982	199.576	-0.149	0.231
-452.968	186.810	-0.078	0.117
-451.953	-93.523	-0.197	0.055
-450.938	-200.000	-0.017	0.177
-449.924	97.625	0.183	0.212
-448.909	-200.000	-0.020	0.171
-447.895	800.000	-0.039	-0.112
-446.880	102.781	-0.050	-0.059
-445.865	101.201	0.241	-0.283
-444.851	70.607	0.026	0.027
-443.836	57.621	0.183	0.180
-442.822	243.393	-0.112	-0.190
-441.807	-107.390	-0.043	0.010
-440.792	-103.644	0.245	-0.058
-439.778	-137.735	-0.058	0.007
-438.763	-52.072	0.172	0.081
-437.749	-26.063	0.059	-0.035
-436.734	65.201	-0.187	0.191
-435.719	-76.866	-0.070	0.025
-434.705	800.000	0.098	0.284
-433.690	416.533	0.118	0.254
-432.676	800.000	0.091	0.265
-431.661	-86.090	0.150	-0.047
-430.646	82.793	-0.012	0.013
-429.632	50.891	-0.096	0.091
-428.617	4.115	-0.244	-0.180
-427.603	526.000	-0.077	-0.184
-426.588	142.064	-0.129	0.172
-425.573	-28.391	-0.278	-0.162
-424.559	-200.000	0.012	0.221
-423.544	-200.000	-0.001	0.172
-422.530	-91.367	-0.029	0.008
-421.515	-125.794	0.069	-0.011
-420.500	26.394	0.095	-0.080
-419.486	800.000	-0.059	-0.255
-418.471	-200.000	-0.021	-0.271
-417.457	40.047	-0.224	0.203
-416.442	134.728	0.234	-0.307
-415.428	800.000	-0.060	-0.201
-414.413	800.000	0.045	-0.182
-413.398	800.000	-0.039	0.117
-412.384	-99.446	-0.403	0.102
-411.369	-137.657	-0.188	0.021
-410.355	207.327	0.081	-0.127
-409.340	-200.000	-0.004	0.376
-408.325	-79.915	0.112	0.038
-407.311	800.000	0.046	-0.159
-406.296	528.461	0.103	-0.245
-405.282	95.756	0.211	0.243
-404.267	-78.023	0.213	0.074
-403.252	800.000	-0.054	-0.185
-402.238	-130.996	0.120	-0.016
-401.223	395.743	-0.131	0.276
-400.209	-116.296	0.245	-0.046
-399.194	-50.618	0.106	0.051
-398.179	-23.290	0.296	-0.179
-397.165	-60.545	-0.256	0.109
-396.150	265.606	0.096	-0.168
-395.136	800.000	-0.075	-0.316
-394.121	145.394	0.128	-0.172
-393.106	-101.215	0.379	0.093
-392.092	-200.000	0.044	-0.283
-391.077	116.098	-0.156	0.193
-390.063	68.674	0.074	-0.076
-389.048	503.560	-0.023	-0.054
-388.033	-130.503	0.155	-0.021
-387.019	-179.190	-0.337	-0.008
-386.004	-200.000	0.078	-0.361
-384.990	11.132	0.145	0.112
-383.975	61.318	0.108	-0.108
-382.960	-200.000	-0.042	-0.262
-381.946	200.423	0.072	0.111
-380.931	-117.954	-0.117	-0.021
-379.917	12.738	0.227	-0.177
-378.902	-190.189	0.226	0.003
-377.888	48.316	-0.267	0.252
-376.873	-55.787	0.098	0.044
-375.858	-2.951	0.072	0.051
-374.844	160.470	0.262	-0.369
-373.829	-200.000	-0.101	0.000
-372.815	29.028	0.134	0.114
-371.800	-200.000	0.091	-0.439
-370.785	-105.530	-0.111	0.025
-369.771	256.745	-0.083	0.143
-368.756	38.641	0.112	-0.101
-367.742	461.522	0.086	-0.193
-366.727	800.000	0.071	0.239
-365.712	-200.000	0.014	0.217
-364.698	-137.570	0.111	-0.013
-363.683	-200.000	0.021	0.121
-362.669	633.445	-0.092	0.235
-361.654	800.000	-0.062	-0.257
-360.639	800.000	-0.023	0.086
-359.625	-79.056	0.251	0.086
-358.610	-33.037	0.191	-0.106
-357.596	-73.766	0.068	-0.025
-356.581	65.638	-0.144	-0.147
-355.566	-28.360	-0.216	0.126
-354.552	800.000	-0.037	-0.113
-353.537	529.339	0.171	-0.407
-352.523	-7.753	-0.180	-0.122
-351.508	42.383	-0.134	-0.122
-350.493	-81.467	0.156	0.052
-349.479	800.000	0.066	-0.213
-348.464	-68.063	-0.100	-0.039
-347.450	417.886	0.113	0.244
-346.435	-12.119	0.294	-0.194
-345.420	375.147	0.011	-0.023
-344.406	-33.966	-0.203	-0.112
-343.391	231.439	-0.252	-0.415
-342.377	-10.148	-0.542	-0.362
-341.362	-103.098	-0.334	-0.079
-340.348	-179.245	-0.133	-0.003
-339.333	796.725	0.107	-0.297
-338.318	-200.000	0.023	-0.106
-337.304	-156.521	-0.275	0.017
-336.289	13.892	0.057	-0.045
-335.275	-14.940	0.251	-0.162
-334.260	210.108	0.122	0.193
-333.245	26.483	0.138	0.116
-332.231	-36.618	0.216	0.117
-331.216	131.521	0.029	0.037
-330.202	87.410	0.107	-0.119
-329.187	-70.707	0.120	-0.045
-328.172	-198.549	-0.104	0.001
-327.158	-151.571	-0.178	-0.013
-326.143	-80.691	0.260	-0.087
-325.129	-37.748	-0.081	-0.043
-324.114	-62.317	0.300	-0.126
-323.099	-1.709	0.256	0.182
-322.085	-161.927	-0.263	-0.013
-321.070	192.170	-0.100	-0.152
-320.056	97.966	-0.270	-0.312
-319.041	-68.763	-0.246	-0.096
-318.026	292.926	-0.061	-0.113
-317.012	800.000	-0.103	0.402
-315.997	40.648	0.064	-0.058
-314.983	-111.863	-0.123	-0.025
-313.968	800.000	0.126	-0.511
-312.953	-200.000	-0.016	0.179
-311.939	-29.597	-0.287	0.165
-310.924	-200.000	-0.021	-0.094
-309.910	-65.692	0.316	-0.127
-308.895	-0.613	0.078	-0.056
-307.880	64.939	-0.216	-0.219
-306.866	-106.201	0.132	-0.030
-305.851	-69.691	-0.554	-0.213
-304.837	-114.927	-0.079	-0.015
-303.822	800.000	-0.061	-0.200
-302.807	4.558	-0.350	-0.258
-301.793	-74.116	0.381	-0.139
-300.778	126.307	-0.240	-0.305
-299.764	-8.563	-0.131	0.088
-298.749	-114.075	0.301	-0.058
-297.735	-200.000	-0.015	0.141
-296.720	-171.507	-0.116	-0.004
-295.705	39.692	0.089	-0.080
-294.691	560.200	-0.061	-0.147
-293.676	-66.002	0.215	-0.086
-292.662	445.821	0.160	0.354
-291.647	22.258	-0.153	0.126
-290.632	-113.560	0.213	0.042
-289.618	111.183	0.231	-0.279
-288.603	437.669	-0.234	0.512
-287.589	60.458	0.138	-0.137
-286.574	-103.532	0.193	0.046
-285.559	-200.000	0.037	0.179
-284.545	499.367	-0.095	0.219
-283.530	195.460	-0.123	0.187
-282.516	278.967	-0.045	0.081
-281.501	-173.665	-0.460	0.014
-280.486	-57.380	-0.106	-0.047
-279.472	138.409	0.054	-0.072
-278.457	318.743	0.024	0.047
-277.443	-29.151	0.059	-0.034
-276.428	-130.914	0.327	0.044
-275.413	-53.726	-0.166	0.076
-274.399	-169.541	-0.321	-0.012
-273.384	-200.000	-0.002	0.112
-272.370	-115.850	0.425	0.080
-271.355	127.391	-0.061	-0.077
-270.340	-200.000	0.026	-0.209
-269.326	204.205	0.203	0.316
-268.311	-200.000	0.034	0.238
-267.297	209.552	0.292	0.459
-266.282	-7.009	0.188	0.128
-265.267	-52.948	0.085	0.039
-264.253	37.762	0.164	-0.146
-263.238	-74.273	-0.355	-0.129
-262.224	-200.000	0.011	0.103
-261.209	421.505	0.069	0.149
-260.195	141.434	0.129	0.172
-259.180	-32.523	0.257	0.143
-258.165	-45.341	-0.089	0.044
-257.151	-91.110	-0.115	0.033
-256.136	52.505	-0.266	0.255
-255.122	190.308	0.232	0.349
-254.107	-99.511	0.239	0.060
-253.092	-27.409	0.120	-0.070
-252.078	153.877	0.258	0.355
-251.063	-200.000	-0.007	0.628
-250.049	-200.000	0.010	0.071
-249.034	-0.744	-0.247	0.176
-248.019	-125.081	-0.169	-0.026
-247.005	-46.577	-0.225	-0.110
-245.990	334.472	0.170	0.330
-244.976	-88.262	-0.278	-0.083
-243.961	-93.339	-0.345	-0.096
-242.946	341.289	-0.128	0.250
-241.932	5.422	0.331	0.245
-240.917	2.277	0.243	-0.176
-239.903	48.423	-0.230	0.216
-238.888	-138.182	-0.250	0.028
-237.873	-89.319	0.340	0.100
-236.859	-200.000	-0.057	-0.311
-235.844	364.558	-0.020	0.041
-234.830	-177.629	0.201	0.005
-233.815	326.708	0.306	-0.587
-232.800	-104.854	0.180	-0.041
-231.786	800.000	0.176	0.571
-230.771	-200.000	0.043	-0.246
-229.757	-200.000	0.010	-0.184
-228.742	-71.581	0.151	-0.057
-227.727	-114.271	-0.243	0.047
-226.713	-200.000	-0.013	0.462
-225.698	230.900	0.132	-0.217
-224.684	-190.691	0.194	-0.002
-223.669	30.460	-0.319	-0.273
-222.655	90.670	0.120	-0.134
-221.640	465.389	0.068	0.152
-220.625	-200.000	-0.008	-0.228
-219.611	-99.703	0.175	0.044
-218.596	88.585	0.075	0.084
-217.582	-112.272	-0.415	-0.083
-216.567	52.159	0.180	0.172
-215.552	-87.496	0.051	0.015
-214.538	360.789	0.041	0.083
-213.523	365.848	0.040	0.081
-212.509	-200.000	-0.016	-0.379
-211.494	-200.000	-0.007	-0.099
-210.479	-117.999	-0.171	0.031
-209.465	33.199	-0.101	0.088
-208.450	-12.066	-0.128	0.084
-207.436	526.010	0.024	-0.058
-206.421	800.000	0.055	-0.175
-205.406	55.445	-0.136	0.131
-204.392	73.151	-0.186	0.195
-203.377	-125.723	-0.303	-0.046
-202.363	800.000	0.046	-0.128
-201.348	5.443	0.206	-0.152
-200.333	-200.000	0.014	0.211
-199.319	800.000	0.018	-0.078
-198.304	-121.074	-0.203	-0.034
-197.290	389.472	0.159	-0.330
-196.275	-154.665	-0.129	-0.009
-195.260	589.839	-0.101	0.249
-194.246	-155.474	-0.039	-0.003
-193.231	-200.000	-0.001	0.065
-192.217	-38.903	-0.135	0.071
-191.202	224.021	-0.156	0.252
-190.187	-92.313	-0.039	0.011
-189.173	57.114	0.078	-0.076
-188.158	-200.000	0.006	-0.279
-187.144	282.216	0.071	0.127
-186.129	35.287	-0.223	0.195
-185.114	-190.252	-0.109	-0.001
-184.100	-125.962	0.216	-0.032
-183.085	-80.450	0.161	0.054
-182.071	-105.923	0.103	0.023
-181.056	-200.000	0.036	0.157
-180.042	79.611	0.206	0.221
-179.027	-88.706	-0.233	0.069
-178.012	-200.000	-0.101	0.000
-176.998	-113.415	0.131	-0.026
-175.983	-143.313	0.121	0.012
-174.969	145.816	0.030	-0.040
-173.954	-137.974	-0.190	-0.021
-172.939	-72.601	0.136	-0.050
-171.925	271.484	0.194	0.342
-170.910	-200.000	-0.013	0.273
-169.896	120.259	-0.191	0.237
-168.881	13.450	-0.171	0.132
-167.866	-160.062	0.447	0.024
-166.852	44.321	-0.082	-0.075
-165.837	-152.187	-0.189	-0.014
-164.823	-20.216	0.151	0.093
-163.808	352.294	0.107	-0.211
-162.793	-63.315	-0.047	-0.019
-161.779	800.000	-0.083	-0.330
-160.764	-87.375	0.176	-0.053
-159.750	-200.000	0.009	0.170
-158.735	-151.828	-0.340	-0.025
-157.720	201.736	0.092	-0.142
-156.706	84.471	-0.089	-0.097
-155.691	-126.977	0.114	-0.017
-154.677	47.202	-0.254	-0.236
-153.662	157.368	0.116	0.161
-152.647	-200.000	0.012	0.063
-151.633	17.130	0.467	0.370
-150.618	-32.128	0.191	0.106
-149.604	91.374	-0.077	-0.086
-148.589	-200.000	0.022	0.115
-147.574	800.000	-0.119	0.350
-146.560	-44.527	0.200	0.100
-145.545	-55.884	-0.090	0.040
-144.531	61.888	0.216	-0.215
-143.516	-126.343	0.257	0.038
-142.502	38.319	0.054	0.048
-141.487	-18.101	0.230	0.144
-140.472	-104.758	0.198	-0.045
-139.458	-70.884	-0.025	0.009
-138.443	-40.541	0.120	-0.062
-137.429	89.070	-0.257	-0.286
-136.414	-146.497	-0.128	0.011
-135.399	-90.970	0.362	-0.104
-134.385	-200.000	0.096	0.552
-133.370	-76.236	0.261	0.092
-132.356	-200.000	-0.020	-0.091
-131.341	145.694	-0.104	-0.139
-130.326	-108.712	-0.238	0.051
-129.312	21.337	0.261	0.212
-128.297	-140.614	0.230	-0.024
-127.283	94.004	-0.105	0.119
-126.268	-200.000	0.015	0.229
-125.253	54.670	0.233	-0.224
-124.239	661.096	-0.089	0.230
-123.224	64.388	0.198	0.199
-122.210	-187.011	-0.107	0.001
