DTS Sentinel unit serial number:	SN413079Multiplexer serial number:	ORYXHardware model number:	OX4-SRSoftware version number:	ORYX F/W v4.00 Oryx Data Collector v3.7.2.0data status	okinstallation	princeton_trtdifferential loss correction	single-endedforward channel	channel 3reverse channel	N/Adate	2019/09/17time	04:00:35forward acquisition time	60.00reverse acquisition time	0.00gamma	496.2192k internal	0.2323k external	0.2323temperature offset calibration	0.9945default loss term (dB/km)	0.3790temperature slope calibration	1.0000multiplexer offset coefficient	1.0000multiplexer slope coefficient	1.0000fibre end	0.00T internal ref (°C)	29.91T ext. ref 1 (°C)	0.13T ext. ref 2 (°C)	24.40length (m)	temperature (°C)	Stokes	anti-Stokes-747.200	-35.293	-0.626	-0.344
-746.185	-200.000	0.000	-0.384
-745.171	522.425	-0.122	-0.288
-744.156	-197.265	-0.390	-0.002
-743.142	177.337	-0.360	-0.529
-742.127	-200.000	0.035	0.158
-741.112	-200.000	-0.055	0.348
-740.098	483.160	0.110	0.253
-739.083	-82.044	-0.049	-0.016
-738.069	697.076	-0.066	0.175
-737.054	-34.885	-0.232	0.128
-736.039	-66.692	-0.405	-0.162
-735.025	-60.815	-0.064	0.027
-734.010	800.000	-0.062	-0.195
-732.996	-101.768	-0.180	0.044
-731.981	-51.005	0.119	-0.056
-730.966	-200.000	-0.032	0.147
-729.952	-115.110	0.331	0.063
-728.937	-148.138	0.195	-0.016
-727.923	-15.953	-0.167	-0.107
-726.908	-200.000	0.011	-0.250
-725.894	755.446	-0.066	-0.179
-724.879	202.397	-0.099	-0.153
-723.864	-47.995	0.112	0.055
-722.850	800.000	-0.014	-0.042
-721.835	590.385	-0.037	0.093
-720.821	-134.198	-0.377	-0.047
-719.806	-38.082	-0.050	0.027
-718.791	135.371	-0.117	0.153
-717.777	-31.141	0.055	0.031
-716.762	-200.000	0.017	-0.125
-715.748	-44.722	-0.407	0.205
-714.733	256.456	-0.139	-0.240
-713.718	-200.000	-0.029	-0.137
-712.704	145.607	-0.058	-0.079
-711.689	-57.653	0.456	0.201
-710.675	157.547	0.156	0.218
-709.660	-67.636	0.272	-0.107
-708.645	381.991	0.122	0.253
-707.631	782.453	-0.044	-0.123
-706.616	-200.000	-0.007	-0.194
-705.602	38.500	0.124	-0.112
-704.587	-200.000	-0.003	0.196
-703.572	232.977	-0.104	-0.172
-702.558	-3.844	0.051	-0.035
-701.543	800.000	-0.056	0.241
-700.529	-200.000	0.022	0.342
-699.514	-200.000	-0.012	0.188
-698.499	182.306	-0.171	0.254
-697.485	173.867	0.034	0.049
-696.470	-79.253	-0.100	0.034
-695.456	-6.963	0.095	-0.065
-694.441	-134.672	0.106	0.013
-693.426	198.607	-0.170	-0.263
-692.412	-167.003	-0.228	0.009
-691.397	737.021	-0.028	-0.076
-690.383	100.049	0.069	0.081
-689.368	-15.632	-0.277	0.178
-688.354	-200.000	-0.000	-0.428
-687.339	800.000	0.017	-0.058
-686.324	-56.195	-0.316	0.142
-685.310	-46.199	-0.142	0.070
-684.295	-101.334	-0.246	-0.060
-683.281	35.397	-0.093	-0.082
-682.266	135.474	0.096	-0.126
-681.251	71.673	-0.050	0.052
-680.237	213.637	-0.052	0.083
-679.222	677.770	-0.052	-0.136
-678.208	339.221	0.106	-0.208
-677.193	391.032	-0.117	0.244
-676.178	94.187	-0.109	-0.125
-675.164	352.280	-0.131	0.262
-674.149	800.000	-0.063	0.226
-673.135	-70.875	0.322	0.122
-672.120	-94.382	-0.278	0.076
-671.105	-137.338	0.248	0.028
-670.091	-10.188	-0.305	0.204
-669.076	-200.000	0.005	-0.256
-668.062	-200.000	-0.009	0.214
-667.047	295.638	0.086	0.159
-666.032	90.994	0.037	-0.042
-665.018	-200.000	-0.039	0.215
-664.003	-162.321	-0.196	0.010
-662.989	243.006	-0.141	-0.237
-661.974	3.333	0.049	0.036
-660.959	253.413	0.090	0.155
-659.945	154.221	-0.118	-0.164
-658.930	-200.000	0.001	0.142
-657.916	97.502	0.056	-0.064
-656.901	800.000	0.039	0.165
-655.886	-15.352	0.042	0.027
-654.872	378.859	0.173	-0.356
-653.857	759.057	0.031	-0.085
-652.843	-200.000	-0.071	-0.401
-651.828	290.793	0.128	0.235
-650.814	507.716	0.125	-0.292
-649.799	-97.513	0.172	0.045
-648.784	11.850	-0.228	0.176
-647.770	-60.109	0.389	-0.167
-646.755	-172.683	-0.225	-0.007
-645.741	-105.940	0.314	-0.071
-644.726	503.745	0.090	-0.209
-643.711	124.173	0.053	0.067
-642.697	-52.715	-0.219	0.101
-641.682	-112.895	-0.197	-0.039
-640.668	-200.000	-0.006	-0.122
-639.653	151.500	-0.225	-0.308
-638.638	-99.539	-0.262	-0.066
-637.624	204.513	-0.093	-0.145
-636.609	515.186	0.111	0.261
-635.595	800.000	-0.169	-0.473
-634.580	-42.330	0.196	-0.100
-633.565	-200.000	0.055	0.312
-632.551	-91.109	0.300	-0.087
-631.536	-59.943	-0.155	0.066
-630.522	23.597	-0.509	0.421
-629.507	-200.000	-0.058	-0.256
-628.492	-70.906	-0.085	-0.032
-627.478	649.827	-0.098	0.253
-626.463	-17.807	-0.104	0.066
-625.449	2.695	0.199	0.145
-624.434	209.611	0.042	0.066
-623.419	-200.000	-0.024	-0.157
-622.405	-200.000	-0.020	0.096
-621.390	-200.000	-0.012	0.135
-620.376	-200.000	0.010	-0.116
-619.361	1.014	-0.160	0.115
-618.346	249.476	-0.084	0.142
-617.332	67.666	-0.131	0.134
-616.317	-123.357	-0.095	0.015
-615.303	90.929	0.109	-0.122
-614.288	-17.963	0.414	0.260
-613.273	-65.753	0.172	-0.069
-612.259	-90.507	0.227	0.066
-611.244	-200.000	0.003	0.143
-610.230	-200.000	0.063	-0.338
-609.215	114.456	-0.158	-0.193
-608.201	7.744	-0.258	0.194
-607.186	-200.000	-0.020	0.113
-606.171	292.718	-0.074	-0.135
-605.157	-44.851	0.256	-0.128
-604.142	-81.779	-0.187	0.061
-603.128	689.190	-0.106	0.278
-602.113	-23.470	0.121	0.073
-601.098	190.143	0.087	-0.132
-600.084	52.148	0.120	-0.115
-599.069	800.000	-0.073	-0.216
-598.055	-74.250	-0.139	0.050
-597.040	-134.338	0.206	0.025
-596.025	373.900	0.093	0.190
-595.011	71.853	-0.265	0.276
-593.996	156.468	-0.073	-0.102
-592.982	-200.000	0.071	0.541
-591.967	-200.000	0.045	0.327
-590.952	-200.000	-0.038	0.255
-589.938	-122.151	0.233	-0.038
-588.923	-200.000	-0.011	-0.326
-587.909	-27.208	-0.090	0.053
-586.894	37.307	-0.155	0.138
-585.879	800.000	-0.020	-0.070
-584.865	-148.255	-0.284	0.023
-583.850	385.313	-0.125	0.258
-582.836	475.633	0.021	0.048
-581.821	-108.673	-0.524	-0.113
-580.806	274.073	0.137	-0.244
-579.792	105.570	-0.146	-0.174
-578.777	177.965	0.039	-0.057
-577.763	-200.000	0.006	-0.072
-576.748	800.000	0.090	-0.249
-575.733	-94.881	0.201	-0.055
-574.719	-163.151	0.196	-0.009
-573.704	-137.885	-0.253	-0.028
-572.690	-200.000	-0.005	0.149
-571.675	-200.000	-0.006	0.050
-570.661	-108.384	0.161	0.035
-569.646	-116.067	0.159	-0.030
-568.631	-40.644	0.320	-0.167
-567.617	-1.628	-0.038	0.027
-566.602	168.399	0.038	-0.055
-565.588	304.100	0.054	-0.101
-564.573	31.874	0.132	-0.114
-563.558	-121.444	-0.372	-0.062
-562.544	-79.282	-0.153	0.052
-561.529	-14.979	-0.144	-0.092
-560.515	-23.947	-0.140	0.084
-559.500	67.325	-0.361	-0.369
-558.485	-129.938	0.106	0.015
-557.471	279.508	-0.088	-0.158
-556.456	-200.000	0.005	0.219
-555.442	139.774	-0.048	-0.063
-554.427	4.243	0.256	0.188
-553.412	800.000	-0.062	0.190
-552.398	800.000	0.075	0.262
-551.383	-155.486	-0.237	0.015
-550.369	-42.495	0.133	0.068
-549.354	96.698	-0.167	-0.192
-548.339	-60.112	-0.166	-0.071
-547.325	425.070	0.082	-0.177
-546.310	-160.028	-0.431	-0.024
-545.296	135.678	-0.033	0.042
-544.281	-140.523	-0.351	0.037
-543.266	-102.998	0.184	-0.044
-542.252	-17.331	0.028	-0.018
-541.237	-160.885	0.109	-0.006
-540.223	384.071	0.048	-0.099
-539.208	150.635	-0.094	0.129
-538.193	338.378	-0.088	-0.172
-537.179	-36.041	-0.054	0.029
-536.164	-200.000	0.019	0.279
-535.150	441.551	-0.046	0.101
-534.135	-69.667	-0.249	0.095
-533.121	-41.480	0.120	0.062
-532.106	259.829	0.097	0.167
-531.091	-162.073	0.132	-0.007
-530.077	-200.000	-0.041	0.252
-529.062	-100.070	0.180	-0.045
-528.048	-29.050	0.115	0.066
-527.033	-145.455	-0.232	-0.021
-526.018	80.773	-0.081	0.087
-525.004	82.410	-0.161	0.175
-523.989	-40.556	0.328	-0.171
-522.975	132.849	0.061	-0.079
-521.960	694.038	0.041	0.108
-520.945	164.376	-0.167	-0.236
-519.931	-200.000	-0.004	-0.115
-518.916	-35.858	0.097	0.053
-517.902	13.525	-0.103	0.080
-516.887	313.186	0.038	-0.071
-515.872	94.559	0.314	0.358
-514.858	-16.159	0.218	-0.139
-513.843	75.992	0.203	0.215
-512.829	189.634	0.206	0.310
-511.814	800.000	0.014	-0.045
-510.799	-200.000	0.012	-0.217
-509.785	710.727	-0.086	-0.228
-508.770	401.394	-0.124	0.261
-507.756	-105.753	-0.053	0.012
-506.741	-104.444	0.237	0.055
-505.726	-117.917	-0.162	-0.029
-504.712	-200.000	0.020	-0.104
-503.697	-112.591	-0.180	-0.036
-502.683	25.850	-0.265	0.221
-501.668	155.476	0.052	0.072
-500.653	800.000	0.081	0.250
-499.639	445.735	0.119	0.262
-498.624	-189.655	0.325	0.004
-497.610	-82.549	-0.088	0.029
-496.595	-132.629	0.131	-0.017
-495.581	-38.346	0.094	0.050
-494.566	10.136	0.174	-0.132
-493.551	-200.000	-0.016	0.079
-492.537	359.567	-0.059	-0.118
-491.522	-39.332	0.211	0.111
-490.508	-186.580	-0.176	-0.002
-489.493	170.089	-0.032	-0.045
-488.478	-72.641	0.256	0.094
-487.464	-143.982	-0.181	-0.017
-486.449	34.521	0.054	-0.047
-485.435	-134.725	0.155	0.019
-484.420	-200.000	-0.006	0.106
-483.405	-137.011	0.275	0.032
-482.391	97.219	0.160	-0.183
-481.376	118.541	0.098	0.121
-480.362	-200.000	-0.013	-0.226
-479.347	481.208	-0.048	-0.109
-478.332	-200.000	-0.027	-0.163
-477.318	-13.363	0.126	0.082
-476.303	49.030	0.093	0.087
-475.289	228.363	-0.110	-0.180
-474.274	-56.085	-0.234	-0.104
-473.259	-101.471	0.149	-0.036
-472.245	168.200	-0.213	-0.302
-471.230	688.640	-0.042	0.110
-470.216	-200.000	-0.008	0.266
-469.201	800.000	-0.031	-0.120
-468.186	23.837	-0.160	0.132
-467.172	201.542	0.180	-0.277
-466.157	160.524	0.188	-0.262
-465.143	-55.954	0.293	-0.130
-464.128	-200.000	-0.011	-0.066
-463.113	-200.000	-0.011	0.252
-462.099	210.680	-0.115	0.180
-461.084	-200.000	0.019	-0.205
-460.070	51.802	0.167	-0.158
-459.055	-3.472	0.176	0.122
-458.040	-134.087	-0.209	-0.026
-457.026	-149.306	0.407	0.032
-456.011	800.000	0.034	0.112
-454.997	-200.000	0.010	-0.278
-453.982	108.696	0.080	0.095
-452.968	-43.202	-0.077	-0.039
-451.953	115.451	0.166	-0.203
-450.938	800.000	-0.035	0.123
-449.924	147.143	0.203	-0.272
-448.909	-200.000	0.040	0.369
-447.895	-56.963	0.074	0.033
-446.880	216.195	0.173	-0.274
-445.865	38.636	-0.199	-0.177
-444.851	-89.895	-0.173	0.051
-443.836	-192.134	-0.323	-0.003
-442.822	293.310	0.156	-0.283
-441.807	67.232	0.103	-0.105
-440.792	-200.000	-0.013	0.060
-439.778	-109.243	0.288	0.061
-438.763	800.000	0.034	-0.140
-437.749	72.743	-0.238	-0.248
-436.734	193.828	-0.098	-0.148
-435.719	-25.819	-0.104	0.061
-434.705	-200.000	-0.023	-0.152
-433.690	61.821	0.041	-0.041
-432.676	-200.000	0.031	0.165
-431.661	-37.914	0.084	-0.044
-430.646	-200.000	0.030	0.230
-429.632	29.467	0.245	0.208
-428.617	-79.173	-0.125	0.042
-427.603	-12.011	-0.171	-0.112
-426.588	-162.391	0.295	0.015
-425.573	-163.118	-0.271	-0.013
-424.559	535.870	-0.071	0.168
-423.544	-9.434	0.323	-0.215
-422.530	110.966	0.124	0.149
-421.515	552.972	0.030	0.071
-420.500	-11.643	-0.168	-0.110
-419.486	48.640	-0.135	-0.127
-418.471	180.254	-0.297	-0.434
-417.457	226.188	0.183	-0.296
-416.442	-91.596	0.204	0.058
-415.428	615.726	0.054	0.135
-414.413	-200.000	-0.080	-0.398
-413.398	-199.734	0.170	-0.001
-412.384	123.158	-0.114	-0.142
-411.369	-80.801	-0.124	0.041
-410.355	800.000	-0.015	-0.043
-409.340	-63.976	0.195	0.079
-408.325	-62.284	-0.294	0.122
-407.311	109.446	0.142	-0.170
-406.296	90.016	0.152	-0.170
-405.282	164.342	-0.172	-0.241
-404.267	-181.651	0.225	0.004
-403.252	-200.000	-0.025	0.117
-402.238	451.558	-0.051	0.113
-401.223	800.000	-0.027	0.077
-400.209	10.259	-0.350	-0.265
-399.194	-48.734	0.250	-0.119
-398.179	-5.874	-0.082	0.056
-397.165	-111.279	-0.332	-0.068
-396.150	281.333	0.071	0.127
-395.136	-72.122	-0.045	0.017
-394.121	338.879	-0.018	0.035
-393.106	137.734	-0.149	-0.195
-392.092	-200.000	-0.019	0.120
-391.077	268.752	-0.042	-0.073
-390.063	199.283	-0.126	-0.193
-389.048	800.000	-0.033	0.119
-388.033	-128.411	0.152	0.022
-387.019	-101.358	-0.450	0.109
-386.004	-92.350	-0.337	0.094
-384.990	-92.694	-0.148	-0.041
-383.975	-200.000	-0.060	-0.263
-382.960	-139.950	0.281	-0.030
-381.946	588.556	0.151	-0.370
-380.931	203.599	0.117	-0.180
-379.917	319.700	-0.057	0.107
-378.902	800.000	-0.073	-0.208
-377.888	-200.000	-0.004	-0.112
-376.873	-200.000	0.021	0.267
-375.858	143.613	0.084	-0.111
-374.844	88.842	0.142	0.157
-373.829	82.851	-0.144	0.156
-372.815	800.000	0.027	-0.100
-371.800	-200.000	-0.020	-0.214
-370.785	-200.000	0.004	-0.098
-369.771	361.760	0.141	0.281
-368.756	-43.542	0.134	-0.067
-367.742	-200.000	0.065	-0.303
-366.727	163.802	0.148	-0.208
-365.712	751.998	0.073	-0.197
-364.698	-79.475	0.084	0.028
-363.683	-200.000	-0.037	0.301
-362.669	9.695	0.067	-0.050
-361.654	-10.964	-0.089	0.059
-360.639	800.000	-0.041	0.122
-359.625	-181.622	0.214	-0.004
-358.610	-91.494	0.532	-0.151
-357.596	218.086	0.113	0.180
-356.581	233.679	-0.113	0.185
-355.566	40.160	-0.043	0.038
-354.552	117.562	-0.226	-0.276
-353.537	102.743	0.160	-0.186
-352.523	517.214	-0.074	0.172
-351.508	139.815	0.312	-0.409
-350.493	-154.056	0.295	0.020
-349.479	-200.000	0.001	0.279
-348.464	108.256	0.210	-0.249
-347.450	-64.647	0.146	0.059
-346.435	800.000	-0.080	-0.259
-345.420	76.787	-0.177	0.186
-344.406	158.170	0.085	0.117
-343.391	800.000	0.087	0.333
-342.377	-184.636	-0.299	0.005
-341.362	-156.680	0.201	0.012
-340.348	-60.163	0.166	-0.070
-339.333	-152.938	-0.199	0.014
-338.318	800.000	-0.063	-0.178
-337.304	81.913	-0.378	-0.407
-336.289	-2.218	0.152	-0.106
-335.275	-156.957	-0.077	-0.005
-334.260	-126.124	0.152	0.023
-333.245	-78.540	0.015	-0.005
-332.231	-200.000	0.021	-0.100
-331.216	356.317	0.144	0.284
-330.202	22.147	0.058	0.047
-329.187	-146.950	0.153	-0.013
-328.172	800.000	-0.111	0.335
-327.158	-200.000	0.010	0.185
-326.143	62.790	0.316	0.314
-325.129	-56.237	-0.476	0.210
-324.114	-80.179	-0.269	0.089
-323.099	398.345	-0.085	-0.177
-322.085	33.586	0.067	-0.058
-321.070	800.000	0.020	0.082
-320.056	-24.019	-0.040	-0.024
-319.041	-76.628	0.120	0.042
-318.026	-84.457	-0.176	0.055
-317.012	333.906	-0.167	0.321
-315.997	-200.000	0.036	0.338
-314.983	-106.808	-0.115	0.025
-313.968	-95.118	0.265	0.071
-312.953	-21.024	0.105	0.064
-311.939	-200.000	0.003	-0.111
-310.924	-98.669	-0.061	0.015
-309.910	-27.871	0.133	0.076
-308.895	800.000	-0.144	0.448
-307.880	82.090	0.212	0.228
-306.866	800.000	0.036	0.144
-305.851	70.621	-0.043	0.044
-304.837	396.176	-0.138	-0.286
-303.822	-200.000	0.018	-0.186
-302.807	21.829	-0.160	0.130
-301.793	375.323	-0.070	-0.142
-300.778	190.439	-0.139	-0.208
-299.764	-200.000	-0.012	-0.125
-298.749	-65.451	0.123	0.049
-297.735	20.313	0.243	0.195
-296.720	800.000	0.083	0.277
-295.705	622.806	-0.103	0.258
-294.691	-53.067	-0.629	-0.287
-293.676	-90.011	0.077	0.022
-292.662	800.000	-0.070	-0.203
-291.647	-64.005	0.067	-0.027
-290.632	683.563	-0.020	0.051
-289.618	592.983	0.058	-0.142
-288.603	73.983	-0.076	-0.080
-287.589	-7.265	-0.224	0.151
-286.574	162.002	-0.032	0.045
-285.559	173.898	-0.278	0.398
-284.545	-71.616	0.190	0.070
-283.530	230.943	-0.078	0.127
-282.516	800.000	0.202	-0.617
-281.501	8.037	0.273	0.203
-280.486	-22.518	-0.374	0.224
-279.472	-145.739	-0.069	-0.006
-278.457	43.120	-0.044	-0.040
-277.443	487.866	0.052	0.117
-276.428	-25.943	-0.163	-0.095
-275.413	-97.782	-0.232	0.059
-274.399	-200.000	-0.029	-0.179
-273.384	-146.440	0.023	0.002
-272.370	182.858	0.151	-0.221
-271.355	2.029	-0.193	0.138
-270.340	-200.000	0.018	0.150
-269.326	800.000	-0.164	0.475
-268.311	183.306	0.056	-0.083
-267.297	1.447	-0.039	0.028
-266.282	231.864	-0.165	-0.268
-265.267	554.518	0.064	0.152
-264.253	91.156	0.235	-0.261
-263.238	-126.285	-0.136	-0.020
-262.224	-200.000	0.033	0.176
-261.209	-79.136	-0.147	0.049
-260.195	85.681	0.158	-0.172
-259.180	-23.540	-0.362	-0.216
-258.165	708.675	0.097	0.254
-257.151	-84.396	-0.261	-0.082
-256.136	-200.000	0.017	0.097
-255.122	137.950	-0.171	-0.222
-254.107	800.000	-0.071	0.227
-253.092	800.000	-0.038	0.108
-252.078	-43.448	0.059	0.029
-251.063	23.781	0.227	0.185
-250.049	-76.388	-0.427	0.149
-249.034	-159.455	-0.256	0.014
-248.019	-200.000	-0.021	-0.110
-247.005	179.847	0.073	0.106
-245.990	29.088	-0.121	-0.102
-244.976	546.307	-0.059	-0.139
-243.961	800.000	-0.066	-0.203
-242.946	-200.000	0.293	0.000
-241.932	-94.703	0.158	-0.043
-240.917	17.026	-0.028	0.022
-239.903	-17.981	-0.103	-0.064
-238.888	483.547	0.050	-0.113
-237.873	-117.260	0.089	-0.016
-236.859	-89.849	0.213	-0.062
-235.844	-54.896	0.360	-0.161
-234.830	-91.371	-0.132	-0.037
-233.815	463.851	-0.166	0.368
-232.800	-156.368	0.251	-0.016
-231.786	-35.220	-0.237	0.128
-230.771	800.000	0.063	-0.201
-229.757	-47.096	-0.144	0.070
-228.742	160.915	-0.042	0.058
-227.727	-47.509	-0.129	0.062
-226.713	800.000	0.085	-0.234
-225.698	800.000	0.091	-0.276
-224.684	766.767	0.042	0.113
-223.669	-183.086	-0.332	0.006
-222.655	492.922	-0.057	0.128
-221.640	323.928	-0.038	0.071
-220.625	-3.150	0.065	0.045
-219.611	-200.000	0.014	-0.260
-218.596	-78.276	-0.087	0.030
-217.582	3.154	0.221	-0.159
-216.567	123.751	0.116	-0.144
-215.552	483.691	-0.050	0.113
-214.538	-103.276	-0.098	0.023
-213.523	70.669	0.197	0.202
-212.509	-146.614	0.365	-0.031
-211.494	-199.754	0.170	-0.001
-210.479	800.000	-0.141	0.491
-209.465	-151.581	0.245	-0.018
-208.450	-200.000	-0.005	-0.033
-207.436	-188.343	0.366	-0.005
-206.421	-200.000	0.019	0.144
-205.406	282.806	-0.108	-0.191
-204.392	-36.317	-0.180	0.096
-203.377	-57.133	0.107	0.047
-202.363	92.259	0.235	-0.261
-201.348	-200.000	0.118	0.000
-200.333	-200.000	0.017	-0.176
-199.319	-200.000	0.006	-0.064
-198.304	-171.097	-0.240	0.008
-197.290	373.741	0.092	0.185
-196.275	-200.000	0.011	0.200
-195.260	800.000	0.006	-0.024
-194.246	28.896	-0.241	-0.202
-193.231	-200.000	-0.019	-0.359
-192.217	116.651	0.244	-0.296
-191.202	-154.942	0.198	-0.013
-190.187	-182.046	0.232	0.004
-189.173	-130.770	-0.345	-0.046
-188.158	-200.000	-0.013	-0.222
-187.144	-200.000	-0.102	0.557
-186.129	-128.179	0.269	-0.038
-185.114	146.753	0.144	0.191
-184.100	62.477	0.106	0.104
-183.085	161.736	-0.139	-0.192
-182.071	341.060	-0.155	0.299
-181.056	-146.483	0.094	0.008
-180.042	-200.000	-0.299	0.001
-179.027	800.000	-0.103	-0.310
-178.012	365.666	0.120	0.239
-176.998	-200.000	0.037	0.257
-175.983	-200.000	-0.036	0.333
-174.969	-79.450	-0.210	-0.070
-173.954	43.631	0.117	0.106
-172.939	-24.261	0.202	0.119
-171.925	-83.003	-0.296	-0.094
-170.910	-39.536	-0.124	-0.064
-169.896	-64.023	0.180	0.072
-168.881	800.000	0.036	0.134
-167.866	-200.000	-0.068	-0.341
-166.852	800.000	-0.101	0.348
-165.837	1.279	0.118	0.084
-164.823	-129.474	0.199	-0.027
-163.808	800.000	-0.067	0.230
-162.793	406.061	0.036	-0.076
-161.779	-63.001	0.181	0.074
-160.764	223.184	-0.225	-0.358
-159.750	-65.556	0.200	-0.079
-158.735	-200.000	-0.049	-0.388
-157.720	800.000	0.100	-0.377
-156.706	65.630	-0.153	0.153
-155.691	-86.266	0.276	0.084
-154.677	-64.889	-0.239	0.096
-153.662	28.690	-0.119	-0.099
-152.647	68.221	0.036	-0.037
-151.633	132.771	0.094	0.120
-150.618	-120.720	-0.333	-0.055
-149.604	250.586	-0.165	-0.276
-148.589	232.785	0.185	-0.300
-147.574	100.682	-0.146	0.167
-146.560	55.890	0.068	0.065
-145.545	800.000	0.056	0.182
-144.531	-19.640	-0.549	0.335
-143.516	83.622	0.012	-0.013
-142.502	-105.846	0.101	-0.022
-141.487	2.483	-0.227	0.162
-140.472	-200.000	-0.000	0.093
-139.458	-156.736	-0.265	-0.016
-138.443	91.237	-0.092	0.102
-137.429	-1.432	-0.313	0.218
-136.414	71.398	-0.091	0.094
-135.399	800.000	-0.065	0.257
-134.385	-36.079	0.119	0.063
-133.370	273.153	0.128	0.223
-132.356	-62.243	0.382	-0.157
-131.341	-21.169	-0.132	-0.080
-130.326	-200.000	0.070	0.429
-129.312	-23.070	0.317	0.188
-128.297	73.847	-0.267	0.276
-127.283	267.720	0.048	-0.083
-126.268	77.033	-0.200	0.210
-125.253	-123.986	-0.179	-0.028
-124.239	12.270	-0.166	-0.126
-123.224	-200.000	0.024	0.195
-122.210	-24.182	0.181	0.106
-121.195	800.000	-0.009	-0.033
