DTS Sentinel unit serial number:	SN413079Multiplexer serial number:	ORYXHardware model number:	OX4-SRSoftware version number:	ORYX F/W v4.00 Oryx Data Collector v3.7.2.0data status	okinstallation	princeton_trtdifferential loss correction	single-endedforward channel	channel 3reverse channel	N/Adate	2019/09/12time	18:31:04forward acquisition time	15.00reverse acquisition time	0.00gamma	496.2192k internal	0.2318k external	0.2318temperature offset calibration	1.0098default loss term (dB/km)	0.3790temperature slope calibration	1.0000multiplexer offset coefficient	1.0000multiplexer slope coefficient	1.0000fibre end	0.00T internal ref (°C)	33.25T ext. ref 1 (°C)	2.95T ext. ref 2 (°C)	27.86length (m)	temperature (°C)	Stokes	anti-Stokes-747.200	204.453	-0.122	0.192
-746.185	800.000	0.279	0.823
-745.171	-30.725	0.433	0.248
-744.156	-7.663	-0.240	-0.164
-743.142	-29.046	0.751	0.436
-742.127	-200.000	0.045	0.587
-741.112	212.848	0.206	0.330
-740.098	67.559	-0.074	-0.077
-739.083	-75.048	0.544	0.197
-738.069	-200.000	0.061	0.303
-737.054	617.460	0.142	0.361
-736.039	207.296	-0.046	0.073
-735.025	322.455	-0.089	0.171
-734.010	35.222	-0.384	-0.341
-732.996	-200.000	0.191	-0.942
-731.981	93.009	0.250	0.286
-730.966	-80.006	0.881	-0.299
-729.952	171.235	-0.392	-0.569
-728.937	-76.513	-0.298	-0.106
-727.923	106.615	-0.553	-0.663
-726.908	-84.913	-0.518	0.165
-725.894	-157.800	-0.320	0.019
-724.879	-34.997	0.514	0.284
-723.864	246.564	-0.066	0.113
-722.850	-171.709	-0.255	0.008
-721.835	8.372	0.530	0.403
-720.821	-123.977	0.256	0.041
-719.806	-43.470	0.302	-0.154
-718.791	278.979	-0.340	-0.613
-717.777	-114.291	0.176	0.034
-716.762	40.598	-0.462	0.421
-715.748	-81.826	0.547	-0.181
-714.733	800.000	0.140	-0.581
-713.718	183.359	0.273	-0.408
-712.704	-81.438	-0.149	-0.050
-711.689	213.950	-0.292	0.468
-710.675	-87.804	-0.363	-0.111
-709.660	-140.585	0.591	0.062
-708.645	800.000	-0.145	-0.538
-707.631	-151.375	0.548	-0.041
-706.616	800.000	-0.181	-0.646
-705.602	19.275	0.467	-0.379
-704.587	-200.000	0.111	0.582
-703.572	23.772	-0.714	0.594
-702.558	800.000	0.146	-0.413
-701.543	108.374	0.257	0.309
-700.529	103.623	-0.475	0.564
-699.514	-114.560	-0.152	0.029
-698.499	-178.043	-0.789	0.019
-697.485	98.904	-0.365	0.425
-696.470	-200.000	0.110	-0.525
-695.456	5.675	-0.548	-0.409
-694.441	89.871	-0.105	0.118
-693.426	-158.395	0.145	-0.009
-692.412	-17.752	-0.526	0.334
-691.397	-96.689	-0.392	0.104
-690.383	800.000	0.347	-1.020
-689.368	-99.381	-0.372	0.095
-688.354	-200.000	0.011	0.425
-687.339	-84.001	0.357	0.115
-686.324	-8.795	0.483	0.327
-685.310	800.000	-0.213	0.607
-684.295	-150.206	0.671	0.052
-683.281	-187.348	0.159	-0.002
-682.266	-24.312	-0.420	0.253
-681.251	394.984	-0.387	0.814
-680.237	-152.768	-0.742	0.053
-679.222	-25.955	0.364	-0.217
-678.208	-54.508	0.728	0.333
-677.193	270.238	-0.313	-0.556
-676.178	-47.205	-0.661	0.325
-675.164	-9.287	-0.900	-0.607
-674.149	-8.806	-0.489	-0.331
-673.135	-88.142	-0.545	-0.165
-672.120	-137.163	0.795	0.092
-671.105	285.332	-0.282	0.514
-670.091	16.221	-0.958	0.763
-669.076	-50.800	0.749	-0.355
-668.062	-129.422	0.491	0.069
-667.047	-12.482	-0.177	0.116
-666.032	800.000	-0.227	0.992
-665.018	-26.123	0.792	0.470
-664.003	-26.421	-0.337	0.200
-662.989	100.810	-0.760	-0.891
-661.974	33.208	-0.485	-0.425
-660.959	47.899	0.640	-0.603
-659.945	8.395	0.409	0.310
-658.930	-200.000	-0.116	-1.242
-657.916	-143.430	-0.091	0.009
-656.901	-35.088	-0.573	0.315
-655.886	146.666	0.251	0.340
-654.872	-78.333	0.130	-0.045
-653.857	550.243	-0.265	-0.640
-652.843	-200.000	-0.012	0.380
-651.828	-93.243	1.319	-0.370
-650.814	107.379	-0.633	0.759
-649.799	800.000	0.181	0.757
-648.784	800.000	0.155	-0.446
-647.770	800.000	-0.129	-0.364
-646.755	-200.000	-0.021	0.707
-645.741	-63.188	-0.523	0.217
-644.726	92.751	0.454	0.517
-643.711	264.062	0.083	0.146
-642.697	-56.809	0.105	0.047
-641.682	-76.201	-0.615	0.219
-640.668	151.252	-0.080	-0.110
-639.653	-33.162	0.559	-0.313
-638.638	44.278	0.299	-0.277
-637.624	685.144	0.098	-0.258
-636.609	800.000	0.142	-0.477
-635.595	-30.097	-0.394	0.226
-634.580	-65.997	-0.702	0.283
-633.565	-25.598	0.135	-0.080
-632.551	-200.000	-0.007	-0.183
-631.536	731.917	0.192	-0.518
-630.522	332.848	-0.182	-0.355
-629.507	394.947	0.336	-0.706
-628.492	236.008	-0.652	-1.086
-627.478	-106.919	-0.566	-0.126
-626.463	-53.158	0.586	0.271
-625.449	233.358	0.085	0.141
-624.434	-139.537	-0.176	0.019
-623.419	365.738	0.256	-0.519
-622.405	240.239	0.050	-0.084
-621.390	131.124	-0.361	-0.467
-620.376	-200.000	0.003	-0.341
-619.361	17.919	0.424	0.340
-618.346	-143.198	-0.282	0.027
-617.332	-200.000	0.092	0.479
-616.317	800.000	0.149	0.471
-615.303	-27.617	0.217	0.127
-614.288	-78.342	-0.382	-0.132
-613.273	-32.535	-0.684	-0.384
-612.259	425.852	-0.266	0.577
-611.244	-19.017	-0.374	0.234
-610.230	-93.934	-0.448	0.124
-609.215	233.974	0.204	0.338
-608.201	170.738	-0.195	-0.281
-607.186	-100.670	0.288	-0.071
-606.171	-31.718	0.412	-0.233
-605.157	408.060	-0.139	-0.295
-604.142	-101.554	-0.237	-0.058
-603.128	-101.120	-0.459	0.113
-602.113	-80.645	0.200	0.067
-601.098	-200.000	-0.052	-0.236
-600.084	800.000	-0.159	0.541
-599.069	10.211	-0.930	-0.712
-598.055	800.000	-0.193	0.553
-597.040	-96.170	0.587	-0.157
-596.025	-174.088	0.974	-0.029
-595.011	-200.000	0.014	-0.208
-593.996	-5.855	0.537	0.370
-592.982	271.400	-0.344	0.610
-591.967	-115.493	-0.510	-0.097
-590.952	392.157	-0.324	-0.677
-589.938	665.160	0.278	-0.722
-588.923	800.000	-0.099	-0.391
-587.909	-0.887	-0.945	-0.673
-586.894	350.378	-0.190	0.378
-585.879	416.259	0.253	-0.544
-584.865	-89.710	0.283	0.083
-583.850	800.000	-0.150	-0.467
-582.836	-200.000	0.004	-0.386
-581.821	198.555	0.287	-0.442
-580.806	800.000	0.207	-0.629
-579.792	388.177	0.150	-0.312
-578.777	258.764	-0.577	-0.999
-577.763	148.790	-0.424	0.577
-576.748	-200.000	-0.033	0.328
-575.733	800.000	-0.126	-0.386
-574.719	697.068	-0.082	-0.217
-573.704	-200.000	-0.020	0.428
-572.690	-136.580	-0.456	0.053
-571.675	75.626	-0.470	-0.499
-570.661	800.000	0.045	-0.158
-569.646	-200.000	-0.230	1.501
-568.631	-200.000	0.004	0.133
-567.617	66.243	1.223	1.248
-566.602	-100.083	-0.599	0.150
-565.588	-122.460	-0.284	-0.046
-564.573	39.245	-0.327	-0.295
-563.558	-116.740	-0.650	0.120
-562.544	201.998	0.405	-0.628
-561.529	-60.453	0.488	0.208
-560.515	11.544	0.341	-0.263
-559.500	-73.090	0.413	-0.152
-558.485	286.121	0.329	-0.597
-557.471	-101.979	1.034	-0.251
-556.456	111.581	0.426	0.517
-555.442	-200.000	-0.176	-0.912
-554.427	-200.000	0.024	0.160
-553.412	-200.000	0.044	0.426
-552.398	-200.000	-0.036	0.309
-551.383	-104.183	0.490	-0.114
-550.369	721.210	0.185	0.494
-549.354	-200.000	-0.180	1.172
-548.339	112.743	-0.361	-0.439
-547.325	200.993	0.227	0.350
-546.310	57.560	-0.287	-0.281
-545.296	458.385	-0.178	-0.398
-544.281	65.425	0.397	0.403
-543.266	-200.000	0.041	1.080
-542.252	-15.195	0.526	0.338
-541.237	-163.597	0.691	0.033
-540.223	421.321	-0.296	0.638
-539.208	-200.000	0.092	-0.714
-538.193	92.112	-0.136	-0.153
-537.179	-190.062	-1.147	0.013
-536.164	334.863	0.331	-0.644
-535.150	33.475	-0.454	-0.396
-534.135	164.436	-0.324	-0.459
-533.121	136.115	-0.209	-0.273
-532.106	42.360	-0.616	0.563
-531.091	-127.597	0.238	-0.035
-530.077	326.538	-0.107	-0.206
-529.062	305.492	0.166	0.310
-528.048	-200.000	0.007	-0.314
-527.033	-140.565	-0.799	0.083
-526.018	-8.809	0.597	0.402
-525.004	-84.250	-0.430	0.137
-523.989	405.040	-0.197	0.416
-522.975	-83.555	0.334	0.107
-521.960	55.923	-0.423	-0.412
-520.945	-200.000	0.109	-0.673
-519.931	115.056	0.243	0.298
-518.916	356.780	0.012	0.024
-517.902	-66.028	0.081	-0.033
-516.887	343.085	-0.028	-0.056
-515.872	241.386	-0.595	0.996
-514.858	-71.699	-0.434	-0.162
-513.843	223.183	0.197	-0.318
-512.829	47.658	0.207	-0.194
-511.814	29.615	0.683	0.583
-510.799	80.291	-0.170	-0.183
-509.785	-60.086	0.176	0.075
-508.770	403.325	0.169	0.356
-507.756	11.155	0.167	-0.128
-506.741	-79.867	0.709	0.239
-505.726	-200.000	0.122	-0.607
-504.712	464.414	-0.264	-0.591
-503.697	261.512	-0.092	-0.160
-502.683	-151.460	-0.529	-0.039
-501.668	252.969	0.208	-0.357
-500.653	417.834	0.206	-0.441
-499.639	-200.000	-0.038	0.168
-498.624	281.873	-0.246	-0.442
-497.610	-139.293	1.011	-0.109
-496.595	18.062	0.456	-0.364
-495.581	300.687	-0.341	-0.631
-494.566	357.819	0.343	-0.686
-493.551	-200.000	0.660	0.001
-492.537	129.140	0.471	0.603
-491.522	-15.630	-0.284	0.181
-490.508	-53.566	-0.435	0.200
-489.493	800.000	0.352	1.101
-488.478	215.692	-0.427	-0.680
-487.464	-130.376	-0.207	0.028
-486.449	26.287	-0.218	-0.182
-485.435	-117.577	-0.305	0.055
-484.420	-79.836	-0.463	-0.156
-483.405	-200.000	0.026	-0.274
-482.391	-200.000	-0.108	-0.605
-481.376	-200.000	-0.079	-0.392
-480.362	800.000	0.068	-0.218
-479.347	86.629	0.233	0.257
-478.332	-61.088	0.792	0.335
-477.318	-55.168	-0.152	-0.068
-476.303	37.335	-0.422	-0.374
-475.289	800.000	0.141	0.436
-474.274	-31.700	-0.070	0.039
-473.259	800.000	0.079	0.231
-472.245	293.838	0.481	-0.880
-471.230	248.969	0.031	-0.053
-470.216	800.000	-0.094	0.307
-469.201	69.066	-0.146	-0.150
-468.186	122.974	-0.486	-0.609
-467.172	395.143	0.308	0.644
-466.157	-164.516	-0.150	-0.007
-465.143	532.913	-0.218	-0.516
-464.128	-15.881	-0.576	0.367
-463.113	-200.000	-0.092	0.416
-462.099	-145.318	0.707	-0.064
-461.084	216.032	-0.720	-1.145
-460.070	545.077	0.196	0.470
-459.055	186.740	0.261	0.389
-458.040	-200.000	-0.036	0.299
-457.026	-200.000	0.010	0.247
-456.011	50.435	-0.498	0.471
-454.997	76.639	0.137	-0.145
-453.982	33.906	-0.520	-0.453
-452.968	-117.466	-0.542	-0.098
-451.953	53.981	-0.175	-0.168
-450.938	-68.905	0.457	0.177
-449.924	328.135	0.430	0.826
-448.909	-155.183	-0.198	0.013
-447.895	-200.000	-0.108	0.477
-446.880	324.350	-0.222	-0.424
-445.865	-73.346	-0.496	0.182
-444.851	-120.266	0.434	-0.074
-443.836	-117.860	0.222	-0.040
-442.822	7.144	0.560	0.418
-441.807	481.524	0.192	-0.437
-440.792	-200.000	0.050	-0.349
-439.778	800.000	0.299	-0.883
-438.763	139.777	0.208	-0.274
-437.749	-110.628	-0.212	-0.044
-436.734	409.200	-0.281	-0.595
-435.719	-70.060	-0.774	0.294
-434.705	-200.000	-0.100	0.698
-433.690	136.116	-0.287	-0.374
-432.676	-40.360	-0.718	0.373
-431.661	385.954	0.252	0.521
-430.646	-139.099	0.602	-0.065
-429.632	-27.861	0.467	0.271
-428.617	-191.766	0.756	-0.007
-427.603	-200.000	-0.059	0.390
-426.588	75.582	-0.551	0.582
-425.573	800.000	-0.217	-0.829
-424.559	-78.239	-0.405	0.139
-423.544	21.710	0.385	-0.314
-422.530	-200.000	-0.036	0.731
-421.515	800.000	0.027	0.114
-420.500	430.254	0.219	0.474
-419.486	-162.254	0.425	-0.021
-418.471	318.595	-0.333	-0.631
-417.457	-50.096	-0.750	-0.355
-416.442	61.737	0.605	-0.602
-415.428	-131.533	0.749	0.099
-414.413	217.485	-0.384	-0.611
-413.398	-200.000	0.051	-0.333
-412.384	41.459	0.429	0.388
-411.369	-200.000	-0.168	-0.845
-410.355	-3.259	0.863	0.601
-409.340	66.803	0.117	-0.119
-408.325	-200.000	-0.041	0.254
-407.311	75.851	-0.259	0.273
-406.296	800.000	-0.275	-0.766
-405.282	-14.342	0.301	0.193
-404.267	350.408	-0.274	-0.542
-403.252	258.296	-0.292	0.502
-402.238	-56.927	0.526	0.232
-401.223	253.946	-0.226	0.385
-400.209	800.000	-0.022	-0.083
-399.194	-30.429	-0.383	-0.217
-398.179	-184.691	-0.404	0.006
-397.165	78.995	0.323	-0.346
-396.150	-104.563	0.650	-0.150
-395.136	-35.656	0.442	0.239
-394.121	-116.339	0.449	-0.083
-393.106	-145.620	-0.809	-0.072
-392.092	-134.921	-0.711	-0.086
-391.077	-30.992	-0.607	0.342
-390.063	21.620	-0.142	-0.115
-389.048	-137.909	0.326	0.036
-388.033	-55.819	0.457	0.204
-387.019	-82.529	0.689	0.223
-386.004	25.118	-0.346	-0.287
-384.990	800.000	0.092	0.293
-383.975	280.584	-0.108	0.193
-382.960	410.342	0.111	-0.234
-381.946	81.047	-0.210	0.226
-380.931	-200.000	-0.087	0.791
-379.917	61.303	-0.432	0.428
-378.902	-200.000	0.055	0.588
-377.888	-200.000	-0.013	0.719
-376.873	333.375	0.326	0.629
-375.858	-139.003	0.318	-0.034
-374.844	125.281	-0.329	0.414
-373.829	800.000	0.129	0.409
-372.815	-108.729	0.322	0.069
-371.800	36.259	0.177	-0.156
-370.785	-200.000	-0.717	-0.001
-369.771	259.544	0.156	-0.268
-368.756	-200.000	0.045	-0.393
-367.742	800.000	0.142	-0.604
-366.727	-132.706	0.574	0.073
-365.712	-29.933	0.630	0.358
-364.698	-90.209	-0.037	0.011
-363.683	-127.836	0.882	0.127
-362.669	192.351	0.222	0.334
-361.654	-80.362	0.104	-0.035
-360.639	-73.198	-0.528	0.193
-359.625	-200.000	-0.019	-1.030
-358.610	-100.965	1.130	0.277
-357.596	800.000	0.118	0.389
-356.581	-200.000	0.031	-0.171
-355.566	50.766	-0.553	0.522
-354.552	163.025	0.252	-0.353
-353.537	118.166	0.280	-0.344
-352.523	-88.783	-0.400	0.118
-351.508	-65.724	-0.388	-0.155
-350.493	-46.342	-0.302	-0.148
-349.479	612.850	-0.052	-0.130
-348.464	800.000	-0.105	-0.344
-347.450	-200.000	-0.091	0.831
-346.435	722.932	0.049	0.129
-345.420	-75.053	-0.454	-0.162
-344.406	-98.182	-1.295	0.332
-343.391	800.000	0.213	0.849
-342.377	800.000	-0.090	-0.387
-341.362	-200.000	-0.008	-0.719
-340.348	-55.828	-0.592	0.264
-339.333	96.938	0.595	0.680
-338.318	-200.000	0.193	-0.910
-337.304	-115.643	0.732	-0.137
-336.289	-106.719	0.499	0.110
-335.275	800.000	-0.118	0.336
-334.260	-200.000	-0.072	-0.331
-333.245	-200.000	-0.080	0.407
-332.231	-130.110	0.143	-0.019
-331.216	-200.000	-0.016	-0.242
-330.202	-50.238	0.782	0.368
-329.187	157.070	0.554	0.763
-328.172	-98.508	0.621	0.158
-327.158	-120.658	0.217	0.037
-326.143	4.851	-0.811	-0.593
-325.129	110.375	-0.197	-0.236
-324.114	800.000	-0.122	0.398
-323.099	-80.713	-0.978	-0.324
-322.085	-34.062	0.231	-0.127
-321.070	-71.704	0.157	-0.058
-320.056	220.292	-0.319	-0.509
-319.041	-194.702	-0.654	-0.005
-318.026	-119.711	0.248	-0.043
-317.012	654.410	0.208	0.532
-315.997	800.000	0.229	0.728
-314.983	-4.450	-0.642	0.441
-313.968	-200.000	0.011	0.590
-312.953	-52.336	-0.665	0.307
-311.939	398.021	0.345	0.719
-310.924	6.919	-0.299	0.222
-309.910	-200.000	-0.008	-0.235
-308.895	-199.650	0.260	-0.001
-307.880	297.248	-0.561	1.025
-306.866	-21.695	0.340	0.206
-305.851	0.564	-0.217	-0.154
-304.837	73.426	0.411	0.428
-303.822	176.924	0.159	0.230
-302.807	-103.644	0.343	0.080
-301.793	-166.924	-0.285	-0.012
-300.778	-92.755	-0.706	0.197
-299.764	-200.000	-0.068	-0.358
-298.749	570.519	-0.129	0.313
-297.735	-104.456	0.290	0.067
-296.720	225.745	0.276	-0.445
-295.705	-86.949	0.319	0.097
-294.691	-96.943	0.386	0.101
-293.676	584.661	-0.126	0.308
-292.662	158.505	0.618	-0.853
-291.647	9.694	0.434	-0.327
-290.632	-200.000	0.070	0.691
-289.618	55.458	0.666	0.641
-288.603	-65.543	-0.624	-0.249
-287.589	-200.000	0.073	0.322
-286.574	206.299	0.118	-0.183
-285.559	-200.000	0.081	-0.691
-284.545	13.848	-0.203	0.157
-283.530	-117.750	-0.340	0.061
-282.516	-130.643	-0.733	0.098
-281.501	-57.636	0.160	0.070
-280.486	-78.964	0.742	0.251
-279.472	516.229	0.166	-0.386
-278.457	494.151	-0.044	0.100
-277.443	-116.799	-0.223	-0.041
-276.428	-200.000	0.034	0.505
-275.413	340.265	0.223	-0.432
-274.399	-17.632	-0.226	-0.141
-273.384	116.503	-0.259	0.316
-272.370	190.186	0.609	-0.909
-271.355	150.495	-0.278	0.375
-270.340	-94.264	0.276	-0.075
-269.326	-200.000	0.210	-1.055
-268.311	189.362	0.126	-0.188
-267.297	227.448	0.411	0.663
-266.282	246.364	0.648	1.085
-265.267	-118.392	0.249	-0.044
-264.253	-69.605	0.204	0.078
-263.238	-88.154	-0.561	0.167
-262.224	-200.000	0.021	-0.314
-261.209	-33.863	0.426	0.233
-260.195	-200.000	0.053	-0.263
-259.180	180.337	0.339	-0.493
-258.165	-200.000	-0.098	0.928
-257.151	-15.453	-0.106	0.067
-256.136	-16.630	-0.670	0.421
-255.122	-60.611	0.680	0.286
-254.107	800.000	0.315	0.949
-253.092	-162.771	-0.474	0.023
-252.078	-16.074	0.126	0.080
-251.063	67.122	-0.579	0.586
-250.049	-81.368	1.018	-0.333
-249.034	-78.215	-0.505	0.172
-248.019	279.315	0.082	0.146
-247.005	47.178	-0.757	0.699
-245.990	-200.000	-0.067	0.530
-244.976	-85.870	-0.829	0.255
-243.961	-111.476	0.121	-0.024
-242.946	296.585	0.260	-0.473
-241.932	800.000	-0.033	0.095
-240.917	-32.984	1.031	-0.568
-239.903	-103.697	-0.275	-0.064
-238.888	-28.344	0.015	-0.009
-237.873	-92.671	-0.167	-0.047
-236.859	-200.000	-0.594	0.003
-235.844	45.418	-0.443	-0.406
-234.830	-124.947	0.507	-0.077
-233.815	-67.351	-0.960	-0.374
-232.800	246.210	-0.189	0.316
-231.786	800.000	0.209	-0.764
-230.771	-73.997	-1.016	0.365
-229.757	97.562	0.160	0.182
-228.742	4.224	0.509	-0.369
-227.727	-178.135	-0.727	0.017
-226.713	-76.975	-0.231	0.080
-225.698	800.000	0.228	-0.804
-224.684	34.332	0.143	-0.124
-223.669	-81.368	0.172	0.056
-222.655	166.682	-0.111	-0.156
-221.640	122.666	0.376	-0.466
-220.625	613.499	0.245	-0.607
-219.611	-44.194	-0.417	0.207
-218.596	-52.131	-0.250	0.115
-217.582	155.269	-0.112	-0.152
-216.567	359.148	-0.234	0.463
-215.552	20.932	-0.343	0.276
-214.538	-36.703	0.846	0.450
-213.523	102.290	0.591	-0.684
-212.509	-164.227	0.465	-0.021
-211.494	95.483	0.372	-0.420
-210.479	-200.000	-0.010	-0.435
-209.465	139.150	-0.299	-0.390
-208.450	204.641	-0.348	0.534
-207.436	-65.535	0.266	-0.106
-206.421	-200.000	0.144	-0.656
-205.406	-174.861	-0.730	-0.020
-204.392	-62.955	-0.405	0.166
-203.377	800.000	0.076	-0.304
-202.363	-20.684	0.581	-0.353
-201.348	20.177	-0.770	0.616
-200.333	-70.860	0.087	0.032
-199.319	362.141	-0.084	0.168
-198.304	-79.222	0.260	-0.087
-197.290	162.617	-0.420	0.584
-196.275	-78.065	-0.798	-0.272
-195.260	759.427	-0.302	0.810
-194.246	-76.549	-0.553	0.192
-193.231	-10.633	0.525	0.344
-192.217	-126.310	1.056	0.156
-191.202	-105.936	-0.390	-0.087
-190.187	-176.407	0.587	0.015
-189.173	-200.000	-0.175	0.996
-188.158	390.469	0.337	0.693
-187.144	-61.936	-0.334	-0.138
-186.129	192.035	0.357	-0.533
-185.114	327.163	0.107	-0.204
-184.100	521.509	0.280	0.650
-183.085	-92.877	0.509	-0.141
-182.071	-88.421	-0.373	-0.110
-181.056	95.968	0.317	0.359
-180.042	-55.496	-0.173	0.077
-179.027	800.000	-0.287	-0.868
-178.012	264.766	-0.146	-0.252
-176.998	38.998	-0.055	0.048
-175.983	-110.170	0.935	-0.193
-174.969	-32.154	-0.384	-0.213
-173.954	325.405	0.408	0.772
-172.939	544.843	0.136	-0.322
-171.925	800.000	0.208	0.666
-170.910	-164.587	0.521	-0.023
-169.896	800.000	-0.082	0.268
-168.881	-86.640	0.312	0.095
-167.866	-42.879	-0.188	-0.095
-166.852	800.000	-0.126	-0.541
-165.837	-127.119	0.523	0.076
-164.823	-44.453	-0.599	0.297
-163.808	-200.000	0.116	-0.581
-162.793	-16.936	0.064	0.040
-161.779	-148.574	0.274	0.022
-160.764	800.000	-0.088	-0.358
-159.750	-200.000	-0.144	-0.981
-158.735	-18.500	-0.458	-0.283
-157.720	-36.511	-0.543	-0.289
-156.706	22.939	0.364	-0.295
-155.691	104.200	0.150	0.175
-154.677	-90.226	0.081	-0.023
-153.662	-200.000	-0.154	-0.899
-152.647	163.235	0.294	-0.408
-151.633	-154.413	-0.976	-0.065
-150.618	800.000	0.140	-0.515
-149.604	586.104	0.133	-0.325
-148.589	-200.000	0.098	0.437
-147.574	354.537	0.160	0.315
-146.560	48.837	-0.756	-0.701
-145.545	-56.386	-0.271	0.119
-144.531	-200.000	-0.061	-0.481
-143.516	151.153	-0.196	-0.264
-142.502	-39.618	0.621	-0.321
-141.487	263.930	0.121	-0.207
-140.472	37.952	-0.252	0.222
-139.458	-11.506	-0.149	0.097
-138.443	-70.741	-0.482	0.180
-137.429	-16.210	-0.231	-0.145
-136.414	-93.556	0.818	0.224
-135.399	134.436	-0.659	-0.845
-134.385	-200.000	0.168	-0.808
-133.370	28.186	0.561	-0.468
-132.356	-17.843	0.990	-0.614
-131.341	-74.640	-0.671	0.239
-130.326	518.211	0.201	0.464
-129.312	-119.312	0.659	-0.113
-128.297	164.571	0.112	0.156
-127.283	33.263	0.830	0.712
-126.268	200.101	-0.588	0.891
-125.253	-200.000	0.083	0.475
-124.239	632.705	0.199	0.498
-123.224	-200.000	0.078	0.717
-122.210	-98.852	0.299	0.075
-121.195	-168.400	0.236	0.009
