DTS Sentinel unit serial number:	SN413079Multiplexer serial number:	ORYXHardware model number:	OX4-SRSoftware version number:	ORYX F/W v4.00 Oryx Data Collector v3.7.2.0data status	okinstallation	princeton_trtdifferential loss correction	single-endedforward channel	channel 3reverse channel	N/Adate	2019/09/14time	09:40:34forward acquisition time	60.00reverse acquisition time	0.00gamma	496.2192k internal	0.2318k external	0.2318temperature offset calibration	1.0058default loss term (dB/km)	0.3790temperature slope calibration	1.0000multiplexer offset coefficient	1.0000multiplexer slope coefficient	1.0000fibre end	0.00T internal ref (°C)	31.97T ext. ref 1 (°C)	3.90T ext. ref 2 (°C)	30.23length (m)	temperature (°C)	Stokes	anti-Stokes-747.200	-119.914	-0.173	0.030
-746.185	-200.000	-0.007	0.196
-745.171	-1.205	0.131	-0.094
-744.156	701.841	0.039	-0.105
-743.142	45.319	-0.175	-0.163
-742.127	25.510	0.118	0.100
-741.112	-65.563	-0.112	0.045
-740.098	146.343	-0.034	0.046
-739.083	797.912	-0.068	0.189
-738.069	93.056	0.063	0.072
-737.054	-89.924	-0.240	0.071
-736.039	-200.000	-0.049	-0.235
-735.025	800.000	-0.080	0.276
-734.010	-63.730	-0.337	-0.140
-732.996	98.541	-0.042	0.050
-731.981	-200.000	-0.076	0.454
-730.966	-200.000	0.029	0.177
-729.952	-17.327	-0.079	0.051
-728.937	0.439	-0.130	-0.094
-727.923	-41.669	-0.299	-0.155
-726.908	-200.000	0.006	-0.060
-725.894	-200.000	0.028	-0.161
-724.879	-89.550	-0.484	0.144
-723.864	-105.897	0.215	0.049
-722.850	190.508	0.147	-0.224
-721.835	-24.014	0.247	-0.149
-720.821	800.000	-0.075	-0.315
-719.806	-116.137	-0.270	0.051
-718.791	-0.094	-0.101	0.073
-717.777	800.000	-0.055	-0.232
-716.762	24.491	0.166	0.139
-715.748	-200.000	0.003	0.024
-714.733	785.111	-0.095	-0.262
-713.718	201.008	0.078	-0.121
-712.704	623.053	-0.096	0.244
-711.689	-12.610	0.183	0.121
-710.675	-96.343	0.033	-0.009
-709.660	-200.000	0.018	-0.158
-708.645	-200.000	-0.016	0.085
-707.631	736.031	0.091	0.248
-706.616	-29.901	-0.170	-0.098
-705.602	-81.275	-0.076	0.025
-704.587	-114.640	-0.180	0.035
-703.572	510.282	0.095	0.224
-702.558	25.322	0.203	-0.171
-701.543	-66.368	-0.003	-0.001
-700.529	-80.381	-0.380	0.128
-699.514	-200.000	0.007	0.067
-698.499	122.728	-0.398	-0.503
-697.485	-200.000	0.005	-0.074
-696.470	-200.000	-0.064	-0.400
-695.456	-56.281	0.107	0.048
-694.441	-200.000	-0.049	-0.314
-693.426	-35.644	-0.200	0.109
-692.412	79.170	-0.162	0.175
-691.397	-200.000	0.040	0.196
-690.383	-81.221	-0.142	0.047
-689.368	-200.000	-0.036	0.284
-688.354	800.000	-0.081	-0.289
-687.339	-52.365	-0.268	-0.125
-686.324	422.958	-0.097	0.210
-685.310	-38.807	-0.239	-0.127
-684.295	-200.000	-0.012	-0.100
-683.281	380.176	-0.113	-0.234
-682.266	170.469	0.175	0.253
-681.251	-83.596	-0.327	0.105
-680.237	24.100	0.179	-0.149
-679.222	-110.029	0.088	0.019
-678.208	-9.350	0.037	-0.025
-677.193	-200.000	-0.017	-0.250
-676.178	-200.000	0.019	0.086
-675.164	-200.000	0.021	0.157
-674.149	-95.043	-0.230	-0.063
-673.135	665.261	-0.098	-0.257
-672.120	175.818	0.238	0.348
-671.105	84.415	0.194	0.214
-670.091	95.049	-0.311	0.358
-669.076	61.207	0.142	-0.143
-668.062	-68.559	-0.183	-0.072
-667.047	800.000	0.041	-0.124
-666.032	11.438	-0.334	0.258
-665.018	-38.756	0.515	-0.274
-664.003	-78.852	0.176	-0.061
-662.989	-16.281	-0.046	-0.029
-661.974	-42.861	0.412	-0.211
-660.959	-200.000	-0.019	-0.267
-659.945	-131.706	0.150	0.020
-658.930	287.990	0.033	-0.060
-657.916	800.000	-0.042	0.139
-656.901	-200.000	0.017	0.274
-655.886	-156.347	-0.226	-0.014
-654.872	-65.513	0.082	-0.033
-653.857	-85.217	-0.301	-0.095
-652.843	-61.087	0.126	-0.053
-651.828	-70.345	-0.277	0.106
-650.814	165.682	0.317	0.452
-649.799	-41.044	0.168	-0.087
-648.784	-80.158	-0.039	-0.013
-647.770	-57.346	-0.264	-0.117
-646.755	549.496	-0.071	0.172
-645.741	-47.646	0.066	-0.032
-644.726	-4.920	0.172	-0.120
-643.711	-200.000	0.043	-0.304
-642.697	-18.009	-0.047	0.030
-641.682	338.222	-0.126	0.248
-640.668	-12.230	-0.277	0.182
-639.653	60.428	0.192	0.192
-638.638	-200.000	0.013	-0.184
-637.624	40.592	-0.233	0.212
-636.609	-39.393	-0.140	0.074
-635.595	-200.000	-0.001	-0.152
-634.580	-12.554	0.136	-0.089
-633.565	-106.473	-0.158	0.035
-632.551	160.653	0.116	-0.163
-631.536	-200.000	0.020	0.333
-630.522	800.000	0.089	0.274
-629.507	88.853	-0.149	-0.167
-628.492	-60.782	-0.287	-0.122
-627.478	-148.859	-0.117	-0.010
-626.463	-174.223	0.164	0.005
-625.449	-200.000	-0.024	0.544
-624.434	247.784	0.167	0.285
-623.419	-85.755	-0.141	0.044
-622.405	800.000	-0.046	0.144
-621.390	291.874	0.106	0.194
-620.376	-88.121	0.392	-0.118
-619.361	-79.817	-0.274	-0.093
-618.346	-36.411	-0.152	0.082
-617.332	-17.884	0.094	0.059
-616.317	72.846	0.221	0.233
-615.303	-99.424	0.399	0.101
-614.288	-7.563	-0.166	-0.113
-613.273	271.313	-0.155	-0.275
-612.259	-200.000	0.031	-0.145
-611.244	437.438	0.102	-0.223
-610.230	-3.445	0.151	-0.106
-609.215	253.761	0.074	0.127
-608.201	20.202	-0.261	0.212
-607.186	165.238	0.076	-0.109
-606.171	-109.192	0.300	0.064
-605.157	74.549	-0.156	-0.166
-604.142	-61.811	-0.341	-0.144
-603.128	195.967	0.104	-0.159
-602.113	-200.000	-0.006	0.306
-601.098	-200.000	0.017	0.305
-600.084	-15.138	-0.161	-0.103
-599.069	-92.358	-0.350	-0.099
-598.055	-200.000	0.018	-0.130
-597.040	-101.974	-0.190	0.046
-596.025	43.530	-0.108	-0.099
-595.011	800.000	0.006	-0.019
-593.996	800.000	-0.025	-0.077
-592.982	-12.608	-0.105	0.069
-591.967	161.021	0.052	-0.073
-590.952	800.000	-0.067	-0.203
-589.938	401.519	0.076	0.160
-588.923	-93.079	0.341	0.096
-587.909	80.893	-0.122	-0.132
-586.894	84.636	0.188	-0.207
-585.879	-15.913	0.272	-0.174
-584.865	129.833	0.221	-0.285
-583.850	-47.354	0.232	-0.114
-582.836	22.302	-0.149	-0.123
-581.821	-32.414	-0.226	-0.127
-580.806	137.045	0.144	0.189
-579.792	75.652	0.262	0.278
-578.777	116.393	-0.148	-0.182
-577.763	-70.595	0.160	-0.061
-576.748	-45.088	0.076	0.038
-575.733	-193.391	0.198	-0.002
-574.719	-200.000	0.048	-0.452
-573.704	201.235	-0.209	-0.323
-572.690	800.000	0.037	-0.110
-571.675	540.158	0.111	0.266
-570.661	-200.000	0.006	-0.065
-569.646	-37.522	-0.229	0.123
-568.631	-96.709	0.288	0.076
-567.617	-200.000	-0.015	0.184
-566.602	-108.913	0.119	0.026
-565.588	-62.034	-0.075	-0.032
-564.573	-97.549	-0.198	0.052
-563.558	-146.660	-0.104	0.009
-562.544	149.615	0.017	0.024
-561.529	6.388	0.293	-0.219
-560.515	5.731	-0.234	0.174
-559.500	-114.730	0.130	0.025
-558.485	-118.315	-0.160	0.029
-557.471	76.268	-0.127	-0.136
-556.456	94.088	-0.090	0.102
-555.442	35.639	0.305	0.269
-554.427	-77.373	-0.302	-0.105
-553.412	-200.000	-0.021	-0.204
-552.398	-200.000	-0.032	-0.163
-551.383	130.613	-0.101	0.130
-550.369	69.502	0.239	0.247
-549.354	95.614	0.124	-0.142
-548.339	224.276	-0.018	-0.030
-547.325	97.143	-0.128	-0.147
-546.310	-200.000	0.005	-0.132
-545.296	-14.274	0.152	0.098
-544.281	-154.921	0.255	0.017
-543.266	12.739	-0.346	0.268
-542.252	154.693	-0.095	-0.131
-541.237	-178.817	0.044	-0.001
-540.223	185.474	-0.158	0.236
-539.208	-112.795	0.159	0.032
-538.193	-91.751	-0.063	-0.018
-537.179	-162.661	0.366	-0.018
-536.164	203.803	0.058	0.091
-535.150	650.474	0.086	-0.221
-534.135	-200.000	-0.018	-0.362
-533.121	-77.981	0.198	-0.068
-532.106	288.776	0.052	-0.094
-531.091	30.991	-0.407	0.350
-530.077	-27.320	0.042	0.025
-529.062	-200.000	-0.016	-0.119
-528.048	-90.542	0.144	0.042
-527.033	-170.816	-0.212	0.007
-526.018	87.925	-0.100	-0.111
-525.004	-200.000	-0.006	-0.106
-523.989	-98.798	0.118	0.030
-522.975	-195.577	-0.136	-0.001
-521.960	-95.943	-0.268	-0.072
-520.945	800.000	0.086	-0.259
-519.931	-78.949	-0.137	0.047
-518.916	-81.611	-0.298	0.098
-517.902	-200.000	0.001	-0.072
-516.887	58.243	-0.128	0.126
-515.872	-200.000	-0.024	0.314
-514.858	-200.000	-0.090	-0.653
-513.843	278.374	-0.203	-0.362
-512.829	237.309	0.091	-0.150
-511.814	-141.968	-0.168	-0.017
-510.799	-200.000	-0.006	-0.147
-509.785	210.832	-0.113	0.178
-508.770	-124.275	-0.181	-0.028
-507.756	-5.244	0.099	0.068
-506.741	-88.186	-0.073	-0.022
-505.726	210.835	0.095	-0.149
-504.712	174.784	-0.092	0.133
-503.697	-200.000	-0.037	0.172
-502.683	800.000	-0.117	0.418
-501.668	-63.110	-0.246	0.102
-500.653	-89.464	0.276	0.081
-499.639	-200.000	-0.243	-0.001
-498.624	264.006	0.094	-0.164
-497.610	800.000	0.053	-0.176
-496.595	-136.933	-0.380	0.044
-495.581	-70.908	0.143	0.054
-494.566	73.270	0.114	-0.120
-493.551	-122.396	0.159	-0.026
-492.537	37.046	0.156	0.138
-491.522	800.000	-0.079	0.264
-490.508	-130.048	-0.240	-0.033
-489.493	16.273	0.282	-0.223
-488.478	168.433	-0.190	-0.271
-487.464	-75.617	-0.074	-0.026
-486.449	-50.455	0.065	0.031
-485.435	214.934	-0.050	0.079
-484.420	-44.445	0.385	0.193
-483.405	-103.331	-0.186	-0.044
-482.391	-186.487	0.069	-0.001
-481.376	-16.984	0.153	-0.097
-480.362	9.513	-0.164	-0.124
-479.347	-115.420	-0.002	0.000
-478.332	309.964	0.053	0.100
-477.318	800.000	0.030	-0.088
-476.303	-80.484	0.253	0.085
-475.289	-93.251	-0.048	0.013
-474.274	-94.082	-0.196	0.054
-473.259	-200.000	0.025	-0.209
-472.245	61.762	0.140	-0.140
-471.230	79.414	0.179	-0.192
-470.216	800.000	0.092	-0.314
-469.201	-19.093	0.108	-0.067
-468.186	-117.322	-0.045	-0.008
-467.172	-43.072	-0.104	0.053
-466.157	-105.026	-0.031	0.007
-465.143	-122.172	-0.191	-0.031
-464.128	502.241	-0.028	-0.065
-463.113	360.691	-0.012	0.024
-462.099	-200.000	-0.020	0.114
-461.084	-43.825	0.232	0.117
-460.070	800.000	-0.098	0.306
-459.055	-200.000	0.151	-0.000
-458.040	49.426	-0.364	-0.343
-457.026	800.000	0.019	-0.082
-456.011	-142.409	-0.119	0.012
-454.997	-82.654	-0.099	0.032
-453.982	520.333	-0.048	-0.113
-452.968	731.660	-0.103	-0.275
-451.953	-181.724	0.179	0.003
-450.938	55.749	-0.105	0.101
-449.924	-104.119	0.119	0.028
-448.909	246.462	-0.043	-0.073
-447.895	800.000	0.201	-0.586
-446.880	30.252	0.148	-0.127
-445.865	-59.048	-0.040	0.017
-444.851	-68.271	0.072	0.028
-443.836	-200.000	-0.044	0.326
-442.822	105.942	0.103	-0.122
-441.807	140.801	-0.224	0.296
-440.792	-188.243	-0.082	-0.001
-439.778	439.958	-0.080	0.175
-438.763	341.909	0.085	-0.166
-437.749	-62.492	0.081	0.034
-436.734	367.848	0.134	0.270
-435.719	763.750	0.058	-0.159
-434.705	137.075	-0.109	0.143
-433.690	-200.000	-0.052	-0.390
-432.676	-151.875	0.026	0.002
-431.661	76.161	0.216	0.229
-430.646	-200.000	0.030	-0.166
-429.632	-57.811	0.348	-0.152
-428.617	-118.625	0.180	0.032
-427.603	-109.083	-0.287	-0.061
-426.588	64.991	-0.043	-0.043
-425.573	325.153	-0.078	0.150
-424.559	-200.000	0.075	-0.351
-423.544	-47.015	-0.367	-0.179
-422.530	113.374	-0.062	0.075
-421.515	-27.638	0.424	0.246
-420.500	-136.988	0.171	-0.020
-419.486	800.000	0.038	0.110
-418.471	-55.487	0.161	0.072
-417.457	360.218	0.021	-0.042
-416.442	164.323	-0.162	-0.229
-415.428	344.943	0.190	-0.372
-414.413	-26.078	0.080	0.047
-413.398	-30.381	0.396	-0.225
-412.384	-200.000	0.001	0.349
-411.369	-25.254	0.247	0.146
-410.355	97.061	-0.192	-0.220
-409.340	800.000	-0.065	-0.241
-408.325	84.293	0.157	-0.171
-407.311	-43.879	-0.142	0.072
-406.296	-37.872	0.204	-0.108
-405.282	-39.623	0.196	0.103
-404.267	-154.484	0.191	0.013
-403.252	-200.000	-0.027	0.219
-402.238	-200.000	0.012	-0.246
-401.223	-38.135	-0.079	-0.042
-400.209	-52.152	-0.109	-0.051
-399.194	172.743	-0.259	-0.373
-398.179	-163.843	-0.168	0.008
-397.165	59.294	0.068	-0.067
-396.150	78.595	-0.167	0.178
-395.136	231.705	-0.094	0.155
-394.121	682.817	-0.093	-0.241
-393.106	-192.686	0.335	-0.003
-392.092	800.000	0.054	-0.161
-391.077	800.000	-0.030	-0.118
-390.063	-200.000	-0.072	0.350
-389.048	134.422	0.038	-0.050
-388.033	-131.120	0.147	-0.020
-387.019	-143.377	0.167	-0.016
-386.004	564.141	0.082	0.198
-384.990	-30.550	-0.106	0.060
-383.975	106.222	0.105	-0.124
-382.960	-200.000	0.012	0.159
-381.946	149.945	0.129	0.175
-380.931	-40.984	0.156	0.081
-379.917	79.536	0.097	-0.104
-378.902	16.013	0.152	0.119
-377.888	-50.873	-0.049	0.023
-376.873	138.360	-0.068	-0.089
-375.858	234.133	0.142	-0.234
-374.844	-65.499	-0.098	-0.039
-373.829	1.212	-0.200	0.144
-372.815	91.511	-0.208	-0.234
-371.800	565.127	-0.101	0.244
-370.785	-200.000	-0.039	0.209
-369.771	53.499	0.050	-0.048
-368.756	117.448	-0.074	0.090
-367.742	-155.427	0.228	-0.015
-366.727	124.988	0.103	-0.129
-365.712	-109.576	-0.138	-0.029
-364.698	113.687	-0.063	-0.076
-363.683	-200.000	0.380	-0.001
-362.669	112.308	0.083	-0.100
-361.654	-123.612	-0.108	-0.017
-360.639	36.176	-0.310	-0.272
-359.625	143.529	0.091	0.121
-358.610	-116.402	-0.517	-0.095
-357.596	-59.519	-0.017	-0.007
-356.581	-33.444	0.094	-0.052
-355.566	-104.368	-0.078	-0.018
-354.552	-127.300	0.236	0.034
-353.537	229.347	-0.086	-0.140
-352.523	-200.000	-0.037	0.237
-351.508	40.396	0.065	0.058
-350.493	79.572	0.102	0.109
-349.479	-62.443	0.397	0.164
-348.464	-98.546	-0.081	-0.021
-347.450	-135.425	0.197	-0.023
-346.435	-147.230	-0.121	0.010
-345.420	-64.873	-0.171	-0.069
-344.406	33.223	0.021	0.018
-343.391	14.850	-0.223	0.174
-342.377	-121.817	-0.204	-0.034
-341.362	-114.318	-0.316	0.061
-340.348	179.929	-0.142	-0.208
-339.333	-21.065	-0.219	-0.133
-338.318	-98.377	0.167	-0.043
-337.304	-33.618	-0.235	-0.129
-336.289	31.975	0.195	0.167
-335.275	-43.474	0.366	0.184
-334.260	138.006	0.178	-0.232
-333.245	800.000	-0.083	-0.276
-332.231	-49.978	-0.226	-0.107
-331.216	800.000	-0.051	0.198
-330.202	-17.029	-0.207	0.130
-329.187	-40.669	-0.356	-0.184
-328.172	-44.687	-0.213	0.106
-327.158	-200.000	0.026	0.171
-326.143	-177.769	0.128	-0.003
-325.129	246.384	0.035	-0.059
-324.114	-77.439	-0.082	-0.028
-323.099	-200.000	0.033	-0.255
-322.085	206.445	0.039	0.061
-321.070	-27.784	0.151	0.087
-320.056	-3.549	0.330	-0.228
-319.041	-118.319	-0.101	-0.018
-318.026	-200.000	0.011	-0.269
-317.012	-100.491	-0.151	-0.037
-315.997	117.305	-0.072	0.088
-314.983	-2.600	-0.243	-0.169
-313.968	800.000	0.046	-0.191
-312.953	160.720	-0.064	-0.088
-311.939	221.349	-0.016	-0.026
-310.924	632.879	0.109	-0.274
-309.910	87.412	0.188	0.207
-308.895	-200.000	0.012	-0.114
-307.880	145.288	0.144	0.192
-306.866	264.957	-0.100	0.173
-305.851	800.000	-0.086	-0.341
-304.837	-111.572	0.221	0.045
-303.822	422.520	0.053	-0.114
-302.807	-152.646	-0.303	-0.022
-301.793	-73.391	0.193	-0.070
-300.778	-200.000	-0.006	0.260
-299.764	-52.653	0.076	-0.035
-298.749	-83.310	0.329	0.105
-297.735	-76.899	0.129	0.045
-296.720	128.069	0.119	-0.150
-295.705	-200.000	0.016	0.088
-294.691	28.340	0.041	-0.035
-293.676	800.000	0.005	0.019
-292.662	5.321	-0.051	0.038
-291.647	129.236	-0.120	0.152
-290.632	77.383	0.106	0.112
-289.618	774.760	-0.015	-0.040
-288.603	34.520	-0.138	-0.120
-287.589	58.534	0.252	0.246
-286.574	111.701	0.018	-0.022
-285.559	-200.000	0.001	0.217
-284.545	245.701	-0.024	0.040
-283.530	46.923	-0.180	-0.166
-282.516	-4.546	0.138	-0.095
-281.501	-200.000	0.000	0.173
-280.486	-56.579	-0.019	0.008
-279.472	-194.537	0.193	0.002
-278.457	715.983	0.038	-0.099
-277.443	-86.095	-0.061	0.019
-276.428	-200.000	-0.040	-0.275
-275.413	-2.376	0.282	0.197
-274.399	38.827	-0.097	0.086
-273.384	-92.171	-0.076	0.021
-272.370	161.984	0.253	0.352
-271.355	-155.496	-0.584	-0.037
-270.340	800.000	0.081	-0.226
-269.326	59.306	-0.027	-0.027
-268.311	2.294	-0.143	0.103
-267.297	302.682	0.101	0.185
-266.282	-118.568	0.289	0.051
-265.267	-35.183	0.216	0.117
-264.253	95.682	-0.174	-0.197
-263.238	59.489	0.128	0.126
-262.224	-179.748	0.388	-0.008
-261.209	64.491	0.058	-0.058
-260.195	98.475	0.122	-0.140
-259.180	-30.400	0.371	0.209
-258.165	108.161	-0.155	-0.184
-257.151	-111.137	0.131	0.027
-256.136	468.300	0.191	0.425
-255.122	-67.569	-0.210	0.082
-254.107	-200.000	-0.018	-0.179
-253.092	290.993	-0.117	-0.211
-252.078	52.063	-0.124	0.118
-251.063	-200.000	0.007	0.318
-250.049	-12.216	-0.100	0.065
-249.034	-19.080	-0.144	-0.089
-248.019	-18.561	0.067	0.041
-247.005	-24.404	0.130	0.077
-245.990	25.946	0.112	-0.092
-244.976	-200.000	-0.009	-0.096
-243.961	-180.669	-0.124	-0.003
-242.946	-48.417	0.454	0.217
-241.932	-35.893	0.162	0.087
-240.917	-19.796	-0.121	0.074
-239.903	-121.518	-0.107	-0.018
-238.888	-200.000	-0.011	-0.447
-237.873	-128.538	0.153	0.021
-236.859	354.965	-0.133	0.262
-235.844	33.576	-0.132	-0.113
-234.830	-0.040	-0.157	-0.111
-233.815	-200.000	0.038	-0.244
-232.800	107.007	-0.298	-0.351
-231.786	172.737	-0.143	0.204
-230.771	69.809	-0.130	-0.133
-229.757	137.282	0.080	0.104
-228.742	82.576	-0.311	-0.335
-227.727	-200.000	-0.012	-0.353
-226.713	-200.000	0.010	0.085
-225.698	-200.000	0.099	0.481
-224.684	-13.647	0.040	0.026
-223.669	-119.866	0.117	0.020
-222.655	270.389	-0.115	-0.201
-221.640	-95.075	-0.332	0.089
-220.625	-79.627	0.193	0.065
-219.611	800.000	0.046	0.166
-218.596	-68.355	-0.142	-0.055
-217.582	407.435	-0.119	0.249
-216.567	156.284	0.312	0.427
-215.552	36.072	-0.163	0.142
-214.538	240.127	-0.099	0.164
-213.523	-98.294	0.107	-0.027
-212.509	132.033	-0.310	-0.396
-211.494	-49.050	0.127	0.060
-210.479	-85.558	0.153	0.047
-209.465	14.284	0.107	0.083
-208.450	-72.016	0.417	-0.154
-207.436	800.000	0.009	0.024
-206.421	215.829	0.116	-0.182
-205.406	-13.683	0.115	0.074
-204.392	549.220	-0.057	0.136
-203.377	-200.000	0.116	0.586
-202.363	-200.000	-0.007	0.152
-201.348	-153.282	-0.420	-0.029
-200.333	-200.000	0.045	-0.203
-199.319	800.000	0.053	-0.172
-198.304	-200.000	0.043	0.225
-197.290	800.000	-0.069	0.237
-196.275	69.316	-0.154	-0.157
-195.260	-146.588	-0.186	0.016
-194.246	386.982	0.122	0.251
-193.231	-126.962	0.149	-0.022
-192.217	171.832	0.043	0.061
-191.202	-35.672	0.075	-0.040
-190.187	-120.414	-0.332	0.056
-189.173	169.315	0.083	0.117
-188.158	11.265	-0.189	0.143
-187.144	-49.496	-0.186	0.088
-186.129	-36.683	-0.149	-0.079
-185.114	39.959	-0.168	0.149
-184.100	258.030	-0.283	0.482
-183.085	70.231	0.152	0.155
-182.071	209.597	0.077	-0.120
-181.056	17.942	-0.250	0.197
-180.042	233.691	-0.135	-0.220
-179.027	64.255	0.125	0.125
-178.012	86.570	-0.168	-0.183
-176.998	-17.668	0.156	-0.097
-175.983	-43.306	0.127	0.064
-174.969	800.000	0.051	-0.177
-173.954	-200.000	-0.028	0.335
-172.939	59.768	-0.303	-0.296
-171.925	47.336	-0.343	0.316
-170.910	153.892	-0.173	0.234
-169.896	-200.000	-0.004	0.065
-168.881	-90.918	-0.116	-0.033
-167.866	800.000	0.064	0.207
-166.852	-86.880	-0.168	0.051
-165.837	-199.804	0.483	0.002
-164.823	-200.000	0.046	0.555
-163.808	-172.154	0.169	0.005
-162.793	-74.521	0.231	0.082
-161.779	800.000	-0.049	0.191
-160.764	-131.030	0.079	-0.010
-159.750	-129.139	-0.153	0.021
-158.735	-56.847	0.387	0.169
-157.720	261.020	-0.157	0.269
-156.706	225.647	-0.084	0.134
-155.691	101.722	0.035	0.040
-154.677	800.000	0.021	-0.085
-153.662	447.095	-0.123	-0.267
-152.647	800.000	0.091	-0.267
-151.633	-200.000	0.041	0.238
-150.618	-107.743	-0.147	-0.032
-149.604	618.020	-0.051	0.126
-148.589	-1.062	0.108	-0.076
-147.574	-200.000	-0.015	0.255
-146.560	-99.565	0.285	0.071
-145.545	-78.804	0.175	0.059
-144.531	-200.000	-0.024	-0.150
-143.516	-9.721	-0.196	-0.129
-142.502	-73.369	0.126	-0.046
-141.487	-48.454	0.347	0.165
-140.472	262.969	0.073	-0.125
-139.458	-77.198	-0.125	-0.043
-138.443	70.051	0.083	-0.085
-137.429	-58.769	0.243	0.104
-136.414	193.183	0.310	-0.463
-135.399	494.575	0.156	-0.354
-134.385	-200.000	-0.058	-0.386
-133.370	219.087	0.030	0.048
-132.356	-200.000	0.060	-0.264
-131.341	-200.000	-0.004	-0.088
-130.326	-200.000	-0.027	0.247
-129.312	-45.540	-0.300	0.147
-128.297	57.658	0.038	-0.036
-127.283	18.630	0.049	-0.038
-126.268	-6.868	0.217	0.146
-125.253	11.316	-0.125	-0.095
-124.239	-200.000	0.016	0.321
-123.224	795.317	0.089	-0.241
-122.210	115.780	-0.071	0.086
-121.195	110.942	-0.124	0.147
