DTS Sentinel unit serial number:	SN413079Multiplexer serial number:	ORYXHardware model number:	OX4-SRSoftware version number:	ORYX F/W v4.00 Oryx Data Collector v3.7.2.0data status	okinstallation	princeton_trtdifferential loss correction	single-endedforward channel	channel 3reverse channel	N/Adate	2019/09/19time	05:48:35forward acquisition time	60.00reverse acquisition time	0.00gamma	496.2192k internal	0.2349k external	0.2349temperature offset calibration	0.9986default loss term (dB/km)	0.3790temperature slope calibration	1.0000multiplexer offset coefficient	1.0000multiplexer slope coefficient	1.0000fibre end	0.00T internal ref (°C)	19.27T ext. ref 1 (°C)	0.59T ext. ref 2 (°C)	12.78length (m)	temperature (°C)	Stokes	anti-Stokes-747.200	-136.619	0.252	-0.029
-746.185	800.000	-0.150	0.416
-745.171	68.876	0.079	0.081
-744.156	-1.316	-0.317	0.223
-743.142	48.837	0.291	-0.273
-742.127	-182.439	-0.122	0.002
-741.112	-200.000	0.007	0.140
-740.098	181.780	-0.216	0.318
-739.083	-200.000	-0.015	-0.217
-738.069	-117.551	-0.364	-0.066
-737.054	190.283	0.334	0.501
-736.039	-108.848	-0.312	0.067
-735.025	17.852	0.392	-0.312
-734.010	-11.077	-0.181	-0.119
-732.996	-137.456	-0.286	-0.032
-731.981	-31.180	0.274	0.154
-730.966	-85.781	-0.185	0.057
-729.952	89.518	-0.310	-0.345
-728.937	800.000	-0.074	-0.219
-727.923	257.897	0.038	0.065
-726.908	405.327	-0.083	-0.175
-725.894	50.791	-0.053	-0.050
-724.879	-125.848	-0.387	0.058
-723.864	-55.802	-0.163	-0.073
-722.850	78.640	-0.220	0.235
-721.835	-58.685	-0.151	-0.065
-720.821	12.473	0.041	0.032
-719.806	-119.257	-0.152	-0.026
-718.791	19.523	-0.151	0.121
-717.777	-47.157	-0.257	-0.125
-716.762	80.006	-0.132	-0.141
-715.748	-141.079	0.124	0.013
-714.733	-46.937	-0.242	0.118
-713.718	-200.000	0.010	-0.304
-712.704	-200.000	-0.028	-0.262
-711.689	-200.000	0.010	-0.105
-710.675	-187.003	0.109	-0.001
-709.660	-200.000	0.046	0.212
-708.645	17.449	-0.203	-0.161
-707.631	150.665	-0.098	-0.133
-706.616	24.546	-0.067	-0.055
-705.602	-93.478	0.238	-0.066
-704.587	-200.000	-0.028	0.220
-703.572	2.735	-0.284	0.205
-702.558	800.000	0.013	-0.044
-701.543	-2.547	0.104	0.073
-700.529	-149.093	0.232	-0.019
-699.514	40.796	0.074	0.067
-698.499	179.692	0.153	-0.223
-697.485	-72.502	-0.160	0.059
-696.470	-200.000	-0.010	0.128
-695.456	-50.410	-0.191	0.090
-694.441	-97.420	-0.137	-0.036
-693.426	-200.000	0.035	-0.185
-692.412	123.786	0.039	0.049
-691.397	-70.770	-0.458	-0.172
-690.383	-200.000	0.047	0.404
-689.368	-30.324	-0.365	-0.206
-688.354	-58.718	-0.381	-0.164
-687.339	37.625	0.099	-0.087
-686.324	800.000	0.117	0.387
-685.310	-96.996	-0.142	0.037
-684.295	89.460	0.029	-0.032
-683.281	492.413	-0.020	0.046
-682.266	4.942	0.200	-0.146
-681.251	-74.049	-0.182	-0.066
-680.237	111.169	0.225	-0.270
-679.222	-186.203	-0.063	0.001
-678.208	-200.000	-0.059	0.390
-677.193	-128.373	-0.155	0.022
-676.178	102.976	0.147	-0.171
-675.164	-122.183	-0.599	0.098
-674.149	8.101	0.333	-0.249
-673.135	22.015	-0.220	0.178
-672.120	-175.007	-0.529	-0.015
-671.105	-200.000	0.016	-0.082
-670.091	19.428	0.307	0.246
-669.076	-161.164	-0.031	-0.002
-668.062	-27.127	-0.281	-0.163
-667.047	47.710	-0.099	0.092
-666.032	-139.976	0.242	0.025
-665.018	283.509	-0.021	-0.037
-664.003	46.163	0.182	0.168
-662.989	20.983	-0.305	-0.246
-661.974	266.850	0.140	-0.243
-660.959	-72.859	-0.083	0.030
-659.945	798.322	0.205	-0.562
-658.930	16.878	0.002	-0.001
-657.916	-89.106	0.172	-0.051
-656.901	231.261	-0.139	-0.227
-655.886	-109.260	-0.393	-0.083
-654.872	-129.114	0.138	0.019
-653.857	310.840	-0.231	0.430
-652.843	50.915	-0.156	-0.147
-651.828	-44.558	-0.104	-0.052
-650.814	-13.293	-0.054	0.035
-649.799	800.000	0.120	-0.440
-648.784	20.113	-0.144	0.116
-647.770	-30.152	0.207	0.117
-646.755	800.000	0.021	-0.060
-645.741	-46.611	0.308	-0.150
-644.726	-101.170	-0.292	0.071
-643.711	116.543	0.139	-0.169
-642.697	-200.000	-0.064	0.284
-641.682	-77.222	0.210	-0.073
-640.668	-18.344	-0.170	0.106
-639.653	-27.705	-0.179	0.103
-638.638	800.000	0.044	0.154
-637.624	-71.455	-0.338	-0.126
-636.609	387.895	-0.085	-0.175
-635.595	77.353	-0.235	-0.248
-634.580	78.489	-0.137	0.145
-633.565	496.377	-0.105	0.240
-632.551	21.360	0.181	-0.146
-631.536	-198.933	-0.079	0.000
-630.522	-10.140	-0.217	-0.143
-629.507	276.038	0.115	0.204
-628.492	-117.624	0.312	0.056
-627.478	-123.319	-0.079	0.013
-626.463	800.000	-0.079	-0.260
-625.449	223.224	0.213	-0.341
-624.434	176.683	-0.324	-0.468
-623.419	364.932	0.039	0.077
-622.405	-111.034	0.263	-0.054
-621.390	800.000	0.112	0.314
-620.376	-200.000	0.025	0.144
-619.361	-107.173	0.061	-0.013
-618.346	69.818	-0.074	-0.076
-617.332	-71.776	0.171	0.063
-616.317	79.919	-0.133	0.142
-615.303	800.000	-0.132	-0.408
-614.288	-110.328	-0.309	-0.064
-613.273	-167.010	0.212	0.009
-612.259	-200.000	0.013	0.056
-611.244	531.724	0.036	-0.085
-610.230	323.506	-0.078	-0.148
-609.215	101.244	-0.115	0.133
-608.201	-120.155	-0.477	0.081
-607.186	-200.000	-0.035	-0.175
-606.171	227.094	0.178	0.288
-605.157	419.717	-0.078	0.166
-604.142	-62.662	-0.367	-0.151
-603.128	651.550	-0.097	-0.247
-602.113	800.000	-0.097	-0.338
-601.098	20.197	0.299	-0.240
-600.084	-68.591	0.327	0.126
-599.069	-80.495	0.195	0.064
-598.055	-139.652	0.154	-0.016
-597.040	800.000	0.056	0.183
-596.025	-95.967	0.324	-0.086
-595.011	-148.490	-0.314	0.026
-593.996	-200.000	0.056	0.283
-592.982	-38.831	0.117	-0.061
-591.967	-166.608	0.216	0.009
-590.952	-9.471	-0.223	0.148
-589.938	-14.329	-0.260	0.166
-588.923	-200.000	0.023	0.187
-587.909	135.600	0.083	0.107
-586.894	-62.607	-0.504	0.208
-585.879	-95.801	0.188	-0.050
-584.865	-200.000	-0.076	-0.352
-583.850	800.000	-0.074	-0.251
-582.836	800.000	0.110	-0.316
-581.821	-88.415	-0.234	0.069
-580.806	-25.266	0.098	-0.057
-579.792	-115.735	-0.208	0.039
-578.777	-200.000	0.031	-0.215
-577.763	-43.311	0.304	0.153
-576.748	35.230	-0.092	0.080
-575.733	65.269	-0.118	0.119
-574.719	800.000	-0.099	0.326
-573.704	800.000	-0.083	0.272
-572.690	122.792	0.138	-0.171
-571.675	-200.000	-0.153	-0.001
-570.661	-113.124	0.373	0.073
-569.646	-200.000	-0.039	-0.180
-568.631	-200.000	0.008	0.111
-567.617	-17.597	0.190	-0.118
-566.602	459.803	-0.045	0.100
-565.588	117.579	-0.022	-0.027
-564.573	-200.000	-0.004	0.333
-563.558	171.846	-0.179	0.255
-562.544	351.865	-0.060	-0.117
-561.529	122.535	0.170	0.211
-560.515	-34.529	-0.330	0.179
-559.500	542.191	0.097	0.230
-558.485	-37.520	-0.045	-0.024
-557.471	129.266	-0.147	0.186
-556.456	-145.375	0.101	0.009
-555.442	-135.005	0.188	0.022
-554.427	-60.145	0.074	-0.031
-553.412	2.974	-0.108	0.078
-552.398	-93.487	0.337	0.093
-551.383	-26.828	-0.321	-0.186
-550.369	30.239	-0.177	0.149
-549.354	39.237	0.134	-0.119
-548.339	-76.313	-0.170	0.059
-547.325	273.547	0.053	-0.094
-546.310	800.000	0.021	-0.083
-545.296	-76.192	-0.198	-0.069
-544.281	17.011	-0.155	0.122
-543.266	800.000	-0.072	-0.217
-542.252	39.747	0.168	-0.149
-541.237	53.162	0.044	0.042
-540.223	-180.772	-0.244	-0.005
-539.208	180.704	0.172	0.251
-538.193	102.358	0.101	0.117
-537.179	153.807	0.088	0.120
-536.164	43.676	-0.104	-0.094
-535.150	54.736	0.155	0.148
-534.135	-200.000	0.018	0.130
-533.121	-76.437	0.056	-0.020
-532.106	79.722	-0.180	0.192
-531.091	-62.887	-0.109	0.045
-530.077	-0.635	0.218	0.153
-529.062	-200.000	0.001	0.211
-528.048	196.799	-0.039	-0.059
-527.033	-125.526	0.201	0.030
-526.018	-107.001	-0.092	0.020
-525.004	-130.475	0.613	-0.082
-523.989	800.000	-0.089	0.259
-522.975	-16.553	-0.072	-0.045
-521.960	-200.000	0.048	-0.294
-520.945	-167.848	-0.267	0.010
-519.931	-200.000	0.048	0.513
-518.916	800.000	-0.017	-0.051
-517.902	-110.958	-0.253	-0.052
-516.887	-144.891	0.064	0.006
-515.872	-67.926	0.235	0.091
-514.858	-64.981	-0.298	-0.119
-513.843	-41.201	-0.122	-0.063
-512.829	277.760	0.060	0.106
-511.814	-200.000	-0.022	0.228
-510.799	800.000	0.076	-0.216
-509.785	800.000	0.048	0.178
-508.770	-78.072	0.282	0.096
-507.756	274.243	0.069	0.121
-506.741	-9.277	-0.234	-0.154
-505.726	-35.601	0.097	-0.052
-504.712	44.726	-0.257	0.234
-503.697	511.848	0.098	0.227
-502.683	-99.877	-0.150	0.037
-501.668	-111.632	0.236	0.047
-500.653	78.647	0.141	0.149
-499.639	381.993	-0.049	-0.100
-498.624	-65.028	0.254	-0.101
-497.610	-170.233	-0.378	0.013
-496.595	-157.247	0.446	-0.027
-495.581	-200.000	-0.045	0.393
-494.566	-8.945	-0.185	0.122
-493.551	-68.858	-0.151	0.058
-492.537	73.333	-0.020	0.021
-491.522	-7.139	-0.115	-0.077
-490.508	-200.000	0.006	0.046
-489.493	-200.000	-0.000	0.347
-488.478	1.928	0.378	0.270
-487.464	-123.133	-0.196	-0.031
-486.449	-200.000	-0.060	-0.276
-485.435	-48.916	-0.088	0.042
-484.420	266.045	0.046	-0.080
-483.405	-40.794	0.024	-0.012
-482.391	-114.434	-0.109	-0.021
-481.376	210.953	-0.322	-0.500
-480.362	-134.701	-0.152	-0.018
-479.347	-200.000	0.066	-0.335
-478.332	-132.237	0.185	0.024
-477.318	154.686	0.059	-0.080
-476.303	-19.549	0.226	0.138
-475.289	-110.516	-0.121	-0.025
-474.274	-136.807	0.107	0.012
-473.259	552.423	0.118	0.280
-472.245	-200.000	0.081	-0.402
-471.230	-185.497	-0.226	0.003
-470.216	320.616	0.152	-0.286
-469.201	34.117	0.345	0.297
-468.186	99.012	-0.063	0.072
-467.172	620.480	-0.184	-0.456
-466.157	83.901	-0.122	-0.131
-465.143	-113.463	0.137	0.027
-464.128	800.000	0.066	-0.236
-463.113	-13.908	-0.278	-0.177
-462.099	-72.127	0.211	-0.077
-461.084	78.265	0.128	-0.135
-460.070	67.122	-0.138	-0.139
-459.055	-181.325	0.069	-0.001
-458.040	800.000	-0.017	0.048
-457.026	6.694	-0.174	-0.128
-456.011	-200.000	-0.002	-0.022
-454.997	-200.000	0.188	-0.000
-453.982	32.059	0.129	0.110
-452.968	586.354	0.048	-0.117
-451.953	-200.000	0.096	0.485
-450.938	-6.319	0.097	-0.065
-449.924	69.271	-0.107	-0.109
-448.909	-69.089	0.390	-0.148
-447.895	-97.648	-0.143	-0.037
-446.880	-139.545	0.054	-0.006
-445.865	69.115	-0.294	-0.298
-444.851	612.764	0.076	-0.187
-443.836	57.512	0.024	-0.023
-442.822	66.456	0.129	-0.130
-441.807	-29.902	0.289	0.163
-440.792	76.007	-0.123	-0.128
-439.778	93.634	-0.104	-0.116
-438.763	800.000	-0.043	0.148
-437.749	51.208	0.149	-0.139
-436.734	126.392	0.118	0.147
-435.719	170.414	-0.081	-0.115
-434.705	84.545	-0.170	-0.184
-433.690	-6.194	0.183	-0.124
-432.676	-200.000	-0.034	0.338
-431.661	-200.000	-0.070	0.378
-430.646	-129.484	0.384	-0.052
-429.632	800.000	0.082	0.227
-428.617	-112.693	-0.516	-0.101
-427.603	745.092	0.103	0.275
-426.588	164.135	-0.172	-0.239
-425.573	110.794	-0.178	-0.212
-424.559	800.000	-0.027	-0.109
-423.544	-200.000	-0.024	-0.126
-422.530	-106.786	-0.221	-0.048
-421.515	-176.420	-0.115	-0.003
-420.500	145.425	-0.172	-0.227
-419.486	4.763	0.195	-0.141
-418.471	-52.951	-0.215	0.098
-417.457	800.000	-0.087	-0.261
-416.442	313.647	0.043	-0.081
-415.428	147.867	0.130	-0.172
-414.413	-187.537	-0.521	-0.007
-413.398	615.559	0.076	0.188
-412.384	564.772	-0.061	-0.146
-411.369	-115.415	0.327	0.061
-410.355	106.811	-0.054	-0.063
-409.340	-136.755	-0.132	-0.015
-408.325	-142.887	0.536	-0.051
-407.311	-200.000	0.009	-0.333
-406.296	-62.083	0.163	0.067
-405.282	-164.844	-0.091	0.004
-404.267	53.007	-0.098	-0.093
-403.252	-200.000	-0.037	0.496
-402.238	800.000	0.068	-0.224
-401.223	4.439	0.311	-0.225
-400.209	-161.298	0.238	0.012
-399.194	-134.405	0.285	-0.034
-398.179	162.808	-0.141	0.195
-397.165	215.770	0.011	-0.017
-396.150	-1.681	0.371	-0.258
-395.136	7.139	0.325	-0.239
-394.121	-200.000	0.001	-0.049
-393.106	-26.376	0.103	0.059
-392.092	162.676	0.134	-0.186
-391.077	190.744	-0.070	-0.104
-390.063	-109.231	0.222	-0.047
-389.048	154.982	0.120	0.162
-388.033	800.000	0.069	0.262
-387.019	363.920	0.036	0.072
-386.004	-37.442	-0.114	-0.060
-384.990	800.000	0.058	-0.244
-383.975	349.734	-0.048	0.093
-382.960	-51.561	0.190	0.087
-381.946	-67.559	0.071	0.027
-380.931	-73.080	-0.263	-0.095
-379.917	-126.105	-0.315	0.046
-378.902	-200.000	-0.036	0.168
-377.888	-5.859	0.130	0.088
-376.873	-3.496	-0.093	-0.064
-375.858	-42.249	-0.053	0.027
-374.844	39.936	0.101	-0.089
-373.829	-25.560	-0.277	-0.161
-372.815	-200.000	0.002	-0.163
-371.800	141.173	-0.265	0.345
-370.785	36.580	-0.247	-0.214
-369.771	-200.000	0.056	0.267
-368.756	39.930	-0.451	-0.399
-367.742	-146.023	0.108	-0.009
-366.727	-200.000	0.059	0.427
-365.712	34.184	-0.249	-0.214
-364.698	327.666	0.193	0.364
-363.683	246.596	-0.135	-0.223
-362.669	26.083	-0.083	0.068
-361.654	-118.525	-0.192	-0.033
-360.639	-9.314	0.166	0.109
-359.625	165.152	-0.101	0.140
-358.610	65.702	0.238	0.237
-357.596	-7.355	-0.133	0.089
-356.581	-200.000	0.016	0.095
-355.566	-18.485	0.275	-0.169
-354.552	137.339	-0.138	0.177
-353.537	233.257	-0.129	-0.208
-352.523	15.955	-0.278	0.215
-351.508	-47.796	-0.127	0.060
-350.493	800.000	0.067	-0.262
-349.479	-10.608	0.392	-0.255
-348.464	-12.705	-0.183	0.117
-347.450	251.758	-0.265	0.444
-346.435	800.000	-0.050	0.174
-345.420	70.788	0.245	0.249
-344.406	51.388	0.156	-0.146
-343.391	313.790	-0.081	0.149
-342.377	-3.256	0.208	0.142
-341.362	361.506	-0.172	0.339
-340.348	-200.000	0.032	0.278
-339.333	800.000	0.099	0.420
-338.318	234.770	-0.112	-0.181
-337.304	-82.101	0.057	0.018
-336.289	277.869	0.006	-0.011
-335.275	-75.760	0.370	0.129
-334.260	342.737	-0.202	-0.389
-333.245	545.557	0.156	-0.365
-332.231	87.518	-0.349	0.380
-331.216	800.000	0.047	0.177
-330.202	405.096	0.039	-0.081
-329.187	177.765	0.073	-0.105
-328.172	142.472	-0.269	-0.351
-327.158	298.597	-0.075	-0.136
-326.143	-33.877	-0.218	0.118
-325.129	-6.705	0.199	-0.133
-324.114	-161.352	0.243	0.012
-323.099	-104.314	0.085	0.019
-322.085	-200.000	-0.024	-0.182
-321.070	-80.748	-0.303	0.099
-320.056	-200.000	-0.006	-0.338
-319.041	-200.000	-0.034	0.168
-318.026	201.543	0.103	-0.157
-317.012	-200.000	0.000	-0.076
-315.997	0.735	-0.167	0.117
-314.983	-200.000	0.072	0.348
-313.968	-25.174	-0.255	-0.148
-312.953	-169.613	0.071	-0.003
-311.939	-151.927	-0.033	-0.002
-310.924	-24.716	-0.097	0.056
-309.910	-57.780	-0.093	0.040
-308.895	164.065	0.103	0.143
-307.880	-151.427	-0.089	-0.007
-306.866	800.000	0.073	0.249
-305.851	-10.109	-0.309	0.202
-304.837	-26.175	0.115	0.066
-303.822	-25.223	-0.017	-0.010
-302.807	93.607	-0.232	-0.258
-301.793	150.481	-0.146	-0.195
-300.778	90.836	0.053	0.058
-299.764	-200.000	-0.037	-0.435
-298.749	503.669	-0.193	-0.437
-297.735	171.241	0.052	-0.073
-296.720	800.000	-0.077	-0.297
-295.705	-66.441	-0.161	-0.063
-294.691	297.283	-0.165	0.297
-293.676	5.792	-0.215	0.156
-292.662	781.859	-0.087	-0.234
-291.647	736.234	-0.179	0.471
-290.632	13.843	0.134	0.102
-289.618	479.633	-0.084	0.186
-288.603	313.567	0.234	0.431
-287.589	-112.709	-0.248	-0.048
-286.574	470.277	0.042	-0.093
-285.559	-10.051	-0.234	-0.152
-284.545	153.283	0.260	-0.349
-283.530	381.535	-0.061	-0.122
-282.516	76.415	-0.027	0.028
-281.501	105.715	-0.138	-0.160
-280.486	143.394	-0.168	-0.219
-279.472	67.915	0.514	0.516
-278.457	87.444	-0.215	-0.233
-277.443	-50.720	0.167	0.077
-276.428	74.505	-0.255	0.263
-275.413	209.279	0.127	0.196
-274.399	-62.320	0.223	-0.091
-273.384	-102.805	-0.130	-0.030
-272.370	-132.702	0.108	0.014
-271.355	5.077	-0.111	-0.080
-270.340	386.683	0.163	-0.330
-269.326	383.464	-0.009	0.019
-268.311	-73.567	0.173	0.062
-267.297	34.826	0.355	0.304
-266.282	-99.638	0.127	0.031
-265.267	95.286	-0.268	-0.300
-264.253	328.711	-0.120	0.226
-263.238	-10.708	-0.214	-0.139
-262.224	-200.000	-0.057	-0.296
-261.209	314.029	0.024	-0.044
-260.195	-74.130	-0.098	-0.035
-259.180	-43.284	0.175	-0.087
-258.165	275.032	0.060	-0.104
-257.151	133.971	-0.164	0.208
-256.136	-189.182	0.090	-0.001
-255.122	6.469	0.029	-0.021
-254.107	-119.610	-0.512	0.087
-253.092	-123.984	0.201	-0.031
-252.078	-74.899	-0.321	-0.113
-251.063	-155.467	0.283	-0.018
-250.049	120.638	-0.065	-0.079
-249.034	45.656	0.329	0.298
-248.019	19.104	-0.305	-0.239
-247.005	-99.219	-0.178	0.044
-245.990	114.021	-0.088	0.105
-244.976	139.772	0.117	-0.151
-243.961	14.504	0.185	-0.141
-242.946	-200.000	0.004	-0.116
-241.932	-41.480	0.239	0.120
-240.917	-30.454	0.167	-0.093
-239.903	-100.725	0.073	-0.018
-238.888	46.968	0.170	-0.155
-237.873	128.404	-0.035	0.044
-236.859	-200.000	0.053	-0.288
-235.844	-71.485	-0.250	-0.092
-234.830	482.319	0.107	0.239
-233.815	-41.484	0.238	-0.120
-232.800	800.000	-0.111	-0.369
-231.786	-200.000	-0.012	-0.132
-230.771	800.000	0.016	0.066
-229.757	800.000	-0.051	0.210
-228.742	-200.000	0.013	0.237
-227.727	-131.959	-0.261	-0.033
-226.713	-91.632	0.175	-0.049
-225.698	800.000	0.052	0.172
-224.684	106.654	-0.092	-0.106
-223.669	414.339	-0.197	0.410
-222.655	191.068	-0.180	0.266
-221.640	-72.897	0.432	-0.156
-220.625	-75.123	0.194	-0.068
-219.611	-57.956	-0.198	0.085
-218.596	-200.000	0.038	-0.259
-217.582	-110.773	-0.029	0.006
-216.567	-71.318	-0.224	0.082
-215.552	-31.290	-0.148	-0.082
-214.538	-91.496	-0.052	-0.015
-213.523	-67.561	-0.233	-0.089
-212.509	-115.182	0.132	0.025
-211.494	3.819	-0.110	0.079
-210.479	238.430	-0.155	0.251
-209.465	-8.412	0.220	-0.145
-208.450	-52.477	0.395	-0.179
-207.436	-57.956	0.108	0.046
-206.421	-74.116	0.124	-0.044
-205.406	800.000	-0.084	-0.234
-204.392	56.644	-0.143	-0.136
-203.377	65.008	-0.263	0.260
-202.363	231.345	-0.093	-0.149
-201.348	-200.000	0.004	0.197
-200.333	666.961	-0.090	0.227
-199.319	-20.503	0.175	0.105
-198.304	-103.150	-0.115	-0.027
-197.290	-20.663	-0.241	-0.144
-196.275	16.996	0.304	-0.236
-195.260	-44.658	0.255	0.124
-194.246	-200.000	-0.016	0.255
-193.231	521.962	-0.050	0.115
-192.217	0.615	-0.016	0.011
-191.202	-61.135	0.120	-0.050
-190.187	-19.838	-0.104	-0.063
-189.173	-113.370	0.199	-0.038
-188.158	512.872	0.062	-0.141
-187.144	800.000	0.067	0.221
-186.129	-199.102	0.221	-0.001
-185.114	-114.465	0.111	-0.021
-184.100	-7.209	-0.103	0.068
-183.085	-123.851	0.224	0.035
-182.071	800.000	-0.118	0.347
-181.056	-2.354	0.175	-0.120
-180.042	-57.460	-0.139	-0.060
-179.027	800.000	-0.046	-0.126
-178.012	35.137	0.202	0.173
-176.998	142.799	-0.087	-0.113
-175.983	-200.000	0.014	-0.407
-174.969	28.171	-0.133	-0.109
-173.954	800.000	0.070	-0.234
-172.939	-200.000	-0.023	-0.219
-171.925	22.186	0.172	0.137
-170.910	-86.982	0.218	-0.065
-169.896	-106.219	0.209	0.046
-168.881	-200.000	0.010	-0.107
-167.866	-2.240	-0.154	0.105
-166.852	-92.198	0.409	0.113
-165.837	-140.120	-0.230	-0.024
-164.823	47.067	0.179	-0.162
-163.808	-200.000	-0.038	-0.182
-162.793	-200.000	-0.019	0.089
-161.779	-200.000	0.076	0.606
-160.764	271.708	0.133	0.228
-159.750	-53.005	0.057	-0.025
-158.735	446.706	0.116	0.248
-157.720	-132.267	-0.139	0.018
-156.706	252.777	0.107	-0.178
-155.691	204.325	0.077	-0.117
-154.677	336.209	0.126	0.238
-153.662	-35.185	0.115	0.061
-152.647	31.577	0.204	0.172
-151.633	-68.397	-0.119	-0.045
-150.618	800.000	-0.082	0.243
-149.604	624.991	0.054	-0.133
-148.589	-24.315	-0.103	0.060
-147.574	-84.431	-0.216	0.067
-146.560	23.060	-0.034	0.027
-145.545	24.817	-0.119	-0.096
-144.531	-10.249	0.086	-0.055
-143.516	800.000	0.050	0.161
-142.502	-104.066	0.092	0.021
-141.487	48.503	-0.256	0.234
-140.472	-200.000	0.011	-0.111
-139.458	800.000	0.042	0.159
-138.443	-200.000	-0.017	0.131
-137.429	800.000	0.065	0.264
-136.414	-138.398	0.456	0.049
-135.399	-119.611	0.127	-0.021
-134.385	-200.000	-0.027	0.142
-133.370	-160.368	0.274	-0.014
-132.356	-14.923	-0.158	-0.099
-131.341	113.660	0.040	-0.047
-130.326	-123.041	-0.137	-0.021
-129.312	134.314	-0.200	-0.253
-128.297	179.878	-0.037	0.053
-127.283	217.189	-0.113	-0.175
-126.268	-200.000	-0.065	0.289
-125.253	531.102	-0.099	0.228
-124.239	301.103	-0.058	0.105
-123.224	-200.000	-0.010	0.450
-122.210	265.623	-0.038	0.065
-121.195	50.945	0.167	-0.154
