DTS Sentinel unit serial number:	SN413079Multiplexer serial number:	ORYXHardware model number:	OX4-SRSoftware version number:	ORYX F/W v4.00 Oryx Data Collector v3.7.2.0data status	okinstallation	princeton_trtdifferential loss correction	single-endedforward channel	channel 3reverse channel	N/Adate	2019/09/15time	12:00:35forward acquisition time	60.00reverse acquisition time	0.00gamma	496.2192k internal	0.2306k external	0.2306temperature offset calibration	0.9980default loss term (dB/km)	0.3790temperature slope calibration	1.0000multiplexer offset coefficient	1.0000multiplexer slope coefficient	1.0000fibre end	0.00T internal ref (°C)	34.44T ext. ref 1 (°C)	5.07T ext. ref 2 (°C)	30.28length (m)	temperature (°C)	Stokes	anti-Stokes-747.200	4.941	-0.255	-0.191
-746.185	-200.000	-0.022	0.193
-745.171	-19.655	0.130	0.082
-744.156	42.008	0.061	-0.056
-743.142	-45.533	-0.066	0.033
-742.127	163.083	-0.195	0.279
-741.112	299.639	-0.136	-0.255
-740.098	-79.940	-0.293	0.100
-739.083	-142.484	-0.182	-0.018
-738.069	-139.382	-0.242	-0.026
-737.054	-6.704	0.133	0.092
-736.039	-119.109	-0.217	0.038
-735.025	-81.837	0.415	0.138
-734.010	-4.012	0.122	-0.086
-732.996	56.252	-0.093	-0.092
-731.981	800.000	-0.064	0.258
-730.966	-69.350	0.359	0.140
-729.952	-200.000	-0.041	0.270
-728.937	-155.148	-0.155	-0.010
-727.923	268.419	-0.122	0.217
-726.908	-42.862	-0.111	0.057
-725.894	618.490	-0.067	-0.171
-724.879	672.274	0.040	0.105
-723.864	800.000	-0.086	0.277
-722.850	-200.000	0.002	0.172
-721.835	800.000	0.075	-0.313
-720.821	-72.773	-0.281	-0.105
-719.806	-200.000	0.030	-0.162
-718.791	-200.000	-0.096	-0.554
-717.777	800.000	-0.064	0.182
-716.762	-147.239	-0.112	-0.010
-715.748	632.501	-0.121	-0.312
-714.733	102.479	0.176	-0.209
-713.718	5.360	0.052	-0.039
-712.704	-200.000	-0.001	-0.348
-711.689	-13.796	0.205	0.135
-710.675	59.854	-0.160	-0.161
-709.660	-15.558	-0.199	0.129
-708.645	-35.648	-0.250	0.138
-707.631	-200.000	0.005	0.034
-706.616	22.917	0.285	-0.238
-705.602	367.505	0.143	-0.294
-704.587	115.763	0.134	-0.166
-703.572	-164.462	-0.041	-0.002
-702.558	-45.511	0.276	0.139
-701.543	-101.930	0.194	0.048
-700.529	542.168	-0.087	-0.210
-699.514	40.787	0.160	0.147
-698.499	-37.161	-0.380	-0.206
-697.485	0.561	0.169	0.123
-696.470	26.055	-0.222	0.188
-695.456	-86.882	-0.150	0.046
-694.441	256.902	0.068	-0.119
-693.426	469.800	0.222	-0.506
-692.412	-25.683	0.291	-0.174
-691.397	458.685	0.041	0.093
-690.383	-156.970	0.266	-0.017
-689.368	-60.197	0.158	0.068
-688.354	-130.172	-0.192	0.027
-687.339	327.394	0.068	-0.132
-686.324	-104.206	-0.165	0.039
-685.310	-26.029	-0.177	0.105
-684.295	140.622	0.080	0.107
-683.281	355.893	0.098	-0.199
-682.266	-65.269	-0.329	-0.135
-681.251	-96.314	-0.265	-0.071
-680.237	62.298	0.144	-0.145
-679.222	-35.430	-0.487	-0.268
-678.208	-129.729	-0.121	-0.017
-677.193	-200.000	-0.035	-0.170
-676.178	362.995	0.065	-0.132
-675.164	-105.514	0.063	0.015
-674.149	-112.338	-0.129	-0.026
-673.135	38.715	-0.140	-0.127
-672.120	468.351	-0.137	-0.311
-671.105	59.692	-0.146	-0.147
-670.091	128.705	-0.050	0.065
-669.076	-80.179	-0.238	0.081
-668.062	328.488	-0.049	0.096
-667.047	-107.124	-0.109	-0.024
-666.032	-79.589	0.162	0.055
-665.018	252.949	-0.063	0.109
-664.003	-128.562	-0.395	-0.057
-662.989	92.820	0.246	-0.282
-661.974	204.415	0.038	-0.060
-660.959	-106.665	-0.060	-0.013
-659.945	198.262	0.254	-0.394
-658.930	800.000	-0.066	-0.212
-657.916	-113.402	0.037	-0.007
-656.901	-115.001	-0.247	-0.048
-655.886	235.272	-0.113	0.188
-654.872	227.173	0.173	-0.285
-653.857	-35.851	0.077	-0.042
-652.843	-111.868	-0.362	-0.074
-651.828	-25.358	0.187	-0.112
-650.814	-115.115	-0.187	0.036
-649.799	-200.000	-0.054	0.319
-648.784	114.379	-0.118	0.146
-647.770	97.629	0.246	0.286
-646.755	176.795	0.144	-0.213
-645.741	25.904	0.154	0.130
-644.726	114.378	-0.233	-0.288
-643.711	430.308	-0.146	0.320
-642.697	-135.985	0.080	0.010
-641.682	-200.000	-0.001	-0.152
-640.668	-144.923	0.182	-0.017
-639.653	407.341	-0.045	-0.095
-638.638	102.174	0.084	-0.099
-637.624	242.428	0.092	-0.156
-636.609	99.677	-0.097	-0.114
-635.595	-42.707	0.503	0.259
-634.580	-8.757	-0.145	-0.099
-633.565	298.133	-0.173	-0.321
-632.551	85.972	0.158	-0.176
-631.536	-64.205	-0.201	0.083
-630.522	-200.000	-0.011	-0.225
-629.507	237.956	0.147	0.248
-628.492	-200.000	-0.029	-0.271
-627.478	62.549	-0.084	0.085
-626.463	74.408	0.066	-0.070
-625.449	-200.000	0.037	0.344
-624.434	470.479	-0.101	0.231
-623.419	-129.054	-0.090	-0.013
-622.405	800.000	-0.044	0.145
-621.390	-200.000	0.065	0.351
-620.376	-200.000	-0.000	-0.032
-619.361	192.791	-0.103	0.158
-618.346	-200.000	0.022	0.102
-617.332	-86.598	-0.189	-0.059
-616.317	0.440	-0.218	0.158
-615.303	-66.352	0.295	-0.119
-614.288	38.058	-0.108	0.097
-613.273	800.000	0.050	-0.149
-612.259	800.000	-0.005	0.023
-611.244	800.000	-0.107	-0.317
-610.230	65.788	-0.148	0.152
-609.215	800.000	-0.024	-0.097
-608.201	-200.000	0.028	-0.169
-607.186	-100.999	-0.122	-0.030
-606.171	-200.000	-0.001	-0.240
-605.157	-180.262	0.124	0.003
-604.142	185.676	-0.172	0.259
-603.128	589.433	0.073	0.182
-602.113	2.108	-0.232	0.170
-601.098	-191.088	0.203	-0.002
-600.084	284.822	-0.032	0.058
-599.069	242.731	-0.086	-0.145
-598.055	-200.000	-0.014	-0.145
-597.040	-44.629	-0.232	0.117
-596.025	41.384	-0.105	-0.096
-595.011	-200.000	-0.011	-0.085
-593.996	49.658	-0.185	-0.177
-592.982	35.764	-0.159	0.142
-591.967	-193.586	-0.263	0.002
-590.952	-124.235	0.222	0.035
-589.938	-64.195	-0.453	-0.187
-588.923	191.504	0.185	0.282
-587.909	800.000	0.035	0.143
-586.894	35.561	0.007	0.006
-585.879	114.329	-0.075	-0.092
-584.865	-7.651	0.039	0.027
-583.850	-200.000	-0.039	-0.191
-582.836	800.000	-0.030	0.124
-581.821	41.208	0.205	-0.187
-580.806	599.118	-0.097	-0.242
-579.792	346.381	-0.100	-0.199
-578.777	200.975	-0.151	0.234
-577.763	-200.000	0.041	-0.268
-576.748	-200.000	0.015	0.098
-575.733	-97.708	0.299	0.078
-574.719	51.012	-0.238	0.228
-573.704	-139.408	0.124	0.013
-572.690	-200.000	0.027	0.249
-571.675	430.111	-0.055	0.121
-570.661	256.272	0.106	0.184
-569.646	800.000	-0.072	0.227
-568.631	44.515	0.085	0.079
-567.617	-47.559	-0.242	-0.119
-566.602	-200.000	0.009	-0.222
-565.588	-29.651	-0.084	-0.048
-564.573	305.884	0.022	-0.040
-563.558	792.950	0.063	-0.175
-562.544	167.513	-0.130	0.187
-561.529	107.439	-0.094	0.113
-560.515	40.214	0.051	-0.047
-559.500	45.846	-0.304	-0.284
-558.485	-111.074	0.277	0.057
-557.471	800.000	0.069	-0.235
-556.456	-200.000	0.037	-0.185
-555.442	106.171	0.078	0.094
-554.427	-121.458	0.252	-0.042
-553.412	-200.000	0.007	-0.343
-552.398	96.423	-0.138	0.160
-551.383	313.765	-0.217	0.412
-550.369	-27.682	0.209	-0.122
-549.354	-33.903	-0.124	-0.069
-548.339	-39.447	-0.182	0.096
-547.325	422.599	-0.116	0.251
-546.310	-200.000	0.025	-0.162
-545.296	149.286	-0.178	-0.244
-544.281	79.981	-0.251	0.273
-543.266	-200.000	-0.007	0.147
-542.252	55.860	0.413	-0.404
-541.237	-123.901	0.277	0.044
-540.223	-151.964	0.277	-0.020
-539.208	152.448	-0.074	-0.102
-538.193	-200.000	-0.005	-0.119
-537.179	-117.830	0.145	-0.026
-536.164	-21.550	0.292	-0.180
-535.150	-137.766	-0.418	-0.047
-534.135	-24.727	-0.191	-0.114
-533.121	538.094	0.150	0.360
-532.106	-200.000	-0.018	0.093
-531.091	800.000	-0.061	-0.172
-530.077	800.000	0.201	0.566
-529.062	-39.201	-0.188	0.100
-528.048	-200.000	0.016	0.270
-527.033	619.833	-0.024	0.060
-526.018	800.000	0.011	-0.032
-525.004	-116.621	0.146	-0.027
-523.989	800.000	0.017	0.048
-522.975	-200.000	0.006	-0.140
-521.960	798.210	-0.068	-0.189
-520.945	161.458	-0.072	0.102
-519.931	89.204	-0.117	-0.132
-518.916	-138.012	-0.275	0.031
-517.902	134.825	0.289	-0.379
-516.887	76.771	-0.102	-0.109
-515.872	173.830	0.082	-0.120
-514.858	345.148	0.070	-0.138
-513.843	80.811	-0.146	0.159
-512.829	-200.000	-0.008	-0.154
-511.814	-118.314	0.435	-0.078
-510.799	-100.058	-0.173	-0.043
-509.785	-24.739	-0.158	0.095
-508.770	30.001	-0.100	0.086
-507.756	630.211	-0.032	0.081
-506.741	-97.288	-0.031	0.008
-505.726	-200.000	0.016	0.172
-504.712	-200.000	-0.007	-0.268
-503.697	-200.000	-0.024	0.475
-502.683	-136.927	-0.189	0.022
-501.668	-77.404	-0.194	-0.068
-500.653	-96.632	-0.325	0.086
-499.639	-56.436	-0.025	0.011
-498.624	-100.744	0.542	0.135
-497.610	-73.268	0.146	0.054
-496.595	211.413	-0.142	-0.226
-495.581	-200.000	0.031	-0.451
-494.566	800.000	0.060	-0.193
-493.551	602.001	0.127	-0.318
-492.537	25.012	-0.152	0.127
-491.522	-40.527	-0.090	-0.047
-490.508	24.340	-0.084	0.070
-489.493	-43.371	0.150	0.076
-488.478	-66.126	-0.259	-0.104
-487.464	-200.000	-0.007	0.064
-486.449	-84.851	0.339	-0.107
-485.435	-55.783	-0.130	-0.058
-484.420	-24.733	0.292	-0.175
-483.405	-133.261	0.390	0.050
-482.391	48.048	-0.173	0.163
-481.376	11.954	-0.204	0.158
-480.362	-10.081	0.260	-0.174
-479.347	286.053	-0.008	0.014
-478.332	-187.394	0.413	-0.006
-477.318	-132.856	-0.301	0.039
-476.303	-122.621	0.096	-0.016
-475.289	-200.000	0.004	0.284
-474.274	3.487	0.151	-0.111
-473.259	-94.575	-0.209	0.057
-472.245	-161.635	-0.083	-0.004
-471.230	-200.000	0.041	0.402
-470.216	505.106	0.052	-0.121
-469.201	-151.206	0.102	0.008
-468.186	-89.722	-0.140	-0.041
-467.172	516.677	0.106	0.249
-466.157	-100.487	0.318	0.079
-465.143	-70.493	0.260	-0.099
-464.128	329.865	-0.070	-0.135
-463.113	57.935	0.260	-0.257
-462.099	800.000	0.054	0.169
-461.084	-43.091	0.267	-0.136
-460.070	792.317	0.048	0.132
-459.055	50.453	0.139	-0.132
-458.040	84.059	-0.207	-0.228
-457.026	325.047	0.080	-0.154
-456.011	143.058	0.155	0.208
-454.997	-123.264	-0.237	-0.038
-453.982	-10.174	0.086	0.057
-452.968	-53.211	-0.229	0.106
-451.953	800.000	0.133	0.402
-450.938	237.253	-0.147	-0.245
-449.924	-28.383	-0.205	0.119
-448.909	72.120	-0.087	-0.091
-447.895	44.214	0.246	-0.227
-446.880	-48.818	-0.191	-0.092
-445.865	144.954	0.191	0.256
-444.851	123.213	-0.046	-0.059
-443.836	122.055	-0.112	0.141
-442.822	-200.000	0.003	-0.320
-441.807	-82.069	-0.132	0.043
-440.792	104.393	-0.269	0.318
-439.778	-200.000	-0.006	0.049
-438.763	438.534	0.119	0.261
-437.749	464.449	-0.090	0.202
-436.734	-64.840	-0.525	0.213
-435.719	525.278	0.052	0.122
-434.705	172.752	-0.149	-0.216
-433.690	186.100	0.130	0.194
-432.676	-200.000	-0.003	0.105
-431.661	-33.676	0.286	0.159
-430.646	231.481	-0.113	-0.186
-429.632	47.087	-0.105	-0.099
-428.617	-200.000	-0.054	-0.558
-427.603	-127.697	-0.024	0.003
-426.588	-31.404	-0.058	-0.033
-425.573	650.360	0.103	0.266
-424.559	292.688	-0.121	0.221
-423.544	355.311	-0.106	-0.211
-422.530	102.124	-0.181	-0.213
-421.515	-200.000	0.005	0.189
-420.500	-60.244	-0.194	0.083
-419.486	32.567	0.021	-0.018
-418.471	-94.115	-0.364	-0.100
-417.457	157.848	-0.129	-0.179
-416.442	-104.255	-0.153	-0.036
-415.428	-200.000	-0.052	-0.234
-414.413	-95.483	0.338	-0.091
-413.398	-200.000	-0.010	0.231
-412.384	-200.000	0.018	0.091
-411.369	377.639	0.134	0.275
-410.355	-188.986	-0.180	0.002
-409.340	-200.000	-0.019	0.133
-408.325	-70.891	0.161	-0.061
-407.311	89.377	0.063	0.070
-406.296	13.935	-0.218	0.170
-405.282	-108.597	0.079	0.017
-404.267	339.292	0.089	0.173
-403.252	-120.103	-0.506	-0.087
-402.238	-200.000	0.024	-0.167
-401.223	800.000	0.110	-0.331
-400.209	-162.569	-0.269	0.013
-399.194	-113.088	-0.210	-0.042
-398.179	-42.219	0.062	-0.032
-397.165	556.837	0.092	0.223
-396.150	-200.000	0.011	-0.192
-395.136	112.904	0.057	0.069
-394.121	194.991	-0.158	0.241
-393.106	405.834	-0.141	0.298
-392.092	593.962	0.092	-0.227
-391.077	-147.097	0.158	0.014
-390.063	348.306	-0.009	0.019
-389.048	-200.000	0.026	0.154
-388.033	-16.369	0.291	-0.185
-387.019	-200.000	-0.009	-0.338
-386.004	800.000	0.139	0.593
-384.990	-200.000	0.003	0.107
-383.975	11.472	0.119	0.091
-382.960	-200.000	0.006	0.147
-381.946	-114.966	0.448	-0.086
-380.931	-5.915	-0.196	0.135
-379.917	-200.000	0.014	0.180
-378.902	-131.653	-0.354	-0.047
-377.888	-200.000	0.025	-0.175
-376.873	-150.147	0.261	-0.020
-375.858	-52.345	0.113	0.053
-374.844	-200.000	0.004	0.276
-373.829	-50.608	0.169	0.080
-372.815	416.669	-0.107	0.229
-371.800	69.544	-0.200	0.206
-370.785	-200.000	0.073	0.370
-369.771	91.280	-0.133	0.150
-368.756	-200.000	-0.085	-0.454
-367.742	105.031	-0.164	-0.194
-366.727	-200.000	-0.019	0.217
-365.712	212.755	0.110	-0.174
-364.698	800.000	0.034	-0.115
-363.683	-98.330	-0.140	-0.036
-362.669	-43.046	0.092	-0.047
-361.654	-132.804	-0.116	-0.015
-360.639	-40.917	0.200	-0.104
-359.625	50.843	-0.139	-0.132
-358.610	-71.846	-0.263	-0.098
-357.596	-91.016	-0.105	0.030
-356.581	-68.863	0.093	0.036
-355.566	170.747	-0.182	-0.261
-354.552	800.000	0.026	0.104
-353.537	321.339	0.127	0.242
-352.523	355.622	-0.050	-0.100
-351.508	-200.000	0.022	0.096
-350.493	97.028	0.076	0.087
-349.479	-16.408	0.101	-0.064
-348.464	-143.817	0.068	-0.006
-347.450	800.000	-0.027	0.097
-346.435	800.000	0.058	-0.173
-345.420	324.835	0.027	-0.051
-344.406	-200.000	-0.001	-0.122
-343.391	-54.189	-0.405	0.184
-342.377	-148.378	0.232	0.019
-341.362	-200.000	-0.018	0.113
-340.348	-200.000	0.041	0.195
-339.333	62.848	-0.359	-0.360
-338.318	800.000	-0.073	-0.258
-337.304	-149.793	-0.246	-0.019
-336.289	105.248	-0.053	-0.062
-335.275	-76.995	-0.196	0.069
-334.260	724.790	0.121	0.323
-333.245	-185.139	0.374	-0.006
-332.231	-158.748	0.382	0.022
-331.216	-175.772	0.031	0.001
-330.202	96.946	0.228	-0.262
-329.187	627.886	0.033	0.084
-328.172	800.000	0.047	0.180
-327.158	85.916	0.339	-0.373
-326.143	-200.000	0.021	-0.125
-325.129	-26.873	0.336	0.197
-324.114	-146.953	-0.103	-0.009
-323.099	-200.000	0.073	-0.321
-322.085	516.460	0.138	0.322
-321.070	295.512	-0.089	-0.163
-320.056	-82.885	-0.167	-0.054
-319.041	83.663	0.004	0.005
-318.026	-97.590	0.335	0.087
-317.012	-200.000	0.006	0.134
-315.997	131.192	0.148	-0.190
-314.983	-116.349	-0.130	0.024
-313.968	-200.000	0.019	0.120
-312.953	440.711	0.097	-0.213
-311.939	-116.140	0.174	-0.032
-310.924	-50.385	0.149	0.070
-309.910	-200.000	0.013	0.114
-308.895	-71.946	-0.358	-0.133
-307.880	800.000	0.077	-0.336
-306.866	-155.256	0.093	0.006
-305.851	625.031	-0.051	-0.129
-304.837	-26.744	-0.252	0.148
-303.822	767.849	-0.045	0.121
-302.807	-106.231	-0.216	-0.048
-301.793	40.551	-0.135	0.122
-300.778	176.605	0.083	-0.121
-299.764	-56.415	-0.227	0.101
-298.749	-200.000	-0.056	0.431
-297.735	187.970	-0.015	-0.023
-296.720	27.612	-0.049	-0.041
-295.705	-6.822	0.098	-0.067
-294.691	-100.563	0.139	0.034
-293.676	-78.611	0.184	0.063
-292.662	-200.000	-0.018	0.263
-291.647	-77.308	-0.049	-0.017
-290.632	800.000	0.063	-0.186
-289.618	17.974	-0.244	0.195
-288.603	273.530	-0.100	-0.176
-287.589	14.642	0.153	0.119
-286.574	192.525	-0.121	-0.183
-285.559	211.029	0.222	0.349
-284.545	23.588	-0.320	0.263
-283.530	-200.000	-0.017	0.107
-282.516	-51.629	-0.180	0.084
-281.501	157.534	-0.059	-0.082
-280.486	80.934	0.074	0.080
-279.472	37.777	0.154	0.136
-278.457	-95.189	-0.301	-0.081
-277.443	544.312	-0.019	-0.045
-276.428	64.106	0.392	0.394
-275.413	-147.461	0.094	0.008
-274.399	379.208	-0.030	-0.062
-273.384	73.923	0.161	-0.169
-272.370	53.259	0.152	0.145
-271.355	-200.000	-0.007	-0.427
-270.340	761.796	-0.058	-0.158
-269.326	-200.000	-0.006	0.299
-268.311	-25.508	0.147	-0.087
-267.297	21.735	0.176	0.143
-266.282	-34.880	0.042	0.023
-265.267	-137.780	0.114	-0.013
-264.253	-200.000	0.006	-0.047
-263.238	197.595	-0.226	0.345
-262.224	-174.368	0.192	-0.006
-261.209	-134.825	-0.158	-0.019
-260.195	647.276	0.029	-0.074
-259.180	800.000	-0.030	-0.122
-258.165	98.854	-0.004	0.004
-257.151	558.300	-0.061	-0.147
-256.136	800.000	0.051	-0.202
-255.122	563.321	-0.095	0.230
-254.107	564.696	0.111	-0.268
-253.092	-47.415	0.254	0.123
-252.078	176.000	-0.058	0.085
-251.063	800.000	0.130	0.470
-250.049	134.390	-0.145	-0.188
-249.034	-51.022	-0.111	-0.052
-248.019	45.142	0.264	0.243
-247.005	405.183	0.043	0.091
-245.990	-68.022	0.109	-0.042
-244.976	-2.909	0.199	0.138
-243.961	-200.000	0.016	-0.291
-242.946	403.705	0.093	-0.195
-241.932	-138.527	0.323	-0.035
-240.917	-93.422	0.426	-0.118
-239.903	-200.000	0.043	-0.496
-238.888	-27.462	0.114	0.066
-237.873	-200.000	-0.030	-0.212
-236.859	-92.232	-0.307	-0.086
-235.844	576.156	0.065	0.159
-234.830	211.166	-0.215	-0.337
-233.815	-17.259	0.121	0.076
-232.800	800.000	0.076	-0.245
-231.786	742.856	-0.074	-0.198
-230.771	-99.297	0.101	0.025
-229.757	-30.224	0.111	0.063
-228.742	162.224	0.065	0.090
-227.727	-200.000	0.016	0.217
-226.713	-90.244	-0.378	0.109
-225.698	-200.000	0.019	-0.238
-224.684	-200.000	0.000	0.051
-223.669	-37.018	-0.198	-0.106
-222.655	280.721	-0.055	-0.098
-221.640	113.777	-0.030	0.036
-220.625	800.000	-0.029	0.098
-219.611	-73.259	-0.135	-0.049
-218.596	-4.343	-0.220	0.151
-217.582	50.381	-0.191	-0.180
-216.567	-119.873	-0.337	-0.058
-215.552	716.048	-0.108	0.284
-214.538	-99.430	0.139	0.035
-213.523	-125.921	-0.127	-0.019
-212.509	240.032	0.263	0.437
-211.494	-200.000	0.020	-0.137
-210.479	42.934	0.133	-0.121
-209.465	75.444	0.169	-0.177
-208.450	-200.000	0.004	0.033
-207.436	-200.000	0.001	-0.013
-206.421	364.176	0.051	0.103
-205.406	150.427	-0.137	-0.185
-204.392	-200.000	-0.011	-0.134
-203.377	24.798	-0.046	-0.038
-202.363	82.663	-0.090	-0.098
-201.348	-54.176	0.157	-0.071
-200.333	-92.562	-0.193	0.054
-199.319	800.000	-0.024	0.105
-198.304	270.518	-0.176	-0.309
-197.290	473.874	0.069	0.155
-196.275	-26.880	0.262	-0.152
-195.260	-73.031	-0.153	0.056
-194.246	-63.402	-0.236	-0.097
-193.231	751.804	-0.081	0.218
-192.217	-69.770	0.358	0.136
-191.202	-115.720	0.466	-0.087
-190.187	18.239	-0.331	-0.263
-189.173	463.150	-0.077	-0.171
-188.158	-105.338	0.115	0.026
-187.144	800.000	0.065	0.263
-186.129	117.853	-0.179	-0.219
-185.114	266.466	0.093	0.162
-184.100	280.587	-0.044	0.078
-183.085	144.480	0.154	-0.205
-182.071	-200.000	0.016	0.376
-181.056	800.000	0.076	0.244
-180.042	-33.665	0.161	-0.088
-179.027	-45.711	0.226	0.111
-178.012	800.000	0.061	0.199
-176.998	-140.789	0.216	-0.022
-175.983	187.308	0.085	0.126
-174.969	-86.053	-0.195	0.060
-173.954	-200.000	-0.015	-0.231
-172.939	51.154	-0.331	-0.312
-171.925	-23.023	0.227	0.136
-170.910	-24.664	0.354	0.210
-169.896	-147.325	0.205	0.017
-168.881	-100.154	-0.394	-0.098
-167.866	144.626	0.068	-0.091
-166.852	43.001	-0.193	-0.175
-165.837	532.582	0.044	-0.104
-164.823	-200.000	0.064	-0.440
-163.808	-38.458	0.201	-0.106
-162.793	-200.000	-0.008	0.102
-161.779	32.834	0.336	-0.289
-160.764	160.400	-0.181	0.251
-159.750	800.000	-0.085	-0.265
-158.735	-83.639	0.286	0.091
-157.720	-160.578	-0.077	-0.004
-156.706	336.794	-0.137	-0.264
-155.691	588.039	0.091	0.222
-154.677	171.063	0.068	0.097
-153.662	-34.281	-0.350	-0.191
-152.647	82.660	-0.228	-0.246
-151.633	71.129	0.115	-0.118
-150.618	-114.823	0.210	0.040
-149.604	800.000	0.042	-0.142
-148.589	-200.000	0.125	0.000
-147.574	-2.388	0.309	0.215
-146.560	115.801	0.142	0.172
-145.545	-189.634	0.199	0.002
-144.531	-200.000	-0.032	-0.192
-143.516	116.668	0.101	0.123
-142.502	-143.076	-0.194	0.019
-141.487	-49.434	0.160	-0.076
-140.472	3.987	-0.056	0.040
-139.458	-47.773	0.316	-0.152
-138.443	-15.001	0.117	0.074
-137.429	-25.006	0.162	-0.096
-136.414	-104.244	-0.127	0.029
-135.399	474.498	0.076	-0.170
-134.385	8.625	0.253	0.189
-133.370	800.000	-0.115	-0.319
-132.356	49.852	0.069	-0.065
-131.341	-24.082	0.055	-0.033
-130.326	-105.285	-0.262	-0.059
-129.312	-149.348	-0.180	-0.014
-128.297	34.167	0.269	-0.233
-127.283	-103.562	0.238	0.056
-126.268	355.164	0.163	-0.322
-125.253	132.510	-0.075	-0.096
-124.239	-0.992	0.142	0.100
-123.224	-200.000	0.013	0.177
-122.210	-62.257	0.387	0.160
