DTS Sentinel unit serial number:	SN413079Multiplexer serial number:	ORYXHardware model number:	OX4-SRSoftware version number:	ORYX F/W v4.00 Oryx Data Collector v3.7.2.0data status	okinstallation	princeton_trtdifferential loss correction	single-endedforward channel	channel 3reverse channel	N/Adate	2019/09/12time	05:34:10forward acquisition time	60.00reverse acquisition time	0.00gamma	496.2192k internal	0.2321k external	0.2321temperature offset calibration	1.0035default loss term (dB/km)	0.3790temperature slope calibration	1.0000multiplexer offset coefficient	1.0000multiplexer slope coefficient	1.0000fibre end	0.00T internal ref (°C)	31.94T ext. ref 1 (°C)	1.62T ext. ref 2 (°C)	27.48length (m)	temperature (°C)	Stokes	anti-Stokes-747.200	-97.013	0.215	0.057
-746.185	-99.908	0.242	-0.061
-745.171	-121.506	0.304	0.051
-744.156	800.000	0.061	0.206
-743.142	-76.143	-0.147	-0.052
-742.127	194.063	0.388	0.593
-741.112	-179.306	-0.295	0.007
-740.098	-144.256	0.419	0.040
-739.083	800.000	0.098	-0.405
-738.069	11.738	-0.207	0.161
-737.054	-45.367	-0.299	-0.150
-736.039	-32.040	-0.322	0.182
-735.025	-200.000	0.013	-0.139
-734.010	-152.464	0.140	0.010
-732.996	-200.000	-0.043	0.245
-731.981	421.773	0.070	0.151
-730.966	-79.365	0.121	0.041
-729.952	174.741	-0.018	-0.027
-728.937	-105.563	0.258	-0.059
-727.923	-200.000	-0.031	-0.160
-726.908	122.379	0.138	-0.174
-725.894	60.004	-0.175	-0.175
-724.879	128.704	-0.103	-0.133
-723.864	9.256	-0.184	-0.141
-722.850	35.022	-0.236	0.209
-721.835	383.731	-0.050	0.105
-720.821	218.627	0.062	0.100
-719.806	-200.000	-0.241	0.000
-718.791	800.000	-0.053	-0.189
-717.777	346.077	-0.072	-0.143
-716.762	800.000	-0.135	-0.564
-715.748	-43.367	0.140	0.071
-714.733	-148.284	-0.393	0.033
-713.718	-56.534	0.394	-0.176
-712.704	-200.000	-0.003	-0.298
-711.689	-66.449	0.204	-0.082
-710.675	-103.218	-0.217	0.052
-709.660	18.563	0.023	0.018
-708.645	-128.753	-0.224	-0.032
-707.631	330.619	0.146	-0.285
-706.616	-124.866	-0.156	0.024
-705.602	-33.876	-0.281	0.156
-704.587	-38.729	0.176	-0.094
-703.572	-171.685	-0.189	0.006
-702.558	45.330	0.164	-0.152
-701.543	-32.101	-0.050	-0.028
-700.529	-200.000	0.010	0.075
-699.514	-109.766	0.212	-0.045
-698.499	-98.945	-0.211	0.054
-697.485	-72.367	-0.090	0.033
-696.470	-200.000	0.004	-0.288
-695.456	-200.000	0.019	0.407
-694.441	121.123	-0.201	-0.253
-693.426	800.000	0.074	-0.309
-692.412	44.036	0.075	-0.069
-691.397	-43.160	-0.170	0.087
-690.383	-80.278	0.102	0.034
-689.368	69.743	-0.055	0.057
-688.354	-24.551	0.089	-0.053
-687.339	65.755	-0.139	0.142
-686.324	-82.106	0.207	0.068
-685.310	366.071	-0.129	0.262
-684.295	135.358	0.022	-0.029
-683.281	-67.370	-0.146	0.058
-682.266	-96.735	0.092	-0.025
-681.251	-178.800	-0.461	0.011
-680.237	79.485	-0.095	0.102
-679.222	-107.936	0.282	-0.062
-678.208	169.853	0.168	-0.242
-677.193	-200.000	-0.002	-0.087
-676.178	127.836	-0.016	0.021
-675.164	-19.265	0.117	-0.073
-674.149	-200.000	-0.027	-0.198
-673.135	800.000	0.044	-0.191
-672.120	-200.000	0.096	-0.538
-671.105	-200.000	-0.015	0.301
-670.091	59.352	-0.061	0.061
-669.076	40.905	-0.212	0.193
-668.062	88.630	-0.099	0.111
-667.047	54.797	-0.174	-0.169
-666.032	22.930	-0.095	0.078
-665.018	800.000	0.052	-0.189
-664.003	216.475	0.055	0.088
-662.989	-199.410	-0.126	0.001
-661.974	254.761	0.118	0.203
-660.959	-176.937	0.108	0.003
-659.945	-178.213	0.304	0.007
-658.930	-109.955	-0.399	0.084
-657.916	800.000	-0.050	0.205
-656.901	230.073	0.065	-0.108
-655.886	-200.000	0.014	0.114
-654.872	-27.593	0.127	-0.074
-653.857	-50.958	0.199	0.094
-652.843	259.738	0.098	-0.171
-651.828	-76.401	0.290	0.103
-650.814	-200.000	-0.012	0.232
-649.799	434.652	-0.126	-0.275
-648.784	-90.161	0.275	0.081
-647.770	-94.259	-0.437	-0.120
-646.755	25.405	0.171	-0.143
-645.741	-10.208	-0.216	0.144
-644.726	800.000	0.094	0.289
-643.711	118.883	-0.057	-0.071
-642.697	474.564	0.049	0.112
-641.682	-200.000	-0.022	0.200
-640.668	197.745	-0.185	-0.285
-639.653	-90.757	-0.423	-0.123
-638.638	800.000	0.072	0.248
-637.624	-200.000	-0.026	0.201
-636.609	372.635	-0.127	0.259
-635.595	-163.530	-0.250	-0.012
-634.580	753.600	0.112	-0.304
-633.565	-200.000	-0.029	0.259
-632.551	800.000	0.064	-0.187
-631.536	-121.137	0.038	-0.006
-630.522	-145.004	-0.219	-0.020
-629.507	68.348	-0.171	-0.176
-628.492	254.398	-0.171	-0.295
-627.478	-200.000	-0.007	0.093
-626.463	144.596	-0.097	0.130
-625.449	17.052	0.130	0.104
-624.434	146.961	0.074	0.100
-623.419	-64.908	-0.078	0.032
-622.405	-30.899	0.180	0.102
-621.390	-200.000	-0.031	-0.252
-620.376	800.000	0.058	-0.196
-619.361	-3.455	-0.324	-0.227
-618.346	-200.000	-0.030	-0.157
-617.332	597.708	-0.102	-0.253
-616.317	34.048	0.140	-0.123
-615.303	-91.640	0.480	-0.137
-614.288	-186.703	-0.267	0.004
-613.273	94.468	-0.139	0.159
-612.259	-200.000	-0.005	0.070
-611.244	-16.611	-0.146	0.093
-610.230	138.776	0.134	0.177
-609.215	800.000	-0.024	-0.069
-608.201	13.203	0.051	-0.040
-607.186	478.127	0.011	0.025
-606.171	200.287	-0.114	-0.177
-605.157	1.030	-0.112	0.080
-604.142	800.000	-0.013	0.044
-603.128	-160.506	-0.142	-0.008
-602.113	-200.000	0.026	0.248
-601.098	-86.701	-0.383	0.118
-600.084	-157.215	-0.422	0.026
-599.069	53.358	0.166	0.160
-598.055	15.851	-0.239	-0.189
-597.040	78.230	-0.232	-0.249
-596.025	800.000	-0.063	-0.215
-595.011	-200.000	0.013	0.125
-593.996	178.667	-0.167	-0.245
-592.982	-66.176	-0.070	-0.028
-591.967	800.000	-0.061	0.184
-590.952	546.490	0.044	-0.105
-589.938	-0.531	-0.071	0.051
-588.923	344.330	0.203	-0.400
-587.909	-36.726	-0.271	0.146
-586.894	116.419	0.135	-0.166
-585.879	-200.000	-0.030	0.198
-584.865	800.000	-0.032	0.127
-583.850	-56.176	-0.339	0.151
-582.836	-104.826	-0.329	-0.076
-581.821	-200.000	-0.013	-0.308
-580.806	315.063	-0.133	-0.251
-579.792	-122.867	0.080	-0.013
-578.777	-151.150	-0.451	-0.034
-577.763	49.538	0.247	-0.233
-576.748	-107.679	0.294	-0.064
-575.733	330.628	-0.030	0.057
-574.719	-200.000	0.004	0.029
-573.704	-89.486	0.081	-0.024
-572.690	-76.229	-0.279	-0.099
-571.675	-200.000	0.021	-0.234
-570.661	483.786	0.111	-0.255
-569.646	293.712	0.056	0.103
-568.631	-137.677	-0.279	0.032
-567.617	230.204	-0.139	-0.229
-566.602	42.735	0.045	0.041
-565.588	-30.061	-0.130	-0.075
-564.573	-80.278	0.089	0.030
-563.558	-64.386	-0.082	0.033
-562.544	340.818	0.065	0.127
-561.529	51.670	-0.151	-0.144
-560.515	-200.000	-0.002	-0.259
-559.500	-69.005	-0.195	0.075
-558.485	436.851	-0.122	0.266
-557.471	494.344	-0.098	0.225
-556.456	-200.000	-0.002	-0.055
-555.442	-200.000	0.007	-0.079
-554.427	-200.000	-0.057	-0.424
-553.412	-200.000	-0.006	-0.216
-552.398	-82.578	0.394	-0.128
-551.383	84.584	-0.137	-0.151
-550.369	-200.000	0.021	-0.262
-549.354	0.772	0.253	-0.182
-548.339	-200.000	-0.024	-0.127
-547.325	-200.000	0.007	0.239
-546.310	800.000	0.073	-0.208
-545.296	-69.116	-0.314	-0.121
-544.281	-200.000	-0.012	0.093
-543.266	765.702	0.051	0.139
-542.252	401.495	0.196	-0.413
-541.237	289.009	0.028	0.050
-540.223	-159.873	0.118	0.006
-539.208	-200.000	0.042	-0.203
-538.193	-153.018	-0.134	0.009
-537.179	-79.756	-0.121	0.041
-536.164	578.413	-0.065	0.160
-535.150	46.716	0.387	-0.361
-534.135	777.693	-0.082	0.224
-533.121	-114.937	0.248	0.047
-532.106	398.312	0.154	-0.322
-531.091	30.889	-0.387	-0.332
-530.077	-197.268	0.201	0.001
-529.062	84.173	-0.125	0.137
-528.048	-200.000	-0.008	-0.041
-527.033	-200.000	-0.001	-0.107
-526.018	547.763	0.066	0.158
-525.004	251.319	0.055	0.093
-523.989	190.210	-0.148	0.222
-522.975	-152.753	0.284	0.020
-521.960	-77.197	-0.331	-0.116
-520.945	-45.976	-0.138	-0.068
-519.931	84.953	0.210	0.230
-518.916	-165.707	0.094	-0.004
-517.902	309.778	0.084	0.158
-516.887	9.802	0.245	-0.186
-515.872	-144.154	-0.206	-0.019
-514.858	-63.014	0.220	0.091
-513.843	-200.000	0.006	0.184
-512.829	-1.538	-0.096	-0.068
-511.814	800.000	0.019	-0.061
-510.799	-200.000	-0.008	-0.301
-509.785	-193.716	0.133	0.001
-508.770	99.971	0.073	-0.085
-507.756	-123.044	0.186	-0.030
-506.741	-200.000	-0.055	0.440
-505.726	120.062	-0.106	0.132
-504.712	-200.000	-0.035	0.252
-503.697	379.258	0.042	0.087
-502.683	215.468	-0.093	-0.147
-501.668	-162.490	0.268	-0.013
-500.653	-67.577	-0.223	0.088
-499.639	171.944	-0.137	0.197
-498.624	90.180	-0.229	-0.257
-497.610	-44.190	0.122	0.061
-496.595	363.262	-0.076	0.154
-495.581	-41.076	-0.186	0.096
-494.566	800.000	-0.054	-0.203
-493.551	8.815	0.077	0.058
-492.537	800.000	-0.051	0.184
-491.522	-36.631	0.255	-0.137
-490.508	746.393	0.078	-0.212
-489.493	-97.515	0.097	-0.025
-488.478	-73.269	-0.171	-0.063
-487.464	-14.406	-0.238	-0.153
-486.449	-66.265	0.128	0.051
-485.435	-78.242	0.098	-0.034
-484.420	224.834	0.249	-0.403
-483.405	603.124	-0.008	0.020
-482.391	373.320	0.069	-0.139
-481.376	789.814	0.060	-0.164
-480.362	-86.940	-0.130	0.040
-479.347	-141.306	0.144	0.015
-478.332	-200.000	-0.022	-0.270
-477.318	27.443	0.203	0.170
-476.303	-200.000	-0.009	0.122
-475.289	145.109	-0.211	0.283
-474.274	-200.000	0.009	-0.093
-473.259	43.316	-0.086	0.078
-472.245	1.091	-0.214	-0.154
-471.230	1.173	-0.209	-0.150
-470.216	303.015	0.083	-0.154
-469.201	-200.000	0.003	-0.091
-468.186	121.717	-0.188	0.235
-467.172	-36.306	0.332	-0.179
-466.157	800.000	-0.032	0.099
-465.143	-117.452	-0.141	0.025
-464.128	-20.937	0.047	-0.029
-463.113	405.058	-0.100	0.211
-462.099	800.000	-0.033	0.108
-461.084	-100.596	0.269	0.067
-460.070	0.068	-0.098	0.070
-459.055	111.680	-0.079	0.095
-458.040	61.317	-0.211	0.210
-457.026	-200.000	0.010	0.187
-456.011	-137.729	0.076	0.009
-454.997	-200.000	-0.037	0.169
-453.982	-53.911	0.280	-0.127
-452.968	-93.109	-0.088	-0.025
-451.953	-26.052	0.197	0.116
-450.938	421.851	0.143	0.308
-449.924	-130.214	0.406	0.055
-448.909	672.827	-0.008	-0.020
-447.895	-165.713	-0.108	0.005
-446.880	76.179	-0.116	0.123
-445.865	-90.627	0.269	0.078
-444.851	-66.370	0.162	0.064
-443.836	-200.000	0.052	0.285
-442.822	130.929	0.146	0.187
-441.807	800.000	0.107	0.355
-440.792	-104.802	-0.252	0.058
-439.778	-53.253	0.103	-0.047
-438.763	288.614	-0.078	-0.142
-437.749	160.190	0.139	-0.194
-436.734	-77.149	-0.193	0.067
-435.719	-140.278	0.465	0.049
-434.705	-200.000	-0.041	0.255
-433.690	-200.000	-0.013	-0.132
-432.676	-86.443	0.034	-0.010
-431.661	-200.000	0.018	0.087
-430.646	599.439	0.008	0.020
-429.632	-72.928	-0.315	-0.116
-428.617	101.620	0.157	-0.183
-427.603	-132.594	-0.159	0.020
-426.588	167.190	-0.113	0.160
-425.573	154.716	0.112	-0.153
-424.559	-68.702	-0.501	-0.193
-423.544	104.189	0.044	0.051
-422.530	-188.328	-0.137	0.002
-421.515	227.114	0.016	-0.026
-420.500	-200.000	-0.028	0.211
-419.486	-74.365	0.231	0.083
-418.471	-32.662	0.072	0.040
-417.457	28.620	-0.186	0.157
-416.442	194.584	-0.029	-0.044
-415.428	257.905	-0.136	0.234
-414.413	-72.975	0.361	-0.132
-413.398	-46.512	-0.127	0.062
-412.384	-99.939	-0.187	0.047
-411.369	11.465	0.167	-0.128
-410.355	-200.000	0.056	-0.257
-409.340	-143.882	0.573	0.054
-408.325	48.747	0.199	-0.186
-407.311	157.751	0.066	0.091
-406.296	-200.000	-0.018	0.265
-405.282	242.478	0.025	-0.042
-404.267	-200.000	0.025	0.276
-403.252	-16.382	-0.293	0.186
-402.238	-200.000	0.064	0.358
-401.223	-200.000	-0.003	0.134
-400.209	800.000	-0.023	-0.080
-399.194	-200.000	0.003	0.147
-398.179	74.242	0.294	-0.308
-397.165	-47.712	0.150	-0.073
-396.150	-163.374	0.257	-0.012
-395.136	118.444	-0.078	-0.096
-394.121	32.061	-0.260	0.223
-393.106	7.501	0.257	0.192
-392.092	-200.000	0.003	0.049
-391.077	41.483	-0.203	0.183
-390.063	106.531	-0.149	-0.176
-389.048	-29.780	0.041	0.023
-388.033	-40.173	0.284	-0.147
-387.019	-22.921	0.072	-0.044
-386.004	-37.451	-0.186	-0.099
-384.990	800.000	0.158	-0.505
-383.975	-122.044	0.175	-0.029
-382.960	-200.000	-0.005	0.298
-381.946	-200.000	0.005	0.083
-380.931	755.368	-0.145	-0.390
-379.917	199.602	-0.050	-0.077
-378.902	366.742	0.056	0.113
-377.888	546.679	0.093	-0.221
-376.873	800.000	0.083	-0.307
-375.858	180.348	0.107	0.157
-374.844	-37.139	0.129	-0.069
-373.829	105.233	-0.302	0.355
-372.815	65.708	0.210	0.212
-371.800	-65.056	-0.262	0.105
-370.785	-200.000	0.014	-0.234
-369.771	-10.417	0.343	0.226
-368.756	27.346	-0.123	0.103
-367.742	-200.000	0.007	0.083
-366.727	-171.389	-0.194	-0.006
-365.712	92.113	-0.262	0.294
-364.698	-181.179	0.468	0.009
-363.683	-116.533	0.147	-0.027
-362.669	616.104	0.120	-0.299
-361.654	-200.000	-0.018	0.169
-360.639	-141.306	0.116	0.012
-359.625	-200.000	0.029	0.285
-358.610	405.145	-0.098	0.207
-357.596	-9.777	0.152	0.101
-356.581	-5.328	-0.222	-0.152
-355.566	118.581	0.219	0.269
-354.552	-98.027	-0.320	-0.082
-353.537	-200.000	0.010	-0.124
-352.523	123.570	0.292	0.364
-351.508	800.000	-0.032	0.113
-350.493	88.066	0.080	0.088
-349.479	40.476	-0.263	0.236
-348.464	-18.015	-0.084	0.052
-347.450	-135.247	0.152	-0.018
-346.435	303.256	-0.053	-0.098
-345.420	-13.606	0.058	-0.037
-344.406	-200.000	-0.038	0.415
-343.391	-80.809	-0.251	0.083
-342.377	328.812	0.126	0.242
-341.362	96.887	-0.161	0.183
-340.348	-181.799	0.291	0.006
-339.333	71.925	0.211	-0.219
-338.318	800.000	0.159	-0.566
-337.304	-86.736	0.384	-0.117
-336.289	106.122	0.115	0.136
-335.275	-200.000	-0.015	0.080
-334.260	170.907	0.156	-0.223
-333.245	-82.900	-0.223	-0.072
-332.231	25.669	-0.130	-0.107
-331.216	108.963	0.090	0.107
-330.202	31.333	-0.144	0.123
-329.187	800.000	-0.075	0.270
-328.172	-90.405	-0.195	0.056
-327.158	-104.192	-0.217	-0.050
-326.143	99.571	0.263	0.302
-325.129	-122.164	0.242	0.039
-324.114	800.000	0.050	0.189
-323.099	19.770	-0.133	-0.106
-322.085	253.002	-0.077	0.130
-321.070	309.000	0.094	-0.175
-320.056	316.382	0.068	-0.127
-319.041	-153.286	0.247	-0.017
-318.026	-52.224	-0.204	-0.094
-317.012	-200.000	0.034	-0.274
-315.997	105.147	-0.061	0.072
-314.983	-200.000	0.018	-0.339
-313.968	199.347	-0.202	-0.307
-312.953	234.242	-0.304	-0.498
-311.939	800.000	0.103	-0.376
-310.924	80.977	0.137	0.147
-309.910	-50.593	-0.046	-0.022
-308.895	-83.531	0.098	-0.031
-307.880	401.344	0.081	0.168
-306.866	-130.516	-0.231	-0.031
-305.851	-80.772	0.117	-0.039
-304.837	40.315	0.357	-0.319
-303.822	-200.000	-0.014	-0.128
-302.807	-200.000	-0.006	-0.165
-301.793	301.588	-0.090	-0.164
-300.778	-200.000	0.004	0.060
-299.764	-136.515	-0.140	-0.016
-298.749	-81.990	0.172	-0.056
-297.735	88.922	-0.229	-0.253
-296.720	-148.672	0.096	-0.008
-295.705	-81.089	0.248	0.081
-294.691	378.732	0.070	0.143
-293.676	800.000	-0.108	0.321
-292.662	453.618	0.179	0.393
-291.647	251.944	0.057	-0.097
-290.632	114.536	-0.150	0.181
-289.618	-68.318	0.198	-0.076
-288.603	25.071	-0.168	-0.138
-287.589	-153.415	-0.188	-0.013
-286.574	-131.142	0.254	-0.034
-285.559	-200.000	-0.012	-0.142
-284.545	47.403	0.164	0.152
-283.530	-200.000	-0.123	0.623
-282.516	-21.558	0.201	0.121
-281.501	800.000	-0.054	0.167
-280.486	397.856	0.084	-0.175
-279.472	-66.580	0.118	0.046
-278.457	-200.000	0.015	-0.219
-277.443	445.212	-0.143	0.311
-276.428	212.991	0.145	-0.227
-275.413	27.331	0.068	0.056
-274.399	36.881	0.228	-0.200
-273.384	-52.715	-0.063	0.029
-272.370	-200.000	-0.080	0.357
-271.355	164.501	0.078	0.110
-270.340	-200.000	0.051	-0.256
-269.326	-90.591	-0.099	0.029
-268.311	301.800	-0.135	0.248
-267.297	-103.789	0.352	0.082
-266.282	-49.351	0.231	-0.109
-265.267	-141.655	-0.093	0.009
-264.253	50.927	-0.116	0.109
-263.238	800.000	-0.029	-0.121
-262.224	800.000	-0.073	0.270
-261.209	-32.106	-0.271	0.150
-260.195	69.840	0.025	-0.026
-259.180	136.958	0.043	-0.055
-258.165	-200.000	-0.005	-0.168
-257.151	53.353	0.249	0.236
-256.136	-182.772	0.119	-0.002
-255.122	90.999	0.073	0.081
-254.107	-60.245	-0.325	-0.137
-253.092	-79.569	-0.269	-0.090
-252.078	-55.150	-0.185	0.082
-251.063	-76.968	0.062	-0.022
-250.049	-18.806	0.248	-0.153
-249.034	-200.000	-0.013	0.193
-248.019	235.198	0.087	0.143
-247.005	-97.248	-0.237	-0.061
-245.990	292.773	-0.122	-0.221
-244.976	124.157	-0.184	0.230
-243.961	-84.911	0.222	0.069
-242.946	800.000	0.071	0.272
-241.932	-108.002	-0.418	0.090
-240.917	130.831	-0.134	0.171
-239.903	32.207	-0.174	0.149
-238.888	-162.823	0.462	0.022
-237.873	-200.000	-0.004	0.277
-236.859	79.695	-0.032	0.034
-235.844	-76.018	0.098	-0.034
-234.830	-29.808	-0.079	0.045
-233.815	800.000	-0.018	-0.059
-232.800	186.947	-0.213	0.315
-231.786	356.609	-0.100	0.198
-230.771	-24.045	-0.118	0.070
-229.757	395.488	0.101	0.209
-228.742	-118.928	0.367	-0.064
-227.727	309.405	-0.047	-0.086
-226.713	163.000	0.226	-0.314
-225.698	121.702	-0.210	-0.259
-224.684	-59.774	0.307	-0.130
-223.669	800.000	-0.058	-0.168
-222.655	800.000	-0.019	0.080
-221.640	-44.279	0.173	0.086
-220.625	-78.613	0.249	-0.084
-219.611	24.458	0.254	0.208
-218.596	665.430	-0.022	-0.056
-217.582	41.712	-0.123	-0.110
-216.567	-200.000	-0.012	-0.168
-215.552	701.554	-0.072	0.188
-214.538	-17.624	-0.081	0.051
-213.523	-95.754	0.145	0.038
-212.509	-200.000	0.035	-0.521
-211.494	-200.000	0.026	-0.175
-210.479	33.157	-0.261	-0.224
-209.465	137.309	0.068	-0.088
-208.450	-110.583	-0.160	0.033
-207.436	-200.000	0.002	0.065
-206.421	-32.509	0.188	0.104
-205.406	-200.000	-0.002	-0.018
-204.392	-112.810	-0.176	0.034
-203.377	-149.767	0.054	-0.004
-202.363	-63.250	0.278	0.114
-201.348	326.849	0.024	-0.045
-200.333	73.305	-0.045	0.046
-199.319	800.000	0.084	-0.271
-198.304	800.000	0.084	-0.273
-197.290	800.000	-0.085	-0.363
-196.275	-63.603	-0.235	-0.095
-195.260	567.561	0.103	-0.248
-194.246	478.273	-0.030	0.066
-193.231	-26.958	0.212	-0.123
-192.217	-86.693	0.098	-0.030
-191.202	-200.000	-0.012	-0.064
-190.187	-200.000	0.037	0.321
-189.173	227.938	0.065	-0.104
-188.158	178.053	0.136	-0.196
-187.144	23.803	0.220	-0.179
-186.129	-27.592	0.088	0.051
-185.114	298.722	0.138	0.251
-184.100	23.844	0.263	0.214
-183.085	109.078	-0.150	-0.177
-182.071	800.000	-0.092	0.261
-181.056	-200.000	0.042	0.285
-180.042	-67.191	-0.146	0.057
-179.027	639.787	0.026	0.066
-178.012	800.000	0.145	0.474
-176.998	-200.000	-0.067	0.365
-175.983	-66.861	-0.100	-0.039
-174.969	-122.269	0.088	-0.014
-173.954	-25.386	-0.155	-0.091
-172.939	800.000	0.104	-0.353
-171.925	-170.815	0.286	0.010
-170.910	108.603	-0.302	0.356
-169.896	141.774	-0.203	0.266
-168.881	-27.831	0.140	-0.080
-167.866	55.855	-0.215	-0.206
-166.852	74.239	-0.144	-0.150
-165.837	23.637	-0.187	-0.152
-164.823	800.000	-0.018	0.059
-163.808	-184.987	0.243	0.004
-162.793	533.688	0.114	0.267
-161.779	-21.945	-0.332	-0.199
-160.764	-39.235	0.099	-0.051
-159.750	284.149	-0.080	0.142
-158.735	423.813	-0.084	-0.179
-157.720	-86.035	-0.228	0.069
-156.706	-39.389	-0.157	-0.081
-155.691	-77.264	-0.122	0.042
-154.677	-196.866	-0.101	-0.001
-153.662	419.913	0.095	-0.202
-152.647	-161.177	0.382	0.020
-151.633	96.455	-0.185	-0.209
-150.618	-173.340	0.131	0.004
-149.604	-200.000	0.005	-0.056
-148.589	-25.799	0.082	0.048
-147.574	198.331	0.342	0.517
-146.560	-0.068	-0.194	-0.137
-145.545	-200.000	0.024	0.281
-144.531	-26.195	0.144	-0.083
-143.516	283.996	0.172	-0.306
-142.502	-200.000	0.028	-0.196
-141.487	-60.793	-0.046	-0.019
-140.472	64.662	0.246	-0.245
-139.458	43.620	0.076	0.069
-138.443	-78.948	0.209	0.070
-137.429	17.538	0.078	-0.061
-136.414	800.000	0.080	0.308
-135.399	-104.434	-0.003	-0.001
-134.385	0.596	0.355	-0.250
-133.370	-123.775	0.142	-0.022
-132.356	-200.000	0.060	0.266
-131.341	-62.277	-0.339	-0.139
-130.326	800.000	-0.029	-0.112
-129.312	152.839	0.218	-0.294
-128.297	-92.225	-0.245	-0.068
-127.283	382.655	-0.072	-0.146
-126.268	-9.001	0.213	-0.141
-125.253	-63.661	0.135	-0.055
-124.239	-115.857	-0.377	0.069
-123.224	103.544	0.095	0.110
-122.210	51.922	0.313	0.294
-121.195	-111.291	-0.114	-0.023
