DTS Sentinel unit serial number:	SN413079Multiplexer serial number:	ORYXHardware model number:	OX4-SRSoftware version number:	ORYX F/W v4.00 Oryx Data Collector v3.7.2.0data status	okinstallation	princeton_trtdifferential loss correction	single-endedforward channel	channel 3reverse channel	N/Adate	2019/09/12time	02:30:11forward acquisition time	60.00reverse acquisition time	0.00gamma	496.2192k internal	0.2321k external	0.2321temperature offset calibration	1.0066default loss term (dB/km)	0.3790temperature slope calibration	1.0000multiplexer offset coefficient	1.0000multiplexer slope coefficient	1.0000fibre end	0.00T internal ref (°C)	32.48T ext. ref 1 (°C)	2.09T ext. ref 2 (°C)	27.17length (m)	temperature (°C)	Stokes	anti-Stokes-747.200	-176.517	0.018	-0.000
-746.185	31.577	0.144	0.125
-745.171	113.316	-0.093	0.114
-744.156	-200.000	-0.063	0.377
-743.142	-148.491	0.025	-0.002
-742.127	659.481	0.055	0.144
-741.112	-54.261	0.267	0.122
-740.098	-200.000	0.021	0.304
-739.083	400.675	0.057	-0.120
-738.069	-24.939	0.258	0.154
-737.054	-44.869	0.060	0.030
-736.039	-127.595	-0.280	0.041
-735.025	-15.131	0.082	-0.053
-734.010	-133.058	0.162	0.021
-732.996	-94.726	-0.453	-0.124
-731.981	-200.000	-0.049	0.491
-730.966	800.000	-0.021	0.085
-729.952	800.000	0.041	-0.166
-728.937	488.726	0.056	-0.129
-727.923	800.000	0.086	0.337
-726.908	800.000	-0.036	0.122
-725.894	-200.000	-0.020	-0.247
-724.879	-200.000	0.002	0.117
-723.864	454.759	-0.066	-0.147
-722.850	47.717	-0.161	0.152
-721.835	-38.568	0.088	0.047
-720.821	161.899	0.084	-0.119
-719.806	-200.000	0.014	0.162
-718.791	312.548	0.066	-0.125
-717.777	-23.007	-0.386	0.235
-716.762	391.570	-0.151	-0.317
-715.748	800.000	-0.030	-0.084
-714.733	-115.018	-0.161	0.031
-713.718	-200.000	-0.020	-0.134
-712.704	185.405	-0.072	0.108
-711.689	-84.274	-0.227	0.073
-710.675	-200.000	-0.023	0.309
-709.660	-200.000	0.004	-0.027
-708.645	-200.000	-0.042	-0.205
-707.631	275.566	0.116	-0.207
-706.616	756.640	-0.064	0.175
-705.602	399.002	-0.253	-0.535
-704.587	138.486	0.086	0.113
-703.572	302.693	0.076	0.143
-702.558	13.962	-0.207	-0.163
-701.543	42.852	-0.232	0.213
-700.529	-60.305	0.055	0.024
-699.514	800.000	-0.034	-0.114
-698.499	-54.732	-0.036	0.017
-697.485	800.000	-0.084	0.312
-696.470	-14.400	0.112	-0.072
-695.456	-21.901	-0.090	-0.055
-694.441	800.000	-0.113	-0.449
-693.426	67.690	0.321	0.331
-692.412	-94.782	-0.182	0.050
-691.397	45.027	-0.205	0.190
-690.383	-143.436	-0.352	0.034
-689.368	-111.071	-0.261	-0.054
-688.354	-200.000	-0.053	-0.259
-687.339	6.873	-0.098	0.074
-686.324	-74.355	0.262	-0.095
-685.310	-177.004	0.143	-0.004
-684.295	-171.054	-0.313	-0.011
-683.281	-200.000	0.004	-0.174
-682.266	31.889	0.313	-0.272
-681.251	-108.086	-0.394	0.086
-680.237	104.158	-0.161	0.191
-679.222	-200.000	0.035	-0.171
-678.208	-192.737	-0.212	-0.002
-677.193	182.346	0.123	-0.182
-676.178	800.000	0.051	-0.146
-675.164	-163.318	0.358	-0.017
-674.149	13.604	0.329	-0.258
-673.135	-200.000	0.003	0.274
-672.120	53.478	0.190	0.184
-671.105	-4.414	0.063	0.044
-670.091	-154.818	-0.122	0.008
-669.076	-200.000	0.003	0.027
-668.062	-103.046	0.380	-0.091
-667.047	331.490	0.126	0.244
-666.032	81.601	-0.130	-0.142
-665.018	-200.000	-0.001	0.045
-664.003	-150.231	-0.588	0.046
-662.989	800.000	-0.062	-0.246
-661.974	-200.000	-0.016	0.112
-660.959	-161.405	0.335	0.017
-659.945	-200.000	0.022	-0.298
-658.930	-200.000	-0.030	0.178
-657.916	127.945	0.047	-0.061
-656.901	86.731	-0.072	0.080
-655.886	-24.747	0.068	0.041
-654.872	11.359	-0.175	-0.135
-653.857	-170.937	-0.150	0.005
-652.843	800.000	-0.073	-0.293
-651.828	-176.124	0.287	-0.008
-650.814	78.219	-0.063	-0.068
-649.799	-147.856	0.083	0.007
-648.784	-48.424	0.170	-0.082
-647.770	-100.614	-0.148	-0.037
-646.755	-54.926	0.183	-0.083
-645.741	-107.078	0.244	0.054
-644.726	1.656	-0.601	-0.436
-643.711	226.289	-0.134	0.219
-642.697	615.158	-0.094	-0.236
-641.682	800.000	-0.079	0.261
-640.668	-93.848	-0.145	-0.040
-639.653	-200.000	0.060	-0.311
-638.638	-112.683	-0.237	0.047
-637.624	-200.000	-0.109	0.493
-636.609	309.449	-0.085	-0.160
-635.595	-16.774	0.185	0.118
-634.580	-53.477	-0.337	-0.155
-633.565	-51.379	0.064	-0.030
-632.551	190.226	0.105	-0.159
-631.536	255.902	-0.190	-0.327
-630.522	-45.168	-0.273	-0.136
-629.507	-53.469	-0.222	-0.102
-628.492	-200.000	0.054	-0.325
-627.478	-106.750	0.046	-0.010
-626.463	43.376	0.084	0.077
-625.449	-200.000	-0.006	0.319
-624.434	800.000	0.009	-0.038
-623.419	-44.549	0.256	0.128
-622.405	800.000	0.085	0.282
-621.390	-133.381	-0.123	-0.016
-620.376	87.573	-0.109	0.121
-619.361	268.033	-0.010	0.018
-618.346	800.000	-0.066	0.270
-617.332	138.623	0.196	-0.259
-616.317	25.334	-0.144	0.121
-615.303	168.784	-0.284	-0.407
-614.288	-200.000	-0.002	0.131
-613.273	-61.274	-0.311	0.132
-612.259	52.320	0.043	0.041
-611.244	147.846	-0.284	-0.384
-610.230	-49.601	0.161	-0.077
-609.215	210.861	0.119	-0.188
-608.201	170.110	-0.139	-0.199
-607.186	-54.069	0.110	-0.050
-606.171	603.089	-0.186	-0.465
-605.157	-63.102	-0.311	-0.129
-604.142	-200.000	-0.025	-0.281
-603.128	-98.417	0.309	-0.080
-602.113	27.991	-0.174	-0.148
-601.098	-11.380	-0.164	0.109
-600.084	-76.779	0.291	-0.102
-599.069	800.000	0.100	-0.323
-598.055	215.516	0.106	0.170
-597.040	-200.000	0.007	0.043
-596.025	335.274	0.134	0.261
-595.011	-200.000	0.008	0.196
-593.996	-86.492	-0.107	0.033
-592.982	-137.937	-0.329	0.037
-591.967	-96.809	0.245	-0.065
-590.952	800.000	0.031	-0.129
-589.938	411.559	-0.023	0.049
-588.923	-179.642	0.121	0.003
-587.909	457.967	0.018	-0.039
-586.894	390.067	-0.110	0.229
-585.879	-185.487	0.217	-0.003
-584.865	800.000	0.113	0.357
-583.850	49.242	0.199	-0.188
-582.836	-29.210	-0.190	0.109
-581.821	-28.902	0.313	0.181
-580.806	-142.898	0.481	-0.047
-579.792	-200.000	-0.025	0.174
-578.777	290.658	0.089	0.162
-577.763	-94.316	-0.304	0.084
-576.748	-200.000	0.008	0.089
-575.733	-102.212	-0.124	-0.030
-574.719	109.099	-0.066	0.079
-573.704	-88.298	-0.080	0.024
-572.690	426.683	-0.099	-0.214
-571.675	-158.966	-0.241	-0.014
-570.661	142.996	-0.214	0.286
-569.646	-53.820	-0.278	-0.127
-568.631	56.122	-0.122	-0.119
-567.617	26.977	0.190	0.160
-566.602	71.646	-0.090	-0.094
-565.588	-145.319	0.184	0.017
-564.573	800.000	-0.104	0.334
-563.558	206.131	0.072	0.113
-562.544	385.646	0.058	0.120
-561.529	76.443	0.122	-0.129
-560.515	800.000	0.105	-0.377
-559.500	102.576	-0.067	0.078
-558.485	-135.568	0.183	-0.022
-557.471	396.306	0.068	-0.143
-556.456	-105.931	-0.368	-0.083
-555.442	83.695	-0.213	0.233
-554.427	679.906	-0.170	0.444
-553.412	55.328	0.195	-0.189
-552.398	-43.550	-0.109	-0.055
-551.383	281.029	0.106	0.190
-550.369	131.121	0.092	0.118
-549.354	-96.936	0.157	0.041
-548.339	182.215	-0.146	-0.215
-547.325	239.014	0.037	0.062
-546.310	-200.000	-0.074	0.344
-545.296	-116.274	-0.177	0.033
-544.281	-125.137	-0.148	0.023
-543.266	-69.257	0.200	-0.077
-542.252	473.516	-0.023	-0.051
-541.237	-32.327	-0.140	0.078
-540.223	-200.000	-0.031	-0.342
-539.208	-142.055	0.143	-0.014
-538.193	-37.905	0.149	0.079
-537.179	-114.320	0.089	-0.017
-536.164	-80.845	0.241	-0.080
-535.150	-200.000	-0.043	-0.210
-534.135	-86.962	-0.159	0.049
-533.121	800.000	0.055	0.190
-532.106	565.491	0.079	-0.192
-531.091	-69.176	0.234	-0.090
-530.077	234.178	0.182	-0.301
-529.062	-93.306	0.152	-0.042
-528.048	800.000	0.097	0.408
-527.033	66.300	0.035	0.036
-526.018	139.966	0.231	-0.305
-525.004	-21.410	0.308	0.188
-523.989	161.279	-0.228	0.319
-522.975	18.992	0.287	-0.230
-521.960	7.275	-0.136	-0.102
-520.945	-52.840	-0.208	-0.096
-519.931	-151.433	0.218	-0.016
-518.916	-200.000	0.033	-0.471
-517.902	800.000	-0.058	-0.250
-516.887	-200.000	-0.037	-0.224
-515.872	540.952	0.103	-0.247
-514.858	-53.472	-0.252	-0.115
-513.843	-8.687	0.264	0.178
-512.829	-7.775	0.255	-0.173
-511.814	-92.564	-0.074	0.021
-510.799	326.513	0.158	0.303
-509.785	353.001	0.236	0.468
-508.770	51.293	-0.132	0.126
-507.756	190.336	0.065	0.097
-506.741	51.274	-0.084	-0.080
-505.726	-69.016	-0.369	-0.143
-504.712	-200.000	-0.003	0.263
-503.697	-56.513	-0.116	-0.052
-502.683	85.684	-0.289	-0.319
-501.668	164.727	0.062	-0.088
-500.653	-99.003	0.193	0.049
-499.639	-153.394	-0.406	-0.028
-498.624	800.000	-0.053	-0.166
-497.610	86.328	-0.122	-0.135
-496.595	93.508	-0.188	-0.213
-495.581	-200.000	-0.005	-0.151
-494.566	-95.320	-0.089	0.024
-493.551	-97.215	-0.154	-0.040
-492.537	104.704	-0.072	0.085
-491.522	670.821	0.042	0.109
-490.508	-200.000	-0.004	0.020
-489.493	47.645	0.062	0.058
-488.478	-200.000	0.013	-0.362
-487.464	388.347	-0.112	0.232
-486.449	371.276	-0.117	0.238
-485.435	-200.000	-0.036	0.234
-484.420	79.420	-0.257	0.275
-483.405	194.825	0.264	-0.401
-482.391	-80.451	-0.270	0.090
-481.376	60.876	0.131	0.130
-480.362	800.000	0.122	-0.373
-479.347	-200.000	-0.028	-0.327
-478.332	-200.000	0.066	-0.389
-477.318	69.723	-0.393	0.405
-476.303	-200.000	0.003	0.393
-475.289	-200.000	0.010	-0.071
-474.274	626.299	0.151	0.380
-473.259	-68.427	0.078	-0.030
-472.245	-60.965	0.046	0.020
-471.230	118.177	-0.029	-0.036
-470.216	-156.590	-0.279	0.017
-469.201	800.000	0.093	-0.295
-468.186	495.711	0.085	-0.196
-467.172	685.532	0.070	0.182
-466.157	12.162	-0.072	0.055
-465.143	-200.000	0.015	0.246
-464.128	-71.117	-0.207	0.078
-463.113	-200.000	0.030	-0.163
-462.099	-150.996	0.033	0.002
-461.084	133.292	-0.151	0.195
-460.070	37.707	-0.113	0.101
-459.055	-200.000	-0.013	0.338
-458.040	17.021	0.212	-0.168
-457.026	-200.000	-0.091	-0.528
-456.011	142.854	0.044	-0.059
-454.997	62.275	0.160	0.160
-453.982	-100.086	-0.381	0.095
-452.968	-37.887	0.207	0.110
-451.953	800.000	-0.092	-0.274
-450.938	-142.139	-0.232	-0.023
-449.924	800.000	0.057	-0.205
-448.909	-200.000	-0.049	-0.323
-447.895	80.354	0.132	-0.142
-446.880	4.287	-0.175	-0.128
-445.865	800.000	-0.017	0.063
-444.851	-200.000	0.004	-0.131
-443.836	-43.964	0.238	0.119
-442.822	-134.727	-0.288	-0.035
-441.807	-141.820	-0.140	-0.014
-440.792	62.841	-0.207	-0.207
-439.778	800.000	0.053	0.188
-438.763	-152.896	-0.112	-0.008
-437.749	-150.435	-0.086	0.007
-436.734	-66.583	0.504	-0.200
-435.719	-86.883	-0.316	-0.096
-434.705	247.337	-0.112	-0.189
-433.690	226.340	-0.075	0.122
-432.676	90.987	-0.136	-0.153
-431.661	-88.778	-0.199	0.059
-430.646	-200.000	0.009	0.062
-429.632	558.900	-0.068	0.165
-428.617	142.078	0.138	-0.182
-427.603	-26.899	0.223	-0.130
-426.588	-52.300	-0.207	0.096
-425.573	-68.207	-0.249	-0.097
-424.559	84.870	0.245	-0.268
-423.544	-52.674	0.115	0.053
-422.530	24.196	0.286	-0.235
-421.515	-144.497	0.171	-0.016
-420.500	140.922	0.144	0.190
-419.486	-200.000	0.040	0.230
-418.471	-200.000	-0.010	0.193
-417.457	166.242	-0.065	-0.092
-416.442	-127.199	-0.252	0.037
-415.428	257.557	-0.121	-0.208
-414.413	-106.983	-0.468	-0.103
-413.398	73.774	0.342	0.357
-412.384	214.246	0.175	0.276
-411.369	-200.000	-0.036	0.556
-410.355	-51.416	-0.149	-0.070
-409.340	349.261	0.156	-0.308
-408.325	-200.000	-0.006	0.050
-407.311	382.649	-0.107	0.219
-406.296	107.341	0.016	-0.018
-405.282	-142.257	-0.070	0.007
-404.267	800.000	0.030	-0.118
-403.252	68.754	0.196	0.201
-402.238	-155.924	-0.297	0.019
-401.223	800.000	0.107	0.366
-400.209	-146.473	-0.221	-0.019
-399.194	-94.287	0.281	-0.077
-398.179	-200.000	-0.020	0.175
-397.165	800.000	-0.068	-0.268
-396.150	-200.000	0.005	-0.164
-395.136	190.735	-0.056	-0.084
-394.121	-149.468	-0.065	0.005
-393.106	800.000	0.033	-0.126
-392.092	79.500	-0.067	0.072
-391.077	227.747	-0.072	0.116
-390.063	800.000	0.064	0.252
-389.048	50.665	0.254	0.239
-388.033	-112.008	0.155	0.031
-387.019	157.591	-0.071	0.098
-386.004	155.357	-0.020	0.027
-384.990	303.067	0.125	-0.231
-383.975	800.000	0.042	-0.148
-382.960	-63.725	0.114	0.047
-381.946	-47.580	-0.127	0.061
-380.931	-124.877	-0.214	-0.033
-379.917	-128.667	0.397	-0.056
-378.902	4.052	0.227	-0.165
-377.888	-163.013	0.296	-0.014
-376.873	196.800	0.110	-0.168
-375.858	12.632	-0.083	0.064
-374.844	-200.000	-0.001	-0.138
-373.829	-142.967	-0.497	-0.048
-372.815	24.595	0.142	0.117
-371.800	-200.000	-0.007	0.164
-370.785	-131.665	-0.055	0.007
-369.771	116.042	0.027	0.033
-368.756	64.060	-0.069	-0.069
-367.742	267.170	0.140	-0.243
-366.727	86.904	0.180	-0.198
-365.712	277.152	-0.073	-0.129
-364.698	-63.866	-0.084	0.034
-363.683	89.385	-0.067	0.074
-362.669	44.337	0.309	0.282
-361.654	507.966	0.033	0.075
-360.639	-126.967	-0.335	0.049
-359.625	107.674	0.131	-0.155
-358.610	98.319	-0.203	0.233
-357.596	386.643	-0.202	0.415
-356.581	800.000	-0.081	0.335
-355.566	-81.019	0.360	0.119
-354.552	-45.942	-0.301	0.148
-353.537	253.757	0.022	-0.037
-352.523	800.000	-0.019	0.081
-351.508	451.676	-0.092	0.202
-350.493	-200.000	0.003	0.201
-349.479	-200.000	0.630	0.003
-348.464	-93.438	0.223	-0.062
-347.450	-1.420	0.476	0.334
-346.435	162.273	-0.132	0.185
-345.420	48.211	-0.015	-0.014
-344.406	-138.030	-0.158	0.017
-343.391	760.452	0.034	-0.091
-342.377	-200.000	0.056	-0.348
-341.362	-58.250	0.304	0.132
-340.348	-85.216	-0.303	-0.094
-339.333	-200.000	0.013	0.269
-338.318	66.422	0.123	-0.124
-337.304	-53.831	-0.310	-0.141
-336.289	-35.611	-0.102	0.055
-335.275	-109.592	-0.121	-0.025
-334.260	-83.638	0.102	-0.033
-333.245	-200.000	0.019	-0.121
-332.231	-24.243	-0.136	-0.081
-331.216	-126.562	0.219	0.032
-330.202	9.896	0.048	0.036
-329.187	58.071	0.170	0.166
-328.172	-73.394	-0.405	-0.147
-327.158	-18.537	0.201	-0.125
-326.143	-135.838	0.150	-0.018
-325.129	30.183	-0.350	0.297
-324.114	135.115	-0.079	0.102
-323.099	-24.931	0.140	0.083
-322.085	-200.000	0.028	0.211
-321.070	-7.951	0.051	0.034
-320.056	487.897	-0.151	-0.342
-319.041	72.712	0.093	-0.097
-318.026	-79.201	0.307	-0.104
-317.012	230.244	0.142	0.230
-315.997	-89.419	0.208	-0.061
-314.983	-111.313	-0.211	0.043
-313.968	-107.547	0.079	0.017
-312.953	87.638	0.068	0.075
-311.939	54.052	-0.147	0.140
-310.924	23.722	-0.187	0.153
-309.910	138.195	-0.203	0.264
-308.895	-200.000	0.065	-0.328
-307.880	343.586	-0.025	-0.048
-306.866	-37.731	-0.242	-0.128
-305.851	-133.563	0.081	0.010
-304.837	227.754	0.132	-0.213
-303.822	128.320	0.311	0.394
-302.807	659.525	0.076	0.195
-301.793	-200.000	0.005	0.372
-300.778	-181.873	0.127	-0.002
-299.764	102.874	-0.177	-0.205
-298.749	800.000	-0.021	0.071
-297.735	-20.209	-0.359	-0.220
-296.720	-33.819	-0.072	-0.040
-295.705	201.999	0.088	0.134
-294.691	-9.050	-0.242	-0.161
-293.676	-87.544	-0.191	-0.057
-292.662	61.121	0.115	0.114
-291.647	213.512	0.308	-0.483
-290.632	-3.470	0.094	-0.065
-289.618	800.000	0.138	0.423
-288.603	20.624	-0.371	-0.298
-287.589	-200.000	0.032	-0.164
-286.574	44.465	-0.107	0.097
-285.559	61.435	-0.057	0.056
-284.545	295.417	-0.067	-0.121
-283.530	239.400	-0.123	0.202
-282.516	800.000	0.042	-0.145
-281.501	-37.034	0.365	0.194
-280.486	-68.176	-0.114	-0.044
-279.472	-90.304	-0.086	0.025
-278.457	-46.969	-0.164	0.079
-277.443	63.765	0.039	0.038
-276.428	-67.613	-0.092	0.036
-275.413	507.254	-0.093	-0.214
-274.399	172.034	0.100	0.143
-273.384	196.200	-0.108	-0.164
-272.370	24.594	0.089	0.073
-271.355	800.000	-0.057	0.217
-270.340	-98.225	-0.046	0.012
-269.326	317.390	0.074	-0.138
-268.311	-27.498	-0.178	-0.103
-267.297	148.543	-0.102	0.137
-266.282	-200.000	-0.011	0.280
-265.267	-151.944	0.113	-0.008
-264.253	131.025	-0.187	-0.238
-263.238	256.767	0.156	0.266
-262.224	41.708	-0.167	-0.150
-261.209	-200.000	0.012	0.318
-260.195	-200.000	-0.011	-0.271
-259.180	192.878	-0.156	-0.234
-258.165	310.618	-0.129	-0.240
-257.151	-200.000	-0.008	0.066
-256.136	800.000	-0.021	0.070
-255.122	-54.054	0.343	-0.155
-254.107	-99.204	0.255	-0.064
-253.092	-98.396	0.181	-0.046
-252.078	74.224	0.431	0.448
-251.063	18.682	-0.189	0.150
-250.049	-160.039	0.135	-0.007
-249.034	800.000	-0.098	-0.397
-248.019	-200.000	0.043	0.235
-247.005	-134.460	0.159	0.019
-245.990	-124.404	-0.310	0.048
-244.976	-48.420	0.357	0.170
-243.961	-102.022	0.275	0.066
-242.946	161.664	-0.036	0.051
-241.932	-77.343	0.311	0.107
-240.917	196.141	0.054	0.082
-239.903	-200.000	0.017	-0.182
-238.888	169.686	0.051	0.072
-237.873	144.384	-0.166	-0.220
-236.859	-73.782	0.234	0.084
-235.844	800.000	0.038	-0.152
-234.830	162.849	-0.023	-0.032
-233.815	-125.217	-0.042	0.006
-232.800	20.616	-0.034	0.027
-231.786	271.079	0.032	-0.056
-230.771	-103.825	-0.139	-0.032
-229.757	159.460	0.010	-0.013
-228.742	205.099	0.087	0.133
-227.727	-200.000	0.035	-0.246
-226.713	452.426	-0.071	-0.156
-225.698	409.993	-0.145	0.304
-224.684	-200.000	0.018	0.151
-223.669	-200.000	-0.029	0.233
-222.655	70.159	0.193	0.198
-221.640	-88.631	0.436	0.128
-220.625	22.180	-0.176	-0.142
-219.611	1.592	-0.213	0.152
-218.596	7.268	0.140	0.104
-217.582	137.990	-0.128	0.166
-216.567	-2.004	-0.158	-0.110
-215.552	-200.000	-0.001	0.255
-214.538	13.112	-0.143	0.109
-213.523	-67.604	0.055	-0.021
-212.509	9.320	-0.297	-0.222
-211.494	-107.983	0.347	-0.075
-210.479	730.377	0.041	-0.109
-209.465	127.668	-0.238	-0.299
-208.450	16.174	-0.043	0.033
-207.436	-68.915	0.417	0.159
-206.421	60.025	0.067	-0.066
-205.406	141.501	0.088	-0.116
-204.392	-21.691	0.181	0.109
-203.377	-200.000	-0.031	0.200
-202.363	109.525	0.170	-0.201
-201.348	-127.971	0.226	0.032
-200.333	-56.385	-0.209	-0.092
-199.319	650.190	0.057	-0.143
-198.304	-74.232	0.259	-0.093
-197.290	-28.334	0.285	-0.163
-196.275	-143.607	0.335	-0.032
-195.260	45.613	-0.070	0.064
-194.246	-56.429	-0.188	0.082
-193.231	47.840	0.062	0.057
-192.217	509.751	0.016	-0.036
-191.202	21.393	-0.410	0.330
-190.187	-64.323	0.234	-0.094
-189.173	94.081	-0.095	-0.106
-188.158	-41.185	0.097	-0.050
-187.144	203.344	0.127	-0.195
-186.129	-36.178	-0.389	0.207
-185.114	31.893	0.326	-0.277
-184.100	-94.399	-0.288	0.078
-183.085	-11.985	0.069	0.044
-182.071	-98.972	0.311	0.078
-181.056	-10.475	-0.563	0.369
-180.042	660.126	-0.070	0.177
-179.027	119.026	0.388	-0.474
-178.012	126.531	-0.096	-0.120
-176.998	94.571	0.158	-0.178
-175.983	-84.870	-0.215	0.067
-174.969	104.034	0.106	0.124
-173.954	-18.005	-0.139	-0.086
-172.939	800.000	-0.027	-0.113
-171.925	40.840	-0.141	-0.126
-170.910	-200.000	0.001	-0.167
-169.896	-200.000	0.036	-0.160
-168.881	6.348	0.191	0.140
-167.866	-23.117	0.287	-0.171
-166.852	552.144	0.081	-0.191
-165.837	16.308	-0.139	-0.108
-164.823	473.190	-0.047	-0.105
-163.808	21.975	0.291	-0.234
-162.793	-170.057	-0.206	0.007
-161.779	-130.064	-0.150	-0.020
-160.764	-200.000	0.018	0.277
-159.750	-200.000	-0.016	0.261
-158.735	-20.990	0.036	-0.022
-157.720	-44.948	0.305	0.150
-156.706	7.735	-0.175	-0.129
-155.691	-200.000	0.012	0.092
-154.677	-34.340	0.252	0.137
-153.662	-200.000	0.047	0.216
-152.647	-106.881	-0.064	0.014
-151.633	-200.000	-0.005	0.131
-150.618	-98.357	-0.108	0.027
-149.604	-1.092	-0.216	-0.151
-148.589	-200.000	-0.066	-0.397
-147.574	105.755	-0.286	0.334
-146.560	-200.000	0.042	-0.198
-145.545	-200.000	-0.018	-0.084
-144.531	233.559	-0.078	-0.127
-143.516	486.374	0.137	-0.309
-142.502	-200.000	0.102	-0.000
-141.487	-78.786	0.155	0.052
-140.472	-49.134	0.393	0.185
-139.458	-200.000	-0.006	0.334
-138.443	-45.565	-0.286	0.140
-137.429	301.926	-0.096	-0.176
-136.414	-200.000	0.027	-0.251
-135.399	-165.188	-0.188	-0.008
-134.385	800.000	-0.047	-0.177
-133.370	383.772	-0.224	-0.454
-132.356	-54.734	-0.086	0.038
-131.341	669.350	-0.140	0.358
-130.326	135.135	-0.108	0.139
-129.312	73.860	0.207	0.214
-128.297	-200.000	0.008	-0.329
-127.283	-6.973	-0.132	-0.088
-126.268	11.939	-0.171	-0.130
-125.253	258.087	0.112	-0.191
-124.239	215.652	0.206	-0.323
-123.224	86.703	-0.210	-0.228
-122.210	-123.275	0.117	-0.018
-121.195	530.233	-0.019	0.043
