DTS Sentinel unit serial number:	SN413079Multiplexer serial number:	ORYXHardware model number:	OX4-SRSoftware version number:	ORYX F/W v4.00 Oryx Data Collector v3.7.2.0data status	okinstallation	princeton_trtdifferential loss correction	single-endedforward channel	channel 3reverse channel	N/Adate	2019/09/13time	18:48:35forward acquisition time	60.00reverse acquisition time	0.00gamma	496.2192k internal	0.2320k external	0.2320temperature offset calibration	1.0105default loss term (dB/km)	0.3790temperature slope calibration	1.0000multiplexer offset coefficient	1.0000multiplexer slope coefficient	1.0000fibre end	0.00T internal ref (°C)	32.47T ext. ref 1 (°C)	4.08T ext. ref 2 (°C)	25.70length (m)	temperature (°C)	Stokes	anti-Stokes-747.200	559.906	0.095	0.232
-746.185	-200.000	-0.034	0.176
-745.171	-153.796	-0.351	0.024
-744.156	-79.500	-0.226	-0.077
-743.142	-32.283	0.061	-0.035
-742.127	800.000	0.172	0.610
-741.112	38.967	0.272	-0.246
-740.098	-200.000	-0.010	0.402
-739.083	-200.000	-0.043	0.417
-738.069	8.210	-0.159	0.120
-737.054	-22.223	-0.181	0.111
-736.039	19.156	-0.249	-0.202
-735.025	75.393	-0.203	0.217
-734.010	-200.000	-0.005	0.142
-732.996	-14.374	-0.490	-0.319
-731.981	320.986	0.075	-0.144
-730.966	-92.033	-0.166	0.047
-729.952	81.509	0.196	0.214
-728.937	-200.000	-0.022	-0.154
-727.923	345.897	-0.139	0.276
-726.908	331.480	-0.124	-0.243
-725.894	199.880	-0.112	-0.173
-724.879	-80.972	0.267	-0.089
-723.864	371.023	0.112	-0.229
-722.850	-17.100	-0.151	-0.097
-721.835	-25.759	-0.379	-0.226
-720.821	-108.878	0.238	-0.051
-719.806	79.061	0.159	-0.172
-718.791	393.445	-0.017	0.035
-717.777	800.000	0.033	0.119
-716.762	-200.000	-0.059	-0.615
-715.748	-200.000	0.011	-0.250
-714.733	40.045	-0.310	-0.282
-713.718	-66.623	-0.081	0.032
-712.704	469.554	-0.081	-0.183
-711.689	-166.917	0.303	-0.013
-710.675	-128.595	0.112	-0.016
-709.660	131.083	-0.217	-0.282
-708.645	-129.851	-0.285	-0.040
-707.631	-145.415	0.308	-0.028
-706.616	419.648	0.094	-0.203
-705.602	-200.000	-0.018	0.097
-704.587	-39.818	0.055	-0.029
-703.572	35.176	-0.055	0.049
-702.558	-59.005	-0.144	-0.063
-701.543	-196.625	-0.387	-0.003
-700.529	-92.356	0.197	-0.056
-699.514	-188.911	0.080	-0.001
-698.499	2.654	0.061	0.045
-697.485	536.597	0.035	-0.085
-696.470	-42.909	-0.117	-0.060
-695.456	-200.000	-0.015	0.352
-694.441	-133.760	-0.253	-0.032
-693.426	115.767	0.158	-0.195
-692.412	-81.398	0.350	-0.116
-691.397	84.401	0.154	-0.170
-690.383	800.000	-0.046	-0.192
-689.368	-200.000	-0.041	-0.207
-688.354	-54.615	0.322	-0.147
-687.339	45.672	0.062	0.058
-686.324	-200.000	0.037	0.258
-685.310	800.000	-0.128	0.409
-684.295	120.052	-0.093	0.117
-683.281	-125.583	0.052	0.008
-682.266	13.109	-0.269	0.210
-681.251	109.785	0.230	-0.278
-680.237	-180.376	-0.065	0.001
-679.222	238.376	-0.128	-0.215
-678.208	-170.283	-0.155	0.006
-677.193	-200.000	-0.003	0.133
-676.178	68.341	0.044	0.045
-675.164	10.487	-0.160	0.123
-674.149	-121.896	0.163	0.027
-673.135	460.903	-0.066	-0.148
-672.120	582.102	0.139	0.343
-671.105	417.330	0.135	0.291
-670.091	10.306	0.140	0.108
-669.076	-64.540	0.171	0.070
-668.062	-110.902	-0.100	0.021
-667.047	-18.560	0.102	0.064
-666.032	20.374	0.096	-0.079
-665.018	-22.512	0.285	-0.174
-664.003	-200.000	0.008	-0.081
-662.989	108.644	-0.158	0.191
-661.974	800.000	0.121	0.375
-660.959	-25.532	-0.202	-0.120
-659.945	17.824	-0.013	-0.011
-658.930	-200.000	-0.031	-0.307
-657.916	504.623	-0.074	-0.173
-656.901	-4.666	-0.060	-0.042
-655.886	149.695	-0.091	0.124
-654.872	-32.102	-0.350	-0.197
-653.857	423.363	-0.190	0.412
-652.843	800.000	-0.037	-0.159
-651.828	-142.960	0.129	0.013
-650.814	800.000	-0.049	0.145
-649.799	800.000	0.041	-0.181
-648.784	-87.393	0.236	0.072
-647.770	-57.032	-0.089	0.039
-646.755	-101.235	-0.068	-0.017
-645.741	179.428	0.101	0.149
-644.726	800.000	-0.076	-0.252
-643.711	283.793	0.102	-0.184
-642.697	63.313	0.058	-0.059
-641.682	-36.920	-0.227	-0.123
-640.668	800.000	-0.067	-0.255
-639.653	-200.000	-0.008	0.280
-638.638	-18.408	-0.062	-0.039
-637.624	30.264	-0.059	0.051
-636.609	-116.661	0.314	-0.058
-635.595	-147.636	0.193	0.016
-634.580	-50.246	0.177	-0.084
-633.565	750.309	0.107	-0.291
-632.551	-155.528	0.518	-0.034
-631.536	-16.507	0.149	0.095
-630.522	-200.000	-0.034	-0.355
-629.507	-112.789	-0.406	0.081
-628.492	-103.978	0.484	0.114
-627.478	57.465	0.076	-0.074
-626.463	-200.000	0.021	-0.229
-625.449	672.912	-0.110	-0.287
-624.434	173.138	-0.175	-0.254
-623.419	-200.000	0.019	-0.212
-622.405	-200.000	0.025	-0.158
-621.390	558.933	0.063	-0.152
-620.376	9.592	0.202	-0.154
-619.361	-70.491	-0.128	0.049
-618.346	83.218	-0.298	0.326
-617.332	-82.448	0.166	0.054
-616.317	800.000	-0.106	0.335
-615.303	532.341	0.169	0.404
-614.288	737.025	-0.143	0.386
-613.273	800.000	-0.067	0.206
-612.259	39.018	0.155	0.140
-611.244	-200.000	-0.050	-0.257
-610.230	7.947	-0.136	-0.103
-609.215	-29.855	0.343	-0.197
-608.201	334.306	0.061	-0.120
-607.186	161.820	-0.203	0.286
-606.171	271.336	-0.056	-0.099
-605.157	264.460	0.253	-0.443
-604.142	-151.209	0.152	0.011
-603.128	-72.704	-0.158	-0.059
-602.113	228.576	0.311	0.510
-601.098	188.483	-0.109	0.164
-600.084	-124.442	-0.192	-0.030
-599.069	-200.000	-0.001	-0.136
-598.055	327.929	-0.174	-0.336
-597.040	800.000	0.039	-0.143
-596.025	29.556	0.181	-0.154
-595.011	-200.000	0.023	-0.106
-593.996	-200.000	0.028	-0.285
-592.982	-43.271	0.265	-0.135
-591.967	32.878	-0.168	-0.146
-590.952	-12.833	0.296	0.194
-589.938	243.141	0.097	-0.164
-588.923	-103.950	-0.106	0.025
-587.909	-61.347	0.354	-0.150
-586.894	-100.401	-0.102	-0.025
-585.879	181.845	0.176	-0.261
-584.865	-75.279	0.123	-0.044
-583.850	-158.618	0.034	0.002
-582.836	-103.799	-0.196	-0.046
-581.821	-122.362	-0.213	-0.035
-580.806	-200.000	-0.047	-0.268
-579.792	-15.748	-0.140	-0.090
-578.777	366.612	-0.051	-0.103
-577.763	-63.667	0.196	0.081
-576.748	-37.262	0.172	-0.093
-575.733	-200.000	0.003	0.040
-574.719	-200.000	-0.017	0.142
-573.704	5.445	0.177	-0.132
-572.690	370.468	-0.060	0.123
-571.675	-100.785	0.243	-0.060
-570.661	288.461	-0.056	-0.103
-569.646	-130.625	0.367	-0.050
-568.631	-118.570	0.133	0.024
-567.617	800.000	0.032	0.091
-566.602	61.537	-0.101	0.100
-565.588	-200.000	-0.004	-0.199
-564.573	-119.646	0.137	-0.024
-563.558	241.199	0.094	-0.158
-562.544	21.364	0.048	-0.039
-561.529	-2.794	-0.461	0.324
-560.515	37.388	-0.178	0.158
-559.500	-169.465	-0.240	0.009
-558.485	402.742	-0.046	0.098
-557.471	-153.256	0.207	-0.014
-556.456	-142.862	0.293	-0.029
-555.442	101.912	0.182	-0.213
-554.427	47.609	-0.237	0.222
-553.412	63.222	-0.098	0.099
-552.398	-30.381	0.069	0.039
-551.383	-114.191	-0.133	-0.026
-550.369	800.000	-0.036	-0.108
-549.354	283.453	-0.115	-0.207
-548.339	-183.629	0.191	0.003
-547.325	-200.000	-0.023	-0.229
-546.310	-54.285	-0.110	-0.050
-545.296	-200.000	0.061	0.290
-544.281	358.856	0.064	-0.128
-543.266	-27.381	0.016	-0.010
-542.252	55.404	-0.120	0.117
-541.237	800.000	-0.027	-0.106
-540.223	-16.521	0.099	0.063
-539.208	324.513	0.073	0.139
-538.193	-174.297	0.379	0.011
-537.179	800.000	0.027	-0.083
-536.164	421.671	-0.059	-0.127
-535.150	800.000	0.119	-0.392
-534.135	18.333	-0.319	-0.256
-533.121	16.575	-0.133	0.106
-532.106	158.059	0.050	-0.069
-531.091	792.476	-0.118	0.325
-530.077	-200.000	-0.057	-0.337
-529.062	800.000	0.145	-0.587
-528.048	139.364	-0.128	0.169
-527.033	262.884	0.121	0.212
-526.018	225.794	-0.056	0.092
-525.004	800.000	-0.044	-0.170
-523.989	229.386	-0.027	0.044
-522.975	-162.890	0.254	-0.012
-521.960	-200.000	0.044	0.463
-520.945	-200.000	0.023	-0.218
-519.931	154.548	-0.015	-0.021
-518.916	-108.055	0.159	0.034
-517.902	35.828	0.172	0.151
-516.887	-54.134	0.157	0.072
-515.872	-35.783	0.074	0.040
-514.858	-200.000	0.012	0.105
-513.843	96.675	0.341	0.391
-512.829	26.109	-0.328	-0.274
-511.814	800.000	-0.122	-0.410
-510.799	-52.840	-0.273	0.126
-509.785	40.643	0.237	-0.214
-508.770	-195.733	0.296	0.002
-507.756	-142.865	-0.178	-0.017
-506.741	82.538	0.104	-0.114
-505.726	789.028	0.047	-0.130
-504.712	-200.000	-0.003	0.160
-503.697	-14.123	-0.263	-0.170
-502.683	-200.000	0.002	-0.047
-501.668	219.771	-0.086	0.138
-500.653	-64.781	0.218	-0.089
-499.639	156.540	0.142	-0.197
-498.624	140.718	-0.140	0.185
-497.610	-200.000	-0.021	-0.121
-496.595	-200.000	0.066	-0.433
-495.581	3.099	-0.245	0.179
-494.566	-200.000	0.008	-0.141
-493.551	-50.057	-0.234	-0.111
-492.537	-200.000	-0.091	0.506
-491.522	-100.183	-0.162	0.040
-490.508	-200.000	-0.022	-0.157
-489.493	-91.761	0.078	0.022
-488.478	-135.215	-0.322	-0.039
-487.464	-89.646	0.389	-0.114
-486.449	626.126	0.081	-0.204
-485.435	141.304	-0.103	-0.136
-484.420	-100.066	0.384	-0.096
-483.405	800.000	-0.108	-0.304
-482.391	-100.853	-0.263	0.065
-481.376	52.833	0.163	0.156
-480.362	173.215	-0.202	-0.291
-479.347	12.551	0.064	-0.050
-478.332	-94.403	0.205	0.056
-477.318	-61.334	-0.051	-0.021
-476.303	173.149	0.220	0.317
-475.289	-200.000	-0.046	0.236
-474.274	175.623	0.079	-0.114
-473.259	800.000	-0.029	-0.083
-472.245	-200.000	-0.005	0.265
-471.230	184.223	0.103	0.152
-470.216	659.309	0.076	0.195
-469.201	214.584	0.080	0.127
-468.186	-74.129	0.219	-0.079
-467.172	-68.669	-0.159	-0.061
-466.157	-51.934	-0.208	0.097
-465.143	-106.362	-0.327	-0.073
-464.128	-134.415	0.211	0.026
-463.113	10.870	0.456	-0.348
-462.099	800.000	0.167	0.485
-461.084	-63.768	0.319	-0.131
-460.070	-115.042	-0.125	-0.024
-459.055	800.000	-0.051	0.148
-458.040	50.996	-0.242	-0.230
-457.026	800.000	0.057	0.238
-456.011	-22.201	0.081	-0.049
-454.997	163.128	0.361	-0.507
-453.982	-56.828	-0.260	0.115
-452.968	57.171	0.097	0.095
-451.953	-34.117	-0.136	-0.075
-450.938	-177.529	-0.096	-0.002
-449.924	-140.621	-0.277	0.029
-448.909	-200.000	0.092	-0.422
-447.895	-67.602	-0.325	0.128
-446.880	-69.648	0.129	0.049
-445.865	-200.000	0.033	-0.323
-444.851	-22.993	0.175	0.106
-443.836	2.420	-0.168	0.122
-442.822	15.517	0.054	0.042
-441.807	-200.000	-0.025	0.109
-440.792	-200.000	0.054	0.388
-439.778	257.154	0.121	0.209
-438.763	419.824	-0.076	0.163
-437.749	146.379	0.156	0.210
-436.734	292.931	0.095	-0.173
-435.719	-34.234	-0.245	0.134
-434.705	-153.570	-0.219	-0.015
-433.690	272.470	-0.145	-0.257
-432.676	-0.670	0.344	0.244
-431.661	8.608	-0.347	0.261
-430.646	-19.378	-0.225	-0.140
-429.632	418.974	-0.139	-0.298
-428.617	-3.132	-0.082	-0.057
-427.603	-171.071	-0.264	0.009
-426.588	182.533	-0.123	-0.181
-425.573	-200.000	0.006	0.150
-424.559	168.636	0.100	0.143
-423.544	-56.942	0.057	-0.025
-422.530	-179.870	0.096	-0.002
-421.515	64.685	-0.142	0.143
-420.500	87.103	0.177	-0.195
-419.486	-30.483	0.109	0.062
-418.471	660.146	0.039	0.099
-417.457	276.505	0.150	-0.266
-416.442	-76.463	-0.223	-0.078
-415.428	235.632	-0.038	-0.062
-414.413	-200.000	0.003	0.362
-413.398	83.166	-0.110	0.119
-412.384	286.822	-0.076	-0.137
-411.369	-133.989	0.392	-0.048
-410.355	800.000	0.054	0.211
-409.340	-200.000	-0.006	0.108
-408.325	-200.000	-0.054	0.275
-407.311	800.000	0.106	0.297
-406.296	41.086	-0.224	0.202
-405.282	317.878	-0.174	0.328
-404.267	237.434	-0.071	0.117
-403.252	-200.000	0.016	0.284
-402.238	-200.000	-0.004	-0.213
-401.223	157.790	-0.119	-0.165
-400.209	-102.641	-0.108	-0.026
-399.194	155.208	0.033	0.046
-398.179	461.477	-0.089	0.198
-397.165	-200.000	-0.023	-0.195
-396.150	605.891	0.095	0.236
-395.136	-159.632	-0.090	-0.005
-394.121	-104.386	0.159	0.037
-393.106	-120.726	-0.134	-0.023
-392.092	-103.272	0.207	-0.049
-391.077	-200.000	0.067	-0.375
-390.063	626.551	-0.095	0.239
-389.048	159.149	0.141	-0.195
-388.033	-200.000	0.024	0.157
-387.019	-53.419	-0.291	0.133
-386.004	-200.000	-0.017	-0.138
-384.990	173.623	-0.093	0.134
-383.975	-200.000	-0.037	-0.178
-382.960	138.679	0.220	-0.289
-381.946	-52.903	-0.289	0.133
-380.931	210.311	0.111	0.174
-379.917	-200.000	-0.016	0.074
-378.902	94.407	-0.047	0.053
-377.888	2.095	0.120	0.087
-376.873	800.000	0.041	0.169
-375.858	-200.000	-0.009	0.451
-374.844	800.000	-0.034	-0.144
-373.829	104.831	-0.089	-0.105
-372.815	180.534	-0.209	0.306
-371.800	35.620	-0.109	0.096
-370.785	-113.884	0.422	0.082
-369.771	76.633	-0.342	0.361
-368.756	15.232	-0.189	-0.148
-367.742	-200.000	0.011	-0.191
-366.727	120.237	0.347	0.429
-365.712	112.316	-0.037	0.045
-364.698	326.654	0.179	0.342
-363.683	400.199	0.118	-0.247
-362.669	-200.000	0.026	-0.274
-361.654	10.414	0.076	0.058
-360.639	-24.896	0.206	0.122
-359.625	-117.132	0.165	0.030
-358.610	-175.387	0.035	0.001
-357.596	-180.154	-0.309	-0.007
-356.581	-69.341	-0.280	-0.107
-355.566	800.000	-0.073	0.300
-354.552	-130.629	0.184	0.025
-353.537	-88.101	-0.162	0.048
-352.523	-200.000	0.052	0.409
-351.508	-102.171	-0.215	-0.052
-350.493	800.000	-0.066	0.267
-349.479	10.803	-0.234	-0.178
-348.464	735.501	0.098	-0.263
-347.450	176.145	-0.052	-0.075
-346.435	-200.000	0.009	0.191
-345.420	316.269	-0.020	0.038
-344.406	-200.000	-0.020	-0.256
-343.391	-0.012	0.233	0.165
-342.377	74.429	-0.134	0.141
-341.362	-2.773	-0.166	-0.116
-340.348	-200.000	0.023	-0.209
-339.333	-29.925	-0.223	0.126
-338.318	-200.000	0.041	0.198
-337.304	-121.914	-0.188	0.031
-336.289	65.941	-0.110	0.111
-335.275	-15.729	-0.249	-0.158
-334.260	-84.734	-0.035	0.011
-333.245	-64.126	-0.273	-0.111
-332.231	400.828	-0.104	-0.217
-331.216	428.445	0.055	-0.118
-330.202	-52.536	-0.115	-0.053
-329.187	-73.510	0.260	0.094
-328.172	-200.000	-0.004	-0.060
-327.158	-69.397	0.079	-0.030
-326.143	800.000	-0.014	-0.038
-325.129	664.558	0.049	0.126
-324.114	-20.333	-0.153	0.094
-323.099	-17.475	0.247	-0.154
-322.085	-144.577	0.065	0.006
-321.070	-42.142	-0.076	-0.039
-320.056	-65.863	0.169	0.067
-319.041	45.435	0.199	0.183
-318.026	800.000	-0.037	-0.160
-317.012	-114.702	0.122	-0.023
-315.997	800.000	-0.068	0.217
-314.983	16.528	0.057	0.045
-313.968	-200.000	-0.005	0.231
-312.953	137.355	-0.036	0.046
-311.939	14.290	0.141	-0.110
-310.924	-48.634	0.298	0.143
-309.910	-47.712	-0.307	0.148
-308.895	-87.451	0.145	-0.044
-307.880	-188.675	-0.104	-0.001
-306.866	-200.000	-0.004	-0.206
-305.851	-200.000	-0.021	0.104
-304.837	-72.808	-0.112	-0.041
-303.822	-60.287	-0.209	-0.089
-302.807	-102.003	-0.160	0.038
-301.793	76.252	0.092	0.097
-300.778	-200.000	0.017	0.091
-299.764	136.941	0.186	0.242
-298.749	-80.888	-0.275	-0.091
-297.735	-96.532	-0.275	0.072
-296.720	60.471	-0.073	-0.072
-295.705	800.000	-0.038	-0.109
-294.691	-115.377	0.388	0.073
-293.676	-134.625	0.250	0.030
-292.662	-166.662	-0.605	0.025
-291.647	-200.000	0.007	0.098
-290.632	410.632	0.167	0.352
-289.618	54.473	0.070	-0.067
-288.603	-53.840	-0.391	0.177
-287.589	142.475	-0.165	0.217
-286.574	179.670	-0.095	-0.138
-285.559	55.271	-0.272	0.261
-284.545	-40.533	-0.147	-0.076
-283.530	-117.063	0.177	-0.032
-282.516	387.908	-0.073	0.149
-281.501	-78.730	-0.302	0.102
-280.486	-200.000	0.002	0.262
-279.472	-138.139	0.142	-0.016
-278.457	379.246	-0.019	-0.039
-277.443	-200.000	-0.007	0.088
-276.428	-132.656	-0.285	-0.036
-275.413	-39.878	-0.130	0.067
-274.399	-32.872	-0.082	-0.045
-273.384	-109.612	0.368	-0.077
-272.370	285.027	0.083	0.148
-271.355	-200.000	-0.005	0.264
-270.340	-153.116	-0.123	-0.009
-269.326	460.761	-0.012	0.027
-268.311	214.328	0.195	0.306
-267.297	69.679	0.226	-0.231
-266.282	352.308	0.074	0.146
-265.267	167.636	-0.034	-0.048
-264.253	40.673	0.085	-0.076
-263.238	-128.352	-0.303	0.043
-262.224	-12.420	0.060	-0.039
-261.209	-30.541	-0.115	0.064
-260.195	-7.406	0.092	-0.062
-259.180	-200.000	-0.005	0.064
-258.165	-87.544	-0.137	0.041
-257.151	35.117	0.256	-0.222
-256.136	-157.812	0.174	-0.010
-255.122	123.111	0.304	-0.377
-254.107	22.474	-0.315	-0.255
-253.092	550.638	-0.065	-0.154
-252.078	-113.356	-0.124	0.024
-251.063	-200.000	0.000	0.128
-250.049	136.652	-0.083	0.108
-249.034	-2.686	0.098	0.068
-248.019	-200.000	0.034	0.159
-247.005	87.029	0.136	0.149
-245.990	225.310	-0.109	-0.176
-244.976	461.871	-0.055	0.122
-243.961	-60.794	0.114	-0.048
-242.946	-49.920	0.031	-0.015
-241.932	-97.735	0.287	-0.074
-240.917	800.000	0.134	-0.372
-239.903	212.011	0.073	-0.115
-238.888	24.944	0.291	-0.239
-237.873	800.000	-0.071	0.209
-236.859	-118.571	-0.175	0.031
-235.844	-10.489	0.212	-0.139
-234.830	411.334	-0.082	0.173
-233.815	-200.000	-0.011	-0.172
-232.800	192.114	0.170	0.255
-231.786	16.868	-0.211	0.166
-230.771	44.251	-0.346	-0.315
-229.757	30.363	0.170	-0.144
-228.742	148.391	-0.112	-0.150
-227.727	5.766	0.044	0.032
-226.713	-31.737	0.445	0.248
-225.698	-20.616	0.137	0.084
-224.684	26.198	-0.066	0.055
-223.669	-171.184	0.257	-0.009
-222.655	-88.057	0.075	0.022
-221.640	800.000	0.038	-0.144
-220.625	136.525	0.080	0.104
-219.611	-200.000	0.006	-0.053
-218.596	88.103	-0.072	-0.079
-217.582	-200.000	-0.061	-0.362
-216.567	276.064	-0.093	-0.163
-215.552	142.281	-0.179	0.235
-214.538	-200.000	0.054	-0.320
-213.523	281.922	0.102	0.181
-212.509	-162.582	-0.102	0.005
-211.494	1.721	0.220	-0.157
-210.479	352.530	0.110	0.216
-209.465	-200.000	-0.003	0.126
-208.450	-20.994	-0.312	0.189
-207.436	-123.456	0.309	-0.049
-206.421	-104.932	-0.193	-0.044
-205.406	184.898	0.243	0.356
-204.392	-200.000	0.003	0.039
-203.377	306.783	-0.141	0.260
-202.363	93.791	0.013	-0.015
-201.348	284.510	0.183	-0.326
-200.333	114.006	0.208	0.250
-199.319	-140.385	0.295	0.030
-198.304	-81.240	-0.233	-0.076
-197.290	-17.986	0.052	0.033
-196.275	-58.349	-0.090	-0.039
-195.260	-200.000	0.046	-0.321
-194.246	-169.605	-0.382	-0.014
-193.231	380.077	-0.193	0.391
-192.217	448.604	-0.121	0.264
-191.202	-40.954	-0.069	-0.035
-190.187	184.679	-0.148	-0.217
-189.173	-38.071	0.107	-0.056
-188.158	175.430	-0.257	-0.369
-187.144	249.366	-0.319	-0.535
-186.129	-31.233	-0.207	-0.116
-185.114	58.892	-0.096	0.093
-184.100	-176.014	-0.054	-0.001
-183.085	800.000	-0.057	-0.197
-182.071	-33.091	0.121	-0.067
-181.056	-130.438	0.100	0.013
-180.042	-149.759	0.265	-0.021
-179.027	42.247	-0.220	-0.198
-178.012	263.007	0.149	-0.256
-176.998	800.000	-0.092	-0.297
-175.983	-200.000	-0.008	-0.085
-174.969	-146.005	0.068	0.006
-173.954	-200.000	0.001	-0.012
-172.939	-200.000	-0.048	-0.223
-171.925	-131.748	0.361	0.047
-170.910	-66.353	-0.086	-0.034
-169.896	660.456	0.094	-0.239
-168.881	40.153	0.114	-0.102
-167.866	-160.538	-0.462	-0.024
-166.852	229.716	-0.352	0.569
-165.837	-0.121	0.263	0.185
-164.823	262.274	0.156	0.268
-163.808	275.270	0.053	0.093
-162.793	64.053	-0.202	0.201
-161.779	-200.000	-0.058	0.420
-160.764	-200.000	0.112	-0.554
-159.750	-32.840	0.093	-0.051
-158.735	-93.372	0.211	-0.058
-157.720	-15.815	-0.309	0.194
-156.706	31.659	0.239	0.203
-155.691	-200.000	-0.094	0.412
-154.677	-98.971	-0.240	0.060
-153.662	-169.690	-0.231	-0.008
-152.647	-200.000	-0.008	-0.169
-151.633	51.419	-0.215	-0.202
-150.618	73.737	-0.134	-0.138
-149.604	6.826	-0.209	0.154
-148.589	645.412	0.037	-0.094
-147.574	-200.000	-0.045	-0.247
-146.560	-27.904	0.343	0.196
-145.545	250.367	0.074	-0.123
-144.531	-150.634	-0.210	-0.016
-143.516	-143.726	0.316	-0.030
-142.502	18.884	0.121	-0.095
-141.487	234.301	-0.046	-0.075
-140.472	34.660	0.225	0.194
-139.458	115.653	0.213	0.257
-138.443	-200.000	-0.042	-0.184
-137.429	800.000	-0.051	-0.144
-136.414	-200.000	0.033	-0.300
-135.399	461.426	-0.072	0.158
-134.385	-151.170	0.119	0.009
-133.370	-200.000	-0.000	-0.026
-132.356	-43.192	0.128	0.064
-131.341	280.538	-0.073	-0.129
-130.326	488.568	0.048	-0.108
-129.312	-142.640	-0.400	0.039
-128.297	587.001	-0.062	-0.151
-127.283	-200.000	0.041	-0.270
-126.268	-109.029	0.217	-0.046
-125.253	800.000	0.034	-0.134
-124.239	-115.908	-0.506	0.093
-123.224	-200.000	0.004	0.344
