DTS Sentinel unit serial number:	SN413079Multiplexer serial number:	ORYXHardware model number:	OX4-SRSoftware version number:	ORYX F/W v4.00 Oryx Data Collector v3.7.2.0data status	okinstallation	princeton_trtdifferential loss correction	single-endedforward channel	channel 3reverse channel	N/Adate	2019/09/14time	22:28:35forward acquisition time	60.00reverse acquisition time	0.00gamma	496.2192k internal	0.2318k external	0.2318temperature offset calibration	0.9992default loss term (dB/km)	0.3790temperature slope calibration	1.0000multiplexer offset coefficient	1.0000multiplexer slope coefficient	1.0000fibre end	0.00T internal ref (°C)	32.56T ext. ref 1 (°C)	4.68T ext. ref 2 (°C)	27.53length (m)	temperature (°C)	Stokes	anti-Stokes-747.200	-82.709	-0.243	-0.080
-746.185	-200.000	-0.007	0.090
-745.171	-29.679	-0.251	-0.145
-744.156	-98.116	0.154	0.040
-743.142	753.609	0.030	0.082
-742.127	-59.855	-0.152	0.066
-741.112	181.212	0.156	0.232
-740.098	-200.000	0.004	0.404
-739.083	201.880	0.155	0.242
-738.069	-200.000	0.030	0.206
-737.054	800.000	0.088	-0.260
-736.039	-70.007	-0.152	-0.059
-735.025	85.482	-0.052	-0.058
-734.010	-21.342	-0.155	-0.096
-732.996	7.381	-0.195	-0.148
-731.981	-200.000	0.035	-0.262
-730.966	-42.663	0.158	-0.081
-729.952	96.044	-0.114	-0.131
-728.937	185.583	0.156	-0.234
-727.923	752.072	-0.062	-0.170
-726.908	47.762	-0.265	-0.251
-725.894	239.956	0.054	0.091
-724.879	-34.158	0.210	0.117
-723.864	-29.758	0.144	0.083
-722.850	30.535	-0.052	0.045
-721.835	417.945	-0.044	-0.094
-720.821	-100.387	-0.378	-0.095
-719.806	-12.067	-0.182	-0.121
-718.791	-200.000	0.012	0.242
-717.777	-200.000	-0.029	-0.228
-716.762	72.566	-0.107	0.113
-715.748	-63.376	-0.283	-0.118
-714.733	-200.000	0.022	-0.182
-713.718	64.685	0.070	-0.072
-712.704	-177.573	0.176	0.004
-711.689	-200.000	-0.007	0.062
-710.675	-93.896	0.375	-0.104
-709.660	-200.000	0.041	-0.245
-708.645	800.000	-0.107	-0.300
-707.631	417.188	0.156	-0.337
-706.616	-133.752	-0.324	0.041
-705.602	-123.478	-0.340	0.055
-704.587	227.116	0.037	-0.061
-703.572	-82.832	0.220	0.072
-702.558	64.516	0.283	0.288
-701.543	-5.582	-0.164	0.114
-700.529	113.713	0.153	-0.188
-699.514	-86.403	-0.171	0.053
-698.499	-104.276	0.211	-0.050
-697.485	-200.000	-0.051	0.362
-696.470	234.800	0.046	0.076
-695.456	-200.000	0.003	0.227
-694.441	-160.584	0.063	-0.003
-693.426	-69.458	-0.212	-0.082
-692.412	-200.000	-0.004	0.308
-691.397	-120.912	-0.230	0.039
-690.383	-3.801	0.341	-0.239
-689.368	204.654	0.198	-0.310
-688.354	158.766	0.203	-0.285
-687.339	-146.575	0.301	0.026
-686.324	456.143	0.021	-0.048
-685.310	35.250	-0.217	-0.192
-684.295	195.056	-0.131	-0.201
-683.281	-74.189	-0.343	-0.125
-682.266	500.411	-0.084	0.195
-681.251	-54.955	0.524	0.239
-680.237	-145.213	0.136	-0.012
-679.222	-200.000	0.070	-0.313
-678.208	-144.552	-0.075	0.007
-677.193	188.733	0.216	-0.327
-676.178	19.300	-0.103	-0.084
-675.164	-193.379	0.250	0.002
-674.149	-16.420	-0.110	-0.070
-673.135	55.811	0.129	-0.126
-672.120	426.151	-0.118	-0.257
-671.105	144.651	-0.164	-0.221
-670.091	159.593	0.113	-0.159
-669.076	102.353	-0.160	-0.189
-668.062	7.997	0.182	-0.138
-667.047	-102.842	-0.351	0.084
-666.032	140.646	0.022	-0.029
-665.018	-84.485	-0.170	0.054
-664.003	-102.762	-0.229	0.055
-662.989	-165.597	0.312	-0.014
-661.974	-57.425	0.337	-0.149
-660.959	-200.000	0.023	0.581
-659.945	-31.346	0.245	0.139
-658.930	-88.269	0.362	-0.109
-657.916	42.872	0.327	0.301
-656.901	-179.138	0.067	-0.002
-655.886	109.805	0.113	0.136
-654.872	66.809	-0.146	-0.150
-653.857	30.301	0.122	-0.105
-652.843	-164.211	-0.192	-0.009
-651.828	-130.696	0.296	-0.040
-650.814	532.244	-0.058	0.139
-649.799	257.414	-0.133	-0.231
-648.784	74.641	0.049	0.051
-647.770	800.000	-0.202	-0.582
-646.755	800.000	-0.011	-0.039
-645.741	97.354	-0.190	-0.220
-644.726	-63.190	0.199	0.083
-643.711	4.128	-0.235	0.174
-642.697	232.306	0.102	0.169
-641.682	-178.685	-0.406	0.009
-640.668	-16.422	-0.135	0.086
-639.653	178.003	0.134	-0.198
-638.638	25.138	0.136	-0.114
-637.624	238.871	-0.059	0.099
-636.609	73.920	0.119	0.126
-635.595	800.000	-0.003	0.014
-634.580	-200.000	0.045	0.292
-633.565	-200.000	-0.021	0.111
-632.551	71.131	-0.054	-0.056
-631.536	-200.000	-0.059	-0.317
-630.522	113.041	-0.134	0.164
-629.507	105.310	0.073	0.087
-628.492	19.631	-0.019	0.015
-627.478	-176.200	-0.310	0.008
-626.463	-59.812	-0.027	0.012
-625.449	-68.874	0.108	-0.042
-624.434	241.480	-0.053	0.088
-623.419	-178.166	-0.438	0.010
-622.405	-139.453	-0.213	0.023
-621.390	-200.000	-0.015	-0.175
-620.376	184.722	0.015	-0.023
-619.361	284.182	0.140	0.254
-618.346	-200.000	-0.009	0.098
-617.332	599.998	0.050	-0.125
-616.317	293.465	-0.075	-0.138
-615.303	-200.000	-0.080	0.439
-614.288	-15.276	-0.192	0.124
-613.273	37.755	0.215	-0.193
-612.259	-200.000	-0.009	-0.401
-611.244	41.150	-0.123	-0.112
-610.230	-73.005	0.077	-0.029
-609.215	-82.001	0.266	0.087
-608.201	532.823	0.062	0.149
-607.186	123.230	-0.071	0.090
-606.171	-200.000	0.064	-0.323
-605.157	-39.984	-0.298	-0.157
-604.142	90.266	-0.118	0.133
-603.128	227.073	-0.066	-0.108
-602.113	1.756	0.123	-0.089
-601.098	-200.000	0.030	-0.154
-600.084	-200.000	0.018	0.206
-599.069	437.900	-0.217	0.475
-598.055	-102.772	-0.147	-0.035
-597.040	-49.203	-0.098	-0.047
-596.025	327.832	-0.131	0.254
-595.011	108.662	-0.221	-0.265
-593.996	39.039	-0.274	-0.247
-592.982	-152.358	-0.131	0.010
-591.967	-141.088	0.155	-0.016
-590.952	-200.000	0.040	0.405
-589.938	131.383	0.171	-0.220
-588.923	800.000	0.067	-0.210
-587.909	-62.431	0.098	0.041
-586.894	-124.397	-0.122	0.019
-585.879	63.592	-0.119	0.120
-584.865	165.145	-0.154	0.219
-583.850	800.000	0.079	-0.264
-582.836	-80.831	-0.077	0.026
-581.821	160.338	0.199	-0.279
-580.806	329.756	0.078	0.150
-579.792	28.185	-0.183	-0.155
-578.777	800.000	-0.051	0.209
-577.763	-55.761	-0.244	0.110
-576.748	-103.953	0.269	-0.063
-575.733	-200.000	0.009	-0.190
-574.719	-199.771	-0.286	-0.001
-573.704	-130.226	-0.401	0.055
-572.690	800.000	0.080	-0.278
-571.675	-92.869	0.247	-0.070
-570.661	-200.000	0.045	0.255
-569.646	220.451	-0.104	-0.167
-568.631	425.113	-0.050	-0.108
-567.617	-129.810	0.250	0.035
-566.602	-133.988	-0.086	0.011
-565.588	55.961	0.164	-0.160
-564.573	-124.201	0.259	-0.041
-563.558	-116.269	0.114	-0.021
-562.544	-2.650	0.224	0.158
-561.529	-188.082	-0.141	-0.002
-560.515	-57.041	-0.166	0.074
-559.500	46.598	-0.244	-0.228
-558.485	-16.119	-0.129	0.082
-557.471	-200.000	-0.036	-0.340
-556.456	204.488	-0.133	0.207
-555.442	10.214	-0.275	-0.210
-554.427	3.382	-0.256	0.187
-553.412	-29.675	0.403	0.231
-552.398	-200.000	0.003	0.249
-551.383	-200.000	-0.019	0.252
-550.369	-65.462	-0.320	0.129
-549.354	-102.021	0.167	-0.041
-548.339	800.000	-0.069	-0.265
-547.325	88.436	-0.158	-0.177
-546.310	14.771	0.212	0.167
-545.296	-61.067	-0.209	0.089
-544.281	-88.038	0.257	-0.078
-543.266	800.000	0.070	-0.299
-542.252	-97.326	-0.205	-0.054
-541.237	-160.729	0.334	0.018
-540.223	-23.199	0.039	-0.023
-539.208	35.832	0.149	-0.132
-538.193	-200.000	-0.040	0.233
-537.179	-142.150	-0.070	-0.007
-536.164	800.000	-0.027	-0.081
-535.150	-126.427	0.565	0.084
-534.135	800.000	-0.022	-0.065
-533.121	-200.000	-0.020	-0.241
-532.106	-120.268	-0.272	0.047
-531.091	798.600	0.030	-0.083
-530.077	-126.019	0.147	0.022
-529.062	94.590	-0.075	0.085
-528.048	549.024	-0.111	0.267
-527.033	213.644	0.122	0.194
-526.018	-124.062	-0.284	0.045
-525.004	-126.088	0.252	0.038
-523.989	-54.393	0.134	-0.061
-522.975	84.787	0.125	-0.137
-521.960	-182.046	-0.414	-0.008
-520.945	81.477	0.146	-0.158
-519.931	-40.986	-0.131	-0.068
-518.916	157.674	-0.134	0.186
-517.902	-148.855	-0.339	0.027
-516.887	-152.485	0.064	0.005
-515.872	-2.408	0.253	0.178
-514.858	67.813	-0.145	0.148
-513.843	800.000	-0.055	-0.162
-512.829	468.309	0.131	-0.294
-511.814	-128.465	0.412	-0.059
-510.799	-135.265	0.138	0.017
-509.785	59.250	0.206	-0.203
-508.770	-17.067	0.322	-0.204
-507.756	-65.811	0.415	-0.167
-506.741	265.010	0.088	0.153
-505.726	-20.164	-0.211	-0.131
-504.712	49.427	-0.170	-0.160
-503.697	417.426	0.060	0.128
-502.683	-200.000	0.016	0.235
-501.668	-147.899	-0.339	-0.028
-500.653	-44.648	-0.272	0.136
-499.639	-200.000	-0.028	-0.167
-498.624	-76.474	0.208	-0.073
-497.610	572.789	0.023	0.056
-496.595	-91.121	-0.109	-0.031
-495.581	-63.494	-0.096	0.040
-494.566	-45.821	0.127	-0.063
-493.551	476.613	0.093	-0.211
-492.537	-200.000	-0.031	0.200
-491.522	-170.256	0.365	-0.013
-490.508	-200.000	-0.070	0.320
-489.493	-118.274	-0.109	-0.019
-488.478	38.845	-0.290	0.259
-487.464	-140.168	0.180	-0.019
-486.449	423.863	-0.071	-0.154
-485.435	-77.059	0.117	-0.041
-484.420	-200.000	0.008	0.074
-483.405	-71.515	0.153	0.057
-482.391	-150.678	-0.378	-0.029
-481.376	385.461	-0.078	0.160
-480.362	-57.562	0.104	0.046
-479.347	-200.000	-0.082	-0.541
-478.332	199.228	0.158	-0.243
-477.318	182.289	0.187	0.276
-476.303	89.939	-0.345	-0.386
-475.289	318.579	-0.086	-0.164
-474.274	-49.908	-0.161	-0.076
-473.259	-200.000	-0.021	-0.184
-472.245	464.571	0.043	0.096
-471.230	800.000	-0.037	0.133
-470.216	136.396	0.121	0.158
-469.201	437.969	0.082	0.178
-468.186	498.942	-0.089	-0.205
-467.172	800.000	0.023	0.080
-466.157	311.289	0.015	-0.029
-465.143	41.148	-0.212	0.192
-464.128	800.000	0.027	-0.109
-463.113	486.753	0.088	-0.201
-462.099	-130.775	0.114	-0.015
-461.084	7.079	-0.131	0.098
-460.070	783.964	0.082	-0.226
-459.055	180.674	-0.015	0.022
-458.040	-152.648	0.405	0.029
-457.026	-3.770	0.455	-0.316
-456.011	106.661	-0.079	-0.094
-454.997	639.494	-0.035	0.088
-453.982	-104.321	0.132	-0.031
-452.968	283.436	0.118	-0.213
-451.953	427.709	0.148	-0.320
-450.938	59.044	0.264	0.260
-449.924	-200.000	-0.017	0.118
-448.909	311.590	0.112	0.209
-447.895	-200.000	-0.046	0.300
-446.880	37.253	-0.095	0.084
-445.865	79.246	0.146	0.156
-444.851	800.000	-0.061	-0.169
-443.836	-186.076	-0.382	0.006
-442.822	57.667	0.201	0.197
-441.807	-200.000	0.038	-0.196
-440.792	194.002	0.126	-0.190
-439.778	36.217	-0.060	0.053
-438.763	-8.190	-0.108	-0.073
-437.749	191.220	0.217	0.327
-436.734	33.871	-0.239	-0.208
-435.719	-9.916	0.073	-0.049
-434.705	134.981	0.177	-0.229
-433.690	-132.503	0.284	0.036
-432.676	69.936	-0.156	-0.161
-431.661	-168.083	0.054	-0.002
-430.646	-120.621	0.151	0.026
-429.632	0.427	0.250	-0.179
-428.617	-191.587	0.324	-0.003
-427.603	13.640	0.184	-0.143
-426.588	-200.000	0.059	0.380
-425.573	-200.000	0.058	0.380
-424.559	-200.000	-0.049	-0.216
-423.544	-121.169	-0.382	-0.064
-422.530	554.480	0.097	-0.233
-421.515	138.588	-0.083	0.109
-420.500	-200.000	0.067	0.346
-419.486	191.458	-0.116	0.175
-418.471	-128.953	0.285	-0.040
-417.457	109.142	-0.240	-0.287
-416.442	42.228	0.132	0.120
-415.428	543.365	-0.077	0.184
-414.413	-82.550	-0.251	0.081
-413.398	19.651	0.047	-0.038
-412.384	800.000	0.071	0.231
-411.369	363.544	-0.149	0.298
-410.355	190.848	-0.033	0.049
-409.340	1.319	0.268	-0.192
-408.325	-200.000	0.042	0.222
-407.311	339.561	0.038	-0.075
-406.296	8.592	-0.091	-0.068
-405.282	-76.480	-0.116	0.041
-404.267	54.669	-0.095	0.091
-403.252	-47.044	0.333	0.162
-402.238	338.059	0.025	-0.048
-401.223	-99.857	0.259	-0.065
-400.209	-200.000	-0.032	0.184
-399.194	186.559	0.179	-0.266
-398.179	22.868	-0.291	-0.238
-397.165	-144.419	0.214	0.020
-396.150	800.000	-0.082	-0.243
-395.136	370.088	0.154	-0.312
-394.121	800.000	0.034	-0.114
-393.106	-143.986	0.094	-0.009
-392.092	-200.000	-0.014	0.116
-391.077	164.782	-0.210	0.296
-390.063	-39.117	-0.050	-0.026
-389.048	27.900	-0.132	0.111
-388.033	-200.000	-0.001	0.096
-387.019	-154.855	-0.104	-0.007
-386.004	-17.549	0.265	0.166
-384.990	-84.193	0.224	0.071
-383.975	-84.639	0.151	0.047
-382.960	414.520	-0.073	-0.155
-381.946	-36.796	-0.245	0.131
-380.931	-73.166	-0.118	0.043
-379.917	-119.041	0.099	0.017
-378.902	245.621	0.061	-0.102
-377.888	602.645	0.055	0.137
-376.873	-200.000	0.011	0.073
-375.858	549.901	0.088	0.211
-374.844	405.518	-0.167	-0.352
-373.829	-200.000	-0.021	-0.111
-372.815	-200.000	-0.023	0.259
-371.800	81.094	0.142	-0.153
-370.785	-133.450	0.092	0.012
-369.771	142.140	0.073	-0.096
-368.756	629.839	-0.091	-0.229
-367.742	93.786	0.366	-0.413
-366.727	439.642	-0.026	0.058
-365.712	80.957	0.087	-0.094
-364.698	-106.608	0.146	0.032
-363.683	-53.680	-0.440	0.201
-362.669	123.773	-0.077	0.096
-361.654	-144.890	0.127	0.012
-360.639	-115.145	-0.266	-0.050
-359.625	21.326	-0.032	-0.026
-358.610	-73.106	-0.191	0.070
-357.596	-95.125	0.167	0.045
-356.581	-200.000	-0.019	-0.102
-355.566	-97.566	-0.159	-0.041
-354.552	153.824	-0.125	-0.170
-353.537	-156.154	0.109	0.007
-352.523	14.384	-0.177	-0.137
-351.508	-84.719	0.150	-0.047
-350.493	800.000	-0.020	0.077
-349.479	800.000	0.048	-0.184
-348.464	-55.367	-0.250	-0.112
-347.450	-30.763	-0.252	-0.142
-346.435	800.000	0.027	0.077
-345.420	121.178	-0.220	0.273
-344.406	-200.000	0.016	-0.213
-343.391	-57.255	-0.144	-0.063
-342.377	-10.372	-0.189	-0.125
-341.362	-24.389	0.090	0.053
-340.348	125.845	-0.227	0.286
-339.333	-169.621	0.422	-0.015
-338.318	800.000	-0.098	0.372
-337.304	-18.530	-0.152	0.094
-336.289	91.450	0.112	0.125
-335.275	-114.645	-0.174	-0.033
-334.260	153.139	0.135	0.184
-333.245	-107.389	0.280	0.061
-332.231	37.310	-0.111	-0.098
-331.216	800.000	0.058	0.229
-330.202	-170.974	0.110	-0.004
-329.187	402.385	0.188	-0.392
-328.172	-23.085	0.322	-0.193
-327.158	-85.176	-0.544	-0.169
-326.143	30.339	-0.151	-0.128
-325.129	122.650	0.116	0.145
-324.114	800.000	-0.060	-0.239
-323.099	-79.383	-0.287	-0.097
-322.085	-95.566	0.215	0.057
-321.070	-47.468	0.182	-0.088
-320.056	-20.775	0.192	0.117
-319.041	609.669	0.039	-0.096
-318.026	-180.129	0.347	-0.007
-317.012	-119.295	-0.097	-0.017
-315.997	781.010	0.082	0.222
-314.983	-200.000	-0.009	-0.065
-313.968	-200.000	0.014	0.286
-312.953	-120.405	-0.350	-0.059
-311.939	340.967	0.062	-0.121
-310.924	-200.000	-0.329	-0.001
-309.910	-16.917	0.033	0.021
-308.895	-200.000	0.016	-0.258
-307.880	157.964	0.070	0.097
-306.866	-41.368	-0.196	-0.100
-305.851	-200.000	-0.008	-0.151
-304.837	800.000	0.105	-0.321
-303.822	-200.000	-0.052	0.492
-302.807	-64.835	-0.086	-0.035
-301.793	-92.701	-0.316	0.088
-300.778	-64.016	0.320	-0.130
-299.764	-200.000	-0.034	-0.290
-298.749	-74.862	-0.341	-0.122
-297.735	-116.359	-0.208	-0.038
-296.720	-133.266	0.047	-0.006
-295.705	664.291	-0.043	0.110
-294.691	280.355	-0.100	-0.178
-293.676	-146.666	0.181	-0.016
-292.662	800.000	0.083	-0.252
-291.647	17.805	-0.186	-0.147
-290.632	49.570	-0.153	-0.144
-289.618	309.509	0.152	0.282
-288.603	107.355	-0.276	0.327
-287.589	-144.747	0.225	-0.021
-286.574	800.000	-0.032	-0.121
-285.559	-78.304	0.191	0.065
-284.545	-16.686	0.156	0.098
-283.530	-97.591	-0.206	-0.053
-282.516	-25.783	0.064	0.038
-281.501	-200.000	-0.039	0.325
-280.486	296.441	-0.066	0.121
-279.472	-200.000	-0.005	-0.034
-278.457	-16.891	0.240	0.151
-277.443	619.290	0.080	0.199
-276.428	-25.128	-0.097	-0.057
-275.413	800.000	-0.024	-0.102
-274.399	-156.531	0.118	0.007
-273.384	-54.611	-0.108	0.049
-272.370	1.505	0.365	0.261
-271.355	-22.700	-0.229	0.138
-270.340	-178.774	0.185	0.004
-269.326	-200.000	-0.023	-0.152
-268.311	109.407	0.172	0.205
-267.297	800.000	0.053	-0.230
-266.282	474.014	-0.095	-0.212
-265.267	-122.271	-0.024	0.004
-264.253	-200.000	-0.035	0.255
-263.238	800.000	0.061	0.232
-262.224	800.000	0.055	-0.229
-261.209	-116.108	0.261	0.048
-260.195	57.347	0.153	-0.148
-259.180	-105.080	-0.369	-0.084
-258.165	19.809	0.208	0.167
-257.151	-200.000	-0.054	-0.242
-256.136	-200.000	-0.048	0.242
-255.122	332.076	0.124	-0.237
-254.107	569.899	-0.059	-0.142
-253.092	-33.455	0.145	0.080
-252.078	-174.674	-0.454	0.013
-251.063	-200.000	-0.019	0.288
-250.049	404.740	0.072	0.152
-249.034	41.519	-0.109	0.098
-248.019	-35.468	0.137	-0.074
-247.005	95.556	0.174	0.197
-245.990	593.168	-0.027	-0.067
-244.976	-12.529	0.161	-0.104
-243.961	-156.994	-0.315	-0.019
-242.946	88.800	-0.121	0.134
-241.932	-200.000	0.027	0.197
-240.917	-77.089	0.005	0.002
-239.903	45.194	-0.228	-0.209
-238.888	76.380	-0.179	0.188
-237.873	-200.000	0.005	-0.054
-236.859	2.318	-0.098	-0.070
-235.844	800.000	0.146	0.493
-234.830	53.363	0.155	0.147
-233.815	-141.812	0.150	0.015
-232.800	-186.187	-0.429	0.006
-231.786	-191.674	0.148	-0.001
-230.771	-74.777	-0.470	0.167
-229.757	800.000	0.069	-0.232
-228.742	34.535	0.085	-0.074
-227.727	156.490	0.037	-0.050
-226.713	22.850	0.093	-0.076
-225.698	-162.829	0.223	-0.011
-224.684	-200.000	0.068	0.528
-223.669	182.499	0.049	0.072
-222.655	-200.000	-0.020	-0.116
-221.640	74.449	0.306	0.319
-220.625	-23.046	0.090	-0.053
-219.611	-151.758	-0.233	0.017
-218.596	-52.001	-0.075	-0.034
-217.582	-163.896	0.058	0.003
-216.567	-18.252	-0.160	0.099
-215.552	13.747	0.109	-0.084
-214.538	800.000	-0.125	0.363
-213.523	800.000	0.081	0.276
-212.509	46.761	-0.311	-0.286
-211.494	-200.000	0.045	-0.000
-210.479	-39.526	0.467	0.242
-209.465	3.646	-0.108	-0.078
-208.450	137.497	-0.100	-0.130
-207.436	-35.667	0.335	-0.180
-206.421	-9.446	-0.091	0.060
-205.406	200.352	0.046	-0.071
-204.392	800.000	0.044	-0.161
-203.377	800.000	-0.023	-0.084
-202.363	217.027	-0.143	0.226
-201.348	-36.845	0.338	0.180
-200.333	-200.000	-0.016	0.119
-199.319	328.689	0.173	-0.329
-198.304	457.850	0.137	-0.302
-197.290	-108.259	0.200	0.043
-196.275	-128.430	0.254	-0.036
-195.260	271.805	0.070	0.122
-194.246	266.033	-0.046	0.080
-193.231	-200.000	0.009	0.115
-192.217	40.232	0.143	0.127
-191.202	16.834	-0.137	0.108
-190.187	-200.000	-0.004	-0.112
-189.173	40.323	-0.249	0.222
-188.158	186.328	-0.153	-0.226
-187.144	-200.000	-0.007	0.068
-186.129	800.000	0.116	-0.384
-185.114	800.000	-0.097	-0.322
-184.100	462.041	-0.018	0.040
-183.085	-5.142	0.303	0.206
-182.071	198.047	-0.053	0.080
-181.056	-124.643	0.194	0.030
-180.042	-200.000	0.013	-0.122
-179.027	-75.518	0.468	0.165
-178.012	-184.507	-0.205	-0.003
-176.998	-163.191	-0.130	-0.006
-175.983	-84.038	-0.146	0.046
-174.969	-44.473	-0.234	-0.116
-173.954	198.639	0.114	0.172
-172.939	12.411	-0.111	0.084
-171.925	-106.459	-0.271	-0.060
-170.910	192.822	0.205	0.306
-169.896	286.154	-0.052	-0.093
-168.881	-10.738	-0.186	-0.121
-167.866	285.039	0.054	-0.097
-166.852	-173.732	-0.374	0.011
-165.837	691.476	-0.059	-0.154
-164.823	34.358	0.122	-0.105
-163.808	394.103	0.068	0.141
-162.793	800.000	-0.007	0.020
-161.779	-200.000	0.038	0.416
-160.764	70.040	0.182	-0.186
-159.750	163.673	-0.119	-0.166
-158.735	-133.501	-0.249	-0.031
-157.720	-122.835	-0.093	0.015
-156.706	140.522	-0.113	0.147
-155.691	-200.000	0.034	0.306
-154.677	-90.801	0.228	-0.065
-153.662	362.402	0.104	-0.207
-152.647	96.398	0.232	0.262
-151.633	800.000	0.063	-0.180
-150.618	36.533	0.149	0.130
-149.604	0.601	0.267	0.189
-148.589	226.225	-0.104	0.167
-147.574	-95.542	0.461	-0.122
-146.560	800.000	-0.043	-0.166
-145.545	506.345	-0.055	0.126
-144.531	-200.000	0.005	0.025
-143.516	-22.943	-0.107	-0.064
-142.502	-200.000	-0.001	0.058
-141.487	456.621	0.157	0.345
-140.472	-156.379	-0.494	-0.031
-139.458	216.639	-0.068	-0.107
-138.443	249.625	-0.071	0.119
-137.429	407.539	0.072	-0.151
-136.414	-104.000	0.269	-0.062
-135.399	-78.311	0.343	0.116
-134.385	-18.174	0.068	0.042
-133.370	43.823	0.266	-0.241
-132.356	65.041	0.192	-0.192
-131.341	-200.000	0.008	-0.050
-130.326	119.513	-0.236	0.289
-129.312	33.946	0.175	0.151
-128.297	30.724	0.261	0.220
-127.283	-79.722	-0.161	0.054
-126.268	533.878	-0.139	0.325
-125.253	-133.838	0.313	-0.038
-124.239	248.678	0.112	0.186
-123.224	153.716	0.204	0.276
-122.210	800.000	0.124	-0.372
-121.195	107.638	-0.263	-0.309
