DTS Sentinel unit serial number:	SN413079Multiplexer serial number:	ORYXHardware model number:	OX4-SRSoftware version number:	ORYX F/W v4.00 Oryx Data Collector v3.7.2.0data status	okinstallation	princeton_trtdifferential loss correction	single-endedforward channel	channel 3reverse channel	N/Adate	2019/09/12time	11:06:10forward acquisition time	60.00reverse acquisition time	0.00gamma	496.2192k internal	0.2295k external	0.2295temperature offset calibration	1.0037default loss term (dB/km)	0.3790temperature slope calibration	1.0000multiplexer offset coefficient	1.0000multiplexer slope coefficient	1.0000fibre end	0.00T internal ref (°C)	38.62T ext. ref 1 (°C)	1.94T ext. ref 2 (°C)	35.74length (m)	temperature (°C)	Stokes	anti-Stokes-747.200	800.000	0.023	0.072
-746.185	800.000	0.123	0.407
-745.171	800.000	0.072	0.307
-744.156	-141.494	-0.179	-0.019
-743.142	69.714	-0.211	-0.222
-742.127	65.745	0.048	0.049
-741.112	-66.090	0.154	0.063
-740.098	-148.932	0.299	0.025
-739.083	-55.498	0.267	-0.122
-738.069	169.136	-0.162	-0.236
-737.054	-39.926	-0.242	0.129
-736.039	-200.000	0.012	0.233
-735.025	-102.341	0.212	0.052
-734.010	-129.769	-0.512	0.072
-732.996	-59.716	-0.106	-0.046
-731.981	71.474	-0.070	-0.074
-730.966	68.338	-0.010	0.011
-729.952	113.020	-0.091	-0.112
-728.937	-81.439	-0.549	0.185
-727.923	189.950	0.107	-0.164
-726.908	153.088	0.140	-0.196
-725.894	-200.000	0.028	-0.162
-724.879	-18.730	-0.419	0.267
-723.864	-10.456	-0.193	0.131
-722.850	82.975	-0.330	-0.367
-721.835	105.929	0.125	-0.151
-720.821	606.362	-0.003	-0.007
-719.806	44.860	-0.235	0.221
-718.791	-11.596	-0.058	-0.039
-717.777	-200.000	0.022	-0.159
-716.762	-58.805	-0.293	-0.130
-715.748	-124.717	0.263	-0.042
-714.733	199.577	-0.069	0.108
-713.718	-200.000	-0.057	0.292
-712.704	-119.293	0.127	0.023
-711.689	-70.986	-0.274	-0.105
-710.675	-200.000	0.001	0.316
-709.660	-46.408	0.086	0.043
-708.645	7.145	0.238	-0.181
-707.631	101.194	0.062	-0.073
-706.616	742.345	0.073	-0.201
-705.602	82.475	-0.187	-0.208
-704.587	9.844	-0.240	0.186
-703.572	372.571	0.088	-0.182
-702.558	35.243	0.151	0.135
-701.543	73.221	-0.094	-0.100
-700.529	164.039	0.070	0.101
-699.514	4.401	0.109	0.081
-698.499	-200.000	-0.078	-0.429
-697.485	136.287	-0.139	-0.185
-696.470	-200.000	-0.021	0.199
-695.456	-128.540	0.273	0.039
-694.441	176.874	-0.074	0.109
-693.426	85.738	-0.087	-0.098
-692.412	-130.047	-0.239	0.033
-691.397	-200.000	-0.001	-0.351
-690.383	280.973	-0.088	-0.160
-689.368	-200.000	0.001	-0.051
-688.354	-200.000	0.034	0.301
-687.339	-89.561	0.092	-0.028
-686.324	-200.000	-0.057	-0.272
-685.310	19.975	0.061	0.050
-684.295	-100.181	-0.445	-0.113
-683.281	-60.520	0.227	0.098
-682.266	589.026	0.032	-0.080
-681.251	-52.544	0.091	0.043
-680.237	-149.493	-0.124	-0.010
-679.222	138.313	0.101	0.135
-678.208	-200.000	-0.010	-0.287
-677.193	51.336	0.259	-0.251
-676.178	-12.644	0.318	0.211
-675.164	-81.938	-0.236	-0.079
-674.149	-77.741	-0.249	-0.088
-673.135	-39.129	0.063	0.034
-672.120	-104.253	-0.457	-0.108
-671.105	800.000	0.040	-0.140
-670.091	-57.367	-0.244	0.109
-669.076	-120.475	0.243	-0.042
-668.062	-28.139	-0.048	-0.029
-667.047	-200.000	0.034	0.180
-666.032	800.000	-0.026	-0.101
-665.018	-91.789	-0.324	0.094
-664.003	417.248	0.189	-0.411
-662.989	-104.703	-0.169	0.040
-661.974	173.990	-0.054	0.080
-660.959	-40.030	0.353	-0.188
-659.945	73.415	-0.230	-0.245
-658.930	146.312	-0.039	-0.054
-657.916	-200.000	0.005	-0.190
-656.901	-118.250	-0.443	0.080
-655.886	-78.022	0.226	0.079
-654.872	-72.332	-0.103	0.039
-653.857	-200.000	0.019	-0.255
-652.843	-200.000	-0.021	-0.136
-651.828	-19.513	-0.178	0.112
-650.814	-111.236	0.294	0.061
-649.799	-145.227	-0.152	0.014
-648.784	-164.361	-0.233	0.011
-647.770	-96.422	0.361	0.097
-646.755	-32.537	0.254	-0.144
-645.741	109.120	-0.118	0.144
-644.726	2.231	0.068	-0.050
-643.711	201.928	0.048	-0.075
-642.697	-186.060	-0.239	0.004
-641.682	59.654	0.092	-0.092
-640.668	92.647	0.311	-0.357
-639.653	441.650	-0.106	-0.237
-638.638	324.161	-0.073	-0.142
-637.624	-200.000	-0.058	-0.418
-636.609	-200.000	-0.036	-0.251
-635.595	479.476	0.114	-0.263
-634.580	416.532	0.094	0.204
-633.565	-25.073	-0.247	0.149
-632.551	-200.000	-0.012	-0.242
-631.536	800.000	-0.048	-0.192
-630.522	248.122	0.012	0.020
-629.507	-39.074	-0.066	-0.035
-628.492	-200.000	-0.008	0.328
-627.478	-6.329	0.206	0.143
-626.463	-200.000	-0.042	-0.196
-625.449	328.634	-0.145	-0.284
-624.434	-131.392	0.152	-0.020
-623.419	-112.733	-0.109	0.022
-622.405	42.795	-0.236	-0.219
-621.390	-184.985	0.123	-0.002
-620.376	-86.191	0.214	0.067
-619.361	-134.560	0.343	-0.043
-618.346	-132.232	-0.436	0.057
-617.332	296.283	-0.087	-0.162
-616.317	800.000	0.046	0.149
-615.303	-200.000	0.029	-0.263
-614.288	0.262	0.147	0.107
-613.273	111.073	0.135	0.165
-612.259	-36.475	-0.175	-0.096
-611.244	275.871	-0.167	-0.301
-610.230	-94.869	-0.364	-0.100
-609.215	283.571	0.149	-0.273
-608.201	88.050	-0.119	-0.134
-607.186	-144.121	-0.180	-0.017
-606.171	8.140	-0.235	-0.180
-605.157	-164.424	0.162	0.008
-604.142	-120.303	-0.111	-0.019
-603.128	-35.335	-0.126	0.070
-602.113	-98.541	-0.373	-0.097
-601.098	-148.234	-0.182	0.015
-600.084	43.172	0.108	0.100
-599.069	116.197	-0.065	-0.081
-598.055	-89.912	-0.302	-0.090
-597.040	800.000	-0.111	-0.367
-596.025	-194.619	0.146	-0.001
-595.011	-200.000	0.013	-0.082
-593.996	-121.412	0.089	0.015
-592.982	396.384	-0.066	-0.141
-591.967	45.429	-0.230	0.215
-590.952	-23.895	0.221	0.135
-589.938	-200.000	-0.006	0.365
-588.923	9.127	0.230	0.177
-587.909	88.849	0.073	-0.083
-586.894	517.492	-0.162	0.385
-585.879	-83.421	-0.176	-0.057
-584.865	-200.000	-0.007	-0.339
-583.850	134.365	-0.116	0.153
-582.836	-93.648	0.059	0.016
-581.821	-200.000	0.006	0.267
-580.806	-200.000	0.025	0.255
-579.792	-200.000	-0.061	-0.359
-578.777	754.420	0.073	-0.201
-577.763	594.599	0.152	-0.382
-576.748	-200.000	-0.032	0.292
-575.733	-104.817	0.324	0.076
-574.719	-131.486	0.301	0.040
-573.704	-144.501	-0.144	0.014
-572.690	-200.000	0.003	-0.039
-571.675	111.217	0.176	0.215
-570.661	-200.000	-0.023	-0.131
-569.646	-200.000	-0.037	-0.207
-568.631	187.824	-0.145	0.219
-567.617	410.640	-0.176	-0.378
-566.602	11.735	-0.242	-0.189
-565.588	-200.000	0.028	-0.264
-564.573	407.906	0.172	0.368
-563.558	71.220	-0.080	-0.085
-562.544	-113.923	-0.313	-0.062
-561.529	3.929	0.315	-0.234
-560.515	104.984	0.084	-0.101
-559.500	-200.000	0.022	0.101
-558.485	-87.772	0.258	0.079
-557.471	336.066	-0.133	-0.263
-556.456	-91.995	0.184	-0.053
-555.442	-58.691	-0.094	-0.041
-554.427	-200.000	-0.006	-0.198
-553.412	-165.012	-0.233	-0.011
-552.398	-132.453	0.224	0.029
-551.383	800.000	0.030	0.109
-550.369	-66.807	0.363	0.146
-549.354	-87.895	0.262	-0.080
-548.339	-95.713	0.262	0.071
-547.325	404.529	-0.214	-0.458
-546.310	74.448	0.064	-0.069
-545.296	-77.076	0.225	-0.080
-544.281	70.353	0.172	-0.180
-543.266	-48.207	-0.257	-0.126
-542.252	56.111	0.105	0.103
-541.237	251.104	-0.068	0.117
-540.223	340.057	-0.160	-0.316
-539.208	109.057	0.184	0.223
-538.193	-77.352	0.068	0.024
-537.179	42.166	-0.055	-0.051
-536.164	-107.893	-0.259	0.057
-535.150	468.224	-0.066	-0.151
-534.135	800.000	-0.073	-0.250
-533.121	192.477	-0.247	-0.378
-532.106	-66.286	0.292	0.118
-531.091	41.829	0.157	0.144
-530.077	-83.999	-0.136	0.044
-529.062	791.405	-0.029	0.081
-528.048	492.040	-0.095	0.220
-527.033	-48.491	0.118	0.058
-526.018	-200.000	0.012	-0.406
-525.004	-92.179	-0.331	0.095
-523.989	322.519	0.146	0.282
-522.975	140.368	-0.085	0.113
-521.960	-200.000	0.033	-0.283
-520.945	-200.000	-0.009	0.208
-519.931	-200.000	-0.021	0.122
-518.916	94.052	0.071	-0.081
-517.902	63.444	0.028	0.028
-516.887	362.232	0.017	0.035
-515.872	-58.133	-0.217	0.096
-514.858	-51.306	0.064	0.030
-513.843	-88.263	0.291	0.088
-512.829	14.618	0.203	-0.161
-511.814	41.353	0.172	-0.158
-510.799	-150.041	0.311	0.024
-509.785	515.594	-0.156	-0.369
-508.770	488.794	0.082	-0.189
-507.756	123.759	-0.041	-0.052
-506.741	-17.848	0.191	-0.121
-505.726	171.400	0.037	-0.054
-504.712	-73.771	0.272	0.100
-503.697	-39.132	0.183	-0.098
-502.683	130.806	-0.283	0.368
-501.668	-20.131	-0.035	0.022
-500.653	-87.426	-0.291	0.089
-499.639	100.761	-0.242	0.285
-498.624	329.829	0.087	-0.169
-497.610	508.214	0.096	-0.226
-496.595	14.472	0.157	-0.124
-495.581	800.000	0.046	-0.201
-494.566	-112.591	-0.331	-0.067
-493.551	-22.482	-0.107	-0.065
-492.537	761.436	0.111	-0.306
-491.522	-200.000	0.020	0.211
-490.508	-79.819	0.301	-0.103
-489.493	800.000	0.167	0.573
-488.478	791.609	-0.041	0.114
-487.464	800.000	0.073	-0.209
-486.449	-176.936	0.192	0.005
-485.435	-91.505	-0.627	0.181
-484.420	205.396	-0.104	-0.163
-483.405	-200.000	-0.078	-0.392
-482.391	800.000	0.084	-0.242
-481.376	-200.000	-0.015	-0.165
-480.362	-46.687	0.282	-0.140
-479.347	-200.000	0.045	0.238
-478.332	88.398	0.065	0.073
-477.318	131.892	0.204	0.265
-476.303	289.089	0.090	0.166
-475.289	-34.243	-0.146	0.081
-474.274	8.256	0.061	0.047
-473.259	113.546	-0.131	0.161
-472.245	77.708	-0.143	-0.154
-471.230	23.303	-0.125	0.104
-470.216	-200.000	-0.051	0.363
-469.201	55.808	-0.141	0.139
-468.186	-130.150	0.096	-0.013
-467.172	800.000	-0.099	-0.367
-466.157	-76.880	0.258	0.091
-465.143	-77.849	-0.086	-0.030
-464.128	84.784	0.117	0.129
-463.113	-200.000	0.005	0.076
-462.099	-7.327	0.178	0.122
-461.084	42.992	-0.077	0.071
-460.070	-8.692	-0.220	-0.149
-459.055	-27.568	0.119	-0.070
-458.040	800.000	0.144	-0.419
-457.026	-127.397	0.356	0.052
-456.011	-97.574	-0.061	0.016
-454.997	-200.000	0.021	0.224
-453.982	-144.924	-0.339	0.031
-452.968	199.777	-0.236	-0.366
-451.953	-66.830	-0.271	0.108
-450.938	800.000	0.046	0.174
-449.924	800.000	-0.058	-0.204
-448.909	-8.701	-0.349	0.237
-447.895	12.785	0.207	-0.162
-446.880	554.731	-0.075	0.182
-445.865	-22.862	-0.118	-0.072
-444.851	-16.964	-0.349	-0.223
-443.836	-66.486	0.209	-0.084
-442.822	33.125	0.049	-0.043
-441.807	-200.000	0.022	0.150
-440.792	-20.383	0.078	0.048
-439.778	53.391	-0.152	-0.147
-438.763	295.400	0.074	0.137
-437.749	251.329	0.069	0.119
-436.734	5.758	0.401	0.299
-435.719	-86.282	-0.105	-0.033
-434.705	-200.000	-0.107	-0.484
-433.690	303.991	-0.104	-0.194
-432.676	-94.513	-0.166	0.046
-431.661	-200.000	-0.027	-0.269
-430.646	-57.535	-0.317	-0.140
-429.632	-94.897	-0.089	-0.024
-428.617	-105.599	-0.322	0.074
-427.603	59.554	0.093	-0.093
-426.588	-200.000	-0.007	-0.099
-425.573	-95.562	0.196	0.053
-424.559	-72.797	-0.467	-0.173
-423.544	-121.127	0.128	-0.022
-422.530	48.168	0.266	-0.251
-421.515	99.424	-0.082	-0.096
-420.500	-73.093	0.090	-0.033
-419.486	665.273	0.037	-0.095
-418.471	-122.879	0.136	0.022
-417.457	-174.361	-0.096	-0.003
-416.442	-39.040	0.105	0.056
-415.428	-200.000	0.041	0.268
-414.413	-27.927	0.333	0.195
-413.398	-165.406	0.211	-0.009
-412.384	-56.002	-0.128	-0.058
-411.369	510.908	-0.137	-0.323
-410.355	-95.982	0.273	0.073
-409.340	800.000	-0.088	0.251
-408.325	-200.000	0.013	-0.315
-407.311	725.528	-0.041	0.109
-406.296	102.492	0.119	-0.141
-405.282	193.398	-0.065	-0.100
-404.267	-105.580	-0.413	0.094
-403.252	-200.000	0.045	0.311
-402.238	82.168	-0.050	0.054
-401.223	341.083	-0.042	0.084
-400.209	800.000	-0.071	0.296
-399.194	98.551	0.120	-0.140
-398.179	-82.406	0.111	0.036
-397.165	-56.968	0.281	0.125
-396.150	800.000	-0.026	-0.091
-395.136	94.395	0.083	0.095
-394.121	99.576	-0.121	-0.141
-393.106	-7.923	0.276	0.188
-392.092	-200.000	-0.068	0.332
-391.077	338.877	-0.056	-0.110
-390.063	-34.580	0.184	-0.102
-389.048	-94.157	0.140	-0.039
-388.033	17.478	-0.065	-0.052
-387.019	-200.000	0.020	0.252
-386.004	-200.000	0.040	0.291
-384.990	495.172	-0.112	0.259
-383.975	-200.000	-0.046	-0.292
-382.960	-130.178	0.101	-0.014
-381.946	-161.157	0.236	0.012
-380.931	24.203	-0.091	0.076
-379.917	579.641	-0.091	0.224
-378.902	152.458	-0.113	0.156
-377.888	-146.523	-0.185	-0.016
-376.873	27.693	-0.075	-0.063
-375.858	-200.000	-0.023	-0.153
-374.844	-134.647	0.283	0.035
-373.829	800.000	0.097	-0.354
-372.815	538.338	-0.110	-0.264
-371.800	-200.000	0.039	-0.253
-370.785	32.577	0.204	0.178
-369.771	-20.272	-0.057	0.036
-368.756	-128.304	0.160	0.023
-367.742	50.302	0.161	-0.153
-366.727	-56.030	-0.196	0.088
-365.712	640.366	-0.073	0.187
-364.698	-9.162	0.193	0.130
-363.683	228.568	0.099	0.163
-362.669	-85.259	0.288	0.091
-361.654	-200.000	0.071	0.382
-360.639	-132.401	0.252	-0.033
-359.625	-200.000	0.028	-0.324
-358.610	100.140	-0.048	-0.056
-357.596	-128.689	-0.189	-0.027
-356.581	-101.948	-0.048	0.012
-355.566	-84.346	-0.279	-0.089
-354.552	-98.557	-0.285	0.073
-353.537	-8.926	0.100	-0.068
-352.523	-45.398	-0.151	-0.076
-351.508	-129.412	0.208	0.029
-350.493	-147.846	-0.423	-0.036
-349.479	-60.335	-0.321	-0.137
-348.464	-131.855	0.229	-0.030
-347.450	-9.142	-0.115	-0.077
-346.435	-73.692	-0.337	-0.123
-345.420	-125.958	0.150	0.023
-344.406	-68.025	0.364	0.143
-343.391	185.551	-0.067	0.100
-342.377	-120.558	-0.084	0.014
-341.362	2.410	-0.411	0.300
-340.348	92.799	-0.128	0.146
-339.333	507.068	0.131	-0.307
-338.318	-153.486	-0.432	0.030
-337.304	-54.228	0.170	-0.078
-336.289	-42.482	-0.017	0.009
-335.275	88.701	0.053	0.059
-334.260	385.181	0.028	0.057
-333.245	-5.786	-0.294	0.203
-332.231	45.840	-0.171	-0.159
-331.216	760.576	0.068	0.185
-330.202	800.000	0.024	-0.103
-329.187	-107.738	-0.281	0.062
-328.172	-200.000	-0.063	-0.314
-327.158	-84.059	0.041	-0.013
-326.143	223.086	-0.222	0.361
-325.129	-171.145	0.377	-0.013
-324.114	97.651	0.094	-0.108
-323.099	-184.652	-0.140	-0.002
-322.085	-42.542	0.097	-0.050
-321.070	115.812	0.063	-0.077
-320.056	-170.487	-0.160	-0.006
-319.041	-1.768	-0.115	-0.081
-318.026	173.213	-0.223	0.323
-317.012	192.846	-0.205	-0.311
-315.997	27.691	0.210	-0.178
-314.983	-137.182	0.229	0.026
-313.968	-200.000	-0.028	0.278
-312.953	-200.000	0.046	0.270
-311.939	18.125	-0.189	0.151
-310.924	444.404	-0.084	0.185
-309.910	68.399	-0.093	0.096
-308.895	-126.742	0.103	-0.015
-307.880	800.000	-0.080	0.350
-306.866	800.000	0.006	-0.023
-305.851	-96.119	-0.180	-0.048
-304.837	379.585	0.039	0.080
-303.822	179.400	0.132	-0.194
-302.807	-25.734	-0.092	-0.055
-301.793	-104.014	0.274	-0.064
-300.778	-111.215	0.027	-0.006
-299.764	-147.829	0.219	-0.018
-298.749	-70.008	0.243	-0.093
-297.735	-200.000	0.013	0.098
-296.720	-100.839	0.107	-0.026
-295.705	-69.933	0.413	-0.158
-294.691	88.762	-0.130	-0.146
-293.676	50.977	0.194	-0.185
-292.662	800.000	0.095	-0.307
-291.647	-75.577	-0.227	0.081
-290.632	204.160	-0.084	-0.131
-289.618	-44.823	-0.492	0.246
-288.603	-109.660	0.323	-0.068
-287.589	758.545	-0.079	0.214
-286.574	-73.675	0.325	-0.119
-285.559	34.912	0.243	-0.214
-284.545	800.000	-0.088	0.245
-283.530	110.889	0.143	-0.173
-282.516	-110.355	-0.102	0.021
-281.501	-200.000	0.018	-0.384
-280.486	-91.715	0.233	-0.066
-279.472	-156.098	-0.210	-0.013
-278.457	157.154	-0.030	-0.042
-277.443	-3.268	0.351	-0.245
-276.428	208.415	-0.148	0.232
-275.413	-18.429	-0.093	-0.058
-274.399	121.518	0.167	-0.208
-273.384	305.592	0.161	0.301
-272.370	400.579	0.136	0.286
-271.355	116.893	0.124	0.152
-270.340	120.957	-0.206	-0.257
-269.326	0.832	-0.063	0.046
-268.311	643.021	-0.061	0.156
-267.297	800.000	-0.060	-0.218
-266.282	-189.470	0.186	0.002
-265.267	800.000	-0.023	-0.081
-264.253	-107.713	-0.100	-0.022
-263.238	-73.928	-0.159	0.058
-262.224	-75.083	-0.229	-0.082
-261.209	95.799	0.188	0.216
-260.195	800.000	-0.082	0.294
-259.180	16.279	0.206	-0.163
-258.165	-200.000	-0.031	0.342
-257.151	460.512	0.023	0.051
-256.136	800.000	-0.124	0.530
-255.122	128.563	-0.082	0.104
-254.107	110.443	0.160	-0.193
-253.092	-200.000	-0.039	0.236
-252.078	-39.107	0.353	0.186
-251.063	66.119	-0.122	-0.124
-250.049	-200.000	0.064	-0.285
-249.034	-86.100	-0.301	0.093
-248.019	201.579	-0.056	-0.086
-247.005	-98.547	-0.092	0.023
-245.990	-89.048	0.250	-0.074
-244.976	-101.226	-0.319	-0.078
-243.961	800.000	0.120	0.367
-242.946	-58.135	-0.114	0.050
-241.932	173.570	0.167	-0.242
-240.917	-85.525	-0.436	0.136
-239.903	91.946	-0.072	0.081
-238.888	-200.000	0.018	0.116
-237.873	155.751	-0.284	0.392
-236.859	-200.000	-0.098	0.511
-235.844	62.392	0.240	0.240
-234.830	-94.504	0.243	0.066
-233.815	639.257	-0.088	-0.224
-232.800	-48.019	0.469	0.227
-231.786	-200.000	0.121	0.535
-230.771	-147.998	-0.383	0.032
-229.757	800.000	-0.062	0.203
-228.742	137.245	0.205	0.268
-227.727	-35.253	0.108	0.059
-226.713	78.547	0.184	0.197
-225.698	-2.766	-0.197	0.138
-224.684	-116.185	-0.143	-0.027
-223.669	-40.068	0.074	-0.039
-222.655	-200.000	0.041	-0.293
-221.640	-200.000	-0.027	0.190
-220.625	68.736	0.157	0.161
-219.611	10.125	0.183	-0.140
-218.596	124.038	-0.041	-0.052
-217.582	800.000	0.035	-0.154
-216.567	644.823	0.106	0.270
-215.552	-200.000	-0.005	0.157
-214.538	-30.958	0.312	-0.176
-213.523	-190.249	-0.125	-0.001
-212.509	178.020	0.232	0.339
-211.494	250.609	-0.091	0.155
-210.479	-7.961	0.434	-0.293
-209.465	789.458	0.018	0.049
-208.450	-69.436	-0.113	-0.043
-207.436	800.000	-0.123	-0.354
-206.421	109.957	0.044	-0.052
-205.406	-200.000	-0.035	0.194
-204.392	508.841	0.120	0.280
-203.377	-29.612	0.335	-0.191
-202.363	800.000	0.031	0.107
-201.348	176.154	-0.133	0.193
-200.333	800.000	0.031	-0.113
-199.319	356.282	0.121	0.240
-198.304	239.533	0.119	-0.198
-197.290	63.469	0.333	-0.334
-196.275	-65.090	-0.149	-0.060
-195.260	-32.838	-0.225	0.125
-194.246	-130.333	0.196	-0.027
-193.231	-200.000	-0.060	0.285
-192.217	-73.700	-0.152	0.055
-191.202	429.808	-0.034	-0.074
-190.187	34.631	0.186	0.162
-189.173	3.578	-0.277	0.202
-188.158	-200.000	0.010	0.279
-187.144	800.000	-0.083	-0.330
-186.129	-136.996	0.359	-0.041
-185.114	-25.267	0.211	-0.125
-184.100	800.000	0.058	-0.207
-183.085	-77.583	-0.288	-0.100
-182.071	116.217	0.038	-0.047
-181.056	-55.800	0.222	-0.099
-180.042	800.000	-0.012	0.037
-179.027	401.876	-0.039	-0.082
-178.012	-95.973	0.251	-0.067
-176.998	-171.995	0.299	-0.010
-175.983	-68.910	0.154	-0.060
-174.969	-35.230	0.055	0.030
-173.954	95.739	0.097	0.111
-172.939	-30.668	0.062	-0.035
-171.925	316.569	0.227	0.428
-170.910	-200.000	0.027	0.450
-169.896	-85.812	-0.060	-0.019
-168.881	-134.972	-0.212	0.026
-167.866	-109.738	-0.221	-0.047
-166.852	616.087	0.066	-0.165
-165.837	-59.073	-0.208	0.090
-164.823	65.008	-0.284	-0.287
-163.808	2.965	0.148	0.107
-162.793	140.370	-0.174	0.230
-161.779	35.296	-0.072	-0.063
-160.764	181.301	-0.059	-0.086
-159.750	-128.913	0.040	0.006
-158.735	77.002	-0.221	0.235
-157.720	-64.059	-0.331	0.135
-156.706	357.561	-0.087	0.173
-155.691	-97.563	-0.212	-0.055
-154.677	-40.835	-0.200	0.103
-153.662	-200.000	0.014	0.123
-152.647	32.577	0.104	0.090
-151.633	-188.948	-0.674	-0.008
-150.618	-26.934	0.244	-0.142
-149.604	800.000	0.018	0.056
-148.589	312.206	-0.170	-0.318
-147.574	-161.167	0.325	0.017
-146.560	-200.000	0.013	0.079
-145.545	-200.000	-0.029	-0.254
-144.531	800.000	0.046	0.146
-143.516	322.511	-0.166	0.315
-142.502	-172.823	-0.161	0.005
-141.487	75.512	0.237	0.250
-140.472	600.351	0.095	-0.236
-139.458	-68.623	0.135	-0.052
-138.443	543.984	-0.051	-0.121
-137.429	-179.447	0.337	-0.007
-136.414	-56.942	0.246	-0.108
-135.399	-134.109	0.309	0.038
-134.385	184.680	-0.078	-0.115
-133.370	-200.000	-0.002	-0.323
-132.356	-56.844	0.177	-0.078
-131.341	73.302	-0.346	0.361
-130.326	-123.640	0.310	0.049
-129.312	179.628	0.088	0.128
-128.297	-16.384	-0.149	0.095
-127.283	-24.450	0.181	0.108
-126.268	-200.000	-0.018	-0.218
-125.253	174.702	0.138	0.199
-124.239	-111.251	-0.255	0.052
-123.224	-47.874	0.105	-0.051
-122.210	-33.867	0.082	0.045
-121.195	-175.189	0.200	0.006
