DTS Sentinel unit serial number:	SN413079Multiplexer serial number:	ORYXHardware model number:	OX4-SRSoftware version number:	ORYX F/W v4.00 Oryx Data Collector v3.7.2.0data status	okinstallation	princeton_trtdifferential loss correction	single-endedforward channel	channel 3reverse channel	N/Adate	2019/09/12time	19:05:04forward acquisition time	15.00reverse acquisition time	0.00gamma	496.2192k internal	0.2319k external	0.2319temperature offset calibration	1.0092default loss term (dB/km)	0.3790temperature slope calibration	1.0000multiplexer offset coefficient	1.0000multiplexer slope coefficient	1.0000fibre end	0.00T internal ref (°C)	32.69T ext. ref 1 (°C)	3.06T ext. ref 2 (°C)	27.21length (m)	temperature (°C)	Stokes	anti-Stokes-747.200	183.233	0.203	-0.303
-746.185	128.381	0.205	0.264
-745.171	-85.702	0.837	0.263
-744.156	44.890	-0.577	0.538
-743.142	178.541	-0.197	0.291
-742.127	-80.474	-0.027	0.009
-741.112	-87.158	0.288	-0.088
-740.098	316.642	-0.157	0.300
-739.083	91.535	0.469	0.533
-738.069	195.780	0.513	0.789
-737.054	-129.438	0.679	0.095
-736.039	-89.255	0.879	0.262
-735.025	70.087	0.312	0.326
-734.010	800.000	-0.055	0.170
-732.996	-186.242	-0.908	-0.013
-731.981	72.170	0.272	-0.286
-730.966	-200.000	-0.059	-0.618
-729.952	-28.107	-0.527	-0.308
-728.937	-83.017	0.365	-0.119
-727.923	76.880	0.210	0.226
-726.908	27.756	-0.331	0.282
-725.894	218.721	0.376	-0.607
-724.879	417.241	-0.208	-0.449
-723.864	153.218	0.287	0.397
-722.850	-44.322	0.392	0.198
-721.835	217.427	0.374	-0.602
-720.821	430.747	-0.204	-0.446
-719.806	107.473	0.204	0.245
-718.791	492.996	-0.263	-0.610
-717.777	-95.576	-0.561	-0.152
-716.762	-97.812	0.909	-0.237
-715.748	-104.614	-0.595	-0.139
-714.733	-150.314	-0.771	-0.060
-713.718	164.003	0.171	0.244
-712.704	-61.912	-0.560	0.237
-711.689	185.998	0.169	0.254
-710.675	-200.000	0.000	-0.111
-709.660	800.000	0.010	0.043
-708.645	-200.000	-0.142	-0.932
-707.631	-94.253	-0.252	-0.069
-706.616	622.784	0.095	-0.242
-705.602	-41.319	0.279	0.145
-704.587	-200.000	0.009	0.288
-703.572	-200.000	0.012	-0.265
-702.558	134.025	-0.098	0.128
-701.543	20.971	-0.242	0.198
-700.529	222.622	-0.284	0.462
-699.514	375.024	0.415	-0.855
-698.499	-200.000	0.027	0.132
-697.485	-200.000	-0.102	-0.900
-696.470	728.682	0.136	-0.367
-695.456	130.828	-0.386	-0.500
-694.441	-68.226	-0.395	-0.155
-693.426	800.000	-0.326	-1.220
-692.412	800.000	-0.457	-1.320
-691.397	11.354	0.586	0.453
-690.383	752.379	-0.078	-0.213
-689.368	800.000	0.241	-0.812
-688.354	307.548	-0.353	-0.664
-687.339	800.000	-0.077	-0.234
-686.324	-200.000	0.015	-0.078
-685.310	-14.466	0.566	-0.367
-684.295	-26.660	-0.375	0.221
-683.281	381.308	-0.221	-0.457
-682.266	327.003	-0.070	0.134
-681.251	-60.813	0.546	-0.233
-680.237	-98.749	0.291	0.075
-679.222	800.000	0.144	-0.470
-678.208	117.265	0.080	-0.099
-677.193	-200.000	-0.078	-0.459
-676.178	207.219	0.177	-0.279
-675.164	57.881	0.335	0.331
-674.149	120.836	-0.188	-0.236
-673.135	675.457	0.308	-0.806
-672.120	6.104	0.536	-0.401
-671.105	116.832	0.169	-0.210
-670.091	-92.564	0.210	0.060
-669.076	-157.464	0.460	0.028
-668.062	144.101	-0.270	0.363
-667.047	83.483	0.313	0.344
-666.032	98.320	0.201	0.234
-665.018	-200.000	-0.029	0.234
-664.003	800.000	0.189	-0.658
-662.989	82.371	0.393	0.430
-661.974	467.136	-0.239	0.540
-660.959	236.175	-0.371	-0.619
-659.945	-200.000	-0.062	-0.549
-658.930	-35.226	0.322	0.177
-657.916	796.979	0.278	0.771
-656.901	-34.414	-0.492	0.272
-655.886	564.708	-0.638	1.558
-654.872	-200.000	0.078	-0.548
-653.857	527.780	0.138	-0.327
-652.843	-155.123	-0.960	-0.063
-651.828	107.993	0.127	-0.153
-650.814	-0.691	0.580	-0.415
-649.799	-200.000	0.025	-0.822
-648.784	-108.588	0.035	-0.008
-647.770	-71.641	0.042	-0.016
-646.755	54.523	0.729	-0.708
-645.741	-103.431	0.540	-0.128
-644.726	800.000	0.295	-0.842
-643.711	-200.000	-0.015	0.109
-642.697	64.232	0.488	0.495
-641.682	115.698	-0.517	0.636
-640.668	-200.000	-0.097	-0.702
-639.653	-0.899	0.127	-0.091
-638.638	316.150	-0.497	-0.946
-637.624	-159.625	-0.820	-0.046
-636.609	-173.164	-0.464	-0.014
-635.595	-89.610	0.446	0.132
-634.580	-100.103	0.894	-0.224
-633.565	-200.000	-0.173	0.804
-632.551	211.281	-0.415	-0.658
-631.536	800.000	-0.191	0.705
-630.522	-75.987	-0.545	0.194
-629.507	-200.000	-0.090	0.870
-628.492	-94.015	-0.445	0.123
-627.478	-124.613	-0.696	-0.109
-626.463	-86.579	-0.358	0.110
-625.449	65.105	0.589	-0.599
-624.434	2.453	0.208	0.151
-623.419	177.944	-0.282	-0.415
-622.405	-82.948	-0.662	0.215
-621.390	-58.939	-0.287	-0.125
-620.376	-162.893	-0.422	0.021
-619.361	-112.290	-0.853	0.172
-618.346	-47.554	0.481	0.235
-617.332	800.000	0.149	-0.516
-616.317	72.491	0.093	-0.097
-615.303	-200.000	-0.063	0.382
-614.288	-158.120	0.392	0.023
-613.273	-200.000	0.023	0.172
-612.259	166.117	0.328	0.468
-611.244	454.386	-0.252	-0.563
-610.230	-3.412	0.138	0.097
-609.215	-166.023	0.339	0.015
-608.201	405.196	-0.066	-0.140
-607.186	-130.790	-0.994	0.134
-606.171	-196.259	0.158	-0.001
-605.157	-35.260	-0.785	-0.430
-604.142	-200.000	-0.040	-0.274
-603.128	-110.440	0.923	0.193
-602.113	-200.000	-0.084	0.406
-601.098	-200.000	-0.018	-0.699
-600.084	481.663	0.073	0.167
-599.069	-137.863	-0.479	0.054
-598.055	-13.374	0.364	0.237
-597.040	-200.000	-0.043	0.211
-596.025	424.017	-0.171	-0.371
-595.011	32.452	0.219	-0.190
-593.996	784.558	0.228	0.627
-592.982	-42.345	-0.649	0.333
-591.967	-75.913	-0.365	0.130
-590.952	-81.387	0.416	0.138
-589.938	58.602	0.402	0.397
-588.923	-97.501	0.328	0.086
-587.909	30.056	0.420	-0.360
-586.894	-71.191	0.922	-0.348
-585.879	800.000	0.103	-0.452
-584.865	551.653	0.306	0.738
-583.850	-31.277	0.090	-0.051
-582.836	40.676	0.720	-0.652
-581.821	-17.430	0.416	-0.263
-580.806	-181.539	-0.408	0.008
-579.792	166.008	0.146	-0.208
-578.777	213.531	0.116	-0.184
-577.763	13.162	0.141	0.110
-576.748	-50.555	0.672	0.319
-575.733	354.863	-0.269	-0.538
-574.719	-200.000	0.001	-0.611
-573.704	-75.613	0.586	-0.209
-572.690	172.704	0.237	-0.344
-571.675	-76.834	-1.009	-0.355
-570.661	-200.000	0.113	-0.636
-569.646	800.000	0.127	-0.430
-568.631	197.725	0.260	0.398
-567.617	-200.000	0.061	0.758
-566.602	-200.000	0.060	0.799
-565.588	-200.000	0.071	0.368
-564.573	-55.398	-0.476	0.215
-563.558	735.755	-0.118	0.318
-562.544	657.195	0.057	-0.147
-561.529	-35.114	-0.732	-0.400
-560.515	800.000	-0.156	0.556
-559.500	505.833	0.057	-0.133
-558.485	-136.143	-0.338	-0.040
-557.471	-168.191	0.539	0.021
-556.456	124.487	-0.355	0.449
-555.442	800.000	0.124	-0.360
-554.427	-200.000	-0.028	-0.631
-553.412	-71.071	-0.774	-0.292
-552.398	1.803	0.322	0.233
-551.383	54.298	0.313	0.303
-550.369	-200.000	-0.067	-0.376
-549.354	34.752	-0.783	-0.687
-548.339	-12.878	-0.993	-0.649
-547.325	-64.663	-0.646	-0.263
-546.310	-13.631	0.154	0.100
-545.296	-46.653	0.569	0.280
-544.281	-200.000	0.014	-0.299
-543.266	800.000	0.261	-0.832
-542.252	75.857	-0.286	0.303
-541.237	656.841	0.238	0.614
-540.223	-107.264	0.116	-0.026
-539.208	-65.161	-0.476	0.193
-538.193	-200.000	0.075	-1.109
-537.179	61.572	0.112	-0.111
-536.164	-121.810	0.237	-0.039
-535.150	138.697	-0.224	0.296
-534.135	346.743	-0.216	0.427
-533.121	-146.823	-0.221	0.019
-532.106	280.228	0.285	0.510
-531.091	-200.000	-0.036	-0.580
-530.077	-70.600	0.340	0.129
-529.062	-99.044	0.812	0.207
-528.048	800.000	-0.143	0.479
-527.033	381.261	-0.163	-0.335
-526.018	150.916	0.433	0.591
-525.004	-200.000	0.087	-0.570
-523.989	-200.000	-0.137	-0.787
-522.975	-113.472	-0.486	-0.095
-521.960	-53.977	0.246	0.112
-520.945	392.550	0.400	0.834
-519.931	-200.000	0.006	-0.053
-518.916	800.000	-0.196	0.575
-517.902	132.101	0.057	-0.073
-516.887	-200.000	0.117	-0.931
-515.872	-64.345	0.690	0.281
-514.858	85.041	0.339	0.372
-513.843	513.363	0.153	-0.358
-512.829	-67.827	0.395	0.155
-511.814	-200.000	0.002	-0.930
-510.799	622.616	0.109	-0.275
-509.785	-200.000	0.131	-1.008
-508.770	520.049	-0.380	0.892
-507.756	34.074	-0.497	-0.434
-506.741	160.404	-0.346	0.483
-505.726	779.445	0.131	0.358
-504.712	273.109	0.081	0.144
-503.697	-200.000	-0.037	0.319
-502.683	374.551	0.215	-0.438
-501.668	323.274	-0.114	-0.219
-500.653	800.000	0.114	0.413
-499.639	682.186	0.070	-0.182
-498.624	-74.760	0.047	-0.017
-497.610	800.000	-0.121	0.369
-496.595	-200.000	-0.026	0.316
-495.581	738.948	-0.153	0.412
-494.566	405.614	0.258	0.544
-493.551	-12.472	-0.138	-0.090
-492.537	-56.602	0.655	-0.291
-491.522	87.315	-0.221	-0.245
-490.508	-92.996	0.389	0.109
-489.493	-20.548	0.833	0.513
-488.478	-200.000	0.017	-0.205
-487.464	-126.745	-0.608	-0.090
-486.449	-25.719	0.456	0.270
-485.435	-200.000	-0.104	-0.683
-484.420	-200.000	0.183	-0.909
-483.405	65.126	-0.196	0.198
-482.391	27.562	-0.462	0.389
-481.376	93.609	-0.510	0.578
-480.362	-67.132	-0.350	0.138
-479.347	-200.000	0.040	0.620
-478.332	113.152	-0.205	0.249
-477.318	5.324	0.305	-0.225
-476.303	154.434	0.338	-0.465
-475.289	800.000	-0.187	-0.749
-474.274	-200.000	0.107	0.849
-473.259	25.017	0.373	-0.310
-472.245	800.000	-0.188	0.534
-471.230	-61.412	0.370	-0.156
-470.216	-2.911	0.129	-0.090
-469.201	54.432	-0.792	-0.764
-468.186	-200.000	0.048	0.705
-467.172	800.000	-0.138	0.427
-466.157	797.140	0.185	0.511
-465.143	-200.000	0.011	-0.366
-464.128	-50.077	0.334	0.158
-463.113	122.935	0.281	0.352
-462.099	36.626	0.419	-0.370
-461.084	-115.557	0.382	0.072
-460.070	-200.000	0.006	0.361
-459.055	-28.011	-0.535	-0.310
-458.040	-57.540	-0.162	-0.071
-457.026	800.000	0.188	-0.551
-456.011	7.734	-0.184	0.138
-454.997	69.261	0.402	-0.414
-453.982	508.132	-0.214	-0.496
-452.968	-88.938	0.179	-0.053
-451.953	150.392	0.203	0.275
-450.938	-122.205	0.071	-0.012
-449.924	-81.231	0.410	0.135
-448.909	800.000	0.221	-0.807
-447.895	-200.000	0.014	0.201
-446.880	-188.021	0.473	0.006
-445.865	-200.000	0.017	0.214
-444.851	8.912	0.552	-0.417
-443.836	-25.120	0.221	-0.131
-442.822	-20.798	0.165	0.101
-441.807	352.854	-0.486	0.964
-440.792	0.799	-0.567	0.406
-439.778	295.294	-0.409	-0.749
-438.763	-104.638	0.831	-0.191
-437.749	-200.000	-0.025	0.363
-436.734	15.457	-0.269	-0.211
-435.719	800.000	0.259	-0.926
-434.705	-200.000	-0.070	0.636
-433.690	101.679	0.205	0.238
-432.676	14.997	0.114	-0.089
-431.661	403.115	-0.410	-0.861
-430.646	25.391	0.277	-0.230
-429.632	146.551	0.431	-0.579
-428.617	265.527	0.323	-0.563
-427.603	68.895	-0.356	-0.365
-426.588	800.000	0.024	0.087
-425.573	-200.000	0.048	-0.264
-424.559	101.411	0.402	0.468
-423.544	555.783	0.142	-0.340
-422.530	-200.000	0.074	0.754
-421.515	-200.000	0.021	-0.378
-420.500	-86.620	-0.812	-0.248
-419.486	74.485	0.330	0.347
-418.471	-200.000	-0.041	-0.454
-417.457	-21.371	0.404	-0.246
-416.442	545.459	0.095	-0.227
-415.428	-50.933	-0.281	-0.132
-414.413	800.000	0.253	-0.766
-413.398	-31.190	-0.437	0.246
-412.384	-200.000	0.073	0.381
-411.369	-137.926	-0.500	-0.056
-410.355	-200.000	0.017	0.471
-409.340	636.310	-0.180	-0.455
-408.325	-5.045	0.427	0.293
-407.311	368.101	0.334	-0.674
-406.296	-200.000	-0.061	0.442
-405.282	95.523	0.308	0.351
-404.267	-200.000	0.036	-0.295
-403.252	-200.000	0.110	0.512
-402.238	-200.000	-0.008	0.210
-401.223	38.556	0.250	-0.223
-400.209	59.738	-0.236	0.233
-399.194	-94.215	0.661	0.181
-398.179	303.744	0.399	-0.738
-397.165	-43.105	-0.658	0.333
-396.150	245.157	0.097	-0.162
-395.136	-110.869	-0.783	-0.161
-394.121	28.873	-0.362	-0.306
-393.106	10.362	0.477	-0.362
-392.092	16.845	0.397	-0.314
-391.077	50.177	0.323	0.304
-390.063	-79.043	0.610	-0.207
-389.048	24.893	0.334	0.276
-388.033	40.801	0.350	0.315
-387.019	11.799	-0.228	-0.174
-386.004	85.755	0.300	0.329
-384.990	-118.015	-0.758	-0.135
-383.975	-200.000	-0.020	-0.630
-382.960	-80.063	0.283	0.095
-381.946	-200.000	-0.010	-0.711
-380.931	-58.810	0.614	0.265
-379.917	421.575	-0.108	0.230
-378.902	-188.141	0.724	0.009
-377.888	-200.000	-0.069	-0.616
-376.873	-178.361	-0.453	-0.011
-375.858	-200.000	-0.028	-0.411
-374.844	286.199	0.144	0.260
-373.829	-200.000	-0.024	0.415
-372.815	148.496	-0.146	0.197
-371.800	800.000	-0.157	0.647
-370.785	800.000	0.141	0.453
-369.771	-153.311	0.479	0.033
-368.756	-21.743	0.300	-0.182
-367.742	286.199	0.273	0.491
-366.727	-9.105	-0.186	-0.124
-365.712	-107.644	0.289	0.063
-364.698	-79.223	0.678	-0.229
-363.683	447.475	0.021	-0.047
-362.669	-173.087	-0.710	-0.022
-361.654	800.000	0.089	0.388
-360.639	-167.275	-1.399	0.056
-359.625	-200.000	0.033	-0.409
-358.610	-99.297	-0.136	-0.034
-357.596	-23.085	-0.183	-0.110
-356.581	-55.398	-0.312	-0.139
-355.566	-72.377	-0.661	0.244
-354.552	784.175	-0.048	-0.132
-353.537	800.000	0.053	0.170
-352.523	-31.587	-0.525	0.294
-351.508	15.819	0.401	-0.315
-350.493	364.935	-0.154	0.308
-349.479	-82.071	-0.557	0.181
-348.464	-111.264	0.945	0.192
-347.450	-149.841	0.276	0.022
-346.435	117.404	0.113	0.138
-345.420	593.635	0.310	0.762
-344.406	393.002	-0.290	0.602
-343.391	148.370	-0.493	-0.663
-342.377	63.165	0.649	0.647
-341.362	112.960	-0.404	-0.487
-340.348	-32.043	0.168	-0.094
-339.333	-200.000	0.027	0.914
-338.318	2.599	0.578	0.417
-337.304	-5.742	0.405	0.276
-336.289	387.815	-0.316	0.650
-335.275	-98.175	-0.447	0.114
-334.260	271.122	0.394	-0.691
-333.245	-200.000	0.029	0.525
-332.231	-63.568	-0.349	0.143
-331.216	-200.000	-0.056	0.386
-330.202	287.655	-0.520	0.936
-329.187	-22.089	-0.346	0.209
-328.172	-147.684	-0.130	0.011
-327.158	325.023	0.332	-0.632
-326.143	-89.654	-0.458	-0.134
-325.129	-22.685	0.240	-0.144
-324.114	-19.066	0.498	0.308
-323.099	-110.891	-0.374	0.077
-322.085	-200.000	-0.050	0.295
-321.070	-88.598	-0.938	-0.278
-320.056	82.769	-0.172	-0.186
-319.041	355.009	-0.053	0.104
-318.026	-104.445	0.623	-0.143
-317.012	800.000	-0.175	0.669
-315.997	435.624	0.155	-0.336
-314.983	178.009	-0.215	0.313
-313.968	-179.520	-0.709	-0.015
-312.953	137.937	-0.313	0.407
-311.939	-21.220	-0.253	-0.154
-310.924	-66.294	-0.481	-0.190
-309.910	-85.541	0.945	-0.292
-308.895	114.643	0.256	-0.311
-307.880	88.225	-0.267	-0.295
-306.866	-78.801	-0.551	0.187
-305.851	101.142	-0.485	-0.561
-304.837	-100.083	0.678	0.168
-303.822	-29.523	-0.756	0.430
-302.807	-60.594	-0.665	0.281
-301.793	399.525	-0.305	0.635
-300.778	285.020	-0.129	0.232
-299.764	-54.196	-0.718	0.324
-298.749	333.097	0.345	-0.662
-297.735	-7.569	0.534	-0.359
-296.720	-76.535	-0.556	0.194
-295.705	165.595	-0.571	0.802
-294.691	-90.928	-0.271	0.077
-293.676	293.862	0.364	-0.660
-292.662	800.000	0.255	0.934
-291.647	-200.000	0.039	0.348
-290.632	-167.838	-0.726	0.028
-289.618	-33.806	-0.642	0.352
-288.603	-110.051	0.391	-0.081
-287.589	-200.000	0.033	0.195
-286.574	72.897	-0.600	0.623
-285.559	-200.000	-0.049	-0.318
-284.545	77.819	-0.363	-0.384
-283.530	248.955	0.248	-0.417
-282.516	-200.000	-0.110	-0.841
-281.501	71.544	0.317	-0.327
-280.486	-88.659	-0.314	0.093
-279.472	0.245	-0.779	0.552
-278.457	-18.268	-0.430	0.267
-277.443	-97.796	-0.259	0.067
-276.428	800.000	0.109	0.324
-275.413	-16.954	-0.333	0.209
-274.399	115.423	0.300	0.364
-273.384	-200.000	0.128	-0.952
-272.370	-152.860	-0.357	-0.025
-271.355	331.200	0.084	0.161
-270.340	-50.114	0.358	0.168
-269.326	-200.000	0.032	0.180
-268.311	-118.174	1.001	-0.177
-267.297	58.332	-0.316	0.308
-266.282	53.331	-0.590	-0.562
-265.267	44.408	-0.374	0.341
-264.253	-87.888	0.937	0.280
-263.238	236.232	0.304	0.499
-262.224	-200.000	-0.084	0.677
-261.209	-88.239	0.683	0.203
-260.195	-200.000	0.044	-0.303
-259.180	73.339	0.469	0.487
-258.165	-200.000	0.002	0.519
-257.151	800.000	-0.237	-0.754
-256.136	121.098	0.160	-0.198
-255.122	-200.000	-0.018	-0.177
-254.107	800.000	-0.142	0.425
-253.092	63.274	0.495	-0.493
-252.078	800.000	-0.087	-0.285
-251.063	-93.852	0.831	-0.227
-250.049	-121.242	0.048	0.008
-249.034	61.858	0.424	0.419
-248.019	397.800	-0.145	0.301
-247.005	19.272	-0.579	0.461
-245.990	525.141	0.320	0.748
-244.976	112.934	-0.065	-0.078
-243.961	800.000	0.265	-0.881
-242.946	222.979	0.408	-0.652
-241.932	-73.419	0.232	0.084
-240.917	-200.000	-0.015	0.565
-239.903	-110.680	0.269	0.055
-238.888	-117.215	0.506	0.091
-237.873	162.371	-0.130	-0.181
-236.859	63.167	0.635	-0.631
-235.844	229.684	-0.357	-0.578
-234.830	-45.587	-0.452	-0.222
-233.815	138.732	0.775	1.009
-232.800	48.168	0.424	-0.393
-231.786	800.000	-0.138	0.431
-230.771	71.255	-0.346	-0.356
-229.757	15.982	-0.788	-0.615
-228.742	115.835	0.586	-0.711
-227.727	251.150	-0.103	0.174
-226.713	16.172	0.665	-0.520
-225.698	298.150	0.479	-0.873
-224.684	82.902	-0.586	-0.632
-223.669	800.000	0.117	0.351
-222.655	345.266	-0.307	0.597
-221.640	-149.641	0.189	-0.015
-220.625	226.851	-0.220	-0.354
-219.611	97.030	-0.155	0.177
-218.596	3.141	-0.537	0.387
-217.582	217.849	0.108	-0.171
-216.567	-47.487	-0.604	-0.291
-215.552	-200.000	-0.051	0.656
-214.538	56.384	0.564	-0.543
-213.523	-200.000	-0.081	-0.417
-212.509	-77.954	0.654	-0.223
-211.494	-98.935	0.246	-0.062
-210.479	-28.817	-0.468	0.266
-209.465	361.828	0.123	-0.244
-208.450	-86.659	0.666	-0.202
-207.436	-177.571	0.147	0.004
-206.421	170.938	-0.318	0.451
-205.406	289.762	0.286	0.515
-204.392	-56.946	0.398	-0.174
-203.377	259.154	0.228	-0.390
-202.363	-45.067	-0.727	0.358
-201.348	111.730	0.289	-0.345
-200.333	37.324	-0.423	0.371
-199.319	-200.000	-0.133	0.712
-198.304	-200.000	-0.065	0.334
-197.290	219.677	-0.296	0.470
-196.275	-89.002	-1.007	0.295
-195.260	83.690	-0.228	-0.246
-194.246	-8.933	0.390	0.259
-193.231	-41.552	-0.222	-0.113
-192.217	-44.221	-0.165	-0.082
-191.202	800.000	-0.065	0.195
-190.187	-1.746	-0.254	0.177
-189.173	-46.759	0.289	0.140
-188.158	-200.000	-0.051	-0.580
-187.144	141.853	-0.198	-0.259
-186.129	800.000	-0.160	-0.657
-185.114	50.182	-0.221	0.206
-184.100	800.000	-0.092	-0.256
-183.085	223.197	-0.025	0.040
-182.071	12.172	0.362	0.275
-181.056	-136.595	0.118	-0.014
-180.042	800.000	0.083	0.271
-179.027	-38.523	-0.200	-0.105
-178.012	-44.683	0.349	-0.173
-176.998	-77.857	0.505	-0.173
-175.983	72.788	0.120	-0.124
-174.969	-63.539	-0.766	-0.311
-173.954	-60.727	-0.220	-0.092
-172.939	126.116	-0.584	0.730
-171.925	-51.303	-0.192	0.089
-170.910	80.522	0.430	-0.458
-169.896	-114.840	-0.376	-0.071
-168.881	-108.677	-0.307	-0.065
-167.866	532.998	-0.377	0.882
-166.852	-11.290	-0.141	0.092
-165.837	-200.000	0.015	-0.166
-164.823	-100.930	-0.107	0.026
-163.808	-113.895	-0.542	0.104
-162.793	355.786	0.394	-0.775
-161.779	85.439	-0.037	-0.040
-160.764	-17.554	0.385	0.239
-159.750	223.564	0.459	0.732
-158.735	40.633	-0.438	0.390
-157.720	615.039	0.180	-0.447
-156.706	-80.622	-0.458	-0.151
-155.691	336.410	-0.038	0.073
-154.677	-173.558	0.782	-0.023
-153.662	-120.079	-0.463	0.078
-152.647	-200.000	-0.137	0.678
-151.633	521.927	0.068	-0.158
-150.618	800.000	-0.124	-0.479
-149.604	-58.472	1.293	-0.555
-148.589	800.000	0.246	-1.019
-147.574	45.532	-0.041	-0.038
-146.560	-200.000	-0.036	-0.221
-145.545	100.491	0.383	-0.440
-144.531	211.228	0.451	-0.701
-143.516	-200.000	-0.230	1.042
-142.502	104.676	0.072	-0.084
-141.487	-200.000	0.054	-0.441
-140.472	-142.801	0.593	0.057
-139.458	433.839	-0.143	0.307
-138.443	-16.398	-0.812	0.509
-137.429	-200.000	0.103	0.666
-136.414	55.235	-0.793	-0.757
-135.399	800.000	-0.228	0.875
-134.385	-142.530	0.630	-0.061
-133.370	736.926	-0.489	-1.294
-132.356	168.160	0.112	0.157
-131.341	-200.000	0.064	0.300
-130.326	-20.307	0.336	-0.204
-129.312	-200.000	0.015	0.367
-128.297	398.507	0.276	0.571
-127.283	-200.000	-0.026	0.438
-126.268	107.751	-0.249	0.293
-125.253	-200.000	-0.043	-0.292
-124.239	58.366	-0.834	-0.807
-123.224	203.750	-0.187	0.286
-122.210	100.944	-0.023	-0.027
-121.195	-200.000	0.074	0.418
-120.180	11.263	0.418	0.316
