DTS Sentinel unit serial number:	SN413079Multiplexer serial number:	ORYXHardware model number:	OX4-SRSoftware version number:	ORYX F/W v4.00 Oryx Data Collector v3.7.2.0data status	okinstallation	princeton_trtdifferential loss correction	single-endedforward channel	channel 3reverse channel	N/Adate	2019/09/11time	08:42:11forward acquisition time	60.00reverse acquisition time	0.00gamma	496.2192k internal	0.2312k external	0.2312temperature offset calibration	0.9938default loss term (dB/km)	0.3790temperature slope calibration	1.0000multiplexer offset coefficient	1.0000multiplexer slope coefficient	1.0000fibre end	0.00T internal ref (°C)	33.55T ext. ref 1 (°C)	0.07T ext. ref 2 (°C)	31.07length (m)	temperature (°C)	Stokes	anti-Stokes-747.200	-53.771	0.187	-0.087
-746.185	208.188	-0.217	0.345
-745.171	29.549	0.140	-0.121
-744.156	-37.378	-0.046	0.025
-743.142	-37.377	0.469	0.254
-742.127	800.000	0.024	0.075
-741.112	800.000	-0.093	0.345
-740.098	295.886	-0.145	0.269
-739.083	800.000	0.040	-0.154
-738.069	-196.080	-0.356	-0.003
-737.054	118.532	-0.051	0.064
-736.039	-65.017	0.244	-0.100
-735.025	-115.737	-0.018	0.003
-734.010	-45.157	-0.046	-0.023
-732.996	-89.397	-0.187	0.056
-731.981	-200.000	0.002	0.218
-730.966	40.688	-0.044	-0.041
-729.952	-46.860	0.210	0.104
-728.937	-135.607	-0.068	-0.008
-727.923	-110.096	0.175	-0.037
-726.908	192.371	-0.162	0.248
-725.894	-200.000	-0.035	-0.164
-724.879	171.604	-0.093	-0.135
-723.864	-200.000	0.028	0.150
-722.850	195.425	0.155	-0.239
-721.835	149.743	-0.326	-0.449
-720.821	-146.658	-0.337	0.030
-719.806	-46.367	-0.374	0.186
-718.791	335.487	-0.029	-0.057
-717.777	-129.367	0.041	-0.006
-716.762	-118.059	-0.074	0.013
-715.748	53.960	0.325	-0.317
-714.733	-191.968	-0.190	0.002
-713.718	67.746	0.052	0.054
-712.704	-73.119	0.067	0.025
-711.689	184.157	-0.040	0.060
-710.675	-69.188	-0.197	-0.077
-709.660	143.406	-0.072	-0.097
-708.645	-133.397	0.308	0.039
-707.631	-200.000	0.014	-0.189
-706.616	-126.090	-0.305	-0.046
-705.602	250.335	0.100	0.172
-704.587	244.102	0.130	0.221
-703.572	-200.000	0.004	0.093
-702.558	800.000	-0.149	-0.433
-701.543	541.607	0.085	0.205
-700.529	800.000	0.108	0.384
-699.514	312.781	-0.096	-0.183
-698.499	-123.824	0.178	-0.029
-697.485	332.124	0.069	0.135
-696.470	-200.000	-0.011	-0.073
-695.456	45.313	-0.089	0.083
-694.441	345.665	-0.071	-0.140
-693.426	26.148	0.190	-0.161
-692.412	268.983	0.156	-0.278
-691.397	447.785	-0.146	-0.326
-690.383	282.843	0.076	-0.138
-689.368	-97.090	-0.160	0.042
-688.354	-200.000	-0.004	-0.280
-687.339	-3.728	-0.222	0.156
-686.324	-110.087	-0.182	0.038
-685.310	117.123	-0.098	0.122
-684.295	14.912	0.213	0.169
-683.281	201.661	0.134	-0.208
-682.266	-134.079	0.388	-0.049
-681.251	177.525	-0.141	0.207
-680.237	158.774	-0.058	0.081
-679.222	54.048	0.147	0.143
-678.208	45.625	-0.010	0.010
-677.193	-79.330	-0.537	0.184
-676.178	800.000	0.039	0.130
-675.164	-200.000	0.043	0.214
-674.149	285.715	-0.038	0.069
-673.135	79.445	-0.070	-0.076
-672.120	-60.799	0.152	-0.065
-671.105	-121.399	0.322	-0.054
-670.091	347.934	0.058	0.115
-669.076	-200.000	0.004	-0.226
-668.062	97.318	0.164	-0.190
-667.047	800.000	0.056	-0.173
-666.032	-200.000	0.008	0.108
-665.018	-2.343	-0.215	0.153
-664.003	-19.089	-0.223	0.140
-662.989	800.000	0.017	0.068
-661.974	-108.265	-0.203	0.044
-660.959	-94.267	0.275	0.076
-659.945	-21.643	0.265	-0.163
-658.930	-200.000	0.001	-0.445
-657.916	592.964	-0.184	-0.459
-656.901	-79.476	0.308	-0.105
-655.886	-51.183	-0.297	0.141
-654.872	88.520	0.122	-0.137
-653.857	-83.261	-0.114	-0.037
-652.843	-200.000	0.052	0.235
-651.828	-200.000	-0.020	-0.174
-650.814	248.374	-0.119	-0.204
-649.799	230.472	-0.094	0.155
-648.784	-200.000	-0.009	0.266
-647.770	316.574	-0.126	-0.240
-646.755	-200.000	0.030	-0.309
-645.741	70.028	0.125	-0.131
-644.726	271.540	-0.075	0.134
-643.711	-64.767	-0.228	-0.093
-642.697	-200.000	-0.060	-0.288
-641.682	118.502	-0.135	-0.169
-640.668	800.000	-0.085	-0.293
-639.653	-200.000	-0.077	0.425
-638.638	-111.306	-0.241	-0.050
-637.624	-200.000	-0.049	-0.307
-636.609	-200.000	0.015	-0.082
-635.595	-22.774	-0.182	-0.111
-634.580	152.007	-0.146	0.201
-633.565	-90.792	0.247	0.072
-632.551	-162.696	-0.293	0.015
-631.536	-183.621	-0.072	-0.001
-630.522	-44.250	-0.220	0.112
-629.507	129.892	0.096	0.124
-628.492	-200.000	0.032	-0.143
-627.478	-95.107	0.172	-0.047
-626.463	-91.435	-0.237	0.068
-625.449	273.636	0.064	0.114
-624.434	273.978	-0.081	0.146
-623.419	145.010	0.446	0.603
-622.405	-200.000	-0.048	0.283
-621.390	-90.119	0.360	-0.106
-620.376	-55.118	-0.116	-0.053
-619.361	-200.000	0.012	-0.113
-618.346	-200.000	0.024	-0.133
-617.332	-52.102	-0.335	-0.157
-616.317	-190.338	-0.200	0.002
-615.303	365.143	0.011	-0.023
-614.288	800.000	-0.130	-0.465
-613.273	-19.376	-0.214	0.134
-612.259	105.693	-0.122	-0.146
-611.244	19.180	0.116	-0.094
-610.230	44.736	0.206	0.192
-609.215	588.633	-0.108	-0.269
-608.201	-107.583	-0.151	0.033
-607.186	343.376	0.028	0.056
-606.171	-91.713	-0.139	-0.040
-605.157	-83.298	-0.308	0.100
-604.142	-73.921	0.074	-0.027
-603.128	9.610	-0.220	-0.168
-602.113	316.528	-0.122	0.232
-601.098	296.811	-0.148	-0.274
-600.084	103.909	-0.177	-0.210
-599.069	-46.655	-0.209	0.103
-598.055	20.303	-0.315	0.256
-597.040	137.979	0.062	0.083
-596.025	291.984	0.163	0.299
-595.011	28.497	-0.303	0.259
-593.996	800.000	0.024	-0.105
-592.982	120.752	-0.077	-0.097
-591.967	800.000	-0.079	-0.294
-590.952	-50.273	-0.205	0.098
-589.938	-200.000	-0.011	0.128
-588.923	-113.392	-0.156	0.031
-587.909	164.606	-0.138	0.197
-586.894	-200.000	0.003	-0.108
-585.879	-200.000	0.008	0.150
-584.865	-91.006	0.254	-0.074
-583.850	-11.553	-0.288	-0.191
-582.836	-200.000	0.008	-0.442
-581.821	-65.311	-0.104	0.042
-580.806	336.069	-0.070	-0.138
-579.792	-200.000	-0.011	-0.050
-578.777	-80.509	0.219	-0.074
-577.763	138.789	0.093	0.124
-576.748	-109.251	0.411	-0.088
-575.733	17.478	0.144	-0.115
-574.719	464.818	0.146	-0.329
-573.704	27.227	0.132	0.112
-572.690	-113.056	0.336	-0.067
-571.675	-14.865	0.181	0.117
-570.661	128.787	0.218	-0.280
-569.646	0.371	-0.374	0.269
-568.631	204.021	-0.050	-0.077
-567.617	-105.206	0.314	-0.072
-566.602	-95.187	0.307	0.083
-565.588	48.560	-0.031	0.029
-564.573	-15.812	-0.247	-0.159
-563.558	224.167	0.155	0.253
-562.544	76.969	-0.211	0.226
-561.529	260.147	-0.144	0.250
-560.515	107.759	0.096	0.115
-559.500	40.468	-0.150	0.136
-558.485	107.948	-0.252	-0.302
-557.471	80.377	-0.127	0.138
-556.456	81.636	-0.192	-0.209
-555.442	800.000	0.131	-0.575
-554.427	-79.481	-0.211	-0.072
-553.412	8.107	0.124	-0.093
-552.398	210.930	0.190	0.301
-551.383	-12.475	-0.109	-0.072
-550.369	-3.604	-0.036	0.025
-549.354	-46.501	-0.119	-0.059
-548.339	-200.000	0.025	-0.280
-547.325	455.758	-0.192	-0.430
-546.310	-200.000	0.024	0.175
-545.296	16.566	0.222	0.176
-544.281	-200.000	0.013	-0.165
-543.266	740.473	0.046	0.124
-542.252	-86.463	0.216	-0.067
-541.237	495.924	-0.113	-0.261
-540.223	147.207	0.256	-0.346
-539.208	800.000	0.022	0.067
-538.193	77.363	-0.192	0.206
-537.179	-112.778	-0.404	-0.081
-536.164	111.075	0.120	0.145
-535.150	187.187	0.093	-0.139
-534.135	27.833	-0.456	0.387
-533.121	365.212	-0.083	-0.168
-532.106	207.765	0.243	0.381
-531.091	-41.458	0.205	0.106
-530.077	800.000	0.106	0.319
-529.062	191.403	0.062	0.094
-528.048	54.746	-0.236	-0.229
-527.033	-175.558	0.239	0.007
-526.018	-30.464	-0.403	-0.230
-525.004	-61.676	-0.102	-0.043
-523.989	9.105	0.258	0.196
-522.975	800.000	0.070	0.218
-521.960	-64.431	-0.179	-0.073
-520.945	247.243	0.186	-0.316
-519.931	-28.939	-0.302	-0.175
-518.916	624.595	-0.123	-0.312
-517.902	16.051	-0.283	-0.224
-516.887	-200.000	0.002	-0.234
-515.872	590.109	0.174	-0.432
-514.858	-119.912	-0.588	-0.102
-513.843	10.138	-0.399	-0.305
-512.829	-61.511	0.245	0.104
-511.814	-58.707	0.275	-0.120
-510.799	20.768	0.256	-0.208
-509.785	-93.530	-0.499	0.139
-508.770	-76.659	-0.188	0.066
-507.756	-58.589	-0.028	0.012
-506.741	-81.586	0.193	0.064
-505.726	10.984	-0.099	-0.076
-504.712	-99.894	0.281	0.071
-503.697	-129.004	-0.129	0.018
-502.683	-200.000	-0.019	0.251
-501.668	-55.202	0.115	0.052
-500.653	-29.932	0.328	-0.188
-499.639	511.023	0.033	-0.077
-498.624	80.507	-0.065	0.071
-497.610	420.190	0.110	-0.237
-496.595	254.675	-0.205	0.353
-495.581	-172.743	0.234	0.007
-494.566	-86.869	-0.259	0.079
-493.551	16.375	-0.053	-0.042
-492.537	-116.460	0.276	0.051
-491.522	-200.000	-0.011	-0.250
-490.508	-14.762	-0.221	0.142
-489.493	800.000	0.016	-0.058
-488.478	-6.931	-0.168	-0.115
-487.464	17.261	0.062	0.049
-486.449	242.715	0.035	-0.059
-485.435	-200.000	0.039	-0.242
-484.420	423.373	0.077	0.166
-483.405	-46.994	0.194	0.095
-482.391	79.064	-0.044	-0.047
-481.376	176.400	-0.129	0.189
-480.362	-200.000	0.019	0.103
-479.347	186.633	0.060	0.089
-478.332	-200.000	0.009	0.273
-477.318	-30.457	0.127	0.072
-476.303	180.793	-0.192	-0.283
-475.289	-65.390	0.419	-0.169
-474.274	-200.000	0.058	0.347
-473.259	237.022	0.108	-0.179
-472.245	41.381	-0.028	-0.026
-471.230	-200.000	-0.043	-0.193
-470.216	-103.178	0.478	0.113
-469.201	39.321	-0.009	0.009
-468.186	-200.000	0.006	-0.158
-467.172	-104.054	0.127	0.030
-466.157	-54.932	0.180	-0.082
-465.143	278.722	-0.098	0.176
-464.128	207.835	0.085	0.134
-463.113	-107.193	0.116	0.026
-462.099	-178.318	-0.102	-0.002
-461.084	-51.966	-0.217	0.101
-460.070	298.631	-0.067	0.123
-459.055	120.486	0.041	-0.051
-458.040	-51.644	-0.177	-0.083
-457.026	204.096	0.138	-0.214
-456.011	-86.160	-0.109	0.034
-454.997	15.534	0.242	-0.191
-453.982	2.148	0.340	0.246
-452.968	800.000	0.088	0.257
-451.953	794.852	-0.045	0.124
-450.938	-70.014	-0.296	-0.113
-449.924	-85.969	-0.189	-0.059
-448.909	121.123	-0.169	0.210
-447.895	671.922	-0.057	0.147
-446.880	-15.280	0.067	0.043
-445.865	-78.430	0.574	0.197
-444.851	-89.535	-0.193	0.057
-443.836	-200.000	-0.013	-0.147
-442.822	-112.041	0.442	0.089
-441.807	-200.000	0.007	0.060
-440.792	-54.060	0.215	-0.098
-439.778	-112.769	-0.207	-0.041
-438.763	-200.000	0.057	0.263
-437.749	800.000	0.053	-0.230
-436.734	-122.636	-0.273	0.044
-435.719	96.407	0.271	-0.311
-434.705	-200.000	0.044	0.443
-433.690	43.030	-0.039	-0.036
-432.676	-117.907	-0.217	-0.039
-431.661	800.000	-0.055	-0.159
-430.646	558.208	-0.065	-0.158
-429.632	-5.364	-0.157	-0.108
-428.617	800.000	-0.029	0.122
-427.603	-19.399	0.129	-0.080
-426.588	-46.395	-0.155	-0.076
-425.573	225.851	0.133	0.215
-424.559	800.000	-0.086	-0.341
-423.544	320.566	0.057	-0.108
-422.530	-200.000	-0.000	-0.357
-421.515	-200.000	0.035	0.241
-420.500	391.647	-0.106	-0.222
-419.486	735.984	0.099	0.266
-418.471	-100.957	-0.170	-0.042
-417.457	43.724	-0.035	-0.032
-416.442	-134.355	0.184	0.023
-415.428	-200.000	-0.003	0.059
-414.413	-95.527	-0.256	-0.069
-413.398	188.298	-0.130	-0.194
-412.384	-59.291	-0.398	0.172
-411.369	-117.076	0.225	0.041
-410.355	-200.000	-0.026	0.338
-409.340	14.675	-0.083	0.065
-408.325	-200.000	-0.009	0.049
-407.311	-136.190	0.295	-0.035
-406.296	33.796	0.115	-0.100
-405.282	612.311	-0.029	0.073
-404.267	177.923	-0.301	-0.440
-403.252	-41.229	-0.223	0.115
-402.238	142.418	0.168	0.223
-401.223	-200.000	-0.041	0.330
-400.209	-68.340	0.078	0.030
-399.194	-72.771	0.082	0.030
-398.179	800.000	-0.082	0.279
-397.165	-4.095	0.282	0.196
-396.150	-31.034	-0.631	0.356
-395.136	-1.914	0.175	0.123
-394.121	-156.549	0.003	-0.000
-393.106	-200.000	-0.024	-0.154
-392.092	42.291	0.199	-0.181
-391.077	726.747	0.078	-0.209
-390.063	17.833	-0.224	-0.178
-389.048	31.161	0.118	-0.101
-388.033	543.628	-0.030	0.072
-387.019	-40.261	0.117	-0.061
-386.004	564.010	0.047	0.114
-384.990	-200.000	0.012	-0.089
-383.975	-130.770	-0.130	0.017
-382.960	291.179	-0.035	-0.064
-381.946	634.114	-0.046	0.117
-380.931	-42.776	0.058	-0.030
-379.917	189.200	0.088	0.131
-378.902	371.411	-0.060	-0.121
-377.888	-10.012	0.232	0.154
-376.873	-178.422	-0.498	-0.012
-375.858	255.561	-0.045	0.077
-374.844	19.393	-0.217	0.175
-373.829	209.807	0.151	0.237
-372.815	-133.858	0.240	-0.030
-371.800	267.929	-0.064	-0.112
-370.785	64.722	0.297	-0.300
-369.771	-89.255	0.299	0.088
-368.756	-10.900	-0.326	-0.215
-367.742	322.159	-0.095	-0.181
-366.727	-200.000	-0.063	-0.334
-365.712	-115.446	0.278	0.052
-364.698	89.056	-0.273	0.304
-363.683	-133.130	-0.099	0.013
-362.669	255.175	-0.036	0.061
-361.654	-145.791	-0.048	0.004
-360.639	-142.956	-0.101	0.010
-359.625	-200.000	0.013	-0.294
-358.610	-13.678	-0.036	0.023
-357.596	-200.000	0.014	-0.084
-356.581	-20.480	-0.090	0.055
-355.566	-96.975	-0.404	-0.106
-354.552	40.534	-0.188	-0.169
-353.537	116.095	-0.178	0.218
-352.523	-115.311	-0.116	0.022
-351.508	34.293	-0.077	0.067
-350.493	-200.000	-0.037	0.479
-349.479	-80.299	0.054	0.018
-348.464	800.000	-0.128	-0.379
-347.450	-171.688	-0.061	-0.002
-346.435	57.513	0.188	-0.184
-345.420	-200.000	0.005	0.173
-344.406	-47.689	0.270	-0.131
-343.391	-184.130	0.273	0.005
-342.377	100.950	0.132	0.153
-341.362	411.547	0.088	-0.187
-340.348	-200.000	-0.024	0.324
-339.333	156.578	0.118	0.162
-338.318	-0.750	0.062	-0.044
-337.304	800.000	-0.061	0.244
-336.289	509.233	-0.036	0.082
-335.275	-200.000	0.043	0.429
-334.260	-98.421	0.146	0.037
-333.245	-52.591	-0.141	0.065
-332.231	456.332	-0.119	-0.265
-331.216	800.000	-0.058	-0.162
-330.202	-131.503	0.375	-0.049
-329.187	-99.396	0.113	-0.029
-328.172	-58.105	-0.268	0.117
-327.158	-52.199	0.224	-0.104
-326.143	-200.000	0.067	-0.352
-325.129	800.000	-0.087	0.315
-324.114	800.000	-0.031	-0.090
-323.099	-167.011	-0.315	0.013
-322.085	-127.259	-0.364	0.053
-321.070	-28.868	0.210	0.120
-320.056	-117.592	-0.369	-0.066
-319.041	-144.119	-0.163	-0.015
-318.026	-33.816	-0.354	-0.195
-317.012	212.003	-0.164	0.258
-315.997	-200.000	0.009	-0.370
-314.983	189.904	-0.054	0.081
-313.968	381.576	-0.070	-0.143
-312.953	206.595	0.094	0.146
-311.939	800.000	0.071	-0.216
-310.924	800.000	0.052	0.170
-309.910	-16.162	0.253	-0.160
-308.895	-105.114	-0.143	-0.033
-307.880	-156.767	0.179	-0.011
-306.866	-43.943	0.375	-0.188
-305.851	-200.000	0.009	0.427
-304.837	36.364	0.135	-0.119
-303.822	800.000	0.081	-0.270
-302.807	101.059	-0.062	0.072
-301.793	-29.258	0.191	0.109
-300.778	-145.946	-0.320	-0.028
-299.764	-156.858	0.360	0.022
-298.749	339.332	-0.164	-0.319
-297.735	191.051	-0.070	0.106
-296.720	800.000	-0.158	-0.519
-295.705	62.378	0.046	-0.046
-294.691	-102.254	-0.008	-0.002
-293.676	-83.194	0.159	-0.051
-292.662	432.974	-0.097	-0.209
-291.647	68.109	0.128	-0.130
-290.632	-35.271	0.009	-0.005
-289.618	-16.677	-0.161	0.102
-288.603	-67.267	0.387	-0.152
-287.589	-120.280	0.406	-0.069
-286.574	-200.000	-0.026	0.208
-285.559	-25.908	-0.109	0.064
-284.545	-5.818	-0.076	-0.052
-283.530	-159.880	-0.247	-0.014
-282.516	-23.218	-0.182	0.109
-281.501	-200.000	-0.019	0.253
-280.486	244.341	0.021	0.036
-279.472	136.289	0.157	0.204
-278.457	62.780	-0.117	-0.117
-277.443	6.479	0.158	0.117
-276.428	23.035	0.070	0.057
-275.413	-115.263	-0.087	-0.016
-274.399	-95.333	-0.241	-0.065
-273.384	-77.312	0.075	-0.026
-272.370	97.474	0.263	0.301
-271.355	92.582	-0.073	0.083
-270.340	-131.344	-0.031	0.004
-269.326	-200.000	-0.027	0.196
-268.311	-200.000	-0.029	-0.282
-267.297	165.574	-0.128	-0.180
-266.282	30.993	0.120	-0.103
-265.267	-200.000	-0.013	0.273
-264.253	-200.000	-0.006	0.139
-263.238	800.000	-0.081	0.226
-262.224	-29.312	0.062	-0.036
-261.209	-85.691	-0.234	-0.072
-260.195	52.190	0.132	0.126
-259.180	800.000	-0.082	0.266
-258.165	-153.387	-0.082	-0.006
-257.151	14.268	0.386	0.299
-256.136	-2.341	0.099	0.069
-255.122	-34.432	0.229	-0.125
-254.107	-152.471	0.350	-0.025
-253.092	621.482	-0.037	-0.093
-252.078	34.351	-0.189	0.164
-251.063	57.864	-0.146	0.142
-250.049	-175.784	0.253	0.007
-249.034	-200.000	0.038	-0.290
-248.019	5.557	-0.195	-0.143
-247.005	4.109	-0.196	0.142
-245.990	220.999	0.298	0.476
-244.976	-139.117	0.455	0.049
-243.961	126.026	-0.295	0.372
-242.946	-70.373	0.234	0.088
-241.932	15.237	-0.075	0.059
-240.917	-115.535	-0.187	-0.035
-239.903	-38.554	0.313	-0.165
-238.888	119.202	-0.077	0.094
-237.873	-172.464	0.181	-0.006
-236.859	24.729	0.197	-0.162
-235.844	39.195	-0.156	-0.139
-234.830	583.300	0.087	0.212
-233.815	-69.913	0.399	0.151
-232.800	338.158	0.089	0.173
-231.786	-200.000	0.045	0.323
-230.771	21.521	-0.120	-0.097
-229.757	-3.593	0.144	-0.100
-228.742	-73.669	0.272	-0.099
-227.727	6.208	0.275	0.203
-226.713	800.000	-0.052	-0.200
-225.698	374.244	-0.070	0.141
-224.684	-142.199	0.369	0.036
-223.669	-200.000	0.027	0.425
-222.655	200.915	-0.184	0.282
-221.640	800.000	-0.071	-0.208
-220.625	-200.000	-0.017	0.196
-219.611	259.591	0.102	-0.174
-218.596	110.792	-0.133	0.160
-217.582	-164.974	-0.266	-0.012
-216.567	-50.598	0.225	0.105
-215.552	403.125	-0.069	0.145
-214.538	800.000	0.067	0.187
-213.523	-200.000	0.025	0.160
-212.509	-123.218	-0.185	0.029
-211.494	-133.977	0.275	0.034
-210.479	-190.013	-0.385	0.004
-209.465	-191.310	0.140	0.001
-208.450	-200.000	-0.006	0.141
-207.436	72.713	0.139	0.144
-206.421	14.382	-0.245	-0.190
-205.406	-200.000	-0.028	-0.182
-204.392	-106.941	-0.161	0.035
-203.377	-100.297	0.040	0.010
-202.363	708.375	-0.030	-0.080
-201.348	-112.136	0.165	-0.033
-200.333	21.694	-0.112	-0.091
-199.319	-49.826	0.323	-0.152
-198.304	-181.738	0.488	0.009
-197.290	-146.255	0.235	-0.021
-196.275	143.617	0.161	-0.214
-195.260	756.150	0.049	0.131
-194.246	-200.000	-0.035	0.154
-193.231	-3.195	-0.377	0.261
-192.217	-200.000	-0.031	-0.400
-191.202	208.985	0.135	-0.209
-190.187	101.104	-0.214	-0.247
-189.173	-200.000	-0.063	0.287
-188.158	-109.494	-0.289	0.061
-187.144	-200.000	-0.024	-0.200
-186.129	800.000	0.036	-0.138
-185.114	89.884	0.130	0.145
-184.100	35.023	0.171	0.148
-183.085	-107.865	0.249	-0.054
-182.071	-200.000	0.042	-0.327
-181.056	178.430	-0.065	0.093
-180.042	316.484	0.087	-0.164
-179.027	-200.000	0.020	-0.189
-178.012	513.679	-0.128	-0.297
-176.998	-200.000	-0.007	-0.318
-175.983	-150.756	0.126	0.009
-174.969	270.093	0.134	-0.234
-173.954	-84.861	-0.093	0.029
-172.939	800.000	0.031	-0.118
-171.925	31.289	-0.024	0.020
-170.910	77.318	0.071	-0.075
-169.896	800.000	-0.050	0.177
-168.881	67.736	0.113	0.115
-167.866	19.018	-0.070	-0.056
-166.852	-156.816	0.242	0.015
-165.837	-99.693	0.285	0.071
-164.823	20.315	0.211	0.169
-163.808	253.325	0.023	0.039
-162.793	-53.499	-0.149	0.068
-161.779	-122.616	0.153	0.025
-160.764	70.179	-0.083	0.085
-159.750	575.946	-0.045	-0.108
-158.735	-81.363	-0.323	0.106
-157.720	90.978	0.220	-0.245
-156.706	-192.620	-0.252	0.002
-155.691	-200.000	0.009	-0.059
-154.677	-128.469	0.250	0.035
-153.662	-61.118	0.535	0.224
-152.647	74.552	-0.130	0.136
-151.633	42.379	0.153	0.138
-150.618	-128.210	0.099	0.014
-149.604	-13.318	-0.059	-0.038
-148.589	800.000	-0.045	-0.186
-147.574	156.340	0.266	-0.364
-146.560	34.270	0.356	-0.308
-145.545	-200.000	0.010	-0.067
-144.531	-74.928	-0.208	0.074
-143.516	439.980	-0.063	0.135
-142.502	-166.931	0.079	0.003
-141.487	139.253	-0.124	0.162
-140.472	800.000	-0.122	-0.356
-139.458	-200.000	-0.003	0.202
-138.443	82.879	0.171	-0.185
-137.429	-158.341	-0.224	0.013
-136.414	111.966	0.017	0.020
-135.399	-200.000	-0.027	0.121
-134.385	-37.356	0.119	-0.063
-133.370	-163.083	0.242	0.012
-132.356	-38.578	0.234	-0.122
-131.341	-122.953	0.206	0.033
-130.326	-60.131	-0.092	-0.039
-129.312	-110.233	-0.383	-0.079
-128.297	29.894	-0.132	-0.111
-127.283	-200.000	-0.025	-0.113
-126.268	16.363	0.156	-0.122
-125.253	53.986	-0.163	0.155
-124.239	-55.828	-0.268	-0.119
-123.224	-189.616	0.157	-0.002
-122.210	-117.814	0.211	-0.038
-121.195	67.987	0.097	-0.099
