DTS Sentinel unit serial number:	SN413079Multiplexer serial number:	ORYXHardware model number:	OX4-SRSoftware version number:	ORYX F/W v4.00 Oryx Data Collector v3.7.2.0data status	okinstallation	princeton_trtdifferential loss correction	single-endedforward channel	channel 3reverse channel	N/Adate	2019/09/16time	00:48:34forward acquisition time	60.00reverse acquisition time	0.00gamma	496.2192k internal	0.2338k external	0.2338temperature offset calibration	0.9948default loss term (dB/km)	0.3790temperature slope calibration	1.0000multiplexer offset coefficient	1.0000multiplexer slope coefficient	1.0000fibre end	0.00T internal ref (°C)	27.44T ext. ref 1 (°C)	9.68T ext. ref 2 (°C)	21.48length (m)	temperature (°C)	Stokes	anti-Stokes-747.200	-200.000	0.026	0.196
-746.185	170.556	0.077	0.110
-745.171	35.568	-0.285	0.252
-744.156	-164.762	-0.131	0.006
-743.142	12.324	-0.065	0.050
-742.127	-200.000	0.041	0.274
-741.112	-21.581	0.182	0.111
-740.098	59.761	-0.231	0.228
-739.083	192.309	-0.140	-0.212
-738.069	-54.219	0.192	0.088
-737.054	-125.408	-0.077	-0.012
-736.039	541.911	-0.029	0.068
-735.025	-74.281	-0.352	0.128
-734.010	188.295	-0.126	-0.189
-732.996	-78.742	-0.240	0.082
-731.981	-200.000	-0.352	-0.001
-730.966	42.240	0.103	-0.094
-729.952	181.047	-0.143	-0.211
-728.937	339.058	0.164	-0.321
-727.923	229.074	-0.082	-0.135
-726.908	28.454	-0.091	-0.077
-725.894	-143.512	-0.046	0.004
-724.879	-103.430	0.120	-0.028
-723.864	81.780	-0.157	-0.170
-722.850	119.939	-0.054	-0.067
-721.835	-200.000	0.047	0.377
-720.821	-44.260	-0.348	-0.175
-719.806	-161.488	0.206	0.011
-718.791	545.445	-0.163	0.391
-717.777	12.339	-0.436	-0.337
-716.762	12.193	0.240	0.185
-715.748	-157.062	0.226	-0.014
-714.733	20.863	-0.267	0.217
-713.718	-15.025	-0.299	0.192
-712.704	800.000	0.046	-0.196
-711.689	-91.075	0.048	-0.014
-710.675	-152.459	-0.136	-0.010
-709.660	157.711	0.095	-0.131
-708.645	-200.000	0.015	-0.109
-707.631	796.133	0.113	0.310
-706.616	453.440	0.058	0.128
-705.602	-200.000	0.000	0.156
-704.587	-200.000	0.042	0.199
-703.572	-76.209	0.201	-0.071
-702.558	-149.834	-0.062	-0.005
-701.543	-141.564	-0.198	-0.020
-700.529	-99.064	0.117	-0.030
-699.514	-63.520	-0.217	0.089
-698.499	-133.343	0.247	0.031
-697.485	-200.000	-0.003	0.199
-696.470	31.693	-0.092	-0.080
-695.456	476.619	0.088	-0.199
-694.441	800.000	-0.091	0.289
-693.426	-57.177	-0.474	-0.209
-692.412	340.764	0.051	0.100
-691.397	-120.434	-0.120	0.020
-690.383	296.706	-0.090	0.165
-689.368	800.000	0.001	0.003
-688.354	-104.036	-0.265	0.062
-687.339	44.259	-0.048	-0.044
-686.324	346.631	0.124	0.244
-685.310	-200.000	-0.011	0.050
-684.295	95.632	-0.107	0.122
-683.281	-122.904	0.056	-0.009
-682.266	-23.152	0.261	-0.157
-681.251	-23.577	-0.084	-0.051
-680.237	212.279	0.076	-0.120
-679.222	800.000	0.059	-0.192
-678.208	-200.000	-0.019	-0.312
-677.193	268.650	-0.031	0.055
-676.178	134.388	0.103	-0.133
-675.164	-7.482	-0.093	0.063
-674.149	-200.000	-0.001	-0.041
-673.135	96.524	-0.126	0.144
-672.120	-12.092	-0.132	0.087
-671.105	406.559	0.060	0.127
-670.091	16.704	-0.098	0.078
-669.076	110.753	0.142	-0.171
-668.062	-107.809	-0.229	0.050
-667.047	-77.956	0.118	0.041
-666.032	85.234	0.151	0.166
-665.018	762.628	-0.104	0.282
-664.003	-1.720	-0.242	0.171
-662.989	-116.064	-0.173	-0.032
-661.974	800.000	-0.086	0.346
-660.959	-111.701	0.145	0.029
-659.945	20.832	0.133	0.107
-658.930	482.185	0.212	0.482
-657.916	57.839	-0.303	-0.296
-656.901	-147.811	-0.225	0.019
-655.886	129.984	0.104	0.133
-654.872	-33.662	-0.138	0.076
-653.857	-111.056	-0.118	-0.024
-652.843	192.195	-0.155	-0.234
-651.828	161.707	-0.065	-0.090
-650.814	115.872	-0.200	0.244
-649.799	47.446	-0.124	0.115
-648.784	20.543	0.174	-0.141
-647.770	218.135	-0.063	0.101
-646.755	-93.660	-0.335	0.092
-645.741	-154.191	0.006	-0.000
-644.726	-200.000	0.010	-0.114
-643.711	-158.854	-0.114	-0.007
-642.697	-82.158	0.416	0.136
-641.682	574.789	-0.095	0.232
-640.668	230.281	0.152	0.249
-639.653	-141.387	0.170	-0.017
-638.638	31.483	0.257	0.221
-637.624	-126.113	-0.139	0.021
-636.609	-62.130	-0.115	0.048
-635.595	-200.000	0.019	0.202
-634.580	88.174	0.174	-0.193
-633.565	-69.710	0.202	0.077
-632.551	291.512	-0.108	0.196
-631.536	102.586	0.057	0.066
-630.522	225.316	0.176	-0.284
-629.507	800.000	0.040	-0.167
-628.492	-51.745	-0.104	-0.049
-627.478	-200.000	-0.012	0.209
-626.463	276.198	-0.181	-0.320
-625.449	41.398	0.150	0.136
-624.434	800.000	0.103	0.332
-623.419	-41.614	0.353	0.181
-622.405	-139.244	-0.301	-0.032
-621.390	-98.396	0.161	-0.041
-620.376	-17.320	0.234	-0.147
-619.361	-200.000	0.003	-0.071
-618.346	-70.812	0.095	-0.036
-617.332	-95.712	-0.170	0.045
-616.317	-200.000	-0.019	-0.105
-615.303	184.023	0.109	0.160
-614.288	111.418	0.117	0.140
-613.273	-99.091	-0.329	-0.083
-612.259	800.000	-0.036	-0.152
-611.244	612.286	-0.177	0.442
-610.230	246.237	-0.042	-0.071
-609.215	1.166	-0.362	-0.260
-608.201	17.306	-0.176	-0.140
-607.186	-200.000	0.022	0.345
-606.171	-39.271	-0.202	-0.106
-605.157	11.914	0.337	0.259
-604.142	-200.000	-0.018	-0.284
-603.128	101.900	0.072	0.084
-602.113	33.192	0.184	0.159
-601.098	107.894	-0.111	-0.132
-600.084	800.000	0.057	-0.220
-599.069	-125.505	0.113	0.017
-598.055	-113.389	-0.142	0.028
-597.040	-200.000	-0.067	0.365
-596.025	-114.890	0.059	0.011
-595.011	800.000	0.101	-0.307
-593.996	380.548	-0.144	0.294
-592.982	176.591	-0.183	0.266
-591.967	-114.067	-0.428	0.083
-590.952	169.377	0.122	0.174
-589.938	-143.949	0.408	-0.038
-588.923	800.000	0.039	-0.154
-587.909	-160.421	0.111	-0.006
-586.894	-147.934	0.361	0.030
-585.879	-86.770	0.182	-0.055
-584.865	100.993	-0.161	-0.187
-583.850	-86.106	-0.336	0.103
-582.836	82.716	0.105	-0.114
-581.821	-91.830	0.121	-0.034
-580.806	487.233	-0.115	0.260
-579.792	-50.384	0.358	0.169
-578.777	-95.513	0.153	0.041
-577.763	-35.515	-0.337	-0.182
-576.748	134.909	-0.275	-0.356
-575.733	-24.249	-0.188	0.112
-574.719	15.727	-0.206	0.161
-573.704	231.977	0.027	0.044
-572.690	-121.184	-0.082	-0.014
-571.675	-143.770	0.394	0.037
-570.661	-95.250	-0.229	0.061
-569.646	800.000	-0.056	0.162
-568.631	-5.352	0.273	-0.187
-567.617	78.501	0.199	-0.212
-566.602	139.354	0.201	0.263
-565.588	14.252	-0.239	-0.186
-564.573	800.000	-0.047	-0.172
-563.558	80.358	0.174	0.187
-562.544	-9.670	-0.303	-0.201
-561.529	52.326	-0.194	-0.184
-560.515	50.795	0.250	0.236
-559.500	-84.464	-0.323	-0.102
-558.485	-200.000	0.008	-0.099
-557.471	297.001	0.159	-0.291
-556.456	-73.147	0.285	-0.104
-555.442	-200.000	-0.027	-0.294
-554.427	-200.000	0.033	-0.180
-553.412	-79.512	0.194	-0.065
-552.398	144.995	-0.234	-0.312
-551.383	51.868	-0.030	0.028
-550.369	-64.793	-0.230	0.093
-549.354	-90.005	0.211	0.061
-548.339	-9.914	0.392	-0.260
-547.325	124.280	-0.203	-0.254
-546.310	-124.083	-0.066	-0.010
-545.296	343.866	0.084	0.165
-544.281	-84.495	0.211	0.066
-543.266	-153.367	0.201	0.014
-542.252	-200.000	0.020	-0.174
-541.237	-51.497	0.013	0.006
-540.223	111.770	-0.156	-0.187
-539.208	-0.919	0.113	-0.079
-538.193	-81.086	-0.318	-0.105
-537.179	-196.914	-0.074	-0.000
-536.164	301.235	-0.080	-0.147
-535.150	497.395	0.108	-0.247
-534.135	-191.116	-0.114	-0.001
-533.121	-86.400	0.083	-0.025
-532.106	-200.000	0.042	0.195
-531.091	800.000	0.044	-0.173
-530.077	476.899	0.005	0.011
-529.062	-200.000	-0.030	-0.372
-528.048	-80.515	0.264	-0.087
-527.033	-200.000	-0.016	0.221
-526.018	235.818	0.121	-0.199
-525.004	-200.000	-0.009	0.201
-523.989	176.005	-0.307	-0.443
-522.975	619.621	-0.026	0.065
-521.960	69.636	-0.203	-0.208
-520.945	9.747	0.125	-0.094
-519.931	414.542	0.054	0.113
-518.916	42.994	-0.256	-0.233
-517.902	-24.621	-0.202	0.120
-516.887	142.893	0.028	0.037
-515.872	-134.204	0.178	0.022
-514.858	156.561	0.081	0.111
-513.843	143.751	-0.247	-0.328
-512.829	150.807	-0.070	-0.094
-511.814	-7.595	0.173	0.116
-510.799	271.308	0.143	0.251
-509.785	-102.428	0.243	-0.058
-508.770	74.014	-0.117	-0.122
-507.756	202.169	0.124	0.190
-506.741	800.000	0.112	-0.393
-505.726	-9.199	0.301	-0.200
-504.712	800.000	-0.080	-0.272
-503.697	-39.041	0.238	0.124
-502.683	91.156	-0.051	-0.057
-501.668	-200.000	-0.005	0.107
-500.653	-135.723	0.281	0.033
-499.639	1.030	0.232	-0.165
-498.624	277.654	0.119	0.210
-497.610	95.965	-0.311	-0.352
-496.595	-101.463	0.350	-0.085
-495.581	-51.622	-0.208	-0.096
-494.566	-10.609	0.020	-0.013
-493.551	-200.000	-0.024	-0.172
-492.537	356.027	-0.087	0.172
-491.522	-200.000	-0.010	0.213
-490.508	-30.451	-0.168	0.094
-489.493	50.888	-0.066	-0.062
-488.478	-200.000	-0.001	-0.023
-487.464	-90.258	-0.181	-0.052
-486.449	-71.559	0.186	0.069
-485.435	314.768	0.225	-0.421
-484.420	800.000	0.049	0.162
-483.405	-59.404	-0.283	0.121
-482.391	-164.748	-0.321	0.014
-481.376	252.232	-0.203	-0.344
-480.362	324.815	-0.083	-0.157
-479.347	69.205	-0.104	-0.106
-478.332	800.000	-0.062	-0.221
-477.318	-104.592	-0.322	-0.074
-476.303	-91.139	0.307	0.087
-475.289	-1.913	0.157	0.109
-474.274	170.393	-0.137	-0.195
-473.259	800.000	0.042	0.152
-472.245	-200.000	0.068	0.342
-471.230	702.077	-0.051	0.134
-470.216	15.322	0.240	0.187
-469.201	295.007	0.115	-0.209
-468.186	800.000	0.045	-0.191
-467.172	-102.763	0.172	0.041
-466.157	-97.773	-0.257	-0.066
-465.143	175.796	0.062	0.089
-464.128	121.532	0.107	0.132
-463.113	19.696	0.040	0.032
-462.099	128.540	-0.147	0.186
-461.084	704.439	0.073	-0.192
-460.070	-200.000	0.040	-0.314
-459.055	5.938	-0.146	0.108
-458.040	-48.077	-0.258	0.124
-457.026	286.734	0.035	-0.063
-456.011	-16.128	-0.286	0.180
-454.997	-34.342	0.211	0.115
-453.982	-11.106	-0.053	0.035
-452.968	-40.666	-0.053	0.027
-451.953	-134.361	-0.261	-0.032
-450.938	26.404	0.075	-0.063
-449.924	144.737	-0.118	0.156
-448.909	187.558	0.119	0.177
-447.895	140.958	0.103	0.134
-446.880	74.933	-0.083	-0.086
-445.865	-131.203	0.273	-0.036
-444.851	126.259	-0.076	-0.096
-443.836	-95.988	-0.148	0.039
-442.822	-159.475	0.245	0.014
-441.807	685.783	-0.074	-0.191
-440.792	-168.235	-0.074	0.003
-439.778	800.000	0.048	-0.177
-438.763	-200.000	0.056	-0.347
-437.749	-200.000	-0.051	-0.433
-436.734	417.325	-0.077	-0.163
-435.719	150.404	-0.150	0.202
-434.705	78.582	-0.239	0.254
-433.690	-160.834	-0.144	0.008
-432.676	800.000	0.066	0.238
-431.661	800.000	0.105	0.319
-430.646	-41.867	-0.340	0.173
-429.632	-101.072	-0.276	0.067
-428.617	-22.984	-0.078	0.046
-427.603	89.935	0.086	0.095
-426.588	-23.456	0.372	0.221
-425.573	19.309	-0.141	0.112
-424.559	342.326	-0.054	0.104
-423.544	83.746	-0.075	-0.081
-422.530	-126.728	-0.009	0.001
-421.515	29.398	0.151	0.127
-420.500	6.096	-0.152	0.112
-419.486	-200.000	-0.016	0.273
-418.471	-27.821	-0.135	-0.077
-417.457	-71.808	0.251	0.093
-416.442	-165.452	0.439	0.019
-415.428	800.000	-0.053	0.216
-414.413	-9.451	-0.240	-0.159
-413.398	-81.262	0.129	-0.042
-412.384	800.000	0.048	-0.169
-411.369	374.700	0.021	0.042
-410.355	666.523	0.036	-0.093
-409.340	76.344	-0.124	-0.130
-408.325	250.938	0.035	-0.058
-407.311	800.000	0.018	-0.051
-406.296	-200.000	-0.017	0.157
-405.282	365.060	0.160	-0.320
-404.267	800.000	-0.038	-0.110
-403.252	-63.643	-0.198	-0.080
-402.238	800.000	-0.058	-0.168
-401.223	15.022	-0.226	0.175
-400.209	-92.940	0.220	0.061
-399.194	-200.000	-0.063	-0.334
-398.179	-200.000	-0.017	-0.116
-397.165	145.128	0.165	-0.219
-396.150	190.316	-0.209	0.310
-395.136	229.693	0.155	0.251
-394.121	-200.000	0.006	-0.184
-393.106	315.715	-0.041	-0.076
-392.092	-51.899	0.329	-0.151
-391.077	-200.000	0.011	0.197
-390.063	-200.000	0.001	0.166
-389.048	-26.897	0.111	-0.064
-388.033	12.281	-0.136	-0.104
-387.019	-200.000	-0.011	0.145
-386.004	29.403	0.172	0.145
-384.990	800.000	-0.073	-0.202
-383.975	-200.000	0.065	-0.289
-382.960	-200.000	-0.014	-0.248
-381.946	800.000	0.034	0.140
-380.931	-200.000	-0.051	0.235
-379.917	-102.453	0.150	0.035
-378.902	800.000	0.077	0.242
-377.888	800.000	0.072	0.275
-376.873	22.554	0.256	-0.207
-375.858	-200.000	0.021	-0.119
-374.844	-200.000	-0.005	-0.034
-373.829	-144.224	0.032	0.003
-372.815	71.126	0.216	-0.222
-371.800	176.904	-0.116	-0.167
-370.785	17.892	-0.194	-0.153
-369.771	60.790	0.163	0.160
-368.756	25.256	-0.166	0.136
-367.742	433.888	-0.052	0.112
-366.727	-200.000	0.023	-0.291
-365.712	-100.560	-0.115	-0.028
-364.698	-200.000	-0.006	-0.181
-363.683	-118.875	-0.174	-0.030
-362.669	389.095	0.075	-0.154
-361.654	134.112	-0.062	-0.079
-360.639	-200.000	0.028	0.259
-359.625	-82.596	-0.322	0.103
-358.610	157.106	-0.104	-0.142
-357.596	64.661	0.128	-0.127
-356.581	-45.504	-0.098	0.048
-355.566	-200.000	0.010	0.107
-354.552	-102.823	-0.269	0.063
-353.537	800.000	0.089	-0.250
-352.523	478.148	-0.076	-0.169
-351.508	236.858	0.056	-0.091
-350.493	96.158	0.056	-0.063
-349.479	-38.487	-0.175	-0.091
-348.464	-200.000	-0.070	-0.418
-347.450	-200.000	0.023	0.169
-346.435	-136.993	0.372	0.042
-345.420	193.358	-0.189	-0.282
-344.406	-63.530	0.248	0.101
-343.391	-12.557	0.108	0.070
-342.377	30.817	0.086	-0.073
-341.362	18.738	-0.261	0.206
-340.348	800.000	0.046	0.140
-339.333	107.632	-0.060	-0.070
-338.318	-82.396	-0.251	0.080
-337.304	-132.880	0.158	0.020
-336.289	-38.447	-0.127	0.066
-335.275	-200.000	0.037	-0.292
-334.260	46.063	-0.291	0.266
-333.245	-88.284	0.316	-0.093
-332.231	49.969	0.101	0.094
-331.216	14.848	-0.095	0.073
-330.202	109.344	-0.095	-0.112
-329.187	800.000	0.037	0.144
-328.172	23.609	-0.112	-0.091
-327.158	800.000	0.084	-0.255
-326.143	-111.596	0.037	-0.007
-325.129	-59.870	0.158	0.067
-324.114	-23.013	0.098	0.058
-323.099	-191.378	0.398	-0.004
-322.085	-200.000	-0.036	0.330
-321.070	-32.179	0.468	-0.258
-320.056	82.955	0.208	-0.223
-319.041	-200.000	-0.040	-0.207
-318.026	-47.203	-0.332	0.160
-317.012	-52.195	0.265	0.121
-315.997	-200.000	-0.021	0.338
-314.983	147.172	0.048	-0.063
-313.968	-115.064	-0.081	0.015
-312.953	628.719	0.108	0.269
-311.939	144.957	0.221	-0.292
-310.924	-200.000	-0.006	-0.224
-309.910	-166.391	0.441	-0.018
-308.895	-150.586	-0.177	0.013
-307.880	-39.741	0.270	0.139
-306.866	-117.510	-0.088	-0.016
-305.851	36.175	-0.149	0.129
-304.837	800.000	0.076	0.302
-303.822	-59.485	-0.337	-0.143
-302.807	0.365	-0.207	-0.145
-301.793	42.305	0.230	-0.206
-300.778	148.701	-0.234	0.312
-299.764	-45.300	0.421	-0.206
-298.749	47.182	-0.195	0.179
-297.735	553.404	0.089	0.210
-296.720	23.030	-0.372	-0.301
-295.705	800.000	-0.055	0.169
-294.691	-200.000	-0.025	0.162
-293.676	-130.371	-0.141	0.019
-292.662	2.386	-0.361	0.257
-291.647	-124.604	-0.135	-0.021
-290.632	-50.903	-0.528	0.245
-289.618	-93.064	-0.057	-0.016
-288.603	600.930	-0.081	-0.198
-287.589	140.611	-0.156	-0.203
-286.574	800.000	0.037	-0.158
-285.559	280.143	-0.138	0.243
-284.545	-200.000	0.001	-0.187
-283.530	103.765	-0.084	-0.097
-282.516	-200.000	-0.002	0.161
-281.501	582.289	0.028	-0.069
-280.486	800.000	-0.065	0.185
-279.472	398.522	-0.101	0.208
-278.457	187.075	-0.183	-0.268
-277.443	-200.000	0.039	-0.277
-276.428	-62.110	-0.132	0.054
-275.413	-200.000	-0.004	0.254
-274.399	-22.833	-0.305	0.181
-273.384	-200.000	0.028	0.236
-272.370	265.748	0.085	-0.145
-271.355	-63.735	-0.350	0.141
-270.340	444.886	-0.144	0.312
-269.326	293.125	-0.050	0.090
-268.311	800.000	-0.032	-0.094
-267.297	67.383	-0.028	-0.029
-266.282	61.721	0.111	0.109
-265.267	-18.754	0.295	0.181
-264.253	-200.000	-0.026	0.120
-263.238	38.914	0.013	0.012
-262.224	30.011	0.193	0.162
-261.209	26.819	0.331	-0.273
-260.195	800.000	0.057	0.191
-259.180	524.265	-0.123	0.286
-258.165	-146.239	-0.293	-0.025
-257.151	-93.756	0.225	0.061
-256.136	-85.045	0.169	0.052
-255.122	534.212	-0.027	-0.064
-254.107	-78.545	-0.152	-0.051
-253.092	-200.000	0.045	0.204
-252.078	-86.265	-0.138	-0.042
-251.063	-8.916	-0.153	-0.101
-250.049	-200.000	-0.084	-0.000
-249.034	-55.869	-0.253	0.111
-248.019	-200.000	0.040	0.178
-247.005	800.000	-0.054	0.146
-245.990	6.712	-0.146	-0.107
-244.976	800.000	-0.027	-0.086
-243.961	158.733	-0.206	-0.281
-242.946	-145.917	-0.429	-0.037
-241.932	-122.581	-0.090	0.014
-240.917	295.053	0.030	0.054
-239.903	42.689	0.110	0.099
-238.888	107.934	0.091	-0.107
-237.873	-57.895	0.186	-0.080
-236.859	327.481	-0.181	-0.341
-235.844	361.810	0.026	-0.051
-234.830	-140.113	-0.185	0.019
-233.815	189.401	0.181	-0.266
-232.800	52.907	0.053	-0.050
-231.786	148.083	0.066	0.087
-230.771	75.645	-0.198	0.205
-229.757	-159.102	-0.128	-0.007
-228.742	11.349	-0.199	-0.150
-227.727	50.394	0.201	-0.187
-226.713	-200.000	0.050	0.236
-225.698	-200.000	0.051	-0.264
-224.684	-113.936	0.365	0.070
-223.669	-58.756	-0.080	-0.034
-222.655	160.284	-0.160	-0.220
-221.640	-45.702	-0.053	0.026
-220.625	413.741	-0.234	0.490
-219.611	-112.342	0.068	-0.013
-218.596	800.000	-0.052	0.183
-217.582	-200.000	0.006	0.180
-216.567	118.379	0.197	-0.238
-215.552	-48.676	-0.080	0.038
-214.538	-200.000	-0.040	-0.232
-213.523	-38.521	-0.180	0.093
-212.509	-140.275	0.266	0.027
-211.494	-200.000	-0.036	-0.247
-210.479	-16.016	-0.310	0.194
-209.465	89.944	0.169	0.186
-208.450	-200.000	-0.022	-0.295
-207.436	-200.000	0.032	-0.243
-206.421	-114.043	-0.093	0.018
-205.406	-200.000	-0.036	-0.328
-204.392	140.703	0.220	0.286
-203.377	304.222	-0.111	0.202
-202.363	305.129	0.079	-0.144
-201.348	-200.000	-0.012	0.233
-200.333	-72.600	0.193	0.070
-199.319	-176.428	0.094	0.002
-198.304	-148.699	0.171	-0.014
-197.290	-97.451	0.225	0.057
-196.275	-200.000	0.051	0.318
-195.260	66.785	0.235	-0.234
-194.246	-200.000	-0.010	0.257
-193.231	76.898	0.154	-0.161
-192.217	-75.510	0.280	0.098
-191.202	203.466	0.189	0.287
-190.187	311.559	-0.103	0.190
-189.173	68.576	0.114	0.115
-188.158	-200.000	0.014	0.151
-187.144	-200.000	0.027	-0.141
-186.129	-52.394	-0.363	-0.165
-185.114	-200.000	-0.008	0.048
-184.100	800.000	0.092	-0.255
-183.085	398.286	0.078	-0.160
-182.071	-70.759	-0.186	-0.069
-181.056	781.779	-0.100	0.269
-180.042	334.837	-0.049	0.094
-179.027	-119.098	0.158	-0.027
-178.012	-126.842	0.284	0.041
-176.998	-121.888	0.151	-0.024
-175.983	443.544	0.099	0.214
-174.969	-28.710	-0.099	0.056
-173.954	158.062	0.053	0.072
-172.939	-108.403	-0.120	0.025
-171.925	-46.750	0.109	0.052
-170.910	800.000	0.077	0.272
-169.896	800.000	0.045	0.122
-168.881	96.009	-0.123	0.138
-167.866	-111.718	-0.190	-0.038
-166.852	-51.972	0.319	0.145
-165.837	800.000	0.026	-0.084
-164.823	64.109	-0.168	0.166
-163.808	87.563	-0.214	-0.233
-162.793	-200.000	-0.017	0.215
-161.779	800.000	0.069	0.194
-160.764	800.000	0.020	-0.054
-159.750	-90.209	-0.381	-0.109
-158.735	210.448	0.121	0.186
-157.720	-72.346	0.323	0.117
-156.706	104.715	-0.172	-0.199
-155.691	-5.067	0.268	0.181
-154.677	436.716	0.060	0.128
-153.662	51.665	-0.134	-0.125
-152.647	-24.685	0.370	0.216
-151.633	21.341	0.156	-0.124
-150.618	-95.164	-0.128	-0.034
-149.604	800.000	-0.025	0.070
-148.589	-118.077	0.213	-0.037
-147.574	-200.000	-0.000	0.268
-146.560	-150.418	-0.205	-0.015
-145.545	81.733	-0.023	0.024
-144.531	-200.000	-0.040	-0.176
-143.516	-169.333	0.562	0.020
-142.502	800.000	-0.064	-0.272
-141.487	-86.834	0.182	0.055
-140.472	-95.448	-0.131	0.035
-139.458	-135.855	0.506	0.059
-138.443	800.000	-0.067	-0.206
-137.429	293.968	0.150	0.268
-136.414	-57.734	-0.183	0.079
-135.399	-5.714	0.221	-0.148
-134.385	-180.241	0.288	-0.006
-133.370	53.038	-0.116	-0.109
-132.356	245.486	-0.175	-0.289
-131.341	311.543	0.059	-0.109
-130.326	-67.542	-0.302	-0.116
-129.312	800.000	-0.005	0.019
-128.297	369.240	-0.069	-0.137
-127.283	-195.465	0.313	-0.002
-126.268	-193.097	-0.253	-0.002
-125.253	-200.000	-0.047	0.348
-124.239	-31.340	0.192	0.106
-123.224	242.712	0.111	0.183
-122.210	768.068	0.083	-0.222
-121.195	-200.000	0.001	-0.116
