DTS Sentinel unit serial number:	SN413079Multiplexer serial number:	ORYXHardware model number:	OX4-SRSoftware version number:	ORYX F/W v4.00 Oryx Data Collector v3.7.2.0data status	okinstallation	princeton_trtdifferential loss correction	single-endedforward channel	channel 3reverse channel	N/Adate	2019/09/12time	20:09:04forward acquisition time	15.00reverse acquisition time	0.00gamma	496.2192k internal	0.2324k external	0.2324temperature offset calibration	1.0119default loss term (dB/km)	0.3790temperature slope calibration	1.0000multiplexer offset coefficient	1.0000multiplexer slope coefficient	1.0000fibre end	0.00T internal ref (°C)	31.62T ext. ref 1 (°C)	3.45T ext. ref 2 (°C)	26.23length (m)	temperature (°C)	Stokes	anti-Stokes-747.200	19.986	0.413	-0.336
-746.185	-54.708	0.623	-0.284
-745.171	-200.000	-0.045	-0.635
-744.156	-50.432	-0.594	0.283
-743.142	-119.321	0.685	-0.120
-742.127	35.997	-0.406	0.361
-741.112	-33.982	0.507	-0.282
-740.098	-163.153	-0.585	0.028
-739.083	609.103	-0.270	0.680
-738.069	-200.000	0.110	-0.793
-737.054	-200.000	0.026	-0.332
-736.039	30.100	0.451	-0.389
-735.025	119.535	0.542	-0.677
-734.010	800.000	0.088	0.353
-732.996	277.286	-0.124	0.222
-731.981	231.794	-0.233	0.385
-730.966	-51.733	0.497	-0.234
-729.952	125.566	-0.489	0.623
-728.937	-200.000	0.056	-0.594
-727.923	6.806	0.454	-0.341
-726.908	-14.546	-0.863	-0.560
-725.894	600.601	0.446	1.117
-724.879	-122.789	-0.653	-0.106
-723.864	800.000	-0.168	-0.627
-722.850	-127.807	0.107	-0.016
-721.835	-161.735	-0.804	0.041
-720.821	-200.000	0.010	-0.193
-719.806	94.396	0.211	-0.242
-718.791	56.015	-0.264	0.258
-717.777	800.000	0.116	-0.325
-716.762	800.000	0.083	0.301
-715.748	144.384	0.324	0.437
-714.733	276.312	0.034	0.061
-713.718	-39.463	-0.467	0.247
-712.704	800.000	-0.126	0.357
-711.689	19.668	-0.517	0.420
-710.675	696.446	-0.385	-1.019
-709.660	-35.652	-0.286	-0.156
-708.645	-76.623	-0.265	0.094
-707.631	-41.553	-0.239	-0.124
-706.616	694.847	-0.221	-0.584
-705.602	-200.000	0.080	-0.674
-704.587	-90.682	0.351	0.102
-703.572	272.644	0.176	-0.313
-702.558	-60.200	0.248	-0.107
-701.543	-200.000	-0.019	0.216
-700.529	138.757	0.339	-0.448
-699.514	-7.446	0.606	0.414
-698.499	71.711	0.287	-0.301
-697.485	-200.000	-0.018	-0.311
-696.470	-200.000	-0.062	-0.394
-695.456	-133.211	0.442	-0.056
-694.441	84.258	0.298	0.328
-693.426	52.547	-0.243	-0.234
-692.412	-57.743	0.542	-0.239
-691.397	800.000	-0.155	-0.541
-690.383	-169.196	0.429	-0.016
-689.368	-200.000	-0.041	0.194
-688.354	212.855	0.227	-0.361
-687.339	-93.713	-0.486	0.135
-686.324	-200.000	-0.100	0.723
-685.310	-105.713	0.585	-0.133
-684.295	-200.000	0.021	0.888
-683.281	258.900	0.321	-0.557
-682.266	125.188	0.247	0.314
-681.251	-155.873	0.452	-0.029
-680.237	150.155	-0.301	0.412
-679.222	31.648	0.265	0.230
-678.208	-200.000	0.126	0.891
-677.193	-112.339	-0.494	0.100
-676.178	-9.569	0.440	-0.295
-675.164	17.237	0.103	-0.082
-674.149	800.000	-0.091	0.261
-673.135	332.259	-0.221	0.429
-672.120	800.000	-0.202	-0.633
-671.105	-200.000	-0.105	-0.632
-670.091	658.334	0.350	-0.907
-669.076	800.000	0.203	-0.807
-668.062	-44.912	-0.753	-0.378
-667.047	-151.728	-0.174	-0.013
-666.032	111.842	-0.196	-0.239
-665.018	737.681	0.186	0.501
-664.003	800.000	-0.299	-0.882
-662.989	-200.000	-0.041	0.183
-661.974	-114.197	-0.962	-0.187
-660.959	87.280	-0.616	0.686
-659.945	-25.698	0.477	0.283
-658.930	124.372	0.206	0.260
-657.916	-120.626	0.152	0.026
-656.901	-97.705	-0.133	0.035
-655.886	217.341	0.188	0.301
-654.872	3.224	0.477	0.349
-653.857	800.000	-0.071	-0.251
-652.843	800.000	0.122	0.477
-651.828	276.205	-0.086	-0.154
-650.814	800.000	-0.255	-0.709
-649.799	68.511	0.291	-0.300
-648.784	-200.000	0.102	-0.939
-647.770	-69.174	-0.187	-0.072
-646.755	-133.246	0.347	0.044
-645.741	11.703	-0.372	0.287
-644.726	-146.886	-0.410	-0.035
-643.711	787.294	-0.041	0.113
-642.697	-60.228	-0.512	-0.219
-641.682	-200.000	0.071	-0.509
-640.668	-200.000	0.208	-1.143
-639.653	328.272	-0.197	0.381
-638.638	800.000	-0.024	0.073
-637.624	233.312	0.291	-0.481
-636.609	-99.342	-0.694	0.176
-635.595	-163.431	0.383	-0.018
-634.580	-200.000	-0.113	0.646
-633.565	108.529	-0.322	0.386
-632.551	575.044	0.190	-0.466
-631.536	32.981	0.147	-0.128
-630.522	-149.543	-0.435	-0.035
-629.507	586.798	-0.302	-0.748
-628.492	-109.769	-1.248	0.264
-627.478	-133.102	0.384	0.049
-626.463	187.572	-0.419	-0.628
-625.449	26.894	0.641	-0.540
-624.434	-200.000	-0.092	0.488
-623.419	-200.000	-0.044	0.881
-622.405	26.050	0.422	0.354
-621.390	-0.274	-0.490	-0.350
-620.376	-20.555	-0.378	0.234
-619.361	68.297	-0.447	0.461
-618.346	-142.583	0.451	0.044
-617.332	10.586	-0.169	-0.129
-616.317	400.512	-0.236	0.497
-615.303	-140.010	0.206	0.022
-614.288	-28.772	0.676	0.391
-613.273	-122.883	-0.564	0.091
-612.259	-35.419	0.277	0.151
-611.244	111.734	0.107	0.130
-610.230	-106.071	-0.604	-0.136
-609.215	132.275	0.269	-0.348
-608.201	415.557	-0.100	0.214
-607.186	329.225	0.189	0.364
-606.171	-200.000	-0.113	-0.753
-605.157	-200.000	-0.015	0.149
-604.142	-7.346	-0.285	0.194
-603.128	-144.282	0.476	0.045
-602.113	-200.000	0.069	-0.364
-601.098	-23.734	-0.497	-0.299
-600.084	23.968	0.482	0.399
-599.069	-103.454	-0.536	-0.127
-598.055	80.797	-0.668	-0.723
-597.040	22.819	-0.122	-0.101
-596.025	-23.152	-0.778	-0.470
-595.011	-142.953	-0.601	-0.059
-593.996	-7.228	-0.330	0.224
-592.982	43.111	0.248	-0.227
-591.967	393.212	-0.275	-0.574
-590.952	-103.336	0.536	-0.127
-589.938	-200.000	0.757	-0.003
-588.923	95.464	0.321	-0.368
-587.909	800.000	0.156	-0.500
-586.894	-5.245	-0.402	-0.277
-585.879	230.748	0.290	-0.477
-584.865	82.604	-0.122	-0.133
-583.850	800.000	-0.210	-0.694
-582.836	-68.834	-0.335	-0.130
-581.821	4.927	-0.194	0.143
-580.806	-200.000	0.047	-0.362
-579.792	-53.196	-0.296	0.136
-578.777	316.130	0.030	0.056
-577.763	-67.018	-0.277	0.110
-576.748	71.448	-0.221	-0.230
-575.733	-133.824	-0.818	0.102
-574.719	800.000	-0.026	-0.103
-573.704	-200.000	-0.072	0.672
-572.690	-200.000	0.125	0.558
-571.675	-63.465	0.644	0.266
-570.661	-109.637	0.515	-0.109
-569.646	-41.593	-0.574	-0.296
-568.631	154.926	0.651	0.898
-567.617	121.273	-0.209	0.261
-566.602	185.290	-0.494	-0.736
-565.588	83.315	0.361	-0.395
-564.573	-104.743	0.741	-0.171
-563.558	-200.000	0.032	0.150
-562.544	-200.000	0.047	0.424
-561.529	9.740	-0.560	0.426
-560.515	-78.696	0.684	0.234
-559.500	-54.186	0.179	-0.081
-558.485	800.000	0.199	0.591
-557.471	363.407	-0.373	0.751
-556.456	11.461	-0.054	0.042
-555.442	80.273	-0.080	0.086
-554.427	-160.179	0.359	0.020
-553.412	-55.057	-0.818	0.369
-552.398	-48.342	0.494	-0.238
-551.383	360.825	-0.174	0.349
-550.369	-174.952	-0.812	-0.023
-549.354	139.309	0.311	-0.410
-548.339	800.000	-0.308	0.887
-547.325	117.689	-0.084	0.104
-546.310	352.669	-0.252	-0.500
-545.296	-113.451	0.467	-0.092
-544.281	285.654	-0.065	-0.117
-543.266	319.453	0.563	-1.070
-542.252	-200.000	0.034	-0.438
-541.237	225.469	-0.245	0.398
-540.223	-51.365	-0.570	0.267
-539.208	44.132	-0.297	-0.273
-538.193	-132.302	-0.504	-0.065
-537.179	342.770	-0.143	0.281
-536.164	-147.458	0.423	-0.036
-535.150	-100.659	1.175	0.290
-534.135	800.000	0.362	1.395
-533.121	47.425	0.434	-0.405
-532.106	-142.545	-0.525	0.052
-531.091	-200.000	-0.118	-0.591
-530.077	-78.983	0.737	-0.251
-529.062	61.393	-0.158	0.157
-528.048	-200.000	-0.052	-0.788
-527.033	-19.915	0.940	-0.581
-526.018	797.138	-0.261	-0.719
-525.004	-62.198	-0.278	-0.116
-523.989	800.000	0.104	-0.371
-522.975	-102.539	0.904	0.216
-521.960	372.106	-0.439	-0.892
-520.945	800.000	-0.086	0.288
-519.931	155.088	0.148	0.203
-518.916	171.012	0.252	-0.362
-517.902	-200.000	-0.098	0.469
-516.887	-200.000	0.021	-0.368
-515.872	152.701	-0.212	0.290
-514.858	252.497	0.154	0.263
-513.843	-200.000	0.080	0.504
-512.829	-44.688	0.387	0.193
-511.814	-138.077	0.110	0.012
-510.799	79.888	-0.783	-0.842
-509.785	122.013	0.091	-0.113
-508.770	-200.000	-0.061	0.456
-507.756	-25.082	0.571	0.339
-506.741	570.387	-0.097	0.236
-505.726	-120.658	-0.535	-0.091
-504.712	152.277	0.474	-0.647
-503.697	41.925	0.380	-0.345
-502.683	328.471	0.314	-0.603
-501.668	688.289	-0.082	0.214
-500.653	-134.845	-0.708	0.086
-499.639	-200.000	-0.030	-0.906
-498.624	800.000	0.215	0.643
-497.610	800.000	0.210	0.835
-496.595	467.544	-0.304	0.682
-495.581	-154.172	0.105	-0.007
-494.566	13.163	0.848	-0.656
-493.551	-200.000	-0.001	-0.094
-492.537	-200.000	-0.047	-0.964
-491.522	59.154	0.200	-0.196
-490.508	226.212	-0.418	0.678
-489.493	7.038	-0.963	0.718
-488.478	-172.169	1.300	-0.042
-487.464	-56.854	-0.675	-0.298
-486.449	-5.768	0.177	0.121
-485.435	25.307	0.301	-0.250
-484.420	-181.181	-0.608	-0.012
-483.405	-129.474	0.044	0.006
-482.391	-200.000	0.005	0.552
-481.376	261.246	0.073	-0.126
-480.362	67.953	0.715	-0.731
-479.347	103.390	-0.094	0.110
-478.332	-200.000	0.016	0.534
-477.318	74.282	-0.089	0.094
-476.303	800.000	-0.096	0.415
-475.289	-200.000	0.132	0.596
-474.274	800.000	-0.133	-0.464
-473.259	628.125	0.085	-0.213
-472.245	-54.327	-0.040	-0.018
-471.230	174.364	0.071	-0.102
-470.216	160.086	0.115	-0.159
-469.201	70.348	-0.421	0.435
-468.186	-157.314	0.359	0.022
-467.172	-200.000	0.027	0.152
-466.157	41.204	0.162	0.146
-465.143	-48.314	0.555	0.267
-464.128	-171.142	-1.159	-0.039
-463.113	-84.191	0.103	0.033
-462.099	20.084	-0.434	0.350
-461.084	-90.532	0.553	0.160
-460.070	89.526	-0.408	0.454
-459.055	-200.000	-0.009	0.382
-458.040	301.668	-0.374	0.689
-457.026	-153.295	0.618	-0.043
-456.011	214.854	0.325	-0.515
-454.997	-71.772	0.406	-0.151
-453.982	-200.000	-0.042	-0.419
-452.968	-20.042	0.176	0.108
-451.953	800.000	0.104	-0.309
-450.938	-108.438	0.391	0.084
-449.924	7.722	0.250	-0.187
-448.909	800.000	-0.216	0.820
-447.895	-16.243	-0.464	0.294
-446.880	352.175	0.412	-0.814
-445.865	800.000	0.154	0.557
-444.851	608.145	-0.159	-0.395
-443.836	-134.572	0.629	-0.077
-442.822	-16.474	-0.848	-0.536
-441.807	800.000	0.173	0.545
-440.792	800.000	0.119	0.473
-439.778	-200.000	-0.035	0.299
-438.763	237.200	0.382	-0.632
-437.749	316.164	0.312	0.588
-436.734	-3.711	0.209	0.145
-435.719	800.000	-0.041	-0.114
-434.705	-29.630	-0.420	-0.239
-433.690	-200.000	-0.078	-0.550
-432.676	-171.834	-0.866	-0.028
-431.661	-25.191	0.655	-0.387
-430.646	800.000	0.120	0.409
-429.632	109.014	-0.360	0.429
-428.617	-23.508	0.646	-0.387
-427.603	471.326	-0.143	0.321
-426.588	421.047	-0.216	-0.462
-425.573	29.199	0.198	-0.168
-424.559	-111.665	0.539	-0.109
-423.544	800.000	-0.053	0.189
-422.530	-71.184	-0.273	-0.102
-421.515	800.000	0.209	0.747
-420.500	448.773	-0.225	-0.494
-419.486	410.803	0.380	-0.803
-418.471	-58.962	-0.092	-0.039
-417.457	-200.000	-0.009	-0.538
-416.442	96.847	0.258	0.295
-415.428	19.242	0.479	0.384
-414.413	-134.140	1.106	0.136
-413.398	-200.000	-0.050	0.337
-412.384	-58.425	0.557	-0.241
-411.369	298.365	0.438	0.802
-410.355	-70.085	0.438	-0.166
-409.340	3.242	-0.349	0.253
-408.325	29.762	-0.565	-0.479
-407.311	-44.089	-0.802	0.401
-406.296	-111.042	-0.124	0.025
-405.282	-72.856	0.646	-0.237
-404.267	48.608	0.609	0.568
-403.252	-200.000	0.056	-0.534
-402.238	800.000	0.233	-0.857
-401.223	-151.175	0.186	-0.014
-400.209	57.054	-0.336	-0.327
-399.194	-114.226	-0.214	-0.041
-398.179	100.529	-0.196	0.227
-397.165	-34.738	-0.766	-0.417
-396.150	-200.000	-0.139	-1.167
-395.136	33.670	-0.299	0.259
-394.121	-196.392	0.709	0.005
-393.106	493.311	0.215	0.492
-392.092	244.461	-0.290	0.484
-391.077	-4.898	-0.098	-0.067
-390.063	331.147	0.034	0.065
-389.048	102.949	-0.350	-0.408
-388.033	-181.134	-0.503	-0.010
-387.019	-60.583	0.738	0.312
-386.004	-113.788	-0.390	-0.076
-384.990	97.470	-0.681	0.778
-383.975	-200.000	0.039	0.323
-382.960	109.380	0.277	-0.331
-381.946	-11.348	-0.799	-0.524
-380.931	220.922	0.039	0.063
-379.917	-200.000	-0.003	-0.043
-378.902	-114.376	0.791	-0.152
-377.888	-142.936	0.454	0.044
-376.873	97.266	-0.124	-0.142
-375.858	11.763	0.403	0.308
-374.844	-115.329	0.193	0.036
-373.829	-200.000	0.050	0.643
-372.815	20.307	-0.335	-0.269
-371.800	230.284	0.131	0.213
-370.785	-99.418	-0.549	-0.138
-369.771	71.874	-0.374	0.387
-368.756	-200.000	-0.030	0.681
-367.742	800.000	-0.051	-0.167
-366.727	-14.693	-0.234	0.150
-365.712	-95.860	0.371	0.099
-364.698	-99.113	0.350	0.088
-363.683	273.874	0.180	-0.316
-362.669	-19.926	0.353	0.217
-361.654	29.902	0.373	0.316
-360.639	-29.660	0.582	0.331
-359.625	76.759	0.195	0.206
-358.610	2.733	0.233	0.168
-357.596	91.373	-0.625	0.698
-356.581	-187.052	0.467	0.006
-355.566	-22.686	0.033	-0.020
-354.552	-49.413	-0.451	-0.214
-353.537	-200.000	0.089	0.542
-352.523	34.513	-0.660	0.573
-351.508	800.000	-0.061	-0.219
-350.493	15.008	0.469	-0.365
-349.479	-200.000	0.059	0.321
-348.464	-143.625	1.045	-0.099
-347.450	79.419	0.201	-0.214
-346.435	554.059	-0.142	0.340
-345.420	-0.100	-0.080	0.057
-344.406	-63.270	0.375	0.154
-343.391	-74.126	0.561	0.202
-342.377	643.100	0.068	-0.173
-341.362	15.159	-0.282	0.219
-340.348	154.498	-0.145	0.198
-339.333	44.173	-0.712	0.649
-338.318	-112.905	-0.142	-0.028
-337.304	150.331	-0.132	0.178
-336.289	177.636	-0.594	-0.861
-335.275	-66.710	-0.358	0.141
-334.260	800.000	-0.122	0.418
-333.245	-104.654	-0.705	-0.161
-332.231	-127.127	1.181	0.172
-331.216	-165.165	-0.331	-0.015
-330.202	75.156	-0.553	-0.579
-329.187	800.000	-0.133	0.373
-328.172	-7.993	-0.199	0.134
-327.158	170.421	-0.230	0.327
-326.143	-66.325	-0.730	0.288
-325.129	-73.702	-0.657	-0.237
-324.114	119.485	0.107	0.131
-323.099	475.417	-0.167	0.376
-322.085	-20.075	0.440	0.269
-321.070	800.000	-0.033	-0.140
-320.056	258.542	0.297	0.508
-319.041	419.300	0.100	-0.212
-318.026	560.284	0.227	-0.545
-317.012	709.054	-0.176	0.461
-315.997	-91.107	0.950	0.271
-314.983	-110.139	0.479	-0.099
-313.968	-200.000	-0.016	-1.011
-312.953	-200.000	0.008	0.219
-311.939	-91.420	0.168	-0.048
-310.924	-86.283	0.966	0.295
-309.910	233.521	0.214	-0.350
-308.895	-127.285	-0.309	-0.045
-307.880	257.646	0.270	-0.461
-306.866	-57.018	1.015	-0.444
-305.851	-200.000	0.004	0.031
-304.837	100.623	0.350	-0.403
-303.822	-8.096	0.508	0.339
-302.807	-143.367	0.437	-0.041
-301.793	-178.360	-0.113	-0.003
-300.778	273.088	0.270	0.472
-299.764	-82.222	0.355	0.115
-298.749	-83.078	0.710	0.227
-297.735	99.695	0.234	-0.269
-296.720	45.694	0.258	0.237
-295.705	-200.000	0.073	-0.755
-294.691	-72.885	-0.648	-0.236
-293.676	-111.748	0.411	0.083
-292.662	-200.000	0.081	-0.767
-291.647	-6.804	-0.516	0.348
-290.632	132.723	0.512	-0.655
-289.618	-200.000	-0.037	-0.578
-288.603	-8.441	0.222	-0.148
-287.589	-153.593	-0.290	0.020
-286.574	66.981	-0.149	0.150
-285.559	-101.179	-1.194	0.290
-284.545	-7.958	0.855	-0.572
-283.530	-138.366	-0.176	-0.019
-282.516	-97.625	-0.798	-0.205
-281.501	215.492	-0.165	-0.260
-280.486	324.203	-0.046	0.087
-279.472	-200.000	-0.073	0.602
-278.457	461.313	0.435	0.962
-277.443	-200.000	0.169	-0.813
-276.428	-91.684	-0.527	-0.149
-275.413	43.983	0.429	0.389
-274.399	-200.000	-0.014	-0.445
-273.384	-128.512	-0.518	-0.073
-272.370	-79.765	-0.411	-0.137
-271.355	800.000	0.151	0.511
-270.340	86.969	0.599	0.656
-269.326	-40.342	0.549	0.283
-268.311	340.360	0.255	-0.493
-267.297	-68.250	-0.637	0.245
-266.282	638.802	0.140	0.352
-265.267	229.666	-0.241	-0.390
-264.253	361.487	0.152	0.301
-263.238	64.192	-0.428	0.426
-262.224	48.796	0.120	0.112
-261.209	406.876	-0.395	0.826
-260.195	45.582	0.123	0.113
-259.180	-200.000	0.063	-0.656
-258.165	800.000	-0.090	-0.297
-257.151	-54.895	1.040	0.465
-256.136	315.296	-0.370	0.691
-255.122	-146.953	-0.182	0.016
-254.107	-140.147	-0.821	0.085
-253.092	-119.062	0.836	-0.145
-252.078	-91.310	-0.692	-0.196
-251.063	24.707	0.156	-0.128
-250.049	150.870	-0.403	-0.543
-249.034	-200.000	0.094	0.534
-248.019	-105.460	-0.228	0.051
-247.005	-70.970	0.785	-0.293
-245.990	358.135	-0.267	-0.527
-244.976	222.406	0.238	-0.379
-243.961	41.689	-0.668	-0.599
-242.946	264.273	0.387	-0.667
-241.932	-16.924	0.600	0.375
-240.917	-94.823	-0.740	-0.199
-239.903	800.000	-0.241	0.837
-238.888	601.372	0.064	0.157
-237.873	-95.291	-0.583	0.155
-236.859	-133.517	0.822	-0.102
-235.844	-200.000	-0.099	-0.807
-234.830	102.940	-0.347	-0.403
-233.815	-39.302	-0.428	-0.222
-232.800	-9.660	-0.464	-0.306
-231.786	21.492	0.441	0.355
-230.771	-200.000	0.009	-0.501
-229.757	92.887	-0.320	0.358
-228.742	-200.000	0.052	0.498
-227.727	209.010	0.263	-0.408
-226.713	-200.000	0.014	-0.369
-225.698	-22.976	-0.504	-0.300
-224.684	800.000	-0.071	-0.238
-223.669	17.843	0.330	-0.260
-222.655	51.668	-0.442	-0.416
-221.640	104.750	0.720	-0.840
-220.625	800.000	0.158	0.437
-219.611	-48.501	0.569	0.271
-218.596	-20.361	0.274	0.167
-217.582	-200.000	-0.150	-0.681
-216.567	-200.000	0.109	1.058
-215.552	-17.355	0.921	-0.574
-214.538	444.972	-0.215	0.466
-213.523	-27.674	0.486	-0.279
-212.509	185.777	-0.232	-0.341
-211.494	-200.000	-0.090	0.457
-210.479	277.764	-0.259	-0.456
-209.465	-112.860	0.155	0.030
-208.450	366.328	0.281	0.560
-207.436	-175.324	0.879	0.024
-206.421	653.568	-0.427	-1.083
-205.406	-86.739	0.710	-0.215
-204.392	-200.000	0.041	-0.302
-203.377	-34.775	0.568	0.307
-202.363	-41.962	0.202	0.102
-201.348	66.696	0.156	0.157
-200.333	51.100	0.284	0.266
-199.319	200.568	0.401	0.609
-198.304	-113.337	0.354	0.069
-197.290	752.866	-0.205	0.547
-196.275	-64.152	0.284	-0.114
-195.260	-200.000	0.114	0.885
-194.246	800.000	0.363	1.122
-193.231	685.687	-0.113	-0.292
-192.217	-200.000	0.087	0.404
-191.202	-135.090	-0.898	0.107
-190.187	-148.913	0.382	-0.030
-189.173	134.909	-0.389	-0.500
-188.158	322.928	-0.180	-0.339
-187.144	-122.315	-0.268	0.043
-186.129	-117.479	-0.283	-0.050
-185.114	800.000	0.125	-0.492
-184.100	47.807	0.184	-0.169
-183.085	49.026	1.027	0.953
-182.071	-37.556	-0.509	0.268
-181.056	195.612	-0.256	-0.384
-180.042	-200.000	-0.025	0.600
-179.027	175.529	-0.362	0.518
-178.012	645.008	0.118	0.297
-176.998	779.363	-0.089	0.241
-175.983	-65.673	-0.498	-0.197
-174.969	800.000	0.013	0.052
-173.954	-138.572	-0.655	-0.071
-172.939	-14.654	-0.314	-0.199
-171.925	14.171	0.119	0.091
-170.910	-46.949	-0.457	0.220
-169.896	-138.453	1.111	-0.121
-168.881	-200.000	0.038	-0.646
-167.866	-35.952	-1.228	-0.656
-166.852	-41.920	-0.781	-0.395
-165.837	800.000	-0.136	-0.498
-164.823	-114.249	-1.138	0.217
-163.808	63.338	-0.556	0.550
-162.793	-68.002	-0.184	-0.071
-161.779	-85.841	-0.192	0.059
-160.764	34.042	-0.105	-0.091
-159.750	-41.457	0.561	-0.285
-158.735	-153.412	-1.005	-0.069
-157.720	-151.440	-0.517	-0.038
-156.706	37.382	-0.112	-0.098
-155.691	-56.025	-0.364	0.160
-154.677	-28.017	-0.632	0.361
-153.662	128.267	-0.403	0.506
-152.647	800.000	-0.170	0.593
-151.633	3.454	-0.527	-0.379
-150.618	13.333	0.474	0.363
-149.604	161.302	-0.475	0.655
-148.589	30.191	0.550	0.463
-147.574	510.073	-0.396	-0.909
-146.560	-153.364	-0.249	0.017
-145.545	-138.536	0.488	0.053
-144.531	-69.094	0.197	0.075
-143.516	-62.072	0.744	0.306
-142.502	256.399	0.384	-0.650
-141.487	-11.368	-0.926	-0.601
-140.472	-200.000	0.112	-0.811
-139.458	-200.000	0.080	-0.413
-138.443	-117.026	0.815	-0.147
-137.429	-69.272	0.436	0.165
-136.414	800.000	-0.124	-0.406
-135.399	-81.872	-0.448	-0.145
-134.385	719.567	0.326	0.854
-133.370	515.328	-0.162	0.374
-132.356	-17.838	0.726	0.449
-131.341	61.419	0.433	0.424
-130.326	-0.972	-0.659	-0.460
-129.312	88.279	0.612	-0.669
-128.297	657.958	-0.194	-0.492
-127.283	-200.000	-0.037	-0.971
-126.268	206.865	-0.276	0.424
-125.253	-200.000	-0.062	0.405
-124.239	-83.191	-0.823	0.261
-123.224	-55.789	-0.760	0.335
-122.210	-107.220	0.132	0.029
-121.195	-167.605	0.714	0.028
