DTS Sentinel unit serial number:	SN413079Multiplexer serial number:	ORYXHardware model number:	OX4-SRSoftware version number:	ORYX F/W v4.00 Oryx Data Collector v3.7.2.0data status	okinstallation	princeton_trtdifferential loss correction	single-endedforward channel	channel 3reverse channel	N/Adate	2019/09/19time	13:08:34forward acquisition time	60.00reverse acquisition time	0.00gamma	496.2192k internal	0.2328k external	0.2328temperature offset calibration	0.9991default loss term (dB/km)	0.3790temperature slope calibration	1.0000multiplexer offset coefficient	1.0000multiplexer slope coefficient	1.0000fibre end	0.00T internal ref (°C)	29.06T ext. ref 1 (°C)	0.94T ext. ref 2 (°C)	27.02length (m)	temperature (°C)	Stokes	anti-Stokes-747.200	-103.612	0.160	0.038
-746.185	-200.000	-0.017	0.449
-745.171	800.000	0.122	0.357
-744.156	-200.000	-0.029	-0.186
-743.142	800.000	-0.047	-0.182
-742.127	-200.000	-0.076	0.400
-741.112	691.412	0.038	-0.100
-740.098	-7.600	-0.058	-0.039
-739.083	800.000	0.090	0.365
-738.069	-200.000	0.040	0.565
-737.054	-27.039	0.030	-0.017
-736.039	800.000	-0.063	-0.264
-735.025	-200.000	-0.044	0.212
-734.010	-65.982	-0.274	-0.110
-732.996	800.000	-0.022	-0.093
-731.981	80.851	-0.269	0.293
-730.966	-200.000	-0.018	0.123
-729.952	-200.000	0.021	-0.268
-728.937	-138.778	0.409	-0.045
-727.923	-185.995	-0.320	-0.005
-726.908	-185.299	0.199	-0.003
-725.894	800.000	0.120	0.338
-724.879	-22.787	-0.269	-0.163
-723.864	-95.381	-0.193	-0.052
-722.850	-162.450	-0.009	0.000
-721.835	800.000	0.111	-0.420
-720.821	-57.775	0.136	-0.060
-719.806	217.899	0.077	-0.123
-718.791	-62.138	0.136	0.057
-717.777	-200.000	0.015	0.116
-716.762	-94.800	-0.094	0.026
-715.748	-91.211	0.249	0.072
-714.733	-127.688	-0.339	-0.049
-713.718	-35.327	0.170	0.093
-712.704	800.000	0.041	-0.132
-711.689	-200.000	0.033	-0.258
-710.675	212.861	-0.111	-0.176
-709.660	800.000	0.093	0.371
-708.645	-95.307	0.130	-0.035
-707.631	-91.685	-0.095	-0.027
-706.616	155.789	-0.113	-0.157
-705.602	800.000	0.039	-0.161
-704.587	133.540	-0.209	-0.272
-703.572	-200.000	0.014	-0.209
-702.558	324.361	-0.092	0.177
-701.543	-49.335	-0.295	-0.142
-700.529	-131.684	0.265	0.035
-699.514	-200.000	-0.013	-0.435
-698.499	441.540	-0.094	0.207
-697.485	-68.685	-0.051	0.020
-696.470	118.340	-0.115	-0.143
-695.456	620.893	0.125	0.315
-694.441	800.000	0.118	-0.373
-693.426	368.669	0.097	-0.198
-692.412	250.155	-0.051	-0.086
-691.397	26.185	0.298	0.250
-690.383	247.032	-0.131	-0.223
-689.368	800.000	0.029	0.100
-688.354	800.000	0.017	0.054
-687.339	-138.770	-0.093	0.010
-686.324	800.000	-0.073	-0.207
-685.310	-128.239	-0.152	-0.022
-684.295	-32.102	0.102	-0.057
-683.281	567.872	-0.092	0.225
-682.266	-9.529	-0.311	0.208
-681.251	373.039	0.194	0.397
-680.237	548.780	0.086	-0.206
-679.222	-200.000	0.027	0.173
-678.208	-25.435	-0.226	0.134
-677.193	189.835	0.029	0.043
-676.178	-200.000	-0.011	0.331
-675.164	0.041	0.202	-0.144
-674.149	189.900	-0.182	-0.275
-673.135	-99.815	0.094	0.024
-672.120	71.438	-0.139	-0.145
-671.105	800.000	-0.091	0.346
-670.091	82.603	-0.160	-0.175
-669.076	687.142	0.077	0.203
-668.062	-19.904	0.264	-0.164
-667.047	410.945	0.135	0.287
-666.032	-15.862	-0.178	0.114
-665.018	72.206	-0.128	-0.134
-664.003	-200.000	-0.017	0.251
-662.989	-94.214	-0.127	-0.035
-661.974	-159.676	0.310	0.017
-660.959	-24.105	-0.371	0.223
-659.945	-69.062	0.153	-0.059
-658.930	-200.000	-0.010	0.119
-657.916	-0.728	-0.147	0.105
-656.901	-63.933	0.122	-0.050
-655.886	-19.814	0.138	0.086
-654.872	-16.278	-0.147	0.093
-653.857	468.780	-0.087	0.195
-652.843	-96.398	-0.283	0.075
-651.828	-104.829	0.266	0.061
-650.814	166.939	0.202	-0.288
-649.799	-69.764	-0.193	-0.074
-648.784	184.550	-0.072	-0.108
-647.770	-2.376	0.079	0.056
-646.755	-25.648	-0.287	0.170
-645.741	-9.684	-0.056	0.037
-644.726	-200.000	0.027	-0.165
-643.711	-30.072	0.088	0.050
-642.697	208.175	0.132	-0.208
-641.682	-12.886	-0.286	0.187
-640.668	-186.490	-0.208	-0.003
-639.653	59.266	-0.197	-0.195
-638.638	-18.373	-0.143	0.090
-637.624	71.767	-0.167	0.174
-636.609	-68.016	0.173	0.068
-635.595	33.395	-0.487	-0.424
-634.580	-25.613	-0.251	0.149
-633.565	-90.211	-0.083	0.024
-632.551	440.668	0.045	0.099
-631.536	-200.000	-0.023	0.327
-630.522	-200.000	-0.018	-0.153
-629.507	790.285	-0.111	-0.307
-628.492	130.412	-0.147	-0.189
-627.478	-200.000	-0.025	-0.131
-626.463	-110.936	-0.049	-0.010
-625.449	-105.477	0.190	0.043
-624.434	-88.119	-0.262	-0.079
-623.419	402.006	0.029	0.061
-622.405	-200.000	-0.000	0.133
-621.390	33.864	0.122	0.106
-620.376	168.681	0.039	-0.056
-619.361	466.791	-0.043	0.096
-618.346	-63.010	0.066	0.027
-617.332	127.026	0.121	0.153
-616.317	-28.572	-0.079	-0.046
-615.303	144.544	0.206	-0.276
-614.288	-200.000	-0.032	0.141
-613.273	-28.342	0.190	-0.110
-612.259	-112.914	0.188	0.037
-611.244	114.905	-0.087	-0.106
-610.230	-200.000	0.037	0.302
-609.215	-120.508	-0.425	-0.072
-608.201	25.773	-0.059	-0.050
-607.186	-42.625	0.153	-0.078
-606.171	35.868	0.196	-0.173
-605.157	119.011	0.167	0.207
-604.142	61.857	-0.107	0.107
-603.128	-200.000	-0.024	-0.239
-602.113	-100.342	0.173	-0.043
-601.098	800.000	-0.136	0.402
-600.084	-106.480	0.105	-0.023
-599.069	-115.401	-0.323	-0.061
-598.055	314.124	0.101	-0.191
-597.040	-200.000	-0.036	-0.275
-596.025	-200.000	-0.045	-0.253
-595.011	-14.206	-0.061	0.039
-593.996	188.081	0.141	0.211
-592.982	231.963	-0.044	-0.072
-591.967	35.772	0.222	-0.196
-590.952	318.805	-0.118	-0.224
-589.938	653.015	-0.139	0.358
-588.923	71.916	0.079	-0.082
-587.909	-62.705	0.073	-0.030
-586.894	-185.310	0.136	0.002
-585.879	74.982	0.249	-0.262
-584.865	-200.000	-0.071	-0.331
-583.850	-83.483	-0.256	-0.082
-582.836	51.959	0.101	0.096
-581.821	192.718	-0.151	-0.229
-580.806	800.000	0.008	0.032
-579.792	800.000	0.046	0.191
-578.777	-69.708	0.056	0.021
-577.763	-200.000	0.126	-0.599
-576.748	67.105	0.070	0.071
-575.733	-81.394	0.206	-0.068
-574.719	535.297	0.162	-0.384
-573.704	246.605	-0.246	0.415
-572.690	457.478	0.111	0.248
-571.675	-200.000	0.004	0.032
-570.661	4.063	0.259	-0.189
-569.646	388.643	0.005	-0.010
-568.631	287.682	0.217	0.392
-567.617	-58.419	-0.223	-0.097
-566.602	-28.742	-0.234	-0.135
-565.588	-139.796	0.235	0.025
-564.573	-138.447	0.237	0.026
-563.558	555.815	0.120	0.288
-562.544	-68.276	0.340	0.132
-561.529	645.244	0.109	-0.279
-560.515	-122.333	-0.261	0.043
-559.500	-34.072	-0.249	-0.137
-558.485	-200.000	-0.008	0.232
-557.471	800.000	0.016	-0.066
-556.456	-74.567	-0.456	0.164
-555.442	515.371	0.090	-0.211
-554.427	114.359	0.146	0.178
-553.412	40.149	-0.278	0.250
-552.398	152.666	0.081	-0.111
-551.383	794.069	0.069	-0.191
-550.369	35.600	0.247	-0.217
-549.354	145.602	-0.216	-0.289
-548.339	800.000	-0.045	-0.135
-547.325	-200.000	-0.023	0.353
-546.310	68.013	-0.189	-0.193
-545.296	800.000	-0.055	0.227
-544.281	-58.541	-0.153	0.066
-543.266	-200.000	0.008	-0.297
-542.252	-200.000	0.019	-0.136
-541.237	-83.436	0.198	0.063
-540.223	-200.000	0.001	0.308
-539.208	145.721	-0.039	-0.052
-538.193	-49.359	-0.137	-0.066
-537.179	-200.000	-0.018	0.302
-536.164	-139.357	-0.189	-0.020
-535.150	800.000	0.036	0.142
-534.135	-20.169	0.123	0.076
-533.121	57.942	0.081	-0.079
-532.106	67.644	-0.194	-0.199
-531.091	342.525	-0.087	-0.171
-530.077	-9.821	0.183	-0.122
-529.062	-87.358	0.602	-0.182
-528.048	-200.000	0.001	-0.169
-527.033	39.280	0.030	0.026
-526.018	-159.995	-0.093	0.005
-525.004	8.494	-0.136	0.103
-523.989	-200.000	0.003	0.099
-522.975	-21.704	-0.254	0.154
-521.960	-0.701	0.088	0.062
-520.945	523.106	-0.129	-0.302
-519.931	19.597	-0.132	0.106
-518.916	-53.062	-0.107	-0.049
-517.902	132.109	0.230	0.296
-516.887	134.837	0.096	-0.124
-515.872	800.000	0.096	0.278
-514.858	786.625	0.031	0.086
-513.843	-35.437	-0.365	0.198
-512.829	29.646	-0.288	-0.245
-511.814	-67.239	0.233	-0.092
-510.799	388.105	-0.207	-0.428
-509.785	291.177	0.016	-0.028
-508.770	36.889	-0.118	0.104
-507.756	12.263	-0.147	0.113
-506.741	-155.998	-0.204	0.013
-505.726	609.280	-0.077	-0.192
-504.712	-68.049	-0.106	0.041
-503.697	4.279	-0.029	0.022
-502.683	-107.771	0.107	0.023
-501.668	11.612	-0.074	-0.057
-500.653	800.000	-0.072	-0.261
-499.639	-152.125	-0.266	0.019
-498.624	-156.700	-0.145	-0.009
-497.610	-27.161	0.200	-0.116
-496.595	85.060	-0.091	-0.100
-495.581	26.306	-0.119	0.099
-494.566	75.867	-0.248	-0.262
-493.551	39.437	0.143	0.128
-492.537	-15.613	-0.169	0.107
-491.522	280.431	0.304	0.543
-490.508	14.958	-0.175	-0.137
-489.493	-124.978	0.134	-0.021
-488.478	593.599	-0.090	-0.221
-487.464	209.393	0.056	-0.088
-486.449	800.000	-0.087	0.251
-485.435	-200.000	0.007	0.190
-484.420	-200.000	-0.008	0.042
-483.405	736.324	-0.088	0.235
-482.391	-63.697	0.165	-0.068
-481.376	26.885	-0.065	-0.054
-480.362	604.520	-0.044	-0.109
-479.347	88.511	-0.190	0.211
-478.332	414.172	-0.108	0.230
-477.318	35.189	0.242	0.211
-476.303	150.802	-0.093	0.126
-475.289	-34.352	-0.205	0.112
-474.274	68.760	-0.119	0.122
-473.259	-200.000	-0.050	0.348
-472.245	-200.000	0.037	-0.184
-471.230	150.174	-0.118	0.160
-470.216	-200.000	-0.038	0.181
-469.201	278.127	-0.008	-0.014
-468.186	-200.000	-0.021	-0.378
-467.172	4.079	0.038	0.028
-466.157	-200.000	0.017	0.146
-465.143	222.097	-0.025	-0.040
-464.128	-200.000	-0.060	0.277
-463.113	-48.652	-0.279	0.133
-462.099	375.038	0.086	0.176
-461.084	-45.606	0.224	0.110
-460.070	56.133	-0.210	-0.203
-459.055	-111.007	-0.159	-0.033
-458.040	800.000	0.078	0.258
-457.026	-51.259	0.083	0.039
-456.011	-138.518	0.160	0.017
-454.997	-154.914	-0.127	0.008
-453.982	396.239	0.028	-0.059
-452.968	63.827	-0.188	-0.189
-451.953	-29.975	-0.314	-0.178
-450.938	89.235	0.192	0.214
-449.924	128.637	-0.281	-0.357
-448.909	46.358	-0.199	-0.184
-447.895	-32.629	0.204	0.113
-446.880	-86.449	0.233	-0.071
-445.865	169.145	0.063	0.090
-444.851	463.842	-0.086	0.192
-443.836	-193.274	0.355	0.003
-442.822	77.861	0.117	-0.124
-441.807	800.000	0.020	0.077
-440.792	800.000	-0.100	-0.281
-439.778	-200.000	0.019	0.114
-438.763	163.208	-0.103	0.144
-437.749	-109.105	-0.281	-0.060
-436.734	160.287	-0.293	-0.407
-435.719	-113.877	-0.450	-0.087
-434.705	-52.697	-0.174	0.080
-433.690	187.625	0.231	0.344
-432.676	800.000	0.045	0.177
-431.661	-122.565	0.189	0.031
-430.646	33.534	-0.199	-0.172
-429.632	46.665	0.096	0.089
-428.617	342.195	-0.086	0.168
-427.603	-62.439	-0.356	-0.147
-426.588	800.000	-0.010	-0.029
-425.573	638.705	0.018	-0.046
-424.559	100.902	0.188	0.218
-423.544	-83.366	-0.116	0.037
-422.530	-200.000	0.033	0.159
-421.515	259.861	-0.151	0.259
-420.500	-200.000	-0.103	-0.505
-419.486	-104.195	-0.361	0.084
-418.471	108.309	0.172	-0.205
-417.457	139.115	-0.165	0.215
-416.442	-55.490	0.084	0.038
-415.428	-174.096	-0.097	-0.003
-414.413	-138.510	-0.079	-0.009
-413.398	139.222	0.203	0.265
-412.384	-87.626	-0.372	-0.112
-411.369	186.775	0.170	0.251
-410.355	-142.178	0.304	-0.030
-409.340	-7.866	-0.092	0.062
-408.325	-200.000	0.010	0.173
-407.311	-200.000	0.084	-0.408
-406.296	-26.072	-0.072	-0.042
-405.282	-97.751	0.334	-0.086
-404.267	-1.288	-0.084	-0.059
-403.252	800.000	-0.086	-0.235
-402.238	-122.132	-0.162	-0.026
-401.223	-200.000	-0.005	0.233
-400.209	314.156	-0.114	0.213
-399.194	-24.099	0.095	0.057
-398.179	588.680	-0.046	-0.112
-397.165	31.444	-0.223	0.190
-396.150	800.000	-0.136	-0.375
-395.136	-16.697	0.136	-0.086
-394.121	30.810	0.066	0.056
-393.106	-191.322	0.162	-0.002
-392.092	33.102	0.126	0.108
-391.077	-75.975	0.172	-0.060
-390.063	-129.204	-0.338	0.047
-389.048	-155.463	-0.178	-0.011
-388.033	-150.842	0.308	0.023
-387.019	261.924	0.063	0.109
-386.004	270.657	-0.093	-0.163
-384.990	800.000	-0.086	0.270
-383.975	126.269	-0.109	0.137
-382.960	-200.000	0.043	-0.391
-381.946	440.232	0.117	-0.253
-380.931	261.060	-0.200	-0.345
-379.917	-107.964	0.140	-0.030
-378.902	389.247	0.074	0.153
-377.888	-102.039	-0.304	0.073
-376.873	140.746	-0.203	-0.266
-375.858	-183.286	0.129	0.002
-374.844	-61.671	-0.227	0.094
-373.829	70.276	-0.186	0.191
-372.815	-150.156	0.435	0.034
-371.800	118.831	-0.175	-0.215
-370.785	-200.000	0.052	0.319
-369.771	-88.833	-0.202	0.060
-368.756	800.000	0.069	-0.190
-367.742	-13.205	-0.310	-0.200
-366.727	-133.366	0.268	-0.034
-365.712	-136.809	-0.134	0.015
-364.698	-18.302	0.283	0.176
-363.683	-200.000	-0.026	-0.174
-362.669	-200.000	0.002	0.132
-361.654	44.498	0.195	-0.178
-360.639	424.142	-0.079	-0.169
-359.625	45.162	-0.038	-0.034
-358.610	-187.557	0.293	-0.004
-357.596	311.093	0.106	-0.198
-356.581	-157.017	-0.176	0.011
-355.566	369.835	-0.211	0.424
-354.552	295.271	-0.226	0.410
-353.537	-69.617	0.360	-0.137
-352.523	299.847	-0.218	0.399
-351.508	-200.000	-0.018	-0.120
-350.493	-126.678	-0.354	0.052
-349.479	-66.965	-0.128	0.050
-348.464	-32.106	-0.281	-0.156
-347.450	-21.836	0.090	-0.054
-346.435	-200.000	0.024	0.132
-345.420	-7.722	-0.210	0.141
-344.406	-200.000	-0.010	0.130
-343.391	-200.000	-0.028	0.179
-342.377	-65.918	0.391	-0.155
-341.362	-200.000	0.007	-0.181
-340.348	20.856	0.149	-0.120
-339.333	2.540	0.188	0.135
-338.318	-6.006	-0.041	0.028
-337.304	177.735	0.021	0.031
-336.289	-38.778	0.277	0.145
-335.275	-200.000	0.004	-0.118
-334.260	-72.583	0.170	-0.062
-333.245	133.426	0.091	0.116
-332.231	-200.000	0.009	0.277
-331.216	43.447	0.509	0.461
-330.202	20.938	0.240	-0.193
-329.187	-41.483	0.111	-0.057
-328.172	135.878	0.084	0.108
-327.158	-5.298	-0.157	0.107
-326.143	-103.984	0.399	0.092
-325.129	186.128	0.088	0.130
-324.114	-108.734	-0.150	-0.032
-323.099	-76.352	0.145	0.051
-322.085	45.279	-0.073	-0.066
-321.070	-90.738	-0.175	-0.050
-320.056	246.598	0.056	-0.094
-319.041	-108.322	0.223	-0.048
-318.026	228.625	-0.118	-0.191
-317.012	800.000	0.058	-0.160
-315.997	-58.084	-0.150	-0.065
-314.983	-122.326	0.401	0.065
-313.968	-200.000	-0.039	0.169
-312.953	-34.154	-0.323	-0.176
-311.939	201.803	-0.152	0.232
-310.924	102.329	0.077	0.089
-309.910	2.446	-0.096	0.069
-308.895	7.219	-0.042	0.031
-307.880	-166.346	0.359	0.015
-306.866	-200.000	-0.037	0.329
-305.851	152.760	0.067	-0.090
-304.837	-22.488	0.178	-0.107
-303.822	-200.000	0.038	-0.210
-302.807	-50.022	-0.123	-0.058
-301.793	-200.000	-0.027	-0.266
-300.778	754.198	0.113	0.302
-299.764	-108.881	0.114	0.024
-298.749	29.950	0.132	-0.111
-297.735	-200.000	0.014	-0.080
-296.720	20.234	-0.068	0.055
-295.705	5.026	-0.268	-0.195
-294.691	455.915	-0.139	0.306
-293.676	-25.063	0.106	-0.062
-292.662	370.129	-0.057	0.115
-291.647	-100.959	0.142	-0.035
-290.632	301.664	0.144	-0.263
-289.618	45.126	0.162	0.148
-288.603	800.000	-0.077	0.298
-287.589	-123.789	-0.176	-0.027
-286.574	-8.920	0.453	-0.301
-285.559	59.941	0.199	0.195
-284.545	-200.000	-0.001	0.077
-283.530	1.825	0.289	0.206
-282.516	-200.000	-0.011	0.277
-281.501	278.627	0.073	-0.128
-280.486	-4.835	-0.107	0.073
-279.472	17.661	0.159	0.125
-278.457	170.255	0.128	-0.181
-277.443	93.880	0.077	-0.086
-276.428	-41.459	0.107	-0.054
-275.413	-113.871	0.376	0.072
-274.399	276.948	0.112	-0.196
-273.384	541.614	0.049	0.116
-272.370	-200.000	-0.040	-0.294
-271.355	-192.949	-0.115	0.001
-270.340	-15.924	0.064	0.040
-269.326	586.211	-0.075	-0.183
-268.311	11.904	0.073	0.055
-267.297	6.656	-0.252	0.185
-266.282	522.378	0.007	0.017
-265.267	-200.000	-0.025	0.152
-264.253	-97.822	0.157	-0.040
-263.238	-55.169	0.024	0.011
-262.224	493.623	-0.061	0.139
-261.209	130.018	0.098	-0.124
-260.195	800.000	0.027	-0.103
-259.180	800.000	0.104	-0.395
-258.165	-112.448	0.402	-0.079
-257.151	-23.702	-0.311	0.185
-256.136	-200.000	0.007	-0.328
-255.122	-200.000	0.004	-0.130
-254.107	456.023	-0.055	-0.120
-253.092	-79.416	0.297	-0.099
-252.078	329.823	0.048	0.092
-251.063	-200.000	0.024	-0.146
-250.049	-200.000	-0.069	0.000
-249.034	434.075	-0.115	-0.247
-248.019	-200.000	0.023	0.128
-247.005	-200.000	-0.003	0.089
-245.990	402.428	-0.075	-0.155
-244.976	161.184	0.097	-0.134
-243.961	69.132	0.301	-0.306
-242.946	44.647	-0.130	0.118
-241.932	-163.005	0.056	0.003
-240.917	134.000	0.162	-0.207
-239.903	-200.000	0.003	-0.214
-238.888	-150.381	-0.141	-0.011
-237.873	800.000	0.034	0.136
-236.859	-200.000	0.081	-0.400
-235.844	-200.000	-0.018	0.602
-234.830	-200.000	-0.015	-0.211
-233.815	-200.000	0.004	0.266
-232.800	412.531	0.048	-0.101
-231.786	800.000	-0.057	0.180
-230.771	800.000	-0.069	-0.262
-229.757	-53.036	0.127	-0.058
-228.742	144.515	0.165	0.218
-227.727	-200.000	0.070	-0.352
-226.713	8.414	-0.210	0.156
-225.698	81.218	-0.095	0.101
-224.684	64.092	0.198	-0.197
-223.669	527.891	-0.025	-0.058
-222.655	800.000	-0.027	-0.103
-221.640	-200.000	0.071	-0.320
-220.625	-123.551	0.251	-0.039
-219.611	-111.782	0.157	-0.031
-218.596	-200.000	0.015	0.121
-217.582	126.031	0.107	-0.133
-216.567	107.424	0.184	0.216
-215.552	-200.000	0.035	-0.260
-214.538	32.632	0.135	0.115
-213.523	-141.573	-0.423	-0.042
-212.509	572.249	0.043	0.102
-211.494	3.485	0.252	-0.182
-210.479	-24.499	-0.261	-0.154
-209.465	-200.000	0.022	0.196
-208.450	130.244	0.122	0.154
-207.436	800.000	-0.101	0.417
-206.421	160.109	0.195	0.269
-205.406	154.981	-0.110	0.149
-204.392	193.438	0.119	0.177
-203.377	800.000	0.039	0.113
-202.363	-200.000	-0.011	0.214
-201.348	213.387	-0.134	-0.209
-200.333	-179.828	-0.048	0.001
-199.319	-200.000	0.042	-0.479
-198.304	-48.031	-0.231	-0.110
-197.290	-200.000	-0.005	0.080
-196.275	-108.124	0.257	-0.055
-195.260	-76.504	0.045	-0.016
-194.246	-1.717	0.211	0.147
-193.231	170.999	-0.125	-0.177
-192.217	52.010	-0.154	0.145
-191.202	-200.000	0.039	0.185
-190.187	-200.000	-0.040	-0.249
-189.173	800.000	0.063	-0.267
-188.158	81.913	-0.046	-0.049
-187.144	203.859	-0.017	0.025
-186.129	-86.906	0.138	-0.042
-185.114	231.619	0.080	0.129
-184.100	172.979	-0.204	0.290
-183.085	248.000	-0.094	-0.157
-182.071	91.738	0.205	0.227
-181.056	-200.000	0.008	0.169
-180.042	-114.831	0.491	0.092
-179.027	119.856	-0.204	0.249
-178.012	-200.000	-0.008	0.140
-176.998	-200.000	-0.031	-0.156
-175.983	10.658	-0.073	-0.055
-174.969	48.294	0.135	0.124
-173.954	163.985	-0.156	0.217
-172.939	99.706	0.229	-0.261
-171.925	60.476	-0.239	0.233
-170.910	800.000	0.049	0.193
-169.896	210.965	-0.086	-0.134
-168.881	-200.000	0.002	-0.100
-167.866	-0.234	0.112	-0.079
-166.852	325.494	-0.031	-0.058
-165.837	566.708	0.015	0.035
-164.823	-140.406	0.203	-0.021
-163.808	-200.000	0.040	-0.190
-162.793	-32.462	0.108	0.059
-161.779	-136.760	0.571	-0.065
-160.764	800.000	-0.085	-0.252
-159.750	-55.413	-0.217	0.096
-158.735	-36.134	0.404	-0.215
-157.720	800.000	0.059	-0.163
-156.706	29.828	-0.096	0.081
-155.691	-112.874	-0.309	0.060
-154.677	-78.348	-0.091	-0.031
-153.662	122.582	-0.215	0.265
-152.647	-118.374	0.140	0.024
-151.633	-200.000	-0.014	0.178
-150.618	153.798	-0.153	0.207
-149.604	800.000	-0.089	-0.301
-148.589	-120.356	0.203	0.034
-147.574	-49.763	0.173	-0.081
-146.560	-87.250	-0.281	-0.084
-145.545	-17.202	0.275	0.171
-144.531	488.336	0.098	0.221
-143.516	37.527	0.316	0.276
-142.502	124.388	-0.038	-0.047
-141.487	-51.903	-0.300	-0.138
-140.472	86.586	0.058	-0.063
-139.458	-200.000	0.004	0.422
-138.443	-19.273	0.313	-0.191
-137.429	659.396	0.067	-0.170
-136.414	142.508	0.092	-0.120
-135.399	58.697	0.084	-0.081
-134.385	63.626	-0.190	-0.188
-133.370	-57.204	0.355	0.154
-132.356	-175.955	0.250	0.007
-131.341	-200.000	-0.045	0.464
-130.326	-33.722	0.113	0.061
-129.312	-200.000	0.050	-0.257
-128.297	-200.000	-0.156	-0.001
-127.283	742.125	0.091	-0.241
-126.268	800.000	0.052	-0.205
-125.253	135.166	-0.217	0.278
-124.239	140.228	-0.210	0.273
-123.224	88.138	-0.124	-0.135
-122.210	-200.000	0.011	-0.231
-121.195	181.669	0.169	0.244
