DTS Sentinel unit serial number:	SN413079Multiplexer serial number:	ORYXHardware model number:	OX4-SRSoftware version number:	ORYX F/W v4.00 Oryx Data Collector v3.7.2.0data status	okinstallation	princeton_trtdifferential loss correction	single-endedforward channel	channel 3reverse channel	N/Adate	2019/09/18time	01:48:34forward acquisition time	60.00reverse acquisition time	0.00gamma	496.2192k internal	0.2345k external	0.2345temperature offset calibration	0.9944default loss term (dB/km)	0.3790temperature slope calibration	1.0000multiplexer offset coefficient	1.0000multiplexer slope coefficient	1.0000fibre end	0.00T internal ref (°C)	23.00T ext. ref 1 (°C)	0.16T ext. ref 2 (°C)	16.57length (m)	temperature (°C)	Stokes	anti-Stokes-747.200	52.770	0.191	0.183
-746.185	-18.142	-0.039	-0.024
-745.171	78.440	-0.161	0.172
-744.156	-103.118	-0.398	0.094
-743.142	-130.744	0.340	0.046
-742.127	-200.000	-0.007	-0.052
-741.112	495.650	0.070	0.160
-740.098	-27.043	-0.352	0.205
-739.083	244.801	0.080	0.135
-738.069	-200.000	0.012	0.296
-737.054	87.192	0.192	-0.212
-736.039	210.615	-0.118	0.186
-735.025	-200.000	-0.039	0.462
-734.010	-124.265	0.106	-0.017
-732.996	27.153	-0.145	-0.122
-731.981	800.000	0.073	-0.216
-730.966	-55.172	0.364	0.164
-729.952	-123.917	-0.147	0.023
-728.937	-4.153	-0.137	-0.095
-727.923	-200.000	0.015	-0.124
-726.908	-27.421	0.353	-0.205
-725.894	-80.176	-0.239	-0.080
-724.879	142.211	-0.149	0.198
-723.864	110.639	-0.145	0.175
-722.850	-94.319	0.178	0.049
-721.835	-200.000	-0.047	-0.208
-720.821	-200.000	-0.011	-0.199
-719.806	106.961	-0.138	-0.164
-718.791	-132.117	0.130	-0.017
-717.777	-157.757	-0.129	-0.008
-716.762	-178.442	0.143	0.003
-715.748	-133.507	0.291	0.037
-714.733	-200.000	-0.013	-0.059
-713.718	-41.671	0.076	0.039
-712.704	16.587	0.179	0.142
-711.689	-115.678	-0.062	0.012
-710.675	-77.516	-0.052	0.018
-709.660	-190.086	0.111	0.001
-708.645	-103.270	0.153	-0.036
-707.631	800.000	-0.035	-0.131
-706.616	-200.000	-0.025	-0.148
-705.602	-149.959	-0.124	0.010
-704.587	48.968	-0.074	0.070
-703.572	130.950	-0.077	-0.098
-702.558	482.322	0.136	-0.309
-701.543	169.923	-0.190	-0.271
-700.529	-200.000	0.008	-0.099
-699.514	-131.067	-0.308	-0.041
-698.499	-160.517	-0.279	0.015
-697.485	-142.081	-0.312	-0.031
-696.470	800.000	0.032	-0.124
-695.456	-72.711	-0.123	0.045
-694.441	-90.580	0.436	-0.126
-693.426	-21.142	-0.116	0.071
-692.412	-200.000	0.015	0.178
-691.397	96.136	0.132	-0.150
-690.383	-200.000	-0.029	0.649
-689.368	-73.764	-0.171	0.062
-688.354	-6.051	0.262	-0.179
-687.339	36.897	0.153	-0.135
-686.324	-111.600	-0.329	-0.067
-685.310	-180.472	-0.332	0.007
-684.295	-200.000	0.064	0.296
-683.281	-193.803	-0.394	0.003
-682.266	-200.000	-0.045	-0.346
-681.251	205.285	-0.160	0.248
-680.237	-167.707	-0.227	0.009
-679.222	28.204	-0.139	0.117
-678.208	-14.370	0.079	-0.051
-677.193	-200.000	0.006	-0.042
-676.178	-96.255	-0.303	-0.080
-675.164	-90.204	0.549	-0.159
-674.149	11.993	-0.301	0.231
-673.135	-200.000	0.004	-0.083
-672.120	-200.000	-0.022	-0.157
-671.105	52.849	0.046	-0.044
-670.091	308.840	0.075	0.141
-669.076	12.442	-0.112	0.086
-668.062	31.239	-0.090	0.077
-667.047	-159.266	0.324	0.018
-666.032	619.828	0.078	0.196
-665.018	-200.000	-0.415	-0.000
-664.003	-13.027	-0.216	0.140
-662.989	-200.000	-0.020	-0.211
-661.974	-142.040	0.322	-0.032
-660.959	-78.095	-0.419	0.144
-659.945	800.000	-0.107	0.389
-658.930	61.427	0.101	0.100
-657.916	-200.000	0.031	0.201
-656.901	39.543	-0.260	-0.232
-655.886	-198.740	0.068	-0.000
-654.872	-200.000	0.041	-0.184
-653.857	-117.342	0.155	0.028
-652.843	74.942	-0.222	-0.233
-651.828	119.228	-0.114	-0.141
-650.814	800.000	-0.039	-0.144
-649.799	-49.384	-0.098	-0.047
-648.784	-9.602	0.262	0.174
-647.770	20.012	-0.136	0.109
-646.755	-140.001	0.121	-0.013
-645.741	-146.056	-0.272	0.024
-644.726	127.646	0.169	-0.213
-643.711	-121.773	0.190	0.031
-642.697	112.179	-0.166	0.200
-641.682	800.000	0.070	0.198
-640.668	-200.000	-0.019	-0.182
-639.653	800.000	-0.113	-0.324
-638.638	-195.384	0.114	-0.001
-637.624	-128.285	-0.334	-0.047
-636.609	77.329	0.314	0.333
-635.595	-200.000	0.002	-0.420
-634.580	90.723	0.217	0.243
-633.565	-200.000	0.017	-0.116
-632.551	48.181	0.299	-0.278
-631.536	69.318	0.095	0.098
-630.522	-129.092	-0.147	0.021
-629.507	51.891	-0.252	0.239
-628.492	800.000	-0.109	0.305
-627.478	-59.358	0.085	-0.037
-626.463	142.746	-0.123	0.163
-625.449	-188.006	0.225	0.003
-624.434	-1.110	-0.077	-0.054
-623.419	356.766	0.091	0.181
-622.405	-200.000	-0.012	0.096
-621.390	65.519	0.056	0.057
-620.376	-38.637	0.248	-0.130
-619.361	497.839	0.121	0.276
-618.346	-144.662	0.189	-0.017
-617.332	197.094	-0.182	-0.276
-616.317	-178.599	-0.118	0.003
-615.303	130.755	-0.074	-0.094
-614.288	-73.340	0.232	0.084
-613.273	206.361	0.080	0.124
-612.259	-200.000	-0.022	0.124
-611.244	-11.504	0.169	-0.110
-610.230	34.644	0.243	-0.211
-609.215	-4.888	0.087	-0.060
-608.201	397.243	-0.039	-0.080
-607.186	490.073	0.061	0.139
-606.171	-200.000	-0.013	0.356
-605.157	-77.948	-0.202	-0.069
-604.142	-47.462	0.070	0.034
-603.128	-81.446	-0.250	0.082
-602.113	-81.883	0.231	-0.075
-601.098	99.764	-0.218	-0.251
-600.084	800.000	0.133	-0.412
-599.069	190.834	-0.105	0.157
-598.055	-58.967	-0.190	0.082
-597.040	-13.535	-0.091	-0.058
-596.025	800.000	-0.056	0.219
-595.011	15.860	-0.232	-0.182
-593.996	39.714	0.177	0.158
-592.982	-90.406	0.360	-0.104
-591.967	800.000	0.106	-0.312
-590.952	-61.764	-0.217	-0.090
-589.938	0.782	-0.200	-0.143
-588.923	169.250	0.204	-0.290
-587.909	-61.484	0.065	0.027
-586.894	-82.058	-0.228	-0.074
-585.879	-96.157	0.269	-0.071
-584.865	-37.793	-0.216	-0.114
-583.850	541.020	-0.070	-0.166
-582.836	-200.000	0.054	-0.330
-581.821	-175.849	0.192	0.005
-580.806	-131.299	-0.223	-0.029
-579.792	800.000	0.090	0.259
-578.777	-111.916	-0.142	-0.028
-577.763	-200.000	0.008	-0.468
-576.748	717.792	0.057	-0.150
-575.733	-128.171	-0.320	0.045
-574.719	-200.000	0.022	0.197
-573.704	-17.710	-0.291	0.181
-572.690	-200.000	0.002	0.205
-571.675	166.508	0.108	0.152
-570.661	-82.640	-0.194	-0.063
-569.646	-200.000	0.040	-0.253
-568.631	-194.228	-0.283	0.002
-567.617	-200.000	-0.003	-0.047
-566.602	309.051	-0.056	0.105
-565.588	696.634	-0.111	0.289
-564.573	-200.000	-0.065	0.320
-563.558	58.785	0.048	0.047
-562.544	-156.032	-0.112	0.007
-561.529	800.000	-0.059	-0.190
-560.515	-200.000	0.012	-0.167
-559.500	409.162	0.022	0.046
-558.485	-35.417	-0.204	0.110
-557.471	140.936	-0.150	-0.196
-556.456	-14.563	0.123	0.078
-555.442	-176.107	0.081	0.002
-554.427	-118.146	0.374	0.066
-553.412	-46.715	-0.284	-0.138
-552.398	84.344	0.328	-0.356
-551.383	-73.081	-0.417	-0.152
-550.369	-67.061	-0.381	-0.149
-549.354	59.248	-0.068	-0.067
-548.339	59.314	0.188	0.184
-547.325	-82.193	0.036	-0.012
-546.310	214.863	0.036	-0.057
-545.296	-56.741	0.270	-0.119
-544.281	-200.000	0.001	0.016
-543.266	800.000	-0.043	-0.168
-542.252	800.000	0.042	0.129
-541.237	800.000	0.134	-0.458
-540.223	145.675	-0.200	-0.267
-539.208	137.878	0.231	-0.301
-538.193	-200.000	0.002	-0.186
-537.179	-200.000	0.008	0.274
-536.164	-114.272	0.120	-0.023
-535.150	800.000	0.117	0.331
-534.135	15.024	0.092	0.072
-533.121	339.278	0.113	-0.218
-532.106	754.459	0.028	-0.075
-531.091	56.977	0.179	0.173
-530.077	260.459	0.055	0.094
-529.062	396.478	-0.034	0.070
-528.048	-35.048	0.052	0.028
-527.033	73.666	-0.262	-0.273
-526.018	-107.649	0.048	0.010
-525.004	-135.317	-0.467	-0.055
-523.989	-14.729	-0.211	-0.135
-522.975	141.422	-0.094	-0.124
-521.960	-134.644	0.132	0.016
-520.945	-200.000	-0.032	-0.396
-519.931	-200.000	-0.051	-0.577
-518.916	-200.000	0.046	-0.308
-517.902	-145.711	0.076	-0.007
-516.887	-36.010	-0.233	-0.125
-515.872	800.000	0.096	-0.301
-514.858	-162.357	0.291	-0.014
-513.843	48.458	0.401	-0.372
-512.829	-86.413	-0.095	-0.029
-511.814	-200.000	0.007	-0.107
-510.799	-65.847	-0.108	-0.043
-509.785	-68.871	0.087	0.033
-508.770	94.589	-0.075	-0.084
-507.756	569.764	0.153	-0.369
-506.741	-200.000	0.020	-0.126
-505.726	-145.196	-0.172	0.015
-504.712	7.012	-0.035	0.026
-503.697	-200.000	0.006	-0.057
-502.683	392.830	-0.091	-0.188
-501.668	-105.549	-0.138	0.031
-500.653	-74.092	0.069	0.025
-499.639	-6.888	0.143	-0.096
-498.624	-200.000	-0.029	0.163
-497.610	-75.623	-0.248	-0.087
-496.595	-87.606	-0.113	-0.034
-495.581	-89.660	0.192	0.056
-494.566	106.421	0.147	-0.172
-493.551	-101.628	-0.479	-0.115
-492.537	-6.470	-0.299	0.202
-491.522	20.491	0.156	0.125
-490.508	-200.000	-0.043	0.244
-489.493	-200.000	-0.025	0.140
-488.478	-200.000	0.044	0.197
-487.464	-26.561	0.275	0.160
-486.449	-108.384	-0.078	0.017
-485.435	-38.030	0.190	0.100
-484.420	-6.651	-0.066	0.045
-483.405	50.102	-0.235	-0.219
-482.391	380.580	-0.070	-0.143
-481.376	-0.016	0.194	0.137
-480.362	299.840	-0.063	-0.115
-479.347	56.811	-0.108	0.105
-478.332	174.971	-0.044	-0.063
-477.318	143.730	0.136	-0.179
-476.303	-158.063	-0.263	0.015
-475.289	-105.945	0.104	0.023
-474.274	5.904	0.189	-0.138
-473.259	-128.689	-0.271	0.038
-472.245	-165.980	0.240	0.010
-471.230	800.000	0.114	0.377
-470.216	800.000	-0.062	-0.199
-469.201	-200.000	0.062	0.296
-468.186	-101.238	-0.270	-0.065
-467.172	-52.525	0.133	0.061
-466.157	-64.152	-0.501	-0.202
-465.143	259.792	0.144	-0.246
-464.128	-200.000	-0.034	-0.181
-463.113	453.453	-0.083	-0.182
-462.099	145.945	0.265	-0.351
-461.084	525.113	0.088	-0.206
-460.070	800.000	-0.075	-0.318
-459.055	-200.000	-0.064	0.533
-458.040	179.796	-0.131	-0.190
-457.026	205.678	0.095	-0.147
-456.011	-68.673	0.352	-0.135
-454.997	-95.894	0.144	0.038
-453.982	-91.260	-0.259	0.073
-452.968	250.745	0.112	-0.188
-451.953	-147.899	-0.303	0.025
-450.938	-30.450	0.207	0.116
-449.924	239.723	0.136	-0.224
-448.909	-102.048	0.065	-0.016
-447.895	-160.324	-0.255	-0.014
-446.880	-24.787	0.197	0.116
-445.865	-114.159	-0.189	-0.036
-444.851	-129.449	-0.099	-0.014
-443.836	343.315	-0.026	-0.051
-442.822	-24.898	-0.046	-0.027
-441.807	-160.338	-0.126	0.007
-440.792	36.449	0.410	0.357
-439.778	800.000	0.064	0.175
-438.763	130.036	-0.091	0.115
-437.749	-1.152	-0.052	0.037
-436.734	34.507	-0.194	-0.168
-435.719	100.522	-0.048	-0.055
-434.705	730.551	0.117	-0.309
-433.690	-150.523	0.332	-0.025
-432.676	368.661	-0.083	0.166
-431.661	-160.490	-0.212	-0.011
-430.646	-61.772	0.026	0.011
-429.632	307.367	0.101	-0.186
-428.617	5.747	-0.178	-0.130
-427.603	-17.636	-0.303	0.188
-426.588	-151.627	0.505	0.037
-425.573	-11.900	-0.129	0.084
-424.559	-200.000	-0.033	0.393
-423.544	428.570	-0.126	0.269
-422.530	260.473	-0.102	0.174
-421.515	120.438	0.046	-0.057
-420.500	402.126	0.029	-0.059
-419.486	283.978	-0.091	0.162
-418.471	800.000	0.065	0.188
-417.457	-152.887	0.243	-0.017
-416.442	670.188	0.050	-0.128
-415.428	-138.010	0.124	-0.014
-414.413	-188.515	0.150	0.002
-413.398	-2.044	-0.221	0.154
-412.384	643.706	0.161	0.407
-411.369	440.634	-0.043	-0.092
-410.355	170.092	-0.132	0.186
-409.340	800.000	0.054	0.194
-408.325	39.215	0.139	-0.123
-407.311	341.848	0.087	-0.167
-406.296	-45.662	-0.196	0.096
-405.282	-100.526	-0.294	-0.072
-404.267	-61.539	-0.155	-0.064
-403.252	-84.235	0.188	0.059
-402.238	364.669	-0.153	-0.304
-401.223	800.000	0.071	-0.217
-400.209	-150.301	-0.310	0.024
-399.194	-72.869	-0.170	-0.062
-398.179	-200.000	0.026	-0.131
-397.165	221.839	-0.098	-0.156
-396.150	-80.590	-0.182	0.060
-395.136	101.737	-0.135	0.155
-394.121	-59.064	-0.270	0.115
-393.106	129.672	-0.235	-0.296
-392.092	-200.000	0.005	-0.227
-391.077	31.815	-0.109	-0.092
-390.063	-175.254	0.237	0.006
-389.048	-48.171	-0.271	0.129
-388.033	11.263	-0.301	-0.227
-387.019	-118.022	0.182	0.032
-386.004	-33.546	0.357	0.195
-384.990	171.604	0.066	-0.094
-383.975	172.575	-0.082	-0.116
-382.960	777.481	0.068	0.183
-381.946	216.544	0.037	-0.059
-380.931	-200.000	-0.034	0.157
-379.917	144.131	-0.022	0.029
-378.902	-200.000	0.020	-0.225
-377.888	239.152	0.255	0.418
-376.873	17.176	-0.205	0.161
-375.858	81.343	0.151	-0.161
-374.844	0.226	0.347	-0.244
-373.829	-11.742	-0.079	0.051
-372.815	-35.400	-0.075	-0.040
-371.800	314.983	-0.117	0.217
-370.785	393.077	-0.063	-0.129
-369.771	234.391	0.251	0.408
-368.756	-45.588	0.145	0.071
-367.742	800.000	-0.081	0.291
-366.727	-200.000	-0.012	0.097
-365.712	624.368	0.119	-0.296
-364.698	322.817	-0.110	0.208
-363.683	800.000	0.026	0.095
-362.669	12.328	0.260	0.197
-361.654	-102.557	0.178	-0.042
-360.639	-200.000	0.004	-0.446
-359.625	-114.162	-0.087	-0.017
-358.610	-200.000	-0.006	0.174
-357.596	-2.306	-0.041	-0.029
-356.581	-200.000	-0.035	0.196
-355.566	139.840	-0.122	0.158
-354.552	186.336	-0.097	0.142
-353.537	315.324	-0.050	-0.092
-352.523	-126.088	0.160	-0.024
-351.508	93.137	0.103	-0.115
-350.493	-200.000	0.079	0.421
-349.479	343.412	-0.048	0.093
-348.464	-150.460	0.052	0.004
-347.450	800.000	-0.126	0.362
-346.435	53.944	-0.155	0.147
-345.420	545.110	0.141	-0.331
-344.406	394.667	0.163	0.335
-343.391	-167.970	-0.252	-0.010
-342.377	290.149	-0.094	0.167
-341.362	-54.205	-0.130	-0.058
-340.348	59.510	0.248	0.241
-339.333	-112.549	-0.117	0.023
-338.318	573.099	0.102	0.245
-337.304	-54.583	0.162	0.072
-336.289	-200.000	-0.015	0.252
-335.275	-184.678	-0.080	-0.001
-334.260	-200.000	0.020	0.264
-333.245	-200.000	0.009	-0.071
-332.231	-90.655	0.196	0.056
-331.216	800.000	-0.055	0.173
-330.202	800.000	0.095	0.265
-329.187	-119.395	-0.273	-0.047
-328.172	-200.000	-0.002	0.172
-327.158	-200.000	-0.024	0.363
-326.143	800.000	0.090	0.263
-325.129	277.141	-0.124	0.217
-324.114	-105.078	-0.213	0.048
-323.099	101.489	-0.103	0.118
-322.085	-122.662	-0.270	-0.043
-321.070	38.448	0.321	0.282
-320.056	-66.197	0.070	-0.027
-319.041	-194.201	0.378	0.003
-318.026	800.000	-0.048	0.154
-317.012	-123.931	0.099	0.015
-315.997	-200.000	-0.005	0.086
-314.983	79.824	-0.169	0.179
-313.968	64.100	-0.294	-0.291
-312.953	-137.188	-0.166	0.019
-311.939	315.565	-0.067	-0.124
-310.924	-200.000	0.013	0.255
-309.910	565.145	0.146	0.349
-308.895	-166.519	-0.085	0.003
-307.880	326.921	0.284	-0.536
-306.866	-114.751	-0.020	0.004
-305.851	15.585	-0.122	-0.094
-304.837	18.324	0.287	-0.225
-303.822	-119.104	0.108	-0.018
-302.807	549.066	0.067	0.157
-301.793	78.995	0.131	-0.138
-300.778	-200.000	0.034	-0.159
-299.764	800.000	-0.037	-0.117
-298.749	-54.009	-0.318	-0.142
-297.735	16.275	0.307	-0.238
-296.720	-57.198	-0.219	-0.095
-295.705	-77.799	0.186	0.063
-294.691	-107.712	-0.248	-0.053
-293.676	322.258	-0.112	0.209
-292.662	-79.248	0.031	0.010
-291.647	-133.746	0.117	0.014
-290.632	-152.230	-0.237	-0.017
-289.618	800.000	-0.102	-0.340
-288.603	-7.018	0.110	0.073
-287.589	-134.388	0.494	0.060
-286.574	-97.512	-0.225	0.057
-285.559	800.000	-0.143	-0.391
-284.545	197.132	0.032	0.048
-283.530	198.699	-0.046	-0.068
-282.516	-136.800	0.081	0.009
-281.501	52.268	0.197	0.185
-280.486	-200.000	0.016	-0.513
-279.472	-136.114	-0.146	0.017
-278.457	-200.000	0.056	0.269
-277.443	-200.000	0.038	0.458
-276.428	800.000	0.013	-0.046
-275.413	-84.200	0.036	0.011
-274.399	-200.000	0.007	0.060
-273.384	-63.699	0.272	0.109
-272.370	129.187	-0.160	0.201
-271.355	-87.613	-0.227	0.067
-270.340	75.425	-0.126	-0.131
-269.326	44.468	-0.058	-0.052
-268.311	246.143	0.125	-0.207
-267.297	-200.000	0.020	0.212
-266.282	241.302	0.220	-0.360
-265.267	358.520	0.095	0.187
-264.253	-115.696	-0.326	-0.060
-263.238	94.823	0.233	-0.260
-262.224	128.417	-0.185	-0.232
-261.209	259.199	-0.087	-0.147
-260.195	97.180	0.131	-0.148
-259.180	178.972	0.176	0.253
-258.165	33.229	-0.121	0.103
-257.151	-89.045	-0.085	-0.025
-256.136	800.000	-0.011	-0.038
-255.122	10.819	0.232	-0.173
-254.107	43.147	0.247	-0.222
-253.092	-14.044	0.197	-0.125
-252.078	16.103	0.194	-0.150
-251.063	46.936	-0.214	0.196
-250.049	765.480	-0.153	0.407
-249.034	-9.586	-0.315	-0.206
-248.019	12.873	0.142	-0.108
-247.005	-84.321	-0.193	0.060
-245.990	800.000	-0.112	-0.372
-244.976	-5.244	0.120	-0.081
-243.961	34.074	0.075	-0.064
-242.946	-77.214	-0.120	0.041
-241.932	188.340	0.206	0.302
-240.917	-23.335	-0.301	0.177
-239.903	800.000	0.081	-0.225
-238.888	-70.586	0.300	0.111
-237.873	84.849	-0.151	0.162
-236.859	221.203	0.287	0.452
-235.844	-200.000	0.007	-0.081
-234.830	-64.677	-0.318	-0.126
-233.815	-57.612	0.325	0.140
-232.800	-97.956	0.195	-0.049
-231.786	-72.181	-0.176	-0.064
-230.771	-127.761	-0.059	0.008
-229.757	33.041	0.216	0.184
-228.742	-200.000	-0.022	0.120
-227.727	99.956	0.128	-0.146
-226.713	165.691	0.101	-0.140
-225.698	800.000	-0.046	0.149
-224.684	-200.000	-0.042	-0.354
-223.669	106.234	0.287	0.333
-222.655	-118.771	0.241	0.042
-221.640	-17.949	-0.057	-0.035
-220.625	-89.580	-0.161	0.046
-219.611	77.952	0.155	-0.162
-218.596	356.508	0.140	-0.273
-217.582	682.750	-0.086	-0.220
-216.567	95.566	0.124	0.138
-215.552	45.195	0.407	0.368
-214.538	-200.000	0.003	0.157
-213.523	234.695	-0.079	-0.128
-212.509	120.231	0.120	0.145
-211.494	184.817	0.264	0.383
-210.479	-56.655	-0.218	0.095
-209.465	-4.745	0.326	-0.220
-208.450	-57.064	-0.250	-0.108
-207.436	-200.000	0.003	0.302
-206.421	-91.950	-0.060	-0.017
-205.406	-26.019	-0.290	0.167
-204.392	306.866	-0.054	0.098
-203.377	429.899	0.042	-0.089
-202.363	800.000	0.046	0.140
-201.348	-126.330	-0.197	0.029
-200.333	-200.000	0.025	0.268
-199.319	800.000	-0.069	-0.248
-198.304	-179.409	0.346	0.007
-197.290	-29.849	0.120	-0.067
-196.275	-200.000	0.030	-0.156
-195.260	-65.058	0.140	-0.055
-194.246	111.279	0.091	0.107
-193.231	-87.737	-0.164	-0.048
-192.217	363.444	0.251	0.495
-191.202	231.846	0.119	0.192
-190.187	7.617	-0.131	0.096
-189.173	800.000	-0.074	0.261
-188.158	111.760	-0.094	0.111
-187.144	120.114	-0.061	0.075
-186.129	199.187	0.099	-0.148
-185.114	-200.000	0.016	0.144
-184.100	498.082	0.026	0.058
-183.085	800.000	0.084	0.245
-182.071	82.690	0.139	0.147
-181.056	800.000	-0.065	0.268
-180.042	-200.000	0.040	-0.242
-179.027	181.623	0.033	0.047
-178.012	-135.695	0.124	0.014
-176.998	-104.957	-0.191	-0.043
-175.983	-200.000	0.003	-0.068
-174.969	491.107	0.058	-0.130
-173.954	-200.000	-0.021	-0.338
-172.939	385.282	-0.079	-0.160
-171.925	83.279	-0.171	0.182
-170.910	5.311	-0.047	-0.034
-169.896	265.160	-0.075	-0.128
-168.881	-61.621	0.203	-0.083
-167.866	-144.291	-0.347	0.032
-166.852	-2.918	0.086	-0.059
-165.837	256.738	0.146	0.245
-164.823	168.118	-0.116	0.162
-163.808	485.561	0.062	0.138
-162.793	-118.016	-0.440	-0.077
-161.779	-200.000	0.042	-0.201
-160.764	-66.701	0.272	-0.105
-159.750	119.549	-0.094	0.114
-158.735	-69.225	-0.288	-0.108
-157.720	-200.000	-0.021	-0.116
-156.706	-200.000	-0.020	0.180
-155.691	-92.373	-0.280	-0.077
-154.677	-132.691	0.131	0.016
-153.662	-7.467	-0.069	0.046
-152.647	800.000	-0.074	-0.208
-151.633	200.899	0.087	0.131
-150.618	132.716	0.198	-0.249
-149.604	88.990	-0.128	-0.139
-148.589	-42.070	0.185	0.092
-147.574	800.000	0.213	0.735
-146.560	-43.448	-0.209	0.103
-145.545	-160.436	-0.296	-0.016
-144.531	-200.000	-0.000	0.003
-143.516	146.694	0.117	0.153
-142.502	25.634	0.107	-0.087
-141.487	-200.000	0.011	0.204
-140.472	-200.000	-0.001	-0.108
-139.458	130.957	-0.308	-0.386
-138.443	-200.000	0.003	-0.120
-137.429	-200.000	-0.005	0.068
-136.414	8.687	0.181	-0.133
-135.399	4.872	-0.316	0.227
-134.385	-116.879	-0.230	0.041
-133.370	126.222	0.223	-0.275
-132.356	363.884	-0.031	-0.061
-131.341	255.152	-0.080	-0.134
-130.326	-156.962	0.321	-0.019
-129.312	-5.224	0.090	-0.061
-128.297	-200.000	-0.018	0.393
-127.283	-200.000	0.062	0.349
-126.268	90.644	0.070	-0.076
-125.253	-200.000	0.017	0.083
-124.239	49.162	0.173	-0.159
-123.224	-20.378	0.124	0.074
-122.210	259.250	-0.208	0.351
-121.195	800.000	0.051	-0.174
