DTS Sentinel unit serial number:	SN413079Multiplexer serial number:	ORYXHardware model number:	OX4-SRSoftware version number:	ORYX F/W v4.00 Oryx Data Collector v3.7.2.0data status	okinstallation	princeton_trtdifferential loss correction	single-endedforward channel	channel 3reverse channel	N/Adate	2019/09/14time	08:16:35forward acquisition time	60.00reverse acquisition time	0.00gamma	496.2192k internal	0.2332k external	0.2332temperature offset calibration	1.0050default loss term (dB/km)	0.3790temperature slope calibration	1.0000multiplexer offset coefficient	1.0000multiplexer slope coefficient	1.0000fibre end	0.00T internal ref (°C)	27.72T ext. ref 1 (°C)	3.60T ext. ref 2 (°C)	26.19length (m)	temperature (°C)	Stokes	anti-Stokes-747.200	-8.646	0.054	-0.036
-746.185	-3.405	0.164	0.115
-745.171	-0.402	0.358	0.256
-744.156	204.296	-0.128	0.200
-743.142	-119.412	0.289	0.050
-742.127	-200.000	-0.040	-0.374
-741.112	-129.602	0.404	-0.056
-740.098	377.225	-0.105	0.215
-739.083	77.331	-0.005	-0.006
-738.069	-4.872	-0.290	0.201
-737.054	-91.418	0.285	-0.082
-736.039	199.688	-0.099	0.153
-735.025	115.266	0.072	0.088
-734.010	-34.175	-0.218	0.121
-732.996	1.988	-0.203	0.148
-731.981	78.352	-0.236	0.253
-730.966	50.232	-0.053	0.050
-729.952	-136.072	0.113	-0.013
-728.937	124.488	-0.104	-0.131
-727.923	60.177	0.323	-0.321
-726.908	-56.550	0.196	-0.087
-725.894	415.920	-0.162	-0.346
-724.879	78.180	-0.204	-0.219
-723.864	-101.615	-0.154	0.038
-722.850	-57.840	0.040	0.017
-721.835	-125.967	0.140	0.021
-720.821	199.763	0.080	-0.124
-719.806	-54.298	0.053	0.024
-718.791	-77.398	0.020	-0.007
-717.777	273.965	-0.059	0.105
-716.762	620.502	0.063	0.160
-715.748	604.745	-0.114	0.286
-714.733	800.000	-0.097	0.286
-713.718	11.330	-0.009	0.007
-712.704	-34.360	-0.084	-0.047
-711.689	-67.812	-0.153	0.060
-710.675	119.828	-0.124	-0.155
-709.660	-69.866	-0.084	0.032
-708.645	800.000	-0.026	-0.087
-707.631	147.506	-0.097	-0.131
-706.616	-200.000	-0.008	0.140
-705.602	800.000	-0.003	-0.011
-704.587	342.608	-0.097	0.191
-703.572	-200.000	-0.005	-0.205
-702.558	-36.640	-0.032	0.017
-701.543	73.611	-0.112	-0.118
-700.529	-32.320	0.493	0.277
-699.514	-59.844	-0.312	0.134
-698.499	-115.140	0.109	-0.021
-697.485	-81.782	-0.111	0.037
-696.470	-52.616	-0.126	0.058
-695.456	-140.427	-0.068	-0.007
-694.441	-200.000	0.013	0.102
-693.426	80.251	-0.292	0.315
-692.412	103.412	0.092	0.108
-691.397	691.567	-0.046	-0.122
-690.383	-200.000	0.017	-0.178
-689.368	-146.817	0.152	-0.013
-688.354	22.319	-0.165	-0.135
-687.339	-91.336	0.139	0.040
-686.324	800.000	-0.105	0.448
-685.310	-166.092	0.132	0.006
-684.295	56.206	-0.153	0.149
-683.281	103.688	-0.176	0.208
-682.266	589.017	-0.166	-0.410
-681.251	-129.771	0.168	-0.023
-680.237	-74.929	0.036	-0.013
-679.222	800.000	-0.045	-0.175
-678.208	-116.549	-0.403	-0.075
-677.193	588.298	0.020	-0.049
-676.178	773.322	0.056	-0.152
-675.164	27.704	-0.071	-0.060
-674.149	-200.000	-0.082	-0.483
-673.135	-87.679	0.030	0.009
-672.120	43.851	-0.154	-0.142
-671.105	38.289	-0.182	-0.162
-670.091	6.542	-0.208	0.155
-669.076	-44.587	-0.246	0.123
-668.062	-9.768	0.155	0.103
-667.047	146.159	0.035	-0.047
-666.032	-76.888	0.182	0.064
-665.018	-200.000	0.007	-0.051
-664.003	58.015	-0.116	0.114
-662.989	-102.168	-0.210	0.051
-661.974	163.285	-0.148	-0.208
-660.959	-200.000	-0.015	-0.148
-659.945	40.312	-0.168	-0.151
-658.930	-19.962	0.122	-0.076
-657.916	-6.534	0.091	-0.062
-656.901	-180.603	-0.446	-0.009
-655.886	208.908	0.107	0.168
-654.872	-200.000	-0.017	0.184
-653.857	606.224	0.135	0.336
-652.843	800.000	-0.070	-0.253
-651.828	-164.845	-0.118	-0.005
-650.814	-44.095	-0.167	0.084
-649.799	285.487	-0.176	-0.319
-648.784	-29.971	-0.238	-0.136
-647.770	-32.422	0.310	0.173
-646.755	-26.621	0.129	-0.076
-645.741	9.516	-0.333	0.253
-644.726	53.209	-0.146	0.141
-643.711	-51.364	0.356	-0.167
-642.697	414.024	0.118	-0.252
-641.682	-150.732	-0.141	0.011
-640.668	84.892	-0.373	-0.409
-639.653	-200.000	-0.024	-0.211
-638.638	26.614	0.358	-0.300
-637.624	-82.008	-0.265	-0.087
-636.609	-164.561	-0.241	-0.011
-635.595	800.000	0.093	0.324
-634.580	154.502	0.155	0.214
-633.565	-7.999	-0.331	0.224
-632.551	6.641	-0.026	-0.020
-631.536	800.000	-0.088	-0.274
-630.522	-51.818	-0.243	0.113
-629.507	-55.190	0.177	-0.080
-628.492	-200.000	0.043	0.294
-627.478	-200.000	0.025	-0.137
-626.463	85.033	0.099	-0.109
-625.449	-200.000	0.009	-0.129
-624.434	800.000	-0.075	0.254
-623.419	-141.894	-0.112	0.011
-622.405	-200.000	-0.071	-0.412
-621.390	140.725	0.025	0.034
-620.376	800.000	0.074	0.321
-619.361	187.119	-0.052	-0.078
-618.346	17.612	-0.168	0.134
-617.332	267.019	-0.279	-0.489
-616.317	140.856	0.063	0.083
-615.303	-39.257	-0.128	-0.067
-614.288	377.287	-0.052	-0.107
-613.273	-49.497	-0.160	-0.076
-612.259	212.666	-0.053	0.083
-611.244	53.867	-0.131	0.126
-610.230	-148.219	-0.415	0.034
-609.215	-200.000	-0.034	0.249
-608.201	58.239	0.192	-0.188
-607.186	568.284	-0.111	0.269
-606.171	108.609	-0.149	0.178
-605.157	-200.000	0.009	-0.110
-604.142	-200.000	-0.035	-0.184
-603.128	-50.993	0.155	-0.073
-602.113	262.184	-0.108	0.187
-601.098	-123.400	0.374	-0.060
-600.084	64.135	0.121	-0.122
-599.069	-129.480	-0.381	0.053
-598.055	169.021	-0.112	-0.160
-597.040	800.000	0.108	-0.303
-596.025	800.000	0.070	-0.254
-595.011	800.000	-0.075	0.217
-593.996	136.824	0.201	-0.262
-592.982	-27.519	0.223	0.130
-591.967	48.556	-0.237	-0.222
-590.952	-200.000	-0.032	-0.177
-589.938	9.778	-0.318	-0.242
-588.923	-155.086	0.146	-0.010
-587.909	-31.896	0.233	-0.131
-586.894	800.000	-0.055	-0.207
-585.879	156.995	0.014	0.020
-584.865	800.000	-0.064	-0.254
-583.850	-74.229	-0.071	0.026
-582.836	246.790	-0.067	-0.112
-581.821	171.675	0.041	-0.059
-580.806	209.363	-0.088	0.138
-579.792	-82.384	-0.150	0.049
-578.777	-116.571	0.345	0.064
-577.763	800.000	0.060	-0.248
-576.748	-200.000	0.061	-0.311
-575.733	-41.837	-0.056	0.029
-574.719	25.618	0.196	-0.163
-573.704	800.000	-0.102	0.373
-572.690	-163.675	-0.081	-0.004
-571.675	650.272	0.053	0.135
-570.661	-101.107	0.311	-0.076
-569.646	760.000	-0.077	-0.207
-568.631	50.719	-0.247	0.234
-567.617	133.512	0.223	-0.288
-566.602	44.031	-0.071	-0.065
-565.588	-200.000	-0.033	0.189
-564.573	80.114	0.085	-0.092
-563.558	342.640	-0.097	-0.189
-562.544	-12.769	0.235	-0.153
-561.529	35.639	-0.376	0.330
-560.515	423.984	0.121	0.260
-559.500	42.494	0.266	0.241
-558.485	-146.658	0.159	-0.014
-557.471	-176.628	-0.266	-0.007
-556.456	-57.071	-0.293	-0.129
-555.442	504.642	0.127	0.294
-554.427	68.585	-0.195	0.200
-553.412	274.594	-0.095	-0.168
-552.398	116.227	0.253	0.309
-551.383	41.859	-0.268	0.242
-550.369	277.481	0.155	-0.276
-549.354	-15.204	0.163	-0.104
-548.339	187.620	-0.152	0.227
-547.325	9.242	-0.106	0.080
-546.310	-200.000	-0.056	0.503
-545.296	-113.137	0.259	-0.051
-544.281	-200.000	0.008	-0.094
-543.266	287.246	0.085	0.153
-542.252	-200.000	-0.026	-0.269
-541.237	70.873	0.077	-0.079
-540.223	-200.000	-0.045	-0.262
-539.208	313.634	-0.081	-0.152
-538.193	-124.682	-0.122	0.019
-537.179	-22.465	0.105	0.063
-536.164	-8.226	-0.099	0.066
-535.150	687.404	0.060	-0.158
-534.135	800.000	-0.060	-0.198
-533.121	-200.000	0.043	0.370
-532.106	-21.608	-0.179	0.109
-531.091	14.850	-0.111	0.087
-530.077	-77.308	0.051	0.018
-529.062	477.894	-0.096	-0.217
-528.048	98.209	0.258	-0.296
-527.033	-30.444	0.053	-0.030
-526.018	-200.000	-0.038	0.364
-525.004	238.037	-0.075	-0.124
-523.989	-55.577	0.038	0.017
-522.975	-163.193	-0.161	-0.008
-521.960	800.000	-0.062	0.260
-520.945	277.179	0.085	-0.150
-519.931	-162.903	0.314	-0.015
-518.916	-200.000	-0.022	0.296
-517.902	-117.813	-0.276	-0.049
-516.887	-140.035	0.236	0.025
-515.872	800.000	-0.069	0.197
-514.858	63.204	-0.102	0.101
-513.843	167.371	-0.167	0.236
-512.829	-164.135	-0.431	-0.020
-511.814	471.526	0.038	-0.085
-510.799	-59.394	0.267	0.114
-509.785	9.121	0.101	-0.076
-508.770	-34.731	-0.250	-0.136
-507.756	800.000	0.108	0.419
-506.741	16.729	-0.044	0.035
-505.726	22.066	0.397	-0.323
-504.712	-22.923	0.163	-0.098
-503.697	-79.472	0.070	0.023
-502.683	309.578	0.101	-0.189
-501.668	800.000	0.095	-0.285
-500.653	-151.981	-0.563	-0.041
-499.639	226.559	-0.113	-0.182
-498.624	198.783	0.111	-0.169
-497.610	-144.418	0.232	-0.021
-496.595	-200.000	-0.005	0.063
-495.581	-100.313	-0.128	-0.032
-494.566	45.638	-0.208	-0.192
-493.551	-200.000	-0.005	-0.272
-492.537	-200.000	-0.028	0.244
-491.522	-116.648	0.091	0.017
-490.508	39.555	-0.175	0.156
-489.493	-114.602	0.212	0.041
-488.478	22.947	-0.227	-0.186
-487.464	120.762	-0.133	0.165
-486.449	331.679	-0.075	0.145
-485.435	123.413	-0.208	-0.260
-484.420	52.957	0.017	0.016
-483.405	26.252	0.129	0.108
-482.391	-74.202	0.240	0.086
-481.376	401.529	-0.122	-0.256
-480.362	-112.422	0.179	-0.036
-479.347	-31.488	-0.114	-0.064
-478.332	124.114	-0.051	0.064
-477.318	9.328	0.044	0.033
-476.303	-41.842	-0.242	0.124
-475.289	42.934	0.166	-0.150
-474.274	276.617	0.193	0.341
-473.259	-73.644	0.182	0.066
-472.245	-200.000	-0.005	0.123
-471.230	-165.324	0.320	0.014
-470.216	-200.000	0.026	-0.122
-469.201	-148.261	0.349	0.029
-468.186	-50.879	0.411	0.192
-467.172	1.572	-0.273	-0.196
-466.157	800.000	-0.059	-0.253
-465.143	-200.000	-0.014	0.173
-464.128	-75.487	-0.411	0.145
-463.113	-173.382	-0.218	0.007
-462.099	22.946	-0.063	0.052
-461.084	6.887	-0.339	0.251
-460.070	-200.000	0.046	-0.343
-459.055	-200.000	0.018	0.189
-458.040	18.282	0.083	0.066
-457.026	49.272	-0.061	-0.057
-456.011	-200.000	0.019	-0.330
-454.997	120.703	0.129	0.160
-453.982	93.507	0.083	-0.093
-452.968	67.348	0.088	-0.090
-451.953	208.951	-0.192	0.298
-450.938	688.232	-0.027	0.070
-449.924	356.739	0.033	0.066
-448.909	26.402	-0.178	0.148
-447.895	-66.546	0.138	0.054
-446.880	-200.000	-0.004	-0.027
-445.865	800.000	0.134	0.383
-444.851	-141.305	0.319	-0.032
-443.836	-13.799	0.163	-0.105
-442.822	-95.470	-0.294	-0.078
-441.807	-35.819	0.109	0.059
-440.792	463.541	-0.173	-0.384
-439.778	-138.361	-0.043	-0.005
-438.763	-200.000	0.007	0.209
-437.749	151.406	0.127	0.172
-436.734	-200.000	-0.013	-0.121
-435.719	-118.756	0.228	0.040
-434.705	-48.324	-0.066	0.032
-433.690	-9.848	-0.183	-0.121
-432.676	-25.134	-0.250	0.147
-431.661	123.017	-0.207	0.258
-430.646	489.565	0.134	-0.304
-429.632	-104.684	0.165	0.038
-428.617	-56.803	-0.433	-0.190
-427.603	684.737	-0.079	0.204
-426.588	-200.000	0.008	0.166
-425.573	-8.270	-0.208	-0.139
-424.559	35.391	-0.259	0.226
-423.544	800.000	0.042	0.143
-422.530	-45.570	0.195	0.096
-421.515	-200.000	0.009	-0.054
-420.500	17.898	-0.079	-0.063
-419.486	-200.000	0.053	0.246
-418.471	800.000	0.070	-0.232
-417.457	-131.859	0.588	-0.076
-416.442	-200.000	-0.087	-0.000
-415.428	-44.305	0.015	0.008
-414.413	115.281	-0.089	0.108
-413.398	452.710	-0.086	0.189
-412.384	88.593	0.145	0.160
-411.369	-62.046	0.145	0.060
-410.355	-200.000	-0.008	0.081
-409.340	-200.000	0.025	-0.270
-408.325	800.000	0.049	0.194
-407.311	81.244	-0.048	0.051
-406.296	-78.391	0.098	0.033
-405.282	-112.764	-0.426	0.084
-404.267	-200.000	-0.013	-0.072
-403.252	57.982	0.316	-0.307
-402.238	-198.092	0.119	-0.001
-401.223	-77.344	-0.061	0.021
-400.209	-200.000	-0.026	0.156
-399.194	-12.706	0.025	-0.016
-398.179	-80.229	0.083	0.028
-397.165	-30.837	-0.127	0.071
-396.150	396.281	-0.202	-0.418
-395.136	800.000	-0.052	0.210
-394.121	287.596	0.068	-0.122
-393.106	69.120	-0.246	0.251
-392.092	-156.500	0.068	0.004
-391.077	276.234	-0.011	-0.019
-390.063	-200.000	-0.022	0.217
-389.048	-19.314	-0.249	-0.153
-388.033	16.151	-0.031	0.024
-387.019	133.665	-0.048	0.061
-386.004	418.058	-0.139	0.295
-384.990	-200.000	0.002	0.194
-383.975	482.335	-0.033	0.075
-382.960	-135.905	-0.327	0.038
-381.946	222.363	-0.063	-0.100
-380.931	-143.714	0.125	0.012
-379.917	239.053	0.144	-0.238
-378.902	139.999	0.102	-0.133
-377.888	-56.505	-0.370	-0.163
-376.873	-200.000	0.017	-0.096
-375.858	800.000	0.062	0.184
-374.844	25.372	-0.287	0.237
-373.829	-94.579	-0.108	-0.029
-372.815	800.000	-0.087	-0.273
-371.800	-80.213	0.205	0.068
-370.785	-42.561	0.270	0.136
-369.771	28.218	-0.189	0.158
-368.756	800.000	-0.054	-0.168
-367.742	-63.699	-0.212	0.086
-366.727	703.081	0.049	-0.128
-365.712	800.000	0.071	0.248
-364.698	-123.117	-0.406	0.065
-363.683	38.733	-0.178	-0.158
-362.669	347.451	-0.059	0.115
-361.654	-93.456	0.173	-0.047
-360.639	-144.610	0.311	0.028
-359.625	-124.542	0.290	-0.045
-358.610	463.486	-0.033	-0.072
-357.596	-119.525	-0.151	-0.026
-356.581	366.913	-0.027	-0.053
-355.566	-17.889	0.137	0.085
-354.552	-64.027	-0.076	0.031
-353.537	-77.479	-0.211	0.073
-352.523	-0.054	0.176	0.124
-351.508	800.000	0.008	-0.024
-350.493	-200.000	-0.016	0.247
-349.479	800.000	-0.022	-0.060
-348.464	-27.094	0.268	0.155
-347.450	-63.730	0.059	0.024
-346.435	19.199	-0.066	-0.053
-345.420	-51.227	-0.166	0.077
-344.406	-200.000	0.034	0.270
-343.391	-164.782	-0.201	0.009
-342.377	-16.256	0.107	0.067
-341.362	537.583	0.091	-0.215
-340.348	-136.211	0.537	0.062
-339.333	-200.000	-0.056	0.274
-338.318	-80.863	0.131	-0.043
-337.304	-19.408	0.137	-0.084
-336.289	-100.923	-0.152	-0.037
-335.275	-200.000	0.020	-0.140
-334.260	800.000	0.042	-0.157
-333.245	-200.000	-0.019	0.300
-332.231	800.000	0.075	0.231
-331.216	305.044	-0.059	-0.108
-330.202	-200.000	0.006	-0.166
-329.187	800.000	0.103	0.306
-328.172	800.000	0.137	0.425
-327.158	157.527	-0.194	0.266
-326.143	339.656	0.165	-0.318
-325.129	-125.099	-0.538	0.082
-324.114	23.185	-0.133	0.108
-323.099	-93.417	0.381	-0.105
-322.085	-66.973	-0.224	-0.088
-321.070	-67.870	0.247	0.095
-320.056	71.988	0.142	-0.147
-319.041	-58.043	0.224	0.097
-318.026	800.000	-0.012	-0.041
-317.012	800.000	0.044	-0.156
-315.997	-200.000	-0.011	-0.287
-314.983	-89.898	0.463	0.134
-313.968	92.490	0.167	-0.186
-312.953	800.000	0.060	0.255
-311.939	800.000	0.026	-0.093
-310.924	16.931	-0.166	0.130
-309.910	-200.000	0.048	0.298
-308.895	-200.000	0.009	0.325
-307.880	800.000	0.042	-0.135
-306.866	-160.030	0.337	-0.018
-305.851	-94.070	0.243	-0.066
-304.837	-176.765	0.081	-0.002
-303.822	-58.883	0.074	0.032
-302.807	-34.372	-0.013	0.007
-301.793	67.447	-0.245	0.248
-300.778	-93.725	-0.176	0.048
-299.764	800.000	0.049	-0.159
-298.749	132.107	0.114	-0.145
-297.735	508.052	-0.165	-0.378
-296.720	225.966	-0.120	0.192
-295.705	800.000	0.042	0.161
-294.691	800.000	-0.039	0.135
-293.676	-200.000	-0.013	-0.124
-292.662	373.239	-0.078	-0.157
-291.647	-200.000	0.016	-0.099
-290.632	-98.160	0.227	0.058
-289.618	-35.677	-0.263	0.141
-288.603	121.262	0.365	0.450
-287.589	-102.757	0.154	-0.036
-286.574	-177.285	-0.204	-0.005
-285.559	347.087	0.166	-0.324
-284.545	800.000	0.040	-0.172
-283.530	-192.926	0.283	0.003
-282.516	-200.000	0.033	-0.229
-281.501	-200.000	0.025	0.170
-280.486	800.000	-0.024	-0.077
-279.472	-200.000	-0.005	0.167
-278.457	-27.710	-0.281	0.161
-277.443	-8.051	0.283	-0.188
-276.428	-65.249	0.043	-0.017
-275.413	-200.000	-0.111	-0.585
-274.399	-83.949	-0.193	0.061
-273.384	530.198	0.061	-0.142
-272.370	-57.461	0.253	-0.110
-271.355	281.250	-0.078	-0.138
-270.340	-200.000	0.020	-0.099
-269.326	-126.874	0.488	0.071
-268.311	800.000	-0.073	0.227
-267.297	-96.426	0.240	0.063
-266.282	-30.299	-0.311	-0.175
-265.267	-200.000	0.001	-0.495
-264.253	74.462	0.217	0.225
-263.238	-56.318	0.349	-0.153
-262.224	36.904	-0.179	-0.157
-261.209	-116.441	-0.174	-0.032
-260.195	-6.518	0.198	0.133
-259.180	67.529	-0.083	-0.083
-258.165	-59.690	-0.231	-0.098
-257.151	350.840	-0.170	0.331
-256.136	83.846	-0.367	-0.396
-255.122	434.321	-0.097	0.209
-254.107	-34.495	0.094	-0.051
-253.092	781.727	0.098	-0.265
-252.078	-200.000	-0.066	0.358
-251.063	-34.710	0.070	-0.038
-250.049	326.187	-0.103	0.195
-249.034	-66.891	0.255	-0.100
-248.019	800.000	-0.082	-0.242
-247.005	-122.007	0.373	-0.061
-245.990	800.000	-0.083	0.237
-244.976	32.274	0.179	-0.153
-243.961	163.717	0.128	0.178
-242.946	-17.083	0.165	-0.103
-241.932	-95.169	0.186	0.049
-240.917	-164.110	-0.185	-0.008
-239.903	88.052	-0.138	-0.151
-238.888	-175.072	0.097	0.003
-237.873	-30.426	-0.258	-0.144
-236.859	-200.000	0.014	0.184
-235.844	147.121	-0.141	0.187
-234.830	303.595	-0.115	-0.210
-233.815	-200.000	-0.022	-0.113
-232.800	-41.604	0.286	-0.145
-231.786	491.907	0.131	-0.295
-230.771	67.258	0.219	0.220
-229.757	89.474	0.096	0.105
-228.742	415.828	0.013	-0.027
-227.727	-13.969	-0.162	0.103
-226.713	223.976	-0.087	0.139
-225.698	800.000	-0.034	-0.116
-224.684	-20.514	0.072	-0.043
-223.669	-200.000	-0.018	-0.116
-222.655	382.287	0.154	0.312
-221.640	21.534	-0.013	-0.010
-220.625	129.714	0.355	-0.447
-219.611	-166.341	0.062	0.003
-218.596	6.795	-0.202	0.148
-217.582	-13.144	0.237	0.152
-216.567	-44.562	0.157	-0.078
-215.552	61.316	-0.119	-0.117
-214.538	-155.569	-0.404	0.026
-213.523	108.938	-0.148	-0.175
-212.509	-1.960	0.197	-0.136
-211.494	-200.000	-0.001	0.006
-210.479	134.233	0.203	0.259
-209.465	-160.331	0.180	0.010
-208.450	558.049	-0.071	-0.168
-207.436	109.798	-0.140	-0.166
-206.421	-93.065	-0.042	-0.011
-205.406	91.423	-0.139	0.154
-204.392	-159.600	0.149	0.008
-203.377	101.364	0.078	-0.090
-202.363	-93.139	-0.170	-0.047
-201.348	-84.963	-0.206	0.064
-200.333	800.000	0.110	0.435
-199.319	55.999	-0.170	0.163
-198.304	-117.766	-0.213	-0.038
-197.290	-170.857	0.115	0.004
-196.275	9.016	0.183	0.136
-195.260	57.621	0.211	-0.203
-194.246	58.580	0.051	0.050
-193.231	-134.823	0.252	-0.030
-192.217	248.333	-0.100	0.167
-191.202	97.636	-0.270	-0.305
-190.187	-30.511	0.127	0.071
-189.173	-200.000	0.028	-0.181
-188.158	-83.285	-0.377	0.119
-187.144	9.065	0.177	-0.131
-186.129	-105.495	-0.293	-0.065
-185.114	-147.579	-0.197	0.016
-184.100	71.202	-0.117	-0.120
-183.085	146.162	0.130	-0.172
-182.071	255.646	0.058	-0.098
-181.056	588.425	-0.046	0.113
-180.042	800.000	0.039	-0.130
-179.027	-173.240	0.295	-0.009
-178.012	450.671	-0.076	0.164
-176.998	489.906	0.071	-0.160
-175.983	-54.603	-0.386	-0.172
-174.969	-61.218	-0.226	-0.094
-173.954	-200.000	-0.058	0.345
-172.939	-147.536	-0.097	0.008
-171.925	-31.446	0.179	0.099
-170.910	-39.569	-0.090	0.046
-169.896	-200.000	-0.014	0.090
-168.881	-90.386	0.037	0.011
-167.866	-40.573	0.246	-0.125
-166.852	800.000	-0.054	0.157
-165.837	-200.000	-0.059	0.459
-164.823	-150.933	0.209	-0.016
-163.808	-83.308	-0.279	0.088
-162.793	-29.488	0.189	-0.106
-161.779	-75.039	-0.051	-0.018
-160.764	107.815	0.035	-0.040
-159.750	305.141	-0.078	0.142
-158.735	-20.410	0.206	0.125
-157.720	-87.040	-0.214	0.064
-156.706	-14.926	0.271	-0.171
-155.691	164.242	-0.228	-0.315
-154.677	-148.329	0.483	0.039
-153.662	800.000	0.072	-0.282
-152.647	149.418	0.246	0.327
-151.633	564.895	0.064	0.151
-150.618	-113.010	-0.336	-0.065
-149.604	87.358	-0.089	0.097
-148.589	-53.320	-0.198	-0.089
-147.574	-77.564	0.091	0.031
-146.560	344.027	-0.071	-0.136
-145.545	670.118	0.042	0.107
-144.531	-50.421	-0.272	-0.126
-143.516	-18.889	0.415	-0.254
-142.502	133.650	-0.181	0.231
-141.487	-156.092	0.234	0.015
-140.472	169.424	0.158	0.221
-139.458	441.465	0.092	-0.198
-138.443	-200.000	-0.020	0.182
-137.429	-20.232	0.083	0.050
-136.414	-200.000	0.040	0.400
-135.399	143.006	0.070	0.091
-134.385	264.685	0.037	-0.063
-133.370	-200.000	0.045	-0.289
-132.356	248.500	0.083	-0.139
-131.341	-200.000	-0.082	0.457
-130.326	-182.011	0.289	0.005
-129.312	-12.610	0.250	0.160
-128.297	-200.000	0.008	0.287
-127.283	-54.612	0.279	-0.124
-126.268	800.000	-0.085	0.326
-125.253	121.226	0.114	0.139
-124.239	-129.856	0.420	-0.057
-123.224	188.120	0.192	0.282
-122.210	103.496	0.080	-0.092
-121.195	193.566	-0.112	-0.167
