DTS Sentinel unit serial number:	SN413079Multiplexer serial number:	ORYXHardware model number:	OX4-SRSoftware version number:	ORYX F/W v4.00 Oryx Data Collector v3.7.2.0data status	okinstallation	princeton_trtdifferential loss correction	single-endedforward channel	channel 3reverse channel	N/Adate	2019/09/16time	14:40:35forward acquisition time	60.00reverse acquisition time	0.00gamma	496.2192k internal	0.2293k external	0.2293temperature offset calibration	0.9941default loss term (dB/km)	0.3790temperature slope calibration	1.0000multiplexer offset coefficient	1.0000multiplexer slope coefficient	1.0000fibre end	0.00T internal ref (°C)	41.69T ext. ref 1 (°C)	14.31T ext. ref 2 (°C)	35.96length (m)	temperature (°C)	Stokes	anti-Stokes-747.200	-127.433	-0.277	-0.041
-746.185	-200.000	-0.029	0.146
-745.171	-81.175	-0.203	-0.069
-744.156	-94.793	-0.228	0.063
-743.142	69.765	-0.209	0.220
-742.127	572.699	-0.163	0.407
-741.112	134.293	-0.146	0.194
-740.098	451.438	0.037	-0.084
-739.083	-103.535	0.354	0.085
-738.069	-134.076	0.140	-0.018
-737.054	-79.089	-0.449	0.156
-736.039	-200.000	-0.029	-0.222
-735.025	452.817	0.033	0.075
-734.010	-76.812	-0.074	-0.027
-732.996	166.092	0.100	-0.145
-731.981	183.889	-0.146	-0.221
-730.966	-97.683	-0.214	-0.057
-729.952	-1.094	-0.100	-0.072
-728.937	23.378	0.209	-0.176
-727.923	462.595	-0.055	-0.125
-726.908	-200.000	0.174	-0.001
-725.894	63.577	-0.148	-0.151
-724.879	100.082	0.087	-0.103
-723.864	-200.000	0.004	-0.070
-722.850	-134.907	0.240	0.030
-721.835	800.000	-0.047	-0.187
-720.821	-157.909	-0.161	-0.010
-719.806	484.538	0.059	0.137
-718.791	210.283	0.036	-0.058
-717.777	-140.739	-0.107	0.011
-716.762	19.413	-0.355	0.292
-715.748	-114.676	-0.364	0.071
-714.733	-200.000	0.039	0.222
-713.718	349.478	-0.033	0.067
-712.704	-115.317	-0.309	0.060
-711.689	-9.746	0.126	-0.086
-710.675	411.249	0.032	-0.069
-709.660	54.690	0.362	0.357
-708.645	34.213	-0.107	0.096
-707.631	800.000	0.021	0.074
-706.616	-65.690	-0.155	0.064
-705.602	-126.892	0.059	-0.009
-704.587	325.879	-0.042	-0.083
-703.572	-145.259	0.058	0.005
-702.558	-114.916	0.243	0.047
-701.543	1.692	0.134	-0.099
-700.529	-56.215	-0.240	0.109
-699.514	19.089	0.317	0.260
-698.499	-16.239	0.191	-0.124
-697.485	486.408	0.082	-0.191
-696.470	-1.545	-0.141	-0.102
-695.456	-200.000	-0.011	0.056
-694.441	-32.181	0.245	-0.140
-693.426	29.250	0.196	-0.170
-692.412	334.633	-0.112	-0.221
-691.397	208.972	-0.068	-0.108
-690.383	243.336	-0.103	-0.176
-689.368	-200.000	-0.000	-0.090
-688.354	800.000	-0.076	0.267
-687.339	128.305	-0.248	-0.322
-686.324	119.798	0.161	0.203
-685.310	-72.330	0.155	0.059
-684.295	12.758	-0.290	-0.229
-683.281	21.051	-0.238	0.197
-682.266	-31.712	-0.060	0.034
-681.251	800.000	-0.033	0.129
-680.237	84.825	-0.131	0.146
-679.222	800.000	0.109	-0.341
-678.208	383.900	-0.063	-0.133
-677.193	-200.000	-0.010	0.053
-676.178	-61.199	-0.230	0.099
-675.164	-7.989	0.065	-0.045
-674.149	-135.904	-0.158	0.019
-673.135	405.133	-0.197	0.424
-672.120	-105.687	-0.605	-0.140
-671.105	-77.089	-0.238	0.085
-670.091	82.744	-0.116	0.129
-669.076	-58.424	0.154	-0.068
-668.062	-62.847	-0.317	-0.134
-667.047	434.628	0.074	-0.163
-666.032	800.000	-0.040	-0.144
-665.018	-85.942	0.128	-0.040
-664.003	-6.938	-0.269	-0.187
-662.989	-118.001	-0.202	0.037
-661.974	800.000	0.026	-0.095
-660.959	116.495	0.116	-0.145
-659.945	73.826	0.184	-0.196
-658.930	84.316	0.040	-0.045
-657.916	110.176	0.185	0.227
-656.901	-70.861	-0.124	-0.048
-655.886	-200.000	-0.050	-0.312
-654.872	-112.537	-0.302	-0.061
-653.857	-151.398	-0.069	0.005
-652.843	-200.000	-0.019	0.170
-651.828	-114.800	0.284	0.055
-650.814	100.182	-0.168	0.199
-649.799	-139.607	0.250	0.027
-648.784	307.134	-0.062	0.117
-647.770	712.944	-0.057	-0.155
-646.755	-200.000	0.014	-0.208
-645.741	-127.792	-0.261	-0.038
-644.726	800.000	0.058	0.176
-643.711	-0.893	-0.016	0.011
-642.697	-163.830	0.199	0.010
-641.682	-23.013	-0.294	0.181
-640.668	800.000	-0.040	-0.170
-639.653	293.392	0.147	0.274
-638.638	-86.074	0.114	-0.036
-637.624	12.852	-0.158	0.124
-636.609	24.305	-0.069	-0.058
-635.595	-200.000	0.047	-0.221
-634.580	-200.000	0.063	-0.308
-633.565	-65.716	0.271	-0.111
-632.551	-117.014	0.266	0.049
-631.536	-200.000	-0.013	0.328
-630.522	375.023	0.111	-0.231
-629.507	123.452	0.012	0.015
-628.492	47.234	0.045	-0.043
-627.478	-113.411	-0.265	-0.053
-626.463	-55.307	-0.145	0.066
-625.449	203.689	-0.173	0.273
-624.434	158.526	-0.256	-0.362
-623.419	-42.891	-0.028	0.015
-622.405	478.765	0.095	0.219
-621.390	-19.388	-0.174	0.110
-620.376	208.137	-0.039	0.062
-619.361	-35.250	0.075	-0.041
-618.346	472.192	0.031	-0.072
-617.332	-200.000	-0.027	-0.256
-616.317	306.307	0.193	0.365
-615.303	-173.011	0.610	0.019
-614.288	-192.751	-0.061	-0.001
-613.273	-45.899	0.166	-0.083
-612.259	-4.675	-0.216	0.151
-611.244	-155.213	0.118	-0.008
-610.230	800.000	0.063	-0.275
-609.215	-22.850	0.162	-0.099
-608.201	292.662	-0.124	-0.231
-607.186	32.047	-0.028	-0.025
-606.171	278.396	-0.044	-0.080
-605.157	-96.412	-0.430	-0.116
-604.142	348.931	-0.038	0.076
-603.128	-24.653	-0.253	-0.153
-602.113	53.545	0.083	0.081
-601.098	155.031	0.103	0.145
-600.084	257.438	-0.172	-0.301
-599.069	-141.824	0.226	0.023
-598.055	70.650	0.041	0.044
-597.040	195.153	-0.171	0.265
-596.025	-200.000	0.196	-0.000
-595.011	-200.000	-0.020	0.225
-593.996	13.488	-0.313	-0.247
-592.982	-84.714	-0.117	0.037
-591.967	-120.012	0.121	-0.021
-590.952	-200.000	0.016	0.090
-589.938	-97.819	0.329	-0.086
-588.923	188.109	0.060	-0.091
-587.909	800.000	-0.117	-0.344
-586.894	-80.852	0.408	0.138
-585.879	145.880	-0.148	-0.202
-584.865	243.625	-0.170	-0.289
-583.850	800.000	-0.035	0.111
-582.836	-200.000	-0.031	0.258
-581.821	-73.158	-0.284	-0.106
-580.806	-10.461	0.172	0.116
-579.792	800.000	-0.032	-0.094
-578.777	-132.566	0.316	0.041
-577.763	556.544	0.159	0.391
-576.748	136.231	0.102	-0.135
-575.733	-127.209	0.322	0.048
-574.719	-29.516	-0.235	-0.137
-573.704	-13.775	0.153	-0.100
-572.690	406.496	0.099	-0.212
-571.675	279.557	-0.116	-0.211
-570.661	-7.832	0.232	-0.159
-569.646	107.469	-0.276	0.334
-568.631	-64.854	0.152	0.062
-567.617	-54.556	0.415	-0.191
-566.602	-200.000	0.003	0.027
-565.588	85.822	0.150	0.167
-564.573	-172.161	0.275	-0.009
-563.558	43.162	-0.101	-0.094
-562.544	800.000	0.021	-0.072
-561.529	114.902	-0.041	0.051
-560.515	520.157	-0.109	-0.260
-559.500	23.596	-0.172	-0.143
-558.485	-52.276	0.143	-0.067
-557.471	-200.000	-0.043	-0.422
-556.456	453.025	-0.128	-0.289
-555.442	-87.819	-0.249	0.076
-554.427	-200.000	-0.006	-0.181
-553.412	-128.858	0.157	0.022
-552.398	72.580	-0.141	-0.149
-551.383	790.569	0.027	-0.076
-550.369	-200.000	0.018	0.200
-549.354	-106.470	-0.231	-0.052
-548.339	-111.352	-0.296	0.061
-547.325	-84.112	-0.408	0.131
-546.310	-116.365	-0.157	0.029
-545.296	128.053	0.174	-0.225
-544.281	201.308	-0.203	-0.317
-543.266	104.412	-0.271	-0.323
-542.252	-10.059	-0.071	-0.048
-541.237	800.000	-0.058	-0.247
-540.223	-91.460	0.288	0.083
-539.208	-99.094	-0.220	-0.056
-538.193	21.439	-0.153	-0.126
-537.179	-62.457	0.111	-0.047
-536.164	-49.724	0.164	-0.079
-535.150	-104.298	0.336	0.079
-534.135	-136.508	0.316	-0.037
-533.121	5.459	0.086	-0.064
-532.106	-28.786	-0.100	-0.059
-531.091	376.630	-0.217	0.450
-530.077	248.357	-0.074	0.127
-529.062	55.848	-0.080	-0.079
-528.048	152.635	0.263	0.364
-527.033	-125.693	-0.236	0.036
-526.018	-163.120	-0.295	0.014
-525.004	-12.956	-0.255	0.168
-523.989	-173.071	0.187	0.006
-522.975	-200.000	0.034	-0.236
-521.960	-21.583	0.039	-0.024
-520.945	5.105	-0.123	0.092
-519.931	37.417	0.136	0.122
-518.916	-200.000	0.022	0.120
-517.902	192.217	-0.196	0.299
-516.887	-22.423	0.311	-0.191
-515.872	118.722	-0.165	0.207
-514.858	264.880	-0.087	-0.154
-513.843	-135.890	0.249	-0.030
-512.829	-200.000	-0.026	0.132
-511.814	42.427	0.161	0.148
-510.799	-129.408	-0.278	-0.039
-509.785	581.312	-0.107	-0.265
-508.770	83.252	-0.172	0.190
-507.756	-155.347	0.208	0.014
-506.741	-30.648	-0.185	-0.106
-505.726	62.783	-0.118	0.120
-504.712	-200.000	0.040	-0.337
-503.697	-176.996	-0.165	0.004
-502.683	-75.661	0.302	0.109
-501.668	-200.000	-0.145	0.001
-500.653	44.358	-0.248	0.231
-499.639	509.681	0.051	-0.120
-498.624	184.464	0.164	-0.247
-497.610	293.613	-0.094	-0.173
-496.595	597.364	-0.072	0.180
-495.581	85.753	-0.029	0.032
-494.566	-108.800	0.242	0.053
-493.551	299.700	-0.068	0.127
-492.537	285.382	0.048	-0.087
-491.522	-177.801	-0.454	-0.011
-490.508	-200.000	0.018	0.143
-489.493	-117.540	-0.253	0.046
-488.478	-140.120	-0.193	-0.021
-487.464	800.000	0.037	-0.146
-486.449	-121.936	0.122	-0.020
-485.435	-174.359	-0.205	0.006
-484.420	-130.231	-0.035	0.005
-483.405	-128.081	0.356	-0.052
-482.391	-96.361	-0.085	0.023
-481.376	387.815	-0.055	-0.116
-480.362	123.614	0.185	0.235
-479.347	75.434	0.125	-0.133
-478.332	-94.253	0.220	0.061
-477.318	34.122	0.107	0.094
-476.303	606.101	-0.076	-0.192
-475.289	181.937	-0.265	0.395
-474.274	-150.066	-0.195	-0.015
-473.259	-200.000	0.004	0.147
-472.245	-76.353	-0.371	0.132
-471.230	202.238	0.143	0.223
-470.216	-200.000	0.010	-0.235
-469.201	-200.000	-0.028	0.145
-468.186	-133.815	-0.095	-0.012
-467.172	-185.452	0.159	-0.002
-466.157	205.257	-0.074	-0.117
-465.143	123.597	-0.120	-0.152
-464.128	-126.370	0.129	0.019
-463.113	463.860	-0.075	-0.169
-462.099	-147.308	0.222	-0.019
-461.084	-69.454	0.306	0.119
-460.070	800.000	0.032	-0.113
-459.055	87.552	0.118	0.132
-458.040	87.662	-0.177	-0.199
-457.026	-138.023	-0.244	-0.028
-456.011	-200.000	0.001	0.004
-454.997	363.835	0.139	-0.283
-453.982	177.293	0.116	0.171
-452.968	32.440	-0.209	-0.182
-451.953	800.000	-0.143	-0.524
-450.938	-200.000	-0.004	-0.104
-449.924	-13.109	-0.186	-0.123
-448.909	-28.836	-0.152	0.088
-447.895	21.605	-0.190	0.156
-446.880	189.394	-0.069	-0.104
-445.865	549.834	-0.103	0.250
-444.851	656.909	-0.059	0.153
-443.836	-200.000	0.006	0.543
-442.822	196.280	-0.161	0.248
-441.807	-200.000	0.020	0.225
-440.792	-109.500	0.116	-0.025
-439.778	800.000	0.120	0.521
-438.763	31.776	-0.113	0.098
-437.749	-55.631	0.083	0.038
-436.734	-102.768	-0.259	-0.062
-435.719	16.236	0.146	-0.117
-434.705	160.520	0.115	-0.163
-433.690	-200.000	-0.027	0.187
-432.676	-65.755	-0.176	0.071
-431.661	229.996	-0.189	-0.312
-430.646	-200.000	0.035	-0.473
-429.632	-22.075	0.136	0.083
-428.617	-33.360	-0.268	-0.150
-427.603	-48.750	-0.330	0.160
-426.588	-200.000	-0.030	0.136
-425.573	-41.867	-0.102	0.053
-424.559	-55.142	0.150	0.068
-423.544	328.556	-0.232	-0.450
-422.530	35.606	0.264	0.234
-421.515	-200.000	-0.003	-0.358
-420.500	-79.094	0.106	0.037
-419.486	-200.000	-0.018	-0.081
-418.471	-33.106	-0.241	0.135
-417.457	294.960	0.015	-0.027
-416.442	-126.397	0.237	-0.036
-415.428	439.504	0.068	-0.149
-414.413	-131.572	0.149	0.020
-413.398	450.041	0.054	0.120
-412.384	-200.000	0.029	-0.218
-411.369	800.000	-0.025	0.073
-410.355	126.889	0.172	-0.220
-409.340	-200.000	0.020	-0.189
-408.325	-79.488	0.331	0.113
-407.311	-39.546	0.124	-0.065
-406.296	-16.137	0.233	0.150
-405.282	-194.988	0.054	-0.000
-404.267	-192.539	0.057	-0.001
-403.252	-200.000	-0.002	0.016
-402.238	172.606	0.306	0.444
-401.223	-200.000	0.015	0.090
-400.209	-66.029	0.161	0.065
-399.194	55.292	-0.099	-0.096
-398.179	269.245	-0.060	-0.106
-397.165	-8.386	-0.290	0.197
-396.150	-46.070	-0.252	-0.125
-395.136	-200.000	-0.026	0.259
-394.121	280.767	-0.119	-0.214
-393.106	91.520	0.158	0.179
-392.092	76.511	0.159	-0.170
-391.077	-168.982	0.152	-0.006
-390.063	-77.807	-0.148	0.052
-389.048	-133.689	0.246	-0.031
-388.033	-60.164	0.152	0.065
-387.019	39.328	-0.236	-0.213
-386.004	-200.000	0.007	-0.616
-384.990	-200.000	-0.034	-0.158
-383.975	-200.000	0.089	0.484
-382.960	575.970	-0.131	0.324
-381.946	72.590	0.124	-0.131
-380.931	800.000	0.023	-0.072
-379.917	-123.194	-0.306	-0.049
-378.902	-75.353	0.169	-0.061
-377.888	-200.000	0.062	-0.443
-376.873	363.029	-0.061	-0.124
-375.858	76.700	-0.175	-0.187
-374.844	-121.387	-0.264	-0.044
-373.829	14.387	0.143	-0.113
-372.815	-79.241	0.265	0.091
-371.800	451.256	0.142	-0.317
-370.785	800.000	0.038	0.166
-369.771	-200.000	0.023	-0.205
-368.756	-200.000	-0.028	0.418
-367.742	-10.404	-0.101	-0.067
-366.727	-161.466	0.240	0.012
-365.712	-5.954	0.179	0.124
-364.698	-200.000	-0.017	0.253
-363.683	480.128	0.063	-0.145
-362.669	-20.200	-0.130	0.081
-361.654	-95.763	-0.100	0.027
-360.639	-127.925	0.295	0.043
-359.625	-68.362	-0.081	-0.032
-358.610	75.340	-0.209	-0.222
-357.596	800.000	0.018	-0.060
-356.581	189.858	0.057	-0.086
-355.566	143.823	0.182	0.245
-354.552	-28.267	0.087	0.050
-353.537	76.045	-0.180	-0.192
-352.523	61.981	0.159	0.159
-351.508	151.428	0.194	0.266
-350.493	271.869	0.143	0.254
-349.479	-200.000	-0.016	0.135
-348.464	800.000	0.137	-0.435
-347.450	-79.490	-0.323	-0.110
-346.435	-200.000	0.115	0.508
-345.420	-135.016	-0.291	0.035
-344.406	118.235	-0.246	-0.305
-343.391	800.000	0.043	-0.159
-342.377	-79.996	-0.061	-0.021
-341.362	-16.565	0.121	-0.077
-340.348	800.000	-0.009	-0.035
-339.333	-126.052	0.333	0.050
-338.318	686.931	0.078	-0.206
-337.304	156.282	-0.222	-0.308
-336.289	-200.000	0.031	-0.158
-335.275	151.930	-0.060	-0.082
-334.260	63.830	0.104	-0.105
-333.245	-156.444	0.414	0.026
-332.231	-200.000	0.019	-0.137
-331.216	-25.213	-0.124	0.074
-330.202	12.378	-0.019	0.015
-329.187	-121.863	0.167	0.028
-328.172	-51.358	-0.300	-0.141
-327.158	-200.000	-0.010	-0.047
-326.143	800.000	0.058	-0.166
-325.129	377.591	-0.101	0.207
-324.114	-77.690	0.295	0.103
-323.099	15.665	-0.013	0.011
-322.085	-200.000	-0.022	0.369
-321.070	-200.000	0.084	0.401
-320.056	326.500	-0.083	-0.159
-319.041	108.863	-0.234	0.281
-318.026	627.181	0.067	0.170
-317.012	-200.000	0.007	0.193
-315.997	-115.454	0.200	0.038
-314.983	-157.265	-0.071	0.004
-313.968	10.143	0.194	-0.148
-312.953	232.456	0.089	-0.147
-311.939	-37.482	0.465	0.250
-310.924	800.000	0.063	-0.180
-309.910	710.656	0.023	-0.061
-308.895	-91.627	0.237	0.068
-307.880	800.000	0.109	0.353
-306.866	800.000	-0.094	-0.294
-305.851	-200.000	-0.326	0.001
-304.837	-200.000	0.028	0.139
-303.822	424.816	-0.120	-0.261
-302.807	51.236	0.102	-0.097
-301.793	23.796	0.271	-0.224
-300.778	800.000	-0.038	-0.141
-299.764	-57.960	0.168	0.074
-298.749	800.000	0.064	-0.189
-297.735	-68.955	-0.400	0.155
-296.720	-173.664	-0.318	0.010
-295.705	-166.574	-0.060	-0.002
-294.691	93.208	-0.273	0.310
-293.676	-12.928	-0.283	0.185
-292.662	449.936	0.034	-0.076
-291.647	-51.477	-0.232	-0.109
-290.632	252.368	-0.149	-0.256
-289.618	-83.357	-0.136	0.044
-288.603	-8.757	0.365	0.246
-287.589	-93.535	-0.062	0.017
-286.574	9.100	0.122	0.093
-285.559	-158.387	-0.322	-0.019
-284.545	36.155	0.107	-0.095
-283.530	-96.647	-0.231	-0.061
-282.516	-43.540	0.040	0.021
-281.501	-100.566	-0.163	-0.041
-280.486	-200.000	0.022	-0.178
-279.472	15.590	0.144	0.114
-278.457	379.550	-0.058	0.120
-277.443	-9.076	-0.055	-0.037
-276.428	-200.000	0.064	-0.390
-275.413	800.000	0.064	-0.189
-274.399	59.870	-0.164	0.162
-273.384	-153.832	0.288	-0.020
-272.370	-200.000	-0.021	-0.214
-271.355	-74.742	-0.125	-0.045
-270.340	-85.315	-0.182	0.057
-269.326	-200.000	-0.019	0.180
-268.311	218.926	-0.135	-0.216
-267.297	84.953	-0.214	0.236
-266.282	-49.662	-0.075	0.036
-265.267	84.969	-0.091	0.100
-264.253	-200.000	-0.013	-0.258
-263.238	-145.022	-0.165	-0.015
-262.224	3.778	0.192	-0.141
-261.209	29.747	-0.322	-0.275
-260.195	-151.285	-0.136	-0.010
-259.180	320.319	0.030	0.057
-258.165	-24.407	-0.364	0.218
-257.151	199.270	0.048	0.074
-256.136	77.552	-0.102	0.109
-255.122	388.248	-0.165	0.344
-254.107	220.372	-0.104	-0.168
-253.092	367.277	0.033	-0.067
-252.078	-28.962	0.305	0.176
-251.063	-200.000	0.013	-0.125
-250.049	-32.099	-0.254	-0.143
-249.034	138.357	0.153	0.201
-248.019	435.583	0.027	0.058
-247.005	-200.000	0.002	0.388
-245.990	-142.369	0.311	-0.031
-244.976	-47.806	0.188	0.092
-243.961	37.837	-0.204	-0.182
-242.946	-200.000	0.001	0.071
-241.932	800.000	-0.062	-0.193
-240.917	-74.195	0.242	0.088
-239.903	800.000	0.039	-0.132
-238.888	-200.000	-0.034	-0.250
-237.873	324.045	-0.094	0.180
-236.859	800.000	-0.108	-0.424
-235.844	-140.714	-0.339	0.035
-234.830	-10.108	-0.091	-0.061
-233.815	800.000	0.035	0.100
-232.800	149.554	0.148	0.201
-231.786	6.958	-0.030	-0.022
-230.771	255.862	0.090	-0.155
-229.757	-200.000	0.013	0.240
-228.742	51.530	-0.141	-0.135
-227.727	-200.000	-0.028	0.127
-226.713	16.629	0.175	0.139
-225.698	33.086	-0.112	0.097
-224.684	-111.530	-0.217	0.044
-223.669	-4.252	0.329	0.228
-222.655	-200.000	0.005	-0.041
-221.640	103.637	-0.035	0.042
-220.625	240.667	-0.025	0.042
-219.611	-121.828	-0.322	-0.053
-218.596	51.764	-0.012	-0.011
-217.582	-40.043	0.251	-0.131
-216.567	-81.780	0.164	-0.054
-215.552	-35.042	-0.251	0.137
-214.538	71.672	-0.092	0.096
-213.523	-141.947	-0.099	-0.010
-212.509	-77.632	0.217	-0.075
-211.494	-200.000	-0.068	0.330
-210.479	-200.000	0.012	0.123
-209.465	29.466	-0.141	-0.120
-208.450	139.636	0.138	0.182
-207.436	-200.000	-0.002	-0.038
-206.421	-84.419	-0.134	-0.042
-205.406	800.000	0.025	0.098
-204.392	-66.583	0.155	-0.062
-203.377	130.276	0.052	0.067
-202.363	54.235	0.069	-0.066
-201.348	196.549	0.137	0.210
-200.333	800.000	-0.126	-0.399
-199.319	-54.882	0.297	0.134
-198.304	-200.000	-0.044	0.207
-197.290	800.000	-0.011	0.038
-196.275	151.802	-0.061	-0.083
-195.260	-23.564	-0.267	-0.160
-194.246	-200.000	0.016	0.287
-193.231	146.068	0.182	0.245
-192.217	800.000	-0.035	0.126
-191.202	-29.115	-0.227	-0.130
-190.187	-169.940	0.278	0.010
-189.173	97.326	-0.071	0.081
-188.158	88.395	0.051	-0.056
-187.144	-69.860	0.396	-0.151
-186.129	-32.765	0.274	0.153
-185.114	-109.896	-0.139	0.029
-184.100	-200.000	0.057	0.324
-183.085	-57.583	0.228	-0.100
-182.071	-155.993	0.679	-0.043
-181.056	-106.731	0.289	0.064
-180.042	575.757	0.123	0.300
-179.027	23.381	-0.193	0.159
-178.012	800.000	0.071	-0.288
-176.998	672.945	-0.010	-0.025
-175.983	-44.988	-0.133	0.066
-174.969	-200.000	-0.002	0.066
-173.954	-129.757	0.240	0.033
-172.939	-200.000	0.020	0.278
-171.925	-200.000	-0.014	-0.067
-170.910	675.113	0.117	0.305
-169.896	-26.606	0.247	-0.145
-168.881	67.083	-0.084	0.086
-167.866	259.488	-0.206	0.355
-166.852	800.000	-0.108	0.320
-165.837	-110.376	-0.115	-0.024
-164.823	-29.410	0.059	0.034
-163.808	-200.000	0.015	0.333
-162.793	-20.440	-0.295	0.181
-161.779	-70.067	-0.036	0.014
-160.764	-137.614	0.394	0.044
-159.750	372.632	0.038	0.077
-158.735	-134.765	0.192	0.023
-157.720	-80.246	0.084	0.028
-156.706	800.000	-0.111	-0.377
-155.691	47.297	-0.120	-0.112
-154.677	59.186	0.125	-0.123
-153.662	-73.496	0.433	-0.158
-152.647	-199.669	-0.330	0.002
-151.633	151.931	0.168	0.229
-150.618	-200.000	-0.046	-0.236
-149.604	12.340	-0.108	0.083
-148.589	-3.663	0.154	0.107
-147.574	-19.356	-0.151	0.093
-146.560	761.686	-0.056	0.151
-145.545	-44.135	0.084	0.042
-144.531	97.733	0.108	-0.124
-143.516	-128.020	0.049	-0.007
-142.502	-82.641	-0.156	-0.051
-141.487	220.039	0.199	0.318
-140.472	-112.851	0.233	-0.046
-139.458	248.884	0.096	-0.162
-138.443	94.309	-0.124	0.140
-137.429	438.863	0.149	-0.325
-136.414	209.556	0.053	0.083
-135.399	6.912	0.168	0.125
-134.385	-193.037	0.089	0.001
-133.370	89.317	-0.207	-0.230
-132.356	37.162	0.169	0.149
-131.341	217.288	-0.130	0.206
-130.326	230.313	0.176	-0.288
-129.312	-200.000	-0.014	0.285
-128.297	202.013	-0.017	0.026
-127.283	421.926	0.152	0.327
-126.268	-143.223	-0.183	-0.018
-125.253	267.624	0.122	-0.213
-124.239	-132.843	-0.184	0.023
-123.224	-12.361	0.186	-0.121
-122.210	244.432	0.036	-0.060
