DTS Sentinel unit serial number:	SN413079Multiplexer serial number:	ORYXHardware model number:	OX4-SRSoftware version number:	ORYX F/W v4.00 Oryx Data Collector v3.7.2.0data status	okinstallation	princeton_trtdifferential loss correction	single-endedforward channel	channel 3reverse channel	N/Adate	2019/09/13time	16:16:35forward acquisition time	60.00reverse acquisition time	0.00gamma	496.2192k internal	0.2302k external	0.2302temperature offset calibration	1.0143default loss term (dB/km)	0.3790temperature slope calibration	1.0000multiplexer offset coefficient	1.0000multiplexer slope coefficient	1.0000fibre end	0.00T internal ref (°C)	34.87T ext. ref 1 (°C)	4.86T ext. ref 2 (°C)	31.59length (m)	temperature (°C)	Stokes	anti-Stokes-747.200	-200.000	-0.016	-0.251
-746.185	142.564	0.078	0.105
-745.171	-150.073	0.140	0.011
-744.156	319.391	-0.184	0.355
-743.142	209.203	0.247	0.394
-742.127	-200.000	0.024	0.338
-741.112	-61.288	0.102	-0.044
-740.098	109.111	0.145	-0.176
-739.083	80.423	0.073	-0.080
-738.069	-126.062	0.260	0.040
-737.054	-81.261	0.087	-0.029
-736.039	518.768	-0.095	0.226
-735.025	80.474	0.296	0.325
-734.010	-27.239	-0.182	-0.108
-732.996	-200.000	-0.018	-0.231
-731.981	261.772	-0.225	-0.398
-730.966	-111.000	0.270	-0.057
-729.952	-200.000	-0.022	0.242
-728.937	61.983	-0.203	0.206
-727.923	672.799	0.037	0.099
-726.908	411.697	0.116	-0.251
-725.894	393.219	-0.048	0.101
-724.879	800.000	-0.044	-0.166
-723.864	-111.039	-0.257	-0.054
-722.850	800.000	-0.017	-0.072
-721.835	-75.381	0.141	-0.051
-720.821	-200.000	-0.009	-0.197
-719.806	157.578	0.253	-0.357
-718.791	-200.000	-0.022	0.232
-717.777	800.000	-0.024	-0.104
-716.762	-121.801	-0.055	0.009
-715.748	187.546	0.110	-0.167
-714.733	58.139	-0.126	0.126
-713.718	-141.195	-0.316	0.033
-712.704	-200.000	-0.000	-0.283
-711.689	-102.659	-0.360	-0.087
-710.675	-123.423	0.028	-0.004
-709.660	-92.633	0.100	0.029
-708.645	378.450	-0.038	-0.080
-707.631	-200.000	-0.045	0.219
-706.616	-79.403	-0.286	0.098
-705.602	-8.857	0.212	-0.145
-704.587	-52.715	-0.149	-0.070
-703.572	-92.146	-0.085	-0.024
-702.558	-57.696	0.176	-0.078
-701.543	-41.544	-0.254	-0.133
-700.529	246.894	-0.087	-0.149
-699.514	-30.953	-0.089	0.051
-698.499	-60.236	0.036	0.016
-697.485	-59.409	-0.198	-0.087
-696.470	42.331	-0.161	-0.148
-695.456	26.201	-0.137	-0.117
-694.441	-200.000	0.004	-0.065
-693.426	141.645	0.167	-0.225
-692.412	-66.173	-0.263	0.106
-691.397	-77.935	-0.199	-0.070
-690.383	144.876	0.058	-0.078
-689.368	-200.000	-0.021	-0.108
-688.354	800.000	-0.017	0.052
-687.339	627.547	-0.032	-0.082
-686.324	-200.000	-0.000	-0.425
-685.310	-200.000	0.049	0.235
-684.295	213.117	-0.120	0.192
-683.281	-101.969	-0.338	-0.083
-682.266	-38.658	-0.124	0.067
-681.251	-44.039	-0.155	-0.079
-680.237	-46.529	0.226	-0.113
-679.222	328.868	-0.215	-0.420
-678.208	494.294	-0.041	0.096
-677.193	320.749	-0.098	0.190
-676.178	20.234	-0.145	0.119
-675.164	-200.000	0.030	-0.453
-674.149	-31.082	-0.210	-0.120
-673.135	800.000	0.068	-0.223
-672.120	-180.668	0.337	-0.007
-671.105	-121.960	-0.417	-0.070
-670.091	199.577	-0.148	-0.231
-669.076	28.749	0.133	0.115
-668.062	80.490	-0.005	-0.006
-667.047	61.776	-0.196	-0.198
-666.032	800.000	0.081	-0.264
-665.018	-46.396	-0.268	-0.133
-664.003	-200.000	-0.037	-0.311
-662.989	-200.000	-0.039	-0.211
-661.974	424.179	0.108	0.235
-660.959	172.678	0.181	0.264
-659.945	194.129	0.088	0.135
-658.930	-89.385	-0.234	0.070
-657.916	-83.648	-0.145	-0.047
-656.901	-181.259	0.127	0.003
-655.886	510.080	-0.004	0.010
-654.872	-6.074	-0.233	-0.161
-653.857	-53.686	0.261	0.121
-652.843	-200.000	-0.018	-0.370
-651.828	70.000	-0.150	-0.157
-650.814	9.268	0.075	-0.058
-649.799	-92.329	-0.071	-0.020
-648.784	385.861	0.113	0.236
-647.770	-21.446	-0.264	0.163
-646.755	-107.944	-0.064	0.014
-645.741	800.000	-0.011	0.049
-644.726	267.663	-0.075	-0.133
-643.711	432.107	0.037	0.081
-642.697	-13.028	-0.145	0.095
-641.682	328.119	0.245	-0.477
-640.668	111.014	-0.019	0.023
-639.653	5.548	0.268	0.201
-638.638	668.814	-0.078	0.205
-637.624	321.392	0.145	-0.279
-636.609	-200.000	0.024	-0.407
-635.595	154.116	-0.062	0.086
-634.580	-78.615	0.128	-0.044
-633.565	132.009	0.220	-0.287
-632.551	-200.000	0.004	0.244
-631.536	-49.956	-0.242	-0.117
-630.522	197.865	-0.166	0.258
-629.507	42.567	0.157	-0.145
-628.492	120.456	0.235	0.296
-627.478	800.000	0.101	0.298
-626.463	-166.454	-0.164	-0.007
-625.449	111.990	-0.098	-0.120
-624.434	-142.120	-0.182	-0.018
-623.419	-17.449	0.341	0.218
-622.405	-137.445	0.110	0.013
-621.390	13.230	-0.185	-0.145
-620.376	-126.611	-0.176	-0.027
-619.361	-39.095	-0.394	-0.210
-618.346	-13.598	0.042	0.028
-617.332	8.625	-0.123	-0.094
-616.317	146.962	0.206	0.281
-615.303	-94.883	-0.275	-0.075
-614.288	800.000	-0.030	-0.112
-613.273	-63.936	-0.105	-0.044
-612.259	316.305	0.123	-0.235
-611.244	-97.839	-0.532	0.139
-610.230	-200.000	-0.021	0.175
-609.215	88.414	-0.183	-0.206
-608.201	-16.446	0.398	-0.256
-607.186	-177.288	0.102	-0.003
-606.171	13.441	0.263	-0.206
-605.157	-109.808	-0.493	-0.105
-604.142	167.282	-0.042	-0.061
-603.128	-57.123	0.139	-0.062
-602.113	268.633	0.105	-0.187
-601.098	125.398	0.279	-0.357
-600.084	250.977	0.052	-0.090
-599.069	-50.844	0.334	0.159
-598.055	-45.261	-0.076	-0.038
-597.040	-83.888	0.146	0.047
-596.025	-200.000	0.006	0.110
-595.011	97.327	0.212	0.246
-593.996	-59.253	-0.407	0.178
-592.982	-200.000	-0.009	0.202
-591.967	52.087	-0.095	0.091
-590.952	27.367	0.139	0.118
-589.938	259.110	0.060	0.105
-588.923	-35.473	0.266	0.146
-587.909	-135.077	-0.086	-0.011
-586.894	-111.984	0.226	0.046
-585.879	-3.903	0.151	0.106
-584.865	800.000	-0.018	0.068
-583.850	-86.722	-0.214	-0.066
-582.836	800.000	0.098	0.368
-581.821	396.617	-0.218	0.460
-580.806	683.360	0.088	0.231
-579.792	606.704	-0.109	0.276
-578.777	-200.000	0.013	-0.331
-577.763	146.291	-0.207	-0.281
-576.748	-200.000	-0.007	0.034
-575.733	597.529	-0.045	0.112
-574.719	307.873	-0.095	0.179
-573.704	-200.000	-0.045	-0.210
-572.690	-200.000	0.027	-0.249
-571.675	272.957	-0.092	-0.165
-570.661	-95.391	0.226	0.062
-569.646	-116.542	-0.382	0.071
-568.631	-200.000	-0.060	-0.384
-567.617	800.000	-0.077	0.245
-566.602	484.083	-0.095	-0.219
-565.588	3.197	-0.218	-0.161
-564.573	312.685	-0.158	-0.300
-563.558	242.312	-0.106	0.180
-562.544	-200.000	0.006	0.168
-561.529	-23.985	-0.122	-0.074
-560.515	-200.000	-0.004	-0.037
-559.500	-200.000	-0.024	-0.174
-558.485	8.023	0.084	0.064
-557.471	800.000	0.042	-0.142
-556.456	-109.191	-0.230	-0.049
-555.442	-200.000	0.041	-0.000
-554.427	-200.000	-0.032	0.284
-553.412	-143.617	-0.312	0.030
-552.398	-63.986	-0.101	0.042
-551.383	209.363	0.159	0.252
-550.369	205.065	0.130	0.205
-549.354	116.761	-0.103	-0.128
-548.339	189.930	0.192	-0.292
-547.325	2.899	0.154	0.113
-546.310	-200.000	0.005	-0.049
-545.296	-150.821	0.099	0.008
-544.281	-61.914	-0.116	0.049
-543.266	343.649	-0.049	-0.097
-542.252	163.470	0.079	-0.112
-541.237	80.889	0.342	0.373
-540.223	-200.000	0.034	-0.197
-539.208	-79.930	0.181	-0.061
-538.193	-181.262	0.154	0.003
-537.179	42.784	-0.201	0.185
-536.164	168.274	-0.076	-0.110
-535.150	-9.378	0.130	0.088
-534.135	131.662	0.204	0.265
-533.121	100.791	-0.222	0.260
-532.106	-16.242	-0.088	-0.056
-531.091	107.109	0.164	0.197
-530.077	-67.054	0.068	0.027
-529.062	-89.902	0.168	0.050
-528.048	411.875	0.052	0.111
-527.033	-200.000	-0.019	-0.414
-526.018	67.043	-0.210	0.216
-525.004	-157.844	-0.295	0.018
-523.989	-200.000	-0.076	-0.360
-522.975	109.100	-0.176	-0.213
-521.960	800.000	-0.082	-0.347
-520.945	-73.397	-0.413	-0.153
-519.931	-110.791	0.325	-0.068
-518.916	50.025	0.289	0.275
-517.902	308.439	-0.131	0.248
-516.887	40.279	-0.115	-0.104
-515.872	-200.000	0.020	-0.150
-514.858	43.705	0.244	-0.225
-513.843	205.723	-0.255	-0.401
-512.829	322.490	-0.226	-0.435
-511.814	-73.300	-0.129	-0.048
-510.799	-200.000	-0.031	0.418
-509.785	699.266	-0.089	0.235
-508.770	705.124	0.029	0.078
-507.756	-200.000	-0.087	-0.443
-506.741	800.000	0.115	-0.345
-505.726	-193.097	-0.523	0.005
-504.712	-200.000	0.009	-0.164
-503.697	-116.222	-0.492	-0.092
-502.683	-200.000	0.001	-0.121
-501.668	-98.502	-0.175	-0.045
-500.653	-200.000	0.033	0.431
-499.639	-17.500	0.278	0.176
-498.624	515.664	-0.055	0.128
-497.610	800.000	0.080	0.234
-496.595	0.228	0.161	0.116
-495.581	-180.280	-0.290	-0.006
-494.566	366.987	-0.044	-0.090
-493.551	78.265	-0.143	-0.154
-492.537	-118.394	0.301	0.054
-491.522	-36.312	-0.163	-0.089
-490.508	-197.841	-0.288	-0.002
-489.493	-200.000	-0.010	0.264
-488.478	271.506	0.082	-0.146
-487.464	800.000	-0.062	-0.256
-486.449	-125.406	-0.043	0.007
-485.435	-57.805	-0.334	-0.147
-484.420	-108.262	0.382	-0.083
-483.405	535.601	0.086	0.207
-482.391	-99.824	-0.132	0.033
-481.376	668.285	0.068	0.178
-480.362	-126.477	-0.051	-0.008
-479.347	193.789	0.052	-0.080
-478.332	-200.000	0.007	-0.158
-477.318	-200.000	0.046	-0.280
-476.303	-200.000	-0.046	-0.260
-475.289	-31.868	-0.402	-0.227
-474.274	-116.192	0.096	-0.018
-473.259	-129.257	-0.474	-0.067
-472.245	29.364	-0.313	-0.268
-471.230	-121.401	0.128	0.021
-470.216	-120.843	-0.156	-0.027
-469.201	-35.733	-0.097	-0.053
-468.186	-200.000	-0.019	0.250
-467.172	-200.000	0.026	-0.213
-466.157	-200.000	0.018	-0.421
-465.143	256.916	-0.266	-0.461
-464.128	-80.079	0.236	-0.080
-463.113	197.766	-0.149	0.229
-462.099	-28.970	0.095	-0.055
-461.084	7.547	0.348	0.263
-460.070	-145.208	-0.113	-0.010
-459.055	-200.000	-0.182	0.001
-458.040	-34.770	0.010	0.006
-457.026	-200.000	0.004	-0.160
-456.011	-161.079	-0.198	0.010
-454.997	242.837	-0.092	0.156
-453.982	-156.323	0.141	0.009
-452.968	192.746	-0.059	0.090
-451.953	182.946	0.040	-0.059
-450.938	21.957	0.404	-0.332
-449.924	-162.505	-0.414	-0.021
-448.909	-200.000	-0.011	0.123
-447.895	216.676	-0.272	-0.437
-446.880	800.000	0.067	-0.236
-445.865	-200.000	-0.010	-0.203
-444.851	-11.730	0.379	-0.250
-443.836	800.000	-0.053	-0.230
-442.822	685.203	0.072	0.190
-441.807	-200.000	0.012	0.302
-440.792	-128.819	-0.080	0.011
-439.778	-200.000	0.034	0.254
-438.763	149.001	0.128	0.174
-437.749	-106.547	-0.345	0.077
-436.734	422.642	0.024	0.051
-435.719	800.000	-0.119	-0.383
-434.705	-118.674	0.104	-0.018
-433.690	-3.603	0.253	0.177
-432.676	-124.018	0.124	-0.020
-431.661	-123.734	-0.153	-0.024
-430.646	20.137	0.146	-0.118
-429.632	-95.006	0.158	0.043
-428.617	-99.067	0.134	0.034
-427.603	800.000	0.071	-0.244
-426.588	-58.589	0.214	0.094
-425.573	35.484	-0.063	-0.056
-424.559	-88.660	0.137	-0.041
-423.544	86.619	-0.019	-0.021
-422.530	-200.000	-0.001	0.218
-421.515	180.410	-0.146	-0.215
-420.500	-200.000	0.002	-0.112
-419.486	65.491	-0.189	-0.193
-418.471	-40.302	0.241	-0.126
-417.457	-96.421	0.200	0.053
-416.442	-200.000	0.023	0.235
-415.428	201.227	-0.118	0.182
-414.413	-200.000	0.011	0.063
-413.398	-200.000	0.034	0.285
-412.384	-200.000	-0.066	0.334
-411.369	-107.654	0.163	0.036
-410.355	-65.727	0.320	-0.129
-409.340	320.930	0.046	-0.087
-408.325	279.841	-0.026	-0.047
-407.311	115.860	-0.221	0.272
-406.296	-45.956	0.251	0.124
-405.282	49.366	0.350	-0.331
-404.267	-2.168	-0.263	0.186
-403.252	-80.991	0.161	0.054
-402.238	-131.380	-0.409	-0.054
-401.223	-200.000	-0.022	-0.334
-400.209	43.588	0.269	0.248
-399.194	-112.391	-0.153	-0.031
-398.179	107.336	0.044	-0.053
-397.165	-60.298	0.246	-0.105
-396.150	199.818	0.108	0.166
-395.136	-103.853	0.203	0.048
-394.121	-0.518	0.247	0.176
-393.106	-167.527	0.237	0.010
-392.092	-55.706	0.290	0.130
-391.077	180.698	-0.205	-0.303
-390.063	59.538	-0.184	0.182
-389.048	38.747	-0.154	0.139
-388.033	-49.048	-0.135	0.065
-387.019	133.871	0.249	0.324
-386.004	361.705	-0.225	0.454
-384.990	-200.000	-0.005	-0.062
-383.975	-100.798	-0.046	0.011
-382.960	-58.571	-0.080	-0.035
-381.946	415.153	0.179	-0.383
-380.931	800.000	-0.061	-0.175
-379.917	800.000	-0.073	-0.290
-378.902	-110.352	-0.173	-0.036
-377.888	178.201	-0.186	0.273
-376.873	-169.998	0.249	0.009
-375.858	-142.653	-0.297	-0.029
-374.844	-105.028	0.187	0.043
-373.829	-116.485	0.160	-0.030
-372.815	34.338	0.133	-0.116
-371.800	-200.000	-0.002	-0.125
-370.785	-198.652	0.206	-0.001
-369.771	86.104	-0.122	0.135
-368.756	-129.287	0.221	0.031
-367.742	72.725	0.181	-0.190
-366.727	800.000	0.046	-0.155
-365.712	93.860	-0.153	0.174
-364.698	174.809	-0.178	0.259
-363.683	-200.000	-0.021	-0.142
-362.669	-99.475	0.067	-0.017
-361.654	-116.054	0.290	0.054
-360.639	-140.320	-0.237	-0.025
-359.625	-33.740	0.124	-0.069
-358.610	-10.011	-0.253	0.169
-357.596	-55.810	0.327	-0.146
-356.581	-200.000	0.080	-0.374
-355.566	161.132	0.047	0.066
-354.552	-200.000	0.060	-0.343
-353.537	24.873	0.233	0.194
-352.523	-50.542	-0.133	0.063
-351.508	9.324	0.290	-0.220
-350.493	-112.928	-0.271	0.054
-349.479	-19.514	-0.266	0.165
-348.464	467.724	0.080	0.180
-347.450	41.320	0.144	0.131
-346.435	-86.127	0.156	-0.048
-345.420	800.000	-0.093	0.261
-344.406	35.834	0.240	0.211
-343.391	-126.698	-0.439	-0.065
-342.377	104.762	-0.268	-0.317
-341.362	22.687	-0.275	-0.226
-340.348	-175.105	0.448	0.012
-339.333	-172.598	-0.208	-0.007
-338.318	-94.287	-0.306	0.084
-337.304	-200.000	0.007	0.143
-336.289	55.951	-0.162	-0.157
-335.275	40.361	-0.198	0.179
-334.260	-200.000	0.025	-0.470
-333.245	-115.807	0.216	0.040
-332.231	76.650	-0.218	-0.232
-331.216	-38.168	-0.144	-0.077
-330.202	-41.731	-0.182	0.094
-329.187	-81.505	0.331	0.109
-328.172	-111.707	-0.080	0.016
-327.158	-66.517	-0.220	0.087
-326.143	189.798	-0.124	-0.187
-325.129	-19.361	0.272	0.169
-324.114	-46.817	-0.054	0.027
-323.099	129.676	-0.157	0.201
-322.085	383.975	-0.111	-0.230
-321.070	-200.000	0.012	-0.301
-320.056	-91.374	0.255	-0.073
-319.041	-200.000	0.012	-0.174
-318.026	104.098	0.140	0.165
-317.012	-84.079	0.254	0.081
-315.997	-78.727	-0.227	-0.078
-314.983	-200.000	0.215	-0.000
-313.968	-75.530	-0.127	0.045
-312.953	714.609	0.116	-0.308
-311.939	-200.000	0.023	0.482
-310.924	53.561	-0.125	-0.120
-309.910	-67.820	0.060	-0.024
-308.895	800.000	-0.089	0.369
-307.880	194.968	-0.246	0.373
-306.866	45.818	-0.130	-0.121
-305.851	-200.000	0.002	0.271
-304.837	-200.000	0.014	-0.237
-303.822	233.047	0.099	-0.163
-302.807	29.282	-0.034	-0.029
-301.793	-84.350	0.069	-0.022
-300.778	251.487	0.117	-0.199
-299.764	67.172	0.101	-0.103
-298.749	358.562	-0.115	-0.230
-297.735	8.943	0.408	-0.308
-296.720	-37.084	0.075	-0.040
-295.705	708.908	-0.070	0.185
-294.691	10.177	0.228	0.174
-293.676	-200.000	-0.025	-0.455
-292.662	-200.000	0.045	0.292
-291.647	-70.452	0.284	0.108
-290.632	800.000	0.075	-0.321
-289.618	157.384	-0.088	0.123
-288.603	45.469	0.116	0.107
-287.589	70.573	0.228	-0.236
-286.574	-200.000	0.008	-0.122
-285.559	-92.492	-0.107	0.030
-284.545	-200.000	-0.025	0.171
-283.530	175.312	0.124	0.180
-282.516	136.197	0.079	-0.103
-281.501	608.614	-0.111	-0.277
-280.486	-11.891	0.231	-0.151
-279.472	627.539	-0.100	-0.252
-278.457	-200.000	-0.027	0.232
-277.443	-64.953	-0.123	0.050
-276.428	23.830	-0.278	-0.229
-275.413	-154.484	0.151	0.010
-274.399	351.281	-0.207	-0.410
-273.384	-51.500	0.039	0.018
-272.370	800.000	-0.020	0.073
-271.355	-53.294	0.108	-0.049
-270.340	58.133	0.219	-0.215
-269.326	117.300	-0.126	0.155
-268.311	7.020	-0.222	0.166
-267.297	-200.000	-0.015	-0.228
-266.282	-70.097	0.402	-0.153
-265.267	-200.000	-0.015	0.194
-264.253	-102.578	0.159	-0.038
-263.238	-138.915	0.158	-0.017
-262.224	599.421	0.047	0.117
-261.209	36.647	-0.297	0.262
-260.195	4.584	0.144	-0.105
-259.180	333.175	0.106	-0.205
-258.165	125.784	0.161	0.203
-257.151	-118.466	-0.360	-0.064
-256.136	171.046	0.288	0.413
-255.122	-57.556	0.196	-0.086
-254.107	-81.617	0.018	0.006
-253.092	-200.000	-0.083	-0.428
-252.078	-49.544	-0.157	0.075
-251.063	-22.523	-0.118	0.071
-250.049	-200.000	0.000	-0.136
-249.034	-200.000	0.016	0.291
-248.019	-29.875	-0.225	0.128
-247.005	150.435	0.032	0.044
-245.990	800.000	-0.094	0.322
-244.976	212.495	0.166	0.261
-243.961	60.911	-0.176	0.174
-242.946	-183.782	0.168	0.003
-241.932	-98.086	-0.104	-0.027
-240.917	800.000	-0.079	0.226
-239.903	315.892	0.058	0.110
-238.888	103.233	-0.091	-0.107
-237.873	640.647	-0.135	0.342
-236.859	25.426	0.184	0.153
-235.844	566.529	0.068	0.165
-234.830	-34.432	0.153	0.084
-233.815	-200.000	0.041	-0.285
-232.800	-200.000	0.003	0.207
-231.786	-2.485	0.054	0.038
-230.771	-6.278	0.151	0.103
-229.757	800.000	-0.107	0.333
-228.742	607.386	0.094	-0.233
-227.727	-200.000	0.005	-0.163
-226.713	-83.542	0.199	0.064
-225.698	-132.908	0.264	-0.034
-224.684	-164.673	0.165	0.007
-223.669	-200.000	0.003	0.240
-222.655	193.329	-0.181	0.273
-221.640	60.975	0.193	0.192
-220.625	-86.229	0.371	-0.114
-219.611	312.234	0.200	-0.375
-218.596	170.733	-0.171	0.244
-217.582	87.905	-0.185	0.204
-216.567	-200.000	-0.033	-0.240
-215.552	-200.000	0.027	0.327
-214.538	-200.000	-0.002	0.113
-213.523	208.005	0.045	0.070
-212.509	16.471	0.134	0.106
-211.494	-111.951	0.059	0.012
-210.479	330.947	-0.087	-0.167
-209.465	0.990	0.194	-0.139
-208.450	722.621	0.177	0.471
-207.436	800.000	-0.031	0.133
-206.421	10.398	0.139	0.106
-205.406	-200.000	-0.012	-0.162
-204.392	392.186	0.222	0.461
-203.377	-200.000	0.093	0.474
-202.363	800.000	0.095	0.335
-201.348	-62.408	-0.092	0.038
-200.333	-140.501	-0.074	-0.008
-199.319	187.800	-0.124	0.185
-198.304	215.968	-0.212	0.336
-197.290	800.000	0.061	0.191
-196.275	-190.722	-0.254	0.003
-195.260	-200.000	-0.043	0.196
-194.246	81.543	-0.250	-0.270
-193.231	800.000	-0.123	-0.390
-192.217	226.373	-0.157	-0.255
-191.202	-138.557	0.155	0.017
-190.187	800.000	-0.041	0.137
-189.173	51.629	-0.095	0.090
-188.158	-49.894	0.180	0.085
-187.144	236.373	-0.125	0.206
-186.129	-27.193	-0.086	0.050
-185.114	-133.671	-0.359	0.045
-184.100	800.000	0.137	-0.518
-183.085	-26.614	-0.318	0.186
-182.071	-17.266	0.041	-0.025
-181.056	586.755	-0.026	-0.064
-180.042	-80.018	-0.312	0.104
-179.027	-200.000	-0.030	0.366
-178.012	174.133	-0.252	-0.362
-176.998	79.910	0.164	-0.176
-175.983	800.000	0.040	-0.145
-174.969	800.000	0.026	-0.089
-173.954	-96.752	0.291	-0.076
-172.939	68.382	-0.079	-0.080
-171.925	138.889	0.053	0.069
-170.910	22.377	-0.224	-0.182
-169.896	-14.517	-0.051	0.032
-168.881	61.197	0.151	-0.149
-167.866	800.000	-0.086	0.356
-166.852	-138.514	-0.089	0.010
-165.837	148.680	0.196	0.263
-164.823	800.000	0.106	-0.410
-163.808	-200.000	-0.001	-0.172
-162.793	-1.995	0.200	-0.140
-161.779	-54.485	0.313	0.141
-160.764	22.552	-0.328	-0.268
-159.750	98.718	0.207	0.238
-158.735	-14.323	0.066	0.043
-157.720	-200.000	0.017	0.193
-156.706	-200.000	-0.003	-0.056
-155.691	10.641	0.045	0.034
-154.677	681.609	-0.031	0.079
-153.662	-45.133	0.448	0.222
-152.647	335.541	-0.096	-0.185
-151.633	-106.092	0.123	-0.028
-150.618	-162.601	0.343	-0.017
-149.604	144.145	0.216	-0.287
-148.589	-11.162	-0.263	-0.172
-147.574	-83.931	0.036	0.011
-146.560	-35.590	0.223	0.120
-145.545	-158.637	-0.216	0.012
-144.531	-200.000	0.000	-0.024
-143.516	-115.365	-0.274	-0.051
-142.502	-101.423	-0.031	0.008
-141.487	-108.804	-0.306	-0.065
-140.472	724.803	0.109	-0.289
-139.458	-111.870	0.098	0.020
-138.443	111.331	0.047	-0.057
-137.429	25.284	-0.359	-0.297
-136.414	-200.000	0.011	0.339
-135.399	29.874	-0.201	0.170
-134.385	800.000	0.034	0.121
-133.370	-56.179	-0.238	-0.105
-132.356	-96.982	-0.491	-0.128
-131.341	-0.133	-0.275	0.195
-130.326	-7.095	-0.259	0.175
-129.312	-61.404	-0.133	-0.055
-128.297	-200.000	0.256	-0.001
-127.283	-35.870	-0.073	0.039
-126.268	-63.885	0.176	0.071
-125.253	44.737	0.044	0.040
-124.239	-200.000	-0.027	-0.129
-123.224	66.376	-0.167	0.169
-122.210	-120.458	0.281	0.047
