DTS Sentinel unit serial number:	SN413079Multiplexer serial number:	ORYXHardware model number:	OX4-SRSoftware version number:	ORYX F/W v4.00 Oryx Data Collector v3.7.2.0data status	okinstallation	princeton_trtdifferential loss correction	single-endedforward channel	channel 3reverse channel	N/Adate	2019/09/18time	22:04:34forward acquisition time	60.00reverse acquisition time	0.00gamma	496.2192k internal	0.2345k external	0.2345temperature offset calibration	0.9990default loss term (dB/km)	0.3790temperature slope calibration	1.0000multiplexer offset coefficient	1.0000multiplexer slope coefficient	1.0000fibre end	0.00T internal ref (°C)	24.53T ext. ref 1 (°C)	0.81T ext. ref 2 (°C)	18.31length (m)	temperature (°C)	Stokes	anti-Stokes-747.200	-2.084	-0.196	-0.138
-746.185	129.956	0.031	0.039
-745.171	800.000	-0.033	0.137
-744.156	-17.888	0.264	0.165
-743.142	-200.000	0.045	0.414
-742.127	800.000	-0.062	0.221
-741.112	-124.321	0.168	-0.026
-740.098	-200.000	0.007	0.120
-739.083	-40.212	0.280	0.146
-738.069	-200.000	-0.062	0.275
-737.054	-200.000	-0.037	0.277
-736.039	-52.595	-0.159	-0.073
-735.025	-200.000	-0.031	-0.161
-734.010	-80.175	0.564	-0.189
-732.996	-142.066	-0.238	-0.024
-731.981	800.000	0.054	-0.156
-730.966	-200.000	-0.088	-0.599
-729.952	-83.369	0.418	-0.134
-728.937	-136.596	-0.103	0.012
-727.923	-200.000	0.134	0.000
-726.908	33.853	0.037	0.032
-725.894	-200.000	-0.012	0.295
-724.879	-56.711	0.508	0.225
-723.864	-94.022	-0.198	0.054
-722.850	-37.080	-0.184	-0.099
-721.835	-138.468	0.207	0.023
-720.821	561.171	-0.057	-0.138
-719.806	110.980	0.172	-0.207
-718.791	-44.115	-0.153	-0.077
-717.777	-79.301	0.160	-0.054
-716.762	800.000	-0.037	-0.134
-715.748	-68.702	0.100	-0.039
-714.733	19.471	-0.210	-0.169
-713.718	-200.000	-0.001	-0.228
-712.704	-200.000	0.019	0.124
-711.689	65.281	0.119	-0.120
-710.675	-76.006	-0.297	-0.105
-709.660	776.872	0.086	-0.234
-708.645	-11.647	0.231	0.151
-707.631	-47.831	0.024	-0.012
-706.616	-200.000	0.012	0.204
-705.602	-30.468	-0.170	0.096
-704.587	-64.809	0.207	-0.084
-703.572	4.872	-0.204	-0.150
-702.558	-200.000	0.063	0.296
-701.543	-200.000	0.027	-0.177
-700.529	386.161	-0.040	0.082
-699.514	31.416	-0.213	0.182
-698.499	7.325	-0.209	-0.156
-697.485	-69.498	0.335	0.128
-696.470	-122.937	-0.123	-0.020
-695.456	425.437	-0.145	-0.312
-694.441	30.489	0.099	0.084
-693.426	94.612	0.047	-0.053
-692.412	-108.376	-0.206	0.044
-691.397	44.528	-0.039	-0.036
-690.383	-105.312	0.053	0.012
-689.368	-111.662	-0.446	-0.090
-688.354	-20.899	0.291	0.178
-687.339	270.288	0.132	-0.232
-686.324	394.590	-0.110	0.229
-685.310	-76.519	0.109	0.038
-684.295	-109.746	-0.131	-0.027
-683.281	92.683	-0.123	-0.139
-682.266	-129.085	-0.337	-0.047
-681.251	215.025	-0.090	0.142
-680.237	130.567	-0.101	0.129
-679.222	800.000	0.029	0.093
-678.208	-111.048	-0.225	0.046
-677.193	800.000	0.014	0.056
-676.178	-200.000	-0.030	0.358
-675.164	-24.158	-0.184	-0.110
-674.149	-54.533	0.253	-0.114
-673.135	21.225	-0.025	-0.020
-672.120	275.189	-0.120	-0.213
-671.105	800.000	0.024	0.081
-670.091	-4.936	0.240	0.165
-669.076	800.000	0.082	0.257
-668.062	260.654	-0.097	-0.167
-667.047	217.917	-0.087	0.139
-666.032	-75.259	-0.248	-0.088
-665.018	-200.000	0.025	-0.239
-664.003	800.000	-0.064	0.211
-662.989	70.521	-0.168	0.174
-661.974	206.820	0.086	-0.134
-660.959	-200.000	0.005	0.051
-659.945	69.227	-0.322	0.330
-658.930	6.771	-0.190	-0.141
-657.916	274.585	0.125	-0.221
-656.901	-98.325	0.342	-0.088
-655.886	-125.605	0.148	0.022
-654.872	75.172	-0.131	-0.138
-653.857	216.820	0.108	-0.171
-652.843	-17.747	0.150	0.094
-651.828	-85.083	-0.299	0.093
-650.814	-72.886	-0.343	0.126
-649.799	14.237	0.269	-0.209
-648.784	107.101	0.115	0.136
-647.770	800.000	-0.039	-0.158
-646.755	-200.000	-0.011	0.051
-645.741	-6.012	0.203	-0.139
-644.726	-52.562	0.198	-0.091
-643.711	-76.589	0.132	-0.046
-642.697	-80.661	0.167	0.055
-641.682	-140.417	0.194	0.020
-640.668	-61.271	0.245	0.103
-639.653	78.913	0.172	-0.184
-638.638	-200.000	0.025	0.220
-637.624	-129.264	-0.220	0.030
-636.609	345.913	0.070	-0.137
-635.595	-200.000	-0.021	-0.260
-634.580	800.000	0.038	-0.134
-633.565	-200.000	0.013	0.113
-632.551	-200.000	0.019	0.133
-631.536	-2.435	-0.202	0.141
-630.522	448.091	-0.136	-0.298
-629.507	-200.000	0.053	-0.236
-628.492	82.566	-0.105	0.113
-627.478	134.653	0.168	0.217
-626.463	-92.966	-0.333	0.093
-625.449	-120.557	-0.325	-0.055
-624.434	-99.133	-0.172	-0.043
-623.419	183.931	0.063	0.093
-622.405	-200.000	-0.070	-0.424
-621.390	-59.078	0.136	0.058
-620.376	331.573	-0.046	-0.089
-619.361	19.673	-0.238	0.190
-618.346	-200.000	0.046	-0.358
-617.332	-39.334	-0.158	-0.082
-616.317	-101.036	0.203	0.050
-615.303	49.479	0.281	-0.264
-614.288	-169.945	-0.614	-0.022
-613.273	235.903	0.121	-0.199
-612.259	32.126	-0.137	-0.118
-611.244	-142.914	0.205	0.020
-610.230	-32.709	-0.021	0.012
-609.215	-124.627	0.267	-0.041
-608.201	-165.778	-0.136	-0.006
-607.186	169.871	0.198	-0.281
-606.171	171.566	0.036	0.051
-605.157	-166.352	0.387	-0.016
-604.142	-200.000	0.016	-0.208
-603.128	-96.650	-0.048	0.013
-602.113	-9.399	-0.191	0.127
-601.098	103.585	-0.101	-0.118
-600.084	30.968	-0.237	-0.202
-599.069	93.696	-0.123	-0.139
-598.055	-200.000	0.015	-0.072
-597.040	-39.561	0.176	-0.092
-596.025	-28.109	-0.166	-0.096
-595.011	12.500	-0.174	0.134
-593.996	-200.000	-0.002	0.150
-592.982	286.383	0.118	0.211
-591.967	-67.206	-0.051	-0.020
-590.952	779.876	-0.019	0.052
-589.938	-3.707	0.139	0.096
-588.923	-200.000	-0.043	0.248
-587.909	731.005	0.039	0.103
-586.894	-200.000	-0.029	0.211
-585.879	-200.000	-0.006	-0.231
-584.865	-15.988	-0.070	-0.044
-583.850	-98.650	0.426	-0.108
-582.836	-74.830	-0.252	-0.090
-581.821	-145.620	0.217	-0.019
-580.806	110.929	0.165	-0.197
-579.792	800.000	-0.025	0.095
-578.777	-74.165	-0.093	0.034
-577.763	489.752	-0.187	-0.425
-576.748	-98.912	-0.217	-0.055
-575.733	-200.000	-0.058	-0.353
-574.719	-150.966	0.238	-0.018
-573.704	-47.830	-0.350	0.169
-572.690	-200.000	0.010	-0.100
-571.675	-200.000	-0.051	-0.223
-570.661	-40.026	0.083	0.043
-569.646	-169.739	0.204	-0.007
-568.631	-23.303	-0.316	0.189
-567.617	-74.863	0.015	-0.005
-566.602	126.421	-0.132	0.166
-565.588	-200.000	0.018	0.117
-564.573	800.000	0.033	0.141
-563.558	172.233	0.284	0.406
-562.544	152.211	-0.186	0.252
-561.529	279.612	-0.191	-0.338
-560.515	542.192	0.086	0.205
-559.500	78.467	0.291	-0.309
-558.485	246.484	-0.096	0.161
-557.471	204.176	-0.119	-0.183
-556.456	800.000	-0.102	-0.387
-555.442	-54.727	0.165	-0.074
-554.427	-200.000	0.034	0.292
-553.412	-34.851	-0.197	-0.107
-552.398	-70.248	0.334	0.126
-551.383	800.000	-0.067	0.186
-550.369	-97.807	-0.408	-0.105
-549.354	-130.050	-0.159	-0.022
-548.339	-58.246	-0.520	-0.225
-547.325	-93.770	0.550	-0.151
-546.310	14.117	-0.123	-0.095
-545.296	346.931	0.073	-0.142
-544.281	-200.000	0.051	0.333
-543.266	-101.355	-0.431	-0.104
-542.252	84.609	0.073	0.079
-541.237	-200.000	-0.014	-0.182
-540.223	-200.000	-0.054	-0.390
-539.208	314.073	0.119	-0.222
-538.193	-200.000	0.008	0.052
-537.179	145.023	-0.101	-0.134
-536.164	-200.000	0.004	0.042
-535.150	-20.054	0.301	-0.184
-534.135	260.681	0.214	-0.368
-533.121	-132.300	-0.287	0.037
-532.106	-200.000	0.043	-0.365
-531.091	-42.398	0.284	-0.144
-530.077	-71.210	-0.590	0.220
-529.062	-104.409	0.166	0.038
-528.048	-21.075	-0.093	0.056
-527.033	-168.185	0.330	0.013
-526.018	800.000	0.048	0.143
-525.004	800.000	-0.038	0.157
-523.989	800.000	0.068	-0.225
-522.975	-200.000	-0.007	-0.090
-521.960	-162.197	0.298	0.015
-520.945	-49.007	-0.256	0.122
-519.931	-99.893	0.046	-0.011
-518.916	374.647	0.176	0.355
-517.902	219.646	-0.149	0.236
-516.887	-45.805	-0.086	0.042
-515.872	409.612	0.089	-0.187
-514.858	-122.101	-0.135	-0.022
-513.843	112.565	-0.342	-0.410
-512.829	800.000	0.123	-0.388
-511.814	-3.957	0.262	-0.180
-510.799	288.668	0.073	-0.131
-509.785	-116.442	-0.113	-0.021
-508.770	-168.741	-0.175	-0.007
-507.756	121.182	0.092	-0.114
-506.741	260.169	-0.127	0.217
-505.726	800.000	-0.032	0.129
-504.712	-42.546	-0.248	-0.125
-503.697	315.871	-0.235	0.439
-502.683	-200.000	0.028	0.333
-501.668	-200.000	-0.032	-0.198
-500.653	-47.901	-0.188	-0.090
-499.639	486.373	-0.062	0.140
-498.624	800.000	0.101	0.331
-497.610	671.009	-0.085	-0.218
-496.595	107.388	-0.133	0.156
-495.581	161.518	-0.051	0.071
-494.566	-200.000	0.011	0.179
-493.551	7.563	0.061	-0.045
-492.537	216.667	0.040	-0.063
-491.522	127.369	0.083	0.104
-490.508	-196.020	0.284	-0.002
-489.493	703.512	-0.141	-0.369
-488.478	36.993	0.362	0.318
-487.464	-200.000	0.011	0.275
-486.449	-43.681	0.128	-0.064
-485.435	-35.301	0.164	-0.088
-484.420	715.124	0.082	-0.215
-483.405	33.942	0.063	-0.054
-482.391	-42.106	-0.205	0.104
-481.376	134.702	-0.075	0.097
-480.362	800.000	-0.052	0.158
-479.347	-193.802	-0.278	0.002
-478.332	-103.983	-0.199	-0.046
-477.318	-49.388	0.195	0.092
-476.303	-52.428	0.040	0.018
-475.289	111.119	-0.157	-0.187
-474.274	-200.000	0.015	-0.132
-473.259	-200.000	-0.022	0.108
-472.245	-49.507	0.116	-0.055
-471.230	-200.000	-0.001	0.015
-470.216	-134.566	0.256	0.031
-469.201	-92.000	0.040	0.011
-468.186	722.654	-0.012	0.030
-467.172	146.372	-0.022	-0.030
-466.157	-170.616	0.343	-0.012
-465.143	166.192	-0.109	-0.152
-464.128	-90.195	0.234	0.067
-463.113	-2.368	-0.250	-0.173
-462.099	-200.000	-0.006	-0.089
-461.084	-200.000	-0.021	-0.355
-460.070	-37.732	-0.398	-0.210
-459.055	-53.642	-0.099	0.045
-458.040	-28.930	0.185	-0.105
-457.026	37.591	-0.039	0.035
-456.011	121.721	-0.202	-0.249
-454.997	-125.228	0.225	-0.034
-453.982	-73.545	0.162	-0.058
-452.968	-148.874	0.172	0.014
-451.953	-55.358	-0.241	0.107
-450.938	-21.000	0.144	0.087
-449.924	-37.659	-0.319	-0.168
-448.909	-200.000	-0.030	-0.156
-447.895	-200.000	-0.028	0.268
-446.880	-93.597	-0.208	0.057
-445.865	-54.074	0.368	0.165
-444.851	-200.000	-0.059	0.359
-443.836	-200.000	-0.012	0.169
-442.822	-88.242	-0.316	-0.094
-441.807	103.963	-0.298	0.346
-440.792	-84.116	0.081	-0.025
-439.778	92.830	-0.097	-0.108
-438.763	103.189	0.101	-0.117
-437.749	800.000	0.111	0.414
-436.734	90.665	0.048	0.053
-435.719	322.749	-0.160	0.301
-434.705	800.000	-0.020	0.082
-433.690	-200.000	0.043	-0.266
-432.676	-75.593	-0.338	-0.119
-431.661	187.220	-0.073	0.108
-430.646	-200.000	-0.063	-0.297
-429.632	-200.000	-0.026	-0.198
-428.617	-200.000	-0.070	-0.339
-427.603	-163.050	-0.197	-0.009
-426.588	-92.307	0.365	-0.102
-425.573	145.774	-0.200	-0.265
-424.559	130.214	0.079	-0.100
-423.544	-99.126	-0.185	-0.046
-422.530	466.506	0.062	-0.138
-421.515	-200.000	-0.018	0.227
-420.500	-25.941	0.246	0.143
-419.486	2.301	-0.145	-0.103
-418.471	92.423	-0.372	0.414
-417.457	-63.126	0.285	-0.116
-416.442	-93.335	0.090	-0.025
-415.428	790.875	0.109	0.297
-414.413	800.000	0.118	0.423
-413.398	15.873	-0.269	-0.209
-412.384	-179.861	-0.215	0.005
-411.369	-200.000	0.004	-0.206
-410.355	-50.064	0.182	0.085
-409.340	-200.000	-0.023	0.359
-408.325	800.000	-0.082	0.305
-407.311	-111.949	-0.195	-0.039
-406.296	65.194	0.208	-0.208
-405.282	-200.000	0.019	-0.283
-404.267	10.969	-0.090	0.068
-403.252	800.000	0.018	0.068
-402.238	-74.818	-0.120	-0.042
-401.223	136.069	0.133	-0.171
-400.209	-53.953	-0.400	0.180
-399.194	244.466	0.116	-0.193
-398.179	-100.892	0.208	0.050
-397.165	16.898	-0.172	0.134
-396.150	-200.000	-0.031	-0.147
-395.136	660.573	-0.069	0.176
-394.121	-61.769	-0.202	-0.084
-393.106	-94.981	-0.211	-0.056
-392.092	208.635	-0.098	-0.151
-391.077	-134.148	-0.133	-0.016
-390.063	-76.558	0.260	0.090
-389.048	-200.000	-0.033	0.213
-388.033	-92.784	0.376	-0.104
-387.019	-72.687	-0.102	-0.037
-386.004	243.663	0.097	0.160
-384.990	33.266	-0.172	0.148
-383.975	137.392	-0.058	0.075
-382.960	800.000	0.048	0.144
-381.946	53.977	0.174	-0.165
-380.931	-200.000	0.071	-0.434
-379.917	231.100	0.115	-0.185
-378.902	-200.000	0.067	-0.304
-377.888	59.136	0.078	0.075
-376.873	8.789	-0.077	0.057
-375.858	-155.391	0.129	0.008
-374.844	147.070	-0.046	-0.060
-373.829	-200.000	0.024	0.192
-372.815	800.000	0.097	0.408
-371.800	-103.320	-0.046	-0.011
-370.785	-55.133	0.225	0.100
-369.771	-79.145	-0.071	-0.024
-368.756	541.870	0.120	0.282
-367.742	-200.000	-0.041	0.202
-366.727	562.060	0.131	0.313
-365.712	205.334	-0.058	0.088
-364.698	800.000	0.065	0.192
-363.683	-75.207	0.221	-0.078
-362.669	-17.485	-0.172	-0.107
-361.654	-44.968	-0.385	0.189
-360.639	800.000	0.052	0.169
-359.625	-98.006	0.178	-0.045
-358.610	-120.210	0.089	-0.015
-357.596	-121.210	-0.211	0.035
-356.581	-48.933	0.158	-0.075
-355.566	800.000	-0.030	0.116
-354.552	-92.973	0.071	0.020
-353.537	-200.000	-0.018	-0.194
-352.523	716.371	-0.084	0.220
-351.508	50.951	-0.184	0.172
-350.493	-137.105	-0.516	-0.058
-349.479	-200.000	0.032	0.239
-348.464	115.617	-0.277	0.333
-347.450	-140.918	-0.529	-0.054
-346.435	101.903	-0.029	0.034
-345.420	-200.000	0.010	-0.269
-344.406	322.897	0.089	-0.167
-343.391	800.000	-0.099	0.378
-342.377	-33.796	0.229	0.124
-341.362	-83.387	-0.191	-0.060
-340.348	-59.066	-0.281	-0.119
-339.333	455.531	0.036	0.079
-338.318	-200.000	0.062	0.283
-337.304	-68.637	0.221	0.084
-336.289	-102.661	0.237	0.056
-335.275	286.274	0.100	-0.177
-334.260	106.393	-0.163	0.190
-333.245	-105.344	0.250	0.056
-332.231	109.517	0.157	0.185
-331.216	-59.618	-0.161	-0.068
-330.202	-98.504	0.365	0.092
-329.187	54.566	0.086	-0.082
-328.172	481.434	0.120	0.268
-327.158	199.553	0.052	-0.078
-326.143	362.412	-0.114	-0.224
-325.129	-46.752	0.129	0.062
-324.114	-200.000	-0.030	-0.482
-323.099	-200.000	-0.029	0.235
-322.085	-118.126	-0.213	0.037
-321.070	35.630	0.219	0.189
-320.056	85.120	-0.032	-0.035
-319.041	800.000	0.052	-0.158
-318.026	-132.822	-0.313	-0.039
-317.012	208.129	0.026	0.041
-315.997	800.000	0.052	0.210
-314.983	-128.525	0.221	0.031
-313.968	-55.170	0.395	0.175
-312.953	-57.321	-0.227	0.098
-311.939	265.781	-0.067	0.115
-310.924	221.902	-0.175	0.277
-309.910	-40.738	0.199	-0.101
-308.895	1.370	-0.115	0.081
-307.880	-200.000	-0.014	-0.119
-306.866	205.222	0.238	-0.364
-305.851	-51.143	-0.332	0.153
-304.837	-123.535	0.136	-0.021
-303.822	-29.273	-0.061	0.035
-302.807	-11.024	-0.145	-0.094
-301.793	-117.385	0.222	-0.039
-300.778	337.030	-0.140	-0.268
-299.764	-200.000	0.018	-0.175
-298.749	800.000	0.063	0.209
-297.735	-7.036	0.064	0.043
-296.720	42.101	-0.142	-0.127
-295.705	-115.816	0.384	0.071
-294.691	-200.000	-0.001	0.593
-293.676	-57.796	0.142	0.061
-292.662	-81.352	0.058	0.019
-291.647	16.837	0.198	-0.154
-290.632	22.529	0.126	0.101
-289.618	-72.882	0.303	-0.109
-288.603	-200.000	0.015	0.315
-287.589	-121.407	0.278	0.045
-286.574	238.784	-0.094	0.154
-285.559	800.000	0.050	-0.164
-284.545	140.995	0.159	0.207
-283.530	102.042	0.258	0.296
-282.516	800.000	0.107	0.349
-281.501	59.549	0.146	-0.141
-280.486	-200.000	0.016	-0.208
-279.472	-200.000	-0.033	-0.265
-278.457	-112.439	0.229	-0.045
-277.443	-109.111	0.136	0.028
-276.428	12.940	-0.125	0.095
-275.413	-200.000	0.017	-0.323
-274.399	-142.324	-0.086	-0.008
-273.384	74.834	0.302	-0.312
-272.370	-200.000	0.001	0.058
-271.355	-167.414	0.065	-0.003
-270.340	-21.082	-0.202	-0.121
-269.326	37.169	0.411	0.357
-268.311	-200.000	-0.020	-0.100
-267.297	-2.544	0.116	-0.080
-266.282	-200.000	-0.043	0.406
-265.267	-200.000	-0.008	0.088
-264.253	-12.909	-0.153	-0.098
-263.238	299.946	-0.043	-0.077
-262.224	63.499	-0.127	-0.125
-261.209	121.621	-0.207	0.253
-260.195	76.468	0.134	0.140
-259.180	60.486	0.108	0.105
-258.165	-53.670	0.189	0.085
-257.151	-0.948	-0.295	-0.205
-256.136	-200.000	-0.018	-0.089
-255.122	-18.284	0.077	-0.048
-254.107	262.828	0.105	0.179
-253.092	800.000	0.030	0.096
-252.078	-169.567	0.248	0.009
-251.063	-200.000	-0.008	0.054
-250.049	-49.809	0.277	-0.129
-249.034	-93.389	0.069	0.019
-248.019	-16.441	0.121	-0.075
-247.005	127.814	0.028	0.035
-245.990	0.448	0.168	-0.118
-244.976	-200.000	0.025	0.214
-243.961	143.938	0.088	0.116
-242.946	-72.724	-0.170	0.061
-241.932	166.669	0.021	-0.029
-240.917	-40.102	0.065	-0.033
-239.903	-153.387	0.103	-0.007
-238.888	-200.000	0.014	-0.107
-237.873	-16.362	-0.148	-0.092
-236.859	-200.000	-0.045	0.379
-235.844	50.609	0.077	0.071
-234.830	-54.934	0.226	-0.100
-233.815	7.085	0.134	0.098
-232.800	644.406	-0.109	0.272
-231.786	212.244	-0.101	0.156
-230.771	-102.509	0.150	-0.035
-229.757	38.603	-0.161	0.141
-228.742	0.921	-0.153	0.108
-227.727	-200.000	-0.047	0.235
-226.713	466.866	0.073	0.160
-225.698	324.659	0.059	-0.111
-224.684	55.558	-0.109	0.104
-223.669	-31.426	0.366	-0.202
-222.655	-200.000	0.002	0.052
-221.640	67.513	-0.112	0.112
-220.625	-177.868	-0.160	-0.004
-219.611	-59.355	0.152	-0.064
-218.596	-70.521	-0.239	-0.089
-217.582	-77.165	0.140	-0.048
-216.567	800.000	-0.058	0.191
-215.552	-88.282	-0.064	0.019
-214.538	-200.000	0.037	-0.178
-213.523	58.750	-0.138	-0.133
-212.509	-8.432	-0.057	-0.037
-211.494	800.000	0.066	-0.218
-210.479	-200.000	0.015	0.321
-209.465	-73.699	0.038	0.014
-208.450	-42.055	0.038	-0.019
-207.436	-200.000	-0.007	-0.405
-206.421	-5.205	0.249	-0.168
-205.406	-25.655	-0.446	-0.258
-204.392	-11.993	-0.146	-0.094
-203.377	-30.343	-0.097	0.054
-202.363	305.114	-0.163	0.297
-201.348	-188.952	-0.259	0.003
-200.333	-53.976	-0.310	0.138
-199.319	61.754	0.146	0.142
-198.304	283.684	-0.088	0.155
-197.290	-200.000	0.002	0.016
-196.275	-200.000	-0.020	-0.138
-195.260	-200.000	-0.039	0.285
-194.246	-173.343	-0.058	0.002
-193.231	-82.099	-0.304	0.097
-192.217	-49.944	0.234	-0.109
-191.202	-200.000	-0.067	-0.472
-190.187	-26.403	-0.225	0.129
-189.173	419.295	0.079	0.166
-188.158	75.286	-0.089	0.092
-187.144	-166.340	0.397	-0.016
-186.129	-140.047	-0.375	0.039
-185.114	176.890	0.104	-0.148
-184.100	-200.000	0.017	0.130
-183.085	-60.457	-0.338	-0.141
-182.071	-18.457	0.199	-0.121
-181.056	35.199	0.118	0.101
-180.042	-0.424	0.160	-0.111
-179.027	800.000	-0.061	-0.192
-178.012	467.498	0.046	0.102
-176.998	-28.621	-0.238	-0.134
-175.983	18.457	-0.370	-0.290
-174.969	-165.301	0.349	-0.015
-173.954	475.820	0.032	0.070
-172.939	73.278	-0.048	0.049
-171.925	68.171	0.120	-0.120
-170.910	-200.000	0.019	0.128
-169.896	-164.353	0.108	0.005
-168.881	-200.000	0.073	-0.359
-167.866	89.886	-0.156	-0.170
-166.852	-157.523	-0.136	0.008
-165.837	529.561	-0.128	-0.297
-164.823	-26.547	0.089	-0.051
-163.808	-81.389	0.374	0.121
-162.793	-121.351	0.198	0.032
-161.779	-89.324	0.084	0.024
-160.764	-137.616	-0.152	0.017
-159.750	-131.069	-0.469	-0.061
-158.735	-200.000	0.007	0.289
-157.720	-200.000	0.051	0.304
-156.706	800.000	0.069	-0.221
-155.691	-200.000	0.007	-0.206
-154.677	-36.241	0.244	0.129
-153.662	5.490	-0.122	-0.088
-152.647	220.157	-0.085	0.133
-151.633	360.502	0.127	-0.249
-150.618	-200.000	-0.040	-0.212
-149.604	-200.000	0.023	-0.113
-148.589	-114.933	-0.601	0.112
-147.574	18.655	0.205	0.160
-146.560	800.000	0.024	0.080
-145.545	-200.000	-0.030	0.357
-144.531	634.542	-0.006	0.015
-143.516	562.799	-0.031	-0.072
-142.502	92.461	-0.236	0.261
-141.487	-44.084	-0.402	-0.197
-140.472	-150.134	0.148	0.011
-139.458	-116.747	0.107	0.019
-138.443	-200.000	-0.042	-0.402
-137.429	-200.000	-0.016	-0.296
-136.414	302.863	-0.106	-0.192
-135.399	-71.759	-0.148	0.054
-134.385	736.901	0.066	0.174
-133.370	-134.491	-0.142	-0.017
-132.356	-200.000	-0.013	0.177
-131.341	-200.000	0.004	-0.144
-130.326	-52.009	0.207	0.094
-129.312	437.401	-0.104	-0.221
-128.297	470.820	-0.104	-0.229
-127.283	-99.863	0.360	0.088
-126.268	29.595	-0.100	0.083
-125.253	308.413	0.159	0.289
-124.239	-91.009	0.144	-0.041
-123.224	800.000	-0.020	-0.054
-122.210	800.000	0.132	-0.400
