DTS Sentinel unit serial number:	SN413079Multiplexer serial number:	ORYXHardware model number:	OX4-SRSoftware version number:	ORYX F/W v4.00 Oryx Data Collector v3.7.2.0data status	okinstallation	princeton_trtdifferential loss correction	single-endedforward channel	channel 3reverse channel	N/Adate	2019/09/14time	09:28:35forward acquisition time	60.00reverse acquisition time	0.00gamma	496.2192k internal	0.2320k external	0.2320temperature offset calibration	1.0058default loss term (dB/km)	0.3790temperature slope calibration	1.0000multiplexer offset coefficient	1.0000multiplexer slope coefficient	1.0000fibre end	0.00T internal ref (°C)	31.37T ext. ref 1 (°C)	3.84T ext. ref 2 (°C)	29.08length (m)	temperature (°C)	Stokes	anti-Stokes-747.200	-53.922	-0.184	-0.085
-746.185	-112.179	-0.211	-0.043
-745.171	-200.000	-0.001	-0.067
-744.156	-33.789	0.122	0.068
-743.142	-77.111	0.232	0.082
-742.127	-113.509	-0.177	0.035
-741.112	249.863	0.108	0.186
-740.098	21.271	0.127	-0.105
-739.083	18.859	-0.194	0.157
-738.069	-89.667	0.318	0.094
-737.054	-116.748	-0.361	0.067
-736.039	57.920	-0.379	-0.375
-735.025	-143.983	0.073	-0.007
-734.010	800.000	-0.051	0.144
-732.996	-168.942	-0.287	0.011
-731.981	-166.159	-0.251	-0.011
-730.966	-200.000	0.095	-0.431
-729.952	-32.951	-0.041	0.023
-728.937	-200.000	-0.008	0.145
-727.923	-89.121	-0.297	0.089
-726.908	8.945	0.055	-0.042
-725.894	-18.680	-0.200	-0.126
-724.879	-76.717	-0.123	0.043
-723.864	25.978	-0.267	-0.225
-722.850	12.642	0.106	0.082
-721.835	-200.000	-0.178	0.000
-720.821	-200.000	0.017	0.250
-719.806	56.795	0.115	0.113
-718.791	-18.219	-0.133	-0.084
-717.777	58.696	0.124	0.123
-716.762	800.000	0.155	-0.473
-715.748	279.429	0.097	-0.176
-714.733	14.150	-0.269	-0.212
-713.718	-166.122	-0.102	0.004
-712.704	389.296	-0.148	-0.311
-711.689	-20.431	0.023	0.014
-710.675	41.283	-0.394	-0.360
-709.660	70.695	0.097	-0.102
-708.645	-200.000	-0.022	-0.168
-707.631	-200.000	0.028	0.176
-706.616	-200.000	0.078	-0.413
-705.602	-4.552	-0.310	-0.216
-704.587	-80.983	0.315	-0.105
-703.572	241.506	0.185	-0.313
-702.558	-200.000	0.012	0.200
-701.543	-200.000	0.031	-0.143
-700.529	220.983	-0.109	0.177
-699.514	-128.835	-0.042	0.006
-698.499	100.301	-0.018	0.021
-697.485	-187.384	-0.245	0.003
-696.470	418.454	0.116	0.250
-695.456	165.050	-0.115	-0.164
-694.441	-200.000	0.023	0.114
-693.426	174.905	0.040	0.059
-692.412	219.250	0.092	-0.149
-691.397	-126.987	-0.043	-0.006
-690.383	800.000	0.061	-0.236
-689.368	-8.191	0.156	0.106
-688.354	-52.606	0.171	0.080
-687.339	-109.692	0.237	-0.050
-686.324	-153.742	0.276	-0.019
-685.310	10.499	0.108	-0.083
-684.295	95.804	0.133	-0.153
-683.281	316.182	-0.115	0.219
-682.266	-200.000	-0.007	-0.060
-681.251	58.974	0.156	-0.155
-680.237	-154.399	-0.194	0.013
-679.222	-182.277	-0.351	0.007
-678.208	-105.316	0.113	0.026
-677.193	-86.130	-0.286	0.089
-676.178	103.977	0.116	-0.137
-675.164	5.021	-0.045	-0.033
-674.149	1.324	-0.173	-0.125
-673.135	-200.000	0.015	-0.280
-672.120	559.709	-0.064	0.156
-671.105	46.395	-0.160	-0.150
-670.091	-26.606	0.152	0.090
-669.076	780.248	0.073	-0.201
-668.062	-200.000	0.033	-0.148
-667.047	-75.527	-0.213	-0.076
-666.032	516.975	0.052	0.123
-665.018	1.637	0.140	0.102
-664.003	675.567	0.062	-0.161
-662.989	-67.884	-0.216	-0.085
-661.974	-200.000	-0.008	0.042
-660.959	-104.332	0.267	0.062
-659.945	408.073	-0.021	-0.046
-658.930	-158.001	0.344	0.020
-657.916	8.771	0.083	-0.063
-656.901	573.860	0.057	0.140
-655.886	759.579	0.072	-0.197
-654.872	-45.650	0.245	0.122
-653.857	758.616	-0.037	0.100
-652.843	-158.566	-0.198	-0.012
-651.828	-200.000	0.003	-0.196
-650.814	345.666	0.157	0.312
-649.799	237.754	0.195	0.326
-648.784	95.109	0.122	-0.139
-647.770	788.733	0.084	0.231
-646.755	219.156	-0.105	-0.169
-645.741	-200.000	-0.022	-0.225
-644.726	-193.014	-0.090	0.001
-643.711	217.736	-0.150	0.240
-642.697	-5.894	0.195	-0.134
-641.682	4.643	-0.032	0.024
-640.668	-114.544	0.119	-0.023
-639.653	-20.295	0.089	-0.055
-638.638	364.717	0.086	-0.174
-637.624	263.299	0.127	-0.222
-636.609	800.000	-0.032	-0.134
-635.595	116.739	0.146	0.181
-634.580	86.736	0.155	0.173
-633.565	29.240	-0.291	0.248
-632.551	30.177	0.123	-0.105
-631.536	668.792	-0.051	-0.134
-630.522	-145.541	0.155	0.014
-629.507	360.288	-0.110	-0.222
-628.492	697.378	0.071	0.188
-627.478	234.917	-0.203	-0.337
-626.463	9.171	0.226	0.172
-625.449	-85.885	-0.334	0.104
-624.434	-200.000	0.012	0.139
-623.419	800.000	0.056	-0.209
-622.405	-142.417	0.260	0.026
-621.390	-200.000	-0.048	0.222
-620.376	-58.651	0.264	0.115
-619.361	-200.000	-0.201	-0.001
-618.346	-200.000	-0.016	0.269
-617.332	-144.535	-0.130	-0.012
-616.317	178.079	-0.123	-0.180
-615.303	-58.728	-0.314	-0.137
-614.288	357.367	-0.086	0.173
-613.273	226.577	-0.097	-0.158
-612.259	800.000	0.079	-0.220
-611.244	606.874	-0.051	-0.127
-610.230	-150.261	-0.322	-0.025
-609.215	15.379	-0.068	0.054
-608.201	298.404	-0.100	0.185
-607.186	-61.318	0.148	0.063
-606.171	-200.000	0.046	0.245
-605.157	-200.000	0.014	0.182
-604.142	307.868	0.152	-0.285
-603.128	-200.000	-0.081	0.620
-602.113	314.421	0.061	-0.115
-601.098	-200.000	0.014	-0.321
-600.084	-153.696	0.194	-0.013
-599.069	800.000	-0.028	-0.110
-598.055	180.288	-0.060	-0.088
-597.040	305.459	-0.108	-0.202
-596.025	88.868	-0.236	0.264
-595.011	-182.012	-0.286	-0.005
-593.996	240.242	0.051	0.086
-592.982	-8.181	0.430	-0.291
-591.967	-61.833	-0.125	0.053
-590.952	-32.626	0.238	-0.133
-589.938	13.387	-0.379	-0.295
-588.923	-136.354	0.352	-0.041
-587.909	-40.356	0.371	-0.194
-586.894	-14.520	0.115	-0.074
-585.879	-200.000	0.033	0.191
-584.865	-76.046	0.177	-0.063
-583.850	104.818	0.091	-0.108
-582.836	-73.622	0.237	0.087
-581.821	27.435	0.040	0.034
-580.806	800.000	0.053	0.150
-579.792	-200.000	0.009	0.393
-578.777	-34.994	0.135	-0.074
-577.763	-200.000	0.166	0.000
-576.748	111.313	0.035	0.043
-575.733	218.506	0.228	-0.366
-574.719	-200.000	0.046	-0.371
-573.704	-12.699	-0.287	-0.188
-572.690	168.098	-0.119	-0.169
-571.675	-194.226	0.280	0.002
-570.661	76.307	-0.074	-0.079
-569.646	800.000	0.165	0.618
-568.631	66.202	-0.113	-0.115
-567.617	489.933	0.116	0.266
-566.602	800.000	-0.008	0.028
-565.588	480.007	-0.033	-0.074
-564.573	204.868	-0.134	0.208
-563.558	-85.493	0.306	0.096
-562.544	-67.286	0.255	-0.101
-561.529	333.193	-0.085	-0.165
-560.515	100.078	0.052	-0.061
-559.500	208.678	-0.109	0.171
-558.485	-143.840	-0.132	0.013
-557.471	-96.767	-0.120	0.032
-556.456	373.586	0.122	-0.250
-555.442	800.000	-0.084	0.368
-554.427	-104.255	-0.190	0.044
-553.412	445.967	-0.075	0.165
-552.398	-13.992	0.210	0.136
-551.383	-44.925	0.013	-0.007
-550.369	-76.655	0.203	0.071
-549.354	46.893	0.096	0.090
-548.339	479.445	-0.157	-0.357
-547.325	-200.000	0.068	-0.372
-546.310	151.898	0.049	0.067
-545.296	105.567	0.172	-0.204
-544.281	65.115	-0.070	0.071
-543.266	560.675	0.072	0.174
-542.252	545.374	0.097	-0.232
-541.237	80.336	-0.102	0.110
-540.223	-142.212	0.284	0.028
-539.208	-41.607	-0.150	-0.077
-538.193	285.919	0.064	0.115
-537.179	-130.608	-0.190	0.026
-536.164	-86.904	0.105	0.032
-535.150	60.321	-0.160	0.159
-534.135	-173.238	0.331	0.010
-533.121	-200.000	0.056	-0.320
-532.106	-20.420	0.176	-0.108
-531.091	-64.148	0.442	0.181
-530.077	-200.000	0.046	-0.283
-529.062	-136.206	0.128	-0.015
-528.048	131.319	0.120	0.154
-527.033	-56.270	0.403	0.180
-526.018	-86.458	-0.132	0.041
-525.004	420.988	-0.028	0.059
-523.989	-29.948	0.165	0.094
-522.975	-141.394	-0.080	0.008
-521.960	-123.296	-0.159	0.025
-520.945	-107.743	-0.289	-0.063
-519.931	-118.210	0.110	-0.020
-518.916	-52.175	-0.291	-0.135
-517.902	354.709	0.106	-0.212
-516.887	-110.358	-0.185	-0.039
-515.872	796.293	-0.063	0.175
-514.858	-16.381	-0.114	0.072
-513.843	-10.583	-0.128	0.085
-512.829	-200.000	0.059	-0.299
-511.814	152.466	0.033	-0.045
-510.799	-68.838	-0.258	0.100
-509.785	139.457	0.066	-0.087
-508.770	-143.023	-0.250	-0.024
-507.756	-136.933	0.408	0.047
-506.741	271.023	-0.116	0.204
-505.726	401.383	-0.090	0.190
-504.712	-200.000	-0.073	0.336
-503.697	-200.000	0.018	0.212
-502.683	-41.622	-0.294	0.151
-501.668	-119.971	0.234	-0.040
-500.653	-149.896	-0.117	-0.009
-499.639	-84.866	-0.334	0.105
-498.624	800.000	-0.104	-0.314
-497.610	37.313	-0.171	-0.152
-496.595	-200.000	0.009	-0.146
-495.581	-29.350	-0.208	-0.119
-494.566	-122.473	0.166	0.027
-493.551	-200.000	0.009	-0.156
-492.537	-117.617	0.137	0.025
-491.522	667.753	0.108	-0.281
-490.508	7.330	0.344	-0.257
-489.493	-129.373	-0.192	0.027
-488.478	-200.000	-0.013	0.104
-487.464	640.196	-0.050	-0.128
-486.449	800.000	0.025	0.092
-485.435	596.697	-0.098	-0.242
-484.420	800.000	-0.039	-0.124
-483.405	-200.000	0.003	-0.098
-482.391	156.266	-0.266	-0.368
-481.376	800.000	0.037	0.128
-480.362	91.657	0.238	0.267
-479.347	-93.942	-0.194	-0.053
-478.332	-3.799	0.221	0.153
-477.318	294.842	-0.009	-0.016
-476.303	562.138	0.143	-0.347
-475.289	68.613	-0.152	-0.156
-474.274	800.000	0.030	-0.116
-473.259	800.000	-0.042	0.143
-472.245	-197.084	-0.172	0.001
-471.230	800.000	0.072	-0.311
-470.216	-82.034	0.056	-0.018
-469.201	77.751	0.164	-0.175
-468.186	-118.494	0.061	0.011
-467.172	-131.144	0.210	0.028
-466.157	-82.349	-0.160	-0.052
-465.143	132.075	-0.090	0.117
-464.128	-200.000	0.007	-0.195
-463.113	-50.843	-0.158	-0.074
-462.099	99.296	0.126	0.145
-461.084	131.320	-0.055	-0.071
-460.070	-41.785	-0.109	0.056
-459.055	-149.141	-0.407	-0.033
-458.040	-40.916	-0.266	-0.137
-457.026	45.941	0.227	0.210
-456.011	70.402	-0.292	0.302
-454.997	-44.147	0.185	-0.093
-453.982	59.304	-0.388	0.382
-452.968	106.214	-0.141	-0.167
-451.953	-65.096	-0.567	-0.229
-450.938	89.461	-0.128	-0.143
-449.924	237.605	0.254	-0.421
-448.909	800.000	0.078	0.268
-447.895	800.000	-0.090	0.322
-446.880	-63.408	-0.392	-0.161
-445.865	315.044	-0.186	0.351
-444.851	800.000	0.022	-0.067
-443.836	301.302	0.033	0.062
-442.822	-109.507	0.186	-0.039
-441.807	315.701	-0.051	-0.095
-440.792	53.843	-0.204	-0.195
-439.778	-75.049	0.194	0.069
-438.763	-8.703	0.294	0.197
-437.749	-200.000	0.022	0.332
-436.734	163.998	-0.020	-0.028
-435.719	-109.059	-0.117	0.025
-434.705	292.852	0.074	-0.134
-433.690	-18.259	0.207	0.129
-432.676	698.818	-0.086	0.226
-431.661	-200.000	-0.018	-0.256
-430.646	-200.000	-0.034	0.235
-429.632	337.186	0.157	0.305
-428.617	-200.000	-0.014	0.307
-427.603	253.494	0.110	-0.188
-426.588	-146.768	0.295	-0.025
-425.573	-7.046	-0.194	-0.132
-424.559	800.000	0.047	-0.186
-423.544	-200.000	-0.054	-0.359
-422.530	-96.689	-0.199	-0.052
-421.515	-106.711	-0.139	-0.031
-420.500	-200.000	-0.064	0.363
-419.486	751.089	0.049	-0.133
-418.471	-200.000	0.020	-0.241
-417.457	-167.353	0.404	0.016
-416.442	-94.872	-0.266	0.072
-415.428	251.138	0.113	-0.192
-414.413	-37.982	0.128	-0.068
-413.398	9.620	0.158	0.119
-412.384	219.255	0.021	0.033
-411.369	65.998	-0.165	-0.167
-410.355	49.860	0.006	-0.006
-409.340	-139.152	0.163	-0.018
-408.325	-35.618	-0.237	0.128
-407.311	694.972	-0.087	0.228
-406.296	69.014	0.050	-0.051
-405.282	207.118	-0.090	0.139
-404.267	24.963	0.129	-0.106
-403.252	800.000	-0.045	0.136
-402.238	746.706	-0.076	0.204
-401.223	-63.412	0.070	0.029
-400.209	800.000	-0.099	-0.290
-399.194	361.507	-0.135	-0.270
-398.179	66.513	-0.220	-0.224
-397.165	46.387	-0.202	-0.187
-396.150	128.836	0.138	0.175
-395.136	33.947	-0.112	-0.097
-394.121	92.507	0.111	-0.125
-393.106	418.403	-0.124	0.265
-392.092	249.466	-0.028	0.048
-391.077	165.970	0.107	-0.151
-390.063	-70.674	-0.063	-0.024
-389.048	-55.398	0.206	0.092
-388.033	-5.914	-0.233	0.159
-387.019	-200.000	0.033	-0.307
-386.004	-47.970	-0.073	-0.035
-384.990	-100.394	0.507	-0.125
-383.975	-200.000	0.010	0.171
-382.960	65.654	-0.147	0.148
-381.946	-141.111	0.379	0.039
-380.931	-101.981	0.323	0.078
-379.917	224.188	0.090	-0.145
-378.902	800.000	0.073	-0.205
-377.888	-200.000	0.074	0.630
-376.873	800.000	0.062	-0.244
-375.858	39.202	0.154	-0.137
-374.844	106.188	-0.208	-0.245
-373.829	-136.071	0.183	0.021
-372.815	63.263	0.196	-0.196
-371.800	-51.334	-0.297	-0.138
-370.785	-95.671	-0.154	0.041
-369.771	800.000	-0.134	0.428
-368.756	-0.487	-0.097	-0.069
-367.742	15.865	-0.234	-0.184
-366.727	285.051	-0.196	-0.352
-365.712	800.000	-0.062	-0.191
-364.698	29.365	0.141	0.119
-363.683	579.525	-0.146	0.357
-362.669	800.000	-0.079	0.221
-361.654	161.949	0.083	-0.116
-360.639	-159.093	0.204	0.011
-359.625	731.584	0.098	-0.261
-358.610	36.900	-0.157	0.138
-357.596	-189.097	0.178	0.002
-356.581	800.000	-0.140	-0.451
-355.566	136.662	-0.181	0.236
-354.552	-200.000	0.053	0.403
-353.537	-63.600	0.152	0.062
-352.523	-121.844	-0.169	-0.028
-351.508	509.295	0.156	0.361
-350.493	382.780	0.158	0.323
-349.479	-192.670	0.108	-0.001
-348.464	-18.820	0.225	0.140
-347.450	-59.335	0.169	0.072
-346.435	41.551	-0.302	-0.273
-345.420	8.262	-0.049	-0.037
-344.406	-200.000	-0.039	0.224
-343.391	800.000	-0.125	-0.349
-342.377	-200.000	-0.038	-0.569
-341.362	273.743	0.161	0.284
-340.348	-121.370	0.457	0.076
-339.333	-200.000	-0.028	0.276
-338.318	-112.796	-0.280	0.055
-337.304	399.816	0.053	-0.110
-336.289	197.061	0.159	-0.242
-335.275	-84.838	-0.243	-0.076
-334.260	-134.990	-0.143	-0.017
-333.245	800.000	0.051	-0.204
-332.231	240.554	-0.196	-0.325
-331.216	504.179	0.045	0.103
-330.202	10.388	0.114	0.086
-329.187	189.321	-0.230	-0.343
-328.172	800.000	-0.085	-0.351
-327.158	509.732	0.143	0.332
-326.143	145.959	0.126	-0.168
-325.129	32.596	0.089	0.076
-324.114	-130.234	-0.170	0.023
-323.099	174.545	0.101	0.145
-322.085	800.000	0.121	0.337
-321.070	14.023	0.133	-0.103
-320.056	-46.773	0.028	-0.014
-319.041	25.681	0.064	0.053
-318.026	-200.000	0.062	0.325
-317.012	33.336	0.136	0.118
-315.997	800.000	-0.085	-0.262
-314.983	-30.823	-0.357	-0.201
-313.968	-68.603	-0.175	-0.067
-312.953	27.870	-0.247	-0.207
-311.939	-84.202	0.035	0.011
-310.924	51.024	0.216	0.204
-309.910	-122.876	-0.216	-0.035
-308.895	458.264	0.127	0.280
-307.880	119.934	-0.205	0.253
-306.866	-108.426	0.076	-0.016
-305.851	-200.000	-0.006	-0.071
-304.837	40.316	-0.088	0.078
-303.822	-92.914	0.269	-0.075
-302.807	607.247	0.119	0.295
-301.793	403.955	-0.016	0.033
-300.778	59.128	-0.346	0.338
-299.764	-200.000	-0.040	0.233
-298.749	-200.000	-0.009	-0.070
-297.735	-200.000	-0.007	-0.039
-296.720	-13.013	0.213	0.138
-295.705	-200.000	-0.025	-0.219
-294.691	-117.265	0.161	0.029
-293.676	123.168	0.238	0.296
-292.662	16.553	0.209	0.164
-291.647	-196.077	-0.223	0.002
-290.632	486.721	-0.071	0.161
-289.618	-27.009	0.296	-0.172
-288.603	-31.228	0.236	-0.132
-287.589	-34.204	-0.158	0.086
-286.574	162.360	-0.159	-0.222
-285.559	-92.973	-0.173	-0.048
-284.545	-24.171	-0.115	-0.068
-283.530	800.000	0.104	0.374
-282.516	800.000	-0.092	0.266
-281.501	219.411	-0.213	0.338
-280.486	-73.603	-0.182	-0.066
-279.472	572.843	0.222	-0.537
-278.457	800.000	-0.042	-0.155
-277.443	145.999	0.130	0.173
-276.428	-143.867	0.189	0.018
-275.413	-16.238	-0.282	-0.178
-274.399	261.631	-0.066	-0.114
-273.384	-200.000	-0.004	0.367
-272.370	-102.483	0.198	0.047
-271.355	-116.691	-0.055	0.010
-270.340	-99.159	-0.101	-0.025
-269.326	-32.858	-0.248	0.137
-268.311	-71.909	0.196	0.072
-267.297	57.314	0.065	0.063
-266.282	-11.215	-0.228	-0.149
-265.267	62.673	-0.137	-0.136
-264.253	800.000	0.075	0.243
-263.238	800.000	0.050	-0.211
-262.224	-118.316	0.212	-0.037
-261.209	-200.000	-0.033	0.201
-260.195	-147.881	-0.060	-0.005
-259.180	-56.756	0.234	0.103
-258.165	-92.796	0.215	-0.060
-257.151	-123.234	-0.244	-0.039
-256.136	142.790	-0.122	-0.161
-255.122	-19.992	0.152	0.093
-254.107	-92.844	-0.171	0.047
-253.092	-15.878	0.086	0.054
-252.078	321.844	-0.022	-0.042
-251.063	-14.033	0.106	0.068
-250.049	-91.744	0.154	0.043
-249.034	40.812	-0.141	0.126
-248.019	54.286	0.171	-0.164
-247.005	249.841	-0.064	-0.108
-245.990	172.207	-0.090	0.128
-244.976	-22.165	0.134	0.080
-243.961	-84.189	-0.208	-0.065
-242.946	355.261	-0.108	0.214
-241.932	147.326	-0.149	0.199
-240.917	-200.000	0.014	-0.205
-239.903	-58.814	-0.074	-0.032
-238.888	-39.086	0.281	0.147
-237.873	261.690	0.186	-0.319
-236.859	82.737	0.157	0.169
-235.844	-200.000	-0.006	-0.218
-234.830	-93.885	0.183	0.050
-233.815	-200.000	0.051	0.285
-232.800	11.346	0.210	0.159
-231.786	226.147	0.046	-0.073
-230.771	-200.000	0.033	-0.199
-229.757	-73.287	-0.059	0.022
-228.742	-200.000	0.007	0.105
-227.727	-55.238	0.044	0.020
-226.713	-200.000	-0.025	0.122
-225.698	800.000	-0.125	0.426
-224.684	-45.304	0.172	0.085
-223.669	-111.155	0.270	-0.055
-222.655	-91.312	-0.324	0.092
-221.640	-200.000	0.003	-0.155
-220.625	726.478	0.059	0.155
-219.611	-76.017	0.105	0.037
-218.596	47.896	-0.235	0.217
-217.582	72.376	0.176	0.182
-216.567	-200.000	-0.030	0.161
-215.552	-70.891	-0.389	-0.145
-214.538	4.321	-0.010	-0.007
-213.523	19.324	0.129	-0.102
-212.509	58.345	-0.228	-0.221
-211.494	-200.000	-0.006	0.107
-210.479	44.939	0.417	0.381
-209.465	39.069	0.061	0.054
-208.450	167.139	-0.219	-0.307
-207.436	175.575	0.174	-0.250
-206.421	-58.568	0.321	0.138
-205.406	10.022	-0.355	0.267
-204.392	147.456	-0.222	0.296
-203.377	-79.321	0.048	-0.016
-202.363	800.000	0.037	-0.101
-201.348	-200.000	0.023	-0.386
-200.333	800.000	0.084	-0.313
-199.319	-104.865	0.113	-0.026
-198.304	-107.211	0.121	0.026
-197.290	-76.714	-0.351	-0.122
-196.275	192.263	-0.019	0.028
-195.260	477.948	-0.075	0.167
-194.246	7.079	0.357	-0.263
-193.231	-200.000	0.011	-0.284
-192.217	-41.352	-0.292	-0.149
-191.202	800.000	0.013	-0.041
-190.187	77.024	0.089	-0.093
-189.173	-200.000	0.016	0.228
-188.158	-128.840	-0.359	-0.050
-187.144	-26.099	-0.070	-0.040
-186.129	-200.000	-0.015	-0.260
-185.114	800.000	0.038	0.110
-184.100	278.376	0.113	0.199
-183.085	19.789	0.028	-0.022
-182.071	-112.974	-0.333	-0.065
-181.056	395.597	-0.089	-0.184
-180.042	571.452	0.093	0.224
-179.027	800.000	0.033	-0.109
-178.012	-65.578	-0.189	0.075
-176.998	-200.000	-0.045	-0.198
-175.983	800.000	0.027	-0.082
-174.969	-200.000	0.048	-0.212
-173.954	-53.613	0.157	-0.071
-172.939	-200.000	-0.015	0.276
-171.925	93.206	-0.115	-0.129
-170.910	42.862	-0.200	0.180
-169.896	800.000	-0.039	0.164
-168.881	-78.589	0.093	0.031
-167.866	145.891	-0.111	-0.147
-166.852	220.825	-0.155	0.246
-165.837	800.000	-0.023	-0.075
-164.823	-91.481	0.173	0.049
-163.808	-89.529	0.234	0.068
-162.793	394.214	-0.066	-0.135
-161.779	30.367	0.210	-0.177
-160.764	128.713	-0.237	0.299
-159.750	-74.801	-0.149	0.053
-158.735	800.000	-0.022	-0.062
-157.720	-200.000	0.008	-0.264
-156.706	800.000	0.054	0.169
-155.691	113.405	-0.173	-0.207
-154.677	-109.065	-0.162	0.034
-153.662	-89.017	-0.124	-0.036
-152.647	-200.000	-0.009	0.250
-151.633	-200.000	-0.003	-0.091
-150.618	-143.072	0.196	0.019
-149.604	-109.035	0.436	-0.092
-148.589	-0.656	-0.101	0.071
-147.574	-47.332	0.316	-0.152
-146.560	-200.000	-0.016	0.150
-145.545	-71.491	-0.068	-0.025
-144.531	-42.081	-0.189	-0.095
-143.516	-200.000	0.011	-0.240
-142.502	-177.815	-0.279	-0.007
-141.487	-200.000	0.030	0.218
-140.472	-132.031	-0.323	-0.041
-139.458	-200.000	0.020	-0.376
-138.443	-127.187	0.056	0.008
-137.429	-149.940	-0.074	0.006
-136.414	89.651	0.052	-0.057
-135.399	-81.311	0.228	0.074
-134.385	-48.008	0.319	0.152
-133.370	344.028	0.092	0.178
-132.356	107.540	0.195	-0.229
-131.341	-93.217	-0.330	-0.090
-130.326	213.372	-0.079	0.123
-129.312	-14.868	-0.088	-0.055
-128.297	288.603	0.092	-0.164
-127.283	206.168	0.074	-0.114
-126.268	-61.580	0.206	0.086
-125.253	-51.350	0.313	0.145
-124.239	-37.066	-0.289	0.153
-123.224	-72.935	0.181	-0.066
-122.210	800.000	-0.016	0.059
-121.195	41.049	-0.022	0.020
