DTS Sentinel unit serial number:	SN413079Multiplexer serial number:	ORYXHardware model number:	OX4-SRSoftware version number:	ORYX F/W v4.00 Oryx Data Collector v3.7.2.0data status	okinstallation	princeton_trtdifferential loss correction	single-endedforward channel	channel 3reverse channel	N/Adate	2019/09/17time	17:20:34forward acquisition time	60.00reverse acquisition time	0.00gamma	496.2192k internal	0.2290k external	0.2290temperature offset calibration	0.9951default loss term (dB/km)	0.3790temperature slope calibration	1.0000multiplexer offset coefficient	1.0000multiplexer slope coefficient	1.0000fibre end	0.00T internal ref (°C)	43.00T ext. ref 1 (°C)	0.35T ext. ref 2 (°C)	38.91length (m)	temperature (°C)	Stokes	anti-Stokes-747.200	-200.000	0.033	-0.318
-746.185	-200.000	-0.066	0.351
-745.171	5.818	-0.215	0.163
-744.156	800.000	0.102	0.309
-743.142	-130.093	0.279	0.039
-742.127	192.290	0.151	-0.234
-741.112	49.970	-0.098	0.095
-740.098	55.738	-0.325	0.322
-739.083	56.244	0.085	0.085
-738.069	-113.068	-0.255	-0.052
-737.054	-148.621	0.338	-0.028
-736.039	-88.991	-0.186	0.056
-735.025	-63.801	0.345	0.145
-734.010	-86.028	-0.393	-0.124
-732.996	-99.566	-0.417	-0.107
-731.981	20.440	-0.187	0.155
-730.966	-62.313	0.351	-0.150
-729.952	-200.000	-0.044	-0.200
-728.937	800.000	0.039	0.153
-727.923	31.610	-0.167	-0.147
-726.908	-133.333	-0.224	0.029
-725.894	-200.000	-0.006	-0.255
-724.879	115.704	0.104	0.130
-723.864	-148.143	0.170	0.014
-722.850	51.241	-0.241	0.234
-721.835	-200.000	-0.064	0.374
-720.821	179.012	-0.129	0.192
-719.806	-50.906	-0.203	0.097
-718.791	-131.537	-0.296	-0.040
-717.777	800.000	-0.050	-0.155
-716.762	-53.552	0.224	-0.105
-715.748	-200.000	0.003	0.035
-714.733	800.000	0.090	-0.300
-713.718	33.652	-0.045	-0.040
-712.704	-148.900	-0.323	0.027
-711.689	-200.000	-0.010	-0.543
-710.675	0.015	-0.249	-0.182
-709.660	800.000	-0.082	-0.291
-708.645	-71.530	0.212	-0.081
-707.631	800.000	-0.052	-0.162
-706.616	78.467	0.048	-0.053
-705.602	-200.000	-0.003	0.169
-704.587	78.939	-0.103	-0.113
-703.572	138.144	-0.121	-0.163
-702.558	-143.964	-0.236	0.023
-701.543	24.686	-0.256	-0.217
-700.529	-58.232	0.258	-0.115
-699.514	216.960	-0.174	0.283
-698.499	800.000	0.038	-0.159
-697.485	341.498	-0.091	0.182
-696.470	800.000	-0.022	-0.080
-695.456	-42.305	0.145	-0.076
-694.441	-48.982	-0.305	0.149
-693.426	57.346	-0.135	-0.135
-692.412	-200.000	-0.006	-0.113
-691.397	785.263	-0.092	0.257
-690.383	-160.723	-0.585	0.032
-689.368	52.601	-0.212	-0.207
-688.354	-200.000	0.027	-0.190
-687.339	800.000	-0.040	-0.124
-686.324	-200.000	0.021	-0.270
-685.310	275.557	-0.138	-0.251
-684.295	-102.285	-0.039	-0.010
-683.281	12.350	-0.101	0.079
-682.266	-200.000	0.032	-0.181
-681.251	800.000	-0.062	-0.276
-680.237	-200.000	-0.065	0.429
-679.222	7.324	0.128	0.098
-678.208	83.828	0.237	-0.265
-677.193	-113.846	-0.433	-0.086
-676.178	-200.000	-0.003	0.112
-675.164	800.000	0.068	-0.278
-674.149	-78.708	0.226	0.079
-673.135	-116.470	0.315	-0.059
-672.120	735.935	-0.131	0.360
-671.105	-200.000	0.026	-0.279
-670.091	-42.170	0.451	-0.236
-669.076	-9.573	0.055	0.037
-668.062	-200.000	0.020	-0.248
-667.047	342.333	0.234	0.468
-666.032	36.380	-0.136	0.123
-665.018	82.671	-0.238	0.264
-664.003	31.705	0.149	-0.131
-662.989	166.698	-0.110	0.159
-661.974	800.000	0.043	-0.139
-660.959	173.708	0.045	0.066
-659.945	-39.953	0.152	-0.081
-658.930	9.364	-0.230	-0.178
-657.916	354.714	0.092	-0.187
-656.901	-32.536	-0.055	0.031
-655.886	-74.832	0.198	-0.073
-654.872	-89.745	-0.305	-0.091
-653.857	78.140	0.014	-0.015
-652.843	800.000	-0.079	-0.229
-651.828	-120.582	0.206	-0.036
-650.814	-114.433	-0.320	0.063
-649.799	627.778	-0.071	0.183
-648.784	-35.870	0.129	0.071
-647.770	800.000	0.040	0.159
-646.755	52.141	0.306	0.298
-645.741	-191.121	-0.252	0.003
-644.726	-200.000	0.005	-0.052
-643.711	-170.528	0.301	-0.011
-642.697	-96.498	-0.249	0.067
-641.682	-116.078	0.080	0.015
-640.668	-200.000	0.021	-0.096
-639.653	-154.111	-0.174	-0.012
-638.638	79.890	-0.151	0.165
-637.624	-55.362	0.222	0.102
-636.609	800.000	0.096	0.381
-635.595	355.999	0.082	0.167
-634.580	-17.293	0.331	-0.213
-633.565	-200.000	0.006	0.375
-632.551	-117.637	-0.195	-0.036
-631.536	-129.551	-0.309	0.044
-630.522	84.233	-0.116	0.130
-629.507	66.958	0.222	0.230
-628.492	-200.000	-0.027	-0.179
-627.478	-200.000	-0.032	-0.318
-626.463	335.339	0.086	0.171
-625.449	-200.000	0.021	0.143
-624.434	41.590	0.128	0.119
-623.419	-200.000	0.011	-0.309
-622.405	-105.495	0.132	0.031
-621.390	-6.164	-0.337	-0.235
-620.376	-200.000	0.027	-0.202
-619.361	-146.314	-0.163	0.015
-618.346	800.000	0.064	0.239
-617.332	-149.202	-0.331	0.027
-616.317	-200.000	0.006	-0.085
-615.303	116.214	0.215	0.269
-614.288	535.540	0.100	0.241
-613.273	-200.000	0.040	0.261
-612.259	-108.190	0.293	0.065
-611.244	143.692	-0.080	0.109
-610.230	-98.180	-0.253	0.066
-609.215	800.000	0.055	0.220
-608.201	298.383	-0.072	0.134
-607.186	178.860	0.143	-0.213
-606.171	-88.014	-0.109	-0.033
-605.157	800.000	0.102	0.342
-604.142	-58.579	0.281	-0.124
-603.128	144.683	0.154	0.210
-602.113	-28.665	0.157	-0.092
-601.098	258.640	-0.239	-0.420
-600.084	80.400	-0.239	0.262
-599.069	-40.953	-0.254	0.134
-598.055	-200.000	-0.053	0.404
-597.040	800.000	-0.074	-0.327
-596.025	72.759	0.153	-0.162
-595.011	495.788	-0.074	-0.173
-593.996	-28.051	-0.203	0.120
-592.982	-8.540	0.387	-0.265
-591.967	154.939	-0.240	0.336
-590.952	-181.616	-0.142	0.003
-589.938	505.021	-0.111	0.261
-588.923	64.719	0.191	0.196
-587.909	184.446	-0.027	0.041
-586.894	-79.367	-0.208	0.072
-585.879	163.985	0.123	-0.176
-584.865	406.486	0.115	0.248
-583.850	-107.140	-0.429	-0.096
-582.836	151.032	-0.077	0.107
-581.821	11.373	-0.225	-0.175
-580.806	172.311	-0.174	-0.255
-579.792	-138.092	0.133	-0.015
-578.777	-200.000	-0.008	-0.118
-577.763	-147.318	-0.231	0.020
-576.748	-200.000	-0.032	-0.154
-575.733	-92.170	-0.120	-0.034
-574.719	800.000	-0.042	0.151
-573.704	172.902	0.124	-0.182
-572.690	-72.574	-0.218	0.082
-571.675	-200.000	-0.048	-0.285
-570.661	209.078	0.150	0.239
-569.646	-14.966	0.093	0.060
-568.631	-200.000	-0.000	-0.029
-567.617	220.209	0.062	0.101
-566.602	-200.000	0.005	-0.584
-565.588	-20.025	-0.212	0.133
-564.573	219.025	-0.253	0.411
-563.558	14.834	0.135	0.107
-562.544	-25.878	0.166	0.099
-561.529	121.302	0.140	0.178
-560.515	-111.766	0.139	-0.029
-559.500	800.000	0.030	0.109
-558.485	800.000	0.075	0.231
-557.471	446.121	0.133	-0.298
-556.456	-66.205	0.231	-0.094
-555.442	-200.000	0.057	0.504
-554.427	5.390	0.169	0.126
-553.412	800.000	0.023	-0.083
-552.398	768.287	-0.117	0.325
-551.383	-82.900	-0.137	-0.045
-550.369	800.000	0.106	-0.362
-549.354	6.152	-0.189	-0.142
-548.339	-65.756	-0.239	0.097
-547.325	458.341	0.055	-0.123
-546.310	483.302	0.135	0.313
-545.296	-77.742	-0.438	-0.154
-544.281	-156.383	-0.161	-0.010
-543.266	176.775	-0.232	-0.343
-542.252	-53.817	-0.229	0.106
-541.237	127.487	0.043	-0.055
-540.223	-62.074	-0.016	0.007
-539.208	-21.678	-0.181	0.112
-538.193	-105.014	0.050	-0.012
-537.179	-69.904	0.293	0.114
-536.164	-8.861	-0.266	0.181
-535.150	-51.252	-0.225	-0.107
-534.135	218.468	0.117	0.190
-533.121	-90.142	0.283	0.084
-532.106	80.940	-0.155	-0.170
-531.091	-32.828	0.072	0.040
-530.077	-145.375	-0.210	0.019
-529.062	206.666	-0.155	-0.246
-528.048	26.657	0.149	-0.127
-527.033	-200.000	-0.071	-0.326
-526.018	406.442	0.042	0.091
-525.004	-200.000	-0.025	0.147
-523.989	-93.255	0.173	0.049
-522.975	-60.110	0.155	-0.067
-521.960	265.909	-0.246	-0.436
-520.945	-11.863	-0.287	-0.191
-519.931	220.435	0.082	-0.133
-518.916	-200.000	-0.019	0.106
-517.902	-200.000	0.010	-0.379
-516.887	-200.000	-0.035	0.350
-515.872	-0.769	-0.055	-0.040
-514.858	72.774	-0.223	0.236
-513.843	21.594	-0.050	-0.041
-512.829	-144.597	0.220	-0.021
-511.814	-8.982	0.149	-0.101
-510.799	55.438	0.110	-0.108
-509.785	-67.951	0.181	-0.072
-508.770	-165.423	0.421	-0.019
-507.756	-58.475	-0.048	0.021
-506.741	79.015	0.059	0.064
-505.726	2.733	0.163	-0.120
-504.712	-179.017	0.083	0.002
-503.697	800.000	0.054	-0.211
-502.683	-62.579	-0.024	-0.010
-501.668	-114.140	-0.052	0.010
-500.653	-148.355	0.219	-0.018
-499.639	-41.660	0.126	0.066
-498.624	-23.196	-0.183	0.112
-497.610	800.000	0.023	-0.081
-496.595	325.241	0.130	0.251
-495.581	800.000	0.081	0.327
-494.566	38.041	-0.261	-0.235
-493.551	460.317	0.070	0.158
-492.537	82.949	0.050	-0.055
-491.522	527.672	0.019	-0.046
-490.508	49.256	-0.074	0.070
-489.493	-91.198	0.260	0.075
-488.478	197.378	0.090	0.139
-487.464	-200.000	-0.003	-0.283
-486.449	104.083	0.183	-0.219
-485.435	765.840	-0.080	0.221
-484.420	366.332	0.153	0.312
-483.405	-74.179	-0.274	-0.100
-482.391	-113.625	-0.257	-0.051
-481.376	-200.000	-0.010	0.065
-480.362	-200.000	-0.014	0.130
-479.347	-163.893	0.341	0.016
-478.332	800.000	-0.118	-0.451
-477.318	-41.781	-0.272	-0.141
-476.303	-46.764	-0.412	0.205
-475.289	712.512	-0.098	0.264
-474.274	-52.496	-0.173	0.081
-473.259	-200.000	-0.036	-0.304
-472.245	-183.092	-0.315	-0.006
-471.230	774.599	0.054	0.148
-470.216	-200.000	-0.024	-0.108
-469.201	-37.710	-0.215	-0.116
-468.186	0.971	0.083	0.060
-467.172	800.000	-0.052	-0.210
-466.157	800.000	-0.046	-0.188
-465.143	43.494	0.118	-0.110
-464.128	191.821	-0.081	-0.124
-463.113	21.812	-0.198	0.164
-462.099	-97.438	0.268	0.071
-461.084	-81.807	0.230	-0.076
-460.070	8.888	-0.104	0.079
-459.055	-134.553	-0.071	0.009
-458.040	-120.392	0.336	-0.058
-457.026	-200.000	-0.012	-0.207
-456.011	-123.331	0.096	-0.015
-454.997	163.645	-0.202	-0.288
-453.982	800.000	0.087	0.291
-452.968	-160.650	-0.074	0.004
-451.953	-41.393	0.208	0.109
-450.938	4.339	-0.204	0.152
-449.924	-170.032	-0.062	-0.002
-448.909	-84.663	-0.064	0.020
-447.895	-200.000	0.003	-0.031
-446.880	800.000	-0.062	0.208
-445.865	-66.176	0.107	-0.043
-444.851	259.777	0.026	0.045
-443.836	-200.000	-0.040	-0.198
-442.822	7.972	0.270	-0.205
-441.807	-125.344	-0.046	-0.007
-440.792	-114.788	-0.201	-0.039
-439.778	-94.566	-0.212	-0.058
-438.763	40.841	-0.106	0.097
-437.749	-37.934	0.183	0.098
-436.734	-121.683	-0.261	0.044
-435.719	63.005	0.055	-0.056
-434.705	-25.399	-0.098	-0.059
-433.690	-8.133	-0.377	0.257
-432.676	-200.000	-0.022	-0.318
-431.661	-200.000	0.015	-0.124
-430.646	261.899	0.071	-0.125
-429.632	-44.013	-0.199	0.101
-428.617	-45.426	-0.071	0.036
-427.603	-200.000	-0.020	-0.087
-426.588	49.569	0.128	0.122
-425.573	-200.000	-0.033	-0.190
-424.559	-60.234	0.095	-0.041
-423.544	67.028	0.119	0.122
-422.530	-93.983	-0.143	-0.040
-421.515	325.374	-0.019	-0.037
-420.500	-200.000	-0.001	0.104
-419.486	19.941	-0.220	-0.179
-418.471	118.195	0.058	0.072
-417.457	800.000	-0.049	-0.202
-416.442	-200.000	-0.087	-0.506
-415.428	374.300	-0.038	0.078
-414.413	-200.000	-0.012	-0.291
-413.398	-50.591	0.068	0.033
-412.384	117.980	0.106	0.132
-411.369	-107.234	-0.146	0.032
-410.355	-135.107	0.088	0.011
-409.340	-200.000	-0.020	0.169
-408.325	-133.249	-0.242	-0.031
-407.311	300.241	-0.105	-0.195
-406.296	-200.000	0.059	-0.308
-405.282	-95.885	0.168	-0.045
-404.267	-200.000	-0.013	0.345
-403.252	181.391	-0.022	0.032
-402.238	356.835	-0.095	0.192
-401.223	173.670	-0.119	-0.174
-400.209	102.675	0.069	0.082
-399.194	-200.000	0.038	0.198
-398.179	-200.000	0.016	-0.169
-397.165	-200.000	0.007	0.126
-396.150	-200.000	-0.013	-0.102
-395.136	-200.000	0.009	0.132
-394.121	800.000	-0.066	0.209
-393.106	800.000	0.033	0.111
-392.092	800.000	0.015	0.046
-391.077	-200.000	-0.059	-0.373
-390.063	317.875	-0.176	0.337
-389.048	-147.859	0.232	-0.020
-388.033	-130.773	-0.409	0.055
-387.019	29.394	0.127	-0.109
-386.004	-116.271	-0.231	0.043
-384.990	-125.035	0.092	0.014
-383.975	-3.225	-0.071	-0.050
-382.960	-25.276	0.131	-0.078
-381.946	-178.121	-0.212	-0.005
-380.931	644.554	0.061	-0.157
-379.917	287.954	0.100	0.183
-378.902	7.560	-0.161	0.122
-377.888	18.928	-0.131	-0.106
-376.873	-72.702	-0.146	-0.054
-375.858	253.019	-0.073	0.125
-374.844	-155.543	0.230	0.015
-373.829	257.955	-0.165	-0.287
-372.815	63.819	-0.268	-0.272
-371.800	-82.959	-0.317	0.103
-370.785	470.026	0.214	0.485
-369.771	451.325	0.094	-0.211
-368.756	-101.545	-0.033	-0.008
-367.742	196.586	0.110	0.169
-366.727	37.889	0.064	0.057
-365.712	800.000	-0.039	-0.122
-364.698	-181.514	-0.107	-0.002
-363.683	37.286	-0.255	-0.228
-362.669	271.407	0.142	-0.252
-361.654	174.584	0.241	0.352
-360.639	-154.906	-0.466	-0.031
-359.625	-101.410	0.445	0.109
-358.610	-200.000	-0.012	0.166
-357.596	-143.987	-0.102	-0.010
-356.581	-81.458	0.191	-0.063
-355.566	-116.853	0.065	-0.012
-354.552	52.692	0.084	0.081
-353.537	-151.118	0.109	0.008
-352.523	-15.338	0.102	0.066
-351.508	-74.637	0.104	-0.038
-350.493	-163.647	0.234	-0.011
-349.479	-154.636	0.119	0.008
-348.464	290.186	0.163	-0.299
-347.450	800.000	0.053	0.150
-346.435	491.956	0.056	0.129
-345.420	-200.000	0.030	-0.264
-344.406	26.833	0.294	0.249
-343.391	282.847	0.100	0.181
-342.377	56.496	0.249	0.244
-341.362	-181.504	-0.143	0.003
-340.348	58.302	-0.246	-0.243
-339.333	382.235	0.099	0.206
-338.318	-63.889	-0.160	0.066
-337.304	535.422	-0.092	-0.219
-336.289	-97.426	-0.062	0.016
-335.275	-114.883	0.260	0.050
-334.260	-129.716	-0.148	-0.020
-333.245	-183.638	-0.214	0.004
-332.231	-112.464	0.042	0.008
-331.216	800.000	0.077	0.218
-330.202	480.809	0.133	0.304
-329.187	800.000	-0.068	0.285
-328.172	-93.567	-0.366	-0.102
-327.158	-24.635	-0.008	-0.005
-326.143	-200.000	-0.029	0.405
-325.129	-74.252	0.337	-0.123
-324.114	-200.000	-0.048	0.282
-323.099	-79.413	-0.164	-0.056
-322.085	18.545	-0.155	-0.125
-321.070	-88.438	0.241	-0.072
-320.056	68.633	-0.182	-0.188
-319.041	-71.716	0.017	0.007
-318.026	-200.000	0.017	-0.287
-317.012	617.611	0.217	0.549
-315.997	-86.357	-0.196	-0.061
-314.983	659.107	0.126	-0.327
-313.968	-32.368	-0.236	-0.133
-312.953	800.000	0.110	0.314
-311.939	-26.540	0.181	-0.107
-310.924	149.194	-0.066	0.091
-309.910	221.256	0.011	0.019
-308.895	242.841	-0.129	0.218
-307.880	123.182	-0.059	-0.074
-306.866	67.862	0.125	0.129
-305.851	-83.618	0.403	-0.130
-304.837	-158.162	-0.295	-0.017
-303.822	207.961	0.234	0.368
-302.807	-27.955	0.224	0.131
-301.793	-200.000	0.013	0.172
-300.778	-95.695	0.154	0.041
-299.764	426.140	-0.115	-0.249
-298.749	-183.085	0.174	0.003
-297.735	-55.503	-0.256	-0.116
-296.720	258.076	-0.051	-0.088
-295.705	212.127	-0.144	-0.228
-294.691	-200.000	0.003	-0.147
-293.676	-3.687	-0.050	-0.035
-292.662	-61.685	0.184	-0.078
-291.647	-88.421	0.218	-0.065
-290.632	-200.000	0.008	-0.149
-289.618	-200.000	-0.008	0.260
-288.603	-200.000	0.009	-0.149
-287.589	-23.801	0.103	-0.062
-286.574	-176.438	0.205	-0.005
-285.559	800.000	0.046	0.177
-284.545	800.000	0.027	-0.100
-283.530	1.796	-0.159	0.115
-282.516	326.366	-0.051	-0.099
-281.501	423.297	0.058	0.126
-280.486	800.000	-0.078	-0.265
-279.472	-43.873	0.110	-0.056
-278.457	-200.000	0.056	0.445
-277.443	296.539	-0.080	0.148
-276.428	-118.184	-0.193	-0.035
-275.413	309.622	-0.115	-0.217
-274.399	-125.820	-0.378	-0.057
-273.384	88.637	0.107	-0.119
-272.370	-200.000	0.001	0.008
-271.355	-73.801	0.339	0.124
-270.340	100.241	0.091	0.106
-269.326	151.825	0.194	-0.266
-268.311	354.205	-0.019	-0.037
-267.297	-194.383	0.461	-0.004
-266.282	-92.011	-0.113	-0.032
-265.267	-114.118	-0.257	0.050
-264.253	36.854	0.273	0.243
-263.238	-200.000	0.008	-0.094
-262.224	800.000	0.080	0.261
-261.209	134.044	-0.154	-0.200
-260.195	-18.794	0.238	0.149
-259.180	-63.015	-0.098	-0.041
-258.165	-168.639	0.066	0.003
-257.151	65.791	-0.082	-0.084
-256.136	-51.623	0.209	0.098
-255.122	800.000	-0.033	-0.136
-254.107	800.000	0.091	-0.280
-253.092	-36.765	0.174	-0.094
-252.078	-145.182	-0.045	0.004
-251.063	147.740	0.237	-0.321
-250.049	-80.576	-0.112	-0.037
-249.034	800.000	-0.064	-0.255
-248.019	-64.868	-0.033	0.013
-247.005	-103.404	-0.113	0.027
-245.990	-124.961	-0.199	0.031
-244.976	33.516	0.157	-0.137
-243.961	-99.690	-0.198	-0.050
-242.946	-47.563	-0.350	0.171
-241.932	122.617	-0.038	-0.048
-240.917	601.694	-0.108	-0.270
-239.903	-57.963	0.057	0.025
-238.888	-80.355	-0.081	0.027
-237.873	-200.000	0.036	0.372
-236.859	428.042	0.078	-0.170
-235.844	192.054	-0.101	-0.153
-234.830	97.131	-0.027	-0.031
-233.815	155.314	0.104	-0.143
-232.800	54.470	-0.090	-0.087
-231.786	-32.822	0.130	0.073
-230.771	-62.679	0.086	0.036
-229.757	-200.000	-0.021	0.150
-228.742	800.000	-0.140	0.524
-227.727	-200.000	0.017	0.090
-226.713	17.726	0.044	-0.035
-225.698	800.000	0.063	-0.203
-224.684	267.474	0.045	0.080
-223.669	-185.660	0.342	0.005
-222.655	37.980	0.050	0.045
-221.640	-80.440	-0.064	-0.022
-220.625	191.810	0.087	-0.132
-219.611	-173.164	-0.057	0.002
-218.596	455.279	0.103	0.229
-217.582	260.328	0.098	-0.169
-216.567	328.626	0.128	-0.246
-215.552	-160.645	0.250	-0.013
-214.538	-200.000	0.046	-0.320
-213.523	-200.000	-0.073	-0.510
-212.509	644.103	-0.059	0.151
-211.494	-200.000	-0.032	0.571
-210.479	-200.000	0.018	0.176
-209.465	772.778	-0.084	0.231
-208.450	-98.305	0.210	-0.054
-207.436	27.678	0.102	0.086
-206.421	-61.584	0.268	0.113
-205.406	162.117	0.083	-0.117
-204.392	800.000	-0.034	-0.120
-203.377	-67.933	0.191	-0.075
-202.363	-63.561	0.145	0.060
-201.348	-183.422	0.025	0.000
-200.333	220.580	-0.110	0.177
-199.319	-92.764	0.215	0.060
-198.304	-170.078	0.182	0.006
-197.290	-200.000	0.077	-0.355
-196.275	331.291	-0.217	0.420
-195.260	-25.666	-0.194	-0.115
-194.246	157.705	-0.199	-0.277
-193.231	60.644	-0.120	0.119
-192.217	41.897	-0.101	-0.092
-191.202	-58.773	-0.192	-0.083
-190.187	483.393	0.043	-0.098
-189.173	45.861	0.327	-0.303
-188.158	176.309	0.347	-0.505
-187.144	-82.324	-0.313	-0.102
-186.129	574.833	0.089	-0.218
-185.114	-100.114	0.386	-0.096
-184.100	314.246	0.003	0.006
-183.085	19.898	0.032	0.026
-182.071	124.431	0.060	-0.075
-181.056	157.257	0.165	-0.229
-180.042	-6.906	0.160	0.109
-179.027	-200.000	0.008	-0.205
-178.012	-14.669	0.032	0.021
-176.998	-200.000	-0.008	0.082
-175.983	-65.056	-0.223	0.090
-174.969	-21.214	-0.212	0.130
-173.954	0.910	0.138	0.099
-172.939	-200.000	0.042	-0.423
-171.925	56.050	-0.265	-0.258
-170.910	700.251	-0.139	-0.366
-169.896	93.323	0.160	0.181
-168.881	800.000	-0.039	0.136
-167.866	71.935	0.151	0.157
-166.852	-200.000	0.005	0.235
-165.837	-45.509	-0.255	0.126
-164.823	800.000	-0.035	0.109
-163.808	550.083	-0.116	0.278
-162.793	-200.000	-0.005	-0.054
-161.779	78.725	-0.172	-0.184
-160.764	-72.290	0.339	0.126
-159.750	-200.000	0.058	-0.382
-158.735	-19.880	0.317	-0.196
-157.720	-157.559	0.331	0.020
-156.706	-88.403	-0.098	-0.029
-155.691	-200.000	-0.004	-0.281
-154.677	128.659	-0.024	-0.030
-153.662	-200.000	0.125	0.592
-152.647	-74.361	-0.312	-0.113
-151.633	-37.508	-0.217	-0.116
-150.618	-36.013	-0.093	0.050
-149.604	-14.300	0.152	0.098
-148.589	148.709	0.078	0.106
-147.574	-159.068	0.151	0.009
-146.560	-124.032	-0.504	0.079
-145.545	85.303	0.289	0.317
-144.531	282.316	-0.177	0.318
-143.516	-45.978	-0.139	0.069
-142.502	56.354	-0.060	-0.058
-141.487	-90.845	-0.084	0.024
-140.472	113.501	0.131	-0.160
-139.458	85.531	0.112	-0.123
-138.443	498.695	0.106	-0.245
-137.429	627.509	-0.143	0.361
-136.414	44.657	0.177	-0.163
-135.399	-63.304	0.261	0.107
-134.385	344.839	0.067	-0.132
-133.370	424.126	0.117	0.252
-132.356	45.542	0.116	0.107
-131.341	-175.900	0.079	-0.002
-130.326	59.413	0.151	-0.149
-129.312	-115.027	-0.201	0.038
-128.297	-200.000	-0.046	-0.226
-127.283	-127.751	0.295	-0.043
-126.268	-40.109	-0.254	-0.132
-125.253	800.000	0.066	-0.261
-124.239	81.000	-0.144	0.155
-123.224	800.000	0.088	0.250
-122.210	24.588	-0.201	0.166
-121.195	800.000	-0.071	-0.208
