DTS Sentinel unit serial number:	SN413079Multiplexer serial number:	ORYXHardware model number:	OX4-SRSoftware version number:	ORYX F/W v4.00 Oryx Data Collector v3.7.2.0data status	okinstallation	princeton_trtdifferential loss correction	single-endedforward channel	channel 3reverse channel	N/Adate	2019/09/18time	02:28:34forward acquisition time	60.00reverse acquisition time	0.00gamma	496.2192k internal	0.2344k external	0.2344temperature offset calibration	0.9946default loss term (dB/km)	0.3790temperature slope calibration	1.0000multiplexer offset coefficient	1.0000multiplexer slope coefficient	1.0000fibre end	0.00T internal ref (°C)	22.81T ext. ref 1 (°C)	0.17T ext. ref 2 (°C)	16.86length (m)	temperature (°C)	Stokes	anti-Stokes-747.200	-48.441	-0.055	0.026
-746.185	-200.000	0.042	-0.291
-745.171	-104.635	0.169	0.039
-744.156	13.323	-0.270	-0.209
-743.142	-200.000	0.039	0.447
-742.127	-200.000	-0.030	0.297
-741.112	-84.278	-0.153	0.048
-740.098	-63.728	-0.174	0.072
-739.083	-76.308	0.287	0.101
-738.069	-22.414	-0.220	0.133
-737.054	-24.351	0.267	0.159
-736.039	-43.056	0.228	0.116
-735.025	-122.421	0.386	-0.063
-734.010	800.000	-0.096	-0.316
-732.996	29.262	-0.141	0.120
-731.981	71.836	0.302	0.314
-730.966	800.000	-0.112	0.390
-729.952	-200.000	0.038	0.186
-728.937	668.650	-0.099	0.256
-727.923	-200.000	-0.013	-0.084
-726.908	800.000	0.046	0.192
-725.894	-12.289	-0.091	-0.060
-724.879	368.264	-0.068	0.137
-723.864	228.850	0.051	-0.083
-722.850	-200.000	0.035	-0.261
-721.835	-67.737	-0.162	0.063
-720.821	-117.771	0.222	-0.040
-719.806	-140.749	-0.117	-0.012
-718.791	-89.538	-0.196	-0.057
-717.777	-200.000	-0.020	0.230
-716.762	-200.000	-0.002	-0.018
-715.748	-112.522	0.275	-0.055
-714.733	83.012	0.071	0.077
-713.718	351.046	-0.118	-0.233
-712.704	467.393	-0.117	0.262
-711.689	-87.517	-0.086	-0.026
-710.675	-200.000	-0.001	0.074
-709.660	-200.000	-0.049	-0.412
-708.645	332.674	-0.064	0.124
-707.631	316.793	0.042	0.079
-706.616	-200.000	0.263	0.001
-705.602	10.254	-0.103	0.079
-704.587	129.171	0.106	0.135
-703.572	-173.485	0.357	0.011
-702.558	171.199	0.152	0.218
-701.543	-200.000	0.020	-0.087
-700.529	718.005	0.041	-0.108
-699.514	-109.339	0.089	0.019
-698.499	-200.000	0.017	-0.145
-697.485	53.396	-0.161	-0.155
-696.470	228.409	-0.171	-0.278
-695.456	235.255	0.168	-0.277
-694.441	-200.000	-0.079	-0.401
-693.426	-109.890	-0.298	-0.062
-692.412	192.717	0.175	-0.264
-691.397	88.775	-0.329	0.365
-690.383	-116.025	-0.439	-0.082
-689.368	-200.000	-0.021	-0.108
-688.354	800.000	0.071	-0.309
-687.339	759.770	-0.111	0.301
-686.324	-37.520	0.117	-0.062
-685.310	-200.000	0.017	-0.078
-684.295	217.821	0.124	-0.198
-683.281	244.906	0.180	-0.303
-682.266	38.919	0.139	0.124
-681.251	-200.000	0.055	0.332
-680.237	285.538	-0.122	0.219
-679.222	-200.000	0.054	0.374
-678.208	76.487	-0.189	0.200
-677.193	70.502	0.212	0.219
-676.178	222.008	-0.046	-0.073
-675.164	-128.216	0.075	0.011
-674.149	-126.814	0.393	0.058
-673.135	-117.527	-0.122	0.022
-672.120	-200.000	-0.057	0.333
-671.105	114.455	-0.234	-0.284
-670.091	-20.282	0.129	0.079
-669.076	-200.000	0.036	-0.311
-668.062	-21.346	0.322	-0.196
-667.047	800.000	0.081	0.258
-666.032	800.000	0.021	0.083
-665.018	-182.321	0.092	-0.002
-664.003	-73.589	0.052	0.019
-662.989	334.433	-0.140	-0.270
-661.974	130.635	0.080	0.103
-660.959	291.544	-0.122	0.221
-659.945	517.302	0.037	-0.086
-658.930	96.843	-0.126	-0.145
-657.916	39.630	0.145	0.130
-656.901	-58.909	-0.131	0.056
-655.886	143.207	-0.173	0.230
-654.872	356.674	0.137	-0.272
-653.857	189.544	0.092	0.137
-652.843	-66.140	-0.239	0.095
-651.828	-200.000	0.116	0.515
-650.814	-28.960	0.196	0.112
-649.799	-117.304	-0.377	0.068
-648.784	-200.000	-0.013	0.099
-647.770	-200.000	-0.005	0.041
-646.755	-200.000	0.010	-0.341
-645.741	556.829	-0.104	-0.250
-644.726	-52.242	0.299	-0.138
-643.711	800.000	0.037	-0.106
-642.697	-151.613	-0.102	0.007
-641.682	-89.604	0.126	0.037
-640.668	-151.388	0.233	-0.017
-639.653	-65.174	-0.228	0.092
-638.638	-90.173	-0.087	-0.025
-637.624	-160.032	0.244	-0.013
-636.609	-200.000	-0.024	-0.318
-635.595	-200.000	0.043	-0.363
-634.580	19.601	0.094	0.076
-633.565	-200.000	0.011	-0.067
-632.551	-108.374	-0.141	0.030
-631.536	-200.000	0.045	0.318
-630.522	743.354	0.044	-0.118
-629.507	-92.596	-0.160	-0.045
-628.492	-200.000	-0.028	0.345
-627.478	6.251	-0.262	0.194
-626.463	237.245	-0.184	0.304
-625.449	496.541	0.038	0.088
-624.434	-107.013	-0.084	-0.018
-623.419	209.004	-0.016	0.025
-622.405	599.888	0.092	-0.228
-621.390	75.041	-0.186	-0.195
-620.376	-53.892	-0.073	0.033
-619.361	-120.259	-0.274	-0.046
-618.346	-178.312	0.315	-0.007
-617.332	-16.917	0.233	0.147
-616.317	-176.677	-0.026	-0.001
-615.303	-200.000	-0.003	0.196
-614.288	-47.170	-0.069	-0.033
-613.273	-131.645	-0.115	-0.015
-612.259	530.549	-0.068	0.160
-611.244	-51.638	-0.023	0.011
-610.230	532.014	0.016	-0.037
-609.215	52.825	-0.203	-0.193
-608.201	332.867	0.117	-0.225
-607.186	800.000	-0.047	0.142
-606.171	-21.226	0.134	-0.081
-605.157	9.197	-0.241	-0.181
-604.142	-144.941	-0.400	0.036
-603.128	-130.238	0.175	-0.024
-602.113	252.443	-0.084	0.143
-601.098	-161.178	0.119	0.006
-600.084	-200.000	0.036	0.310
-599.069	483.638	0.022	-0.050
-598.055	243.890	0.089	-0.149
-597.040	-200.000	-0.041	-0.298
-596.025	-200.000	-0.016	-0.342
-595.011	-39.229	0.270	0.141
-593.996	180.504	-0.047	-0.069
-592.982	-9.976	-0.042	-0.028
-591.967	-78.516	-0.288	-0.098
-590.952	16.748	-0.122	-0.096
-589.938	-48.550	-0.126	-0.060
-588.923	800.000	-0.041	0.177
-587.909	-76.294	0.283	-0.099
-586.894	-125.378	-0.141	-0.021
-585.879	3.129	0.378	0.273
-584.865	-200.000	0.034	-0.174
-583.850	50.981	0.085	-0.081
-582.836	-104.465	-0.160	-0.037
-581.821	-200.000	-0.020	-0.120
-580.806	-21.728	0.026	0.016
-579.792	-46.577	-0.164	-0.080
-578.777	-168.988	0.157	-0.006
-577.763	-70.956	-0.321	-0.120
-576.748	-102.604	0.165	-0.039
-575.733	312.528	0.175	0.326
-574.719	-72.466	0.186	-0.068
-573.704	-127.396	-0.251	-0.036
-572.690	800.000	0.030	0.117
-571.675	-159.590	-0.117	-0.006
-570.661	-10.645	-0.023	0.015
-569.646	-52.258	-0.099	-0.046
-568.631	-43.023	-0.082	-0.041
-567.617	262.091	0.153	0.263
-566.602	-80.306	-0.173	0.057
-565.588	277.227	0.187	-0.331
-564.573	-147.201	-0.136	0.011
-563.558	-40.138	-0.204	-0.105
-562.544	-89.642	-0.185	0.054
-561.529	92.346	-0.276	-0.310
-560.515	53.725	-0.239	0.228
-559.500	19.211	0.317	-0.253
-558.485	107.008	0.234	0.277
-557.471	227.421	0.169	-0.273
-556.456	247.613	0.091	0.153
-555.442	232.148	0.192	-0.314
-554.427	502.695	-0.156	0.357
-553.412	-67.236	-0.338	-0.132
-552.398	800.000	0.096	-0.322
-551.383	800.000	-0.057	-0.221
-550.369	-200.000	0.043	-0.343
-549.354	-105.296	-0.460	-0.104
-548.339	-19.365	0.082	0.050
-547.325	-38.489	-0.370	0.194
-546.310	218.709	0.187	0.296
-545.296	-98.646	0.452	0.114
-544.281	325.473	0.178	-0.338
-543.266	441.046	0.086	0.186
-542.252	-116.570	-0.211	0.039
-541.237	54.202	0.077	-0.073
-540.223	-26.027	0.014	0.008
-539.208	-157.456	-0.334	0.020
-538.193	-132.141	-0.353	0.045
-537.179	43.780	-0.244	0.222
-536.164	-90.188	0.055	-0.016
-535.150	800.000	0.018	-0.051
-534.135	49.308	0.168	0.156
-533.121	-200.000	-0.050	0.293
-532.106	-32.738	-0.199	0.110
-531.091	316.328	-0.075	0.140
-530.077	184.172	-0.027	0.039
-529.062	800.000	0.125	0.396
-528.048	-51.403	0.302	0.140
-527.033	-136.327	-0.138	-0.016
-526.018	41.993	-0.146	-0.131
-525.004	12.837	-0.074	-0.057
-523.989	-112.362	0.322	-0.064
-522.975	80.096	-0.119	0.127
-521.960	237.382	0.162	-0.267
-520.945	-142.494	0.334	-0.033
-519.931	-200.000	-0.052	0.260
-518.916	117.081	0.203	0.247
-517.902	-88.168	0.143	-0.042
-516.887	499.059	-0.044	0.100
-515.872	10.522	-0.248	0.188
-514.858	174.137	0.153	0.219
-513.843	738.205	-0.044	0.116
-512.829	-200.000	-0.014	-0.357
-511.814	-147.610	-0.235	-0.020
-510.799	283.032	-0.055	0.098
-509.785	59.875	-0.321	-0.315
-508.770	230.262	0.135	-0.218
-507.756	-85.640	-0.268	0.083
-506.741	35.700	0.249	0.217
-505.726	221.870	-0.123	0.197
-504.712	-200.000	-0.007	-0.053
-503.697	-141.847	-0.096	0.010
-502.683	326.988	0.132	0.250
-501.668	-110.481	0.058	0.012
-500.653	584.976	0.120	-0.294
-499.639	-0.380	0.130	-0.092
-498.624	800.000	-0.066	0.252
-497.610	-45.146	0.089	-0.044
-496.595	99.188	-0.177	0.203
-495.581	249.148	0.055	0.093
-494.566	-200.000	0.000	0.049
-493.551	-182.986	-0.079	-0.001
-492.537	102.025	0.243	-0.281
-491.522	29.514	-0.182	-0.153
-490.508	-197.935	0.238	-0.001
-489.493	-115.986	0.098	-0.018
-488.478	37.422	0.249	-0.219
-487.464	-131.045	0.282	-0.037
-486.449	-174.501	0.165	-0.005
-485.435	-200.000	0.025	-0.250
-484.420	6.150	-0.070	-0.052
-483.405	-60.851	-0.180	0.076
-482.391	-200.000	-0.042	0.356
-481.376	212.681	0.115	-0.180
-480.362	279.573	0.061	0.107
-479.347	-143.609	-0.155	0.015
-478.332	-54.898	0.137	0.061
-477.318	-4.540	0.170	-0.116
-476.303	-200.000	-0.021	0.121
-475.289	256.209	-0.200	-0.339
-474.274	-200.000	-0.037	0.207
-473.259	135.613	-0.134	0.173
-472.245	-77.145	-0.203	-0.070
-471.230	96.060	-0.116	0.132
-470.216	800.000	-0.075	0.282
-469.201	-49.700	0.322	0.152
-468.186	-200.000	-0.059	-0.329
-467.172	800.000	0.058	-0.211
-466.157	-79.496	-0.085	-0.028
-465.143	-200.000	-0.051	0.261
-464.128	-50.136	-0.117	-0.055
-463.113	41.009	-0.095	-0.085
-462.099	31.110	0.259	-0.220
-461.084	-200.000	0.020	-0.157
-460.070	-38.785	-0.167	0.087
-459.055	800.000	-0.075	0.302
-458.040	-131.955	-0.097	0.013
-457.026	230.485	0.052	0.085
-456.011	-143.377	0.165	0.016
-454.997	-113.588	0.049	0.010
-453.982	463.770	-0.014	-0.030
-452.968	-54.329	0.380	0.171
-451.953	-200.000	-0.004	0.045
-450.938	136.668	0.084	0.109
-449.924	-55.507	0.077	0.034
-448.909	12.077	0.150	-0.114
-447.895	13.373	0.183	0.141
-446.880	280.933	0.159	0.282
-445.865	-200.000	-0.019	0.196
-444.851	104.455	0.170	-0.198
-443.836	-200.000	0.002	-0.076
-442.822	120.891	0.106	-0.130
-441.807	-18.754	-0.174	-0.107
-440.792	-59.008	0.093	-0.040
-439.778	551.749	-0.173	-0.410
-438.763	575.008	0.033	-0.080
-437.749	628.810	-0.089	0.222
-436.734	423.250	-0.022	-0.047
-435.719	-200.000	0.028	0.161
-434.705	-92.508	0.040	-0.011
-433.690	-122.759	-0.177	0.028
-432.676	280.833	0.068	0.120
-431.661	420.448	0.021	-0.044
-430.646	-200.000	0.025	0.121
-429.632	-64.556	-0.057	-0.023
-428.617	12.717	0.127	0.097
-427.603	-14.393	0.224	0.142
-426.588	-156.473	0.413	0.025
-425.573	-200.000	-0.014	-0.223
-424.559	128.165	0.128	-0.161
-423.544	-200.000	0.007	-0.259
-422.530	-37.318	0.175	-0.092
-421.515	107.667	-0.113	0.133
-420.500	-146.245	0.220	-0.019
-419.486	-56.219	0.114	-0.050
-418.471	-144.414	0.087	0.008
-417.457	-200.000	0.038	-0.202
-416.442	31.808	0.194	0.165
-415.428	206.059	0.097	-0.149
-414.413	-68.705	-0.297	-0.114
-413.398	-20.870	0.257	-0.155
-412.384	188.696	-0.150	-0.222
-411.369	-200.000	0.058	0.460
-410.355	800.000	-0.034	0.142
-409.340	-143.246	-0.223	-0.021
-408.325	204.776	-0.240	0.368
-407.311	383.038	-0.147	0.299
-406.296	25.671	0.116	-0.096
-405.282	671.266	-0.085	-0.218
-404.267	113.472	0.157	0.188
-403.252	-200.000	-0.026	-0.131
-402.238	673.179	0.049	-0.126
-401.223	46.938	-0.087	0.080
-400.209	87.340	-0.227	0.248
-399.194	-200.000	0.059	0.305
-398.179	-200.000	-0.009	0.049
-397.165	257.906	0.125	0.213
-396.150	-200.000	0.053	0.247
-395.136	466.291	-0.117	-0.259
-394.121	-34.509	-0.097	-0.053
-393.106	-14.272	-0.307	0.196
-392.092	-59.501	-0.153	0.065
-391.077	21.509	0.077	0.062
-390.063	-27.772	-0.237	0.136
-389.048	66.054	0.101	-0.101
-388.033	-100.078	0.286	0.070
-387.019	114.950	-0.150	-0.181
-386.004	-200.000	-0.160	0.000
-384.990	-200.000	0.013	-0.319
-383.975	-48.140	-0.162	0.077
-382.960	-56.507	0.205	0.090
-381.946	-94.022	0.219	0.059
-380.931	-70.452	0.037	-0.014
-379.917	-33.984	-0.279	0.152
-378.902	-200.000	-0.022	0.166
-377.888	-78.660	0.079	0.026
-376.873	-138.260	0.299	0.033
-375.858	41.342	0.066	0.059
-374.844	-65.564	-0.133	-0.053
-373.829	94.233	0.324	-0.363
-372.815	800.000	0.047	-0.143
-371.800	160.441	-0.242	0.333
-370.785	-63.553	-0.150	0.061
-369.771	-200.000	-0.049	-0.348
-368.756	-141.467	-0.230	-0.023
-367.742	494.602	0.016	0.037
-366.727	-134.886	-0.311	-0.037
-365.712	-200.000	-0.003	0.160
-364.698	30.965	0.149	0.126
-363.683	197.056	-0.172	0.258
-362.669	375.818	-0.193	0.387
-361.654	8.371	-0.042	0.031
-360.639	-124.337	-0.369	-0.057
-359.625	-13.898	-0.062	0.040
-358.610	-30.051	0.100	-0.056
-357.596	-109.981	-0.057	0.012
-356.581	110.386	0.049	0.058
-355.566	112.137	0.275	-0.328
-354.552	52.135	0.213	-0.200
-353.537	-43.247	-0.216	0.108
-352.523	-126.720	0.174	0.025
-351.508	623.202	-0.084	-0.210
-350.493	-200.000	-0.023	0.133
-349.479	91.330	-0.068	-0.076
-348.464	-98.156	-0.105	-0.027
-347.450	737.459	-0.177	0.466
-346.435	60.255	0.182	-0.177
-345.420	-147.123	-0.189	0.016
-344.406	28.363	0.169	0.141
-343.391	134.247	-0.202	0.258
-342.377	566.520	0.123	0.294
-341.362	-164.084	0.158	0.007
-340.348	-85.739	0.150	0.046
-339.333	-44.724	0.104	-0.051
-338.318	172.898	-0.274	0.389
-337.304	-96.460	-0.226	-0.059
-336.289	800.000	0.084	-0.260
-335.275	-114.286	0.277	-0.053
-334.260	-45.467	-0.091	0.044
-333.245	-200.000	-0.001	-0.041
-332.231	-95.432	-0.040	0.010
-331.216	174.950	-0.044	0.063
-330.202	-96.334	0.085	-0.022
-329.187	240.391	-0.197	0.323
-328.172	-11.983	0.272	0.176
-327.158	-44.854	-0.172	0.085
-326.143	55.959	0.126	0.120
-325.129	135.458	-0.156	0.200
-324.114	-19.111	-0.139	0.085
-323.099	449.114	0.075	-0.163
-322.085	91.195	-0.133	0.147
-321.070	-118.799	-0.232	-0.040
-320.056	-200.000	0.048	-0.241
-319.041	166.679	0.034	0.048
-318.026	800.000	0.067	0.199
-317.012	800.000	-0.144	-0.504
-315.997	216.635	0.090	-0.140
-314.983	800.000	0.028	-0.103
-313.968	-200.000	0.007	-0.455
-312.953	196.789	-0.108	0.162
-311.939	35.345	0.043	0.037
-310.924	227.894	-0.076	0.122
-309.910	-84.017	0.427	0.134
-308.895	-200.000	0.016	-0.074
-307.880	-200.000	-0.011	-0.079
-306.866	382.934	-0.144	-0.291
-305.851	-133.268	0.529	-0.066
-304.837	-87.992	-0.201	-0.060
-303.822	144.454	0.014	-0.018
-302.807	-75.916	-0.239	-0.083
-301.793	121.517	-0.114	-0.140
-300.778	-3.798	0.262	-0.179
-299.764	232.014	0.261	0.421
-298.749	33.925	-0.124	-0.106
-297.735	88.471	-0.058	0.063
-296.720	-65.925	0.305	0.120
-295.705	-200.000	-0.009	0.425
-294.691	-124.733	0.159	0.024
-293.676	607.474	0.098	-0.240
-292.662	-200.000	0.005	0.235
-291.647	-7.525	0.123	-0.082
-290.632	41.996	-0.089	0.080
-289.618	-42.067	0.319	-0.161
-288.603	-200.000	0.003	-0.082
-287.589	237.046	-0.332	-0.541
-286.574	-164.917	-0.012	0.001
-285.559	3.425	0.237	-0.170
-284.545	120.345	-0.131	0.160
-283.530	12.832	0.248	-0.188
-282.516	800.000	0.002	-0.009
-281.501	-103.038	-0.147	-0.034
-280.486	80.518	-0.114	-0.121
-279.472	244.673	0.099	0.164
-278.457	491.342	0.008	-0.019
-277.443	2.258	-0.353	-0.251
-276.428	-164.791	-0.072	0.003
-275.413	353.186	-0.113	-0.221
-274.399	-13.488	0.314	-0.200
-273.384	85.550	-0.114	0.123
-272.370	-200.000	0.083	0.428
-271.355	739.650	-0.025	0.065
-270.340	-200.000	-0.002	0.084
-269.326	-108.011	-0.380	-0.081
-268.311	62.209	0.106	-0.104
-267.297	281.163	0.099	0.173
-266.282	800.000	0.110	-0.330
-265.267	118.119	-0.127	0.154
-264.253	5.746	0.192	0.140
-263.238	134.117	-0.098	-0.125
-262.224	800.000	-0.100	-0.284
-261.209	380.489	0.110	0.221
-260.195	-200.000	0.013	0.112
-259.180	226.611	0.065	0.103
-258.165	-79.698	0.026	-0.009
-257.151	-200.000	-0.045	-0.219
-256.136	-142.093	-0.175	-0.017
-255.122	-94.917	0.287	0.076
-254.107	800.000	-0.032	-0.131
-253.092	-81.105	-0.189	-0.061
-252.078	505.638	-0.090	0.205
-251.063	52.881	-0.061	0.057
-250.049	85.394	0.276	-0.297
-249.034	-76.050	-0.153	0.053
-248.019	-65.300	0.114	0.045
-247.005	-15.180	0.155	-0.098
-245.990	20.257	0.084	0.066
-244.976	-95.825	-0.132	-0.035
-243.961	427.311	0.068	-0.145
-242.946	-200.000	0.001	0.026
-241.932	108.511	-0.124	-0.146
-240.917	-200.000	0.065	0.291
-239.903	11.254	-0.028	-0.021
-238.888	36.150	0.039	0.034
-237.873	-200.000	0.018	-0.509
-236.859	800.000	0.055	-0.196
-235.844	247.177	0.047	0.078
-234.830	800.000	-0.033	-0.138
-233.815	-7.564	0.111	-0.073
-232.800	358.955	-0.062	0.122
-231.786	800.000	0.101	0.338
-230.771	-200.000	-0.024	0.190
-229.757	-200.000	0.073	-0.342
-228.742	13.996	-0.082	-0.063
-227.727	-200.000	-0.021	-0.356
-226.713	-182.484	-0.177	0.003
-225.698	-106.346	0.061	0.013
-224.684	49.040	-0.190	-0.175
-223.669	-98.192	-0.237	0.060
-222.655	-200.000	-0.005	0.290
-221.640	800.000	-0.067	-0.236
-220.625	-111.283	0.081	0.016
-219.611	-200.000	-0.032	0.215
-218.596	-200.000	-0.002	-0.058
-217.582	-56.327	0.170	0.074
-216.567	20.044	0.282	-0.223
-215.552	-200.000	-0.023	-0.398
-214.538	-50.545	-0.013	-0.006
-213.523	-150.015	0.376	0.029
-212.509	800.000	0.017	0.067
-211.494	-104.653	0.120	-0.027
-210.479	28.353	0.120	0.099
-209.465	-49.373	0.121	-0.056
-208.450	-128.859	-0.106	0.015
-207.436	-200.000	-0.017	0.490
-206.421	150.327	0.174	-0.232
-205.406	-200.000	0.078	-0.358
-204.392	89.905	-0.223	0.244
-203.377	-1.436	0.345	-0.239
-202.363	21.491	0.147	0.118
-201.348	27.602	0.049	-0.041
-200.333	-200.000	0.022	0.131
-199.319	-36.772	0.013	0.007
-198.304	-138.367	-0.366	-0.040
-197.290	97.524	-0.151	-0.170
-196.275	-116.497	-0.138	-0.025
-195.260	-200.000	0.001	0.129
-194.246	-200.000	0.014	0.306
-193.231	-74.912	-0.031	-0.011
-192.217	-20.613	-0.114	0.069
-191.202	366.256	0.153	0.302
-190.187	103.234	-0.061	0.070
-189.173	753.859	0.059	0.156
-188.158	-200.000	-0.039	0.243
-187.144	263.733	-0.134	0.229
-186.129	71.489	0.221	-0.225
-185.114	702.083	0.144	-0.372
-184.100	261.743	0.157	-0.266
-183.085	41.617	0.113	0.100
-182.071	-182.555	-0.194	-0.003
-181.056	-131.681	-0.330	-0.042
-180.042	-200.000	-0.088	-0.433
-179.027	800.000	0.059	0.250
-178.012	-80.640	0.340	-0.111
-176.998	-24.315	0.208	0.122
-175.983	-137.306	-0.073	-0.008
-174.969	593.872	-0.086	-0.208
-173.954	-136.444	-0.215	-0.024
-172.939	-148.980	-0.415	0.033
-171.925	-97.672	0.221	-0.056
-170.910	110.735	0.043	0.051
-169.896	-200.000	0.008	0.068
-168.881	800.000	0.034	-0.132
-167.866	-155.207	0.089	-0.006
-166.852	114.009	0.136	-0.161
-165.837	-150.344	0.088	-0.007
-164.823	22.122	-0.118	0.094
-163.808	236.885	0.107	0.173
-162.793	281.593	0.111	-0.194
-161.779	-174.531	-0.490	-0.014
-160.764	192.179	0.097	-0.143
-159.750	-74.850	0.073	-0.026
-158.735	-38.431	-0.062	0.032
-157.720	-189.849	0.221	-0.002
-156.706	800.000	0.012	-0.034
-155.691	-66.611	-0.210	-0.081
-154.677	76.433	0.024	0.025
-153.662	206.388	-0.169	0.258
-152.647	181.466	0.207	0.298
-151.633	-47.282	-0.201	-0.096
-150.618	327.537	-0.143	0.269
-149.604	27.519	0.164	0.135
-148.589	-200.000	0.126	0.578
-147.574	60.162	0.138	-0.134
-146.560	-35.958	-0.267	-0.141
-145.545	-60.804	0.186	0.077
-144.531	54.302	-0.108	-0.102
-143.516	-200.000	0.068	-0.340
-142.502	83.739	-0.154	0.165
-141.487	-200.000	0.044	0.216
-140.472	800.000	-0.074	-0.205
-139.458	-200.000	0.030	-0.226
-138.443	199.633	-0.209	0.313
-137.429	51.441	-0.010	-0.010
-136.414	180.331	-0.072	0.103
-135.399	-71.291	0.353	-0.130
-134.385	-200.000	0.025	0.243
-133.370	-95.391	0.116	0.030
-132.356	-200.000	0.019	-0.272
-131.341	-42.151	-0.112	0.056
-130.326	-200.000	0.016	0.131
-129.312	57.858	0.209	-0.200
-128.297	-51.469	0.197	-0.090
-127.283	-200.000	-0.086	-0.443
-126.268	-161.665	0.162	-0.008
-125.253	-200.000	-0.080	0.000
-124.239	466.908	0.148	0.325
-123.224	-122.203	0.365	-0.058
-122.210	-66.442	-0.184	-0.072
