DTS Sentinel unit serial number:	SN413079Multiplexer serial number:	ORYXHardware model number:	OX4-SRSoftware version number:	ORYX F/W v4.00 Oryx Data Collector v3.7.2.0data status	okinstallation	princeton_trtdifferential loss correction	single-endedforward channel	channel 3reverse channel	N/Adate	2019/09/13time	18:36:35forward acquisition time	60.00reverse acquisition time	0.00gamma	496.2192k internal	0.2317k external	0.2317temperature offset calibration	1.0113default loss term (dB/km)	0.3790temperature slope calibration	1.0000multiplexer offset coefficient	1.0000multiplexer slope coefficient	1.0000fibre end	0.00T internal ref (°C)	33.06T ext. ref 1 (°C)	4.20T ext. ref 2 (°C)	26.14length (m)	temperature (°C)	Stokes	anti-Stokes-747.200	-24.272	0.136	0.082
-746.185	259.027	-0.229	0.400
-745.171	800.000	-0.079	-0.321
-744.156	-95.212	0.054	-0.015
-743.142	-200.000	0.057	-0.327
-742.127	-64.573	-0.176	-0.072
-741.112	-52.000	0.169	0.080
-740.098	800.000	0.106	0.449
-739.083	427.852	-0.131	0.285
-738.069	-17.304	0.078	-0.050
-737.054	391.850	0.074	0.155
-736.039	-200.000	0.027	0.254
-735.025	55.628	0.221	0.217
-734.010	-169.074	-0.111	0.004
-732.996	18.818	0.322	-0.261
-731.981	-99.431	-0.151	0.038
-730.966	90.653	0.124	0.141
-729.952	-30.836	0.182	0.104
-728.937	103.991	-0.235	0.280
-727.923	64.332	0.207	-0.211
-726.908	-38.613	-0.181	-0.097
-725.894	-200.000	0.038	-0.370
-724.879	-200.000	0.019	0.257
-723.864	800.000	0.058	-0.218
-722.850	-200.000	-0.061	-0.463
-721.835	-150.078	-0.210	0.017
-720.821	26.955	-0.293	-0.248
-719.806	-158.882	-0.418	0.024
-718.791	354.961	-0.188	-0.378
-717.777	800.000	0.068	-0.239
-716.762	-44.752	0.216	0.109
-715.748	-24.405	-0.106	0.064
-714.733	91.598	-0.099	-0.112
-713.718	-173.086	0.330	0.010
-712.704	-106.496	0.198	-0.045
-711.689	751.355	0.079	0.216
-710.675	-133.503	-0.083	-0.011
-709.660	-153.222	-0.503	-0.036
-708.645	-78.023	-0.172	-0.060
-707.631	-35.501	0.183	0.101
-706.616	204.893	-0.168	0.263
-705.602	-200.000	-0.015	0.085
-704.587	-89.564	-0.443	-0.132
-703.572	-200.000	-0.049	0.434
-702.558	-200.000	0.014	0.101
-701.543	-163.397	0.215	-0.010
-700.529	-64.691	-0.354	0.145
-699.514	292.316	-0.077	-0.142
-698.499	357.966	0.030	-0.061
-697.485	-136.703	0.197	-0.023
-696.470	-200.000	-0.045	-0.224
-695.456	-120.713	-0.083	-0.014
-694.441	-200.000	-0.001	-0.145
-693.426	32.894	0.132	0.115
-692.412	-148.233	-0.155	0.013
-691.397	-200.000	0.006	-0.245
-690.383	-81.508	-0.139	-0.046
-689.368	-200.000	-0.009	-0.246
-688.354	800.000	0.142	-0.489
-687.339	800.000	-0.032	0.101
-686.324	223.916	-0.034	0.056
-685.310	-200.000	-0.004	0.112
-684.295	-42.124	0.269	-0.139
-683.281	4.221	0.227	0.168
-682.266	15.340	0.136	-0.108
-681.251	-137.626	0.332	0.038
-680.237	104.540	-0.144	-0.171
-679.222	-93.679	0.154	-0.043
-678.208	-47.286	0.238	0.117
-677.193	-17.673	-0.145	-0.092
-676.178	800.000	0.089	-0.302
-675.164	-23.167	-0.024	-0.015
-674.149	215.576	-0.120	-0.193
-673.135	-112.633	0.137	0.027
-672.120	-200.000	0.074	-0.386
-671.105	-73.549	0.383	-0.141
-670.091	-66.348	0.141	-0.056
-669.076	22.967	-0.082	-0.068
-668.062	212.273	-0.244	-0.388
-667.047	103.432	0.163	0.194
-666.032	-200.000	-0.061	-0.365
-665.018	95.836	0.096	0.111
-664.003	-200.000	0.044	0.341
-662.989	-152.585	-0.334	0.024
-661.974	-94.576	-0.504	0.139
-660.959	-159.908	0.571	-0.032
-659.945	-17.883	-0.140	0.088
-658.930	48.545	0.262	0.248
-657.916	104.224	0.049	-0.058
-656.901	-5.941	-0.141	-0.097
-655.886	46.253	-0.318	-0.297
-654.872	-200.000	0.006	0.317
-653.857	-67.103	0.208	0.083
-652.843	148.867	-0.133	0.181
-651.828	-200.000	0.015	-0.104
-650.814	800.000	-0.107	-0.412
-649.799	96.712	-0.277	0.320
-648.784	-43.520	-0.357	-0.182
-647.770	71.655	0.090	-0.095
-646.755	800.000	-0.107	-0.435
-645.741	206.017	-0.074	-0.116
-644.726	376.281	-0.067	0.138
-643.711	-0.641	-0.068	0.049
-642.697	-185.414	0.299	0.005
-641.682	-59.271	0.568	0.247
-640.668	62.363	-0.177	0.178
-639.653	-92.023	0.249	-0.071
-638.638	-200.000	0.091	0.496
-637.624	730.905	0.041	0.111
-636.609	-42.439	0.121	0.062
-635.595	-200.000	-0.091	0.000
-634.580	-56.688	-0.217	-0.097
-633.565	-177.343	-0.323	-0.008
-632.551	-116.480	0.247	-0.046
-631.536	-52.614	0.124	-0.058
-630.522	-200.000	0.034	-0.220
-629.507	-18.092	-0.223	-0.141
-628.492	-200.000	0.024	-0.198
-627.478	-143.215	-0.341	0.033
-626.463	-68.882	-0.226	0.088
-625.449	800.000	0.080	-0.240
-624.434	-200.000	-0.022	-0.242
-623.419	267.618	-0.238	-0.420
-622.405	-127.812	0.316	0.046
-621.390	-136.108	-0.032	-0.004
-620.376	-77.124	-0.259	0.091
-619.361	38.614	-0.203	0.183
-618.346	-171.267	0.211	0.007
-617.332	306.244	-0.144	0.271
-616.317	-200.000	-0.021	-0.133
-615.303	393.779	0.074	-0.155
-614.288	262.458	0.090	0.156
-613.273	-32.059	0.327	0.185
-612.259	13.570	0.037	-0.029
-611.244	-200.000	-0.011	-0.164
-610.230	43.061	-0.100	0.092
-609.215	119.339	0.285	-0.355
-608.201	-200.000	-0.011	-0.116
-607.186	-108.045	-0.214	0.047
-606.171	101.701	-0.126	-0.148
-605.157	-200.000	0.006	-0.127
-604.142	663.138	0.141	-0.366
-603.128	-170.476	-0.182	-0.006
-602.113	-200.000	0.025	0.112
-601.098	-128.644	0.047	0.007
-600.084	-200.000	0.006	0.090
-599.069	282.034	-0.237	-0.427
-598.055	-86.216	0.216	0.067
-597.040	-108.809	0.145	-0.031
-596.025	-5.886	0.158	0.109
-595.011	-200.000	-0.008	-0.110
-593.996	172.956	0.195	0.283
-592.982	-114.873	-0.099	-0.019
-591.967	130.796	0.068	-0.088
-590.952	26.828	-0.265	0.223
-589.938	-200.000	0.022	0.105
-588.923	-200.000	-0.019	0.184
-587.909	-92.073	-0.261	-0.074
-586.894	-200.000	0.061	-0.329
-585.879	-112.737	0.140	0.028
-584.865	-166.471	0.427	-0.018
-583.850	-64.989	-0.178	0.072
-582.836	-29.054	0.229	0.132
-581.821	85.043	-0.150	0.165
-580.806	-142.131	-0.138	0.014
-579.792	4.451	0.340	-0.251
-578.777	-136.262	-0.317	-0.037
-577.763	-134.316	-0.111	0.014
-576.748	56.586	0.133	0.130
-575.733	112.343	-0.014	-0.017
-574.719	287.511	-0.050	-0.091
-573.704	-64.257	-0.037	-0.015
-572.690	-200.000	-0.006	0.080
-571.675	29.855	0.288	0.247
-570.661	-32.950	-0.077	0.043
-569.646	27.301	-0.287	-0.243
-568.631	202.805	0.256	-0.398
-567.617	-84.299	0.370	-0.118
-566.602	17.031	-0.210	-0.168
-565.588	308.206	0.155	0.291
-564.573	-36.892	-0.370	-0.199
-563.558	-36.030	0.155	-0.084
-562.544	514.482	0.136	0.320
-561.529	52.080	-0.074	-0.071
-560.515	30.423	-0.180	-0.155
-559.500	-63.338	-0.136	0.056
-558.485	600.602	0.052	-0.129
-557.471	-118.427	0.160	0.029
-556.456	-98.787	-0.159	0.041
-555.442	-200.000	0.022	-0.201
-554.427	29.983	-0.364	-0.312
-553.412	237.177	-0.224	-0.373
-552.398	800.000	0.040	0.131
-551.383	663.592	0.066	-0.172
-550.369	-19.601	-0.111	-0.069
-549.354	194.265	-0.063	0.096
-548.339	145.932	0.022	0.029
-547.325	-198.820	0.165	0.001
-546.310	-200.000	0.002	-0.421
-545.296	154.630	0.055	-0.076
-544.281	-111.860	-0.321	-0.065
-543.266	-144.798	0.579	-0.053
-542.252	-200.000	0.003	0.037
-541.237	800.000	-0.066	-0.193
-540.223	512.873	-0.062	0.146
-539.208	101.829	-0.089	0.105
-538.193	324.909	0.025	0.049
-537.179	-35.425	0.241	-0.131
-536.164	75.738	-0.183	0.194
-535.150	-200.000	-0.017	-0.146
-534.135	-19.543	0.271	0.169
-533.121	-70.066	-0.125	-0.048
-532.106	129.868	-0.132	0.170
-531.091	568.216	0.030	0.072
-530.077	-200.000	0.044	-0.421
-529.062	-120.212	-0.312	0.053
-528.048	-33.356	-0.186	-0.103
-527.033	-200.000	-0.075	0.367
-526.018	800.000	-0.076	0.299
-525.004	800.000	-0.076	-0.251
-523.989	86.083	-0.087	-0.097
-522.975	-43.371	-0.284	-0.144
-521.960	-99.058	-0.116	-0.029
-520.945	90.882	0.074	-0.084
-519.931	-200.000	-0.055	-0.281
-518.916	-200.000	0.007	0.144
-517.902	36.008	-0.148	-0.130
-516.887	-166.955	0.138	0.006
-515.872	-79.836	0.368	-0.124
-514.858	800.000	0.084	-0.233
-513.843	150.497	-0.083	0.113
-512.829	800.000	0.034	-0.131
-511.814	-200.000	-0.025	-0.337
-510.799	-79.048	-0.119	0.041
-509.785	800.000	0.045	-0.175
-508.770	-5.582	-0.315	-0.217
-507.756	134.148	-0.073	-0.095
-506.741	-16.405	0.233	0.148
-505.726	-27.057	0.063	-0.037
-504.712	-30.598	0.113	0.064
-503.697	12.653	-0.345	-0.267
-502.683	239.098	-0.148	-0.247
-501.668	204.511	-0.137	0.213
-500.653	94.735	-0.278	0.317
-499.639	-9.696	0.125	-0.084
-498.624	225.906	-0.040	0.065
-497.610	-36.634	0.413	0.222
-496.595	-74.172	-0.180	0.065
-495.581	-52.332	0.291	-0.135
-494.566	-163.787	-0.199	0.009
-493.551	-112.196	0.115	-0.023
-492.537	-200.000	0.042	-0.432
-491.522	315.958	0.136	0.257
-490.508	199.388	0.058	0.089
-489.493	800.000	0.107	-0.327
-488.478	800.000	0.075	-0.218
-487.464	99.766	-0.241	-0.280
-486.449	-200.000	-0.003	-0.187
-485.435	-146.988	0.442	-0.038
-484.420	-61.283	-0.050	-0.021
-483.405	-77.244	-0.135	0.047
-482.391	492.975	0.100	0.229
-481.376	-20.828	0.077	0.047
-480.362	-200.000	-0.010	0.280
-479.347	-27.613	0.071	0.042
-478.332	800.000	-0.032	-0.128
-477.318	28.187	-0.175	-0.148
-476.303	-127.379	0.190	-0.028
-475.289	-14.360	-0.178	0.115
-474.274	60.698	0.020	0.019
-473.259	-70.179	0.366	-0.140
-472.245	-200.000	0.009	-0.234
-471.230	316.541	0.058	-0.111
-470.216	380.539	0.145	-0.299
-469.201	100.491	-0.108	-0.126
-468.186	-200.000	0.054	0.297
-467.172	-200.000	-0.026	0.231
-466.157	-61.472	0.075	-0.031
-465.143	-200.000	-0.009	-0.181
-464.128	-127.392	-0.106	-0.015
-463.113	44.764	0.081	0.075
-462.099	152.120	-0.180	-0.246
-461.084	443.768	-0.057	-0.126
-460.070	-24.986	-0.315	-0.187
-459.055	-63.461	0.021	-0.009
-458.040	3.724	0.034	0.025
-457.026	-200.000	0.015	0.199
-456.011	577.991	0.100	-0.246
-454.997	-49.854	0.161	-0.077
-453.982	-200.000	-0.011	-0.104
-452.968	82.916	0.118	-0.128
-451.953	-97.663	-0.389	-0.101
-450.938	357.168	-0.063	0.125
-449.924	-200.000	-0.002	0.134
-448.909	34.376	0.196	-0.171
-447.895	9.475	0.289	0.219
-446.880	668.602	-0.058	0.150
-445.865	-200.000	0.015	0.189
-444.851	480.505	-0.106	0.240
-443.836	-103.753	-0.238	-0.056
-442.822	-200.000	0.005	0.141
-441.807	219.993	-0.135	-0.217
-440.792	-200.000	0.012	-0.177
-439.778	30.377	-0.377	0.322
-438.763	-27.839	-0.103	-0.060
-437.749	800.000	0.047	0.162
-436.734	284.895	0.031	-0.056
-435.719	-200.000	-0.010	-0.205
-434.705	-116.472	-0.113	-0.021
-433.690	-200.000	0.016	0.400
-432.676	-90.393	-0.174	0.050
-431.661	-61.331	-0.103	0.043
-430.646	-62.770	0.096	-0.040
-429.632	-113.494	0.308	-0.060
-428.617	-200.000	0.021	-0.217
-427.603	30.097	-0.231	0.197
-426.588	-200.000	0.041	-0.220
-425.573	800.000	-0.037	0.124
-424.559	42.971	-0.044	-0.040
-423.544	514.106	-0.080	0.186
-422.530	-200.000	-0.007	-0.150
-421.515	-95.674	-0.193	0.052
-420.500	-89.789	-0.336	0.098
-419.486	-80.138	-0.076	-0.025
-418.471	19.438	0.267	0.215
-417.457	-200.000	-0.012	0.254
-416.442	-187.439	0.412	-0.006
-415.428	5.744	0.159	-0.118
-414.413	-107.765	0.253	-0.055
-413.398	364.299	-0.087	0.175
-412.384	800.000	0.033	0.120
-411.369	-57.713	0.021	0.009
-410.355	-200.000	0.031	0.161
-409.340	-200.000	-0.282	0.000
-408.325	37.741	0.149	0.132
-407.311	-80.788	0.090	0.030
-406.296	-62.622	0.326	-0.135
-405.282	60.832	-0.143	0.142
-404.267	29.302	0.016	-0.014
-403.252	150.466	0.019	0.026
-402.238	-200.000	-0.000	0.114
-401.223	217.781	-0.159	-0.253
-400.209	-200.000	0.014	0.172
-399.194	-76.964	-0.211	-0.074
-398.179	-63.138	-0.500	-0.206
-397.165	71.149	-0.034	0.036
-396.150	13.884	0.235	0.183
-395.136	-200.000	0.019	0.347
-394.121	-113.121	-0.062	-0.012
-393.106	746.618	-0.099	-0.267
-392.092	143.333	-0.119	0.158
-391.077	2.190	0.181	0.130
-390.063	254.830	-0.154	0.263
-389.048	107.553	-0.088	0.105
-388.033	-143.111	-0.184	-0.018
-387.019	-79.069	-0.352	0.119
-386.004	-7.937	0.112	0.076
-384.990	-8.500	-0.137	0.092
-383.975	88.885	-0.217	0.242
-382.960	800.000	0.085	0.272
-381.946	-200.000	-0.014	-0.274
-380.931	-104.177	-0.244	0.057
-379.917	-200.000	-0.013	0.117
-378.902	-200.000	-0.037	-0.221
-377.888	-200.000	0.036	0.247
-376.873	-200.000	-0.007	-0.040
-375.858	105.030	-0.094	0.111
-374.844	125.338	-0.368	-0.464
-373.829	800.000	0.024	0.069
-372.815	-200.000	-0.052	0.266
-371.800	-84.025	0.347	0.110
-370.785	60.593	-0.157	-0.155
-369.771	-104.014	-0.207	-0.048
-368.756	9.863	0.516	-0.391
-367.742	-78.412	-0.389	0.133
-366.727	155.548	-0.275	0.378
-365.712	204.428	0.124	-0.192
-364.698	-22.411	0.069	0.041
-363.683	-31.712	0.231	0.129
-362.669	225.595	0.148	0.239
-361.654	-38.581	0.183	0.097
-360.639	-24.171	0.146	-0.087
-359.625	-163.988	0.131	0.006
-358.610	3.882	0.156	-0.114
-357.596	-17.627	-0.160	-0.100
-356.581	-12.917	-0.106	-0.069
-355.566	322.786	-0.137	0.260
-354.552	-106.415	-0.288	-0.064
-353.537	37.386	-0.164	0.145
-352.523	-83.512	0.383	0.122
-351.508	-69.364	0.302	-0.116
-350.493	800.000	0.043	-0.147
-349.479	-68.256	-0.290	0.112
-348.464	-35.850	-0.098	-0.053
-347.450	-135.755	0.337	0.040
-346.435	-200.000	0.055	-0.310
-345.420	-130.475	-0.155	0.021
-344.406	131.425	-0.120	-0.153
-343.391	52.774	0.078	-0.074
-342.377	-106.253	0.195	0.044
-341.362	-65.854	0.265	-0.106
-340.348	-200.000	0.053	-0.249
-339.333	248.813	0.118	0.199
-338.318	-81.617	-0.160	0.052
-337.304	-200.000	-0.006	0.329
-336.289	26.844	-0.217	-0.181
-335.275	463.528	-0.121	-0.270
-334.260	3.319	0.104	0.075
-333.245	82.124	-0.123	0.133
-332.231	-90.989	0.071	-0.020
-331.216	800.000	-0.052	0.158
-330.202	-25.885	-0.224	0.132
-329.187	13.870	-0.216	-0.167
-328.172	-96.921	0.178	-0.046
-327.158	424.307	-0.130	0.279
-326.143	205.858	-0.165	-0.255
-325.129	800.000	0.075	0.208
-324.114	-46.626	-0.058	-0.028
-323.099	-200.000	-0.084	0.383
-322.085	14.088	0.183	0.142
-321.070	-200.000	-0.008	-0.142
-320.056	29.623	0.234	-0.198
-319.041	-200.000	-0.046	-0.231
-318.026	437.056	-0.099	-0.214
-317.012	-109.549	0.258	0.054
-315.997	-70.874	-0.158	-0.059
-314.983	8.127	0.340	-0.254
-313.968	-176.317	-0.165	-0.004
-312.953	429.495	-0.017	-0.037
-311.939	218.224	-0.154	0.244
-310.924	-200.000	-0.088	0.462
-309.910	-65.498	0.238	0.095
-308.895	38.611	0.081	0.072
-307.880	124.198	0.167	0.209
-306.866	31.470	0.027	0.023
-305.851	-60.071	0.337	0.143
-304.837	-200.000	-0.053	-0.389
-303.822	123.422	0.058	-0.073
-302.807	70.958	0.245	-0.253
-301.793	-73.485	0.087	0.031
-300.778	-200.000	0.070	0.318
-299.764	410.313	0.032	-0.067
-298.749	95.387	0.135	-0.153
-297.735	-72.857	-0.114	0.042
-296.720	151.943	-0.040	-0.054
-295.705	124.858	0.144	0.180
-294.691	-200.000	-0.010	-0.341
-293.676	261.690	0.118	-0.204
-292.662	-39.256	0.277	0.145
-291.647	-16.773	0.113	-0.071
-290.632	-135.456	-0.090	0.011
-289.618	-16.838	0.095	-0.060
-288.603	-146.711	-0.169	0.015
-287.589	-200.000	-0.055	0.241
-286.574	167.371	0.040	-0.057
-285.559	-173.234	-0.326	-0.010
-284.545	-105.326	-0.577	-0.131
-283.530	232.039	0.133	0.218
-282.516	-111.014	-0.175	-0.036
-281.501	-75.820	-0.213	-0.075
-280.486	-21.097	-0.030	0.018
-279.472	800.000	0.039	-0.133
-278.457	-200.000	-0.014	-0.101
-277.443	800.000	0.064	0.176
-276.428	-200.000	-0.037	0.191
-275.413	-78.091	0.281	0.096
-274.399	-200.000	-0.009	0.205
-273.384	241.844	0.042	0.069
-272.370	15.362	-0.116	0.090
-271.355	-81.501	-0.285	0.093
-270.340	-62.535	-0.283	-0.117
-269.326	800.000	-0.045	0.179
-268.311	800.000	0.157	0.571
-267.297	-107.659	0.386	0.084
-266.282	800.000	-0.010	0.043
-265.267	-134.424	-0.105	0.013
-264.253	-200.000	0.008	0.128
-263.238	800.000	-0.103	-0.401
-262.224	142.458	0.080	-0.106
-261.209	401.321	0.139	0.291
-260.195	-88.260	0.226	0.067
-259.180	800.000	-0.025	0.070
-258.165	-82.847	0.296	0.095
-257.151	-112.983	0.144	0.028
-256.136	-12.879	0.172	-0.111
-255.122	-200.000	-0.011	0.256
-254.107	-125.077	-0.130	-0.020
-253.092	800.000	0.101	0.404
-252.078	-123.268	0.425	0.067
-251.063	735.726	0.095	0.253
-250.049	-22.402	-0.087	0.053
-249.034	-28.222	0.384	0.220
-248.019	142.813	0.021	0.028
-247.005	-108.139	0.175	0.038
-245.990	422.503	0.059	-0.126
-244.976	256.488	-0.096	-0.163
-243.961	-200.000	0.018	-0.273
-242.946	-161.824	0.238	-0.012
-241.932	-125.798	0.077	0.012
-240.917	-200.000	-0.011	-0.107
-239.903	219.489	0.216	-0.343
-238.888	-200.000	0.019	-0.126
-237.873	-200.000	0.034	-0.255
-236.859	-38.248	-0.135	0.071
-235.844	74.213	0.201	-0.209
-234.830	22.608	0.267	-0.217
-233.815	-70.266	0.159	0.060
-232.800	-42.436	0.114	-0.058
-231.786	-172.244	0.500	-0.016
-230.771	-84.789	-0.292	0.091
-229.757	-200.000	0.008	0.047
-228.742	-105.323	-0.255	-0.058
-227.727	-148.665	0.160	-0.013
-226.713	-167.728	-0.234	-0.009
-225.698	46.760	-0.319	-0.294
-224.684	112.258	-0.041	-0.049
-223.669	-121.195	-0.154	0.025
-222.655	-96.566	0.230	0.060
-221.640	-0.561	-0.235	0.166
-220.625	86.339	0.185	0.202
-219.611	-66.755	-0.309	0.122
-218.596	777.581	0.173	0.470
-217.582	-22.342	-0.244	0.147
-216.567	-137.714	0.144	0.016
-215.552	-118.745	-0.083	-0.014
-214.538	-66.623	-0.148	0.058
-213.523	-106.838	-0.113	-0.025
-212.509	-105.564	-0.376	-0.085
-211.494	-200.000	0.012	0.275
-210.479	164.910	0.254	0.355
-209.465	756.159	-0.048	0.128
-208.450	34.390	0.173	-0.150
-207.436	204.697	-0.130	-0.200
-206.421	683.230	-0.027	0.069
-205.406	-1.350	-0.256	0.179
-204.392	552.888	-0.049	-0.116
-203.377	23.898	0.179	-0.147
-202.363	-114.229	-0.336	-0.064
-201.348	-200.000	0.016	-0.160
-200.333	-33.294	0.153	-0.084
-199.319	269.371	-0.148	0.258
-198.304	800.000	-0.031	0.115
-197.290	183.511	0.112	0.165
-196.275	-62.756	0.320	0.131
-195.260	-2.405	-0.171	0.119
-194.246	-200.000	0.053	-0.346
-193.231	454.195	-0.090	0.198
-192.217	78.935	0.257	0.272
-191.202	-157.880	0.160	-0.009
-190.187	2.175	0.267	-0.191
-189.173	-61.162	0.054	-0.022
-188.158	800.000	-0.114	-0.418
-187.144	-200.000	0.030	0.170
-186.129	-49.038	-0.211	-0.100
-185.114	-60.242	-0.228	0.096
-184.100	652.219	0.104	0.264
-183.085	205.476	0.103	0.158
-182.071	611.378	-0.061	0.151
-181.056	41.827	-0.226	-0.203
-180.042	800.000	-0.033	-0.103
-179.027	114.831	0.095	0.115
-178.012	-93.193	-0.123	-0.034
-176.998	-183.869	0.202	0.003
-175.983	-68.785	0.012	-0.005
-174.969	201.407	0.119	0.181
-173.954	-200.000	0.012	-0.123
-172.939	70.851	0.338	0.347
-171.925	-200.000	0.011	-0.122
-170.910	15.889	0.192	0.149
-169.896	-157.382	0.191	-0.011
-168.881	-139.241	-0.140	0.015
-167.866	459.287	-0.120	0.264
-166.852	-151.520	0.219	-0.016
-165.837	-200.000	0.010	-0.336
-164.823	76.929	0.233	-0.245
-163.808	-200.000	-0.005	-0.164
-162.793	-25.443	0.247	-0.145
-161.779	800.000	-0.037	0.121
-160.764	-117.526	-0.387	-0.069
-159.750	57.678	0.135	-0.130
-158.735	-72.563	0.214	-0.078
-157.720	23.431	-0.480	0.391
-156.706	-200.000	0.036	0.254
-155.691	54.289	-0.163	-0.155
-154.677	-79.523	-0.235	-0.078
-153.662	-21.547	0.431	0.260
-152.647	-140.935	-0.071	0.007
-151.633	-200.000	-0.021	-0.096
-150.618	-200.000	-0.027	0.253
-149.604	-59.992	0.146	0.062
-148.589	27.916	0.234	-0.195
-147.574	-12.408	-0.280	-0.181
-146.560	800.000	-0.080	0.264
-145.545	-146.459	-0.136	0.012
-144.531	117.826	-0.144	-0.175
-143.516	100.647	0.141	0.163
-142.502	36.400	0.077	0.067
-141.487	97.018	0.054	-0.061
-140.472	-200.000	-0.030	-0.218
-139.458	-115.961	-0.120	-0.022
-138.443	300.432	-0.044	0.081
-137.429	17.102	-0.173	-0.136
-136.414	-200.000	0.042	-0.263
-135.399	-23.901	0.012	-0.007
-134.385	-110.521	-0.113	-0.023
-133.370	800.000	0.093	0.267
-132.356	83.629	-0.171	-0.184
-131.341	66.502	-0.097	0.098
-130.326	51.170	0.215	0.202
-129.312	-33.277	-0.194	-0.106
-128.297	110.094	0.174	-0.207
-127.283	-41.931	-0.226	-0.114
-126.268	399.520	0.055	-0.115
-125.253	-121.575	0.122	-0.020
-124.239	-45.262	0.275	0.135
-123.224	-135.092	0.361	0.043
-122.210	47.438	-0.080	0.073
