DTS Sentinel unit serial number:	SN413079Multiplexer serial number:	ORYXHardware model number:	OX4-SRSoftware version number:	ORYX F/W v4.00 Oryx Data Collector v3.7.2.0data status	okinstallation	princeton_trtdifferential loss correction	single-endedforward channel	channel 3reverse channel	N/Adate	2019/09/13time	08:56:35forward acquisition time	60.00reverse acquisition time	0.00gamma	496.2192k internal	0.2329k external	0.2329temperature offset calibration	1.0144default loss term (dB/km)	0.3790temperature slope calibration	1.0000multiplexer offset coefficient	1.0000multiplexer slope coefficient	1.0000fibre end	0.00T internal ref (°C)	28.28T ext. ref 1 (°C)	4.35T ext. ref 2 (°C)	25.37length (m)	temperature (°C)	Stokes	anti-Stokes-747.200	99.642	-0.274	-0.320
-746.185	-17.994	-0.348	0.220
-745.171	-99.736	0.111	0.028
-744.156	120.944	0.241	0.302
-743.142	-200.000	-0.005	0.472
-742.127	7.349	0.228	0.171
-741.112	-69.401	0.110	0.043
-740.098	-75.098	-0.130	-0.047
-739.083	800.000	0.037	0.130
-738.069	-47.956	0.230	0.112
-737.054	201.815	-0.023	-0.036
-736.039	-200.000	-0.025	0.244
-735.025	800.000	0.059	0.176
-734.010	411.714	-0.125	-0.266
-732.996	-200.000	0.054	-0.262
-731.981	800.000	-0.159	0.475
-730.966	-68.752	-0.111	-0.043
-729.952	-118.876	0.510	0.090
-728.937	-92.476	0.192	0.054
-727.923	68.544	0.206	0.212
-726.908	-153.250	0.206	0.015
-725.894	-200.000	-0.019	-0.149
-724.879	-135.662	0.246	0.029
-723.864	-13.530	-0.287	0.187
-722.850	41.834	0.052	-0.047
-721.835	-118.363	-0.085	-0.015
-720.821	450.242	-0.073	-0.162
-719.806	800.000	0.023	-0.098
-718.791	-200.000	0.049	0.501
-717.777	-83.038	-0.278	-0.090
-716.762	800.000	0.085	-0.358
-715.748	285.552	0.113	0.204
-714.733	103.187	0.146	0.172
-713.718	123.589	0.114	-0.144
-712.704	800.000	0.053	0.223
-711.689	36.097	0.100	-0.088
-710.675	266.348	-0.185	0.326
-709.660	475.339	-0.124	0.281
-708.645	-55.089	-0.158	-0.072
-707.631	32.131	-0.376	-0.326
-706.616	-200.000	0.011	-0.117
-705.602	-148.948	-0.237	0.019
-704.587	-97.192	-0.234	0.062
-703.572	-17.997	0.305	-0.192
-702.558	-200.000	-0.010	-0.098
-701.543	-200.000	0.052	-0.232
-700.529	-102.221	-0.246	0.059
-699.514	25.516	-0.241	0.202
-698.499	800.000	0.026	0.108
-697.485	-45.018	-0.319	-0.159
-696.470	123.172	0.120	-0.151
-695.456	294.883	0.077	0.141
-694.441	-138.930	-0.284	0.031
-693.426	47.855	0.084	-0.079
-692.412	88.175	-0.180	0.201
-691.397	-107.920	-0.181	-0.040
-690.383	-32.429	0.161	-0.090
-689.368	800.000	0.076	-0.259
-688.354	-200.000	0.041	0.197
-687.339	-26.744	0.090	0.053
-686.324	-0.869	-0.099	0.071
-685.310	-86.653	-0.259	0.080
-684.295	148.526	-0.172	-0.234
-683.281	-56.611	-0.099	0.044
-682.266	55.700	0.116	-0.113
-681.251	-158.255	-0.474	-0.028
-680.237	-200.000	0.006	-0.082
-679.222	115.500	-0.062	-0.076
-678.208	-200.000	-0.002	-0.118
-677.193	-200.000	0.026	-0.300
-676.178	52.296	-0.119	-0.114
-675.164	800.000	-0.037	0.155
-674.149	487.852	-0.077	-0.176
-673.135	345.725	0.076	0.150
-672.120	7.344	-0.224	0.168
-671.105	97.530	0.151	-0.175
-670.091	-200.000	0.079	-0.355
-669.076	167.686	-0.244	0.348
-668.062	-200.000	0.027	-0.144
-667.047	-200.000	0.015	0.227
-666.032	-8.729	-0.124	-0.084
-665.018	238.146	-0.180	-0.300
-664.003	-200.000	0.036	-0.270
-662.989	251.091	0.069	-0.118
-661.974	21.169	-0.175	-0.143
-660.959	800.000	-0.099	-0.389
-659.945	59.959	-0.122	0.121
-658.930	515.013	-0.065	-0.153
-657.916	-87.070	0.237	0.072
-656.901	-92.509	0.068	-0.019
-655.886	800.000	-0.077	-0.337
-654.872	-17.888	-0.240	-0.151
-653.857	-153.338	0.585	-0.041
-652.843	-200.000	-0.004	-0.033
-651.828	419.849	-0.111	-0.239
-650.814	-58.324	-0.466	0.203
-649.799	-200.000	0.047	-0.402
-648.784	23.507	0.104	-0.085
-647.770	800.000	0.075	0.306
-646.755	428.551	-0.015	0.032
-645.741	470.192	0.030	0.068
-644.726	-200.000	0.017	-0.102
-643.711	23.005	-0.401	-0.330
-642.697	672.756	-0.069	-0.180
-641.682	356.802	0.066	0.133
-640.668	800.000	-0.098	0.372
-639.653	43.613	-0.055	0.051
-638.638	-111.056	0.301	-0.062
-637.624	43.549	0.274	-0.251
-636.609	56.707	0.126	0.123
-635.595	800.000	0.046	0.132
-634.580	-106.845	-0.284	0.063
-633.565	-200.000	-0.064	-0.339
-632.551	-58.211	-0.333	-0.146
-631.536	-11.040	-0.186	-0.123
-630.522	56.027	0.110	0.107
-629.507	-24.435	-0.292	0.175
-628.492	800.000	0.004	0.016
-627.478	79.779	0.132	0.142
-626.463	-200.000	0.021	0.133
-625.449	119.913	0.179	-0.223
-624.434	134.159	0.162	0.210
-623.419	-56.310	-0.060	0.027
-622.405	-153.538	-0.366	0.025
-621.390	-165.870	-0.086	0.004
-620.376	27.174	-0.218	-0.183
-619.361	21.094	0.175	0.143
-618.346	104.958	-0.269	-0.318
-617.332	196.573	-0.147	-0.225
-616.317	800.000	-0.029	-0.101
-615.303	-88.311	0.449	0.134
-614.288	-133.548	0.165	0.021
-613.273	250.329	-0.071	0.121
-612.259	158.606	-0.095	0.133
-611.244	-200.000	-0.004	0.127
-610.230	-200.000	0.040	-0.321
-609.215	401.633	-0.061	0.128
-608.201	-42.131	0.076	-0.039
-607.186	800.000	-0.061	-0.221
-606.171	-30.263	-0.126	-0.072
-605.157	32.176	-0.184	-0.159
-604.142	153.820	-0.222	-0.305
-603.128	800.000	0.030	-0.107
-602.113	341.292	0.045	-0.089
-601.098	109.180	0.097	-0.117
-600.084	25.653	-0.085	-0.071
-599.069	44.999	-0.272	0.251
-598.055	-200.000	-0.007	0.214
-597.040	-95.627	-0.342	-0.092
-596.025	12.031	-0.038	-0.029
-595.011	20.682	-0.193	0.157
-593.996	352.233	-0.009	-0.018
-592.982	-200.000	0.010	0.131
-591.967	-80.628	0.100	0.033
-590.952	-54.656	0.279	0.126
-589.938	-19.878	-0.211	0.130
-588.923	473.825	0.058	0.131
-587.909	37.445	-0.105	-0.093
-586.894	-31.563	-0.105	-0.059
-585.879	153.369	-0.132	-0.181
-584.865	19.769	0.019	0.015
-583.850	26.241	-0.131	-0.109
-582.836	-58.837	0.175	0.076
-581.821	800.000	0.056	-0.245
-580.806	110.810	0.332	-0.399
-579.792	-131.048	-0.219	0.029
-578.777	800.000	0.070	-0.224
-577.763	-85.788	-0.314	-0.097
-576.748	-13.293	0.209	-0.136
-575.733	144.782	0.207	-0.277
-574.719	-90.772	-0.290	-0.084
-573.704	-121.823	-0.246	0.041
-572.690	55.817	0.147	0.143
-571.675	-200.000	0.007	-0.067
-570.661	118.381	0.210	-0.259
-569.646	-139.611	0.333	0.036
-568.631	51.307	0.126	-0.119
-567.617	8.779	-0.119	0.090
-566.602	404.470	-0.147	-0.310
-565.588	179.738	-0.155	-0.228
-564.573	-72.020	-0.312	0.116
-563.558	305.516	0.095	0.177
-562.544	-25.468	0.205	-0.121
-561.529	-46.649	-0.170	-0.084
-560.515	-106.343	0.229	0.051
-559.500	-149.525	0.097	-0.008
-558.485	113.844	0.081	0.098
-557.471	-200.000	-0.006	-0.158
-556.456	-89.475	0.047	-0.014
-555.442	-200.000	0.010	-0.206
-554.427	-200.000	0.016	0.215
-553.412	-200.000	-0.025	-0.179
-552.398	263.253	0.190	-0.329
-551.383	67.272	-0.140	-0.143
-550.369	-200.000	0.031	0.352
-549.354	-105.439	-0.122	-0.028
-548.339	-200.000	0.074	0.384
-547.325	97.422	0.028	0.032
-546.310	7.577	-0.116	-0.086
-545.296	-20.681	0.133	0.082
-544.281	-101.469	-0.121	0.029
-543.266	199.718	-0.153	0.235
-542.252	-200.000	-0.006	0.093
-541.237	-200.000	0.092	-0.455
-540.223	152.671	-0.076	0.104
-539.208	-120.317	-0.145	-0.025
-538.193	-108.370	0.075	0.016
-537.179	520.044	-0.105	-0.245
-536.164	-130.942	-0.167	0.022
-535.150	-200.000	-0.025	0.000
-534.135	45.329	0.090	-0.083
-533.121	-200.000	-0.002	0.067
-532.106	800.000	0.037	-0.133
-531.091	-200.000	0.038	-0.317
-530.077	77.289	0.053	0.057
-529.062	-200.000	-0.002	-0.221
-528.048	-20.023	0.253	-0.156
-527.033	-62.888	0.010	-0.004
-526.018	-12.529	-0.068	-0.044
-525.004	-200.000	0.046	-0.364
-523.989	-42.284	0.173	-0.088
-522.975	-72.095	-0.139	0.052
-521.960	-60.342	-0.044	-0.019
-520.945	200.686	0.111	0.170
-519.931	52.780	-0.123	0.118
-518.916	-200.000	-0.015	-0.196
-517.902	496.749	0.023	-0.053
-516.887	-200.000	0.059	-0.286
-515.872	-200.000	-0.016	0.261
-514.858	-200.000	-0.007	0.103
-513.843	-16.862	-0.227	0.143
-512.829	778.938	-0.030	0.082
-511.814	-66.957	0.021	0.008
-510.799	-179.646	0.216	-0.005
-509.785	800.000	0.034	-0.108
-508.770	-43.806	-0.096	-0.048
-507.756	589.835	-0.046	0.112
-506.741	-105.641	0.116	-0.026
-505.726	-200.000	0.020	-0.105
-504.712	80.249	0.167	-0.179
-503.697	-200.000	-0.008	0.278
-502.683	14.983	0.074	0.058
-501.668	-71.960	-0.202	-0.075
-500.653	800.000	0.102	-0.343
-499.639	-200.000	-0.065	0.328
-498.624	3.374	0.203	-0.148
-497.610	-69.934	0.083	-0.031
-496.595	128.627	-0.163	-0.208
-495.581	266.634	-0.164	-0.285
-494.566	-43.152	-0.234	0.118
-493.551	61.438	-0.196	-0.195
-492.537	-200.000	0.003	-0.064
-491.522	90.207	0.103	0.115
-490.508	21.996	0.180	-0.147
-489.493	16.784	0.181	0.143
-488.478	457.731	-0.064	0.143
-487.464	-87.899	-0.203	0.061
-486.449	20.396	0.234	-0.188
-485.435	-125.999	-0.128	-0.019
-484.420	367.710	-0.112	-0.225
-483.405	-74.373	-0.411	-0.148
-482.391	-125.696	-0.314	0.047
-481.376	-59.846	0.146	-0.062
-480.362	-133.349	-0.220	0.028
-479.347	-132.490	-0.072	-0.009
-478.332	64.262	0.165	-0.166
-477.318	328.382	-0.070	0.134
-476.303	122.942	-0.049	-0.062
-475.289	160.132	0.220	-0.306
-474.274	-90.110	0.125	-0.036
-473.259	-133.878	-0.080	0.010
-472.245	134.578	-0.114	-0.148
-471.230	503.941	-0.149	0.343
-470.216	25.588	0.102	0.085
-469.201	-186.658	-0.421	0.006
-468.186	-129.533	-0.110	0.015
-467.172	208.601	0.178	0.277
-466.157	-29.508	0.321	-0.183
-465.143	-18.674	0.098	0.061
-464.128	-10.224	0.301	-0.199
-463.113	-200.000	0.021	0.395
-462.099	390.013	-0.157	0.325
-461.084	-139.271	0.379	0.041
-460.070	800.000	-0.105	0.368
-459.055	288.928	-0.038	-0.069
-458.040	9.505	-0.080	0.061
-457.026	-62.910	-0.057	-0.023
-456.011	245.779	-0.115	0.193
-454.997	-38.942	-0.249	-0.130
-453.982	-200.000	-0.014	-0.312
-452.968	406.629	0.201	-0.423
-451.953	67.517	0.254	0.259
-450.938	-101.169	-0.161	-0.039
-449.924	431.651	0.082	0.178
-448.909	-67.650	0.086	-0.034
-447.895	48.582	0.142	-0.132
-446.880	-67.004	-0.068	-0.027
-445.865	-200.000	-0.043	-0.219
-444.851	-200.000	-0.046	0.291
-443.836	172.245	-0.097	0.139
-442.822	32.489	0.198	0.170
-441.807	77.949	0.215	-0.228
-440.792	39.074	0.241	-0.215
-439.778	-121.005	-0.163	-0.027
-438.763	-200.000	0.014	-0.093
-437.749	-129.754	0.081	0.011
-436.734	-200.000	0.046	-0.217
-435.719	800.000	-0.022	0.067
-434.705	-58.805	-0.202	-0.087
-433.690	625.385	0.081	0.204
-432.676	68.689	0.192	-0.196
-431.661	91.988	0.226	-0.253
-430.646	-200.000	0.071	0.462
-429.632	800.000	0.058	0.222
-428.617	-68.489	0.281	0.109
-427.603	-33.021	0.267	-0.147
-426.588	-45.284	0.314	-0.155
-425.573	800.000	0.091	0.289
-424.559	677.014	0.019	0.050
-423.544	800.000	0.020	-0.062
-422.530	-200.000	0.003	-0.175
-421.515	-37.336	-0.221	0.118
-420.500	-200.000	-0.026	-0.219
-419.486	356.703	-0.050	-0.100
-418.471	159.646	-0.188	-0.260
-417.457	-46.746	-0.141	0.069
-416.442	-200.000	-0.021	0.126
-415.428	-117.337	0.138	0.025
-414.413	800.000	-0.063	0.225
-413.398	800.000	-0.007	0.021
-412.384	-21.791	-0.255	-0.154
-411.369	21.377	0.307	0.248
-410.355	-49.525	-0.348	-0.165
-409.340	55.580	-0.073	-0.070
-408.325	184.307	0.071	-0.105
-407.311	-200.000	-0.021	-0.186
-406.296	-72.305	0.343	0.126
-405.282	-58.216	-0.243	-0.105
-404.267	-200.000	0.101	0.609
-403.252	205.006	-0.039	0.060
-402.238	800.000	-0.074	0.280
-401.223	401.342	-0.109	0.227
-400.209	2.684	-0.170	-0.123
-399.194	26.470	-0.185	0.154
-398.179	-118.738	0.483	0.085
-397.165	-200.000	-0.018	-0.152
-396.150	40.283	-0.138	0.124
-395.136	91.297	0.053	0.059
-394.121	237.743	0.253	0.417
-393.106	33.967	0.060	0.052
-392.092	-104.796	-0.304	0.070
-391.077	85.893	-0.135	-0.148
-390.063	-78.670	-0.221	0.075
-389.048	-31.275	0.264	-0.147
-388.033	-79.296	-0.244	0.082
-387.019	-147.817	0.306	0.025
-386.004	17.705	-0.394	-0.311
-384.990	398.176	0.039	0.082
-383.975	800.000	-0.094	0.297
-382.960	19.048	0.266	0.212
-381.946	-200.000	-0.003	-0.028
-380.931	-200.000	-0.024	0.217
-379.917	-59.667	-0.079	-0.034
-378.902	60.263	0.100	0.098
-377.888	280.698	-0.118	0.209
-376.873	177.059	-0.152	0.220
-375.858	680.759	-0.091	0.235
-374.844	-109.614	-0.043	0.009
-373.829	-45.718	0.136	0.067
-372.815	-57.971	-0.206	-0.089
-371.800	-131.288	-0.208	-0.027
-370.785	-89.391	0.315	0.092
-369.771	-200.000	0.034	0.164
-368.756	-50.422	-0.159	0.074
-367.742	-200.000	-0.019	0.194
-366.727	306.485	-0.180	0.333
-365.712	-186.286	0.073	-0.001
-364.698	-94.898	0.155	0.042
-363.683	-200.000	0.023	0.142
-362.669	-37.897	-0.071	-0.037
-361.654	-200.000	0.338	0.001
-360.639	-19.952	0.048	0.029
-359.625	-13.452	0.126	0.081
-358.610	467.638	0.105	0.234
-357.596	-89.258	-0.150	0.044
-356.581	-200.000	0.064	0.465
-355.566	653.056	0.078	0.197
-354.552	552.170	0.142	0.339
-353.537	-200.000	-0.006	0.141
-352.523	43.755	-0.260	-0.237
-351.508	-119.846	0.161	-0.027
-350.493	130.092	-0.221	-0.280
-349.479	48.536	0.087	-0.081
-348.464	99.406	0.103	0.118
-347.450	800.000	0.117	-0.392
-346.435	-138.810	0.062	0.007
-345.420	-71.032	-0.151	0.056
-344.406	-75.370	-0.124	-0.044
-343.391	-200.000	-0.044	0.294
-342.377	-108.398	-0.140	-0.030
-341.362	-200.000	0.043	-0.285
-340.348	-76.569	-0.246	0.085
-339.333	-45.131	0.198	0.098
-338.318	-78.482	-0.400	0.136
-337.304	-200.000	0.022	0.167
-336.289	-200.000	-0.028	0.279
-335.275	19.021	0.086	-0.068
-334.260	-200.000	-0.026	-0.411
-333.245	18.606	0.270	0.214
-332.231	-146.721	-0.324	-0.028
-331.216	-34.091	-0.175	0.095
-330.202	-6.301	0.197	-0.133
-329.187	-146.286	-0.355	-0.031
-328.172	21.582	-0.176	-0.142
-327.158	-58.478	0.203	-0.087
-326.143	-200.000	0.078	0.377
-325.129	-116.917	-0.171	0.031
-324.114	-1.500	-0.134	-0.093
-323.099	-122.532	0.071	-0.011
-322.085	88.875	0.227	-0.251
-321.070	18.134	-0.105	-0.083
-320.056	-200.000	0.013	0.123
-319.041	-32.867	-0.152	-0.084
-318.026	-200.000	0.014	0.228
-317.012	-142.064	0.122	-0.012
-315.997	800.000	-0.018	-0.050
-314.983	-68.206	0.175	0.067
-313.968	-128.529	0.254	0.036
-312.953	-200.000	-0.016	-0.071
-311.939	800.000	0.033	-0.099
-310.924	800.000	-0.074	0.228
-309.910	800.000	0.077	0.214
-308.895	209.892	-0.018	0.028
-307.880	-84.285	-0.232	0.073
-306.866	-54.049	0.184	-0.083
-305.851	14.938	-0.234	0.181
-304.837	481.800	0.109	0.245
-303.822	800.000	-0.079	-0.236
-302.807	-200.000	-0.036	0.255
-301.793	-200.000	-0.014	0.148
-300.778	349.582	-0.051	0.099
-299.764	-200.000	-0.025	0.217
-298.749	137.399	0.198	-0.256
-297.735	127.182	-0.093	0.117
-296.720	138.367	0.151	-0.196
-295.705	188.271	0.195	0.288
-294.691	-2.510	0.290	0.201
-293.676	156.418	-0.160	-0.218
-292.662	-150.623	-0.092	-0.007
-291.647	-200.000	0.015	-0.139
-290.632	250.674	-0.112	-0.189
-289.618	-162.430	0.017	-0.001
-288.603	7.037	-0.171	0.126
-287.589	-3.828	-0.425	0.292
-286.574	-48.538	-0.450	-0.214
-285.559	366.627	0.040	-0.079
-284.545	50.350	0.154	-0.144
-283.530	-35.712	0.340	-0.183
-282.516	-189.571	-0.129	0.001
-281.501	-7.356	-0.030	-0.020
-280.486	-47.280	-0.283	-0.137
-279.472	-39.251	-0.182	0.095
-278.457	-174.405	0.146	0.004
-277.443	-72.507	0.449	-0.164
-276.428	4.367	-0.080	-0.058
-275.413	-200.000	-0.005	0.228
-274.399	-64.887	0.148	-0.059
-273.384	211.622	-0.046	0.072
-272.370	-200.000	-0.050	0.471
-271.355	21.744	0.120	0.096
-270.340	82.189	0.042	-0.045
-269.326	389.011	0.126	-0.259
-268.311	800.000	-0.086	-0.349
-267.297	800.000	0.050	0.194
-266.282	20.769	-0.140	-0.112
-265.267	-71.982	0.196	0.072
-264.253	84.806	0.031	0.034
-263.238	-127.845	-0.338	-0.048
-262.224	25.734	-0.196	0.162
-261.209	800.000	0.050	0.148
-260.195	-200.000	-0.016	-0.274
-259.180	-153.364	-0.232	0.016
-258.165	-31.508	0.230	-0.128
-257.151	800.000	-0.067	-0.266
-256.136	59.053	-0.111	0.108
-255.122	429.521	0.135	0.288
-254.107	-199.396	0.056	0.000
-253.092	368.729	0.153	0.305
-252.078	-200.000	0.013	-0.151
-251.063	-200.000	0.055	-0.502
-250.049	-200.000	-0.057	0.284
-249.034	-18.352	0.134	0.083
-248.019	52.000	-0.299	-0.281
-247.005	800.000	0.063	0.209
-245.990	-32.192	0.110	-0.061
-244.976	800.000	-0.078	0.281
-243.961	-78.670	-0.371	0.125
-242.946	315.914	0.175	-0.326
-241.932	162.836	0.227	-0.315
-240.917	550.951	0.088	-0.208
-239.903	290.441	-0.187	-0.335
-238.888	7.172	0.091	-0.067
-237.873	-200.000	0.007	-0.104
-236.859	-125.901	-0.238	-0.035
-235.844	800.000	0.054	0.208
-234.830	-200.000	-0.048	0.232
-233.815	709.824	-0.083	0.216
-232.800	-200.000	-0.021	0.199
-231.786	-200.000	0.005	-0.039
-230.771	-200.000	0.010	0.182
-229.757	-128.677	0.420	-0.059
-228.742	-70.200	0.338	-0.127
-227.727	-200.000	0.001	-0.476
-226.713	-200.000	0.007	-0.231
-225.698	-200.000	-0.045	-0.242
-224.684	76.653	0.121	-0.126
-223.669	30.087	0.375	-0.316
-222.655	-82.113	-0.338	-0.109
-221.640	-200.000	-0.005	-0.094
-220.625	-155.056	0.335	0.022
-219.611	-16.437	-0.143	0.090
-218.596	-41.781	-0.301	0.152
-217.582	-200.000	-0.026	0.176
-216.567	-25.834	0.259	0.151
-215.552	-4.136	-0.213	-0.146
-214.538	-126.414	0.159	0.023
-213.523	-151.304	0.348	-0.026
-212.509	-71.821	-0.141	0.052
-211.494	161.503	0.089	-0.124
-210.479	-21.966	0.222	-0.133
-209.465	332.650	0.142	0.270
-208.450	800.000	-0.028	-0.093
-207.436	325.283	-0.149	0.281
-206.421	-43.339	0.210	-0.105
-205.406	-149.651	-0.093	0.007
-204.392	-200.000	-0.029	0.366
-203.377	-115.100	-0.219	0.041
-202.363	-200.000	0.050	0.227
-201.348	547.599	-0.065	-0.153
-200.333	800.000	0.085	-0.359
-199.319	42.506	0.073	0.065
-198.304	-200.000	0.002	-0.072
-197.290	-200.000	0.006	0.215
-196.275	70.074	-0.197	0.200
-195.260	46.960	0.021	0.019
-194.246	800.000	-0.121	0.386
-193.231	800.000	-0.029	-0.111
-192.217	52.297	0.219	0.206
-191.202	34.060	0.135	0.116
-190.187	-143.521	-0.138	-0.013
-189.173	22.425	-0.037	0.030
-188.158	-120.248	0.356	-0.060
-187.144	-136.776	0.346	0.039
-186.129	-133.614	0.052	-0.006
-185.114	733.500	-0.011	0.030
-184.100	-99.109	-0.077	0.019
-183.085	81.022	0.131	-0.140
-182.071	615.356	0.034	0.083
-181.056	100.947	0.049	-0.056
-180.042	180.777	-0.142	0.206
-179.027	-200.000	-0.026	0.181
-178.012	800.000	-0.081	-0.279
-176.998	800.000	-0.059	0.215
-175.983	141.436	0.227	0.296
-174.969	800.000	-0.082	-0.229
-173.954	-119.579	0.059	0.010
-172.939	-59.630	-0.190	0.080
-171.925	800.000	-0.047	0.181
-170.910	-200.000	0.003	-0.226
-169.896	162.540	-0.035	-0.049
-168.881	26.621	0.170	0.140
-167.866	-200.000	-0.026	-0.251
-166.852	-54.293	-0.170	0.076
-165.837	800.000	0.010	0.031
-164.823	-15.607	-0.294	-0.184
-163.808	-200.000	-0.027	0.405
-162.793	-94.545	0.612	-0.164
-161.779	48.385	0.165	-0.152
-160.764	800.000	0.047	-0.183
-159.750	15.823	0.132	-0.102
-158.735	-130.049	0.209	0.028
-157.720	-151.154	-0.302	0.022
-156.706	-200.000	0.015	-0.445
-155.691	-143.784	0.474	0.044
-154.677	-128.023	-0.276	-0.039
-153.662	-45.936	0.080	0.039
-152.647	800.000	0.016	0.057
-151.633	111.852	0.072	0.085
-150.618	-61.758	-0.097	0.040
-149.604	-200.000	0.044	0.305
-148.589	-200.000	-0.018	0.179
-147.574	2.895	-0.227	0.162
-146.560	471.551	-0.041	0.091
-145.545	-155.680	0.189	-0.012
-144.531	331.095	-0.062	0.118
-143.516	482.424	0.116	-0.260
-142.502	-22.952	0.184	-0.109
-141.487	800.000	-0.033	0.127
-140.472	551.255	0.169	0.398
-139.458	49.653	-0.140	-0.130
-138.443	254.274	0.138	0.232
-137.429	-83.429	-0.297	0.093
-136.414	279.951	-0.181	-0.318
-135.399	-105.554	-0.263	-0.059
-134.385	332.276	-0.036	0.067
-133.370	800.000	0.110	-0.348
-132.356	-194.530	-0.132	0.001
-131.341	-21.566	0.285	0.171
-130.326	24.486	0.119	-0.097
-129.312	-95.378	-0.378	-0.100
-128.297	533.986	-0.050	0.116
-127.283	-45.363	-0.054	0.026
-126.268	-43.167	0.101	0.050
-125.253	43.754	0.084	0.076
-124.239	-135.541	0.240	-0.028
-123.224	-12.433	-0.108	0.069
-122.210	289.517	-0.083	-0.148
-121.195	106.929	-0.159	-0.186
