DTS Sentinel unit serial number:	SN413079Multiplexer serial number:	ORYXHardware model number:	OX4-SRSoftware version number:	ORYX F/W v4.00 Oryx Data Collector v3.7.2.0data status	okinstallation	princeton_trtdifferential loss correction	single-endedforward channel	channel 3reverse channel	N/Adate	2019/09/13time	10:28:35forward acquisition time	60.00reverse acquisition time	0.00gamma	496.2192k internal	0.2321k external	0.2321temperature offset calibration	1.0139default loss term (dB/km)	0.3790temperature slope calibration	1.0000multiplexer offset coefficient	1.0000multiplexer slope coefficient	1.0000fibre end	0.00T internal ref (°C)	31.09T ext. ref 1 (°C)	4.55T ext. ref 2 (°C)	28.10length (m)	temperature (°C)	Stokes	anti-Stokes-747.200	324.027	0.090	-0.174
-746.185	349.992	0.044	-0.089
-745.171	47.390	-0.445	-0.419
-744.156	700.914	0.074	-0.196
-743.142	66.125	-0.118	-0.121
-742.127	115.792	0.325	0.402
-741.112	125.351	0.205	0.261
-740.098	-149.160	-0.102	-0.008
-739.083	173.026	0.031	-0.045
-738.069	-200.000	-0.000	0.357
-737.054	101.373	-0.070	0.082
-736.039	800.000	-0.026	0.110
-735.025	800.000	0.037	-0.114
-734.010	249.705	-0.091	0.156
-732.996	-200.000	0.001	0.125
-731.981	552.204	-0.070	0.170
-730.966	75.263	0.065	-0.069
-729.952	-200.000	0.061	-0.341
-728.937	105.427	-0.129	-0.154
-727.923	-200.000	0.004	0.170
-726.908	-200.000	0.047	-0.269
-725.894	-30.121	0.140	0.080
-724.879	800.000	-0.038	-0.119
-723.864	-194.911	-0.199	0.002
-722.850	-66.697	0.258	0.103
-721.835	-143.879	-0.529	0.050
-720.821	-83.468	-0.287	0.093
-719.806	-27.466	-0.253	-0.148
-718.791	800.000	-0.029	0.101
-717.777	65.839	0.093	0.096
-716.762	-200.000	-0.021	0.259
-715.748	118.722	-0.271	-0.338
-714.733	-200.000	0.064	-0.293
-713.718	-9.711	-0.237	-0.159
-712.704	654.430	-0.055	0.142
-711.689	-127.707	0.099	-0.014
-710.675	-40.143	0.373	-0.196
-709.660	-168.407	-0.259	-0.010
-708.645	-56.820	0.165	0.073
-707.631	-120.609	-0.222	0.038
-706.616	17.511	0.152	-0.122
-705.602	174.649	0.144	-0.211
-704.587	-130.914	-0.060	-0.008
-703.572	509.936	-0.062	-0.147
-702.558	-27.930	0.108	0.063
-701.543	-200.000	0.003	0.151
-700.529	-25.881	-0.168	-0.100
-699.514	-122.962	0.197	0.032
-698.499	800.000	0.034	-0.100
-697.485	298.285	0.057	-0.106
-696.470	164.052	-0.144	0.204
-695.456	132.231	0.090	-0.116
-694.441	-89.112	-0.200	0.060
-693.426	56.992	0.248	-0.244
-692.412	-149.529	-0.295	0.024
-691.397	407.516	0.041	-0.087
-690.383	82.965	-0.131	-0.143
-689.368	14.307	-0.377	0.296
-688.354	98.364	-0.096	-0.111
-687.339	-200.000	0.033	0.199
-686.324	372.469	-0.033	0.068
-685.310	342.646	-0.114	-0.225
-684.295	336.175	-0.252	0.492
-683.281	-10.437	-0.126	-0.084
-682.266	-126.192	-0.096	-0.015
-681.251	72.289	0.126	-0.133
-680.237	43.749	-0.310	-0.287
-679.222	800.000	-0.139	-0.409
-678.208	-79.274	0.145	0.050
-677.193	127.369	-0.159	-0.203
-676.178	-88.491	-0.358	-0.108
-675.164	497.061	-0.127	0.294
-674.149	-18.734	-0.214	-0.134
-673.135	-200.000	0.052	0.349
-672.120	-70.478	-0.083	0.032
-671.105	-109.621	-0.026	0.006
-670.091	-117.991	-0.331	0.060
-669.076	800.000	-0.101	-0.296
-668.062	43.882	0.147	-0.136
-667.047	800.000	-0.058	-0.227
-666.032	-139.514	0.025	-0.003
-665.018	385.872	-0.133	-0.276
-664.003	-200.000	0.118	-0.556
-662.989	13.667	0.166	-0.130
-661.974	-200.000	-0.067	-0.353
-660.959	-150.783	-0.144	-0.011
-659.945	-70.412	0.325	0.124
-658.930	64.550	-0.212	0.216
-657.916	-157.063	0.278	0.017
-656.901	172.963	-0.167	-0.242
-655.886	-200.000	0.031	0.321
-654.872	-76.819	-0.203	-0.071
-653.857	-200.000	0.006	-0.172
-652.843	800.000	-0.052	-0.160
-651.828	-200.000	0.007	-0.175
-650.814	3.402	-0.177	-0.130
-649.799	-42.385	0.321	-0.165
-648.784	51.898	-0.050	0.048
-647.770	32.309	0.093	0.081
-646.755	-200.000	-0.068	-0.403
-645.741	-144.362	0.456	-0.043
-644.726	-200.000	0.022	0.176
-643.711	752.714	0.225	-0.613
-642.697	72.312	-0.137	-0.144
-641.682	249.198	0.189	-0.322
-640.668	-140.953	-0.257	0.027
-639.653	31.249	-0.170	-0.147
-638.638	-200.000	0.002	-0.023
-637.624	238.015	-0.078	0.130
-636.609	-167.151	-0.064	-0.003
-635.595	3.171	0.017	-0.012
-634.580	-200.000	-0.029	-0.375
-633.565	674.283	0.133	-0.348
-632.551	-118.534	0.288	-0.051
-631.536	-6.625	0.247	-0.169
-630.522	-33.212	0.392	-0.219
-629.507	-145.750	-0.354	0.032
-628.492	-200.000	-0.033	0.167
-627.478	168.019	0.042	-0.061
-626.463	-144.808	0.219	-0.020
-625.449	60.414	0.156	-0.155
-624.434	-33.420	-0.170	-0.094
-623.419	619.005	0.092	0.232
-622.405	-16.157	0.437	0.279
-621.390	800.000	0.035	0.152
-620.376	-200.000	0.028	0.193
-619.361	-79.571	-0.114	0.039
-618.346	-163.447	0.370	0.018
-617.332	-8.192	0.065	0.044
-616.317	-55.274	0.126	-0.057
-615.303	-147.940	0.306	-0.026
-614.288	-118.338	0.291	0.052
-613.273	-84.069	-0.331	-0.106
-612.259	-33.144	0.249	-0.139
-611.244	181.895	0.104	0.154
-610.230	-200.000	-0.024	-0.355
-609.215	-153.159	0.229	0.016
-608.201	-85.791	-0.073	0.023
-607.186	-27.768	0.344	-0.201
-606.171	-72.415	0.394	-0.147
-605.157	-200.000	-0.008	-0.162
-604.142	317.259	0.055	0.104
-603.128	-171.968	-0.195	0.006
-602.113	642.027	0.135	-0.346
-601.098	181.519	-0.217	-0.320
-600.084	421.431	0.142	-0.307
-599.069	-200.000	0.021	-0.190
-598.055	3.922	0.076	-0.056
-597.040	-60.698	-0.216	-0.092
-596.025	-63.014	0.273	-0.113
-595.011	-165.117	-0.356	0.016
-593.996	31.513	0.051	-0.044
-592.982	45.937	-0.212	0.197
-591.967	-81.027	-0.140	0.046
-590.952	89.870	0.052	0.058
-589.938	168.789	-0.213	-0.305
-588.923	170.680	-0.121	-0.174
-587.909	-68.422	0.182	0.071
-586.894	425.799	-0.023	0.051
-585.879	96.550	-0.103	-0.119
-584.865	417.419	0.028	0.059
-583.850	-107.354	0.255	0.056
-582.836	-149.077	0.055	-0.004
-581.821	-200.000	0.010	0.083
-580.806	800.000	-0.069	0.232
-579.792	-200.000	-0.052	-0.451
-578.777	-44.053	-0.124	0.063
-577.763	-200.000	-0.028	-0.214
-576.748	-44.299	0.128	0.064
-575.733	-140.837	0.224	0.023
-574.719	-200.000	0.258	-0.001
-573.704	-7.584	-0.352	0.239
-572.690	-200.000	0.008	0.037
-571.675	-200.000	-0.016	-0.261
-570.661	-200.000	-0.024	-0.246
-569.646	84.496	0.218	0.240
-568.631	-63.727	0.165	-0.068
-567.617	-136.422	-0.376	-0.044
-566.602	-38.998	-0.308	-0.163
-565.588	-96.276	0.110	0.029
-564.573	238.949	-0.147	0.246
-563.558	-200.000	-0.032	-0.313
-562.544	134.368	-0.086	-0.112
-561.529	-200.000	0.029	0.277
-560.515	-51.088	0.369	-0.174
-559.500	-200.000	0.025	-0.205
-558.485	-101.987	-0.145	0.035
-557.471	800.000	0.039	-0.142
-556.456	-132.949	-0.114	0.015
-555.442	800.000	0.054	0.210
-554.427	-35.128	0.328	-0.179
-553.412	-90.308	-0.095	-0.028
-552.398	-26.668	-0.251	-0.147
-551.383	-84.651	-0.225	0.071
-550.369	-119.369	-0.213	-0.037
-549.354	-37.813	-0.130	-0.069
-548.339	-31.977	-0.326	0.183
-547.325	-200.000	0.026	-0.158
-546.310	21.423	0.109	0.089
-545.296	4.760	-0.168	0.124
-544.281	61.969	0.124	-0.124
-543.266	525.897	-0.060	0.142
-542.252	800.000	-0.017	-0.050
-541.237	-171.775	0.110	0.004
-540.223	44.091	0.210	0.194
-539.208	431.270	-0.101	0.219
-538.193	800.000	-0.036	0.144
-537.179	-200.000	-0.001	0.389
-536.164	11.273	0.125	-0.096
-535.150	-91.994	-0.131	0.037
-534.135	97.631	0.279	0.322
-533.121	191.951	0.238	0.359
-532.106	40.453	-0.101	-0.091
-531.091	14.881	-0.383	-0.300
-530.077	49.546	0.338	0.319
-529.062	-106.737	-0.327	-0.073
-528.048	150.755	0.054	-0.073
-527.033	-133.601	-0.284	-0.036
-526.018	-18.766	0.247	0.154
-525.004	-130.650	-0.106	-0.014
-523.989	228.097	0.095	0.154
-522.975	-200.000	0.044	0.203
-521.960	203.851	-0.118	-0.183
-520.945	800.000	-0.050	-0.211
-519.931	76.787	0.192	-0.204
-518.916	-200.000	0.064	-0.379
-517.902	800.000	-0.017	-0.046
-516.887	-200.000	-0.022	0.241
-515.872	94.459	-0.169	0.192
-514.858	19.398	0.190	-0.153
-513.843	-22.295	0.065	0.039
-512.829	800.000	0.086	0.242
-511.814	-39.293	-0.307	-0.161
-510.799	-133.217	-0.292	0.037
-509.785	100.060	0.083	-0.096
-508.770	66.474	0.280	-0.285
-507.756	-200.000	0.019	-0.330
-506.741	-200.000	-0.038	0.179
-505.726	-134.702	-0.421	0.051
-504.712	-3.314	-0.247	0.172
-503.697	-200.000	-0.002	0.016
-502.683	-200.000	0.009	0.076
-501.668	-69.951	-0.117	-0.045
-500.653	-128.523	0.268	-0.038
-499.639	-200.000	-0.018	0.159
-498.624	17.215	-0.084	-0.067
-497.610	-44.956	-0.124	-0.062
-496.595	-52.408	-0.327	0.152
-495.581	-142.580	-0.194	-0.019
-494.566	-109.176	-0.084	0.018
-493.551	31.930	-0.112	-0.097
-492.537	-130.324	-0.177	-0.024
-491.522	49.788	0.231	-0.218
-490.508	-127.136	-0.248	-0.036
-489.493	-200.000	0.012	-0.219
-488.478	-166.897	-0.355	0.015
-487.464	86.781	-0.110	-0.121
-486.449	-200.000	0.009	-0.241
-485.435	-200.000	-0.014	0.073
-484.420	65.522	0.080	-0.081
-483.405	3.340	0.263	-0.192
-482.391	477.490	-0.147	-0.333
-481.376	-200.000	-0.011	-0.166
-480.362	800.000	-0.074	0.287
-479.347	-143.769	-0.332	0.031
-478.332	800.000	-0.102	0.438
-477.318	-89.964	0.423	-0.124
-476.303	-200.000	-0.076	-0.354
-475.289	-64.095	0.205	-0.083
-474.274	-80.928	0.139	-0.046
-473.259	-200.000	0.200	-0.000
-472.245	450.212	-0.170	0.375
-471.230	-120.462	-0.116	0.020
-470.216	-200.000	-0.017	0.078
-469.201	-200.000	0.006	-0.338
-468.186	-76.310	-0.383	0.135
-467.172	102.145	0.091	0.106
-466.157	-92.315	-0.163	-0.046
-465.143	-79.820	-0.058	-0.019
-464.128	384.344	-0.075	-0.154
-463.113	-71.301	-0.145	-0.054
-462.099	800.000	0.077	0.256
-461.084	-55.747	-0.334	-0.149
-460.070	41.642	-0.114	-0.103
-459.055	-15.372	0.052	0.033
-458.040	115.021	0.146	0.178
-457.026	-154.376	-0.126	-0.008
-456.011	-113.277	0.139	0.027
-454.997	-200.000	0.002	0.080
-453.982	-200.000	0.034	-0.211
-452.968	295.855	-0.130	-0.239
-451.953	422.212	-0.043	-0.092
-450.938	5.262	0.148	0.109
-449.924	-79.326	0.137	-0.046
-448.909	112.117	-0.103	-0.124
-447.895	-96.460	-0.261	0.069
-446.880	-129.323	-0.140	0.019
-445.865	-65.119	-0.287	0.116
-444.851	-125.591	-0.410	0.062
-443.836	-37.809	0.084	-0.044
-442.822	50.228	0.305	-0.288
-441.807	23.286	-0.150	-0.123
-440.792	-48.717	-0.325	-0.156
-439.778	309.693	-0.092	-0.172
-438.763	-55.992	-0.101	0.045
-437.749	181.927	0.078	0.115
-436.734	86.207	-0.085	-0.094
-435.719	-34.908	0.315	0.171
-434.705	117.669	-0.084	-0.104
-433.690	-120.347	-0.163	0.028
-432.676	63.412	-0.245	-0.245
-431.661	-63.002	-0.308	-0.127
-430.646	800.000	0.099	0.353
-429.632	-200.000	0.048	-0.249
-428.617	-111.097	0.100	-0.020
-427.603	800.000	0.022	0.081
-426.588	800.000	-0.074	-0.207
-425.573	800.000	-0.040	-0.134
-424.559	36.773	0.257	-0.227
-423.544	-128.862	-0.162	0.023
-422.530	75.194	-0.103	-0.109
-421.515	-200.000	-0.010	0.471
-420.500	-119.087	0.223	0.039
-419.486	116.512	-0.156	-0.191
-418.471	684.205	-0.076	-0.198
-417.457	-200.000	-0.018	-0.129
-416.442	-43.411	-0.233	0.118
-415.428	-117.968	0.183	-0.033
-414.413	-114.208	-0.217	0.042
-413.398	800.000	0.116	0.475
-412.384	707.689	-0.108	-0.284
-411.369	318.844	0.008	0.015
-410.355	484.662	0.064	0.144
-409.340	291.768	0.154	-0.281
-408.325	386.525	0.149	0.306
-407.311	36.704	0.397	-0.350
-406.296	0.114	0.123	-0.087
-405.282	19.220	-0.227	-0.182
-404.267	-85.601	-0.118	-0.036
-403.252	-67.151	-0.295	0.116
-402.238	86.055	0.099	0.109
-401.223	96.163	-0.055	0.063
-400.209	17.913	-0.212	0.168
-399.194	423.426	0.032	0.069
-398.179	49.386	-0.107	-0.100
-397.165	-12.450	0.224	0.146
-396.150	-39.367	-0.072	0.038
-395.136	-26.021	0.076	0.045
-394.121	253.249	-0.064	-0.108
-393.106	-39.663	-0.129	0.067
-392.092	800.000	-0.087	0.329
-391.077	800.000	-0.116	-0.332
-390.063	250.405	0.182	0.309
-389.048	144.883	-0.268	0.358
-388.033	-200.000	0.009	0.245
-387.019	-200.000	-0.011	-0.179
-386.004	119.509	-0.328	0.405
-384.990	-63.449	0.153	0.063
-383.975	-72.466	-0.098	0.036
-382.960	121.415	-0.130	0.161
-381.946	800.000	0.106	0.311
-380.931	21.400	0.340	0.275
-379.917	23.569	-0.112	0.092
-378.902	-200.000	-0.269	-0.001
-377.888	-115.334	-0.154	0.029
-376.873	-146.528	0.124	-0.011
-375.858	-200.000	-0.010	0.244
-374.844	-85.845	0.202	-0.062
-373.829	121.852	-0.167	-0.208
-372.815	-149.546	0.302	0.024
-371.800	95.785	0.152	-0.173
-370.785	-18.229	0.191	-0.119
-369.771	-44.149	-0.221	-0.110
-368.756	683.663	-0.130	-0.339
-367.742	123.383	-0.041	-0.051
-366.727	10.371	-0.170	-0.129
-365.712	213.937	-0.067	0.106
-364.698	621.114	-0.091	0.228
-363.683	-200.000	0.060	-0.285
-362.669	68.830	-0.280	-0.286
-361.654	206.854	0.109	-0.169
-360.639	-38.834	-0.137	-0.072
-359.625	-9.911	0.258	-0.171
-358.610	-61.408	-0.353	0.148
-357.596	-156.101	0.269	-0.017
-356.581	-200.000	-0.013	0.127
-355.566	268.323	0.075	0.130
-354.552	-200.000	-0.000	0.266
-353.537	-39.285	0.327	0.171
-352.523	-92.138	0.243	-0.068
-351.508	560.600	-0.086	-0.208
-350.493	-172.151	-0.442	0.014
-349.479	170.515	0.175	0.250
-348.464	-200.000	0.013	-0.277
-347.450	111.060	0.027	-0.033
-346.435	-113.389	0.489	0.095
-345.420	-167.992	0.107	-0.004
-344.406	776.033	0.110	-0.298
-343.391	289.404	-0.103	0.186
-342.377	-4.011	0.144	-0.099
-341.362	58.517	0.186	0.181
-340.348	-27.971	-0.305	0.176
-339.333	-12.096	-0.039	-0.025
-338.318	385.373	0.150	-0.308
-337.304	167.786	0.221	-0.313
-336.289	-200.000	0.000	0.058
-335.275	-36.597	0.256	0.137
-334.260	289.872	-0.110	0.198
-333.245	239.633	0.088	0.145
-332.231	386.880	0.198	0.407
-331.216	-200.000	0.035	0.257
-330.202	-82.952	0.143	0.046
-329.187	11.240	-0.285	0.217
-328.172	-145.498	0.158	0.014
-327.158	-88.341	-0.272	0.081
-326.143	-25.682	-0.204	-0.119
-325.129	-200.000	0.016	0.136
-324.114	-200.000	-0.002	0.205
-323.099	314.642	-0.154	-0.288
-322.085	-156.259	0.429	-0.027
-321.070	800.000	0.081	-0.335
-320.056	-16.865	-0.099	-0.062
-319.041	-132.558	0.239	-0.031
-318.026	223.561	0.198	-0.317
-317.012	316.421	0.047	0.088
-315.997	756.360	-0.054	0.145
-314.983	10.195	0.256	-0.193
-313.968	7.174	-0.213	0.158
-312.953	800.000	-0.071	0.277
-311.939	-200.000	-0.126	0.603
-310.924	192.528	-0.193	0.289
-309.910	18.379	-0.221	0.176
-308.895	159.030	0.130	-0.179
-307.880	-129.682	0.190	0.026
-306.866	567.274	0.126	0.304
-305.851	800.000	-0.033	-0.105
-304.837	-49.118	-0.127	0.061
-303.822	339.077	0.117	0.226
-302.807	110.564	0.060	-0.072
-301.793	156.634	0.029	-0.040
-300.778	-200.000	-0.036	0.402
-299.764	-103.953	0.293	-0.068
-298.749	-88.503	-0.231	-0.068
-297.735	-200.000	-0.082	-0.422
-296.720	-28.247	-0.214	-0.123
-295.705	-200.000	0.017	0.148
-294.691	132.722	0.078	0.100
-293.676	-59.956	-0.264	-0.112
-292.662	119.095	0.014	0.017
-291.647	-87.004	0.249	-0.075
-290.632	7.845	-0.137	0.102
-289.618	66.328	0.220	0.222
-288.603	-115.865	0.269	0.050
-287.589	225.417	0.149	-0.239
-286.574	257.417	-0.139	0.237
-285.559	-6.850	-0.344	-0.232
-284.545	62.884	-0.079	-0.079
-283.530	-87.381	-0.251	-0.075
-282.516	-21.385	0.139	-0.084
-281.501	-72.962	-0.035	-0.013
-280.486	-128.985	-0.148	0.021
-279.472	-129.310	0.290	0.040
-278.457	55.349	0.162	0.155
-277.443	237.931	-0.076	0.125
-276.428	229.071	-0.098	0.159
-275.413	-11.711	0.177	0.115
-274.399	-48.355	0.148	0.071
-273.384	-164.151	0.205	0.009
-272.370	-69.267	0.016	0.006
-271.355	-200.000	-0.003	-0.148
-270.340	-200.000	-0.016	-0.083
-269.326	-200.000	-0.037	-0.274
-268.311	96.733	-0.198	-0.225
-267.297	800.000	-0.049	-0.180
-266.282	21.065	-0.228	0.184
-265.267	471.429	-0.061	-0.137
-264.253	422.901	-0.079	-0.169
-263.238	-200.000	0.006	0.204
-262.224	-103.365	-0.148	0.035
-261.209	39.771	-0.101	0.090
-260.195	144.276	-0.158	-0.210
-259.180	-75.778	0.315	-0.111
-258.165	-200.000	-0.016	0.178
-257.151	-64.422	0.306	0.123
-256.136	152.249	-0.046	0.063
-255.122	40.980	-0.137	-0.123
-254.107	-5.260	-0.159	0.108
-253.092	105.112	-0.118	-0.138
-252.078	-3.241	0.243	-0.168
-251.063	62.624	0.133	-0.132
-250.049	-94.992	0.283	-0.076
-249.034	-200.000	0.028	0.262
-248.019	12.196	0.301	0.230
-247.005	-187.170	0.115	0.002
-245.990	-158.754	0.172	0.010
-244.976	-46.149	0.351	0.171
-243.961	-52.761	0.171	-0.078
-242.946	220.459	0.079	0.126
-241.932	128.731	0.201	0.254
-240.917	766.814	-0.069	-0.186
-239.903	-200.000	0.007	0.336
-238.888	259.743	0.110	0.189
-237.873	25.037	-0.131	-0.108
-236.859	-127.177	0.081	-0.012
-235.844	-60.573	0.096	-0.040
-234.830	800.000	-0.073	-0.213
-233.815	49.592	-0.331	-0.308
-232.800	-109.582	0.308	-0.064
-231.786	-200.000	-0.002	0.121
-230.771	-138.244	0.201	0.022
-229.757	800.000	0.016	-0.063
-228.742	-200.000	-0.022	0.126
-227.727	-200.000	0.049	-0.258
-226.713	-200.000	-0.030	0.194
-225.698	-89.721	0.423	0.123
-224.684	-102.268	-0.456	0.108
-223.669	38.495	0.050	-0.044
-222.655	152.431	-0.084	0.114
-221.640	91.735	0.063	-0.071
-220.625	-95.359	0.172	0.046
-219.611	800.000	-0.064	0.194
-218.596	669.128	0.142	0.365
-217.582	800.000	-0.026	0.101
-216.567	20.852	0.230	-0.184
-215.552	19.246	-0.114	-0.090
-214.538	800.000	-0.032	0.139
-213.523	149.067	0.071	-0.095
-212.509	35.555	0.090	0.078
-211.494	256.765	-0.151	0.258
-210.479	800.000	-0.072	-0.198
-209.465	402.397	0.102	-0.211
-208.450	675.454	0.092	-0.235
-207.436	-65.750	0.216	-0.085
-206.421	-50.627	-0.346	-0.161
-205.406	-200.000	-0.003	0.091
-204.392	277.706	-0.162	-0.285
-203.377	-200.000	0.023	0.118
-202.363	-147.856	-0.134	-0.011
-201.348	-200.000	0.063	-0.279
-200.333	800.000	-0.026	0.108
-199.319	424.653	-0.102	-0.218
-198.304	-200.000	-0.034	-0.183
-197.290	212.855	-0.060	-0.093
-196.275	-105.602	0.267	0.060
-195.260	134.219	-0.298	0.382
-194.246	-111.702	0.344	0.069
-193.231	-74.470	0.178	-0.063
-192.217	-200.000	-0.066	-0.299
-191.202	56.490	0.231	0.222
-190.187	-200.000	-0.020	0.090
-189.173	534.542	-0.077	0.180
-188.158	-200.000	-0.011	0.130
-187.144	174.272	-0.228	0.327
-186.129	-200.000	0.011	0.052
-185.114	68.752	-0.124	-0.126
-184.100	-130.607	0.261	0.035
-183.085	2.447	0.109	0.078
-182.071	-124.783	-0.187	0.029
-181.056	-33.482	0.157	0.086
-180.042	289.611	0.164	-0.294
-179.027	-200.000	-0.067	0.315
-178.012	605.270	-0.193	0.476
-176.998	-8.881	0.327	0.216
-175.983	-153.208	0.286	0.020
-174.969	-129.431	-0.278	-0.038
-173.954	-110.371	0.145	0.030
-172.939	-10.203	0.130	-0.085
-171.925	-200.000	0.028	0.172
-170.910	-200.000	0.084	0.384
-169.896	322.070	-0.160	0.301
-168.881	444.999	0.143	-0.311
-167.866	-85.987	-0.243	0.074
-166.852	-71.998	-0.255	0.094
-165.837	393.183	-0.193	0.397
-164.823	-200.000	-0.044	0.338
-163.808	-200.000	-0.002	0.145
-162.793	-27.911	-0.086	0.049
-161.779	800.000	-0.080	0.219
-160.764	-0.819	-0.132	0.093
-159.750	-30.399	-0.098	-0.055
-158.735	-200.000	0.045	-0.344
-157.720	7.776	0.103	0.076
-156.706	-200.000	0.025	0.272
-155.691	-54.865	-0.325	0.145
-154.677	345.391	-0.018	0.034
-153.662	800.000	-0.055	-0.225
-152.647	-94.866	-0.312	-0.083
-151.633	-200.000	-0.027	0.152
-150.618	-67.821	0.205	-0.079
-149.604	-200.000	0.031	0.211
-148.589	645.835	-0.153	0.386
-147.574	800.000	0.133	-0.380
-146.560	-67.997	-0.582	0.224
-145.545	-200.000	0.064	0.319
-144.531	431.460	-0.103	0.221
-143.516	166.292	0.140	0.196
-142.502	-105.324	-0.188	-0.042
-141.487	-6.863	0.152	-0.102
-140.472	428.694	-0.076	-0.162
-139.458	-91.932	0.079	0.022
-138.443	-94.780	0.150	-0.040
-137.429	132.793	0.160	0.204
-136.414	-67.263	0.206	0.080
-135.399	800.000	0.122	-0.408
-134.385	800.000	-0.040	0.114
-133.370	117.233	0.253	0.306
-132.356	620.603	0.061	-0.151
-131.341	312.792	-0.128	-0.237
-130.326	-159.889	-0.063	0.003
-129.312	224.871	0.160	-0.256
-128.297	64.921	-0.059	-0.059
-127.283	246.289	-0.257	-0.427
-126.268	188.284	0.212	-0.313
-125.253	-59.865	0.211	-0.089
-124.239	19.110	0.094	-0.074
-123.224	-144.770	-0.263	-0.024
-122.210	259.178	0.037	-0.062
