DTS Sentinel unit serial number:	SN413079Multiplexer serial number:	ORYXHardware model number:	OX4-SRSoftware version number:	ORYX F/W v4.00 Oryx Data Collector v3.7.2.0data status	okinstallation	princeton_trtdifferential loss correction	single-endedforward channel	channel 3reverse channel	N/Adate	2019/09/16time	11:00:35forward acquisition time	60.00reverse acquisition time	0.00gamma	496.2192k internal	0.2300k external	0.2300temperature offset calibration	0.9944default loss term (dB/km)	0.3790temperature slope calibration	1.0000multiplexer offset coefficient	1.0000multiplexer slope coefficient	1.0000fibre end	0.00T internal ref (°C)	36.81T ext. ref 1 (°C)	12.76T ext. ref 2 (°C)	34.21length (m)	temperature (°C)	Stokes	anti-Stokes-747.200	146.086	0.183	0.250
-746.185	261.187	0.157	0.277
-745.171	-76.491	-0.117	0.042
-744.156	-84.856	-0.192	0.061
-743.142	33.835	-0.232	0.206
-742.127	-56.869	0.089	0.040
-741.112	-33.392	0.073	0.041
-740.098	-133.754	-0.189	-0.024
-739.083	-13.987	0.208	0.137
-738.069	42.250	0.236	0.219
-737.054	800.000	0.045	0.193
-736.039	-200.000	0.007	0.279
-735.025	152.175	-0.175	0.244
-734.010	-66.437	0.201	-0.082
-732.996	-200.000	0.022	-0.158
-731.981	208.840	-0.203	-0.324
-730.966	-200.000	0.017	0.294
-729.952	232.624	-0.080	0.133
-728.937	112.136	-0.064	0.079
-727.923	-200.000	0.019	-0.289
-726.908	-200.000	-0.078	-0.370
-725.894	-200.000	0.025	-0.329
-724.879	-161.634	-0.277	0.014
-723.864	-81.739	-0.221	-0.074
-722.850	193.285	-0.054	-0.084
-721.835	-167.001	0.216	-0.009
-720.821	92.255	-0.036	-0.041
-719.806	203.274	-0.143	0.226
-718.791	-200.000	-0.010	0.191
-717.777	248.161	0.031	-0.054
-716.762	-3.887	0.346	0.244
-715.748	53.081	0.169	0.165
-714.733	193.071	-0.213	0.329
-713.718	-28.682	-0.492	-0.289
-712.704	7.366	0.266	-0.202
-711.689	292.947	-0.050	-0.092
-710.675	609.603	0.090	0.228
-709.660	-137.118	-0.307	0.036
-708.645	-99.227	0.305	0.079
-707.631	101.235	0.061	-0.073
-706.616	74.031	0.284	-0.303
-705.602	-42.711	-0.100	-0.052
-704.587	800.000	-0.067	0.211
-703.572	64.568	-0.039	-0.040
-702.558	300.159	0.166	-0.312
-701.543	-79.020	0.416	0.144
-700.529	-51.574	-0.254	-0.121
-699.514	800.000	-0.129	-0.402
-698.499	19.356	0.156	-0.128
-697.485	-200.000	-0.028	-0.293
-696.470	-104.025	0.183	-0.043
-695.456	52.937	-0.154	-0.150
-694.441	-200.000	-0.020	-0.325
-693.426	800.000	-0.044	0.182
-692.412	-5.954	0.221	-0.154
-691.397	-149.143	-0.157	-0.013
-690.383	34.736	0.271	0.241
-689.368	-200.000	0.012	0.125
-688.354	141.954	0.063	-0.085
-687.339	-200.000	-0.025	0.124
-686.324	95.149	0.223	0.259
-685.310	183.016	0.159	0.240
-684.295	-64.255	0.217	-0.090
-683.281	388.944	-0.010	0.022
-682.266	237.438	-0.036	-0.061
-681.251	-27.106	0.259	-0.153
-680.237	800.000	-0.110	0.369
-679.222	-200.000	-0.010	-0.077
-678.208	327.673	-0.211	-0.412
-677.193	-200.000	-0.040	-0.214
-676.178	-200.000	0.049	-0.551
-675.164	-166.552	-0.187	0.008
-674.149	77.473	0.141	-0.153
-673.135	-200.000	0.054	0.297
-672.120	-200.000	-0.026	-0.313
-671.105	21.453	-0.096	-0.079
-670.091	-39.880	-0.179	0.095
-669.076	-50.162	0.274	0.132
-668.062	95.745	0.224	0.261
-667.047	50.922	-0.282	-0.272
-666.032	-133.377	0.110	0.014
-665.018	22.111	-0.120	0.100
-664.003	800.000	-0.064	-0.220
-662.989	-79.602	-0.040	-0.014
-661.974	198.408	0.148	0.230
-660.959	-114.793	0.215	-0.042
-659.945	-124.425	-0.160	0.025
-658.930	174.247	0.175	0.258
-657.916	-188.769	-0.089	0.001
-656.901	-200.000	-0.011	0.113
-655.886	-103.504	-0.227	0.054
-654.872	105.051	-0.112	0.134
-653.857	-49.908	0.092	-0.045
-652.843	208.481	0.120	-0.190
-651.828	-200.000	-0.008	-0.054
-650.814	450.797	-0.016	0.036
-649.799	56.561	0.060	0.060
-648.784	-21.635	0.170	0.105
-647.770	-58.260	0.160	-0.071
-646.755	-79.272	0.219	0.075
-645.741	-200.000	0.004	-0.079
-644.726	-85.510	-0.119	-0.038
-643.711	694.480	-0.138	0.367
-642.697	94.941	-0.254	-0.294
-641.682	99.485	-0.235	0.276
-640.668	21.406	0.110	0.091
-639.653	-14.169	-0.057	-0.037
-638.638	-200.000	-0.021	0.120
-637.624	236.043	0.070	-0.117
-636.609	-15.400	-0.332	-0.215
-635.595	91.454	0.210	-0.239
-634.580	-200.000	0.025	0.228
-633.565	-94.211	0.138	-0.038
-632.551	-123.914	0.208	0.033
-631.536	-185.793	-0.289	-0.004
-630.522	83.460	-0.088	-0.097
-629.507	66.179	-0.257	-0.265
-628.492	-200.000	0.011	-0.185
-627.478	319.567	0.094	0.181
-626.463	107.762	0.260	0.314
-625.449	-107.353	0.195	0.043
-624.434	56.054	-0.183	0.180
-623.419	800.000	0.132	-0.437
-622.405	13.220	0.117	-0.092
-621.390	-90.240	-0.068	-0.020
-620.376	132.387	0.019	0.025
-619.361	56.072	0.217	-0.213
-618.346	184.693	0.057	0.085
-617.332	52.756	-0.261	0.253
-616.317	95.991	-0.364	0.422
-615.303	453.217	0.150	0.338
-614.288	220.863	0.055	0.089
-613.273	800.000	0.047	0.156
-612.259	153.892	0.090	0.126
-611.244	-119.417	0.353	-0.062
-610.230	-200.000	0.062	0.417
-609.215	27.445	0.142	-0.121
-608.201	-71.437	-0.060	-0.023
-607.186	227.854	-0.217	-0.358
-606.171	-200.000	0.066	0.354
-605.157	-74.610	-0.129	-0.047
-604.142	-105.878	-0.255	0.058
-603.128	61.624	0.116	-0.117
-602.113	178.625	0.051	-0.076
-601.098	-81.952	-0.394	-0.131
-600.084	-179.977	-0.182	0.004
-599.069	120.884	-0.023	0.029
-598.055	141.230	-0.060	0.081
-597.040	146.355	-0.094	0.128
-596.025	36.878	-0.088	0.079
-595.011	-119.920	0.510	0.089
-593.996	-84.598	0.134	0.043
-592.982	-200.000	-0.228	0.001
-591.967	-200.000	0.005	-0.135
-590.952	-35.793	0.107	-0.059
-589.938	210.103	0.145	0.230
-588.923	-54.595	-0.110	0.050
-587.909	281.268	-0.118	-0.213
-586.894	82.719	-0.058	-0.064
-585.879	800.000	0.115	0.350
-584.865	234.280	-0.072	0.121
-583.850	800.000	-0.014	0.054
-582.836	-84.075	0.297	0.096
-581.821	-136.865	0.160	0.019
-580.806	-129.068	-0.264	0.037
-579.792	-10.073	-0.076	0.051
-578.777	-101.919	-0.185	-0.045
-577.763	73.253	0.027	0.029
-576.748	351.516	0.146	0.293
-575.733	-200.000	0.229	0.000
-574.719	-200.000	0.021	-0.128
-573.704	-151.579	-0.201	-0.015
-572.690	621.597	-0.107	-0.272
-571.675	-34.752	0.188	0.104
-570.661	65.645	0.212	-0.218
-569.646	-128.139	0.122	0.018
-568.631	-200.000	-0.050	0.252
-567.617	779.748	-0.094	0.260
-566.602	-93.768	-0.239	0.067
-565.588	17.805	0.351	-0.283
-564.573	-50.767	-0.272	-0.130
-563.558	-99.879	-0.180	-0.046
-562.544	108.646	-0.148	-0.179
-561.529	135.286	0.118	-0.155
-560.515	60.972	-0.135	0.135
-559.500	401.501	0.156	-0.333
-558.485	11.398	0.178	0.138
-557.471	-116.197	-0.094	-0.018
-556.456	-200.000	-0.005	0.195
-555.442	716.084	-0.013	0.036
-554.427	10.181	0.218	-0.168
-553.412	130.172	0.295	-0.383
-552.398	32.134	-0.050	0.043
-551.383	280.693	0.217	-0.393
-550.369	-141.165	0.436	-0.045
-549.354	-69.943	0.358	0.138
-548.339	35.165	0.203	0.180
-547.325	-90.676	0.251	-0.073
-546.310	-200.000	-0.008	0.119
-545.296	-200.000	0.022	0.302
-544.281	-83.661	-0.282	-0.091
-543.266	-200.000	-0.027	0.170
-542.252	800.000	-0.061	-0.197
-541.237	-110.256	-0.132	0.028
-540.223	-114.066	-0.119	-0.023
-539.208	-41.806	0.340	0.176
-538.193	800.000	-0.064	0.211
-537.179	-78.830	-0.115	0.040
-536.164	271.382	0.037	0.066
-535.150	175.901	0.137	0.201
-534.135	643.972	-0.123	-0.317
-533.121	13.052	0.282	0.220
-532.106	800.000	-0.046	0.152
-531.091	-157.405	0.408	0.025
-530.077	8.601	-0.249	0.189
-529.062	-120.168	-0.163	-0.028
-528.048	-197.321	0.104	0.001
-527.033	-22.454	-0.244	-0.149
-526.018	-96.768	0.515	-0.137
-525.004	253.015	-0.198	-0.341
-523.989	-200.000	-0.032	-0.154
-522.975	99.223	-0.217	-0.254
-521.960	800.000	0.069	-0.242
-520.945	-67.233	0.067	0.027
-519.931	260.506	0.125	0.219
-518.916	672.849	0.050	0.132
-517.902	-200.000	-0.031	-0.454
-516.887	-38.541	0.288	-0.154
-515.872	-97.861	0.289	-0.075
-514.858	-176.998	0.400	-0.010
-513.843	-155.850	0.487	-0.031
-512.829	-43.590	-0.174	0.089
-511.814	446.785	0.066	0.147
-510.799	56.913	-0.030	0.029
-509.785	2.884	0.161	0.118
-508.770	592.777	0.057	-0.141
-507.756	71.166	0.122	-0.128
-506.741	106.236	0.113	-0.135
-505.726	522.627	-0.093	0.221
-504.712	-48.668	-0.141	0.068
-503.697	-159.774	-0.292	-0.016
-502.683	800.000	-0.015	0.067
-501.668	-117.102	-0.211	0.039
-500.653	44.489	-0.325	0.301
-499.639	800.000	0.033	-0.139
-498.624	800.000	-0.057	-0.182
-497.610	56.707	-0.264	0.260
-496.595	-84.229	-0.225	0.072
-495.581	-115.241	-0.383	0.073
-494.566	800.000	0.014	-0.061
-493.551	770.720	0.082	0.226
-492.537	178.625	-0.126	0.186
-491.522	-71.801	-0.073	-0.028
-490.508	-94.367	0.084	0.023
-489.493	257.297	-0.131	0.227
-488.478	-115.992	-0.033	-0.006
-487.464	-128.201	-0.332	-0.048
-486.449	186.135	-0.167	-0.251
-485.435	-114.059	0.296	-0.058
-484.420	-142.652	-0.333	0.033
-483.405	-34.048	0.272	-0.151
-482.391	244.941	-0.164	-0.279
-481.376	-200.000	-0.024	-0.407
-480.362	49.546	0.102	-0.097
-479.347	164.177	-0.243	0.346
-478.332	293.506	0.116	-0.214
-477.318	-191.046	-0.135	-0.001
-476.303	289.771	-0.124	0.227
-475.289	-200.000	-0.066	-0.394
-474.274	32.871	-0.228	-0.199
-473.259	-2.350	0.110	0.078
-472.245	73.844	-0.127	-0.135
-471.230	-67.896	0.185	-0.073
-470.216	8.148	-0.132	-0.100
-469.201	800.000	0.032	0.142
-468.186	-200.000	0.034	-0.307
-467.172	36.098	-0.079	-0.070
-466.157	66.917	0.140	0.144
-465.143	-127.264	0.142	0.021
-464.128	-129.644	0.200	0.028
-463.113	27.660	0.164	-0.139
-462.099	-200.000	-0.029	0.158
-461.084	-78.630	-0.313	-0.108
-460.070	-44.854	-0.425	0.214
-459.055	297.380	0.187	0.347
-458.040	186.327	-0.033	0.050
-457.026	157.724	0.099	-0.138
-456.011	-153.689	0.191	0.013
-454.997	-183.857	0.178	0.003
-453.982	800.000	0.050	0.197
-452.968	800.000	-0.051	0.189
-451.953	590.404	0.126	0.313
-450.938	-29.727	-0.338	0.195
-449.924	800.000	0.036	-0.140
-448.909	373.145	0.054	0.111
-447.895	76.007	0.071	0.076
-446.880	-37.848	-0.309	0.166
-445.865	201.279	0.051	-0.078
-444.851	31.602	-0.342	-0.296
-443.836	-37.584	-0.267	0.143
-442.822	693.057	0.071	0.189
-441.807	11.393	-0.161	-0.124
-440.792	-13.414	0.064	0.042
-439.778	800.000	0.087	0.276
-438.763	-200.000	0.022	-0.120
-437.749	192.387	0.140	-0.212
-436.734	416.321	-0.116	0.250
-435.719	-200.000	-0.002	-0.098
-434.705	130.087	-0.188	-0.243
-433.690	527.349	-0.069	-0.164
-432.676	386.027	-0.179	0.373
-431.661	32.201	-0.221	-0.193
-430.646	-86.280	0.129	-0.040
-429.632	182.578	0.199	0.296
-428.617	68.776	-0.188	0.195
-427.603	20.126	-0.111	-0.090
-426.588	740.661	-0.059	0.160
-425.573	432.888	0.067	0.146
-424.559	800.000	0.106	-0.381
-423.544	280.216	-0.061	0.110
-422.530	23.832	0.178	-0.148
-421.515	-18.665	-0.269	0.169
-420.500	-200.000	0.005	-0.178
-419.486	-162.550	-0.273	0.014
-418.471	-200.000	-0.023	0.384
-417.457	-69.170	-0.112	0.044
-416.442	-200.000	0.004	0.168
-415.428	367.350	-0.109	0.221
-414.413	18.490	0.073	0.059
-413.398	-115.447	0.115	-0.022
-412.384	124.878	-0.192	0.243
-411.369	-140.548	0.128	-0.013
-410.355	505.628	-0.078	-0.183
-409.340	-73.464	0.026	-0.010
-408.325	800.000	-0.088	-0.262
-407.311	-200.000	-0.093	-0.458
-406.296	17.522	-0.282	0.226
-405.282	-11.070	-0.220	-0.146
-404.267	-55.140	0.228	0.103
-403.252	-200.000	0.037	0.223
-402.238	-200.000	0.032	0.237
-401.223	-37.721	-0.204	0.109
-400.209	-93.770	-0.205	0.057
-399.194	-200.000	-0.027	0.337
-398.179	-3.423	-0.057	-0.040
-397.165	800.000	-0.051	-0.141
-396.150	243.158	-0.135	-0.228
-395.136	800.000	-0.112	0.416
-394.121	139.504	-0.209	-0.277
-393.106	51.312	0.159	-0.152
-392.092	-6.956	0.083	0.057
-391.077	288.522	0.195	-0.355
-390.063	130.374	-0.188	-0.242
-389.048	800.000	0.015	0.042
-388.033	800.000	-0.027	-0.110
-387.019	251.651	0.135	0.231
-386.004	-200.000	-0.040	-0.275
-384.990	800.000	-0.043	0.130
-383.975	-200.000	-0.042	-0.355
-382.960	-200.000	-0.029	-0.167
-381.946	74.848	0.344	-0.364
-380.931	-62.987	0.051	-0.021
-379.917	278.716	0.079	-0.142
-378.902	1.206	0.151	0.109
-377.888	8.838	-0.272	-0.206
-376.873	-103.375	-0.328	0.078
-375.858	-200.000	0.053	0.332
-374.844	22.826	0.190	-0.156
-373.829	-200.000	-0.025	-0.113
-372.815	-200.000	0.040	-0.241
-371.800	137.191	-0.253	0.332
-370.785	-200.000	-0.252	0.001
-369.771	35.121	0.098	-0.086
-368.756	-139.698	-0.102	-0.011
-367.742	-56.693	-0.156	0.070
-366.727	-133.712	-0.160	-0.020
-365.712	-22.375	0.223	0.136
-364.698	11.710	0.088	-0.068
-363.683	-9.222	-0.084	-0.056
-362.669	281.063	0.144	0.259
-361.654	77.907	-0.135	-0.144
-360.639	390.288	0.116	-0.241
-359.625	113.172	0.055	-0.067
-358.610	298.032	0.218	0.403
-357.596	800.000	0.054	-0.180
-356.581	164.221	0.276	0.390
-355.566	-200.000	-0.006	0.039
-354.552	-90.002	-0.192	-0.056
-353.537	515.792	-0.115	-0.269
-352.523	32.215	-0.174	-0.151
-351.508	-200.000	-0.014	-0.298
-350.493	40.697	0.093	-0.084
-349.479	162.889	0.114	0.161
-348.464	-19.514	-0.101	0.063
-347.450	800.000	-0.037	0.144
-346.435	-200.000	0.021	0.136
-345.420	-200.000	0.005	-0.058
-344.406	-13.669	-0.058	-0.038
-343.391	-132.670	-0.354	-0.045
-342.377	-200.000	-0.048	0.282
-341.362	800.000	0.071	0.202
-340.348	-200.000	-0.027	-0.283
-339.333	52.475	-0.137	0.132
-338.318	800.000	-0.058	-0.211
-337.304	345.462	-0.061	0.121
-336.289	-123.948	0.186	0.029
-335.275	21.346	0.199	-0.163
-334.260	245.239	0.101	-0.170
-333.245	-43.936	0.138	0.070
-332.231	10.001	-0.187	-0.143
-331.216	800.000	-0.017	-0.067
-330.202	-200.000	-0.031	-0.144
-329.187	627.568	-0.141	-0.358
-328.172	-155.375	-0.564	0.037
-327.158	52.521	0.218	-0.209
-326.143	564.340	-0.076	-0.185
-325.129	172.581	0.183	0.264
-324.114	800.000	0.073	-0.270
-323.099	-200.000	0.019	0.161
-322.085	-66.660	0.349	-0.139
-321.070	126.355	0.218	-0.277
-320.056	-92.364	0.378	0.107
-319.041	-51.496	0.269	-0.126
-318.026	-200.000	-0.052	0.247
-317.012	-73.616	-0.401	0.147
-315.997	-145.743	0.183	0.016
-314.983	-63.963	0.214	0.088
-313.968	3.754	0.227	0.166
-312.953	232.686	-0.086	-0.143
-311.939	206.852	-0.043	-0.067
-310.924	-3.203	0.123	-0.086
-309.910	499.308	-0.132	-0.304
-308.895	783.060	0.126	0.347
-307.880	148.069	0.238	-0.322
-306.866	-200.000	-0.060	-0.325
-305.851	316.848	0.063	0.119
-304.837	-50.038	0.015	0.007
-303.822	285.196	0.094	-0.170
-302.807	800.000	0.020	0.055
-301.793	-9.244	-0.179	0.120
-300.778	80.319	0.205	-0.222
-299.764	104.025	0.160	0.188
-298.749	-200.000	-0.030	0.143
-297.735	-90.608	0.091	0.026
-296.720	-62.239	-0.234	0.098
-295.705	-115.723	-0.256	-0.048
-294.691	-60.990	-0.347	-0.147
-293.676	-160.578	0.265	0.014
-292.662	800.000	0.055	0.204
-291.647	-200.000	-0.001	0.109
-290.632	800.000	-0.089	0.246
-289.618	-69.171	-0.179	-0.069
-288.603	-73.104	-0.176	0.065
-287.589	503.929	0.056	0.129
-286.574	-143.424	0.202	-0.019
-285.559	342.102	-0.109	0.213
-284.545	-29.626	0.116	0.066
-283.530	721.006	-0.043	-0.113
-282.516	635.165	0.056	0.142
-281.501	511.163	0.076	-0.178
-280.486	-200.000	-0.030	0.136
-279.472	-79.795	-0.039	-0.013
-278.457	185.190	-0.087	0.130
-277.443	49.732	-0.259	-0.244
-276.428	-200.000	-0.060	0.271
-275.413	44.108	0.164	0.150
-274.399	-122.086	0.162	0.027
-273.384	-59.607	0.246	0.106
-272.370	800.000	-0.053	-0.190
-271.355	122.400	0.068	-0.085
-270.340	445.498	0.093	0.205
-269.326	-200.000	0.030	-0.240
-268.311	-200.000	-0.051	-0.257
-267.297	-4.331	-0.304	0.211
-266.282	-200.000	-0.006	0.086
-265.267	101.954	0.051	-0.060
-264.253	-200.000	0.061	0.287
-263.238	435.333	0.039	0.085
-262.224	83.860	0.219	0.239
-261.209	212.564	-0.157	0.248
-260.195	309.331	-0.075	0.141
-259.180	-104.352	-0.280	0.065
-258.165	79.260	0.193	0.207
-257.151	-174.159	-0.048	0.001
-256.136	-200.000	-0.019	0.183
-255.122	-148.544	0.268	-0.022
-254.107	-129.380	-0.209	-0.029
-253.092	-200.000	-0.003	0.163
-252.078	-114.084	0.168	0.033
-251.063	-113.981	0.370	-0.072
-250.049	246.667	-0.162	0.273
-249.034	300.334	-0.118	0.219
-248.019	249.440	0.033	-0.055
-247.005	-99.478	-0.204	-0.051
-245.990	-200.000	0.001	-0.167
-244.976	71.310	0.235	-0.244
-243.961	-200.000	-0.027	-0.416
-242.946	238.957	-0.182	-0.303
-241.932	-35.360	0.125	-0.068
-240.917	800.000	0.045	0.141
-239.903	284.281	-0.085	0.153
-238.888	-200.000	0.010	0.046
-237.873	-200.000	0.009	0.263
-236.859	-124.003	0.170	0.027
-235.844	174.897	-0.073	0.106
-234.830	-63.767	-0.279	0.114
-233.815	-164.050	0.248	0.011
-232.800	29.951	-0.254	-0.217
-231.786	558.367	-0.104	0.250
-230.771	-72.761	0.184	-0.068
-229.757	800.000	-0.079	-0.265
-228.742	-131.598	-0.180	0.024
-227.727	-200.000	0.009	0.062
-226.713	-200.000	-0.035	0.240
-225.698	800.000	0.072	-0.211
-224.684	-9.616	-0.074	-0.049
-223.669	-200.000	-0.019	0.101
-222.655	230.512	-0.099	0.161
-221.640	232.088	-0.086	0.141
-220.625	402.374	-0.027	0.057
-219.611	132.083	-0.121	0.155
-218.596	-36.464	0.270	-0.145
-217.582	-200.000	0.018	0.218
-216.567	-200.000	-0.023	-0.110
-215.552	-200.000	-0.050	0.328
-214.538	640.364	0.106	-0.270
-213.523	-50.546	-0.149	0.070
-212.509	529.296	0.084	-0.199
-211.494	-171.171	-0.372	0.013
-210.479	-200.000	-0.023	-0.409
-209.465	-200.000	-0.017	-0.444
-208.450	-200.000	-0.053	-0.277
-207.436	-32.918	-0.152	-0.084
-206.421	-200.000	0.148	0.001
-205.406	-96.514	-0.105	0.028
-204.392	800.000	-0.016	0.051
-203.377	-200.000	-0.008	-0.215
-202.363	800.000	0.022	0.090
-201.348	64.127	0.355	-0.357
-200.333	-200.000	-0.034	0.283
-199.319	-200.000	-0.043	0.207
-198.304	800.000	0.086	0.262
-197.290	349.620	-0.071	0.141
-196.275	48.997	-0.059	0.056
-195.260	31.554	0.390	-0.335
-194.246	800.000	0.069	-0.222
-193.231	363.434	0.058	-0.117
-192.217	-69.095	0.048	0.019
-191.202	-122.581	0.153	-0.025
-190.187	800.000	-0.124	0.516
-189.173	-200.000	-0.118	0.545
-188.158	-200.000	0.036	-0.274
-187.144	-51.826	0.243	0.113
-186.129	-143.075	-0.392	-0.038
-185.114	614.657	0.124	-0.311
-184.100	800.000	0.081	0.271
-183.085	-200.000	0.031	-0.230
-182.071	570.696	0.101	-0.245
-181.056	-200.000	-0.028	-0.252
-180.042	-200.000	0.020	-0.089
-179.027	299.940	0.126	-0.232
-178.012	499.076	0.179	-0.412
-176.998	217.918	-0.001	0.001
-175.983	-32.787	0.162	-0.090
-174.969	-113.738	0.076	-0.015
-173.954	257.816	-0.117	-0.200
-172.939	-130.593	0.462	-0.062
-171.925	-68.717	0.143	0.055
-170.910	12.915	0.129	-0.100
-169.896	-200.000	0.015	-0.170
-168.881	206.269	0.211	-0.328
-167.866	-200.000	0.023	-0.177
-166.852	-200.000	-0.012	-0.227
-165.837	51.724	0.176	0.167
-164.823	-200.000	0.008	0.079
-163.808	47.936	-0.072	-0.067
-162.793	-200.000	0.064	0.299
-161.779	166.118	-0.113	0.160
-160.764	46.983	-0.076	0.071
-159.750	99.720	0.045	-0.052
-158.735	-135.809	0.244	0.029
-157.720	237.214	0.091	0.151
-156.706	-18.796	0.260	0.161
-155.691	-59.752	-0.237	-0.101
-154.677	57.853	-0.196	0.191
-153.662	-18.733	-0.246	-0.153
-152.647	800.000	0.009	-0.036
-151.633	58.921	-0.171	-0.167
-150.618	302.726	0.082	0.151
-149.604	-200.000	0.051	0.486
-148.589	-106.679	-0.130	0.029
-147.574	-104.491	0.208	-0.048
-146.560	-62.767	-0.274	0.113
-145.545	19.651	-0.301	-0.241
-144.531	-74.156	0.115	0.041
-143.516	-99.608	0.110	-0.028
-142.502	-19.972	0.300	0.184
-141.487	55.438	0.070	0.068
-140.472	39.218	0.158	-0.141
-139.458	-57.735	0.283	-0.123
-138.443	800.000	-0.095	0.393
-137.429	304.912	-0.074	0.136
-136.414	800.000	-0.005	-0.016
-135.399	119.071	-0.086	0.106
-134.385	-56.710	0.276	-0.121
-133.370	-58.409	-0.184	-0.080
-132.356	-78.770	0.097	-0.033
-131.341	159.958	0.098	0.136
-130.326	-200.000	0.001	0.101
-129.312	166.387	-0.084	-0.118
-128.297	601.068	0.029	0.072
-127.283	22.178	-0.150	0.122
-126.268	149.319	-0.033	0.044
-125.253	-138.649	-0.134	0.015
-124.239	-139.377	0.244	-0.026
-123.224	89.352	0.039	-0.044
-122.210	-39.957	0.195	-0.101
-121.195	-15.127	0.295	-0.188
