DTS Sentinel unit serial number:	SN413079Multiplexer serial number:	ORYXHardware model number:	OX4-SRSoftware version number:	ORYX F/W v4.00 Oryx Data Collector v3.7.2.0data status	okinstallation	princeton_trtdifferential loss correction	single-endedforward channel	channel 3reverse channel	N/Adate	2019/09/18time	06:52:34forward acquisition time	60.00reverse acquisition time	0.00gamma	496.2192k internal	0.2343k external	0.2343temperature offset calibration	0.9951default loss term (dB/km)	0.3790temperature slope calibration	1.0000multiplexer offset coefficient	1.0000multiplexer slope coefficient	1.0000fibre end	0.00T internal ref (°C)	23.25T ext. ref 1 (°C)	0.20T ext. ref 2 (°C)	16.99length (m)	temperature (°C)	Stokes	anti-Stokes-747.200	-163.635	0.316	0.015
-746.185	-151.423	0.183	-0.014
-745.171	82.975	0.035	0.039
-744.156	107.454	0.156	-0.186
-743.142	24.311	-0.291	-0.240
-742.127	-34.266	-0.099	0.055
-741.112	-126.076	-0.299	0.045
-740.098	-31.701	0.152	0.086
-739.083	28.912	-0.146	0.124
-738.069	-0.666	0.116	0.083
-737.054	636.718	0.056	0.143
-736.039	-200.000	-0.035	-0.253
-735.025	-200.000	0.022	0.295
-734.010	103.655	-0.184	0.216
-732.996	800.000	0.060	-0.222
-731.981	17.449	0.185	-0.147
-730.966	-33.153	-0.207	0.115
-729.952	800.000	-0.017	0.053
-728.937	148.528	0.048	-0.065
-727.923	-161.685	0.231	-0.012
-726.908	460.800	-0.149	0.333
-725.894	584.807	-0.069	-0.169
-724.879	-200.000	-0.037	0.186
-723.864	-200.000	-0.018	-0.092
-722.850	140.102	-0.159	0.210
-721.835	-149.452	0.346	0.027
-720.821	-16.216	-0.108	-0.069
-719.806	-79.232	-0.341	-0.116
-718.791	-7.354	-0.199	0.135
-717.777	800.000	0.016	0.054
-716.762	135.762	-0.129	0.168
-715.748	-200.000	-0.038	-0.303
-714.733	744.395	-0.057	0.152
-713.718	99.978	-0.197	-0.228
-712.704	-136.597	0.285	-0.033
-711.689	-63.664	-0.125	-0.051
-710.675	-49.121	-0.219	0.105
-709.660	-37.840	-0.462	0.246
-708.645	28.019	0.131	-0.110
-707.631	120.554	-0.267	0.332
-706.616	-95.089	0.099	0.027
-705.602	58.200	0.067	-0.066
-704.587	601.396	-0.033	-0.081
-703.572	-138.602	-0.359	0.039
-702.558	-200.000	0.016	0.154
-701.543	-61.516	-0.291	-0.122
-700.529	344.188	-0.118	0.231
-699.514	-126.038	-0.370	0.056
-698.499	-97.604	-0.097	0.025
-697.485	7.325	-0.272	-0.203
-696.470	83.813	0.118	-0.128
-695.456	-105.965	0.058	-0.013
-694.441	-52.917	0.136	0.062
-693.426	-200.000	-0.019	-0.177
-692.412	691.338	-0.035	-0.091
-691.397	389.287	-0.148	0.306
-690.383	-200.000	0.099	-0.000
-689.368	531.118	-0.043	-0.101
-688.354	-200.000	-0.079	-0.524
-687.339	-6.123	-0.212	-0.144
-686.324	585.255	-0.176	-0.432
-685.310	304.353	-0.125	-0.231
-684.295	-200.000	-0.012	0.136
-683.281	-81.818	0.257	-0.084
-682.266	-35.179	-0.359	-0.195
-681.251	-57.555	0.128	0.056
-680.237	185.460	0.075	0.111
-679.222	-119.264	0.157	-0.027
-678.208	-35.635	0.064	0.035
-677.193	-103.559	0.106	0.025
-676.178	800.000	0.114	-0.334
-675.164	137.784	-0.166	-0.217
-674.149	-65.098	-0.137	-0.055
-673.135	-200.000	0.063	0.313
-672.120	-64.814	0.025	-0.010
-671.105	222.965	-0.123	0.198
-670.091	59.614	-0.183	0.180
-669.076	-121.660	0.055	-0.009
-668.062	-200.000	-0.014	-0.185
-667.047	-157.149	0.111	0.007
-666.032	-15.743	-0.172	0.110
-665.018	-125.507	0.400	-0.061
-664.003	-119.136	0.035	0.006
-662.989	-39.663	-0.444	-0.232
-661.974	800.000	0.057	0.173
-660.959	-28.734	-0.186	0.107
-659.945	-112.505	-0.403	0.080
-658.930	-115.932	-0.093	-0.017
-657.916	-13.589	0.345	0.223
-656.901	206.781	-0.176	0.273
-655.886	-200.000	0.005	0.045
-654.872	229.962	-0.051	0.083
-653.857	-37.832	-0.323	0.172
-652.843	-130.171	-0.174	0.024
-651.828	121.105	0.175	-0.218
-650.814	-200.000	-0.033	-0.200
-649.799	120.999	0.023	0.028
-648.784	-200.000	0.360	0.001
-647.770	-14.963	-0.102	0.065
-646.755	-30.507	0.112	-0.063
-645.741	-51.325	-0.020	0.009
-644.726	-167.616	-0.177	0.007
-643.711	-73.409	-0.120	0.044
-642.697	800.000	0.046	-0.192
-641.682	-121.588	0.371	-0.061
-640.668	-200.000	-0.036	0.245
-639.653	-66.451	-0.089	-0.035
-638.638	67.496	-0.331	-0.337
-637.624	180.452	0.080	0.118
-636.609	-168.135	0.408	-0.016
-635.595	-200.000	0.064	-0.382
-634.580	-185.382	-0.081	0.001
-633.565	133.851	-0.145	0.187
-632.551	-65.045	-0.246	-0.099
-631.536	17.516	0.036	0.028
-630.522	-200.000	0.005	0.069
-629.507	-111.969	0.327	0.066
-628.492	-33.284	-0.185	0.102
-627.478	-10.850	-0.165	0.109
-626.463	-200.000	-0.007	0.191
-625.449	282.166	-0.230	0.411
-624.434	571.065	0.155	0.377
-623.419	-128.563	0.093	-0.013
-622.405	-152.584	0.218	-0.016
-621.390	-3.792	-0.119	-0.082
-620.376	-6.652	0.092	0.062
-619.361	-119.161	0.285	0.050
-618.346	32.729	0.247	-0.213
-617.332	-46.015	-0.143	-0.070
-616.317	568.647	-0.083	0.202
-615.303	800.000	-0.093	0.294
-614.288	-72.679	-0.420	-0.154
-613.273	122.068	-0.285	0.354
-612.259	-48.479	0.179	-0.086
-611.244	326.937	-0.137	-0.261
-610.230	133.005	0.084	0.108
-609.215	800.000	0.141	-0.457
-608.201	347.048	-0.155	-0.303
-607.186	-98.061	-0.387	-0.099
-606.171	322.039	0.022	-0.043
-605.157	-120.277	-0.175	0.030
-604.142	-41.865	0.274	0.140
-603.128	-200.000	-0.015	-0.246
-602.113	192.514	0.132	0.199
-601.098	-200.000	-0.041	-0.297
-600.084	106.329	0.116	0.137
-599.069	-5.285	-0.445	0.304
-598.055	-47.129	0.169	0.082
-597.040	-151.597	0.194	-0.014
-596.025	365.009	-0.170	-0.340
-595.011	283.284	0.076	0.135
-593.996	166.318	0.169	-0.239
-592.982	177.987	0.038	0.056
-591.967	800.000	-0.072	0.253
-590.952	-83.197	-0.157	0.050
-589.938	32.483	-0.330	-0.284
-588.923	-200.000	0.075	-0.407
-587.909	571.268	0.017	0.042
-586.894	-200.000	-0.038	-0.326
-585.879	-200.000	0.005	0.327
-584.865	-83.545	0.192	0.061
-583.850	-200.000	0.018	0.127
-582.836	-88.376	0.220	-0.065
-581.821	299.842	0.108	-0.198
-580.806	275.261	0.147	-0.259
-579.792	-101.666	-0.248	0.060
-578.777	-200.000	0.007	-0.289
-577.763	479.758	-0.044	-0.100
-576.748	-156.016	-0.104	-0.007
-575.733	5.074	0.160	-0.117
-574.719	99.184	0.001	-0.001
-573.704	-4.185	-0.278	-0.192
-572.690	-123.410	-0.270	-0.043
-571.675	800.000	0.072	0.239
-570.661	347.888	-0.044	-0.086
-569.646	-200.000	0.030	0.374
-568.631	-108.684	0.271	-0.058
-567.617	800.000	-0.077	0.289
-566.602	138.554	-0.077	-0.100
-565.588	611.962	-0.041	-0.102
-564.573	-27.862	-0.328	-0.189
-563.558	-153.112	0.385	0.027
-562.544	554.965	-0.113	-0.271
-561.529	-200.000	0.002	0.299
-560.515	-200.000	0.038	0.481
-559.500	-8.795	-0.410	-0.273
-558.485	332.056	0.168	0.322
-557.471	-70.567	0.210	0.079
-556.456	325.267	0.176	-0.334
-555.442	-144.110	0.064	0.006
-554.427	-38.090	-0.243	-0.128
-553.412	-87.122	0.130	0.039
-552.398	637.297	-0.083	0.209
-551.383	-104.313	-0.422	0.097
-550.369	-55.950	0.079	0.035
-549.354	-154.757	0.136	0.009
-548.339	279.044	0.041	-0.072
-547.325	-101.601	-0.123	0.030
-546.310	500.285	-0.141	0.322
-545.296	-200.000	0.006	-0.051
-544.281	800.000	0.039	0.152
-543.266	-200.000	0.035	0.174
-542.252	558.986	-0.091	-0.217
-541.237	75.632	0.153	-0.161
-540.223	-8.261	-0.198	-0.132
-539.208	-200.000	0.031	0.147
-538.193	-61.120	-0.254	0.106
-537.179	-200.000	0.027	-0.426
-536.164	131.010	-0.132	-0.168
-535.150	418.919	-0.144	-0.306
-534.135	-123.506	-0.157	0.025
-533.121	572.826	0.086	0.209
-532.106	216.844	-0.103	-0.163
-531.091	71.912	-0.105	-0.109
-530.077	-4.913	-0.087	-0.060
-529.062	-116.905	-0.063	-0.012
-528.048	-18.172	0.168	-0.104
-527.033	-14.475	-0.135	-0.086
-526.018	314.536	-0.092	-0.172
-525.004	-124.256	0.308	-0.048
-523.989	-119.497	-0.109	-0.019
-522.975	-200.000	-0.012	-0.131
-521.960	-61.355	-0.011	0.005
-520.945	-33.664	0.189	-0.103
-519.931	-76.596	-0.107	-0.037
-518.916	-200.000	0.010	0.182
-517.902	-69.469	0.195	0.074
-516.887	-55.847	-0.182	-0.080
-515.872	-200.000	0.004	0.042
-514.858	723.822	-0.102	-0.271
-513.843	255.346	0.104	-0.176
-512.829	296.241	-0.139	0.253
-511.814	47.282	-0.226	0.209
-510.799	-116.392	0.162	-0.030
-509.785	-3.605	0.038	-0.026
-508.770	-36.246	-0.263	-0.141
-507.756	44.810	-0.145	-0.132
-506.741	800.000	0.087	0.263
-505.726	67.051	0.216	-0.218
-504.712	-130.809	-0.247	-0.033
-503.697	-134.972	-0.365	-0.044
-502.683	-200.000	0.077	-0.472
-501.668	45.269	0.169	-0.155
-500.653	-138.924	0.277	-0.030
-499.639	175.331	0.177	-0.254
-498.624	-200.000	0.010	-0.214
-497.610	-37.023	0.166	0.088
-496.595	183.293	-0.061	-0.089
-495.581	432.307	-0.040	-0.085
-494.566	-200.000	-0.029	-0.153
-493.551	79.357	-0.133	-0.142
-492.537	346.976	0.117	0.228
-491.522	229.286	-0.045	-0.072
-490.508	-103.180	0.450	-0.106
-489.493	-73.553	0.484	-0.175
-488.478	-148.348	0.356	0.029
-487.464	67.928	0.173	0.176
-486.449	-107.889	-0.431	0.093
-485.435	-200.000	-0.070	0.318
-484.420	-138.304	0.139	-0.015
-483.405	586.871	0.150	0.367
-482.391	262.058	0.137	0.236
-481.376	-178.649	0.165	-0.004
-480.362	-45.383	-0.412	-0.203
-479.347	15.089	0.133	0.103
-478.332	85.357	0.165	0.179
-477.318	358.240	0.018	-0.036
-476.303	6.130	0.169	-0.124
-475.289	23.647	0.207	-0.169
-474.274	-64.011	0.228	0.092
-473.259	-151.726	-0.346	-0.025
-472.245	-137.322	-0.237	-0.027
-471.230	-96.213	0.350	-0.092
-470.216	-200.000	-0.426	0.001
-469.201	748.089	0.047	-0.125
-468.186	0.784	0.157	-0.111
-467.172	-157.140	0.311	-0.019
-466.157	-99.470	0.212	0.053
-465.143	525.015	-0.034	-0.080
-464.128	800.000	-0.117	0.322
-463.113	-51.621	-0.142	-0.066
-462.099	-200.000	0.026	-0.145
-461.084	800.000	0.067	-0.200
-460.070	460.456	-0.084	-0.184
-459.055	598.893	-0.088	-0.216
-458.040	209.339	0.106	-0.164
-457.026	-60.562	0.186	0.078
-456.011	-200.000	0.003	-0.172
-454.997	-169.609	0.180	0.006
-453.982	-50.142	0.427	0.200
-452.968	-46.259	-0.232	-0.113
-451.953	-200.000	0.059	-0.306
-450.938	-200.000	-0.010	-0.071
-449.924	-200.000	-0.016	0.120
-448.909	800.000	0.047	0.149
-447.895	800.000	-0.042	0.146
-446.880	-37.628	0.216	0.114
-445.865	-74.266	-0.105	0.038
-444.851	-129.035	0.087	-0.012
-443.836	248.749	0.108	0.181
-442.822	-110.138	-0.240	0.049
-441.807	184.794	-0.252	-0.369
-440.792	800.000	-0.076	0.265
-439.778	-80.811	-0.190	-0.062
-438.763	84.152	0.142	-0.154
-437.749	-41.029	-0.066	-0.034
-436.734	-59.750	0.094	-0.040
-435.719	401.295	-0.104	-0.216
-434.705	-200.000	-0.065	-0.305
-433.690	-22.646	-0.113	0.068
-432.676	21.747	-0.161	0.130
-431.661	-200.000	0.010	-0.128
-430.646	201.540	0.160	0.244
-429.632	-200.000	-0.035	0.589
-428.617	-200.000	-0.026	-0.319
-427.603	-198.766	0.199	0.001
-426.588	38.687	-0.168	0.148
-425.573	-114.150	-0.256	-0.049
-424.559	-92.588	-0.278	0.077
-423.544	-200.000	-0.029	-0.419
-422.530	667.793	0.062	-0.158
-421.515	-120.725	0.347	0.058
-420.500	-143.942	0.160	-0.015
-419.486	-200.000	-0.025	-0.167
-418.471	152.323	0.154	0.208
-417.457	126.853	-0.146	0.182
-416.442	800.000	0.112	-0.314
-415.428	216.641	-0.147	-0.232
-414.413	-200.000	0.023	0.265
-413.398	485.773	-0.146	-0.330
-412.384	-68.514	0.098	0.037
-411.369	-200.000	0.002	0.015
-410.355	116.690	-0.141	-0.171
-409.340	-79.113	-0.291	-0.098
-408.325	47.814	0.069	0.063
-407.311	-43.378	0.315	0.158
-406.296	-87.052	-0.410	-0.123
-405.282	14.661	-0.239	0.185
-404.267	-51.869	0.180	-0.083
-403.252	680.632	0.170	0.439
-402.238	-179.617	-0.312	-0.007
-401.223	-173.720	0.502	-0.015
-400.209	108.197	-0.117	-0.138
-399.194	50.737	-0.176	0.165
-398.179	-8.747	0.180	0.119
-397.165	58.165	0.273	-0.265
-396.150	-200.000	0.078	0.375
-395.136	800.000	0.075	0.223
-394.121	800.000	0.062	0.195
-393.106	-23.187	-0.201	0.120
-392.092	-94.169	0.285	-0.077
-391.077	-55.548	0.102	0.045
-390.063	143.518	0.076	-0.100
-389.048	-74.925	0.309	-0.109
-388.033	-200.000	0.020	0.108
-387.019	582.984	-0.025	0.060
-386.004	1.639	-0.223	-0.158
-384.990	-200.000	-0.002	0.368
-383.975	-161.569	0.424	0.021
-382.960	214.732	-0.059	0.092
-381.946	800.000	0.132	0.482
-380.931	606.831	0.112	0.276
-379.917	-120.186	-0.058	0.010
-378.902	355.528	-0.128	-0.252
-377.888	-123.284	-0.016	-0.003
-376.873	764.118	-0.025	0.066
-375.858	724.840	0.070	0.184
-374.844	-200.000	0.251	0.001
-373.829	-120.426	-0.124	0.021
-372.815	-117.851	0.284	-0.050
-371.800	220.566	-0.273	0.432
-370.785	-134.033	-0.201	-0.025
-369.771	-177.226	-0.192	0.005
-368.756	-200.000	0.001	0.126
-367.742	-138.647	-0.370	0.040
-366.727	242.029	0.091	-0.150
-365.712	-82.890	-0.181	0.058
-364.698	280.939	-0.118	0.208
-363.683	-107.890	0.290	-0.062
-362.669	65.366	-0.208	0.208
-361.654	-129.746	0.341	-0.046
-360.639	-178.278	0.176	0.004
-359.625	-10.127	-0.282	0.185
-358.610	13.290	0.047	0.036
-357.596	-93.355	0.125	0.034
-356.581	-200.000	0.004	0.028
-355.566	-103.380	-0.241	-0.056
-354.552	129.388	-0.031	0.040
-353.537	800.000	0.071	-0.288
-352.523	56.891	-0.248	-0.238
-351.508	-101.476	0.457	-0.110
-350.493	-200.000	0.000	0.096
-349.479	-25.543	0.353	0.206
-348.464	29.546	-0.218	0.182
-347.450	-67.961	-0.161	-0.062
-346.435	-200.000	-0.048	-0.261
-345.420	-28.767	-0.346	-0.196
-344.406	-200.000	0.025	-0.200
-343.391	-53.149	-0.264	0.119
-342.377	-41.119	-0.130	0.066
-341.362	800.000	-0.114	0.398
-340.348	-91.342	0.186	-0.052
-339.333	44.978	0.089	0.081
-338.318	-148.937	-0.154	0.012
-337.304	101.429	0.103	-0.118
-336.289	-169.616	-0.351	-0.013
-335.275	69.698	-0.055	-0.056
-334.260	-21.035	-0.056	0.034
-333.245	-108.796	0.175	-0.037
-332.231	-125.116	-0.261	0.040
-331.216	-195.286	-0.227	-0.002
-330.202	-63.227	-0.217	0.088
-329.187	-174.332	-0.254	0.007
-328.172	-30.022	-0.112	-0.063
-327.158	-18.979	-0.168	-0.103
-326.143	-200.000	-0.169	0.001
-325.129	-193.690	-0.084	0.001
-324.114	60.520	-0.058	-0.057
-323.099	-48.759	0.160	-0.076
-322.085	-56.392	0.323	0.141
-321.070	-177.760	0.183	-0.004
-320.056	800.000	-0.044	0.136
-319.041	-97.081	0.241	-0.062
-318.026	295.152	-0.143	-0.258
-317.012	-175.880	-0.069	-0.002
-315.997	31.921	0.264	-0.224
-314.983	164.753	-0.246	-0.342
-313.968	800.000	-0.126	0.481
-312.953	-177.626	0.116	0.003
-311.939	800.000	0.052	0.180
-310.924	-121.179	-0.207	0.034
-309.910	-69.880	0.209	-0.078
-308.895	17.218	0.214	-0.167
-307.880	136.139	-0.144	0.184
-306.866	371.025	0.169	0.337
-305.851	-200.000	0.024	-0.187
-304.837	-200.000	-0.028	0.212
-303.822	-192.602	-0.234	0.002
-302.807	-63.662	-0.217	0.088
-301.793	54.007	0.224	0.212
-300.778	-9.049	0.205	-0.135
-299.764	479.223	0.140	0.311
-298.749	-129.191	-0.314	0.043
-297.735	-1.835	0.251	-0.174
-296.720	-2.869	0.282	-0.194
-295.705	-174.657	0.177	0.005
-294.691	-30.913	-0.187	0.104
-293.676	-200.000	-0.027	-0.275
-292.662	404.921	0.093	-0.194
-291.647	139.244	-0.067	0.086
-290.632	800.000	-0.039	0.119
-289.618	30.902	0.164	0.139
-288.603	487.571	-0.106	0.238
-287.589	559.669	-0.170	0.403
-286.574	-200.000	-0.028	0.122
-285.559	-30.308	0.246	-0.137
-284.545	-52.755	0.212	0.096
-283.530	-105.189	0.348	-0.078
-282.516	-99.507	0.130	-0.032
-281.501	-142.261	-0.076	-0.007
-280.486	-52.230	-0.166	0.076
-279.472	339.450	0.105	-0.200
-278.457	370.229	0.099	0.197
-277.443	-200.000	0.018	0.168
-276.428	-126.476	-0.047	-0.007
-275.413	331.681	-0.149	-0.282
-274.399	800.000	-0.016	0.062
-273.384	-124.728	0.202	-0.031
-272.370	-200.000	0.013	0.077
-271.355	17.387	0.055	0.043
-270.340	429.852	0.116	-0.246
-269.326	-73.497	-0.599	-0.215
-268.311	213.854	-0.130	-0.203
-267.297	-47.554	0.127	0.061
-266.282	-76.235	-0.104	0.036
-265.267	800.000	0.101	-0.357
-264.253	-118.751	0.049	0.009
-263.238	157.331	-0.077	0.105
-262.224	-200.000	-0.007	0.084
-261.209	56.870	-0.061	-0.059
-260.195	-200.000	0.009	0.183
-259.180	-167.251	-0.182	-0.007
-258.165	531.427	-0.135	0.314
-257.151	173.559	-0.143	-0.203
-256.136	800.000	0.036	-0.129
-255.122	-31.604	-0.094	0.052
-254.107	-92.123	-0.029	-0.008
-253.092	-200.000	-0.050	-0.334
-252.078	772.908	0.050	0.133
-251.063	-83.610	0.210	0.066
-250.049	176.384	-0.018	-0.026
-249.034	67.783	-0.128	-0.128
-248.019	167.576	0.060	0.083
-247.005	-33.976	-0.159	0.086
-245.990	-16.253	0.361	0.225
-244.976	-81.909	-0.144	0.046
-243.961	146.175	0.146	0.193
-242.946	151.313	0.237	0.317
-241.932	182.816	-0.087	0.126
-240.917	337.010	0.016	0.031
-239.903	800.000	0.029	-0.120
-238.888	-78.728	0.060	-0.020
-237.873	-172.675	0.122	-0.004
-236.859	431.973	-0.123	0.261
-235.844	143.788	0.114	0.149
-234.830	-39.261	-0.334	0.172
-233.815	94.499	0.104	-0.116
-232.800	214.652	-0.214	0.333
-231.786	800.000	0.095	0.319
-230.771	-200.000	0.027	0.263
-229.757	-200.000	-0.011	-0.343
-228.742	734.491	-0.022	0.057
-227.727	12.119	-0.150	-0.113
-226.713	-105.699	0.186	0.041
-225.698	371.587	0.157	0.313
-224.684	-200.000	-0.004	-0.283
-223.669	-134.909	-0.313	-0.037
-222.655	55.640	-0.086	0.082
-221.640	-200.000	-0.065	0.398
-220.625	-45.710	0.047	-0.023
-219.611	332.128	0.082	0.156
-218.596	-112.934	0.324	-0.063
-217.582	-153.242	-0.245	-0.017
-216.567	800.000	0.090	-0.351
-215.552	-13.209	-0.283	0.181
-214.538	-200.000	-0.063	0.282
-213.523	242.696	-0.215	0.353
-212.509	-200.000	0.044	0.363
-211.494	-117.615	-0.477	-0.084
-210.479	-34.651	0.103	-0.055
-209.465	22.733	-0.137	-0.110
-208.450	-200.000	0.003	-0.460
-207.436	409.430	-0.072	-0.150
-206.421	293.989	0.074	0.132
-205.406	800.000	-0.075	-0.289
-204.392	800.000	-0.068	-0.228
-203.377	-78.943	-0.320	-0.107
-202.363	-49.216	0.263	0.123
-201.348	-69.012	0.451	-0.171
-200.333	-40.320	-0.182	-0.093
-199.319	68.054	-0.036	-0.036
-198.304	-52.421	0.032	0.014
-197.290	-200.000	0.030	0.317
-196.275	800.000	-0.042	-0.153
-195.260	65.108	0.125	-0.124
-194.246	-129.506	-0.188	0.026
-193.231	-148.597	0.129	0.010
-192.217	-139.442	0.201	-0.021
-191.202	225.686	0.194	0.309
-190.187	800.000	-0.055	-0.162
-189.173	-111.891	-0.291	0.058
-188.158	800.000	-0.100	-0.335
-187.144	69.471	0.124	0.125
-186.129	-12.804	0.178	0.113
-185.114	147.408	-0.024	0.032
-184.100	-90.605	0.143	0.040
-183.085	-137.737	0.610	-0.067
-182.071	124.301	0.072	-0.089
-181.056	-161.124	0.089	0.005
-180.042	9.772	0.356	0.264
-179.027	311.160	0.188	0.345
-178.012	526.835	-0.065	0.151
-176.998	-86.702	0.244	-0.073
-175.983	-99.208	-0.250	-0.062
-174.969	-200.000	-0.053	-0.350
-173.954	-200.000	-0.003	0.062
-172.939	-92.720	0.052	-0.014
-171.925	-99.041	0.225	-0.056
-170.910	-200.000	-0.009	0.122
-169.896	-51.592	-0.157	0.072
-168.881	-100.188	0.246	-0.060
-167.866	84.686	0.192	-0.205
-166.852	185.305	0.133	-0.193
-165.837	-200.000	-0.028	-0.143
-164.823	188.940	-0.047	-0.069
-163.808	-200.000	0.020	0.187
-162.793	28.504	0.049	0.040
-161.779	-112.352	-0.250	0.049
-160.764	287.951	0.135	0.240
-159.750	-41.865	0.022	-0.011
-158.735	-200.000	0.010	-0.140
-157.720	-200.000	0.006	0.118
-156.706	-12.797	0.070	-0.044
-155.691	-122.011	-0.330	0.053
-154.677	-200.000	0.067	-0.449
-153.662	-200.000	-0.057	-0.423
-152.647	-11.992	-0.260	-0.167
-151.633	-87.720	-0.118	0.035
-150.618	-142.842	-0.247	0.024
-149.604	469.086	0.070	0.154
-148.589	-49.191	0.112	-0.052
-147.574	-90.710	-0.274	-0.077
-146.560	59.939	0.301	0.291
-145.545	25.530	0.179	-0.146
-144.531	-151.846	0.477	0.034
-143.516	800.000	0.055	0.182
-142.502	-200.000	-0.041	-0.224
-141.487	-200.000	-0.001	-0.156
-140.472	401.626	0.117	-0.240
-139.458	800.000	-0.068	-0.246
-138.443	-200.000	0.018	0.083
-137.429	-42.312	0.192	0.096
-136.414	-62.142	-0.216	0.088
-135.399	422.177	0.117	0.246
-134.385	296.810	0.133	0.239
-133.370	-200.000	0.043	0.380
-132.356	-200.000	-0.021	0.264
-131.341	320.326	0.047	0.086
-130.326	-67.618	0.231	0.089
-129.312	-200.000	0.003	-0.174
-128.297	5.035	0.132	0.095
-127.283	-200.000	0.001	0.065
-126.268	-67.287	0.075	0.029
-125.253	-200.000	-0.023	-0.135
-124.239	-51.185	0.148	-0.068
-123.224	-200.000	0.014	0.083
