DTS Sentinel unit serial number:	SN413079Multiplexer serial number:	ORYXHardware model number:	OX4-SRSoftware version number:	ORYX F/W v4.00 Oryx Data Collector v3.7.2.0data status	okinstallation	princeton_trtdifferential loss correction	single-endedforward channel	channel 3reverse channel	N/Adate	2019/09/12time	15:06:10forward acquisition time	60.00reverse acquisition time	0.00gamma	496.2192k internal	0.2293k external	0.2293temperature offset calibration	1.0058default loss term (dB/km)	0.3790temperature slope calibration	1.0000multiplexer offset coefficient	1.0000multiplexer slope coefficient	1.0000fibre end	0.00T internal ref (°C)	40.50T ext. ref 1 (°C)	2.36T ext. ref 2 (°C)	37.33length (m)	temperature (°C)	Stokes	anti-Stokes-747.200	-90.751	0.575	-0.170
-746.185	296.125	0.129	0.242
-745.171	-85.412	0.177	0.056
-744.156	208.988	-0.214	0.343
-743.142	35.910	-0.117	0.105
-742.127	14.447	0.223	-0.178
-741.112	-103.935	0.149	0.036
-740.098	-11.061	-0.352	-0.238
-739.083	11.363	-0.347	0.272
-738.069	-30.486	-0.222	0.129
-737.054	-200.000	0.045	-0.308
-736.039	52.224	0.197	0.192
-735.025	95.633	0.116	-0.135
-734.010	800.000	0.094	-0.338
-732.996	110.788	-0.077	-0.095
-731.981	-200.000	-0.037	-0.168
-730.966	9.288	-0.155	0.120
-729.952	211.403	-0.133	-0.214
-728.937	436.840	-0.165	-0.367
-727.923	361.276	0.135	-0.276
-726.908	94.834	-0.238	0.277
-725.894	-61.881	0.044	0.019
-724.879	-122.352	-0.098	-0.016
-723.864	30.542	0.157	0.137
-722.850	-200.000	-0.033	0.265
-721.835	-43.017	-0.348	0.180
-720.821	-109.375	-0.387	0.084
-719.806	-147.973	-0.190	-0.016
-718.791	157.308	0.048	0.067
-717.777	-46.854	0.140	-0.070
-716.762	126.289	0.124	-0.160
-715.748	800.000	-0.043	-0.153
-714.733	-74.981	0.018	0.006
-713.718	-90.463	0.356	0.105
-712.704	800.000	0.168	-0.520
-711.689	-200.000	-0.022	-0.306
-710.675	447.114	0.039	-0.088
-709.660	-34.698	0.202	0.113
-708.645	90.913	0.005	-0.005
-707.631	180.118	-0.073	0.109
-706.616	-83.151	-0.318	0.104
-705.602	-182.524	0.102	0.002
-704.587	800.000	-0.122	0.410
-703.572	43.033	-0.315	0.293
-702.558	59.856	0.120	0.121
-701.543	-152.504	-0.316	0.023
-700.529	-172.338	0.244	-0.008
-699.514	-200.000	0.060	-0.369
-698.499	0.968	0.077	-0.056
-697.485	-97.949	0.282	0.074
-696.470	-102.630	-0.344	0.084
-695.456	212.365	-0.192	0.308
-694.441	-200.000	0.024	0.241
-693.426	-100.238	-0.098	0.025
-692.412	-173.884	0.269	-0.008
-691.397	15.975	-0.132	-0.106
-690.383	15.540	0.164	0.132
-689.368	85.866	-0.163	-0.183
-688.354	800.000	0.039	-0.125
-687.339	4.246	-0.133	-0.100
-686.324	-155.233	0.245	-0.016
-685.310	-74.415	0.174	-0.064
-684.295	110.619	0.020	0.024
-683.281	-200.000	-0.019	-0.457
-682.266	290.548	-0.057	-0.106
-681.251	-146.636	-0.290	-0.026
-680.237	-12.590	0.231	-0.154
-679.222	-63.857	0.258	-0.108
-678.208	-66.546	-0.209	-0.084
-677.193	99.555	0.058	0.068
-676.178	-200.000	0.017	0.189
-675.164	282.800	-0.175	0.321
-674.149	-105.625	-0.150	-0.035
-673.135	44.797	0.014	0.013
-672.120	365.182	0.110	0.227
-671.105	419.226	0.077	0.169
-670.091	-13.993	0.175	0.115
-669.076	-81.784	0.237	-0.079
-668.062	0.212	0.069	-0.051
-667.047	800.000	0.048	-0.177
-666.032	202.945	0.055	0.087
-665.018	800.000	-0.069	-0.258
-664.003	-66.991	-0.434	-0.175
-662.989	-45.098	0.150	-0.076
-661.974	-133.260	-0.111	0.014
-660.959	800.000	0.055	0.210
-659.945	44.876	0.133	0.125
-658.930	129.637	0.102	0.133
-657.916	-134.255	0.176	-0.022
-656.901	129.044	0.230	-0.299
-655.886	-62.034	-0.124	-0.053
-654.872	800.000	-0.059	-0.252
-653.857	-154.457	-0.043	-0.003
-652.843	-200.000	0.010	-0.147
-651.828	-70.886	0.195	-0.075
-650.814	58.244	0.092	-0.092
-649.799	468.688	0.150	0.343
-648.784	-137.817	-0.424	0.048
-647.770	-70.144	0.285	-0.110
-646.755	-118.635	0.195	-0.035
-645.741	-175.424	-0.142	-0.004
-644.726	108.703	-0.023	-0.028
-643.711	-200.000	-0.013	0.097
-642.697	-106.670	0.239	0.054
-641.682	-13.424	0.203	0.134
-640.668	-1.700	0.113	0.081
-639.653	313.440	0.095	-0.182
-638.638	7.223	0.076	0.058
-637.624	-188.947	-0.238	-0.003
-636.609	-108.207	0.254	-0.056
-635.595	-78.996	-0.229	-0.079
-634.580	-172.512	-0.266	0.009
-633.565	-92.989	-0.270	0.077
-632.551	-34.146	0.201	0.113
-631.536	-175.962	-0.286	0.008
-630.522	799.204	-0.027	0.076
-629.507	-127.282	-0.226	-0.034
-628.492	426.956	-0.022	0.049
-627.478	207.898	-0.043	0.069
-626.463	110.655	0.087	-0.107
-625.449	-200.000	-0.019	-0.167
-624.434	-200.000	-0.014	0.170
-623.419	-89.712	0.218	0.065
-622.405	800.000	0.045	0.156
-621.390	234.274	-0.055	0.092
-620.376	-67.039	-0.131	-0.053
-619.361	800.000	0.030	0.086
-618.346	-35.138	0.247	0.137
-617.332	-142.257	-0.292	0.029
-616.317	-21.634	-0.252	-0.157
-615.303	642.179	0.081	-0.209
-614.288	134.544	-0.120	0.158
-613.273	192.837	-0.018	0.027
-612.259	93.767	0.120	-0.139
-611.244	202.022	-0.103	-0.162
-610.230	138.147	0.191	-0.255
-609.215	159.839	0.112	-0.159
-608.201	-136.088	-0.196	-0.023
-607.186	73.557	0.038	0.041
-606.171	88.640	-0.230	-0.260
-605.157	110.930	0.128	-0.157
-604.142	-71.529	0.253	-0.096
-603.128	-54.762	-0.295	-0.136
-602.113	-87.242	-0.397	-0.123
-601.098	-117.722	-0.215	0.039
-600.084	151.570	0.204	-0.283
-599.069	-159.339	-0.100	0.006
-598.055	472.402	-0.105	-0.240
-597.040	288.238	-0.216	-0.397
-596.025	77.828	-0.410	-0.444
-595.011	209.251	0.119	-0.189
-593.996	387.637	-0.030	0.063
-592.982	130.933	0.098	-0.128
-591.967	-144.001	-0.346	-0.033
-590.952	-200.000	-0.028	-0.318
-589.938	186.695	0.194	-0.293
-588.923	800.000	-0.088	-0.284
-587.909	430.072	0.098	0.215
-586.894	-133.919	0.101	-0.013
-585.879	800.000	-0.068	-0.267
-584.865	-83.858	-0.168	0.054
-583.850	461.220	-0.054	0.123
-582.836	-200.000	-0.013	0.202
-581.821	32.786	-0.255	0.225
-580.806	800.000	-0.045	0.135
-579.792	565.412	-0.117	0.288
-578.777	770.757	-0.080	0.223
-577.763	-200.000	0.007	-0.379
-576.748	-200.000	0.035	0.325
-575.733	-81.793	0.228	-0.076
-574.719	-156.388	0.108	0.007
-573.704	-38.793	0.198	0.106
-572.690	-167.753	0.132	-0.005
-571.675	439.660	-0.098	-0.217
-570.661	364.571	0.054	-0.110
-569.646	-106.895	0.262	-0.059
-568.631	-47.154	-0.139	-0.069
-567.617	216.967	-0.110	0.178
-566.602	-37.153	0.116	-0.063
-565.588	478.147	-0.110	0.253
-564.573	317.116	0.146	0.281
-563.558	-200.000	0.005	-0.085
-562.544	106.351	0.146	-0.176
-561.529	-191.294	-0.184	0.002
-560.515	65.921	0.091	-0.094
-559.500	552.152	-0.063	0.153
-558.485	-200.000	-0.046	0.234
-557.471	-76.878	-0.362	-0.128
-556.456	-200.000	-0.059	0.298
-555.442	-105.714	0.052	0.012
-554.427	444.918	0.258	0.575
-553.412	-131.440	0.038	-0.005
-552.398	-47.554	-0.202	0.100
-551.383	-35.073	-0.092	-0.051
-550.369	-135.829	-0.072	0.009
-549.354	184.301	0.053	-0.079
-548.339	172.323	0.076	-0.110
-547.325	113.635	-0.047	-0.058
-546.310	-61.162	-0.159	0.068
-545.296	-200.000	-0.021	-0.191
-544.281	-17.380	0.196	0.125
-543.266	-69.081	-0.153	-0.060
-542.252	138.880	-0.107	0.143
-541.237	-119.910	-0.301	0.052
-540.223	-137.639	-0.324	-0.037
-539.208	-130.873	-0.310	0.042
-538.193	-146.833	-0.360	-0.032
-537.179	-89.220	-0.349	0.105
-536.164	-112.345	-0.285	-0.058
-535.150	41.433	0.044	-0.041
-534.135	-16.212	0.057	-0.036
-533.121	-200.000	0.017	0.101
-532.106	-183.141	0.168	0.003
-531.091	-60.233	0.164	0.071
-530.077	151.107	0.016	-0.022
-529.062	465.243	0.018	-0.041
-528.048	92.780	-0.026	0.030
-527.033	-200.000	0.027	0.225
-526.018	-200.000	0.038	-0.346
-525.004	12.930	-0.406	0.318
-523.989	127.837	0.099	0.128
-522.975	-200.000	0.020	-0.275
-521.960	-200.000	-0.027	0.239
-520.945	344.299	-0.235	0.468
-519.931	277.261	0.117	0.212
-518.916	-83.198	-0.319	-0.104
-517.902	404.276	-0.218	-0.465
-516.887	712.075	0.014	0.039
-515.872	177.709	-0.109	-0.162
-514.858	-58.348	-0.219	0.096
-513.843	9.870	0.169	-0.130
-512.829	46.062	0.166	-0.156
-511.814	-3.657	-0.303	-0.214
-510.799	47.973	0.185	-0.175
-509.785	-200.000	0.032	0.268
-508.770	-75.058	0.424	0.154
-507.756	-126.421	0.115	-0.017
-506.741	800.000	0.035	-0.154
-505.726	-32.474	0.279	-0.158
-504.712	-200.000	0.032	-0.149
-503.697	-104.718	-0.245	0.057
-502.683	65.317	0.184	0.189
-501.668	4.145	0.085	-0.063
-500.653	11.684	-0.186	-0.145
-499.639	194.922	-0.164	-0.253
-498.624	-88.533	-0.149	0.045
-497.610	433.025	0.103	0.227
-496.595	-199.642	0.367	0.002
-495.581	800.000	-0.048	0.142
-494.566	-146.640	0.233	0.020
-493.551	-149.127	0.194	0.016
-492.537	800.000	-0.024	-0.084
-491.522	-89.504	0.147	-0.044
-490.508	29.648	-0.213	-0.184
-489.493	800.000	0.179	-0.514
-488.478	253.570	-0.174	-0.301
-487.464	107.578	0.253	-0.305
-486.449	-41.349	0.191	0.099
-485.435	551.112	0.052	-0.127
-484.420	-32.992	0.405	-0.228
-483.405	-200.000	0.007	-0.281
-482.391	31.957	0.086	0.075
-481.376	32.791	0.224	-0.196
-480.362	-165.907	0.297	0.013
-479.347	19.418	0.148	-0.120
-478.332	-54.893	0.048	-0.022
-477.318	46.282	0.113	0.106
-476.303	277.934	-0.008	0.014
-475.289	-114.508	-0.276	0.054
-474.274	-21.453	-0.233	0.144
-473.259	214.956	-0.131	0.211
-472.245	467.732	-0.050	0.114
-471.230	226.078	-0.120	0.197
-470.216	-148.684	-0.261	0.021
-469.201	-134.080	0.146	0.018
-468.186	65.977	0.059	-0.061
-467.172	800.000	-0.084	0.298
-466.157	-53.972	-0.275	0.127
-465.143	-2.663	-0.018	0.013
-464.128	-41.244	-0.091	-0.047
-463.113	-17.595	0.304	0.193
-462.099	-25.169	0.385	0.231
-461.084	-127.243	0.148	-0.022
-460.070	216.387	0.157	0.253
-459.055	-200.000	0.051	0.433
-458.040	-200.000	-0.069	-0.310
-457.026	-169.583	0.235	0.009
-456.011	93.598	0.056	0.064
-454.997	-94.294	-0.068	-0.019
-453.982	-200.000	-0.032	0.272
-452.968	800.000	0.145	-0.433
-451.953	-200.000	-0.011	0.110
-450.938	-81.702	-0.090	-0.030
-449.924	-85.495	-0.153	0.048
-448.909	-67.852	-0.196	0.078
-447.895	-49.178	0.383	-0.185
-446.880	-49.692	-0.150	0.072
-445.865	720.601	-0.102	0.275
-444.851	-159.754	-0.240	0.013
-443.836	319.746	0.073	-0.140
-442.822	-153.259	0.244	0.017
-441.807	-72.227	-0.453	-0.170
-440.792	800.000	0.063	-0.191
-439.778	-200.000	-0.029	0.366
-438.763	-86.017	0.187	-0.059
-437.749	-61.165	-0.240	0.102
-436.734	26.662	-0.202	-0.171
-435.719	311.606	0.133	-0.251
-434.705	-29.126	-0.162	-0.094
-433.690	200.523	0.060	0.093
-432.676	719.190	-0.083	0.224
-431.661	-200.000	-0.039	0.371
-430.646	-18.924	-0.085	0.053
-429.632	-169.692	-0.224	-0.008
-428.617	-196.671	0.094	0.001
-427.603	395.551	-0.216	0.455
-426.588	14.342	0.046	0.036
-425.573	12.197	0.157	0.122
-424.559	64.032	-0.167	0.170
-423.544	-14.598	-0.199	-0.129
-422.530	340.595	-0.124	-0.244
-421.515	-43.087	-0.212	-0.108
-420.500	800.000	-0.054	-0.167
-419.486	11.449	0.272	0.210
-418.471	-132.268	0.234	-0.031
-417.457	62.461	0.168	0.169
-416.442	-46.673	0.127	-0.063
-415.428	729.147	0.045	-0.121
-414.413	-200.000	0.061	-0.358
-413.398	-200.000	-0.010	0.049
-412.384	-87.458	-0.180	0.055
-411.369	28.373	0.114	0.097
-410.355	-66.573	-0.176	0.070
-409.340	-77.525	-0.199	-0.070
-408.325	-200.000	-0.001	-0.184
-407.311	309.463	0.263	-0.497
-406.296	-128.924	-0.359	0.051
-405.282	27.813	0.210	0.179
-404.267	516.375	0.120	0.283
-403.252	101.639	0.156	-0.184
-402.238	-44.719	0.119	0.060
-401.223	-10.413	-0.050	0.033
-400.209	800.000	-0.097	-0.397
-399.194	-200.000	-0.018	0.139
-398.179	460.691	0.055	-0.125
-397.165	16.760	0.144	-0.115
-396.150	-200.000	-0.013	0.168
-395.136	-4.013	-0.301	-0.210
-394.121	-200.000	-0.001	-0.042
-393.106	290.947	-0.174	0.320
-392.092	295.129	-0.100	0.185
-391.077	-200.000	0.350	0.001
-390.063	-200.000	0.288	0.001
-389.048	17.744	0.147	0.118
-388.033	-200.000	-0.073	0.324
-387.019	308.346	0.073	0.137
-386.004	59.808	-0.193	-0.193
-384.990	-200.000	0.018	0.232
-383.975	322.131	0.031	-0.060
-382.960	-158.786	0.347	0.020
-381.946	-200.000	-0.009	0.071
-380.931	-200.000	0.042	0.340
-379.917	-200.000	-0.016	-0.076
-378.902	-200.000	0.010	-0.167
-377.888	800.000	-0.021	-0.070
-376.873	-31.281	0.031	-0.018
-375.858	17.432	-0.299	0.239
-374.844	-90.282	0.418	-0.123
-373.829	386.123	0.020	0.041
-372.815	89.626	-0.134	0.151
-371.800	110.975	-0.234	-0.284
-370.785	-92.560	0.219	0.062
-369.771	149.040	0.277	0.378
-368.756	216.121	0.146	0.234
-367.742	800.000	-0.081	0.277
-366.727	-200.000	0.004	0.178
-365.712	-81.789	0.292	0.096
-364.698	-149.121	-0.488	0.039
-363.683	63.149	-0.272	0.274
-362.669	8.025	-0.058	0.044
-361.654	95.800	-0.107	0.123
-360.639	-92.237	0.272	0.077
-359.625	-42.105	0.347	0.179
-358.610	-38.644	0.490	0.261
-357.596	800.000	-0.005	0.020
-356.581	-200.000	-0.001	-0.066
-355.566	553.154	0.075	0.181
-354.552	800.000	-0.071	-0.244
-353.537	-118.565	-0.252	-0.045
-352.523	757.890	-0.071	-0.194
-351.508	-149.487	0.220	0.018
-350.493	-35.552	-0.013	0.007
-349.479	326.411	0.093	0.179
-348.464	-70.687	-0.192	0.073
-347.450	50.742	0.195	-0.186
-346.435	6.107	-0.271	-0.203
-345.420	42.886	-0.010	0.009
-344.406	84.109	0.051	0.056
-343.391	44.381	-0.028	-0.026
-342.377	-64.247	-0.038	0.016
-341.362	-200.000	-0.009	-0.207
-340.348	379.770	0.062	0.128
-339.333	555.820	-0.067	0.163
-338.318	-4.549	0.292	0.203
-337.304	-200.000	0.006	0.183
-336.289	-200.000	0.008	0.080
-335.275	800.000	0.055	0.241
-334.260	-73.425	0.185	-0.068
-333.245	65.835	0.297	-0.303
-332.231	163.369	0.203	0.287
-331.216	-132.564	-0.464	0.060
-330.202	-200.000	0.037	0.286
-329.187	-67.665	0.353	0.139
-328.172	70.582	-0.189	-0.197
-327.158	-99.745	-0.304	-0.077
-326.143	489.745	0.061	0.140
-325.129	49.738	0.037	0.035
-324.114	-136.523	-0.176	-0.020
-323.099	-200.000	-0.023	0.162
-322.085	-200.000	-0.096	-0.742
-321.070	-63.582	-0.087	0.036
-320.056	112.747	0.056	-0.068
-319.041	-149.669	0.495	-0.039
-318.026	320.213	-0.115	0.219
-317.012	-11.994	0.284	0.187
-315.997	-127.955	-0.203	-0.029
-314.983	-153.363	0.302	-0.021
-313.968	-52.892	-0.328	-0.152
-312.953	-20.816	0.159	-0.098
-311.939	239.311	-0.068	0.114
-310.924	-67.545	-0.196	-0.078
-309.910	88.045	-0.317	-0.354
-308.895	549.471	0.063	0.152
-307.880	-20.432	0.187	0.116
-306.866	-127.720	-0.097	-0.014
-305.851	112.031	0.096	-0.117
-304.837	2.168	0.071	0.052
-303.822	-200.000	0.005	0.108
-302.807	163.168	-0.089	0.125
-301.793	102.475	-0.364	0.428
-300.778	-134.306	0.353	0.044
-299.764	32.838	0.134	-0.117
-298.749	800.000	-0.071	-0.226
-297.735	100.398	-0.131	0.153
-296.720	-200.000	-0.075	0.417
-295.705	800.000	-0.019	0.067
-294.691	-62.332	-0.262	0.109
-293.676	80.558	0.236	-0.256
-292.662	500.128	0.079	-0.183
-291.647	-200.000	-0.006	-0.095
-290.632	255.979	0.050	0.085
-289.618	-118.140	0.263	0.047
-288.603	335.593	-0.076	-0.148
-287.589	291.183	-0.115	0.210
-286.574	-200.000	0.002	0.267
-285.559	3.613	0.128	0.094
-284.545	517.140	-0.025	-0.058
-283.530	-110.422	0.322	-0.067
-282.516	-121.056	-0.173	-0.029
-281.501	-87.436	-0.072	-0.022
-280.486	34.078	0.245	0.215
-279.472	-200.000	-0.024	-0.238
-278.457	266.533	0.012	0.021
-277.443	-136.372	-0.151	-0.018
-276.428	-200.000	-0.003	0.419
-275.413	-200.000	0.004	-0.138
-274.399	-151.669	-0.282	-0.021
-273.384	-98.373	-0.340	0.088
-272.370	699.759	0.068	-0.179
-271.355	119.145	0.272	-0.338
-270.340	-159.447	-0.056	0.003
-269.326	-200.000	0.045	0.220
-268.311	125.516	-0.206	-0.261
-267.297	-102.731	-0.170	0.041
-266.282	200.659	0.131	-0.202
-265.267	48.881	0.146	0.138
-264.253	104.236	0.099	0.117
-263.238	-128.296	-0.198	-0.028
-262.224	101.550	0.251	-0.294
-261.209	-91.723	-0.092	-0.026
-260.195	42.243	0.120	0.109
-259.180	528.337	-0.124	-0.295
-258.165	-132.837	-0.014	0.002
-257.151	800.000	0.056	0.184
-256.136	0.699	0.179	-0.129
-255.122	397.991	-0.154	-0.324
-254.107	59.759	0.191	0.189
-253.092	800.000	0.046	0.197
-252.078	-68.018	-0.278	-0.109
-251.063	37.353	0.174	0.155
-250.049	6.350	0.088	-0.065
-249.034	-174.793	-0.062	0.002
-248.019	-200.000	-0.094	-0.452
-247.005	-200.000	-0.021	-0.358
-245.990	800.000	0.065	0.283
-244.976	187.241	0.233	-0.349
-243.961	-133.480	0.307	-0.039
-242.946	-106.525	0.251	-0.056
-241.932	595.806	0.015	0.038
-240.917	-35.379	-0.117	-0.064
-239.903	435.240	-0.038	-0.084
-238.888	57.004	0.076	-0.075
-237.873	-200.000	0.058	-0.286
-236.859	305.861	0.091	-0.171
-235.844	-200.000	-0.030	-0.139
-234.830	53.272	-0.056	0.054
-233.815	71.178	0.154	-0.160
-232.800	-200.000	0.011	-0.343
-231.786	800.000	0.060	0.197
-230.771	33.012	-0.152	-0.132
-229.757	9.478	0.154	-0.117
-228.742	-200.000	-0.017	0.205
-227.727	800.000	-0.122	0.397
-226.713	14.191	0.151	-0.118
-225.698	-87.153	-0.298	-0.091
-224.684	800.000	-0.064	-0.220
-223.669	-200.000	-0.021	-0.146
-222.655	-7.377	0.081	-0.055
-221.640	539.017	0.041	-0.099
-220.625	125.757	0.119	0.150
-219.611	-128.208	-0.280	-0.040
-218.596	276.884	-0.176	0.314
-217.582	-106.055	0.068	-0.015
-216.567	140.817	-0.122	-0.161
-215.552	-200.000	0.020	-0.147
-214.538	305.349	-0.100	-0.187
-213.523	447.997	-0.135	0.298
-212.509	-58.050	-0.238	0.104
-211.494	-28.480	0.060	0.035
-210.479	-109.318	-0.166	-0.035
-209.465	-95.443	0.171	0.046
-208.450	-3.459	0.067	0.047
-207.436	76.632	-0.255	-0.271
-206.421	-149.135	-0.103	0.008
-205.406	-102.585	-0.187	0.045
-204.392	169.011	0.192	-0.274
-203.377	619.552	-0.106	0.266
-202.363	256.532	0.025	0.043
-201.348	-28.167	-0.193	0.112
-200.333	30.921	0.159	-0.137
-199.319	2.870	0.236	-0.172
-198.304	-73.522	0.308	0.113
-197.290	-23.022	0.203	0.123
-196.275	40.073	0.262	0.236
-195.260	192.859	-0.176	-0.266
-194.246	81.821	-0.009	0.010
-193.231	800.000	-0.011	0.035
-192.217	-200.000	-0.010	-0.060
-191.202	99.883	0.082	0.096
-190.187	102.598	0.118	-0.139
-189.173	800.000	-0.041	0.172
-188.158	-153.911	0.147	0.010
-187.144	-200.000	0.017	-0.146
-186.129	166.767	-0.150	0.213
-185.114	-52.372	0.026	-0.012
-184.100	188.226	0.165	-0.248
-183.085	493.798	0.108	-0.248
-182.071	-69.267	0.099	-0.038
-181.056	-60.497	-0.087	0.037
-180.042	239.367	0.049	-0.081
-179.027	38.715	-0.271	-0.242
-178.012	800.000	0.035	0.145
-176.998	-200.000	0.031	-0.244
-175.983	800.000	0.056	0.164
-174.969	91.684	-0.115	0.130
-173.954	53.207	0.181	0.174
-172.939	166.200	0.092	-0.131
-171.925	133.090	0.099	0.127
-170.910	-109.580	0.231	0.049
-169.896	98.105	-0.111	0.128
-168.881	373.046	0.239	0.487
-167.866	-159.724	-0.223	-0.012
-166.852	605.030	-0.022	-0.056
-165.837	15.353	0.102	0.080
-164.823	691.540	-0.081	-0.212
-163.808	94.010	0.219	-0.248
-162.793	572.227	-0.105	-0.257
-161.779	283.117	-0.051	-0.091
-160.764	-200.000	-0.003	0.090
-159.750	-79.768	0.189	0.064
-158.735	-109.480	0.203	-0.043
-157.720	57.349	-0.128	-0.125
-156.706	71.678	0.050	0.051
-155.691	-200.000	0.020	0.122
-154.677	-116.683	-0.154	-0.028
-153.662	800.000	-0.008	0.022
-152.647	-200.000	0.026	0.174
-151.633	-73.965	-0.161	-0.058
-150.618	-72.399	0.267	-0.099
-149.604	577.350	0.032	0.077
-148.589	-130.168	-0.182	0.025
-147.574	-32.816	-0.035	0.019
-146.560	334.868	0.187	0.363
-145.545	-200.000	-0.007	-0.096
-144.531	1.549	0.160	-0.115
-143.516	-49.721	0.354	-0.168
-142.502	-85.255	0.143	-0.045
-141.487	-60.654	0.074	-0.031
-140.472	219.575	-0.146	0.234
-139.458	266.047	-0.116	0.202
-138.443	20.446	0.250	-0.202
-137.429	129.471	-0.092	-0.117
-136.414	22.420	0.191	-0.156
-135.399	9.705	0.192	0.145
-134.385	10.081	0.162	-0.123
-133.370	800.000	-0.065	-0.200
-132.356	712.922	-0.082	-0.217
-131.341	125.612	0.153	-0.192
-130.326	-103.941	-0.136	0.032
-129.312	-185.043	-0.188	0.003
-128.297	-200.000	0.017	-0.164
-127.283	-45.004	-0.300	-0.149
-126.268	-200.000	-0.036	0.203
-125.253	118.041	-0.107	0.132
-124.239	-125.493	0.259	0.039
-123.224	413.342	0.278	0.591
-122.210	-200.000	0.083	0.445
-121.195	-94.957	-0.200	-0.054
-120.180	-200.000	-0.022	-0.135
