DTS Sentinel unit serial number:	SN413079Multiplexer serial number:	ORYXHardware model number:	OX4-SRSoftware version number:	ORYX F/W v4.00 Oryx Data Collector v3.7.2.0data status	okinstallation	princeton_trtdifferential loss correction	single-endedforward channel	channel 3reverse channel	N/Adate	2019/09/17time	01:08:35forward acquisition time	60.00reverse acquisition time	0.00gamma	496.2192k internal	0.2325k external	0.2325temperature offset calibration	0.9939default loss term (dB/km)	0.3790temperature slope calibration	1.0000multiplexer offset coefficient	1.0000multiplexer slope coefficient	1.0000fibre end	0.00T internal ref (°C)	29.48T ext. ref 1 (°C)	0.10T ext. ref 2 (°C)	24.17length (m)	temperature (°C)	Stokes	anti-Stokes-747.200	27.489	-0.133	-0.113
-746.185	800.000	0.136	0.428
-745.171	11.963	-0.048	0.037
-744.156	800.000	-0.070	0.306
-743.142	255.291	0.096	-0.166
-742.127	-115.072	0.167	0.032
-741.112	-130.818	-0.168	-0.023
-740.098	-200.000	-0.053	0.326
-739.083	-200.000	0.046	0.443
-738.069	180.907	0.153	0.227
-737.054	-31.526	0.341	-0.193
-736.039	25.159	-0.254	-0.213
-735.025	-145.466	0.110	0.010
-734.010	800.000	-0.042	0.149
-732.996	-200.000	-0.020	-0.154
-731.981	800.000	0.062	-0.203
-730.966	152.110	-0.162	0.223
-729.952	-200.000	-0.051	-0.345
-728.937	242.550	-0.119	0.201
-727.923	54.515	0.155	-0.151
-726.908	-200.000	0.017	-0.221
-725.894	441.203	0.080	-0.177
-724.879	-200.000	-0.002	0.138
-723.864	478.108	-0.069	-0.159
-722.850	-54.050	-0.295	-0.135
-721.835	-45.921	-0.371	-0.185
-720.821	-45.654	-0.081	-0.040
-719.806	-57.610	0.082	-0.036
-718.791	-117.896	-0.279	-0.050
-717.777	-116.202	0.565	0.106
-716.762	83.396	0.047	0.051
-715.748	800.000	-0.073	0.259
-714.733	151.388	0.172	-0.236
-713.718	-98.898	-0.392	-0.100
-712.704	470.534	-0.024	-0.055
-711.689	185.263	-0.056	0.083
-710.675	32.610	-0.065	-0.056
-709.660	-200.000	-0.027	-0.233
-708.645	52.380	0.047	-0.045
-707.631	800.000	-0.044	0.148
-706.616	-50.880	0.128	-0.061
-705.602	-21.118	0.239	-0.147
-704.587	-102.911	-0.137	-0.033
-703.572	-75.716	0.120	0.043
-702.558	23.394	-0.208	0.173
-701.543	-62.286	-0.258	-0.108
-700.529	187.256	-0.291	0.438
-699.514	-156.765	0.457	-0.028
-698.499	-61.568	-0.402	0.170
-697.485	-107.208	0.177	0.039
-696.470	304.092	-0.111	0.207
-695.456	-200.000	0.041	0.255
-694.441	800.000	0.123	0.395
-693.426	34.238	-0.130	-0.114
-692.412	-200.000	-0.007	-0.121
-691.397	504.414	0.180	-0.419
-690.383	-118.740	-0.132	0.023
-689.368	-200.000	0.011	-0.337
-688.354	97.439	-0.133	-0.154
-687.339	-90.614	-0.193	-0.056
-686.324	-38.556	0.197	0.105
-685.310	-27.240	-0.107	0.063
-684.295	219.166	-0.224	-0.360
-683.281	-35.363	-0.095	-0.052
-682.266	800.000	-0.055	0.196
-681.251	-143.150	0.229	0.022
-680.237	-200.000	-0.005	-0.086
-679.222	-200.000	-0.065	-0.465
-678.208	30.004	0.021	-0.018
-677.193	366.849	-0.034	-0.069
-676.178	-69.452	0.112	0.043
-675.164	44.470	-0.124	0.114
-674.149	-110.919	0.235	0.049
-673.135	85.645	0.086	0.095
-672.120	294.760	-0.059	-0.108
-671.105	-48.414	0.140	0.068
-670.091	-103.407	0.187	-0.044
-669.076	194.569	-0.184	-0.281
-668.062	257.197	0.061	0.106
-667.047	-18.564	0.134	0.084
-666.032	-101.162	0.047	0.012
-665.018	-146.436	-0.247	-0.022
-664.003	376.290	0.118	0.242
-662.989	423.890	-0.034	-0.073
-661.974	-105.554	-0.361	0.082
-660.959	-40.537	-0.172	0.090
-659.945	499.146	-0.082	-0.190
-658.930	-37.481	-0.238	-0.128
-657.916	800.000	0.062	-0.182
-656.901	-200.000	-0.075	0.448
-655.886	-89.731	-0.149	0.044
-654.872	-200.000	0.008	0.069
-653.857	-200.000	0.051	-0.627
-652.843	-78.352	0.192	-0.066
-651.828	-104.508	0.301	0.070
-650.814	25.057	-0.148	-0.124
-649.799	-200.000	-0.030	-0.282
-648.784	172.078	0.116	-0.167
-647.770	-21.067	0.126	-0.077
-646.755	800.000	-0.110	-0.382
-645.741	-76.015	0.217	0.077
-644.726	628.657	-0.135	0.342
-643.711	33.845	-0.267	0.234
-642.697	-25.064	0.334	0.199
-641.682	154.941	0.148	0.204
-640.668	-10.134	-0.132	-0.088
-639.653	-93.279	-0.329	0.092
-638.638	-31.067	-0.283	0.160
-637.624	800.000	0.016	0.055
-636.609	-83.322	-0.329	0.106
-635.595	81.745	0.140	-0.153
-634.580	25.943	-0.066	0.055
-633.565	245.522	-0.031	-0.053
-632.551	-101.913	0.009	-0.002
-631.536	97.619	0.261	-0.301
-630.522	4.174	0.131	0.097
-629.507	36.009	0.155	-0.137
-628.492	-118.413	-0.327	-0.058
-627.478	299.081	0.116	-0.215
-626.463	-200.000	-0.029	-0.216
-625.449	800.000	0.140	-0.571
-624.434	-69.854	-0.284	0.109
-623.419	184.655	0.071	-0.106
-622.405	-28.113	0.057	-0.033
-621.390	-131.288	-0.100	-0.013
-620.376	1.719	-0.103	0.075
-619.361	106.759	0.200	0.239
-618.346	-2.616	0.176	-0.123
-617.332	-83.028	-0.274	0.089
-616.317	-74.398	0.441	-0.160
-615.303	800.000	-0.069	-0.233
-614.288	800.000	0.019	-0.059
-613.273	800.000	-0.050	0.170
-612.259	19.695	-0.455	-0.368
-611.244	-145.712	0.264	-0.024
-610.230	-139.608	0.215	-0.023
-609.215	-53.458	-0.120	-0.055
-608.201	-200.000	-0.002	-0.286
-607.186	289.191	0.184	0.335
-606.171	800.000	-0.086	-0.285
-605.157	28.800	0.159	0.135
-604.142	12.437	0.137	0.106
-603.128	380.959	0.103	0.212
-602.113	98.058	-0.183	0.211
-601.098	-200.000	-0.008	0.127
-600.084	800.000	0.035	-0.130
-599.069	212.892	0.150	-0.237
-598.055	84.295	0.140	-0.154
-597.040	-165.590	-0.206	0.009
-596.025	293.250	-0.103	-0.189
-595.011	117.606	-0.039	0.048
-593.996	800.000	0.097	-0.351
-592.982	-7.395	-0.093	-0.063
-591.967	236.765	0.134	-0.222
-590.952	-81.267	0.290	0.096
-589.938	800.000	0.013	0.044
-588.923	25.937	-0.228	0.191
-587.909	800.000	0.024	0.088
-586.894	-10.748	-0.151	0.100
-585.879	106.110	-0.186	0.221
-584.865	-133.038	-0.121	-0.015
-583.850	120.918	0.201	-0.251
-582.836	-34.005	-0.156	-0.086
-581.821	51.879	0.142	-0.135
-580.806	-2.315	0.194	-0.136
-579.792	-113.695	-0.139	-0.027
-578.777	-41.298	0.365	-0.188
-577.763	54.957	-0.175	-0.169
-576.748	-60.668	-0.120	-0.051
-575.733	-153.160	0.047	-0.003
-574.719	800.000	0.038	-0.108
-573.704	73.458	-0.064	0.067
-572.690	-64.960	0.087	0.035
-571.675	-80.001	-0.252	-0.085
-570.661	428.614	-0.067	-0.145
-569.646	134.058	-0.259	0.337
-568.631	800.000	0.019	-0.081
-567.617	-1.849	0.203	-0.143
-566.602	416.623	-0.152	0.324
-565.588	-200.000	-0.010	-0.058
-564.573	-4.262	-0.244	-0.169
-563.558	-200.000	-0.008	-0.126
-562.544	9.349	-0.151	0.114
-561.529	-140.412	-0.219	0.023
-560.515	-8.482	0.200	0.135
-559.500	22.413	0.297	0.243
-558.485	-50.142	-0.044	-0.021
-557.471	7.413	-0.057	-0.043
-556.456	186.860	0.080	0.120
-555.442	-200.000	-0.009	-0.162
-554.427	-125.797	0.254	-0.038
-553.412	97.009	0.097	-0.111
-552.398	-95.828	0.177	-0.047
-551.383	-200.000	0.012	-0.222
-550.369	-200.000	0.009	0.125
-549.354	96.092	-0.208	0.238
-548.339	132.030	0.069	-0.089
-547.325	-197.329	-0.279	0.002
-546.310	5.070	-0.029	-0.022
-545.296	71.075	0.183	-0.190
-544.281	-155.138	-0.071	0.005
-543.266	800.000	0.043	-0.130
-542.252	-147.120	0.077	0.007
-541.237	262.612	0.094	-0.164
-540.223	-168.271	-0.021	-0.001
-539.208	643.560	0.140	0.359
-538.193	220.916	-0.120	0.193
-537.179	-75.648	-0.180	-0.064
-536.164	271.139	-0.207	0.364
-535.150	56.362	0.053	0.051
-534.135	-95.328	-0.283	-0.076
-533.121	7.489	-0.044	-0.033
-532.106	-157.369	-0.193	-0.012
-531.091	-200.000	0.028	0.124
-530.077	151.606	-0.229	-0.312
-529.062	-11.319	-0.153	-0.101
-528.048	-113.604	0.069	0.013
-527.033	-94.733	-0.226	0.061
-526.018	64.189	0.207	-0.209
-525.004	-49.804	-0.207	0.099
-523.989	97.399	-0.156	-0.179
-522.975	28.815	0.525	0.445
-521.960	171.729	0.040	-0.057
-520.945	753.047	0.061	-0.165
-519.931	800.000	0.042	-0.124
-518.916	63.629	0.216	0.217
-517.902	211.268	-0.066	0.104
-516.887	-2.386	0.151	-0.106
-515.872	-103.173	0.143	0.034
-514.858	-126.435	-0.353	0.053
-513.843	-159.440	-0.161	-0.009
-512.829	192.373	0.096	-0.144
-511.814	-99.552	0.254	0.064
-510.799	-104.874	0.131	-0.030
-509.785	-129.751	0.136	0.019
-508.770	-28.961	-0.144	-0.083
-507.756	-133.946	-0.127	0.016
-506.741	546.875	0.025	0.059
-505.726	-163.673	-0.137	-0.006
-504.712	202.257	-0.123	-0.190
-503.697	-200.000	0.036	-0.189
-502.683	800.000	-0.053	0.175
-501.668	-165.949	0.314	-0.013
-500.653	-56.386	-0.235	0.105
-499.639	15.181	0.146	-0.114
-498.624	70.706	-0.347	-0.359
-497.610	134.476	-0.119	-0.155
-496.595	3.320	0.048	0.035
-495.581	-161.857	0.151	-0.008
-494.566	800.000	-0.055	-0.237
-493.551	-161.789	-0.273	0.014
-492.537	-65.554	-0.264	-0.106
-491.522	-200.000	0.007	0.068
-490.508	-142.676	0.338	-0.033
-489.493	545.730	0.093	0.223
-488.478	-106.302	0.230	0.052
-487.464	185.821	0.123	0.183
-486.449	-135.525	-0.377	0.045
-485.435	234.527	-0.159	0.262
-484.420	13.237	-0.057	0.044
-483.405	-136.010	-0.179	-0.021
-482.391	-109.810	0.163	0.034
-481.376	800.000	-0.088	0.253
-480.362	-63.809	0.149	-0.061
-479.347	-94.639	0.022	-0.006
-478.332	-77.962	-0.292	-0.100
-477.318	160.826	0.057	0.080
-476.303	212.586	-0.076	-0.119
-475.289	-200.000	-0.007	0.060
-474.274	-119.405	0.190	0.033
-473.259	-200.000	0.064	0.591
-472.245	99.257	0.027	-0.031
-471.230	-44.424	-0.173	0.086
-470.216	-97.337	0.257	-0.067
-469.201	-75.375	0.138	-0.049
-468.186	800.000	0.042	-0.163
-467.172	-200.000	-0.011	-0.103
-466.157	-39.288	0.269	0.141
-465.143	-9.977	-0.126	0.084
-464.128	-65.513	0.361	0.145
-463.113	-36.162	0.154	-0.083
-462.099	37.588	-0.077	-0.068
-461.084	-12.442	-0.246	-0.160
-460.070	-61.868	-0.434	-0.181
-459.055	550.166	-0.063	-0.152
-458.040	-50.544	-0.208	-0.098
-457.026	-72.064	-0.029	-0.011
-456.011	23.795	-0.142	0.117
-454.997	178.345	-0.263	-0.383
-453.982	675.426	0.091	0.237
-452.968	111.935	-0.198	-0.238
-451.953	-10.736	0.140	0.093
-450.938	283.773	0.135	-0.242
-449.924	-35.259	-0.011	0.006
-448.909	-200.000	0.024	-0.113
-447.895	-18.394	0.209	0.130
-446.880	569.609	-0.088	0.214
-445.865	-154.035	0.379	-0.026
-444.851	207.361	-0.161	0.251
-443.836	-164.372	-0.136	0.006
-442.822	800.000	-0.102	-0.356
-441.807	448.461	0.081	0.179
-440.792	10.999	0.432	-0.329
-439.778	206.667	0.138	0.214
-438.763	-200.000	0.014	0.391
-437.749	179.336	0.047	0.069
-436.734	-200.000	0.004	0.044
-435.719	-104.824	0.130	0.030
-434.705	180.680	-0.237	-0.346
-433.690	365.378	0.146	-0.292
-432.676	800.000	-0.069	0.253
-431.661	754.392	-0.185	0.497
-430.646	-34.235	-0.258	-0.141
-429.632	253.310	0.068	-0.115
-428.617	556.872	-0.156	-0.376
-427.603	-89.649	-0.197	-0.058
-426.588	32.705	-0.103	0.089
-425.573	800.000	-0.073	0.245
-424.559	-200.000	-0.002	-0.021
-423.544	-122.919	-0.433	-0.070
-422.530	180.459	-0.101	-0.148
-421.515	112.010	0.149	-0.179
-420.500	-200.000	0.005	-0.266
-419.486	173.501	-0.151	-0.217
-418.471	-3.636	0.130	0.090
-417.457	600.858	-0.115	-0.284
-416.442	-200.000	0.069	0.575
-415.428	800.000	0.066	-0.270
-414.413	78.124	-0.243	0.258
-413.398	-200.000	-0.010	0.049
-412.384	-18.308	0.360	-0.224
-411.369	-45.180	-0.193	0.095
-410.355	-105.454	0.161	-0.036
-409.340	-200.000	-0.057	0.454
-408.325	156.489	-0.111	0.153
-407.311	-166.151	-0.335	-0.014
-406.296	68.285	0.285	-0.291
-405.282	20.857	0.209	0.169
-404.267	87.859	-0.067	0.074
-403.252	130.993	-0.159	-0.204
-402.238	-44.628	-0.244	-0.122
-401.223	37.068	-0.038	0.034
-400.209	-64.529	0.367	0.148
-399.194	-108.864	-0.208	0.044
-398.179	-25.422	-0.284	0.167
-397.165	-130.914	-0.054	0.007
-396.150	800.000	0.036	-0.155
-395.136	184.904	0.082	-0.121
-394.121	155.206	-0.099	-0.135
-393.106	-66.461	-0.288	0.114
-392.092	-97.815	-0.068	0.017
-391.077	40.279	0.167	0.150
-390.063	56.355	-0.186	0.180
-389.048	800.000	-0.090	-0.361
-388.033	800.000	-0.035	-0.146
-387.019	-130.462	-0.377	0.051
-386.004	-39.655	0.148	0.077
-384.990	119.326	0.179	0.220
-383.975	-200.000	-0.069	-0.318
-382.960	-104.774	-0.081	-0.018
-381.946	800.000	-0.109	0.309
-380.931	800.000	0.004	0.014
-379.917	343.840	-0.139	-0.271
-378.902	173.250	-0.055	-0.078
-377.888	800.000	0.070	-0.229
-376.873	773.217	0.047	0.127
-375.858	-70.036	-0.111	0.042
-374.844	-172.915	-0.211	0.007
-373.829	172.262	0.173	0.248
-372.815	-200.000	0.001	-0.139
-371.800	25.723	-0.224	-0.186
-370.785	7.523	0.301	0.224
-369.771	79.806	-0.144	0.153
-368.756	-157.316	0.376	-0.023
-367.742	4.065	-0.289	-0.210
-366.727	190.414	-0.101	-0.150
-365.712	-200.000	0.001	0.277
-364.698	-37.260	-0.280	0.149
-363.683	800.000	-0.030	-0.127
-362.669	673.297	0.055	-0.143
-361.654	79.124	-0.119	0.127
-360.639	21.699	-0.084	-0.068
-359.625	800.000	0.064	0.240
-358.610	-21.567	-0.090	-0.055
-357.596	-200.000	-0.062	0.354
-356.581	-200.000	-0.047	0.354
-355.566	15.965	0.108	-0.085
-354.552	-88.785	0.031	0.009
-353.537	149.356	-0.104	0.140
-352.523	21.023	0.146	-0.118
-351.508	173.266	0.206	-0.294
-350.493	532.244	0.039	-0.091
-349.479	-32.762	-0.208	-0.115
-348.464	800.000	-0.079	0.338
-347.450	-48.300	0.081	0.039
-346.435	-66.748	-0.271	0.107
-345.420	-27.310	-0.028	-0.016
-344.406	-200.000	-0.004	0.060
-343.391	-167.161	-0.264	-0.011
-342.377	19.463	0.105	-0.084
-341.362	349.030	-0.092	-0.180
-340.348	-18.222	-0.287	0.179
-339.333	-150.863	0.175	0.013
-338.318	-69.647	0.348	0.132
-337.304	478.875	-0.126	0.284
-336.289	-43.528	0.207	-0.104
-335.275	365.257	0.127	-0.254
-334.260	135.683	0.131	-0.170
-333.245	69.496	0.157	-0.161
-332.231	366.800	-0.119	-0.238
-331.216	-200.000	-0.011	0.241
-330.202	-169.916	0.041	0.001
-329.187	-67.403	0.157	-0.061
-328.172	-7.672	-0.061	-0.041
-327.158	13.741	0.186	0.144
-326.143	45.092	-0.121	-0.111
-325.129	-200.000	-0.015	0.185
-324.114	-200.000	0.020	0.109
-323.099	-21.245	-0.174	0.105
-322.085	-153.537	0.549	0.038
-321.070	-117.952	0.121	0.021
-320.056	800.000	0.022	0.088
-319.041	-200.000	-0.001	0.005
-318.026	211.255	-0.063	0.098
-317.012	-200.000	0.061	-0.321
-315.997	10.603	0.131	-0.099
-314.983	800.000	0.069	0.261
-313.968	-200.000	-0.004	0.330
-312.953	-200.000	-0.071	0.558
-311.939	800.000	0.033	0.105
-310.924	50.172	0.283	0.265
-309.910	800.000	0.024	0.072
-308.895	124.206	-0.185	-0.231
-307.880	-200.000	0.009	0.080
-306.866	4.355	-0.103	0.075
-305.851	-55.737	0.287	-0.127
-304.837	-1.774	0.329	0.230
-303.822	102.824	0.200	-0.233
-302.807	-148.677	-0.397	0.032
-301.793	-200.000	0.048	0.290
-300.778	800.000	-0.043	-0.143
-299.764	-66.257	-0.105	-0.042
-298.749	228.412	-0.054	-0.087
-297.735	59.225	-0.068	0.066
-296.720	248.543	-0.203	-0.341
-295.705	331.923	-0.096	-0.184
-294.691	-174.938	0.292	-0.008
-293.676	197.862	0.179	0.271
-292.662	-43.425	-0.271	-0.136
-291.647	-200.000	-0.022	-0.112
-290.632	215.403	-0.177	-0.279
-289.618	-200.000	0.032	-0.349
-288.603	800.000	0.127	-0.445
-287.589	30.187	0.067	0.057
-286.574	-71.638	-0.145	-0.054
-285.559	-51.851	0.371	-0.171
-284.545	156.499	0.151	0.206
-283.530	-64.425	-0.050	0.020
-282.516	176.183	-0.107	0.154
-281.501	354.382	0.171	0.336
-280.486	-103.635	0.263	0.061
-279.472	800.000	0.095	0.261
-278.457	535.163	-0.040	0.094
-277.443	434.952	0.117	-0.251
-276.428	-200.000	-0.051	0.351
-275.413	-94.884	-0.129	0.035
-274.399	800.000	0.130	0.456
-273.384	-55.497	0.218	-0.097
-272.370	-49.574	0.165	0.078
-271.355	-75.382	-0.108	0.038
-270.340	-78.898	0.130	0.044
-269.326	800.000	0.100	-0.413
-268.311	-75.714	0.309	-0.109
-267.297	-68.248	0.083	-0.032
-266.282	81.920	0.236	0.253
-265.267	169.007	-0.094	0.132
-264.253	522.371	-0.092	-0.215
-263.238	107.615	-0.120	-0.142
-262.224	-182.679	0.177	0.003
-261.209	-200.000	-0.079	0.419
-260.195	277.409	-0.130	-0.229
-259.180	800.000	0.022	0.085
-258.165	714.056	0.063	0.166
-257.151	-147.951	0.292	0.024
-256.136	-114.093	-0.217	0.042
-255.122	270.376	-0.058	-0.102
-254.107	-55.695	0.193	-0.085
-253.092	586.021	0.030	0.074
-252.078	267.711	-0.032	-0.055
-251.063	42.886	-0.279	-0.251
-250.049	147.922	0.072	-0.096
-249.034	73.314	-0.195	-0.201
-248.019	90.683	-0.086	0.095
-247.005	-58.861	0.382	-0.164
-245.990	-128.513	0.218	-0.031
-244.976	-100.799	0.110	-0.027
-243.961	800.000	-0.032	0.121
-242.946	800.000	-0.053	0.158
-241.932	-129.654	-0.108	0.015
-240.917	800.000	0.053	-0.162
-239.903	-200.000	-0.001	0.049
-238.888	-36.260	0.198	-0.106
-237.873	31.301	0.147	-0.125
-236.859	276.889	-0.088	0.154
-235.844	198.147	0.118	0.179
-234.830	-200.000	0.005	0.170
-233.815	-200.000	0.009	-0.084
-232.800	140.242	0.009	0.012
-231.786	758.305	-0.214	-0.572
-230.771	90.519	-0.111	0.123
-229.757	659.522	-0.089	-0.228
-228.742	800.000	-0.045	0.123
-227.727	-200.000	0.002	-0.213
-226.713	-12.773	0.459	0.296
-225.698	-200.000	0.025	0.285
-224.684	104.206	-0.243	0.283
-223.669	800.000	0.100	0.302
-222.655	-31.134	-0.260	-0.145
-221.640	-200.000	-0.021	0.192
-220.625	-200.000	0.000	0.166
-219.611	-102.778	0.154	-0.036
-218.596	-200.000	-0.016	-0.195
-217.582	-200.000	0.020	-0.196
-216.567	-25.998	-0.150	0.087
-215.552	-59.560	0.184	-0.078
-214.538	-124.927	0.208	0.032
-213.523	-37.057	0.107	0.057
-212.509	-200.000	-0.001	0.134
-211.494	-142.862	-0.146	0.014
-210.479	-200.000	-0.005	-0.156
-209.465	247.990	-0.127	0.212
-208.450	-38.620	0.217	0.113
-207.436	-61.731	-0.186	0.077
-206.421	-146.786	0.433	0.037
-205.406	-29.482	0.281	0.159
-204.392	104.491	-0.189	0.220
-203.377	-2.239	0.169	0.117
-202.363	135.453	0.118	0.151
-201.348	-74.132	-0.278	0.099
-200.333	53.054	-0.291	-0.275
-199.319	522.722	-0.159	-0.369
-198.304	-100.471	-0.210	-0.051
-197.290	-100.226	-0.179	0.044
-196.275	15.512	-0.218	0.169
-195.260	-54.801	0.275	0.122
-194.246	-200.000	0.048	0.310
-193.231	0.906	0.098	0.069
-192.217	-200.000	-0.036	0.294
-191.202	800.000	-0.072	-0.220
-190.187	-123.909	0.208	-0.032
-189.173	-200.000	0.021	0.106
-188.158	-25.753	0.059	0.034
-187.144	-78.714	0.257	0.087
-186.129	68.172	-0.206	0.209
-185.114	-200.000	0.009	0.101
-184.100	-21.019	0.335	-0.203
-183.085	-138.752	-0.345	0.037
-182.071	107.706	-0.104	0.123
-181.056	4.360	-0.268	0.194
-180.042	-102.679	-0.197	0.046
-179.027	51.794	0.189	0.177
-178.012	-80.976	-0.189	-0.062
-176.998	-14.183	0.228	0.145
-175.983	26.110	0.129	0.106
-174.969	247.192	-0.067	-0.112
-173.954	-65.752	0.194	-0.077
-172.939	-2.078	0.183	-0.127
-171.925	-93.572	0.083	-0.023
-170.910	-19.514	-0.056	0.034
-169.896	31.264	-0.244	0.206
-168.881	24.383	0.102	0.083
-167.866	188.616	0.028	-0.042
-166.852	58.826	0.251	-0.243
-165.837	800.000	0.025	-0.068
-164.823	60.569	-0.156	0.153
-163.808	-25.862	-0.117	0.068
-162.793	-112.801	-0.167	-0.033
-161.779	-200.000	0.039	-0.254
-160.764	-200.000	-0.060	-0.341
-159.750	3.666	0.337	-0.243
-158.735	800.000	-0.063	-0.242
-157.720	-200.000	-0.035	0.171
-156.706	93.948	0.138	-0.154
-155.691	-147.814	0.175	-0.014
-154.677	-79.758	0.319	-0.106
-153.662	-200.000	-0.009	-0.047
-152.647	800.000	-0.037	0.146
-151.633	137.492	0.066	-0.086
-150.618	-172.793	0.225	-0.007
-149.604	-45.259	-0.071	0.035
-148.589	297.653	-0.176	-0.319
-147.574	-61.607	-0.216	0.089
-146.560	50.521	0.077	-0.072
-145.545	-133.262	0.165	-0.021
-144.531	10.207	-0.124	-0.093
-143.516	107.119	0.208	0.244
-142.502	6.384	0.108	-0.079
-141.487	800.000	-0.078	-0.253
-140.472	385.049	0.158	0.322
-139.458	-102.997	-0.146	-0.034
-138.443	-89.900	0.300	-0.086
-137.429	347.992	-0.096	0.187
-136.414	77.230	0.099	0.104
-135.399	-200.000	0.007	-0.089
-134.385	-135.875	-0.159	-0.018
-133.370	-76.438	-0.256	-0.089
-132.356	571.842	0.022	0.054
-131.341	-111.791	-0.126	-0.025
-130.326	316.387	-0.138	0.256
-129.312	86.735	0.307	0.334
-128.297	60.781	0.148	0.145
-127.283	128.943	0.289	0.363
-126.268	69.573	-0.133	-0.135
-125.253	333.700	-0.070	-0.134
-124.239	-200.000	0.036	-0.213
-123.224	159.853	0.069	-0.094
-122.210	261.935	-0.041	0.070
-121.195	-22.442	-0.203	0.121
