DTS Sentinel unit serial number:	SN413079Multiplexer serial number:	ORYXHardware model number:	OX4-SRSoftware version number:	ORYX F/W v4.00 Oryx Data Collector v3.7.2.0data status	okinstallation	princeton_trtdifferential loss correction	single-endedforward channel	channel 3reverse channel	N/Adate	2019/09/15time	22:16:35forward acquisition time	60.00reverse acquisition time	0.00gamma	496.2192k internal	0.2330k external	0.2330temperature offset calibration	0.9940default loss term (dB/km)	0.3790temperature slope calibration	1.0000multiplexer offset coefficient	1.0000multiplexer slope coefficient	1.0000fibre end	0.00T internal ref (°C)	29.44T ext. ref 1 (°C)	8.65T ext. ref 2 (°C)	22.80length (m)	temperature (°C)	Stokes	anti-Stokes-747.200	247.606	0.052	-0.088
-746.185	800.000	-0.053	-0.187
-745.171	-91.771	0.325	-0.093
-744.156	596.944	-0.147	0.366
-743.142	-200.000	-0.001	0.234
-742.127	688.836	0.258	0.680
-741.112	69.844	-0.100	-0.104
-740.098	800.000	0.042	0.173
-739.083	-94.938	0.222	0.060
-738.069	-103.342	-0.246	-0.058
-737.054	800.000	-0.024	0.088
-736.039	-200.000	-0.007	-0.189
-735.025	48.848	0.045	-0.042
-734.010	-200.000	-0.025	-0.140
-732.996	-52.053	-0.451	-0.211
-731.981	-111.379	-0.323	0.066
-730.966	21.814	-0.243	-0.199
-729.952	163.636	-0.276	0.391
-728.937	-24.820	-0.143	0.086
-727.923	-68.575	0.150	-0.059
-726.908	-86.675	-0.439	-0.135
-725.894	-150.435	-0.533	0.041
-724.879	722.602	0.081	-0.216
-723.864	-200.000	-0.002	0.191
-722.850	-61.948	-0.015	-0.007
-721.835	-93.425	-0.198	0.055
-720.821	-200.000	-0.012	-0.133
-719.806	-200.000	-0.055	-0.269
-718.791	7.815	-0.133	0.100
-717.777	577.465	-0.064	0.157
-716.762	-200.000	-0.010	-0.200
-715.748	29.953	0.126	0.108
-714.733	-53.309	-0.251	-0.116
-713.718	25.749	-0.160	-0.134
-712.704	16.989	-0.040	0.032
-711.689	-26.764	-0.253	0.149
-710.675	-78.710	0.035	-0.012
-709.660	-135.381	0.149	0.018
-708.645	-47.971	-0.349	-0.170
-707.631	-1.914	0.190	0.134
-706.616	138.345	0.048	-0.063
-705.602	-37.881	0.125	0.067
-704.587	-200.000	-0.007	-0.112
-703.572	625.143	0.047	0.119
-702.558	15.010	-0.048	-0.037
-701.543	-51.183	-0.325	0.153
-700.529	-200.000	-0.028	0.197
-699.514	251.216	0.165	0.281
-698.499	94.594	-0.273	0.312
-697.485	-123.971	-0.372	0.059
-696.470	407.105	-0.186	-0.395
-695.456	-39.878	0.403	0.212
-694.441	-41.025	0.018	0.009
-693.426	-62.583	-0.668	0.279
-692.412	-162.152	0.283	0.014
-691.397	133.471	0.114	0.148
-690.383	143.934	-0.148	-0.199
-689.368	-200.000	0.028	0.133
-688.354	-200.000	-0.047	0.305
-687.339	-51.734	-0.254	0.119
-686.324	84.645	-0.105	-0.116
-685.310	202.452	-0.107	-0.166
-684.295	-200.000	-0.003	-0.166
-683.281	30.389	-0.229	-0.197
-682.266	113.681	-0.199	0.243
-681.251	-94.444	-0.208	-0.057
-680.237	-165.578	0.366	-0.016
-679.222	-100.287	-0.115	0.029
-678.208	-200.000	-0.047	0.296
-677.193	-101.859	-0.181	0.044
-676.178	12.092	-0.376	0.291
-675.164	-119.382	0.335	0.059
-674.149	-131.495	-0.107	0.014
-673.135	-9.455	0.067	-0.045
-672.120	181.069	-0.247	0.365
-671.105	800.000	-0.027	0.079
-670.091	-51.013	-0.044	0.021
-669.076	66.830	0.395	-0.403
-668.062	162.269	-0.326	-0.458
-667.047	-200.000	-0.006	0.114
-666.032	10.164	0.115	-0.088
-665.018	4.341	0.149	-0.110
-664.003	-28.678	0.035	-0.020
-662.989	-99.454	0.445	0.113
-661.974	800.000	0.057	-0.177
-660.959	-75.051	-0.150	-0.054
-659.945	-100.389	-0.424	-0.106
-658.930	37.225	-0.060	-0.054
-657.916	-124.989	-0.171	-0.026
-656.901	-28.125	-0.009	0.005
-655.886	-200.000	-0.015	-0.082
-654.872	206.584	0.119	-0.185
-653.857	127.879	0.120	-0.153
-652.843	422.906	0.061	0.130
-651.828	-112.418	0.054	0.011
-650.814	72.494	-0.180	-0.188
-649.799	82.499	-0.255	0.278
-648.784	170.135	-0.275	0.394
-647.770	674.071	0.152	-0.396
-646.755	193.197	-0.138	0.209
-645.741	800.000	-0.032	-0.130
-644.726	177.983	0.178	0.260
-643.711	1.798	-0.172	0.125
-642.697	237.272	0.158	-0.262
-641.682	-78.481	-0.197	0.068
-640.668	-6.699	0.261	-0.178
-639.653	197.879	0.145	0.221
-638.638	-49.774	-0.382	0.182
-637.624	-150.982	-0.236	0.018
-636.609	170.547	-0.044	0.063
-635.595	93.118	-0.109	0.123
-634.580	-150.460	0.130	-0.010
-633.565	-166.920	0.174	0.007
-632.551	-65.863	-0.166	0.067
-631.536	-1.578	0.184	-0.130
-630.522	-124.437	0.261	-0.041
-629.507	658.145	0.039	-0.100
-628.492	-200.000	0.005	-0.113
-627.478	-155.808	0.373	-0.024
-626.463	-200.000	-0.040	-0.294
-625.449	-200.000	0.047	-0.234
-624.434	-111.322	-0.287	-0.059
-623.419	-200.000	0.016	-0.074
-622.405	491.278	-0.108	0.247
-621.390	-200.000	-0.049	0.395
-620.376	232.731	0.068	0.112
-619.361	-39.383	-0.384	0.202
-618.346	70.412	0.214	-0.221
-617.332	800.000	-0.029	-0.101
-616.317	-11.543	0.015	-0.010
-615.303	181.359	0.146	-0.215
-614.288	-200.000	0.021	-0.193
-613.273	800.000	0.055	-0.212
-612.259	-86.471	-0.294	0.091
-611.244	-200.000	-0.003	0.170
-610.230	-97.827	-0.233	-0.060
-609.215	-29.173	0.068	-0.039
-608.201	-200.000	-0.047	-0.322
-607.186	73.150	-0.122	-0.128
-606.171	-67.606	0.235	0.092
-605.157	-200.000	-0.032	0.394
-604.142	268.107	0.065	0.114
-603.128	483.123	-0.140	0.320
-602.113	-75.452	-0.336	-0.120
-601.098	-200.000	0.011	-0.138
-600.084	-4.476	-0.225	0.156
-599.069	-0.553	0.226	0.161
-598.055	147.896	-0.100	-0.135
-597.040	428.133	-0.086	0.186
-596.025	106.369	0.211	-0.250
-595.011	-10.940	-0.401	-0.265
-593.996	800.000	-0.048	-0.140
-592.982	11.352	-0.121	0.093
-591.967	-71.866	-0.259	0.097
-590.952	88.073	0.160	0.177
-589.938	119.265	0.139	0.172
-588.923	206.141	-0.139	-0.217
-587.909	-5.829	0.362	0.248
-586.894	800.000	0.065	0.200
-585.879	-137.066	-0.424	0.048
-584.865	108.896	-0.139	-0.166
-583.850	46.274	0.083	0.077
-582.836	-200.000	0.009	0.191
-581.821	86.316	0.112	-0.123
-580.806	270.380	0.036	-0.063
-579.792	-111.729	-0.210	0.043
-578.777	48.039	0.117	0.110
-577.763	-53.998	-0.103	-0.047
-576.748	-122.438	-0.143	-0.023
-575.733	-143.568	-0.032	-0.003
-574.719	640.711	0.154	-0.393
-573.704	316.905	-0.088	-0.166
-572.690	59.702	0.106	0.105
-571.675	105.638	0.075	0.089
-570.661	437.005	0.057	0.125
-569.646	101.168	-0.043	0.051
-568.631	20.101	-0.148	-0.120
-567.617	66.617	-0.120	-0.122
-566.602	-35.495	0.293	0.159
-565.588	-200.000	0.001	0.029
-564.573	119.052	-0.124	0.154
-563.558	199.734	-0.165	0.254
-562.544	307.967	-0.064	0.120
-561.529	-23.852	0.258	-0.154
-560.515	-42.794	0.176	-0.090
-559.500	42.189	-0.285	-0.259
-558.485	-139.956	0.263	-0.028
-557.471	319.796	0.099	0.187
-556.456	4.622	0.333	-0.244
-555.442	-52.584	-0.198	0.091
-554.427	685.326	-0.146	-0.382
-553.412	71.506	0.210	-0.217
-552.398	800.000	-0.054	-0.150
-551.383	81.359	-0.091	0.098
-550.369	-200.000	-0.030	0.347
-549.354	-194.723	0.164	0.001
-548.339	193.239	-0.090	-0.136
-547.325	109.299	0.082	0.098
-546.310	-85.915	-0.288	-0.089
-545.296	135.813	0.081	0.105
-544.281	6.963	0.253	-0.189
-543.266	-2.733	0.204	0.142
-542.252	721.627	-0.038	0.102
-541.237	-54.761	-0.230	0.104
-540.223	-196.628	-0.152	-0.001
-539.208	-84.276	-0.283	-0.089
-538.193	39.029	0.291	-0.260
-537.179	-30.791	0.056	-0.031
-536.164	-26.718	-0.053	0.031
-535.150	-200.000	-0.012	0.447
-534.135	-22.005	0.128	-0.078
-533.121	29.758	-0.139	0.118
-532.106	-200.000	-0.010	0.129
-531.091	-26.195	-0.136	0.080
-530.077	-135.392	0.196	-0.023
-529.062	315.657	0.064	-0.120
-528.048	49.264	0.170	0.160
-527.033	-4.853	-0.270	0.185
-526.018	52.662	-0.145	-0.139
-525.004	-200.000	0.025	-0.136
-523.989	-108.792	-0.151	-0.032
-522.975	-34.343	-0.248	0.136
-521.960	-124.202	0.520	-0.081
-520.945	45.438	0.107	-0.099
-519.931	-164.756	-0.096	0.004
-518.916	800.000	-0.111	-0.354
-517.902	-75.744	-0.123	-0.043
-516.887	800.000	-0.092	-0.328
-515.872	112.151	0.255	-0.308
-514.858	800.000	0.076	0.216
-513.843	408.815	-0.104	0.220
-512.829	-200.000	0.014	0.076
-511.814	275.353	0.167	0.295
-510.799	-200.000	0.012	0.175
-509.785	-91.931	-0.145	-0.041
-508.770	-55.818	-0.100	0.045
-507.756	4.588	-0.061	-0.045
-506.741	-42.454	0.252	0.128
-505.726	-15.770	-0.099	-0.063
-504.712	519.687	0.140	-0.327
-503.697	800.000	0.032	-0.122
-502.683	1.316	-0.392	0.281
-501.668	-200.000	0.007	0.075
-500.653	-144.189	-0.179	-0.017
-499.639	-16.909	-0.330	-0.208
-498.624	-200.000	-0.037	0.338
-497.610	-159.255	-0.227	-0.013
-496.595	231.778	-0.163	-0.267
-495.581	-143.363	-0.296	-0.028
-494.566	800.000	-0.057	-0.197
-493.551	12.306	-0.233	0.179
-492.537	-200.000	-0.117	-0.000
-491.522	106.305	-0.035	0.041
-490.508	800.000	0.016	0.066
-489.493	-125.404	-0.088	0.013
-488.478	429.294	0.092	0.199
-487.464	-108.961	0.255	-0.054
-486.449	-66.192	-0.189	-0.075
-485.435	-73.532	0.281	-0.102
-484.420	44.195	0.014	-0.013
-483.405	57.832	-0.161	0.157
-482.391	800.000	0.138	0.391
-481.376	-200.000	0.010	0.114
-480.362	143.257	-0.173	0.229
-479.347	415.065	-0.142	0.301
-478.332	-142.320	0.286	0.028
-477.318	-106.435	-0.031	0.007
-476.303	302.855	-0.114	0.211
-475.289	-200.000	-0.027	0.243
-474.274	-6.842	0.143	-0.097
-473.259	52.859	0.071	-0.068
-472.245	-36.069	-0.297	-0.160
-471.230	800.000	-0.081	0.292
-470.216	-83.607	-0.296	0.094
-469.201	-200.000	0.003	-0.160
-468.186	185.224	0.089	0.132
-467.172	-59.124	-0.099	-0.043
-466.157	-152.743	0.108	-0.008
-465.143	-69.041	-0.389	-0.149
-464.128	-200.000	-0.080	-0.451
-463.113	23.903	-0.038	-0.032
-462.099	459.903	0.050	-0.112
-461.084	67.444	-0.179	-0.182
-460.070	-128.775	0.295	0.041
-459.055	105.535	-0.159	0.188
-458.040	289.219	-0.281	0.507
-457.026	39.572	-0.116	-0.104
-456.011	-22.232	0.392	-0.237
-454.997	-200.000	0.018	-0.273
-453.982	2.703	0.265	-0.192
-452.968	-163.723	0.380	-0.018
-451.953	-200.000	0.072	0.000
-450.938	-78.459	0.287	-0.098
-449.924	30.737	0.201	-0.171
-448.909	71.455	0.239	0.247
-447.895	-26.436	0.152	-0.089
-446.880	133.779	0.192	-0.247
-445.865	-194.662	0.196	-0.002
-444.851	232.049	-0.132	-0.215
-443.836	22.880	0.373	0.304
-442.822	69.381	-0.115	-0.118
-441.807	-200.000	0.033	-0.162
-440.792	-200.000	0.021	0.178
-439.778	9.109	-0.092	0.069
-438.763	-94.612	0.335	-0.091
-437.749	70.845	-0.057	-0.059
-436.734	38.059	0.186	-0.165
-435.719	-8.905	-0.285	0.190
-434.705	214.766	0.170	-0.268
-433.690	800.000	-0.045	-0.140
-432.676	-200.000	0.040	0.388
-431.661	-88.227	-0.320	-0.095
-430.646	16.879	0.068	0.054
-429.632	-84.604	-0.151	-0.047
-428.617	-200.000	0.008	-0.142
-427.603	-152.770	0.304	0.021
-426.588	-58.712	-0.343	-0.148
-425.573	235.188	-0.058	0.095
-424.559	513.208	0.092	-0.213
-423.544	575.035	-0.056	-0.135
-422.530	-200.000	0.009	0.082
-421.515	-17.533	0.349	-0.218
-420.500	34.265	0.036	0.031
-419.486	-182.199	0.069	0.001
-418.471	-200.000	-0.007	-0.155
-417.457	-114.721	0.290	0.055
-416.442	800.000	-0.096	-0.381
-415.428	-200.000	0.000	0.021
-414.413	35.678	-0.095	-0.083
-413.398	-45.664	-0.092	0.045
-412.384	-107.828	0.363	0.078
-411.369	353.004	-0.149	-0.294
-410.355	22.904	-0.196	0.160
-409.340	310.647	0.140	0.261
-408.325	-15.913	-0.177	0.112
-407.311	-111.007	-0.144	0.029
-406.296	800.000	-0.113	-0.334
-405.282	-60.329	0.156	-0.066
-404.267	-61.793	0.271	0.113
-403.252	191.744	0.247	0.370
-402.238	-167.989	-0.106	-0.004
-401.223	-200.000	0.075	-0.458
-400.209	-49.604	0.185	-0.087
-399.194	637.406	-0.024	0.061
-398.179	99.739	-0.187	0.215
-397.165	47.936	-0.088	0.082
-396.150	70.070	-0.135	0.139
-395.136	800.000	-0.045	-0.143
-394.121	37.815	0.313	0.276
-393.106	56.339	0.338	-0.326
-392.092	-200.000	-0.021	0.464
-391.077	-144.416	0.104	-0.010
-390.063	-93.528	-0.053	0.015
-389.048	554.480	0.103	-0.247
-388.033	51.722	-0.350	-0.331
-387.019	800.000	-0.015	-0.044
-386.004	105.811	0.065	0.076
-384.990	470.436	0.143	-0.318
-383.975	-165.326	-0.293	0.013
-382.960	800.000	-0.076	-0.227
-381.946	-98.185	-0.155	-0.039
-380.931	227.042	0.133	0.214
-379.917	-200.000	0.004	0.247
-378.902	6.190	0.132	0.097
-377.888	-200.000	0.043	-0.285
-376.873	-27.944	0.154	0.088
-375.858	-200.000	-0.041	-0.395
-374.844	139.123	0.097	0.127
-373.829	-200.000	-0.036	0.293
-372.815	366.865	-0.081	0.162
-371.800	-156.516	0.236	0.015
-370.785	351.135	0.064	0.126
-369.771	-64.178	0.233	0.094
-368.756	-200.000	-0.043	-0.248
-367.742	99.101	-0.136	-0.155
-366.727	47.914	0.143	-0.133
-365.712	800.000	-0.006	-0.023
-364.698	77.559	0.300	-0.317
-363.683	800.000	0.072	0.200
-362.669	606.880	-0.038	-0.094
-361.654	-30.244	-0.223	0.126
-360.639	-142.888	-0.305	-0.029
-359.625	126.254	0.281	0.352
-358.610	-105.005	0.096	-0.022
-357.596	-47.630	0.219	0.105
-356.581	98.589	-0.124	-0.141
-355.566	114.103	0.111	-0.134
-354.552	22.018	-0.125	-0.101
-353.537	800.000	-0.015	0.065
-352.523	800.000	0.122	0.401
-351.508	-200.000	-0.005	0.201
-350.493	-43.336	0.081	-0.041
-349.479	-56.991	-0.166	-0.073
-348.464	-34.760	-0.227	0.123
-347.450	-67.615	0.176	0.068
-346.435	328.849	0.149	0.284
-345.420	53.663	-0.190	0.180
-344.406	273.421	-0.100	0.174
-343.391	-88.687	0.335	0.099
-342.377	-200.000	-0.017	-0.110
-341.362	4.103	0.154	-0.112
-340.348	-156.746	-0.151	-0.009
-339.333	-200.000	-0.008	0.358
-338.318	-100.643	0.258	-0.063
-337.304	119.326	-0.095	-0.116
-336.289	240.474	0.102	-0.169
-335.275	79.924	-0.238	0.253
-334.260	-56.579	-0.179	-0.079
-333.245	3.264	-0.138	-0.100
-332.231	-95.179	-0.103	-0.028
-331.216	57.871	0.366	0.354
-330.202	623.583	-0.067	-0.167
-329.187	-187.745	-0.067	-0.001
-328.172	-200.000	0.047	-0.391
-327.158	-200.000	0.002	0.078
-326.143	80.049	-0.112	0.119
-325.129	-70.026	0.212	0.080
-324.114	800.000	0.087	0.239
-323.099	238.934	0.222	0.365
-322.085	18.979	-0.149	0.118
-321.070	700.473	0.085	-0.221
-320.056	800.000	-0.076	-0.263
-319.041	105.705	0.286	-0.335
-318.026	-40.119	0.100	-0.052
-317.012	51.278	-0.178	-0.168
-315.997	11.038	0.064	-0.048
-314.983	186.952	0.070	-0.103
-313.968	107.894	0.059	-0.069
-312.953	155.330	-0.052	0.070
-311.939	-2.199	-0.117	0.081
-310.924	156.754	0.103	-0.141
-309.910	93.307	-0.146	0.164
-308.895	-147.719	0.187	-0.016
-307.880	-200.000	0.006	0.179
-306.866	741.439	-0.044	-0.117
-305.851	-86.284	-0.160	-0.049
-304.837	800.000	-0.043	-0.167
-303.822	-200.000	0.051	-0.225
-302.807	-95.580	-0.266	0.070
-301.793	-200.000	0.013	-0.085
-300.778	3.497	-0.287	-0.207
-299.764	-28.592	0.239	-0.136
-298.749	-200.000	-0.019	0.157
-297.735	-80.943	-0.370	-0.121
-296.720	82.030	0.060	-0.064
-295.705	81.311	-0.341	-0.365
-294.691	226.716	0.113	0.182
-293.676	30.833	-0.149	0.127
-292.662	-173.530	-0.140	0.004
-291.647	-92.401	0.565	0.157
-290.632	-200.000	0.003	0.111
-289.618	800.000	0.164	0.491
-288.603	-200.000	-0.032	0.240
-287.589	201.437	0.183	0.278
-286.574	-200.000	0.000	-0.109
-285.559	-200.000	-0.038	-0.210
-284.545	800.000	0.005	0.018
-283.530	134.512	0.172	-0.221
-282.516	243.002	0.178	0.295
-281.501	800.000	-0.107	0.304
-280.486	-121.386	-0.201	-0.033
-279.472	133.705	0.123	0.158
-278.457	362.028	0.031	-0.060
-277.443	-200.000	-0.022	-0.333
-276.428	-80.325	-0.243	-0.080
-275.413	-200.000	0.017	0.356
-274.399	-113.775	0.080	-0.015
-273.384	-200.000	0.047	0.590
-272.370	-200.000	0.003	0.126
-271.355	-125.755	-0.116	0.017
-270.340	-200.000	-0.046	-0.218
-269.326	95.150	0.243	0.273
-268.311	247.297	-0.174	-0.291
-267.297	-72.597	-0.177	0.065
-266.282	-35.293	0.120	0.064
-265.267	74.902	-0.061	-0.063
-264.253	800.000	0.097	-0.362
-263.238	-200.000	-0.009	-0.050
-262.224	-89.632	-0.264	-0.077
-261.209	-200.000	0.048	0.249
-260.195	-51.257	0.226	0.105
-259.180	-200.000	0.022	0.166
-258.165	127.614	0.104	0.130
-257.151	132.994	0.158	-0.201
-256.136	5.176	0.130	0.095
-255.122	12.052	0.073	0.055
-254.107	-131.801	0.321	0.042
-253.092	-56.443	0.229	-0.100
-252.078	-200.000	-0.001	-0.011
-251.063	117.987	-0.125	-0.152
-250.049	-200.000	-0.041	-0.287
-249.034	-56.466	0.265	0.116
-248.019	800.000	0.068	0.261
-247.005	-200.000	0.011	-0.137
-245.990	-123.214	0.194	0.031
-244.976	-142.379	-0.133	-0.013
-243.961	149.490	-0.029	0.038
-242.946	57.609	0.011	0.011
-241.932	-26.724	-0.351	-0.203
-240.917	-52.921	0.298	-0.136
-239.903	101.449	-0.164	-0.188
-238.888	-140.284	0.164	-0.017
-237.873	-128.041	0.233	0.033
-236.859	49.565	-0.124	0.115
-235.844	75.483	0.264	-0.275
-234.830	800.000	-0.029	-0.089
-233.815	-200.000	-0.023	-0.354
-232.800	155.200	0.151	-0.206
-231.786	158.084	0.057	0.077
-230.771	82.846	0.141	-0.151
-229.757	344.750	0.138	0.268
-228.742	-64.464	-0.226	-0.091
-227.727	2.846	-0.248	0.178
-226.713	0.319	-0.086	0.061
-225.698	-58.727	-0.192	0.082
-224.684	-144.110	-0.164	-0.015
-223.669	-107.244	-0.290	0.063
-222.655	-75.846	-0.243	-0.085
-221.640	455.560	-0.127	-0.277
-220.625	159.605	-0.106	0.146
-219.611	-25.338	0.115	0.067
-218.596	-200.000	0.021	-0.144
-217.582	800.000	0.040	0.156
-216.567	23.205	0.380	-0.308
-215.552	213.323	0.101	0.158
-214.538	800.000	-0.015	0.064
-213.523	-31.128	0.090	-0.050
-212.509	391.341	-0.082	0.168
-211.494	-81.704	-0.280	0.090
-210.479	-57.731	-0.256	0.111
-209.465	-10.966	0.181	0.118
-208.450	233.949	-0.078	0.126
-207.436	20.297	0.211	0.168
-206.421	-140.522	0.183	0.019
-205.406	-9.692	0.278	0.183
-204.392	323.113	-0.156	-0.293
-203.377	180.583	-0.109	0.158
-202.363	90.869	-0.172	0.191
-201.348	190.106	-0.171	-0.252
-200.333	-200.000	-0.029	-0.157
-199.319	-200.000	0.094	0.442
-198.304	800.000	0.081	0.222
-197.290	800.000	0.023	-0.079
-196.275	-53.086	0.114	-0.052
-195.260	350.353	-0.098	0.191
-194.246	-200.000	0.007	-0.148
-193.231	-78.978	-0.081	0.027
-192.217	800.000	0.073	0.261
-191.202	-113.395	0.357	0.069
-190.187	180.403	0.031	-0.045
-189.173	432.250	0.157	-0.334
-188.158	-57.630	-0.181	0.078
-187.144	1.380	0.059	-0.042
-186.129	-200.000	-0.059	-0.262
-185.114	-93.112	-0.071	-0.019
-184.100	-200.000	0.034	-0.148
-183.085	-108.218	-0.083	0.018
-182.071	-200.000	-0.035	-0.157
-181.056	86.228	0.164	0.178
-180.042	-200.000	-0.005	-0.053
-179.027	22.212	-0.161	-0.129
-178.012	-200.000	-0.000	-0.241
-176.998	106.044	0.303	-0.353
-175.983	238.469	0.134	0.219
-174.969	-200.000	-0.048	-0.307
-173.954	-106.659	0.095	0.021
-172.939	-51.379	-0.291	-0.134
-171.925	-120.761	-0.043	0.007
-170.910	-27.099	-0.160	0.092
-169.896	-200.000	0.096	-0.000
-168.881	388.903	-0.033	0.067
-167.866	-82.217	-0.284	0.091
-166.852	-8.548	-0.320	-0.212
-165.837	596.049	-0.029	-0.071
-164.823	-28.496	0.194	-0.110
-163.808	378.476	0.056	0.114
-162.793	90.488	-0.064	0.070
-161.779	18.783	-0.149	-0.118
-160.764	-145.509	-0.236	-0.021
-159.750	-138.589	-0.015	0.002
-158.735	46.854	0.032	0.029
-157.720	-37.729	0.072	0.038
-156.706	800.000	0.078	-0.275
-155.691	182.106	0.080	0.115
-154.677	75.887	-0.143	0.149
-153.662	211.720	0.196	0.304
-152.647	-180.042	-0.335	0.007
-151.633	708.024	0.055	-0.143
-150.618	-32.380	-0.178	0.098
-149.604	-87.021	0.134	0.040
-148.589	-87.284	-0.032	-0.010
-147.574	-200.000	0.007	0.189
-146.560	-55.765	-0.044	0.019
-145.545	-9.896	-0.109	-0.071
-144.531	101.773	0.180	-0.206
-143.516	123.262	0.106	0.130
-142.502	-68.887	-0.241	0.091
-141.487	800.000	0.040	0.140
-140.472	-73.799	-0.137	0.049
-139.458	486.194	0.164	0.368
-138.443	-86.730	-0.230	-0.069
-137.429	100.165	0.274	-0.313
-136.414	-107.962	-0.135	-0.029
-135.399	-13.226	0.116	0.074
-134.385	-95.793	0.258	0.068
-133.370	-111.388	-0.185	0.037
-132.356	-200.000	-0.010	0.141
-131.341	-200.000	-0.007	-0.227
-130.326	131.652	0.282	0.357
-129.312	-121.296	0.134	0.022
-128.297	166.042	-0.103	0.143
-127.283	293.926	-0.165	-0.296
-126.268	-106.541	0.278	-0.061
-125.253	-150.852	0.475	-0.035
-124.239	96.096	0.289	0.324
-123.224	800.000	-0.102	0.280
-122.210	-90.229	0.139	0.040
-121.195	-200.000	-0.037	-0.197
