DTS Sentinel unit serial number:	SN413079Multiplexer serial number:	ORYXHardware model number:	OX4-SRSoftware version number:	ORYX F/W v4.00 Oryx Data Collector v3.7.2.0data status	okinstallation	princeton_trtdifferential loss correction	single-endedforward channel	channel 3reverse channel	N/Adate	2019/09/16time	01:16:35forward acquisition time	60.00reverse acquisition time	0.00gamma	496.2192k internal	0.2338k external	0.2338temperature offset calibration	0.9950default loss term (dB/km)	0.3790temperature slope calibration	1.0000multiplexer offset coefficient	1.0000multiplexer slope coefficient	1.0000fibre end	0.00T internal ref (°C)	27.28T ext. ref 1 (°C)	9.84T ext. ref 2 (°C)	21.77length (m)	temperature (°C)	Stokes	anti-Stokes-747.200	-114.878	0.196	0.038
-746.185	-116.333	-0.211	-0.039
-745.171	251.396	0.087	-0.148
-744.156	-72.200	-0.356	0.132
-743.142	55.978	-0.139	0.135
-742.127	21.377	0.107	-0.088
-741.112	-25.985	-0.145	0.086
-740.098	-200.000	0.054	0.408
-739.083	-173.254	0.083	0.003
-738.069	-13.506	-0.337	0.219
-737.054	-131.530	-0.230	0.030
-736.039	31.483	-0.448	-0.386
-735.025	-40.217	0.430	0.224
-734.010	494.855	0.101	-0.233
-732.996	-90.624	-0.206	-0.060
-731.981	-124.594	0.346	-0.054
-730.966	121.473	0.156	0.195
-729.952	-61.773	-0.129	-0.054
-728.937	12.419	-0.198	-0.153
-727.923	-80.271	-0.218	0.073
-726.908	-158.605	0.107	-0.006
-725.894	-104.647	0.075	0.017
-724.879	-9.429	0.081	-0.054
-723.864	-53.637	-0.247	0.113
-722.850	-42.139	0.072	0.037
-721.835	31.065	0.130	0.112
-720.821	-58.540	0.227	-0.099
-719.806	-87.524	0.174	-0.053
-718.791	-200.000	0.023	-0.250
-717.777	348.977	0.029	-0.058
-716.762	-111.651	-0.257	-0.052
-715.748	612.360	0.076	-0.190
-714.733	-200.000	-0.320	0.000
-713.718	-112.502	0.150	0.030
-712.704	-156.999	-0.249	-0.015
-711.689	-139.725	-0.369	-0.039
-710.675	135.347	-0.170	-0.221
-709.660	236.513	0.098	0.163
-708.645	85.605	0.146	-0.161
-707.631	-200.000	-0.045	0.301
-706.616	-96.109	-0.129	-0.034
-705.602	-87.251	0.189	0.057
-704.587	34.980	0.125	-0.109
-703.572	800.000	0.078	0.256
-702.558	262.554	-0.112	0.194
-701.543	-3.408	-0.112	-0.078
-700.529	-151.441	-0.542	-0.040
-699.514	4.128	0.186	0.137
-698.499	93.738	-0.158	-0.179
-697.485	-105.064	0.055	0.013
-696.470	98.648	0.064	-0.074
-695.456	11.947	-0.126	0.097
-694.441	12.600	-0.397	0.307
-693.426	251.752	-0.060	-0.102
-692.412	7.285	0.166	-0.124
-691.397	-85.681	0.245	0.076
-690.383	-35.420	-0.322	0.175
-689.368	-200.000	0.014	0.066
-688.354	800.000	0.073	-0.291
-687.339	-76.164	-0.290	0.102
-686.324	-129.300	0.124	0.017
-685.310	158.415	-0.124	-0.172
-684.295	-27.920	0.273	-0.158
-683.281	-20.113	-0.237	0.146
-682.266	79.693	0.167	0.179
-681.251	-47.562	0.261	-0.127
-680.237	-160.847	0.132	0.007
-679.222	153.735	0.039	-0.054
-678.208	-94.153	-0.132	0.036
-677.193	800.000	0.035	-0.130
-676.178	-44.094	0.249	0.125
-675.164	654.649	-0.137	0.351
-674.149	-51.164	-0.199	-0.093
-673.135	-200.000	0.074	-0.399
-672.120	-200.000	0.034	0.310
-671.105	-58.183	-0.384	0.167
-670.091	-101.989	0.269	0.065
-669.076	308.424	0.040	-0.074
-668.062	301.320	-0.019	-0.035
-667.047	266.656	-0.071	0.124
-666.032	-200.000	0.026	0.177
-665.018	-113.743	0.051	0.010
-664.003	34.546	-0.109	-0.096
-662.989	79.582	-0.112	0.121
-661.974	-47.844	-0.164	-0.079
-660.959	800.000	-0.030	-0.121
-659.945	40.263	0.105	0.094
-658.930	-131.211	0.160	0.021
-657.916	415.629	-0.111	-0.237
-656.901	-200.000	-0.003	0.266
-655.886	385.059	-0.081	-0.168
-654.872	-84.391	0.282	-0.089
-653.857	-32.814	-0.093	-0.051
-652.843	-48.978	0.201	0.096
-651.828	-200.000	0.008	0.100
-650.814	800.000	-0.047	0.145
-649.799	-128.651	-0.211	0.030
-648.784	124.625	-0.101	-0.127
-647.770	-51.862	-0.252	-0.117
-646.755	60.406	-0.102	0.101
-645.741	-50.415	0.237	-0.112
-644.726	192.105	-0.090	0.135
-643.711	-161.139	0.481	0.025
-642.697	-200.000	-0.017	0.271
-641.682	134.187	-0.100	-0.130
-640.668	107.139	0.212	0.252
-639.653	427.808	0.132	0.285
-638.638	-36.307	-0.168	0.090
-637.624	800.000	-0.036	0.116
-636.609	-7.198	-0.089	-0.060
-635.595	-200.000	-0.021	-0.246
-634.580	800.000	-0.056	0.186
-633.565	800.000	-0.032	0.099
-632.551	-121.216	0.028	0.005
-631.536	212.117	0.079	0.124
-630.522	-200.000	0.035	0.199
-629.507	-72.745	0.179	-0.066
-628.492	-78.480	-0.368	-0.126
-627.478	114.110	-0.277	-0.337
-626.463	-8.962	-0.078	0.052
-625.449	646.132	0.156	0.399
-624.434	559.595	0.108	0.260
-623.419	14.820	0.069	-0.054
-622.405	-138.471	-0.254	0.028
-621.390	156.186	-0.125	0.172
-620.376	-148.897	0.090	0.007
-619.361	309.213	-0.150	-0.280
-618.346	60.922	-0.278	-0.276
-617.332	-200.000	-0.040	-0.354
-616.317	-135.444	-0.144	-0.017
-615.303	-94.273	-0.304	0.083
-614.288	-115.563	0.108	0.020
-613.273	-200.000	0.060	-0.264
-612.259	81.299	0.329	-0.354
-611.244	721.546	0.105	-0.279
-610.230	124.079	0.068	-0.086
-609.215	-200.000	0.028	-0.339
-608.201	-31.224	-0.044	-0.025
-607.186	-200.000	-0.002	-0.150
-606.171	286.332	-0.159	-0.287
-605.157	259.743	0.097	-0.167
-604.142	-43.951	-0.164	0.082
-603.128	-136.206	0.226	0.026
-602.113	-31.912	0.183	-0.102
-601.098	-21.016	0.144	0.088
-600.084	800.000	0.037	-0.155
-599.069	-28.017	0.321	-0.186
-598.055	-200.000	0.000	-0.145
-597.040	-191.941	-0.400	0.004
-596.025	-64.955	0.150	-0.060
-595.011	16.633	-0.157	-0.124
-593.996	125.047	-0.027	-0.034
-592.982	800.000	-0.049	-0.136
-591.967	638.641	0.114	0.288
-590.952	188.148	-0.193	0.288
-589.938	-102.228	-0.230	0.055
-588.923	-78.544	0.097	0.033
-587.909	800.000	-0.042	0.147
-586.894	41.030	0.146	0.131
-585.879	-7.745	-0.181	-0.122
-584.865	60.894	-0.066	0.065
-583.850	83.334	-0.254	0.276
-582.836	800.000	-0.140	0.389
-581.821	-61.370	-0.282	0.118
-580.806	645.555	0.100	0.254
-579.792	800.000	0.068	-0.222
-578.777	-33.251	0.142	-0.078
-577.763	-43.845	0.246	0.123
-576.748	93.796	-0.135	-0.152
-575.733	54.136	-0.407	-0.390
-574.719	50.141	-0.045	0.042
-573.704	-200.000	0.095	0.510
-572.690	-117.633	-0.277	-0.050
-571.675	157.022	0.125	-0.172
-570.661	486.837	0.084	-0.190
-569.646	-200.000	0.006	0.188
-568.631	-155.643	-0.445	-0.028
-567.617	-45.993	0.028	0.014
-566.602	506.098	-0.076	0.175
-565.588	-62.277	-0.304	-0.126
-564.573	-108.214	-0.163	0.035
-563.558	-31.778	-0.125	0.070
-562.544	-112.681	0.180	-0.036
-561.529	800.000	0.125	0.346
-560.515	141.980	-0.114	-0.150
-559.500	-61.220	-0.076	0.032
-558.485	42.919	-0.216	0.196
-557.471	314.537	-0.035	-0.065
-556.456	-30.731	0.142	-0.080
-555.442	117.145	-0.246	-0.301
-554.427	-200.000	-0.063	0.373
-553.412	-133.299	0.355	-0.045
-552.398	320.978	0.100	-0.190
-551.383	-124.463	-0.154	0.024
-550.369	-200.000	0.123	-0.001
-549.354	800.000	0.115	-0.333
-548.339	289.126	0.044	-0.080
-547.325	13.152	-0.075	0.058
-546.310	800.000	0.055	-0.224
-545.296	-156.927	-0.233	-0.014
-544.281	83.459	0.145	0.158
-543.266	-25.019	0.242	0.143
-542.252	-21.453	0.080	0.048
-541.237	38.782	0.194	0.172
-540.223	-15.176	0.048	0.030
-539.208	-200.000	-0.012	-0.171
-538.193	113.966	-0.083	-0.101
-537.179	552.417	-0.076	-0.181
-536.164	800.000	-0.035	-0.099
-535.150	-200.000	0.004	0.393
-534.135	20.649	-0.142	0.114
-533.121	-82.758	0.301	-0.097
-532.106	-177.356	-0.313	-0.008
-531.091	-200.000	-0.007	0.086
-530.077	800.000	-0.049	-0.212
-529.062	72.527	0.054	0.056
-528.048	394.470	0.097	0.202
-527.033	402.976	0.091	0.191
-526.018	-3.922	-0.260	-0.179
-525.004	7.025	0.170	0.126
-523.989	-200.000	-0.033	0.157
-522.975	-21.645	0.189	-0.114
-521.960	-200.000	-0.026	0.181
-520.945	163.907	-0.081	-0.113
-519.931	151.676	-0.114	0.155
-518.916	-200.000	-0.030	0.290
-517.902	121.138	-0.074	0.092
-516.887	800.000	0.085	-0.248
-515.872	-22.444	-0.115	-0.069
-514.858	-0.467	-0.142	-0.100
-513.843	27.402	0.444	0.371
-512.829	-200.000	-0.002	-0.075
-511.814	800.000	0.044	0.169
-510.799	-138.024	-0.085	-0.009
-509.785	101.645	0.077	-0.089
-508.770	-65.619	-0.405	0.162
-507.756	374.397	0.047	-0.095
-506.741	-115.849	0.199	-0.037
-505.726	800.000	-0.007	0.026
-504.712	30.962	-0.171	-0.146
-503.697	189.313	-0.144	-0.214
-502.683	-117.886	-0.159	0.028
-501.668	-166.755	0.256	-0.011
-500.653	-100.661	-0.092	0.023
-499.639	300.507	-0.196	-0.360
-498.624	-200.000	-0.002	-0.049
-497.610	55.361	-0.088	0.084
-496.595	-134.850	0.235	0.028
-495.581	800.000	0.086	0.315
-494.566	-83.321	0.113	0.036
-493.551	-200.000	0.012	0.072
-492.537	-200.000	0.016	0.117
-491.522	-200.000	-0.020	0.139
-490.508	113.761	0.056	-0.068
-489.493	468.004	0.016	0.036
-488.478	-200.000	0.007	0.361
-487.464	159.560	0.125	-0.174
-486.449	-147.267	0.209	-0.018
-485.435	-18.053	0.355	0.221
-484.420	232.724	0.059	0.096
-483.405	-22.397	-0.136	-0.082
-482.391	-200.000	-0.014	-0.299
-481.376	372.433	0.178	0.359
-480.362	-200.000	0.025	0.112
-479.347	704.582	0.091	-0.238
-478.332	98.766	-0.242	-0.278
-477.318	-61.509	0.154	-0.064
-476.303	800.000	0.061	0.229
-475.289	-200.000	-0.004	-0.104
-474.274	472.486	0.010	-0.022
-473.259	-107.149	0.114	-0.025
-472.245	-106.198	0.191	0.043
-471.230	71.821	-0.024	0.025
-470.216	194.152	0.171	0.257
-469.201	30.746	0.051	0.043
-468.186	-200.000	0.007	0.218
-467.172	-155.706	-0.142	-0.009
-466.157	-195.086	0.082	0.001
-465.143	-16.573	-0.123	0.077
-464.128	287.827	0.028	0.051
-463.113	-125.999	-0.105	0.016
-462.099	220.010	0.117	-0.186
-461.084	-70.884	0.064	0.024
-460.070	-98.582	-0.494	0.125
-459.055	-63.804	0.023	-0.009
-458.040	800.000	-0.064	0.274
-457.026	-160.869	-0.199	0.010
-456.011	-200.000	0.008	-0.145
-454.997	-67.300	0.034	0.013
-453.982	52.743	0.099	0.093
-452.968	800.000	0.031	0.121
-451.953	800.000	-0.054	0.188
-450.938	-200.000	-0.030	0.373
-449.924	-58.999	-0.117	0.050
-448.909	210.377	-0.256	-0.399
-447.895	-37.808	-0.077	0.041
-446.880	-99.215	0.124	-0.031
-445.865	297.200	-0.101	0.183
-444.851	79.672	0.164	-0.175
-443.836	269.053	-0.208	-0.361
-442.822	-32.456	-0.113	0.062
-441.807	-93.015	0.493	-0.136
-440.792	800.000	0.037	-0.159
-439.778	-27.349	0.165	-0.095
-438.763	-139.999	0.408	-0.043
-437.749	800.000	-0.146	-0.453
-436.734	-101.846	0.130	-0.031
-435.719	-92.114	0.197	-0.055
-434.705	-78.281	0.313	0.106
-433.690	144.473	0.056	0.074
-432.676	-129.777	-0.338	0.046
-431.661	755.261	0.168	0.450
-430.646	-95.773	0.088	-0.023
-429.632	-61.894	0.157	0.065
-428.617	-122.049	0.151	0.025
-427.603	273.989	0.075	0.131
-426.588	1.047	-0.145	0.103
-425.573	227.062	0.075	-0.120
-424.559	800.000	0.050	-0.149
-423.544	12.307	-0.153	-0.117
-422.530	-200.000	-0.000	-0.030
-421.515	565.649	0.054	0.129
-420.500	-200.000	-0.003	-0.221
-419.486	800.000	-0.017	0.056
-418.471	-200.000	0.084	0.417
-417.457	107.693	-0.148	0.174
-416.442	654.148	0.036	0.091
-415.428	800.000	0.097	-0.340
-414.413	-200.000	-0.037	-0.304
-413.398	-128.657	0.226	-0.032
-412.384	-166.940	-0.131	-0.005
-411.369	103.907	0.134	-0.156
-410.355	-111.330	-0.220	-0.044
-409.340	71.784	0.242	-0.249
-408.325	767.057	-0.099	0.266
-407.311	185.887	0.216	0.318
-406.296	800.000	-0.099	0.378
-405.282	-71.343	-0.181	0.067
-404.267	386.423	-0.037	0.076
-403.252	610.017	0.116	0.287
-402.238	71.778	0.168	0.173
-401.223	-78.700	0.218	-0.074
-400.209	-200.000	0.031	-0.210
-399.194	158.575	-0.144	-0.198
-398.179	556.324	-0.124	-0.295
-397.165	-200.000	0.013	0.247
-396.150	-185.457	-0.159	0.002
-395.136	107.224	0.037	0.044
-394.121	59.343	0.203	-0.198
-393.106	-89.530	-0.181	-0.053
-392.092	391.133	0.123	0.252
-391.077	18.775	-0.250	-0.198
-390.063	-62.884	-0.305	-0.125
-389.048	-200.000	0.027	0.143
-388.033	-120.586	-0.150	0.025
-387.019	77.368	-0.165	-0.174
-386.004	575.814	-0.176	-0.426
-384.990	-34.739	0.189	-0.102
-383.975	800.000	-0.090	-0.360
-382.960	-200.000	0.045	-0.235
-381.946	-127.323	0.356	-0.051
-380.931	-200.000	-0.009	0.161
-379.917	715.323	0.057	0.150
-378.902	-200.000	-0.044	-0.256
-377.888	-55.629	-0.050	0.022
-376.873	-6.059	-0.307	-0.207
-375.858	99.311	0.215	-0.245
-374.844	471.884	-0.082	0.183
-373.829	279.419	-0.088	-0.155
-372.815	498.219	-0.148	-0.337
-371.800	-107.212	-0.102	0.022
-370.785	46.928	-0.096	0.088
-369.771	536.933	-0.115	-0.270
-368.756	-140.590	-0.278	0.029
-367.742	7.344	0.177	0.131
-366.727	-80.414	-0.195	-0.064
-365.712	-200.000	0.042	-0.393
-364.698	27.568	-0.236	-0.196
-363.683	-82.862	-0.166	0.053
-362.669	192.112	0.180	-0.268
-361.654	-23.539	0.177	-0.105
-360.639	196.419	-0.150	0.225
-359.625	800.000	0.074	-0.274
-358.610	-57.488	0.175	-0.076
-357.596	-200.000	-0.006	-0.042
-356.581	21.158	0.093	-0.074
-355.566	-132.771	-0.035	-0.004
-354.552	-138.201	0.053	-0.006
-353.537	-40.623	0.151	0.077
-352.523	-28.459	-0.198	-0.113
-351.508	261.532	-0.128	0.220
-350.493	224.734	-0.073	0.116
-349.479	-200.000	0.000	0.143
-348.464	800.000	0.091	0.336
-347.450	579.230	0.161	0.389
-346.435	289.475	-0.097	0.173
-345.420	406.499	-0.192	0.401
-344.406	528.306	0.058	-0.136
-343.391	-63.370	-0.101	0.041
-342.377	32.973	0.120	0.102
-341.362	-200.000	0.036	-0.238
-340.348	17.555	0.044	-0.035
-339.333	-26.831	0.206	0.119
-338.318	-200.000	0.021	-0.156
-337.304	-95.905	-0.323	-0.085
-336.289	605.512	0.065	-0.160
-335.275	800.000	0.093	0.299
-334.260	-57.755	-0.105	0.045
-333.245	-200.000	0.031	0.143
-332.231	102.357	-0.086	0.100
-331.216	-126.497	0.057	-0.008
-330.202	72.240	0.087	0.089
-329.187	-103.620	-0.071	0.016
-328.172	70.790	0.230	-0.236
-327.158	16.509	-0.065	-0.051
-326.143	800.000	-0.010	-0.032
-325.129	-93.176	-0.325	0.089
-324.114	471.492	-0.084	0.187
-323.099	800.000	0.143	0.394
-322.085	44.937	0.275	0.250
-321.070	207.078	-0.202	-0.311
-320.056	101.629	-0.195	0.224
-319.041	105.781	-0.131	0.153
-318.026	311.075	-0.088	0.163
-317.012	50.557	0.190	-0.178
-315.997	450.115	0.117	0.255
-314.983	524.030	0.062	-0.145
-313.968	43.709	-0.135	-0.122
-312.953	-79.068	-0.188	-0.063
-311.939	-98.001	0.067	-0.017
-310.924	-79.747	-0.156	0.052
-309.910	-200.000	-0.017	0.151
-308.895	-0.221	-0.046	0.032
-307.880	-200.000	0.024	-0.172
-306.866	312.797	-0.123	0.228
-305.851	-122.510	-0.323	-0.052
-304.837	4.847	-0.168	-0.122
-303.822	-109.367	0.488	-0.102
-302.807	-188.276	0.323	0.004
-301.793	800.000	0.020	-0.074
-300.778	800.000	0.044	-0.180
-299.764	-120.011	-0.243	-0.041
-298.749	459.102	0.092	-0.201
-297.735	104.002	0.210	-0.243
-296.720	-54.744	-0.080	0.035
-295.705	-28.684	0.175	-0.099
-294.691	-200.000	-0.001	0.012
-293.676	209.673	-0.197	-0.304
-292.662	104.282	0.034	0.039
-291.647	2.766	-0.326	0.233
-290.632	-92.023	0.097	0.027
-289.618	800.000	0.073	-0.209
-288.603	-200.000	0.057	-0.370
-287.589	-57.125	-0.184	-0.080
-286.574	-173.925	0.093	0.003
-285.559	778.382	-0.156	-0.420
-284.545	612.340	-0.094	0.232
-283.530	505.190	-0.055	-0.126
-282.516	-65.666	0.304	-0.120
-281.501	-126.654	0.194	-0.028
-280.486	-77.667	0.303	-0.103
-279.472	106.090	0.026	0.031
-278.457	-93.207	-0.253	-0.069
-277.443	53.480	0.123	-0.116
-276.428	-57.504	0.092	0.040
-275.413	586.395	-0.082	-0.199
-274.399	-94.950	0.195	-0.052
-273.384	161.958	-0.299	0.413
-272.370	1.505	0.170	0.120
-271.355	86.834	-0.177	0.193
-270.340	481.856	0.103	0.230
-269.326	430.268	0.078	-0.165
-268.311	99.581	-0.115	-0.132
-267.297	-132.583	-0.190	0.024
-266.282	-145.417	-0.144	0.013
-265.267	800.000	-0.096	0.383
-264.253	356.318	0.155	-0.305
-263.238	800.000	-0.029	-0.109
-262.224	185.388	0.188	-0.275
-261.209	-42.679	-0.090	-0.045
-260.195	593.537	0.043	-0.105
-259.180	467.998	-0.143	-0.316
-258.165	581.396	0.116	-0.281
-257.151	-161.442	0.441	-0.022
-256.136	479.162	0.059	0.132
-255.122	-69.859	-0.244	0.092
-254.107	-135.826	0.320	-0.037
-253.092	-94.420	-0.266	0.072
-252.078	252.201	-0.146	0.245
-251.063	-82.988	0.065	-0.021
-250.049	-200.000	-0.008	0.242
-249.034	491.493	0.172	0.388
-248.019	65.705	-0.210	-0.209
-247.005	-200.000	-0.023	0.487
-245.990	800.000	-0.068	-0.194
-244.976	800.000	0.084	0.358
-243.961	-16.471	-0.233	0.146
-242.946	-82.192	0.508	-0.163
-241.932	5.584	0.061	0.045
-240.917	541.169	-0.143	0.335
-239.903	-73.110	0.181	-0.065
-238.888	320.088	0.158	-0.295
-237.873	-149.222	-0.453	0.036
-236.859	-1.675	0.131	-0.091
-235.844	-200.000	-0.016	0.460
-234.830	800.000	0.127	-0.405
-233.815	-148.118	0.148	0.012
-232.800	-108.009	0.378	-0.081
-231.786	32.421	0.141	0.120
-230.771	54.242	0.215	0.203
-229.757	522.503	-0.057	0.131
-228.742	-200.000	0.003	0.165
-227.727	-173.211	-0.103	-0.003
-226.713	407.298	-0.129	-0.269
-225.698	800.000	-0.022	0.073
-224.684	-38.814	-0.165	0.085
-223.669	-200.000	-0.015	-0.099
-222.655	13.284	0.124	-0.094
-221.640	-44.507	-0.182	-0.090
-220.625	-200.000	0.041	0.201
-219.611	-68.785	0.062	0.024
-218.596	-200.000	0.007	0.077
-217.582	-200.000	-0.061	-0.376
-216.567	-78.159	-0.201	0.068
-215.552	162.183	-0.194	-0.267
-214.538	-108.743	-0.143	-0.030
-213.523	210.746	0.166	0.256
-212.509	800.000	0.084	-0.324
-211.494	33.592	-0.127	-0.109
-210.479	-200.000	-0.018	-0.269
-209.465	73.971	-0.352	0.363
-208.450	-47.816	0.139	-0.066
-207.436	-200.000	0.001	-0.031
-206.421	130.915	0.078	-0.098
-205.406	-112.493	0.354	-0.069
-204.392	-5.641	0.089	-0.060
-203.377	500.503	-0.041	-0.093
-202.363	-86.859	0.037	0.011
-201.348	304.382	0.213	0.387
-200.333	39.973	0.204	-0.180
-199.319	-200.000	0.030	-0.135
-198.304	141.926	-0.032	-0.042
-197.290	-200.000	0.020	-0.204
-196.275	156.840	0.146	-0.198
-195.260	-33.901	0.123	-0.066
-194.246	-91.200	-0.262	-0.074
-193.231	278.901	0.079	-0.138
-192.217	-200.000	-0.005	0.197
-191.202	-101.718	-0.126	-0.030
-190.187	43.475	-0.144	0.129
-189.173	-20.276	0.212	0.128
-188.158	83.077	0.292	0.312
-187.144	-60.254	-0.458	0.191
-186.129	454.581	-0.058	-0.127
-185.114	185.456	-0.170	0.248
-184.100	71.062	0.062	-0.063
-183.085	70.799	0.116	-0.118
-182.071	-73.226	0.140	0.050
-181.056	-142.172	-0.210	-0.020
-180.042	180.888	0.103	-0.149
-179.027	800.000	-0.085	0.230
-178.012	120.478	0.143	-0.174
-176.998	220.754	0.021	0.033
-175.983	134.848	0.073	-0.093
-174.969	-158.783	0.125	0.007
-173.954	-20.794	-0.161	-0.097
-172.939	-33.332	0.139	-0.075
-171.925	352.331	0.131	0.255
-170.910	-17.772	0.205	0.126
-169.896	128.867	-0.079	0.099
-168.881	619.036	-0.085	-0.210
-167.866	-103.231	0.220	-0.051
-166.852	800.000	0.054	0.166
-165.837	800.000	-0.096	-0.355
-164.823	98.037	-0.063	-0.071
-163.808	-200.000	-0.004	0.090
-162.793	800.000	-0.047	-0.147
-161.779	-100.991	0.049	-0.012
-160.764	800.000	0.107	0.412
-159.750	1.368	-0.175	0.123
-158.735	-149.681	-0.325	0.025
-157.720	-200.000	-0.007	0.065
-156.706	-200.000	-0.014	0.293
-155.691	68.526	-0.127	0.127
-154.677	-92.232	0.179	0.050
-153.662	-90.435	0.144	-0.041
-152.647	-65.821	0.410	0.161
-151.633	-108.027	0.186	0.040
-150.618	147.446	0.119	0.157
-149.604	-200.000	0.045	-0.233
-148.589	661.890	-0.047	-0.118
-147.574	52.721	0.028	-0.026
-146.560	-18.242	-0.224	-0.137
-145.545	15.776	0.289	0.223
-144.531	-200.000	-0.020	0.413
-143.516	3.499	0.016	-0.011
-142.502	-97.767	0.074	-0.019
-141.487	-86.763	-0.184	-0.055
-140.472	-25.951	0.227	0.131
-139.458	648.365	0.191	0.477
-138.443	225.671	-0.063	0.100
-137.429	-160.957	0.201	-0.010
-136.414	-151.775	0.223	0.016
-135.399	351.926	0.043	-0.084
-134.385	-200.000	0.006	0.110
-133.370	-104.928	0.160	0.036
-132.356	68.015	0.133	0.133
-131.341	689.087	0.103	-0.265
-130.326	-200.000	-0.005	0.235
-129.312	657.872	-0.067	0.169
-128.297	215.205	-0.079	0.123
-127.283	-180.880	-0.331	0.007
-126.268	-200.000	0.095	-0.419
-125.253	-200.000	0.004	0.374
-124.239	178.382	0.330	0.472
-123.224	-200.000	-0.001	-0.033
-122.210	-89.927	0.247	0.071
-121.195	800.000	-0.079	0.233
