DTS Sentinel unit serial number:	SN413079Multiplexer serial number:	ORYXHardware model number:	OX4-SRSoftware version number:	ORYX F/W v4.00 Oryx Data Collector v3.7.2.0data status	okinstallation	princeton_trtdifferential loss correction	single-endedforward channel	channel 3reverse channel	N/Adate	2019/09/17time	20:12:35forward acquisition time	60.00reverse acquisition time	0.00gamma	496.2192k internal	0.2328k external	0.2328temperature offset calibration	0.9953default loss term (dB/km)	0.3790temperature slope calibration	1.0000multiplexer offset coefficient	1.0000multiplexer slope coefficient	1.0000fibre end	0.00T internal ref (°C)	32.11T ext. ref 1 (°C)	0.22T ext. ref 2 (°C)	22.31length (m)	temperature (°C)	Stokes	anti-Stokes-747.200	-119.521	0.178	0.031
-746.185	176.458	0.097	0.143
-745.171	140.465	-0.165	0.219
-744.156	-147.969	-0.147	0.012
-743.142	-200.000	-0.023	0.273
-742.127	35.442	0.128	0.114
-741.112	-200.000	0.016	0.096
-740.098	9.783	-0.248	0.190
-739.083	-102.167	0.377	-0.091
-738.069	49.255	0.269	-0.255
-737.054	432.993	0.049	-0.107
-736.039	-66.529	0.317	-0.127
-735.025	211.944	0.148	0.234
-734.010	-200.000	0.034	-0.204
-732.996	60.392	-0.284	0.283
-731.981	41.536	0.087	-0.079
-730.966	39.620	-0.140	-0.127
-729.952	-99.183	0.148	0.038
-728.937	-200.000	-0.028	0.153
-727.923	-51.965	-0.127	0.059
-726.908	-99.963	-0.081	0.020
-725.894	129.850	-0.167	-0.215
-724.879	100.169	0.085	-0.100
-723.864	183.431	0.236	-0.351
-722.850	-4.418	0.292	-0.203
-721.835	37.298	0.079	0.070
-720.821	176.927	-0.042	0.061
-719.806	239.138	0.057	0.096
-718.791	-93.227	0.016	0.005
-717.777	-200.000	-0.020	0.462
-716.762	336.762	-0.170	0.332
-715.748	-70.708	-0.288	0.110
-714.733	33.601	-0.192	0.168
-713.718	-30.592	-0.317	0.181
-712.704	124.546	-0.220	-0.278
-711.689	2.238	-0.178	0.129
-710.675	148.594	0.226	-0.307
-709.660	-157.766	-0.280	-0.017
-708.645	-0.884	0.209	0.149
-707.631	-27.360	-0.151	0.088
-706.616	800.000	0.123	-0.358
-705.602	37.274	-0.213	-0.190
-704.587	-145.780	-0.215	0.019
-703.572	164.827	-0.064	-0.090
-702.558	-135.457	0.092	-0.011
-701.543	158.173	0.089	-0.124
-700.529	141.027	-0.024	0.032
-699.514	-200.000	-0.027	-0.199
-698.499	-114.765	0.056	-0.011
-697.485	800.000	0.059	0.224
-696.470	-200.000	-0.017	-0.086
-695.456	-200.000	-0.023	-0.112
-694.441	40.870	0.250	0.227
-693.426	-200.000	-0.034	0.185
-692.412	-120.616	-0.208	0.035
-691.397	800.000	0.031	-0.130
-690.383	2.952	-0.165	-0.121
-689.368	-200.000	0.029	0.270
-688.354	95.962	-0.169	0.194
-687.339	-127.387	0.513	-0.075
-686.324	-200.000	0.034	-0.186
-685.310	-84.851	0.056	0.018
-684.295	291.949	-0.075	0.137
-683.281	83.993	0.027	0.030
-682.266	-14.771	-0.194	-0.125
-681.251	311.451	-0.187	0.353
-680.237	800.000	0.027	0.117
-679.222	219.261	-0.147	-0.236
-678.208	202.044	0.109	-0.169
-677.193	-200.000	0.009	-0.092
-676.178	252.212	0.052	0.089
-675.164	490.892	-0.087	0.201
-674.149	-200.000	0.007	0.138
-673.135	6.071	-0.213	0.159
-672.120	-200.000	0.012	0.220
-671.105	-157.028	0.082	-0.005
-670.091	800.000	-0.135	-0.567
-669.076	800.000	0.014	0.046
-668.062	363.809	-0.138	0.279
-667.047	183.843	-0.091	-0.135
-666.032	104.462	-0.202	0.239
-665.018	-149.050	0.280	0.023
-664.003	-200.000	0.011	-0.157
-662.989	800.000	-0.066	-0.195
-661.974	3.544	-0.169	0.124
-660.959	-44.810	-0.210	0.105
-659.945	361.396	0.035	-0.070
-658.930	450.234	-0.150	-0.332
-657.916	81.104	0.047	-0.051
-656.901	-73.619	-0.404	0.148
-655.886	-14.653	0.392	-0.253
-654.872	800.000	-0.066	-0.290
-653.857	-76.533	-0.261	0.092
-652.843	800.000	0.086	-0.239
-651.828	-35.659	-0.079	0.043
-650.814	107.310	-0.085	0.101
-649.799	391.839	-0.236	-0.492
-648.784	-54.184	0.103	-0.047
-647.770	-146.259	0.094	0.008
-646.755	329.870	0.200	-0.387
-645.741	-200.000	0.011	-0.228
-644.726	231.540	-0.138	0.228
-643.711	-68.913	-0.342	0.133
-642.697	42.946	-0.269	-0.247
-641.682	-58.781	0.291	-0.127
-640.668	281.679	0.145	-0.262
-639.653	-200.000	0.046	-0.253
-638.638	135.904	0.156	-0.204
-637.624	-69.831	-0.026	-0.010
-636.609	-33.140	0.289	0.161
-635.595	-163.514	-0.153	0.007
-634.580	298.156	-0.092	0.170
-633.565	800.000	0.071	0.268
-632.551	-49.982	0.355	-0.169
-631.536	-200.000	0.024	0.116
-630.522	125.807	0.361	0.458
-629.507	-108.298	0.297	-0.064
-628.492	51.514	0.024	-0.023
-627.478	82.031	-0.135	0.147
-626.463	-119.292	-0.340	0.059
-625.449	-200.000	-0.014	0.089
-624.434	138.950	0.125	-0.165
-623.419	-200.000	0.078	-0.413
-622.405	-37.421	-0.299	0.160
-621.390	-86.064	0.193	0.060
-620.376	89.387	-0.087	-0.097
-619.361	12.540	-0.229	0.177
-618.346	-132.252	-0.062	0.008
-617.332	-142.197	-0.405	0.040
-616.317	358.408	0.146	0.292
-615.303	-106.983	0.322	0.071
-614.288	-14.115	0.144	-0.093
-613.273	481.164	0.060	-0.136
-612.259	-54.312	-0.089	0.041
-611.244	169.946	-0.163	0.233
-610.230	68.120	0.082	-0.084
-609.215	-200.000	-0.002	-0.249
-608.201	-200.000	-0.054	0.273
-607.186	137.098	0.112	0.147
-606.171	-171.544	-0.202	0.007
-605.157	133.352	-0.281	-0.365
-604.142	-171.068	-0.171	0.006
-603.128	-200.000	-0.033	-0.321
-602.113	29.055	0.177	-0.150
-601.098	76.218	0.203	0.215
-600.084	771.783	-0.100	-0.272
-599.069	-78.102	-0.213	-0.073
-598.055	-39.779	-0.212	0.111
-597.040	-76.406	0.166	0.058
-596.025	105.571	-0.023	0.027
-595.011	145.770	-0.162	0.218
-593.996	19.293	-0.235	-0.189
-592.982	135.578	0.195	-0.254
-591.967	109.271	-0.121	0.145
-590.952	-200.000	0.001	0.174
-589.938	-27.485	-0.242	-0.141
-588.923	214.456	0.061	0.097
-587.909	25.879	0.209	0.174
-586.894	-200.000	0.013	0.166
-585.879	207.677	-0.061	-0.096
-584.865	128.450	-0.212	0.270
-583.850	-95.654	-0.056	0.015
-582.836	174.524	-0.116	-0.168
-581.821	322.985	-0.156	-0.297
-580.806	-200.000	0.009	-0.141
-579.792	-200.000	0.027	0.122
-578.777	108.343	0.128	0.152
-577.763	800.000	0.048	0.209
-576.748	-41.520	-0.145	0.075
-575.733	-155.719	-0.152	-0.010
-574.719	-48.688	0.234	-0.113
-573.704	800.000	-0.072	0.211
-572.690	-102.963	0.337	0.080
-571.675	271.997	0.076	-0.135
-570.661	-200.000	-0.000	0.033
-569.646	800.000	0.129	-0.440
-568.631	-129.479	-0.256	0.035
-567.617	-167.600	0.344	0.014
-566.602	155.866	0.084	-0.116
-565.588	-108.743	-0.184	-0.039
-564.573	-59.878	-0.244	-0.104
-563.558	-44.231	0.337	-0.169
-562.544	224.582	0.102	-0.166
-561.529	173.425	0.174	0.252
-560.515	235.167	-0.257	-0.424
-559.500	800.000	0.112	-0.443
-558.485	-93.697	0.305	-0.084
-557.471	800.000	-0.049	0.176
-556.456	402.874	-0.069	-0.144
-555.442	195.540	-0.181	0.276
-554.427	211.968	-0.108	0.169
-553.412	-41.961	0.127	0.065
-552.398	-200.000	-0.008	0.304
-551.383	129.137	0.093	-0.119
-550.369	-110.174	0.100	-0.021
-549.354	-116.921	-0.158	-0.029
-548.339	-200.000	0.053	-0.313
-547.325	800.000	0.032	-0.121
-546.310	292.273	-0.033	-0.061
-545.296	23.423	-0.047	0.039
-544.281	800.000	0.089	0.371
-543.266	-200.000	0.010	0.335
-542.252	-76.064	0.241	0.085
-541.237	-101.990	-0.139	0.034
-540.223	89.216	-0.296	0.330
-539.208	135.039	-0.137	0.178
-538.193	-5.380	-0.241	-0.166
-537.179	-85.203	-0.362	-0.113
-536.164	121.264	-0.079	0.098
-535.150	-200.000	-0.045	0.275
-534.135	43.352	-0.111	0.101
-533.121	37.906	-0.339	-0.301
-532.106	-165.713	0.265	-0.011
-531.091	800.000	0.062	-0.196
-530.077	745.745	0.066	0.177
-529.062	151.850	0.262	0.357
-528.048	-200.000	0.041	-0.309
-527.033	-42.650	0.157	0.080
-526.018	-8.319	-0.137	0.092
-525.004	-104.832	-0.088	-0.020
-523.989	-33.406	0.116	0.064
-522.975	57.448	-0.080	-0.078
-521.960	-144.214	-0.247	-0.023
-520.945	81.888	0.004	-0.005
-519.931	-25.718	-0.036	0.021
-518.916	507.382	-0.101	-0.235
-517.902	-200.000	0.020	-0.156
-516.887	-17.411	-0.191	-0.120
-515.872	108.583	0.076	-0.091
-514.858	800.000	0.040	-0.140
-513.843	-200.000	0.055	0.289
-512.829	-74.609	-0.191	0.069
-511.814	-200.000	0.028	-0.176
-510.799	-85.893	-0.070	-0.022
-509.785	274.719	0.170	-0.301
-508.770	-98.710	0.107	-0.027
-507.756	-65.314	-0.180	0.072
-506.741	99.862	0.148	-0.171
-505.726	267.016	-0.102	-0.178
-504.712	-52.213	0.156	0.072
-503.697	316.047	0.091	-0.171
-502.683	-200.000	0.018	-0.130
-501.668	-200.000	0.031	-0.156
-500.653	193.415	-0.010	0.015
-499.639	-103.842	-0.034	-0.008
-498.624	-124.434	-0.273	-0.042
-497.610	-149.891	-0.072	0.006
-496.595	800.000	-0.023	-0.069
-495.581	-27.403	0.072	-0.042
-494.566	267.088	0.127	0.221
-493.551	6.229	-0.142	-0.105
-492.537	-51.863	0.162	0.075
-491.522	-163.828	-0.184	0.009
-490.508	-200.000	-0.026	0.246
-489.493	-8.563	-0.093	0.062
-488.478	23.732	0.107	-0.088
-487.464	154.206	0.156	-0.214
-486.449	-4.139	0.043	0.030
-485.435	-53.313	-0.277	0.127
-484.420	800.000	-0.055	-0.195
-483.405	-113.437	-0.361	-0.071
-482.391	800.000	-0.046	-0.136
-481.376	-113.964	0.215	0.042
-480.362	-200.000	-0.001	-0.062
-479.347	-84.745	0.184	0.058
-478.332	653.462	-0.060	-0.153
-477.318	-73.009	0.128	-0.047
-476.303	-73.016	0.088	0.032
-475.289	194.203	0.131	-0.198
-474.274	-1.643	-0.038	-0.027
-473.259	178.113	0.149	0.217
-472.245	-102.839	0.070	-0.017
-471.230	183.385	0.258	-0.380
-470.216	-80.552	-0.196	-0.065
-469.201	800.000	-0.066	0.200
-468.186	47.807	-0.406	-0.378
-467.172	-200.000	-0.014	-0.191
-466.157	-200.000	-0.006	0.118
-465.143	321.817	-0.012	0.022
-464.128	101.406	-0.204	-0.237
-463.113	-66.025	0.204	0.081
-462.099	204.096	0.119	0.184
-461.084	127.705	0.104	-0.132
-460.070	800.000	-0.076	0.270
-459.055	-122.841	0.242	-0.039
-458.040	782.650	0.090	0.245
-457.026	96.938	0.114	0.130
-456.011	-200.000	-0.000	0.105
-454.997	-200.000	0.005	0.437
-453.982	485.473	-0.055	-0.125
-452.968	-37.175	-0.124	0.066
-451.953	-200.000	0.024	0.182
-450.938	78.739	0.133	-0.141
-449.924	40.513	-0.082	-0.074
-448.909	-131.358	-0.449	-0.059
-447.895	108.170	0.173	-0.206
-446.880	-200.000	0.014	0.069
-445.865	-110.575	0.355	-0.073
-444.851	-200.000	0.041	0.325
-443.836	231.178	0.089	-0.145
-442.822	1.988	0.188	-0.135
-441.807	-115.218	-0.198	0.037
-440.792	-33.876	0.247	-0.136
-439.778	-21.378	0.295	0.179
-438.763	-35.964	-0.102	0.055
-437.749	28.690	-0.127	0.107
-436.734	66.824	-0.199	0.202
-435.719	-200.000	-0.041	0.473
-434.705	63.409	0.178	0.178
-433.690	-117.683	0.155	0.028
-432.676	-137.507	0.144	0.016
-431.661	-7.870	-0.274	0.184
-430.646	98.667	-0.174	-0.199
-429.632	-200.000	-0.109	-0.000
-428.617	-38.955	0.142	0.075
-427.603	315.060	0.091	0.172
-426.588	59.740	0.231	0.227
-425.573	-14.248	0.296	-0.190
-424.559	-200.000	0.011	-0.148
-423.544	-200.000	-0.036	0.279
-422.530	-59.087	0.406	0.174
-421.515	31.307	-0.055	-0.047
-420.500	10.647	-0.184	0.140
-419.486	26.992	-0.112	0.093
-418.471	-200.000	-0.017	0.094
-417.457	-200.000	-0.056	0.335
-416.442	800.000	0.087	0.376
-415.428	257.413	-0.188	-0.322
-414.413	-114.528	-0.098	-0.019
-413.398	-200.000	-0.077	0.548
-412.384	-9.991	-0.482	0.319
-411.369	213.890	0.062	-0.098
-410.355	-159.806	-0.269	-0.015
-409.340	-23.354	-0.185	-0.111
-408.325	-100.803	-0.021	0.005
-407.311	209.223	-0.156	-0.242
-406.296	-47.689	-0.183	-0.088
-405.282	19.716	0.051	0.041
-404.267	-200.000	0.010	-0.182
-403.252	60.477	0.165	0.162
-402.238	26.986	0.077	0.064
-401.223	-26.860	-0.340	-0.197
-400.209	-34.414	-0.393	-0.214
-399.194	-200.000	-0.000	-0.153
-398.179	-109.948	-0.172	-0.036
-397.165	1.864	0.141	-0.101
-396.150	-168.790	-0.448	-0.017
-395.136	-200.000	-0.049	-0.232
-394.121	-115.190	0.147	0.028
-393.106	-107.624	-0.184	-0.040
-392.092	-116.577	-0.384	-0.070
-391.077	-75.390	0.050	-0.018
-390.063	315.488	-0.018	-0.033
-389.048	70.653	0.319	0.328
-388.033	-200.000	0.013	0.233
-387.019	800.000	0.016	-0.046
-386.004	-69.098	0.160	0.061
-384.990	32.803	-0.094	-0.081
-383.975	-200.000	-0.066	0.671
-382.960	-107.003	-0.314	0.069
-381.946	-76.651	-0.128	0.045
-380.931	650.406	-0.074	0.189
-379.917	-180.135	-0.185	-0.004
-378.902	465.304	0.058	0.128
-377.888	-127.528	0.261	-0.038
-376.873	800.000	0.071	0.241
-375.858	-43.516	0.085	-0.043
-374.844	800.000	0.057	0.186
-373.829	150.742	0.082	-0.110
-372.815	-200.000	-0.013	-0.233
-371.800	800.000	0.005	0.016
-370.785	-106.967	0.254	0.056
-369.771	800.000	-0.104	0.311
-368.756	95.065	0.120	0.136
-367.742	-200.000	-0.050	0.292
-366.727	7.862	0.244	0.182
-365.712	43.953	-0.250	0.227
-364.698	618.786	-0.079	-0.197
-363.683	800.000	0.068	-0.228
-362.669	-63.530	0.124	0.050
-361.654	-72.473	-0.181	0.066
-360.639	800.000	-0.072	-0.208
-359.625	-20.910	-0.235	-0.143
-358.610	65.626	0.233	-0.235
-357.596	-200.000	-0.039	-0.182
-356.581	-200.000	-0.012	0.130
-355.566	560.932	-0.128	-0.308
-354.552	238.616	0.114	-0.188
-353.537	183.648	-0.143	-0.210
-352.523	40.580	-0.211	0.189
-351.508	-200.000	0.024	-0.118
-350.493	-200.000	-0.007	-0.101
-349.479	229.269	0.061	-0.098
-348.464	800.000	-0.063	-0.266
-347.450	-113.484	0.173	0.034
-346.435	81.911	-0.152	0.163
-345.420	-200.000	-0.008	0.476
-344.406	-17.778	0.281	0.175
-343.391	14.792	0.299	0.232
-342.377	-162.741	0.184	0.009
-341.362	-145.520	0.156	0.014
-340.348	52.173	-0.209	0.197
-339.333	98.962	0.049	-0.056
-338.318	601.885	-0.058	0.142
-337.304	-64.693	0.224	-0.090
-336.289	800.000	-0.105	-0.378
-335.275	-200.000	-0.016	-0.112
-334.260	-112.816	0.197	-0.039
-333.245	-53.627	-0.227	0.103
-332.231	-200.000	0.041	0.210
-331.216	-0.315	-0.170	0.120
-330.202	-200.000	-0.019	-0.135
-329.187	-129.613	0.215	-0.029
-328.172	-21.504	0.234	0.141
-327.158	-29.137	-0.161	0.091
-326.143	-129.362	-0.018	-0.002
-325.129	531.988	-0.043	-0.100
-324.114	290.570	0.075	-0.134
-323.099	609.886	0.067	0.167
-322.085	-76.363	-0.176	-0.062
-321.070	-13.641	-0.321	0.206
-320.056	729.201	0.069	-0.183
-319.041	800.000	-0.027	0.116
-318.026	491.919	0.203	-0.461
-317.012	-200.000	0.033	0.184
-315.997	228.886	-0.090	-0.146
-314.983	-200.000	0.007	0.243
-313.968	-115.105	0.092	0.017
-312.953	-84.437	0.079	-0.025
-311.939	-136.967	-0.543	0.062
-310.924	49.283	0.316	0.295
-309.910	44.473	-0.124	-0.113
-308.895	-83.239	-0.158	0.050
-307.880	46.397	0.117	0.107
-306.866	800.000	-0.081	0.277
-305.851	-200.000	0.049	0.478
-304.837	165.607	0.049	-0.068
-303.822	633.717	0.099	-0.249
-302.807	266.289	0.115	0.200
-301.793	800.000	-0.023	-0.085
-300.778	58.531	-0.249	0.242
-299.764	800.000	-0.068	0.220
-298.749	-48.282	-0.254	0.122
-297.735	-84.514	0.258	-0.081
-296.720	-166.440	0.465	0.019
-295.705	-8.337	-0.116	-0.077
-294.691	-108.602	0.195	0.041
-293.676	-88.307	0.489	0.145
-292.662	-200.000	-0.059	0.310
-291.647	-42.944	-0.196	0.098
-290.632	-113.032	0.128	-0.025
-289.618	118.881	0.107	-0.130
-288.603	-200.000	-0.023	-0.399
-287.589	800.000	-0.111	0.414
-286.574	18.306	-0.378	-0.299
-285.559	-82.506	0.188	-0.060
-284.545	44.780	0.217	-0.197
-283.530	800.000	-0.042	-0.146
-282.516	14.922	0.214	-0.166
-281.501	-83.072	0.311	-0.099
-280.486	-139.636	-0.214	0.023
-279.472	800.000	-0.106	-0.349
-278.457	-200.000	0.077	-0.338
-277.443	-141.700	0.218	0.022
-276.428	-200.000	0.000	-0.046
-275.413	-131.553	-0.268	0.035
-274.399	269.034	0.142	0.247
-273.384	-85.369	-0.117	-0.036
-272.370	48.734	-0.174	0.162
-271.355	-93.361	0.063	0.017
-270.340	-200.000	0.018	-0.153
-269.326	63.287	-0.099	0.098
-268.311	-34.090	-0.127	0.069
-267.297	-126.756	0.322	-0.047
-266.282	-6.513	0.019	0.013
-265.267	450.467	-0.126	0.274
-264.253	-183.428	-0.234	-0.004
-263.238	-167.882	-0.157	0.006
-262.224	-111.571	0.126	-0.025
-261.209	9.088	0.154	0.115
-260.195	236.917	0.122	-0.200
-259.180	157.246	-0.094	-0.128
-258.165	69.526	0.030	-0.030
-257.151	251.318	-0.078	0.130
-256.136	-167.279	-0.219	0.009
-255.122	33.036	-0.155	0.133
-254.107	-200.000	0.038	-0.243
-253.092	206.587	0.134	0.206
-252.078	-186.201	-0.145	-0.002
-251.063	220.316	-0.123	-0.195
-250.049	800.000	-0.054	-0.158
-249.034	131.473	0.153	-0.194
-248.019	-200.000	-0.004	-0.033
-247.005	145.376	-0.126	-0.166
-245.990	800.000	0.108	-0.401
-244.976	24.337	0.244	0.199
-243.961	-132.141	0.083	0.011
-242.946	-200.000	-0.053	-0.397
-241.932	4.857	0.174	-0.127
-240.917	-11.147	-0.254	0.166
-239.903	-42.166	0.211	-0.106
-238.888	371.497	-0.185	-0.372
-237.873	96.053	0.136	-0.154
-236.859	-21.806	-0.121	-0.073
-235.844	-200.000	-0.091	-0.401
-234.830	2.399	0.096	-0.069
-233.815	27.081	-0.098	-0.081
-232.800	800.000	-0.087	-0.341
-231.786	-31.154	0.170	0.095
-230.771	-173.320	0.159	0.005
-229.757	39.562	-0.067	0.059
-228.742	6.688	0.292	0.215
-227.727	-62.418	0.170	-0.070
-226.713	-151.883	0.146	0.011
-225.698	-200.000	-0.014	0.138
-224.684	-149.998	-0.085	0.007
-223.669	800.000	-0.102	0.385
-222.655	232.093	-0.153	-0.248
-221.640	-175.373	0.208	0.006
-220.625	57.937	0.391	0.377
-219.611	-200.000	-0.010	-0.151
-218.596	73.932	-0.009	-0.009
-217.582	-200.000	-0.064	-0.340
-216.567	723.930	0.140	0.369
-215.552	-160.092	-0.423	-0.023
-214.538	42.978	-0.227	-0.205
-213.523	181.028	0.080	-0.115
-212.509	-95.101	-0.240	-0.064
-211.494	-66.245	-0.096	-0.038
-210.479	-115.171	-0.188	0.035
-209.465	-41.118	0.357	-0.182
-208.450	-200.000	0.002	-0.186
-207.436	-200.000	0.009	-0.110
-206.421	-200.000	-0.134	-0.597
-205.406	-200.000	0.028	-0.476
-204.392	-46.704	-0.169	0.082
-203.377	61.905	0.252	0.248
-202.363	28.431	0.063	0.052
-201.348	106.600	-0.344	0.402
-200.333	54.197	0.154	-0.146
-199.319	538.227	-0.042	0.098
-198.304	-31.357	0.073	-0.040
-197.290	-184.761	0.348	0.005
-196.275	800.000	0.058	0.200
-195.260	800.000	0.164	0.461
-194.246	-69.373	-0.229	0.087
-193.231	800.000	0.052	-0.178
-192.217	370.608	-0.042	0.083
-191.202	283.942	-0.197	0.350
-190.187	-63.988	0.515	0.208
-189.173	20.001	0.265	-0.211
-188.158	800.000	0.143	0.449
-187.144	20.305	-0.132	0.106
-186.129	-50.192	-0.303	-0.141
-185.114	-182.454	0.295	-0.005
-184.100	-43.711	-0.146	-0.072
-183.085	-200.000	-0.079	-0.378
-182.071	90.292	0.097	-0.107
-181.056	418.607	-0.071	-0.150
-180.042	-200.000	0.005	-0.164
-179.027	-133.930	0.188	0.023
-178.012	-151.531	-0.464	0.034
-176.998	-26.527	-0.210	0.121
-175.983	-200.000	0.014	0.113
-174.969	-160.696	-0.096	0.005
-173.954	-200.000	-0.030	-0.151
-172.939	-51.932	0.154	0.071
-171.925	-163.052	0.315	0.015
-170.910	-200.000	0.026	0.119
-169.896	184.541	-0.055	-0.081
-168.881	-200.000	0.006	-0.106
-167.866	-183.327	-0.248	-0.004
-166.852	-5.491	0.452	0.305
-165.837	14.479	-0.234	-0.180
-164.823	367.492	0.129	0.257
-163.808	16.045	0.133	0.103
-162.793	-200.000	0.022	0.109
-161.779	800.000	0.028	0.097
-160.764	420.542	0.125	-0.264
-159.750	-26.848	0.316	-0.182
-158.735	176.433	0.088	-0.125
-157.720	157.183	0.293	0.400
-156.706	398.328	-0.107	-0.220
-155.691	186.174	0.170	0.250
-154.677	-45.641	-0.066	-0.032
-153.662	-125.120	0.326	0.049
-152.647	199.249	-0.124	-0.188
-151.633	800.000	-0.119	0.351
-150.618	-22.019	0.266	0.159
-149.604	609.186	0.105	-0.259
-148.589	-200.000	0.019	0.095
-147.574	-51.527	-0.345	0.159
-146.560	648.286	-0.081	0.203
-145.545	-200.000	-0.031	0.275
-144.531	-87.545	0.167	0.050
-143.516	-118.473	-0.165	0.029
-142.502	119.161	0.066	0.080
-141.487	84.141	0.056	-0.060
-140.472	149.272	-0.135	-0.179
-139.458	100.232	0.208	-0.237
-138.443	-82.326	-0.281	0.090
-137.429	-13.484	-0.229	0.146
-136.414	-200.000	-0.042	-0.326
-135.399	-61.069	-0.182	0.076
-134.385	-73.563	0.253	0.091
-133.370	-129.037	0.188	-0.026
-132.356	224.968	0.132	0.211
-131.341	-17.517	0.095	0.059
-130.326	685.794	0.116	-0.299
-129.312	19.255	-0.190	0.150
-128.297	-200.000	-0.028	-0.142
-127.283	800.000	-0.047	-0.180
-126.268	-200.000	-0.004	0.264
-125.253	-83.697	-0.034	-0.011
-124.239	-32.315	0.115	0.063
-123.224	-200.000	0.000	0.353
-122.210	726.760	0.070	-0.182
-121.195	408.333	-0.109	-0.227
