DTS Sentinel unit serial number:	SN413079Multiplexer serial number:	ORYXHardware model number:	OX4-SRSoftware version number:	ORYX F/W v4.00 Oryx Data Collector v3.7.2.0data status	okinstallation	princeton_trtdifferential loss correction	single-endedforward channel	channel 3reverse channel	N/Adate	2019/09/17time	04:16:35forward acquisition time	60.00reverse acquisition time	0.00gamma	496.2192k internal	0.2323k external	0.2323temperature offset calibration	0.9945default loss term (dB/km)	0.3790temperature slope calibration	1.0000multiplexer offset coefficient	1.0000multiplexer slope coefficient	1.0000fibre end	0.00T internal ref (°C)	29.80T ext. ref 1 (°C)	0.14T ext. ref 2 (°C)	24.23length (m)	temperature (°C)	Stokes	anti-Stokes-747.200	287.079	0.201	-0.368
-746.185	-129.122	-0.161	0.023
-745.171	-200.000	-0.026	0.118
-744.156	335.119	-0.207	0.404
-743.142	236.300	-0.108	-0.181
-742.127	-189.328	-0.175	0.002
-741.112	132.153	0.058	-0.075
-740.098	643.647	0.054	-0.140
-739.083	-200.000	0.006	0.233
-738.069	-200.000	-0.005	0.308
-737.054	558.768	-0.214	-0.522
-736.039	-150.306	-0.352	-0.027
-735.025	17.457	-0.175	-0.140
-734.010	44.576	-0.231	0.214
-732.996	800.000	0.016	0.058
-731.981	800.000	-0.078	0.290
-730.966	800.000	-0.108	0.367
-729.952	-158.702	-0.249	0.014
-728.937	470.399	-0.083	0.188
-727.923	-200.000	0.024	-0.264
-726.908	17.401	0.138	-0.110
-725.894	800.000	0.015	-0.066
-724.879	-61.191	-0.108	-0.046
-723.864	11.328	-0.235	0.182
-722.850	-180.678	-0.304	0.006
-721.835	109.020	-0.038	0.046
-720.821	128.336	-0.154	0.198
-719.806	286.975	-0.188	-0.343
-718.791	-200.000	0.027	0.191
-717.777	-200.000	-0.020	-0.270
-716.762	60.522	-0.340	-0.339
-715.748	-112.289	-0.026	0.005
-714.733	-76.233	-0.211	0.075
-713.718	78.846	-0.121	-0.130
-712.704	-200.000	-0.079	-0.353
-711.689	-31.265	-0.355	-0.202
-710.675	-102.948	0.355	-0.085
-709.660	696.205	0.035	-0.093
-708.645	259.743	0.203	-0.353
-707.631	-200.000	-0.030	-0.270
-706.616	-200.000	0.029	0.160
-705.602	-157.627	0.214	-0.013
-704.587	-112.743	-0.244	0.049
-703.572	800.000	-0.025	-0.084
-702.558	697.997	0.123	-0.327
-701.543	86.641	-0.104	-0.115
-700.529	101.810	0.177	-0.209
-699.514	-82.075	0.271	0.089
-698.499	800.000	-0.092	0.265
-697.485	800.000	-0.071	0.259
-696.470	-126.414	0.129	0.019
-695.456	-106.378	0.517	-0.117
-694.441	-16.814	-0.161	-0.103
-693.426	114.847	-0.092	0.113
-692.412	140.675	0.131	0.174
-691.397	10.576	0.124	-0.096
-690.383	28.992	-0.200	-0.171
-689.368	-18.161	0.116	-0.073
-688.354	78.976	0.110	-0.119
-687.339	-29.167	0.157	0.091
-686.324	13.411	0.024	-0.019
-685.310	-117.950	-0.149	0.027
-684.295	67.559	-0.132	-0.136
-683.281	-130.739	-0.341	0.046
-682.266	202.305	-0.130	-0.202
-681.251	-109.030	0.289	0.062
-680.237	-83.326	0.079	-0.025
-679.222	-200.000	-0.001	-0.157
-678.208	87.642	0.109	-0.121
-677.193	-31.746	-0.238	-0.134
-676.178	117.847	-0.201	-0.249
-675.164	645.626	-0.085	-0.218
-674.149	399.345	0.068	-0.144
-673.135	141.294	-0.203	-0.271
-672.120	-45.815	0.022	-0.011
-671.105	-88.965	-0.317	-0.094
-670.091	703.902	0.030	0.079
-669.076	800.000	0.030	0.123
-668.062	-136.342	0.098	-0.012
-667.047	-17.682	0.161	-0.102
-666.032	-88.652	0.360	0.108
-665.018	800.000	-0.055	-0.183
-664.003	-87.876	-0.136	-0.041
-662.989	-4.360	0.196	0.136
-661.974	-125.545	-0.444	0.068
-660.959	39.756	-0.298	-0.269
-659.945	66.219	-0.066	-0.067
-658.930	-200.000	0.019	0.122
-657.916	-66.517	-0.241	0.096
-656.901	23.488	0.065	0.054
-655.886	-124.459	0.392	0.061
-654.872	800.000	-0.024	0.097
-653.857	800.000	0.022	-0.092
-652.843	392.818	0.029	0.060
-651.828	-113.606	-0.238	0.047
-650.814	-70.237	0.162	-0.062
-649.799	33.799	-0.144	-0.126
-648.784	685.212	-0.115	-0.301
-647.770	-200.000	0.007	-0.214
-646.755	-200.000	-0.033	-0.535
-645.741	-156.566	0.116	-0.007
-644.726	-200.000	-0.002	-0.423
-643.711	40.639	0.166	-0.150
-642.697	-200.000	-0.015	-0.382
-641.682	-131.950	-0.322	-0.042
-640.668	-26.441	0.299	-0.177
-639.653	800.000	0.051	0.152
-638.638	372.141	0.122	0.249
-637.624	-200.000	0.002	-0.154
-636.609	85.657	0.279	-0.309
-635.595	-200.000	0.020	0.150
-634.580	388.846	-0.109	0.226
-633.565	-7.853	0.175	0.119
-632.551	4.106	0.081	-0.059
-631.536	800.000	0.037	0.116
-630.522	-200.000	0.005	-0.134
-629.507	-83.082	-0.225	0.073
-628.492	-40.643	0.060	-0.031
-627.478	358.476	0.084	-0.169
-626.463	800.000	-0.019	0.066
-625.449	161.128	0.227	-0.319
-624.434	-22.860	-0.218	0.132
-623.419	-99.130	0.065	-0.016
-622.405	478.695	-0.162	0.369
-621.390	-134.494	-0.199	-0.024
-620.376	129.280	0.148	-0.190
-619.361	88.406	-0.192	-0.215
-618.346	800.000	-0.063	0.211
-617.332	-1.901	-0.059	0.042
-616.317	-69.608	-0.057	0.022
-615.303	428.842	0.115	-0.249
-614.288	-200.000	-0.044	-0.214
-613.273	-136.867	0.094	0.011
-612.259	585.476	0.054	0.132
-611.244	41.464	-0.071	-0.064
-610.230	58.420	-0.087	-0.086
-609.215	-200.000	-0.026	0.168
-608.201	229.902	-0.187	0.307
-607.186	800.000	0.015	-0.057
-606.171	109.338	-0.122	0.147
-605.157	-179.801	-0.201	0.004
-604.142	15.880	0.196	-0.155
-603.128	-71.049	0.178	0.067
-602.113	111.550	-0.254	0.307
-601.098	3.051	0.040	-0.029
-600.084	-200.000	-0.023	-0.232
-599.069	182.008	-0.252	-0.372
-598.055	32.520	0.114	-0.099
-597.040	122.651	0.173	-0.217
-596.025	800.000	-0.080	-0.251
-595.011	-200.000	-0.033	0.305
-593.996	-76.185	-0.229	0.081
-592.982	800.000	-0.128	-0.450
-591.967	151.175	-0.187	0.255
-590.952	-127.348	0.146	-0.021
-589.938	-13.757	0.288	0.187
-588.923	25.806	-0.239	0.200
-587.909	-200.000	0.006	0.112
-586.894	443.826	-0.096	0.212
-585.879	541.143	-0.090	0.216
-584.865	-69.290	0.143	0.055
-583.850	-31.708	0.219	0.123
-582.836	60.892	-0.170	-0.169
-581.821	96.829	0.054	-0.062
-580.806	157.511	0.204	-0.284
-579.792	800.000	-0.064	-0.242
-578.777	-39.641	0.246	-0.129
-577.763	7.302	-0.185	-0.139
-576.748	746.551	0.059	-0.158
-575.733	800.000	0.053	-0.219
-574.719	-200.000	0.009	-0.201
-573.704	87.071	0.111	-0.123
-572.690	310.449	0.237	-0.444
-571.675	-74.323	0.328	-0.119
-570.661	800.000	0.008	0.024
-569.646	-161.042	0.398	-0.021
-568.631	35.743	-0.230	0.203
-567.617	170.753	0.144	-0.207
-566.602	-111.362	0.197	0.040
-565.588	9.494	-0.138	-0.105
-564.573	-129.749	-0.349	-0.048
-563.558	173.928	0.206	-0.298
-562.544	-200.000	0.048	-0.256
-561.529	297.517	0.112	0.207
-560.515	-54.454	-0.249	0.113
-559.500	298.720	-0.080	0.148
-558.485	13.537	-0.134	0.104
-557.471	800.000	0.098	-0.282
-556.456	-185.287	-0.227	-0.004
-555.442	-29.965	-0.186	-0.106
-554.427	-95.030	0.211	0.057
-553.412	-95.814	0.252	-0.067
-552.398	-200.000	-0.040	-0.378
-551.383	43.916	0.179	0.164
-550.369	-200.000	-0.007	0.196
-549.354	-200.000	-0.052	0.357
-548.339	-22.090	0.318	0.194
-547.325	-54.912	-0.147	0.066
-546.310	7.019	-0.118	0.088
-545.296	800.000	0.025	0.090
-544.281	-49.453	0.227	0.109
-543.266	-53.126	-0.231	-0.106
-542.252	-82.660	-0.039	0.013
-541.237	-200.000	0.032	0.362
-540.223	446.537	-0.121	0.266
-539.208	178.864	0.155	0.227
-538.193	174.749	-0.166	0.241
-537.179	42.582	0.152	0.138
-536.164	-200.000	0.001	-0.212
-535.150	-129.404	0.306	0.043
-534.135	800.000	-0.074	0.287
-533.121	800.000	0.059	0.195
-532.106	377.106	-0.061	-0.125
-531.091	66.221	-0.242	-0.246
-530.077	66.418	0.077	0.078
-529.062	-132.382	0.118	0.015
-528.048	-33.673	0.137	-0.076
-527.033	-200.000	0.041	-0.203
-526.018	18.137	0.112	-0.089
-525.004	70.250	-0.228	-0.235
-523.989	-15.502	-0.314	-0.201
-522.975	192.964	0.104	-0.158
-521.960	-132.483	-0.152	0.020
-520.945	243.893	-0.063	0.106
-519.931	-200.000	-0.048	0.543
-518.916	36.937	0.217	0.192
-517.902	-118.981	0.042	-0.007
-516.887	-200.000	-0.002	0.109
-515.872	-200.000	-0.059	-0.414
-514.858	-27.557	-0.232	0.135
-513.843	-200.000	0.004	-0.239
-512.829	-34.954	-0.018	-0.010
-511.814	292.611	0.078	0.143
-510.799	-158.181	-0.446	0.026
-509.785	-107.943	0.218	0.047
-508.770	-200.000	-0.023	-0.176
-507.756	-200.000	0.029	0.212
-506.741	-108.820	-0.123	-0.026
-505.726	144.444	-0.084	0.112
-504.712	-83.800	-0.105	-0.034
-503.697	-119.318	-0.225	-0.039
-502.683	-40.355	-0.363	-0.189
-501.668	800.000	-0.068	-0.193
-500.653	387.053	-0.060	-0.124
-499.639	18.036	0.079	-0.063
-498.624	-110.572	0.057	0.012
-497.610	-200.000	0.045	-0.207
-496.595	56.672	-0.276	-0.269
-495.581	-120.634	0.112	-0.019
-494.566	-37.351	0.025	0.013
-493.551	-20.308	0.158	0.097
-492.537	-69.258	0.280	-0.108
-491.522	-10.937	-0.107	0.071
-490.508	65.270	-0.115	0.117
-489.493	384.924	0.098	-0.202
-488.478	111.512	-0.142	-0.171
-487.464	-200.000	-0.014	0.098
-486.449	-3.929	-0.306	0.212
-485.435	93.690	-0.209	0.236
-484.420	335.195	0.062	-0.121
-483.405	-200.000	-0.004	0.092
-482.391	800.000	-0.096	-0.419
-481.376	0.211	-0.372	-0.265
-480.362	587.803	-0.076	0.187
-479.347	-149.823	-0.067	0.005
-478.332	-164.298	0.113	-0.005
-477.318	-12.942	-0.370	0.240
-476.303	-123.626	0.343	0.054
-475.289	-153.712	-0.266	0.018
-474.274	800.000	0.021	-0.076
-473.259	651.390	0.067	0.172
-472.245	53.607	0.107	-0.102
-471.230	-200.000	-0.021	0.200
-470.216	139.475	-0.039	0.052
-469.201	-90.397	0.265	-0.077
-468.186	121.423	-0.120	-0.149
-467.172	800.000	0.084	-0.281
-466.157	-21.280	-0.109	0.067
-465.143	262.140	-0.120	0.207
-464.128	-140.682	0.200	0.021
-463.113	335.224	-0.068	0.132
-462.099	-74.351	-0.173	-0.062
-461.084	-116.911	0.034	-0.006
-460.070	-160.722	0.034	0.002
-459.055	239.354	0.106	0.177
-458.040	205.179	-0.051	0.079
-457.026	267.444	0.029	-0.051
-456.011	-135.283	0.183	0.022
-454.997	-200.000	-0.030	-0.183
-453.982	800.000	-0.045	0.172
-452.968	257.424	0.114	0.196
-451.953	-103.851	-0.228	0.053
-450.938	72.411	0.110	0.115
-449.924	-1.993	0.258	-0.181
-448.909	-152.531	0.430	0.031
-447.895	-200.000	-0.017	-0.160
-446.880	561.359	-0.075	-0.182
-445.865	-51.508	-0.266	0.124
-444.851	27.677	0.161	-0.135
-443.836	800.000	-0.050	0.183
-442.822	-200.000	-0.039	0.305
-441.807	291.819	0.071	0.128
-440.792	-165.020	-0.118	0.005
-439.778	20.378	0.186	0.150
-438.763	-18.267	-0.074	0.046
-437.749	-200.000	-0.007	0.182
-436.734	-96.624	-0.057	-0.015
-435.719	-200.000	0.007	-0.041
-434.705	542.072	-0.052	0.124
-433.690	-29.978	0.056	0.032
-432.676	-49.714	0.312	-0.148
-431.661	800.000	0.053	0.173
-430.646	-200.000	-0.032	0.156
-429.632	-74.494	-0.208	-0.075
-428.617	88.488	0.086	-0.095
-427.603	169.705	0.156	-0.222
-426.588	-97.406	-0.177	-0.046
-425.573	-28.989	-0.104	0.059
-424.559	506.229	-0.083	0.193
-423.544	800.000	-0.063	-0.183
-422.530	33.054	0.194	-0.167
-421.515	-50.807	0.152	-0.071
-420.500	-200.000	0.027	0.302
-419.486	-18.003	-0.161	-0.100
-418.471	800.000	0.006	-0.024
-417.457	-200.000	-0.040	-0.181
-416.442	-69.054	0.449	-0.172
-415.428	-66.450	0.100	-0.040
-414.413	222.066	0.030	0.047
-413.398	331.778	-0.023	0.044
-412.384	61.056	0.134	-0.133
-411.369	-138.737	0.384	0.042
-410.355	534.389	0.039	0.093
-409.340	44.258	-0.221	0.202
-408.325	-200.000	-0.050	0.421
-407.311	-200.000	0.007	0.288
-406.296	-104.060	-0.082	0.019
-405.282	-59.274	-0.142	-0.061
-404.267	90.393	-0.183	0.205
-403.252	95.238	0.290	0.329
-402.238	-144.665	-0.193	0.018
-401.223	177.854	-0.144	-0.209
-400.209	-11.577	0.047	-0.031
-399.194	-47.406	-0.242	0.117
-398.179	69.106	0.255	-0.261
-397.165	-38.660	0.247	0.130
-396.150	331.756	-0.118	-0.227
-395.136	491.683	-0.208	-0.474
-394.121	124.708	-0.114	-0.143
-393.106	-136.274	-0.272	0.032
-392.092	-103.514	0.177	0.042
-391.077	-42.259	-0.189	-0.096
-390.063	800.000	-0.093	-0.287
-389.048	-82.866	0.347	0.112
-388.033	-25.304	-0.103	-0.061
-387.019	-20.797	0.315	-0.192
-386.004	271.902	-0.113	0.198
-384.990	251.045	0.158	0.267
-383.975	-178.237	-0.332	0.008
-382.960	-167.287	0.188	-0.008
-381.946	-200.000	-0.028	0.221
-380.931	-200.000	-0.049	-0.322
-379.917	-125.234	-0.389	-0.059
-378.902	-4.261	-0.149	0.103
-377.888	-146.816	-0.234	0.020
-376.873	800.000	-0.080	0.230
-375.858	800.000	-0.102	0.312
-374.844	311.316	0.060	-0.112
-373.829	159.200	-0.143	0.197
-372.815	800.000	0.055	-0.152
-371.800	-200.000	0.011	-0.245
-370.785	67.494	0.206	-0.210
-369.771	-200.000	-0.000	-0.093
-368.756	43.477	-0.166	0.151
-367.742	148.441	-0.191	0.256
-366.727	165.262	0.034	-0.047
-365.712	-169.547	-0.226	0.008
-364.698	29.909	-0.085	0.072
-363.683	-79.013	-0.355	0.120
-362.669	-200.000	0.012	0.167
-361.654	99.478	-0.184	-0.212
-360.639	29.406	-0.098	0.083
-359.625	800.000	-0.092	-0.291
-358.610	27.619	-0.131	-0.109
-357.596	-12.713	0.212	0.137
-356.581	800.000	-0.052	0.171
-355.566	-200.000	-0.049	0.380
-354.552	420.421	-0.152	-0.324
-353.537	-200.000	-0.008	0.071
-352.523	800.000	-0.038	0.114
-351.508	-3.439	-0.142	0.098
-350.493	346.353	-0.231	0.452
-349.479	36.646	0.164	-0.144
-348.464	800.000	-0.023	0.095
-347.450	-93.213	-0.062	0.017
-346.435	75.524	0.079	0.083
-345.420	-200.000	-0.044	0.232
-344.406	701.989	-0.118	-0.310
-343.391	-179.716	-0.301	-0.006
-342.377	-97.237	0.209	-0.054
-341.362	800.000	0.104	-0.383
-340.348	229.469	0.087	0.140
-339.333	-179.740	0.315	-0.007
-338.318	381.375	0.102	-0.207
-337.304	-58.403	-0.044	-0.019
-336.289	-200.000	-0.004	-0.031
-335.275	-136.754	0.230	0.026
-334.260	-145.712	-0.323	-0.029
-333.245	-95.757	0.201	0.053
-332.231	-3.718	-0.267	-0.185
-331.216	-76.959	0.118	0.041
-330.202	-200.000	0.009	0.109
-329.187	-200.000	0.022	-0.206
-328.172	-144.318	-0.096	0.009
-327.158	-101.602	-0.261	-0.063
-326.143	-127.789	-0.151	-0.022
-325.129	81.433	0.191	-0.206
-324.114	20.105	0.248	-0.199
-323.099	564.077	-0.112	-0.270
-322.085	800.000	-0.063	0.187
-321.070	406.814	0.108	-0.227
-320.056	133.460	0.089	-0.115
-319.041	-200.000	-0.015	-0.168
-318.026	-200.000	0.075	0.571
-317.012	-200.000	0.077	-0.341
-315.997	-73.517	-0.323	0.117
-314.983	149.215	0.222	0.298
-313.968	74.093	0.188	0.196
-312.953	800.000	0.003	-0.009
-311.939	-27.569	0.155	-0.089
-310.924	426.470	0.119	0.256
-309.910	-87.316	-0.190	0.057
-308.895	667.121	0.063	-0.163
-307.880	-140.008	-0.108	-0.011
-306.866	39.094	0.271	-0.241
-305.851	306.054	0.052	-0.097
-304.837	16.380	0.192	0.150
-303.822	-106.467	-0.361	0.080
-302.807	36.571	0.290	-0.254
-301.793	-200.000	0.080	-0.358
-300.778	355.329	-0.142	0.281
-299.764	-43.631	0.079	0.040
-298.749	101.473	0.112	-0.129
-297.735	-143.091	-0.260	0.025
-296.720	144.487	0.064	0.085
-295.705	-142.655	0.324	-0.031
-294.691	-138.441	0.279	0.030
-293.676	-200.000	-0.005	0.045
-292.662	134.147	-0.066	-0.085
-291.647	-22.043	0.216	0.130
-290.632	-83.256	0.260	0.083
-289.618	-91.883	0.512	0.144
-288.603	181.932	0.034	0.049
-287.589	-79.991	0.268	-0.089
-286.574	-96.606	0.081	0.021
-285.559	44.111	0.152	-0.138
-284.545	-200.000	0.031	-0.184
-283.530	-149.188	0.359	-0.028
-282.516	-148.857	-0.150	0.012
-281.501	800.000	-0.062	0.236
-280.486	-200.000	-0.028	-0.287
-279.472	800.000	0.016	0.053
-278.457	-13.191	-0.094	0.061
-277.443	800.000	0.063	-0.246
-276.428	44.767	0.067	-0.061
-275.413	151.170	0.161	-0.217
-274.399	800.000	0.045	-0.170
-273.384	-106.998	-0.100	0.022
-272.370	518.345	-0.052	0.120
-271.355	-42.348	0.130	0.066
-270.340	-105.737	0.158	0.035
-269.326	-19.810	-0.363	0.222
-268.311	800.000	-0.114	0.339
-267.297	81.249	0.147	-0.158
-266.282	-200.000	-0.018	-0.221
-265.267	154.747	-0.075	-0.102
-264.253	-11.471	0.054	-0.035
-263.238	-27.369	-0.206	-0.119
-262.224	-5.583	-0.103	0.070
-261.209	90.052	-0.126	0.140
-260.195	-20.971	0.285	-0.173
-259.180	7.651	-0.140	-0.104
-258.165	-90.563	0.046	0.013
-257.151	345.768	-0.129	0.251
-256.136	-38.302	0.300	-0.157
-255.122	-6.709	-0.220	0.148
-254.107	-90.350	-0.117	-0.034
-253.092	172.182	-0.060	0.085
-252.078	-200.000	0.009	0.149
-251.063	378.389	-0.023	-0.046
-250.049	-200.000	0.005	0.136
-249.034	-122.233	0.472	0.077
-248.019	-200.000	-0.019	0.211
-247.005	148.097	0.102	0.136
-245.990	602.180	-0.052	0.128
-244.976	544.116	0.020	-0.048
-243.961	160.434	0.168	0.231
-242.946	199.658	0.083	0.126
-241.932	-113.681	-0.058	0.011
-240.917	-112.245	-0.166	-0.033
-239.903	-81.296	0.149	0.049
-238.888	-200.000	0.079	0.517
-237.873	-200.000	0.011	0.078
-236.859	-31.587	0.138	-0.077
-235.844	800.000	0.074	0.272
-234.830	-60.449	-0.152	0.064
-233.815	-49.173	0.414	-0.196
-232.800	144.499	0.122	0.162
-231.786	-1.081	0.084	-0.059
-230.771	-76.637	-0.214	0.074
-229.757	-67.850	-0.142	0.055
-228.742	-159.824	0.109	0.006
-227.727	-200.000	-0.076	0.383
-226.713	689.421	-0.057	0.148
-225.698	-87.714	-0.369	0.110
-224.684	-200.000	0.007	-0.129
-223.669	-136.063	0.208	0.024
-222.655	-200.000	0.012	-0.131
-221.640	-200.000	0.005	0.234
-220.625	204.696	0.168	0.257
-219.611	49.220	-0.162	0.151
-218.596	800.000	0.090	0.256
-217.582	800.000	0.055	0.156
-216.567	124.981	0.129	0.161
-215.552	-73.517	0.258	0.093
-214.538	-89.491	-0.096	-0.028
-213.523	-68.257	-0.291	-0.112
-212.509	36.725	0.209	0.182
-211.494	-37.245	0.160	-0.085
-210.479	-11.312	0.313	-0.204
-209.465	235.456	0.044	-0.072
-208.450	800.000	-0.070	0.301
-207.436	158.175	0.182	-0.249
-206.421	194.083	0.024	0.035
-205.406	-74.496	-0.390	0.139
-204.392	-116.381	0.135	-0.025
-203.377	-25.226	-0.051	0.030
-202.363	800.000	-0.037	-0.146
-201.348	-82.689	-0.441	-0.141
-200.333	278.003	-0.115	-0.203
-199.319	239.587	-0.133	-0.218
-198.304	-200.000	0.009	0.054
-197.290	43.013	0.108	0.097
-196.275	-7.224	-0.126	-0.085
-195.260	430.628	-0.021	0.044
-194.246	53.962	-0.123	-0.117
-193.231	800.000	0.039	0.118
-192.217	-69.851	-0.273	0.103
-191.202	-31.342	0.077	0.043
-190.187	-200.000	0.003	0.265
-189.173	401.526	-0.102	0.211
-188.158	-65.500	0.243	0.097
-187.144	50.304	-0.159	-0.149
-186.129	109.375	-0.049	-0.058
-185.114	-116.988	0.166	0.030
-184.100	402.742	0.070	-0.146
-183.085	-200.000	-0.062	-0.335
-182.071	455.135	-0.154	-0.337
-181.056	800.000	0.047	0.136
-180.042	800.000	0.078	-0.221
-179.027	679.828	0.074	-0.189
-178.012	-200.000	-0.002	-0.128
-176.998	777.033	0.041	-0.111
-175.983	-121.047	0.290	-0.048
-174.969	127.556	-0.229	0.288
-173.954	59.543	-0.161	-0.157
-172.939	103.939	-0.095	0.111
-171.925	-11.906	-0.044	-0.028
-170.910	135.720	0.216	0.277
-169.896	128.310	-0.138	0.174
-168.881	6.384	-0.224	-0.164
-167.866	83.358	0.166	0.178
-166.852	-200.000	0.011	0.293
-165.837	-200.000	-0.004	-0.151
-164.823	-200.000	0.046	0.204
-163.808	-142.916	-0.291	0.028
-162.793	-82.119	-0.201	-0.065
-161.779	10.923	0.143	0.108
-160.764	-200.000	0.017	-0.078
-159.750	-85.503	0.120	0.037
-158.735	-36.165	0.351	-0.187
-157.720	-200.000	-0.019	-0.127
-156.706	-2.682	0.116	0.080
-155.691	136.260	-0.186	-0.239
-154.677	-27.182	0.239	-0.138
-153.662	800.000	-0.057	0.181
-152.647	-39.950	-0.063	0.033
-151.633	-35.677	-0.141	0.076
-150.618	9.560	-0.112	-0.083
-149.604	-109.136	0.239	-0.050
-148.589	-200.000	0.051	0.298
-147.574	-129.960	0.225	0.030
-146.560	317.665	0.058	-0.109
-145.545	25.004	0.128	0.105
-144.531	623.372	-0.093	0.231
-143.516	65.431	-0.039	-0.039
-142.502	97.509	-0.052	0.059
-141.487	-200.000	-0.053	0.229
-140.472	2.088	0.132	0.094
-139.458	166.875	0.156	-0.218
-138.443	82.636	0.134	0.143
-137.429	40.539	0.159	0.141
-136.414	74.883	-0.415	0.431
-135.399	-200.000	-0.010	0.164
-134.385	1.049	0.125	0.088
-133.370	86.885	0.101	-0.110
-132.356	736.197	-0.096	0.253
-131.341	-128.772	0.244	0.034
-130.326	-18.784	0.126	-0.077
-129.312	-111.417	-0.207	-0.042
-128.297	800.000	0.021	-0.086
-127.283	800.000	-0.074	0.262
-126.268	-200.000	-0.049	-0.289
-125.253	-200.000	-0.030	-0.205
-124.239	222.199	-0.097	0.153
-123.224	-128.920	-0.166	-0.023
-122.210	126.293	-0.226	0.282
-121.195	-23.985	0.228	0.134
