DTS Sentinel unit serial number:	SN413079Multiplexer serial number:	ORYXHardware model number:	OX4-SRSoftware version number:	ORYX F/W v4.00 Oryx Data Collector v3.7.2.0data status	okinstallation	princeton_trtdifferential loss correction	single-endedforward channel	channel 3reverse channel	N/Adate	2019/09/18time	15:24:35forward acquisition time	60.00reverse acquisition time	0.00gamma	496.2192k internal	0.2300k external	0.2300temperature offset calibration	0.9981default loss term (dB/km)	0.3790temperature slope calibration	1.0000multiplexer offset coefficient	1.0000multiplexer slope coefficient	1.0000fibre end	0.00T internal ref (°C)	35.94T ext. ref 1 (°C)	0.76T ext. ref 2 (°C)	34.27length (m)	temperature (°C)	Stokes	anti-Stokes-747.200	-8.887	-0.326	0.223
-746.185	227.875	-0.240	0.399
-745.171	800.000	0.013	-0.039
-744.156	44.759	-0.112	0.105
-743.142	-124.050	0.094	0.015
-742.127	-119.024	-0.164	-0.029
-741.112	-124.654	0.393	-0.062
-740.098	84.356	-0.359	0.401
-739.083	800.000	-0.090	-0.267
-738.069	-18.693	-0.429	-0.273
-737.054	-200.000	-0.006	0.074
-736.039	-102.058	-0.219	0.054
-735.025	-152.360	0.307	-0.023
-734.010	-200.000	0.023	-0.325
-732.996	186.051	0.010	0.015
-731.981	704.904	-0.021	-0.056
-730.966	800.000	0.036	0.128
-729.952	-81.506	-0.119	0.040
-728.937	-98.847	0.236	-0.061
-727.923	-66.157	-0.185	0.075
-726.908	800.000	-0.059	-0.235
-725.894	-3.307	-0.172	0.122
-724.879	267.725	-0.030	0.053
-723.864	800.000	-0.084	0.271
-722.850	21.251	-0.154	-0.128
-721.835	604.379	-0.063	0.160
-720.821	-7.517	0.408	0.282
-719.806	177.237	0.093	0.138
-718.791	-63.417	-0.351	-0.147
-717.777	75.615	-0.151	-0.163
-716.762	-200.000	-0.002	0.039
-715.748	-120.168	-0.502	-0.088
-714.733	-158.598	-0.075	-0.004
-713.718	-85.731	-0.139	0.044
-712.704	-8.229	-0.208	-0.143
-711.689	197.092	0.155	0.241
-710.675	800.000	-0.086	-0.334
-709.660	-77.498	0.375	-0.132
-708.645	-125.953	0.148	-0.023
-707.631	-61.483	0.065	-0.028
-706.616	335.579	0.091	-0.179
-705.602	-141.795	0.178	-0.018
-704.587	-200.000	0.034	0.437
-703.572	-200.000	0.039	0.185
-702.558	800.000	0.032	0.101
-701.543	257.815	-0.060	0.106
-700.529	-175.494	-0.215	0.006
-699.514	-52.522	-0.198	-0.093
-698.499	-51.757	0.038	0.018
-697.485	227.327	-0.176	-0.291
-696.470	-123.836	0.252	0.041
-695.456	4.748	0.278	-0.208
-694.441	535.838	0.053	0.127
-693.426	-33.119	0.081	-0.046
-692.412	138.600	0.054	-0.073
-691.397	-121.321	0.190	0.032
-690.383	800.000	-0.041	0.119
-689.368	71.915	-0.058	-0.061
-688.354	-60.748	-0.076	0.033
-687.339	94.729	0.212	0.245
-686.324	416.048	0.084	-0.183
-685.310	-32.869	-0.105	0.059
-684.295	-63.050	-0.347	-0.146
-683.281	-200.000	-0.014	-0.110
-682.266	-103.885	-0.086	-0.020
-681.251	34.331	-0.309	0.275
-680.237	-32.277	0.054	0.031
-679.222	-118.529	-0.250	-0.045
-678.208	-200.000	0.018	0.224
-677.193	-200.000	-0.102	0.000
-676.178	166.812	-0.229	0.331
-675.164	-162.911	0.209	-0.010
-674.149	153.898	0.106	0.147
-673.135	-200.000	0.009	-0.204
-672.120	-27.194	-0.049	-0.029
-671.105	-93.398	-0.455	0.128
-670.091	429.217	-0.112	-0.245
-669.076	336.749	-0.084	-0.166
-668.062	450.312	0.088	0.198
-667.047	-200.000	0.015	0.081
-666.032	-79.024	-0.173	-0.060
-665.018	21.240	-0.105	-0.087
-664.003	-58.519	0.130	0.058
-662.989	512.359	-0.051	-0.120
-661.974	208.079	-0.147	-0.233
-660.959	5.089	-0.354	-0.265
-659.945	-114.606	-0.129	0.025
-658.930	65.238	-0.166	0.171
-657.916	334.552	0.158	-0.310
-656.901	-200.000	0.038	-0.436
-655.886	163.413	-0.177	-0.253
-654.872	-74.402	0.086	-0.031
-653.857	-119.922	0.273	0.048
-652.843	-32.355	-0.163	-0.092
-651.828	13.030	0.061	-0.048
-650.814	128.355	-0.058	-0.075
-649.799	-46.349	-0.289	-0.144
-648.784	-3.640	0.175	-0.124
-647.770	800.000	0.041	-0.143
-646.755	252.384	-0.084	0.146
-645.741	446.878	0.021	-0.048
-644.726	-59.548	-0.224	-0.098
-643.711	-200.000	-0.021	0.166
-642.697	800.000	0.148	0.496
-641.682	-173.909	-0.169	0.005
-640.668	-77.070	-0.353	-0.125
-639.653	104.625	-0.124	-0.148
-638.638	17.061	-0.394	0.318
-637.624	97.184	0.218	0.254
-636.609	-91.582	-0.225	-0.065
-635.595	800.000	-0.086	-0.264
-634.580	-73.877	-0.447	-0.165
-633.565	-147.221	-0.182	0.016
-632.551	800.000	0.014	-0.040
-631.536	-112.447	-0.295	-0.060
-630.522	-100.536	0.189	-0.048
-629.507	468.766	0.129	-0.294
-628.492	-182.487	-0.181	-0.003
-627.478	104.517	0.105	0.126
-626.463	-11.735	-0.189	0.126
-625.449	800.000	-0.020	0.078
-624.434	-9.035	-0.359	-0.244
-623.419	82.343	-0.032	0.035
-622.405	-200.000	0.025	0.329
-621.390	32.119	-0.153	0.134
-620.376	-11.089	0.276	-0.185
-619.361	-119.728	0.123	-0.021
-618.346	-200.000	-0.003	0.028
-617.332	-137.675	0.063	0.007
-616.317	-36.542	-0.168	0.092
-615.303	295.123	-0.158	0.294
-614.288	-33.002	0.155	-0.087
-613.273	-122.796	0.135	-0.022
-612.259	-51.168	0.115	-0.055
-611.244	800.000	-0.023	-0.088
-610.230	-104.524	-0.240	-0.056
-609.215	-200.000	-0.008	0.364
-608.201	800.000	-0.018	-0.067
-607.186	163.819	-0.099	-0.142
-606.171	-86.174	0.190	0.059
-605.157	-200.000	0.044	-0.241
-604.142	-200.000	-0.017	-0.734
-603.128	800.000	-0.033	0.114
-602.113	800.000	0.065	-0.199
-601.098	626.308	-0.126	-0.323
-600.084	-200.000	0.013	-0.088
-599.069	-84.220	0.296	0.095
-598.055	-35.733	-0.292	0.161
-597.040	-200.000	0.034	0.298
-596.025	-83.444	-0.215	-0.070
-595.011	0.162	-0.164	-0.119
-593.996	-200.000	-0.047	0.264
-592.982	-200.000	0.004	-0.086
-591.967	-134.666	-0.252	-0.031
-590.952	45.307	0.125	-0.117
-589.938	143.331	-0.311	-0.419
-588.923	312.768	-0.141	-0.269
-587.909	18.289	0.042	0.034
-586.894	-200.000	-0.021	0.254
-585.879	800.000	-0.046	0.188
-584.865	300.458	0.070	-0.131
-583.850	338.734	-0.022	-0.044
-582.836	-26.645	0.225	0.133
-581.821	89.399	-0.057	-0.064
-580.806	413.510	-0.115	0.248
-579.792	162.397	-0.164	0.233
-578.777	422.688	-0.121	-0.262
-577.763	-93.574	0.153	-0.043
-576.748	-2.113	0.175	-0.124
-575.733	489.425	0.073	0.169
-574.719	800.000	0.093	0.407
-573.704	-140.009	0.141	-0.015
-572.690	800.000	-0.064	-0.232
-571.675	-200.000	-0.040	0.219
-570.661	800.000	-0.087	-0.260
-569.646	-200.000	-0.030	0.205
-568.631	-13.429	-0.490	0.322
-567.617	20.586	0.224	0.183
-566.602	139.567	0.083	0.111
-565.588	-111.639	-0.114	0.023
-564.573	-200.000	0.004	0.136
-563.558	272.227	-0.069	-0.123
-562.544	-200.000	0.006	0.051
-561.529	-1.206	0.304	0.217
-560.515	212.520	-0.046	0.074
-559.500	258.829	0.052	-0.092
-558.485	800.000	-0.024	-0.068
-557.471	30.223	0.298	-0.258
-556.456	459.263	-0.069	-0.155
-555.442	-200.000	0.008	0.091
-554.427	-23.886	0.307	0.186
-553.412	-103.095	0.331	-0.079
-552.398	-76.963	-0.106	-0.038
-551.383	-148.706	-0.338	0.028
-550.369	-53.525	-0.158	0.073
-549.354	-53.617	-0.178	-0.082
-548.339	22.381	0.177	0.147
-547.325	-22.449	-0.258	0.158
-546.310	-112.329	0.407	-0.083
-545.296	-102.404	0.494	0.120
-544.281	800.000	-0.016	0.066
-543.266	-70.290	0.122	-0.047
-542.252	-184.384	-0.195	-0.003
-541.237	89.204	-0.189	0.213
-540.223	-52.205	-0.148	-0.069
-539.208	1.143	-0.227	-0.165
-538.193	-200.000	-0.053	0.310
-537.179	66.645	0.134	-0.138
-536.164	84.684	-0.231	-0.256
-535.150	77.798	-0.198	0.214
-534.135	-122.063	-0.258	-0.043
-533.121	-200.000	-0.062	-0.000
-532.106	-150.336	0.231	0.018
-531.091	606.819	-0.115	0.290
-530.077	-191.041	0.138	-0.001
-529.062	433.844	0.056	-0.123
-528.048	-157.751	-0.291	-0.017
-527.033	-63.696	0.202	0.084
-526.018	-54.185	-0.116	-0.053
-525.004	-135.149	-0.355	-0.043
-523.989	-100.308	-0.116	0.029
-522.975	-28.735	0.089	0.052
-521.960	-88.111	-0.239	0.072
-520.945	-200.000	-0.020	0.149
-519.931	800.000	-0.081	-0.335
-518.916	0.021	-0.141	0.102
-517.902	800.000	-0.073	-0.288
-516.887	-48.310	-0.085	-0.041
-515.872	-129.104	-0.144	-0.020
-514.858	203.808	-0.182	0.285
-513.843	220.535	-0.123	0.199
-512.829	51.848	0.051	0.049
-511.814	-94.931	0.113	-0.031
-510.799	12.116	-0.265	-0.206
-509.785	236.213	-0.178	-0.298
-508.770	171.472	0.095	-0.138
-507.756	53.010	0.216	-0.209
-506.741	-55.263	0.257	0.117
-505.726	-30.756	-0.282	0.161
-504.712	122.645	0.180	-0.227
-503.697	-191.765	-0.250	-0.002
-502.683	-86.483	-0.261	-0.081
-501.668	31.932	-0.170	0.148
-500.653	-182.922	0.137	-0.002
-499.639	-88.480	0.298	-0.090
-498.624	514.243	-0.010	-0.023
-497.610	-77.799	0.129	0.045
-496.595	-47.629	0.337	-0.165
-495.581	235.550	0.093	-0.155
-494.566	-53.975	-0.054	-0.025
-493.551	-67.291	0.247	-0.098
-492.537	-11.501	0.089	-0.059
-491.522	-70.465	0.208	0.080
-490.508	-200.000	0.009	-0.232
-489.493	-73.862	-0.070	-0.026
-488.478	179.065	0.143	0.211
-487.464	800.000	0.042	-0.146
-486.449	295.827	0.079	-0.146
-485.435	-35.215	-0.228	-0.125
-484.420	84.939	-0.145	0.161
-483.405	-200.000	-0.022	-0.199
-482.391	800.000	-0.087	0.333
-481.376	800.000	-0.043	0.130
-480.362	47.768	-0.453	0.427
-479.347	-74.828	0.143	0.052
-478.332	800.000	0.021	0.091
-477.318	-127.486	0.218	0.032
-476.303	-97.690	-0.213	0.056
-475.289	134.025	-0.123	-0.161
-474.274	-200.000	0.041	0.206
-473.259	800.000	0.123	0.358
-472.245	-193.874	-0.118	-0.001
-471.230	753.569	0.065	-0.177
-470.216	50.652	0.214	-0.204
-469.201	800.000	0.061	0.199
-468.186	-49.509	0.375	-0.180
-467.172	800.000	-0.050	-0.221
-466.157	80.059	-0.048	0.052
-465.143	-200.000	-0.063	-0.349
-464.128	51.915	0.187	-0.179
-463.113	-129.841	-0.220	0.030
-462.099	229.903	0.126	-0.207
-461.084	-3.836	-0.031	-0.022
-460.070	23.521	0.085	0.071
-459.055	191.255	-0.227	-0.345
-458.040	-34.867	-0.430	-0.237
-457.026	-67.730	0.390	0.154
-456.011	196.230	-0.175	-0.269
-454.997	486.711	-0.051	-0.117
-453.982	-200.000	-0.016	-0.300
-452.968	227.235	-0.073	0.120
-451.953	-100.981	0.154	-0.038
-450.938	104.935	0.018	0.021
-449.924	-54.745	-0.417	0.190
-448.909	-200.000	0.019	-0.240
-447.895	304.388	0.185	0.345
-446.880	-145.221	0.502	-0.046
-445.865	800.000	0.041	-0.133
-444.851	-76.964	-0.104	-0.037
-443.836	800.000	0.170	-0.487
-442.822	31.343	0.102	-0.089
-441.807	-163.750	0.350	-0.017
-440.792	-127.012	0.179	-0.027
-439.778	800.000	0.087	-0.251
-438.763	-200.000	-0.029	-0.193
-437.749	-62.446	-0.117	-0.049
-436.734	445.405	-0.018	-0.039
-435.719	-104.802	0.073	-0.017
-434.705	-194.735	-0.249	0.002
-433.690	-81.144	-0.158	-0.052
-432.676	-200.000	0.079	0.426
-431.661	-132.863	0.351	-0.045
-430.646	-200.000	0.001	0.118
-429.632	-180.483	-0.336	0.007
-428.617	-83.644	-0.114	-0.037
-427.603	229.228	-0.246	-0.405
-426.588	-164.168	-0.127	-0.006
-425.573	-24.890	0.219	0.131
-424.559	44.854	0.253	0.235
-423.544	-21.041	0.256	-0.158
-422.530	584.659	0.064	-0.159
-421.515	14.194	-0.321	0.252
-420.500	302.392	0.182	-0.339
-419.486	-0.856	-0.155	0.110
-418.471	352.437	-0.194	-0.387
-417.457	-52.915	0.269	0.125
-416.442	-57.302	-0.267	0.118
-415.428	86.669	-0.194	0.216
-414.413	25.811	0.313	0.263
-413.398	800.000	0.026	0.113
-412.384	-96.420	0.134	-0.036
-411.369	-200.000	-0.004	0.179
-410.355	254.271	-0.190	-0.327
-409.340	52.858	0.214	-0.206
-408.325	-87.676	0.309	-0.094
-407.311	161.285	-0.016	-0.023
-406.296	153.261	0.261	0.360
-405.282	-8.031	-0.136	0.092
-404.267	-200.000	-0.011	-0.112
-403.252	157.107	0.198	0.276
-402.238	-200.000	-0.022	-0.178
-401.223	-89.968	-0.258	0.076
-400.209	115.983	0.135	0.167
-399.194	229.232	0.080	0.132
-398.179	-200.000	0.044	0.223
-397.165	-124.757	-0.093	0.014
-396.150	-42.990	-0.301	-0.154
-395.136	-193.103	-0.046	-0.000
-394.121	-169.612	0.092	-0.003
-393.106	-98.897	0.170	-0.043
-392.092	24.216	0.094	0.078
-391.077	-200.000	0.016	0.238
-390.063	-107.508	0.429	-0.095
-389.048	-79.766	0.297	0.100
-388.033	3.977	-0.180	0.132
-387.019	182.781	0.134	0.200
-386.004	14.197	-0.170	-0.133
-384.990	800.000	-0.052	0.193
-383.975	534.839	0.063	-0.150
-382.960	-10.582	-0.186	0.124
-381.946	-84.302	0.135	0.043
-380.931	-148.339	-0.132	-0.011
-379.917	-57.713	-0.199	-0.088
-378.902	800.000	-0.006	-0.017
-377.888	-200.000	-0.060	-0.264
-376.873	-185.747	-0.258	0.004
-375.858	-123.670	-0.157	0.025
-374.844	800.000	-0.063	-0.249
-373.829	18.427	0.101	0.081
-372.815	800.000	0.088	-0.341
-371.800	-117.796	0.187	0.034
-370.785	17.101	0.056	0.045
-369.771	-73.891	0.190	0.069
-368.756	-70.035	0.252	0.096
-367.742	-64.868	0.424	-0.172
-366.727	-200.000	-0.032	-0.180
-365.712	-85.832	0.291	0.091
-364.698	144.169	-0.140	-0.188
-363.683	800.000	-0.122	-0.342
-362.669	-176.351	0.087	0.002
-361.654	-72.851	-0.259	-0.096
-360.639	-36.728	0.271	0.146
-359.625	41.653	0.078	0.071
-358.610	-196.272	-0.123	-0.001
-357.596	13.283	-0.212	-0.165
-356.581	162.927	0.111	-0.157
-355.566	-200.000	0.004	0.062
-354.552	-23.248	0.269	-0.163
-353.537	74.491	0.136	-0.143
-352.523	-86.437	-0.344	-0.106
-351.508	140.269	-0.086	0.115
-350.493	111.782	-0.333	-0.403
-349.479	-200.000	0.032	0.167
-348.464	800.000	0.120	-0.342
-347.450	-120.074	-0.220	-0.038
-346.435	310.430	-0.145	-0.273
-345.420	236.602	-0.016	0.027
-344.406	-27.341	0.244	0.143
-343.391	35.407	0.088	-0.078
-342.377	800.000	-0.044	-0.158
-341.362	800.000	0.031	-0.126
-340.348	55.320	0.121	-0.118
-339.333	-153.375	0.440	0.031
-338.318	352.191	-0.063	0.125
-337.304	-77.040	0.296	-0.104
-336.289	-158.528	0.318	0.018
-335.275	800.000	-0.050	0.199
-334.260	-34.718	-0.259	-0.142
-333.245	-154.884	0.307	0.020
-332.231	-200.000	-0.009	0.042
-331.216	-86.391	-0.554	0.171
-330.202	3.929	0.129	0.094
-329.187	247.322	-0.107	0.181
-328.172	-121.454	0.109	-0.018
-327.158	-70.524	-0.257	0.098
-326.143	429.929	0.185	0.402
-325.129	21.567	0.286	0.234
-324.114	432.181	-0.062	0.135
-323.099	-60.496	-0.259	0.110
-322.085	-169.585	-0.245	0.009
-321.070	40.068	0.097	0.087
-320.056	-66.514	0.149	-0.059
-319.041	-200.000	-0.009	0.152
-318.026	-23.859	0.222	0.133
-317.012	-67.283	0.188	0.074
-315.997	370.445	0.075	0.153
-314.983	637.804	0.082	-0.209
-313.968	127.934	-0.354	-0.452
-312.953	127.683	0.076	-0.097
-311.939	-12.913	-0.098	-0.064
-310.924	-80.210	-0.242	-0.081
-309.910	498.004	-0.186	-0.429
-308.895	800.000	0.105	-0.364
-307.880	17.669	-0.198	0.158
-306.866	101.973	0.101	-0.119
-305.851	-86.992	-0.195	0.060
-304.837	-36.221	0.238	0.129
-303.822	-60.583	0.253	-0.108
-302.807	104.286	0.063	0.074
-301.793	-200.000	0.028	-0.143
-300.778	-98.095	-0.118	-0.030
-299.764	-200.000	0.002	-0.178
-298.749	-76.191	0.097	-0.034
-297.735	53.608	-0.301	-0.290
-296.720	218.087	-0.054	0.087
-295.705	-200.000	-0.023	-0.126
-294.691	-61.516	-0.208	0.088
-293.676	-200.000	0.015	-0.086
-292.662	800.000	0.074	0.245
-291.647	-200.000	0.026	0.190
-290.632	-16.692	0.236	-0.150
-289.618	135.448	-0.090	-0.117
-288.603	5.681	0.114	0.084
-287.589	800.000	-0.044	0.183
-286.574	120.049	0.105	-0.130
-285.559	-46.732	0.140	-0.069
-284.545	-176.210	0.357	0.009
-283.530	-46.774	0.105	0.052
-282.516	-4.590	0.113	-0.078
-281.501	-164.592	0.166	-0.008
-280.486	-80.471	-0.239	0.080
-279.472	800.000	-0.130	0.490
-278.457	-144.203	0.243	0.023
-277.443	-93.024	0.262	-0.073
-276.428	-200.000	-0.006	-0.062
-275.413	-86.972	-0.103	0.031
-274.399	726.683	0.050	-0.135
-273.384	-153.107	-0.099	-0.007
-272.370	-175.323	0.225	-0.006
-271.355	288.217	-0.061	-0.110
-270.340	800.000	-0.037	-0.145
-269.326	-66.198	0.302	-0.120
-268.311	-131.935	0.302	0.039
-267.297	800.000	0.090	0.327
-266.282	726.702	0.072	-0.192
-265.267	-200.000	0.042	-0.270
-264.253	-200.000	0.007	-0.086
-263.238	-22.835	-0.097	0.059
-262.224	152.616	0.102	0.140
-261.209	40.396	-0.083	0.075
-260.195	249.423	-0.213	0.361
-259.180	-111.358	0.243	-0.050
-258.165	-167.791	-0.087	0.003
-257.151	142.133	-0.136	0.180
-256.136	289.329	0.072	0.130
-255.122	-35.386	-0.104	0.057
-254.107	-83.952	-0.040	-0.013
-253.092	-108.829	0.090	-0.019
-252.078	-1.049	0.117	-0.083
-251.063	31.772	-0.061	0.052
-250.049	775.937	-0.099	0.270
-249.034	-200.000	0.007	-0.109
-248.019	-200.000	0.067	0.397
-247.005	-43.568	-0.239	0.121
-245.990	-112.540	-0.310	-0.062
-244.976	723.444	0.115	-0.307
-243.961	800.000	-0.036	0.114
-242.946	-200.000	0.016	0.158
-241.932	-87.135	-0.238	0.072
-240.917	-200.000	0.003	-0.080
-239.903	76.330	0.069	0.073
-238.888	-75.749	0.208	0.074
-237.873	-77.427	0.146	-0.051
-236.859	434.388	0.108	-0.235
-235.844	98.669	0.050	-0.057
-234.830	-200.000	-0.008	-0.192
-233.815	-200.000	0.012	0.116
-232.800	-90.776	0.174	-0.050
-231.786	-200.000	0.004	-0.208
-230.771	138.691	-0.048	0.063
-229.757	-2.938	-0.018	0.012
-228.742	84.843	-0.130	0.142
-227.727	-200.000	0.003	0.049
-226.713	-27.314	-0.105	-0.061
-225.698	98.250	-0.270	0.311
-224.684	-200.000	-0.019	0.137
-223.669	402.042	0.151	0.318
-222.655	533.401	0.072	-0.171
-221.640	-87.579	0.161	-0.049
-220.625	147.411	-0.135	-0.181
-219.611	-143.614	-0.379	-0.036
-218.596	-200.000	0.025	0.330
-217.582	121.285	-0.265	0.330
-216.567	-125.064	0.054	-0.008
-215.552	10.056	-0.277	0.210
-214.538	-1.274	0.188	-0.133
-213.523	42.178	-0.188	0.171
-212.509	676.932	-0.067	0.174
-211.494	440.288	-0.109	-0.237
-210.479	-86.372	0.251	0.077
-209.465	318.507	-0.034	-0.064
-208.450	-200.000	0.004	0.141
-207.436	-200.000	-0.003	-0.332
-206.421	88.830	0.062	-0.069
-205.406	-200.000	0.004	-0.085
-204.392	301.539	0.117	-0.216
-203.377	800.000	-0.103	-0.301
-202.363	285.856	0.188	0.338
-201.348	-200.000	0.013	0.058
-200.333	147.301	0.235	-0.316
-199.319	-200.000	0.001	0.110
-198.304	400.732	-0.070	0.146
-197.290	29.862	-0.010	0.009
-196.275	-200.000	0.049	-0.339
-195.260	-176.632	0.144	-0.004
-194.246	423.765	0.170	0.365
-193.231	-67.625	-0.327	0.128
-192.217	58.514	-0.074	-0.073
-191.202	142.966	0.134	0.179
-190.187	4.851	-0.124	-0.091
-189.173	-200.000	-0.004	0.066
-188.158	-92.970	0.282	-0.079
-187.144	-63.605	-0.076	0.031
-186.129	-73.682	0.280	0.102
-185.114	-122.075	0.235	0.038
-184.100	92.114	0.078	0.087
-183.085	800.000	-0.067	-0.272
-182.071	-145.743	0.210	-0.019
-181.056	8.152	-0.189	-0.141
-180.042	-20.559	-0.187	0.115
-179.027	-97.132	-0.155	0.040
-178.012	467.661	0.084	0.187
-176.998	443.480	0.070	0.153
-175.983	156.842	0.198	0.273
-174.969	569.839	0.068	0.166
-173.954	-43.208	0.495	-0.250
-172.939	-200.000	0.000	0.362
-171.925	62.459	-0.190	0.190
-170.910	132.315	-0.088	0.113
-169.896	232.776	0.045	0.074
-168.881	-83.638	0.141	0.045
-167.866	-126.996	-0.232	-0.034
-166.852	251.004	0.107	0.181
-165.837	61.518	-0.179	0.177
-164.823	-200.000	0.043	-0.394
-163.808	-43.633	-0.145	0.073
-162.793	-163.617	-0.083	0.004
-161.779	152.832	0.055	0.075
-160.764	223.742	0.087	0.140
-159.750	-41.021	0.230	0.119
-158.735	-150.412	0.092	-0.007
-157.720	48.228	-0.106	-0.099
-156.706	-15.155	-0.071	0.045
-155.691	800.000	-0.066	0.250
-154.677	-36.040	-0.109	-0.059
-153.662	-91.206	0.051	-0.015
-152.647	800.000	-0.062	0.180
-151.633	61.090	0.229	0.226
-150.618	-50.883	0.136	0.064
-149.604	146.562	-0.094	0.126
-148.589	-200.000	0.025	0.227
-147.574	-200.000	-0.054	-0.314
-146.560	3.986	-0.247	-0.180
-145.545	310.375	-0.105	-0.195
-144.531	13.142	0.079	-0.061
-143.516	355.792	0.146	0.291
-142.502	-153.306	0.280	0.019
-141.487	800.000	-0.107	-0.373
-140.472	-200.000	0.012	-0.160
-139.458	23.864	-0.089	-0.073
-138.443	157.214	-0.017	-0.023
-137.429	36.228	0.114	-0.100
-136.414	193.050	0.162	-0.244
-135.399	138.487	0.069	0.090
-134.385	6.665	0.201	-0.149
-133.370	113.732	0.276	0.334
-132.356	800.000	-0.054	0.163
-131.341	219.144	-0.043	-0.069
-130.326	800.000	-0.090	-0.280
-129.312	800.000	0.058	0.206
-128.297	445.779	0.150	-0.328
-127.283	-200.000	0.069	-0.316
-126.268	-200.000	0.018	0.397
-125.253	451.022	-0.094	0.208
-124.239	156.986	-0.116	0.160
-123.224	800.000	-0.090	0.271
-122.210	-19.904	0.259	-0.159
-121.195	-8.321	-0.228	-0.153
