DTS Sentinel unit serial number:	SN413079Multiplexer serial number:	ORYXHardware model number:	OX4-SRSoftware version number:	ORYX F/W v4.00 Oryx Data Collector v3.7.2.0data status	okinstallation	princeton_trtdifferential loss correction	single-endedforward channel	channel 3reverse channel	N/Adate	2019/09/13time	02:52:35forward acquisition time	60.00reverse acquisition time	0.00gamma	496.2192k internal	0.2334k external	0.2334temperature offset calibration	1.0141default loss term (dB/km)	0.3790temperature slope calibration	1.0000multiplexer offset coefficient	1.0000multiplexer slope coefficient	1.0000fibre end	0.00T internal ref (°C)	27.44T ext. ref 1 (°C)	4.04T ext. ref 2 (°C)	22.36length (m)	temperature (°C)	Stokes	anti-Stokes-747.200	302.561	0.128	-0.238
-746.185	-200.000	-0.324	-0.001
-745.171	34.887	-0.096	0.084
-744.156	-59.788	-0.293	0.126
-743.142	-200.000	0.011	-0.074
-742.127	24.345	-0.064	-0.053
-741.112	-179.293	0.388	-0.009
-740.098	135.562	-0.067	-0.087
-739.083	-11.161	0.084	0.056
-738.069	-113.341	0.233	0.046
-737.054	87.593	-0.155	0.172
-736.039	-90.810	-0.182	0.053
-735.025	118.743	0.226	0.281
-734.010	-200.000	-0.052	-0.316
-732.996	-200.000	-0.019	-0.343
-731.981	-200.000	-0.033	0.174
-730.966	-200.000	0.006	0.099
-729.952	-117.421	-0.286	-0.052
-728.937	-20.976	-0.224	-0.137
-727.923	82.993	-0.018	-0.020
-726.908	76.533	0.141	0.150
-725.894	161.718	0.090	-0.127
-724.879	525.275	-0.060	-0.143
-723.864	-149.173	0.081	-0.006
-722.850	-58.259	-0.259	-0.113
-721.835	180.366	-0.129	0.190
-720.821	-164.257	0.116	-0.005
-719.806	763.581	0.059	-0.161
-718.791	16.308	-0.078	0.062
-717.777	-89.769	-0.081	0.024
-716.762	-99.033	-0.299	-0.076
-715.748	672.427	0.105	-0.274
-714.733	4.586	-0.114	-0.084
-713.718	-99.881	0.108	0.027
-712.704	800.000	0.037	0.159
-711.689	-186.812	0.092	-0.001
-710.675	77.339	0.201	0.215
-709.660	-112.855	-0.086	-0.017
-708.645	319.684	0.097	0.185
-707.631	27.103	0.272	0.229
-706.616	-200.000	0.044	0.497
-705.602	-160.897	-0.225	0.012
-704.587	-91.310	-0.537	0.154
-703.572	800.000	-0.092	0.336
-702.558	-116.271	-0.303	0.056
-701.543	-131.207	0.147	0.020
-700.529	-130.671	0.188	-0.025
-699.514	-186.868	-0.252	-0.004
-698.499	-200.000	-0.038	0.209
-697.485	18.486	-0.176	-0.141
-696.470	179.094	-0.082	0.120
-695.456	321.117	0.080	-0.153
-694.441	463.414	0.077	-0.173
-693.426	205.420	-0.036	-0.056
-692.412	-115.742	-0.263	0.049
-691.397	312.364	-0.069	-0.130
-690.383	-83.972	-0.076	0.024
-689.368	29.669	-0.226	0.193
-688.354	142.116	0.076	-0.101
-687.339	25.897	0.107	-0.089
-686.324	-105.580	-0.323	-0.074
-685.310	-200.000	-0.003	-0.190
-684.295	-102.364	-0.236	-0.057
-683.281	3.059	-0.217	-0.158
-682.266	-136.656	-0.205	0.024
-681.251	-75.554	0.210	-0.075
-680.237	-135.865	-0.174	0.021
-679.222	43.943	-0.198	-0.182
-678.208	-129.847	0.189	-0.026
-677.193	-200.000	-0.111	0.693
-676.178	-200.000	0.033	-0.186
-675.164	-77.594	-0.226	-0.079
-674.149	-68.640	0.260	-0.101
-673.135	-56.113	0.184	-0.082
-672.120	-200.000	0.021	-0.250
-671.105	-89.585	0.324	-0.095
-670.091	106.649	-0.083	-0.099
-669.076	63.176	-0.140	0.140
-668.062	-75.043	0.153	0.055
-667.047	-8.166	-0.248	-0.168
-666.032	-126.216	-0.097	0.015
-665.018	-89.158	0.152	0.045
-664.003	-200.000	-0.026	0.165
-662.989	50.141	-0.073	-0.069
-661.974	62.333	-0.290	0.290
-660.959	-119.197	-0.265	0.046
-659.945	633.400	0.080	0.203
-658.930	34.637	0.198	-0.173
-657.916	-40.291	0.205	-0.107
-656.901	-14.490	0.169	-0.109
-655.886	59.154	0.169	-0.167
-654.872	-200.000	-0.022	-0.327
-653.857	800.000	0.034	0.101
-652.843	-198.298	0.248	-0.001
-651.828	-146.218	-0.280	0.025
-650.814	-97.648	0.208	0.054
-649.799	304.860	-0.012	0.023
-648.784	72.786	0.217	-0.227
-647.770	242.083	0.174	-0.291
-646.755	308.366	-0.040	-0.074
-645.741	-200.000	-0.029	-0.454
-644.726	-83.776	0.101	0.032
-643.711	-96.939	-0.332	0.087
-642.697	778.532	-0.095	0.259
-641.682	98.622	0.070	-0.081
-640.668	-62.792	-0.321	-0.133
-639.653	80.456	-0.150	-0.161
-638.638	82.011	-0.144	0.156
-637.624	-200.000	-0.021	0.195
-636.609	439.374	0.052	-0.113
-635.595	331.988	-0.055	0.106
-634.580	-152.486	-0.194	-0.014
-633.565	118.001	0.062	0.077
-632.551	-40.151	-0.239	0.124
-631.536	800.000	0.030	-0.124
-630.522	-64.662	-0.154	-0.062
-629.507	-123.245	0.181	0.029
-628.492	-113.987	-0.179	0.035
-627.478	800.000	-0.039	0.145
-626.463	3.406	0.310	-0.226
-625.449	-116.835	-0.327	-0.060
-624.434	12.850	-0.220	-0.170
-623.419	179.778	0.047	-0.068
-622.405	800.000	0.050	0.174
-621.390	255.507	-0.049	0.084
-620.376	-186.820	-0.273	-0.004
-619.361	105.586	-0.130	-0.154
-618.346	74.184	0.207	0.217
-617.332	-114.307	-0.210	0.041
-616.317	-80.833	-0.518	0.172
-615.303	-180.289	0.171	-0.004
-614.288	-200.000	0.081	-0.000
-613.273	-45.338	-0.173	0.086
-612.259	-200.000	0.016	0.120
-611.244	107.506	-0.008	0.009
-610.230	287.909	-0.273	-0.494
-609.215	639.237	0.028	0.070
-608.201	-200.000	0.027	-0.168
-607.186	-200.000	-0.003	0.085
-606.171	570.486	0.068	0.166
-605.157	-106.180	0.402	-0.090
-604.142	-54.360	0.194	-0.088
-603.128	445.120	-0.045	0.100
-602.113	-200.000	-0.007	0.136
-601.098	-61.287	0.296	-0.124
-600.084	75.370	0.115	-0.121
-599.069	93.622	-0.024	0.027
-598.055	273.627	-0.102	0.180
-597.040	-138.483	-0.249	-0.027
-596.025	-86.537	0.217	0.067
-595.011	35.425	0.115	-0.101
-593.996	313.838	-0.079	-0.149
-592.982	183.336	-0.145	-0.215
-591.967	-104.604	-0.393	-0.091
-590.952	173.361	0.035	-0.050
-589.938	-200.000	-0.060	-0.515
-588.923	-147.265	-0.131	-0.011
-587.909	800.000	0.009	-0.034
-586.894	800.000	0.101	-0.363
-585.879	118.543	-0.094	-0.116
-584.865	699.123	0.087	-0.230
-583.850	-200.000	-0.003	0.022
-582.836	-200.000	0.024	-0.218
-581.821	-200.000	-0.035	-0.298
-580.806	120.194	-0.214	0.265
-579.792	8.529	-0.313	0.235
-578.777	308.413	-0.091	0.170
-577.763	97.554	-0.198	0.227
-576.748	17.927	-0.029	0.023
-575.733	-86.223	-0.257	0.079
-574.719	-111.819	0.029	0.006
-573.704	-52.318	0.231	0.107
-572.690	-200.000	-0.017	0.092
-571.675	400.844	-0.127	-0.265
-570.661	208.761	-0.153	-0.238
-569.646	259.515	-0.087	-0.150
-568.631	105.547	0.133	0.156
-567.617	-74.639	-0.362	-0.130
-566.602	14.450	-0.344	-0.268
-565.588	600.848	-0.082	0.203
-564.573	-200.000	0.061	-0.332
-563.558	-157.509	0.128	-0.008
-562.544	-89.463	-0.419	0.123
-561.529	800.000	-0.107	0.442
-560.515	-200.000	-0.019	0.493
-559.500	18.014	-0.071	0.057
-558.485	-1.506	0.091	0.064
-557.471	-94.053	-0.026	0.007
-556.456	367.656	0.298	-0.601
-555.442	327.518	0.207	-0.395
-554.427	-67.650	-0.055	0.022
-553.412	103.836	0.052	0.060
-552.398	42.735	-0.085	-0.077
-551.383	523.972	0.071	0.168
-550.369	800.000	0.087	0.257
-549.354	-175.270	-0.452	-0.012
-548.339	344.102	0.084	0.164
-547.325	-134.144	-0.307	0.038
-546.310	314.753	0.154	0.290
-545.296	38.472	-0.027	0.024
-544.281	-61.144	-0.096	-0.040
-543.266	-113.087	-0.194	0.038
-542.252	800.000	-0.097	0.270
-541.237	-97.081	0.304	0.079
-540.223	-92.066	-0.150	-0.042
-539.208	52.922	0.276	0.264
-538.193	47.195	0.416	0.386
-537.179	-200.000	0.039	0.362
-536.164	33.468	-0.188	0.163
-535.150	-200.000	0.020	-0.294
-534.135	800.000	-0.096	-0.359
-533.121	-200.000	-0.022	-0.164
-532.106	41.162	-0.098	0.089
-531.091	800.000	0.053	-0.219
-530.077	352.538	-0.050	-0.099
-529.062	529.567	0.146	0.344
-528.048	800.000	0.126	-0.376
-527.033	-59.457	-0.251	-0.108
-526.018	366.594	-0.037	0.074
-525.004	-50.958	0.234	0.109
-523.989	84.919	-0.075	-0.082
-522.975	-200.000	0.032	-0.244
-521.960	-124.515	0.405	-0.063
-520.945	-108.193	0.130	0.028
-519.931	331.692	0.127	0.244
-518.916	7.482	0.297	0.221
-517.902	29.120	0.119	0.100
-516.887	-200.000	-0.013	0.076
-515.872	-123.269	0.068	0.011
-514.858	-54.547	0.142	0.064
-513.843	82.278	0.043	0.047
-512.829	-108.079	0.352	-0.076
-511.814	295.096	0.033	-0.060
-510.799	-200.000	-0.010	-0.145
-509.785	43.045	-0.147	-0.133
-508.770	-147.411	-0.200	-0.017
-507.756	-91.138	-0.443	-0.127
-506.741	-83.520	-0.328	-0.105
-505.726	205.217	-0.070	-0.108
-504.712	-200.000	0.027	0.232
-503.697	-128.566	-0.135	0.019
-502.683	-29.261	-0.239	-0.136
-501.668	-141.509	-0.189	0.019
-500.653	-200.000	-0.058	0.384
-499.639	555.926	0.047	-0.112
-498.624	565.777	0.160	-0.387
-497.610	163.979	0.052	0.073
-496.595	107.458	0.168	0.198
-495.581	-200.000	-0.014	0.073
-494.566	-77.538	-0.159	-0.055
-493.551	-79.560	0.133	-0.045
-492.537	234.141	0.145	-0.238
-491.522	153.571	0.047	-0.064
-490.508	-200.000	0.020	0.138
-489.493	146.873	-0.131	0.175
-488.478	349.603	0.119	0.233
-487.464	-36.928	-0.013	-0.007
-486.449	56.316	0.068	0.066
-485.435	-26.231	-0.146	-0.085
-484.420	-200.000	-0.000	-0.134
-483.405	334.661	-0.120	0.232
-482.391	510.557	0.171	-0.397
-481.376	-188.013	0.268	-0.003
-480.362	107.317	-0.150	-0.178
-479.347	-200.000	-0.024	0.217
-478.332	-42.559	-0.055	-0.028
-477.318	-12.987	0.318	-0.206
-476.303	-127.894	-0.036	-0.005
-475.289	103.335	0.182	0.212
-474.274	666.141	0.061	0.157
-473.259	647.075	0.081	0.206
-472.245	130.164	-0.037	0.047
-471.230	-200.000	-0.003	0.245
-470.216	-89.076	0.203	-0.060
-469.201	-46.805	0.246	-0.120
-468.186	27.593	0.076	0.063
-467.172	-78.996	-0.121	-0.041
-466.157	349.110	0.090	0.176
-465.143	-28.143	0.169	0.097
-464.128	-103.395	-0.133	-0.031
-463.113	800.000	-0.037	-0.133
-462.099	317.241	-0.085	-0.160
-461.084	-95.157	-0.098	0.026
-460.070	88.260	-0.018	-0.019
-459.055	-179.362	-0.175	0.004
-458.040	211.717	0.087	0.136
-457.026	482.604	0.124	-0.280
-456.011	302.171	0.087	-0.161
-454.997	-3.700	-0.048	0.033
-453.982	331.132	0.054	0.103
-452.968	-72.370	-0.210	0.077
-451.953	-200.000	-0.006	-0.075
-450.938	-49.595	0.123	0.058
-449.924	-200.000	0.026	0.183
-448.909	-200.000	0.029	-0.332
-447.895	193.656	-0.047	0.070
-446.880	-124.374	0.267	0.041
-445.865	276.671	0.147	-0.259
-444.851	182.871	-0.078	-0.114
-443.836	53.672	-0.138	0.131
-442.822	35.408	0.296	-0.258
-441.807	-110.945	-0.226	-0.046
-440.792	85.215	-0.052	0.056
-439.778	-156.379	0.202	0.013
-438.763	-158.755	-0.168	-0.010
-437.749	-200.000	-0.016	-0.245
-436.734	7.639	0.165	-0.122
-435.719	269.254	-0.069	-0.121
-434.705	-48.288	0.179	-0.086
-433.690	-20.822	0.104	-0.063
-432.676	85.430	-0.114	0.124
-431.661	86.331	-0.168	-0.184
-430.646	-104.658	0.132	-0.030
-429.632	-36.431	0.180	-0.096
-428.617	623.142	0.125	-0.313
-427.603	-53.650	-0.077	-0.035
-426.588	-52.945	-0.330	0.151
-425.573	800.000	0.012	-0.047
-424.559	-93.930	0.132	0.036
-423.544	5.033	-0.208	-0.152
-422.530	63.832	0.120	-0.119
-421.515	-96.860	0.281	0.073
-420.500	-103.210	-0.235	-0.055
-419.486	365.205	-0.155	0.311
-418.471	47.168	-0.107	0.098
-417.457	-48.863	-0.261	-0.124
-416.442	309.031	-0.188	-0.349
-415.428	-200.000	-0.007	-0.095
-414.413	10.635	0.375	-0.284
-413.398	479.188	0.156	0.351
-412.384	-89.738	0.187	-0.054
-411.369	-16.903	-0.155	-0.097
-410.355	-77.355	-0.304	0.105
-409.340	182.177	-0.106	-0.155
-408.325	525.145	-0.104	-0.243
-407.311	108.471	0.122	0.145
-406.296	-200.000	-0.043	-0.223
-405.282	-200.000	0.020	0.125
-404.267	-17.184	-0.236	-0.147
-403.252	-64.114	0.342	-0.138
-402.238	800.000	0.078	-0.294
-401.223	-180.147	0.438	-0.009
-400.209	-85.059	0.080	0.025
-399.194	800.000	0.094	-0.338
-398.179	-200.000	0.006	-0.309
-397.165	-200.000	0.011	-0.089
-396.150	509.928	-0.033	-0.077
-395.136	-104.654	0.209	0.048
-394.121	191.034	0.055	0.082
-393.106	-200.000	-0.086	-0.394
-392.092	152.452	-0.147	0.198
-391.077	-55.809	-0.130	-0.058
-390.063	733.448	-0.074	-0.196
-389.048	-36.281	-0.131	-0.070
-388.033	-6.877	-0.222	0.149
-387.019	800.000	-0.042	0.125
-386.004	-31.371	-0.272	-0.152
-384.990	-117.617	0.206	0.037
-383.975	452.309	0.061	0.133
-382.960	182.981	0.126	0.184
-381.946	-54.184	-0.406	0.183
-380.931	-144.966	0.153	0.014
-379.917	-200.000	-0.034	0.166
-378.902	178.837	0.062	0.089
-377.888	-130.005	-0.252	0.034
-376.873	129.110	-0.095	-0.120
-375.858	-112.603	-0.266	-0.053
-374.844	-53.559	-0.215	0.097
-373.829	-54.038	-0.101	0.046
-372.815	-200.000	-0.015	0.465
-371.800	191.682	-0.148	0.221
-370.785	800.000	-0.020	0.079
-369.771	-20.318	0.258	-0.157
-368.756	-200.000	0.004	0.051
-367.742	354.745	0.151	0.298
-366.727	15.684	0.143	-0.112
-365.712	192.004	-0.082	-0.122
-364.698	330.173	0.160	-0.306
-363.683	-200.000	0.035	-0.182
-362.669	-131.052	-0.242	-0.032
-361.654	-40.701	-0.225	-0.115
-360.639	75.071	-0.200	-0.208
-359.625	-200.000	0.005	-0.180
-358.610	-81.058	-0.074	0.024
-357.596	48.471	-0.248	0.230
-356.581	-57.796	-0.046	0.020
-355.566	-94.413	0.154	-0.042
-354.552	800.000	-0.034	0.103
-353.537	-59.126	-0.143	-0.061
-352.523	-0.294	-0.360	0.253
-351.508	-36.708	0.290	-0.154
-350.493	-73.072	0.192	0.070
-349.479	-200.000	-0.011	-0.070
-348.464	281.271	0.182	-0.322
-347.450	70.196	0.200	0.204
-346.435	-200.000	-0.073	-0.462
-345.420	-66.823	0.161	-0.063
-344.406	38.238	0.081	-0.071
-343.391	800.000	0.102	0.296
-342.377	-73.069	-0.218	0.079
-341.362	-72.918	0.439	-0.160
-340.348	121.960	0.254	0.313
-339.333	-200.000	0.016	-0.215
-338.318	800.000	-0.097	-0.279
-337.304	-45.844	0.139	0.068
-336.289	165.739	0.042	0.059
-335.275	148.949	0.131	-0.176
-334.260	27.024	0.348	-0.289
-333.245	-159.476	0.197	-0.011
-332.231	-47.875	-0.126	0.060
-331.216	119.543	-0.077	0.095
-330.202	-88.853	0.201	-0.059
-329.187	-200.000	-0.006	-0.115
-328.172	37.454	-0.136	-0.119
-327.158	376.725	-0.169	0.342
-326.143	-200.000	0.010	0.056
-325.129	63.626	0.111	0.110
-324.114	800.000	0.015	0.050
-323.099	-200.000	-0.059	0.377
-322.085	107.805	-0.063	0.075
-321.070	-200.000	-0.015	-0.194
-320.056	-114.425	0.311	-0.059
-319.041	-150.762	-0.117	-0.009
-318.026	-82.517	-0.330	-0.106
-317.012	11.550	-0.140	-0.106
-315.997	-112.414	0.347	0.068
-314.983	-113.766	0.159	0.031
-313.968	-200.000	0.014	0.291
-312.953	-200.000	0.045	0.250
-311.939	-60.447	0.297	0.125
-310.924	-200.000	0.077	-0.337
-309.910	342.510	0.048	-0.093
-308.895	75.865	0.221	0.231
-307.880	75.536	-0.058	0.060
-306.866	-122.311	-0.114	0.018
-305.851	218.279	0.152	-0.240
-304.837	105.963	0.122	0.143
-303.822	0.593	-0.106	0.075
-302.807	-200.000	0.028	0.361
-301.793	-4.260	-0.125	0.086
-300.778	33.795	-0.260	-0.224
-299.764	312.478	-0.135	0.251
-298.749	-97.114	-0.152	0.039
-297.735	-115.170	-0.460	0.086
-296.720	110.735	-0.086	0.102
-295.705	98.872	0.226	-0.258
-294.691	3.531	0.080	0.057
-293.676	375.820	0.150	0.302
-292.662	32.876	0.069	0.059
-291.647	90.927	-0.187	-0.207
-290.632	-200.000	0.033	0.216
-289.618	-112.346	0.165	0.033
-288.603	-98.470	-0.058	-0.015
-287.589	-125.630	0.256	-0.038
-286.574	67.028	0.097	-0.098
-285.559	382.199	0.107	-0.218
-284.545	242.268	0.193	-0.319
-283.530	800.000	-0.048	0.180
-282.516	19.104	0.289	-0.229
-281.501	8.902	0.175	-0.131
-280.486	-57.853	0.081	-0.035
-279.472	517.628	-0.146	0.337
-278.457	800.000	0.033	-0.109
-277.443	557.407	0.170	0.405
-276.428	80.606	-0.261	0.277
-275.413	-104.607	0.422	-0.096
-274.399	-60.409	0.289	0.121
-273.384	89.064	-0.118	-0.129
-272.370	-163.459	-0.041	0.002
-271.355	-55.251	-0.291	0.129
-270.340	800.000	-0.115	-0.337
-269.326	800.000	-0.071	-0.207
-268.311	-20.047	0.196	0.119
-267.297	671.340	-0.071	0.181
-266.282	-200.000	-0.015	0.244
-265.267	21.539	0.180	0.145
-264.253	1.593	-0.106	0.076
-263.238	-200.000	-0.042	-0.201
-262.224	117.345	0.049	-0.059
-261.209	113.826	0.153	-0.183
-260.195	-157.763	-0.215	0.013
-259.180	-178.986	0.075	0.002
-258.165	-33.295	-0.078	0.042
-257.151	800.000	0.021	0.091
-256.136	373.251	0.093	0.186
-255.122	800.000	0.080	0.249
-254.107	50.232	0.211	0.196
-253.092	-42.636	-0.287	0.144
-252.078	7.736	0.052	-0.038
-251.063	328.954	0.137	-0.260
-250.049	24.705	-0.060	-0.049
-249.034	537.446	-0.081	0.190
-248.019	-200.000	-0.006	0.105
-247.005	800.000	-0.026	-0.071
-245.990	183.026	-0.095	0.138
-244.976	-200.000	0.044	-0.203
-243.961	-27.210	0.275	-0.158
-242.946	588.305	-0.033	-0.079
-241.932	-80.229	0.511	0.169
-240.917	-79.592	-0.289	0.096
-239.903	-22.111	-0.270	-0.161
-238.888	180.347	0.139	0.201
-237.873	213.241	0.032	-0.050
-236.859	183.748	0.198	0.288
-235.844	-135.526	-0.053	0.006
-234.830	59.958	-0.178	0.173
-233.815	206.230	0.019	-0.029
-232.800	-55.451	0.378	0.167
-231.786	288.925	-0.129	-0.230
-230.771	-11.251	0.059	-0.038
-229.757	-150.539	-0.202	0.015
-228.742	36.715	0.148	-0.129
-227.727	-91.191	-0.366	0.103
-226.713	800.000	-0.091	-0.283
-225.698	-69.407	-0.038	0.014
-224.684	-57.378	-0.099	-0.043
-223.669	-69.206	0.203	-0.077
-222.655	-66.086	0.151	0.059
-221.640	177.056	0.069	0.099
-220.625	-125.312	0.551	0.083
-219.611	105.706	-0.110	0.129
-218.596	-133.376	-0.503	-0.062
-217.582	-66.449	0.458	0.179
-216.567	174.217	0.066	0.094
-215.552	115.143	0.182	-0.219
-214.538	-200.000	-0.004	-0.022
-213.523	800.000	-0.084	-0.297
-212.509	800.000	-0.062	0.185
-211.494	-137.808	-0.140	-0.015
-210.479	219.605	0.161	0.254
-209.465	-200.000	-0.034	0.198
-208.450	11.098	0.104	-0.078
-207.436	-97.482	-0.132	0.034
-206.421	-29.936	-0.089	-0.050
-205.406	-94.121	0.062	0.017
-204.392	-171.436	0.220	-0.007
-203.377	-111.571	0.202	-0.040
-202.363	122.480	-0.226	0.278
-201.348	172.092	-0.125	0.177
-200.333	-94.448	-0.343	-0.092
-199.319	52.528	-0.143	-0.135
-198.304	-96.466	-0.205	0.053
-197.290	-106.891	0.170	-0.037
-196.275	800.000	-0.035	0.137
-195.260	-97.165	-0.349	0.090
-194.246	-40.788	-0.309	-0.158
-193.231	-73.363	-0.256	0.092
-192.217	-135.958	0.404	0.047
-191.202	-98.031	0.179	-0.045
-190.187	77.423	0.118	0.123
-189.173	-70.477	-0.082	0.031
-188.158	800.000	0.088	-0.309
-187.144	-30.508	0.140	0.078
-186.129	26.624	0.212	0.174
-185.114	-200.000	-0.043	0.320
-184.100	-200.000	-0.028	-0.255
-183.085	800.000	-0.097	0.331
-182.071	-80.460	-0.068	-0.022
-181.056	757.055	-0.077	-0.205
-180.042	800.000	-0.058	0.204
-179.027	-200.000	-0.038	-0.250
-178.012	-26.726	-0.073	0.042
-176.998	-30.298	-0.498	0.278
-175.983	-159.123	0.129	0.007
-174.969	-200.000	-0.034	0.464
-173.954	800.000	0.162	0.523
-172.939	26.034	-0.160	-0.131
-171.925	-200.000	0.088	-0.440
-170.910	-49.139	0.100	0.047
-169.896	315.411	-0.198	-0.367
-168.881	270.193	0.029	-0.050
-167.866	-23.260	-0.096	0.056
-166.852	800.000	0.015	0.062
-165.837	217.155	-0.077	-0.120
-164.823	-24.322	0.125	0.073
-163.808	-97.096	-0.268	-0.069
-162.793	-200.000	0.034	0.207
-161.779	140.927	0.185	0.241
-160.764	-33.758	0.206	0.111
-159.750	-11.551	0.298	-0.193
-158.735	-88.092	0.352	-0.104
-157.720	-187.059	0.041	-0.001
-156.706	17.375	0.249	0.194
-155.691	-143.128	0.206	0.019
-154.677	-78.162	0.328	0.111
-153.662	790.821	-0.176	0.474
-152.647	-133.024	-0.019	-0.002
-151.633	-122.725	-0.113	0.018
-150.618	-200.000	0.022	-0.388
-149.604	800.000	0.039	0.121
-148.589	-32.712	0.140	0.077
-147.574	-158.578	0.296	-0.017
-146.560	-178.135	0.142	-0.003
-145.545	-55.565	-0.083	-0.036
-144.531	-17.945	0.115	-0.071
-143.516	146.517	-0.193	0.255
-142.502	-139.692	-0.104	-0.011
-141.487	115.624	-0.132	0.158
-140.472	800.000	0.117	-0.401
-139.458	-200.000	0.010	-0.127
-138.443	-200.000	0.005	-0.169
-137.429	255.491	-0.221	-0.372
-136.414	-26.605	0.169	0.097
-135.399	-200.000	-0.005	0.373
-134.385	-200.000	-0.022	0.099
-133.370	-102.508	0.123	-0.029
-132.356	-200.000	-0.046	0.257
-131.341	-200.000	-0.006	0.131
-130.326	-90.022	-0.379	0.108
-129.312	-200.000	0.057	0.282
-128.297	-153.328	-0.128	0.009
-127.283	103.398	0.068	-0.078
-126.268	-114.549	-0.104	0.020
-125.253	-42.776	0.279	0.139
-124.239	184.529	-0.084	-0.122
-123.224	-42.563	0.612	0.306
-122.210	423.252	0.102	0.216
