DTS Sentinel unit serial number:	SN413079Multiplexer serial number:	ORYXHardware model number:	OX4-SRSoftware version number:	ORYX F/W v4.00 Oryx Data Collector v3.7.2.0data status	okinstallation	princeton_trtdifferential loss correction	single-endedforward channel	channel 3reverse channel	N/Adate	2019/09/12time	19:20:04forward acquisition time	15.00reverse acquisition time	0.00gamma	496.2192k internal	0.2320k external	0.2320temperature offset calibration	1.0106default loss term (dB/km)	0.3790temperature slope calibration	1.0000multiplexer offset coefficient	1.0000multiplexer slope coefficient	1.0000fibre end	0.00T internal ref (°C)	32.44T ext. ref 1 (°C)	3.18T ext. ref 2 (°C)	26.98length (m)	temperature (°C)	Stokes	anti-Stokes-747.200	-55.441	-0.254	-0.115
-746.185	456.229	-0.225	-0.504
-745.171	140.222	0.264	-0.352
-744.156	-200.000	0.026	-0.143
-743.142	31.587	0.240	0.209
-742.127	-104.117	-0.120	-0.028
-741.112	147.965	0.318	-0.433
-740.098	167.773	0.109	-0.157
-739.083	-105.402	-0.486	-0.112
-738.069	721.511	0.407	1.095
-737.054	520.678	0.420	0.995
-736.039	800.000	-0.108	0.414
-735.025	134.376	0.014	-0.019
-734.010	208.606	-0.207	-0.328
-732.996	-200.000	-0.127	-1.113
-731.981	-115.769	0.325	0.061
-730.966	-200.000	-0.056	-0.256
-729.952	32.283	-0.238	-0.207
-728.937	77.060	-0.123	0.132
-727.923	386.189	-0.101	-0.210
-726.908	691.105	0.316	-0.835
-725.894	-200.000	0.136	0.804
-724.879	237.782	-0.126	-0.212
-723.864	34.842	0.094	-0.083
-722.850	457.097	-0.324	-0.726
-721.835	76.568	-0.359	-0.384
-720.821	-99.788	-0.104	0.026
-719.806	-200.000	0.002	-0.227
-718.791	-8.366	-0.543	-0.369
-717.777	86.702	-0.608	-0.678
-716.762	-80.399	-0.422	-0.142
-715.748	4.669	0.491	0.364
-714.733	-147.530	-0.515	0.044
-713.718	158.884	0.034	0.048
-712.704	-73.245	-0.360	0.133
-711.689	-99.557	-0.096	-0.024
-710.675	72.621	-0.424	-0.447
-709.660	481.661	0.123	-0.281
-708.645	-122.552	-0.291	0.048
-707.631	-200.000	-0.019	0.600
-706.616	715.881	-0.079	-0.213
-705.602	39.175	-0.592	-0.535
-704.587	-108.770	0.303	-0.066
-703.572	467.595	-0.229	-0.519
-702.558	55.551	-0.694	-0.678
-701.543	-51.105	-0.432	0.204
-700.529	-114.253	0.364	0.071
-699.514	-200.000	0.148	-0.763
-698.499	-139.508	0.424	0.046
-697.485	-30.259	-0.400	0.229
-696.470	-144.990	-0.037	0.003
-695.456	52.620	-0.541	-0.522
-694.441	-108.021	0.223	0.049
-693.426	800.000	-0.218	0.625
-692.412	-200.000	0.027	0.710
-691.397	-74.593	-0.813	0.295
-690.383	-168.117	-0.165	0.006
-689.368	-200.000	0.074	-0.362
-688.354	54.449	0.653	-0.635
-687.339	111.785	-0.246	0.299
-686.324	-181.716	-0.211	-0.004
-685.310	-200.000	-0.053	-0.523
-684.295	800.000	0.149	-0.623
-683.281	-37.186	-0.508	-0.274
-682.266	-55.521	0.294	-0.133
-681.251	71.065	0.501	0.524
-680.237	-4.558	-0.853	0.594
-679.222	204.838	-0.118	-0.185
-678.208	2.559	0.477	0.349
-677.193	320.090	0.338	0.647
-676.178	-39.870	-0.501	-0.264
-675.164	92.427	0.131	0.149
-674.149	68.551	0.130	-0.134
-673.135	-118.544	-0.924	-0.165
-672.120	87.421	0.395	-0.441
-671.105	-134.686	-0.852	0.105
-670.091	-200.000	-0.087	-1.117
-669.076	116.444	-0.176	-0.218
-668.062	800.000	-0.123	-0.404
-667.047	800.000	-0.229	0.857
-666.032	118.141	-0.489	0.608
-665.018	-149.470	-0.307	0.025
-664.003	605.387	0.163	0.409
-662.989	-23.411	0.350	0.212
-661.974	800.000	-0.131	0.481
-660.959	745.113	-0.164	0.445
-659.945	-64.377	0.619	-0.254
-658.930	-78.384	0.524	0.181
-657.916	-145.205	0.265	0.024
-656.901	-44.786	0.537	-0.270
-655.886	800.000	-0.186	-0.759
-654.872	-22.582	-0.463	0.282
-653.857	42.513	0.274	0.251
-652.843	74.279	-0.365	-0.386
-651.828	-71.920	0.123	-0.046
-650.814	-179.753	-0.718	0.016
-649.799	1.446	-0.328	0.237
-648.784	190.851	0.086	0.131
-647.770	-41.360	-0.585	-0.304
-646.755	158.332	-0.177	0.248
-645.741	715.581	0.237	0.633
-644.726	-200.000	-0.110	0.619
-643.711	519.330	-0.072	0.170
-642.697	3.745	-0.520	-0.383
-641.682	688.781	0.188	-0.496
-640.668	-170.425	-0.517	-0.018
-639.653	-200.000	-0.053	0.895
-638.638	100.074	0.474	0.553
-637.624	-200.000	-0.024	0.414
-636.609	437.202	-0.392	-0.859
-635.595	182.515	0.093	-0.138
-634.580	-200.000	0.059	-0.760
-633.565	-75.618	0.475	0.170
-632.551	53.595	0.597	0.577
-631.536	-200.000	0.089	-0.774
-630.522	-56.533	-0.543	0.242
-629.507	-200.000	0.010	-0.463
-628.492	-120.976	0.922	-0.156
-627.478	-41.394	-0.494	-0.256
-626.463	800.000	-0.130	-0.427
-625.449	-83.602	-0.526	-0.169
-624.434	800.000	-0.313	-0.925
-623.419	148.458	0.212	0.289
-622.405	32.336	0.144	-0.125
-621.390	52.602	-0.226	0.217
-620.376	800.000	-0.436	1.220
-619.361	800.000	0.186	0.590
-618.346	320.044	-0.068	-0.130
-617.332	9.788	0.218	-0.166
-616.317	-133.721	-0.873	0.110
-615.303	-48.826	-0.612	0.295
-614.288	695.056	-0.170	-0.449
-613.273	-200.000	0.156	-0.827
-612.259	-163.410	-0.410	-0.020
-611.244	-200.000	-0.034	0.553
-610.230	568.556	0.288	0.705
-609.215	800.000	0.122	0.378
-608.201	240.820	-0.260	0.437
-607.186	800.000	0.082	-0.342
-606.171	-200.000	-0.100	0.495
-605.157	458.029	0.416	0.930
-604.142	9.218	0.576	0.438
-603.128	-42.061	0.058	0.030
-602.113	-5.172	0.428	-0.296
-601.098	530.386	0.360	-0.856
-600.084	440.341	-0.083	-0.182
-599.069	-141.282	0.554	0.057
-598.055	154.377	-0.320	0.442
-597.040	-200.000	0.076	1.264
-596.025	203.620	-0.225	-0.350
-595.011	-128.882	0.088	0.012
-593.996	513.317	-0.249	-0.583
-592.982	55.866	-0.322	-0.314
-591.967	-27.252	0.400	0.234
-590.952	108.452	-0.547	0.656
-589.938	31.745	-0.616	0.533
-588.923	-200.000	0.060	-0.283
-587.909	800.000	-0.250	1.037
-586.894	373.203	0.256	-0.522
-585.879	-100.595	-0.660	-0.164
-584.865	532.390	0.068	-0.162
-583.850	-83.125	0.372	0.120
-582.836	-200.000	0.005	0.028
-581.821	259.838	0.316	0.548
-580.806	-200.000	-0.018	-0.199
-579.792	236.103	-0.410	0.682
-578.777	7.189	-0.392	-0.294
-577.763	209.064	-0.235	-0.369
-576.748	-89.805	-0.317	0.093
-575.733	127.895	-0.195	-0.249
-574.719	17.714	0.563	-0.450
-573.704	800.000	-0.333	-0.931
-572.690	-61.251	-0.063	0.027
-571.675	-200.000	0.021	0.129
-570.661	-40.168	-0.374	-0.196
-569.646	-84.325	0.580	0.184
-568.631	673.429	0.222	0.579
-567.617	-200.000	-0.064	0.421
-566.602	-153.696	-0.160	0.011
-565.588	56.608	0.363	-0.354
-564.573	-34.696	0.415	0.228
-563.558	468.274	0.185	0.416
-562.544	-200.000	-0.117	0.586
-561.529	-69.181	-0.776	0.300
-560.515	-169.633	-0.456	0.017
-559.500	270.428	0.320	-0.564
-558.485	-95.794	-0.422	0.113
-557.471	-193.127	1.069	-0.010
-556.456	38.701	-0.201	0.180
-555.442	-200.000	-0.062	0.771
-554.427	83.318	-0.468	0.511
-553.412	-119.877	-0.421	0.073
-552.398	25.137	0.377	0.314
-551.383	-46.422	-0.554	0.273
-550.369	-81.375	0.119	0.039
-549.354	-50.262	-0.400	-0.190
-548.339	662.920	0.182	0.472
-547.325	137.270	-0.452	-0.594
-546.310	98.900	0.553	0.641
-545.296	800.000	0.098	-0.336
-544.281	305.819	-0.443	-0.826
-543.266	-43.910	-0.686	-0.346
-542.252	173.055	0.197	0.285
-541.237	-69.626	-0.654	0.251
-540.223	71.596	0.317	-0.331
-539.208	-200.000	-0.104	-0.681
-538.193	188.772	0.177	-0.266
-537.179	-5.804	-0.345	0.237
-536.164	800.000	-0.120	-0.474
-535.150	101.510	-0.379	0.443
-534.135	-145.399	0.255	0.023
-533.121	-22.036	0.516	-0.314
-532.106	-200.000	0.064	0.391
-531.091	-200.000	-0.026	0.156
-530.077	-64.560	0.485	-0.198
-529.062	-200.000	0.076	-0.820
-528.048	490.308	-0.193	0.443
-527.033	44.905	0.571	-0.527
-526.018	-75.952	-0.557	-0.198
-525.004	-200.000	-0.016	0.094
-523.989	24.668	-0.371	-0.308
-522.975	696.505	-0.175	-0.460
-521.960	800.000	0.123	-0.421
-520.945	391.755	-0.220	-0.458
-519.931	-112.758	0.678	-0.135
-518.916	-49.853	0.616	0.293
-517.902	-195.828	-1.084	-0.008
-516.887	-24.571	0.487	-0.290
-515.872	-158.793	0.729	0.042
-514.858	-65.222	-0.784	0.316
-513.843	485.910	-0.244	-0.556
-512.829	-21.592	-0.593	0.362
-511.814	800.000	-0.242	1.022
-510.799	-155.057	0.103	-0.007
-509.785	-5.981	0.158	-0.109
-508.770	-6.770	0.529	-0.360
-507.756	-200.000	-0.097	0.553
-506.741	-126.004	0.302	0.045
-505.726	-113.144	0.354	-0.070
-504.712	-111.426	0.286	-0.058
-503.697	-68.136	0.910	-0.355
-502.683	219.970	0.459	-0.737
-501.668	-200.000	-0.059	-1.157
-500.653	800.000	0.423	-1.435
-499.639	800.000	-0.064	0.237
-498.624	-71.516	-0.780	-0.292
-497.610	-137.566	-0.485	-0.055
-496.595	-80.151	0.652	-0.219
-495.581	277.810	-0.310	-0.553
-494.566	294.015	0.224	0.410
-493.551	-200.000	0.035	0.193
-492.537	-200.000	0.031	-0.564
-491.522	-135.259	0.251	0.030
-490.508	-39.127	0.372	0.196
-489.493	-125.974	0.137	-0.021
-488.478	-85.111	0.700	-0.219
-487.464	25.436	-0.441	-0.367
-486.449	-200.000	0.057	0.281
-485.435	122.041	0.629	0.785
-484.420	286.410	0.296	-0.534
-483.405	-78.748	-0.567	0.194
-482.391	-124.648	-1.179	-0.183
-481.376	645.725	-0.535	-1.368
-480.362	-200.000	-0.054	0.761
-479.347	-40.391	-0.264	0.137
-478.332	-124.413	-0.444	0.069
-477.318	477.577	0.216	-0.490
-476.303	47.177	0.575	0.535
-475.289	449.373	-0.476	-1.051
-474.274	-33.791	0.631	0.348
-473.259	-200.000	0.021	-0.416
-472.245	-200.000	0.048	0.636
-471.230	103.967	0.402	-0.473
-470.216	-200.000	-0.065	-1.142
-469.201	-4.264	-0.631	-0.437
-468.186	-123.120	0.758	-0.122
-467.172	-200.000	0.009	-0.118
-466.157	-137.656	0.343	0.039
-465.143	800.000	-0.241	0.706
-464.128	-51.355	0.157	0.073
-463.113	-63.076	-0.909	0.375
-462.099	-106.640	-0.640	0.143
-461.084	326.747	0.060	-0.115
-460.070	-84.943	-0.344	-0.108
-459.055	188.981	-0.386	0.578
-458.040	193.716	-0.208	0.314
-457.026	638.314	0.202	0.512
-456.011	800.000	0.100	0.345
-454.997	-200.000	0.150	-0.728
-453.982	97.632	-0.585	0.672
-452.968	-112.709	-0.390	0.078
-451.953	64.666	-0.569	0.574
-450.938	23.612	0.277	0.228
-449.924	-131.788	0.934	0.122
-448.909	149.028	-0.520	-0.703
-447.895	443.547	0.436	0.956
-446.880	86.247	0.264	-0.291
-445.865	-130.733	0.928	-0.125
-444.851	8.825	0.251	0.189
-443.836	-57.699	-0.238	0.104
-442.822	307.270	-0.212	-0.394
-441.807	-200.000	0.081	-0.544
-440.792	-97.891	0.374	0.096
-439.778	-20.221	0.353	-0.218
-438.763	67.704	0.285	-0.291
-437.749	49.765	-0.482	0.454
-436.734	34.665	-0.759	0.663
-435.719	800.000	-0.190	0.718
-434.705	-142.929	0.218	0.021
-433.690	-169.738	1.162	-0.042
-432.676	800.000	-0.137	-0.519
-431.661	-200.000	-0.005	0.748
-430.646	-37.748	-0.415	0.221
-429.632	403.997	-0.095	-0.199
-428.617	-200.000	-0.031	0.138
-427.603	394.544	-0.450	0.937
-426.588	256.819	-0.339	-0.581
-425.573	-172.523	0.396	0.013
-424.559	-200.000	-0.138	0.627
-423.544	-108.047	-0.550	-0.119
-422.530	276.939	-0.183	0.325
-421.515	81.475	-0.213	-0.230
-420.500	-200.000	0.031	0.742
-419.486	-200.000	0.031	0.655
-418.471	-200.000	0.092	-0.705
-417.457	121.440	0.266	-0.331
-416.442	-200.000	0.058	-0.413
-415.428	-142.232	-0.219	0.022
-414.413	-4.141	0.497	-0.343
-413.398	121.983	-0.521	0.649
-412.384	800.000	0.144	0.439
-411.369	-137.559	-0.178	0.020
-410.355	-0.408	-0.238	0.169
-409.340	-119.815	-0.130	0.022
-408.325	-200.000	-0.043	0.608
-407.311	-200.000	-0.183	-0.847
-406.296	101.767	-0.429	-0.500
-405.282	177.804	0.384	-0.558
-404.267	-200.000	0.058	0.538
-403.252	-183.848	0.339	0.006
-402.238	134.508	0.618	-0.799
-401.223	-22.251	0.922	-0.558
-400.209	238.486	0.272	-0.451
-399.194	48.093	0.794	0.741
-398.179	-77.160	-0.187	-0.065
-397.165	800.000	0.155	0.593
-396.150	14.240	0.217	-0.169
-395.136	76.495	-0.552	0.584
-394.121	-135.101	0.261	-0.031
-393.106	108.271	0.209	0.248
-392.092	36.858	0.386	0.341
-391.077	-200.000	-0.019	0.317
-390.063	-200.000	-0.043	-0.510
-389.048	-200.000	-0.037	-0.295
-388.033	-118.268	-0.576	-0.102
-387.019	-13.360	-0.188	-0.122
-386.004	-65.419	0.519	0.208
-384.990	168.022	0.037	-0.053
-383.975	84.984	-0.295	-0.322
-382.960	114.702	-0.396	-0.481
-381.946	79.675	-0.174	-0.186
-380.931	74.664	0.662	-0.694
-379.917	17.280	0.369	0.292
-378.902	738.646	0.205	0.549
-377.888	-168.970	-0.301	-0.011
-376.873	503.437	-0.191	-0.441
-375.858	-200.000	0.140	0.756
-374.844	193.954	0.278	0.420
-373.829	-200.000	0.069	-0.604
-372.815	-58.198	-0.303	-0.132
-371.800	-135.762	-0.272	-0.032
-370.785	-74.365	0.391	-0.141
-369.771	-106.806	0.523	0.116
-368.756	-58.438	-0.601	-0.260
-367.742	389.558	-0.131	0.271
-366.727	-81.569	-0.735	0.241
-365.712	713.377	0.139	0.367
-364.698	372.543	-0.137	-0.277
-363.683	236.268	0.269	0.443
-362.669	-52.620	-0.464	-0.213
-361.654	-200.000	-0.087	-0.533
-360.639	-33.570	0.630	0.347
-359.625	219.284	-0.388	0.619
-358.610	-9.008	0.341	-0.227
-357.596	245.618	-0.216	-0.362
-356.581	28.695	-0.668	-0.563
-355.566	224.240	0.431	0.694
-354.552	-143.617	-0.566	-0.054
-353.537	-58.198	0.219	0.095
-352.523	-21.835	-0.200	0.121
-351.508	-200.000	0.047	-0.257
-350.493	-79.612	-0.434	-0.146
-349.479	-132.280	0.441	-0.057
-348.464	-117.969	0.248	0.044
-347.450	-114.016	-0.674	0.130
-346.435	-80.589	0.139	-0.046
-345.420	-53.569	0.922	-0.420
-344.406	-100.620	-0.264	-0.065
-343.391	154.526	0.415	-0.567
-342.377	339.900	-0.164	0.318
-341.362	423.582	-0.124	-0.266
-340.348	-200.000	-0.013	-0.608
-339.333	-72.008	-0.723	-0.267
-338.318	142.716	0.159	0.210
-337.304	-200.000	0.034	1.055
-336.289	110.318	0.379	0.453
-335.275	-149.472	-0.228	-0.018
-334.260	-38.977	-0.455	-0.238
-333.245	-23.432	-0.172	-0.103
-332.231	-200.000	-0.005	0.192
-331.216	-13.831	0.223	0.143
-330.202	-134.214	1.483	0.182
-329.187	222.290	0.277	-0.443
-328.172	189.077	0.272	-0.405
-327.158	-200.000	0.025	0.130
-326.143	113.731	-0.316	-0.382
-325.129	513.443	-0.101	-0.235
-324.114	-61.239	0.405	-0.170
-323.099	245.057	-0.242	-0.405
-322.085	84.238	0.711	0.773
-321.070	275.644	-0.118	-0.208
-320.056	-200.000	-0.155	-0.830
-319.041	126.331	0.179	-0.225
-318.026	51.823	-0.413	0.391
-317.012	-36.536	0.601	0.321
-315.997	159.406	0.323	0.446
-314.983	800.000	0.095	-0.281
-313.968	2.254	0.314	0.225
-312.953	-66.103	0.404	-0.160
-311.939	-3.422	0.450	-0.311
-310.924	800.000	-0.071	0.221
-309.910	94.598	-0.144	0.163
-308.895	43.477	-0.437	0.397
-307.880	97.484	-0.181	-0.206
-306.866	105.670	0.394	-0.463
-305.851	-127.981	-0.709	-0.101
-304.837	-66.250	0.865	-0.342
-303.822	403.965	0.219	-0.459
-302.807	-118.152	-0.277	-0.049
-301.793	8.492	-0.430	0.322
-300.778	-74.535	-0.261	0.094
-299.764	574.835	0.231	0.560
-298.749	-43.387	0.573	0.288
-297.735	120.364	0.211	-0.260
-296.720	-32.733	-0.167	0.093
-295.705	-62.242	-0.305	-0.126
-294.691	-81.046	-1.071	0.352
-293.676	-86.305	0.198	-0.060
-292.662	800.000	-0.267	0.887
-291.647	20.084	-0.976	0.782
-290.632	161.561	0.173	0.241
-289.618	405.211	0.387	-0.809
-288.603	-140.329	0.794	-0.082
-287.589	-9.265	-0.206	-0.137
-286.574	-128.242	0.421	0.060
-285.559	-87.094	0.782	-0.236
-284.545	-125.043	-1.138	-0.174
-283.530	-200.000	-0.062	0.424
-282.516	-85.195	-0.921	-0.286
-281.501	101.502	0.065	-0.075
-280.486	-49.972	0.125	-0.059
-279.472	-138.807	0.406	-0.044
-278.457	-40.149	-0.228	0.118
-277.443	-52.058	0.334	0.154
-276.428	71.876	0.153	-0.158
-275.413	-33.324	0.648	-0.356
-274.399	-95.540	1.285	-0.342
-273.384	-81.301	-0.432	-0.142
-272.370	-200.000	0.024	-0.216
-271.355	-200.000	0.028	-0.605
-270.340	800.000	-0.021	-0.067
-269.326	-200.000	-0.047	0.570
-268.311	530.211	0.214	0.503
-267.297	388.844	0.470	0.966
-266.282	-142.891	-0.804	-0.077
-265.267	-200.000	-0.076	-0.835
-264.253	800.000	0.108	-0.460
-263.238	800.000	-0.223	0.746
-262.224	-200.000	-0.018	0.236
-261.209	-68.319	0.491	-0.190
-260.195	703.872	-0.190	-0.498
-259.180	28.651	0.463	-0.389
-258.165	800.000	-0.239	0.767
-257.151	-125.011	-0.112	0.017
-256.136	-14.511	-0.158	-0.101
-255.122	281.231	-0.395	-0.702
-254.107	161.022	0.414	0.574
-253.092	575.729	-0.430	1.042
-252.078	258.419	-0.187	0.319
-251.063	226.937	0.614	0.989
-250.049	51.717	0.501	0.473
-249.034	-114.436	-0.139	0.027
-248.019	800.000	-0.168	-0.479
-247.005	800.000	0.160	0.482
-245.990	-200.000	-0.003	0.530
-244.976	31.667	-0.570	-0.486
-243.961	-200.000	-0.038	0.203
-242.946	-148.846	0.621	0.050
-241.932	41.151	0.333	0.299
-240.917	32.147	-0.382	-0.326
-239.903	-137.974	-0.685	0.076
-238.888	-54.365	-0.711	-0.320
-237.873	-128.505	0.087	-0.012
-236.859	-200.000	0.003	0.061
-235.844	-35.226	-1.077	-0.581
-234.830	-24.161	-0.641	-0.379
-233.815	800.000	0.184	0.533
-232.800	-10.033	0.538	0.354
-231.786	-36.423	-0.466	0.249
-230.771	-74.709	0.543	-0.194
-229.757	-190.109	0.715	-0.008
-228.742	-200.000	-0.045	-0.362
-227.727	81.936	0.238	0.256
-226.713	-200.000	-0.072	-0.832
-225.698	67.565	0.073	-0.074
-224.684	-200.000	-0.099	-0.477
-223.669	800.000	0.141	0.515
-222.655	-117.102	-1.100	-0.199
-221.640	31.932	-0.234	-0.200
-220.625	-112.273	0.454	-0.090
-219.611	-179.464	0.825	0.018
-218.596	82.259	0.462	0.496
-217.582	-182.812	-0.618	0.011
-216.567	-63.379	-0.785	0.320
-215.552	140.091	0.238	0.310
-214.538	-117.961	0.782	0.139
-213.523	800.000	-0.027	0.075
-212.509	259.606	0.206	0.352
-211.494	579.062	0.055	-0.132
-210.479	552.438	-0.218	-0.519
-209.465	800.000	-0.013	0.047
-208.450	56.159	-0.352	0.339
-207.436	-59.012	0.265	0.113
-206.421	-200.000	0.016	-0.989
-205.406	-170.820	-0.528	0.018
-204.392	-200.000	-0.011	-0.811
-203.377	800.000	-0.055	-0.170
-202.363	-200.000	-0.030	0.303
-201.348	-36.106	0.375	0.200
-200.333	-200.000	-0.082	0.464
-199.319	-152.699	-0.611	0.043
-198.304	800.000	0.207	-0.610
-197.290	-151.792	0.394	0.029
-196.275	800.000	-0.257	-0.795
-195.260	466.366	-0.132	-0.294
-194.246	-86.979	0.360	0.109
-193.231	314.437	0.116	-0.216
-192.217	-150.614	-0.624	-0.047
-191.202	193.203	-0.176	0.264
-190.187	-176.459	0.319	0.008
-189.173	-200.000	-0.100	0.643
-188.158	-85.405	0.421	0.130
-187.144	-117.827	0.341	-0.061
-186.129	651.946	-0.263	0.668
-185.114	6.252	0.048	-0.035
-184.100	-115.176	0.487	0.091
-183.085	70.053	-0.425	-0.434
-182.071	-200.000	0.027	0.252
-181.056	35.652	0.172	0.150
-180.042	-129.685	0.603	0.082
-179.027	-135.679	0.376	-0.044
-178.012	800.000	-0.059	-0.204
-176.998	800.000	0.204	-0.871
-175.983	124.960	0.299	-0.372
-174.969	33.391	-0.213	0.183
-173.954	-81.837	0.658	-0.213
-172.939	-200.000	0.025	-0.202
-171.925	-200.000	0.003	1.049
-170.910	190.711	0.487	-0.723
-169.896	180.981	-0.547	-0.795
-168.881	800.000	0.112	-0.472
-167.866	80.725	0.187	0.200
-166.852	800.000	0.092	-0.300
-165.837	800.000	0.142	-0.520
-164.823	272.243	0.451	0.787
-163.808	-200.000	0.007	0.486
-162.793	764.753	-0.225	-0.603
-161.779	-171.420	-0.308	0.010
-160.764	-78.576	1.062	0.359
-159.750	208.982	0.215	-0.333
-158.735	342.892	0.246	0.477
-157.720	170.928	-0.517	-0.733
-156.706	214.537	-0.327	-0.513
-155.691	394.870	-0.081	0.167
-154.677	27.432	-0.609	0.506
-153.662	7.757	-0.874	0.647
-152.647	77.027	0.258	-0.271
-151.633	-4.679	-0.285	0.194
-150.618	24.962	1.066	0.873
-149.604	-76.055	0.143	0.050
-148.589	-74.807	0.735	0.261
-147.574	800.000	-0.181	-0.592
-146.560	-27.773	-0.415	-0.238
-145.545	-53.049	0.552	-0.251
-144.531	-138.463	-0.416	0.045
-143.516	-24.327	0.170	-0.100
-142.502	-154.730	-0.104	0.007
-141.487	563.001	0.081	-0.193
-140.472	-108.334	0.188	0.040
-139.458	103.978	0.055	0.064
-138.443	219.808	0.022	-0.034
-137.429	-64.610	0.963	-0.386
-136.414	-200.000	0.114	0.731
-135.399	-122.255	-0.812	0.131
-134.385	-36.242	0.279	0.148
-133.370	361.410	-0.210	0.415
-132.356	133.254	0.389	0.496
-131.341	37.340	0.259	-0.226
-130.326	800.000	-0.165	-0.461
-129.312	-39.518	0.441	-0.228
-128.297	169.541	-0.301	-0.424
-127.283	800.000	-0.044	-0.182
-126.268	-33.898	-0.078	-0.042
-125.253	-200.000	0.055	-0.559
-124.239	-78.359	0.391	0.132
-123.224	150.706	-0.249	-0.334
-122.210	-70.671	-0.497	-0.185
