DTS Sentinel unit serial number:	SN413079Multiplexer serial number:	ORYXHardware model number:	OX4-SRSoftware version number:	ORYX F/W v4.00 Oryx Data Collector v3.7.2.0data status	okinstallation	princeton_trtdifferential loss correction	single-endedforward channel	channel 3reverse channel	N/Adate	2019/09/13time	22:04:35forward acquisition time	60.00reverse acquisition time	0.00gamma	496.2192k internal	0.2335k external	0.2335temperature offset calibration	1.0062default loss term (dB/km)	0.3790temperature slope calibration	1.0000multiplexer offset coefficient	1.0000multiplexer slope coefficient	1.0000fibre end	0.00T internal ref (°C)	27.97T ext. ref 1 (°C)	3.24T ext. ref 2 (°C)	22.70length (m)	temperature (°C)	Stokes	anti-Stokes-747.200	36.717	-0.297	0.264
-746.185	179.197	-0.235	-0.345
-745.171	800.000	0.078	0.316
-744.156	-200.000	-0.009	0.131
-743.142	-28.700	0.386	-0.223
-742.127	281.326	-0.168	-0.303
-741.112	37.496	-0.123	-0.110
-740.098	-100.151	-0.208	0.052
-739.083	-200.000	-0.002	0.206
-738.069	-200.000	0.025	-0.120
-737.054	-22.750	-0.184	0.111
-736.039	65.304	-0.159	-0.161
-735.025	-124.578	-0.130	-0.020
-734.010	-64.999	-0.298	-0.121
-732.996	800.000	0.040	0.115
-731.981	70.686	-0.086	-0.090
-730.966	-53.228	0.149	-0.069
-729.952	800.000	0.078	-0.282
-728.937	149.256	-0.065	-0.088
-727.923	191.535	0.168	-0.254
-726.908	-112.476	0.347	-0.070
-725.894	69.697	-0.205	-0.212
-724.879	800.000	-0.063	0.218
-723.864	-200.000	-0.068	0.353
-722.850	800.000	0.114	-0.329
-721.835	651.477	0.059	-0.152
-720.821	235.248	0.023	-0.039
-719.806	49.750	-0.151	-0.143
-718.791	59.016	-0.291	0.287
-717.777	-63.031	-0.144	-0.060
-716.762	-200.000	-0.058	0.327
-715.748	-98.310	0.247	-0.064
-714.733	209.371	-0.104	0.163
-713.718	95.400	0.091	-0.104
-712.704	800.000	0.126	-0.438
-711.689	98.994	0.150	-0.173
-710.675	-200.000	-0.031	-0.177
-709.660	83.520	0.164	-0.179
-708.645	-10.172	-0.483	0.322
-707.631	-200.000	0.012	0.228
-706.616	420.887	-0.087	-0.188
-705.602	299.777	-0.058	0.108
-704.587	59.473	-0.245	-0.242
-703.572	178.592	-0.131	0.192
-702.558	-0.061	-0.275	-0.196
-701.543	430.936	0.039	0.085
-700.529	-66.745	-0.025	-0.010
-699.514	71.218	-0.243	-0.253
-698.499	-103.311	0.192	-0.045
-697.485	-200.000	0.048	-0.601
-696.470	96.962	-0.381	-0.438
-695.456	-200.000	0.041	-0.447
-694.441	-200.000	-0.026	-0.250
-693.426	800.000	-0.057	-0.176
-692.412	-96.409	-0.135	-0.036
-691.397	7.608	-0.084	0.063
-690.383	-72.273	0.164	0.061
-689.368	-200.000	0.033	-0.270
-688.354	583.883	0.121	0.298
-687.339	-200.000	-0.014	0.329
-686.324	-45.938	-0.151	0.075
-685.310	50.990	0.157	0.149
-684.295	60.980	-0.346	-0.345
-683.281	-55.989	-0.255	-0.114
-682.266	-200.000	-0.058	-0.372
-681.251	-181.530	0.167	0.003
-680.237	-200.000	-0.088	0.423
-679.222	617.981	-0.112	-0.281
-678.208	494.960	0.166	-0.383
-677.193	-26.508	0.059	0.035
-676.178	-42.482	-0.204	-0.104
-675.164	-200.000	0.032	-0.215
-674.149	-200.000	-0.016	-0.121
-673.135	54.603	0.342	-0.331
-672.120	662.076	-0.060	0.155
-671.105	-32.408	0.190	-0.106
-670.091	-64.172	0.104	-0.042
-669.076	-127.157	-0.212	-0.031
-668.062	-139.720	-0.337	-0.036
-667.047	-87.080	0.287	0.087
-666.032	-37.155	-0.160	0.086
-665.018	-149.682	-0.382	-0.030
-664.003	-143.310	-0.101	-0.010
-662.989	-200.000	0.004	-0.123
-661.974	-50.099	-0.365	0.173
-660.959	-33.587	0.181	-0.100
-659.945	-200.000	0.018	0.204
-658.930	-79.074	0.309	0.105
-657.916	11.407	0.175	0.134
-656.901	-200.000	-0.025	0.261
-655.886	800.000	-0.056	-0.179
-654.872	512.528	0.046	-0.108
-653.857	35.812	0.177	-0.156
-652.843	-73.600	0.391	-0.143
-651.828	-137.225	0.150	-0.017
-650.814	-200.000	-0.009	-0.197
-649.799	-31.046	-0.121	-0.068
-648.784	73.593	-0.168	0.176
-647.770	229.393	0.201	0.328
-646.755	101.394	-0.119	0.139
-645.741	53.386	0.073	-0.070
-644.726	259.952	0.130	0.225
-643.711	-200.000	0.017	-0.216
-642.697	69.006	-0.015	-0.015
-641.682	61.423	-0.116	0.115
-640.668	-99.233	0.095	0.024
-639.653	800.000	-0.025	0.103
-638.638	800.000	0.069	0.212
-637.624	-6.578	0.098	-0.067
-636.609	-2.209	0.093	-0.065
-635.595	0.244	0.177	0.127
-634.580	27.907	-0.197	0.166
-633.565	800.000	-0.094	0.276
-632.551	-59.195	-0.418	-0.180
-631.536	800.000	0.044	0.168
-630.522	2.567	0.244	-0.177
-629.507	75.047	0.062	0.066
-628.492	722.821	0.128	0.341
-627.478	-200.000	0.078	0.578
-626.463	-70.575	0.200	0.076
-625.449	559.912	-0.017	-0.041
-624.434	-127.388	-0.176	0.026
-623.419	642.403	0.090	0.230
-622.405	-43.008	0.394	-0.200
-621.390	-200.000	0.034	-0.228
-620.376	-200.000	0.078	-0.346
-619.361	-200.000	0.010	-0.149
-618.346	-71.730	-0.224	-0.083
-617.332	800.000	0.113	-0.342
-616.317	-83.465	0.187	-0.060
-615.303	23.376	-0.063	-0.052
-614.288	-106.100	0.205	-0.046
-613.273	32.710	0.102	-0.088
-612.259	454.244	0.131	-0.291
-611.244	73.832	0.037	-0.039
-610.230	6.748	0.014	-0.011
-609.215	-73.012	0.129	-0.047
-608.201	-200.000	-0.010	-0.185
-607.186	-25.112	0.163	-0.096
-606.171	122.990	0.165	0.207
-605.157	482.330	0.116	-0.264
-604.142	49.614	-0.214	-0.201
-603.128	-109.527	0.100	0.021
-602.113	800.000	0.041	0.115
-601.098	239.813	0.009	-0.015
-600.084	-200.000	0.050	0.338
-599.069	52.696	-0.068	0.065
-598.055	59.828	-0.238	-0.235
-597.040	-22.157	0.148	0.090
-596.025	-21.118	0.292	0.178
-595.011	800.000	-0.014	0.055
-593.996	-200.000	-0.023	0.112
-592.982	-87.782	0.114	0.034
-591.967	-86.853	-0.361	0.110
-590.952	276.630	0.051	0.091
-589.938	39.237	-0.113	-0.101
-588.923	79.831	-0.293	-0.314
-587.909	-123.341	-0.184	0.029
-586.894	800.000	0.016	0.070
-585.879	-200.000	-0.048	-0.241
-584.865	-200.000	0.023	0.265
-583.850	88.519	-0.405	0.450
-582.836	-200.000	-0.020	0.203
-581.821	-58.695	-0.099	0.043
-580.806	-14.633	-0.239	0.153
-579.792	379.460	0.015	-0.030
-578.777	-75.432	0.186	-0.066
-577.763	-12.840	-0.090	0.059
-576.748	-68.067	-0.245	-0.095
-575.733	300.703	-0.058	-0.108
-574.719	104.838	-0.057	-0.067
-573.704	721.325	-0.090	-0.239
-572.690	-200.000	0.014	-0.131
-571.675	720.709	-0.052	0.138
-570.661	282.478	-0.106	-0.190
-569.646	-113.656	0.242	-0.047
-568.631	368.458	-0.065	-0.132
-567.617	41.847	-0.143	0.130
-566.602	-42.049	-0.271	0.138
-565.588	-58.992	0.229	-0.099
-564.573	-119.430	-0.045	0.008
-563.558	800.000	0.070	-0.233
-562.544	-1.802	-0.179	-0.126
-561.529	-124.099	-0.020	-0.003
-560.515	-115.588	-0.145	0.027
-559.500	-77.221	0.193	-0.067
-558.485	-109.289	0.250	0.053
-557.471	125.931	0.032	0.040
-556.456	50.064	-0.161	0.152
-555.442	-154.721	0.157	-0.010
-554.427	-200.000	0.077	-0.415
-553.412	-96.154	0.192	-0.051
-552.398	800.000	0.022	0.087
-551.383	-108.615	-0.128	-0.027
-550.369	-116.744	-0.209	-0.038
-549.354	-88.866	-0.162	-0.048
-548.339	10.298	-0.166	-0.126
-547.325	8.983	0.207	0.156
-546.310	-200.000	0.012	-0.294
-545.296	102.921	-0.056	0.065
-544.281	57.673	0.166	0.162
-543.266	161.628	-0.067	0.093
-542.252	-200.000	-0.005	-0.105
-541.237	115.824	0.119	0.145
-540.223	-70.204	0.460	-0.174
-539.208	-200.000	0.003	0.039
-538.193	-115.110	0.049	0.009
-537.179	-33.475	0.200	0.110
-536.164	800.000	0.052	-0.163
-535.150	296.208	-0.071	0.130
-534.135	257.279	-0.054	-0.092
-533.121	-62.991	0.186	-0.076
-532.106	-149.187	-0.161	0.013
-531.091	-123.418	-0.110	0.018
-530.077	800.000	-0.111	-0.350
-529.062	800.000	0.065	-0.192
-528.048	38.330	0.183	-0.162
-527.033	-200.000	0.003	0.113
-526.018	359.703	0.144	-0.288
-525.004	-176.266	0.063	-0.002
-523.989	-100.863	0.044	0.011
-522.975	-85.842	0.141	-0.044
-521.960	-92.297	0.186	0.052
-520.945	48.124	0.131	0.122
-519.931	-200.000	-0.017	-0.108
-518.916	-72.729	-0.212	-0.078
-517.902	-63.836	-0.186	0.076
-516.887	-73.877	-0.281	-0.101
-515.872	135.293	-0.097	0.125
-514.858	288.954	0.116	0.209
-513.843	229.591	0.147	0.240
-512.829	24.618	-0.131	-0.108
-511.814	-94.657	-0.308	0.083
-510.799	25.642	0.071	0.059
-509.785	353.388	0.111	-0.219
-508.770	-137.334	-0.437	-0.049
-507.756	-200.000	0.020	0.098
-506.741	-200.000	0.029	-0.276
-505.726	7.366	-0.250	0.186
-504.712	-12.502	-0.159	0.104
-503.697	76.117	-0.156	0.164
-502.683	-200.000	0.002	-0.160
-501.668	-127.589	-0.138	0.020
-500.653	-51.059	-0.226	-0.106
-499.639	293.194	0.148	0.269
-498.624	-137.924	0.139	0.015
-497.610	800.000	0.027	-0.103
-496.595	800.000	0.064	0.266
-495.581	69.392	0.062	-0.063
-494.566	-30.515	-0.036	-0.020
-493.551	78.094	-0.150	0.159
-492.537	-72.011	0.232	-0.086
-491.522	79.965	0.256	0.274
-490.508	23.430	-0.173	-0.141
-489.493	498.536	0.054	-0.123
-488.478	-74.802	-0.644	0.230
-487.464	-84.995	0.379	0.118
-486.449	-94.495	0.099	0.027
-485.435	-164.533	0.076	-0.003
-484.420	2.179	0.223	0.160
-483.405	800.000	0.066	0.242
-482.391	-200.000	-0.035	-0.171
-481.376	540.922	0.114	-0.271
-480.362	-200.000	0.036	-0.226
-479.347	-64.056	0.212	0.086
-478.332	-4.771	-0.087	-0.060
-477.318	172.605	-0.007	0.010
-476.303	309.069	-0.269	-0.500
-475.289	17.201	-0.146	0.115
-474.274	-59.417	0.300	0.128
-473.259	284.145	0.069	-0.123
-472.245	-113.550	0.243	-0.047
-471.230	23.500	-0.066	-0.054
-470.216	111.307	0.175	0.209
-469.201	316.052	-0.059	-0.111
-468.186	53.710	-0.166	-0.158
-467.172	-53.407	0.233	0.106
-466.157	160.354	-0.325	0.451
-465.143	800.000	0.077	-0.322
-464.128	31.344	0.202	0.172
-463.113	-105.624	-0.150	0.034
-462.099	800.000	-0.108	-0.425
-461.084	-119.713	-0.389	-0.067
-460.070	333.480	-0.161	0.309
-459.055	-196.081	0.294	0.002
-458.040	53.485	-0.170	-0.162
-457.026	57.182	-0.182	0.177
-456.011	-98.938	-0.166	0.042
-454.997	800.000	-0.056	-0.231
-453.982	562.597	0.076	0.183
-452.968	-79.451	0.301	0.101
-451.953	800.000	-0.088	0.355
-450.938	-29.818	0.108	0.061
-449.924	-122.147	-0.171	0.028
-448.909	-200.000	0.023	0.205
-447.895	315.343	0.097	0.182
-446.880	-111.924	-0.304	0.061
-445.865	-200.000	-0.007	0.214
-444.851	-91.365	0.080	-0.023
-443.836	-100.028	-0.111	0.027
-442.822	89.557	0.072	-0.079
-441.807	-111.626	0.278	-0.056
-440.792	87.978	-0.077	0.084
-439.778	48.765	0.165	-0.154
-438.763	800.000	0.028	-0.115
-437.749	-76.885	0.116	0.040
-436.734	-48.935	-0.095	-0.045
-435.719	80.335	-0.147	-0.157
-434.705	-200.000	0.010	-0.250
-433.690	-63.007	0.107	0.044
-432.676	34.034	0.255	0.220
-431.661	-91.880	0.481	0.135
-430.646	-200.000	-0.036	-0.178
-429.632	-200.000	0.241	0.001
-428.617	-44.966	-0.220	-0.109
-427.603	-98.568	-0.290	-0.074
-426.588	-135.689	0.316	0.037
-425.573	152.985	-0.159	-0.215
-424.559	174.212	-0.226	0.324
-423.544	-73.636	-0.084	-0.030
-422.530	88.466	-0.199	0.219
-421.515	375.077	0.208	-0.420
-420.500	-200.000	-0.006	-0.158
-419.486	-200.000	-0.053	-0.300
-418.471	-100.518	-0.135	-0.033
-417.457	23.452	-0.175	-0.143
-416.442	-75.186	-0.363	0.129
-415.428	-61.854	0.150	0.062
-414.413	-200.000	-0.015	-0.161
-413.398	800.000	-0.046	0.133
-412.384	40.677	0.333	-0.298
-411.369	27.033	0.122	-0.102
-410.355	-115.565	0.216	0.040
-409.340	478.467	0.055	-0.124
-408.325	-28.786	0.144	0.082
-407.311	200.394	-0.122	0.185
-406.296	447.424	0.107	0.234
-405.282	185.830	0.130	-0.192
-404.267	-55.149	0.235	-0.105
-403.252	-149.876	-0.371	-0.029
-402.238	186.925	0.111	0.163
-401.223	4.566	0.159	-0.116
-400.209	152.991	0.060	-0.081
-399.194	-184.761	-0.478	-0.008
-398.179	44.263	0.255	0.232
-397.165	12.330	0.176	-0.135
-396.150	-69.127	-0.138	-0.053
-395.136	73.431	-0.178	-0.185
-394.121	133.675	-0.114	-0.146
-393.106	-45.634	-0.147	-0.072
-392.092	26.545	0.314	0.260
-391.077	-70.101	0.298	-0.112
-390.063	-31.218	-0.180	-0.101
-389.048	-47.541	-0.377	-0.181
-388.033	-112.391	0.523	-0.104
-387.019	44.871	-0.258	0.235
-386.004	-85.418	-0.260	0.080
-384.990	574.304	-0.047	0.114
-383.975	169.814	0.021	-0.030
-382.960	429.835	-0.068	-0.146
-381.946	170.145	0.136	0.192
-380.931	-126.578	0.276	-0.040
-379.917	62.694	0.221	0.219
-378.902	-200.000	0.024	0.238
-377.888	305.160	0.203	0.374
-376.873	20.983	-0.161	-0.129
-375.858	800.000	0.068	0.220
-374.844	-88.655	0.488	-0.144
-373.829	-96.434	0.122	-0.032
-372.815	800.000	0.068	-0.249
-371.800	-66.524	0.322	-0.127
-370.785	572.371	0.030	-0.071
-369.771	344.042	-0.072	-0.139
-368.756	-200.000	0.000	-0.017
-367.742	61.303	-0.051	-0.050
-366.727	800.000	0.066	0.212
-365.712	-47.791	0.101	0.048
-364.698	-200.000	-0.022	-0.234
-363.683	-133.870	0.173	-0.021
-362.669	202.622	-0.169	0.258
-361.654	67.047	-0.070	0.071
-360.639	16.205	-0.022	0.018
-359.625	-67.853	0.334	0.129
-358.610	-106.561	0.093	-0.020
-357.596	55.036	-0.133	-0.127
-356.581	-15.318	-0.209	-0.132
-355.566	-158.495	-0.168	0.010
-354.552	110.762	-0.244	-0.290
-353.537	-122.200	-0.324	0.052
-352.523	800.000	-0.105	-0.314
-351.508	78.323	-0.026	0.028
-350.493	520.870	0.124	0.288
-349.479	291.600	-0.102	0.183
-348.464	307.578	0.102	0.187
-347.450	-184.269	-0.426	0.007
-346.435	181.948	0.083	0.121
-345.420	65.519	-0.170	-0.170
-344.406	-81.144	0.323	0.106
-343.391	-153.694	0.264	-0.018
-342.377	349.358	0.105	0.206
-341.362	148.635	0.078	0.105
-340.348	253.722	0.178	-0.300
-339.333	-107.075	0.228	-0.050
-338.318	-3.204	-0.121	0.084
-337.304	-40.077	-0.183	0.094
-336.289	-93.398	0.097	0.027
-335.275	14.906	0.132	-0.102
-334.260	-33.493	-0.216	-0.118
-333.245	-2.632	-0.139	-0.096
-332.231	-100.007	-0.394	0.097
-331.216	284.601	0.062	0.110
-330.202	800.000	-0.096	0.354
-329.187	-68.396	0.076	-0.029
-328.172	158.480	0.168	-0.230
-327.158	-92.633	0.357	-0.099
-326.143	588.667	-0.133	0.324
-325.129	-200.000	0.074	0.384
-324.114	-200.000	-0.022	-0.189
-323.099	800.000	-0.087	0.277
-322.085	16.247	-0.094	0.073
-321.070	-200.000	-0.034	-0.166
-320.056	-200.000	-0.050	-0.225
-319.041	-200.000	0.018	-0.088
-318.026	60.319	0.204	0.199
-317.012	-200.000	0.049	0.319
-315.997	98.077	-0.119	0.135
-314.983	-23.704	-0.246	0.146
-313.968	25.711	0.109	-0.090
-312.953	-165.548	0.104	-0.004
-311.939	135.573	0.217	-0.279
-310.924	199.749	-0.120	-0.181
-309.910	72.544	0.164	-0.169
-308.895	101.461	0.039	-0.045
-307.880	108.254	0.134	-0.158
-306.866	747.290	-0.039	-0.105
-305.851	406.819	0.008	0.016
-304.837	-200.000	-0.012	0.083
-303.822	-55.751	-0.075	-0.033
-302.807	243.588	-0.021	0.035
-301.793	-111.091	0.208	-0.042
-300.778	-24.728	-0.071	-0.042
-299.764	-200.000	-0.010	0.092
-298.749	-200.000	-0.016	-0.200
-297.735	-97.726	-0.329	0.084
-296.720	-200.000	0.024	-0.120
-295.705	-71.142	0.181	-0.067
-294.691	7.962	-0.233	0.172
-293.676	313.304	0.086	0.160
-292.662	496.614	0.047	0.106
-291.647	-200.000	-0.030	0.163
-290.632	-147.649	-0.227	0.019
-289.618	-16.412	0.157	0.098
-288.603	-200.000	0.002	-0.148
-287.589	-200.000	0.313	0.001
-286.574	-68.138	0.247	-0.095
-285.559	-200.000	0.011	0.232
-284.545	-97.787	-0.170	-0.043
-283.530	502.080	-0.087	-0.199
-282.516	-20.582	0.011	-0.007
-281.501	-65.110	0.188	-0.075
-280.486	39.150	-0.315	-0.278
-279.472	48.549	-0.085	0.078
-278.457	-27.362	0.289	-0.166
-277.443	-143.092	0.298	0.028
-276.428	660.020	-0.104	-0.264
-275.413	73.117	0.158	0.163
-274.399	362.488	-0.157	-0.311
-273.384	-45.989	-0.093	-0.045
-272.370	67.320	-0.131	-0.132
-271.355	81.922	-0.119	-0.127
-270.340	255.591	-0.128	-0.217
-269.326	-1.097	-0.078	-0.055
-268.311	800.000	-0.180	-0.562
-267.297	800.000	-0.062	-0.183
-266.282	662.229	-0.076	0.193
-265.267	-56.761	-0.280	-0.122
-264.253	-47.081	-0.130	0.063
-263.238	-9.859	0.218	0.143
-262.224	-10.481	-0.396	0.258
-261.209	-149.360	-0.291	0.023
-260.195	-67.528	0.190	-0.074
-259.180	-127.322	-0.256	0.037
-258.165	-26.349	-0.062	-0.036
-257.151	-200.000	-0.002	0.121
-256.136	259.478	0.054	-0.091
-255.122	231.835	-0.193	0.312
-254.107	-85.510	-0.231	0.071
-253.092	145.850	0.193	0.255
-252.078	-132.606	0.156	0.020
-251.063	-69.006	0.297	-0.113
-250.049	-200.000	-0.017	-0.104
-249.034	9.359	0.206	-0.154
-248.019	800.000	-0.070	0.267
-247.005	-200.000	0.052	0.299
-245.990	-200.000	-0.027	0.343
-244.976	104.610	0.165	-0.192
-243.961	-141.914	0.188	0.019
-242.946	-125.656	0.096	-0.014
-241.932	196.687	0.046	-0.069
-240.917	-200.000	-0.031	0.291
-239.903	92.246	-0.165	-0.183
-238.888	-118.075	0.238	-0.042
-237.873	284.629	-0.061	0.109
-236.859	-47.965	0.103	0.049
-235.844	800.000	0.061	0.213
-234.830	800.000	0.023	0.092
-233.815	537.910	0.113	0.265
-232.800	167.141	0.112	-0.156
-231.786	800.000	0.059	-0.217
-230.771	139.801	0.322	0.418
-229.757	211.407	0.117	0.181
-228.742	11.214	-0.157	-0.118
-227.727	2.270	0.050	-0.036
-226.713	-121.627	-0.135	-0.022
-225.698	343.065	-0.079	-0.152
-224.684	-25.787	-0.277	0.161
-223.669	466.883	0.123	-0.271
-222.655	160.480	-0.083	0.114
-221.640	-163.541	-0.211	-0.010
-220.625	800.000	-0.009	-0.032
-219.611	313.612	-0.027	0.049
-218.596	-13.212	0.223	0.142
-217.582	-68.737	0.219	0.083
-216.567	-33.860	0.051	-0.028
-215.552	93.582	-0.102	-0.113
-214.538	-121.707	-0.218	-0.035
-213.523	-127.313	0.069	-0.010
-212.509	-200.000	0.019	-0.145
-211.494	-31.942	0.123	0.068
-210.479	-200.000	-0.008	0.168
-209.465	-116.210	-0.435	-0.079
-208.450	800.000	-0.081	-0.241
-207.436	800.000	0.089	0.365
-206.421	159.830	0.104	0.143
-205.406	-65.852	-0.361	0.142
-204.392	-132.890	0.310	-0.039
-203.377	-200.000	-0.011	-0.072
-202.363	322.179	-0.090	-0.169
-201.348	-200.000	-0.007	0.109
-200.333	-121.085	0.026	0.004
-199.319	-200.000	0.033	0.277
-198.304	-200.000	-0.056	0.542
-197.290	146.379	-0.071	0.094
-196.275	256.965	-0.161	-0.272
-195.260	-48.287	0.255	-0.121
-194.246	-200.000	-0.032	0.197
-193.231	-200.000	0.034	0.245
-192.217	800.000	-0.016	0.064
-191.202	36.359	-0.215	0.186
-190.187	104.463	-0.038	-0.044
-189.173	-77.916	-0.073	0.025
-188.158	-108.263	-0.226	0.048
-187.144	-14.232	-0.066	-0.042
-186.129	-200.000	0.015	-0.348
-185.114	121.837	0.033	0.040
-184.100	-117.194	0.272	-0.049
-183.085	155.795	0.035	-0.047
-182.071	11.230	-0.131	-0.099
-181.056	183.221	0.332	-0.481
-180.042	753.224	-0.114	0.302
-179.027	-70.205	-0.456	0.170
-178.012	332.827	-0.024	0.045
-176.998	18.606	0.208	-0.163
-175.983	13.319	0.393	-0.299
-174.969	-200.000	-0.012	-0.119
-173.954	91.463	-0.213	0.235
-172.939	800.000	-0.063	-0.253
-171.925	-63.255	-0.222	0.090
-170.910	-139.926	-0.047	-0.005
-169.896	-142.185	-0.309	-0.030
-168.881	161.234	0.179	-0.246
-167.866	-200.000	-0.018	0.231
-166.852	-41.391	-0.203	0.103
-165.837	-200.000	-0.043	-0.302
-164.823	500.169	0.177	-0.400
-163.808	630.357	0.015	-0.037
-162.793	-200.000	0.002	0.137
-161.779	482.685	-0.034	0.075
-160.764	-69.684	0.241	-0.091
-159.750	-200.000	0.008	-0.096
-158.735	-165.746	-0.409	0.017
-157.720	-47.199	0.117	0.056
-156.706	-165.129	-0.303	0.013
-155.691	-80.701	0.222	-0.072
-154.677	217.306	-0.179	0.280
-153.662	-200.000	-0.020	-0.224
-152.647	-99.823	-0.174	0.043
-151.633	0.124	0.118	-0.083
-150.618	-200.000	-0.014	-0.181
-149.604	-200.000	-0.020	-0.138
-148.589	-14.783	0.066	0.042
-147.574	-141.097	0.585	0.059
-146.560	-200.000	-0.023	-0.151
-145.545	-115.719	-0.146	0.027
-144.531	-200.000	-0.012	0.080
-143.516	800.000	-0.070	0.259
-142.502	377.132	-0.106	0.212
-141.487	-200.000	0.071	0.304
-140.472	800.000	0.025	-0.070
-139.458	368.658	-0.144	0.287
-138.443	800.000	0.082	0.312
-137.429	376.859	-0.069	0.138
-136.414	-200.000	-0.027	0.343
-135.399	-49.073	-0.158	-0.074
-134.385	-152.761	-0.086	-0.006
-133.370	691.359	0.090	-0.230
-132.356	71.242	0.230	-0.234
-131.341	800.000	0.012	-0.036
-130.326	-62.360	0.252	0.103
-129.312	-100.458	0.293	-0.071
-128.297	79.229	-0.189	0.199
-127.283	-56.567	0.403	0.175
-126.268	613.061	-0.113	0.277
-125.253	14.490	0.030	-0.023
-124.239	-200.000	-0.031	-0.263
-123.224	-200.000	-0.002	-0.251
-122.210	-58.751	0.126	0.054
-121.195	-47.361	0.255	0.122
