DTS Sentinel unit serial number:	SN413079Multiplexer serial number:	ORYXHardware model number:	OX4-SRSoftware version number:	ORYX F/W v4.00 Oryx Data Collector v3.7.2.0data status	okinstallation	princeton_trtdifferential loss correction	single-endedforward channel	channel 3reverse channel	N/Adate	2019/09/13time	23:24:35forward acquisition time	60.00reverse acquisition time	0.00gamma	496.2192k internal	0.2339k external	0.2339temperature offset calibration	1.0060default loss term (dB/km)	0.3790temperature slope calibration	1.0000multiplexer offset coefficient	1.0000multiplexer slope coefficient	1.0000fibre end	0.00T internal ref (°C)	26.94T ext. ref 1 (°C)	3.18T ext. ref 2 (°C)	20.88length (m)	temperature (°C)	Stokes	anti-Stokes-747.200	-91.486	-0.348	0.100
-746.185	42.454	-0.267	0.244
-745.171	-200.000	-0.049	0.323
-744.156	66.097	-0.074	0.075
-743.142	381.169	-0.098	0.201
-742.127	-200.000	-0.027	0.513
-741.112	9.906	-0.124	0.094
-740.098	-200.000	0.038	0.261
-739.083	-60.471	-0.360	0.153
-738.069	-200.000	-0.026	0.303
-737.054	800.000	0.112	0.319
-736.039	-20.225	0.086	-0.053
-735.025	-120.835	-0.093	-0.016
-734.010	-133.561	-0.054	-0.007
-732.996	-57.439	-0.277	-0.122
-731.981	89.898	-0.158	-0.177
-730.966	287.889	0.169	-0.307
-729.952	-200.000	-0.026	-0.143
-728.937	-5.738	-0.206	0.141
-727.923	249.277	0.095	0.161
-726.908	800.000	-0.068	-0.228
-725.894	-61.251	-0.093	-0.039
-724.879	-39.619	0.018	-0.009
-723.864	275.340	0.042	-0.075
-722.850	0.433	-0.254	0.182
-721.835	-85.750	-0.162	0.050
-720.821	-147.470	-0.222	0.019
-719.806	-125.767	0.241	-0.036
-718.791	800.000	-0.087	-0.304
-717.777	3.010	-0.160	0.116
-716.762	270.285	0.037	-0.065
-715.748	-148.678	-0.376	-0.031
-714.733	-28.007	-0.269	0.156
-713.718	-49.116	0.395	-0.189
-712.704	174.752	0.132	0.192
-711.689	-164.224	0.282	-0.013
-710.675	570.448	0.052	-0.127
-709.660	800.000	-0.171	0.506
-708.645	128.698	-0.071	-0.091
-707.631	141.472	-0.212	0.280
-706.616	-111.183	-0.117	-0.024
-705.602	-34.315	0.228	-0.125
-704.587	-103.949	0.024	0.006
-703.572	-200.000	-0.009	0.166
-702.558	409.481	0.066	-0.139
-701.543	53.391	-0.327	-0.314
-700.529	-51.186	0.063	-0.029
-699.514	-200.000	0.000	-0.028
-698.499	-42.259	-0.332	0.170
-697.485	53.037	0.145	-0.139
-696.470	473.679	-0.101	0.229
-695.456	-52.578	0.095	0.044
-694.441	-49.914	-0.162	-0.077
-693.426	362.485	0.220	-0.442
-692.412	32.538	0.048	0.041
-691.397	800.000	0.036	0.157
-690.383	-38.686	0.076	-0.040
-689.368	-5.743	-0.204	0.140
-688.354	-200.000	-0.040	0.452
-687.339	498.929	-0.078	-0.179
-686.324	288.484	0.049	-0.088
-685.310	800.000	0.043	0.141
-684.295	-144.341	-0.376	0.035
-683.281	-172.742	-0.139	0.004
-682.266	-200.000	-0.010	-0.532
-681.251	265.278	-0.073	0.128
-680.237	-200.000	0.032	0.218
-679.222	29.039	-0.189	-0.160
-678.208	800.000	0.041	-0.174
-677.193	-31.130	0.390	0.220
-676.178	253.243	-0.103	-0.175
-675.164	69.908	-0.098	0.101
-674.149	192.278	-0.330	-0.498
-673.135	-200.000	-0.020	0.137
-672.120	-200.000	0.003	-0.040
-671.105	-60.134	-0.161	0.069
-670.091	-48.615	0.181	-0.087
-669.076	-25.083	-0.057	0.034
-668.062	126.314	0.072	0.091
-667.047	-127.204	0.158	0.023
-666.032	-131.355	-0.214	-0.028
-665.018	-159.260	0.332	-0.019
-664.003	-117.040	-0.078	-0.014
-662.989	-68.416	0.441	-0.171
-661.974	-200.000	-0.034	-0.178
-660.959	-154.140	-0.447	0.030
-659.945	-200.000	-0.054	-0.280
-658.930	643.264	-0.044	-0.112
-657.916	13.308	-0.060	-0.047
-656.901	93.132	0.117	0.132
-655.886	800.000	0.017	-0.072
-654.872	800.000	-0.140	-0.437
-653.857	41.005	-0.121	-0.109
-652.843	-172.003	0.125	0.004
-651.828	-124.687	-0.309	-0.048
-650.814	-60.909	-0.260	0.110
-649.799	-51.494	0.089	-0.042
-648.784	-168.543	0.201	-0.008
-647.770	-88.805	-0.310	-0.092
-646.755	-1.246	-0.264	0.186
-645.741	-200.000	-0.016	0.152
-644.726	-69.971	-0.363	0.138
-643.711	-200.000	-0.006	-0.534
-642.697	161.115	0.078	0.109
-641.682	-200.000	-0.015	-0.074
-640.668	139.305	-0.153	-0.201
-639.653	-99.735	0.189	0.047
-638.638	-157.197	-0.085	-0.005
-637.624	-193.976	0.198	-0.002
-636.609	-200.000	-0.029	0.282
-635.595	393.592	-0.123	-0.256
-634.580	-61.610	-0.093	-0.039
-633.565	-7.519	0.147	-0.099
-632.551	49.320	-0.143	-0.134
-631.536	-142.279	0.186	-0.018
-630.522	800.000	-0.104	-0.407
-629.507	620.106	0.025	0.064
-628.492	-44.625	-0.114	0.057
-627.478	141.538	-0.335	-0.443
-626.463	-200.000	0.016	-0.157
-625.449	181.020	0.198	-0.291
-624.434	181.696	0.126	0.185
-623.419	-32.724	-0.425	0.236
-622.405	689.306	0.039	-0.103
-621.390	-82.657	0.162	-0.052
-620.376	371.131	0.085	0.172
-619.361	445.016	0.087	-0.191
-618.346	391.221	-0.280	-0.581
-617.332	608.078	0.016	-0.040
-616.317	363.194	0.108	-0.217
-615.303	-57.465	-0.090	0.039
-614.288	-60.302	-0.067	-0.028
-613.273	800.000	-0.025	-0.099
-612.259	-200.000	-0.005	0.123
-611.244	-200.000	-0.043	0.325
-610.230	505.241	0.079	-0.184
-609.215	-58.619	0.040	0.017
-608.201	-90.055	-0.123	-0.036
-607.186	-200.000	-0.028	-0.522
-606.171	612.772	-0.087	-0.218
-605.157	800.000	-0.022	-0.066
-604.142	-72.229	-0.174	0.064
-603.128	239.530	-0.049	-0.081
-602.113	28.789	-0.237	-0.200
-601.098	-200.000	0.057	0.406
-600.084	253.795	0.072	0.123
-599.069	89.289	-0.039	-0.043
-598.055	23.970	0.448	-0.369
-597.040	-200.000	-0.000	-0.103
-596.025	-148.460	0.138	0.011
-595.011	198.411	0.215	-0.328
-593.996	-60.790	0.149	-0.063
-592.982	-200.000	-0.004	-0.215
-591.967	800.000	0.076	-0.235
-590.952	-136.845	0.334	0.038
-589.938	800.000	-0.089	-0.301
-588.923	-200.000	-0.022	-0.243
-587.909	100.769	0.167	-0.193
-586.894	-32.879	0.155	0.086
-585.879	-150.694	-0.399	0.030
-584.865	108.647	0.154	0.183
-583.850	209.292	0.075	-0.116
-582.836	160.974	-0.110	0.154
-581.821	800.000	0.079	0.255
-580.806	-200.000	0.002	0.038
-579.792	-83.074	-0.171	-0.055
-578.777	33.256	0.126	0.109
-577.763	146.136	-0.255	0.341
-576.748	-50.843	-0.196	-0.092
-575.733	-200.000	-0.047	0.301
-574.719	10.535	-0.154	-0.117
-573.704	-200.000	0.126	-0.633
-572.690	86.865	-0.152	-0.167
-571.675	-160.749	-0.131	-0.007
-570.661	23.544	0.158	-0.129
-569.646	-148.948	0.363	-0.029
-568.631	-65.188	-0.428	0.172
-567.617	-200.000	0.017	0.127
-566.602	-200.000	0.018	-0.301
-565.588	-70.940	-0.463	0.174
-564.573	115.446	-0.109	0.132
-563.558	101.791	0.117	0.136
-562.544	-200.000	-0.003	0.170
-561.529	136.416	-0.049	-0.064
-560.515	86.186	0.127	-0.139
-559.500	246.922	-0.107	-0.179
-558.485	-75.833	-0.302	0.106
-557.471	324.073	0.248	0.471
-556.456	86.463	0.136	-0.150
-555.442	-200.000	-0.010	-0.178
-554.427	68.765	0.181	0.185
-553.412	229.176	0.077	-0.125
-552.398	-71.582	-0.243	0.090
-551.383	-91.027	0.200	0.057
-550.369	-34.135	0.251	-0.137
-549.354	-64.344	-0.141	-0.057
-548.339	-132.855	-0.505	-0.064
-547.325	103.212	0.054	0.063
-546.310	21.818	-0.172	0.139
-545.296	-200.000	-0.044	0.399
-544.281	-163.739	0.082	0.004
-543.266	-50.744	-0.376	-0.176
-542.252	-145.315	0.396	0.036
-541.237	180.902	0.039	0.058
-540.223	-124.080	-0.237	-0.037
-539.208	-17.308	0.170	-0.106
-538.193	-200.000	0.007	-0.083
-537.179	-144.840	-0.262	-0.024
-536.164	408.192	0.098	-0.205
-535.150	-81.443	0.287	0.094
-534.135	-200.000	0.001	0.147
-533.121	800.000	0.060	0.185
-532.106	-82.262	0.250	-0.081
-531.091	439.234	-0.060	-0.130
-530.077	24.078	0.233	-0.192
-529.062	-52.347	0.256	-0.118
-528.048	49.220	-0.174	-0.163
-527.033	800.000	-0.051	-0.222
-526.018	-157.811	-0.153	0.009
-525.004	-35.397	0.117	-0.063
-523.989	351.747	0.065	-0.128
-522.975	109.384	0.130	-0.155
-521.960	800.000	0.029	0.104
-520.945	-119.737	0.020	-0.003
-519.931	-200.000	0.027	0.159
-518.916	-167.197	0.319	-0.013
-517.902	-77.328	0.232	0.080
-516.887	-52.467	0.208	-0.096
-515.872	153.638	0.055	0.075
-514.858	200.736	-0.108	0.165
-513.843	800.000	-0.065	-0.182
-512.829	-200.000	-0.010	0.212
-511.814	-19.257	-0.292	-0.180
-510.799	-108.917	-0.480	-0.102
-509.785	76.505	-0.487	-0.513
-508.770	127.587	-0.086	-0.108
-507.756	101.013	0.178	0.205
-506.741	-110.879	-0.299	0.061
-505.726	-189.724	-0.325	0.004
-504.712	208.915	-0.062	-0.097
-503.697	85.930	-0.082	-0.089
-502.683	800.000	0.014	-0.040
-501.668	-200.000	0.012	0.176
-500.653	330.315	-0.104	0.200
-499.639	-170.128	-0.341	0.012
-498.624	-11.769	-0.418	0.272
-497.610	-31.089	0.127	-0.071
-496.595	-128.321	0.191	-0.027
-495.581	-200.000	0.034	0.315
-494.566	-89.137	0.121	-0.035
-493.551	123.337	-0.021	0.027
-492.537	-200.000	0.027	-0.498
-491.522	-110.862	0.271	-0.055
-490.508	61.377	-0.134	-0.132
-489.493	-44.338	-0.074	-0.037
-488.478	-200.000	-0.035	0.278
-487.464	800.000	-0.033	0.094
-486.449	-200.000	-0.002	-0.197
-485.435	61.331	-0.086	-0.084
-484.420	-68.454	-0.156	-0.060
-483.405	120.998	0.104	0.128
-482.391	203.364	0.083	-0.128
-481.376	-200.000	0.064	-0.433
-480.362	-74.689	0.194	-0.069
-479.347	24.613	0.038	-0.031
-478.332	465.931	0.028	-0.062
-477.318	-83.154	0.188	0.060
-476.303	-47.414	-0.072	0.035
-475.289	-149.975	0.230	0.018
-474.274	117.336	-0.265	0.323
-473.259	566.664	0.099	-0.238
-472.245	-200.000	-0.054	0.277
-471.230	-113.899	0.220	0.042
-470.216	68.749	-0.241	0.245
-469.201	800.000	-0.014	0.057
-468.186	-117.232	-0.265	-0.048
-467.172	-112.530	0.197	-0.039
-466.157	-74.394	-0.372	-0.133
-465.143	769.181	0.143	-0.386
-464.128	-62.075	-0.180	-0.075
-463.113	-94.219	0.095	-0.026
-462.099	273.916	-0.092	0.162
-461.084	-114.978	0.193	-0.036
-460.070	-72.722	0.134	0.049
-459.055	-108.390	0.129	-0.028
-458.040	127.730	-0.051	0.065
-457.026	800.000	0.043	-0.140
-456.011	287.893	0.139	-0.250
-454.997	-16.193	-0.311	-0.196
-453.982	-160.210	-0.096	-0.005
-452.968	9.280	0.359	-0.269
-451.953	153.813	0.092	-0.125
-450.938	800.000	0.052	-0.166
-449.924	-200.000	-0.029	0.306
-448.909	187.676	-0.107	-0.158
-447.895	5.835	0.101	0.074
-446.880	250.328	-0.156	-0.263
-445.865	-2.640	0.313	-0.217
-444.851	42.282	-0.085	-0.076
-443.836	97.526	-0.297	0.338
-442.822	43.114	-0.136	0.123
-441.807	-80.383	0.145	0.048
-440.792	-21.422	-0.087	-0.053
-439.778	67.978	0.151	-0.153
-438.763	18.302	-0.187	0.148
-437.749	-81.909	0.600	0.195
-436.734	22.811	0.036	-0.029
-435.719	800.000	0.049	0.208
-434.705	800.000	-0.039	-0.133
-433.690	247.548	-0.196	0.328
-432.676	-19.699	-0.158	-0.097
-431.661	-63.750	0.058	-0.023
-430.646	88.356	0.143	0.157
-429.632	-112.173	0.084	-0.017
-428.617	19.172	-0.288	0.229
-427.603	96.531	0.044	-0.050
-426.588	-200.000	-0.039	0.363
-425.573	272.435	-0.093	-0.162
-424.559	-137.416	-0.360	0.040
-423.544	129.011	-0.288	-0.364
-422.530	-91.267	0.474	0.134
-421.515	-113.922	0.454	-0.087
-420.500	-200.000	0.000	-0.194
-419.486	-200.000	-0.019	0.456
-418.471	800.000	-0.123	0.391
-417.457	-117.685	-0.368	0.066
-416.442	-200.000	-0.014	0.223
-415.428	-7.509	-0.158	-0.106
-414.413	22.574	0.329	0.267
-413.398	-0.225	0.143	0.101
-412.384	300.450	0.158	-0.289
-411.369	130.784	0.090	-0.114
-410.355	21.688	-0.293	0.236
-409.340	-49.937	0.083	-0.039
-408.325	-3.955	-0.089	-0.061
-407.311	20.778	0.202	-0.162
-406.296	-200.000	-0.021	0.180
-405.282	-152.003	0.261	-0.019
-404.267	-29.504	0.151	-0.085
-403.252	800.000	0.067	0.279
-402.238	369.389	0.066	0.133
-401.223	12.904	-0.290	-0.222
-400.209	266.871	-0.071	-0.123
-399.194	-114.285	-0.450	0.086
-398.179	-137.921	-0.081	-0.009
-397.165	-27.033	0.113	0.065
-396.150	-47.864	0.103	-0.049
-395.136	800.000	0.031	0.086
-394.121	117.546	0.053	-0.065
-393.106	-101.618	0.071	0.017
-392.092	-111.007	0.220	0.045
-391.077	26.836	0.071	-0.059
-390.063	-200.000	0.020	0.217
-389.048	-112.248	0.090	-0.018
-388.033	-200.000	-0.033	-0.297
-387.019	-161.352	-0.172	0.009
-386.004	105.592	-0.292	0.341
-384.990	800.000	-0.038	0.127
-383.975	109.372	-0.166	-0.197
-382.960	-200.000	0.060	-0.276
-381.946	38.690	0.076	0.067
-380.931	-120.870	-0.176	-0.029
-379.917	-200.000	-0.019	0.209
-378.902	-51.976	-0.251	0.115
-377.888	-200.000	-0.029	0.421
-376.873	42.707	-0.294	-0.265
-375.858	137.603	-0.186	0.240
-374.844	137.357	-0.152	0.197
-373.829	105.581	-0.078	-0.091
-372.815	-56.715	-0.356	0.156
-371.800	77.497	-0.118	-0.124
-370.785	105.424	0.289	-0.338
-369.771	-200.000	0.067	-0.371
-368.756	131.142	-0.288	-0.366
-367.742	-200.000	-0.011	-0.078
-366.727	-200.000	-0.022	0.216
-365.712	137.083	-0.203	0.262
-364.698	28.534	-0.047	-0.039
-363.683	-36.305	0.258	-0.137
-362.669	-200.000	-0.021	-0.209
-361.654	800.000	-0.041	0.160
-360.639	31.249	0.297	-0.251
-359.625	-200.000	0.005	-0.066
-358.610	146.008	-0.087	0.115
-357.596	50.361	0.325	-0.303
-356.581	-72.250	-0.361	0.132
-355.566	-200.000	-0.011	0.392
-354.552	758.781	0.031	0.083
-353.537	-200.000	0.042	0.207
-352.523	-118.463	0.118	0.021
-351.508	-107.148	-0.023	0.005
-350.493	148.512	0.149	-0.199
-349.479	411.916	0.198	-0.415
-348.464	69.983	0.217	0.221
-347.450	-146.324	-0.417	0.036
-346.435	800.000	0.011	0.031
-345.420	73.431	-0.204	0.211
-344.406	800.000	-0.071	-0.212
-343.391	800.000	0.092	0.319
-342.377	379.228	-0.031	0.062
-341.362	-132.351	0.249	-0.032
-340.348	-101.753	-0.159	-0.038
-339.333	-200.000	0.046	0.325
-338.318	159.276	0.115	-0.157
-337.304	49.941	-0.262	0.244
-336.289	-200.000	-0.035	-0.319
-335.275	-83.229	-0.123	-0.039
-334.260	-29.063	0.361	0.205
-333.245	162.470	-0.146	-0.202
-332.231	272.783	0.100	-0.174
-331.216	22.993	-0.012	0.009
-330.202	-200.000	0.018	-0.236
-329.187	-26.744	-0.234	-0.135
-328.172	225.561	-0.149	0.239
-327.158	391.205	-0.173	0.354
-326.143	-40.061	0.398	0.205
-325.129	-79.395	0.199	-0.066
-324.114	-200.000	0.006	0.092
-323.099	-200.000	0.012	-0.185
-322.085	-68.142	-0.129	-0.050
-321.070	-200.000	-0.015	-0.066
-320.056	-60.887	0.282	0.117
-319.041	800.000	-0.077	-0.257
-318.026	301.467	-0.200	-0.365
-317.012	280.947	0.131	-0.231
-315.997	-28.498	0.086	0.049
-314.983	-128.210	0.136	0.019
-313.968	-20.593	-0.192	0.116
-312.953	335.421	0.119	0.227
-311.939	-18.246	-0.198	-0.122
-310.924	-137.060	0.195	0.022
-309.910	35.913	-0.085	-0.073
-308.895	736.752	-0.108	-0.286
-307.880	25.219	0.240	0.197
-306.866	-73.160	-0.505	0.183
-305.851	191.713	0.079	-0.117
-304.837	800.000	-0.017	0.069
-303.822	61.897	0.178	0.175
-302.807	800.000	0.034	-0.145
-301.793	456.072	-0.036	0.079
-300.778	-34.258	0.132	-0.071
-299.764	-157.906	0.161	0.009
-298.749	800.000	-0.025	-0.098
-297.735	-200.000	-0.002	-0.335
-296.720	790.626	-0.091	-0.245
-295.705	-200.000	-0.010	0.092
-294.691	164.837	-0.218	0.303
-293.676	82.186	0.168	0.180
-292.662	42.589	-0.195	0.175
-291.647	-67.860	-0.365	-0.141
-290.632	-8.138	-0.003	-0.002
-289.618	120.772	-0.143	0.175
-288.603	269.018	0.119	0.206
-287.589	77.888	0.194	0.204
-286.574	-49.356	0.345	0.162
-285.559	-104.288	-0.092	-0.021
-284.545	-200.000	-0.029	0.307
-283.530	438.829	-0.022	0.048
-282.516	-92.949	0.434	0.119
-281.501	84.688	-0.295	0.318
-280.486	-39.674	0.178	0.092
-279.472	118.025	0.182	0.220
-278.457	-7.682	-0.122	0.081
-277.443	740.098	-0.084	0.221
-276.428	87.322	-0.100	0.109
-275.413	0.404	0.230	0.162
-274.399	-144.958	-0.453	0.041
-273.384	119.134	-0.138	0.167
-272.370	-72.650	0.314	-0.114
-271.355	-105.671	-0.232	0.052
-270.340	84.989	0.215	-0.232
-269.326	800.000	-0.029	-0.112
-268.311	682.049	-0.130	-0.335
-267.297	-41.261	0.117	-0.059
-266.282	-154.580	-0.059	0.004
-265.267	57.261	0.300	-0.289
-264.253	-200.000	-0.008	-0.034
-263.238	800.000	0.070	-0.218
-262.224	-200.000	-0.042	0.221
-261.209	505.061	0.138	-0.314
-260.195	-1.160	0.207	0.144
-259.180	-155.071	-0.128	-0.008
-258.165	14.937	-0.166	0.128
-257.151	-42.651	0.354	0.177
-256.136	113.882	-0.100	-0.120
-255.122	23.047	-0.056	0.045
-254.107	232.772	0.059	-0.096
-253.092	-200.000	-0.009	-0.132
-252.078	5.570	-0.178	-0.129
-251.063	96.005	-0.057	0.064
-250.049	328.145	0.050	0.094
-249.034	-200.000	-0.023	0.105
-248.019	-29.304	-0.089	0.050
-247.005	-39.392	0.303	-0.156
-245.990	146.152	-0.117	0.154
-244.976	-169.720	-0.299	-0.011
-243.961	191.458	0.105	0.156
-242.946	-200.000	0.001	0.031
-241.932	-200.000	0.029	-0.408
-240.917	29.940	-0.163	-0.136
-239.903	-43.836	-0.023	-0.011
-238.888	-48.381	-0.358	-0.170
-237.873	800.000	-0.054	0.228
-236.859	267.816	0.059	0.102
-235.844	-82.249	0.285	-0.091
-234.830	-142.444	0.190	-0.018
-233.815	543.489	0.064	-0.149
-232.800	-41.348	0.298	0.151
-231.786	12.269	-0.228	0.172
-230.771	-156.787	-0.083	-0.005
-229.757	559.242	0.082	0.196
-228.742	-96.156	0.157	0.041
-227.727	-87.876	0.249	-0.074
-226.713	-25.826	0.165	-0.095
-225.698	-117.536	-0.129	0.023
-224.684	-11.274	0.124	0.080
-223.669	432.535	0.181	0.386
-222.655	800.000	0.033	0.143
-221.640	-127.228	-0.416	0.060
-220.625	-122.968	-0.229	-0.036
-219.611	-152.053	0.195	0.014
-218.596	790.719	-0.108	-0.292
-217.582	96.175	0.232	0.261
-216.567	800.000	-0.112	0.327
-215.552	-200.000	-0.073	-0.349
-214.538	-117.421	0.227	-0.040
-213.523	-54.963	0.170	-0.075
-212.509	-200.000	0.009	0.123
-211.494	-85.900	-0.354	-0.108
-210.479	76.343	0.266	0.277
-209.465	-84.392	0.404	0.126
-208.450	-151.232	0.092	-0.007
-207.436	-200.000	0.024	0.150
-206.421	-163.885	0.148	-0.007
-205.406	-200.000	0.005	0.228
-204.392	-159.890	-0.218	0.012
-203.377	136.955	0.162	-0.208
-202.363	-53.399	0.204	-0.092
-201.348	137.371	-0.150	-0.193
-200.333	16.543	-0.194	0.150
-199.319	86.790	-0.179	0.194
-198.304	162.170	0.066	-0.091
-197.290	-61.470	0.141	-0.058
-196.275	-17.995	0.113	-0.070
-195.260	590.120	-0.021	0.052
-194.246	536.656	0.114	0.265
-193.231	78.251	0.263	0.275
-192.217	-75.443	-0.138	0.048
-191.202	765.354	0.035	-0.092
-190.187	231.796	0.025	0.041
-189.173	215.699	0.307	0.478
-188.158	-132.248	0.338	0.043
-187.144	800.000	0.081	-0.251
-186.129	-2.802	0.071	0.048
-185.114	-200.000	0.034	-0.176
-184.100	-157.546	-0.110	-0.006
-183.085	-3.015	-0.222	-0.152
-182.071	-81.204	0.343	-0.111
-181.056	-63.349	0.126	0.051
-180.042	-64.057	0.219	0.088
-179.027	305.399	-0.057	0.103
-178.012	-120.903	0.464	0.077
-176.998	-131.942	-0.291	0.037
-175.983	-63.313	0.353	0.143
-174.969	-143.946	-0.252	0.023
-173.954	800.000	-0.082	0.279
-172.939	221.605	-0.166	0.262
-171.925	800.000	0.100	0.275
-170.910	-200.000	0.025	0.198
-169.896	-107.134	-0.335	0.072
-168.881	-17.659	0.116	-0.071
-167.866	80.173	-0.166	-0.175
-166.852	110.024	0.230	0.271
-165.837	-200.000	0.119	-0.000
-164.823	439.807	0.116	0.249
-163.808	35.237	-0.170	0.146
-162.793	-96.777	0.136	0.035
-161.779	-53.089	0.150	-0.068
-160.764	22.397	0.123	0.098
-159.750	-155.036	-0.292	-0.019
-158.735	128.745	-0.069	0.086
-157.720	-90.538	0.269	-0.076
-156.706	-91.655	-0.231	-0.065
-155.691	26.832	-0.062	0.051
-154.677	195.383	0.072	-0.108
-153.662	363.757	-0.072	0.142
-152.647	-200.000	0.011	0.085
-151.633	-33.578	0.213	-0.115
-150.618	44.840	-0.321	0.290
-149.604	-13.423	0.286	-0.182
-148.589	-56.692	0.028	-0.012
-147.574	-48.003	-0.297	-0.141
-146.560	449.444	-0.108	0.233
-145.545	557.277	0.110	-0.259
-144.531	-200.000	0.047	-0.476
-143.516	-54.173	0.027	-0.012
-142.502	-148.220	0.200	-0.016
-141.487	-200.000	-0.026	0.139
-140.472	-162.511	0.123	-0.006
-139.458	-149.646	-0.112	0.009
-138.443	466.321	-0.068	0.149
-137.429	-200.000	0.052	-0.288
-136.414	67.659	-0.098	-0.098
-135.399	312.617	-0.122	0.225
-134.385	93.511	-0.093	0.103
-133.370	-200.000	-0.012	-0.282
-132.356	50.112	-0.037	0.034
-131.341	401.015	-0.097	-0.199
-130.326	215.038	0.008	0.013
-129.312	-144.094	-0.151	0.014
-128.297	178.591	-0.069	0.099
-127.283	800.000	-0.152	-0.430
-126.268	43.151	0.194	-0.173
-125.253	9.542	0.392	-0.290
-124.239	15.423	-0.186	-0.143
-123.224	50.065	-0.302	0.279
-122.210	143.834	0.200	-0.261
