DTS Sentinel unit serial number:	SN413079Multiplexer serial number:	ORYXHardware model number:	OX4-SRSoftware version number:	ORYX F/W v4.00 Oryx Data Collector v3.7.2.0data status	okinstallation	princeton_trtdifferential loss correction	single-endedforward channel	channel 3reverse channel	N/Adate	2019/09/17time	12:16:35forward acquisition time	60.00reverse acquisition time	0.00gamma	496.2192k internal	0.2319k external	0.2319temperature offset calibration	0.9961default loss term (dB/km)	0.3790temperature slope calibration	1.0000multiplexer offset coefficient	1.0000multiplexer slope coefficient	1.0000fibre end	0.00T internal ref (°C)	31.45T ext. ref 1 (°C)	0.42T ext. ref 2 (°C)	28.21length (m)	temperature (°C)	Stokes	anti-Stokes-747.200	-35.489	-0.231	-0.127
-746.185	111.321	-0.293	0.357
-745.171	-200.000	0.007	0.165
-744.156	-200.000	-0.027	0.316
-743.142	800.000	-0.078	0.236
-742.127	41.252	-0.292	-0.267
-741.112	-200.000	0.036	-0.202
-740.098	441.517	-0.017	-0.038
-739.083	-126.189	0.173	0.026
-738.069	-149.844	0.267	0.021
-737.054	122.993	-0.138	0.175
-736.039	-28.155	-0.181	-0.106
-735.025	-97.554	0.383	0.101
-734.010	33.997	-0.065	-0.057
-732.996	24.677	-0.093	-0.078
-731.981	-65.931	-0.124	-0.050
-730.966	-48.471	-0.145	-0.071
-729.952	-112.230	0.235	0.048
-728.937	-141.644	-0.029	0.003
-727.923	800.000	-0.042	-0.126
-726.908	107.174	-0.043	0.051
-725.894	-95.461	0.404	-0.110
-724.879	-150.715	0.519	-0.040
-723.864	-200.000	0.014	-0.204
-722.850	800.000	0.034	0.098
-721.835	43.956	-0.151	-0.140
-720.821	36.750	0.021	-0.019
-719.806	-3.518	0.189	0.133
-718.791	800.000	0.027	-0.120
-717.777	115.884	-0.098	0.121
-716.762	-135.911	0.123	-0.015
-715.748	73.901	0.123	-0.130
-714.733	-200.000	-0.005	-0.021
-713.718	-49.943	0.369	0.177
-712.704	174.525	-0.020	-0.029
-711.689	-103.501	-0.217	0.052
-710.675	436.093	-0.090	-0.197
-709.660	84.980	0.156	-0.172
-708.645	29.465	0.109	-0.094
-707.631	800.000	0.056	0.181
-706.616	142.125	0.024	-0.032
-705.602	-79.740	0.220	0.075
-704.587	174.918	0.183	-0.268
-703.572	-200.000	-0.050	-0.229
-702.558	-136.133	0.120	-0.014
-701.543	-200.000	0.018	0.179
-700.529	-46.867	-0.259	0.128
-699.514	-200.000	-0.039	-0.437
-698.499	-105.429	0.071	-0.016
-697.485	-200.000	0.020	0.438
-696.470	477.950	0.040	0.092
-695.456	-88.011	-0.158	0.048
-694.441	-200.000	-0.058	-0.471
-693.426	-105.615	0.215	-0.049
-692.412	-200.000	0.002	-0.145
-691.397	-164.103	-0.049	-0.002
-690.383	79.325	-0.184	-0.199
-689.368	-23.094	0.031	0.019
-688.354	-77.363	0.025	-0.009
-687.339	-97.529	-0.092	0.024
-686.324	800.000	0.046	0.143
-685.310	634.325	-0.083	0.213
-684.295	118.488	-0.161	0.201
-683.281	77.977	0.069	0.074
-682.266	-103.168	-0.130	0.031
-681.251	604.524	-0.098	-0.245
-680.237	409.162	0.149	-0.319
-679.222	-200.000	0.001	-0.150
-678.208	-200.000	0.077	0.347
-677.193	432.698	0.158	-0.345
-676.178	-50.933	0.324	-0.153
-675.164	150.202	0.121	-0.166
-674.149	30.964	-0.251	0.217
-673.135	396.154	-0.091	0.191
-672.120	-46.418	-0.237	0.117
-671.105	-200.000	-0.023	0.158
-670.091	-131.371	0.161	0.022
-669.076	-188.474	-0.265	0.003
-668.062	-114.096	0.329	0.064
-667.047	-29.734	-0.075	-0.043
-666.032	-7.730	0.269	0.183
-665.018	-200.000	0.012	0.067
-664.003	-171.996	-0.181	-0.006
-662.989	800.000	0.025	-0.101
-661.974	435.739	-0.087	0.191
-660.959	-200.000	0.001	-0.210
-659.945	-103.887	-0.134	-0.031
-658.930	-200.000	-0.051	-0.276
-657.916	-163.260	0.153	-0.007
-656.901	-115.582	0.018	-0.003
-655.886	134.821	-0.091	-0.119
-654.872	-139.169	0.295	-0.032
-653.857	800.000	-0.052	0.206
-652.843	61.067	0.115	0.116
-651.828	207.335	-0.084	-0.132
-650.814	282.814	0.169	-0.306
-649.799	619.821	-0.020	0.050
-648.784	-86.999	0.171	0.052
-647.770	-200.000	0.008	-0.061
-646.755	-200.000	-0.018	0.209
-645.741	42.331	-0.030	0.027
-644.726	-20.756	-0.224	0.139
-643.711	800.000	0.023	-0.087
-642.697	-18.716	0.056	-0.035
-641.682	800.000	-0.071	-0.270
-640.668	121.973	0.069	0.087
-639.653	434.806	-0.125	-0.274
-638.638	178.024	-0.060	-0.088
-637.624	-200.000	-0.000	-0.183
-636.609	165.624	-0.167	0.238
-635.595	-136.121	-0.236	0.028
-634.580	-200.000	0.024	0.152
-633.565	-33.636	0.403	0.224
-632.551	45.490	-0.047	-0.044
-631.536	-39.306	-0.179	-0.095
-630.522	562.230	-0.054	0.132
-629.507	20.488	0.081	0.066
-628.492	235.249	0.034	0.057
-627.478	-60.439	-0.070	0.030
-626.463	28.507	-0.097	-0.083
-625.449	-17.454	0.255	0.161
-624.434	-26.309	-0.212	0.125
-623.419	252.340	-0.153	-0.263
-622.405	-64.444	0.065	0.027
-621.390	800.000	-0.062	-0.248
-620.376	-50.170	0.189	0.090
-619.361	-200.000	0.018	0.170
-618.346	13.780	-0.186	-0.146
-617.332	-161.183	0.039	-0.002
-616.317	800.000	-0.067	0.256
-615.303	-200.000	0.007	0.258
-614.288	800.000	0.045	0.144
-613.273	-197.534	0.356	-0.002
-612.259	255.814	-0.039	0.067
-611.244	229.606	0.146	0.240
-610.230	28.563	0.211	0.180
-609.215	-69.711	-0.167	0.064
-608.201	204.845	-0.355	-0.554
-607.186	28.788	-0.166	0.141
-606.171	-50.869	0.088	0.041
-605.157	388.363	-0.076	-0.158
-604.142	118.022	0.127	0.157
-603.128	-117.785	-0.136	-0.025
-602.113	207.016	-0.072	0.113
-601.098	-104.900	-0.213	-0.049
-600.084	122.971	0.071	0.089
-599.069	36.187	0.185	-0.164
-598.055	24.664	0.245	0.204
-597.040	-200.000	-0.075	-0.362
-596.025	-27.556	0.060	0.035
-595.011	242.597	0.021	-0.035
-593.996	46.216	0.103	0.096
-592.982	-57.993	-0.346	0.152
-591.967	378.812	0.062	0.128
-590.952	-146.314	0.394	-0.035
-589.938	-88.646	-0.231	-0.069
-588.923	-54.567	-0.233	-0.106
-587.909	-23.947	-0.103	-0.062
-586.894	-41.346	-0.037	-0.019
-585.879	-43.373	-0.083	0.042
-584.865	51.659	-0.138	0.132
-583.850	-142.753	-0.133	0.013
-582.836	800.000	-0.080	0.334
-581.821	-200.000	0.013	-0.090
-580.806	56.224	0.224	-0.219
-579.792	101.710	0.087	-0.102
-578.777	-200.000	-0.030	-0.165
-577.763	800.000	0.030	-0.108
-576.748	-75.411	0.154	-0.055
-575.733	-127.980	-0.231	0.033
-574.719	65.650	0.202	0.206
-573.704	39.749	-0.382	0.344
-572.690	-200.000	-0.005	0.345
-571.675	780.832	0.080	0.221
-570.661	-200.000	0.005	0.367
-569.646	-106.980	0.326	-0.072
-568.631	-200.000	0.042	-0.240
-567.617	-84.519	-0.168	0.053
-566.602	83.178	-0.108	0.118
-565.588	145.834	-0.071	0.096
-564.573	800.000	-0.034	-0.117
-563.558	12.515	-0.106	0.082
-562.544	-57.447	-0.146	-0.064
-561.529	-82.917	-0.082	-0.027
-560.515	-81.722	-0.140	-0.046
-559.500	-200.000	0.043	-0.237
-558.485	-200.000	-0.005	-0.076
-557.471	-41.988	-0.157	-0.081
-556.456	-117.204	-0.078	0.014
-555.442	-141.708	-0.220	-0.022
-554.427	114.805	0.123	0.151
-553.412	734.569	-0.073	-0.197
-552.398	-99.874	0.164	0.041
-551.383	-24.375	-0.140	-0.084
-550.369	-180.437	-0.349	0.007
-549.354	-200.000	0.020	-0.237
-548.339	-50.884	0.184	-0.087
-547.325	70.820	0.164	0.171
-546.310	-26.480	-0.208	-0.123
-545.296	-53.750	0.023	-0.011
-544.281	-45.963	0.146	0.072
-543.266	141.601	-0.167	-0.222
-542.252	6.590	-0.236	0.176
-541.237	-130.186	0.287	-0.039
-540.223	168.149	0.141	-0.202
-539.208	-43.352	-0.223	-0.113
-538.193	63.537	0.045	0.045
-537.179	349.930	0.031	-0.062
-536.164	800.000	-0.086	0.342
-535.150	31.709	-0.143	0.123
-534.135	-59.997	0.097	-0.041
-533.121	-200.000	-0.034	-0.323
-532.106	-200.000	0.016	0.239
-531.091	-101.663	0.174	-0.042
-530.077	-103.566	-0.405	-0.095
-529.062	-45.616	0.511	-0.254
-528.048	-200.000	-0.008	-0.118
-527.033	143.355	-0.055	0.073
-526.018	146.787	-0.066	-0.089
-525.004	93.290	0.048	-0.054
-523.989	-200.000	0.006	-0.051
-522.975	-112.694	0.131	0.026
-521.960	273.314	-0.128	0.227
-520.945	-200.000	-0.007	-0.170
-519.931	-79.159	-0.355	0.121
-518.916	-16.671	-0.169	-0.107
-517.902	-200.000	0.015	-0.320
-516.887	-44.875	-0.189	-0.095
-515.872	124.179	0.115	0.145
-514.858	26.126	-0.184	-0.154
-513.843	87.603	-0.113	0.126
-512.829	-170.422	-0.201	-0.007
-511.814	279.630	0.143	-0.256
-510.799	281.027	0.095	0.171
-509.785	653.639	0.125	0.322
-508.770	325.462	0.083	0.160
-507.756	34.031	-0.331	-0.289
-506.741	66.973	-0.133	-0.135
-505.726	91.072	0.399	0.449
-504.712	506.404	0.020	-0.046
-503.697	-200.000	-0.006	0.030
-502.683	-151.349	0.323	0.024
-501.668	-20.624	-0.314	-0.193
-500.653	87.136	-0.109	-0.120
-499.639	-200.000	0.159	0.000
-498.624	-108.070	0.135	0.029
-497.610	-200.000	0.047	-0.306
-496.595	-102.999	-0.293	-0.070
-495.581	144.632	0.203	-0.272
-494.566	327.533	0.103	0.198
-493.551	-200.000	-0.022	0.100
-492.537	245.082	0.084	-0.141
-491.522	96.814	-0.044	0.051
-490.508	282.959	-0.161	0.289
-489.493	-92.865	-0.147	0.041
-488.478	-200.000	-0.013	0.082
-487.464	402.343	0.104	-0.218
-486.449	-200.000	-0.021	-0.186
-485.435	800.000	0.067	0.208
-484.420	97.505	-0.158	-0.181
-483.405	36.630	0.061	-0.054
-482.391	-40.598	0.103	0.054
-481.376	800.000	-0.015	-0.046
-480.362	-169.366	0.204	-0.007
-479.347	108.264	-0.069	-0.083
-478.332	800.000	-0.124	-0.375
-477.318	-10.069	-0.199	-0.132
-476.303	158.237	0.197	-0.274
-475.289	-8.914	-0.128	0.085
-474.274	-57.315	-0.110	0.048
-473.259	118.358	-0.247	-0.305
-472.245	-78.311	-0.291	0.100
-471.230	-116.078	0.336	0.063
-470.216	-82.615	0.123	-0.040
-469.201	375.611	0.030	0.061
-468.186	89.913	-0.061	-0.068
-467.172	48.178	0.028	-0.026
-466.157	139.584	-0.125	-0.164
-465.143	-20.668	-0.229	-0.141
-464.128	-200.000	0.013	-0.368
-463.113	113.176	0.079	0.096
-462.099	-156.584	-0.154	-0.010
-461.084	112.494	-0.205	-0.248
-460.070	77.569	0.147	0.157
-459.055	-27.716	0.301	0.175
-458.040	-119.097	0.144	-0.025
-457.026	44.080	-0.320	-0.294
-456.011	-69.742	-0.253	-0.097
-454.997	-171.520	-0.062	-0.002
-453.982	-68.737	0.071	0.027
-452.968	577.746	0.153	0.375
-451.953	-1.985	-0.220	0.154
-450.938	800.000	0.085	0.237
-449.924	-200.000	0.013	0.161
-448.909	-30.111	-0.068	0.039
-447.895	75.665	-0.105	0.110
-446.880	477.171	-0.032	0.073
-445.865	155.407	0.283	0.390
-444.851	-200.000	0.053	0.330
-443.836	-200.000	-0.048	-0.225
-442.822	-139.303	-0.171	0.018
-441.807	230.703	0.125	0.204
-440.792	-153.136	0.254	-0.018
-439.778	-99.333	-0.178	0.045
-438.763	-160.356	-0.207	-0.011
-437.749	-93.399	0.415	0.115
-436.734	783.192	0.027	0.074
-435.719	-97.547	-0.251	-0.065
-434.705	558.484	-0.039	0.095
-433.690	-97.981	0.387	-0.100
-432.676	-200.000	0.008	0.050
-431.661	-103.059	-0.344	-0.081
-430.646	-22.583	0.172	0.104
-429.632	508.612	-0.176	0.409
-428.617	216.534	-0.159	-0.253
-427.603	10.669	0.220	0.168
-426.588	29.145	0.350	0.297
-425.573	58.609	0.275	0.270
-424.559	-198.083	-0.077	0.000
-423.544	73.362	0.116	-0.121
-422.530	649.931	0.065	-0.165
-421.515	10.116	0.218	-0.166
-420.500	-143.244	0.348	0.033
-419.486	370.680	-0.155	0.313
-418.471	191.137	0.143	0.215
-417.457	-33.203	-0.184	0.102
-416.442	-200.000	0.028	-0.348
-415.428	-77.004	0.076	-0.026
-414.413	140.979	-0.105	0.138
-413.398	97.833	-0.079	-0.090
-412.384	480.105	0.120	0.271
-411.369	-200.000	-0.002	-0.153
-410.355	411.012	-0.078	-0.165
-409.340	-191.574	0.111	0.001
-408.325	800.000	0.018	-0.068
-407.311	132.187	-0.043	0.055
-406.296	26.535	0.107	0.089
-405.282	234.840	0.079	-0.130
-404.267	449.962	0.039	-0.086
-403.252	150.994	-0.031	0.041
-402.238	800.000	-0.079	0.271
-401.223	-56.696	-0.176	-0.078
-400.209	-0.566	0.122	-0.086
-399.194	-71.729	0.362	-0.135
-398.179	164.682	0.020	-0.028
-397.165	-51.546	0.152	0.071
-396.150	800.000	0.023	-0.096
-395.136	111.731	0.201	0.242
-394.121	-60.796	0.207	0.087
-393.106	463.071	-0.096	0.214
-392.092	376.714	0.093	-0.189
-391.077	350.453	0.111	-0.220
-390.063	2.856	0.130	-0.094
-389.048	800.000	-0.021	-0.067
-388.033	800.000	-0.094	0.326
-387.019	69.001	-0.254	-0.261
-386.004	-69.954	-0.316	0.120
-384.990	-90.169	-0.088	0.025
-383.975	-9.941	-0.160	0.106
-382.960	12.724	-0.348	0.268
-381.946	-88.962	-0.341	-0.101
-380.931	-200.000	0.003	-0.116
-379.917	1.672	-0.305	0.219
-378.902	329.924	0.138	-0.265
-377.888	-66.498	0.390	0.154
-376.873	-8.235	-0.182	-0.122
-375.858	-200.000	0.006	-0.216
-374.844	800.000	0.087	-0.304
-373.829	37.070	0.140	0.123
-372.815	36.015	-0.164	0.144
-371.800	19.842	-0.099	0.079
-370.785	249.559	0.036	-0.060
-369.771	287.388	0.092	-0.166
-368.756	-200.000	0.006	0.288
-367.742	-200.000	0.026	0.168
-366.727	80.495	0.253	0.272
-365.712	210.510	0.110	0.171
-364.698	-19.243	0.154	0.095
-363.683	69.831	0.233	0.239
-362.669	-200.000	0.006	-0.184
-361.654	614.498	-0.125	0.313
-360.639	-95.129	0.100	0.027
-359.625	-91.630	-0.151	-0.043
-358.610	-20.155	0.184	0.113
-357.596	-113.169	0.191	0.037
-356.581	-200.000	-0.064	-0.447
-355.566	88.964	-0.285	-0.316
-354.552	15.816	-0.309	0.242
-353.537	-156.538	0.180	0.011
-352.523	-86.080	-0.093	-0.029
-351.508	195.807	-0.050	0.075
-350.493	214.283	0.145	-0.228
-349.479	-200.000	0.003	-0.033
-348.464	-121.209	-0.168	-0.028
-347.450	-114.738	-0.125	0.024
-346.435	800.000	0.053	-0.228
-345.420	649.094	0.114	0.292
-344.406	440.071	0.086	0.186
-343.391	-200.000	0.047	-0.304
-342.377	19.888	0.208	-0.167
-341.362	800.000	-0.084	-0.245
-340.348	137.981	-0.146	-0.190
-339.333	-151.354	0.236	-0.018
-338.318	-138.707	0.207	0.022
-337.304	-159.469	-0.262	0.015
-336.289	488.961	-0.177	-0.403
-335.275	-200.000	-0.021	-0.152
-334.260	-200.000	0.009	0.069
-333.245	554.604	0.053	-0.128
-332.231	-200.000	0.008	0.140
-331.216	219.210	0.049	-0.079
-330.202	800.000	0.047	0.148
-329.187	-86.649	0.138	0.042
-328.172	-171.693	-0.337	-0.011
-327.158	-70.604	0.153	0.058
-326.143	5.441	0.098	0.072
-325.129	120.842	-0.170	0.210
-324.114	549.599	-0.027	0.064
-323.099	124.480	-0.282	0.353
-322.085	-200.000	-0.008	0.202
-321.070	389.034	-0.088	0.182
-320.056	-183.253	0.140	-0.002
-319.041	36.162	0.191	-0.167
-318.026	59.456	-0.397	-0.390
-317.012	-79.062	0.265	0.090
-315.997	-79.369	0.348	-0.117
-314.983	800.000	-0.045	-0.189
-313.968	800.000	0.021	-0.070
-312.953	267.641	-0.168	-0.293
-311.939	6.890	0.090	0.066
-310.924	39.318	0.339	0.302
-309.910	8.017	0.142	0.106
-308.895	155.422	0.215	-0.294
-307.880	-37.959	-0.192	-0.101
-306.866	372.121	0.086	-0.173
-305.851	-52.603	0.238	-0.109
-304.837	65.143	0.158	0.159
-303.822	143.019	0.158	0.209
-302.807	-113.341	0.266	0.052
-301.793	205.884	-0.139	0.215
-300.778	800.000	-0.074	-0.242
-299.764	623.343	0.138	-0.346
-298.749	-23.484	-0.167	0.100
-297.735	-200.000	0.015	-0.099
-296.720	243.674	0.124	0.207
-295.705	39.601	-0.131	0.117
-294.691	339.574	0.042	0.082
-293.676	800.000	-0.093	-0.301
-292.662	211.108	0.173	-0.270
-291.647	-200.000	0.063	-0.284
-290.632	-200.000	0.020	0.090
-289.618	-200.000	0.002	0.243
-288.603	-131.066	-0.140	0.019
-287.589	310.515	0.127	0.237
-286.574	6.383	0.122	0.090
-285.559	-43.417	0.107	-0.054
-284.545	159.207	-0.207	-0.286
-283.530	-144.522	-0.075	0.007
-282.516	-21.317	0.132	-0.080
-281.501	-200.000	-0.012	0.382
-280.486	78.467	0.310	-0.329
-279.472	36.748	-0.221	0.194
-278.457	-200.000	0.036	-0.173
-277.443	-24.117	-0.290	-0.172
-276.428	800.000	-0.077	-0.233
-275.413	390.221	0.033	-0.068
-274.399	-130.604	-0.082	0.011
-273.384	54.610	0.134	0.129
-272.370	16.222	0.154	0.121
-271.355	43.805	0.200	0.182
-270.340	112.220	-0.110	-0.131
-269.326	148.155	0.298	-0.399
-268.311	153.585	-0.052	-0.070
-267.297	-138.022	0.171	-0.019
-266.282	-61.042	0.391	0.164
-265.267	800.000	-0.019	-0.063
-264.253	-176.682	-0.292	-0.007
-263.238	-78.561	0.043	-0.015
-262.224	-121.082	0.131	-0.022
-261.209	17.306	0.131	0.103
-260.195	-181.060	0.053	0.001
-259.180	-200.000	-0.150	0.001
-258.165	37.953	-0.137	0.121
-257.151	228.454	0.073	0.119
-256.136	-60.009	0.287	-0.122
-255.122	-200.000	-0.035	-0.396
-254.107	-200.000	-0.020	-0.295
-253.092	-200.000	0.049	0.461
-252.078	332.970	0.084	-0.161
-251.063	-55.332	0.515	0.229
-250.049	118.599	-0.106	0.130
-249.034	-13.944	-0.049	-0.031
-248.019	-200.000	0.029	0.153
-247.005	109.389	0.098	0.117
-245.990	357.556	-0.092	0.182
-244.976	800.000	-0.161	-0.471
-243.961	-96.922	0.193	-0.050
-242.946	800.000	0.023	0.100
-241.932	-41.153	0.050	-0.026
-240.917	-78.252	0.233	0.079
-239.903	-26.499	0.073	0.043
-238.888	276.306	0.058	-0.102
-237.873	800.000	-0.019	0.078
-236.859	-89.390	-0.391	-0.114
-235.844	-60.759	0.249	-0.104
-234.830	-200.000	-0.004	-0.018
-233.815	132.069	0.104	0.132
-232.800	175.312	0.078	0.112
-231.786	102.155	-0.160	-0.185
-230.771	-81.247	0.273	0.089
-229.757	-89.392	-0.189	0.055
-228.742	226.220	-0.061	-0.098
-227.727	146.123	-0.173	0.230
-226.713	-91.001	-0.441	0.125
-225.698	-29.765	-0.248	0.140
-224.684	-200.000	-0.056	-0.441
-223.669	47.297	-0.151	-0.139
-222.655	-25.866	0.243	0.142
-221.640	254.993	-0.099	-0.168
-220.625	-200.000	-0.002	-0.033
-219.611	66.978	-0.077	-0.078
-218.596	519.321	-0.069	-0.159
-217.582	62.359	0.178	0.176
-216.567	800.000	0.136	-0.403
-215.552	-31.016	0.089	0.050
-214.538	-200.000	0.016	0.462
-213.523	-113.881	-0.273	0.053
-212.509	-200.000	-0.042	0.226
-211.494	146.132	-0.152	0.201
-210.479	-200.000	-0.065	0.296
-209.465	500.195	-0.097	0.221
-208.450	402.187	0.055	0.115
-207.436	-200.000	0.018	0.166
-206.421	800.000	-0.012	-0.038
-205.406	800.000	-0.015	-0.061
-204.392	118.569	-0.247	-0.301
-203.377	16.226	0.152	-0.119
-202.363	800.000	0.019	-0.061
-201.348	800.000	-0.111	-0.315
-200.333	144.990	-0.152	-0.202
-199.319	-200.000	-0.010	-0.138
-198.304	-200.000	0.013	0.065
-197.290	-184.225	0.209	0.003
-196.275	-191.363	-0.184	0.002
-195.260	-47.092	0.143	0.069
-194.246	-90.552	-0.198	-0.057
-193.231	104.969	-0.080	0.093
-192.217	-155.166	0.215	-0.014
-191.202	800.000	-0.023	-0.075
-190.187	225.476	0.178	0.285
-189.173	800.000	0.103	-0.390
-188.158	800.000	-0.031	0.110
-187.144	-200.000	0.000	0.113
-186.129	160.698	0.079	0.109
-185.114	367.158	0.052	0.104
-184.100	-61.444	0.260	0.108
-183.085	62.167	-0.035	0.034
-182.071	-200.000	-0.029	0.257
-181.056	200.697	0.119	-0.181
-180.042	-30.041	0.073	-0.041
-179.027	-108.300	-0.297	-0.064
-178.012	409.791	0.147	0.309
-176.998	-200.000	0.050	0.308
-175.983	-27.052	0.207	-0.119
-174.969	-35.340	-0.145	-0.078
-173.954	-80.977	-0.408	0.134
-172.939	-200.000	0.027	0.170
-171.925	-61.882	0.089	0.037
-170.910	142.646	-0.038	0.050
-169.896	59.877	-0.174	-0.170
-168.881	1.313	0.287	-0.204
-167.866	-71.005	-0.095	-0.035
-166.852	-48.949	-0.258	-0.122
-165.837	-90.846	-0.181	-0.052
-164.823	71.160	-0.035	-0.035
-163.808	-200.000	0.016	-0.256
-162.793	-19.781	0.168	-0.102
-161.779	111.575	0.175	0.209
-160.764	126.407	-0.080	-0.100
-159.750	-87.775	0.060	0.018
-158.735	-147.172	-0.243	0.020
-157.720	-85.333	0.061	0.019
-156.706	-101.318	0.321	0.077
-155.691	-200.000	0.015	-0.406
-154.677	3.466	0.102	0.073
-153.662	-54.739	0.040	0.018
-152.647	-42.812	-0.520	-0.261
-151.633	800.000	-0.074	0.208
-150.618	166.437	-0.172	-0.241
-149.604	-131.740	0.243	-0.032
-148.589	-68.196	-0.179	0.069
-147.574	78.555	-0.197	-0.208
-146.560	-200.000	0.099	-0.479
-145.545	-200.000	-0.050	-0.366
-144.531	7.185	0.347	0.256
-143.516	173.093	0.183	0.261
-142.502	-63.267	-0.232	-0.095
-141.487	-137.877	-0.189	-0.021
-140.472	-83.475	0.279	0.088
-139.458	623.978	0.066	-0.164
-138.443	800.000	-0.050	0.165
-137.429	-110.968	-0.144	0.029
-136.414	66.646	0.067	0.067
-135.399	273.914	-0.055	0.097
-134.385	121.047	-0.054	-0.066
-133.370	-0.692	0.093	-0.065
-132.356	800.000	-0.090	0.249
-131.341	-78.206	0.240	0.082
-130.326	40.609	0.141	0.126
-129.312	-200.000	-0.040	-0.247
-128.297	-161.186	-0.323	-0.017
-127.283	-51.610	-0.098	-0.045
-126.268	-105.183	0.176	0.040
-125.253	-186.676	0.112	-0.002
-124.239	800.000	-0.055	-0.197
-123.224	230.035	0.066	-0.106
-122.210	-132.516	-0.080	0.010
-121.195	-200.000	-0.094	0.434
