DTS Sentinel unit serial number:	SN413079Multiplexer serial number:	ORYXHardware model number:	OX4-SRSoftware version number:	ORYX F/W v4.00 Oryx Data Collector v3.7.2.0data status	okinstallation	princeton_trtdifferential loss correction	single-endedforward channel	channel 3reverse channel	N/Adate	2019/09/10time	15:38:10forward acquisition time	60.00reverse acquisition time	0.00gamma	496.2192k internal	0.2298k external	0.2298temperature offset calibration	0.9909default loss term (dB/km)	0.3790temperature slope calibration	1.0000multiplexer offset coefficient	1.0000multiplexer slope coefficient	1.0000fibre end	0.00T internal ref (°C)	38.00T ext. ref 1 (°C)	-0.27T ext. ref 2 (°C)	31.27length (m)	temperature (°C)	Stokes	anti-Stokes-747.200	-200.000	0.009	-0.073
-746.185	-58.206	-0.383	-0.170
-745.171	800.000	0.091	-0.313
-744.156	116.605	-0.240	0.301
-743.142	149.011	-0.284	-0.392
-742.127	149.017	-0.070	-0.097
-741.112	4.094	0.247	0.185
-740.098	13.213	0.143	-0.113
-739.083	113.769	0.155	-0.192
-738.069	-160.554	-0.184	-0.010
-737.054	235.210	0.070	-0.118
-736.039	-89.938	0.174	0.052
-735.025	150.008	0.176	0.243
-734.010	-200.000	-0.331	0.001
-732.996	-80.131	-0.208	-0.071
-731.981	500.325	-0.044	0.105
-730.966	79.129	-0.225	0.246
-729.952	93.242	-0.258	0.298
-728.937	800.000	0.137	0.399
-727.923	-87.044	-0.426	0.132
-726.908	-79.753	0.032	0.011
-725.894	800.000	-0.036	-0.115
-724.879	115.219	0.182	-0.227
-723.864	-200.000	-0.077	-0.383
-722.850	98.412	-0.140	-0.165
-721.835	-2.608	-0.143	-0.102
-720.821	-114.007	0.110	0.022
-719.806	212.424	0.067	-0.108
-718.791	-129.292	-0.197	0.028
-717.777	485.405	-0.017	-0.040
-716.762	-200.000	0.023	-0.171
-715.748	-38.372	-0.163	-0.088
-714.733	-102.377	-0.142	-0.035
-713.718	19.503	-0.059	-0.049
-712.704	-51.837	-0.287	0.136
-711.689	79.919	0.098	0.107
-710.675	-13.818	0.152	0.100
-709.660	800.000	0.129	0.453
-708.645	800.000	-0.081	0.278
-707.631	173.200	-0.077	-0.113
-706.616	-200.000	0.067	0.305
-705.602	-200.000	-0.030	0.305
-704.587	-200.000	-0.045	-0.316
-703.572	-107.117	-0.183	0.041
-702.558	-200.000	-0.015	0.091
-701.543	393.216	-0.059	-0.124
-700.529	800.000	-0.056	0.163
-699.514	800.000	-0.052	-0.183
-698.499	-15.173	-0.270	-0.176
-697.485	-143.351	-0.306	0.030
-696.470	-89.850	0.386	0.115
-695.456	286.364	0.061	-0.113
-694.441	-113.062	-0.347	-0.070
-693.426	268.768	0.083	0.149
-692.412	7.030	0.228	-0.173
-691.397	-76.152	-0.129	0.046
-690.383	584.606	0.129	0.322
-689.368	-200.000	-0.004	-0.338
-688.354	800.000	0.074	-0.313
-687.339	60.331	-0.170	0.171
-686.324	-200.000	-0.016	0.083
-685.310	-200.000	0.017	0.189
-684.295	515.828	-0.113	-0.270
-683.281	203.540	-0.105	0.165
-682.266	-200.000	0.052	0.238
-681.251	-200.000	-0.000	0.077
-680.237	-200.000	0.017	-0.281
-679.222	800.000	0.168	-0.501
-678.208	-88.577	-0.029	0.009
-677.193	-103.078	0.186	-0.045
-676.178	58.707	-0.248	0.248
-675.164	98.507	0.216	0.253
-674.149	38.396	0.079	-0.072
-673.135	-99.084	0.137	-0.035
-672.120	-158.612	0.092	-0.005
-671.105	-91.804	0.357	0.103
-670.091	84.027	0.097	-0.108
-669.076	-200.000	-0.089	0.396
-668.062	-69.934	-0.099	-0.038
-667.047	58.924	-0.125	-0.125
-666.032	-19.431	0.177	-0.111
-665.018	81.974	0.207	-0.229
-664.003	-103.810	0.258	0.061
-662.989	64.042	-0.142	-0.146
-661.974	-200.000	0.059	-0.263
-660.959	-145.856	-0.124	-0.011
-659.945	9.395	-0.180	0.138
-658.930	-68.516	0.137	-0.054
-657.916	12.289	-0.269	-0.211
-656.901	-200.000	0.061	0.323
-655.886	-5.337	-0.178	0.125
-654.872	127.031	0.214	0.276
-653.857	-114.212	0.165	-0.032
-652.843	-126.504	-0.077	-0.012
-651.828	111.892	-0.144	0.177
-650.814	-200.000	0.032	0.229
-649.799	-40.574	0.104	0.055
-648.784	409.615	0.116	-0.249
-647.770	-50.296	-0.221	-0.106
-646.755	-157.181	0.184	-0.011
-645.741	-72.754	-0.225	-0.084
-644.726	800.000	-0.044	0.150
-643.711	-77.943	-0.120	-0.042
-642.697	197.916	-0.121	0.189
-641.682	-0.819	-0.414	0.298
-640.668	-33.200	0.168	-0.095
-639.653	-106.647	0.114	-0.026
-638.638	10.812	0.160	0.124
-637.624	646.976	-0.048	0.126
-636.609	-144.425	0.359	0.034
-635.595	-200.000	0.024	-0.141
-634.580	123.450	0.161	-0.206
-633.565	-120.310	0.101	0.018
-632.551	-149.124	-0.097	0.008
-631.536	-128.656	0.057	-0.008
-630.522	782.499	-0.086	0.240
-629.507	800.000	-0.080	-0.241
-628.492	74.346	0.122	-0.130
-627.478	443.573	0.040	0.089
-626.463	-99.603	0.169	0.043
-625.449	406.410	0.137	-0.294
-624.434	19.630	0.248	0.203
-623.419	-200.000	0.015	0.669
-622.405	23.532	-0.035	-0.029
-621.390	-36.208	-0.259	-0.142
-620.376	146.855	-0.054	0.074
-619.361	-200.000	0.081	0.365
-618.346	-72.919	0.292	-0.109
-617.332	-143.619	-0.515	-0.050
-616.317	-4.831	-0.124	0.087
-615.303	-200.000	-0.010	0.110
-614.288	22.491	0.201	0.167
-613.273	-59.258	-0.101	-0.044
-612.259	122.029	-0.054	-0.069
-611.244	588.831	-0.161	-0.402
-610.230	-200.000	-0.086	-0.421
-609.215	164.391	0.024	0.034
-608.201	-200.000	-0.003	0.087
-607.186	22.371	-0.150	0.124
-606.171	-200.000	0.032	0.232
-605.157	-180.201	-0.191	0.004
-604.142	-107.114	-0.260	-0.058
-603.128	644.094	0.037	-0.095
-602.113	800.000	-0.057	-0.179
-601.098	-139.578	0.336	0.036
-600.084	-28.671	0.088	-0.052
-599.069	-116.164	0.180	0.034
-598.055	25.560	0.079	-0.066
-597.040	-63.703	-0.135	-0.056
-596.025	55.456	-0.159	0.157
-595.011	-200.000	0.449	-0.002
-593.996	377.243	0.076	-0.157
-592.982	800.000	0.111	-0.324
-591.967	-200.000	0.050	0.233
-590.952	104.101	0.034	0.041
-589.938	140.142	0.109	0.146
-588.923	-200.000	0.014	0.129
-587.909	-200.000	-0.031	-0.160
-586.894	-53.941	0.165	0.076
-585.879	-0.458	-0.086	0.062
-584.865	-200.000	-0.006	-0.341
-583.850	-101.074	0.196	0.049
-582.836	238.004	0.098	0.166
-581.821	-200.000	-0.004	-0.259
-580.806	130.692	-0.086	-0.112
-579.792	-53.234	0.259	-0.121
-578.777	-116.218	0.283	0.053
-577.763	-10.192	-0.310	0.209
-576.748	800.000	-0.063	-0.250
-575.733	-115.007	0.066	0.013
-574.719	-109.255	-0.354	0.076
-573.704	-87.223	-0.028	0.009
-572.690	93.656	0.165	0.189
-571.675	39.686	-0.181	-0.165
-570.661	166.054	0.059	-0.085
-569.646	-167.108	-0.339	0.014
-568.631	-138.934	0.020	0.002
-567.617	-99.268	0.183	0.047
-566.602	773.810	0.095	0.264
-565.588	-43.336	0.096	-0.049
-564.573	-112.261	-0.101	-0.021
-563.558	-200.000	0.019	-0.322
-562.544	230.917	-0.120	-0.199
-561.529	160.697	-0.109	0.154
-560.515	-36.531	-0.280	0.153
-559.500	-118.311	0.187	-0.034
-558.485	155.099	-0.082	0.114
-557.471	-120.530	0.221	-0.038
-556.456	-69.537	-0.400	-0.155
-555.442	153.983	-0.118	0.164
-554.427	6.274	0.150	0.113
-553.412	12.729	-0.084	0.066
-552.398	-70.657	0.433	0.166
-551.383	-200.000	-0.113	-0.000
-550.369	350.045	0.143	0.286
-549.354	32.377	-0.219	-0.191
-548.339	634.820	-0.085	0.220
-547.325	144.141	-0.117	0.159
-546.310	35.926	0.189	-0.169
-545.296	800.000	-0.006	0.022
-544.281	-200.000	0.004	-0.104
-543.266	734.258	0.082	-0.223
-542.252	135.571	0.255	-0.336
-541.237	-77.448	0.218	0.077
-540.223	-116.107	-0.151	0.028
-539.208	-200.000	-0.025	-0.185
-538.193	-141.513	-0.143	-0.015
-537.179	596.134	0.158	0.396
-536.164	163.228	0.071	0.100
-535.150	61.336	0.399	-0.402
-534.135	800.000	0.053	-0.200
-533.121	-81.692	-0.218	-0.072
-532.106	-200.000	0.046	-0.361
-531.091	584.678	-0.046	0.114
-530.077	-19.222	0.075	-0.047
-529.062	-47.007	0.165	-0.082
-528.048	-95.826	-0.268	-0.072
-527.033	800.000	-0.067	-0.269
-526.018	-200.000	-0.002	-0.242
-525.004	9.272	0.184	0.141
-523.989	-70.903	-0.345	0.132
-522.975	-115.684	-0.082	-0.016
-521.960	-200.000	0.015	-0.305
-520.945	686.645	-0.095	-0.252
-519.931	-200.000	0.010	-0.097
-518.916	800.000	0.087	-0.256
-517.902	539.061	0.026	0.064
-516.887	-97.690	-0.213	0.056
-515.872	-200.000	0.019	0.118
-514.858	707.487	0.053	-0.142
-513.843	-117.599	0.074	-0.014
-512.829	55.691	-0.097	0.095
-511.814	-200.000	-0.015	0.107
-510.799	-55.907	-0.070	0.031
-509.785	-200.000	-0.033	-0.159
-508.770	-114.147	0.295	0.058
-507.756	-69.559	0.077	-0.030
-506.741	325.105	0.076	0.147
-505.726	800.000	0.038	0.137
-504.712	-87.117	0.153	0.047
-503.697	-200.000	0.046	0.342
-502.683	163.692	0.193	-0.274
-501.668	-99.663	0.310	0.079
-500.653	27.823	-0.150	0.128
-499.639	-22.137	-0.075	0.046
-498.624	-112.937	-0.329	-0.066
-497.610	119.537	0.033	0.042
-496.595	-35.777	-0.449	-0.246
-495.581	-100.814	0.192	0.048
-494.566	-200.000	-0.031	-0.317
-493.551	-180.224	-0.262	0.006
-492.537	-71.527	-0.304	-0.115
-491.522	-103.148	0.488	-0.117
-490.508	123.175	-0.151	-0.191
-489.493	-27.849	0.098	0.057
-488.478	-137.667	-0.212	0.024
-487.464	248.653	0.075	0.128
-486.449	114.345	-0.117	-0.144
-485.435	-23.860	-0.159	-0.096
-484.420	639.691	-0.160	-0.412
-483.405	-200.000	-0.007	-0.314
-482.391	-32.154	0.107	0.060
-481.376	15.282	-0.145	0.115
-480.362	1.111	-0.227	0.165
-479.347	800.000	-0.113	0.415
-478.332	-132.829	0.203	-0.026
-477.318	171.757	-0.053	-0.077
-476.303	-67.097	-0.181	-0.072
-475.289	277.157	0.113	-0.203
-474.274	162.591	-0.089	0.125
-473.259	424.137	0.076	0.165
-472.245	-159.718	0.303	-0.017
-471.230	-200.000	0.085	-0.395
-470.216	-22.590	0.311	-0.190
-469.201	18.344	0.344	0.278
-468.186	-114.839	-0.088	0.017
-467.172	150.369	-0.207	-0.285
-466.157	267.025	-0.118	0.208
-465.143	1.926	0.363	0.264
-464.128	51.760	0.122	-0.117
-463.113	-11.797	0.018	0.012
-462.099	-22.633	-0.210	0.128
-461.084	-165.395	0.129	-0.006
-460.070	-200.000	-0.008	0.037
-459.055	800.000	0.055	0.155
-458.040	-200.000	-0.023	0.134
-457.026	-95.942	-0.215	-0.058
-456.011	212.172	-0.142	0.226
-454.997	-63.267	0.140	-0.058
-453.982	-18.537	-0.147	0.093
-452.968	800.000	0.050	0.201
-451.953	-117.970	-0.152	0.027
-450.938	800.000	0.019	0.069
-449.924	-35.498	0.138	-0.076
-448.909	233.489	-0.105	-0.175
-447.895	-188.047	0.123	-0.002
-446.880	-187.906	0.016	-0.000
-445.865	-41.965	0.313	-0.162
-444.851	-12.143	0.077	0.051
-443.836	13.002	0.373	0.291
-442.822	-200.000	0.013	0.144
-441.807	-200.000	0.007	0.150
-440.792	65.426	0.045	-0.046
-439.778	-106.500	0.310	0.070
-438.763	-65.658	0.416	0.168
-437.749	800.000	0.036	-0.150
-436.734	-175.812	0.173	0.005
-435.719	-46.886	-0.201	0.099
-434.705	-33.332	-0.192	-0.107
-433.690	175.572	-0.106	-0.155
-432.676	-180.526	-0.238	-0.005
-431.661	-129.937	-0.167	-0.023
-430.646	-79.433	0.061	0.021
-429.632	343.059	-0.100	0.198
-428.617	-96.178	0.179	0.048
-427.603	-144.777	0.236	0.022
-426.588	5.143	0.129	0.096
-425.573	248.114	-0.222	-0.379
-424.559	-136.190	0.262	-0.031
-423.544	800.000	-0.036	0.137
-422.530	-18.989	0.333	0.209
-421.515	-151.783	0.008	0.001
-420.500	-75.029	-0.160	-0.058
-419.486	235.233	-0.145	-0.242
-418.471	-187.096	0.135	0.002
-417.457	800.000	-0.055	-0.185
-416.442	-125.431	0.232	-0.036
-415.428	800.000	-0.058	0.250
-414.413	-200.000	0.019	-0.259
-413.398	-23.976	-0.073	-0.044
-412.384	-46.547	-0.106	-0.052
-411.369	-98.785	-0.183	-0.047
-410.355	-200.000	-0.004	0.062
-409.340	26.800	0.187	-0.158
-408.325	-185.169	-0.156	-0.002
-407.311	32.042	0.080	0.069
-406.296	157.940	0.152	-0.212
-405.282	-0.734	0.279	0.199
-404.267	-200.000	0.019	0.207
-403.252	-142.669	0.215	-0.021
-402.238	264.917	-0.189	0.332
-401.223	-61.044	-0.341	0.145
-400.209	800.000	-0.089	-0.256
-399.194	629.479	-0.054	0.138
-398.179	800.000	0.031	-0.110
-397.165	236.492	-0.118	0.197
-396.150	-61.363	0.203	0.086
-395.136	-200.000	0.017	-0.400
-394.121	-167.982	-0.307	-0.012
-393.106	228.829	-0.093	0.153
-392.092	73.734	-0.036	-0.038
-391.077	-200.000	0.029	0.173
-390.063	20.031	-0.095	0.077
-389.048	-10.397	-0.136	-0.091
-388.033	-200.000	0.045	-0.249
-387.019	-48.460	0.081	0.039
-386.004	1.773	0.077	-0.056
-384.990	702.773	0.121	-0.320
-383.975	-200.000	-0.022	-0.191
-382.960	79.725	-0.098	-0.106
-381.946	57.743	0.082	0.080
-380.931	-162.049	-0.302	0.015
-379.917	205.722	0.079	0.123
-378.902	38.255	0.120	0.107
-377.888	-106.025	-0.386	-0.087
-376.873	-7.756	0.096	0.065
-375.858	1.626	0.291	0.211
-374.844	-32.949	-0.134	0.075
-373.829	96.613	-0.186	0.214
-372.815	-153.188	0.327	0.023
-371.800	-129.277	-0.261	-0.037
-370.785	-39.742	-0.030	-0.016
-369.771	-200.000	-0.035	0.196
-368.756	-96.225	-0.445	-0.119
-367.742	800.000	-0.050	0.184
-366.727	-200.000	-0.015	0.310
-365.712	-23.581	0.175	-0.105
-364.698	312.175	-0.092	-0.173
-363.683	-48.440	0.138	-0.067
-362.669	-94.254	-0.131	0.036
-361.654	-200.000	0.000	0.086
-360.639	316.166	-0.148	-0.282
-359.625	69.582	-0.270	0.280
-358.610	800.000	-0.047	0.174
-357.596	192.371	-0.155	-0.235
-356.581	-200.000	-0.014	0.068
-355.566	-127.410	-0.175	0.026
-354.552	-200.000	0.049	0.340
-353.537	-200.000	0.051	0.238
-352.523	-30.191	0.317	0.181
-351.508	277.604	-0.119	0.212
-350.493	-132.651	-0.085	0.011
-349.479	12.805	-0.178	-0.138
-348.464	-130.921	-0.265	-0.036
-347.450	393.578	-0.185	-0.386
-346.435	574.973	-0.030	0.072
-345.420	46.273	0.112	0.104
-344.406	-142.168	0.128	0.013
-343.391	-200.000	-0.096	-0.530
-342.377	-166.170	-0.236	-0.010
-341.362	-200.000	-0.011	0.083
-340.348	94.629	0.116	-0.133
-339.333	-200.000	-0.026	-0.250
-338.318	-200.000	-0.040	0.405
-337.304	-200.000	-0.025	-0.347
-336.289	103.786	0.123	-0.145
-335.275	-144.083	0.078	-0.007
-334.260	142.267	0.171	-0.228
-333.245	800.000	0.077	-0.248
-332.231	123.956	0.115	0.145
-331.216	-8.138	0.416	0.282
-330.202	-124.404	0.226	0.035
-329.187	5.572	-0.225	-0.167
-328.172	116.044	0.167	-0.205
-327.158	384.841	-0.180	-0.372
-326.143	68.990	-0.105	-0.109
-325.129	-200.000	0.005	0.036
-324.114	-58.639	0.397	0.173
-323.099	-57.499	-0.076	0.034
-322.085	12.938	-0.175	-0.136
-321.070	-24.908	-0.300	-0.179
-320.056	-200.000	0.052	-0.360
-319.041	-147.194	-0.198	-0.017
-318.026	69.664	-0.153	-0.158
-317.012	-123.091	-0.154	-0.025
-315.997	57.048	-0.304	-0.298
-314.983	-18.132	-0.296	-0.186
-313.968	-200.000	-0.037	-0.164
-312.953	-52.646	-0.148	0.069
-311.939	800.000	-0.107	0.339
-310.924	-200.000	-0.031	0.148
-309.910	450.819	-0.066	-0.146
-308.895	-171.310	-0.289	0.010
-307.880	229.456	0.115	-0.188
-306.866	-18.459	0.231	0.145
-305.851	800.000	0.107	0.317
-304.837	187.849	0.074	-0.110
-303.822	-200.000	0.000	-0.183
-302.807	80.493	0.217	-0.235
-301.793	227.441	0.199	0.325
-300.778	-26.554	-0.154	0.090
-299.764	440.838	0.070	0.153
-298.749	800.000	0.066	0.247
-297.735	-200.000	-0.048	0.299
-296.720	-33.633	-0.314	-0.174
-295.705	-200.000	0.019	-0.218
-294.691	135.793	-0.146	-0.191
-293.676	-137.809	0.103	-0.012
-292.662	-200.000	0.027	-0.330
-291.647	127.180	-0.087	-0.111
-290.632	-200.000	-0.062	0.339
-289.618	77.419	0.099	-0.105
-288.603	-149.652	0.273	0.022
-287.589	-123.182	0.100	-0.016
-286.574	-7.140	0.074	0.050
-285.559	800.000	-0.028	0.101
-284.545	-101.910	-0.409	0.099
-283.530	90.220	-0.147	0.165
-282.516	143.240	0.207	0.277
-281.501	50.574	-0.242	0.230
-280.486	-145.299	-0.417	0.038
-279.472	237.230	-0.075	-0.124
-278.457	-200.000	-0.016	0.408
-277.443	-92.887	0.580	-0.162
-276.428	90.182	-0.090	0.101
-275.413	-200.000	-0.020	-0.176
-274.399	-113.134	-0.111	-0.022
-273.384	41.664	-0.156	0.142
-272.370	-143.004	-0.314	-0.030
-271.355	-200.000	-0.008	0.076
-270.340	-144.314	0.281	0.026
-269.326	54.751	0.219	0.212
-268.311	115.598	-0.187	0.229
-267.297	800.000	0.075	-0.248
-266.282	17.670	-0.069	-0.055
-265.267	695.076	0.085	-0.224
-264.253	-123.836	0.138	-0.022
-263.238	-88.458	-0.250	0.075
-262.224	-123.474	-0.186	-0.030
-261.209	-27.537	-0.157	-0.091
-260.195	61.259	0.081	0.081
-259.180	-200.000	0.018	0.189
-258.165	333.164	0.162	0.314
-257.151	-39.832	0.215	-0.112
-256.136	-120.034	-0.139	-0.024
-255.122	-109.977	-0.207	-0.043
-254.107	-11.720	-0.229	-0.151
-253.092	-200.000	0.006	0.130
-252.078	800.000	0.053	0.171
-251.063	-44.014	-0.354	-0.178
-250.049	13.040	0.376	0.291
-249.034	-200.000	-0.009	-0.061
-248.019	-115.868	0.135	-0.025
-247.005	-86.468	-0.105	-0.032
-245.990	237.857	0.055	-0.091
-244.976	-113.711	0.217	0.042
-243.961	-88.046	-0.325	-0.098
-242.946	-200.000	-0.006	0.169
-241.932	-37.617	-0.058	0.031
-240.917	-200.000	-0.029	-0.154
-239.903	-200.000	0.020	0.136
-238.888	313.945	0.164	-0.308
-237.873	-41.630	0.372	0.192
-236.859	-26.113	-0.182	-0.107
-235.844	125.832	0.174	0.220
-234.830	-140.839	-0.315	-0.032
-233.815	-160.211	0.590	0.032
-232.800	-99.974	-0.188	0.047
-231.786	69.977	-0.180	-0.186
-230.771	15.736	-0.297	-0.234
-229.757	206.624	0.034	0.053
-228.742	401.550	0.066	0.139
-227.727	-46.689	-0.203	-0.099
-226.713	-200.000	0.010	0.185
-225.698	96.398	-0.081	-0.093
-224.684	318.372	0.188	0.357
-223.669	-35.375	-0.085	0.046
-222.655	-2.926	-0.202	-0.141
-221.640	-200.000	0.010	0.123
-220.625	-150.851	-0.172	-0.013
-219.611	-55.847	-0.079	0.035
-218.596	172.164	-0.163	0.234
-217.582	117.078	0.171	0.211
-216.567	-0.644	0.138	-0.098
-215.552	-38.189	0.140	0.074
-214.538	353.047	-0.090	0.179
-213.523	-98.936	-0.265	-0.067
-212.509	76.332	-0.052	-0.055
-211.494	-56.388	-0.203	-0.090
-210.479	7.417	0.212	0.158
-209.465	-43.154	0.316	-0.160
-208.450	60.006	-0.083	0.082
-207.436	606.823	0.153	0.381
-206.421	170.444	-0.230	0.330
-205.406	-200.000	0.031	-0.300
-204.392	767.272	-0.131	0.355
-203.377	-200.000	-0.047	0.268
-202.363	354.599	0.078	0.154
-201.348	800.000	-0.084	-0.249
-200.333	-84.217	0.134	-0.042
-199.319	-70.529	0.143	-0.054
-198.304	-200.000	0.011	-0.323
-197.290	161.125	0.227	-0.317
-196.275	-69.865	0.090	0.034
-195.260	211.155	0.165	0.260
-194.246	318.994	0.061	0.116
-193.231	-69.646	-0.052	0.020
-192.217	168.692	0.202	0.288
-191.202	-200.000	0.037	-0.248
-190.187	-200.000	0.055	0.523
-189.173	68.281	-0.199	-0.204
-188.158	19.998	0.037	0.030
-187.144	161.075	0.088	0.123
-186.129	-80.357	-0.168	-0.056
-185.114	-137.050	0.275	0.031
-184.100	-141.126	-0.200	-0.020
-183.085	-129.705	-0.125	-0.017
-182.071	-200.000	0.039	-0.321
-181.056	-132.357	0.498	-0.064
-180.042	-200.000	0.068	-0.532
-179.027	-7.137	0.320	0.217
-178.012	82.590	0.253	0.274
-176.998	-200.000	-0.028	0.134
-175.983	432.736	0.070	-0.152
-174.969	46.981	-0.134	-0.124
-173.954	517.402	-0.041	0.096
-172.939	-184.220	-0.283	0.005
-171.925	304.908	0.223	0.413
-170.910	800.000	0.034	-0.133
-169.896	556.761	0.024	0.058
-168.881	-167.466	0.087	0.003
-167.866	-200.000	-0.009	0.119
-166.852	-47.064	0.098	0.048
-165.837	800.000	0.027	-0.089
-164.823	9.554	0.133	-0.101
-163.808	57.526	0.127	-0.124
-162.793	-45.658	-0.226	-0.112
-161.779	88.701	0.175	-0.195
-160.764	138.304	-0.167	-0.219
-159.750	65.138	-0.290	-0.293
-158.735	800.000	0.054	-0.196
-157.720	132.897	0.240	0.310
-156.706	-33.789	-0.086	0.047
-155.691	800.000	-0.091	0.255
-154.677	13.116	0.146	0.112
-153.662	21.052	0.104	-0.084
-152.647	800.000	-0.030	-0.087
-151.633	145.808	0.180	0.241
-150.618	267.785	-0.052	0.090
-149.604	102.466	0.149	-0.173
-148.589	-16.450	-0.069	-0.044
-147.574	422.714	0.129	-0.276
-146.560	18.793	-0.146	-0.117
-145.545	-50.295	0.306	0.144
-144.531	263.322	-0.117	0.203
-143.516	245.030	-0.086	-0.145
-142.502	-71.382	-0.160	-0.060
-141.487	-155.891	0.138	0.009
-140.472	134.598	0.100	0.129
-139.458	-200.000	-0.009	0.279
-138.443	-65.821	-0.137	-0.055
-137.429	-163.407	0.360	0.017
-136.414	-195.340	0.209	-0.002
-135.399	-29.728	0.357	-0.203
-134.385	-33.255	-0.184	-0.101
-133.370	-103.114	0.262	-0.062
-132.356	15.768	-0.195	0.153
-131.341	-17.906	0.158	-0.099
-130.326	-194.525	-0.291	0.002
-129.312	-59.149	-0.442	-0.190
-128.297	151.669	0.067	0.091
-127.283	-200.000	0.027	0.294
-126.268	-200.000	0.019	-0.266
-125.253	-163.500	0.352	0.017
-124.239	-92.004	-0.328	0.092
-123.224	-96.895	0.303	0.079
-122.210	28.507	0.309	0.260
