DTS Sentinel unit serial number:	SN413079Multiplexer serial number:	ORYXHardware model number:	OX4-SRSoftware version number:	ORYX F/W v4.00 Oryx Data Collector v3.7.2.0data status	okinstallation	princeton_trtdifferential loss correction	single-endedforward channel	channel 3reverse channel	N/Adate	2019/09/15time	11:48:35forward acquisition time	60.00reverse acquisition time	0.00gamma	496.2192k internal	0.2306k external	0.2306temperature offset calibration	0.9974default loss term (dB/km)	0.3790temperature slope calibration	1.0000multiplexer offset coefficient	1.0000multiplexer slope coefficient	1.0000fibre end	0.00T internal ref (°C)	34.34T ext. ref 1 (°C)	5.06T ext. ref 2 (°C)	29.93length (m)	temperature (°C)	Stokes	anti-Stokes-747.200	772.449	0.019	-0.053
-746.185	120.164	0.221	0.280
-745.171	194.804	0.075	0.116
-744.156	-152.361	-0.153	-0.011
-743.142	-141.573	0.236	0.024
-742.127	-200.000	-0.005	0.089
-741.112	-43.018	-0.230	-0.119
-740.098	-52.854	-0.105	0.049
-739.083	50.662	-0.084	0.080
-738.069	-34.641	0.136	0.076
-737.054	16.253	-0.254	0.204
-736.039	126.160	0.060	-0.077
-735.025	102.892	-0.143	0.170
-734.010	87.830	0.186	0.210
-732.996	128.115	0.235	-0.304
-731.981	-200.000	-0.030	0.255
-730.966	-11.725	-0.207	-0.138
-729.952	-34.208	0.228	-0.127
-728.937	168.873	-0.055	-0.080
-727.923	575.118	0.068	0.169
-726.908	-200.000	-0.006	-0.319
-725.894	-4.052	-0.154	-0.108
-724.879	-162.352	-0.233	0.012
-723.864	-200.000	-0.041	0.204
-722.850	-200.000	-0.038	-0.200
-721.835	800.000	-0.072	-0.211
-720.821	-93.949	-0.321	-0.090
-719.806	-200.000	0.032	-0.329
-718.791	-77.076	0.119	0.042
-717.777	163.395	-0.206	-0.295
-716.762	233.447	0.102	-0.170
-715.748	-200.000	0.008	-0.081
-714.733	20.196	-0.007	-0.006
-713.718	-87.006	-0.140	0.043
-712.704	238.510	-0.050	0.084
-711.689	-49.271	-0.094	-0.046
-710.675	-71.069	-0.225	0.086
-709.660	-64.788	-0.284	-0.117
-708.645	-168.376	-0.491	0.019
-707.631	-125.473	0.128	-0.020
-706.616	153.135	-0.211	-0.294
-705.602	-106.015	0.304	0.070
-704.587	-200.000	0.004	0.132
-703.572	324.612	-0.144	0.279
-702.558	-158.225	0.161	0.010
-701.543	2.820	0.239	-0.176
-700.529	-200.000	-0.034	-0.368
-699.514	108.725	-0.176	-0.213
-698.499	800.000	-0.022	-0.069
-697.485	-200.000	-0.011	-0.247
-696.470	-200.000	-0.006	-0.147
-695.456	118.512	-0.102	0.128
-694.441	-78.574	0.137	-0.048
-693.426	-200.000	0.043	-0.505
-692.412	-200.000	-0.038	-0.271
-691.397	282.119	0.081	-0.147
-690.383	-200.000	-0.090	0.411
-689.368	-66.428	-0.315	-0.127
-688.354	32.182	0.143	0.125
-687.339	641.006	0.052	-0.134
-686.324	-42.534	0.172	-0.089
-685.310	-78.834	-0.262	0.091
-684.295	669.295	0.079	0.208
-683.281	800.000	-0.081	0.270
-682.266	-200.000	-0.026	-0.122
-681.251	150.973	0.176	0.243
-680.237	-126.502	0.367	0.055
-679.222	-32.817	0.161	0.091
-678.208	-84.769	-0.237	-0.076
-677.193	-200.000	-0.048	-0.461
-676.178	151.842	-0.203	0.280
-675.164	-200.000	-0.048	0.322
-674.149	308.500	-0.180	0.340
-673.135	800.000	0.060	-0.207
-672.120	4.401	0.594	-0.442
-671.105	687.487	0.046	-0.122
-670.091	446.465	-0.036	-0.081
-669.076	-61.282	-0.392	-0.168
-668.062	13.013	0.062	-0.049
-667.047	800.000	-0.057	-0.220
-666.032	-96.639	0.316	-0.084
-665.018	21.332	0.150	0.123
-664.003	-24.816	-0.282	-0.170
-662.989	-200.000	0.024	0.211
-661.974	20.904	0.070	0.057
-660.959	-38.485	-0.163	-0.087
-659.945	789.447	0.066	-0.183
-658.930	-8.159	-0.081	0.056
-657.916	-26.906	0.308	-0.182
-656.901	380.706	0.078	-0.162
-655.886	-43.018	0.197	0.101
-654.872	2.309	0.322	-0.236
-653.857	-139.823	-0.177	-0.019
-652.843	7.184	0.018	-0.013
-651.828	-138.995	0.442	0.049
-650.814	343.916	0.129	-0.256
-649.799	12.846	0.235	-0.184
-648.784	116.847	0.169	-0.210
-647.770	-111.514	-0.285	0.059
-646.755	30.525	-0.301	-0.260
-645.741	-13.928	0.164	0.108
-644.726	8.743	-0.029	-0.022
-643.711	-5.202	0.212	-0.148
-642.697	-23.632	0.084	-0.051
-641.682	-75.638	-0.283	0.102
-640.668	210.972	-0.203	0.324
-639.653	108.756	-0.224	-0.272
-638.638	-64.704	0.165	0.068
-637.624	721.155	0.186	-0.501
-636.609	-54.514	-0.149	-0.068
-635.595	344.922	0.022	-0.043
-634.580	438.949	0.070	-0.154
-633.565	-102.691	0.100	0.024
-632.551	-103.976	0.097	-0.023
-631.536	-200.000	0.022	-0.178
-630.522	800.000	0.082	-0.233
-629.507	-100.124	0.269	-0.068
-628.492	-41.152	-0.339	-0.177
-627.478	-43.006	-0.120	0.062
-626.463	800.000	-0.013	0.043
-625.449	-200.000	-0.032	0.144
-624.434	179.910	-0.201	-0.298
-623.419	-74.567	0.122	0.044
-622.405	214.617	-0.089	-0.142
-621.390	-63.846	0.225	-0.093
-620.376	-49.716	-0.042	0.020
-619.361	349.516	-0.136	-0.273
-618.346	800.000	-0.044	0.178
-617.332	-200.000	0.037	0.179
-616.317	-146.330	0.140	0.012
-615.303	-200.000	0.006	-0.153
-614.288	16.161	0.276	-0.220
-613.273	-200.000	0.013	0.095
-612.259	800.000	0.090	0.258
-611.244	-200.000	-0.007	0.128
-610.230	-82.077	0.032	0.011
-609.215	127.702	0.029	0.038
-608.201	54.770	-0.355	0.347
-607.186	800.000	-0.031	-0.110
-606.171	-148.712	0.288	0.024
-605.157	250.872	-0.110	-0.189
-604.142	-95.892	-0.049	0.013
-603.128	37.961	-0.275	0.247
-602.113	800.000	0.041	0.158
-601.098	-177.951	0.339	0.008
-600.084	15.254	0.175	-0.139
-599.069	314.945	-0.134	-0.256
-598.055	-171.716	0.150	-0.005
-597.040	-93.476	-0.300	0.084
-596.025	200.988	-0.058	-0.091
-595.011	-9.822	-0.157	-0.106
-593.996	-200.000	0.012	0.142
-592.982	-62.063	0.277	0.117
-591.967	-200.000	0.010	-0.233
-590.952	8.505	0.170	-0.129
-589.938	-3.010	-0.287	0.202
-588.923	-153.592	0.267	-0.019
-587.909	84.334	-0.115	-0.127
-586.894	-200.000	0.008	0.138
-585.879	-42.203	0.159	0.082
-584.865	3.279	0.152	-0.112
-583.850	800.000	-0.094	-0.370
-582.836	460.882	0.072	-0.163
-581.821	361.166	-0.026	-0.053
-580.806	12.552	0.097	0.075
-579.792	800.000	-0.030	0.095
-578.777	-200.000	-0.002	-0.326
-577.763	-30.764	-0.247	0.141
-576.748	692.245	0.139	0.368
-575.733	62.355	-0.093	-0.093
-574.719	-200.000	0.031	-0.265
-573.704	-95.265	-0.268	0.073
-572.690	-57.590	0.171	-0.076
-571.675	211.186	0.145	-0.231
-570.661	90.755	-0.107	0.121
-569.646	800.000	0.053	0.217
-568.631	17.205	0.123	-0.099
-567.617	-34.724	-0.337	0.186
-566.602	276.021	-0.194	0.348
-565.588	-46.690	0.121	-0.060
-564.573	164.130	-0.219	0.312
-563.558	87.907	0.112	0.125
-562.544	-200.000	0.024	-0.137
-561.529	-200.000	-0.024	0.164
-560.515	800.000	0.075	0.220
-559.500	130.415	0.036	0.047
-558.485	521.475	0.116	-0.274
-557.471	177.611	-0.096	0.141
-556.456	800.000	-0.051	0.158
-555.442	-200.000	-0.022	0.164
-554.427	557.301	0.092	-0.225
-553.412	6.560	-0.175	-0.131
-552.398	453.521	0.050	0.113
-551.383	-0.690	-0.022	0.016
-550.369	169.102	0.214	0.308
-549.354	91.400	-0.196	-0.222
-548.339	-69.376	-0.256	0.099
-547.325	-130.946	0.107	0.014
-546.310	-53.895	-0.135	-0.062
-545.296	-113.855	0.122	-0.024
-544.281	-158.507	0.051	0.003
-543.266	-200.000	0.056	-0.298
-542.252	231.675	-0.107	0.177
-541.237	-63.452	0.105	-0.044
-540.223	-49.355	-0.180	-0.087
-539.208	665.508	0.115	0.301
-538.193	-127.752	0.035	-0.005
-537.179	-119.117	-0.119	0.021
-536.164	-65.615	0.300	-0.121
-535.150	41.256	0.252	-0.230
-534.135	12.989	0.117	0.091
-533.121	-183.639	-0.028	0.000
-532.106	-133.515	-0.061	-0.008
-531.091	-200.000	0.031	0.188
-530.077	-0.134	-0.362	0.260
-529.062	-200.000	-0.038	0.205
-528.048	205.382	-0.177	-0.278
-527.033	-200.000	0.001	-0.044
-526.018	324.004	0.161	0.310
-525.004	289.595	0.062	0.114
-523.989	121.658	-0.079	-0.099
-522.975	-67.623	0.277	0.109
-521.960	262.994	0.056	0.098
-520.945	-200.000	-0.027	0.302
-519.931	-75.805	-0.353	0.126
-518.916	-200.000	0.015	-0.248
-517.902	-148.609	-0.119	-0.010
-516.887	53.718	0.205	-0.199
-515.872	55.539	-0.190	-0.186
-514.858	100.312	-0.118	0.138
-513.843	-200.000	0.031	-0.136
-512.829	-135.230	0.094	0.011
-511.814	299.495	-0.013	-0.025
-510.799	-200.000	0.031	0.211
-509.785	-194.507	0.088	-0.001
-508.770	-42.207	0.200	0.103
-507.756	502.569	0.009	-0.021
-506.741	-124.295	-0.181	-0.028
-505.726	-37.813	-0.074	0.040
-504.712	-19.786	-0.141	-0.088
-503.697	-128.776	-0.467	-0.066
-502.683	-1.308	0.173	0.123
-501.668	-153.742	0.232	0.016
-500.653	800.000	-0.009	-0.035
-499.639	265.310	-0.189	0.333
-498.624	-143.818	0.179	-0.017
-497.610	800.000	0.028	0.095
-496.595	800.000	0.053	-0.185
-495.581	329.328	-0.240	-0.465
-494.566	-106.280	-0.260	0.059
-493.551	154.816	-0.087	-0.121
-492.537	467.491	0.127	0.287
-491.522	-200.000	0.061	0.269
-490.508	-22.787	0.362	0.220
-489.493	57.133	-0.155	-0.153
-488.478	2.590	0.134	-0.097
-487.464	255.694	-0.232	0.401
-486.449	-200.000	0.017	-0.281
-485.435	800.000	0.126	-0.358
-484.420	-127.638	-0.057	-0.008
-483.405	-144.659	0.309	0.029
-482.391	-81.842	-0.344	0.113
-481.376	-200.000	-0.041	0.246
-480.362	-147.400	0.107	0.009
-479.347	-200.000	-0.026	-0.125
-478.332	197.340	-0.078	0.120
-477.318	-141.653	-0.135	0.014
-476.303	-200.000	0.012	-0.458
-475.289	612.798	0.143	0.360
-474.274	-51.803	-0.466	-0.218
-473.259	35.214	0.298	0.263
-472.245	-40.607	0.045	-0.024
-471.230	-21.482	0.219	0.135
-470.216	-185.885	-0.370	0.006
-469.201	478.852	-0.080	0.182
-468.186	699.992	0.075	-0.198
-467.172	-200.000	0.004	-0.080
-466.157	50.179	0.063	-0.060
-465.143	21.777	-0.149	-0.122
-464.128	-187.709	-0.228	0.003
-463.113	-200.000	-0.014	0.292
-462.099	330.467	-0.168	0.326
-461.084	-17.553	0.209	0.132
-460.070	46.464	0.154	-0.143
-459.055	-44.545	-0.205	0.103
-458.040	-200.000	0.012	0.081
-457.026	-150.157	-0.310	-0.024
-456.011	800.000	-0.069	-0.244
-454.997	176.341	0.164	0.240
-453.982	119.386	-0.053	0.066
-452.968	-143.114	-0.219	0.021
-451.953	-119.971	0.252	-0.044
-450.938	-91.047	-0.176	-0.051
-449.924	97.897	0.087	0.100
-448.909	223.739	0.074	0.120
-447.895	800.000	0.115	0.395
-446.880	-54.427	0.156	-0.071
-445.865	-147.028	0.313	-0.027
-444.851	-63.327	0.086	-0.036
-443.836	-114.354	0.224	-0.043
-442.822	-200.000	-0.038	-0.224
-441.807	412.014	0.129	-0.274
-440.792	-124.565	-0.286	-0.045
-439.778	24.455	0.167	0.139
-438.763	-56.217	-0.188	0.084
-437.749	-137.790	-0.263	0.030
-436.734	-132.928	0.276	-0.035
-435.719	-32.963	-0.092	0.051
-434.705	-38.303	0.264	-0.140
-433.690	-135.133	-0.169	-0.020
-432.676	-137.705	0.363	-0.041
-431.661	150.040	-0.044	-0.061
-430.646	-10.564	-0.378	-0.251
-429.632	-134.136	-0.314	0.039
-428.617	-200.000	-0.002	-0.131
-427.603	202.644	-0.104	0.162
-426.588	-200.000	0.055	0.249
-425.573	523.856	-0.018	0.042
-424.559	-70.544	-0.381	0.145
-423.544	-22.997	0.231	0.140
-422.530	22.950	-0.250	0.206
-421.515	115.936	0.149	-0.184
-420.500	-200.000	0.050	0.262
-419.486	-200.000	0.081	0.425
-418.471	-132.431	0.119	-0.015
-417.457	-104.768	-0.302	-0.070
-416.442	-120.487	-0.264	-0.045
-415.428	-200.000	-0.015	-0.252
-414.413	-49.584	0.045	-0.021
-413.398	-7.077	0.223	0.152
-412.384	96.940	-0.185	-0.213
-411.369	168.932	-0.093	-0.133
-410.355	-33.316	-0.076	0.042
-409.340	199.815	-0.030	0.046
-408.325	82.463	0.002	-0.002
-407.311	-148.461	0.248	0.020
-406.296	157.461	-0.054	-0.075
-405.282	26.565	0.146	0.123
-404.267	-200.000	-0.010	0.043
-403.252	-61.136	-0.299	0.127
-402.238	103.909	-0.243	-0.287
-401.223	-181.057	0.342	0.007
-400.209	-117.196	-0.241	-0.044
-399.194	800.000	0.033	0.108
-398.179	270.150	0.191	0.338
-397.165	92.355	0.170	0.192
-396.150	87.208	0.155	-0.172
-395.136	-28.979	0.263	0.151
-394.121	83.243	-0.334	-0.365
-393.106	800.000	0.066	-0.218
-392.092	-126.854	0.234	-0.035
-391.077	431.256	-0.148	-0.321
-390.063	800.000	0.076	-0.225
-389.048	-200.000	0.002	-0.160
-388.033	-65.194	-0.381	-0.154
-387.019	-130.902	0.281	0.038
-386.004	-26.233	0.189	-0.111
-384.990	-98.009	-0.227	0.059
-383.975	-126.092	0.096	-0.015
-382.960	131.382	0.109	0.140
-381.946	-177.434	0.186	-0.005
-380.931	-167.866	0.198	-0.008
-379.917	-78.647	-0.161	0.055
-378.902	-15.473	0.193	0.123
-377.888	-28.864	0.207	0.119
-376.873	-46.608	0.064	0.031
-375.858	246.127	-0.099	-0.167
-374.844	800.000	-0.019	-0.059
-373.829	-200.000	-0.003	-0.080
-372.815	200.422	-0.053	-0.082
-371.800	800.000	0.101	0.324
-370.785	14.373	0.188	-0.147
-369.771	-200.000	-0.003	0.027
-368.756	800.000	0.048	-0.144
-367.742	219.912	-0.211	-0.339
-366.727	626.081	0.056	-0.140
-365.712	292.631	0.077	0.140
-364.698	77.799	-0.184	0.196
-363.683	-94.759	-0.244	0.066
-362.669	800.000	0.021	-0.060
-361.654	-106.331	0.331	0.074
-360.639	-24.419	-0.073	-0.043
-359.625	11.406	0.203	-0.156
-358.610	-200.000	0.028	-0.162
-357.596	67.213	0.069	-0.070
-356.581	39.546	-0.060	-0.054
-355.566	-67.165	-0.175	0.069
-354.552	-200.000	-0.016	0.100
-353.537	206.581	0.187	0.292
-352.523	6.033	-0.111	-0.083
-351.508	-146.967	0.171	0.015
-350.493	-200.000	0.028	0.240
-349.479	800.000	-0.034	0.099
-348.464	147.321	-0.223	-0.300
-347.450	290.813	-0.121	-0.220
-346.435	-13.539	0.144	-0.094
-345.420	-75.379	0.043	-0.015
-344.406	-60.395	-0.034	0.014
-343.391	800.000	0.082	0.266
-342.377	-29.464	0.110	-0.063
-341.362	46.124	-0.227	0.210
-340.348	125.117	0.010	-0.013
-339.333	-80.668	0.298	-0.099
-338.318	-73.428	0.130	-0.048
-337.304	-200.000	-0.023	0.234
-336.289	-154.160	-0.201	-0.014
-335.275	162.343	0.146	0.205
-334.260	-200.000	-0.000	-0.368
-333.245	-200.000	-0.018	0.170
-332.231	99.010	0.219	0.253
-331.216	530.760	0.023	-0.055
-330.202	266.704	-0.163	0.285
-329.187	629.597	0.033	-0.084
-328.172	-29.199	-0.083	-0.048
-327.158	-29.739	-0.218	0.124
-326.143	800.000	-0.076	0.290
-325.129	40.884	0.077	0.070
-324.114	-77.143	-0.112	0.039
-323.099	-196.638	-0.150	-0.001
-322.085	-200.000	0.013	-0.097
-321.070	29.600	-0.155	0.132
-320.056	130.108	0.115	-0.148
-319.041	-28.897	0.122	-0.070
-318.026	-63.636	-0.175	-0.072
-317.012	-138.412	0.052	-0.006
-315.997	138.840	0.168	-0.221
-314.983	-167.578	0.133	-0.005
-313.968	121.241	0.071	-0.089
-312.953	-200.000	0.017	0.137
-311.939	-44.264	0.133	-0.066
-310.924	61.900	-0.194	-0.193
-309.910	-75.273	-0.094	-0.034
-308.895	-119.933	-0.125	0.021
-307.880	389.301	-0.026	-0.054
-306.866	-91.238	-0.373	0.107
-305.851	216.289	-0.124	0.198
-304.837	-200.000	0.025	-0.190
-303.822	800.000	-0.085	0.242
-302.807	-200.000	0.004	0.149
-301.793	-33.755	-0.263	0.145
-300.778	-67.147	0.144	-0.057
-299.764	800.000	0.080	-0.226
-298.749	31.859	0.154	-0.132
-297.735	48.772	0.023	0.021
-296.720	-200.000	0.007	0.146
-295.705	-137.397	0.341	0.039
-294.691	-116.380	0.413	-0.076
-293.676	73.552	-0.167	-0.175
-292.662	113.056	0.258	-0.313
-291.647	265.918	-0.109	-0.190
-290.632	200.497	-0.088	0.135
-289.618	-57.438	0.013	-0.006
-288.603	209.836	-0.109	-0.171
-287.589	-200.000	0.026	-0.240
-286.574	-200.000	0.070	0.379
-285.559	-38.079	0.151	0.080
-284.545	-119.461	0.187	-0.032
-283.530	198.238	-0.243	-0.372
-282.516	-32.487	0.205	-0.114
-281.501	-76.108	0.031	-0.011
-280.486	800.000	0.031	-0.110
-279.472	217.127	0.360	0.572
-278.457	-164.598	0.145	0.007
-277.443	-200.000	0.077	0.419
-276.428	272.265	-0.137	-0.241
-275.413	-60.541	-0.154	-0.065
-274.399	-200.000	-0.051	-0.403
-273.384	-200.000	-0.002	0.117
-272.370	377.048	-0.079	-0.161
-271.355	734.049	0.042	0.112
-270.340	197.482	-0.078	0.119
-269.326	-188.326	0.032	-0.000
-268.311	44.771	-0.118	-0.108
-267.297	215.735	-0.254	-0.402
-266.282	621.136	-0.033	-0.082
-265.267	-90.507	0.266	-0.077
-264.253	-200.000	-0.079	0.457
-263.238	-71.133	-0.280	-0.105
-262.224	-200.000	0.010	-0.231
-261.209	-200.000	-0.003	-0.338
-260.195	48.311	-0.121	-0.113
-259.180	-70.082	-0.128	0.048
-258.165	800.000	0.071	0.205
-257.151	800.000	0.052	0.163
-256.136	246.126	-0.030	0.051
-255.122	-12.917	0.014	-0.009
-254.107	394.772	0.191	-0.398
-253.092	-200.000	0.023	-0.120
-252.078	151.583	-0.226	0.307
-251.063	-116.937	0.170	-0.031
-250.049	-200.000	-0.021	-0.368
-249.034	538.080	-0.130	0.309
-248.019	-200.000	-0.060	-0.362
-247.005	228.774	-0.087	0.142
-245.990	213.581	0.028	-0.045
-244.976	-125.983	-0.124	0.019
-243.961	1.854	0.291	0.209
-242.946	-195.217	0.034	-0.000
-241.932	800.000	-0.081	-0.296
-240.917	-161.425	0.157	0.008
-239.903	57.482	0.234	0.228
-238.888	-65.363	-0.033	0.013
-237.873	17.593	-0.059	0.047
-236.859	80.613	0.098	0.106
-235.844	-200.000	-0.010	-0.062
-234.830	800.000	0.075	0.256
-233.815	-200.000	0.017	0.282
-232.800	646.367	0.043	-0.108
-231.786	144.532	0.308	0.410
-230.771	223.026	-0.160	0.258
-229.757	-185.521	0.345	0.005
-228.742	-97.443	0.125	0.032
-227.727	115.226	-0.128	0.155
-226.713	-62.128	-0.150	0.062
-225.698	564.636	-0.112	-0.269
-224.684	18.676	-0.414	-0.330
-223.669	-156.673	-0.118	0.007
-222.655	-64.970	0.138	-0.055
-221.640	738.360	0.011	-0.028
-220.625	437.997	0.045	0.098
-219.611	90.325	0.167	0.186
-218.596	-94.940	0.046	0.012
-217.582	-60.697	0.165	-0.070
-216.567	-46.527	-0.383	-0.187
-215.552	800.000	0.057	0.159
-214.538	85.352	0.119	0.131
-213.523	99.501	-0.161	-0.185
-212.509	108.190	0.113	-0.135
-211.494	-48.632	-0.237	-0.114
-210.479	172.455	0.192	-0.275
-209.465	-200.000	-0.001	0.518
-208.450	123.287	0.216	0.270
-207.436	-75.810	-0.200	-0.071
-206.421	218.952	0.220	0.350
-205.406	124.331	0.083	0.103
-204.392	39.615	-0.359	0.321
-203.377	-18.393	-0.095	-0.059
-202.363	322.515	-0.059	0.112
-201.348	-22.501	-0.102	-0.062
-200.333	800.000	0.066	-0.277
-199.319	-76.712	0.171	0.060
-198.304	-28.704	0.083	-0.047
-197.290	-111.566	0.155	-0.031
-196.275	-97.012	-0.224	0.059
-195.260	800.000	0.074	-0.219
-194.246	45.707	0.042	0.039
-193.231	-141.066	0.228	-0.023
-192.217	-200.000	0.008	-0.229
-191.202	367.035	0.108	0.218
-190.187	-200.000	-0.057	0.287
-189.173	29.199	-0.322	0.272
-188.158	128.794	0.138	0.175
-187.144	-93.387	0.073	0.020
-186.129	-120.112	0.129	-0.022
-185.114	27.900	-0.298	-0.250
-184.100	800.000	-0.127	0.494
-183.085	-28.731	-0.083	0.048
-182.071	608.459	-0.073	-0.180
-181.056	-40.393	0.242	-0.125
-180.042	26.767	-0.037	0.031
-179.027	146.998	0.256	-0.343
-178.012	-0.770	0.078	-0.055
-176.998	-47.418	0.075	0.036
-175.983	735.951	0.074	-0.197
-174.969	-152.560	-0.264	-0.019
-173.954	-40.561	-0.285	-0.147
-172.939	29.566	0.187	-0.158
-171.925	-180.834	0.196	-0.004
-170.910	-7.540	-0.167	0.112
-169.896	249.831	-0.175	-0.295
-168.881	29.600	0.058	-0.049
-167.866	800.000	-0.006	0.022
-166.852	800.000	0.114	-0.317
-165.837	-148.587	-0.187	0.015
-164.823	70.226	-0.068	-0.070
-163.808	-200.000	-0.025	-0.233
-162.793	56.430	0.123	0.119
-161.779	39.334	-0.167	0.149
-160.764	585.526	-0.076	0.186
-159.750	115.405	0.105	0.127
-158.735	102.818	-0.068	0.079
-157.720	63.621	0.126	0.126
-156.706	13.623	0.162	-0.125
-155.691	210.315	-0.196	-0.306
-154.677	-123.580	-0.084	0.013
-153.662	170.885	0.118	-0.169
-152.647	-200.000	-0.027	0.164
-151.633	-200.000	0.006	0.098
-150.618	296.414	0.156	0.283
-149.604	-51.295	0.167	0.078
-148.589	341.398	0.079	-0.153
-147.574	800.000	0.020	-0.084
-146.560	293.375	-0.023	-0.042
-145.545	-71.558	0.053	0.020
-144.531	253.012	0.043	0.073
-143.516	601.922	-0.046	-0.114
-142.502	800.000	-0.075	-0.209
-141.487	-131.961	-0.083	-0.011
-140.472	334.913	-0.073	-0.140
-139.458	3.996	-0.284	0.206
-138.443	-88.222	0.347	-0.103
-137.429	-200.000	0.054	0.237
-136.414	269.165	-0.077	0.134
-135.399	-200.000	-0.001	-0.087
-134.385	228.577	-0.025	-0.040
-133.370	-200.000	0.025	-0.158
-132.356	18.914	0.169	-0.135
-131.341	12.989	0.245	0.188
-130.326	-8.347	-0.221	0.148
-129.312	-158.742	-0.208	-0.012
-128.297	29.489	0.069	0.058
-127.283	664.756	-0.083	0.214
-126.268	93.153	0.116	0.130
-125.253	-28.197	0.076	0.044
-124.239	623.474	0.105	-0.262
-123.224	-147.085	0.091	0.008
-122.210	-59.696	-0.345	0.147
-121.195	-200.000	0.022	-0.134
