DTS Sentinel unit serial number:	SN413079Multiplexer serial number:	ORYXHardware model number:	OX4-SRSoftware version number:	ORYX F/W v4.00 Oryx Data Collector v3.7.2.0data status	okinstallation	princeton_trtdifferential loss correction	single-endedforward channel	channel 3reverse channel	N/Adate	2019/09/15time	15:16:35forward acquisition time	60.00reverse acquisition time	0.00gamma	496.2192k internal	0.2292k external	0.2292temperature offset calibration	0.9947default loss term (dB/km)	0.3790temperature slope calibration	1.0000multiplexer offset coefficient	1.0000multiplexer slope coefficient	1.0000fibre end	0.00T internal ref (°C)	40.69T ext. ref 1 (°C)	5.01T ext. ref 2 (°C)	38.13length (m)	temperature (°C)	Stokes	anti-Stokes-747.200	-47.862	-0.228	0.113
-746.185	149.563	0.185	0.256
-745.171	-114.905	0.265	-0.052
-744.156	239.505	0.125	0.214
-743.142	100.928	0.260	0.309
-742.127	86.574	0.159	0.180
-741.112	571.344	-0.191	-0.476
-740.098	294.188	0.044	0.083
-739.083	800.000	-0.096	0.392
-738.069	153.788	-0.015	0.021
-737.054	-125.247	0.027	-0.004
-736.039	-153.290	-0.505	-0.036
-735.025	40.097	0.071	0.065
-734.010	-129.124	0.199	0.028
-732.996	-14.248	0.048	0.031
-731.981	228.980	-0.148	-0.247
-730.966	549.064	-0.084	0.205
-729.952	800.000	0.056	0.174
-728.937	-58.017	-0.145	-0.065
-727.923	-87.178	-0.215	-0.067
-726.908	559.628	-0.120	0.296
-725.894	-200.000	0.000	-0.081
-724.879	-177.656	-0.406	-0.010
-723.864	-85.678	-0.229	0.073
-722.850	-57.543	0.164	0.073
-721.835	-200.000	0.013	-0.286
-720.821	-152.296	-0.173	0.013
-719.806	-88.953	-0.255	-0.077
-718.791	-85.375	-0.110	0.035
-717.777	101.884	-0.183	-0.218
-716.762	253.420	0.163	-0.285
-715.748	800.000	0.096	0.400
-714.733	-10.606	0.017	-0.011
-713.718	-89.370	-0.282	-0.085
-712.704	-124.579	-0.108	0.017
-711.689	-14.105	0.258	0.170
-710.675	461.856	0.013	0.030
-709.660	-200.000	0.008	-0.108
-708.645	197.340	-0.119	0.185
-707.631	509.484	-0.071	-0.169
-706.616	-75.271	0.156	-0.057
-705.602	-185.819	0.166	-0.003
-704.587	-116.308	0.161	-0.030
-703.572	-82.373	0.325	-0.108
-702.558	125.771	0.091	-0.118
-701.543	86.933	0.124	0.140
-700.529	-200.000	0.002	0.014
-699.514	-129.304	-0.163	-0.023
-698.499	377.398	-0.039	-0.082
-697.485	800.000	-0.073	-0.255
-696.470	261.377	-0.092	0.163
-695.456	800.000	0.057	0.173
-694.441	800.000	0.131	0.479
-693.426	428.450	0.132	0.292
-692.412	-200.000	0.060	-0.282
-691.397	-173.669	-0.340	0.010
-690.383	42.696	0.304	0.283
-689.368	98.700	-0.144	0.170
-688.354	23.194	0.089	-0.075
-687.339	146.282	-0.127	-0.175
-686.324	140.607	-0.270	-0.364
-685.310	800.000	-0.042	0.142
-684.295	-200.000	-0.001	-0.029
-683.281	-200.000	0.023	0.331
-682.266	-37.756	-0.175	-0.095
-681.251	-59.527	-0.159	0.070
-680.237	-104.985	-0.592	0.138
-679.222	-83.026	-0.288	-0.095
-678.208	-48.237	-0.225	-0.111
-677.193	91.198	-0.144	0.165
-676.178	-200.000	0.038	0.208
-675.164	800.000	0.053	0.159
-674.149	-88.951	-0.067	-0.020
-673.135	-200.000	0.003	0.046
-672.120	800.000	0.066	0.243
-671.105	-4.833	-0.126	0.089
-670.091	-200.000	-0.009	0.317
-669.076	356.647	0.010	0.020
-668.062	-37.869	0.292	-0.159
-667.047	294.388	0.131	0.244
-666.032	-200.000	-0.056	0.287
-665.018	12.630	-0.348	-0.274
-664.003	-200.000	-0.058	-0.271
-662.989	-26.897	0.021	-0.012
-661.974	274.813	-0.052	0.094
-660.959	-200.000	-0.039	-0.203
-659.945	800.000	-0.066	-0.286
-658.930	708.057	-0.093	0.251
-657.916	-0.315	0.397	0.288
-656.901	790.398	0.058	-0.163
-655.886	-200.000	-0.003	0.148
-654.872	14.437	-0.123	0.098
-653.857	-123.441	0.041	0.007
-652.843	-109.422	0.194	0.042
-651.828	11.383	0.127	-0.099
-650.814	522.602	0.126	-0.301
-649.799	-22.178	0.185	-0.114
-648.784	-200.000	-0.017	-0.175
-647.770	86.522	0.017	-0.019
-646.755	-200.000	-0.004	0.085
-645.741	775.900	-0.088	-0.245
-644.726	-13.932	-0.399	-0.263
-643.711	-63.490	0.097	0.041
-642.697	-200.000	-0.052	0.449
-641.682	148.509	0.077	-0.106
-640.668	130.536	-0.130	-0.170
-639.653	-66.324	0.259	-0.105
-638.638	-64.780	-0.159	0.066
-637.624	235.923	-0.055	0.093
-636.609	67.223	0.070	-0.073
-635.595	732.253	-0.096	-0.262
-634.580	-122.837	0.195	-0.032
-633.565	142.298	-0.126	0.170
-632.551	800.000	0.057	-0.238
-631.536	49.485	0.202	0.193
-630.522	-43.329	0.036	0.019
-629.507	78.405	-0.145	-0.158
-628.492	23.610	0.127	-0.107
-627.478	28.499	-0.193	0.167
-626.463	-86.099	0.300	-0.094
-625.449	758.667	0.032	0.088
-624.434	-31.821	0.141	-0.081
-623.419	98.516	-0.119	-0.139
-622.405	536.066	0.057	-0.138
-621.390	140.274	0.260	-0.349
-620.376	800.000	0.037	0.152
-619.361	800.000	0.072	-0.237
-618.346	-8.917	0.187	-0.128
-617.332	46.733	-0.091	0.086
-616.317	-200.000	0.079	0.408
-615.303	-138.861	0.036	-0.004
-614.288	429.370	-0.043	0.095
-613.273	-143.345	0.150	-0.015
-612.259	-200.000	-0.006	0.229
-611.244	-84.132	-0.274	-0.089
-610.230	260.915	-0.115	-0.203
-609.215	660.653	0.042	-0.109
-608.201	-131.526	-0.290	-0.039
-607.186	800.000	-0.042	-0.148
-606.171	-200.000	0.013	0.245
-605.157	537.777	0.101	-0.244
-604.142	-178.598	-0.266	-0.006
-603.128	800.000	0.030	0.131
-602.113	-126.674	-0.278	0.042
-601.098	-35.718	0.191	-0.105
-600.084	25.177	-0.246	0.208
-599.069	-146.206	-0.257	-0.023
-598.055	-59.280	0.246	0.108
-597.040	-101.408	-0.180	-0.045
-596.025	-200.000	0.063	-0.413
-595.011	-154.569	-0.554	-0.038
-593.996	30.959	0.179	-0.156
-592.982	79.925	0.064	-0.070
-591.967	-101.032	-0.333	-0.083
-590.952	-106.044	0.281	0.064
-589.938	-118.409	-0.243	0.044
-588.923	501.518	0.016	-0.039
-587.909	-55.275	-0.236	0.108
-586.894	194.213	0.115	0.177
-585.879	-22.106	0.499	0.308
-584.865	-10.375	0.248	0.168
-583.850	299.590	-0.163	0.305
-582.836	-186.237	0.172	0.003
-581.821	-200.000	-0.010	0.283
-580.806	-137.145	-0.198	-0.023
-579.792	284.509	0.078	-0.143
-578.777	390.140	-0.103	0.216
-577.763	-83.737	-0.287	-0.093
-576.748	487.083	0.048	0.111
-575.733	156.060	-0.039	-0.055
-574.719	-166.307	-0.159	-0.007
-573.704	-1.225	0.211	-0.151
-572.690	446.123	-0.077	-0.172
-571.675	800.000	0.080	-0.312
-570.661	108.238	0.242	-0.294
-569.646	800.000	0.091	0.328
-568.631	-84.095	0.210	-0.068
-567.617	-200.000	-0.071	-0.374
-566.602	15.722	-0.172	-0.138
-565.588	-93.358	0.034	0.010
-564.573	169.315	0.240	-0.349
-563.558	-20.978	0.031	0.019
-562.544	-200.000	-0.003	0.246
-561.529	-126.863	-0.290	0.043
-560.515	800.000	-0.059	-0.260
-559.500	-35.583	-0.006	-0.004
-558.485	-97.593	0.230	-0.061
-557.471	-36.757	-0.280	-0.153
-556.456	142.514	0.075	-0.101
-555.442	341.187	-0.142	0.281
-554.427	-79.359	0.227	0.078
-553.412	800.000	-0.036	-0.118
-552.398	-155.749	-0.212	-0.014
-551.383	-200.000	-0.004	-0.069
-550.369	-10.779	-0.272	-0.183
-549.354	-67.841	0.277	0.110
-548.339	51.058	0.112	-0.108
-547.325	180.406	0.046	-0.068
-546.310	-200.000	-0.014	0.226
-545.296	72.428	0.037	-0.039
-544.281	-112.768	-0.267	-0.054
-543.266	185.225	-0.051	0.076
-542.252	82.337	-0.148	-0.163
-541.237	-200.000	0.005	-0.095
-540.223	-92.077	0.371	0.106
-539.208	191.741	-0.072	-0.110
-538.193	-94.569	-0.070	0.019
-537.179	263.605	-0.058	0.102
-536.164	15.191	-0.171	0.136
-535.150	-46.647	0.482	0.240
-534.135	-200.000	0.001	0.163
-533.121	-50.012	-0.047	0.022
-532.106	-37.479	0.339	0.184
-531.091	-59.555	0.137	-0.060
-530.077	73.739	0.131	-0.139
-529.062	-29.050	0.287	-0.167
-528.048	-58.091	-0.175	0.077
-527.033	-200.000	-0.010	0.334
-526.018	-200.000	-0.068	-0.313
-525.004	-122.346	-0.436	-0.072
-523.989	-157.546	-0.015	0.001
-522.975	102.431	-0.335	-0.398
-521.960	-200.000	0.034	-0.385
-520.945	-99.958	0.363	0.092
-519.931	-27.056	-0.277	0.164
-518.916	-26.354	0.298	0.177
-517.902	-157.370	-0.313	0.019
-516.887	-18.736	0.196	-0.124
-515.872	-200.000	0.001	0.091
-514.858	-49.772	0.534	-0.258
-513.843	15.869	0.145	0.116
-512.829	364.675	0.058	-0.119
-511.814	-124.964	0.124	0.019
-510.799	-122.245	-0.098	-0.016
-509.785	-74.120	-0.120	-0.044
-508.770	800.000	0.074	0.301
-507.756	800.000	0.046	-0.181
-506.741	-200.000	0.031	-0.295
-505.726	-139.306	0.117	0.013
-504.712	122.743	0.110	-0.140
-503.697	417.260	0.068	0.147
-502.683	-131.599	-0.482	0.064
-501.668	-120.643	0.423	-0.073
-500.653	-145.785	-0.278	-0.025
-499.639	-152.262	0.085	0.006
-498.624	-16.031	0.019	-0.012
-497.610	153.175	-0.123	0.171
-496.595	490.180	0.093	0.216
-495.581	-89.854	-0.362	0.107
-494.566	-121.831	0.302	-0.051
-493.551	-87.944	0.245	-0.075
-492.537	-163.788	0.306	-0.015
-491.522	145.256	-0.007	-0.009
-490.508	-121.778	-0.192	-0.032
-489.493	-200.000	-0.003	0.044
-488.478	150.333	0.144	0.198
-487.464	-200.000	-0.007	-0.130
-486.449	71.514	-0.097	0.102
-485.435	292.609	0.083	-0.153
-484.420	-200.000	0.009	0.068
-483.405	412.716	0.094	-0.203
-482.391	4.979	0.206	-0.154
-481.376	-200.000	0.023	-0.183
-480.362	1.103	-0.105	0.076
-479.347	275.894	-0.039	-0.070
-478.332	-200.000	0.386	-0.001
-477.318	-16.098	-0.234	0.151
-476.303	-200.000	-0.009	-0.126
-475.289	-116.310	0.074	-0.014
-474.274	-134.174	-0.335	0.042
-473.259	-78.371	0.332	-0.115
-472.245	-200.000	0.003	0.193
-471.230	-158.403	0.111	0.007
-470.216	-200.000	0.032	0.158
-469.201	-138.820	-0.184	0.020
-468.186	89.328	-0.185	-0.209
-467.172	-85.966	0.336	0.105
-466.157	-2.307	-0.464	0.330
-465.143	-200.000	0.024	0.289
-464.128	-19.717	-0.288	0.180
-463.113	84.049	-0.175	0.193
-462.099	-86.359	-0.314	0.098
-461.084	-17.153	0.276	-0.176
-460.070	-69.099	0.345	0.134
-459.055	-22.494	0.164	0.101
-458.040	127.519	-0.264	0.339
-457.026	-56.264	-0.163	0.074
-456.011	21.046	-0.168	-0.138
-454.997	204.723	-0.109	-0.171
-453.982	198.084	0.164	-0.254
-452.968	-200.000	0.033	0.188
-451.953	-38.281	0.326	-0.175
-450.938	-70.170	-0.151	0.058
-449.924	-200.000	-0.020	0.111
-448.909	-200.000	0.043	-0.261
-447.895	40.771	-0.032	0.029
-446.880	508.451	-0.103	0.242
-445.865	329.910	0.150	0.292
-444.851	-200.000	-0.333	-0.000
-443.836	19.648	0.044	-0.036
-442.822	-41.995	-0.287	0.149
-441.807	284.914	0.092	-0.168
-440.792	-7.486	0.381	0.261
-439.778	-5.387	-0.091	0.063
-438.763	-200.000	-0.008	-0.393
-437.749	-97.353	0.056	0.015
-436.734	167.218	0.157	-0.225
-435.719	-0.095	-0.189	-0.136
-434.705	46.547	0.199	0.187
-433.690	231.717	-0.064	-0.106
-432.676	-200.000	-0.004	-0.291
-431.661	-0.909	0.244	-0.175
-430.646	-131.590	-0.121	-0.016
-429.632	81.246	-0.121	-0.132
-428.617	-200.000	0.016	-0.182
-427.603	7.406	0.055	-0.041
-426.588	-77.340	0.218	0.077
-425.573	800.000	0.041	0.130
-424.559	-126.286	-0.201	0.030
-423.544	800.000	0.097	-0.380
-422.530	-134.011	0.510	0.064
-421.515	665.483	-0.027	0.071
-420.500	31.673	-0.291	-0.253
-419.486	-196.728	-0.200	-0.001
-418.471	-200.000	0.023	0.420
-417.457	-0.255	0.408	0.293
-416.442	-80.758	-0.463	0.156
-415.428	-110.278	-0.206	0.043
-414.413	-200.000	0.007	-0.123
-413.398	7.165	0.114	-0.086
-412.384	83.760	-0.273	-0.301
-411.369	60.878	-0.168	-0.168
-410.355	229.628	0.123	0.203
-409.340	-86.182	0.199	-0.062
-408.325	-71.692	-0.365	-0.138
-407.311	-162.426	0.124	0.006
-406.296	124.683	-0.191	-0.243
-405.282	3.614	-0.261	0.192
-404.267	-25.920	-0.132	0.079
-403.252	800.000	-0.092	0.272
-402.238	263.626	0.168	-0.296
-401.223	-95.404	-0.330	-0.089
-400.209	-200.000	-0.008	-0.068
-399.194	17.037	0.083	-0.066
-398.179	-2.237	-0.099	-0.070
-397.165	21.594	0.062	0.051
-396.150	111.336	0.207	-0.252
-395.136	376.047	-0.160	-0.330
-394.121	-77.353	-0.139	-0.049
-393.106	800.000	-0.042	0.187
-392.092	800.000	0.088	0.333
-391.077	526.963	-0.151	-0.359
-390.063	-200.000	0.021	-0.234
-389.048	800.000	0.176	-0.512
-388.033	-44.279	0.294	0.149
-387.019	-112.277	-0.229	0.046
-386.004	-44.556	0.123	0.062
-384.990	800.000	0.053	0.191
-383.975	-20.040	0.146	-0.091
-382.960	-200.000	-0.044	-0.318
-381.946	-74.933	-0.271	0.098
-380.931	-138.237	0.054	0.006
-379.917	-195.240	-0.252	-0.002
-378.902	-154.433	-0.155	0.011
-377.888	531.080	0.163	0.389
-376.873	170.619	0.099	-0.142
-375.858	-81.129	0.135	0.045
-374.844	-200.000	0.015	0.187
-373.829	80.064	-0.034	-0.037
-372.815	-200.000	-0.008	0.437
-371.800	-54.998	0.251	-0.114
-370.785	173.924	0.351	-0.512
-369.771	1.422	-0.190	0.138
-368.756	57.075	-0.149	-0.146
-367.742	-71.653	-0.233	0.088
-366.727	-200.000	-0.056	0.297
-365.712	56.969	0.083	0.081
-364.698	-200.000	-0.007	0.190
-363.683	235.433	-0.112	0.186
-362.669	-120.173	0.212	0.037
-361.654	35.996	0.081	-0.072
-360.639	-142.825	0.231	-0.023
-359.625	99.102	-0.071	0.082
-358.610	484.600	-0.073	-0.167
-357.596	748.747	0.104	0.282
-356.581	33.127	0.080	-0.070
-355.566	800.000	0.166	-0.479
-354.552	-1.412	0.303	0.216
-353.537	503.209	0.044	0.102
-352.523	246.828	0.138	-0.235
-351.508	180.860	0.094	0.139
-350.493	104.029	-0.176	0.208
-349.479	-64.478	0.172	0.070
-348.464	-132.678	0.146	0.019
-347.450	-200.000	0.029	0.149
-346.435	-200.000	-0.019	0.213
-345.420	-23.306	0.303	-0.184
-344.406	-142.575	-0.368	-0.036
-343.391	-200.000	0.029	0.169
-342.377	-7.195	0.244	0.166
-341.362	24.488	0.138	0.115
-340.348	-96.444	0.434	0.115
-339.333	800.000	0.121	0.395
-338.318	106.002	-0.314	0.375
-337.304	-200.000	0.047	0.323
-336.289	-70.431	-0.057	-0.022
-335.275	-200.000	0.089	-0.406
-334.260	800.000	-0.026	-0.112
-333.245	162.758	-0.227	-0.321
-332.231	800.000	-0.044	0.132
-331.216	-20.624	-0.203	0.125
-330.202	-50.242	0.171	0.081
-329.187	800.000	0.028	0.094
-328.172	24.899	-0.350	-0.292
-327.158	149.877	-0.173	0.236
-326.143	-119.225	0.279	-0.049
-325.129	96.782	0.074	0.085
-324.114	-200.000	0.031	0.340
-323.099	-200.000	-0.042	-0.226
-322.085	283.950	-0.120	-0.217
-321.070	489.296	-0.081	-0.186
-320.056	22.572	0.174	0.143
-319.041	-77.368	-0.353	-0.123
-318.026	-130.085	-0.294	0.040
-317.012	-31.252	-0.365	0.207
-315.997	-200.000	-0.055	0.270
-314.983	-45.412	-0.047	-0.023
-313.968	-50.325	-0.048	0.023
-312.953	675.849	-0.127	-0.331
-311.939	-99.665	0.194	-0.049
-310.924	152.239	-0.139	0.191
-309.910	9.557	0.161	-0.123
-308.895	79.844	0.158	0.171
-307.880	800.000	0.049	-0.193
-306.866	268.141	-0.026	-0.046
-305.851	800.000	-0.040	0.153
-304.837	-142.198	-0.158	-0.016
-303.822	404.933	0.129	0.274
-302.807	-52.403	0.348	0.162
-301.793	-48.836	-0.181	0.087
-300.778	260.212	-0.065	0.113
-299.764	-28.701	0.227	0.131
-298.749	-200.000	0.002	0.012
-297.735	-155.868	0.222	0.014
-296.720	-200.000	0.028	-0.141
-295.705	196.000	-0.100	0.153
-294.691	-83.848	0.154	0.049
-293.676	55.202	-0.383	0.372
-292.662	-200.000	0.031	0.209
-291.647	-114.253	0.399	0.077
-290.632	47.400	0.114	0.107
-289.618	15.018	-0.113	-0.089
-288.603	-32.139	-0.401	0.225
-287.589	277.750	-0.073	0.130
-286.574	-200.000	-0.019	-0.312
-285.559	426.826	-0.136	-0.294
-284.545	16.884	-0.170	0.136
-283.530	112.200	-0.108	0.132
-282.516	800.000	0.124	0.387
-281.501	800.000	-0.030	-0.084
-280.486	58.161	0.281	0.277
-279.472	3.072	-0.241	0.176
-278.457	393.856	-0.085	0.178
-277.443	-121.281	0.375	0.063
-276.428	657.706	0.012	0.032
-275.413	800.000	0.068	0.225
-274.399	-182.615	-0.153	-0.003
-273.384	-200.000	0.003	-0.031
-272.370	-64.695	-0.044	-0.018
-271.355	93.352	-0.218	0.248
-270.340	0.980	-0.107	0.077
-269.326	52.185	0.198	-0.189
-268.311	800.000	-0.050	0.202
-267.297	-200.000	0.118	0.546
-266.282	-32.258	-0.513	0.288
-265.267	-200.000	-0.057	-0.295
-264.253	62.106	-0.140	0.141
-263.238	380.492	-0.061	-0.126
-262.224	-62.694	-0.218	0.091
-261.209	-58.081	0.126	0.055
-260.195	12.618	-0.188	-0.145
-259.180	50.645	-0.163	-0.155
-258.165	-52.484	0.334	0.155
-257.151	736.055	0.036	0.097
-256.136	71.327	0.090	0.094
-255.122	-200.000	-0.017	0.115
-254.107	800.000	0.050	0.203
-253.092	51.953	0.099	-0.095
-252.078	-200.000	0.013	-0.097
-251.063	-157.847	0.035	0.002
-250.049	83.709	-0.222	0.244
-249.034	-35.745	0.188	-0.102
-248.019	-70.880	0.223	-0.084
-247.005	-31.714	0.130	-0.073
-245.990	9.204	-0.131	-0.099
-244.976	-88.145	-0.244	-0.074
-243.961	-118.881	0.484	0.085
-242.946	-160.348	-0.266	0.014
-241.932	181.088	0.055	0.082
-240.917	-39.575	0.308	-0.162
-239.903	-158.675	-0.242	-0.014
-238.888	-76.914	0.210	-0.074
-237.873	-200.000	0.020	-0.213
-236.859	400.206	0.080	0.168
-235.844	-113.062	0.177	-0.035
-234.830	800.000	0.072	0.258
-233.815	-200.000	0.006	-0.107
-232.800	180.869	-0.225	0.332
-231.786	62.759	-0.152	-0.153
-230.771	-200.000	0.013	0.074
-229.757	687.326	0.015	0.040
-228.742	251.760	0.173	-0.296
-227.727	-27.530	-0.178	0.104
-226.713	-200.000	0.071	0.493
-225.698	-90.026	0.470	0.137
-224.684	-16.600	-0.218	-0.139
-223.669	480.140	0.047	-0.108
-222.655	-120.070	-0.267	-0.046
-221.640	208.133	0.185	-0.291
-220.625	226.731	-0.206	-0.336
-219.611	-200.000	-0.040	-0.177
-218.596	-142.640	-0.133	0.013
-217.582	-119.313	0.181	-0.032
-216.567	-144.730	0.098	-0.009
-215.552	22.227	-0.382	-0.313
-214.538	800.000	0.052	0.172
-213.523	-116.909	0.193	0.035
-212.509	-40.851	-0.064	0.033
-211.494	-91.690	-0.077	0.022
-210.479	187.883	-0.102	0.153
-209.465	144.383	0.113	-0.151
-208.450	-5.295	-0.292	-0.201
-207.436	800.000	-0.079	-0.230
-206.421	-200.000	0.006	0.076
-205.406	-200.000	-0.022	0.193
-204.392	-55.867	-0.174	-0.078
-203.377	-102.728	0.169	-0.040
-202.363	-200.000	0.011	-0.072
-201.348	9.053	0.133	-0.100
-200.333	95.252	0.241	-0.276
-199.319	-25.635	-0.221	0.130
-198.304	-143.040	0.057	0.005
-197.290	161.639	-0.053	0.074
-196.275	-56.901	0.184	0.081
-195.260	266.170	-0.047	-0.082
-194.246	145.945	0.107	-0.144
-193.231	-66.209	0.177	0.070
-192.217	47.340	0.120	-0.112
-191.202	800.000	-0.128	0.372
-190.187	-25.139	-0.226	-0.134
-189.173	87.369	-0.149	-0.165
-188.158	-200.000	0.015	0.074
-187.144	41.234	0.151	0.137
-186.129	-165.483	-0.132	0.006
-185.114	-105.598	0.366	0.083
-184.100	517.939	-0.103	-0.242
-183.085	-172.132	0.059	-0.002
-182.071	-200.000	-0.007	-0.414
-181.056	102.525	0.092	-0.108
-180.042	-16.272	0.140	0.089
-179.027	-151.268	0.468	0.035
-178.012	-95.632	0.248	0.066
-176.998	-85.951	-0.309	0.096
-175.983	-200.000	0.033	-0.235
-174.969	207.600	0.189	-0.295
-173.954	-200.000	0.034	-0.259
-172.939	428.517	-0.092	0.198
-171.925	23.745	0.018	-0.015
-170.910	212.339	-0.159	0.250
-169.896	-200.000	-0.023	-0.283
-168.881	-200.000	0.019	-0.083
-167.866	800.000	-0.019	0.077
-166.852	-163.293	-0.072	0.003
-165.837	-200.000	0.003	-0.013
-164.823	-72.996	0.069	0.025
-163.808	111.267	0.224	-0.270
-162.793	800.000	-0.056	-0.236
-161.779	-89.522	0.190	-0.056
-160.764	-193.621	-0.123	0.001
-159.750	117.197	-0.243	-0.298
-158.735	-91.718	-0.201	0.057
-157.720	800.000	0.058	-0.254
-156.706	-122.943	-0.279	-0.045
-155.691	116.570	-0.052	0.064
-154.677	256.110	0.115	0.197
-153.662	-77.367	-0.053	0.018
-152.647	134.030	-0.145	-0.188
-151.633	-3.220	-0.413	0.288
-150.618	800.000	-0.119	-0.341
-149.604	-10.062	0.229	0.152
-148.589	-3.788	-0.067	0.047
-147.574	12.853	0.050	-0.039
-146.560	-98.468	-0.116	-0.030
-145.545	183.737	-0.111	-0.164
-144.531	800.000	0.110	0.313
-143.516	-48.436	0.105	-0.050
-142.502	-66.738	-0.108	0.043
-141.487	178.870	0.106	0.155
-140.472	-53.379	0.157	-0.072
-139.458	124.551	0.167	0.209
-138.443	160.443	0.125	-0.175
-137.429	-21.945	0.184	0.112
-136.414	-3.869	0.164	-0.114
-135.399	-200.000	-0.041	-0.277
-134.385	-132.418	-0.426	0.055
-133.370	-23.612	-0.196	-0.118
-132.356	4.064	0.234	0.171
-131.341	-200.000	0.012	0.217
-130.326	-26.998	0.064	-0.037
-129.312	-91.073	-0.150	0.043
-128.297	169.087	-0.227	-0.324
-127.283	73.453	-0.176	-0.184
-126.268	-188.788	0.208	0.003
-125.253	33.040	0.211	-0.183
-124.239	-6.440	0.216	0.147
-123.224	49.998	0.347	0.327
-122.210	-20.207	0.216	0.133
-121.195	-103.042	-0.044	0.011
-120.180	61.585	0.207	0.206
