DTS Sentinel unit serial number:	SN413079Multiplexer serial number:	ORYXHardware model number:	OX4-SRSoftware version number:	ORYX F/W v4.00 Oryx Data Collector v3.7.2.0data status	okinstallation	princeton_trtdifferential loss correction	single-endedforward channel	channel 3reverse channel	N/Adate	2019/09/18time	08:04:35forward acquisition time	60.00reverse acquisition time	0.00gamma	496.2192k internal	0.2342k external	0.2342temperature offset calibration	0.9940default loss term (dB/km)	0.3790temperature slope calibration	1.0000multiplexer offset coefficient	1.0000multiplexer slope coefficient	1.0000fibre end	0.00T internal ref (°C)	23.69T ext. ref 1 (°C)	0.20T ext. ref 2 (°C)	19.34length (m)	temperature (°C)	Stokes	anti-Stokes-747.200	88.879	-0.042	-0.047
-746.185	502.124	-0.093	0.215
-745.171	-88.295	0.181	-0.054
-744.156	-171.898	-0.349	-0.011
-743.142	-104.778	0.177	-0.041
-742.127	-57.044	0.045	0.020
-741.112	-200.000	0.017	0.167
-740.098	576.489	-0.126	0.308
-739.083	-200.000	0.072	-0.376
-738.069	-90.076	-0.271	0.079
-737.054	-200.000	0.013	0.090
-736.039	295.543	-0.030	0.055
-735.025	19.538	0.288	0.232
-734.010	-136.035	-0.425	0.050
-732.996	31.144	-0.270	-0.232
-731.981	-52.428	-0.279	0.129
-730.966	-88.021	0.192	-0.058
-729.952	-200.000	-0.190	0.001
-728.937	444.885	-0.138	-0.303
-727.923	-52.451	-0.422	-0.195
-726.908	-200.000	-0.037	0.458
-725.894	38.223	-0.147	-0.131
-724.879	-130.013	0.385	-0.053
-723.864	-39.774	0.285	-0.149
-722.850	-172.910	-0.369	0.011
-721.835	-62.469	-0.154	-0.064
-720.821	7.573	-0.051	0.038
-719.806	-107.328	-0.059	0.013
-718.791	197.967	-0.222	-0.340
-717.777	-44.022	0.136	-0.068
-716.762	323.017	-0.030	-0.057
-715.748	361.618	0.045	0.090
-714.733	-137.948	-0.560	-0.063
-713.718	-140.305	0.212	-0.022
-712.704	-182.942	0.135	0.002
-711.689	-69.201	0.372	-0.143
-710.675	-124.065	-0.116	0.018
-709.660	-85.841	0.140	0.043
-708.645	800.000	-0.118	0.367
-707.631	-65.503	0.324	-0.130
-706.616	-180.500	0.124	0.003
-705.602	-114.296	-0.244	-0.047
-704.587	-200.000	0.063	-0.420
-703.572	-200.000	-0.001	-0.135
-702.558	564.800	-0.011	-0.027
-701.543	800.000	0.064	-0.238
-700.529	-37.936	0.051	0.027
-699.514	169.828	0.048	0.068
-698.499	-142.032	-0.125	-0.012
-697.485	462.312	-0.082	-0.183
-696.470	-60.683	0.459	0.194
-695.456	27.658	-0.153	0.129
-694.441	428.758	-0.091	-0.196
-693.426	61.139	-0.326	-0.324
-692.412	96.054	-0.413	-0.471
-691.397	-54.464	0.084	0.038
-690.383	-192.966	-0.186	0.002
-689.368	9.416	0.016	0.012
-688.354	134.676	-0.230	0.298
-687.339	-18.712	0.121	0.075
-686.324	-200.000	-0.095	0.454
-685.310	84.815	0.176	0.192
-684.295	-29.724	-0.040	0.023
-683.281	-200.000	-0.077	0.461
-682.266	-200.000	-0.010	-0.100
-681.251	-84.411	0.119	-0.038
-680.237	92.585	-0.045	-0.051
-679.222	-30.983	0.095	0.054
-678.208	60.618	0.142	0.141
-677.193	-112.985	-0.419	-0.083
-676.178	-72.433	-0.103	0.038
-675.164	-115.348	-0.149	-0.028
-674.149	409.168	0.138	-0.291
-673.135	-200.000	-0.167	0.000
-672.120	34.937	0.312	0.273
-671.105	-97.529	-0.062	0.016
-670.091	198.667	0.115	0.176
-669.076	800.000	0.112	0.321
-668.062	47.220	0.233	-0.217
-667.047	-0.595	0.106	0.075
-666.032	138.417	0.110	0.144
-665.018	800.000	-0.048	-0.154
-664.003	158.317	-0.156	0.216
-662.989	-38.657	0.165	0.087
-661.974	633.556	0.216	-0.546
-660.959	5.315	-0.286	-0.211
-659.945	191.790	0.184	-0.277
-658.930	800.000	-0.033	0.121
-657.916	541.213	-0.093	-0.222
-656.901	512.425	-0.116	0.270
-655.886	17.220	-0.293	-0.232
-654.872	-200.000	-0.013	0.232
-653.857	800.000	0.105	-0.362
-652.843	-89.466	-0.267	-0.078
-651.828	800.000	-0.036	0.105
-650.814	800.000	0.068	-0.270
-649.799	-159.307	0.345	0.019
-648.784	321.263	0.053	-0.100
-647.770	139.677	0.180	0.237
-646.755	-200.000	-0.003	0.264
-645.741	-43.383	-0.054	0.027
-644.726	-200.000	-0.019	-0.171
-643.711	-200.000	-0.005	0.150
-642.697	-139.850	-0.372	-0.039
-641.682	469.639	-0.080	-0.179
-640.668	786.094	-0.032	-0.087
-639.653	-200.000	0.024	0.159
-638.638	-116.729	-0.187	0.034
-637.624	-200.000	0.026	0.141
-636.609	-11.055	0.057	0.038
-635.595	2.557	0.161	0.116
-634.580	-95.132	-0.202	-0.054
-633.565	110.841	-0.164	-0.197
-632.551	251.548	-0.108	-0.183
-631.536	168.740	0.025	0.036
-630.522	43.844	-0.144	0.132
-629.507	-37.518	0.395	-0.210
-628.492	800.000	0.121	0.467
-627.478	-79.332	0.281	0.095
-626.463	634.827	0.093	0.235
-625.449	186.457	-0.219	-0.325
-624.434	-200.000	0.003	0.201
-623.419	-200.000	0.036	0.341
-622.405	800.000	-0.088	-0.372
-621.390	-2.668	0.218	0.152
-620.376	363.467	-0.129	0.258
-619.361	-60.810	-0.245	0.104
-618.346	45.597	-0.100	0.092
-617.332	164.545	-0.101	0.142
-616.317	-22.511	-0.169	0.102
-615.303	-200.000	-0.014	-0.317
-614.288	-109.635	-0.169	-0.035
-613.273	-54.272	0.118	-0.053
-612.259	72.153	-0.320	-0.332
-611.244	-46.401	-0.161	-0.079
-610.230	-48.916	-0.256	0.122
-609.215	-119.661	0.074	0.013
-608.201	800.000	-0.078	-0.327
-607.186	-164.798	0.246	0.011
-606.171	-173.190	-0.326	0.010
-605.157	-200.000	0.030	-0.391
-604.142	-44.790	0.192	-0.095
-603.128	34.075	0.064	0.055
-602.113	31.368	0.090	-0.077
-601.098	-200.000	-0.003	-0.111
-600.084	362.616	-0.068	-0.136
-599.069	65.318	0.136	-0.137
-598.055	-160.690	0.350	0.019
-597.040	-200.000	0.012	-0.161
-596.025	-72.491	-0.207	-0.076
-595.011	-200.000	0.064	0.343
-593.996	378.941	0.037	-0.076
-592.982	162.070	-0.050	-0.070
-591.967	-64.105	0.266	-0.108
-590.952	280.630	0.161	0.288
-589.938	73.609	-0.126	0.131
-588.923	-157.904	-0.452	0.027
-587.909	-132.938	0.307	0.039
-586.894	130.235	0.209	-0.266
-585.879	404.493	0.098	-0.206
-584.865	-200.000	-0.029	-0.145
-583.850	-41.899	-0.075	-0.038
-582.836	199.274	-0.048	0.074
-581.821	-97.774	-0.334	-0.086
-580.806	-96.029	-0.205	0.054
-579.792	-139.693	0.484	-0.051
-578.777	400.565	0.119	0.248
-577.763	0.353	-0.282	-0.200
-576.748	733.573	-0.008	-0.022
-575.733	572.262	-0.047	-0.113
-574.719	-54.647	-0.199	-0.089
-573.704	-200.000	0.037	0.211
-572.690	578.760	-0.058	-0.141
-571.675	-200.000	0.018	-0.224
-570.661	47.040	-0.196	-0.182
-569.646	800.000	-0.125	0.359
-568.631	-30.829	-0.209	0.118
-567.617	195.261	0.131	-0.199
-566.602	-200.000	-0.012	-0.503
-565.588	110.121	-0.138	0.165
-564.573	557.075	-0.204	-0.488
-563.558	-33.979	-0.138	-0.076
-562.544	521.153	-0.036	0.084
-561.529	133.763	-0.149	-0.192
-560.515	-16.246	-0.212	-0.134
-559.500	-21.918	-0.312	0.189
-558.485	800.000	0.195	-0.571
-557.471	169.834	-0.199	-0.283
-556.456	-200.000	0.001	-0.054
-555.442	-24.901	0.207	0.122
-554.427	47.367	0.019	0.018
-553.412	3.533	-0.225	0.163
-552.398	-178.782	0.106	0.002
-551.383	-112.719	-0.616	0.122
-550.369	-141.219	0.177	-0.018
-549.354	-95.003	-0.248	0.067
-548.339	172.723	-0.194	0.277
-547.325	10.356	0.289	0.219
-546.310	75.045	-0.175	0.183
-545.296	-23.705	-0.099	0.059
-544.281	-200.000	-0.024	-0.177
-543.266	-80.037	-0.401	-0.134
-542.252	250.382	-0.093	-0.157
-541.237	-200.000	-0.005	0.293
-540.223	18.560	-0.265	-0.210
-539.208	145.797	-0.221	-0.294
-538.193	51.435	0.133	-0.125
-537.179	433.548	-0.180	-0.388
-536.164	278.052	0.264	-0.467
-535.150	76.046	-0.091	-0.095
-534.135	-35.208	0.065	-0.035
-533.121	-200.000	-0.008	-0.179
-532.106	-33.141	0.125	0.069
-531.091	-120.491	-0.219	0.037
-530.077	-1.235	0.221	0.155
-529.062	93.773	-0.133	0.149
-528.048	188.315	-0.131	0.194
-527.033	18.180	0.190	-0.150
-526.018	800.000	-0.108	0.391
-525.004	-55.477	-0.187	0.083
-523.989	-115.268	-0.129	0.024
-522.975	483.878	-0.130	0.293
-521.960	48.991	-0.123	0.115
-520.945	800.000	0.039	0.165
-519.931	17.754	-0.133	-0.105
-518.916	-138.767	0.238	-0.026
-517.902	409.659	0.107	-0.226
-516.887	65.466	0.249	-0.250
-515.872	-92.764	0.043	0.012
-514.858	-52.811	0.155	-0.071
-513.843	-47.123	-0.531	-0.257
-512.829	76.261	-0.178	0.187
-511.814	-21.523	0.295	0.179
-510.799	-161.172	0.057	-0.003
-509.785	-81.511	0.149	-0.049
-508.770	-200.000	0.022	-0.247
-507.756	38.656	0.206	0.182
-506.741	-175.384	-0.088	0.002
-505.726	800.000	0.038	-0.123
-504.712	-200.000	0.030	0.250
-503.697	175.172	0.041	0.060
-502.683	-135.703	0.308	0.036
-501.668	310.464	-0.090	0.167
-500.653	203.685	0.034	0.053
-499.639	660.789	-0.091	-0.232
-498.624	33.981	0.030	-0.026
-497.610	237.744	-0.022	0.037
-496.595	-89.168	-0.103	-0.030
-495.581	-0.016	-0.169	-0.119
-494.566	165.379	-0.231	0.324
-493.551	-200.000	-0.035	-0.221
-492.537	197.688	-0.087	0.132
-491.522	-200.000	-0.018	0.168
-490.508	-81.716	0.067	-0.022
-489.493	800.000	0.032	0.097
-488.478	-18.929	-0.443	0.273
-487.464	208.736	0.094	0.147
-486.449	-200.000	0.045	-0.257
-485.435	305.189	-0.014	-0.025
-484.420	800.000	0.120	0.418
-483.405	-155.286	0.181	-0.012
-482.391	103.771	-0.139	0.162
-481.376	-36.050	-0.162	-0.087
-480.362	-167.236	-0.170	-0.007
-479.347	158.813	-0.076	-0.104
-478.332	-65.161	0.311	-0.124
-477.318	-14.091	-0.267	-0.171
-476.303	19.323	0.029	0.023
-475.289	22.640	-0.131	-0.106
-474.274	-107.512	-0.130	-0.028
-473.259	551.755	-0.098	-0.233
-472.245	-106.661	-0.230	0.051
-471.230	-200.000	0.023	0.190
-470.216	-8.075	0.225	0.151
-469.201	0.390	0.218	0.154
-468.186	-200.000	-0.041	-0.231
-467.172	-120.469	0.271	0.046
-466.157	-200.000	-0.047	-0.361
-465.143	274.456	-0.135	0.237
-464.128	-61.291	0.170	-0.071
-463.113	-143.558	0.200	0.019
-462.099	23.854	-0.110	-0.090
-461.084	299.339	0.092	0.169
-460.070	-107.337	-0.234	-0.051
-459.055	-200.000	-0.022	-0.428
-458.040	-200.000	-0.021	0.159
-457.026	800.000	0.040	0.120
-456.011	-200.000	0.060	0.299
-454.997	-200.000	-0.012	0.106
-453.982	800.000	-0.084	-0.323
-452.968	-69.245	-0.092	-0.035
-451.953	57.582	-0.150	0.145
-450.938	-200.000	-0.060	0.441
-449.924	-73.627	-0.222	0.080
-448.909	-61.579	0.444	0.185
-447.895	13.581	-0.452	-0.347
-446.880	50.595	0.231	-0.216
-445.865	-71.831	0.082	0.030
-444.851	166.164	-0.105	0.147
-443.836	-200.000	0.005	0.063
-442.822	88.423	0.147	-0.162
-441.807	-175.345	0.180	-0.005
-440.792	-159.126	0.245	0.014
-439.778	800.000	-0.050	-0.186
-438.763	-92.318	-0.209	0.058
-437.749	9.713	0.122	0.091
-436.734	-67.741	-0.226	-0.088
-435.719	137.784	-0.191	-0.247
-434.705	800.000	0.048	0.140
-433.690	-152.322	0.212	-0.015
-432.676	800.000	0.034	0.114
-431.661	509.890	0.093	0.213
-430.646	-200.000	-0.037	0.268
-429.632	253.048	0.239	0.404
-428.617	91.102	0.158	0.175
-427.603	161.741	-0.343	0.475
-426.588	-74.771	-0.381	-0.135
-425.573	321.470	0.112	-0.211
-424.559	-40.685	0.230	-0.118
-423.544	678.387	-0.169	-0.435
-422.530	-30.430	0.149	-0.083
-421.515	-109.737	-0.467	-0.097
-420.500	40.475	0.382	-0.340
-419.486	8.921	0.224	0.167
-418.471	-53.164	-0.098	0.045
-417.457	-0.202	0.066	0.046
-416.442	-200.000	-0.018	0.100
-415.428	800.000	0.076	0.225
-414.413	-94.220	-0.238	-0.064
-413.398	-27.409	-0.124	-0.072
-412.384	117.104	0.171	0.207
-411.369	-138.892	-0.192	-0.021
-410.355	485.326	0.091	0.206
-409.340	-200.000	0.120	0.000
-408.325	-2.396	-0.200	-0.138
-407.311	-200.000	0.071	-0.380
-406.296	800.000	-0.040	0.147
-405.282	523.788	-0.064	0.149
-404.267	-49.675	0.053	0.025
-403.252	92.081	-0.096	-0.107
-402.238	-200.000	0.015	0.191
-401.223	66.206	0.178	-0.178
-400.209	-200.000	-0.015	0.078
-399.194	-184.357	-0.120	0.002
-398.179	-65.304	-0.216	-0.086
-397.165	352.443	0.185	0.363
-396.150	-61.453	0.103	0.043
-395.136	-119.764	-0.177	-0.030
-394.121	22.641	0.226	0.182
-393.106	-200.000	0.007	0.120
-392.092	-88.568	-0.164	0.048
-391.077	29.968	0.114	-0.096
-390.063	8.609	-0.127	0.095
-389.048	32.349	0.146	-0.125
-388.033	-148.648	-0.257	0.021
-387.019	-200.000	-0.005	-0.034
-386.004	247.588	-0.081	-0.135
-384.990	-0.235	-0.183	-0.128
-383.975	18.756	0.334	0.264
-382.960	-200.000	0.009	-0.196
-381.946	659.245	0.100	0.254
-380.931	-128.057	0.136	-0.019
-379.917	8.458	-0.183	0.136
-378.902	778.050	0.015	0.041
-377.888	30.214	0.223	0.188
-376.873	800.000	-0.023	-0.085
-375.858	213.092	-0.041	-0.064
-374.844	387.176	-0.153	-0.311
-373.829	-81.213	-0.065	0.021
-372.815	-135.167	0.209	-0.025
-371.800	800.000	0.025	-0.096
-370.785	587.579	-0.091	0.221
-369.771	-69.310	-0.409	-0.155
-368.756	-170.997	0.353	-0.012
-367.742	-200.000	0.261	-0.001
-366.727	-200.000	0.018	-0.128
-365.712	34.138	0.299	0.257
-364.698	800.000	0.056	0.193
-363.683	-200.000	0.002	0.029
-362.669	800.000	-0.024	0.099
-361.654	353.902	-0.127	0.249
-360.639	-39.228	0.349	0.181
-359.625	36.014	-0.183	0.159
-358.610	38.221	0.147	-0.129
-357.596	-176.381	-0.343	0.009
-356.581	800.000	-0.030	0.092
-355.566	422.211	0.110	-0.232
-354.552	-102.832	0.145	-0.034
-353.537	800.000	0.037	-0.113
-352.523	-20.655	0.412	-0.250
-351.508	320.364	-0.120	0.225
-350.493	-200.000	0.002	0.016
-349.479	-200.000	-0.013	0.092
-348.464	-200.000	-0.035	0.344
-347.450	291.354	0.207	-0.371
-346.435	-19.367	-0.049	-0.030
-345.420	219.133	0.104	-0.164
-344.406	-57.634	0.116	0.050
-343.391	-3.300	0.205	-0.141
-342.377	800.000	0.036	-0.099
-341.362	-55.736	-0.405	-0.179
-340.348	-200.000	-0.019	-0.124
-339.333	6.849	0.103	-0.075
-338.318	-200.000	-0.001	-0.053
-337.304	351.059	-0.175	-0.341
-336.289	-200.000	0.026	-0.124
-335.275	-103.008	-0.498	-0.116
-334.260	15.084	0.163	-0.126
-333.245	-200.000	0.027	0.199
-332.231	-91.153	0.278	0.078
-331.216	132.548	-0.148	0.188
-330.202	-141.227	-0.053	0.005
-329.187	32.094	0.041	0.035
-328.172	35.821	-0.418	0.362
-327.158	412.968	0.116	0.243
-326.143	-88.156	-0.227	0.067
-325.129	-170.620	-0.164	-0.006
-324.114	63.239	-0.065	0.064
-323.099	210.684	0.112	0.174
-322.085	-138.013	0.220	0.024
-321.070	-200.000	0.079	-0.439
-320.056	553.063	0.170	-0.403
-319.041	693.257	0.024	-0.063
-318.026	-84.694	0.363	-0.113
-317.012	13.156	0.053	0.041
-315.997	21.252	-0.399	-0.319
-314.983	335.146	-0.112	-0.214
-313.968	334.502	0.075	0.144
-312.953	-109.078	-0.258	-0.054
-311.939	23.714	0.238	-0.193
-310.924	23.201	0.196	-0.158
-309.910	800.000	0.060	-0.254
-308.895	18.426	0.153	-0.121
-307.880	53.572	-0.252	0.238
-306.866	-166.159	0.278	0.012
-305.851	651.063	-0.098	-0.246
-304.837	-200.000	-0.003	0.018
-303.822	-83.737	0.081	0.025
-302.807	254.190	0.088	-0.148
-301.793	182.756	-0.172	0.250
-300.778	-93.679	0.123	-0.033
-299.764	-19.972	0.192	0.117
-298.749	161.275	-0.054	-0.075
-297.735	-200.000	-0.013	0.140
-296.720	-37.752	-0.146	-0.076
-295.705	-101.156	0.146	-0.035
-294.691	-33.761	-0.119	-0.064
-293.676	-200.000	-0.018	-0.095
-292.662	12.892	0.242	-0.184
-291.647	800.000	0.027	-0.075
-290.632	-68.057	-0.217	0.083
-289.618	-76.987	0.090	0.031
-288.603	43.761	-0.058	0.053
-287.589	-70.573	-0.178	-0.066
-286.574	143.065	0.236	-0.309
-285.559	-26.439	0.274	0.158
-284.545	482.434	-0.054	-0.121
-283.530	157.268	-0.088	0.119
-282.516	23.233	0.232	-0.187
-281.501	362.822	0.123	-0.244
-280.486	800.000	-0.030	0.119
-279.472	22.463	0.245	0.197
-278.457	-58.138	-0.261	-0.112
-277.443	-200.000	0.033	-0.522
-276.428	-5.673	-0.241	-0.162
-275.413	-28.509	-0.021	-0.012
-274.399	-148.796	-0.320	0.026
-273.384	-161.297	0.555	-0.028
-272.370	-7.676	-0.339	-0.225
-271.355	-19.182	-0.061	-0.037
-270.340	-200.000	-0.073	0.340
-269.326	438.837	0.056	-0.119
-268.311	-153.414	0.246	0.017
-267.297	-29.764	-0.260	0.146
-266.282	-200.000	0.002	0.155
-265.267	-200.000	0.065	-0.301
-264.253	91.056	0.068	0.075
-263.238	548.436	-0.120	0.282
-262.224	-200.000	0.043	0.266
-261.209	-200.000	-0.044	0.189
-260.195	-200.000	0.051	0.240
-259.180	-200.000	0.017	-0.439
-258.165	-108.949	0.030	-0.006
-257.151	-82.819	0.259	0.082
-256.136	81.620	0.138	-0.147
-255.122	800.000	-0.049	0.142
-254.107	52.874	0.224	0.210
-253.092	292.886	-0.115	0.207
-252.078	800.000	-0.045	-0.167
-251.063	-102.294	0.387	-0.091
-250.049	-158.552	0.041	-0.002
-249.034	-117.123	0.349	-0.062
-248.019	130.046	-0.187	0.235
-247.005	-79.089	-0.192	0.064
-245.990	-23.828	-0.412	0.243
-244.976	-79.760	0.341	0.113
-243.961	-112.432	0.102	0.020
-242.946	139.150	0.110	-0.143
-241.932	-200.000	0.015	0.516
-240.917	-200.000	-0.036	0.180
-239.903	-87.746	-0.429	0.127
-238.888	-28.776	-0.124	0.070
-237.873	44.058	-0.415	-0.373
-236.859	-174.685	0.346	0.010
-235.844	40.619	0.141	-0.125
-234.830	48.348	-0.205	0.188
-233.815	-200.000	-0.006	-0.170
-232.800	-3.139	0.215	0.147
-231.786	-52.890	0.239	-0.108
-230.771	-21.474	0.216	0.129
-229.757	-74.189	0.340	0.121
-228.742	-112.976	-0.311	-0.060
-227.727	-103.156	0.119	-0.028
-226.713	-98.223	-0.205	0.052
-225.698	110.906	-0.271	-0.321
-224.684	-156.386	0.280	-0.017
-223.669	-200.000	-0.012	0.335
-222.655	537.947	-0.089	0.207
-221.640	-55.851	-0.431	0.189
-220.625	-137.754	-0.039	-0.004
-219.611	19.269	-0.096	0.076
-218.596	-12.373	-0.156	0.100
-217.582	-200.000	0.308	-0.001
-216.567	-33.555	0.281	-0.152
-215.552	-200.000	0.036	-0.155
-214.538	-89.263	-0.089	-0.026
-213.523	-90.722	0.113	-0.032
-212.509	-200.000	0.066	-0.570
-211.494	800.000	-0.043	-0.141
-210.479	800.000	0.035	-0.105
-209.465	-158.739	0.251	0.014
-208.450	-197.374	0.388	0.002
-207.436	-36.048	0.361	0.191
-206.421	14.404	-0.051	0.039
-205.406	-26.790	0.287	-0.165
-204.392	-200.000	0.000	-0.014
-203.377	110.818	-0.134	0.158
-202.363	-200.000	-0.010	-0.126
-201.348	800.000	-0.098	-0.283
-200.333	18.062	-0.086	0.067
-199.319	280.300	0.138	0.242
-198.304	-122.181	0.166	0.027
-197.290	-200.000	-0.051	0.258
-196.275	-102.051	0.446	-0.105
-195.260	-122.620	0.302	-0.048
-194.246	-200.000	-0.029	0.267
-193.231	800.000	0.048	0.182
-192.217	61.106	0.159	0.155
-191.202	-76.243	0.231	-0.080
-190.187	797.990	0.091	0.246
-189.173	-104.020	-0.348	0.080
-188.158	800.000	0.124	0.406
-187.144	10.309	0.150	0.112
-186.129	-200.000	-0.020	-0.467
-185.114	-200.000	-0.096	-0.456
-184.100	427.112	0.048	0.101
-183.085	800.000	0.059	0.213
-182.071	-93.025	-0.049	0.014
-181.056	-171.265	-0.260	-0.009
-180.042	-95.190	-0.223	-0.059
-179.027	273.354	0.101	-0.175
-178.012	800.000	0.086	0.326
-176.998	112.010	-0.189	0.224
-175.983	-200.000	0.029	0.196
-174.969	-200.000	0.004	-0.142
-173.954	-33.426	0.345	-0.187
-172.939	-77.244	0.097	0.033
-171.925	-103.602	0.204	0.047
-170.910	-200.000	0.012	0.124
-169.896	185.354	0.125	-0.181
-168.881	-19.082	0.436	0.265
-167.866	-79.905	-0.140	-0.046
-166.852	-200.000	-0.004	-0.101
-165.837	-96.987	-0.270	-0.069
-164.823	-108.780	0.164	0.034
-163.808	-85.697	0.170	-0.052
-162.793	-126.712	-0.240	0.035
-161.779	-112.248	-0.273	0.054
-160.764	-147.284	-0.169	-0.014
-159.750	-170.312	0.259	0.009
-158.735	-126.603	0.403	-0.059
-157.720	40.922	0.275	-0.243
-156.706	286.703	-0.205	0.362
-155.691	198.887	-0.131	0.197
-154.677	-68.353	-0.148	0.056
-153.662	-200.000	0.032	0.191
-152.647	75.524	-0.073	-0.076
-151.633	-200.000	0.030	0.296
-150.618	-45.744	0.116	0.056
-149.604	-35.578	0.213	0.113
-148.589	307.450	-0.126	-0.229
-147.574	-74.710	0.352	0.124
-146.560	-40.794	0.095	0.048
-145.545	-77.300	-0.355	-0.121
-144.531	147.645	0.230	0.303
-143.516	-61.137	-0.381	-0.157
-142.502	12.120	-0.129	-0.097
-141.487	-200.000	0.016	-0.280
-140.472	-200.000	-0.035	-0.301
-139.458	220.300	-0.050	0.078
-138.443	307.064	0.087	-0.158
-137.429	222.851	-0.223	0.352
-136.414	-161.554	-0.309	-0.016
-135.399	-200.000	0.004	0.102
-134.385	-7.366	0.290	0.192
-133.370	800.000	-0.092	0.269
-132.356	-200.000	-0.038	-0.198
-131.341	-75.534	-0.148	0.052
-130.326	-200.000	0.027	-0.137
-129.312	-160.540	0.210	0.011
-128.297	-100.544	0.238	-0.058
-127.283	350.707	-0.076	0.148
-126.268	337.513	0.160	0.304
-125.253	-200.000	-0.003	-0.084
-124.239	181.754	0.198	0.285
-123.224	138.349	0.062	0.079
-122.210	211.192	0.022	-0.033
-121.195	71.013	-0.253	-0.256
