DTS Sentinel unit serial number:	SN413079Multiplexer serial number:	ORYXHardware model number:	OX4-SRSoftware version number:	ORYX F/W v4.00 Oryx Data Collector v3.7.2.0data status	okinstallation	princeton_trtdifferential loss correction	single-endedforward channel	channel 3reverse channel	N/Adate	2019/09/16time	21:08:34forward acquisition time	60.00reverse acquisition time	0.00gamma	496.2192k internal	0.2324k external	0.2324temperature offset calibration	0.9934default loss term (dB/km)	0.3790temperature slope calibration	1.0000multiplexer offset coefficient	1.0000multiplexer slope coefficient	1.0000fibre end	0.00T internal ref (°C)	31.87T ext. ref 1 (°C)	0.06T ext. ref 2 (°C)	25.38length (m)	temperature (°C)	Stokes	anti-Stokes-747.200	800.000	-0.018	0.076
-746.185	-135.793	-0.248	0.030
-745.171	-85.990	-0.035	0.011
-744.156	-82.226	-0.179	-0.059
-743.142	-200.000	0.083	0.372
-742.127	-1.788	-0.333	0.237
-741.112	-200.000	-0.033	-0.298
-740.098	-200.000	0.006	-0.100
-739.083	-188.155	-0.154	0.002
-738.069	-166.653	0.261	0.011
-737.054	-200.000	-0.031	0.252
-736.039	-65.705	-0.457	0.185
-735.025	14.125	0.166	-0.130
-734.010	-91.452	-0.046	0.013
-732.996	11.452	-0.089	-0.069
-731.981	-200.000	0.362	0.002
-730.966	-139.415	-0.143	-0.016
-729.952	50.688	-0.204	-0.195
-728.937	216.025	0.163	-0.261
-727.923	325.397	0.071	-0.137
-726.908	120.753	-0.107	-0.134
-725.894	171.574	-0.186	0.270
-724.879	800.000	-0.113	0.335
-723.864	-37.013	-0.362	0.196
-722.850	119.470	-0.065	0.081
-721.835	-126.237	0.420	0.063
-720.821	-200.000	-0.036	-0.184
-719.806	-93.783	0.243	0.067
-718.791	-7.865	-0.126	-0.086
-717.777	-110.957	-0.152	-0.031
-716.762	59.349	0.179	-0.178
-715.748	-200.000	-0.057	0.331
-714.733	-140.772	-0.256	-0.027
-713.718	-197.277	-0.132	0.001
-712.704	-99.390	-0.271	0.069
-711.689	73.641	0.185	0.196
-710.675	800.000	-0.030	0.091
-709.660	4.833	-0.235	-0.174
-708.645	49.312	0.023	-0.022
-707.631	390.435	-0.069	0.143
-706.616	3.360	-0.213	-0.156
-705.602	-3.368	0.291	0.204
-704.587	-81.197	-0.264	-0.088
-703.572	-200.000	-0.006	-0.103
-702.558	-92.223	0.380	0.108
-701.543	51.789	0.287	0.276
-700.529	522.070	-0.123	-0.292
-699.514	-200.000	0.052	0.415
-698.499	-200.000	-0.020	0.583
-697.485	800.000	-0.109	0.367
-696.470	-165.963	-0.219	-0.009
-695.456	-32.394	-0.183	0.103
-694.441	15.021	0.329	0.259
-693.426	14.645	0.308	-0.242
-692.412	-51.012	-0.205	0.097
-691.397	-177.739	-0.416	-0.010
-690.383	800.000	-0.129	-0.383
-689.368	9.468	0.189	-0.144
-688.354	785.960	-0.067	-0.186
-687.339	342.281	0.119	-0.235
-686.324	158.942	-0.117	0.164
-685.310	335.099	-0.062	-0.122
-684.295	260.914	-0.342	-0.596
-683.281	-124.384	-0.329	0.052
-682.266	-200.000	0.037	-0.171
-681.251	51.765	-0.036	-0.034
-680.237	-200.000	0.027	0.345
-679.222	168.649	-0.172	0.247
-678.208	-150.743	-0.311	0.024
-677.193	-85.461	-0.211	-0.066
-676.178	254.142	-0.210	-0.362
-675.164	16.726	-0.347	-0.276
-674.149	48.361	-0.113	0.106
-673.135	96.656	-0.400	0.461
-672.120	-200.000	0.010	0.339
-671.105	-27.792	-0.303	0.177
-670.091	88.788	-0.108	0.121
-669.076	98.706	0.119	0.138
-668.062	-109.409	0.124	-0.026
-667.047	-62.956	-0.293	-0.122
-666.032	224.449	-0.093	0.152
-665.018	800.000	-0.139	0.509
-664.003	175.764	0.115	0.167
-662.989	558.749	0.035	-0.086
-661.974	-22.961	0.089	-0.054
-660.959	-118.391	-0.239	0.043
-659.945	84.156	0.163	-0.179
-658.930	-200.000	-0.013	-0.178
-657.916	83.544	-0.062	0.068
-656.901	-16.721	0.027	-0.017
-655.886	155.542	-0.338	-0.468
-654.872	-200.000	0.028	-0.262
-653.857	731.344	0.028	-0.075
-652.843	800.000	0.092	0.283
-651.828	-200.000	-0.049	-0.219
-650.814	34.002	0.277	0.243
-649.799	80.675	-0.179	0.194
-648.784	-200.000	-0.034	-0.244
-647.770	-121.100	-0.071	-0.012
-646.755	-75.565	0.238	0.085
-645.741	-31.499	0.109	0.062
-644.726	-94.682	-0.223	0.061
-643.711	-137.612	-0.680	0.077
-642.697	-69.213	-0.201	-0.078
-641.682	-49.758	0.115	-0.055
-640.668	-186.323	0.242	0.004
-639.653	621.605	-0.076	-0.191
-638.638	-62.414	0.166	-0.070
-637.624	189.196	0.111	0.167
-636.609	-200.000	-0.020	-0.164
-635.595	755.505	-0.046	-0.125
-634.580	-87.825	-0.395	0.120
-633.565	-92.085	0.297	0.084
-632.551	468.780	0.121	-0.272
-631.536	104.370	-0.309	-0.365
-630.522	-200.000	-0.043	-0.281
-629.507	330.176	-0.156	0.301
-628.492	800.000	0.112	0.391
-627.478	800.000	-0.128	-0.432
-626.463	-85.326	0.279	-0.087
-625.449	-200.000	-0.023	0.194
-624.434	93.675	0.107	-0.122
-623.419	-151.782	0.084	-0.006
-622.405	-200.000	0.017	0.189
-621.390	-55.555	-0.187	0.084
-620.376	-200.000	-0.019	-0.335
-619.361	122.316	0.067	0.084
-618.346	-51.451	0.266	0.125
-617.332	27.412	-0.017	-0.014
-616.317	-4.667	-0.262	-0.182
-615.303	-200.000	-0.008	-0.157
-614.288	-10.458	0.243	-0.162
-613.273	322.779	0.136	0.259
-612.259	164.319	-0.156	0.221
-611.244	-52.763	-0.135	0.062
-610.230	361.844	-0.075	0.150
-609.215	328.205	0.082	0.158
-608.201	-200.000	0.033	-0.180
-607.186	-200.000	-0.054	-0.322
-606.171	-154.213	0.100	0.007
-605.157	121.553	-0.272	-0.340
-604.142	800.000	-0.107	0.346
-603.128	-68.454	-0.252	-0.098
-602.113	-197.471	-0.316	-0.002
-601.098	-111.058	0.106	-0.022
-600.084	-21.567	0.079	0.049
-599.069	29.336	-0.271	-0.231
-598.055	270.719	0.134	-0.237
-597.040	-14.009	-0.228	0.148
-596.025	-79.989	0.286	0.096
-595.011	60.614	-0.243	-0.242
-593.996	-200.000	-0.015	0.384
-592.982	322.641	0.091	0.173
-591.967	-101.880	0.218	0.053
-590.952	192.049	0.068	-0.104
-589.938	-91.385	-0.306	0.088
-588.923	-198.022	-0.234	0.001
-587.909	326.074	-0.047	-0.091
-586.894	-43.498	0.331	0.168
-585.879	-200.000	-0.010	0.358
-584.865	-128.366	0.307	0.044
-583.850	190.254	-0.161	-0.242
-582.836	-90.024	0.176	0.052
-581.821	74.591	-0.109	0.115
-580.806	-200.000	0.002	0.253
-579.792	-15.891	0.121	0.078
-578.777	31.008	-0.046	0.040
-577.763	800.000	-0.015	-0.064
-576.748	155.433	0.043	-0.059
-575.733	-94.892	-0.191	-0.052
-574.719	-95.951	-0.281	-0.075
-573.704	-79.671	-0.154	-0.052
-572.690	-167.553	-0.072	0.003
-571.675	12.392	0.073	-0.056
-570.661	-137.880	0.183	0.021
-569.646	-200.000	-0.025	-0.285
-568.631	-200.000	0.007	-0.138
-567.617	-200.000	-0.028	-0.266
-566.602	-55.313	-0.219	0.099
-565.588	-178.182	0.130	0.003
-564.573	-200.000	0.071	0.317
-563.558	-11.643	-0.040	0.026
-562.544	800.000	0.095	-0.347
-561.529	-93.318	-0.064	0.018
-560.515	-200.000	-0.003	-0.069
-559.500	221.579	-0.176	-0.284
-558.485	-48.830	0.132	-0.064
-557.471	-75.391	0.361	-0.129
-556.456	-95.416	0.309	-0.083
-555.442	1.347	0.122	-0.088
-554.427	-87.995	-0.082	-0.025
-553.412	-3.324	-0.153	-0.107
-552.398	-105.911	-0.314	-0.071
-551.383	-200.000	-0.010	-0.149
-550.369	-88.369	-0.160	0.048
-549.354	24.867	0.136	0.113
-548.339	122.885	0.089	0.112
-547.325	24.199	0.100	-0.082
-546.310	208.838	0.128	-0.200
-545.296	101.289	0.060	-0.070
-544.281	-200.000	-0.026	-0.312
-543.266	-1.449	-0.095	0.067
-542.252	-58.056	0.164	-0.072
-541.237	217.305	-0.176	-0.280
-540.223	-153.904	0.099	-0.007
-539.208	29.328	0.070	0.060
-538.193	56.621	0.082	-0.079
-537.179	-8.161	-0.123	-0.083
-536.164	1.762	-0.040	0.029
-535.150	-74.737	0.244	-0.088
-534.135	304.379	0.171	-0.317
-533.121	82.212	-0.118	-0.128
-532.106	-200.000	0.007	-0.116
-531.091	-29.690	-0.208	-0.119
-530.077	186.258	-0.228	-0.339
-529.062	-76.538	-0.312	-0.110
-528.048	-10.073	0.157	0.104
-527.033	-200.000	0.005	-0.464
-526.018	-72.993	-0.162	0.060
-525.004	-140.180	0.161	-0.017
-523.989	141.697	0.012	0.016
-522.975	334.346	-0.097	0.188
-521.960	-47.031	0.203	-0.099
-520.945	309.424	-0.099	-0.185
-519.931	-200.000	-0.016	0.180
-518.916	180.218	0.189	0.277
-517.902	-200.000	-0.040	0.404
-516.887	270.979	0.143	-0.251
-515.872	-200.000	-0.016	0.204
-514.858	125.788	0.111	-0.140
-513.843	-61.253	0.196	-0.083
-512.829	-57.453	-0.091	0.040
-511.814	-136.588	-0.040	0.005
-510.799	-134.938	-0.403	-0.049
-509.785	800.000	-0.085	0.256
-508.770	-54.540	-0.229	-0.104
-507.756	168.120	0.145	0.207
-506.741	-200.000	-0.055	0.289
-505.726	800.000	-0.005	0.016
-504.712	-86.153	0.216	-0.066
-503.697	-200.000	0.016	-0.269
-502.683	-106.797	-0.273	-0.061
-501.668	-200.000	-0.016	-0.138
-500.653	-110.383	-0.139	-0.029
-499.639	800.000	0.201	0.610
-498.624	118.976	0.231	0.285
-497.610	-0.502	-0.128	-0.091
-496.595	-200.000	-0.008	0.197
-495.581	-140.711	-0.101	-0.010
-494.566	-153.163	-0.244	-0.017
-493.551	180.634	-0.092	-0.134
-492.537	-106.050	0.104	0.023
-491.522	-81.632	0.489	-0.161
-490.508	38.570	-0.028	0.025
-489.493	95.828	0.301	-0.343
-488.478	-200.000	0.052	-0.288
-487.464	-114.646	0.091	0.017
-486.449	65.643	-0.172	-0.174
-485.435	800.000	-0.095	0.268
-484.420	-200.000	-0.020	0.338
-483.405	-13.994	0.326	-0.210
-482.391	-200.000	-0.034	0.216
-481.376	195.878	-0.129	0.197
-480.362	-126.195	0.156	0.023
-479.347	51.487	0.039	0.037
-478.332	42.672	-0.059	-0.054
-477.318	62.205	0.059	0.059
-476.303	3.695	0.204	0.149
-475.289	800.000	0.099	0.289
-474.274	6.796	0.176	0.131
-473.259	152.116	-0.086	0.117
-472.245	-200.000	-0.052	0.302
-471.230	-53.065	0.171	-0.079
-470.216	-168.406	0.297	0.011
-469.201	-106.662	-0.265	0.059
-468.186	182.062	0.153	0.226
-467.172	99.849	0.282	-0.326
-466.157	-200.000	-0.004	0.022
-465.143	800.000	-0.011	0.045
-464.128	-108.683	0.267	0.057
-463.113	-200.000	-0.019	0.121
-462.099	91.411	-0.101	0.113
-461.084	287.780	0.176	-0.318
-460.070	-0.313	0.352	0.250
-459.055	143.049	-0.149	0.197
-458.040	-200.000	-0.041	-0.253
-457.026	-159.929	-0.292	0.016
-456.011	-82.158	-0.276	0.090
-454.997	136.549	-0.138	0.180
-453.982	-20.646	0.200	0.122
-452.968	105.556	-0.167	-0.197
-451.953	153.747	-0.065	0.088
-450.938	520.525	0.132	0.309
-449.924	126.591	0.107	0.135
-448.909	-53.998	-0.289	0.131
-447.895	-200.000	0.012	0.128
-446.880	54.185	-0.224	-0.215
-445.865	-58.586	0.138	0.060
-444.851	65.026	-0.278	-0.281
-443.836	189.405	-0.023	-0.034
-442.822	-200.000	-0.013	-0.118
-441.807	-102.893	0.114	0.027
-440.792	-142.655	0.404	0.039
-439.778	121.461	0.149	0.185
-438.763	19.368	-0.249	-0.199
-437.749	800.000	0.019	0.055
-436.734	785.918	-0.147	0.403
-435.719	-96.556	-0.168	0.044
-434.705	-132.216	0.265	-0.034
-433.690	-152.319	-0.302	-0.022
-432.676	-141.892	0.078	-0.008
-431.661	-200.000	0.028	0.223
-430.646	-83.232	-0.236	0.076
-429.632	-90.659	0.037	-0.011
-428.617	800.000	0.001	0.005
-427.603	-200.000	-0.073	0.513
-426.588	-112.977	0.227	0.045
-425.573	-198.237	-0.238	-0.001
-424.559	583.516	0.046	0.114
-423.544	-155.874	0.488	0.031
-422.530	-36.839	0.051	0.027
-421.515	-138.836	-0.308	-0.033
-420.500	-33.758	-0.185	0.102
-419.486	-80.680	0.365	-0.121
-418.471	434.190	-0.022	0.049
-417.457	103.242	-0.140	-0.164
-416.442	-122.581	0.253	0.041
-415.428	-200.000	-0.022	-0.338
-414.413	67.446	0.162	0.165
-413.398	-200.000	-0.028	0.339
-412.384	-9.848	-0.290	0.193
-411.369	-75.544	-0.293	-0.104
-410.355	-135.334	0.291	-0.035
-409.340	105.923	0.143	-0.169
-408.325	10.524	-0.106	-0.080
-407.311	-40.418	-0.186	0.096
-406.296	-114.589	0.178	-0.034
-405.282	-113.391	-0.232	-0.045
-404.267	164.513	-0.084	0.119
-403.252	-21.372	-0.182	0.111
-402.238	180.783	-0.185	-0.270
-401.223	-25.068	0.378	0.223
-400.209	-200.000	0.010	0.202
-399.194	-132.098	-0.228	0.029
-398.179	-18.326	-0.117	-0.073
-397.165	-19.051	0.335	0.207
-396.150	-101.188	0.161	0.039
-395.136	373.192	0.064	0.129
-394.121	83.224	0.082	0.089
-393.106	-200.000	0.028	0.244
-392.092	800.000	0.049	0.136
-391.077	104.706	0.185	0.217
-390.063	-124.365	0.235	-0.037
-389.048	81.387	0.295	0.318
-388.033	528.254	-0.105	-0.247
-387.019	73.474	0.084	-0.087
-386.004	-200.000	0.022	0.201
-384.990	7.430	0.199	0.148
-383.975	800.000	-0.004	0.013
-382.960	-16.470	-0.125	0.079
-381.946	-200.000	0.093	0.474
-380.931	-200.000	0.013	-0.205
-379.917	7.648	-0.183	0.136
-378.902	-62.728	-0.057	0.023
-377.888	800.000	0.081	0.225
-376.873	-27.932	0.096	-0.056
-375.858	62.059	-0.144	0.143
-374.844	-62.886	-0.237	0.098
-373.829	-22.231	-0.021	0.013
-372.815	-200.000	-0.007	-0.080
-371.800	-80.203	0.218	0.072
-370.785	7.706	0.102	-0.076
-369.771	-143.405	0.319	-0.030
-368.756	-200.000	-0.014	0.357
-367.742	95.587	0.090	0.102
-366.727	-130.819	0.419	-0.056
-365.712	70.318	-0.104	-0.107
-364.698	-71.931	-0.125	0.046
-363.683	570.045	0.078	-0.189
-362.669	800.000	-0.161	0.475
-361.654	-81.581	0.147	0.048
-360.639	-200.000	-0.019	-0.327
-359.625	-200.000	-0.010	0.141
-358.610	218.093	-0.056	0.089
-357.596	-19.677	-0.151	-0.093
-356.581	297.252	0.118	-0.215
-355.566	-126.156	-0.171	-0.025
-354.552	-107.471	-0.076	-0.017
-353.537	800.000	-0.069	0.269
-352.523	195.847	-0.229	-0.346
-351.508	167.556	-0.082	-0.115
-350.493	90.721	-0.230	-0.256
-349.479	178.074	0.236	0.342
-348.464	-59.335	-0.107	-0.046
-347.450	-177.965	-0.584	0.014
-346.435	-165.685	0.170	-0.007
-345.420	27.437	0.159	-0.133
-344.406	-112.040	0.261	0.052
-343.391	-200.000	0.025	-0.145
-342.377	-73.552	0.146	0.053
-341.362	-32.753	0.242	-0.134
-340.348	99.075	-0.056	0.064
-339.333	-70.188	-0.026	0.010
-338.318	16.617	0.028	0.022
-337.304	192.861	0.199	-0.298
-336.289	695.794	0.065	0.169
-335.275	-48.191	0.086	0.041
-334.260	800.000	0.014	-0.043
-333.245	800.000	0.077	-0.284
-332.231	82.096	0.155	0.167
-331.216	513.658	0.050	-0.116
-330.202	800.000	-0.031	-0.112
-329.187	477.287	0.165	0.371
-328.172	532.889	-0.199	0.467
-327.158	2.500	0.200	0.144
-326.143	-147.339	-0.198	0.017
-325.129	-200.000	-0.029	0.129
-324.114	-0.506	-0.175	0.123
-323.099	-21.801	-0.097	0.058
-322.085	-99.450	0.413	0.103
-321.070	-122.267	-0.217	0.035
-320.056	-164.801	-0.124	-0.006
-319.041	90.297	-0.115	-0.127
-318.026	515.117	0.032	-0.075
-317.012	76.580	-0.270	-0.284
-315.997	800.000	0.034	0.136
-314.983	-200.000	-0.008	-0.220
-313.968	-200.000	0.043	-0.488
-312.953	9.775	0.193	-0.145
-311.939	11.924	0.305	-0.233
-310.924	-200.000	-0.090	-0.505
-309.910	257.820	-0.182	0.311
-308.895	11.092	-0.238	0.180
-307.880	800.000	0.088	-0.316
-306.866	-0.600	-0.225	-0.158
-305.851	166.166	-0.016	0.023
-304.837	220.390	0.032	-0.051
-303.822	800.000	-0.026	-0.103
-302.807	209.052	0.136	0.211
-301.793	800.000	-0.093	-0.319
-300.778	-55.856	-0.160	-0.071
-299.764	-200.000	0.029	0.212
-298.749	800.000	-0.144	0.417
-297.735	203.664	-0.032	0.049
-296.720	800.000	0.051	0.163
-295.705	-13.653	-0.282	0.181
-294.691	800.000	0.039	0.124
-293.676	213.518	-0.248	-0.389
-292.662	-18.893	0.084	0.052
-291.647	-24.411	-0.101	0.060
-290.632	-200.000	-0.094	0.555
-289.618	800.000	0.045	-0.127
-288.603	368.862	0.134	-0.269
-287.589	80.734	-0.105	-0.113
-286.574	-200.000	-0.007	-0.122
-285.559	-139.443	0.377	0.040
-284.545	-90.567	-0.115	-0.033
-283.530	-105.081	-0.417	-0.095
-282.516	-200.000	-0.051	-0.269
-281.501	-85.615	-0.138	-0.042
-280.486	-111.873	-0.101	0.020
-279.472	-132.788	0.139	-0.018
-278.457	21.079	0.159	-0.128
-277.443	-141.132	0.186	-0.019
-276.428	800.000	0.023	0.069
-275.413	-27.814	0.148	0.085
-274.399	-54.747	-0.117	0.052
-273.384	-104.002	0.635	-0.147
-272.370	196.498	-0.180	-0.271
-271.355	-200.000	0.027	0.000
-270.340	448.869	0.053	-0.115
-269.326	110.818	0.265	-0.315
-268.311	-200.000	0.002	0.235
-267.297	-151.466	0.235	-0.017
-266.282	-200.000	0.026	-0.129
-265.267	-79.361	-0.188	-0.063
-264.253	12.628	0.097	-0.074
-263.238	-32.705	-0.298	-0.164
-262.224	-15.758	-0.127	-0.080
-261.209	-200.000	0.012	-0.265
-260.195	-24.690	-0.045	0.026
-259.180	135.851	0.056	-0.072
-258.165	-87.348	-0.068	-0.020
-257.151	-200.000	0.023	-0.287
-256.136	-36.348	-0.139	-0.074
-255.122	396.978	0.152	0.313
-254.107	-200.000	-0.050	0.352
-253.092	-200.000	0.022	0.129
-252.078	-60.364	-0.209	-0.088
-251.063	-200.000	0.014	0.215
-250.049	70.000	-0.216	-0.221
-249.034	93.457	-0.152	0.170
-248.019	-200.000	0.030	-0.138
-247.005	-138.888	0.064	0.007
-245.990	337.904	0.080	0.154
-244.976	-35.720	0.260	0.140
-243.961	125.218	0.164	0.205
-242.946	-200.000	0.043	-0.295
-241.932	800.000	0.061	-0.250
-240.917	-200.000	0.035	0.302
-239.903	-70.732	-0.221	0.083
-238.888	-200.000	0.049	-0.327
-237.873	-200.000	-0.011	-0.127
-236.859	77.306	-0.183	0.192
-235.844	-200.000	0.020	0.351
-234.830	125.498	-0.134	0.167
-233.815	-200.000	0.018	0.206
-232.800	800.000	0.026	-0.099
-231.786	342.943	0.222	-0.429
-230.771	-42.883	-0.163	-0.082
-229.757	-15.214	-0.145	-0.092
-228.742	778.897	0.067	0.182
-227.727	-116.364	-0.141	0.026
-226.713	351.757	-0.218	-0.427
-225.698	-29.715	-0.199	0.112
-224.684	-0.007	0.284	-0.200
-223.669	-103.813	-0.251	0.058
-222.655	5.430	0.052	0.038
-221.640	122.863	-0.050	-0.062
-220.625	578.885	0.071	0.172
-219.611	148.096	0.085	0.114
-218.596	110.383	-0.185	-0.220
-217.582	-170.498	-0.135	0.005
-216.567	353.818	0.076	-0.150
-215.552	-85.061	0.257	-0.080
-214.538	-48.857	-0.051	-0.024
-213.523	-41.701	0.059	0.030
-212.509	342.517	-0.152	0.294
-211.494	-138.285	0.443	-0.048
-210.479	111.999	-0.191	0.228
-209.465	712.282	0.105	0.276
-208.450	-99.791	0.106	-0.026
-207.436	800.000	0.070	-0.215
-206.421	-118.820	-0.181	-0.031
-205.406	155.313	-0.117	-0.159
-204.392	-95.933	0.175	-0.046
-203.377	128.522	-0.183	-0.230
-202.363	87.994	-0.197	-0.215
-201.348	42.019	0.306	0.275
-200.333	-200.000	-0.004	0.113
-199.319	-23.505	0.286	-0.170
-198.304	-200.000	0.038	-0.171
-197.290	-61.167	0.197	-0.082
-196.275	-200.000	0.013	0.180
-195.260	43.250	0.185	0.167
-194.246	-200.000	0.014	0.137
-193.231	-84.273	0.156	0.049
-192.217	23.151	0.199	-0.162
-191.202	-85.029	-0.064	0.020
-190.187	-157.933	-0.537	-0.031
-189.173	-67.863	-0.295	-0.114
-188.158	-200.000	0.008	-0.061
-187.144	-140.567	0.185	-0.019
-186.129	-196.468	-0.494	-0.003
-185.114	132.585	0.302	-0.384
-184.100	-200.000	0.008	-0.093
-183.085	122.009	-0.195	-0.241
-182.071	-166.434	-0.185	0.008
-181.056	-200.000	-0.012	-0.213
-180.042	-163.474	0.450	-0.021
-179.027	-46.582	-0.121	-0.059
-178.012	87.432	0.241	0.263
-176.998	-61.061	0.324	0.135
-175.983	-200.000	-0.033	-0.214
-174.969	9.571	-0.214	-0.160
-173.954	-86.067	-0.042	0.013
-172.939	-68.164	-0.338	-0.130
-171.925	-46.473	-0.305	0.148
-170.910	-48.173	-0.228	0.109
-169.896	-22.403	-0.185	0.111
-168.881	-200.000	0.005	0.520
-167.866	-46.003	-0.033	0.016
-166.852	306.955	0.238	-0.437
-165.837	-200.000	-0.003	-0.183
-164.823	-119.794	0.327	0.056
-163.808	-200.000	0.009	-0.049
-162.793	60.021	-0.076	0.074
-161.779	800.000	0.068	-0.197
-160.764	800.000	-0.080	-0.260
-159.750	800.000	0.066	-0.199
-158.735	-89.977	0.209	0.060
-157.720	800.000	0.042	0.157
-156.706	26.385	0.262	0.216
-155.691	70.485	-0.097	-0.099
-154.677	165.712	0.128	0.178
-153.662	-0.684	0.118	0.082
-152.647	515.172	-0.133	0.306
-151.633	20.175	-0.316	0.251
-150.618	438.671	0.114	-0.246
-149.604	-145.178	-0.127	0.011
-148.589	-25.346	-0.085	-0.049
-147.574	-104.705	0.341	0.077
-146.560	-72.340	-0.278	0.101
-145.545	-92.170	0.300	-0.083
-144.531	57.977	0.057	0.055
-143.516	-74.288	-0.161	-0.057
-142.502	388.105	0.150	-0.307
-141.487	-52.447	0.236	-0.108
-140.472	800.000	-0.114	0.335
-139.458	-37.732	-0.261	-0.137
-138.443	-200.000	0.002	0.046
-137.429	19.699	-0.187	-0.148
-136.414	800.000	-0.096	-0.268
-135.399	-200.000	0.017	0.147
-134.385	45.122	0.110	0.100
-133.370	-50.943	0.144	-0.066
-132.356	-200.000	-0.003	-0.107
-131.341	58.693	-0.336	0.325
-130.326	-200.000	0.068	0.320
-129.312	-36.961	0.302	0.160
-128.297	-88.866	-0.070	-0.021
-127.283	170.370	0.062	-0.088
-126.268	99.797	-0.059	0.067
-125.253	-80.970	-0.296	-0.097
-124.239	-27.843	0.058	0.033
-123.224	58.019	0.098	-0.094
-122.210	800.000	0.151	-0.425
