DTS Sentinel unit serial number:	SN413079Multiplexer serial number:	ORYXHardware model number:	OX4-SRSoftware version number:	ORYX F/W v4.00 Oryx Data Collector v3.7.2.0data status	okinstallation	princeton_trtdifferential loss correction	single-endedforward channel	channel 3reverse channel	N/Adate	2019/09/13time	10:32:34forward acquisition time	60.00reverse acquisition time	0.00gamma	496.2192k internal	0.2320k external	0.2320temperature offset calibration	1.0140default loss term (dB/km)	0.3790temperature slope calibration	1.0000multiplexer offset coefficient	1.0000multiplexer slope coefficient	1.0000fibre end	0.00T internal ref (°C)	31.20T ext. ref 1 (°C)	4.57T ext. ref 2 (°C)	28.38length (m)	temperature (°C)	Stokes	anti-Stokes-747.200	141.602	0.270	-0.361
-746.185	800.000	-0.048	0.208
-745.171	274.662	0.119	0.213
-744.156	121.489	-0.060	0.075
-743.142	149.661	0.202	-0.276
-742.127	-200.000	0.029	0.409
-741.112	-30.948	-0.116	0.066
-740.098	-90.717	-0.186	-0.054
-739.083	6.243	0.301	-0.225
-738.069	345.188	-0.073	0.145
-737.054	54.465	0.101	0.098
-736.039	-200.000	0.030	0.146
-735.025	541.389	0.117	-0.283
-734.010	6.301	-0.202	-0.152
-732.996	315.028	-0.124	-0.235
-731.981	-0.860	0.348	-0.249
-730.966	41.693	-0.252	-0.230
-729.952	800.000	-0.034	-0.116
-728.937	-151.508	-0.202	-0.015
-727.923	-200.000	0.025	-0.261
-726.908	391.668	0.153	-0.322
-725.894	800.000	-0.155	0.503
-724.879	-200.000	-0.036	0.251
-723.864	112.303	0.126	0.154
-722.850	421.850	0.131	0.285
-721.835	-200.000	0.013	0.122
-720.821	101.021	0.043	0.051
-719.806	-75.547	-0.249	0.090
-718.791	35.051	0.130	-0.115
-717.777	-37.544	0.085	-0.046
-716.762	4.704	0.124	-0.092
-715.748	-126.423	0.254	0.038
-714.733	783.112	0.106	0.292
-713.718	161.650	-0.119	0.168
-712.704	-49.080	-0.017	0.008
-711.689	800.000	0.014	-0.057
-710.675	43.696	0.197	-0.182
-709.660	-70.562	-0.231	-0.088
-708.645	-117.231	0.168	-0.031
-707.631	-200.000	0.026	-0.140
-706.616	-53.149	-0.223	-0.103
-705.602	800.000	0.026	0.113
-704.587	800.000	-0.067	-0.197
-703.572	-26.229	-0.176	0.104
-702.558	55.632	-0.222	-0.217
-701.543	-60.601	0.424	-0.181
-700.529	86.569	0.044	0.049
-699.514	-48.979	0.029	-0.014
-698.499	-108.034	-0.268	0.059
-697.485	767.498	-0.139	-0.382
-696.470	-200.000	-0.010	0.410
-695.456	-70.454	-0.118	-0.045
-694.441	-74.323	-0.091	0.033
-693.426	800.000	-0.027	0.090
-692.412	-85.209	-0.275	0.087
-691.397	800.000	0.068	-0.260
-690.383	272.583	0.119	0.211
-689.368	-64.538	-0.326	0.134
-688.354	-182.550	-0.288	-0.005
-687.339	281.690	0.109	0.197
-686.324	-39.941	-0.159	-0.084
-685.310	82.333	0.109	-0.120
-684.295	557.290	0.019	-0.046
-683.281	180.983	-0.138	-0.205
-682.266	148.613	-0.069	0.094
-681.251	-6.058	-0.133	0.091
-680.237	-200.000	0.013	0.170
-679.222	43.996	0.087	-0.080
-678.208	-14.216	-0.199	-0.130
-677.193	126.725	0.177	-0.226
-676.178	800.000	0.047	-0.189
-675.164	-164.201	0.086	-0.004
-674.149	-200.000	0.019	-0.165
-673.135	174.241	-0.195	-0.284
-672.120	-200.000	0.000	-0.099
-671.105	-153.937	-0.204	-0.014
-670.091	160.661	-0.108	-0.152
-669.076	-64.843	-0.246	-0.100
-668.062	247.623	0.101	0.172
-667.047	-179.131	-0.074	0.002
-666.032	-191.334	0.157	-0.002
-665.018	-200.000	0.006	-0.039
-664.003	-110.101	-0.158	-0.033
-662.989	-0.292	-0.162	-0.116
-661.974	483.398	0.048	-0.110
-660.959	271.816	0.074	0.132
-659.945	-200.000	0.082	0.366
-658.930	-64.769	-0.192	0.078
-657.916	800.000	0.039	0.149
-656.901	1.873	0.132	0.096
-655.886	-70.542	-0.347	0.132
-654.872	800.000	0.091	-0.377
-653.857	107.272	-0.273	0.327
-652.843	800.000	-0.025	0.087
-651.828	-11.467	0.178	0.118
-650.814	-200.000	0.050	-0.502
-649.799	800.000	-0.040	-0.159
-648.784	48.787	-0.147	0.139
-647.770	-89.772	0.180	-0.053
-646.755	396.752	-0.182	0.383
-645.741	-200.000	-0.005	0.127
-644.726	665.226	-0.066	-0.170
-643.711	329.604	-0.093	-0.180
-642.697	30.123	0.258	0.222
-641.682	-104.241	0.307	-0.072
-640.668	665.744	0.064	0.167
-639.653	40.592	-0.058	-0.053
-638.638	800.000	0.055	-0.216
-637.624	140.448	0.012	0.016
-636.609	-74.054	-0.419	-0.153
-635.595	-109.256	-0.319	0.068
-634.580	-46.593	-0.062	0.031
-633.565	-200.000	-0.007	-0.075
-632.551	-43.450	0.256	-0.130
-631.536	204.931	0.163	-0.254
-630.522	-16.167	-0.142	-0.091
-629.507	-19.873	-0.044	0.027
-628.492	-78.989	0.122	0.042
-627.478	-48.949	0.111	0.053
-626.463	-200.000	0.020	-0.250
-625.449	680.829	-0.029	-0.075
-624.434	-81.891	-0.212	0.070
-623.419	178.748	-0.067	-0.099
-622.405	-63.902	-0.275	0.113
-621.390	-40.155	0.280	-0.147
-620.376	800.000	0.095	-0.267
-619.361	305.045	0.089	-0.167
-618.346	22.083	0.150	0.123
-617.332	11.265	-0.107	-0.083
-616.317	326.342	0.029	0.055
-615.303	-79.777	-0.116	-0.039
-614.288	19.000	0.177	-0.143
-613.273	284.632	-0.059	-0.107
-612.259	-70.750	-0.258	0.098
-611.244	382.367	-0.072	0.150
-610.230	-93.078	-0.193	-0.054
-609.215	800.000	0.037	0.132
-608.201	800.000	0.031	-0.134
-607.186	-172.657	0.126	-0.004
-606.171	88.968	-0.206	0.230
-605.157	15.283	-0.251	-0.198
-604.142	-27.471	0.261	-0.152
-603.128	800.000	-0.075	-0.308
-602.113	-200.000	0.030	-0.176
-601.098	-109.346	0.203	0.043
-600.084	-8.976	0.150	0.101
-599.069	-84.071	-0.167	-0.053
-598.055	342.319	-0.035	-0.068
-597.040	-129.026	-0.355	0.050
-596.025	34.000	0.109	-0.095
-595.011	-50.445	0.086	0.041
-593.996	-5.063	-0.261	-0.181
-592.982	-139.912	-0.276	-0.029
-591.967	28.563	0.191	0.163
-590.952	-114.391	-0.159	0.031
-589.938	800.000	0.054	-0.213
-588.923	-99.353	-0.376	0.095
-587.909	-200.000	0.007	-0.363
-586.894	-68.485	0.223	-0.087
-585.879	-32.540	-0.188	0.105
-584.865	367.154	0.027	-0.055
-583.850	-21.488	-0.297	0.182
-582.836	-185.882	0.058	-0.001
-581.821	-6.852	-0.134	0.091
-580.806	800.000	-0.108	-0.313
-579.792	345.520	0.032	-0.063
-578.777	-21.762	0.122	-0.074
-577.763	-45.965	0.351	-0.174
-576.748	-20.734	-0.279	0.172
-575.733	-141.477	-0.023	-0.002
-574.719	-36.937	0.123	-0.066
-573.704	-21.109	-0.248	0.152
-572.690	800.000	0.036	-0.117
-571.675	72.511	0.184	-0.193
-570.661	-128.263	-0.113	-0.016
-569.646	800.000	-0.034	0.124
-568.631	800.000	0.005	0.016
-567.617	-72.060	-0.286	-0.107
-566.602	-65.274	-0.272	0.110
-565.588	10.336	0.232	-0.177
-564.573	800.000	0.038	-0.158
-563.558	38.146	0.163	0.146
-562.544	-200.000	-0.016	0.090
-561.529	225.431	-0.219	0.357
-560.515	-138.237	-0.370	0.041
-559.500	-200.000	0.033	0.171
-558.485	588.431	-0.165	0.409
-557.471	800.000	0.006	-0.020
-556.456	138.722	-0.105	0.139
-555.442	671.930	0.097	0.252
-554.427	658.526	-0.054	-0.139
-553.412	-200.000	0.001	0.188
-552.398	33.056	-0.341	0.297
-551.383	-60.772	0.250	-0.106
-550.369	79.367	0.188	-0.202
-549.354	41.865	-0.229	-0.208
-548.339	-74.509	0.089	-0.032
-547.325	800.000	0.181	0.547
-546.310	42.512	-0.241	0.220
-545.296	-200.000	0.018	-0.130
-544.281	-109.018	-0.214	0.046
-543.266	-43.618	-0.348	-0.176
-542.252	259.003	-0.152	-0.262
-541.237	-90.333	0.220	0.064
-540.223	724.678	-0.074	0.198
-539.208	-132.826	-0.240	0.031
-538.193	-200.000	-0.048	-0.326
-537.179	-85.536	-0.165	0.052
-536.164	8.511	0.135	0.102
-535.150	-58.129	-0.078	-0.034
-534.135	-200.000	0.043	0.324
-533.121	296.553	0.051	-0.094
-532.106	462.581	0.044	0.100
-531.091	-200.000	0.048	0.283
-530.077	39.703	-0.217	-0.195
-529.062	-200.000	-0.005	0.223
-528.048	48.439	-0.168	-0.158
-527.033	20.709	-0.220	-0.178
-526.018	-94.951	0.315	-0.086
-525.004	800.000	-0.041	-0.146
-523.989	-200.000	0.028	-0.405
-522.975	-38.738	-0.174	0.092
-521.960	89.293	-0.125	-0.140
-520.945	34.682	-0.177	-0.155
-519.931	118.206	0.096	-0.118
-518.916	-200.000	-0.025	0.530
-517.902	-200.000	0.015	0.231
-516.887	-82.557	-0.096	0.031
-515.872	-200.000	0.005	-0.328
-514.858	800.000	-0.052	-0.211
-513.843	16.683	-0.071	-0.056
-512.829	-29.591	-0.304	0.174
-511.814	57.389	-0.200	-0.196
-510.799	343.628	-0.079	0.155
-509.785	-156.675	0.122	0.008
-508.770	17.478	0.351	-0.279
-507.756	31.245	0.127	-0.109
-506.741	366.797	0.016	-0.033
-505.726	503.506	-0.061	-0.141
-504.712	-9.723	-0.274	-0.183
-503.697	-85.706	-0.178	0.055
-502.683	800.000	0.086	-0.259
-501.668	90.951	0.121	-0.135
-500.653	8.536	-0.044	0.033
-499.639	155.166	0.172	-0.238
-498.624	117.026	-0.038	-0.047
-497.610	800.000	0.029	-0.090
-496.595	23.539	0.143	-0.118
-495.581	-49.592	-0.168	0.080
-494.566	-38.809	-0.263	-0.139
-493.551	1.293	-0.137	-0.099
-492.537	-110.851	-0.293	-0.060
-491.522	-119.683	-0.444	0.077
-490.508	-80.767	0.047	0.016
-489.493	-200.000	-0.031	0.149
-488.478	-200.000	-0.019	-0.228
-487.464	537.179	0.093	-0.221
-486.449	-1.430	0.186	-0.132
-485.435	-200.000	-0.071	0.335
-484.420	273.793	0.153	-0.271
-483.405	-200.000	0.001	-0.028
-482.391	223.677	-0.070	0.113
-481.376	-102.381	-0.218	-0.052
-480.362	-93.810	0.185	0.051
-479.347	-60.640	0.280	0.119
-478.332	-0.005	0.381	-0.272
-477.318	3.129	0.190	0.138
-476.303	-40.076	-0.345	-0.180
-475.289	800.000	0.011	-0.041
-474.274	-198.143	0.299	-0.002
-473.259	-39.251	0.106	0.056
-472.245	-21.168	0.363	-0.222
-471.230	431.773	0.042	-0.090
-470.216	231.210	0.175	0.287
-469.201	-200.000	0.035	-0.245
-468.186	90.847	-0.088	-0.099
-467.172	-167.744	-0.213	-0.008
-466.157	800.000	0.072	0.256
-465.143	-70.942	-0.063	0.024
-464.128	171.693	-0.051	-0.073
-463.113	137.166	0.206	-0.269
-462.099	-145.510	0.279	-0.025
-461.084	24.373	-0.142	0.117
-460.070	-200.000	0.021	-0.207
-459.055	68.570	-0.086	-0.088
-458.040	-137.643	0.262	-0.029
-457.026	800.000	-0.070	0.299
-456.011	-55.489	-0.260	-0.117
-454.997	496.697	0.113	-0.260
-453.982	-113.598	-0.254	0.050
-452.968	58.536	-0.275	0.270
-451.953	800.000	0.091	-0.358
-450.938	-57.545	-0.272	0.119
-449.924	241.640	-0.051	0.085
-448.909	-200.000	0.005	0.521
-447.895	449.871	0.114	0.252
-446.880	-92.947	0.129	-0.036
-445.865	-119.628	-0.189	-0.033
-444.851	800.000	0.049	-0.153
-443.836	-65.171	-0.109	0.044
-442.822	-23.955	-0.127	0.076
-441.807	84.691	0.088	-0.096
-440.792	535.655	0.233	0.553
-439.778	701.783	0.083	-0.219
-438.763	-128.103	0.230	0.033
-437.749	-200.000	0.001	-0.043
-436.734	-200.000	0.023	0.237
-435.719	113.847	0.082	0.100
-434.705	800.000	0.080	-0.252
-433.690	-200.000	-0.014	0.101
-432.676	-200.000	0.006	0.070
-431.661	305.131	-0.093	0.172
-430.646	-200.000	-0.042	-0.291
-429.632	-119.468	-0.229	0.040
-428.617	-86.458	-0.161	0.049
-427.603	81.668	0.126	-0.136
-426.588	-80.069	0.113	0.038
-425.573	30.504	0.196	0.167
-424.559	693.260	-0.118	0.308
-423.544	-200.000	0.061	0.287
-422.530	-200.000	0.011	-0.330
-421.515	800.000	-0.040	0.175
-420.500	7.180	0.304	-0.226
-419.486	-200.000	0.033	0.177
-418.471	275.199	0.172	-0.304
-417.457	-90.481	-0.206	-0.060
-416.442	-161.626	0.433	0.022
-415.428	-79.131	-0.095	0.032
-414.413	-57.751	0.180	0.079
-413.398	-49.729	-0.359	0.170
-412.384	151.145	-0.147	0.199
-411.369	-87.677	0.352	0.106
-410.355	-112.106	-0.474	-0.095
-409.340	800.000	0.074	-0.282
-408.325	26.259	0.168	0.140
-407.311	156.378	0.026	0.035
-406.296	-48.149	0.220	-0.106
-405.282	10.163	-0.147	-0.112
-404.267	-138.111	0.251	-0.028
-403.252	-41.784	0.144	0.074
-402.238	191.113	-0.022	-0.033
-401.223	-85.523	0.181	-0.056
-400.209	-200.000	-0.005	0.043
-399.194	800.000	-0.130	-0.379
-398.179	-141.720	0.102	0.010
-397.165	-163.191	0.189	0.009
-396.150	-177.890	-0.303	-0.007
-395.136	-100.666	-0.104	0.026
-394.121	171.661	-0.083	-0.118
-393.106	-19.359	-0.247	0.153
-392.092	-200.000	-0.015	0.164
-391.077	-200.000	0.047	0.282
-390.063	-41.620	0.041	-0.021
-389.048	-200.000	-0.012	0.160
-388.033	370.932	-0.234	-0.473
-387.019	49.415	-0.189	-0.177
-386.004	292.354	0.059	-0.107
-384.990	278.313	-0.096	0.171
-383.975	675.078	-0.092	0.238
-382.960	325.105	-0.134	0.256
-381.946	155.333	0.125	-0.171
-380.931	84.379	0.099	0.108
-379.917	-25.745	-0.137	-0.081
-378.902	-76.504	0.197	0.069
-377.888	-200.000	-0.051	0.322
-376.873	-164.143	0.258	0.012
-375.858	-42.765	-0.407	-0.206
-374.844	467.430	-0.103	-0.230
-373.829	-158.038	-0.210	0.012
-372.815	-74.290	0.208	-0.075
-371.800	-200.000	-0.082	0.388
-370.785	800.000	0.069	0.261
-369.771	-45.735	0.234	0.115
-368.756	121.674	-0.117	-0.145
-367.742	800.000	-0.034	-0.131
-366.727	-200.000	0.021	0.144
-365.712	244.797	-0.067	0.112
-364.698	-142.249	0.097	0.010
-363.683	-40.704	-0.264	-0.136
-362.669	-110.525	0.229	0.047
-361.654	-73.276	-0.089	0.032
-360.639	562.078	0.153	-0.369
-359.625	-200.000	0.011	0.060
-358.610	800.000	-0.073	0.261
-357.596	390.732	0.030	0.062
-356.581	208.921	0.151	0.235
-355.566	800.000	0.028	-0.090
-354.552	-123.954	0.131	0.020
-353.537	74.084	0.036	-0.038
-352.523	-13.770	0.068	-0.044
-351.508	-200.000	0.032	0.159
-350.493	-104.321	-0.144	-0.033
-349.479	253.157	0.116	-0.198
-348.464	-136.590	0.349	-0.040
-347.450	15.856	-0.147	0.115
-346.435	-200.000	-0.003	-0.196
-345.420	-24.061	0.199	-0.118
-344.406	56.216	-0.136	0.132
-343.391	55.196	-0.197	-0.190
-342.377	800.000	-0.081	0.240
-341.362	72.659	-0.111	-0.115
-340.348	-86.462	0.312	0.095
-339.333	359.391	-0.120	0.238
-338.318	-84.177	-0.034	-0.011
-337.304	-82.111	0.402	0.130
-336.289	800.000	-0.106	0.334
-335.275	-45.547	0.103	-0.051
-334.260	-136.847	0.218	-0.025
-333.245	-116.521	0.214	-0.039
-332.231	545.190	-0.186	0.443
-331.216	11.262	0.158	0.120
-330.202	293.277	-0.037	0.068
-329.187	-83.458	0.378	0.120
-328.172	800.000	0.061	-0.188
-327.158	253.080	0.158	0.268
-326.143	62.214	-0.188	0.187
-325.129	-138.788	0.470	-0.051
-324.114	-101.942	-0.125	0.030
-323.099	410.223	0.035	-0.073
-322.085	-200.000	-0.003	-0.298
-321.070	111.204	0.204	0.244
-320.056	-159.070	-0.254	0.014
-319.041	-169.448	0.143	0.005
-318.026	18.748	0.122	-0.097
-317.012	-145.643	0.238	-0.021
-315.997	98.956	-0.059	-0.068
-314.983	107.206	0.073	-0.086
-313.968	-163.543	-0.615	0.029
-312.953	-123.416	-0.137	-0.022
-311.939	451.359	-0.060	-0.132
-310.924	309.452	0.029	0.054
-309.910	-200.000	0.009	0.077
-308.895	547.383	-0.097	0.231
-307.880	24.764	-0.184	0.151
-306.866	43.284	0.088	0.080
-305.851	337.230	0.117	0.227
-304.837	-200.000	-0.019	0.224
-303.822	-200.000	-0.000	-0.283
-302.807	272.673	-0.128	-0.225
-301.793	-200.000	-0.017	0.169
-300.778	-200.000	0.070	0.423
-299.764	800.000	-0.071	-0.287
-298.749	-77.034	0.209	0.072
-297.735	49.261	0.295	0.276
-296.720	-200.000	0.008	0.309
-295.705	292.920	-0.084	0.152
-294.691	-146.139	-0.276	0.024
-293.676	-63.227	-0.105	0.043
-292.662	-138.331	0.140	-0.015
-291.647	-94.309	-0.226	-0.061
-290.632	-200.000	-0.006	-0.160
-289.618	368.731	0.090	-0.181
-288.603	-173.711	-0.216	0.006
-287.589	-29.016	-0.136	0.078
-286.574	186.904	0.195	0.289
-285.559	-200.000	0.026	-0.260
-284.545	173.052	-0.264	0.378
-283.530	-0.391	0.320	0.226
-282.516	191.522	0.137	0.204
-281.501	-54.896	-0.437	-0.196
-280.486	-92.495	-0.202	-0.056
-279.472	-200.000	0.061	0.338
-278.457	800.000	-0.034	-0.112
-277.443	-156.078	-0.193	-0.012
-276.428	316.493	0.270	0.506
-275.413	386.481	-0.150	0.308
-274.399	-190.176	-0.190	0.002
-273.384	-135.219	0.264	-0.031
-272.370	-200.000	-0.009	0.179
-271.355	18.125	0.049	-0.039
-270.340	800.000	-0.096	-0.273
-269.326	799.351	0.122	-0.334
-268.311	239.481	0.036	0.059
-267.297	84.312	0.320	-0.348
-266.282	308.804	0.172	0.318
-265.267	347.682	0.065	-0.126
-264.253	30.211	-0.229	0.194
-263.238	-200.000	0.003	-0.063
-262.224	142.188	0.047	0.061
-261.209	432.870	0.074	0.158
-260.195	345.933	0.163	0.317
-259.180	-103.381	0.294	-0.069
-258.165	-200.000	0.005	0.335
-257.151	800.000	-0.024	-0.084
-256.136	-147.457	-0.099	0.008
-255.122	-200.000	0.050	-0.226
-254.107	215.736	0.041	-0.064
-253.092	221.294	0.049	-0.079
-252.078	42.184	-0.198	-0.178
-251.063	78.669	0.206	0.218
-250.049	585.405	-0.105	-0.256
-249.034	-200.000	-0.043	-0.297
-248.019	-118.067	-0.159	0.028
-247.005	800.000	-0.075	0.288
-245.990	-82.885	0.202	-0.065
-244.976	140.929	0.171	-0.224
-243.961	5.310	-0.300	-0.219
-242.946	358.926	0.168	0.334
-241.932	-132.934	-0.365	0.046
-240.917	-69.604	0.197	0.075
-239.903	436.209	0.193	0.416
-238.888	-155.212	-0.149	-0.010
-237.873	-200.000	0.030	0.225
-236.859	-2.165	0.169	-0.118
-235.844	-129.032	-0.162	-0.023
-234.830	73.290	0.139	-0.145
-233.815	102.894	0.203	-0.236
-232.800	77.829	-0.035	-0.036
-231.786	-34.630	0.313	0.170
-230.771	-13.691	0.074	0.047
-229.757	-125.254	0.338	-0.051
-228.742	104.750	-0.337	0.394
-227.727	29.899	0.105	0.088
-226.713	-200.000	0.012	-0.129
-225.698	-97.411	0.359	-0.093
-224.684	-200.000	0.071	-0.363
-223.669	-57.159	0.062	-0.027
-222.655	334.947	-0.137	0.262
-221.640	-81.691	0.182	0.059
-220.625	-71.390	0.150	0.056
-219.611	-125.151	-0.203	-0.031
-218.596	-40.990	0.119	0.061
-217.582	151.539	-0.196	-0.264
-216.567	-106.513	0.184	0.041
-215.552	800.000	-0.031	-0.136
-214.538	800.000	-0.046	0.168
-213.523	-62.908	0.293	0.120
-212.509	-62.153	-0.201	0.083
-211.494	161.760	0.156	-0.217
-210.479	-21.058	-0.240	0.146
-209.465	-150.703	-0.206	-0.016
-208.450	113.456	-0.082	0.098
-207.436	11.092	0.132	-0.100
-206.421	800.000	-0.014	-0.059
-205.406	-64.568	0.159	0.064
-204.392	-200.000	0.002	0.077
-203.377	-200.000	0.062	-0.347
-202.363	-200.000	-0.040	0.229
-201.348	800.000	-0.018	0.077
-200.333	489.637	0.092	0.208
-199.319	-144.782	0.134	0.012
-198.304	-17.212	0.276	-0.172
-197.290	-200.000	0.010	-0.255
-196.275	-50.185	-0.232	-0.109
-195.260	76.602	0.223	-0.234
-194.246	80.449	0.022	-0.023
-193.231	-125.669	-0.155	0.023
-192.217	-200.000	0.005	-0.036
-191.202	487.170	-0.032	-0.072
-190.187	122.631	0.125	-0.155
-189.173	309.980	0.289	-0.536
-188.158	-66.810	-0.036	0.014
-187.144	569.987	-0.017	-0.042
-186.129	127.336	-0.084	-0.106
-185.114	-87.237	0.304	0.091
-184.100	12.210	-0.164	-0.125
-183.085	-18.914	-0.159	-0.098
-182.071	-69.917	0.173	0.065
-181.056	249.358	-0.079	0.132
-180.042	-71.380	0.176	-0.065
-179.027	140.796	-0.155	0.202
-178.012	671.765	-0.177	-0.453
-176.998	-36.889	0.107	-0.057
-175.983	-116.868	0.077	-0.014
-174.969	-105.537	-0.248	-0.056
-173.954	587.038	-0.145	-0.352
-172.939	-69.588	-0.217	-0.082
-171.925	300.018	0.197	-0.359
-170.910	-87.765	-0.215	0.064
-169.896	146.044	-0.240	0.319
-168.881	219.208	-0.091	0.144
-167.866	-200.000	0.021	0.498
-166.852	-92.354	0.275	-0.077
-165.837	-161.626	0.125	-0.006
-164.823	-60.965	0.185	0.077
-163.808	-200.000	0.022	-0.167
-162.793	-45.452	0.304	0.149
-161.779	-200.000	0.028	0.189
-160.764	-69.984	-0.182	-0.068
-159.750	-166.085	0.166	0.007
-158.735	-131.955	0.355	0.046
-157.720	49.121	-0.201	-0.186
-156.706	800.000	-0.030	-0.095
-155.691	-59.282	0.095	0.041
-154.677	64.265	-0.063	-0.063
-153.662	800.000	0.066	-0.181
-152.647	23.921	0.157	0.128
-151.633	322.668	0.076	-0.144
-150.618	61.369	0.164	-0.161
-149.604	-200.000	-0.077	0.410
-148.589	2.659	0.324	0.232
-147.574	9.202	-0.154	0.115
-146.560	649.408	-0.103	-0.261
-145.545	-200.000	0.049	0.457
-144.531	-93.559	-0.181	-0.049
-143.516	-118.507	0.127	0.022
-142.502	-143.530	0.342	-0.032
-141.487	-34.331	0.114	0.062
-140.472	447.657	0.058	-0.127
-139.458	24.343	0.089	-0.073
-138.443	800.000	-0.125	0.360
-137.429	-75.222	0.216	-0.076
-136.414	-174.519	0.064	0.002
-135.399	-110.267	0.053	-0.011
-134.385	-99.542	-0.253	0.063
-133.370	384.274	-0.072	-0.147
-132.356	-200.000	0.018	0.153
-131.341	-200.000	0.063	-0.283
-130.326	301.341	0.112	0.204
-129.312	800.000	0.045	0.186
-128.297	-94.941	-0.322	-0.086
-127.283	108.566	-0.095	-0.112
-126.268	-105.801	0.292	0.065
-125.253	92.512	0.102	0.114
-124.239	-200.000	0.026	-0.113
-123.224	-76.141	0.334	-0.116
-122.210	14.074	0.344	-0.265
-121.195	298.215	-0.089	0.161
