DTS Sentinel unit serial number:	SN413079Multiplexer serial number:	ORYXHardware model number:	OX4-SRSoftware version number:	ORYX F/W v4.00 Oryx Data Collector v3.7.2.0data status	okinstallation	princeton_trtdifferential loss correction	single-endedforward channel	channel 3reverse channel	N/Adate	2019/09/18time	18:32:35forward acquisition time	60.00reverse acquisition time	0.00gamma	496.2192k internal	0.2294k external	0.2294temperature offset calibration	0.9996default loss term (dB/km)	0.3790temperature slope calibration	1.0000multiplexer offset coefficient	1.0000multiplexer slope coefficient	1.0000fibre end	0.00T internal ref (°C)	38.25T ext. ref 1 (°C)	0.94T ext. ref 2 (°C)	30.66length (m)	temperature (°C)	Stokes	anti-Stokes-747.200	298.287	0.101	0.190
-746.185	-200.000	-0.026	0.417
-745.171	-200.000	0.012	-0.173
-744.156	-145.081	-0.320	0.030
-743.142	-200.000	-0.019	0.206
-742.127	-153.605	0.238	-0.017
-741.112	-174.337	-0.291	-0.009
-740.098	-197.677	0.409	-0.003
-739.083	-11.943	-0.173	-0.116
-738.069	172.306	-0.126	0.186
-737.054	133.482	-0.045	0.059
-736.039	-134.841	-0.303	0.038
-735.025	-200.000	-0.029	0.229
-734.010	177.346	0.178	0.265
-732.996	800.000	0.023	-0.076
-731.981	-123.310	-0.203	-0.033
-730.966	-135.069	-0.225	0.028
-729.952	218.077	-0.205	-0.334
-728.937	800.000	-0.110	0.349
-727.923	800.000	0.061	0.260
-726.908	15.979	-0.173	-0.139
-725.894	-200.000	0.026	-0.208
-724.879	-200.000	-0.013	-0.252
-723.864	51.594	-0.269	-0.262
-722.850	-200.000	-0.007	0.133
-721.835	-105.686	-0.123	0.028
-720.821	-200.000	-0.370	0.002
-719.806	-200.000	-0.010	0.132
-718.791	800.000	0.029	0.117
-717.777	-200.000	-0.011	0.119
-716.762	-200.000	-0.087	-0.441
-715.748	-35.757	-0.142	-0.079
-714.733	-200.000	-0.024	-0.118
-713.718	99.301	-0.133	-0.157
-712.704	-200.000	0.036	-0.169
-711.689	-7.403	-0.284	0.196
-710.675	-200.000	0.012	-0.201
-709.660	-141.210	-0.521	0.054
-708.645	-147.512	-0.372	0.032
-707.631	-129.645	0.265	0.037
-706.616	-98.007	0.229	-0.060
-705.602	26.278	0.078	-0.067
-704.587	-162.188	0.162	-0.008
-703.572	13.296	0.157	-0.124
-702.558	193.895	-0.066	-0.102
-701.543	228.861	-0.222	0.370
-700.529	-200.000	-0.041	0.197
-699.514	46.019	-0.227	0.215
-698.499	-200.000	0.026	-0.259
-697.485	-153.962	-0.263	-0.018
-696.470	510.571	-0.093	-0.221
-695.456	480.447	0.156	0.360
-694.441	-73.339	-0.367	-0.137
-693.426	-69.184	-0.261	0.103
-692.412	-200.000	-0.008	-0.451
-691.397	-200.000	0.001	0.036
-690.383	221.195	0.152	0.249
-689.368	-133.526	-0.373	-0.048
-688.354	101.031	0.067	-0.080
-687.339	29.507	-0.168	0.145
-686.324	-10.643	-0.218	-0.147
-685.310	708.827	0.073	-0.196
-684.295	-147.293	0.258	-0.022
-683.281	-174.064	-0.463	-0.014
-682.266	-91.353	0.283	0.083
-681.251	-200.000	-0.051	0.334
-680.237	38.921	-0.101	0.092
-679.222	-130.693	-0.290	0.040
-678.208	303.065	0.146	-0.277
-677.193	-200.000	0.007	-0.085
-676.178	249.751	-0.120	0.208
-675.164	-200.000	0.002	-0.144
-674.149	-200.000	-0.029	-0.198
-673.135	-56.604	-0.263	-0.119
-672.120	-150.435	-0.371	0.029
-671.105	48.514	-0.090	-0.086
-670.091	-200.000	0.011	0.109
-669.076	248.314	0.075	0.129
-668.062	800.000	0.059	0.243
-667.047	297.834	0.058	0.109
-666.032	-114.988	0.072	-0.014
-665.018	44.351	-0.191	0.179
-664.003	-150.786	0.244	0.019
-662.989	-200.000	-0.037	-0.295
-661.974	-49.411	-0.149	-0.072
-660.959	103.325	-0.234	0.279
-659.945	-200.000	0.006	0.030
-658.930	-141.059	-0.290	0.030
-657.916	323.190	-0.105	-0.205
-656.901	800.000	-0.044	-0.176
-655.886	195.881	-0.100	0.154
-654.872	27.355	-0.150	0.129
-653.857	-129.420	-0.314	0.044
-652.843	282.919	-0.046	0.084
-651.828	-163.248	-0.194	-0.009
-650.814	-29.510	0.166	-0.097
-649.799	-200.000	-0.000	0.188
-648.784	266.705	-0.121	-0.215
-647.770	-72.889	0.180	0.067
-646.755	61.589	0.137	-0.139
-645.741	-25.835	-0.316	0.190
-644.726	651.090	0.038	0.098
-643.711	-200.000	0.045	-0.346
-642.697	-71.197	-0.267	0.102
-641.682	-200.000	-0.053	-0.258
-640.668	-90.205	-0.241	-0.071
-639.653	-67.371	-0.160	-0.064
-638.638	245.144	0.067	0.116
-637.624	800.000	-0.054	-0.164
-636.609	-26.860	0.146	-0.087
-635.595	254.988	0.170	0.296
-634.580	554.924	-0.114	-0.278
-633.565	800.000	0.026	0.076
-632.551	21.706	-0.188	-0.156
-631.536	-17.348	-0.389	0.249
-630.522	3.168	-0.220	0.163
-629.507	-200.000	-0.028	-0.170
-628.492	-200.000	0.004	-0.126
-627.478	-0.332	-0.175	-0.127
-626.463	-200.000	0.026	-0.190
-625.449	-54.845	-0.148	-0.068
-624.434	-24.880	0.068	0.041
-623.419	-32.658	0.405	-0.229
-622.405	-108.610	0.225	0.049
-621.390	-145.315	0.160	0.015
-620.376	42.663	-0.131	-0.122
-619.361	-200.000	-0.020	-0.106
-618.346	-5.943	-0.124	0.086
-617.332	-53.572	0.427	0.199
-616.317	283.042	0.075	-0.136
-615.303	-137.381	0.121	0.014
-614.288	-21.346	0.228	0.141
-613.273	-74.193	0.334	-0.123
-612.259	52.049	0.300	-0.291
-611.244	-108.713	-0.170	0.037
-610.230	685.948	-0.022	0.058
-609.215	19.280	0.162	0.132
-608.201	-103.902	-0.206	-0.049
-607.186	40.421	-0.156	0.143
-606.171	800.000	0.082	0.237
-605.157	109.053	-0.165	-0.200
-604.142	17.797	0.347	0.281
-603.128	40.947	-0.090	-0.083
-602.113	800.000	0.038	-0.159
-601.098	-20.775	0.193	-0.121
-600.084	446.261	-0.113	-0.252
-599.069	-126.078	0.201	0.031
-598.055	800.000	-0.069	0.200
-597.040	-200.000	-0.026	-0.133
-596.025	255.392	0.007	0.013
-595.011	3.831	-0.018	0.013
-593.996	-59.666	0.098	-0.043
-592.982	23.760	-0.217	0.181
-591.967	-68.073	0.228	0.090
-590.952	204.326	0.080	-0.125
-589.938	-200.000	0.054	-0.280
-588.923	800.000	0.032	0.126
-587.909	-191.572	0.368	-0.004
-586.894	11.841	0.125	0.098
-585.879	-106.062	0.250	-0.057
-584.865	-200.000	-0.092	0.500
-583.850	-163.819	-0.503	-0.024
-582.836	-150.996	0.066	0.005
-581.821	-145.333	-0.266	-0.024
-580.806	-200.000	0.022	0.167
-579.792	207.601	0.168	0.267
-578.777	170.225	-0.206	0.299
-577.763	-159.724	-0.114	-0.006
-576.748	377.424	0.071	0.148
-575.733	122.558	-0.166	-0.211
-574.719	-18.676	-0.281	-0.178
-573.704	475.494	-0.035	-0.079
-572.690	-200.000	-0.001	-0.242
-571.675	-184.914	0.072	0.001
-570.661	190.955	-0.129	0.198
-569.646	-200.000	-0.008	-0.347
-568.631	-97.399	0.259	0.069
-567.617	-168.255	-0.237	0.009
-566.602	146.866	-0.103	0.141
-565.588	252.703	-0.065	0.113
-564.573	27.293	0.252	-0.215
-563.558	-44.066	0.163	-0.083
-562.544	90.140	0.186	-0.211
-561.529	228.687	-0.233	0.386
-560.515	146.514	0.246	0.335
-559.500	385.382	-0.142	-0.297
-558.485	451.062	-0.182	-0.408
-557.471	-200.000	0.030	0.168
-556.456	-200.000	-0.017	0.219
-555.442	-129.271	-0.137	-0.019
-554.427	-172.072	0.186	0.006
-553.412	374.142	-0.109	-0.225
-552.398	-128.789	0.105	0.015
-551.383	370.504	-0.146	0.301
-550.369	800.000	-0.059	-0.205
-549.354	-87.376	0.177	-0.054
-548.339	-16.686	-0.165	-0.106
-547.325	-200.000	0.059	0.282
-546.310	272.258	0.083	0.149
-545.296	243.051	-0.148	0.251
-544.281	-48.057	-0.092	-0.045
-543.266	545.863	0.019	0.045
-542.252	-138.311	0.340	-0.038
-541.237	265.969	0.006	-0.010
-540.223	-100.445	-0.211	-0.053
-539.208	-17.598	-0.356	0.227
-538.193	-200.000	-0.001	0.264
-537.179	-200.000	0.021	-0.211
-536.164	421.787	0.041	0.089
-535.150	-93.166	0.064	0.018
-534.135	645.624	0.094	-0.243
-533.121	-200.000	0.012	-0.203
-532.106	710.271	0.071	-0.191
-531.091	-107.821	0.165	-0.037
-530.077	-130.572	-0.327	0.045
-529.062	-115.886	-0.269	0.051
-528.048	-32.143	-0.160	0.091
-527.033	-54.949	-0.176	0.080
-526.018	-53.641	-0.076	0.035
-525.004	-41.403	-0.129	-0.067
-523.989	204.112	-0.114	-0.180
-522.975	-200.000	-0.022	-0.155
-521.960	-90.994	0.199	0.058
-520.945	15.019	0.098	0.078
-519.931	-200.000	0.003	-0.195
-518.916	-200.000	0.009	0.129
-517.902	-200.000	-0.038	-0.200
-516.887	-129.621	0.118	0.017
-515.872	800.000	-0.105	-0.349
-514.858	-118.362	-0.326	0.059
-513.843	251.489	-0.107	-0.185
-512.829	-7.283	-0.255	0.175
-511.814	45.510	0.019	0.018
-510.799	3.945	0.191	-0.141
-509.785	-63.538	0.206	0.086
-508.770	-85.890	-0.219	0.069
-507.756	21.844	-0.169	-0.140
-506.741	800.000	0.023	0.079
-505.726	46.812	0.137	0.129
-504.712	-126.168	-0.084	0.013
-503.697	-200.000	0.004	-0.034
-502.683	78.814	-0.110	-0.119
-501.668	82.995	0.069	-0.076
-500.653	-200.000	-0.036	0.270
-499.639	344.777	-0.163	0.323
-498.624	-151.328	-0.076	0.006
-497.610	16.575	0.103	0.082
-496.595	258.537	0.195	0.340
-495.581	117.026	0.073	-0.090
-494.566	334.397	-0.168	0.330
-493.551	113.109	-0.185	-0.227
-492.537	-200.000	-0.001	-0.164
-491.522	87.721	-0.164	-0.184
-490.508	-200.000	-0.017	-0.167
-489.493	-177.803	-0.377	-0.009
-488.478	-133.366	0.261	-0.033
-487.464	-200.000	0.093	-0.494
-486.449	-55.580	0.221	-0.100
-485.435	800.000	0.040	-0.118
-484.420	-46.533	0.366	-0.182
-483.405	78.463	0.282	0.305
-482.391	-27.918	-0.080	0.047
-481.376	11.619	0.132	0.102
-480.362	508.499	0.084	0.197
-479.347	-200.000	-0.023	-0.340
-478.332	-200.000	-0.074	-0.422
-477.318	120.265	0.147	0.185
-476.303	108.878	-0.142	-0.172
-475.289	64.280	0.028	-0.029
-474.274	-89.190	0.083	0.025
-473.259	208.698	-0.071	0.112
-472.245	624.370	-0.108	0.274
-471.230	186.458	-0.047	-0.071
-470.216	-99.535	-0.271	-0.069
-469.201	19.941	0.180	0.147
-468.186	-45.235	-0.129	0.065
-467.172	19.914	0.145	-0.118
-466.157	-99.553	0.161	-0.041
-465.143	-114.289	-0.119	0.023
-464.128	-41.291	0.156	-0.081
-463.113	29.539	-0.183	0.157
-462.099	-200.000	0.002	0.215
-461.084	-82.029	-0.115	-0.038
-460.070	-200.000	-0.005	0.166
-459.055	-146.942	0.335	0.029
-458.040	153.801	-0.234	-0.325
-457.026	41.588	-0.117	-0.108
-456.011	-200.000	-0.043	0.286
-454.997	-52.115	-0.225	0.106
-453.982	79.475	0.106	-0.115
-452.968	-6.615	-0.135	0.093
-451.953	-61.356	-0.220	0.093
-450.938	-138.187	0.179	-0.020
-449.924	64.466	-0.051	0.052
-448.909	-75.160	0.089	-0.032
-447.895	-200.000	0.017	0.096
-446.880	-200.000	0.018	0.079
-445.865	-132.227	-0.291	0.038
-444.851	-166.389	-0.052	-0.002
-443.836	416.240	0.103	-0.222
-442.822	329.237	-0.045	-0.088
-441.807	-166.760	-0.184	0.008
-440.792	202.106	-0.025	-0.039
-439.778	-200.000	-0.026	-0.169
-438.763	800.000	-0.051	0.195
-437.749	-165.213	0.433	-0.019
-436.734	-12.378	-0.158	-0.105
-435.719	469.296	-0.087	0.197
-434.705	167.013	-0.142	0.203
-433.690	-19.729	0.064	0.040
-432.676	-109.023	0.051	0.011
-431.661	800.000	-0.020	0.074
-430.646	-55.003	-0.125	0.057
-429.632	-200.000	0.078	-0.344
-428.617	252.892	0.086	-0.148
-427.603	-105.466	-0.389	0.089
-426.588	-62.064	0.397	0.167
-425.573	67.779	0.189	0.195
-424.559	-149.290	-0.164	0.013
-423.544	75.186	-0.096	-0.102
-422.530	-29.845	0.055	-0.032
-421.515	-200.000	-0.144	0.000
-420.500	-200.000	0.033	-0.207
-419.486	800.000	-0.061	0.216
-418.471	19.840	0.034	-0.027
-417.457	201.877	0.015	0.024
-416.442	-4.607	-0.144	-0.100
-415.428	40.547	-0.105	-0.095
-414.413	-200.000	0.002	-0.154
-413.398	-122.266	0.088	0.015
-412.384	194.661	-0.095	-0.145
-411.369	-3.457	0.150	0.105
-410.355	-147.824	-0.350	0.030
-409.340	-42.469	0.142	0.073
-408.325	-127.926	0.377	-0.055
-407.311	-183.012	0.373	-0.007
-406.296	800.000	-0.061	0.232
-405.282	-62.774	-0.089	0.037
-404.267	-200.000	-0.060	0.298
-403.252	-200.000	0.023	-0.263
-402.238	800.000	-0.044	0.183
-401.223	-128.907	-0.238	-0.034
-400.209	-76.338	0.215	-0.077
-399.194	-2.794	-0.214	0.151
-398.179	25.517	-0.100	-0.084
-397.165	-161.491	0.369	-0.019
-396.150	-132.701	-0.029	-0.004
-395.136	76.180	-0.139	0.148
-394.121	-200.000	-0.027	0.294
-393.106	-200.000	0.048	-0.220
-392.092	800.000	-0.075	-0.210
-391.077	800.000	0.017	0.046
-390.063	137.770	0.244	-0.322
-389.048	335.861	-0.193	0.377
-388.033	800.000	-0.041	-0.127
-387.019	-200.000	-0.010	0.170
-386.004	565.982	-0.027	-0.066
-384.990	3.792	0.065	0.048
-383.975	-22.411	0.311	-0.190
-382.960	0.692	-0.163	-0.117
-381.946	22.786	0.195	-0.161
-380.931	-200.000	0.046	-0.398
-379.917	-200.000	-0.021	0.188
-378.902	33.006	0.134	-0.117
-377.888	147.383	0.152	-0.207
-376.873	705.239	-0.051	0.136
-375.858	-108.841	0.171	0.037
-374.844	800.000	0.074	-0.299
-373.829	800.000	-0.018	0.064
-372.815	289.530	0.123	-0.224
-371.800	-19.756	-0.285	-0.178
-370.785	-39.034	-0.106	-0.056
-369.771	-200.000	0.001	-0.046
-368.756	-200.000	0.006	-0.316
-367.742	-16.087	-0.153	-0.098
-366.727	-200.000	0.021	0.094
-365.712	-200.000	0.005	0.026
-364.698	49.105	0.023	-0.022
-363.683	-156.457	0.080	-0.005
-362.669	44.387	-0.082	0.076
-361.654	-157.009	-0.055	-0.003
-360.639	27.772	0.366	-0.310
-359.625	9.623	-0.130	-0.099
-358.610	88.214	0.011	-0.012
-357.596	-200.000	0.025	-0.330
-356.581	29.318	-0.361	-0.308
-355.566	-65.272	0.090	-0.036
-354.552	-200.000	-0.033	0.247
-353.537	-163.930	0.186	-0.009
-352.523	276.819	0.066	-0.119
-351.508	339.702	0.030	0.060
-350.493	-14.068	-0.144	-0.094
-349.479	413.138	-0.204	0.437
-348.464	-72.992	0.158	0.059
-347.450	91.327	0.234	-0.264
-346.435	-90.099	0.096	-0.028
-345.420	-73.010	0.417	-0.154
-344.406	14.838	0.066	0.052
-343.391	800.000	-0.069	0.285
-342.377	437.897	0.123	0.270
-341.362	-40.176	0.064	0.034
-340.348	20.663	0.212	-0.172
-339.333	94.650	0.115	0.132
-338.318	-0.542	0.139	0.099
-337.304	77.408	-0.093	-0.099
-336.289	-124.315	-0.052	-0.008
-335.275	-200.000	0.026	-0.224
-334.260	-53.091	-0.102	-0.047
-333.245	662.201	-0.062	0.162
-332.231	-129.175	0.142	0.020
-331.216	1.956	-0.149	0.108
-330.202	-39.433	-0.162	-0.086
-329.187	20.971	-0.158	0.129
-328.172	-200.000	-0.006	-0.229
-327.158	-51.607	-0.238	0.112
-326.143	-129.226	0.139	0.020
-325.129	-200.000	0.047	-0.299
-324.114	525.145	0.071	0.169
-323.099	26.176	0.292	-0.245
-322.085	-67.462	-0.096	0.038
-321.070	-200.000	0.010	0.073
-320.056	18.991	0.198	0.160
-319.041	17.140	-0.118	0.094
-318.026	92.487	0.160	0.182
-317.012	800.000	-0.021	-0.083
-315.997	257.641	-0.189	0.327
-314.983	-200.000	-0.054	0.388
-313.968	-168.794	-0.109	0.004
-312.953	-119.299	0.176	-0.031
-311.939	-39.741	0.301	0.158
-310.924	-200.000	0.021	0.258
-309.910	-121.710	0.221	-0.037
-308.895	-156.686	0.120	0.007
-307.880	-100.436	0.027	-0.007
-306.866	-168.995	-0.260	-0.010
-305.851	-200.000	-0.012	-0.115
-304.837	100.920	0.198	-0.232
-303.822	-33.998	0.028	0.015
-302.807	-200.000	0.117	-0.555
-301.793	-200.000	-0.019	0.333
-300.778	401.681	-0.078	-0.166
-299.764	199.527	-0.144	0.221
-298.749	-64.067	0.121	-0.050
-297.735	219.155	0.099	-0.159
-296.720	-11.122	-0.216	-0.143
-295.705	-68.525	0.403	0.157
-294.691	-115.250	-0.116	0.022
-293.676	45.386	-0.169	-0.157
-292.662	9.600	0.292	-0.222
-291.647	-0.925	-0.076	-0.054
-290.632	592.629	-0.062	-0.154
-289.618	125.619	0.312	-0.396
-288.603	361.758	-0.078	-0.157
-287.589	406.969	-0.026	0.055
-286.574	-141.060	-0.180	-0.019
-285.559	-59.279	0.186	0.080
-284.545	-75.282	0.048	-0.017
-283.530	-132.842	-0.099	-0.013
-282.516	-81.201	-0.122	-0.040
-281.501	193.680	0.047	0.071
-280.486	66.035	-0.168	-0.171
-279.472	-109.983	0.155	-0.033
-278.457	17.316	0.186	0.148
-277.443	164.882	-0.046	0.065
-276.428	-165.666	-0.385	-0.017
-275.413	159.235	-0.225	-0.315
-274.399	226.756	-0.176	0.287
-273.384	140.541	0.135	0.178
-272.370	-88.184	-0.246	0.074
-271.355	48.851	0.195	-0.184
-270.340	6.624	0.304	0.227
-269.326	-10.568	-0.358	0.238
-268.311	-94.437	0.274	-0.075
-267.297	-200.000	0.031	0.205
-266.282	-154.712	-0.118	-0.008
-265.267	800.000	0.017	-0.068
-264.253	-56.311	-0.327	-0.146
-263.238	-66.850	-0.096	-0.038
-262.224	211.087	0.093	0.146
-261.209	-200.000	0.010	-0.153
-260.195	-136.226	-0.122	0.014
-259.180	552.520	0.063	0.153
-258.165	-61.178	-0.091	-0.039
-257.151	-88.988	0.296	-0.088
-256.136	-45.892	0.054	-0.027
-255.122	264.926	0.076	0.133
-254.107	-8.341	0.207	-0.140
-253.092	79.090	0.050	0.054
-252.078	-200.000	-0.023	-0.154
-251.063	129.900	0.331	0.424
-250.049	249.723	-0.083	0.141
-249.034	-84.757	-0.061	0.019
-248.019	129.854	0.100	0.128
-247.005	-41.122	0.096	0.050
-245.990	-200.000	-0.014	-0.080
-244.976	-15.891	0.341	-0.218
-243.961	-133.897	0.394	-0.049
-242.946	158.363	-0.169	0.236
-241.932	423.061	-0.059	-0.128
-240.917	-118.352	-0.159	0.028
-239.903	521.245	-0.147	0.345
-238.888	205.480	0.109	-0.169
-237.873	106.452	0.168	0.200
-236.859	-200.000	-0.000	0.061
-235.844	112.884	0.109	-0.132
-234.830	46.129	-0.188	-0.175
-233.815	196.062	-0.125	-0.191
-232.800	-150.343	0.311	0.024
-231.786	-200.000	0.026	0.173
-230.771	-112.479	0.287	0.057
-229.757	-1.310	-0.205	0.145
-228.742	26.439	-0.193	0.162
-227.727	651.614	-0.091	0.234
-226.713	245.605	-0.165	0.279
-225.698	-9.156	0.652	-0.437
-224.684	373.206	-0.040	0.082
-223.669	-138.368	0.071	-0.008
-222.655	160.391	0.106	0.148
-221.640	-200.000	0.056	0.427
-220.625	403.987	0.016	0.033
-219.611	-192.672	-0.352	-0.003
-218.596	800.000	0.097	-0.275
-217.582	-110.544	0.154	-0.032
-216.567	-63.509	-0.282	-0.116
-215.552	-113.575	-0.220	0.043
-214.538	439.453	-0.171	0.375
-213.523	76.996	-0.336	0.358
-212.509	8.556	0.195	0.147
-211.494	228.999	-0.126	0.206
-210.479	-3.455	0.169	-0.118
-209.465	-57.407	-0.157	0.069
-208.450	-200.000	0.008	-0.259
-207.436	331.016	0.121	0.234
-206.421	-43.798	-0.307	-0.155
-205.406	433.800	-0.071	0.155
-204.392	-200.000	-0.004	0.020
-203.377	218.464	-0.062	0.099
-202.363	18.081	-0.220	-0.176
-201.348	-19.699	-0.109	-0.067
-200.333	-200.000	0.003	-0.064
-199.319	309.741	-0.071	-0.134
-198.304	-200.000	0.017	-0.149
-197.290	-47.015	0.292	-0.143
-196.275	66.955	-0.205	-0.209
-195.260	303.627	-0.029	0.054
-194.246	-200.000	0.023	0.139
-193.231	39.356	0.106	-0.095
-192.217	-111.403	-0.118	-0.024
-191.202	24.891	-0.066	-0.055
-190.187	-200.000	0.010	-0.246
-189.173	800.000	0.012	-0.044
-188.158	-7.491	-0.133	-0.090
-187.144	57.361	0.091	0.089
-186.129	800.000	-0.010	-0.033
-185.114	-60.813	-0.022	0.009
-184.100	800.000	-0.050	-0.207
-183.085	18.270	0.250	0.200
-182.071	-0.131	-0.178	-0.127
-181.056	36.503	0.160	0.141
-180.042	59.506	-0.118	-0.116
-179.027	127.550	0.185	0.235
-178.012	-11.093	-0.123	0.081
-176.998	-108.961	0.118	0.025
-175.983	-80.884	0.184	-0.061
-174.969	-109.939	-0.202	-0.042
-173.954	-200.000	-0.033	0.197
-172.939	48.984	0.236	0.222
-171.925	-58.202	-0.307	0.134
-170.910	415.134	-0.057	0.121
-169.896	-158.603	0.087	0.005
-168.881	-10.707	-0.183	0.121
-167.866	800.000	-0.025	-0.098
-166.852	800.000	0.055	0.211
-165.837	-171.679	0.321	-0.011
-164.823	28.525	-0.098	0.083
-163.808	764.359	-0.044	0.119
-162.793	283.908	-0.007	-0.012
-161.779	-177.431	0.225	-0.006
-160.764	90.315	-0.121	-0.135
-159.750	-61.252	-0.253	-0.106
-158.735	-1.493	-0.265	0.187
-157.720	-169.817	0.298	-0.011
-156.706	-200.000	0.045	0.222
-155.691	109.140	0.062	0.074
-154.677	315.982	0.055	0.104
-153.662	48.149	0.258	0.241
-152.647	13.792	-0.343	-0.267
-151.633	257.619	-0.073	0.125
-150.618	800.000	0.067	0.218
-149.604	-200.000	-0.032	0.296
-148.589	-151.291	-0.221	0.016
-147.574	115.732	-0.147	-0.180
-146.560	-141.471	-0.142	-0.014
-145.545	-23.498	-0.194	0.116
-144.531	-65.954	0.286	-0.114
-143.516	-124.724	-0.113	-0.017
-142.502	-200.000	-0.005	0.056
-141.487	-47.955	-0.061	-0.030
-140.472	69.006	0.094	-0.096
-139.458	35.628	-0.155	-0.136
-138.443	-200.000	0.038	-0.203
-137.429	42.475	-0.306	-0.278
-136.414	-22.121	0.071	-0.043
-135.399	86.818	0.184	-0.202
-134.385	659.326	-0.063	-0.163
-133.370	-200.000	-0.011	-0.130
-132.356	47.560	-0.247	-0.230
-131.341	-80.881	0.145	0.048
-130.326	-200.000	-0.011	0.146
-129.312	134.456	0.187	-0.242
-128.297	202.574	-0.069	0.106
-127.283	-200.000	-0.050	0.249
-126.268	642.802	0.024	-0.061
-125.253	18.953	0.117	-0.094
-124.239	-200.000	0.018	0.098
-123.224	-90.433	-0.356	0.103
