DTS Sentinel unit serial number:	SN413079Multiplexer serial number:	ORYXHardware model number:	OX4-SRSoftware version number:	ORYX F/W v4.00 Oryx Data Collector v3.7.2.0data status	okinstallation	princeton_trtdifferential loss correction	single-endedforward channel	channel 3reverse channel	N/Adate	2019/09/11time	14:30:11forward acquisition time	60.00reverse acquisition time	0.00gamma	496.2192k internal	0.2291k external	0.2291temperature offset calibration	0.9978default loss term (dB/km)	0.3790temperature slope calibration	1.0000multiplexer offset coefficient	1.0000multiplexer slope coefficient	1.0000fibre end	0.00T internal ref (°C)	42.19T ext. ref 1 (°C)	0.92T ext. ref 2 (°C)	37.87length (m)	temperature (°C)	Stokes	anti-Stokes-747.200	-200.000	0.040	0.228
-746.185	-47.112	0.128	0.064
-745.171	-157.401	0.227	0.014
-744.156	468.597	-0.032	0.073
-743.142	244.431	0.177	-0.304
-742.127	368.722	-0.068	0.142
-741.112	42.519	-0.098	-0.092
-740.098	-200.000	-0.015	0.334
-739.083	-200.000	0.055	0.279
-738.069	54.010	-0.159	0.157
-737.054	-131.477	0.141	-0.019
-736.039	-58.252	-0.078	-0.035
-735.025	212.450	0.093	-0.151
-734.010	-113.455	-0.424	-0.085
-732.996	800.000	0.102	0.408
-731.981	-40.606	0.003	0.001
-730.966	-21.640	-0.430	0.268
-729.952	-200.000	0.024	-0.283
-728.937	397.658	-0.209	-0.448
-727.923	-104.794	-0.369	0.087
-726.908	172.040	-0.088	0.130
-725.894	-13.435	-0.240	0.159
-724.879	43.466	-0.116	-0.108
-723.864	-91.279	-0.133	-0.039
-722.850	523.516	0.024	-0.058
-721.835	440.160	-0.015	-0.034
-720.821	-61.917	-0.120	0.051
-719.806	800.000	-0.061	0.178
-718.791	-200.000	0.024	0.178
-717.777	88.608	0.118	-0.134
-716.762	236.233	-0.093	-0.157
-715.748	-123.348	-0.018	-0.003
-714.733	-174.420	0.199	0.006
-713.718	-200.000	-0.026	-0.400
-712.704	800.000	0.065	0.225
-711.689	-200.000	0.006	0.101
-710.675	58.193	0.176	-0.176
-709.660	93.399	-0.144	-0.166
-708.645	39.748	-0.024	-0.022
-707.631	-79.899	-0.223	-0.077
-706.616	458.250	-0.093	-0.212
-705.602	16.510	-0.196	-0.158
-704.587	-106.556	0.221	-0.050
-703.572	-200.000	-0.033	0.247
-702.558	-117.514	-0.181	0.033
-701.543	-77.098	0.084	-0.030
-700.529	-0.982	0.037	0.027
-699.514	438.821	0.120	-0.269
-698.499	-150.022	0.193	-0.015
-697.485	754.478	0.113	0.313
-696.470	-110.992	-0.381	0.080
-695.456	800.000	-0.056	0.211
-694.441	25.877	-0.266	-0.226
-693.426	199.793	0.291	-0.457
-692.412	-22.550	-0.055	-0.034
-691.397	-16.300	0.072	-0.046
-690.383	-200.000	0.034	0.171
-689.368	-79.432	-0.221	-0.076
-688.354	93.744	0.181	0.210
-687.339	800.000	-0.086	0.295
-686.324	72.452	-0.140	-0.149
-685.310	29.429	0.070	0.061
-684.295	197.790	-0.150	0.233
-683.281	-122.913	0.375	0.062
-682.266	21.730	0.096	-0.080
-681.251	-200.000	0.027	-0.243
-680.237	151.992	0.017	0.024
-679.222	-110.518	0.287	0.061
-678.208	-7.114	0.274	0.190
-677.193	800.000	-0.078	-0.264
-676.178	-147.587	0.361	0.031
-675.164	-18.828	-0.120	0.076
-674.149	266.505	-0.133	-0.238
-673.135	-200.000	0.048	0.344
-672.120	800.000	0.049	-0.156
-671.105	800.000	0.073	0.278
-670.091	-49.103	0.274	-0.134
-669.076	79.594	0.065	-0.071
-668.062	195.193	0.094	-0.146
-667.047	-200.000	0.012	-0.108
-666.032	-55.267	0.168	0.077
-665.018	223.705	0.131	0.215
-664.003	-174.591	0.237	0.007
-662.989	-17.351	-0.179	-0.115
-661.974	-200.000	-0.049	-0.248
-660.959	-200.000	0.080	-0.383
-659.945	-200.000	-0.009	0.132
-658.930	-169.475	0.426	0.016
-657.916	37.839	-0.040	0.037
-656.901	-200.000	-0.056	-0.442
-655.886	0.160	-0.223	-0.162
-654.872	-200.000	0.001	-0.213
-653.857	-47.033	0.186	0.093
-652.843	-164.175	0.171	0.008
-651.828	-148.739	-0.130	-0.011
-650.814	-87.585	-0.076	-0.023
-649.799	10.360	-0.274	0.213
-648.784	50.514	0.277	-0.268
-647.770	800.000	-0.090	0.378
-646.755	-200.000	0.017	-0.138
-645.741	-132.323	0.167	0.022
-644.726	-152.737	0.264	0.019
-643.711	4.888	-0.111	0.083
-642.697	439.095	0.169	-0.375
-641.682	198.111	-0.229	0.356
-640.668	63.658	-0.107	-0.109
-639.653	800.000	0.039	0.115
-638.638	550.215	-0.042	-0.102
-637.624	800.000	-0.088	-0.389
-636.609	-200.000	0.036	-0.326
-635.595	-62.649	0.139	0.059
-634.580	-133.711	-0.309	-0.039
-633.565	-200.000	-0.027	-0.433
-632.551	136.624	-0.159	-0.211
-631.536	-200.000	-0.060	0.401
-630.522	357.204	0.088	-0.179
-629.507	-200.000	-0.093	-0.443
-628.492	-154.709	0.198	-0.013
-627.478	89.200	0.135	-0.153
-626.463	-37.905	0.314	-0.170
-625.449	33.831	-0.297	-0.263
-624.434	318.657	-0.101	0.195
-623.419	-200.000	-0.039	0.326
-622.405	428.476	0.150	0.331
-621.390	-112.132	-0.182	0.037
-620.376	-76.431	-0.080	0.029
-619.361	-6.839	0.221	-0.153
-618.346	-200.000	0.016	0.203
-617.332	-76.031	0.176	0.063
-616.317	800.000	0.059	-0.192
-615.303	183.971	-0.118	-0.178
-614.288	-159.289	-0.079	-0.005
-613.273	30.348	0.278	-0.242
-612.259	-20.118	0.471	0.296
-611.244	347.493	0.085	0.170
-610.230	-153.482	0.085	0.006
-609.215	-44.977	-0.105	0.053
-608.201	-200.000	0.002	-0.131
-607.186	800.000	0.062	0.206
-606.171	-200.000	-0.001	0.294
-605.157	-94.717	0.233	0.065
-604.142	-52.443	-0.208	-0.098
-603.128	-200.000	0.012	0.213
-602.113	-9.085	0.272	-0.185
-601.098	88.548	-0.117	-0.132
-600.084	62.828	-0.167	0.170
-599.069	-128.899	-0.143	-0.021
-598.055	-197.149	-0.258	0.002
-597.040	-123.344	-0.046	0.007
-596.025	515.186	0.098	-0.234
-595.011	149.477	0.073	-0.100
-593.996	167.881	0.172	0.249
-592.982	-60.648	-0.157	-0.068
-591.967	42.883	0.090	-0.084
-590.952	600.331	-0.067	0.168
-589.938	-200.000	-0.025	0.223
-588.923	-53.084	-0.142	-0.067
-587.909	118.342	0.157	-0.197
-586.894	-167.236	0.120	-0.005
-585.879	-193.752	-0.424	-0.004
-584.865	523.765	-0.187	-0.446
-583.850	-78.722	-0.249	-0.086
-582.836	210.586	0.075	-0.119
-581.821	-40.368	0.321	0.170
-580.806	-110.761	0.163	-0.034
-579.792	340.031	0.046	0.092
-578.777	-200.000	-0.026	-0.156
-577.763	303.565	0.133	0.250
-576.748	-96.120	0.229	-0.062
-575.733	-148.249	-0.148	-0.012
-574.719	80.597	0.121	-0.133
-573.704	800.000	0.091	-0.377
-572.690	-200.000	0.028	0.229
-571.675	-111.415	-0.230	0.048
-570.661	73.398	-0.185	-0.197
-569.646	-200.000	0.045	0.333
-568.631	431.725	-0.067	0.148
-567.617	-132.840	-0.080	0.010
-566.602	-200.000	0.001	-0.101
-565.588	800.000	0.064	-0.211
-564.573	347.801	-0.106	-0.212
-563.558	460.368	0.071	-0.160
-562.544	8.892	-0.225	0.172
-561.529	71.660	-0.153	-0.162
-560.515	-200.000	0.016	-0.125
-559.500	124.073	0.225	0.287
-558.485	-73.331	0.109	-0.040
-557.471	-200.000	0.028	-0.276
-556.456	800.000	0.095	-0.386
-555.442	98.223	0.217	0.254
-554.427	-29.776	0.206	0.119
-553.412	-106.557	0.216	0.049
-552.398	-200.000	-0.005	-0.085
-551.383	-110.530	-0.396	0.083
-550.369	-200.000	0.020	0.114
-549.354	800.000	0.065	0.251
-548.339	3.097	-0.156	0.115
-547.325	372.910	-0.126	0.261
-546.310	-113.057	0.206	-0.041
-545.296	-118.018	-0.165	-0.030
-544.281	-55.955	-0.149	0.067
-543.266	34.699	-0.132	0.118
-542.252	71.181	-0.040	0.042
-541.237	59.466	0.092	0.092
-540.223	189.973	0.140	-0.213
-539.208	-121.124	0.278	-0.047
-538.193	-167.820	-0.113	-0.005
-537.179	396.040	-0.054	0.114
-536.164	-84.205	0.179	0.058
-535.150	-101.740	-0.416	0.102
-534.135	172.925	0.048	0.070
-533.121	184.014	-0.057	-0.086
-532.106	575.257	0.088	-0.217
-531.091	-131.483	-0.358	0.048
-530.077	-200.000	0.053	0.306
-529.062	800.000	0.069	0.250
-528.048	431.657	-0.171	0.377
-527.033	-91.495	0.126	-0.037
-526.018	241.434	-0.084	-0.142
-525.004	86.703	-0.179	0.200
-523.989	82.387	0.103	0.113
-522.975	245.470	0.085	-0.145
-521.960	91.237	0.363	0.414
-520.945	-60.476	0.059	0.026
-519.931	-87.748	-0.394	0.121
-518.916	-200.000	-0.003	0.191
-517.902	-86.387	0.117	-0.037
-516.887	-74.638	-0.337	-0.123
-515.872	-123.512	0.232	0.037
-514.858	30.412	-0.162	-0.141
-513.843	74.301	0.098	0.104
-512.829	320.215	-0.190	0.366
-511.814	-89.122	0.645	-0.193
-510.799	103.936	-0.119	0.141
-509.785	-85.865	-0.236	0.074
-508.770	41.704	0.141	-0.130
-507.756	-200.000	0.013	-0.090
-506.741	-200.000	-0.002	0.108
-505.726	800.000	-0.048	-0.214
-504.712	-134.542	-0.203	-0.025
-503.697	-129.562	0.153	-0.021
-502.683	-43.563	0.086	-0.044
-501.668	-87.509	0.234	-0.072
-500.653	-117.556	0.451	-0.083
-499.639	221.617	0.033	0.053
-498.624	65.016	-0.221	-0.227
-497.610	-66.643	0.303	-0.122
-496.595	654.376	-0.201	-0.522
-495.581	189.022	-0.202	-0.306
-494.566	32.884	0.245	0.215
-493.551	29.120	0.102	-0.088
-492.537	-80.933	-0.136	-0.046
-491.522	113.987	-0.383	0.472
-490.508	17.872	-0.019	-0.015
-489.493	317.780	0.187	0.359
-488.478	77.119	0.253	0.273
-487.464	252.843	0.079	0.137
-486.449	-200.000	-0.004	0.149
-485.435	-200.000	-0.006	-0.266
-484.420	98.580	-0.179	-0.210
-483.405	-61.177	-0.126	0.054
-482.391	11.292	0.090	-0.070
-481.376	-200.000	0.010	-0.309
-480.362	-52.022	-0.135	-0.063
-479.347	800.000	-0.061	-0.247
-478.332	-100.949	0.289	0.072
-477.318	759.692	-0.101	0.276
-476.303	83.921	-0.186	0.205
-475.289	-45.703	-0.081	0.040
-474.274	181.228	-0.201	-0.300
-473.259	-200.000	0.005	0.199
-472.245	-34.376	0.121	-0.067
-471.230	55.301	-0.055	-0.054
-470.216	-19.652	-0.088	-0.055
-469.201	-133.546	-0.283	0.036
-468.186	440.024	0.100	-0.222
-467.172	-162.882	-0.239	-0.012
-466.157	-103.746	-0.308	0.073
-465.143	110.339	-0.200	0.243
-464.128	223.926	0.049	0.080
-463.113	-17.540	-0.249	-0.159
-462.099	-158.746	-0.140	-0.008
-461.084	29.002	0.274	0.235
-460.070	-188.397	0.132	0.002
-459.055	-117.720	0.222	-0.041
-458.040	-49.929	0.315	-0.151
-457.026	181.966	0.091	-0.135
-456.011	-40.212	0.092	-0.049
-454.997	-93.956	0.235	-0.065
-453.982	-200.000	-0.007	-0.087
-452.968	506.067	0.075	-0.176
-451.953	-148.625	-0.237	-0.020
-450.938	-79.611	-0.149	0.051
-449.924	51.692	-0.320	-0.308
-448.909	-56.169	-0.473	0.213
-447.895	-200.000	-0.035	-0.324
-446.880	-39.851	-0.054	-0.029
-445.865	367.523	-0.063	0.129
-444.851	383.869	0.107	-0.224
-443.836	800.000	0.104	0.378
-442.822	-113.517	0.398	0.079
-441.807	-200.000	-0.027	-0.206
-440.792	141.978	0.113	0.152
-439.778	695.334	0.081	0.214
-438.763	21.626	0.096	0.079
-437.749	10.046	-0.094	0.072
-436.734	69.211	-0.365	-0.380
-435.719	175.888	0.205	-0.300
-434.705	-85.235	0.296	-0.094
-433.690	-39.410	-0.197	-0.105
-432.676	33.728	0.175	0.154
-431.661	395.794	0.092	-0.193
-430.646	-72.521	0.127	0.047
-429.632	367.031	-0.111	-0.226
-428.617	-7.825	-0.088	0.060
-427.603	157.821	-0.116	0.162
-426.588	128.722	-0.222	0.286
-425.573	-24.317	-0.101	0.061
-424.559	800.000	0.131	0.511
-423.544	-151.042	-0.055	0.004
-422.530	-83.033	0.310	-0.101
-421.515	-200.000	0.028	0.197
-420.500	-115.726	-0.186	0.035
-419.486	-200.000	-0.020	-0.224
-418.471	-200.000	-0.021	-0.155
-417.457	36.059	-0.043	-0.038
-416.442	-200.000	-0.030	-0.272
-415.428	-1.345	0.018	0.013
-414.413	-55.987	-0.254	0.114
-413.398	800.000	-0.065	-0.280
-412.384	-63.984	0.146	0.060
-411.369	-78.700	0.380	0.131
-410.355	-76.894	-0.147	-0.052
-409.340	-106.406	-0.243	-0.055
-408.325	-70.712	-0.205	0.078
-407.311	181.209	0.165	-0.245
-406.296	800.000	0.015	-0.061
-405.282	70.114	0.219	0.229
-404.267	-17.631	-0.183	-0.116
-403.252	86.356	-0.051	-0.057
-402.238	-200.000	0.036	-0.240
-401.223	-97.810	0.294	-0.077
-400.209	-163.833	-0.036	0.002
-399.194	-11.092	0.162	-0.108
-398.179	-113.672	-0.364	-0.072
-397.165	800.000	-0.048	-0.163
-396.150	-200.000	0.006	0.105
-395.136	-94.457	0.128	-0.035
-394.121	217.032	-0.019	-0.031
-393.106	-108.268	-0.180	-0.039
-392.092	-7.059	0.070	0.048
-391.077	-200.000	0.003	0.042
-390.063	221.830	0.066	-0.107
-389.048	-17.579	-0.108	0.069
-388.033	-10.541	0.392	0.262
-387.019	800.000	0.067	0.190
-386.004	-200.000	-0.023	-0.102
-384.990	90.272	0.257	-0.290
-383.975	-172.119	0.153	0.005
-382.960	100.173	-0.091	-0.107
-381.946	800.000	0.074	-0.238
-380.931	-145.735	-0.185	-0.017
-379.917	59.193	0.081	0.080
-378.902	465.575	-0.048	0.109
-377.888	229.566	-0.100	-0.165
-376.873	800.000	-0.076	0.261
-375.858	-54.862	0.249	-0.113
-374.844	44.030	0.147	0.136
-373.829	712.221	0.042	0.113
-372.815	-59.834	-0.100	0.043
-371.800	-200.000	-0.038	-0.169
-370.785	472.704	-0.086	-0.195
-369.771	800.000	-0.090	0.342
-368.756	-200.000	0.009	-0.136
-367.742	-14.829	0.173	0.112
-366.727	36.113	-0.179	0.159
-365.712	-200.000	0.078	0.400
-364.698	214.812	-0.175	0.280
-363.683	-200.000	-0.017	-0.126
-362.669	39.517	-0.075	-0.068
-361.654	800.000	0.054	-0.156
-360.639	-44.578	0.380	0.192
-359.625	73.534	-0.088	0.093
-358.610	-200.000	-0.008	0.220
-357.596	29.702	0.086	-0.074
-356.581	1.107	0.010	-0.007
-355.566	-115.581	-0.063	0.012
-354.552	100.593	-0.229	-0.268
-353.537	800.000	-0.069	-0.244
-352.523	694.554	0.040	0.105
-351.508	-200.000	0.001	-0.174
-350.493	-21.007	0.230	-0.142
-349.479	-156.522	-0.067	0.004
-348.464	-200.000	-0.018	-0.114
-347.450	158.503	-0.127	0.178
-346.435	-200.000	0.030	0.303
-345.420	-145.762	-0.286	0.026
-344.406	800.000	-0.019	0.081
-343.391	-124.427	0.438	0.069
-342.377	-200.000	-0.030	0.203
-341.362	-33.750	-0.239	-0.133
-340.348	-134.492	-0.161	-0.020
-339.333	-111.507	0.318	0.065
-338.318	125.045	0.099	0.126
-337.304	-200.000	0.010	-0.100
-336.289	67.755	0.154	-0.158
-335.275	-200.000	-0.019	0.206
-334.260	731.192	0.079	0.213
-333.245	-91.498	-0.188	-0.054
-332.231	-3.548	-0.145	-0.102
-331.216	800.000	0.044	0.151
-330.202	-96.612	-0.150	0.040
-329.187	800.000	-0.098	-0.294
-328.172	-87.453	0.038	0.011
-327.158	-21.259	0.190	-0.117
-326.143	455.119	0.075	-0.168
-325.129	-200.000	-0.028	0.267
-324.114	-52.260	0.080	0.037
-323.099	-148.893	-0.116	0.009
-322.085	-178.530	-0.176	-0.004
-321.070	-76.432	0.514	-0.182
-320.056	570.571	-0.051	0.125
-319.041	-200.000	-0.005	0.043
-318.026	69.317	-0.186	-0.193
-317.012	-155.274	0.413	0.027
-315.997	-200.000	-0.010	0.142
-314.983	-97.460	0.352	0.092
-313.968	155.320	0.205	0.284
-312.953	-200.000	0.064	0.399
-311.939	800.000	0.066	-0.229
-310.924	116.608	-0.147	-0.181
-309.910	-51.709	-0.096	-0.045
-308.895	49.403	0.183	0.173
-307.880	-65.342	0.212	0.086
-306.866	115.907	-0.099	0.122
-305.851	-157.246	0.128	-0.008
-304.837	-53.035	0.085	0.039
-303.822	-84.751	0.179	-0.057
-302.807	-71.130	0.189	-0.071
-301.793	297.545	0.027	-0.050
-300.778	164.944	0.195	0.278
-299.764	66.851	-0.196	-0.200
-298.749	138.123	-0.170	-0.224
-297.735	1.712	-0.272	0.197
-296.720	-18.691	0.187	0.117
-295.705	-111.626	-0.077	-0.016
-294.691	266.359	-0.177	-0.310
-293.676	800.000	-0.036	0.156
-292.662	-63.865	-0.111	0.046
-291.647	-124.607	-0.272	-0.042
-290.632	194.555	-0.221	-0.337
-289.618	78.912	0.149	-0.161
-288.603	800.000	0.011	-0.040
-287.589	800.000	0.037	0.123
-286.574	311.456	-0.098	-0.185
-285.559	357.891	-0.116	0.233
-284.545	800.000	-0.044	-0.139
-283.530	-6.168	-0.390	0.268
-282.516	-58.791	-0.315	0.137
-281.501	191.450	-0.095	-0.144
-280.486	111.271	-0.295	0.357
-279.472	756.962	0.093	0.254
-278.457	477.020	-0.082	0.187
-277.443	-200.000	0.002	0.088
-276.428	-200.000	-0.009	0.260
-275.413	-66.586	0.067	-0.027
-274.399	246.941	-0.143	-0.243
-273.384	213.304	-0.195	-0.310
-272.370	8.779	-0.160	0.122
-271.355	24.095	-0.200	0.166
-270.340	-85.975	-0.327	0.102
-269.326	-99.610	-0.317	0.080
-268.311	532.751	-0.075	0.179
-267.297	-92.974	-0.190	0.053
-266.282	354.224	-0.189	-0.377
-265.267	-65.460	-0.035	-0.014
-264.253	-41.372	0.177	-0.092
-263.238	-200.000	-0.013	-0.123
-262.224	14.536	0.175	-0.137
-261.209	-100.605	-0.059	0.015
-260.195	64.946	-0.158	-0.160
-259.180	-77.861	-0.072	-0.025
-258.165	91.504	-0.128	-0.145
-257.151	-158.628	0.257	0.015
-256.136	-48.633	-0.262	0.126
-255.122	-57.959	-0.154	0.068
-254.107	288.117	-0.212	0.385
-253.092	-200.000	-0.026	-0.145
-252.078	-92.857	-0.285	-0.080
-251.063	-93.186	0.419	0.117
-250.049	662.324	0.068	-0.175
-249.034	-2.398	0.111	-0.078
-248.019	116.374	0.106	-0.131
-247.005	50.766	0.419	-0.398
-245.990	410.863	0.080	-0.171
-244.976	-92.454	0.261	0.074
-243.961	-64.559	0.232	-0.094
-242.946	-200.000	0.058	0.273
-241.932	-200.000	-0.035	-0.191
-240.917	98.121	-0.135	0.156
-239.903	355.375	0.080	-0.160
-238.888	127.479	0.048	-0.061
-237.873	-200.000	0.012	0.333
-236.859	-67.641	-0.390	-0.153
-235.844	127.434	-0.077	-0.099
-234.830	62.458	0.239	-0.240
-233.815	22.574	0.199	0.164
-232.800	-109.228	0.274	-0.058
-231.786	800.000	-0.108	0.324
-230.771	-160.103	-0.580	-0.032
-229.757	800.000	-0.061	0.173
-228.742	154.124	-0.100	0.138
-227.727	-200.000	-0.014	0.077
-226.713	128.419	-0.303	0.387
-225.698	68.422	-0.018	0.019
-224.684	163.276	0.078	0.109
-223.669	-63.947	0.095	-0.039
-222.655	-108.114	0.341	-0.074
-221.640	53.561	-0.085	0.082
-220.625	27.552	-0.331	-0.279
-219.611	-200.000	-0.033	-0.351
-218.596	167.734	-0.104	-0.148
-217.582	532.338	-0.056	-0.132
-216.567	-52.486	0.256	-0.119
-215.552	150.214	-0.104	0.142
-214.538	-106.448	0.096	0.021
-213.523	-36.295	0.185	-0.100
-212.509	521.832	0.094	-0.220
-211.494	-19.169	0.166	-0.103
-210.479	594.811	0.141	0.350
-209.465	-121.386	-0.220	0.037
-208.450	-200.000	-0.005	-0.070
-207.436	-6.886	0.069	-0.047
-206.421	1.718	0.110	-0.079
-205.406	-72.325	0.096	0.036
-204.392	175.038	-0.155	0.226
-203.377	314.537	0.031	0.058
-202.363	96.353	0.020	-0.023
-201.348	-200.000	-0.060	0.298
-200.333	150.427	-0.054	-0.074
-199.319	-43.103	0.057	0.029
-198.304	-14.728	0.082	0.053
-197.290	800.000	-0.008	-0.027
-196.275	-64.223	0.171	0.070
-195.260	-74.656	0.168	-0.061
-194.246	168.609	0.235	-0.335
-193.231	608.601	-0.142	-0.355
-192.217	383.190	0.157	0.324
-191.202	-200.000	0.004	0.018
-190.187	132.571	-0.213	-0.275
-189.173	-200.000	-0.012	-0.330
-188.158	-65.293	-0.350	0.141
-187.144	632.498	0.071	0.180
-186.129	-119.675	0.287	-0.050
-185.114	-200.000	-0.029	-0.372
-184.100	392.168	-0.093	0.194
-183.085	236.685	-0.108	0.179
-182.071	73.446	0.104	-0.109
-181.056	15.367	-0.137	0.108
-180.042	-200.000	-0.037	-0.247
-179.027	113.590	0.105	0.128
-178.012	42.537	0.188	-0.172
-176.998	775.275	0.021	0.058
-175.983	-185.044	0.214	-0.003
-174.969	-182.872	0.078	-0.001
-173.954	800.000	0.113	0.356
-172.939	800.000	-0.110	0.427
-171.925	-155.901	-0.525	-0.033
-170.910	242.964	-0.204	0.343
-169.896	37.178	0.067	0.059
-168.881	14.765	0.050	0.039
-167.866	203.896	0.138	0.213
-166.852	-16.966	0.494	-0.312
-165.837	568.740	0.101	-0.245
-164.823	106.739	-0.222	0.264
-163.808	183.446	0.090	0.133
-162.793	-166.857	0.084	-0.003
-161.779	427.849	0.124	-0.268
-160.764	-55.928	-0.103	-0.046
-159.750	-9.891	0.122	0.082
-158.735	549.849	0.055	-0.132
-157.720	800.000	-0.031	0.096
-156.706	800.000	0.097	-0.306
-155.691	-133.465	0.372	-0.047
-154.677	-103.460	-0.242	-0.057
-153.662	-0.693	0.162	0.115
-152.647	-66.892	0.106	-0.042
-151.633	800.000	-0.139	0.424
-150.618	-6.658	-0.220	0.150
-149.604	-200.000	0.016	-0.150
-148.589	-67.324	0.169	0.067
-147.574	147.200	0.158	0.213
-146.560	-122.096	0.226	0.037
-145.545	278.641	0.209	-0.373
-144.531	-109.272	0.354	-0.075
-143.516	-81.545	-0.157	-0.052
-142.502	162.144	-0.253	-0.355
-141.487	527.083	0.039	-0.092
-140.472	-42.312	0.254	0.129
-139.458	400.276	-0.114	0.239
-138.443	43.338	-0.206	0.188
-137.429	-131.672	-0.167	-0.022
-136.414	800.000	-0.027	0.086
-135.399	-50.014	0.237	-0.112
-134.385	-146.370	0.194	0.017
-133.370	-200.000	-0.004	-0.164
-132.356	216.793	-0.202	0.321
-131.341	-79.517	-0.098	0.033
-130.326	-164.703	0.100	0.005
-129.312	14.580	0.188	-0.147
-128.297	240.226	0.075	0.124
-127.283	61.314	0.160	0.158
-126.268	789.120	-0.066	-0.181
-125.253	439.986	0.136	-0.297
-124.239	-121.476	0.294	-0.049
-123.224	800.000	0.077	-0.241
-122.210	-200.000	0.040	-0.391
-121.195	93.615	-0.091	-0.104
