DTS Sentinel unit serial number:	SN413079Multiplexer serial number:	ORYXHardware model number:	OX4-SRSoftware version number:	ORYX F/W v4.00 Oryx Data Collector v3.7.2.0data status	okinstallation	princeton_trtdifferential loss correction	single-endedforward channel	channel 3reverse channel	N/Adate	2019/09/16time	11:16:34forward acquisition time	60.00reverse acquisition time	0.00gamma	496.2192k internal	0.2299k external	0.2299temperature offset calibration	0.9946default loss term (dB/km)	0.3790temperature slope calibration	1.0000multiplexer offset coefficient	1.0000multiplexer slope coefficient	1.0000fibre end	0.00T internal ref (°C)	37.19T ext. ref 1 (°C)	12.85T ext. ref 2 (°C)	33.31length (m)	temperature (°C)	Stokes	anti-Stokes-747.200	28.155	0.132	-0.114
-746.185	26.589	0.250	0.214
-745.171	-115.568	-0.101	0.019
-744.156	259.746	0.209	0.368
-743.142	-37.676	0.148	0.080
-742.127	-54.364	-0.143	0.066
-741.112	-10.806	0.088	-0.059
-740.098	-15.994	-0.088	0.057
-739.083	118.777	-0.152	-0.191
-738.069	800.000	0.037	0.134
-737.054	-19.701	-0.265	-0.167
-736.039	-95.701	-0.245	0.067
-735.025	9.690	-0.055	-0.042
-734.010	-200.000	-0.004	-0.178
-732.996	-159.432	-0.197	-0.011
-731.981	-35.307	-0.154	-0.085
-730.966	59.520	-0.149	-0.150
-729.952	-156.924	0.130	-0.008
-728.937	75.389	0.091	0.097
-727.923	-200.000	-0.013	-0.090
-726.908	-200.000	-0.034	-0.180
-725.894	800.000	-0.035	-0.110
-724.879	161.054	-0.069	-0.098
-723.864	-200.000	-0.055	-0.486
-722.850	800.000	-0.078	-0.244
-721.835	-100.197	-0.373	-0.095
-720.821	144.271	0.099	-0.135
-719.806	17.959	0.489	-0.397
-718.791	69.350	0.035	-0.037
-717.777	-200.000	-0.031	0.380
-716.762	-200.000	-0.013	0.114
-715.748	128.741	-0.223	0.289
-714.733	-23.439	0.395	-0.242
-713.718	-9.545	-0.067	0.045
-712.704	-54.041	-0.179	0.083
-711.689	667.317	0.144	0.380
-710.675	258.299	-0.145	0.254
-709.660	231.818	-0.094	-0.158
-708.645	-56.280	0.382	0.173
-707.631	-200.000	-0.023	0.232
-706.616	-59.232	-0.232	-0.102
-705.602	-155.033	0.162	-0.011
-704.587	-200.000	-0.012	-0.329
-703.572	404.803	-0.072	0.154
-702.558	-12.543	0.250	0.166
-701.543	76.099	-0.061	-0.065
-700.529	190.639	-0.200	0.306
-699.514	-98.500	0.154	0.040
-698.499	-0.041	-0.170	-0.123
-697.485	-138.510	0.086	0.010
-696.470	-51.731	0.164	0.078
-695.456	47.124	-0.185	-0.175
-694.441	229.939	0.211	-0.351
-693.426	184.706	-0.051	0.077
-692.412	-59.872	-0.216	-0.094
-691.397	40.983	-0.114	0.104
-690.383	210.165	-0.246	-0.394
-689.368	800.000	0.026	0.113
-688.354	-200.000	-0.016	-0.079
-687.339	91.086	0.080	-0.091
-686.324	352.140	-0.099	-0.199
-685.310	800.000	0.049	-0.188
-684.295	-200.000	-0.015	-0.222
-683.281	81.996	-0.193	-0.213
-682.266	-46.859	0.172	0.086
-681.251	-27.205	-0.196	-0.116
-680.237	3.568	-0.111	0.083
-679.222	-139.572	0.224	0.024
-678.208	-32.363	-0.140	-0.079
-677.193	57.167	0.019	0.019
-676.178	29.479	0.018	0.016
-675.164	-64.905	0.527	0.217
-674.149	800.000	0.052	-0.217
-673.135	252.659	0.031	-0.054
-672.120	102.139	-0.134	-0.159
-671.105	800.000	0.015	-0.052
-670.091	-200.000	0.087	-0.454
-669.076	-130.212	-0.210	-0.029
-668.062	-25.199	-0.445	0.268
-667.047	-115.885	0.274	0.052
-666.032	800.000	0.036	-0.116
-665.018	-31.324	-0.070	-0.040
-664.003	-71.624	0.145	-0.055
-662.989	90.518	0.145	0.166
-661.974	-200.000	0.033	-0.167
-660.959	-102.297	0.233	-0.057
-659.945	124.737	0.275	-0.353
-658.930	374.858	0.030	-0.062
-657.916	-177.650	0.183	0.005
-656.901	2.575	-0.099	0.073
-655.886	146.038	-0.177	-0.241
-654.872	-35.741	0.113	-0.062
-653.857	-200.000	-0.052	-0.253
-652.843	53.732	-0.138	-0.135
-651.828	-96.032	0.196	-0.053
-650.814	-200.000	-0.015	0.200
-649.799	282.810	0.105	0.191
-648.784	82.730	-0.156	0.173
-647.770	-67.271	0.198	-0.079
-646.755	800.000	-0.027	-0.116
-645.741	-103.826	0.281	0.067
-644.726	-159.562	-0.199	-0.011
-643.711	-65.047	-0.121	0.050
-642.697	103.308	0.137	-0.164
-641.682	52.362	0.311	0.302
-640.668	-200.000	0.035	0.262
-639.653	800.000	0.056	-0.210
-638.638	77.088	0.135	-0.146
-637.624	-89.255	-0.147	0.044
-636.609	-42.439	-0.366	-0.189
-635.595	-107.318	0.340	0.076
-634.580	19.714	0.103	0.085
-633.565	-200.000	-0.041	-0.253
-632.551	273.931	0.152	0.274
-631.536	-12.156	0.272	-0.181
-630.522	-115.722	-0.193	-0.037
-629.507	28.355	-0.292	-0.251
-628.492	144.360	-0.132	0.179
-627.478	800.000	0.066	-0.186
-626.463	-138.850	-0.240	0.027
-625.449	-200.000	-0.075	-0.506
-624.434	-77.166	0.440	-0.156
-623.419	-157.355	-0.243	0.015
-622.405	-168.497	0.244	-0.009
-621.390	-21.498	0.327	-0.202
-620.376	800.000	-0.055	-0.188
-619.361	-77.216	-0.170	0.060
-618.346	68.634	-0.028	-0.029
-617.332	-34.415	-0.503	-0.280
-616.317	-58.021	0.097	-0.043
-615.303	10.285	-0.234	-0.181
-614.288	-35.495	0.192	-0.106
-613.273	-106.291	0.284	-0.065
-612.259	-200.000	-0.047	0.375
-611.244	86.774	0.044	0.049
-610.230	-94.034	-0.094	0.026
-609.215	800.000	0.061	-0.265
-608.201	64.323	-0.022	0.022
-607.186	800.000	-0.013	-0.042
-606.171	-200.000	-0.008	0.053
-605.157	280.349	0.172	0.313
-604.142	-112.551	-0.290	-0.059
-603.128	800.000	0.036	-0.108
-602.113	-200.000	0.003	-0.196
-601.098	85.134	-0.148	-0.164
-600.084	198.130	0.030	0.047
-599.069	20.572	0.154	-0.126
-598.055	-200.000	0.057	-0.324
-597.040	12.627	0.065	-0.051
-596.025	51.434	-0.249	0.240
-595.011	-106.861	0.161	0.036
-593.996	-71.844	-0.258	-0.098
-592.982	115.802	0.088	0.110
-591.967	-13.584	0.214	0.141
-590.952	187.856	-0.245	0.371
-589.938	641.613	0.056	-0.145
-588.923	-5.567	0.397	-0.276
-587.909	-109.228	-0.173	-0.037
-586.894	431.924	-0.053	0.116
-585.879	-90.940	0.329	-0.096
-584.865	800.000	-0.031	0.133
-583.850	-72.273	-0.302	-0.113
-582.836	713.897	-0.035	-0.094
-581.821	119.828	0.115	0.145
-580.806	-200.000	0.005	0.107
-579.792	62.179	0.091	0.092
-578.777	-12.372	0.184	-0.122
-577.763	161.592	-0.089	-0.126
-576.748	-197.631	-0.201	0.001
-575.733	-200.000	0.016	0.231
-574.719	100.572	0.147	-0.173
-573.704	-81.287	0.198	-0.066
-572.690	189.078	-0.190	-0.288
-571.675	285.897	-0.090	0.165
-570.661	-3.269	-0.243	0.171
-569.646	-59.303	-0.319	-0.139
-568.631	85.825	0.147	0.164
-567.617	387.162	-0.112	0.235
-566.602	3.378	-0.227	0.168
-565.588	-131.518	0.123	0.016
-564.573	-24.295	0.180	0.109
-563.558	-42.098	-0.084	-0.043
-562.544	-69.399	0.276	0.107
-561.529	-200.000	-0.011	-0.112
-560.515	-143.707	-0.158	-0.015
-559.500	31.165	0.231	-0.200
-558.485	327.629	-0.093	-0.180
-557.471	14.435	-0.221	0.175
-556.456	-200.000	-0.047	0.271
-555.442	88.840	-0.080	0.090
-554.427	531.446	0.115	-0.275
-553.412	-200.000	-0.009	0.091
-552.398	-178.698	0.291	0.007
-551.383	61.725	0.161	0.162
-550.369	800.000	0.021	-0.077
-549.354	-125.529	-0.570	-0.088
-548.339	-200.000	-0.021	-0.162
-547.325	228.940	0.263	-0.435
-546.310	-200.000	0.025	-0.178
-545.296	800.000	-0.035	0.139
-544.281	564.728	-0.071	0.174
-543.266	-200.000	-0.007	0.082
-542.252	-9.041	0.066	-0.045
-541.237	56.482	-0.131	0.129
-540.223	800.000	-0.117	0.434
-539.208	-186.240	0.264	0.004
-538.193	-158.207	0.111	0.007
-537.179	800.000	-0.052	0.157
-536.164	800.000	0.074	0.327
-535.150	-200.000	-0.019	-0.202
-534.135	800.000	-0.057	-0.203
-533.121	800.000	-0.058	-0.230
-532.106	-134.399	0.308	0.038
-531.091	800.000	0.095	-0.299
-530.077	-200.000	-0.005	-0.284
-529.062	-137.297	0.127	0.015
-528.048	0.606	0.136	0.098
-527.033	1.599	-0.223	0.163
-526.018	-200.000	0.049	-0.232
-525.004	-3.547	0.141	-0.099
-523.989	-200.000	0.018	-0.171
-522.975	717.470	-0.097	-0.261
-521.960	39.549	-0.061	-0.055
-520.945	429.865	-0.038	0.083
-519.931	800.000	-0.103	0.297
-518.916	128.385	0.184	0.237
-517.902	-46.516	0.076	-0.038
-516.887	562.415	0.084	-0.205
-515.872	-200.000	0.033	-0.151
-514.858	8.751	-0.152	0.116
-513.843	-22.419	0.356	0.218
-512.829	70.600	-0.058	-0.060
-511.814	-143.316	0.315	-0.030
-510.799	24.140	0.217	0.181
-509.785	-67.510	0.215	0.085
-508.770	800.000	0.169	0.481
-507.756	-200.000	-0.020	0.180
-506.741	-94.830	0.297	0.081
-505.726	-129.291	0.168	0.024
-504.712	-8.650	0.105	0.071
-503.697	-110.148	-0.083	-0.018
-502.683	110.542	0.190	-0.231
-501.668	-36.765	-0.278	-0.151
-500.653	304.705	0.123	0.230
-499.639	146.292	0.094	0.127
-498.624	72.495	-0.158	0.166
-497.610	706.544	0.089	0.238
-496.595	667.227	-0.069	0.181
-495.581	197.340	-0.107	0.165
-494.566	71.461	0.054	-0.056
-493.551	408.148	-0.181	0.387
-492.537	146.220	-0.130	-0.177
-491.522	-200.000	-0.044	-0.360
-490.508	121.919	-0.117	-0.147
-489.493	17.364	-0.015	0.012
-488.478	7.149	0.122	0.092
-487.464	-88.658	0.348	-0.105
-486.449	-116.793	0.251	-0.047
-485.435	-56.957	-0.244	-0.109
-484.420	800.000	-0.049	0.140
-483.405	575.292	0.099	0.243
-482.391	-180.513	-0.378	0.008
-481.376	223.479	0.124	0.203
-480.362	89.562	-0.073	-0.082
-479.347	-77.187	-0.290	-0.102
-478.332	494.754	0.093	0.215
-477.318	-70.886	0.328	-0.125
-476.303	124.749	0.179	-0.227
-475.289	-67.518	-0.191	0.076
-474.274	800.000	0.072	0.290
-473.259	139.988	0.145	0.193
-472.245	-136.978	-0.154	0.018
-471.230	-78.364	0.204	0.071
-470.216	768.821	0.071	-0.196
-469.201	-200.000	0.041	0.288
-468.186	-200.000	0.038	0.436
-467.172	69.075	0.259	-0.269
-466.157	46.292	0.152	0.142
-465.143	-91.753	-0.186	-0.053
-464.128	-200.000	0.008	0.289
-463.113	-33.546	-0.353	-0.197
-462.099	800.000	-0.013	0.049
-461.084	412.146	-0.141	0.302
-460.070	800.000	-0.094	0.345
-459.055	-34.855	-0.188	-0.103
-458.040	386.694	-0.067	-0.139
-457.026	-89.460	-0.069	-0.021
-456.011	-200.000	0.081	0.401
-454.997	151.759	0.084	0.116
-453.982	-102.767	0.344	0.083
-452.968	11.896	-0.130	-0.101
-451.953	38.846	-0.096	0.086
-450.938	-60.000	0.109	0.047
-449.924	-118.076	-0.174	0.031
-448.909	21.304	0.108	-0.089
-447.895	800.000	-0.126	0.380
-446.880	31.471	-0.176	0.152
-445.865	-100.487	0.251	-0.063
-444.851	77.390	-0.302	0.324
-443.836	-21.302	0.487	-0.300
-442.822	-166.128	0.186	-0.008
-441.807	-200.000	-0.005	-0.472
-440.792	-117.427	0.228	-0.042
-439.778	120.988	-0.042	0.053
-438.763	69.408	-0.127	0.132
-437.749	-141.688	0.230	-0.023
-436.734	363.137	-0.114	0.230
-435.719	325.468	0.008	0.016
-434.705	32.310	0.081	0.070
-433.690	293.166	-0.051	0.094
-432.676	-35.613	-0.198	0.108
-431.661	305.359	-0.227	0.425
-430.646	-62.814	0.242	-0.101
-429.632	800.000	-0.028	0.121
-428.617	-131.717	-0.104	0.014
-427.603	800.000	-0.089	-0.356
-426.588	-11.736	-0.225	0.149
-425.573	-108.350	0.457	0.099
-424.559	40.878	-0.088	0.080
-423.544	372.626	0.052	-0.106
-422.530	-129.434	0.220	0.031
-421.515	-151.446	-0.203	0.015
-420.500	800.000	-0.051	0.149
-419.486	-179.979	-0.261	-0.006
-418.471	565.177	0.148	-0.362
-417.457	7.392	0.149	0.112
-416.442	800.000	0.075	0.277
-415.428	291.267	0.054	0.099
-414.413	-160.972	0.411	-0.022
-413.398	-200.000	-0.018	0.295
-412.384	-103.312	-0.350	-0.083
-411.369	-40.819	0.206	-0.108
-410.355	-76.900	0.155	-0.055
-409.340	800.000	-0.032	-0.113
-408.325	-200.000	0.024	-0.117
-407.311	-125.820	-0.145	-0.022
-406.296	-35.845	-0.116	0.063
-405.282	37.393	0.155	0.138
-404.267	98.276	-0.156	0.181
-403.252	148.086	-0.085	0.115
-402.238	-24.207	-0.086	0.052
-401.223	-90.991	0.143	0.041
-400.209	-200.000	-0.027	0.257
-399.194	-79.555	-0.274	-0.093
-398.179	56.749	-0.026	-0.025
-397.165	-6.486	0.133	0.091
-396.150	184.889	-0.154	-0.230
-395.136	-200.000	0.005	0.035
-394.121	-130.181	-0.137	-0.019
-393.106	-91.351	0.174	0.050
-392.092	223.642	0.035	-0.057
-391.077	144.418	0.038	0.052
-390.063	-200.000	-0.059	0.441
-389.048	169.812	0.226	-0.325
-388.033	736.686	-0.014	-0.038
-387.019	-87.999	0.273	-0.083
-386.004	-200.000	0.067	-0.338
-384.990	-87.452	-0.137	0.042
-383.975	-200.000	-0.005	0.091
-382.960	-109.757	0.263	-0.056
-381.946	13.779	-0.227	0.178
-380.931	634.447	0.127	-0.324
-379.917	-93.131	-0.243	0.068
-378.902	326.535	0.095	0.184
-377.888	558.477	-0.066	0.161
-376.873	-124.817	-0.181	-0.028
-375.858	154.451	-0.061	0.084
-374.844	105.190	-0.171	0.203
-373.829	-0.659	-0.191	-0.136
-372.815	202.242	0.075	-0.117
-371.800	-6.469	-0.240	0.164
-370.785	9.684	0.175	-0.133
-369.771	227.536	-0.194	-0.317
-368.756	-200.000	-0.001	-0.158
-367.742	-64.649	-0.195	0.079
-366.727	-34.360	0.476	-0.263
-365.712	-110.281	0.286	-0.060
-364.698	416.277	0.134	-0.287
-363.683	-162.514	0.121	0.006
-362.669	25.421	0.169	0.141
-361.654	800.000	-0.080	-0.280
-360.639	46.813	-0.119	-0.112
-359.625	-32.833	0.091	-0.051
-358.610	-200.000	-0.004	-0.349
-357.596	-128.562	0.084	0.012
-356.581	56.820	-0.209	0.205
-355.566	-200.000	-0.048	0.296
-354.552	-61.371	-0.260	-0.110
-353.537	-83.515	0.155	0.050
-352.523	-200.000	0.006	-0.070
-351.508	103.648	-0.238	0.281
-350.493	-143.905	0.074	0.007
-349.479	-4.804	0.099	0.068
-348.464	-164.516	0.098	0.004
-347.450	86.942	-0.200	-0.221
-346.435	343.679	-0.215	0.424
-345.420	516.225	-0.047	-0.111
-344.406	-200.000	-0.032	-0.261
-343.391	-194.545	-0.305	0.002
-342.377	800.000	-0.038	0.128
-341.362	800.000	-0.057	-0.176
-340.348	800.000	0.083	0.295
-339.333	-200.000	0.002	-0.487
-338.318	800.000	-0.107	-0.354
-337.304	402.392	0.043	0.091
-336.289	107.122	-0.262	-0.312
-335.275	69.520	0.111	-0.115
-334.260	245.585	0.158	0.267
-333.245	-58.894	0.138	0.060
-332.231	-37.623	-0.293	0.157
-331.216	-200.000	0.013	0.327
-330.202	581.755	-0.061	0.150
-329.187	-63.327	-0.247	0.102
-328.172	800.000	0.079	0.259
-327.158	-200.000	0.066	-0.393
-326.143	415.266	-0.021	0.044
-325.129	-200.000	-0.021	0.126
-324.114	-200.000	0.034	0.192
-323.099	-76.427	0.080	-0.028
-322.085	-28.123	0.143	-0.083
-321.070	-170.859	0.084	-0.003
-320.056	-200.000	0.042	-0.322
-319.041	-123.942	0.163	-0.026
-318.026	-61.902	0.117	-0.049
-317.012	-8.935	0.246	-0.165
-315.997	90.137	-0.186	-0.209
-314.983	-32.658	-0.172	0.096
-313.968	4.718	0.147	-0.108
-312.953	-23.144	0.321	0.194
-311.939	-75.615	-0.197	0.070
-310.924	800.000	-0.035	-0.114
-309.910	-89.253	0.018	-0.005
-308.895	-32.868	0.173	-0.097
-307.880	-59.734	-0.222	0.096
-306.866	-34.454	-0.045	-0.025
-305.851	47.366	-0.127	-0.119
-304.837	66.241	0.339	0.346
-303.822	800.000	-0.054	-0.186
-302.807	-70.859	-0.141	-0.053
-301.793	800.000	-0.043	-0.172
-300.778	-66.656	-0.205	0.082
-299.764	-89.545	-0.267	-0.079
-298.749	-138.615	0.342	0.038
-297.735	-57.277	0.004	-0.002
-296.720	800.000	0.042	0.157
-295.705	-200.000	-0.018	0.188
-294.691	-200.000	-0.032	0.239
-293.676	8.388	0.191	-0.144
-292.662	421.390	-0.180	0.388
-291.647	800.000	0.071	0.254
-290.632	-200.000	-0.010	-0.195
-289.618	-200.000	0.029	-0.216
-288.603	-20.005	-0.168	0.104
-287.589	-200.000	-0.011	0.066
-286.574	-121.419	-0.208	0.035
-285.559	106.836	0.077	-0.092
-284.545	-50.330	-0.428	0.203
-283.530	-159.385	-0.128	0.007
-282.516	-52.053	0.150	-0.070
-281.501	800.000	0.010	0.032
-280.486	-149.142	-0.123	-0.010
-279.472	-29.625	0.115	-0.066
-278.457	325.016	-0.101	-0.193
-277.443	50.697	0.125	-0.118
-276.428	-38.792	0.068	-0.036
-275.413	-130.244	0.239	-0.033
-274.399	8.725	0.183	-0.138
-273.384	-94.394	-0.137	0.038
-272.370	-200.000	0.013	0.319
-271.355	-101.402	-0.180	-0.044
-270.340	57.787	0.277	0.272
-269.326	60.363	0.123	-0.122
-268.311	800.000	0.086	-0.298
-267.297	-55.079	-0.132	0.060
-266.282	299.203	0.157	-0.290
-265.267	-64.656	-0.229	-0.093
-264.253	43.927	-0.249	-0.228
-263.238	-200.000	-0.000	0.170
-262.224	292.681	-0.133	0.243
-261.209	-200.000	-0.033	0.154
-260.195	800.000	-0.036	-0.124
-259.180	27.260	-0.075	0.063
-258.165	28.226	0.325	-0.275
-257.151	-200.000	0.023	-0.229
-256.136	-108.747	-0.277	-0.059
-255.122	-158.111	-0.091	0.005
-254.107	-134.157	0.178	0.022
-253.092	800.000	0.068	-0.248
-252.078	-200.000	-0.037	-0.170
-251.063	-98.694	-0.459	-0.117
-250.049	-200.000	-0.001	0.138
-249.034	-200.000	0.053	0.235
-248.019	106.205	-0.043	0.051
-247.005	-9.952	-0.368	0.245
-245.990	-32.964	-0.167	0.093
-244.976	-9.815	-0.222	0.148
-243.961	-200.000	0.052	-0.338
-242.946	117.268	-0.233	-0.286
-241.932	-200.000	0.051	-0.358
-240.917	-103.476	0.161	0.038
-239.903	-48.917	-0.358	-0.171
-238.888	-47.910	-0.125	0.061
-237.873	-161.378	-0.469	-0.024
-236.859	-200.000	0.024	-0.237
-235.844	57.618	0.118	0.115
-234.830	-149.399	0.316	0.025
-233.815	-111.304	-0.110	-0.022
-232.800	255.864	0.096	0.165
-231.786	-200.000	-0.001	0.175
-230.771	-65.071	-0.081	0.033
-229.757	-0.966	-0.128	0.090
-228.742	25.590	0.108	-0.090
-227.727	111.228	0.102	0.122
-226.713	-92.615	0.192	-0.054
-225.698	338.916	-0.149	0.290
-224.684	316.259	0.097	-0.183
-223.669	136.494	0.142	-0.185
-222.655	300.073	-0.163	-0.300
-221.640	41.744	-0.170	-0.154
-220.625	-115.280	0.261	-0.049
-219.611	-109.958	0.102	0.021
-218.596	-159.643	-0.346	0.019
-217.582	-200.000	-0.035	0.212
-216.567	15.876	0.233	-0.184
-215.552	-200.000	-0.040	-0.291
-214.538	606.997	-0.229	0.570
-213.523	-200.000	0.021	0.285
-212.509	136.101	-0.045	0.059
-211.494	700.667	-0.128	-0.338
-210.479	-200.000	-0.008	-0.103
-209.465	252.985	0.067	-0.114
-208.450	128.148	0.026	0.033
-207.436	800.000	0.088	0.375
-206.421	800.000	0.095	-0.270
-205.406	166.028	-0.099	-0.140
-204.392	-9.379	-0.167	0.111
-203.377	-15.580	0.062	0.040
-202.363	-151.669	0.329	0.024
-201.348	800.000	0.104	-0.334
-200.333	-30.468	-0.224	0.127
-199.319	-200.000	-0.039	0.217
-198.304	800.000	-0.050	-0.153
-197.290	214.074	-0.229	0.362
-196.275	-35.990	0.320	-0.173
-195.260	-103.057	0.235	-0.056
-194.246	-12.578	-0.123	-0.080
-193.231	-165.466	-0.301	-0.013
-192.217	-200.000	0.069	-0.337
-191.202	800.000	0.033	-0.140
-190.187	-200.000	-0.009	0.153
-189.173	32.787	-0.100	0.086
-188.158	-200.000	0.062	0.375
-187.144	-200.000	0.011	-0.064
-186.129	-14.834	0.087	0.056
-185.114	-104.352	-0.219	0.051
-184.100	-23.218	0.153	0.092
-183.085	97.876	0.242	0.277
-182.071	-134.451	-0.135	-0.016
-181.056	-37.180	0.255	-0.136
-180.042	774.525	0.075	-0.205
-179.027	-156.361	-0.022	0.001
-178.012	79.111	-0.024	0.026
-176.998	-113.146	0.394	-0.078
-175.983	-200.000	-0.003	0.027
-174.969	800.000	0.097	-0.310
-173.954	246.811	-0.003	-0.005
-172.939	139.692	-0.124	0.163
-171.925	41.645	-0.159	0.143
-170.910	12.049	0.157	0.120
-169.896	149.363	0.251	-0.340
-168.881	-200.000	0.003	-0.243
-167.866	-152.697	-0.343	0.024
-166.852	-109.039	-0.109	0.023
-165.837	20.772	0.050	0.041
-164.823	-137.874	-0.180	0.020
-163.808	-129.570	-0.193	-0.027
-162.793	-140.229	0.173	-0.018
-161.779	150.202	0.105	0.143
-160.764	-200.000	0.003	-0.217
-159.750	40.172	-0.170	-0.152
-158.735	-7.526	-0.179	0.121
-157.720	800.000	-0.060	-0.211
-156.706	69.774	-0.056	-0.058
-155.691	-111.056	-0.143	-0.029
-154.677	-200.000	-0.017	-0.126
-153.662	27.348	0.125	0.105
-152.647	191.657	0.106	-0.159
-151.633	-200.000	-0.027	-0.187
-150.618	-200.000	-0.019	0.181
-149.604	-112.398	0.111	0.022
-148.589	800.000	-0.072	-0.236
-147.574	800.000	-0.024	0.103
-146.560	147.556	0.184	0.247
-145.545	348.048	0.059	0.116
-144.531	-44.311	0.396	-0.198
-143.516	-9.262	0.064	-0.043
-142.502	-47.198	0.067	-0.033
-141.487	365.008	-0.118	0.238
-140.472	-200.000	0.019	-0.088
-139.458	-200.000	-0.013	0.181
-138.443	153.343	0.149	0.203
-137.429	391.152	0.055	-0.115
-136.414	25.239	0.072	0.060
-135.399	-200.000	0.344	0.001
-134.385	-14.542	0.114	0.073
-133.370	-74.193	-0.391	0.141
-132.356	205.702	0.044	0.068
-131.341	-75.521	-0.224	-0.079
-130.326	-44.031	0.126	0.063
-129.312	-136.484	-0.104	0.012
-128.297	122.979	-0.128	-0.160
-127.283	-106.228	0.296	-0.066
-126.268	800.000	-0.084	-0.239
-125.253	-176.372	0.314	-0.008
-124.239	-4.462	0.214	-0.147
-123.224	-200.000	-0.002	0.227
-122.210	150.774	-0.235	0.318
-121.195	-126.022	0.106	0.016
