DTS Sentinel unit serial number:	SN413079Multiplexer serial number:	ORYXHardware model number:	OX4-SRSoftware version number:	ORYX F/W v4.00 Oryx Data Collector v3.7.2.0data status	okinstallation	princeton_trtdifferential loss correction	single-endedforward channel	channel 3reverse channel	N/Adate	2019/09/12time	18:50:04forward acquisition time	15.00reverse acquisition time	0.00gamma	496.2192k internal	0.2319k external	0.2319temperature offset calibration	1.0090default loss term (dB/km)	0.3790temperature slope calibration	1.0000multiplexer offset coefficient	1.0000multiplexer slope coefficient	1.0000fibre end	0.00T internal ref (°C)	32.94T ext. ref 1 (°C)	2.98T ext. ref 2 (°C)	27.41length (m)	temperature (°C)	Stokes	anti-Stokes-747.200	107.896	0.258	-0.311
-746.185	-200.000	0.127	-0.771
-745.171	136.888	-0.707	-0.934
-744.156	205.874	-0.384	-0.605
-743.142	799.648	0.283	-0.789
-742.127	348.128	-0.278	0.554
-741.112	168.683	0.211	-0.304
-740.098	800.000	0.255	0.861
-739.083	88.053	-0.051	0.057
-738.069	-200.000	-0.051	-0.234
-737.054	-38.482	-0.379	-0.203
-736.039	-37.562	-0.908	0.490
-735.025	-200.000	0.030	0.305
-734.010	402.410	-0.086	-0.182
-732.996	-9.696	0.377	-0.254
-731.981	-87.779	-0.455	-0.139
-730.966	-200.000	-0.066	0.869
-729.952	-99.095	0.217	0.055
-728.937	-88.591	0.831	-0.250
-727.923	-34.801	-1.117	0.617
-726.908	-81.512	-0.740	0.246
-725.894	-98.316	0.519	0.135
-724.879	601.754	0.470	1.180
-723.864	-111.058	0.676	-0.140
-722.850	-73.663	-0.310	-0.114
-721.835	163.179	-0.154	-0.219
-720.821	-88.129	-0.484	0.147
-719.806	-48.465	-0.394	-0.192
-718.791	432.361	0.490	-1.074
-717.777	24.908	0.069	-0.058
-716.762	-28.316	-0.338	0.197
-715.748	-55.395	0.727	0.330
-714.733	-63.636	-0.322	-0.134
-713.718	-200.000	-0.011	-0.089
-712.704	-161.627	0.962	-0.050
-711.689	-133.672	-0.441	0.056
-710.675	-200.000	0.077	-0.916
-709.660	296.844	-0.206	0.382
-708.645	26.729	0.098	0.083
-707.631	-51.743	0.469	0.221
-706.616	13.314	0.149	-0.117
-705.602	-200.000	-0.065	0.506
-704.587	-200.000	0.020	0.645
-703.572	17.212	-0.515	0.413
-702.558	476.289	-0.118	-0.269
-701.543	101.026	-0.235	-0.276
-700.529	89.923	-0.573	-0.647
-699.514	-200.000	-0.035	0.573
-698.499	95.669	-0.362	0.417
-697.485	-16.022	0.209	0.134
-696.470	-18.837	-0.167	-0.105
-695.456	800.000	0.240	-0.700
-694.441	800.000	-0.080	0.333
-693.426	800.000	-0.078	0.298
-692.412	-87.635	0.908	0.277
-691.397	291.593	-0.218	-0.401
-690.383	42.649	-0.321	0.295
-689.368	-141.339	0.274	-0.028
-688.354	2.094	0.324	-0.236
-687.339	219.869	0.199	-0.321
-686.324	245.553	-0.174	0.295
-685.310	141.044	0.054	-0.072
-684.295	-92.367	-0.399	0.113
-683.281	-80.124	0.187	0.063
-682.266	-118.665	-0.751	-0.134
-681.251	8.394	0.252	0.191
-680.237	242.360	-0.486	0.820
-679.222	-7.320	0.272	-0.186
-678.208	47.957	0.472	0.445
-677.193	103.355	-0.250	-0.296
-676.178	54.781	0.714	0.695
-675.164	-80.325	-0.401	0.135
-674.149	-62.626	0.505	-0.211
-673.135	-200.000	0.023	-0.796
-672.120	157.897	-0.382	0.534
-671.105	236.950	-0.637	1.065
-670.091	800.000	0.178	0.650
-669.076	800.000	-0.048	-0.171
-668.062	72.539	0.327	0.344
-667.047	-17.549	-0.508	0.322
-666.032	-134.202	0.510	0.063
-665.018	-14.234	-0.371	-0.241
-664.003	-200.000	0.038	-0.178
-662.989	299.739	-0.195	-0.362
-661.974	182.068	0.044	0.065
-660.959	592.269	-0.148	-0.367
-659.945	211.718	-0.467	-0.742
-658.930	800.000	-0.152	-0.671
-657.916	682.180	0.295	0.776
-656.901	800.000	-0.117	-0.430
-655.886	-111.296	0.772	-0.159
-654.872	576.234	-0.124	-0.305
-653.857	-200.000	0.129	-0.607
-652.843	91.317	0.191	-0.217
-651.828	4.358	0.423	0.312
-650.814	800.000	-0.147	-0.567
-649.799	87.477	0.368	-0.411
-648.784	-136.028	0.733	0.087
-647.770	51.984	0.396	-0.380
-646.755	-26.368	-0.510	-0.301
-645.741	800.000	0.265	0.816
-644.726	66.468	0.265	-0.271
-643.711	-27.927	-1.013	-0.591
-642.697	-55.687	-0.630	0.284
-641.682	763.300	-0.134	-0.367
-640.668	-200.000	-0.076	0.867
-639.653	-76.202	0.395	0.140
-638.638	-116.622	-0.185	-0.034
-637.624	-102.034	0.163	0.040
-636.609	-42.620	-0.248	0.127
-635.595	-29.024	-0.208	-0.120
-634.580	-89.274	0.668	-0.198
-633.565	-200.000	0.028	-0.224
-632.551	-4.859	-0.273	-0.189
-631.536	24.325	-0.633	0.527
-630.522	-9.660	-0.435	0.292
-629.507	-200.000	0.048	-0.273
-628.492	611.530	-0.197	0.495
-627.478	-16.745	-0.849	0.541
-626.463	-11.554	-0.962	-0.637
-625.449	-112.957	-0.814	-0.162
-624.434	-200.000	-0.058	-0.621
-623.419	-37.319	0.646	-0.347
-622.405	61.138	0.280	0.280
-621.390	-40.519	0.563	0.295
-620.376	-192.565	0.567	-0.005
-619.361	394.586	-0.328	-0.687
-618.346	70.231	-0.316	-0.329
-617.332	24.125	0.281	-0.233
-616.317	118.131	0.541	-0.672
-615.303	-41.948	-0.647	-0.333
-614.288	-131.114	0.548	0.073
-613.273	-200.000	-0.155	-0.925
-612.259	800.000	-0.124	-0.496
-611.244	92.942	0.143	-0.163
-610.230	-10.244	-0.570	-0.381
-609.215	162.939	-0.255	-0.361
-608.201	186.411	0.272	-0.408
-607.186	121.414	0.181	-0.226
-606.171	40.217	-0.180	-0.163
-605.157	-99.894	-0.388	0.098
-604.142	-79.864	-0.713	-0.241
-603.128	800.000	-0.151	-0.506
-602.113	800.000	-0.109	0.355
-601.098	237.734	-0.529	0.883
-600.084	20.405	-1.041	0.846
-599.069	-83.504	-0.720	0.232
-598.055	-51.181	-0.110	0.052
-597.040	-200.000	-0.001	-0.276
-596.025	-178.126	0.564	-0.013
-595.011	-200.000	0.141	0.801
-593.996	738.304	-0.222	-0.600
-592.982	121.776	0.282	0.354
-591.967	-114.589	-1.026	-0.198
-590.952	372.142	-0.192	0.391
-589.938	-72.430	0.840	0.312
-588.923	-200.000	0.049	-0.228
-587.909	-200.000	0.003	0.194
-586.894	800.000	0.091	0.384
-585.879	137.696	0.487	0.642
-584.865	30.405	-0.279	0.240
-583.850	-104.815	1.011	-0.234
-582.836	-100.389	0.188	0.047
-581.821	629.817	-0.132	0.336
-580.806	-90.485	-0.636	0.185
-579.792	-82.059	0.364	0.120
-578.777	410.407	0.236	0.503
-577.763	7.551	-0.403	0.303
-576.748	-59.969	-0.353	0.152
-575.733	-101.108	0.805	-0.198
-574.719	800.000	-0.183	-0.551
-573.704	-200.000	-0.028	0.473
-572.690	-22.299	0.264	-0.160
-571.675	800.000	-0.063	-0.195
-570.661	-99.797	-0.027	-0.007
-569.646	12.405	0.398	-0.309
-568.631	800.000	0.261	-0.927
-567.617	481.510	-0.306	-0.698
-566.602	800.000	-0.241	-0.811
-565.588	800.000	0.084	-0.338
-564.573	-200.000	-0.018	0.389
-563.558	93.036	0.207	0.235
-562.544	-26.136	0.908	-0.536
-561.529	77.264	-0.388	-0.414
-560.515	-200.000	0.026	0.133
-559.500	-132.630	0.544	0.070
-558.485	33.463	0.110	0.096
-557.471	309.448	0.222	-0.416
-556.456	-127.359	0.781	0.114
-555.442	64.266	0.861	-0.871
-554.427	158.120	-0.135	-0.188
-553.412	800.000	0.171	-0.655
-552.398	20.514	-0.302	-0.246
-551.383	-65.213	-0.727	-0.294
-550.369	-200.000	0.016	-0.499
-549.354	800.000	-0.157	0.538
-548.339	-58.395	-0.582	0.254
-547.325	800.000	-0.218	-0.610
-546.310	800.000	0.139	-0.415
-545.296	-42.478	-0.572	-0.293
-544.281	318.628	0.519	-0.988
-543.266	8.120	-0.662	0.498
-542.252	328.515	-0.141	-0.271
-541.237	-91.413	0.459	-0.132
-540.223	-200.000	-0.001	0.546
-539.208	7.235	-0.700	-0.524
-538.193	79.075	0.234	-0.252
-537.179	-51.304	1.090	0.512
-536.164	-101.075	0.968	0.238
-535.150	310.810	-0.130	0.244
-534.135	0.970	0.712	0.512
-533.121	-93.856	-0.453	-0.125
-532.106	161.960	-0.107	-0.151
-531.091	62.727	0.660	-0.663
-530.077	-92.620	1.164	-0.328
-529.062	24.454	-0.644	0.534
-528.048	27.331	-0.650	-0.548
-527.033	-200.000	0.009	-0.568
-526.018	-39.898	0.347	0.182
-525.004	-145.798	-0.833	-0.074
-523.989	-172.186	-0.128	-0.004
-522.975	97.402	0.427	0.491
-521.960	380.409	-0.369	0.758
-520.945	-200.000	0.075	-0.507
-519.931	-170.181	-0.248	0.009
-518.916	-88.155	-0.905	0.272
-517.902	103.990	0.597	0.704
-516.887	-66.328	0.643	0.257
-515.872	-80.472	-0.542	-0.181
-514.858	-200.000	-0.020	0.332
-513.843	26.909	0.256	0.215
-512.829	20.547	0.509	0.413
-511.814	-112.130	0.541	0.109
-510.799	-67.122	0.462	0.182
-509.785	800.000	-0.059	-0.195
-508.770	60.245	-0.694	0.688
-507.756	657.912	0.296	0.763
-506.741	-56.219	-0.422	0.188
-505.726	800.000	0.187	-0.517
-504.712	-60.681	-0.237	0.101
-503.697	68.826	0.412	0.424
-502.683	800.000	-0.108	0.316
-501.668	-200.000	0.152	-0.843
-500.653	94.070	-0.843	0.958
-499.639	4.271	-0.312	-0.229
-498.624	-51.467	-0.090	0.042
-497.610	-173.749	-0.795	0.024
-496.595	800.000	0.141	-0.474
-495.581	524.728	-0.264	-0.623
-494.566	-150.364	0.106	-0.008
-493.551	248.501	0.408	-0.692
-492.537	-133.415	0.424	0.053
-491.522	-9.530	-0.045	0.030
-490.508	-200.000	0.038	1.037
-489.493	-200.000	-0.036	0.549
-488.478	-21.409	0.320	0.196
-487.464	566.347	0.253	-0.616
-486.449	-124.132	-0.451	0.071
-485.435	213.414	0.363	0.574
-484.420	-200.000	-0.061	-0.408
-483.405	20.196	0.473	-0.382
-482.391	73.070	-0.227	-0.238
-481.376	-200.000	-0.025	-0.225
-480.362	-200.000	0.056	0.632
-479.347	-200.000	0.069	-0.452
-478.332	78.921	0.272	-0.291
-477.318	187.757	0.165	0.247
-476.303	-200.000	0.032	-0.161
-475.289	81.433	-0.203	0.220
-474.274	800.000	-0.120	-0.337
-473.259	800.000	0.242	0.843
-472.245	660.963	0.101	0.260
-471.230	-22.051	-0.742	0.451
-470.216	79.249	0.592	-0.635
-469.201	800.000	-0.378	-1.087
-468.186	800.000	0.215	-0.932
-467.172	-0.927	-0.208	0.148
-466.157	-200.000	0.094	-0.973
-465.143	178.813	0.350	0.513
-464.128	-200.000	0.054	0.283
-463.113	-75.637	-0.187	0.066
-462.099	-6.494	-0.362	0.247
-461.084	-200.000	0.166	-1.074
-460.070	18.018	-0.091	0.072
-459.055	-177.221	-0.367	0.009
-458.040	-200.000	-0.124	-0.683
-457.026	724.350	0.291	-0.774
-456.011	800.000	0.216	-0.714
-454.997	800.000	-0.170	-0.623
-453.982	492.360	-0.448	1.027
-452.968	-110.773	-0.279	0.058
-451.953	-98.105	0.620	-0.160
-450.938	540.257	-0.148	0.352
-449.924	800.000	0.191	0.708
-448.909	-81.652	0.560	0.184
-447.895	156.419	-0.363	-0.501
-446.880	-195.540	-0.030	-0.000
-445.865	384.495	0.026	0.054
-444.851	67.469	0.700	0.715
-443.836	800.000	-0.186	0.571
-442.822	554.972	-0.111	0.268
-441.807	98.036	0.723	-0.832
-440.792	246.893	-0.313	-0.528
-439.778	-172.761	0.405	-0.013
-438.763	800.000	-0.185	-0.548
-437.749	-200.000	-0.003	0.213
-436.734	-73.756	0.976	0.355
-435.719	-13.111	0.521	0.338
-434.705	-57.970	1.022	-0.446
-433.690	-200.000	-0.017	0.697
-432.676	-143.073	-0.489	0.047
-431.661	392.909	0.381	0.792
-430.646	93.890	0.354	0.401
-429.632	800.000	-0.267	0.755
-428.617	-102.716	-0.838	-0.200
-427.603	-69.075	0.283	-0.109
-426.588	-49.396	1.203	-0.573
-425.573	426.609	0.341	0.735
-424.559	-200.000	-0.009	-0.205
-423.544	-10.168	-0.910	-0.604
-422.530	800.000	-0.121	0.509
-421.515	6.035	-0.522	0.386
-420.500	136.132	0.174	0.227
-419.486	527.998	0.057	-0.135
-418.471	-13.289	0.112	0.072
-417.457	-115.039	0.047	-0.009
-416.442	800.000	-0.047	0.202
-415.428	28.578	1.118	0.945
-414.413	-200.000	0.036	0.449
-413.398	-6.807	-0.179	-0.121
-412.384	-94.219	-0.563	0.154
-411.369	800.000	-0.282	0.843
-410.355	67.906	-0.379	0.387
-409.340	120.055	-0.526	-0.651
-408.325	-200.000	-0.186	-0.872
-407.311	51.354	0.305	0.289
-406.296	-52.078	-0.328	0.152
-405.282	800.000	-0.139	-0.608
-404.267	780.551	-0.198	-0.542
-403.252	125.021	0.196	-0.246
-402.238	-45.436	-0.234	0.116
-401.223	238.728	-0.143	0.237
-400.209	-24.930	-0.520	0.308
-399.194	477.532	-0.078	0.175
-398.179	-96.519	0.412	-0.109
-397.165	-68.138	0.598	-0.232
-396.150	800.000	-0.404	-1.113
-395.136	-41.112	0.272	-0.140
-394.121	-58.712	0.636	0.275
-393.106	29.106	-0.464	-0.393
-392.092	-167.722	0.316	-0.012
-391.077	800.000	0.075	-0.215
-390.063	201.041	0.132	-0.202
-389.048	159.156	0.222	-0.307
-388.033	-123.437	0.164	-0.026
-387.019	-127.707	0.700	0.101
-386.004	-47.373	-0.910	0.442
-384.990	161.529	0.103	0.143
-383.975	-93.580	0.694	-0.191
-382.960	-200.000	-0.067	0.343
-381.946	329.772	0.248	0.475
-380.931	-200.000	-0.069	0.719
-379.917	-118.232	0.590	0.105
-378.902	3.091	-0.640	-0.464
-377.888	21.481	0.429	-0.348
-376.873	239.654	-0.789	-1.310
-375.858	78.030	0.264	0.280
-374.844	383.075	0.354	0.727
-373.829	-104.734	-0.317	-0.073
-372.815	31.938	0.578	-0.497
-371.800	-51.967	-0.240	0.111
-370.785	59.270	0.437	0.430
-369.771	-200.000	-0.042	0.419
-368.756	-48.283	0.783	-0.377
-367.742	-101.296	-0.516	0.126
-366.727	-57.008	-0.477	-0.210
-365.712	800.000	0.223	-0.716
-364.698	-143.367	0.121	0.012
-363.683	201.623	-0.032	-0.049
-362.669	-49.164	-0.605	0.288
-361.654	800.000	-0.075	0.215
-360.639	-132.119	0.728	-0.094
-359.625	-200.000	-0.116	0.587
-358.610	-109.526	-0.310	0.065
-357.596	27.904	0.385	0.323
-356.581	-73.086	-0.336	-0.123
-355.566	141.721	-0.167	0.221
-354.552	60.821	-0.381	-0.376
-353.537	73.503	-0.390	0.407
-352.523	21.027	-0.597	-0.483
-351.508	453.754	-0.508	1.122
-350.493	-18.668	0.503	0.313
-349.479	137.495	0.632	0.823
-348.464	-70.677	0.985	0.371
-347.450	-16.884	0.686	-0.432
-346.435	156.598	-0.181	0.249
-345.420	250.108	0.344	-0.582
-344.406	-114.284	0.284	0.054
-343.391	800.000	-0.180	0.719
-342.377	-22.488	0.515	0.310
-341.362	-62.336	-1.211	0.502
-340.348	-23.209	0.242	-0.145
-339.333	-200.000	-0.018	0.399
-338.318	-154.975	-0.694	0.045
-337.304	547.719	-0.203	-0.483
-336.289	84.680	0.253	-0.276
-335.275	263.178	-0.292	0.505
-334.260	-200.000	0.137	-0.623
-333.245	-200.000	-0.238	-1.342
-332.231	800.000	0.094	0.393
-331.216	16.157	0.664	0.521
-330.202	-105.955	0.103	-0.023
-329.187	-71.515	-0.654	-0.244
-328.172	800.000	0.057	-0.186
-327.158	-84.627	-0.839	-0.263
-326.143	-200.000	-0.122	-0.654
-325.129	60.925	-0.411	-0.406
-324.114	-36.218	0.487	0.262
-323.099	-42.432	0.506	-0.257
-322.085	87.973	-0.500	0.552
-321.070	-47.838	-0.453	0.218
-320.056	-137.520	0.321	0.036
-319.041	-75.237	-1.011	0.359
-318.026	-200.000	0.029	-0.319
-317.012	28.696	0.453	0.382
-315.997	-21.868	0.309	0.187
-314.983	469.289	-0.362	-0.810
-313.968	-5.284	0.849	-0.580
-312.953	155.726	-0.374	-0.513
-311.939	455.699	0.223	-0.493
-310.924	18.389	0.110	-0.087
-309.910	11.318	-0.578	0.441
-308.895	344.535	-0.191	-0.374
-307.880	-200.000	-0.063	-0.444
-306.866	-74.885	0.672	0.240
-305.851	-160.634	0.855	-0.045
-304.837	-146.792	-0.511	0.044
-303.822	66.667	-0.786	-0.795
-302.807	-92.995	-0.305	0.085
-301.793	130.256	-0.440	0.560
-300.778	-200.000	0.114	0.774
-299.764	-152.394	0.564	-0.040
-298.749	-200.000	-0.005	-0.344
-297.735	345.593	-0.434	0.847
-296.720	800.000	0.062	-0.224
-295.705	800.000	-0.150	-0.447
-294.691	800.000	-0.193	-0.612
-293.676	511.037	0.302	0.699
-292.662	138.670	-0.143	0.187
-291.647	-50.885	0.397	0.186
-290.632	-98.021	-0.721	0.185
-289.618	52.692	0.516	0.490
-288.603	-154.867	-0.555	0.036
-287.589	8.501	0.370	0.277
-286.574	153.978	-0.300	-0.409
-285.559	469.054	-0.053	-0.118
-284.545	-128.071	-0.319	0.045
-283.530	279.199	0.536	0.951
-282.516	185.945	0.213	0.315
-281.501	3.554	-0.491	-0.355
-280.486	-137.164	-0.199	0.022
-279.472	345.450	-0.277	-0.541
-278.457	-200.000	-0.041	-0.318
-277.443	-127.785	-0.419	-0.060
-276.428	-51.870	0.360	0.166
-275.413	-78.682	-0.433	-0.147
-274.399	110.601	0.366	0.437
-273.384	158.118	-0.203	-0.280
-272.370	501.237	-0.144	0.330
-271.355	18.270	0.095	-0.075
-270.340	202.537	0.316	-0.485
-269.326	-108.230	0.409	0.088
-268.311	4.518	-0.519	0.378
-267.297	-170.624	0.412	0.014
-266.282	20.164	-0.283	-0.227
-265.267	-4.860	-0.263	0.180
-264.253	-31.329	-0.187	0.105
-263.238	-57.447	-0.638	-0.278
-262.224	106.619	-0.230	0.271
-261.209	-1.016	0.254	0.179
-260.195	270.299	-0.135	-0.236
-259.180	800.000	0.180	0.500
-258.165	-37.906	0.895	0.472
-257.151	-89.334	0.070	0.021
-256.136	413.444	-0.449	0.949
-255.122	40.333	-0.507	0.453
-254.107	361.642	0.415	0.826
-253.092	133.642	-0.363	-0.466
-252.078	-111.717	-0.624	0.125
-251.063	-113.468	-0.650	0.126
-250.049	129.510	0.441	0.559
-249.034	-184.564	-1.008	0.016
-248.019	-50.112	-0.493	0.232
-247.005	22.454	0.248	0.201
-245.990	-85.994	-0.535	-0.164
-244.976	30.642	-0.121	0.102
-243.961	60.586	-0.353	-0.347
-242.946	206.415	0.323	-0.498
-241.932	-169.217	0.394	-0.014
-240.917	21.427	-0.335	0.270
-239.903	-132.099	-1.455	-0.188
-238.888	19.158	-0.317	-0.252
-237.873	-0.785	0.357	-0.251
-236.859	-116.488	-0.363	-0.067
-235.844	-114.435	-0.778	-0.148
-234.830	-200.000	-0.068	-0.313
-233.815	243.629	0.335	-0.557
-232.800	2.740	0.663	0.477
-231.786	7.147	0.132	-0.098
-230.771	-200.000	-0.068	0.617
-229.757	-8.805	0.705	0.469
-228.742	27.320	0.416	0.346
-227.727	-200.000	-0.118	-0.603
-226.713	-154.192	-0.788	0.053
-225.698	-200.000	0.107	0.735
-224.684	59.163	-0.399	-0.390
-223.669	-103.752	0.552	0.128
-222.655	-200.000	0.057	0.427
-221.640	-81.372	0.236	-0.077
-220.625	800.000	-0.527	1.545
-219.611	348.112	-0.249	0.486
-218.596	800.000	0.194	0.550
-217.582	410.716	0.126	-0.264
-216.567	-200.000	0.061	-0.482
-215.552	450.278	0.067	-0.147
-214.538	135.285	0.330	-0.425
-213.523	800.000	0.149	0.628
-212.509	-79.293	-0.037	-0.012
-211.494	634.265	0.196	-0.492
-210.479	-31.997	-0.123	-0.068
-209.465	-165.664	-0.539	-0.023
-208.450	120.455	0.209	0.257
-207.436	3.879	-0.515	-0.373
-206.421	-200.000	0.040	0.743
-205.406	18.710	-0.223	-0.177
-204.392	800.000	-0.243	-0.786
-203.377	-116.887	0.806	-0.146
-202.363	21.971	0.342	0.276
-201.348	-23.918	-0.105	-0.062
-200.333	90.322	0.190	-0.210
-199.319	-200.000	-0.131	1.104
-198.304	800.000	-0.080	-0.334
-197.290	-24.017	-0.314	0.186
-196.275	168.039	0.463	0.652
-195.260	357.185	0.451	0.890
-194.246	800.000	-0.084	0.295
-193.231	-200.000	0.034	-0.254
-192.217	-62.798	-0.267	-0.109
-191.202	-134.222	0.604	0.074
-190.187	72.957	-0.517	0.535
-189.173	-28.915	0.643	-0.366
-188.158	-200.000	-0.119	-0.886
-187.144	-95.148	-0.607	0.162
-186.129	-136.226	-1.011	0.117
-185.114	249.054	0.112	-0.187
-184.100	-200.000	-0.203	-1.057
-183.085	49.145	0.392	0.365
-182.071	-200.000	-0.177	1.095
-181.056	-114.718	0.168	0.032
-180.042	-30.639	0.669	-0.375
-179.027	230.046	0.373	0.603
-178.012	46.876	-0.220	0.203
-176.998	327.163	0.435	-0.826
-175.983	800.000	0.288	-1.168
-174.969	-156.625	-0.350	-0.021
-173.954	-86.707	0.940	-0.285
-172.939	668.419	0.185	0.473
-171.925	84.341	-0.121	0.131
-170.910	-38.717	0.835	-0.436
-169.896	74.413	0.580	0.603
-168.881	423.390	-0.043	0.092
-167.866	-90.352	0.055	-0.016
-166.852	-4.624	-0.236	-0.161
-165.837	129.093	0.156	-0.197
-164.823	800.000	-0.149	0.622
-163.808	-103.015	-0.539	-0.126
-162.793	-74.077	0.567	-0.203
-161.779	8.205	0.097	0.072
-160.764	207.901	0.038	0.059
-159.750	-119.009	-0.291	-0.050
-158.735	-90.343	0.398	-0.114
-157.720	-58.942	0.215	-0.092
-156.706	315.041	0.284	-0.530
-155.691	-100.831	0.344	-0.084
-154.677	177.112	0.606	0.872
-153.662	192.054	-0.475	-0.708
-152.647	-95.597	0.645	-0.171
-151.633	800.000	-0.146	-0.503
-150.618	-55.763	0.236	-0.104
-149.604	-88.194	-0.062	0.018
-148.589	86.006	0.541	0.588
-147.574	-16.568	-0.641	-0.401
-146.560	-200.000	-0.052	-0.894
-145.545	-75.865	0.422	0.148
-144.531	241.511	0.191	-0.315
-143.516	-37.325	0.672	0.355
-142.502	-200.000	-0.151	-0.892
-141.487	-4.475	0.667	-0.455
-140.472	-63.931	0.417	0.169
-139.458	-126.723	0.119	-0.017
-138.443	800.000	0.148	0.418
-137.429	800.000	-0.230	0.651
-136.414	800.000	0.143	-0.458
-135.399	97.029	-0.638	-0.723
-134.385	-200.000	0.037	0.363
-133.370	-88.455	-1.146	-0.338
-132.356	122.085	0.287	0.354
-131.341	-200.000	0.129	0.697
-130.326	69.241	-0.304	0.309
-129.312	-63.983	-0.226	0.091
-128.297	-200.000	0.151	1.013
-127.283	3.186	0.287	-0.206
-126.268	-66.686	-0.532	0.208
-125.253	-80.826	0.525	-0.172
-124.239	63.896	-0.293	-0.291
-123.224	-200.000	0.055	0.713
-122.210	-153.662	-0.789	0.054
-121.195	123.254	-0.504	0.623
-120.180	-200.000	0.090	0.770
