DTS Sentinel unit serial number:	SN413079Multiplexer serial number:	ORYXHardware model number:	OX4-SRSoftware version number:	ORYX F/W v4.00 Oryx Data Collector v3.7.2.0data status	okinstallation	princeton_trtdifferential loss correction	single-endedforward channel	channel 3reverse channel	N/Adate	2019/09/12time	18:38:04forward acquisition time	15.00reverse acquisition time	0.00gamma	496.2192k internal	0.2318k external	0.2318temperature offset calibration	1.0096default loss term (dB/km)	0.3790temperature slope calibration	1.0000multiplexer offset coefficient	1.0000multiplexer slope coefficient	1.0000fibre end	0.00T internal ref (°C)	33.12T ext. ref 1 (°C)	2.97T ext. ref 2 (°C)	27.67length (m)	temperature (°C)	Stokes	anti-Stokes-747.200	127.918	0.484	0.623
-746.185	-53.725	-0.085	-0.039
-745.171	313.223	-0.204	0.388
-744.156	-87.817	0.846	0.258
-743.142	101.441	0.199	-0.235
-742.127	282.277	-0.370	-0.672
-741.112	100.263	0.363	0.426
-740.098	-98.165	0.593	-0.154
-739.083	2.046	-0.564	0.412
-738.069	172.007	-0.243	0.354
-737.054	-87.425	0.241	0.074
-736.039	321.149	-0.356	-0.685
-735.025	-63.767	0.339	-0.140
-734.010	800.000	-0.100	-0.356
-732.996	-200.000	-0.039	-0.475
-731.981	-200.000	0.023	0.174
-730.966	-200.000	0.069	-0.647
-729.952	-200.000	0.019	0.343
-728.937	131.196	-0.579	0.752
-727.923	-136.802	-0.352	-0.041
-726.908	256.528	-0.264	-0.459
-725.894	-79.014	-0.826	-0.284
-724.879	-7.535	0.292	-0.200
-723.864	-172.497	-0.746	0.024
-722.850	-19.503	0.420	-0.263
-721.835	305.711	0.121	0.228
-720.821	-106.207	0.389	0.088
-719.806	268.160	0.320	-0.567
-718.791	221.290	0.374	0.607
-717.777	157.530	0.158	-0.221
-716.762	800.000	-0.180	-0.689
-715.748	-200.000	-0.103	-1.077
-714.733	178.786	-0.294	-0.434
-713.718	174.091	-0.451	0.659
-712.704	-184.846	-1.006	0.016
-711.689	43.426	-0.434	0.401
-710.675	24.042	0.638	0.532
-709.660	-200.000	-0.099	-0.505
-708.645	-150.208	-0.958	0.075
-707.631	159.398	0.300	-0.421
-706.616	39.973	0.172	-0.156
-705.602	-37.543	-0.774	-0.417
-704.587	104.623	-0.188	-0.224
-703.572	358.567	0.274	-0.553
-702.558	-74.296	0.298	-0.109
-701.543	98.397	-0.113	0.131
-700.529	-198.102	0.120	0.001
-699.514	166.224	-0.088	-0.126
-698.499	-200.000	0.122	-0.643
-697.485	-73.759	-0.241	-0.089
-696.470	-76.762	0.493	-0.174
-695.456	27.686	0.345	-0.293
-694.441	-200.000	-0.010	0.302
-693.426	-13.484	-0.473	-0.310
-692.412	-200.000	-0.177	-0.960
-691.397	24.814	-0.390	-0.326
-690.383	-130.015	-0.707	0.098
-689.368	-200.000	0.002	-0.216
-688.354	-88.749	0.291	0.087
-687.339	-72.563	-0.430	-0.160
-686.324	-72.089	-0.825	0.309
-685.310	-94.358	0.362	-0.100
-684.295	800.000	-0.095	0.285
-683.281	-200.000	-0.078	-0.370
-682.266	109.986	-0.486	-0.589
-681.251	90.530	-0.232	-0.263
-680.237	-200.000	0.008	0.595
-679.222	-95.902	-0.688	-0.185
-678.208	253.534	-0.326	-0.562
-677.193	-200.000	-0.012	-0.392
-676.178	125.748	0.313	-0.399
-675.164	80.626	-0.442	0.481
-674.149	62.605	-0.327	-0.330
-673.135	-8.196	0.089	0.061
-672.120	-10.951	0.301	0.201
-671.105	800.000	-0.216	0.745
-670.091	-200.000	0.067	0.544
-669.076	-200.000	0.058	-0.308
-668.062	-200.000	-0.021	0.123
-667.047	-200.000	0.058	0.806
-666.032	800.000	-0.284	-0.944
-665.018	-70.745	-0.724	-0.276
-664.003	-58.789	-1.530	-0.668
-662.989	-106.532	-0.769	0.173
-661.974	-169.058	0.258	-0.010
-660.959	339.257	-0.339	0.666
-659.945	-173.072	0.632	0.020
-658.930	-200.000	-0.061	-0.361
-657.916	-200.000	0.033	-0.211
-656.901	-173.749	-0.554	0.017
-655.886	-131.087	0.219	0.029
-654.872	-134.263	-0.171	0.021
-653.857	389.264	0.562	-1.175
-652.843	-200.000	-0.375	-0.000
-651.828	-31.554	0.281	-0.159
-650.814	290.646	0.168	0.308
-649.799	-101.758	0.575	0.141
-648.784	676.039	0.156	-0.408
-647.770	95.431	-0.212	-0.243
-646.755	-43.104	-0.362	0.185
-645.741	194.052	0.198	-0.303
-644.726	15.379	0.079	0.063
-643.711	207.520	-0.166	-0.261
-642.697	-126.045	0.450	-0.068
-641.682	-133.452	-0.349	-0.044
-640.668	-92.228	-0.492	-0.140
-639.653	101.314	-0.160	-0.188
-638.638	-36.120	-0.133	0.072
-637.624	-200.000	-0.033	0.387
-636.609	503.898	0.282	-0.657
-635.595	291.393	0.302	0.554
-634.580	386.847	0.108	-0.225
-633.565	28.802	0.643	0.549
-632.551	800.000	-0.006	-0.026
-631.536	-195.707	0.471	-0.003
-630.522	-153.577	0.096	0.007
-629.507	-41.832	-0.220	0.114
-628.492	-200.000	0.112	-0.575
-627.478	157.003	-0.589	-0.820
-626.463	128.261	0.086	-0.111
-625.449	800.000	-0.167	0.550
-624.434	-123.837	-0.107	-0.017
-623.419	800.000	-0.067	-0.200
-622.405	145.119	-0.407	0.549
-621.390	-77.383	0.608	0.213
-620.376	-84.047	0.489	0.156
-619.361	26.435	-0.700	0.589
-618.346	428.920	0.197	-0.430
-617.332	-61.991	-0.545	-0.229
-616.317	45.417	-0.900	0.837
-615.303	78.382	0.599	-0.645
-614.288	800.000	0.208	-0.737
-613.273	294.120	0.061	-0.111
-612.259	-71.706	1.418	0.533
-611.244	-200.000	-0.010	-0.262
-610.230	-81.401	-0.429	-0.142
-609.215	-94.421	0.480	0.132
-608.201	800.000	0.171	0.673
-607.186	-200.000	-0.036	0.691
-606.171	-145.966	0.386	-0.034
-605.157	89.456	0.455	-0.510
-604.142	18.895	0.380	-0.307
-603.128	430.499	0.432	-0.942
-602.113	132.323	-0.301	0.390
-601.098	63.263	-0.815	0.822
-600.084	-114.088	-0.736	-0.143
-599.069	800.000	-0.093	-0.262
-598.055	-56.181	-0.657	0.294
-597.040	70.714	0.387	-0.403
-596.025	28.035	0.130	0.110
-595.011	-41.797	-0.766	0.396
-593.996	-81.275	-0.242	0.080
-592.982	800.000	0.137	0.568
-591.967	30.175	0.480	0.412
-590.952	346.775	0.367	0.726
-589.938	585.713	0.184	0.455
-588.923	0.071	0.667	0.478
-587.909	-44.059	-0.671	0.339
-586.894	-89.176	-0.793	-0.235
-585.879	-43.930	-0.328	-0.166
-584.865	644.882	-0.109	0.281
-583.850	-78.282	1.071	0.370
-582.836	-81.095	-0.675	-0.225
-581.821	800.000	-0.274	0.952
-580.806	-78.341	0.721	0.249
-579.792	133.784	-0.255	0.331
-578.777	-101.386	-0.490	0.120
-577.763	800.000	0.166	0.508
-576.748	-200.000	-0.054	-0.325
-575.733	308.410	0.331	0.621
-574.719	800.000	0.139	-0.457
-573.704	800.000	0.087	0.339
-572.690	280.818	0.156	0.281
-571.675	-146.329	0.684	0.060
-570.661	181.077	-0.139	-0.205
-569.646	800.000	0.173	0.616
-568.631	-200.000	-0.002	-0.321
-567.617	79.569	0.737	0.794
-566.602	316.866	0.177	0.336
-565.588	-200.000	-0.147	-0.735
-564.573	544.667	0.172	-0.413
-563.558	157.319	-0.468	0.651
-562.544	-200.000	-0.062	-0.829
-561.529	395.703	0.328	-0.687
-560.515	-200.000	0.066	-0.313
-559.500	-200.000	-0.129	0.657
-558.485	93.409	-0.827	-0.941
-557.471	-200.000	0.209	-0.995
-556.456	-34.993	0.573	-0.314
-555.442	-83.698	-1.118	0.359
-554.427	40.049	0.335	0.302
-553.412	-47.370	0.145	-0.071
-552.398	800.000	-0.057	-0.236
-551.383	-53.880	1.095	0.501
-550.369	-132.758	0.383	-0.049
-549.354	-180.440	-0.663	0.014
-548.339	-9.201	-0.515	-0.346
-547.325	-116.824	-0.878	-0.162
-546.310	14.563	-0.594	-0.466
-545.296	-21.181	-0.482	-0.296
-544.281	-72.202	-0.717	0.267
-543.266	506.720	0.188	-0.437
-542.252	-162.249	-0.732	-0.037
-541.237	-81.150	-0.350	0.116
-540.223	-200.000	-0.076	0.571
-539.208	138.416	-0.291	0.383
-538.193	-200.000	0.036	-0.174
-537.179	-76.406	-0.340	-0.120
-536.164	100.401	-0.526	-0.613
-535.150	-200.000	-0.047	-0.683
-534.135	800.000	0.293	-1.055
-533.121	-124.236	0.552	-0.087
-532.106	-31.627	0.940	0.530
-531.091	-119.607	0.150	-0.026
-530.077	-40.337	-0.626	-0.326
-529.062	-25.967	-0.326	0.193
-528.048	-117.722	0.651	0.118
-527.033	-116.258	0.389	-0.072
-526.018	54.563	-0.511	-0.494
-525.004	-171.203	0.935	0.032
-523.989	800.000	0.234	-0.951
-522.975	740.902	-0.511	1.377
-521.960	379.266	0.202	0.416
-520.945	-119.654	0.509	-0.088
-519.931	-8.336	0.085	0.057
-518.916	234.946	0.334	-0.552
-517.902	202.609	-0.401	-0.621
-516.887	-153.085	-0.968	-0.068
-515.872	-200.000	-0.020	0.524
-514.858	-200.000	-0.050	-0.259
-513.843	107.796	0.093	0.111
-512.829	-37.166	-0.695	-0.373
-511.814	174.037	-0.229	0.332
-510.799	-186.054	0.072	0.001
-509.785	87.597	0.488	-0.542
-508.770	212.566	0.357	-0.564
-507.756	35.679	-0.163	0.144
-506.741	-200.000	0.002	-0.252
-505.726	-200.000	-0.037	0.211
-504.712	599.673	0.251	0.624
-503.697	-200.000	-0.028	0.381
-502.683	-155.488	-0.482	0.031
-501.668	90.430	-0.395	0.443
-500.653	-200.000	0.024	-0.189
-499.639	-200.000	0.019	-0.400
-498.624	371.141	0.246	0.500
-497.610	-200.000	0.054	-0.342
-496.595	800.000	0.043	0.164
-495.581	800.000	0.176	0.709
-494.566	-200.000	-0.022	0.250
-493.551	184.190	-0.297	0.441
-492.537	-200.000	1.630	-0.005
-491.522	256.112	-0.117	0.202
-490.508	-80.077	0.201	-0.068
-489.493	800.000	-0.030	-0.117
-488.478	-83.718	0.904	0.289
-487.464	-200.000	0.085	1.143
-486.449	800.000	-0.084	-0.301
-485.435	-200.000	0.019	-0.350
-484.420	-200.000	0.061	-0.288
-483.405	-200.000	-0.033	1.041
-482.391	21.046	-0.781	-0.634
-481.376	240.953	-0.371	0.620
-480.362	-200.000	0.116	-0.889
-479.347	-65.946	0.049	0.019
-478.332	800.000	0.235	0.685
-477.318	-200.000	0.014	-0.217
-476.303	81.264	0.537	0.581
-475.289	29.888	-0.385	-0.329
-474.274	31.100	-0.371	-0.319
-473.259	-35.834	0.433	0.235
-472.245	-200.000	0.045	-0.880
-471.230	-77.865	0.905	-0.313
-470.216	63.873	0.217	-0.219
-469.201	-131.925	0.507	0.066
-468.186	172.329	-0.269	-0.388
-467.172	111.688	-0.566	-0.684
-466.157	-200.000	0.018	0.535
-465.143	471.068	-0.283	-0.637
-464.128	-25.923	0.443	-0.261
-463.113	7.255	-0.479	0.358
-462.099	-192.716	0.373	-0.003
-461.084	-157.274	-0.282	-0.017
-460.070	325.808	-0.203	0.388
-459.055	745.336	-0.146	0.394
-458.040	191.085	-0.289	0.435
-457.026	-109.739	0.526	-0.111
-456.011	-200.000	0.019	-0.363
-454.997	-15.957	-0.488	-0.311
-453.982	-90.900	0.679	0.196
-452.968	546.740	-0.098	-0.234
-451.953	-106.772	-0.248	0.055
-450.938	-75.632	0.974	0.346
-449.924	172.002	-0.176	-0.252
-448.909	198.947	0.316	-0.484
-447.895	-200.000	0.133	-0.796
-446.880	-199.096	-0.423	0.002
-445.865	187.238	-0.345	0.514
-444.851	-200.000	0.045	0.645
-443.836	800.000	0.075	-0.215
-442.822	-55.023	-0.249	-0.112
-441.807	196.109	0.397	-0.605
-440.792	-44.859	0.251	0.125
-439.778	-64.498	0.350	-0.142
-438.763	-2.529	-0.277	-0.194
-437.749	-200.000	0.022	0.369
-436.734	-83.885	-1.081	-0.344
-435.719	-142.852	0.419	0.041
-434.705	128.066	-0.072	-0.092
-433.690	800.000	-0.073	-0.257
-432.676	47.953	-0.266	-0.248
-431.661	-200.000	0.592	0.001
-430.646	159.888	-0.590	0.822
-429.632	175.294	-0.201	0.292
-428.617	-151.806	-0.027	0.002
-427.603	29.891	0.269	0.229
-426.588	-200.000	-0.056	-0.416
-425.573	-200.000	0.023	-0.143
-424.559	-50.217	0.541	-0.256
-423.544	174.330	0.425	-0.613
-422.530	800.000	-0.062	-0.241
-421.515	610.156	-0.136	0.340
-420.500	-200.000	0.028	0.436
-419.486	-200.000	0.041	0.279
-418.471	9.165	0.492	0.372
-417.457	-40.375	-0.537	-0.279
-416.442	800.000	-0.158	-0.565
-415.428	-102.924	0.458	-0.109
-414.413	5.789	-0.905	-0.669
-413.398	183.845	-0.554	0.819
-412.384	75.950	0.260	-0.275
-411.369	800.000	-0.205	-0.635
-410.355	-157.880	0.518	0.031
-409.340	-86.420	0.392	0.120
-408.325	-99.057	0.781	0.198
-407.311	254.500	-0.283	0.483
-406.296	-200.000	0.083	0.671
-405.282	-82.185	0.352	-0.115
-404.267	61.111	-0.597	0.592
-403.252	277.175	-0.257	-0.457
-402.238	149.786	-0.352	-0.477
-401.223	208.311	-0.170	-0.265
-400.209	-46.625	0.058	-0.028
-399.194	-200.000	0.050	-0.226
-398.179	11.436	-0.311	-0.238
-397.165	-129.022	0.337	0.047
-396.150	800.000	-0.080	-0.223
-395.136	-200.000	-0.055	0.794
-394.121	116.655	0.656	0.803
-393.106	7.181	0.352	-0.263
-392.092	-14.763	0.140	-0.090
-391.077	-127.808	-0.532	0.077
-390.063	161.632	0.401	0.561
-389.048	800.000	0.094	0.365
-388.033	-44.748	0.056	-0.028
-387.019	800.000	-0.083	0.234
-386.004	528.631	0.063	-0.148
-384.990	15.430	-0.177	0.139
-383.975	-200.000	0.018	-0.090
-382.960	-149.189	0.197	0.016
-381.946	-200.000	-0.044	-0.218
-380.931	396.925	0.380	-0.793
-379.917	-53.096	-0.496	-0.227
-378.902	95.305	-0.591	0.672
-377.888	350.102	-0.282	-0.556
-376.873	543.439	-0.109	-0.260
-375.858	730.854	-0.207	0.552
-374.844	-83.698	-0.495	-0.158
-373.829	-116.438	0.182	-0.034
-372.815	648.041	-0.286	-0.730
-371.800	6.967	-0.471	0.350
-370.785	-200.000	-0.070	0.623
-369.771	-200.000	-0.018	0.777
-368.756	-69.011	-0.511	0.196
-367.742	-104.395	0.849	-0.196
-366.727	-200.000	0.029	0.233
-365.712	-119.166	-0.195	-0.034
-364.698	254.829	0.469	0.801
-363.683	416.207	-0.172	0.365
-362.669	-61.919	-0.744	-0.310
-361.654	800.000	-0.083	-0.257
-360.639	18.732	-0.031	-0.025
-359.625	-200.000	0.084	0.473
-358.610	100.195	-0.369	0.427
-357.596	85.311	0.360	0.394
-356.581	104.655	-0.696	-0.817
-355.566	800.000	0.225	0.647
-354.552	-60.718	-0.857	-0.362
-353.537	-151.677	0.415	0.031
-352.523	-200.000	-0.040	-0.182
-351.508	181.074	-0.547	-0.802
-350.493	-30.953	-0.165	-0.093
-349.479	-200.000	-0.039	0.254
-348.464	378.636	0.206	-0.419
-347.450	118.776	-0.845	-1.041
-346.435	262.732	-0.557	0.964
-345.420	-200.000	-0.025	-0.403
-344.406	-52.908	-0.948	-0.435
-343.391	-53.243	-0.573	0.262
-342.377	197.780	0.699	-1.063
-341.362	-30.114	0.467	0.265
-340.348	-39.244	0.306	-0.160
-339.333	-98.900	0.936	0.237
-338.318	-34.411	0.236	-0.129
-337.304	114.344	-0.265	0.322
-336.289	-107.600	0.431	0.094
-335.275	107.916	0.425	-0.504
-334.260	-200.000	-0.014	0.184
-333.245	-122.446	0.278	-0.045
-332.231	-64.731	0.706	0.285
-331.216	-200.000	-0.140	0.862
-330.202	130.353	-0.178	0.227
-329.187	-45.582	0.091	0.045
-328.172	-132.017	0.538	-0.070
-327.158	-137.030	-0.371	0.042
-326.143	84.756	-0.220	0.240
-325.129	319.638	-0.100	0.189
-324.114	-58.596	0.314	-0.135
-323.099	-26.945	0.078	0.045
-322.085	675.752	-0.131	-0.339
-321.070	-79.727	1.081	-0.363
-320.056	-69.878	0.503	-0.191
-319.041	-0.834	0.207	0.146
-318.026	-200.000	0.031	-0.273
-317.012	-79.665	0.161	-0.054
-315.997	-200.000	0.209	0.975
-314.983	800.000	0.143	-0.487
-313.968	-155.830	-0.181	0.011
-312.953	-156.810	0.142	-0.009
-311.939	-200.000	0.027	0.756
-310.924	-164.627	0.926	-0.042
-309.910	-200.000	0.129	-0.596
-308.895	-173.179	0.446	0.014
-307.880	-27.394	0.350	0.203
-306.866	112.309	-0.710	0.854
-305.851	48.543	-0.703	0.655
-304.837	800.000	-0.115	0.465
-303.822	57.120	0.495	0.480
-302.807	-129.226	0.362	0.050
-301.793	-61.379	0.348	-0.146
-300.778	-200.000	-0.140	0.645
-299.764	-200.000	-0.008	-0.776
-298.749	-130.022	0.402	-0.055
-297.735	272.446	0.180	-0.315
-296.720	241.903	0.329	0.547
-295.705	-200.000	0.111	-0.490
-294.691	-102.544	-0.598	-0.142
-293.676	-200.000	0.010	0.666
-292.662	-86.731	-1.070	-0.325
-291.647	-125.113	1.501	0.229
-290.632	-45.267	0.267	-0.132
-289.618	800.000	-0.169	0.498
-288.603	127.690	-0.189	0.239
-287.589	-94.117	-0.598	0.163
-286.574	800.000	0.103	0.332
-285.559	149.062	-0.228	0.306
-284.545	599.743	-0.271	-0.668
-283.530	-119.579	1.004	0.173
-282.516	59.062	-0.819	-0.801
-281.501	33.448	-0.398	-0.344
-280.486	-200.000	0.057	-0.703
-279.472	-200.000	-0.057	0.490
-278.457	613.692	0.265	0.660
-277.443	800.000	0.109	0.398
-276.428	-200.000	0.093	-0.556
-275.413	-196.186	-0.967	-0.007
-274.399	389.463	0.351	0.724
-273.384	800.000	-0.175	0.504
-272.370	-172.366	0.818	0.026
-271.355	119.512	-0.460	0.566
-270.340	-200.000	-0.022	0.187
-269.326	54.755	-0.311	0.298
-268.311	-200.000	-0.039	0.721
-267.297	800.000	-0.086	-0.239
-266.282	127.273	-0.494	0.622
-265.267	-200.000	0.045	0.899
-264.253	430.043	0.486	-1.045
-263.238	-170.008	-0.571	-0.020
-262.224	-200.000	0.007	0.204
-261.209	-200.000	0.099	0.712
-260.195	146.989	-0.425	-0.568
-259.180	-9.851	1.295	0.856
-258.165	527.332	0.250	0.585
-257.151	147.409	0.197	0.264
-256.136	0.777	-0.180	0.128
-255.122	-97.884	0.675	-0.173
-254.107	-3.448	0.197	-0.136
-253.092	-200.000	-0.095	-1.046
-252.078	-34.507	0.426	-0.231
-251.063	-200.000	-0.096	0.713
-250.049	-200.000	-0.072	-0.488
-249.034	-200.000	0.147	-1.129
-248.019	701.745	-0.131	0.342
-247.005	40.281	-0.704	-0.628
-245.990	78.904	0.306	-0.325
-244.976	-129.878	0.703	-0.096
-243.961	191.831	0.397	-0.594
-242.946	-16.271	0.287	-0.181
-241.932	-12.621	-0.386	0.250
-240.917	172.842	-0.602	0.860
-239.903	312.859	-0.070	-0.131
-238.888	-92.264	-0.788	-0.220
-237.873	-200.000	0.049	-0.603
-236.859	-129.627	0.941	0.129
-235.844	-125.404	0.643	-0.097
-234.830	618.330	-0.353	-0.879
-233.815	-200.000	0.028	0.670
-232.800	800.000	-0.222	-0.716
-231.786	3.197	-0.408	-0.294
-230.771	-67.583	-0.928	0.361
-229.757	236.242	-0.081	-0.133
-228.742	5.468	-0.482	0.353
-227.727	236.327	0.074	-0.122
-226.713	12.185	0.600	-0.458
-225.698	800.000	0.180	0.507
-224.684	-106.239	0.149	-0.033
-223.669	-96.851	-0.250	-0.065
-222.655	182.321	0.405	-0.592
-221.640	359.001	-0.290	-0.575
-220.625	-200.000	0.086	-1.281
-219.611	-1.827	0.513	-0.358
-218.596	-42.867	-0.371	0.187
-217.582	-200.000	0.020	0.785
-216.567	15.204	-0.307	-0.239
-215.552	-200.000	0.123	0.603
-214.538	-200.000	-0.029	-0.591
-213.523	-198.887	0.198	-0.001
-212.509	80.828	0.286	-0.306
-211.494	-45.830	-0.436	-0.214
-210.479	242.248	-0.307	0.510
-209.465	800.000	-0.149	-0.414
-208.450	-67.168	-0.374	-0.146
-207.436	399.016	-0.381	-0.791
-206.421	-153.604	-0.513	0.035
-205.406	146.671	-0.116	-0.155
-204.392	-109.650	-0.407	-0.085
-203.377	118.425	0.138	0.169
-202.363	-161.764	-0.199	-0.010
-201.348	340.173	-0.191	0.370
-200.333	-64.234	-0.352	0.142
-199.319	-36.847	0.472	0.251
-198.304	-200.000	-0.091	-0.592
-197.290	-4.942	-0.285	0.195
-196.275	16.987	0.337	-0.264
-195.260	-200.000	-0.025	-0.110
-194.246	736.022	-0.236	-0.626
-193.231	196.442	0.163	0.247
-192.217	51.988	0.177	-0.167
-191.202	-81.242	-0.661	0.216
-190.187	-200.000	0.033	0.443
-189.173	-76.559	-0.088	-0.031
-188.158	7.433	-0.742	-0.549
-187.144	131.485	0.206	-0.262
-186.129	-200.000	-0.430	-0.002
-185.114	141.642	0.202	0.265
-184.100	-21.113	-0.267	0.162
-183.085	-200.000	0.030	0.158
-182.071	15.384	0.220	-0.171
-181.056	-102.162	0.407	0.097
-180.042	158.976	0.204	0.281
-179.027	-196.911	-0.821	0.005
-178.012	275.770	-0.082	-0.145
-176.998	-31.234	-0.207	-0.116
-175.983	-200.000	0.011	0.705
-174.969	-173.874	0.462	-0.014
-173.954	28.201	-0.444	-0.371
-172.939	79.998	-0.441	-0.469
-171.925	-200.000	0.078	-0.415
-170.910	-0.451	0.614	0.431
-169.896	446.218	0.154	-0.335
-168.881	-90.781	0.977	0.279
-167.866	-200.000	0.014	0.731
-166.852	-135.836	-0.183	0.021
-165.837	-90.715	0.638	-0.182
-164.823	800.000	0.151	0.554
-163.808	800.000	0.044	-0.175
-162.793	702.674	-0.185	-0.482
-161.779	-79.986	-0.750	-0.249
-160.764	273.918	0.360	0.629
-159.750	-97.927	0.714	-0.182
-158.735	2.885	0.053	0.038
-157.720	157.084	0.040	-0.055
-156.706	36.616	-0.649	-0.567
-155.691	-200.000	-0.037	-0.594
-154.677	43.109	-0.506	-0.457
-153.662	-129.941	-0.828	-0.112
-152.647	-127.181	0.473	-0.068
-151.633	-54.904	0.408	0.182
-150.618	452.444	-0.182	-0.398
-149.604	-177.978	-1.385	0.033
-148.589	-200.000	0.001	0.039
-147.574	202.815	-0.050	-0.076
-146.560	-44.157	0.921	0.457
-145.545	-80.951	1.157	0.379
-144.531	175.212	0.259	0.370
-143.516	-200.000	0.005	-0.035
-142.502	-124.715	-0.231	0.035
-141.487	-200.000	-0.036	0.450
-140.472	-95.202	0.784	0.209
-139.458	-200.000	-0.044	-0.228
-138.443	710.268	-0.034	0.089
-137.429	10.661	-0.644	0.485
-136.414	-115.067	0.354	0.066
-135.399	59.808	-0.181	0.177
-134.385	800.000	0.199	-0.587
-133.370	-66.875	0.324	0.127
-132.356	11.578	-0.460	0.349
-131.341	444.992	0.260	-0.565
-130.326	49.522	-0.199	-0.185
-129.312	-200.000	0.080	-0.770
-128.297	-103.071	-0.194	-0.045
-127.283	-75.182	0.429	0.151
-126.268	-200.000	0.129	-1.028
-125.253	-55.004	-0.335	-0.149
-124.239	-112.115	-0.623	-0.124
-123.224	-120.885	-0.538	-0.089
