DTS Sentinel unit serial number:	SN413079Multiplexer serial number:	ORYXHardware model number:	OX4-SRSoftware version number:	ORYX F/W v4.00 Oryx Data Collector v3.7.2.0data status	okinstallation	princeton_trtdifferential loss correction	single-endedforward channel	channel 3reverse channel	N/Adate	2019/09/19time	04:56:35forward acquisition time	60.00reverse acquisition time	0.00gamma	496.2192k internal	0.2348k external	0.2348temperature offset calibration	0.9992default loss term (dB/km)	0.3790temperature slope calibration	1.0000multiplexer offset coefficient	1.0000multiplexer slope coefficient	1.0000fibre end	0.00T internal ref (°C)	19.75T ext. ref 1 (°C)	0.61T ext. ref 2 (°C)	13.05length (m)	temperature (°C)	Stokes	anti-Stokes-747.200	8.149	0.269	0.202
-746.185	-128.735	-0.154	0.022
-745.171	1.171	-0.235	-0.168
-744.156	-53.358	0.252	0.115
-743.142	-109.271	0.116	0.025
-742.127	53.912	-0.168	0.161
-741.112	275.734	-0.259	0.460
-740.098	-122.913	-0.148	0.024
-739.083	76.206	-0.044	-0.047
-738.069	17.487	-0.169	0.134
-737.054	-33.639	-0.295	0.162
-736.039	212.912	-0.269	-0.424
-735.025	-152.197	0.355	-0.026
-734.010	-200.000	-0.048	-0.269
-732.996	-157.011	-0.341	0.021
-731.981	520.719	-0.072	0.168
-730.966	-124.307	-0.192	0.030
-729.952	113.088	-0.124	0.150
-728.937	-174.127	-0.289	-0.008
-727.923	-62.447	0.109	0.045
-726.908	104.514	-0.231	-0.272
-725.894	-37.244	0.184	-0.098
-724.879	421.972	-0.076	-0.164
-723.864	7.822	-0.280	-0.209
-722.850	4.826	-0.262	0.192
-721.835	112.092	0.061	-0.073
-720.821	234.169	-0.149	-0.245
-719.806	732.991	-0.060	-0.161
-718.791	-36.632	-0.290	-0.155
-717.777	8.977	-0.127	-0.095
-716.762	-22.762	0.169	-0.102
-715.748	-200.000	-0.018	0.126
-714.733	628.722	0.110	0.276
-713.718	-145.343	-0.269	0.024
-712.704	96.188	0.281	-0.321
-711.689	49.907	0.050	-0.047
-710.675	800.000	0.059	0.252
-709.660	96.735	-0.215	0.245
-708.645	335.391	-0.108	-0.208
-707.631	-47.737	0.149	0.072
-706.616	161.038	0.043	-0.060
-705.602	27.317	-0.189	-0.159
-704.587	57.046	-0.119	-0.115
-703.572	-192.313	-0.536	0.005
-702.558	-37.403	-0.216	-0.115
-701.543	4.289	0.182	-0.133
-700.529	-105.906	-0.328	0.074
-699.514	-200.000	-0.025	-0.204
-698.499	662.851	0.067	-0.171
-697.485	68.984	-0.155	-0.159
-696.470	37.135	0.197	-0.174
-695.456	46.241	0.092	-0.085
-694.441	800.000	-0.057	0.226
-693.426	355.929	-0.064	0.128
-692.412	-200.000	-0.046	-0.333
-691.397	-200.000	0.021	-0.255
-690.383	63.800	0.464	-0.464
-689.368	-46.399	-0.298	-0.146
-688.354	525.208	-0.039	-0.092
-687.339	-97.119	-0.272	0.071
-686.324	-141.428	-0.180	0.018
-685.310	137.665	0.097	0.127
-684.295	-116.717	-0.239	0.044
-683.281	-69.799	0.203	-0.077
-682.266	-71.500	-0.090	-0.034
-681.251	192.680	-0.094	0.141
-680.237	-55.516	0.093	0.042
-679.222	65.878	-0.053	-0.054
-678.208	-145.160	-0.291	0.026
-677.193	9.056	-0.033	-0.025
-676.178	268.643	-0.075	0.132
-675.164	83.849	0.048	-0.052
-674.149	-83.584	-0.085	0.027
-673.135	800.000	0.152	-0.458
-672.120	65.305	-0.176	-0.178
-671.105	-21.954	-0.363	-0.220
-670.091	-85.674	-0.284	0.088
-669.076	-200.000	0.076	0.370
-668.062	800.000	-0.125	-0.361
-667.047	-200.000	0.044	-0.314
-666.032	-178.349	0.369	-0.009
-665.018	-67.767	-0.428	-0.167
-664.003	-200.000	0.023	0.113
-662.989	-151.045	0.137	0.010
-661.974	-48.037	0.254	-0.122
-660.959	136.095	-0.299	-0.389
-659.945	581.570	-0.085	-0.209
-658.930	800.000	0.110	-0.389
-657.916	-42.834	-0.132	0.067
-656.901	-158.414	-0.324	-0.019
-655.886	226.320	-0.168	0.272
-654.872	118.198	0.082	-0.100
-653.857	40.545	-0.117	-0.105
-652.843	-200.000	0.108	0.000
-651.828	-41.776	0.119	-0.061
-650.814	-200.000	-0.038	-0.174
-649.799	232.440	0.165	-0.269
-648.784	287.981	-0.043	-0.077
-647.770	-101.155	0.161	-0.039
-646.755	800.000	-0.098	-0.348
-645.741	800.000	0.129	-0.374
-644.726	-84.627	-0.302	0.095
-643.711	-144.671	0.295	0.027
-642.697	-200.000	-0.006	0.228
-641.682	-101.372	-0.098	-0.024
-640.668	-200.000	-0.082	0.470
-639.653	229.284	0.104	0.169
-638.638	12.369	-0.296	-0.227
-637.624	-75.828	-0.115	-0.041
-636.609	-10.682	-0.050	-0.033
-635.595	31.715	-0.075	-0.064
-634.580	-200.000	-0.049	-0.263
-633.565	107.502	0.054	0.064
-632.551	800.000	-0.015	0.041
-631.536	-152.877	-0.318	-0.022
-630.522	-200.000	-0.003	-0.017
-629.507	-139.655	-0.077	0.008
-628.492	-99.351	0.295	0.074
-627.478	55.522	-0.224	-0.216
-626.463	-137.038	0.141	0.016
-625.449	-200.000	0.068	0.370
-624.434	-89.130	0.227	-0.067
-623.419	341.212	-0.155	-0.301
-622.405	-28.888	-0.065	-0.037
-621.390	-200.000	-0.051	-0.348
-620.376	-44.837	0.103	-0.051
-619.361	-200.000	-0.004	-0.032
-618.346	-200.000	-0.064	-0.282
-617.332	-112.628	0.379	-0.075
-616.317	-32.508	-0.204	0.113
-615.303	534.567	0.117	0.275
-614.288	-114.061	-0.091	0.018
-613.273	37.021	0.267	-0.235
-612.259	-64.353	-0.184	0.075
-611.244	-75.697	-0.344	0.121
-610.230	-63.962	-0.301	-0.122
-609.215	800.000	-0.061	-0.250
-608.201	-200.000	0.690	0.002
-607.186	128.898	-0.123	-0.156
-606.171	-50.942	0.127	0.059
-605.157	-200.000	0.049	-0.313
-604.142	-69.606	0.467	-0.178
-603.128	-139.546	-0.130	-0.014
-602.113	-200.000	0.006	0.062
-601.098	-200.000	0.034	-0.354
-600.084	-144.373	-0.193	-0.018
-599.069	-200.000	-0.010	0.141
-598.055	141.780	0.141	0.185
-597.040	-0.039	-0.108	-0.076
-596.025	-200.000	-0.021	-0.331
-595.011	596.641	0.007	0.018
-593.996	379.920	0.118	0.241
-592.982	-123.936	0.141	-0.022
-591.967	-28.808	-0.338	0.193
-590.952	-86.944	0.213	-0.064
-589.938	-10.652	0.132	0.087
-588.923	27.526	0.116	0.097
-587.909	-69.393	0.157	0.060
-586.894	-200.000	-0.060	-0.275
-585.879	152.211	-0.021	0.029
-584.865	-153.217	-0.252	-0.017
-583.850	-141.963	0.222	0.022
-582.836	-70.823	0.304	-0.114
-581.821	45.668	0.046	-0.043
-580.806	-200.000	-0.027	-0.309
-579.792	96.998	-0.079	-0.090
-578.777	176.523	0.199	0.287
-577.763	-147.012	0.194	0.016
-576.748	-123.874	0.189	-0.030
-575.733	-200.000	-0.018	0.137
-574.719	-16.905	-0.060	-0.038
-573.704	-58.888	0.329	-0.141
-572.690	34.625	-0.127	0.110
-571.675	146.635	-0.190	0.253
-570.661	-1.475	0.395	0.277
-569.646	51.494	-0.258	-0.243
-568.631	239.906	-0.062	-0.102
-567.617	392.236	-0.035	0.072
-566.602	293.596	0.093	0.169
-565.588	-200.000	-0.004	0.096
-564.573	-200.000	-0.036	0.213
-563.558	-200.000	-0.010	0.305
-562.544	-53.570	-0.108	0.049
-561.529	317.650	-0.257	-0.482
-560.515	440.430	0.096	0.208
-559.500	-200.000	-0.080	-0.424
-558.485	-200.000	-0.008	0.131
-557.471	233.941	-0.080	0.131
-556.456	377.666	-0.067	-0.135
-555.442	122.859	-0.133	-0.165
-554.427	-51.127	0.075	-0.035
-553.412	339.284	0.076	-0.147
-552.398	170.413	-0.149	0.212
-551.383	-155.388	0.157	0.010
-550.369	42.964	-0.181	-0.164
-549.354	-119.349	-0.045	-0.008
-548.339	-40.874	0.145	-0.074
-547.325	9.434	0.223	-0.167
-546.310	461.398	-0.089	-0.197
-545.296	-200.000	0.006	-0.124
-544.281	122.475	-0.087	0.107
-543.266	33.448	-0.186	0.160
-542.252	69.075	0.180	0.184
-541.237	5.437	-0.160	0.117
-540.223	-101.884	0.277	0.066
-539.208	-164.952	0.118	0.005
-538.193	-200.000	0.013	-0.138
-537.179	-80.175	-0.321	-0.106
-536.164	597.965	-0.035	0.086
-535.150	-11.357	-0.023	-0.015
-534.135	800.000	0.052	-0.147
-533.121	519.729	0.046	0.106
-532.106	-115.207	-0.029	0.005
-531.091	-200.000	-0.041	0.222
-530.077	-52.002	0.177	-0.082
-529.062	-46.317	-0.356	-0.174
-528.048	800.000	-0.057	-0.189
-527.033	-53.062	-0.117	0.053
-526.018	-100.541	-0.162	0.040
-525.004	788.603	-0.009	0.024
-523.989	-38.574	0.185	-0.097
-522.975	-17.124	-0.175	-0.109
-521.960	-200.000	0.004	0.246
-520.945	-16.218	0.124	0.078
-519.931	-117.187	-0.072	0.013
-518.916	-200.000	0.007	-0.046
-517.902	669.058	-0.125	0.320
-516.887	-96.400	-0.293	0.077
-515.872	-76.489	-0.185	0.064
-514.858	800.000	0.032	-0.102
-513.843	-93.206	-0.179	0.049
-512.829	472.824	-0.094	0.209
-511.814	107.445	-0.110	-0.130
-510.799	-140.588	-0.221	-0.023
-509.785	117.846	0.176	-0.215
-508.770	-138.341	0.167	-0.018
-507.756	-59.700	-0.218	-0.092
-506.741	226.226	0.038	-0.061
-505.726	-70.903	-0.155	0.058
-504.712	800.000	-0.136	0.383
-503.697	-200.000	0.037	0.184
-502.683	506.069	0.148	-0.340
-501.668	-200.000	-0.013	-0.303
-500.653	800.000	0.111	0.306
-499.639	-40.391	-0.335	0.172
-498.624	-200.000	0.079	-0.364
-497.610	-95.273	0.089	-0.024
-496.595	-94.861	0.058	0.016
-495.581	800.000	-0.060	0.224
-494.566	-135.056	0.162	-0.019
-493.551	15.266	0.116	-0.090
-492.537	168.270	0.073	-0.103
-491.522	800.000	0.095	0.354
-490.508	156.750	0.145	-0.198
-489.493	-200.000	0.026	0.140
-488.478	47.093	0.145	0.133
-487.464	-200.000	0.027	-0.322
-486.449	-133.581	0.512	0.063
-485.435	165.413	-0.243	-0.339
-484.420	-106.612	-0.243	-0.054
-483.405	-129.174	0.284	-0.039
-482.391	-133.280	-0.196	-0.024
-481.376	17.469	-0.196	0.154
-480.362	5.424	-0.129	0.094
-479.347	85.840	0.057	0.063
-478.332	224.191	0.107	0.171
-477.318	-81.228	0.179	0.058
-476.303	-165.014	-0.519	-0.023
-475.289	101.633	-0.076	0.088
-474.274	164.843	-0.148	-0.206
-473.259	-200.000	0.033	0.150
-472.245	89.999	-0.075	-0.083
-471.230	-200.000	0.021	0.097
-470.216	12.280	0.270	0.206
-469.201	-112.419	-0.087	0.017
-468.186	131.297	0.169	0.215
-467.172	374.608	-0.132	0.266
-466.157	3.978	-0.258	0.186
-465.143	-200.000	-0.035	-0.166
-464.128	800.000	-0.016	0.059
-463.113	-149.172	-0.184	-0.015
-462.099	-178.646	0.399	-0.009
-461.084	-200.000	-0.005	-0.189
-460.070	-200.000	0.004	-0.026
-459.055	-130.234	-0.188	0.025
-458.040	295.570	0.078	0.142
-457.026	-84.022	-0.216	-0.068
-456.011	-148.247	0.155	-0.013
-454.997	-200.000	0.009	-0.077
-453.982	800.000	0.036	-0.100
-452.968	-200.000	-0.009	0.325
-451.953	143.927	0.088	0.116
-450.938	-88.314	-0.210	0.062
-449.924	-27.851	-0.271	-0.155
-448.909	-44.890	0.243	-0.119
-447.895	-189.307	-0.318	-0.004
-446.880	-94.143	-0.351	0.095
-445.865	140.551	-0.188	0.246
-444.851	-9.167	-0.349	0.230
-443.836	800.000	0.144	-0.464
-442.822	-82.625	-0.270	-0.086
-441.807	-8.237	-0.184	0.122
-440.792	18.635	-0.037	-0.030
-439.778	179.468	0.323	0.468
-438.763	10.996	0.281	0.212
-437.749	-5.658	-0.298	-0.201
-436.734	96.588	0.160	-0.181
-435.719	-200.000	-0.030	0.167
-434.705	-120.679	0.416	-0.069
-433.690	425.048	0.016	0.034
-432.676	-163.193	0.359	-0.017
-431.661	437.973	-0.122	-0.263
-430.646	-94.204	0.222	0.060
-429.632	-77.625	-0.199	0.068
-428.617	66.370	-0.225	-0.226
-427.603	76.401	-0.058	-0.060
-426.588	-55.698	-0.251	-0.111
-425.573	-174.297	-0.302	0.009
-424.559	-200.000	0.018	-0.280
-423.544	77.043	0.204	-0.214
-422.530	-56.854	-0.283	0.124
-421.515	-52.041	-0.259	-0.118
-420.500	-170.158	0.183	0.006
-419.486	-188.998	0.337	-0.004
-418.471	-135.870	-0.130	0.015
-417.457	110.092	-0.158	-0.187
-416.442	-102.370	-0.273	-0.065
-415.428	10.563	0.038	0.028
-414.413	800.000	-0.019	-0.066
-413.398	-200.000	0.046	-0.317
-412.384	56.394	0.245	0.235
-411.369	-87.627	-0.140	0.042
-410.355	-200.000	0.007	0.090
-409.340	5.475	0.196	0.143
-408.325	800.000	-0.076	0.316
-407.311	225.189	-0.180	-0.287
-406.296	61.949	0.069	0.068
-405.282	32.353	0.172	-0.146
-404.267	678.334	0.111	0.284
-403.252	-1.846	0.225	0.156
-402.238	-200.000	-0.025	-0.136
-401.223	-109.769	0.191	0.040
-400.209	62.601	0.236	-0.233
-399.194	-28.478	-0.166	-0.094
-398.179	-200.000	0.085	-0.468
-397.165	603.919	-0.085	0.208
-396.150	-200.000	0.012	0.142
-395.136	624.425	-0.044	-0.109
-394.121	800.000	0.044	0.172
-393.106	-175.720	-0.252	0.007
-392.092	-158.777	0.110	-0.006
-391.077	108.366	0.189	-0.222
-390.063	136.271	0.064	-0.082
-389.048	-117.839	-0.458	0.081
-388.033	332.094	0.272	0.518
-387.019	-21.848	-0.163	-0.098
-386.004	229.443	0.082	-0.132
-384.990	397.244	-0.089	-0.184
-383.975	314.737	-0.137	0.255
-382.960	190.991	0.153	0.227
-381.946	368.023	-0.074	-0.148
-380.931	184.980	0.047	-0.068
-379.917	514.276	-0.074	-0.171
-378.902	197.644	0.080	-0.120
-377.888	42.257	0.171	0.153
-376.873	-6.343	0.211	-0.142
-375.858	-61.568	0.043	-0.018
-374.844	202.557	0.013	0.020
-373.829	436.755	0.172	0.369
-372.815	-88.749	0.209	0.061
-371.800	-200.000	0.017	-0.261
-370.785	-200.000	-0.057	-0.518
-369.771	-200.000	0.008	0.082
-368.756	-200.000	0.040	0.283
-367.742	-43.669	0.375	-0.186
-366.727	-12.161	-0.259	-0.167
-365.712	-40.597	0.059	-0.030
-364.698	189.171	-0.101	0.149
-363.683	-200.000	0.013	-0.355
-362.669	58.660	-0.068	-0.066
-361.654	-27.984	-0.251	0.143
-360.639	-140.885	0.268	0.027
-359.625	184.057	-0.113	-0.164
-358.610	89.351	-0.199	-0.218
-357.596	-68.961	0.226	0.086
-356.581	24.610	-0.039	-0.031
-355.566	535.878	0.022	0.051
-354.552	-200.000	-0.014	-0.097
-353.537	-104.557	-0.093	0.021
-352.523	288.559	0.067	-0.120
-351.508	-117.821	-0.129	-0.023
-350.493	-95.249	-0.193	0.051
-349.479	-200.000	-0.000	0.115
-348.464	99.316	-0.231	0.263
-347.450	208.407	0.275	0.423
-346.435	-84.859	-0.100	-0.031
-345.420	-73.758	-0.084	0.030
-344.406	800.000	-0.078	-0.301
-343.391	267.037	-0.106	0.182
-342.377	800.000	0.050	-0.175
-341.362	-47.339	-0.223	-0.107
-340.348	20.670	-0.173	-0.138
-339.333	-162.003	-0.035	-0.002
-338.318	69.304	0.204	-0.207
-337.304	-10.834	-0.176	-0.115
-336.289	253.795	0.081	0.136
-335.275	-65.696	0.220	-0.087
-334.260	9.302	0.124	-0.092
-333.245	-49.609	-0.189	0.088
-332.231	61.474	0.079	0.077
-331.216	-95.131	0.129	-0.034
-330.202	297.569	0.064	0.115
-329.187	57.408	-0.125	0.120
-328.172	79.516	0.229	0.241
-327.158	-184.232	0.276	0.004
-326.143	-88.687	-0.283	-0.083
-325.129	60.163	-0.179	-0.174
-324.114	-4.184	0.093	-0.064
-323.099	183.639	-0.063	0.092
-322.085	-27.442	0.164	-0.094
-321.070	-200.000	0.012	-0.162
-320.056	-88.453	0.048	-0.014
-319.041	-200.000	-0.041	0.216
-318.026	277.942	-0.089	-0.155
-317.012	404.307	0.056	-0.116
-315.997	-57.195	0.258	0.112
-314.983	800.000	0.074	-0.303
-313.968	-130.485	0.337	-0.045
-312.953	-200.000	-0.007	0.209
-311.939	48.854	0.296	0.273
-310.924	-25.783	0.115	0.066
-309.910	302.817	-0.051	-0.093
-308.895	203.372	0.188	0.285
-307.880	-200.000	-0.033	0.292
-306.866	-200.000	-0.002	-0.153
-305.851	39.919	-0.134	-0.118
-304.837	800.000	0.024	-0.067
-303.822	-69.594	-0.179	0.067
-302.807	-30.631	0.132	-0.073
-301.793	-129.244	0.194	-0.027
-300.778	-146.860	0.166	-0.014
-299.764	-200.000	0.010	-0.052
-298.749	322.687	0.026	-0.049
-297.735	241.057	-0.086	-0.141
-296.720	-2.066	-0.092	0.064
-295.705	-200.000	0.064	-0.290
-294.691	800.000	-0.048	0.204
-293.676	181.681	-0.099	-0.143
-292.662	-80.723	0.126	0.041
-291.647	-177.499	-0.062	0.001
-290.632	1.415	0.427	-0.301
-289.618	-200.000	-0.083	0.428
-288.603	155.205	0.092	0.124
-287.589	-200.000	-0.007	-0.099
-286.574	663.641	-0.090	0.227
-285.559	252.894	0.100	0.167
-284.545	-138.392	0.362	0.039
-283.530	800.000	-0.086	-0.282
-282.516	240.596	-0.042	-0.068
-281.501	79.131	0.355	-0.373
-280.486	-200.000	0.049	-0.213
-279.472	800.000	0.085	0.238
-278.457	-200.000	-0.034	0.171
-277.443	31.830	-0.037	0.032
-276.428	-27.694	0.108	0.062
-275.413	22.617	0.169	-0.136
-274.399	-200.000	-0.002	-0.317
-273.384	-200.000	0.006	-0.075
-272.370	-144.705	0.286	-0.026
-271.355	-104.941	-0.341	0.077
-270.340	-200.000	0.002	0.120
-269.326	185.477	0.159	-0.232
-268.311	42.651	-0.057	-0.051
-267.297	604.106	0.091	0.222
-266.282	157.772	0.131	-0.178
-265.267	112.781	-0.257	0.305
-264.253	52.796	0.166	0.156
-263.238	108.360	-0.310	0.362
-262.224	-200.000	-0.030	-0.268
-261.209	-117.813	0.363	-0.064
-260.195	5.978	-0.153	-0.111
-259.180	-50.873	0.138	0.063
-258.165	22.477	0.048	0.038
-257.151	-200.000	-0.066	0.422
-256.136	101.885	-0.208	0.238
-255.122	-112.986	-0.120	0.023
-254.107	428.867	0.152	0.321
-253.092	-68.236	-0.210	-0.080
-252.078	656.405	-0.041	-0.103
-251.063	624.688	0.092	0.226
-250.049	111.804	-0.135	-0.159
-249.034	-63.614	-0.151	0.061
-248.019	800.000	-0.067	-0.240
-247.005	-165.969	-0.266	-0.011
-245.990	692.678	-0.053	0.135
-244.976	-78.218	-0.102	0.034
-243.961	-51.195	-0.160	0.074
-242.946	-51.764	0.175	-0.080
-241.932	99.202	0.191	0.216
-240.917	-200.000	0.025	0.182
-239.903	-200.000	-0.002	0.078
-238.888	117.929	-0.147	-0.177
-237.873	800.000	-0.091	-0.260
-236.859	50.484	0.153	0.141
-235.844	-200.000	-0.017	-0.192
-234.830	800.000	0.075	-0.248
-233.815	-179.571	-0.279	0.006
-232.800	12.088	0.257	0.194
-231.786	-125.229	-0.253	0.038
-230.771	43.630	-0.141	0.127
-229.757	-73.512	0.318	0.114
-228.742	136.091	0.100	0.127
-227.727	-39.992	0.114	-0.058
-226.713	-78.902	0.140	0.047
-225.698	-30.811	-0.462	0.256
-224.684	-82.099	0.206	0.066
-223.669	-200.000	0.018	-0.248
-222.655	-28.536	0.227	0.128
-221.640	-90.437	-0.060	-0.017
-220.625	300.705	0.145	-0.263
-219.611	-51.976	-0.112	-0.051
-218.596	-31.244	0.319	-0.176
-217.582	405.221	-0.079	0.162
-216.567	-153.743	0.212	0.014
-215.552	-117.512	-0.341	-0.060
-214.538	131.393	0.094	0.118
-213.523	-200.000	0.044	0.227
-212.509	-128.572	-0.363	-0.050
-211.494	-64.701	0.318	-0.126
-210.479	25.296	-0.053	0.043
-209.465	20.122	0.116	0.092
-208.450	800.000	-0.115	0.409
-207.436	-46.573	0.068	-0.033
-206.421	514.224	-0.068	0.154
-205.406	93.274	-0.175	0.193
-204.392	-4.210	0.230	-0.155
-203.377	-101.604	-0.043	-0.010
-202.363	68.345	-0.249	0.249
-201.348	253.064	0.104	-0.174
-200.333	273.609	-0.130	0.224
-199.319	-59.602	-0.346	0.145
-198.304	176.141	0.114	-0.162
-197.290	-125.356	-0.181	0.027
-196.275	28.380	-0.246	0.203
-195.260	-200.000	0.022	0.105
-194.246	-174.640	-0.160	0.004
-193.231	54.296	-0.233	-0.219
-192.217	249.340	-0.192	0.318
-191.202	-114.854	-0.065	0.012
-190.187	800.000	-0.090	0.261
-189.173	584.497	-0.189	-0.453
-188.158	-109.849	0.106	0.022
-187.144	-67.331	0.185	0.071
-186.129	140.436	0.156	0.201
-185.114	-93.588	-0.238	0.064
-184.100	173.499	0.023	0.032
-183.085	-200.000	-0.045	0.199
-182.071	-109.387	-0.194	0.040
-181.056	81.742	0.133	0.141
-180.042	-200.000	0.018	-0.212
-179.027	3.045	-0.249	0.177
-178.012	-113.350	0.234	-0.045
-176.998	47.166	0.148	0.135
-175.983	800.000	0.034	0.130
-174.969	293.325	-0.058	0.103
-173.954	800.000	0.078	-0.268
-172.939	-64.407	0.265	0.105
-171.925	-20.957	0.011	-0.007
-170.910	-12.666	-0.338	-0.215
-169.896	-164.462	-0.200	-0.009
-168.881	58.264	-0.083	0.079
-167.866	-137.654	0.372	0.041
-166.852	-3.275	-0.308	0.210
-165.837	63.783	0.190	-0.186
-164.823	-60.527	-0.051	-0.021
-163.808	-113.622	0.211	0.040
-162.793	-200.000	-0.026	-0.135
-161.779	-81.346	0.217	-0.070
-160.764	160.427	0.060	-0.082
-159.750	-192.306	0.112	-0.001
-158.735	800.000	-0.044	0.184
-157.720	-200.000	-0.022	0.176
-156.706	-44.213	0.401	-0.197
-155.691	67.166	-0.135	0.135
-154.677	-200.000	-0.041	-0.189
-153.662	-200.000	0.054	-0.293
-152.647	-36.953	0.219	0.115
-151.633	34.749	-0.072	0.062
-150.618	57.525	0.358	-0.342
-149.604	106.356	0.237	0.274
-148.589	25.766	-0.065	0.053
-147.574	-200.000	0.021	-0.168
-146.560	-200.000	0.004	-0.121
-145.545	-82.674	-0.255	-0.081
-144.531	192.899	0.106	0.157
-143.516	278.193	0.225	0.390
-142.502	-171.267	-0.313	0.010
-141.487	250.928	0.202	0.335
-140.472	57.631	0.246	-0.235
-139.458	-103.197	0.294	-0.068
-138.443	-200.000	0.024	0.252
-137.429	-88.469	-0.237	-0.069
-136.414	-200.000	-0.013	0.087
-135.399	-7.325	0.252	-0.166
-134.385	409.383	0.154	0.319
-133.370	-200.000	0.014	0.129
-132.356	-104.123	-0.262	0.060
-131.341	-200.000	-0.007	0.227
-130.326	-200.000	-0.026	0.150
-129.312	372.578	-0.044	0.087
-128.297	-97.506	0.480	0.122
-127.283	633.628	0.062	-0.153
-126.268	-200.000	-0.006	-0.410
-125.253	35.133	0.199	-0.170
-124.239	176.639	0.168	-0.238
-123.224	-81.956	0.255	0.081
-122.210	67.182	0.053	0.053
