DTS Sentinel unit serial number:	SN413079Multiplexer serial number:	ORYXHardware model number:	OX4-SRSoftware version number:	ORYX F/W v4.00 Oryx Data Collector v3.7.2.0data status	okinstallation	princeton_trtdifferential loss correction	single-endedforward channel	channel 3reverse channel	N/Adate	2019/09/14time	12:52:34forward acquisition time	60.00reverse acquisition time	0.00gamma	496.2192k internal	0.2294k external	0.2294temperature offset calibration	1.0070default loss term (dB/km)	0.3790temperature slope calibration	1.0000multiplexer offset coefficient	1.0000multiplexer slope coefficient	1.0000fibre end	0.00T internal ref (°C)	38.00T ext. ref 1 (°C)	4.86T ext. ref 2 (°C)	34.38length (m)	temperature (°C)	Stokes	anti-Stokes-747.200	174.974	0.200	0.296
-746.185	475.441	0.169	0.391
-745.171	-155.301	0.132	0.009
-744.156	-142.962	-0.264	-0.026
-743.142	124.565	-0.054	0.070
-742.127	-65.574	0.006	-0.002
-741.112	360.254	0.078	0.160
-740.098	-200.000	-0.023	0.109
-739.083	-61.650	0.055	0.023
-738.069	-137.738	-0.126	-0.014
-737.054	9.439	0.113	0.087
-736.039	800.000	-0.024	-0.108
-735.025	-46.568	0.136	0.068
-734.010	-200.000	-0.065	0.301
-732.996	-85.438	-0.156	0.050
-731.981	-65.953	-0.090	-0.037
-730.966	315.358	-0.119	-0.229
-729.952	-62.099	0.294	0.125
-728.937	-123.264	-0.324	-0.053
-727.923	-113.270	-0.240	-0.048
-726.908	800.000	0.051	-0.175
-725.894	-6.717	-0.158	-0.110
-724.879	641.178	-0.072	0.188
-723.864	-72.225	-0.159	-0.060
-722.850	85.927	-0.113	-0.127
-721.835	-53.289	0.156	0.073
-720.821	513.133	-0.091	-0.216
-719.806	45.614	0.223	-0.210
-718.791	-6.932	-0.280	-0.195
-717.777	-16.193	-0.126	-0.082
-716.762	140.414	0.017	0.022
-715.748	-60.910	-0.127	0.055
-714.733	-97.938	-0.356	-0.094
-713.718	800.000	0.045	0.129
-712.704	41.435	0.190	0.176
-711.689	-200.000	-0.031	0.205
-710.675	-161.023	-0.416	0.022
-709.660	41.254	0.074	-0.068
-708.645	-61.976	0.063	0.027
-707.631	800.000	-0.006	-0.025
-706.616	-94.646	0.368	0.102
-705.602	-31.015	-0.151	-0.087
-704.587	800.000	0.049	-0.219
-703.572	146.980	0.036	-0.049
-702.558	20.159	-0.358	0.295
-701.543	50.756	-0.123	-0.119
-700.529	-130.937	0.237	0.032
-699.514	181.137	-0.160	-0.240
-698.499	34.798	0.266	-0.237
-697.485	-200.000	-0.014	0.085
-696.470	-200.000	-0.008	-0.347
-695.456	-200.000	-0.008	0.085
-694.441	-61.773	-0.179	-0.076
-693.426	88.939	-0.367	-0.417
-692.412	-27.609	-0.062	0.037
-691.397	-120.136	-0.076	-0.013
-690.383	-165.261	-0.107	-0.005
-689.368	-37.240	0.253	0.138
-688.354	-5.492	-0.146	0.102
-687.339	-161.608	-0.122	-0.006
-686.324	-200.000	0.027	-0.176
-685.310	800.000	0.072	0.287
-684.295	249.482	-0.240	-0.415
-683.281	-54.149	-0.289	0.134
-682.266	122.762	-0.090	0.115
-681.251	237.151	-0.104	-0.176
-680.237	-141.267	0.038	0.004
-679.222	101.392	0.103	0.122
-678.208	-200.000	0.011	0.140
-677.193	-5.526	0.275	0.192
-676.178	-11.282	0.228	-0.153
-675.164	-3.227	-0.201	0.143
-674.149	-62.110	-0.223	0.095
-673.135	113.559	-0.315	-0.390
-672.120	-120.509	-0.420	-0.073
-671.105	800.000	0.075	-0.279
-670.091	-17.739	-0.289	-0.185
-669.076	6.880	-0.119	-0.091
-668.062	-200.000	-0.029	0.263
-667.047	-147.988	0.320	0.027
-666.032	190.928	0.163	0.250
-665.018	-24.944	0.322	-0.195
-664.003	12.858	0.180	-0.142
-662.989	-164.458	0.224	-0.010
-661.974	-200.000	0.002	-0.060
-660.959	-10.311	-0.306	-0.207
-659.945	505.334	-0.096	-0.227
-658.930	800.000	-0.057	-0.204
-657.916	-200.000	-0.024	0.165
-656.901	648.406	0.048	0.124
-655.886	-54.892	0.229	0.105
-654.872	-200.000	-0.001	-0.228
-653.857	-71.341	-0.210	0.080
-652.843	-140.783	-0.265	-0.028
-651.828	170.031	0.315	-0.459
-650.814	-44.630	0.293	-0.149
-649.799	-200.000	0.022	0.273
-648.784	446.509	0.027	-0.061
-647.770	-200.000	0.003	-0.536
-646.755	680.003	-0.132	-0.350
-645.741	-53.846	0.187	-0.087
-644.726	296.720	0.192	0.359
-643.711	-157.118	0.068	-0.004
-642.697	-51.162	0.326	-0.155
-641.682	-200.000	-0.013	-0.061
-640.668	-88.174	0.378	-0.115
-639.653	-200.000	-0.005	-0.160
-638.638	12.046	-0.234	-0.183
-637.624	-200.000	-0.049	0.318
-636.609	-111.421	-0.266	0.055
-635.595	11.184	-0.244	0.190
-634.580	-109.264	-0.211	-0.046
-633.565	388.300	-0.033	0.070
-632.551	55.237	0.151	0.148
-631.536	-125.196	-0.215	-0.033
-630.522	-200.000	-0.040	-0.260
-629.507	-92.745	-0.169	-0.048
-628.492	800.000	-0.053	0.151
-627.478	800.000	0.054	0.164
-626.463	-132.914	-0.127	-0.016
-625.449	336.162	0.093	0.183
-624.434	800.000	0.077	0.273
-623.419	160.559	-0.073	-0.104
-622.405	800.000	-0.081	0.232
-621.390	-97.877	-0.132	0.035
-620.376	333.937	-0.031	0.061
-619.361	-120.210	0.141	0.025
-618.346	-200.000	0.028	0.176
-617.332	-62.574	0.404	0.171
-616.317	-200.000	-0.011	-0.060
-615.303	-161.676	0.132	0.007
-614.288	254.842	-0.074	0.130
-613.273	800.000	-0.032	-0.093
-612.259	-200.000	0.028	-0.303
-611.244	-27.439	0.103	0.061
-610.230	-60.846	-0.212	-0.091
-609.215	271.850	0.136	0.244
-608.201	-97.492	-0.136	0.036
-607.186	-3.502	-0.204	-0.144
-606.171	800.000	-0.053	-0.228
-605.157	800.000	0.094	-0.323
-604.142	800.000	-0.064	0.246
-603.128	169.545	0.162	-0.235
-602.113	-121.651	0.077	-0.013
-601.098	551.962	-0.105	-0.256
-600.084	-13.783	0.259	0.170
-599.069	-70.349	0.107	0.041
-598.055	800.000	0.056	0.173
-597.040	-56.458	-0.205	-0.092
-596.025	-43.427	-0.070	0.036
-595.011	-115.774	-0.285	-0.054
-593.996	-72.902	0.287	-0.107
-592.982	-99.662	0.192	0.049
-591.967	-102.420	-0.155	-0.038
-590.952	192.924	-0.145	0.222
-589.938	-145.130	-0.117	0.011
-588.923	244.537	0.092	-0.158
-587.909	-200.000	-0.000	-0.046
-586.894	4.936	-0.268	0.200
-585.879	-99.687	0.282	-0.072
-584.865	13.937	0.261	0.207
-583.850	800.000	-0.135	-0.412
-582.836	413.896	-0.078	-0.168
-581.821	92.235	0.169	0.194
-580.806	800.000	-0.020	0.076
-579.792	-200.000	0.019	-0.221
-578.777	-20.473	-0.226	0.141
-577.763	-200.000	0.014	-0.103
-576.748	-119.985	-0.222	0.039
-575.733	466.513	-0.154	0.350
-574.719	-172.998	-0.200	0.006
-573.704	-154.886	0.296	0.020
-572.690	245.535	0.100	0.171
-571.675	-200.000	0.008	0.103
-570.661	-98.105	-0.190	-0.050
-569.646	-200.000	0.054	-0.268
-568.631	-200.000	-0.058	-0.293
-567.617	17.097	0.265	-0.214
-566.602	513.351	-0.084	0.198
-565.588	52.019	0.138	-0.133
-564.573	231.194	-0.066	-0.109
-563.558	-190.724	0.428	-0.005
-562.544	98.546	-0.064	0.075
-561.529	779.280	-0.066	-0.184
-560.515	800.000	0.021	-0.086
-559.500	-165.516	-0.386	-0.017
-558.485	-68.909	0.191	-0.075
-557.471	-195.992	-0.307	0.002
-556.456	-140.395	0.195	0.021
-555.442	-127.295	-0.117	0.017
-554.427	372.295	-0.114	0.236
-553.412	-200.000	0.044	0.258
-552.398	-80.332	0.200	0.068
-551.383	800.000	0.024	-0.106
-550.369	120.791	0.147	-0.186
-549.354	-109.724	-0.257	-0.055
-548.339	800.000	0.046	-0.153
-547.325	-200.000	0.023	-0.158
-546.310	-130.902	0.233	-0.032
-545.296	312.053	0.028	0.053
-544.281	351.942	-0.030	-0.061
-543.266	39.228	0.287	0.260
-542.252	302.533	0.012	-0.023
-541.237	-200.000	-0.022	-0.298
-540.223	54.077	0.238	-0.232
-539.208	-9.241	-0.083	-0.056
-538.193	2.489	0.199	0.146
-537.179	-4.292	-0.026	-0.018
-536.164	-200.000	-0.064	0.294
-535.150	-182.348	-0.306	0.006
-534.135	761.379	-0.061	-0.167
-533.121	216.068	-0.090	-0.145
-532.106	-40.013	0.359	0.190
-531.091	-12.631	-0.134	0.089
-530.077	129.162	-0.259	-0.336
-529.062	-165.159	-0.275	-0.012
-528.048	-28.699	-0.129	0.076
-527.033	500.739	-0.024	-0.055
-526.018	195.611	0.201	0.310
-525.004	800.000	-0.059	0.226
-523.989	-146.441	-0.123	-0.011
-522.975	800.000	-0.100	-0.389
-521.960	16.205	0.237	-0.190
-520.945	374.974	-0.096	0.198
-519.931	-200.000	0.044	0.267
-518.916	42.572	0.131	0.121
-517.902	-200.000	0.027	0.524
-516.887	-161.632	0.192	-0.010
-515.872	121.770	-0.038	-0.048
-514.858	-54.955	0.141	0.064
-513.843	-131.392	-0.377	-0.051
-512.829	344.249	-0.088	-0.175
-511.814	-62.591	-0.011	-0.005
-510.799	-200.000	0.049	-0.262
-509.785	-200.000	0.051	0.256
-508.770	800.000	-0.075	0.258
-507.756	800.000	0.068	-0.206
-506.741	-11.134	0.118	0.079
-505.726	-200.000	0.042	-0.223
-504.712	2.993	-0.172	0.127
-503.697	800.000	-0.032	-0.096
-502.683	-87.842	-0.364	-0.111
-501.668	119.820	-0.107	-0.135
-500.653	219.212	0.154	-0.250
-499.639	-113.308	-0.381	-0.076
-498.624	145.874	0.161	0.218
-497.610	192.347	-0.142	0.216
-496.595	111.977	0.036	-0.044
-495.581	10.193	0.163	0.125
-494.566	800.000	0.023	0.093
-493.551	-21.495	0.249	0.154
-492.537	794.412	0.179	0.500
-491.522	204.855	-0.109	-0.171
-490.508	-200.000	0.005	-0.041
-489.493	-200.000	0.042	-0.203
-488.478	-95.335	0.370	-0.101
-487.464	800.000	0.093	0.368
-486.449	-200.000	-0.023	-0.140
-485.435	363.154	0.148	0.300
-484.420	-113.084	-0.132	-0.026
-483.405	50.660	-0.103	-0.099
-482.391	800.000	0.135	-0.491
-481.376	50.912	-0.212	-0.203
-480.362	-102.967	-0.216	-0.052
-479.347	-200.000	-0.096	-0.480
-478.332	800.000	-0.064	0.191
-477.318	-48.804	-0.495	0.240
-476.303	91.502	-0.087	-0.099
-475.289	-108.847	-0.102	-0.022
-474.274	-134.565	0.200	0.025
-473.259	-108.770	-0.134	-0.029
-472.245	-78.335	0.292	0.101
-471.230	-57.683	0.197	-0.087
-470.216	-38.970	-0.516	-0.275
-469.201	-115.782	-0.066	-0.013
-468.186	800.000	0.067	0.245
-467.172	-30.365	0.292	0.168
-466.157	-200.000	0.020	0.123
-465.143	352.597	0.053	-0.105
-464.128	-109.647	0.053	-0.011
-463.113	176.954	0.052	-0.076
-462.099	-127.988	-0.305	0.044
-461.084	-7.565	0.226	-0.155
-460.070	150.683	-0.262	-0.360
-459.055	318.307	-0.297	-0.569
-458.040	-2.608	-0.528	-0.374
-457.026	-147.515	-0.144	-0.012
-456.011	41.191	0.251	0.230
-454.997	-80.569	0.082	0.028
-453.982	84.230	0.209	-0.232
-452.968	-200.000	-0.019	0.091
-451.953	186.059	-0.070	-0.106
-450.938	-67.376	0.352	-0.140
-449.924	116.894	-0.163	0.202
-448.909	274.024	0.150	0.268
-447.895	379.038	-0.101	0.209
-446.880	-120.593	-0.249	0.043
-445.865	360.925	-0.226	0.458
-444.851	364.303	0.118	0.241
-443.836	-71.011	0.071	0.027
-442.822	746.186	0.167	-0.453
-441.807	-200.000	0.009	0.282
-440.792	134.535	-0.174	0.228
-439.778	-200.000	0.022	-0.416
-438.763	800.000	-0.051	-0.201
-437.749	134.043	0.027	-0.035
-436.734	-57.429	-0.226	-0.100
-435.719	-100.038	0.075	0.019
-434.705	-102.047	0.202	-0.049
-433.690	360.283	0.085	0.172
-432.676	-200.000	0.007	-0.245
-431.661	-96.713	0.089	-0.024
-430.646	260.630	-0.121	-0.212
-429.632	307.235	-0.204	-0.383
-428.617	-45.602	-0.147	0.074
-427.603	-50.436	0.054	0.026
-426.588	-55.468	0.201	0.091
-425.573	-36.395	0.299	0.163
-424.559	-200.000	0.050	0.294
-423.544	266.616	0.145	0.256
-422.530	93.317	0.226	0.258
-421.515	679.878	-0.078	-0.206
-420.500	47.133	0.207	0.194
-419.486	-92.171	-0.098	0.028
-418.471	437.213	-0.050	-0.111
-417.457	-162.377	0.267	-0.013
-416.442	-19.149	0.299	0.187
-415.428	-200.000	0.015	0.137
-414.413	800.000	0.032	-0.111
-413.398	-106.359	-0.121	-0.027
-412.384	800.000	0.047	-0.187
-411.369	215.456	0.106	0.170
-410.355	-200.000	0.045	0.246
-409.340	-24.091	0.203	0.122
-408.325	333.250	0.025	0.048
-407.311	-200.000	0.002	0.042
-406.296	-37.003	0.127	-0.069
-405.282	-200.000	-0.011	0.321
-404.267	20.674	0.236	0.193
-403.252	-200.000	-0.002	-0.011
-402.238	-6.747	0.282	0.194
-401.223	-108.512	-0.430	0.093
-400.209	176.505	-0.079	0.115
-399.194	-200.000	-0.000	0.178
-398.179	535.252	-0.091	-0.217
-397.165	800.000	-0.044	0.131
-396.150	-143.163	0.260	0.025
-395.136	402.411	-0.051	0.108
-394.121	9.444	-0.430	-0.328
-393.106	415.312	-0.156	0.335
-392.092	-200.000	-0.068	-0.307
-391.077	85.714	-0.203	0.225
-390.063	30.027	-0.065	0.056
-389.048	-5.304	0.196	0.136
-388.033	-200.000	0.030	-0.154
-387.019	10.902	-0.146	-0.112
-386.004	420.039	-0.206	0.444
-384.990	-135.851	0.324	-0.039
-383.975	79.267	-0.106	-0.115
-382.960	-200.000	0.018	-0.215
-381.946	-200.000	0.002	-0.230
-380.931	162.538	0.125	0.176
-379.917	-36.207	-0.102	-0.055
-378.902	177.631	0.147	0.216
-377.888	159.777	0.128	0.180
-376.873	14.507	0.162	-0.128
-375.858	800.000	0.077	0.299
-374.844	-200.000	0.011	0.177
-373.829	164.306	0.275	0.391
-372.815	-200.000	0.015	0.154
-371.800	-179.440	-0.125	-0.003
-370.785	-73.983	0.138	0.050
-369.771	581.153	-0.086	0.212
-368.756	237.947	-0.054	-0.090
-367.742	-3.320	0.225	-0.158
-366.727	-178.662	-0.140	0.003
-365.712	-49.329	-0.264	-0.127
-364.698	-13.240	0.291	0.191
-363.683	-65.821	-0.245	-0.099
-362.669	39.274	-0.169	0.152
-361.654	-200.000	0.024	0.191
-360.639	-111.463	-0.107	0.022
-359.625	584.468	-0.124	-0.308
-358.610	64.745	-0.041	-0.042
-357.596	248.305	-0.181	-0.308
-356.581	-12.610	-0.019	0.013
-355.566	800.000	-0.051	-0.149
-354.552	-141.117	-0.119	0.012
-353.537	800.000	0.019	0.077
-352.523	800.000	-0.044	0.192
-351.508	293.372	-0.080	0.147
-350.493	446.812	-0.102	0.227
-349.479	13.408	-0.243	-0.189
-348.464	-10.321	-0.198	0.132
-347.450	-94.516	0.241	-0.066
-346.435	-104.675	-0.068	-0.016
-345.420	-53.321	-0.246	0.113
-344.406	61.770	-0.247	-0.248
-343.391	114.738	0.039	0.048
-342.377	-51.600	0.228	0.107
-341.362	-121.056	-0.130	-0.022
-340.348	136.564	0.248	-0.326
-339.333	-20.830	-0.197	0.122
-338.318	-158.455	-0.224	-0.013
-337.304	204.473	-0.071	-0.111
-336.289	-136.576	-0.371	0.043
-335.275	-43.341	-0.086	-0.044
-334.260	-66.477	-0.134	-0.054
-333.245	800.000	-0.014	0.047
-332.231	465.274	0.205	0.461
-331.216	800.000	0.060	0.259
-330.202	332.181	-0.141	0.273
-329.187	-53.615	-0.121	-0.056
-328.172	616.009	0.036	-0.090
-327.158	445.983	-0.132	-0.292
-326.143	-162.015	0.166	0.008
-325.129	-89.691	-0.116	0.034
-324.114	-200.000	0.102	-0.473
-323.099	-33.781	0.084	-0.047
-322.085	-200.000	0.020	-0.263
-321.070	-98.700	0.036	-0.009
-320.056	-89.737	-0.090	0.026
-319.041	800.000	0.035	-0.114
-318.026	25.463	0.061	-0.051
-317.012	345.975	0.085	-0.168
-315.997	223.479	0.180	-0.292
-314.983	487.264	0.074	0.170
-313.968	540.635	-0.131	0.313
-312.953	-93.455	0.284	0.079
-311.939	800.000	-0.074	0.224
-310.924	129.427	0.067	0.086
-309.910	800.000	0.030	-0.097
-308.895	-18.755	0.168	-0.105
-307.880	-143.220	0.232	-0.022
-306.866	-120.701	-0.350	-0.060
-305.851	7.720	-0.176	0.132
-304.837	-135.781	0.176	0.021
-303.822	-36.649	-0.350	-0.189
-302.807	-119.856	-0.376	0.065
-301.793	-69.833	-0.279	-0.107
-300.778	-200.000	0.062	0.300
-299.764	800.000	0.134	-0.374
-298.749	22.627	0.137	-0.113
-297.735	7.905	-0.367	0.276
-296.720	725.057	0.147	0.394
-295.705	126.743	0.247	-0.314
-294.691	-200.000	0.017	-0.360
-293.676	800.000	-0.116	-0.396
-292.662	-78.955	0.283	-0.097
-291.647	24.210	-0.086	0.071
-290.632	-13.394	0.273	0.178
-289.618	66.316	0.472	-0.482
-288.603	145.542	-0.035	-0.047
-287.589	-200.000	0.002	0.148
-286.574	608.397	-0.144	0.362
-285.559	-29.815	-0.191	0.109
-284.545	-96.805	-0.238	0.063
-283.530	-93.555	0.276	-0.077
-282.516	116.674	0.109	0.135
-281.501	247.495	-0.238	0.404
-280.486	233.545	0.181	-0.299
-279.472	326.527	-0.197	-0.378
-278.457	-169.735	0.329	0.012
-277.443	-200.000	-0.021	-0.296
-276.428	414.244	0.122	-0.260
-275.413	525.481	0.076	-0.179
-274.399	326.001	0.144	-0.278
-273.384	-117.379	0.310	-0.056
-272.370	-200.000	0.012	0.164
-271.355	207.658	0.130	0.204
-270.340	217.596	0.121	-0.193
-269.326	-110.274	-0.148	-0.031
-268.311	-99.937	-0.189	-0.047
-267.297	132.515	0.272	-0.353
-266.282	800.000	0.075	-0.252
-265.267	7.762	-0.197	-0.148
-264.253	96.004	-0.194	-0.222
-263.238	1.477	-0.258	-0.187
-262.224	-9.783	0.231	0.154
-261.209	800.000	0.066	-0.270
-260.195	59.016	-0.248	0.245
-259.180	-51.918	0.202	0.094
-258.165	800.000	0.065	0.260
-257.151	71.170	-0.039	-0.040
-256.136	376.521	-0.184	-0.377
-255.122	60.681	-0.198	-0.197
-254.107	-137.629	-0.025	0.003
-253.092	0.302	-0.162	-0.116
-252.078	-200.000	0.016	-0.301
-251.063	-111.047	0.219	-0.045
-250.049	-128.494	0.215	0.031
-249.034	800.000	-0.023	0.095
-248.019	-118.178	0.194	0.035
-247.005	43.776	-0.025	0.023
-245.990	163.835	-0.219	-0.309
-244.976	298.948	-0.041	-0.077
-243.961	178.962	0.039	-0.057
-242.946	46.745	0.018	-0.017
-241.932	49.085	-0.198	0.187
-240.917	-24.572	0.233	0.139
-239.903	-131.892	0.154	0.020
-238.888	4.926	-0.178	-0.131
-237.873	-42.275	-0.104	0.053
-236.859	-200.000	0.040	0.202
-235.844	-120.961	0.265	-0.045
-234.830	-200.000	0.019	0.228
-233.815	-200.000	-0.035	-0.432
-232.800	-200.000	0.009	0.104
-231.786	-200.000	-0.016	0.101
-230.771	-200.000	0.030	-0.193
-229.757	-200.000	-0.040	0.266
-228.742	-54.270	-0.222	-0.101
-227.727	253.679	-0.228	-0.391
-226.713	-95.247	-0.058	-0.016
-225.698	-74.311	-0.098	-0.036
-224.684	-52.751	0.254	0.118
-223.669	-200.000	-0.019	0.198
-222.655	486.992	-0.111	0.254
-221.640	-200.000	0.020	-0.091
-220.625	800.000	-0.162	0.557
-219.611	85.732	0.056	-0.062
-218.596	-151.218	-0.050	-0.004
-217.582	-200.000	0.004	0.119
-216.567	-181.955	-0.274	-0.005
-215.552	800.000	-0.058	-0.253
-214.538	134.036	0.296	-0.384
-213.523	-174.555	-0.370	0.011
-212.509	-170.220	0.244	-0.009
-211.494	-160.370	0.106	-0.006
-210.479	-200.000	-0.019	0.220
-209.465	-88.351	0.295	0.088
-208.450	61.979	0.231	0.230
-207.436	-200.000	0.014	0.125
-206.421	-164.340	0.175	-0.008
-205.406	-136.750	0.066	0.008
-204.392	-60.450	0.205	-0.087
-203.377	85.111	0.077	0.085
-202.363	-97.724	0.184	0.048
-201.348	96.015	-0.034	0.038
-200.333	227.529	0.028	-0.045
-199.319	-148.715	-0.388	-0.032
-198.304	114.589	-0.053	0.064
-197.290	-31.091	-0.129	-0.073
-196.275	-141.706	-0.176	-0.018
-195.260	-91.329	-0.082	0.023
-194.246	-200.000	-0.042	-0.248
-193.231	769.012	0.095	0.259
-192.217	-176.763	0.327	-0.008
-191.202	-104.569	0.308	0.071
-190.187	20.614	0.211	-0.171
-189.173	-124.161	-0.119	0.019
-188.158	-108.186	0.386	0.084
-187.144	31.531	0.111	-0.096
-186.129	-92.529	0.237	0.067
-185.114	-200.000	-0.015	-0.077
-184.100	-162.160	0.109	0.005
-183.085	-200.000	-0.001	0.208
-182.071	-33.287	0.025	-0.014
-181.056	-33.263	0.113	0.063
-180.042	800.000	-0.051	0.185
-179.027	800.000	-0.069	0.232
-178.012	-162.218	0.389	-0.019
-176.998	-101.648	-0.078	0.019
-175.983	-93.819	-0.125	0.034
-174.969	800.000	-0.096	0.290
-173.954	-117.197	-0.221	-0.040
-172.939	-163.516	0.183	0.009
-171.925	-71.375	-0.084	-0.031
-170.910	-78.628	-0.125	0.043
-169.896	800.000	-0.065	-0.257
-168.881	725.536	0.075	0.201
-167.866	-171.694	-0.199	-0.007
-166.852	139.431	0.095	-0.126
-165.837	-106.574	0.230	-0.051
-164.823	18.827	-0.159	-0.128
-163.808	7.235	0.132	0.099
-162.793	-200.000	-0.044	-0.263
-161.779	-9.101	-0.312	0.209
-160.764	-200.000	0.022	0.144
-159.750	-200.000	-0.022	0.503
-158.735	-200.000	-0.047	-0.217
-157.720	-106.426	0.226	-0.050
-156.706	800.000	-0.140	0.440
-155.691	-97.213	-0.221	-0.058
-154.677	139.619	0.152	0.201
-153.662	56.211	0.168	-0.163
-152.647	-200.000	-0.008	0.039
-151.633	40.627	-0.099	-0.089
-150.618	220.972	-0.060	-0.096
-149.604	230.021	0.125	-0.204
-148.589	307.684	0.128	0.239
-147.574	107.609	0.041	-0.048
-146.560	-145.865	-0.196	0.017
-145.545	-47.259	-0.291	-0.141
-144.531	186.299	0.149	0.222
-143.516	-115.164	0.175	0.033
-142.502	-79.113	-0.399	-0.135
-141.487	256.390	0.089	-0.152
-140.472	-200.000	-0.032	0.202
-139.458	-40.632	0.074	-0.038
-138.443	70.809	0.162	-0.168
-137.429	204.273	0.073	-0.113
-136.414	-48.492	-0.090	-0.043
-135.399	800.000	0.018	0.054
-134.385	-60.616	0.447	0.189
-133.370	162.403	0.086	0.121
-132.356	-52.088	0.192	-0.089
-131.341	-117.408	0.343	-0.062
-130.326	232.956	-0.134	-0.220
-129.312	283.775	-0.072	-0.130
-128.297	-200.000	-0.000	0.044
-127.283	228.112	0.061	-0.099
-126.268	-131.696	0.245	0.032
-125.253	-54.221	-0.292	-0.132
-124.239	-171.987	0.263	0.009
-123.224	800.000	-0.044	0.127
