DTS Sentinel unit serial number:	SN413079Multiplexer serial number:	ORYXHardware model number:	OX4-SRSoftware version number:	ORYX F/W v4.00 Oryx Data Collector v3.7.2.0data status	okinstallation	princeton_trtdifferential loss correction	single-endedforward channel	channel 3reverse channel	N/Adate	2019/09/12time	10:14:11forward acquisition time	60.00reverse acquisition time	0.00gamma	496.2192k internal	0.2299k external	0.2299temperature offset calibration	1.0035default loss term (dB/km)	0.3790temperature slope calibration	1.0000multiplexer offset coefficient	1.0000multiplexer slope coefficient	1.0000fibre end	0.00T internal ref (°C)	36.52T ext. ref 1 (°C)	1.86T ext. ref 2 (°C)	33.70length (m)	temperature (°C)	Stokes	anti-Stokes-747.200	18.974	0.192	0.157
-746.185	800.000	-0.140	0.465
-745.171	6.746	0.147	-0.112
-744.156	12.153	0.244	0.192
-743.142	-74.490	-0.453	0.167
-742.127	238.390	-0.046	-0.078
-741.112	59.611	-0.308	0.310
-740.098	430.643	0.100	0.220
-739.083	-20.064	-0.224	-0.141
-738.069	41.626	0.235	0.218
-737.054	189.699	0.061	-0.093
-736.039	-200.000	0.034	0.165
-735.025	-26.554	0.135	-0.081
-734.010	-49.105	-0.376	-0.183
-732.996	800.000	-0.096	0.273
-731.981	800.000	-0.102	-0.309
-730.966	-95.641	-0.334	-0.091
-729.952	-139.778	-0.227	0.025
-728.937	-41.434	0.279	-0.147
-727.923	-0.140	-0.109	0.079
-726.908	-146.776	0.102	0.009
-725.894	-99.434	0.185	0.047
-724.879	390.931	-0.191	0.404
-723.864	212.828	-0.140	0.225
-722.850	-112.460	-0.283	-0.058
-721.835	46.779	0.089	-0.085
-720.821	103.764	-0.249	0.298
-719.806	-130.099	0.259	0.036
-718.791	55.185	-0.273	0.269
-717.777	462.522	0.202	0.459
-716.762	-200.000	-0.008	-0.210
-715.748	-3.305	-0.123	-0.088
-714.733	800.000	-0.087	-0.297
-713.718	194.911	-0.187	-0.289
-712.704	-92.258	-0.126	-0.036
-711.689	-178.265	-0.302	0.007
-710.675	612.545	0.134	0.343
-709.660	-200.000	-0.072	-0.331
-708.645	27.964	-0.172	-0.148
-707.631	110.654	-0.127	0.156
-706.616	442.138	-0.081	0.181
-705.602	-88.424	-0.182	-0.055
-704.587	113.166	-0.163	0.201
-703.572	88.117	0.197	-0.222
-702.558	-31.273	-0.138	0.079
-701.543	87.601	-0.241	-0.272
-700.529	130.146	0.205	0.267
-699.514	-49.119	-0.079	-0.039
-698.499	243.803	-0.228	-0.389
-697.485	800.000	0.027	-0.114
-696.470	25.329	0.169	0.143
-695.456	-200.000	0.004	0.085
-694.441	369.517	-0.039	0.081
-693.426	9.597	0.268	0.207
-692.412	-200.000	-0.014	0.246
-691.397	-51.584	-0.122	-0.058
-690.383	21.966	-0.259	-0.215
-689.368	306.803	0.116	-0.220
-688.354	-145.158	0.120	0.011
-687.339	99.300	-0.115	0.136
-686.324	-70.521	-0.227	0.087
-685.310	299.155	0.046	-0.086
-684.295	-40.622	0.071	0.037
-683.281	800.000	0.035	0.142
-682.266	-136.701	0.073	-0.009
-681.251	-52.313	-0.171	0.081
-680.237	181.872	0.088	-0.132
-679.222	-200.000	0.000	0.174
-678.208	269.345	-0.106	-0.190
-677.193	270.302	-0.127	-0.227
-676.178	-37.726	-0.161	-0.087
-675.164	800.000	0.101	-0.415
-674.149	-89.676	0.272	-0.081
-673.135	469.292	-0.083	0.191
-672.120	-200.000	-0.005	-0.117
-671.105	704.326	-0.055	-0.147
-670.091	190.065	-0.177	0.271
-669.076	-119.174	0.071	0.013
-668.062	-181.187	0.278	0.006
-667.047	-200.000	0.028	0.277
-666.032	-200.000	-0.039	0.347
-665.018	-200.000	-0.014	0.246
-664.003	-200.000	-0.057	-0.256
-662.989	9.093	0.103	-0.079
-661.974	8.147	-0.166	-0.127
-660.959	-73.837	0.280	0.104
-659.945	-200.000	0.064	0.313
-658.930	-86.079	-0.269	0.085
-657.916	175.416	-0.137	-0.202
-656.901	217.781	-0.136	-0.220
-655.886	446.031	-0.095	-0.212
-654.872	-200.000	0.055	0.334
-653.857	-200.000	0.000	0.072
-652.843	-72.501	0.169	0.064
-651.828	-200.000	-0.012	-0.161
-650.814	-200.000	0.020	-0.101
-649.799	353.447	-0.117	0.236
-648.784	800.000	0.033	-0.136
-647.770	373.442	-0.136	-0.282
-646.755	-74.145	-0.177	-0.065
-645.741	53.535	0.179	-0.174
-644.726	158.659	0.157	0.221
-643.711	68.118	-0.217	0.226
-642.697	-174.445	0.220	-0.006
-641.682	86.980	-0.165	0.185
-640.668	-2.966	-0.333	-0.236
-639.653	-200.000	-0.007	-0.189
-638.638	-200.000	-0.032	-0.152
-637.624	68.821	-0.115	0.120
-636.609	38.673	0.062	-0.056
-635.595	224.479	-0.097	-0.159
-634.580	62.173	0.308	0.312
-633.565	-108.201	-0.137	0.030
-632.551	-32.532	0.359	-0.203
-631.536	31.796	-0.299	-0.261
-630.522	559.263	-0.131	0.320
-629.507	107.860	-0.062	0.076
-628.492	-140.710	-0.151	-0.016
-627.478	152.682	-0.153	-0.212
-626.463	-200.000	-0.051	0.272
-625.449	109.304	0.142	-0.173
-624.434	800.000	0.138	0.495
-623.419	-176.978	-0.295	0.008
-622.405	135.527	-0.029	0.039
-621.390	-66.634	-0.116	-0.047
-620.376	-46.465	0.129	-0.064
-619.361	-135.489	-0.147	0.018
-618.346	207.500	-0.160	-0.254
-617.332	800.000	0.062	0.210
-616.317	71.108	0.131	0.138
-615.303	603.044	-0.215	-0.542
-614.288	-186.867	-0.102	0.001
-613.273	122.546	-0.067	0.085
-612.259	-61.812	0.166	0.071
-611.244	351.953	-0.084	0.168
-610.230	160.360	-0.101	0.144
-609.215	-200.000	0.026	0.141
-608.201	-200.000	0.031	-0.189
-607.186	-200.000	0.014	-0.085
-606.171	-200.000	0.026	0.306
-605.157	12.541	0.212	-0.166
-604.142	59.138	-0.283	-0.283
-603.128	51.396	-0.174	-0.167
-602.113	-73.607	-0.143	-0.053
-601.098	-200.000	-0.022	-0.328
-600.084	0.823	0.091	0.066
-599.069	233.399	0.143	0.239
-598.055	171.592	-0.094	0.137
-597.040	126.252	0.126	-0.162
-596.025	-172.961	-0.119	-0.004
-595.011	644.507	0.138	-0.356
-593.996	93.202	-0.155	-0.178
-592.982	-200.000	0.024	0.265
-591.967	-68.990	-0.246	0.096
-590.952	217.791	-0.067	0.109
-589.938	724.491	0.071	0.192
-588.923	-200.000	-0.009	-0.118
-587.909	-84.539	-0.326	-0.104
-586.894	-36.893	-0.298	0.162
-585.879	281.106	-0.129	-0.235
-584.865	800.000	-0.058	0.188
-583.850	64.528	0.135	-0.138
-582.836	586.097	0.143	-0.357
-581.821	-200.000	0.045	-0.356
-580.806	-200.000	0.011	0.054
-579.792	77.691	0.037	0.040
-578.777	327.334	-0.102	-0.199
-577.763	-200.000	-0.032	-0.170
-576.748	204.540	0.078	-0.122
-575.733	-48.720	0.161	-0.078
-574.719	-200.000	0.027	-0.237
-573.704	-105.125	-0.094	-0.022
-572.690	376.794	-0.045	0.094
-571.675	800.000	0.040	-0.153
-570.661	69.702	-0.182	-0.190
-569.646	298.654	0.087	-0.163
-568.631	57.229	-0.168	0.166
-567.617	-14.976	0.105	0.068
-566.602	800.000	0.011	-0.033
-565.588	-200.000	0.001	-0.154
-564.573	-125.342	0.426	0.066
-563.558	43.506	-0.118	0.109
-562.544	177.280	0.054	0.080
-561.529	-162.785	-0.031	-0.002
-560.515	44.024	-0.126	0.117
-559.500	800.000	0.137	0.519
-558.485	-71.488	-0.085	-0.032
-557.471	29.711	0.061	0.052
-556.456	-200.000	0.020	-0.153
-555.442	-90.226	0.414	0.122
-554.427	75.753	0.039	-0.041
-553.412	-200.000	-0.042	-0.198
-552.398	-200.000	-0.092	-0.413
-551.383	-40.077	0.179	-0.095
-550.369	-200.000	0.002	0.010
-549.354	-130.636	0.288	0.039
-548.339	82.688	-0.079	0.087
-547.325	800.000	-0.051	-0.209
-546.310	-136.177	-0.368	0.044
-545.296	422.223	-0.082	0.179
-544.281	576.344	0.125	0.308
-543.266	800.000	0.028	-0.095
-542.252	-200.000	0.000	-0.007
-541.237	176.895	0.163	-0.241
-540.223	23.594	0.306	0.255
-539.208	776.240	0.081	0.223
-538.193	-200.000	0.025	0.228
-537.179	89.539	-0.140	-0.158
-536.164	-66.529	-0.281	0.113
-535.150	69.141	0.246	0.256
-534.135	-25.371	-0.133	-0.080
-533.121	-185.159	0.308	0.005
-532.106	-2.040	-0.077	0.055
-531.091	-15.307	-0.144	-0.093
-530.077	236.483	0.216	-0.361
-529.062	800.000	-0.036	-0.121
-528.048	-43.734	0.109	-0.055
-527.033	243.937	-0.140	0.238
-526.018	-117.047	-0.361	0.067
-525.004	46.779	0.051	-0.048
-523.989	-105.964	-0.345	0.079
-522.975	258.115	-0.093	-0.161
-521.960	424.639	-0.115	-0.251
-520.945	208.800	-0.184	0.292
-519.931	800.000	0.047	0.163
-518.916	98.998	-0.156	-0.182
-517.902	767.881	-0.130	-0.358
-516.887	-200.000	0.027	0.150
-515.872	-157.478	0.098	-0.006
-514.858	7.127	0.298	-0.225
-513.843	-200.000	0.039	0.176
-512.829	-200.000	-0.015	-0.204
-511.814	459.296	-0.158	0.356
-510.799	800.000	-0.037	0.131
-509.785	-200.000	0.006	-0.154
-508.770	345.656	0.066	-0.131
-507.756	-17.169	-0.010	0.006
-506.741	14.150	0.084	-0.066
-505.726	-131.167	0.045	0.006
-504.712	-67.857	-0.193	-0.076
-503.697	-200.000	0.002	-0.014
-502.683	-66.574	-0.516	-0.207
-501.668	-200.000	0.015	-0.124
-500.653	-31.689	-0.356	0.202
-499.639	800.000	-0.044	0.187
-498.624	-135.468	0.187	0.023
-497.610	-75.065	0.353	0.128
-496.595	-200.000	-0.037	0.208
-495.581	-42.522	-0.315	-0.162
-494.566	-97.739	-0.038	-0.010
-493.551	-200.000	-0.018	0.332
-492.537	-68.321	0.246	0.097
-491.522	-200.000	-0.017	-0.234
-490.508	215.045	0.233	0.373
-489.493	-36.562	-0.235	0.128
-488.478	584.717	0.132	0.327
-487.464	-62.185	-0.178	0.075
-486.449	-1.139	-0.142	0.102
-485.435	-200.000	-0.031	-0.142
-484.420	-10.886	-0.142	0.095
-483.405	106.731	-0.053	0.064
-482.391	354.615	0.061	-0.123
-481.376	780.809	-0.081	-0.225
-480.362	-174.520	0.186	-0.005
-479.347	82.528	0.131	-0.143
-478.332	-200.000	-0.001	0.223
-477.318	14.899	0.314	0.248
-476.303	-24.047	-0.200	-0.121
-475.289	-86.990	0.313	0.096
-474.274	200.788	-0.072	-0.111
-473.259	-60.853	-0.434	-0.185
-472.245	-112.787	-0.141	-0.028
-471.230	3.887	0.187	0.138
-470.216	800.000	0.059	0.215
-469.201	30.313	-0.096	0.083
-468.186	-6.466	0.144	-0.099
-467.172	37.540	-0.206	-0.185
-466.157	275.552	0.177	0.316
-465.143	282.390	-0.054	0.097
-464.128	-39.673	0.223	0.118
-463.113	-200.000	0.025	0.540
-462.099	800.000	-0.074	0.221
-461.084	-31.272	-0.515	-0.293
-460.070	800.000	0.121	-0.349
-459.055	225.195	-0.294	-0.480
-458.040	-22.276	0.034	-0.021
-457.026	62.134	-0.192	0.194
-456.011	-200.000	-0.005	-0.047
-454.997	220.802	0.054	0.087
-453.982	-98.402	0.220	-0.057
-452.968	441.145	0.080	-0.178
-451.953	-200.000	-0.004	0.018
-450.938	94.766	-0.122	0.140
-449.924	479.587	0.147	-0.335
-448.909	204.697	-0.043	0.068
-447.895	597.205	0.065	0.163
-446.880	184.624	0.017	-0.026
-445.865	-10.615	0.157	0.105
-444.851	366.580	0.176	-0.358
-443.836	672.006	-0.105	-0.275
-442.822	340.173	0.155	-0.305
-441.807	800.000	-0.074	-0.276
-440.792	18.873	-0.327	-0.265
-439.778	800.000	0.053	-0.216
-438.763	800.000	0.029	0.128
-437.749	-200.000	0.159	-0.000
-436.734	270.091	0.154	0.274
-435.719	25.861	-0.245	0.206
-434.705	139.567	-0.248	0.329
-433.690	708.378	0.111	-0.296
-432.676	-68.641	-0.193	-0.075
-431.661	128.334	-0.082	0.106
-430.646	4.504	0.243	-0.180
-429.632	-89.905	-0.330	0.097
-428.617	-200.000	-0.005	0.282
-427.603	242.889	-0.108	0.183
-426.588	264.975	0.091	-0.160
-425.573	-15.408	0.198	-0.127
-424.559	-200.000	-0.009	0.279
-423.544	-200.000	-0.015	-0.117
-422.530	132.070	0.209	-0.271
-421.515	-136.758	0.125	-0.015
-420.500	250.447	0.196	0.335
-419.486	-200.000	-0.004	-0.149
-418.471	-172.537	0.260	0.008
-417.457	-200.000	0.012	-0.464
-416.442	-81.225	-0.052	0.017
-415.428	-112.932	-0.208	-0.041
-414.413	-64.162	-0.200	-0.082
-413.398	157.568	0.241	0.336
-412.384	112.605	-0.035	0.043
-411.369	800.000	0.040	0.136
-410.355	-100.768	0.084	-0.021
-409.340	650.105	0.097	-0.249
-408.325	-108.697	0.238	-0.051
-407.311	83.635	-0.265	-0.292
-406.296	-197.499	-0.115	0.001
-405.282	-158.361	-0.098	0.006
-404.267	-116.894	0.361	-0.067
-403.252	-200.000	-0.008	0.110
-402.238	-132.254	-0.318	-0.041
-401.223	800.000	-0.022	0.095
-400.209	345.212	0.043	-0.085
-399.194	800.000	-0.028	-0.123
-398.179	-40.879	-0.270	0.141
-397.165	-72.220	0.186	-0.070
-396.150	-101.345	-0.083	0.020
-395.136	227.239	-0.154	0.252
-394.121	4.688	0.208	0.154
-393.106	147.296	0.058	0.078
-392.092	-195.624	0.226	-0.002
-391.077	-30.837	-0.267	0.152
-390.063	800.000	-0.006	0.022
-389.048	-6.208	0.216	0.148
-388.033	-200.000	-0.006	0.182
-387.019	800.000	0.042	0.129
-386.004	78.947	-0.224	-0.241
-384.990	-140.174	-0.386	0.041
-383.975	-35.872	0.057	-0.031
-382.960	-200.000	-0.001	0.163
-381.946	-96.910	0.121	-0.032
-380.931	10.087	0.074	-0.056
-379.917	193.440	0.036	-0.055
-378.902	-102.788	0.318	0.076
-377.888	76.431	0.202	0.215
-376.873	-200.000	0.037	0.275
-375.858	-200.000	-0.043	-0.228
-374.844	-34.369	0.136	-0.075
-373.829	147.821	0.066	0.089
-372.815	800.000	-0.004	0.017
-371.800	262.589	0.077	0.134
-370.785	-54.174	-0.124	-0.057
-369.771	-99.455	0.030	0.008
-368.756	-200.000	0.009	0.087
-367.742	23.207	-0.017	-0.014
-366.727	-200.000	0.008	-0.217
-365.712	492.409	0.176	-0.405
-364.698	-100.818	-0.207	-0.051
-363.683	101.263	0.045	0.053
-362.669	-3.804	-0.260	0.181
-361.654	5.591	-0.032	0.024
-360.639	-200.000	-0.014	0.092
-359.625	-103.263	0.101	0.024
-358.610	-102.953	-0.193	-0.046
-357.596	-111.280	0.414	0.085
-356.581	99.193	-0.138	-0.160
-355.566	318.884	0.115	0.219
-354.552	-200.000	-0.010	0.108
-353.537	-44.758	-0.053	-0.026
-352.523	477.498	-0.043	-0.097
-351.508	800.000	-0.057	-0.191
-350.493	-150.980	-0.035	0.003
-349.479	-200.000	-0.018	0.136
-348.464	55.131	0.184	-0.179
-347.450	32.612	-0.292	-0.254
-346.435	-28.287	0.240	0.139
-345.420	800.000	-0.028	-0.082
-344.406	375.580	-0.175	0.358
-343.391	-9.474	0.127	-0.085
-342.377	86.247	0.144	0.160
-341.362	-200.000	-0.014	-0.175
-340.348	571.104	-0.113	-0.276
-339.333	-6.180	0.056	0.038
-338.318	119.679	-0.070	-0.087
-337.304	-37.391	0.111	-0.059
-336.289	161.957	-0.307	0.432
-335.275	131.918	-0.137	-0.177
-334.260	354.790	0.177	-0.353
-333.245	-150.837	-0.121	-0.009
-332.231	-71.224	-0.209	0.079
-331.216	-43.426	0.377	0.191
-330.202	-200.000	0.001	0.135
-329.187	366.012	-0.059	-0.120
-328.172	-18.436	-0.169	-0.106
-327.158	210.712	0.187	0.295
-326.143	800.000	0.116	-0.394
-325.129	-100.760	-0.218	-0.054
-324.114	-36.548	-0.082	0.044
-323.099	588.336	0.101	-0.249
-322.085	-200.000	-0.011	-0.159
-321.070	579.413	0.167	-0.410
-320.056	117.935	0.136	-0.168
-319.041	327.241	-0.071	-0.137
-318.026	-82.533	-0.223	0.073
-317.012	288.590	-0.132	0.239
-315.997	365.704	0.137	0.276
-314.983	-200.000	0.026	0.387
-313.968	209.573	-0.169	0.265
-312.953	-155.194	-0.323	0.021
-311.939	147.591	-0.029	0.040
-310.924	239.415	0.245	-0.409
-309.910	130.233	0.156	0.200
-308.895	-142.162	-0.422	-0.042
-307.880	117.348	0.182	-0.225
-306.866	-27.504	0.240	0.140
-305.851	168.500	0.125	-0.179
-304.837	64.395	0.047	-0.047
-303.822	502.984	-0.064	0.148
-302.807	30.360	0.115	0.099
-301.793	527.268	-0.037	-0.088
-300.778	-124.069	-0.042	-0.007
-299.764	-161.684	0.264	-0.014
-298.749	117.574	-0.039	-0.048
-297.735	-106.710	0.494	0.110
-296.720	-127.425	0.106	-0.015
-295.705	-126.593	-0.368	0.055
-294.691	-200.000	0.015	-0.108
-293.676	-200.000	0.031	0.153
-292.662	93.842	-0.135	0.154
-291.647	-200.000	0.010	-0.050
-290.632	509.673	0.102	0.237
-289.618	-200.000	-0.094	0.516
-288.603	-200.000	0.008	0.178
-287.589	-27.024	0.214	0.125
-286.574	800.000	0.038	0.136
-285.559	772.892	-0.012	-0.033
-284.545	-200.000	0.030	0.182
-283.530	800.000	0.067	-0.205
-282.516	110.916	-0.196	-0.236
-281.501	258.926	0.070	-0.120
-280.486	63.381	-0.104	0.104
-279.472	-94.757	-0.195	-0.053
-278.457	-200.000	-0.011	0.300
-277.443	800.000	-0.074	-0.244
-276.428	623.458	0.149	0.376
-275.413	-67.259	-0.182	-0.072
-274.399	-98.300	0.108	0.028
-273.384	98.348	-0.206	0.238
-272.370	800.000	0.064	0.242
-271.355	146.761	-0.148	0.200
-270.340	139.215	-0.011	-0.014
-269.326	121.551	0.136	-0.169
-268.311	-130.035	0.132	-0.018
-267.297	800.000	-0.036	0.134
-266.282	-78.282	0.226	-0.078
-265.267	180.111	0.131	-0.193
-264.253	-200.000	0.006	0.061
-263.238	-200.000	-0.022	0.202
-262.224	461.412	0.017	0.039
-261.209	15.367	-0.218	0.171
-260.195	-56.136	0.158	-0.071
-259.180	-200.000	0.249	-0.000
-258.165	-113.163	0.124	-0.024
-257.151	-200.000	-0.012	-0.123
-256.136	161.268	0.056	-0.078
-255.122	-74.635	0.158	0.057
-254.107	17.160	0.072	-0.058
-253.092	324.692	-0.066	-0.127
-252.078	-97.556	0.167	0.043
-251.063	-134.849	0.352	0.043
-250.049	-71.112	0.191	-0.072
-249.034	800.000	-0.040	-0.115
-248.019	-200.000	-0.024	-0.185
-247.005	-16.597	-0.254	0.161
-245.990	-138.018	0.165	0.018
-244.976	294.806	0.155	0.284
-243.961	-84.132	0.309	-0.098
-242.946	786.042	-0.174	0.476
-241.932	773.894	0.023	-0.062
-240.917	-118.708	-0.214	-0.038
-239.903	-92.887	-0.362	0.101
-238.888	-136.425	0.165	-0.019
-237.873	510.251	-0.063	0.146
-236.859	-62.403	-0.199	0.083
-235.844	-15.784	0.167	-0.106
-234.830	-200.000	-0.032	-0.324
-233.815	47.086	-0.223	-0.208
-232.800	-38.349	0.189	-0.100
-231.786	800.000	0.062	-0.198
-230.771	78.005	0.027	-0.029
-229.757	-97.695	0.109	-0.028
-228.742	147.912	-0.050	-0.067
-227.727	142.371	0.192	-0.254
-226.713	-116.116	-0.269	0.050
-225.698	-32.340	-0.195	-0.109
-224.684	-122.522	-0.129	0.021
-223.669	-200.000	0.039	-0.210
-222.655	-200.000	0.007	0.108
-221.640	137.532	-0.095	0.125
-220.625	39.665	-0.064	-0.058
-219.611	-176.212	0.046	-0.001
-218.596	616.456	-0.012	0.030
-217.582	800.000	-0.084	-0.279
-216.567	11.579	-0.267	-0.205
-215.552	790.207	0.005	0.014
-214.538	-200.000	0.030	0.216
-213.523	-43.230	-0.202	0.102
-212.509	-200.000	0.046	0.336
-211.494	173.146	0.129	0.185
-210.479	-153.376	0.142	0.010
-209.465	-200.000	-0.096	0.475
-208.450	235.732	0.182	-0.300
-207.436	101.185	0.188	0.219
-206.421	-104.071	0.103	-0.024
-205.406	-84.934	0.191	0.060
-204.392	-200.000	-0.029	-0.442
-203.377	748.846	-0.108	-0.292
-202.363	-74.105	-0.078	0.028
-201.348	-200.000	-0.028	0.199
-200.333	1.225	0.310	0.223
-199.319	-200.000	0.004	0.153
-198.304	-32.380	0.129	-0.072
-197.290	800.000	0.043	0.185
-196.275	-51.932	-0.493	-0.229
-195.260	626.313	-0.068	-0.171
-194.246	800.000	-0.042	0.165
-193.231	498.617	-0.101	0.232
-192.217	-155.066	-0.152	-0.010
-191.202	124.212	0.298	0.374
-190.187	293.290	0.075	-0.136
-189.173	-34.329	-0.194	-0.106
-188.158	-200.000	-0.009	-0.141
-187.144	-26.272	0.198	0.116
-186.129	237.867	0.128	-0.212
-185.114	115.045	0.099	-0.120
-184.100	-111.073	-0.149	-0.031
-183.085	-13.312	0.149	0.096
-182.071	99.045	-0.131	0.151
-181.056	-200.000	-0.010	-0.132
-180.042	36.462	-0.028	0.024
-179.027	-52.128	-0.391	0.181
-178.012	256.482	-0.017	0.029
-176.998	274.359	0.116	0.206
-175.983	68.371	-0.118	-0.120
-174.969	138.750	0.256	-0.335
-173.954	-200.000	0.029	0.156
-172.939	111.330	0.114	-0.137
-171.925	468.791	-0.032	0.073
-170.910	210.250	0.034	-0.054
-169.896	-144.769	0.216	-0.020
-168.881	38.448	0.236	0.210
-167.866	680.542	0.119	-0.310
-166.852	-86.568	-0.131	0.040
-165.837	144.263	0.063	-0.084
-164.823	-40.797	0.280	0.145
-163.808	335.874	0.094	-0.181
-162.793	-143.468	0.416	-0.040
-161.779	54.747	0.169	-0.162
-160.764	-68.789	0.124	0.048
-159.750	800.000	0.044	-0.177
-158.735	3.102	-0.041	0.029
-157.720	-128.120	0.163	0.023
-156.706	-200.000	-0.004	0.035
-155.691	106.722	-0.235	-0.278
-154.677	156.564	-0.200	0.276
-153.662	-200.000	0.023	0.150
-152.647	-8.263	0.075	0.050
-151.633	-146.942	0.163	-0.014
-150.618	-155.659	-0.260	-0.017
-149.604	440.534	0.043	0.093
-148.589	15.775	0.247	-0.194
-147.574	-200.000	0.029	-0.307
-146.560	-69.864	-0.309	0.118
-145.545	-96.713	0.447	-0.117
-144.531	8.807	-0.335	0.252
-143.516	-153.298	0.221	0.015
-142.502	69.007	-0.041	0.042
-141.487	-77.676	-0.137	0.047
-140.472	-200.000	0.003	-0.079
-139.458	-151.965	0.290	-0.021
-138.443	116.009	0.043	0.053
-137.429	35.315	-0.006	-0.005
-136.414	-159.082	0.305	0.017
-135.399	-200.000	-0.048	-0.344
-134.385	-200.000	-0.041	-0.234
-133.370	208.031	-0.008	-0.013
-132.356	-15.615	-0.091	-0.058
-131.341	-150.332	0.379	-0.029
-130.326	615.005	-0.059	0.149
-129.312	249.109	-0.037	0.062
-128.297	-194.354	0.126	0.001
-127.283	-22.733	0.014	0.009
-126.268	672.500	-0.116	0.299
-125.253	385.874	-0.107	-0.219
-124.239	425.201	0.054	-0.115
-123.224	486.027	0.059	-0.134
-122.210	52.417	-0.133	0.127
-121.195	563.000	-0.114	0.275
