DTS Sentinel unit serial number:	SN413079Multiplexer serial number:	ORYXHardware model number:	OX4-SRSoftware version number:	ORYX F/W v4.00 Oryx Data Collector v3.7.2.0data status	okinstallation	princeton_trtdifferential loss correction	single-endedforward channel	channel 3reverse channel	N/Adate	2019/09/11time	04:50:10forward acquisition time	60.00reverse acquisition time	0.00gamma	496.2192k internal	0.2330k external	0.2330temperature offset calibration	0.9911default loss term (dB/km)	0.3790temperature slope calibration	1.0000multiplexer offset coefficient	1.0000multiplexer slope coefficient	1.0000fibre end	0.00T internal ref (°C)	29.50T ext. ref 1 (°C)	-0.26T ext. ref 2 (°C)	23.34length (m)	temperature (°C)	Stokes	anti-Stokes-747.200	141.039	0.184	-0.245
-746.185	800.000	-0.063	-0.218
-745.171	-97.368	0.514	-0.135
-744.156	38.414	0.322	0.289
-743.142	36.733	0.032	0.028
-742.127	-200.000	-0.036	0.226
-741.112	800.000	-0.055	0.187
-740.098	800.000	0.083	0.244
-739.083	-93.426	0.036	-0.010
-738.069	-91.869	0.211	0.060
-737.054	-81.122	-0.352	-0.117
-736.039	-136.288	0.170	-0.020
-735.025	24.854	0.138	0.115
-734.010	800.000	0.114	-0.381
-732.996	48.653	-0.105	0.099
-731.981	-171.785	-0.159	0.005
-730.966	-56.357	0.455	0.203
-729.952	-186.843	-0.163	0.002
-728.937	142.849	-0.088	-0.118
-727.923	-23.325	0.125	0.076
-726.908	-122.615	-0.272	-0.044
-725.894	-173.564	-0.435	-0.013
-724.879	-84.329	0.331	-0.105
-723.864	-200.000	0.019	-0.150
-722.850	-200.000	0.008	-0.157
-721.835	750.951	-0.058	-0.158
-720.821	172.638	0.122	0.177
-719.806	83.420	-0.121	-0.133
-718.791	72.354	0.165	0.173
-717.777	-1.195	0.256	-0.182
-716.762	-36.845	-0.446	-0.241
-715.748	-200.000	0.016	-0.152
-714.733	454.903	-0.092	-0.204
-713.718	717.933	-0.009	-0.024
-712.704	-88.816	0.153	-0.046
-711.689	-8.305	-0.222	-0.150
-710.675	259.804	0.174	0.302
-709.660	-97.778	0.418	0.109
-708.645	106.620	0.188	-0.224
-707.631	-200.000	0.024	0.134
-706.616	-200.000	0.002	-0.074
-705.602	-200.000	-0.007	0.157
-704.587	-151.509	0.263	0.020
-703.572	-200.000	0.265	-0.001
-702.558	800.000	0.064	-0.238
-701.543	-200.000	0.059	-0.346
-700.529	-77.048	0.114	-0.040
-699.514	319.615	0.284	-0.542
-698.499	41.925	0.179	-0.163
-697.485	84.755	0.303	0.333
-696.470	-57.466	0.096	-0.042
-695.456	-113.076	0.320	0.063
-694.441	-15.803	-0.123	-0.079
-693.426	800.000	-0.074	-0.249
-692.412	800.000	-0.007	0.028
-691.397	-162.840	-0.217	-0.011
-690.383	-2.778	-0.144	-0.101
-689.368	-62.597	-0.412	-0.172
-688.354	237.682	-0.009	-0.015
-687.339	139.152	0.043	-0.057
-686.324	646.107	0.080	0.206
-685.310	35.411	0.118	0.104
-684.295	130.930	0.179	0.231
-683.281	800.000	0.040	0.127
-682.266	-23.760	0.135	0.081
-681.251	141.595	0.149	-0.199
-680.237	129.255	0.025	-0.032
-679.222	223.805	0.070	-0.114
-678.208	262.540	0.085	-0.148
-677.193	113.753	-0.131	-0.160
-676.178	-60.915	0.251	0.107
-675.164	-200.000	0.000	-0.125
-674.149	68.350	0.125	-0.128
-673.135	-176.977	-0.162	-0.004
-672.120	-59.547	0.301	-0.130
-671.105	-127.135	-0.441	0.065
-670.091	379.431	0.036	-0.073
-669.076	-32.681	-0.262	0.146
-668.062	285.829	0.205	0.371
-667.047	-141.391	-0.202	0.021
-666.032	80.959	0.211	-0.229
-665.018	-95.639	0.300	0.081
-664.003	2.974	-0.354	-0.258
-662.989	-38.035	0.224	-0.119
-661.974	-123.023	-0.080	0.013
-660.959	25.729	-0.210	0.176
-659.945	-120.609	0.100	0.017
-658.930	26.435	-0.065	0.055
-657.916	76.097	0.013	0.014
-656.901	251.484	-0.050	-0.085
-655.886	37.982	-0.149	-0.133
-654.872	-137.193	0.220	-0.025
-653.857	-46.497	0.106	-0.052
-652.843	752.873	0.062	-0.169
-651.828	-123.135	-0.061	0.010
-650.814	490.888	0.096	0.220
-649.799	800.000	-0.050	-0.170
-648.784	-73.077	-0.121	-0.044
-647.770	769.125	-0.098	-0.269
-646.755	-80.548	0.338	-0.113
-645.741	800.000	0.059	-0.189
-644.726	-79.482	0.268	0.091
-643.711	-166.083	0.324	0.014
-642.697	-2.300	0.193	-0.135
-641.682	800.000	0.097	0.300
-640.668	-200.000	-0.047	-0.216
-639.653	68.369	0.157	-0.162
-638.638	-200.000	-0.037	0.402
-637.624	-62.288	0.201	-0.084
-636.609	-47.268	0.108	0.053
-635.595	-103.608	0.109	0.026
-634.580	-110.065	-0.394	-0.083
-633.565	-114.501	-0.234	0.045
-632.551	52.283	0.258	0.246
-631.536	-41.143	-0.241	-0.125
-630.522	-127.474	0.039	0.006
-629.507	-67.621	0.147	-0.058
-628.492	-47.923	0.152	-0.074
-627.478	800.000	0.043	-0.135
-626.463	-17.714	-0.260	-0.164
-625.449	43.746	0.032	-0.029
-624.434	30.883	-0.185	-0.159
-623.419	-126.734	0.356	0.053
-622.405	-20.475	-0.064	0.040
-621.390	208.038	-0.086	-0.134
-620.376	-50.063	-0.406	0.193
-619.361	-19.558	-0.079	-0.049
-618.346	-97.450	-0.171	0.045
-617.332	36.669	0.151	0.134
-616.317	-132.824	-0.100	0.013
-615.303	-200.000	0.006	0.140
-614.288	-47.155	0.032	0.016
-613.273	-200.000	0.002	-0.043
-612.259	-48.531	0.158	-0.076
-611.244	49.979	0.163	0.154
-610.230	109.948	-0.133	-0.160
-609.215	5.316	-0.076	-0.056
-608.201	-144.802	0.320	0.029
-607.186	-54.442	-0.099	-0.045
-606.171	105.507	-0.131	0.154
-605.157	35.510	0.092	-0.081
-604.142	-200.000	0.080	0.000
-603.128	800.000	-0.019	-0.059
-602.113	127.523	-0.206	0.262
-601.098	74.780	0.073	0.077
-600.084	379.507	0.300	0.615
-599.069	-78.298	0.421	0.145
-598.055	-24.819	-0.225	-0.134
-597.040	-167.464	-0.485	0.019
-596.025	57.733	-0.202	0.197
-595.011	-22.578	0.107	-0.065
-593.996	-57.277	-0.121	0.053
-592.982	-165.174	-0.101	0.004
-591.967	800.000	0.065	0.228
-590.952	-200.000	-0.007	-0.086
-589.938	121.327	0.209	0.260
-588.923	-27.439	0.336	-0.195
-587.909	83.031	-0.135	-0.147
-586.894	-37.041	0.104	0.056
-585.879	20.133	0.244	0.197
-584.865	32.942	-0.064	0.055
-583.850	-133.231	0.049	0.006
-582.836	43.012	-0.268	-0.245
-581.821	71.856	0.010	-0.010
-580.806	-46.617	-0.199	0.097
-579.792	94.111	-0.094	0.106
-578.777	392.775	-0.119	0.248
-577.763	68.988	-0.083	-0.085
-576.748	-33.370	-0.131	-0.073
-575.733	274.553	-0.149	-0.263
-574.719	-200.000	0.023	0.418
-573.704	22.371	-0.166	-0.136
-572.690	-200.000	-0.020	-0.114
-571.675	-37.628	0.179	-0.095
-570.661	-200.000	0.018	0.127
-569.646	-88.389	0.156	-0.047
-568.631	-94.617	0.091	0.025
-567.617	13.947	0.237	0.184
-566.602	-151.034	-0.107	0.008
-565.588	5.326	-0.149	-0.110
-564.573	800.000	0.145	-0.451
-563.558	71.587	-0.102	0.106
-562.544	-76.126	-0.223	-0.079
-561.529	52.986	-0.118	0.113
-560.515	-89.017	-0.183	0.054
-559.500	-1.310	0.058	-0.041
-558.485	118.369	-0.105	-0.130
-557.471	-200.000	-0.004	-0.211
-556.456	800.000	0.095	0.349
-555.442	-200.000	-0.010	-0.247
-554.427	-200.000	0.032	0.154
-553.412	-86.169	-0.326	0.100
-552.398	-200.000	-0.031	-0.267
-551.383	-75.453	0.090	-0.032
-550.369	-200.000	-0.009	-0.134
-549.354	-146.681	0.354	-0.031
-548.339	-47.481	-0.232	0.112
-547.325	581.358	-0.131	-0.320
-546.310	-58.891	-0.090	0.039
-545.296	188.498	0.130	-0.195
-544.281	-55.914	0.353	-0.157
-543.266	131.940	0.112	-0.144
-542.252	-200.000	-0.037	0.172
-541.237	-200.000	-0.026	0.119
-540.223	-200.000	0.029	0.308
-539.208	21.889	-0.195	-0.159
-538.193	58.705	0.100	-0.098
-537.179	-59.035	0.300	0.129
-536.164	-135.335	-0.010	0.001
-535.150	37.570	0.127	0.112
-534.135	42.647	-0.180	-0.164
-533.121	-35.839	0.055	-0.030
-532.106	800.000	0.022	-0.074
-531.091	-20.351	-0.219	-0.135
-530.077	-68.195	-0.294	-0.114
-529.062	-200.000	-0.116	0.540
-528.048	-10.678	-0.191	0.126
-527.033	734.101	-0.082	-0.220
-526.018	258.452	0.127	-0.218
-525.004	216.034	-0.311	-0.493
-523.989	-43.993	-0.242	-0.121
-522.975	-200.000	0.023	0.177
-521.960	732.253	0.052	0.139
-520.945	122.026	0.323	-0.402
-519.931	-200.000	-0.073	-0.342
-518.916	37.163	-0.349	-0.308
-517.902	-200.000	-0.016	0.178
-516.887	-200.000	-0.045	-0.206
-515.872	73.376	0.262	-0.274
-514.858	672.486	-0.057	0.149
-513.843	-200.000	0.024	-0.197
-512.829	-19.228	0.042	0.026
-511.814	369.174	-0.154	0.310
-510.799	800.000	0.121	0.341
-509.785	-19.606	0.108	0.067
-508.770	-200.000	0.005	0.064
-507.756	-90.077	-0.087	-0.025
-506.741	-8.512	0.169	-0.113
-505.726	-60.398	0.222	0.094
-504.712	11.136	0.280	0.214
-503.697	140.260	-0.109	-0.144
-502.683	380.020	-0.138	0.283
-501.668	800.000	0.033	-0.096
-500.653	635.238	0.102	-0.258
-499.639	800.000	0.033	-0.093
-498.624	-197.407	-0.275	-0.002
-497.610	-3.815	-0.205	-0.142
-496.595	-135.050	0.178	-0.021
-495.581	74.225	-0.217	0.227
-494.566	-106.765	0.074	0.016
-493.551	19.592	0.267	-0.214
-492.537	408.261	0.109	0.229
-491.522	-31.239	0.191	-0.107
-490.508	-12.397	-0.079	-0.051
-489.493	-89.150	-0.202	-0.059
-488.478	800.000	0.064	0.225
-487.464	-150.875	0.428	-0.032
-486.449	121.231	0.098	-0.122
-485.435	147.564	-0.087	-0.117
-484.420	12.429	0.302	0.232
-483.405	-200.000	0.024	-0.123
-482.391	800.000	0.079	0.235
-481.376	-109.230	-0.066	-0.014
-480.362	-87.210	-0.470	0.142
-479.347	58.692	0.263	-0.258
-478.332	-200.000	-0.064	0.289
-477.318	-26.495	-0.274	-0.160
-476.303	10.154	0.349	-0.265
-475.289	-200.000	0.034	-0.475
-474.274	38.363	-0.192	0.170
-473.259	-155.009	0.050	0.003
-472.245	316.125	-0.117	0.221
-471.230	800.000	0.021	0.085
-470.216	-98.632	-0.032	0.008
-469.201	226.692	0.131	0.211
-468.186	-148.961	0.141	-0.011
-467.172	67.516	0.330	0.336
-466.157	-77.268	0.081	0.028
-465.143	800.000	0.047	0.196
-464.128	-64.386	-0.268	-0.108
-463.113	28.961	0.038	0.032
-462.099	-200.000	-0.079	-0.346
-461.084	-137.621	0.328	-0.037
-460.070	-65.850	0.297	0.118
-459.055	24.471	-0.096	-0.079
-458.040	-57.664	-0.282	0.123
-457.026	-78.535	0.174	0.059
-456.011	291.531	-0.171	0.310
-454.997	-200.000	-0.006	-0.072
-453.982	-61.719	-0.126	0.052
-452.968	800.000	-0.078	-0.223
-451.953	177.614	0.293	-0.424
-450.938	692.473	-0.122	-0.317
-449.924	-53.975	-0.211	0.096
-448.909	800.000	-0.090	-0.293
-447.895	348.617	-0.179	-0.352
-446.880	-22.120	0.195	-0.118
-445.865	-135.207	-0.116	0.014
-444.851	-100.746	-0.146	-0.036
-443.836	-19.184	-0.117	0.073
-442.822	-200.000	0.018	0.171
-441.807	-200.000	-0.029	-0.196
-440.792	-59.506	0.128	0.055
-439.778	400.656	0.098	0.205
-438.763	800.000	-0.119	-0.328
-437.749	-93.719	-0.481	-0.132
-436.734	233.207	-0.221	0.362
-435.719	800.000	-0.031	0.115
-434.705	-200.000	0.022	-0.107
-433.690	-95.331	0.209	0.056
-432.676	16.265	-0.247	0.194
-431.661	-200.000	0.007	0.109
-430.646	-171.740	-0.135	-0.004
-429.632	-200.000	0.017	0.089
-428.617	-15.471	0.171	-0.108
-427.603	800.000	0.042	0.138
-426.588	-31.115	0.098	0.055
-425.573	-122.108	0.181	-0.030
-424.559	-92.226	-0.108	0.030
-423.544	-59.249	0.135	0.058
-422.530	742.175	-0.018	0.048
-421.515	-36.226	0.180	-0.096
-420.500	113.142	0.204	-0.246
-419.486	-200.000	0.028	-0.182
-418.471	-135.852	0.278	-0.033
-417.457	-200.000	0.001	-0.258
-416.442	-54.475	-0.325	0.146
-415.428	-14.988	0.250	0.159
-414.413	-89.371	-0.234	0.069
-413.398	-200.000	0.009	0.072
-412.384	-200.000	0.025	-0.166
-411.369	558.351	-0.071	0.169
-410.355	800.000	0.083	-0.342
-409.340	800.000	0.124	0.430
-408.325	162.307	-0.196	-0.273
-407.311	-89.653	-0.180	0.052
-406.296	-90.046	-0.245	0.071
-405.282	22.781	0.136	0.111
-404.267	130.118	-0.179	0.228
-403.252	51.584	0.049	-0.046
-402.238	424.379	-0.064	-0.137
-401.223	-105.851	0.189	-0.042
-400.209	800.000	-0.096	0.360
-399.194	-43.178	-0.195	-0.098
-398.179	-200.000	-0.038	-0.304
-397.165	418.578	-0.073	0.156
-396.150	800.000	-0.027	0.102
-395.136	800.000	0.030	0.091
-394.121	-60.357	0.403	0.170
-393.106	189.309	0.194	-0.289
-392.092	-177.043	-0.031	0.001
-391.077	115.822	-0.093	0.113
-390.063	-200.000	-0.007	0.129
-389.048	-57.477	0.165	-0.072
-388.033	530.931	-0.089	-0.208
-387.019	800.000	-0.079	-0.239
-386.004	800.000	0.128	0.394
-384.990	800.000	-0.016	0.060
-383.975	42.197	0.031	0.028
-382.960	-170.673	0.222	0.008
-381.946	-96.737	-0.248	0.065
-380.931	-54.337	0.116	0.052
-379.917	-3.447	-0.277	0.191
-378.902	-21.342	-0.178	-0.108
-377.888	800.000	-0.110	0.305
-376.873	800.000	0.076	0.228
-375.858	-94.786	-0.157	0.042
-374.844	200.832	0.153	0.234
-373.829	78.600	-0.104	-0.110
-372.815	88.203	-0.128	-0.141
-371.800	-98.206	0.317	0.081
-370.785	292.912	-0.106	0.191
-369.771	285.163	-0.140	0.251
-368.756	800.000	-0.044	-0.163
-367.742	-145.068	0.333	-0.030
-366.727	-46.868	0.178	0.087
-365.712	135.282	0.148	-0.190
-364.698	155.134	-0.035	0.047
-363.683	800.000	0.137	0.378
-362.669	79.255	0.225	0.239
-361.654	-53.330	0.093	-0.042
-360.639	-106.450	-0.109	-0.024
-359.625	-68.747	0.130	0.050
-358.610	-200.000	0.001	0.036
-357.596	-200.000	0.004	-0.061
-356.581	-30.763	0.270	0.152
-355.566	-31.111	-0.467	-0.261
-354.552	-200.000	-0.009	-0.101
-353.537	-200.000	-0.014	0.425
-352.523	191.363	0.238	-0.355
-351.508	175.006	-0.122	0.174
-350.493	711.266	-0.054	-0.141
-349.479	-124.714	-0.016	0.002
-348.464	-200.000	0.009	-0.156
-347.450	-68.552	-0.166	-0.064
-346.435	472.108	0.076	-0.170
-345.420	31.602	-0.292	0.249
-344.406	-41.804	0.248	-0.126
-343.391	13.380	-0.200	-0.153
-342.377	3.130	0.260	0.187
-341.362	-31.425	0.107	-0.060
-340.348	37.613	0.142	0.125
-339.333	96.072	0.088	0.100
-338.318	-65.989	0.034	-0.013
-337.304	-200.000	-0.041	0.271
-336.289	14.626	-0.294	-0.228
-335.275	168.037	-0.099	0.140
-334.260	-52.243	-0.061	0.028
-333.245	-200.000	0.017	-0.235
-332.231	3.145	-0.022	0.016
-331.216	-61.137	-0.115	-0.048
-330.202	59.734	-0.182	-0.178
-329.187	-75.884	0.305	0.107
-328.172	-27.887	0.272	-0.156
-327.158	-8.725	-0.386	0.256
-326.143	-46.561	0.331	-0.161
-325.129	800.000	-0.060	-0.187
-324.114	-113.854	0.124	-0.024
-323.099	-145.995	0.293	-0.026
-322.085	706.031	0.027	-0.069
-321.070	319.970	0.086	-0.161
-320.056	-77.716	-0.100	-0.034
-319.041	376.244	-0.076	0.153
-318.026	-73.056	0.162	0.059
-317.012	-41.802	0.175	0.089
-315.997	-200.000	-0.022	-0.160
-314.983	70.503	0.122	0.125
-313.968	-111.791	-0.101	0.020
-312.953	-91.941	-0.328	0.092
-311.939	150.055	0.178	0.239
-310.924	-25.059	0.336	-0.197
-309.910	-19.455	-0.150	-0.092
-308.895	-75.336	0.065	-0.023
-307.880	-105.569	-0.407	0.091
-306.866	-64.886	0.196	-0.078
-305.851	-166.173	-0.210	0.009
-304.837	89.661	-0.294	0.325
-303.822	-3.657	0.145	0.099
-302.807	-198.211	0.056	0.000
-301.793	800.000	-0.063	-0.194
-300.778	800.000	0.065	-0.196
-299.764	59.991	0.094	-0.092
-298.749	-200.000	0.042	-0.402
-297.735	-79.692	-0.084	0.028
-296.720	800.000	0.040	0.150
-295.705	-49.669	-0.174	-0.082
-294.691	800.000	0.071	0.221
-293.676	-71.262	-0.372	0.138
-292.662	800.000	0.025	-0.090
-291.647	800.000	-0.062	-0.213
-290.632	448.435	0.078	-0.171
-289.618	-20.632	-0.217	-0.132
-288.603	-31.894	-0.220	-0.122
-287.589	-174.855	-0.136	0.004
-286.574	316.432	0.039	0.074
-285.559	84.077	0.299	-0.323
-284.545	-169.725	0.246	0.009
-283.530	800.000	-0.039	-0.122
-282.516	-47.969	-0.085	0.041
-281.501	-151.676	0.103	-0.007
-280.486	328.614	0.148	-0.281
-279.472	-200.000	-0.043	-0.217
-278.457	237.269	-0.107	-0.175
-277.443	-62.767	-0.426	0.175
-276.428	-112.711	0.050	0.010
-275.413	6.156	0.168	0.123
-274.399	-154.282	0.461	0.031
-273.384	103.952	-0.125	0.145
-272.370	-33.852	-0.254	-0.138
-271.355	242.703	-0.135	0.224
-270.340	87.454	-0.120	-0.131
-269.326	51.112	-0.153	0.143
-268.311	201.328	0.137	-0.208
-267.297	-66.059	-0.278	-0.110
-266.282	-200.000	0.023	-0.159
-265.267	-7.186	-0.260	0.174
-264.253	459.291	-0.110	0.242
-263.238	-88.490	0.036	-0.011
-262.224	-200.000	0.000	0.085
-261.209	-93.236	0.192	0.053
-260.195	0.048	-0.187	-0.132
-259.180	-47.406	0.376	0.181
-258.165	-200.000	0.018	0.116
-257.151	496.872	0.088	-0.200
-256.136	-13.210	0.181	0.116
-255.122	800.000	0.054	-0.185
-254.107	-200.000	0.011	-0.352
-253.092	72.656	-0.353	-0.364
-252.078	-50.152	0.405	0.189
-251.063	-182.966	0.333	-0.006
-250.049	465.214	-0.070	0.154
-249.034	148.997	-0.109	0.145
-248.019	-150.337	0.510	-0.039
-247.005	445.675	-0.055	-0.120
-245.990	96.992	-0.240	0.272
-244.976	-200.000	-0.042	-0.237
-243.961	-200.000	-0.046	-0.355
-242.946	-136.460	0.329	0.038
-241.932	48.444	0.118	-0.109
-240.917	800.000	-0.094	0.401
-239.903	51.883	-0.050	-0.047
-238.888	63.930	0.086	0.085
-237.873	-108.578	0.266	0.056
-236.859	-47.046	0.219	0.106
-235.844	-140.313	-0.081	0.008
-234.830	800.000	-0.120	-0.337
-233.815	7.901	0.126	-0.093
-232.800	-26.861	-0.311	0.179
-231.786	289.672	-0.028	0.050
-230.771	800.000	0.060	-0.240
-229.757	-96.492	0.420	-0.109
-228.742	-22.981	-0.172	0.102
-227.727	-200.000	0.007	-0.060
-226.713	358.430	-0.104	-0.204
-225.698	-54.693	-0.193	-0.086
-224.684	-70.068	-0.253	-0.095
-223.669	-103.150	0.172	0.040
-222.655	800.000	0.044	-0.135
-221.640	-78.545	-0.192	-0.065
-220.625	404.787	0.079	-0.164
-219.611	-37.592	-0.179	0.094
-218.596	772.367	-0.014	0.038
-217.582	179.611	0.029	0.042
-216.567	-64.139	0.214	0.086
-215.552	29.419	-0.320	0.268
-214.538	-118.082	-0.299	0.053
-213.523	229.612	0.018	0.030
-212.509	-59.647	-0.196	0.083
-211.494	423.965	-0.127	0.268
-210.479	-95.632	0.275	-0.073
-209.465	-85.947	0.215	-0.066
-208.450	170.758	-0.065	0.092
-207.436	800.000	-0.059	-0.161
-206.421	-190.962	0.267	-0.003
-205.406	-200.000	-0.015	0.380
-204.392	-126.485	0.024	0.003
-203.377	-23.545	-0.143	-0.085
-202.363	-103.432	0.222	-0.052
-201.348	800.000	-0.106	0.299
-200.333	-57.783	-0.239	-0.103
-199.319	-200.000	0.091	0.550
-198.304	-200.000	0.073	0.319
-197.290	-68.190	0.208	-0.080
-196.275	-188.577	0.274	-0.003
-195.260	11.917	0.195	-0.148
-194.246	16.113	0.210	-0.163
-193.231	-153.722	-0.227	-0.015
-192.217	-9.993	-0.199	0.131
-191.202	-77.395	-0.124	-0.042
-190.187	510.952	0.170	-0.389
-189.173	182.014	0.102	0.149
-188.158	50.414	0.175	-0.163
-187.144	800.000	-0.055	0.171
-186.129	386.044	0.080	-0.162
-185.114	44.119	0.189	0.171
-184.100	101.834	-0.120	-0.138
-183.085	-104.670	-0.261	0.059
-182.071	205.053	-0.197	0.301
-181.056	-181.598	0.643	-0.012
-180.042	-69.042	0.296	0.112
-179.027	-129.074	-0.251	0.035
-178.012	28.623	-0.217	-0.181
-176.998	34.657	-0.230	0.198
-175.983	-196.028	-0.309	0.002
-174.969	-200.000	0.040	0.265
-173.954	-200.000	-0.001	0.242
-172.939	286.943	0.090	-0.160
-171.925	-136.184	-0.181	0.021
-170.910	131.544	0.193	0.244
-169.896	49.056	0.188	0.174
-168.881	-200.000	-0.028	0.285
-167.866	-200.000	0.019	-0.115
-166.852	-103.907	-0.203	0.047
-165.837	409.488	0.056	-0.116
-164.823	-132.923	0.174	0.022
-163.808	800.000	0.105	0.288
-162.793	102.085	-0.201	-0.231
-161.779	49.695	0.216	-0.201
-160.764	72.096	-0.243	0.249
-159.750	-200.000	-0.062	0.308
-158.735	-200.000	-0.005	0.094
-157.720	-155.418	-0.238	0.015
-156.706	-132.125	-0.237	-0.030
-155.691	-93.884	-0.189	-0.051
-154.677	243.644	-0.048	-0.080
-153.662	-143.603	0.194	0.018
-152.647	171.665	-0.233	-0.329
-151.633	-110.304	-0.150	-0.031
-150.618	-153.136	0.178	-0.012
-149.604	255.272	0.107	0.180
-148.589	-29.471	0.286	-0.161
-147.574	-99.224	0.290	-0.072
-146.560	87.757	-0.233	0.254
-145.545	279.625	-0.027	-0.048
-144.531	138.049	0.055	-0.071
-143.516	-27.572	-0.051	0.029
-142.502	-200.000	-0.018	0.132
-141.487	36.608	0.075	-0.065
-140.472	800.000	-0.063	-0.188
-139.458	-178.298	0.248	-0.006
-138.443	-200.000	0.220	0.000
-137.429	406.822	-0.175	0.363
-136.414	-81.760	0.341	0.110
-135.399	-1.986	0.108	-0.074
-134.385	6.816	0.081	-0.059
-133.370	-55.107	-0.134	0.059
-132.356	210.393	0.183	0.283
-131.341	38.041	0.184	0.161
-130.326	66.815	0.139	0.139
-129.312	-200.000	0.009	-0.062
-128.297	-120.268	0.204	-0.034
-127.283	49.657	0.116	-0.108
-126.268	-200.000	-0.015	0.301
-125.253	-40.133	-0.156	-0.080
-124.239	-200.000	-0.046	-0.320
-123.224	20.650	0.226	0.180
-122.210	-105.982	0.047	-0.010
-121.195	-66.357	0.083	-0.032
-120.180	131.156	-0.074	0.093
