DTS Sentinel unit serial number:	SN413079Multiplexer serial number:	ORYXHardware model number:	OX4-SRSoftware version number:	ORYX F/W v4.00 Oryx Data Collector v3.7.2.0data status	okinstallation	princeton_trtdifferential loss correction	single-endedforward channel	channel 3reverse channel	N/Adate	2019/09/13time	21:00:35forward acquisition time	60.00reverse acquisition time	0.00gamma	496.2192k internal	0.2333k external	0.2333temperature offset calibration	1.0062default loss term (dB/km)	0.3790temperature slope calibration	1.0000multiplexer offset coefficient	1.0000multiplexer slope coefficient	1.0000fibre end	0.00T internal ref (°C)	28.62T ext. ref 1 (°C)	3.14T ext. ref 2 (°C)	23.26length (m)	temperature (°C)	Stokes	anti-Stokes-747.200	9.489	-0.080	0.061
-746.185	12.135	-0.061	-0.047
-745.171	-82.972	0.065	-0.021
-744.156	63.415	-0.172	-0.174
-743.142	-104.485	0.297	-0.069
-742.127	-200.000	-0.023	0.208
-741.112	18.995	0.076	-0.061
-740.098	698.660	0.105	0.279
-739.083	189.446	-0.203	-0.305
-738.069	74.073	-0.254	0.268
-737.054	-182.027	0.386	0.007
-736.039	-148.084	-0.442	0.037
-735.025	-200.000	-0.013	-0.112
-734.010	9.099	-0.429	-0.326
-732.996	368.303	-0.170	-0.346
-731.981	800.000	0.091	0.334
-730.966	34.596	0.109	0.096
-729.952	129.958	-0.062	-0.079
-728.937	32.305	-0.153	-0.132
-727.923	-102.966	-0.278	-0.066
-726.908	3.326	0.202	-0.148
-725.894	656.190	-0.087	-0.223
-724.879	-113.515	0.044	-0.009
-723.864	-136.249	0.488	-0.057
-722.850	-138.311	-0.174	-0.019
-721.835	-200.000	-0.080	-0.414
-720.821	254.715	-0.107	0.184
-719.806	103.850	-0.114	-0.134
-718.791	-26.654	-0.416	-0.245
-717.777	800.000	-0.009	-0.036
-716.762	127.133	-0.087	-0.111
-715.748	132.490	0.138	-0.179
-714.733	-6.106	0.168	0.115
-713.718	800.000	0.059	-0.192
-712.704	-74.274	-0.139	-0.050
-711.689	-120.455	0.034	0.006
-710.675	-87.843	0.279	-0.084
-709.660	158.211	-0.194	-0.270
-708.645	-200.000	-0.011	-0.061
-707.631	647.451	-0.146	0.376
-706.616	136.039	0.114	0.149
-705.602	-200.000	-0.024	-0.475
-704.587	90.925	0.325	-0.366
-703.572	800.000	0.088	-0.375
-702.558	23.579	0.165	-0.137
-701.543	-15.975	-0.241	-0.154
-700.529	430.791	-0.039	-0.085
-699.514	515.697	0.073	-0.172
-698.499	800.000	-0.060	-0.210
-697.485	-200.000	-0.018	-0.184
-696.470	-80.292	-0.233	0.078
-695.456	90.653	0.137	0.154
-694.441	61.559	0.176	0.176
-693.426	126.975	0.152	-0.193
-692.412	-200.000	-0.020	-0.095
-691.397	800.000	0.060	-0.241
-690.383	-200.000	0.043	-0.308
-689.368	177.893	-0.061	-0.090
-688.354	-200.000	-0.060	0.446
-687.339	-114.053	0.134	0.026
-686.324	-200.000	-0.036	-0.202
-685.310	-178.437	-0.287	0.007
-684.295	105.220	-0.207	-0.245
-683.281	414.443	0.089	0.190
-682.266	63.576	0.092	0.092
-681.251	22.276	-0.317	-0.260
-680.237	-155.644	-0.183	0.012
-679.222	800.000	-0.014	-0.050
-678.208	-14.750	0.228	-0.147
-677.193	71.847	-0.097	-0.101
-676.178	38.525	-0.156	-0.140
-675.164	-56.864	-0.390	-0.173
-674.149	-154.194	0.312	0.021
-673.135	68.111	-0.086	0.089
-672.120	457.559	-0.124	0.277
-671.105	315.788	-0.134	0.253
-670.091	-147.592	0.219	-0.018
-669.076	-100.860	0.052	0.013
-668.062	-35.320	-0.233	0.127
-667.047	131.863	0.084	-0.108
-666.032	343.163	0.057	-0.112
-665.018	-159.547	-0.118	0.007
-664.003	-45.054	-0.181	-0.090
-662.989	470.687	0.137	0.310
-661.974	-39.092	0.253	0.134
-660.959	-74.708	-0.188	0.068
-659.945	-91.969	-0.208	-0.059
-658.930	562.030	0.121	0.294
-657.916	-68.172	-0.166	0.065
-656.901	-138.233	0.285	0.032
-655.886	-200.000	0.011	-0.271
-654.872	-1.616	-0.124	-0.088
-653.857	624.954	0.044	0.112
-652.843	-131.948	0.041	-0.005
-651.828	-11.197	-0.095	0.063
-650.814	-145.474	-0.260	0.023
-649.799	35.272	-0.293	-0.258
-648.784	-71.120	-0.222	0.084
-647.770	202.369	-0.080	0.123
-646.755	-74.629	-0.262	0.094
-645.741	-88.011	0.348	0.105
-644.726	800.000	-0.154	-0.532
-643.711	-200.000	-0.008	-0.342
-642.697	158.873	0.154	-0.214
-641.682	260.322	-0.328	-0.568
-640.668	-200.000	0.001	-0.227
-639.653	-85.911	-0.212	0.066
-638.638	-200.000	-0.019	-0.378
-637.624	-200.000	-0.060	-0.446
-636.609	-123.506	0.326	0.052
-635.595	-200.000	0.008	0.069
-634.580	36.121	0.201	0.177
-633.565	-35.726	-0.280	0.152
-632.551	800.000	-0.008	0.029
-631.536	214.979	-0.161	-0.255
-630.522	-200.000	0.031	-0.187
-629.507	-65.341	-0.385	-0.155
-628.492	43.312	-0.128	-0.117
-627.478	297.228	-0.089	-0.163
-626.463	-69.701	-0.263	0.101
-625.449	-200.000	-0.017	-0.289
-624.434	-96.405	0.268	0.071
-623.419	764.853	0.053	0.144
-622.405	-69.297	-0.264	-0.101
-621.390	-86.654	-0.255	0.078
-620.376	16.342	0.194	-0.153
-619.361	-104.610	-0.249	0.057
-618.346	92.264	-0.243	-0.274
-617.332	-14.271	0.513	-0.331
-616.317	123.147	-0.076	0.095
-615.303	-200.000	0.019	0.223
-614.288	99.791	0.153	-0.177
-613.273	-200.000	-0.010	0.113
-612.259	162.070	-0.048	0.067
-611.244	-200.000	-0.004	0.108
-610.230	120.752	-0.164	0.204
-609.215	42.924	0.131	0.119
-608.201	181.869	0.081	0.120
-607.186	-185.063	-0.193	-0.003
-606.171	-46.243	0.122	0.060
-605.157	19.220	0.109	-0.087
-604.142	239.260	-0.128	0.213
-603.128	426.409	0.084	0.181
-602.113	-200.000	-0.029	-0.259
-601.098	-200.000	0.021	-0.112
-600.084	-21.021	-0.163	-0.100
-599.069	216.739	0.163	-0.259
-598.055	120.432	-0.063	0.078
-597.040	-200.000	0.155	0.001
-596.025	-38.429	0.092	0.049
-595.011	41.736	0.206	-0.187
-593.996	33.794	0.185	-0.161
-592.982	-56.195	0.209	0.093
-591.967	33.775	-0.150	-0.130
-590.952	448.790	0.064	-0.140
-589.938	-200.000	0.083	-0.364
-588.923	-200.000	-0.005	-0.157
-587.909	800.000	0.062	0.269
-586.894	-19.427	-0.137	-0.085
-585.879	800.000	0.099	0.290
-584.865	-117.511	-0.253	0.046
-583.850	47.299	0.183	-0.171
-582.836	-0.184	0.207	0.147
-581.821	-200.000	0.039	-0.485
-580.806	-125.820	0.407	0.061
-579.792	-1.588	0.130	-0.092
-578.777	-119.491	-0.450	-0.078
-577.763	-5.229	-0.051	0.035
-576.748	-200.000	0.010	0.185
-575.733	34.603	-0.152	-0.132
-574.719	800.000	-0.043	-0.157
-573.704	-173.116	0.260	-0.008
-572.690	42.341	-0.104	0.094
-571.675	-200.000	0.032	0.172
-570.661	5.390	-0.063	0.047
-569.646	8.234	-0.153	-0.115
-568.631	-200.000	-0.058	-0.267
-567.617	336.280	0.094	-0.181
-566.602	-130.801	-0.133	-0.018
-565.588	-136.094	0.305	-0.036
-564.573	-200.000	0.047	-0.222
-563.558	255.668	0.101	0.173
-562.544	-94.257	-0.089	0.024
-561.529	-200.000	-0.030	-0.234
-560.515	397.512	0.144	0.301
-559.500	275.120	0.019	-0.034
-558.485	-31.559	-0.134	0.075
-557.471	-28.194	-0.177	0.102
-556.456	-42.857	0.061	0.031
-555.442	450.991	0.032	-0.071
-554.427	463.027	-0.038	-0.085
-553.412	800.000	0.068	-0.263
-552.398	12.040	0.185	-0.142
-551.383	798.555	-0.031	0.084
-550.369	79.926	-0.230	0.247
-549.354	337.545	0.084	-0.163
-548.339	-43.675	-0.314	-0.158
-547.325	-200.000	0.023	0.316
-546.310	-56.562	-0.398	0.176
-545.296	-20.914	0.372	-0.228
-544.281	-59.020	0.334	0.144
-543.266	32.265	-0.382	0.329
-542.252	134.895	-0.175	-0.227
-541.237	-200.000	0.034	-0.191
-540.223	-200.000	0.082	0.372
-539.208	124.819	-0.165	0.207
-538.193	274.281	0.123	-0.218
-537.179	-20.557	-0.472	0.289
-536.164	47.817	0.049	0.046
-535.150	-200.000	0.010	-0.094
-534.135	340.309	-0.147	-0.286
-533.121	-76.863	0.173	0.060
-532.106	800.000	0.022	-0.072
-531.091	301.913	0.112	-0.206
-530.077	-200.000	-0.008	-0.156
-529.062	1.869	0.054	-0.039
-528.048	51.759	0.103	-0.098
-527.033	-23.872	-0.079	0.047
-526.018	-98.067	0.159	0.041
-525.004	-200.000	0.070	-0.487
-523.989	-86.884	0.112	0.034
-522.975	-87.041	-0.103	-0.031
-521.960	105.150	0.104	0.122
-520.945	452.084	-0.042	0.093
-519.931	68.374	-0.191	0.195
-518.916	-200.000	0.003	-0.127
-517.902	-9.161	-0.211	0.140
-516.887	-59.916	0.044	-0.019
-515.872	-122.234	0.332	0.054
-514.858	216.404	-0.272	0.431
-513.843	-94.787	-0.179	0.048
-512.829	-200.000	0.059	0.270
-511.814	75.549	0.137	0.144
-510.799	452.301	0.025	-0.055
-509.785	-200.000	0.054	0.286
-508.770	100.895	-0.150	-0.173
-507.756	-128.295	0.161	0.023
-506.741	-200.000	-0.005	-0.120
-505.726	-200.000	0.034	0.522
-504.712	800.000	-0.084	0.341
-503.697	411.316	0.085	0.179
-502.683	-3.702	0.203	0.141
-501.668	-48.520	-0.117	0.056
-500.653	551.873	0.140	0.335
-499.639	328.241	0.035	0.068
-498.624	-183.284	-0.390	-0.007
-497.610	800.000	0.015	-0.043
-496.595	115.319	-0.216	0.263
-495.581	574.068	-0.110	-0.268
-494.566	261.511	0.246	0.424
-493.551	-200.000	0.023	0.176
-492.537	113.946	-0.151	-0.182
-491.522	113.608	0.252	0.305
-490.508	-91.459	-0.249	-0.071
-489.493	-109.252	0.160	-0.034
-488.478	441.168	-0.041	0.090
-487.464	-141.018	-0.150	0.015
-486.449	-200.000	-0.007	0.046
-485.435	800.000	-0.025	0.077
-484.420	-76.761	0.108	-0.037
-483.405	215.723	-0.079	-0.124
-482.391	-26.143	0.098	0.057
-481.376	-96.167	-0.151	-0.040
-480.362	-42.934	0.267	0.135
-479.347	-85.122	-0.304	-0.095
-478.332	-61.071	0.272	0.114
-477.318	-200.000	0.004	0.034
-476.303	-121.339	-0.261	-0.043
-475.289	299.151	-0.132	-0.241
-474.274	-200.000	0.054	-0.244
-473.259	-71.876	0.116	0.043
-472.245	164.114	-0.239	0.335
-471.230	-186.115	-0.311	0.005
-470.216	-200.000	0.019	-0.168
-469.201	162.451	-0.012	0.017
-468.186	-200.000	0.051	-0.263
-467.172	35.406	0.112	-0.097
-466.157	800.000	-0.036	0.137
-465.143	-200.000	0.042	-0.333
-464.128	290.546	0.144	-0.260
-463.113	184.896	0.178	-0.263
-462.099	-130.107	0.293	0.040
-461.084	290.017	-0.111	-0.201
-460.070	800.000	-0.066	-0.193
-459.055	-23.957	0.237	0.141
-458.040	396.718	-0.183	-0.380
-457.026	-200.000	0.011	-0.570
-456.011	-29.236	-0.358	-0.204
-454.997	42.747	0.143	-0.129
-453.982	-133.375	0.359	-0.045
-452.968	800.000	-0.079	-0.324
-451.953	-200.000	0.021	0.104
-450.938	800.000	-0.071	0.268
-449.924	198.721	-0.018	0.027
-448.909	800.000	0.045	0.123
-447.895	-41.618	-0.278	0.142
-446.880	-84.885	0.137	0.043
-445.865	20.208	-0.364	0.292
-444.851	-200.000	-0.043	0.205
-443.836	-158.319	-0.215	-0.012
-442.822	98.320	-0.083	-0.096
-441.807	10.224	-0.122	-0.092
-440.792	33.590	-0.051	0.044
-439.778	199.899	-0.241	0.368
-438.763	-101.463	0.185	-0.045
-437.749	-153.537	0.486	0.033
-436.734	124.216	0.214	-0.267
-435.719	-145.998	-0.341	0.030
-434.705	22.284	0.213	0.173
-433.690	99.224	0.189	-0.218
-432.676	-72.315	0.325	-0.119
-431.661	-200.000	-0.028	-0.424
-430.646	72.871	0.330	-0.342
-429.632	800.000	0.045	-0.191
-428.617	800.000	-0.067	-0.233
-427.603	-56.164	0.210	-0.093
-426.588	127.574	0.118	-0.149
-425.573	-182.192	0.286	-0.005
-424.559	-19.681	-0.338	-0.208
-423.544	47.428	0.142	0.131
-422.530	85.281	0.124	-0.135
-421.515	-120.089	-0.226	0.038
-420.500	-200.000	-0.047	-0.208
-419.486	-145.118	0.275	0.025
-418.471	278.160	0.057	0.101
-417.457	30.465	-0.015	0.013
-416.442	-50.397	0.163	-0.076
-415.428	91.118	-0.245	0.273
-414.413	-200.000	-0.056	0.280
-413.398	496.330	0.093	0.213
-412.384	2.718	-0.218	0.157
-411.369	12.347	0.106	0.081
-410.355	800.000	0.063	0.223
-409.340	46.669	-0.285	0.263
-408.325	435.565	0.261	-0.563
-407.311	30.530	-0.157	0.133
-406.296	214.039	-0.166	0.261
-405.282	188.149	-0.091	0.135
-404.267	123.797	0.148	-0.184
-403.252	800.000	-0.054	-0.222
-402.238	-75.066	0.187	0.067
-401.223	-148.418	0.279	-0.023
-400.209	-141.019	0.257	0.026
-399.194	-7.669	0.222	0.149
-398.179	22.319	-0.254	0.206
-397.165	139.082	0.078	-0.102
-396.150	-200.000	-0.005	0.070
-395.136	28.337	0.224	0.188
-394.121	2.432	0.033	0.024
-393.106	121.099	-0.139	0.171
-392.092	800.000	0.016	0.057
-391.077	399.768	-0.022	-0.045
-390.063	-87.985	-0.416	0.124
-389.048	130.600	-0.213	0.271
-388.033	-64.995	0.302	0.121
-387.019	-65.059	0.345	-0.138
-386.004	-1.411	-0.199	0.139
-384.990	48.014	0.339	-0.314
-383.975	-106.120	0.183	0.041
-382.960	0.731	-0.249	0.177
-381.946	-143.812	-0.175	0.016
-380.931	-200.000	-0.025	-0.308
-379.917	318.958	0.138	0.260
-378.902	79.401	0.328	0.349
-377.888	-15.471	0.351	0.222
-376.873	102.087	-0.338	0.392
-375.858	765.403	-0.017	0.045
-374.844	302.771	0.080	0.148
-373.829	-49.818	-0.167	-0.079
-372.815	733.027	0.065	-0.172
-371.800	800.000	-0.061	0.208
-370.785	21.498	0.041	0.033
-369.771	-200.000	-0.016	0.147
-368.756	412.596	0.081	-0.172
-367.742	222.844	-0.196	-0.313
-366.727	255.459	-0.161	0.274
-365.712	23.516	0.182	0.148
-364.698	25.031	0.078	-0.064
-363.683	-112.856	-0.167	0.033
-362.669	234.540	0.069	-0.112
-361.654	800.000	-0.086	-0.324
-360.639	38.621	-0.245	-0.216
-359.625	16.570	-0.241	0.188
-358.610	800.000	0.073	-0.210
-357.596	-57.507	-0.280	-0.122
-356.581	-98.610	0.082	0.021
-355.566	-82.679	0.213	0.068
-354.552	283.237	-0.163	-0.289
-353.537	-200.000	0.007	-0.042
-352.523	-70.036	-0.464	0.175
-351.508	-200.000	-0.017	0.121
-350.493	-137.988	-0.149	0.016
-349.479	39.963	0.103	-0.092
-348.464	-132.463	0.094	0.012
-347.450	-97.696	0.143	0.037
-346.435	-149.071	-0.348	-0.028
-345.420	7.990	-0.077	0.057
-344.406	-51.501	-0.146	-0.067
-343.391	212.624	-0.059	-0.093
-342.377	74.281	-0.221	0.230
-341.362	-34.495	0.224	0.122
-340.348	5.114	-0.233	0.170
-339.333	-32.444	-0.212	0.117
-338.318	-74.948	0.306	-0.108
-337.304	800.000	-0.134	-0.386
-336.289	9.279	-0.171	0.128
-335.275	59.716	-0.065	0.064
-334.260	800.000	0.045	0.140
-333.245	-68.962	0.344	0.131
-332.231	-29.997	0.225	0.127
-331.216	-15.863	0.208	0.131
-330.202	342.712	-0.126	-0.244
-329.187	308.556	0.109	0.201
-328.172	439.012	-0.076	0.164
-327.158	281.843	0.135	0.240
-326.143	-200.000	0.012	0.110
-325.129	65.840	0.116	-0.117
-324.114	-200.000	-0.006	-0.058
-323.099	-132.794	0.197	0.025
-322.085	17.150	-0.300	0.235
-321.070	-128.339	-0.206	-0.029
-320.056	-115.543	0.064	-0.012
-319.041	43.846	0.148	-0.134
-318.026	-200.000	-0.057	0.302
-317.012	-28.391	0.106	0.060
-315.997	-115.908	-0.299	0.055
-314.983	-200.000	-0.019	0.184
-313.968	-65.727	0.328	0.130
-312.953	81.191	0.160	0.171
-311.939	585.213	0.153	0.371
-310.924	-55.595	-0.129	0.057
-309.910	519.102	0.112	-0.259
-308.895	186.413	0.140	-0.206
-307.880	-87.564	-0.149	-0.045
-306.866	343.612	-0.164	0.318
-305.851	-116.185	-0.167	0.031
-304.837	-112.455	-0.373	-0.074
-303.822	-121.925	0.130	0.021
-302.807	-90.139	-0.353	0.102
-301.793	-141.359	0.286	0.029
-300.778	-97.081	0.232	-0.060
-299.764	243.619	-0.088	-0.145
-298.749	139.315	-0.145	0.188
-297.735	-27.371	-0.126	-0.072
-296.720	-13.750	-0.079	0.051
-295.705	110.827	-0.079	-0.093
-294.691	-129.367	0.199	0.027
-293.676	91.006	-0.201	0.222
-292.662	-44.261	-0.313	0.155
-291.647	-34.058	0.117	-0.064
-290.632	28.796	-0.276	-0.231
-289.618	-147.665	0.248	-0.021
-288.603	-79.376	-0.365	-0.122
-287.589	-156.824	0.393	0.024
-286.574	-140.284	-0.180	-0.019
-285.559	260.323	-0.148	-0.253
-284.545	-158.677	-0.412	0.023
-283.530	-36.446	-0.107	-0.057
-282.516	3.912	0.150	-0.108
-281.501	-200.000	0.025	0.281
-280.486	-93.564	-0.520	-0.142
-279.472	128.232	-0.092	-0.116
-278.457	-6.354	-0.106	0.072
-277.443	-126.153	0.361	-0.053
-276.428	-65.580	0.162	0.064
-275.413	91.111	-0.191	-0.212
-274.399	178.918	0.124	-0.179
-273.384	-66.158	0.251	0.099
-272.370	41.516	-0.203	-0.181
-271.355	-82.874	0.322	0.103
-270.340	-95.152	0.116	0.031
-269.326	-0.613	-0.032	0.023
-268.311	-3.689	0.216	-0.148
-267.297	-38.213	-0.329	-0.172
-266.282	276.017	0.169	-0.295
-265.267	-54.162	-0.319	0.143
-264.253	-5.457	0.087	-0.059
-263.238	-139.174	-0.259	0.028
-262.224	-61.539	0.342	-0.142
-261.209	139.356	0.119	-0.155
-260.195	-200.000	0.014	0.137
-259.180	-103.290	0.136	-0.032
-258.165	800.000	-0.091	-0.278
-257.151	663.766	-0.025	-0.063
-256.136	-200.000	0.004	0.112
-255.122	-118.413	0.165	0.029
-254.107	-133.443	-0.411	0.051
-253.092	-155.367	-0.231	-0.015
-252.078	-83.223	0.248	-0.079
-251.063	-82.952	0.081	0.026
-250.049	-83.286	0.147	0.047
-249.034	66.216	0.080	0.080
-248.019	36.179	-0.455	0.395
-247.005	-111.008	0.190	0.039
-245.990	173.474	-0.162	-0.230
-244.976	-200.000	-0.016	0.100
-243.961	-36.604	-0.162	0.086
-242.946	148.457	-0.103	0.138
-241.932	-129.060	0.417	0.058
-240.917	-200.000	0.038	-0.424
-239.903	264.273	0.066	0.113
-238.888	-200.000	0.014	0.242
-237.873	22.964	-0.119	0.097
-236.859	-200.000	-0.010	0.085
-235.844	609.522	-0.124	-0.304
-234.830	-0.995	-0.082	0.057
-233.815	-200.000	0.010	0.287
-232.800	100.500	-0.117	-0.134
-231.786	-175.194	0.161	0.004
-230.771	-143.311	-0.104	0.010
-229.757	800.000	-0.060	0.179
-228.742	-56.838	0.311	-0.136
-227.727	133.643	0.181	-0.231
-226.713	-95.476	-0.166	-0.044
-225.698	-85.448	-0.123	-0.038
-224.684	-33.922	-0.294	0.159
-223.669	146.464	0.213	0.282
-222.655	-56.747	0.448	-0.195
-221.640	-110.696	0.369	-0.075
-220.625	800.000	0.043	-0.116
-219.611	-88.832	0.166	0.049
-218.596	-39.855	0.301	0.155
-217.582	170.044	-0.132	-0.185
-216.567	9.795	-0.158	-0.118
-215.552	-200.000	-0.013	0.060
-214.538	100.468	-0.043	-0.049
-213.523	64.546	-0.257	0.255
-212.509	-113.168	0.164	0.032
-211.494	-154.645	-0.216	0.014
-210.479	-132.981	-0.316	-0.040
-209.465	-200.000	-0.040	0.301
-208.450	20.392	0.236	-0.188
-207.436	-30.011	0.257	-0.144
-206.421	355.773	0.084	0.164
-205.406	123.353	0.244	-0.301
-204.392	297.365	0.081	0.147
-203.377	-200.000	0.048	0.222
-202.363	-91.837	0.138	0.038
-201.348	158.972	-0.091	-0.124
-200.333	412.035	-0.065	0.136
-199.319	190.989	0.014	-0.021
-198.304	-200.000	-0.008	-0.127
-197.290	-26.027	0.244	-0.142
-196.275	-165.099	0.282	0.012
-195.260	-185.855	0.188	0.003
-194.246	672.920	0.062	-0.159
-193.231	299.682	0.199	0.362
-192.217	-200.000	-0.010	0.287
-191.202	-113.570	0.010	0.002
-190.187	800.000	-0.056	-0.223
-189.173	-200.000	0.018	0.514
-188.158	800.000	-0.059	0.204
-187.144	-62.561	0.478	0.195
-186.129	-133.080	0.185	-0.023
-185.114	-111.428	-0.124	0.025
-184.100	251.926	-0.090	-0.151
-183.085	592.920	-0.111	0.270
-182.071	-106.297	0.028	0.006
-181.056	120.972	0.172	-0.210
-180.042	800.000	0.035	0.102
-179.027	175.429	-0.095	0.136
-178.012	800.000	-0.109	-0.350
-176.998	276.396	0.053	0.092
-175.983	800.000	-0.035	0.113
-174.969	-162.641	0.268	-0.013
-173.954	14.023	0.337	-0.258
-172.939	-48.382	-0.138	0.065
-171.925	-200.000	-0.016	0.326
-170.910	800.000	0.043	-0.118
-169.896	-200.000	-0.041	0.189
-168.881	635.997	-0.041	-0.103
-167.866	613.336	0.054	-0.132
-166.852	150.253	-0.152	0.202
-165.837	-120.404	0.284	-0.047
-164.823	-31.134	-0.220	-0.122
-163.808	260.560	0.055	0.093
-162.793	800.000	-0.008	0.022
-161.779	-200.000	-0.046	0.288
-160.764	-133.735	0.027	-0.003
-159.750	-147.817	0.117	-0.010
-158.735	-134.975	-0.169	0.020
-157.720	101.752	0.175	-0.200
-156.706	-81.526	0.077	-0.025
-155.691	-76.576	0.090	-0.031
-154.677	-200.000	-0.011	0.128
-153.662	-152.439	-0.313	0.022
-152.647	800.000	0.039	-0.124
-151.633	27.900	-0.114	-0.094
-150.618	156.916	0.067	-0.091
-149.604	422.725	0.160	0.337
-148.589	-38.014	0.133	0.069
-147.574	-123.333	-0.238	-0.037
-146.560	-48.860	0.175	-0.083
-145.545	-200.000	0.031	-0.230
-144.531	-61.437	-0.250	0.103
-143.516	-125.137	0.133	-0.020
-142.502	40.637	0.080	-0.071
-141.487	-91.651	-0.474	0.132
-140.472	16.649	0.385	0.299
-139.458	800.000	0.040	-0.136
-138.443	256.639	-0.187	0.315
-137.429	-168.389	0.036	0.001
-136.414	-200.000	0.019	-0.118
-135.399	5.118	-0.077	0.056
-134.385	63.243	0.035	-0.035
-133.370	-12.961	-0.151	0.097
-132.356	98.216	0.158	0.179
-131.341	88.636	-0.055	-0.060
-130.326	800.000	0.037	0.129
-129.312	-68.524	0.115	-0.044
-128.297	742.974	-0.126	-0.333
-127.283	-74.883	-0.213	-0.075
-126.268	682.483	0.092	-0.234
-125.253	289.323	0.058	0.104
-124.239	-3.065	0.317	-0.217
-123.224	-200.000	0.037	-0.296
-122.210	-200.000	0.063	-0.353
-121.195	-200.000	0.029	-0.142
-120.180	-168.826	0.111	0.004
