DTS Sentinel unit serial number:	SN413079Multiplexer serial number:	ORYXHardware model number:	OX4-SRSoftware version number:	ORYX F/W v4.00 Oryx Data Collector v3.7.2.0data status	okinstallation	princeton_trtdifferential loss correction	single-endedforward channel	channel 3reverse channel	N/Adate	2019/09/16time	06:04:34forward acquisition time	60.00reverse acquisition time	0.00gamma	496.2192k internal	0.2334k external	0.2334temperature offset calibration	0.9959default loss term (dB/km)	0.3790temperature slope calibration	1.0000multiplexer offset coefficient	1.0000multiplexer slope coefficient	1.0000fibre end	0.00T internal ref (°C)	27.44T ext. ref 1 (°C)	11.27T ext. ref 2 (°C)	21.96length (m)	temperature (°C)	Stokes	anti-Stokes-747.200	-15.207	-0.331	0.213
-746.185	346.676	-0.148	-0.293
-745.171	125.241	0.091	0.116
-744.156	-93.626	-0.222	0.062
-743.142	-86.905	0.205	-0.063
-742.127	-200.000	-0.061	0.422
-741.112	-42.124	-0.251	0.129
-740.098	-88.885	0.144	0.043
-739.083	84.353	-0.154	0.169
-738.069	9.393	-0.165	-0.125
-737.054	-200.000	0.042	-0.256
-736.039	-64.176	-0.303	0.124
-735.025	378.356	-0.109	-0.223
-734.010	268.311	-0.064	-0.113
-732.996	-104.665	-0.261	-0.060
-731.981	209.666	0.159	0.250
-730.966	-70.660	0.168	-0.064
-729.952	28.642	-0.263	-0.223
-728.937	-102.445	-0.182	0.044
-727.923	128.017	-0.273	-0.348
-726.908	513.999	0.098	-0.229
-725.894	155.065	-0.193	-0.266
-724.879	45.025	0.165	-0.153
-723.864	-160.761	-0.120	0.006
-722.850	158.301	-0.143	-0.199
-721.835	-200.000	0.075	-0.351
-720.821	-87.245	-0.414	0.126
-719.806	158.974	-0.039	-0.055
-718.791	15.011	-0.122	-0.096
-717.777	483.742	0.120	-0.274
-716.762	-123.873	0.147	-0.023
-715.748	-54.287	-0.222	-0.101
-714.733	82.798	0.084	-0.091
-713.718	-60.238	-0.184	0.079
-712.704	36.270	-0.075	-0.067
-711.689	-200.000	-0.047	-0.253
-710.675	-200.000	0.054	-0.452
-709.660	305.796	-0.090	-0.168
-708.645	800.000	0.074	-0.223
-707.631	311.921	-0.203	-0.382
-706.616	20.657	0.234	0.190
-705.602	-150.623	-0.035	0.003
-704.587	-10.986	0.271	-0.180
-703.572	800.000	-0.086	-0.300
-702.558	-195.020	-0.182	-0.001
-701.543	53.995	-0.129	-0.124
-700.529	-56.007	-0.033	-0.015
-699.514	-158.385	-0.298	-0.017
-698.499	-57.931	-0.349	-0.153
-697.485	-92.253	-0.322	0.091
-696.470	-70.546	0.200	-0.076
-695.456	-200.000	0.011	0.147
-694.441	-59.931	-0.321	-0.138
-693.426	66.319	0.194	-0.197
-692.412	108.176	0.097	0.116
-691.397	216.852	-0.036	0.057
-690.383	800.000	-0.031	-0.105
-689.368	-200.000	0.031	-0.177
-688.354	800.000	-0.094	0.408
-687.339	328.221	0.116	-0.224
-686.324	8.881	-0.138	0.104
-685.310	-87.636	0.071	0.022
-684.295	-86.540	0.212	-0.065
-683.281	800.000	0.023	-0.082
-682.266	-117.769	-0.231	0.042
-681.251	-200.000	0.195	0.001
-680.237	800.000	-0.085	0.305
-679.222	26.723	-0.042	0.035
-678.208	-200.000	0.057	-0.435
-677.193	800.000	-0.048	0.191
-676.178	-77.701	0.222	-0.077
-675.164	58.578	0.244	-0.240
-674.149	233.025	0.011	0.018
-673.135	-200.000	-0.010	-0.211
-672.120	-106.529	-0.278	-0.062
-671.105	-200.000	-0.035	0.176
-670.091	36.182	0.159	-0.140
-669.076	-86.993	-0.120	-0.037
-668.062	-112.457	-0.168	0.034
-667.047	-200.000	0.017	0.192
-666.032	100.691	0.205	0.238
-665.018	-155.633	0.113	-0.007
-664.003	800.000	-0.057	-0.170
-662.989	0.843	0.325	-0.233
-661.974	800.000	-0.042	0.128
-660.959	30.707	-0.158	-0.135
-659.945	800.000	-0.078	-0.296
-658.930	-15.389	-0.132	0.085
-657.916	-83.888	-0.290	-0.093
-656.901	68.294	-0.100	0.102
-655.886	315.545	-0.110	0.208
-654.872	98.796	0.178	0.206
-653.857	111.356	-0.095	-0.114
-652.843	-200.000	-0.021	0.324
-651.828	91.738	-0.065	-0.073
-650.814	-200.000	0.055	0.324
-649.799	273.063	-0.160	0.283
-648.784	800.000	0.025	-0.078
-647.770	-30.585	0.109	-0.062
-646.755	431.430	0.046	0.100
-645.741	148.616	-0.031	-0.042
-644.726	800.000	0.034	0.137
-643.711	-22.294	0.203	-0.123
-642.697	800.000	0.067	-0.225
-641.682	-98.661	0.151	0.038
-640.668	799.821	-0.042	0.117
-639.653	-86.998	0.171	0.052
-638.638	70.118	-0.051	0.053
-637.624	-126.386	-0.243	0.036
-636.609	144.063	-0.093	0.124
-635.595	31.066	-0.305	-0.262
-634.580	-24.106	-0.187	-0.112
-633.565	782.852	-0.084	-0.230
-632.551	-46.804	-0.205	-0.100
-631.536	-59.155	-0.085	0.037
-630.522	-84.536	0.050	0.016
-629.507	518.974	-0.131	0.308
-628.492	195.288	-0.140	0.213
-627.478	-70.194	0.188	-0.072
-626.463	83.941	0.037	0.040
-625.449	374.427	-0.001	-0.003
-624.434	-200.000	0.020	0.248
-623.419	-56.738	-0.216	-0.095
-622.405	-200.000	0.043	-0.262
-621.390	-59.677	0.136	-0.058
-620.376	-22.441	-0.360	-0.218
-619.361	68.508	-0.218	-0.224
-618.346	-76.938	0.363	0.127
-617.332	-200.000	0.005	0.087
-616.317	281.564	-0.164	-0.294
-615.303	-141.389	0.246	-0.025
-614.288	-67.475	0.322	0.126
-613.273	-72.581	-0.320	-0.118
-612.259	-32.553	0.439	0.244
-611.244	55.798	0.151	0.146
-610.230	-146.219	-0.180	-0.016
-609.215	-37.224	-0.278	-0.149
-608.201	800.000	0.079	-0.322
-607.186	15.991	-0.161	-0.127
-606.171	-200.000	-0.012	0.231
-605.157	184.816	-0.133	-0.197
-604.142	-65.960	0.216	-0.086
-603.128	143.939	-0.055	-0.074
-602.113	-7.383	-0.089	-0.060
-601.098	69.661	0.137	-0.141
-600.084	745.526	-0.125	-0.336
-599.069	-144.634	0.269	-0.025
-598.055	-58.912	0.305	0.132
-597.040	-200.000	0.033	0.217
-596.025	301.103	-0.023	-0.043
-595.011	578.226	0.040	-0.097
-593.996	-200.000	0.011	-0.210
-592.982	-137.624	0.221	0.025
-591.967	-76.310	-0.207	0.073
-590.952	-200.000	-0.069	0.336
-589.938	-46.331	0.124	0.061
-588.923	-51.482	-0.042	0.020
-587.909	263.253	-0.149	0.258
-586.894	-160.263	-0.122	-0.007
-585.879	-117.944	0.167	0.030
-584.865	-1.207	-0.138	-0.098
-583.850	-200.000	-0.028	-0.139
-582.836	-87.017	-0.247	0.075
-581.821	672.812	0.112	0.289
-580.806	-191.401	-0.185	0.002
-579.792	-154.427	-0.523	0.035
-578.777	17.065	-0.263	0.208
-577.763	756.982	0.090	-0.243
-576.748	-65.385	0.200	-0.080
-575.733	209.056	0.091	-0.143
-574.719	-54.252	0.387	0.176
-573.704	800.000	0.068	0.295
-572.690	-48.525	0.288	0.138
-571.675	245.809	-0.090	-0.152
-570.661	69.593	0.277	0.285
-569.646	-200.000	-0.003	0.153
-568.631	-68.369	0.247	-0.096
-567.617	-1.418	0.233	0.164
-566.602	117.491	0.090	-0.111
-565.588	800.000	-0.075	-0.209
-564.573	-43.690	0.105	0.053
-563.558	-122.700	-0.197	0.032
-562.544	78.164	-0.175	-0.186
-561.529	509.744	-0.183	-0.425
-560.515	-50.915	-0.247	-0.116
-559.500	800.000	0.035	0.118
-558.485	-1.187	0.132	0.093
-557.471	391.923	0.149	-0.309
-556.456	278.198	-0.066	-0.118
-555.442	-29.544	0.147	0.084
-554.427	-116.228	-0.246	0.045
-553.412	-82.317	0.302	-0.098
-552.398	-200.000	-0.069	-0.327
-551.383	-148.853	-0.252	-0.020
-550.369	-129.085	0.069	0.010
-549.354	-200.000	-0.007	0.117
-548.339	-10.091	-0.244	0.161
-547.325	-178.129	-0.213	-0.005
-546.310	-200.000	0.011	0.237
-545.296	54.658	0.156	-0.150
-544.281	-122.438	0.329	0.053
-543.266	115.241	-0.053	0.065
-542.252	-26.508	-0.286	0.167
-541.237	-200.000	0.028	-0.182
-540.223	-200.000	-0.012	-0.054
-539.208	800.000	-0.016	-0.058
-538.193	207.620	-0.033	0.052
-537.179	330.438	-0.006	0.011
-536.164	-148.323	0.158	-0.013
-535.150	-57.915	0.181	-0.079
-534.135	262.569	-0.119	-0.205
-533.121	169.432	-0.112	-0.160
-532.106	-67.990	0.146	0.057
-531.091	-21.246	-0.343	0.209
-530.077	151.158	0.263	-0.357
-529.062	16.988	-0.153	0.120
-528.048	697.276	-0.079	-0.206
-527.033	30.961	-0.233	-0.199
-526.018	204.811	0.083	0.128
-525.004	369.856	0.068	-0.137
-523.989	-200.000	-0.001	-0.189
-522.975	142.627	-0.085	-0.112
-521.960	-45.821	0.250	0.123
-520.945	-200.000	0.049	-0.220
-519.931	-73.746	0.116	-0.042
-518.916	-161.468	0.130	0.007
-517.902	-200.000	-0.218	-0.001
-516.887	-200.000	0.000	0.181
-515.872	-98.007	0.306	0.079
-514.858	-200.000	0.003	0.175
-513.843	-200.000	0.018	0.119
-512.829	-49.641	0.017	0.008
-511.814	295.855	0.031	-0.056
-510.799	800.000	-0.115	-0.408
-509.785	152.191	0.176	-0.239
-508.770	-33.992	-0.076	-0.042
-507.756	-200.000	0.019	0.085
-506.741	480.837	-0.039	0.089
-505.726	137.143	-0.036	-0.046
-504.712	-110.946	-0.099	-0.020
-503.697	6.961	-0.066	-0.049
-502.683	188.572	-0.056	-0.084
-501.668	-200.000	-0.003	0.188
-500.653	-88.639	0.387	0.115
-499.639	307.704	0.117	0.217
-498.624	-24.021	-0.086	0.051
-497.610	128.351	0.120	0.152
-496.595	-142.309	0.070	0.007
-495.581	130.372	0.163	0.207
-494.566	-200.000	-0.045	0.222
-493.551	509.164	0.084	-0.194
-492.537	-146.894	0.076	-0.007
-491.522	-157.203	-0.011	0.001
-490.508	-36.934	-0.325	-0.174
-489.493	-200.000	0.015	-0.120
-488.478	39.809	-0.339	-0.303
-487.464	17.508	-0.219	-0.173
-486.449	13.813	0.148	0.115
-485.435	-183.692	-0.092	0.002
-484.420	-50.042	0.065	0.031
-483.405	-200.000	-0.001	0.004
-482.391	337.047	-0.119	0.231
-481.376	-200.000	-0.008	0.078
-480.362	1.246	0.118	-0.084
-479.347	547.998	0.057	-0.136
-478.332	-130.640	0.354	0.047
-477.318	-73.128	0.215	-0.079
-476.303	41.833	0.130	-0.118
-475.289	34.281	-0.214	-0.186
-474.274	-170.903	0.367	0.012
-473.259	-80.594	0.039	-0.013
-472.245	-166.237	-0.162	-0.007
-471.230	-19.691	-0.055	-0.034
-470.216	355.444	-0.078	-0.155
-469.201	-41.448	0.272	-0.139
-468.186	-183.067	0.194	0.003
-467.172	190.041	-0.074	0.111
-466.157	-45.225	-0.244	0.120
-465.143	-125.899	-0.159	0.024
-464.128	212.715	-0.037	-0.057
-463.113	-200.000	0.003	0.118
-462.099	-200.000	-0.018	-0.404
-461.084	-103.317	-0.134	-0.031
-460.070	-152.718	0.246	0.017
-459.055	-114.239	-0.126	0.024
-458.040	-138.253	-0.248	-0.027
-457.026	-57.038	-0.322	-0.141
-456.011	-92.290	-0.345	-0.097
-454.997	473.210	0.105	-0.235
-453.982	-200.000	-0.005	0.166
-452.968	-200.000	0.023	0.354
-451.953	-45.838	0.096	0.047
-450.938	547.450	-0.052	-0.124
-449.924	224.286	-0.074	-0.118
-448.909	-94.095	0.216	-0.059
-447.895	284.686	0.062	-0.111
-446.880	364.086	0.036	-0.072
-445.865	-72.039	-0.151	-0.056
-444.851	2.177	0.333	0.239
-443.836	-137.703	-0.295	0.033
-442.822	-120.317	0.327	-0.055
-441.807	-86.591	0.307	-0.094
-440.792	-139.251	0.227	-0.024
-439.778	167.422	-0.035	-0.050
-438.763	77.584	0.204	0.216
-437.749	256.029	-0.117	0.199
-436.734	-200.000	-0.000	0.225
-435.719	-76.318	-0.097	-0.034
-434.705	28.903	0.172	0.144
-433.690	-129.271	0.268	-0.037
-432.676	35.180	-0.233	0.203
-431.661	-85.124	-0.155	-0.048
-430.646	-186.532	0.120	-0.002
-429.632	-200.000	-0.004	0.076
-428.617	-200.000	0.054	-0.273
-427.603	-114.017	-0.253	0.049
-426.588	-48.183	-0.281	-0.135
-425.573	794.680	0.053	-0.146
-424.559	-90.596	-0.321	0.092
-423.544	5.822	0.246	0.180
-422.530	620.049	0.039	0.097
-421.515	241.047	-0.048	0.080
-420.500	-57.166	-0.108	0.047
-419.486	101.810	0.136	0.158
-418.471	-198.267	-0.242	-0.001
-417.457	8.029	0.102	-0.076
-416.442	498.589	-0.030	-0.068
-415.428	-149.471	-0.294	-0.023
-414.413	352.089	-0.102	-0.200
-413.398	800.000	0.107	0.391
-412.384	800.000	0.113	0.321
-411.369	683.994	0.190	0.492
-410.355	278.789	-0.066	-0.118
-409.340	373.738	0.116	-0.234
-408.325	-71.564	0.072	-0.027
-407.311	800.000	0.060	0.209
-406.296	-11.863	0.294	0.191
-405.282	800.000	-0.081	-0.307
-404.267	175.392	0.135	0.193
-403.252	6.242	-0.112	-0.082
-402.238	213.562	0.147	0.230
-401.223	800.000	0.028	-0.112
-400.209	228.065	-0.060	-0.097
-399.194	-51.907	-0.347	-0.160
-398.179	-93.758	0.039	-0.011
-397.165	-101.150	-0.111	0.027
-396.150	-15.725	-0.057	0.036
-395.136	-200.000	-0.008	0.123
-394.121	300.429	0.074	-0.135
-393.106	-63.289	0.150	-0.061
-392.092	-107.298	0.160	-0.035
-391.077	-200.000	-0.016	-0.159
-390.063	-112.129	0.237	0.047
-389.048	426.607	0.127	0.272
-388.033	-166.201	-0.482	-0.020
-387.019	64.033	0.190	0.190
-386.004	191.919	0.158	-0.236
-384.990	92.818	-0.190	-0.212
-383.975	96.182	-0.209	-0.237
-382.960	-48.020	-0.175	0.084
-381.946	1.276	0.276	-0.196
-380.931	-200.000	0.011	0.189
-379.917	13.291	0.283	0.217
-378.902	395.476	-0.064	-0.131
-377.888	-24.677	-0.120	-0.071
-376.873	478.604	-0.100	-0.225
-375.858	-200.000	0.066	0.394
-374.844	-157.202	-0.076	-0.005
-373.829	-111.401	-0.202	0.041
-372.815	-62.651	-0.080	0.033
-371.800	172.540	0.063	0.090
-370.785	-19.440	0.079	0.048
-369.771	800.000	0.053	0.200
-368.756	357.134	0.215	-0.424
-367.742	-31.286	-0.209	-0.117
-366.727	-127.684	-0.227	-0.032
-365.712	122.434	-0.148	0.184
-364.698	179.985	0.122	-0.177
-363.683	353.112	0.055	0.109
-362.669	-3.565	0.217	-0.150
-361.654	67.834	0.115	-0.116
-360.639	-90.670	-0.347	-0.099
-359.625	13.175	0.024	-0.018
-358.610	800.000	-0.043	0.121
-357.596	-96.633	-0.186	0.049
-356.581	-200.000	-0.038	-0.314
-355.566	-90.645	-0.158	0.045
-354.552	152.493	0.200	0.271
-353.537	800.000	-0.078	0.315
-352.523	12.758	0.365	-0.279
-351.508	-200.000	0.024	-0.267
-350.493	281.574	0.051	0.091
-349.479	-13.878	-0.264	-0.169
-348.464	800.000	0.055	0.212
-347.450	-32.231	-0.219	-0.121
-346.435	-165.056	0.338	0.015
-345.420	-39.304	-0.130	-0.067
-344.406	42.231	-0.306	0.275
-343.391	-10.295	-0.140	0.092
-342.377	-86.302	0.339	-0.103
-341.362	-200.000	0.044	0.354
-340.348	-10.294	-0.137	0.090
-339.333	-21.095	0.222	0.134
-338.318	317.821	-0.021	0.039
-337.304	-101.104	-0.169	-0.041
-336.289	-5.098	-0.324	-0.221
-335.275	-125.816	-0.262	-0.039
-334.260	190.845	-0.157	-0.234
-333.245	338.406	-0.132	-0.253
-332.231	466.277	0.013	-0.029
-331.216	-200.000	0.021	-0.136
-330.202	-200.000	0.048	-0.000
-329.187	800.000	-0.051	-0.184
-328.172	-200.000	0.006	-0.071
-327.158	800.000	-0.137	-0.472
-326.143	-72.256	-0.200	0.073
-325.129	59.388	0.191	0.186
-324.114	-200.000	0.013	0.201
-323.099	-200.000	-0.052	-0.273
-322.085	464.494	-0.038	-0.083
-321.070	-80.941	-0.024	-0.008
-320.056	584.408	-0.150	0.363
-319.041	17.882	0.069	0.055
-318.026	446.150	0.062	0.135
-317.012	11.548	0.178	0.135
-315.997	339.535	-0.125	0.242
-314.983	167.752	-0.157	-0.221
-313.968	-200.000	-0.003	0.149
-312.953	40.103	-0.235	-0.209
-311.939	-25.498	0.207	0.121
-310.924	-200.000	-0.013	-0.260
-309.910	76.179	0.099	-0.103
-308.895	-137.081	0.246	0.028
-307.880	458.004	0.117	0.257
-306.866	-101.534	-0.234	0.056
-305.851	-128.860	-0.003	-0.000
-304.837	154.749	-0.235	-0.320
-303.822	28.005	-0.160	0.133
-302.807	70.585	-0.154	0.158
-301.793	230.860	0.149	0.241
-300.778	-159.468	0.223	0.012
-299.764	165.377	0.076	-0.106
-298.749	462.983	-0.123	0.272
-297.735	800.000	-0.015	-0.051
-296.720	-98.547	-0.058	-0.015
-295.705	-160.531	0.248	0.013
-294.691	-59.269	-0.100	-0.043
-293.676	-168.262	0.109	0.004
-292.662	505.284	0.042	0.095
-291.647	-116.792	0.339	0.061
-290.632	-200.000	0.020	0.154
-289.618	-200.000	0.001	-0.040
-288.603	800.000	0.056	0.170
-287.589	85.877	-0.177	0.192
-286.574	-91.738	-0.107	0.030
-285.559	13.407	0.140	-0.107
-284.545	-3.634	-0.354	0.243
-283.530	-128.314	-0.262	0.037
-282.516	-70.492	-0.385	-0.144
-281.501	-108.160	-0.072	0.015
-280.486	-153.427	-0.116	0.008
-279.472	27.848	0.155	0.129
-278.457	54.499	0.113	-0.108
-277.443	656.411	0.016	0.040
-276.428	-98.893	0.146	-0.037
-275.413	-116.966	-0.203	0.037
-274.399	-119.587	0.081	-0.014
-273.384	-11.468	-0.154	0.100
-272.370	111.881	-0.155	0.185
-271.355	800.000	-0.121	0.359
-270.340	-131.473	0.097	-0.013
-269.326	184.301	0.295	0.431
-268.311	525.877	-0.129	-0.299
-267.297	-200.000	0.023	-0.144
-266.282	-200.000	-0.030	0.159
-265.267	-23.048	-0.142	-0.085
-264.253	571.417	-0.040	-0.096
-263.238	-25.576	-0.143	-0.083
-262.224	800.000	-0.050	-0.184
-261.209	-75.886	0.057	-0.020
-260.195	569.080	-0.043	0.103
-259.180	65.473	-0.185	0.184
-258.165	800.000	0.161	0.545
-257.151	-78.845	-0.182	-0.061
-256.136	-72.576	0.285	-0.104
-255.122	-17.391	-0.113	-0.070
-254.107	800.000	0.046	0.177
-253.092	-11.453	-0.326	-0.212
-252.078	372.745	-0.149	-0.298
-251.063	59.332	-0.091	-0.088
-250.049	545.465	-0.070	0.165
-249.034	113.112	0.103	-0.123
-248.019	800.000	-0.026	0.071
-247.005	245.924	-0.081	-0.135
-245.990	-38.573	-0.203	-0.106
-244.976	-200.000	-0.026	-0.146
-243.961	-106.545	-0.211	0.046
-242.946	14.992	0.109	-0.084
-241.932	-110.937	0.125	-0.025
-240.917	-109.653	0.115	0.024
-239.903	800.000	0.077	0.310
-238.888	151.917	0.094	0.126
-237.873	-23.733	0.086	-0.051
-236.859	67.232	-0.102	-0.102
-235.844	-174.911	0.368	0.010
-234.830	-131.648	0.152	0.020
-233.815	-65.682	0.057	0.022
-232.800	800.000	-0.021	-0.057
-231.786	21.262	-0.068	-0.054
-230.771	44.231	-0.242	-0.218
-229.757	800.000	0.130	0.519
-228.742	-200.000	-0.021	-0.247
-227.727	154.593	0.100	0.135
-226.713	-57.292	0.154	-0.067
-225.698	-124.980	0.132	-0.020
-224.684	-104.264	-0.330	0.075
-223.669	21.525	-0.284	-0.228
-222.655	20.491	-0.095	-0.076
-221.640	800.000	0.124	0.459
-220.625	-179.544	-0.359	0.008
-219.611	64.409	0.101	-0.100
-218.596	57.412	-0.080	-0.077
-217.582	-200.000	0.012	0.122
-216.567	-65.010	-0.253	0.101
-215.552	192.567	0.172	-0.255
-214.538	-5.980	0.081	0.054
-213.523	81.103	-0.216	-0.230
-212.509	-38.630	-0.088	0.046
-211.494	-47.170	-0.258	-0.124
-210.479	-45.753	0.224	0.109
-209.465	316.644	0.231	-0.430
-208.450	121.886	0.081	0.099
-207.436	-34.792	-0.218	-0.117
-206.421	-200.000	-0.003	-0.096
-205.406	-133.107	0.015	0.002
-204.392	429.605	0.105	0.223
-203.377	113.109	0.085	0.101
-202.363	-137.990	0.270	-0.030
-201.348	-98.432	-0.357	-0.090
-200.333	-40.159	0.218	-0.112
-199.319	-200.000	-0.015	-0.111
-198.304	4.216	0.131	0.094
-197.290	800.000	-0.159	-0.549
-196.275	800.000	0.112	-0.348
-195.260	-137.545	-0.211	0.023
-194.246	143.115	0.105	0.137
-193.231	395.518	0.088	0.180
-192.217	-200.000	0.038	0.183
-191.202	-84.592	0.334	0.104
-190.187	-200.000	0.037	-0.410
-189.173	-163.690	0.393	0.018
-188.158	161.711	0.237	0.327
-187.144	800.000	-0.061	0.213
-186.129	190.037	0.033	0.049
-185.114	113.054	-0.056	0.067
-184.100	34.130	0.081	-0.070
-183.085	-12.783	-0.089	-0.057
-182.071	800.000	-0.012	0.047
-181.056	-93.250	0.253	-0.069
-180.042	338.142	-0.114	0.218
-179.027	-200.000	-0.013	0.348
-178.012	121.733	0.123	0.150
-176.998	-8.370	-0.082	0.054
-175.983	-92.727	0.230	0.063
-174.969	-200.000	0.023	-0.149
-173.954	-99.717	-0.203	-0.050
-172.939	-74.442	0.053	0.019
-171.925	-144.063	0.227	-0.021
-170.910	-200.000	-0.050	-0.312
-169.896	41.093	0.102	-0.091
-168.881	-111.861	0.123	0.024
-167.866	677.086	-0.070	-0.177
-166.852	168.530	-0.129	0.180
-165.837	147.645	0.077	0.102
-164.823	-129.589	0.260	0.035
-163.808	58.864	0.074	0.072
-162.793	-34.793	0.256	-0.137
-161.779	800.000	-0.091	0.367
-160.764	81.885	-0.101	-0.107
-159.750	-65.082	0.370	-0.147
-158.735	302.814	-0.014	-0.026
-157.720	228.570	0.151	0.241
-156.706	143.201	0.238	0.311
-155.691	-67.761	-0.380	-0.146
-154.677	-100.396	0.097	-0.024
-153.662	-67.427	0.066	0.026
-152.647	28.354	0.224	0.186
-151.633	-3.035	0.288	0.198
-150.618	94.055	-0.019	0.021
-149.604	-29.278	0.171	-0.096
-148.589	-47.724	-0.154	0.073
-147.574	694.210	0.113	0.292
-146.560	-200.000	0.020	-0.192
-145.545	-154.921	-0.158	0.010
-144.531	-91.540	-0.211	-0.059
-143.516	-200.000	-0.018	-0.271
-142.502	84.726	0.063	0.067
-141.487	-200.000	-0.084	0.402
-140.472	-200.000	-0.010	0.351
-139.458	-200.000	-0.025	0.284
-138.443	-63.314	0.284	0.115
-137.429	800.000	0.080	0.223
-136.414	164.467	-0.179	0.247
-135.399	134.674	0.097	0.124
-134.385	-83.644	0.287	0.090
-133.370	-143.288	-0.165	-0.016
-132.356	-52.400	-0.163	-0.074
-131.341	-137.743	-0.189	0.021
-130.326	-200.000	-0.010	0.138
-129.312	-73.811	-0.191	-0.068
-128.297	-61.472	-0.157	-0.065
-127.283	800.000	0.075	0.306
-126.268	-200.000	-0.017	-0.182
-125.253	-92.761	0.094	-0.026
-124.239	117.776	0.023	0.028
-123.224	33.154	0.124	0.106
-122.210	214.163	-0.180	-0.279
