DTS Sentinel unit serial number:	SN413079Multiplexer serial number:	ORYXHardware model number:	OX4-SRSoftware version number:	ORYX F/W v4.00 Oryx Data Collector v3.7.2.0data status	okinstallation	princeton_trtdifferential loss correction	single-endedforward channel	channel 3reverse channel	N/Adate	2019/09/15time	06:28:35forward acquisition time	60.00reverse acquisition time	0.00gamma	496.2192k internal	0.2324k external	0.2324temperature offset calibration	0.9980default loss term (dB/km)	0.3790temperature slope calibration	1.0000multiplexer offset coefficient	1.0000multiplexer slope coefficient	1.0000fibre end	0.00T internal ref (°C)	30.50T ext. ref 1 (°C)	4.82T ext. ref 2 (°C)	25.37length (m)	temperature (°C)	Stokes	anti-Stokes-747.200	-65.412	-0.252	-0.102
-746.185	-200.000	0.020	0.167
-745.171	-78.300	-0.211	0.073
-744.156	211.551	-0.304	0.483
-743.142	-200.000	0.000	-0.285
-742.127	-200.000	0.007	0.317
-741.112	-200.000	-0.520	-0.001
-740.098	142.754	-0.186	0.249
-739.083	180.008	-0.071	0.105
-738.069	201.100	-0.125	0.194
-737.054	98.902	-0.146	0.170
-736.039	-137.709	-0.312	-0.035
-735.025	-92.703	-0.195	-0.055
-734.010	-200.000	-0.030	-0.179
-732.996	-31.619	-0.121	0.069
-731.981	623.867	-0.156	-0.396
-730.966	-135.721	0.311	0.037
-729.952	-94.395	0.125	0.034
-728.937	597.997	-0.010	-0.026
-727.923	192.490	-0.233	0.355
-726.908	800.000	-0.033	0.124
-725.894	-40.595	-0.119	-0.062
-724.879	-148.098	0.167	0.014
-723.864	800.000	-0.107	-0.441
-722.850	-139.703	0.066	-0.007
-721.835	563.929	-0.047	0.116
-720.821	554.257	-0.109	-0.264
-719.806	44.973	0.285	-0.264
-718.791	221.716	-0.249	0.404
-717.777	28.738	-0.040	-0.034
-716.762	-200.000	-0.036	-0.387
-715.748	-127.532	0.129	0.019
-714.733	-35.866	-0.346	-0.189
-713.718	-13.003	-0.315	0.206
-712.704	800.000	0.045	-0.138
-711.689	-70.901	-0.270	0.102
-710.675	21.567	0.236	-0.194
-709.660	602.683	-0.023	-0.057
-708.645	233.914	0.160	-0.265
-707.631	465.981	-0.112	-0.253
-706.616	-98.090	-0.191	0.050
-705.602	289.623	0.122	-0.223
-704.587	-135.525	0.178	0.021
-703.572	-25.150	0.160	-0.095
-702.558	39.119	0.220	-0.198
-701.543	-185.458	-0.107	-0.002
-700.529	-200.000	0.021	-0.125
-699.514	-139.029	-0.273	0.030
-698.499	18.689	0.083	-0.067
-697.485	153.255	-0.071	0.098
-696.470	-41.674	-0.093	0.048
-695.456	-200.000	0.043	-0.203
-694.441	173.644	0.178	0.259
-693.426	345.198	0.063	-0.124
-692.412	-94.481	-0.261	0.072
-691.397	-148.031	-0.029	-0.002
-690.383	74.567	0.216	-0.229
-689.368	-46.646	0.171	-0.084
-688.354	31.783	-0.083	-0.072
-687.339	53.349	-0.093	-0.090
-686.324	-15.685	-0.109	-0.070
-685.310	-46.597	0.304	-0.150
-684.295	428.855	-0.076	0.166
-683.281	-151.768	0.276	0.020
-682.266	-147.590	-0.195	-0.017
-681.251	800.000	-0.056	0.183
-680.237	65.602	-0.057	0.058
-679.222	-200.000	0.033	-0.146
-678.208	30.943	0.123	-0.106
-677.193	442.027	0.052	-0.115
-676.178	-14.737	0.074	0.048
-675.164	-142.867	0.132	0.013
-674.149	800.000	-0.028	-0.119
-673.135	-200.000	-0.049	-0.288
-672.120	-94.732	-0.307	-0.084
-671.105	800.000	-0.048	-0.143
-670.091	238.971	-0.180	0.302
-669.076	173.365	-0.226	-0.328
-668.062	91.366	0.254	0.287
-667.047	-107.988	0.117	-0.026
-666.032	-160.903	-0.121	0.006
-665.018	-43.865	0.323	0.163
-664.003	800.000	0.044	0.132
-662.989	800.000	0.048	0.137
-661.974	-125.754	0.104	0.016
-660.959	65.943	0.270	-0.275
-659.945	-85.423	-0.152	-0.048
-658.930	320.822	0.189	0.361
-657.916	-200.000	0.076	0.361
-656.901	236.715	0.054	-0.089
-655.886	149.732	-0.057	0.078
-654.872	8.507	0.092	0.069
-653.857	-134.096	0.209	0.026
-652.843	-200.000	-0.016	-0.150
-651.828	-47.006	0.241	-0.118
-650.814	-78.947	0.062	-0.021
-649.799	800.000	0.036	0.122
-648.784	-200.000	-0.063	0.448
-647.770	37.372	-0.101	-0.090
-646.755	-21.676	-0.057	0.035
-645.741	751.066	-0.032	-0.086
-644.726	170.476	0.059	-0.085
-643.711	80.870	0.220	-0.239
-642.697	-78.916	-0.032	0.011
-641.682	104.423	-0.149	-0.177
-640.668	-126.104	-0.198	-0.030
-639.653	82.090	-0.135	0.147
-638.638	229.423	-0.103	0.169
-637.624	60.418	0.201	0.200
-636.609	325.162	-0.079	-0.151
-635.595	233.024	-0.117	0.194
-634.580	-200.000	-0.002	-0.013
-633.565	-200.000	-0.055	-0.414
-632.551	294.352	0.168	-0.309
-631.536	-37.629	0.265	-0.142
-630.522	536.499	-0.049	-0.116
-629.507	-165.476	0.082	0.004
-628.492	-89.091	-0.123	-0.037
-627.478	-143.927	0.239	0.023
-626.463	-1.141	0.262	-0.186
-625.449	506.043	0.055	-0.127
-624.434	800.000	0.050	0.187
-623.419	-143.416	-0.223	-0.021
-622.405	-124.854	-0.411	0.064
-621.390	-142.222	-0.223	0.022
-620.376	800.000	0.041	0.135
-619.361	47.765	-0.218	0.204
-618.346	-144.260	-0.087	0.008
-617.332	301.868	-0.133	-0.246
-616.317	-170.573	0.302	-0.011
-615.303	118.708	0.101	-0.125
-614.288	-68.053	-0.328	-0.129
-613.273	410.502	-0.050	0.107
-612.259	-88.713	-0.114	-0.034
-611.244	-109.309	-0.213	-0.045
-610.230	46.383	0.234	-0.218
-609.215	14.228	-0.054	0.042
-608.201	-123.088	0.296	0.048
-607.186	-9.422	-0.226	-0.152
-606.171	520.643	-0.109	-0.258
-605.157	73.035	-0.374	-0.392
-604.142	-62.970	-0.069	-0.029
-603.128	-74.862	-0.413	-0.149
-602.113	-200.000	-0.033	0.253
-601.098	96.923	-0.158	0.182
-600.084	800.000	0.035	0.131
-599.069	800.000	-0.164	-0.454
-598.055	82.008	-0.141	-0.154
-597.040	620.428	-0.032	-0.080
-596.025	259.365	0.096	-0.167
-595.011	-200.000	-0.022	-0.167
-593.996	-101.829	0.235	-0.057
-592.982	46.122	0.217	-0.202
-591.967	800.000	-0.041	-0.141
-590.952	544.170	-0.116	0.278
-589.938	-161.139	-0.284	-0.015
-588.923	250.966	0.026	-0.044
-587.909	-200.000	-0.030	-0.179
-586.894	800.000	-0.035	0.115
-585.879	800.000	-0.022	0.064
-584.865	800.000	0.115	0.502
-583.850	-1.074	0.172	0.122
-582.836	-56.005	-0.068	-0.030
-581.821	-6.095	-0.226	0.155
-580.806	45.149	0.244	-0.226
-579.792	-200.000	0.045	0.222
-578.777	-64.575	-0.372	-0.152
-577.763	800.000	0.041	-0.134
-576.748	283.714	-0.033	-0.060
-575.733	30.109	-0.091	-0.078
-574.719	-27.360	0.132	-0.077
-573.704	-52.050	0.071	-0.033
-572.690	202.759	-0.131	-0.203
-571.675	-200.000	-0.017	-0.132
-570.661	5.668	0.223	0.165
-569.646	348.853	0.015	-0.029
-568.631	-200.000	-0.014	0.094
-567.617	-9.397	-0.182	-0.122
-566.602	388.909	0.137	0.285
-565.588	16.580	-0.130	0.103
-564.573	800.000	0.086	0.360
-563.558	-200.000	0.018	0.112
-562.544	214.971	0.098	0.155
-561.529	-149.740	0.199	0.016
-560.515	288.349	-0.095	-0.173
-559.500	256.311	0.072	0.124
-558.485	207.022	0.106	-0.165
-557.471	3.766	-0.141	-0.103
-556.456	59.195	0.216	0.213
-555.442	104.488	0.143	0.169
-554.427	-101.323	0.099	0.024
-553.412	234.001	-0.071	-0.118
-552.398	66.918	-0.143	0.146
-551.383	-200.000	-0.002	-0.142
-550.369	-200.000	0.035	0.258
-549.354	-41.314	0.250	0.129
-548.339	32.992	-0.041	-0.035
-547.325	294.022	-0.189	-0.345
-546.310	-73.555	0.258	0.094
-545.296	-96.249	-0.312	-0.083
-544.281	400.532	0.104	0.219
-543.266	-49.536	0.076	0.036
-542.252	-24.960	0.207	-0.123
-541.237	-153.157	-0.222	-0.016
-540.223	688.023	0.048	0.126
-539.208	-200.000	-0.000	-0.330
-538.193	-98.656	0.140	0.036
-537.179	362.972	-0.101	-0.202
-536.164	800.000	-0.048	-0.199
-535.150	800.000	0.039	-0.126
-534.135	-200.000	0.031	-0.298
-533.121	-200.000	0.030	-0.431
-532.106	800.000	-0.026	0.075
-531.091	-136.146	-0.236	0.028
-530.077	179.858	-0.113	0.166
-529.062	88.189	-0.121	-0.134
-528.048	95.954	-0.041	0.047
-527.033	800.000	0.035	0.138
-526.018	-200.000	0.044	-0.290
-525.004	-200.000	-0.040	0.229
-523.989	-8.664	-0.042	-0.028
-522.975	800.000	-0.013	0.042
-521.960	339.226	-0.019	0.036
-520.945	-109.701	0.142	-0.030
-519.931	102.754	0.156	-0.182
-518.916	28.339	0.093	0.079
-517.902	310.649	-0.250	-0.469
-516.887	-47.833	-0.147	-0.071
-515.872	455.885	-0.047	0.105
-514.858	-95.018	-0.416	-0.112
-513.843	-200.000	0.014	0.313
-512.829	-199.766	-0.033	-0.000
-511.814	-37.609	0.153	-0.081
-510.799	170.279	0.082	-0.118
-509.785	-200.000	0.034	0.152
-508.770	800.000	-0.040	-0.170
-507.756	-200.000	-0.003	0.245
-506.741	129.159	0.194	0.247
-505.726	71.274	0.089	-0.092
-504.712	-200.000	-0.003	0.237
-503.697	-44.970	0.086	0.043
-502.683	-108.041	-0.671	0.146
-501.668	103.117	0.132	0.155
-500.653	-200.000	0.066	-0.304
-499.639	800.000	0.058	-0.194
-498.624	-200.000	0.000	0.025
-497.610	179.037	-0.058	0.085
-496.595	-107.181	0.355	0.078
-495.581	-134.091	-0.159	-0.020
-494.566	70.011	-0.157	-0.162
-493.551	-179.618	0.120	-0.003
-492.537	-103.212	-0.168	0.040
-491.522	-5.936	-0.241	-0.165
-490.508	36.030	0.336	0.295
-489.493	-200.000	-0.007	-0.225
-488.478	-200.000	0.337	-0.000
-487.464	-121.776	-0.712	-0.118
-486.449	287.936	0.067	-0.122
-485.435	-41.314	0.145	-0.075
-484.420	800.000	-0.049	0.144
-483.405	-42.095	0.037	0.019
-482.391	-200.000	0.034	-0.231
-481.376	-200.000	0.004	0.096
-480.362	-51.893	-0.195	-0.090
-479.347	-129.312	-0.084	-0.012
-478.332	421.299	0.122	-0.261
-477.318	-29.410	-0.092	0.053
-476.303	-71.393	-0.323	0.121
-475.289	-200.000	0.007	0.106
-474.274	100.244	0.108	-0.126
-473.259	78.545	-0.125	-0.133
-472.245	-68.210	-0.100	0.039
-471.230	-72.970	-0.313	-0.115
-470.216	446.784	-0.039	-0.085
-469.201	150.603	-0.155	0.210
-468.186	96.552	-0.179	-0.204
-467.172	-174.388	0.261	-0.008
-466.157	241.979	-0.123	0.205
-465.143	222.983	0.094	-0.152
-464.128	-102.405	-0.520	-0.124
-463.113	-41.921	0.074	0.038
-462.099	-84.690	0.093	-0.029
-461.084	332.125	0.139	-0.268
-460.070	495.451	-0.092	0.211
-459.055	-200.000	-0.026	-0.252
-458.040	-200.000	-0.007	-0.164
-457.026	-120.245	0.033	0.006
-456.011	38.938	0.140	0.125
-454.997	14.284	0.202	-0.157
-453.982	-200.000	0.015	0.138
-452.968	-39.299	-0.130	0.068
-451.953	-136.658	0.071	-0.008
-450.938	61.295	-0.238	0.236
-449.924	-200.000	-0.028	-0.157
-448.909	73.874	-0.092	-0.096
-447.895	84.350	0.091	0.099
-446.880	-99.171	-0.298	0.075
-445.865	71.127	-0.307	0.317
-444.851	800.000	0.071	-0.248
-443.836	-91.812	0.148	0.042
-442.822	-89.466	0.065	-0.019
-441.807	-84.415	0.114	0.036
-440.792	-67.424	-0.190	0.074
-439.778	-9.078	-0.103	-0.069
-438.763	-200.000	-0.065	0.428
-437.749	203.139	0.054	0.083
-436.734	61.678	0.282	0.280
-435.719	-135.842	-0.271	0.032
-434.705	509.343	0.113	-0.262
-433.690	-147.853	0.102	-0.008
-432.676	100.791	-0.200	-0.232
-431.661	800.000	0.048	0.154
-430.646	-38.886	-0.363	0.190
-429.632	41.569	-0.069	0.062
-428.617	-70.937	0.253	-0.095
-427.603	569.862	-0.148	0.360
-426.588	800.000	-0.141	-0.442
-425.573	-0.472	0.058	0.041
-424.559	616.532	0.066	-0.165
-423.544	800.000	0.098	-0.296
-422.530	-200.000	0.021	0.348
-421.515	612.485	-0.079	0.198
-420.500	-41.876	0.312	-0.160
-419.486	-110.052	-0.370	0.077
-418.471	104.615	-0.038	0.045
-417.457	-90.235	0.222	0.064
-416.442	237.249	0.081	0.134
-415.428	-200.000	-0.030	0.199
-414.413	173.995	0.121	-0.174
-413.398	-97.486	-0.477	0.124
-412.384	504.060	-0.071	0.163
-411.369	80.518	-0.184	0.198
-410.355	800.000	0.007	-0.025
-409.340	83.995	0.243	-0.264
-408.325	-200.000	0.026	0.157
-407.311	-156.328	-0.176	-0.011
-406.296	-32.572	0.266	0.147
-405.282	550.705	-0.120	-0.288
-404.267	710.156	0.058	-0.153
-403.252	-120.448	0.520	0.088
-402.238	263.628	-0.140	0.243
-401.223	340.173	-0.057	0.111
-400.209	-52.969	-0.336	-0.154
-399.194	39.976	-0.112	-0.100
-398.179	-200.000	-0.029	0.148
-397.165	-24.303	-0.074	-0.044
-396.150	800.000	0.072	-0.200
-395.136	319.814	-0.050	-0.095
-394.121	-62.507	-0.024	0.010
-393.106	143.862	-0.154	-0.204
-392.092	-200.000	-0.015	0.214
-391.077	75.919	0.216	0.227
-390.063	0.369	-0.220	-0.156
-389.048	-200.000	0.007	0.125
-388.033	-127.635	0.126	0.018
-387.019	11.744	0.079	0.060
-386.004	-90.660	-0.278	0.080
-384.990	143.809	0.074	-0.099
-383.975	89.971	-0.056	0.063
-382.960	-200.000	0.032	0.228
-381.946	23.250	-0.120	0.098
-380.931	800.000	-0.016	0.046
-379.917	-3.088	0.043	0.030
-378.902	-45.462	0.286	0.141
-377.888	-12.465	0.212	0.138
-376.873	-82.850	0.316	0.102
-375.858	201.926	0.096	-0.147
-374.844	-92.184	0.124	0.035
-373.829	-95.680	0.272	-0.072
-372.815	-1.472	0.104	0.073
-371.800	603.750	-0.015	-0.036
-370.785	88.882	0.323	-0.358
-369.771	187.017	0.012	0.017
-368.756	-112.682	0.245	0.048
-367.742	-25.343	-0.124	0.073
-366.727	-200.000	0.007	-0.221
-365.712	125.034	-0.037	0.047
-364.698	-200.000	-0.053	0.322
-363.683	-107.586	-0.095	-0.021
-362.669	20.263	-0.031	-0.025
-361.654	16.030	-0.226	0.177
-360.639	-68.550	0.101	0.039
-359.625	322.131	0.047	0.089
-358.610	-200.000	0.054	-0.328
-357.596	-65.423	0.261	-0.104
-356.581	-193.087	-0.237	-0.002
-355.566	141.971	0.203	-0.268
-354.552	411.396	0.116	0.244
-353.537	-50.836	-0.214	0.100
-352.523	-70.954	0.324	-0.121
-351.508	-96.160	-0.170	0.045
-350.493	-176.482	-0.197	-0.005
-349.479	-133.439	0.040	0.005
-348.464	-79.504	0.290	0.097
-347.450	-200.000	-0.022	-0.318
-346.435	208.522	0.273	-0.425
-345.420	53.519	0.247	0.235
-344.406	-200.000	-0.048	-0.232
-343.391	-116.594	-0.123	-0.022
-342.377	-75.913	-0.066	-0.023
-341.362	-200.000	-0.039	0.271
-340.348	162.628	0.052	-0.072
-339.333	381.360	-0.010	0.021
-338.318	-30.643	0.384	0.216
-337.304	101.121	-0.102	-0.118
-336.289	-85.584	-0.375	-0.116
-335.275	-181.325	-0.260	0.005
-334.260	88.052	-0.133	-0.147
-333.245	-56.678	0.352	-0.155
-332.231	634.278	0.091	0.229
-331.216	-200.000	-0.001	0.088
-330.202	800.000	0.032	0.095
-329.187	-139.375	0.098	0.010
-328.172	-200.000	-0.048	-0.369
-327.158	-162.862	-0.289	0.014
-326.143	-34.711	-0.210	-0.114
-325.129	800.000	0.015	-0.060
-324.114	28.928	0.211	-0.177
-323.099	602.840	0.087	-0.216
-322.085	674.082	-0.071	0.184
-321.070	-92.912	0.256	0.071
-320.056	143.001	-0.228	0.301
-319.041	489.121	-0.110	0.249
-318.026	-62.949	-0.130	0.053
-317.012	135.504	0.093	0.120
-315.997	-172.461	0.316	-0.010
-314.983	-32.401	0.297	-0.165
-313.968	74.448	-0.351	-0.366
-312.953	-162.520	0.143	0.007
-311.939	92.964	0.145	-0.163
-310.924	-139.711	-0.037	0.004
-309.910	-34.108	-0.211	-0.115
-308.895	800.000	0.025	-0.090
-307.880	108.304	-0.151	0.179
-306.866	-100.944	-0.148	-0.036
-305.851	-200.000	0.003	-0.401
-304.837	-143.875	-0.192	0.018
-303.822	-96.451	0.184	-0.048
-302.807	-135.970	0.303	-0.035
-301.793	251.047	-0.119	0.200
-300.778	127.889	-0.180	-0.227
-299.764	-55.784	-0.320	-0.142
-298.749	651.920	-0.176	0.448
-297.735	60.032	-0.005	-0.005
-296.720	-200.000	0.009	0.207
-295.705	-200.000	-0.006	0.138
-294.691	-86.426	-0.229	0.070
-293.676	-62.032	-0.101	0.042
-292.662	87.571	-0.275	-0.302
-291.647	138.214	0.184	-0.239
-290.632	-60.811	0.230	-0.097
-289.618	800.000	0.129	0.362
-288.603	4.334	0.213	0.154
-287.589	-48.987	0.163	0.078
-286.574	221.432	0.135	0.215
-285.559	-200.000	0.034	0.498
-284.545	181.731	-0.135	-0.197
-283.530	800.000	0.056	0.164
-282.516	-176.659	-0.283	0.007
-281.501	463.674	0.089	0.198
-280.486	61.903	0.286	0.283
-279.472	711.461	0.056	-0.147
-278.457	78.201	0.227	-0.240
-277.443	56.966	-0.238	-0.230
-276.428	-150.084	-0.101	0.008
-275.413	-200.000	0.004	0.077
-274.399	-28.417	0.172	-0.098
-273.384	800.000	-0.124	0.341
-272.370	581.383	0.198	0.482
-271.355	-37.066	0.278	-0.148
-270.340	-200.000	-0.018	-0.244
-269.326	-61.945	-0.096	-0.040
-268.311	-65.247	0.237	0.095
-267.297	-47.465	0.123	0.059
-266.282	-200.000	-0.039	-0.365
-265.267	70.488	0.189	-0.194
-264.253	-200.000	-0.009	-0.089
-263.238	-57.977	-0.078	-0.034
-262.224	60.519	-0.136	0.133
-261.209	1.169	0.185	0.132
-260.195	-200.000	-0.019	-0.108
-259.180	65.678	-0.273	0.274
-258.165	-65.186	0.149	-0.060
-257.151	-200.000	0.043	0.280
-256.136	36.852	0.119	0.104
-255.122	309.715	0.090	0.166
-254.107	-11.165	0.044	-0.029
-253.092	-80.696	-0.055	-0.018
-252.078	-200.000	-0.022	0.171
-251.063	206.207	-0.012	-0.019
-250.049	508.530	-0.184	0.423
-249.034	-20.305	-0.200	0.122
-248.019	800.000	0.042	0.168
-247.005	3.627	0.287	0.207
-245.990	0.670	0.398	0.282
-244.976	392.043	-0.016	0.033
-243.961	-200.000	0.038	0.196
-242.946	631.989	-0.118	0.295
-241.932	-73.274	0.101	0.037
-240.917	-48.539	0.164	-0.078
-239.903	-75.684	0.095	-0.033
-238.888	-200.000	0.005	-0.101
-237.873	502.658	-0.116	-0.265
-236.859	12.736	-0.223	-0.171
-235.844	259.336	-0.159	-0.271
-234.830	-41.999	-0.210	0.106
-233.815	800.000	0.096	-0.343
-232.800	52.707	-0.054	-0.051
-231.786	166.091	-0.138	-0.194
-230.771	39.977	-0.116	-0.103
-229.757	459.714	-0.088	-0.194
-228.742	-103.252	0.289	0.067
-227.727	-13.735	-0.409	0.262
-226.713	73.531	-0.192	-0.199
-225.698	132.426	0.244	-0.311
-224.684	-124.016	-0.119	0.019
-223.669	45.807	0.105	0.096
-222.655	66.010	-0.239	-0.240
-221.640	54.382	0.240	0.228
-220.625	-200.000	0.001	0.089
-219.611	-16.454	0.164	-0.103
-218.596	-42.123	0.085	0.043
-217.582	301.901	0.128	0.235
-216.567	-90.717	-0.118	-0.034
-215.552	577.950	0.076	0.184
-214.538	195.061	-0.144	0.215
-213.523	800.000	0.068	-0.292
-212.509	-200.000	0.047	-0.444
-211.494	-200.000	-0.037	-0.213
-210.479	64.036	-0.103	0.102
-209.465	58.791	0.215	-0.209
-208.450	-63.611	-0.141	0.057
-207.436	588.908	0.120	0.291
-206.421	10.613	0.232	0.175
-205.406	49.174	-0.086	-0.080
-204.392	-115.402	0.314	-0.059
-203.377	-172.698	0.415	-0.013
-202.363	-90.133	0.495	0.142
-201.348	76.653	0.223	0.233
-200.333	27.313	-0.192	0.160
-199.319	48.338	-0.397	-0.367
-198.304	-200.000	-0.015	-0.148
-197.290	-200.000	0.007	0.090
-196.275	-28.526	0.204	-0.116
-195.260	-72.351	-0.240	-0.088
-194.246	568.364	0.095	0.228
-193.231	800.000	0.024	0.103
-192.217	345.186	0.106	-0.207
-191.202	27.695	-0.240	0.200
-190.187	-49.182	0.129	0.061
-189.173	207.953	0.142	0.220
-188.158	-62.162	0.115	-0.047
-187.144	-143.540	0.140	-0.013
-186.129	4.889	0.077	0.056
-185.114	-47.575	0.065	-0.031
-184.100	62.180	-0.137	-0.135
-183.085	519.587	0.041	-0.094
-182.071	193.463	0.187	0.279
-181.056	-200.000	0.002	0.019
-180.042	-200.000	0.061	0.477
-179.027	-200.000	0.034	-0.379
-178.012	-186.549	0.241	0.003
-176.998	285.266	0.139	0.248
-175.983	726.820	-0.112	0.295
-174.969	-29.871	-0.157	0.089
-173.954	800.000	-0.050	-0.192
-172.939	59.091	-0.084	-0.081
-171.925	55.552	-0.057	0.054
-170.910	128.077	0.078	0.098
-169.896	743.612	0.064	-0.169
-168.881	800.000	0.049	-0.196
-167.866	163.650	0.090	-0.126
-166.852	-200.000	0.115	0.553
-165.837	-200.000	0.021	0.481
-164.823	145.324	0.105	0.139
-163.808	-200.000	-0.016	-0.076
-162.793	-7.262	-0.145	-0.097
-161.779	-111.825	0.285	0.057
-160.764	150.285	0.131	0.176
-159.750	5.401	0.232	-0.169
-158.735	-86.121	-0.198	0.060
-157.720	80.876	-0.190	-0.202
-156.706	-200.000	-0.016	0.191
-155.691	-13.593	0.234	-0.150
-154.677	133.116	-0.108	-0.138
-153.662	-58.238	0.041	0.018
-152.647	57.733	-0.123	0.119
-151.633	135.283	0.230	-0.294
-150.618	-42.169	0.196	-0.099
-149.604	-200.000	0.021	0.115
-148.589	509.163	-0.139	-0.318
-147.574	-200.000	-0.027	0.199
-146.560	-200.000	0.058	-0.355
-145.545	407.217	0.037	-0.077
-144.531	800.000	0.131	0.457
-143.516	393.167	0.114	0.234
-142.502	55.211	-0.127	-0.121
-141.487	-200.000	-0.018	-0.078
-140.472	35.722	0.095	0.083
-139.458	189.851	-0.061	-0.090
-138.443	-82.596	-0.125	-0.040
-137.429	-87.850	0.305	-0.090
-136.414	800.000	0.050	0.175
-135.399	41.908	-0.359	0.321
-134.385	477.393	-0.085	-0.189
-133.370	51.990	-0.162	0.152
-132.356	800.000	0.051	0.169
-131.341	57.200	-0.168	-0.162
-130.326	800.000	0.086	-0.310
-129.312	-42.651	0.322	0.161
-128.297	25.089	0.146	0.119
-127.283	-200.000	0.014	0.254
-126.268	16.778	0.167	-0.130
-125.253	1.233	0.345	-0.244
-124.239	-70.821	0.229	-0.085
-123.224	238.488	0.151	0.247
-122.210	-200.000	-0.077	0.378
-121.195	-89.695	0.264	0.076
-120.180	-68.550	0.319	0.122
