DTS Sentinel unit serial number:	SN413079Multiplexer serial number:	ORYXHardware model number:	OX4-SRSoftware version number:	ORYX F/W v4.00 Oryx Data Collector v3.7.2.0data status	okinstallation	princeton_trtdifferential loss correction	single-endedforward channel	channel 3reverse channel	N/Adate	2019/09/14time	10:28:35forward acquisition time	60.00reverse acquisition time	0.00gamma	496.2192k internal	0.2304k external	0.2304temperature offset calibration	1.0052default loss term (dB/km)	0.3790temperature slope calibration	1.0000multiplexer offset coefficient	1.0000multiplexer slope coefficient	1.0000fibre end	0.00T internal ref (°C)	34.69T ext. ref 1 (°C)	4.17T ext. ref 2 (°C)	32.75length (m)	temperature (°C)	Stokes	anti-Stokes-747.200	62.760	0.193	-0.196
-746.185	-116.415	-0.266	0.050
-745.171	-31.404	0.360	0.206
-744.156	-14.385	-0.388	0.255
-743.142	-200.000	-0.020	0.252
-742.127	-173.873	0.153	-0.005
-741.112	-88.520	-0.136	-0.041
-740.098	-9.151	-0.091	-0.062
-739.083	-85.979	-0.115	-0.036
-738.069	-200.000	-0.030	0.575
-737.054	800.000	-0.050	-0.159
-736.039	91.873	-0.139	-0.159
-735.025	-200.000	-0.041	0.321
-734.010	200.200	-0.195	0.305
-732.996	-76.688	0.131	0.047
-731.981	30.976	0.096	0.084
-730.966	-176.576	0.230	0.006
-729.952	-98.547	0.286	-0.074
-728.937	-200.000	-0.020	-0.273
-727.923	-39.678	0.159	-0.084
-726.908	324.489	-0.180	-0.349
-725.894	-73.706	-0.159	-0.059
-724.879	-99.746	-0.088	0.022
-723.864	155.280	0.029	-0.040
-722.850	800.000	0.081	-0.297
-721.835	82.230	-0.075	-0.082
-720.821	161.120	0.177	0.251
-719.806	800.000	-0.048	-0.176
-718.791	800.000	0.060	-0.260
-717.777	-104.915	-0.294	0.069
-716.762	13.358	0.089	-0.070
-715.748	-167.337	0.246	0.010
-714.733	-132.123	0.381	0.050
-713.718	-25.458	-0.175	0.105
-712.704	71.521	0.077	0.081
-711.689	-54.185	0.209	0.097
-710.675	702.606	0.085	-0.227
-709.660	-72.010	-0.051	-0.019
-708.645	-101.089	-0.147	-0.037
-707.631	-95.509	0.101	0.028
-706.616	187.466	-0.204	0.309
-705.602	209.512	-0.280	0.447
-704.587	-65.294	0.232	-0.095
-703.572	50.369	-0.057	-0.054
-702.558	-75.096	-0.271	0.099
-701.543	-92.843	0.066	-0.019
-700.529	800.000	-0.069	-0.267
-699.514	109.798	0.083	-0.102
-698.499	110.920	-0.173	-0.211
-697.485	69.650	-0.195	-0.204
-696.470	32.820	-0.080	-0.071
-695.456	33.974	0.077	0.069
-694.441	800.000	0.120	-0.380
-693.426	-153.314	-0.289	0.020
-692.412	-73.790	-0.187	-0.069
-691.397	-107.264	0.049	-0.011
-690.383	-200.000	0.005	-0.196
-689.368	-32.984	0.096	0.054
-688.354	753.974	-0.064	-0.175
-687.339	800.000	0.058	0.189
-686.324	-200.000	0.046	0.289
-685.310	164.903	0.185	-0.265
-684.295	243.651	-0.102	-0.174
-683.281	-114.264	-0.080	0.016
-682.266	-200.000	-0.057	-0.411
-681.251	48.022	-0.219	-0.208
-680.237	800.000	-0.060	0.217
-679.222	-79.843	0.239	-0.082
-678.208	-170.707	-0.239	-0.008
-677.193	113.615	-0.177	-0.218
-676.178	105.333	-0.144	0.172
-675.164	-200.000	-0.062	-0.314
-674.149	112.131	-0.094	-0.115
-673.135	319.240	0.131	-0.252
-672.120	800.000	0.237	-0.738
-671.105	-136.887	0.388	-0.045
-670.091	34.771	0.145	-0.129
-669.076	-151.174	-0.220	-0.017
-668.062	47.919	0.192	0.182
-667.047	353.754	-0.144	-0.290
-666.032	-30.926	0.324	0.186
-665.018	-75.881	-0.097	-0.035
-664.003	387.568	0.060	0.125
-662.989	-65.881	-0.275	0.112
-661.974	-200.000	0.009	0.184
-660.959	-148.481	-0.316	-0.026
-659.945	-200.000	-0.044	-0.318
-658.930	-25.518	-0.212	0.127
-657.916	-129.037	0.142	-0.020
-656.901	-178.393	0.433	-0.010
-655.886	-65.986	-0.151	0.061
-654.872	-111.761	0.153	0.031
-653.857	-38.719	-0.085	0.045
-652.843	375.142	-0.094	-0.195
-651.828	44.468	0.218	0.203
-650.814	566.256	-0.005	-0.013
-649.799	262.431	-0.065	0.115
-648.784	-77.932	-0.314	0.110
-647.770	-200.000	-0.120	-0.582
-646.755	-200.000	-0.006	-0.137
-645.741	-200.000	-0.006	0.259
-644.726	414.935	-0.048	0.104
-643.711	-150.504	0.032	0.002
-642.697	-121.146	0.172	0.029
-641.682	-20.299	0.172	0.107
-640.668	218.027	-0.176	-0.285
-639.653	-200.000	0.044	-0.526
-638.638	-23.708	-0.104	-0.063
-637.624	-173.860	-0.353	0.011
-636.609	120.054	0.252	-0.317
-635.595	-93.830	-0.137	0.038
-634.580	800.000	0.038	-0.157
-633.565	586.618	0.080	0.200
-632.551	577.993	0.170	-0.423
-631.536	-200.000	-0.027	-0.181
-630.522	-200.000	0.035	0.156
-629.507	800.000	-0.082	0.238
-628.492	-112.227	-0.131	0.027
-627.478	48.561	-0.210	-0.199
-626.463	-13.080	-0.324	0.214
-625.449	-89.104	0.394	0.118
-624.434	-70.627	0.199	0.076
-623.419	145.161	0.065	0.088
-622.405	345.747	0.070	-0.140
-621.390	-200.000	-0.010	0.102
-620.376	-200.000	-0.022	0.214
-619.361	-15.487	0.347	0.224
-618.346	217.241	0.017	-0.027
-617.332	-69.782	0.124	-0.048
-616.317	106.952	0.122	-0.147
-615.303	-137.017	0.146	-0.017
-614.288	-200.000	0.001	-0.212
-613.273	39.407	0.246	0.223
-612.259	-200.000	0.008	-0.119
-611.244	-0.675	0.305	0.219
-610.230	800.000	0.074	0.235
-609.215	-161.677	-0.234	-0.012
-608.201	800.000	0.091	-0.361
-607.186	78.930	-0.231	-0.251
-606.171	166.412	-0.034	-0.049
-605.157	-9.239	-0.278	-0.188
-604.142	-54.305	-0.073	-0.034
-603.128	-132.325	0.243	0.032
-602.113	61.772	0.106	0.107
-601.098	-31.674	-0.283	-0.161
-600.084	-155.285	0.234	0.015
-599.069	-200.000	-0.027	0.309
-598.055	-63.625	0.276	-0.115
-597.040	-200.000	0.018	-0.295
-596.025	90.185	-0.148	-0.168
-595.011	2.622	-0.178	0.130
-593.996	800.000	-0.108	0.384
-592.982	-61.808	0.125	-0.053
-591.967	-73.999	-0.166	-0.061
-590.952	23.205	0.148	0.123
-589.938	-58.643	-0.282	0.124
-588.923	42.974	-0.359	0.332
-587.909	800.000	0.030	0.118
-586.894	145.064	-0.304	0.411
-585.879	-200.000	-0.033	0.293
-584.865	-105.566	0.088	0.020
-583.850	-100.670	-0.298	0.074
-582.836	-200.000	-0.039	-0.204
-581.821	60.081	0.137	0.137
-580.806	103.712	-0.109	-0.129
-579.792	81.049	-0.085	0.093
-578.777	-200.000	0.047	0.324
-577.763	-93.662	0.027	0.007
-576.748	115.332	0.099	-0.122
-575.733	-29.004	-0.132	-0.076
-574.719	-200.000	-0.016	0.222
-573.704	-200.000	0.015	-0.089
-572.690	-80.645	0.154	0.052
-571.675	149.279	0.094	-0.129
-570.661	-54.439	-0.197	0.090
-569.646	800.000	0.116	-0.342
-568.631	500.164	0.093	-0.218
-567.617	-81.354	-0.027	0.009
-566.602	-70.390	-0.286	0.110
-565.588	-58.200	0.188	0.083
-564.573	-102.462	0.062	0.015
-563.558	-200.000	0.008	-0.291
-562.544	-147.155	-0.403	-0.035
-561.529	102.483	0.265	-0.313
-560.515	-87.223	-0.435	0.134
-559.500	-63.961	-0.370	-0.153
-558.485	478.274	0.066	-0.150
-557.471	-200.000	0.053	0.272
-556.456	-97.226	0.249	0.066
-555.442	-200.000	-0.049	0.250
-554.427	-90.823	-0.182	0.053
-553.412	-164.824	-0.105	0.005
-552.398	-200.000	0.008	0.244
-551.383	-28.120	0.097	-0.057
-550.369	177.217	0.096	0.141
-549.354	358.092	-0.052	-0.105
-548.339	710.604	-0.024	0.064
-547.325	-107.044	0.248	0.055
-546.310	1.772	0.231	0.168
-545.296	800.000	-0.132	0.437
-544.281	-114.313	-0.072	0.014
-543.266	-21.258	0.212	0.131
-542.252	-70.778	0.158	0.060
-541.237	-200.000	0.016	-0.186
-540.223	-200.000	-0.001	0.174
-539.208	390.361	0.031	0.065
-538.193	-94.615	-0.211	0.058
-537.179	14.403	-0.081	0.064
-536.164	-93.523	-0.055	0.015
-535.150	224.692	0.065	0.106
-534.135	11.985	-0.169	0.131
-533.121	-131.575	0.158	0.021
-532.106	-60.523	-0.130	-0.056
-531.091	-117.256	-0.111	-0.020
-530.077	-4.083	-0.167	-0.117
-529.062	-160.472	0.192	-0.010
-528.048	800.000	0.019	-0.063
-527.033	139.787	-0.059	-0.079
-526.018	85.592	0.071	0.078
-525.004	-200.000	-0.034	-0.222
-523.989	55.747	-0.253	-0.248
-522.975	116.849	0.147	-0.182
-521.960	185.855	0.158	0.238
-520.945	-172.331	-0.295	0.009
-519.931	298.878	-0.272	-0.505
-518.916	152.124	0.077	0.106
-517.902	-21.128	-0.260	-0.161
-516.887	800.000	-0.028	-0.098
-515.872	-8.171	0.116	-0.079
-514.858	-200.000	0.015	0.265
-513.843	800.000	0.011	0.047
-512.829	-127.205	-0.123	-0.018
-511.814	-78.380	-0.110	0.038
-510.799	-145.202	-0.255	-0.023
-509.785	-78.956	-0.153	0.053
-508.770	-165.465	0.256	0.011
-507.756	31.070	-0.212	0.184
-506.741	129.258	0.123	0.159
-505.726	-105.290	0.089	0.021
-504.712	158.116	0.043	-0.060
-503.697	-97.357	0.346	-0.091
-502.683	-200.000	0.028	0.333
-501.668	86.466	0.117	-0.130
-500.653	800.000	0.059	-0.204
-499.639	57.080	-0.063	-0.062
-498.624	-79.003	-0.261	0.090
-497.610	800.000	0.038	0.135
-496.595	-64.408	0.212	0.087
-495.581	-116.919	-0.230	0.042
-494.566	242.354	0.106	-0.178
-493.551	2.126	0.190	0.139
-492.537	15.558	-0.178	0.141
-491.522	800.000	-0.063	-0.237
-490.508	-70.124	0.191	-0.073
-489.493	-86.222	0.207	-0.064
-488.478	-140.860	-0.043	0.004
-487.464	17.367	0.200	-0.160
-486.449	384.536	0.064	-0.132
-485.435	-200.000	0.054	-0.470
-484.420	-96.201	-0.250	-0.067
-483.405	800.000	-0.025	-0.074
-482.391	-200.000	-0.057	-0.284
-481.376	-86.876	0.052	0.016
-480.362	-102.533	-0.307	0.074
-479.347	800.000	0.021	0.082
-478.332	-200.000	0.005	0.070
-477.318	100.845	0.093	0.110
-476.303	-2.448	0.069	-0.049
-475.289	-200.000	0.038	0.229
-474.274	-41.555	-0.099	0.051
-473.259	-200.000	0.008	0.059
-472.245	7.776	0.161	-0.122
-471.230	-200.000	0.036	0.183
-470.216	800.000	-0.074	-0.221
-469.201	-182.502	-0.196	0.004
-468.186	-90.789	0.180	0.052
-467.172	57.363	0.026	0.026
-466.157	800.000	0.095	-0.279
-465.143	559.624	0.035	-0.086
-464.128	45.318	0.234	-0.217
-463.113	-200.000	0.020	-0.207
-462.099	-104.917	-0.270	-0.062
-461.084	-200.000	0.059	0.285
-460.070	-1.604	-0.062	-0.044
-459.055	-41.343	0.255	-0.133
-458.040	355.701	-0.149	0.299
-457.026	-71.906	0.221	0.083
-456.011	800.000	-0.113	-0.479
-454.997	-200.000	0.050	0.246
-453.982	93.517	0.127	-0.145
-452.968	-41.278	-0.104	0.054
-451.953	281.329	-0.079	0.142
-450.938	299.972	-0.029	0.054
-449.924	235.808	-0.062	0.103
-448.909	18.566	0.060	0.048
-447.895	-72.429	-0.238	0.089
-446.880	21.779	-0.242	0.198
-445.865	-118.944	-0.353	-0.062
-444.851	-135.699	-0.166	0.020
-443.836	-49.752	-0.160	-0.077
-442.822	298.063	-0.063	-0.116
-441.807	-194.840	-0.209	-0.002
-440.792	-85.749	0.151	0.047
-439.778	-4.173	-0.274	0.191
-438.763	800.000	0.009	-0.031
-437.749	175.591	-0.234	-0.341
-436.734	645.902	-0.050	0.128
-435.719	69.008	0.233	0.241
-434.705	-40.549	-0.278	0.145
-433.690	36.323	0.110	-0.098
-432.676	-49.121	0.229	-0.110
-431.661	63.139	-0.097	0.098
-430.646	31.921	0.050	0.043
-429.632	61.841	-0.245	-0.246
-428.617	-200.000	-0.016	0.075
-427.603	-40.981	0.064	-0.033
-426.588	314.095	0.325	-0.616
-425.573	251.043	-0.083	0.141
-424.559	-84.854	-0.314	0.099
-423.544	-200.000	0.030	0.381
-422.530	284.566	-0.052	0.094
-421.515	108.226	-0.108	-0.129
-420.500	30.761	0.237	0.204
-419.486	-200.000	0.035	-0.318
-418.471	-173.326	-0.206	0.006
-417.457	-54.414	-0.281	0.128
-416.442	-200.000	-0.003	-0.124
-415.428	345.836	-0.085	0.168
-414.413	-200.000	-0.006	0.105
-413.398	625.000	0.043	0.108
-412.384	-115.492	-0.165	-0.031
-411.369	155.669	0.152	0.210
-410.355	-42.765	0.106	0.054
-409.340	800.000	-0.101	0.282
-408.325	223.893	-0.086	0.140
-407.311	259.917	-0.136	-0.237
-406.296	-67.128	-0.292	0.116
-405.282	682.549	0.051	0.135
-404.267	25.808	-0.252	0.211
-403.252	-85.882	0.222	-0.069
-402.238	-31.711	0.031	0.017
-401.223	237.183	-0.101	0.168
-400.209	-45.215	-0.117	0.059
-399.194	-65.857	0.199	0.080
-398.179	-118.174	0.336	-0.060
-397.165	498.389	-0.071	0.165
-396.150	800.000	0.065	0.210
-395.136	-200.000	0.010	-0.142
-394.121	-97.781	0.372	-0.097
-393.106	-28.376	0.186	0.108
-392.092	321.868	0.144	0.276
-391.077	800.000	0.028	-0.114
-390.063	295.697	-0.177	-0.326
-389.048	1.381	0.264	-0.191
-388.033	126.501	0.214	-0.272
-387.019	-165.027	-0.046	0.002
-386.004	-112.693	0.531	-0.106
-384.990	-103.014	-0.127	-0.030
-383.975	273.577	-0.164	-0.292
-382.960	-200.000	-0.006	0.096
-381.946	800.000	0.100	0.406
-380.931	-11.705	-0.125	0.083
-379.917	-120.128	-0.061	0.010
-378.902	51.474	-0.224	0.214
-377.888	-68.216	0.201	0.079
-376.873	120.403	0.403	0.503
-375.858	16.874	0.112	-0.089
-374.844	-125.460	0.450	-0.069
-373.829	90.257	0.210	-0.235
-372.815	-106.098	-0.340	-0.077
-371.800	156.029	0.184	-0.254
-370.785	371.374	-0.054	-0.110
-369.771	-200.000	-0.041	-0.218
-368.756	-200.000	0.030	-0.221
-367.742	800.000	-0.030	-0.093
-366.727	800.000	0.061	-0.217
-365.712	-14.502	-0.069	0.044
-364.698	-64.460	-0.269	0.110
-363.683	-106.187	0.114	-0.026
-362.669	-200.000	-0.010	0.182
-361.654	81.944	0.163	-0.177
-360.639	-200.000	0.143	-0.001
-359.625	-117.129	0.298	0.054
-358.610	-200.000	0.007	0.136
-357.596	800.000	-0.069	0.280
-356.581	7.516	0.088	0.066
-355.566	-17.785	-0.056	0.036
-354.552	108.366	0.187	-0.224
-353.537	209.058	-0.169	0.265
-352.523	-77.653	0.226	0.078
-351.508	-200.000	-0.016	-0.295
-350.493	-200.000	0.037	0.167
-349.479	745.546	0.050	0.135
-348.464	21.992	-0.219	0.179
-347.450	-58.775	-0.157	-0.068
-346.435	800.000	-0.031	0.135
-345.420	-24.710	-0.252	0.150
-344.406	-129.305	0.088	0.012
-343.391	-200.000	0.009	-0.097
-342.377	-200.000	0.007	0.079
-341.362	-2.877	-0.430	-0.301
-340.348	-200.000	-0.056	-0.248
-339.333	67.028	0.288	-0.294
-338.318	-91.740	0.048	-0.014
-337.304	552.127	-0.112	-0.269
-336.289	-14.309	0.218	-0.141
-335.275	31.595	-0.030	0.026
-334.260	-114.408	-0.175	-0.034
-333.245	-200.000	0.052	-0.299
-332.231	-130.199	-0.138	-0.019
-331.216	77.413	0.131	0.139
-330.202	428.348	-0.091	-0.198
-329.187	-137.018	-0.178	0.020
-328.172	800.000	0.063	0.187
-327.158	-200.000	0.080	0.413
-326.143	-200.000	-0.022	-0.409
-325.129	74.425	-0.208	0.219
-324.114	688.617	-0.044	0.115
-323.099	3.446	-0.246	-0.180
-322.085	-13.759	0.139	0.090
-321.070	-129.373	-0.017	0.002
-320.056	793.220	-0.108	-0.299
-319.041	-148.980	-0.188	-0.015
-318.026	445.428	0.060	-0.132
-317.012	-68.377	-0.100	0.039
-315.997	27.182	0.074	0.062
-314.983	171.735	-0.104	-0.149
-313.968	-140.815	0.292	0.030
-312.953	151.412	-0.200	-0.272
-311.939	-21.219	-0.122	0.075
-310.924	107.375	-0.181	0.216
-309.910	147.549	0.078	0.106
-308.895	-83.967	0.201	-0.064
-307.880	-200.000	-0.018	0.292
-306.866	36.758	-0.212	-0.187
-305.851	202.797	-0.106	-0.165
-304.837	-200.000	-0.015	0.287
-303.822	-200.000	-0.030	0.168
-302.807	129.068	0.289	-0.369
-301.793	95.292	0.185	-0.211
-300.778	-200.000	-0.028	0.221
-299.764	-80.910	-0.227	0.075
-298.749	87.261	-0.224	-0.248
-297.735	115.749	-0.034	-0.041
-296.720	800.000	-0.106	0.339
-295.705	-28.822	0.270	0.155
-294.691	-62.735	0.290	-0.120
-293.676	800.000	0.082	0.286
-292.662	25.249	-0.143	-0.119
-291.647	800.000	0.050	0.161
-290.632	28.497	-0.367	0.310
-289.618	665.863	0.064	-0.165
-288.603	-158.252	-0.118	-0.007
-287.589	800.000	-0.028	0.118
-286.574	28.950	-0.050	-0.042
-285.559	-2.387	-0.232	-0.162
-284.545	390.076	0.154	0.320
-283.530	800.000	0.066	0.187
-282.516	-200.000	-0.022	-0.195
-281.501	36.707	0.194	0.172
-280.486	195.474	-0.180	0.274
-279.472	100.202	0.177	-0.206
-278.457	-14.375	-0.207	0.133
-277.443	-200.000	-0.005	-0.172
-276.428	-176.707	-0.055	-0.001
-275.413	-200.000	0.045	-0.293
-274.399	-45.524	0.403	0.199
-273.384	-64.817	0.109	0.044
-272.370	-186.071	-0.268	-0.004
-271.355	-200.000	-0.037	-0.275
-270.340	-40.940	-0.183	-0.094
-269.326	800.000	-0.026	-0.114
-268.311	241.032	-0.155	-0.258
-267.297	-140.609	-0.268	-0.028
-266.282	20.245	-0.096	-0.077
-265.267	19.594	0.186	-0.149
-264.253	-128.858	0.408	0.057
-263.238	-200.000	-0.009	-0.152
-262.224	282.395	-0.057	0.102
-261.209	-103.902	-0.113	-0.026
-260.195	250.353	0.070	-0.118
-259.180	108.507	0.095	-0.113
-258.165	-25.510	0.048	-0.028
-257.151	-72.510	-0.227	-0.084
-256.136	636.496	-0.149	-0.377
-255.122	-62.060	-0.087	0.036
-254.107	19.808	0.103	-0.083
-253.092	-70.622	-0.228	0.086
-252.078	-136.982	-0.099	-0.011
-251.063	413.255	-0.040	-0.084
-250.049	-200.000	-0.001	0.182
-249.034	-122.802	-0.341	-0.055
-248.019	-200.000	-0.025	-0.127
-247.005	-200.000	0.027	0.169
-245.990	129.780	-0.144	0.184
-244.976	-58.364	-0.374	-0.162
-243.961	240.360	0.043	-0.072
-242.946	-30.341	-0.244	0.139
-241.932	-18.613	0.145	0.091
-240.917	649.703	0.125	0.320
-239.903	-156.018	-0.189	-0.012
-238.888	135.129	-0.096	-0.124
-237.873	-121.016	0.090	-0.015
-236.859	-46.206	0.168	0.083
-235.844	-17.921	0.419	0.262
-234.830	289.081	0.176	0.318
-233.815	-99.066	-0.267	-0.067
-232.800	-167.048	-0.208	0.008
-231.786	58.859	0.179	-0.176
-230.771	800.000	0.102	-0.353
-229.757	800.000	0.099	0.351
-228.742	-200.000	0.001	-0.377
-227.727	102.221	-0.282	0.329
-226.713	-137.884	-0.222	0.025
-225.698	-200.000	-0.009	0.209
-224.684	-0.396	0.113	0.080
-223.669	79.635	-0.159	-0.170
-222.655	110.814	-0.077	0.092
-221.640	-200.000	0.007	0.040
-220.625	2.904	0.291	-0.211
-219.611	-59.709	-0.186	0.080
-218.596	-60.401	0.199	-0.084
-217.582	451.238	0.084	0.186
-216.567	-67.769	-0.288	0.112
-215.552	800.000	0.032	-0.120
-214.538	480.185	0.307	0.694
-213.523	108.561	0.150	0.179
-212.509	388.665	0.159	-0.328
-211.494	-56.906	0.079	-0.035
-210.479	-34.836	0.113	-0.062
-209.465	765.848	-0.028	-0.075
-208.450	-200.000	0.004	0.214
-207.436	-37.262	-0.127	-0.068
-206.421	-11.663	-0.130	-0.085
-205.406	800.000	-0.071	-0.244
-204.392	-200.000	-0.030	0.265
-203.377	660.678	-0.073	0.188
-202.363	-200.000	0.009	-0.174
-201.348	-62.028	0.264	-0.110
-200.333	67.662	-0.114	-0.116
-199.319	28.714	0.065	-0.054
-198.304	-153.419	-0.066	-0.005
-197.290	-200.000	0.100	-0.441
-196.275	-200.000	-0.029	0.190
-195.260	-85.881	0.519	0.160
-194.246	14.012	0.200	0.155
-193.231	-157.571	0.051	-0.003
-192.217	566.596	-0.043	0.105
-191.202	64.557	0.101	-0.102
-190.187	229.556	0.026	0.043
-189.173	-61.715	0.168	0.070
-188.158	-42.751	0.203	-0.103
-187.144	33.830	0.170	-0.148
-186.129	-200.000	0.002	0.076
-185.114	19.156	0.094	0.075
-184.100	-200.000	0.003	-0.073
-183.085	-126.089	0.254	-0.038
-182.071	-171.386	-0.437	-0.015
-181.056	-80.796	0.307	0.102
-180.042	-152.065	0.409	0.030
-179.027	-77.898	-0.316	-0.108
-178.012	145.170	-0.170	-0.227
-176.998	-97.512	0.278	-0.072
-175.983	96.465	0.099	0.113
-174.969	27.300	0.211	0.177
-173.954	140.896	0.146	0.193
-172.939	-85.262	-0.095	0.030
-171.925	-159.713	-0.105	-0.006
-170.910	-200.000	0.031	-0.274
-169.896	65.909	0.218	0.221
-168.881	-109.770	0.103	0.022
-167.866	9.412	-0.034	0.025
-166.852	800.000	0.118	-0.363
-165.837	76.247	0.137	-0.145
-164.823	496.303	-0.070	-0.159
-163.808	-200.000	0.060	0.420
-162.793	800.000	0.079	-0.242
-161.779	162.674	0.055	0.076
-160.764	-163.257	0.123	0.006
-159.750	-87.216	0.113	0.034
-158.735	-109.433	0.085	-0.018
-157.720	-200.000	0.035	-0.278
-156.706	332.696	0.048	-0.093
-155.691	45.872	0.192	0.176
-154.677	800.000	0.045	-0.186
-153.662	-84.888	0.210	0.066
-152.647	-36.350	-0.028	-0.015
-151.633	4.162	0.152	0.110
-150.618	-64.955	-0.432	0.174
-149.604	126.351	0.051	-0.064
-148.589	-200.000	0.024	0.189
-147.574	-64.926	0.042	-0.017
-146.560	-82.914	0.300	0.096
-145.545	153.236	-0.055	0.075
-144.531	110.691	-0.171	0.204
-143.516	-117.928	-0.326	-0.058
-142.502	-138.425	-0.094	0.010
-141.487	199.626	-0.099	0.152
-140.472	-38.511	-0.134	0.071
-139.458	65.658	0.227	-0.228
-138.443	-200.000	-0.449	-0.002
-137.429	117.632	-0.180	0.221
-136.414	124.432	0.043	-0.054
-135.399	-144.298	0.110	0.010
-134.385	-97.040	0.114	0.030
-133.370	-200.000	-0.003	0.049
-132.356	-200.000	0.070	0.385
-131.341	-200.000	-0.061	-0.393
-130.326	-40.507	0.321	0.166
-129.312	-78.167	0.204	0.070
-128.297	-3.427	0.192	-0.133
-127.283	26.166	0.085	0.071
-126.268	20.612	0.132	-0.106
-125.253	337.184	0.155	-0.300
-124.239	-78.879	0.189	-0.064
-123.224	69.576	-0.114	-0.116
-122.210	43.021	0.155	0.141
-121.195	-113.021	-0.154	-0.030
