DTS Sentinel unit serial number:	SN413079Multiplexer serial number:	ORYXHardware model number:	OX4-SRSoftware version number:	ORYX F/W v4.00 Oryx Data Collector v3.7.2.0data status	okinstallation	princeton_trtdifferential loss correction	single-endedforward channel	channel 3reverse channel	N/Adate	2019/09/17time	14:20:35forward acquisition time	60.00reverse acquisition time	0.00gamma	496.2192k internal	0.2299k external	0.2299temperature offset calibration	0.9955default loss term (dB/km)	0.3790temperature slope calibration	1.0000multiplexer offset coefficient	1.0000multiplexer slope coefficient	1.0000fibre end	0.00T internal ref (°C)	36.19T ext. ref 1 (°C)	0.40T ext. ref 2 (°C)	33.36length (m)	temperature (°C)	Stokes	anti-Stokes-747.200	-129.039	-0.218	-0.031
-746.185	101.814	0.179	0.213
-745.171	-75.620	-0.236	-0.086
-744.156	504.742	-0.118	0.278
-743.142	44.627	0.199	-0.187
-742.127	-107.672	-0.173	-0.039
-741.112	-200.000	0.006	0.161
-740.098	19.084	0.222	0.181
-739.083	-96.707	-0.133	0.036
-738.069	-200.000	0.002	0.017
-737.054	-200.000	0.045	-0.368
-736.039	-143.346	-0.084	-0.008
-735.025	16.756	0.096	0.077
-734.010	-56.079	0.078	0.036
-732.996	-60.118	-0.208	-0.090
-731.981	-85.039	-0.292	0.093
-730.966	149.812	-0.157	-0.217
-729.952	-150.204	0.127	-0.010
-728.937	112.279	-0.356	-0.439
-727.923	552.384	0.065	0.160
-726.908	-200.000	0.043	-0.274
-725.894	800.000	0.038	0.145
-724.879	507.785	0.053	0.125
-723.864	110.111	-0.133	-0.163
-722.850	800.000	-0.061	0.262
-721.835	-68.234	0.093	0.037
-720.821	32.034	0.136	0.120
-719.806	346.020	0.121	-0.242
-718.791	18.055	-0.349	0.284
-717.777	800.000	-0.100	0.353
-716.762	418.893	0.096	-0.208
-715.748	-106.003	-0.284	0.065
-714.733	73.761	0.240	0.257
-713.718	28.242	0.108	-0.093
-712.704	-200.000	0.052	-0.463
-711.689	-72.787	0.069	-0.026
-710.675	473.399	-0.126	-0.288
-709.660	-0.184	-0.085	-0.062
-708.645	-200.000	-0.018	-0.086
-707.631	-168.526	-0.261	0.010
-706.616	-200.000	0.019	0.117
-705.602	23.344	-0.103	0.086
-704.587	260.695	0.190	0.334
-703.572	-112.740	0.104	0.021
-702.558	260.910	0.044	-0.078
-701.543	42.287	-0.186	-0.173
-700.529	30.098	-0.110	-0.096
-699.514	-76.950	-0.100	0.036
-698.499	75.674	-0.231	-0.249
-697.485	-145.428	0.234	0.021
-696.470	3.713	-0.118	0.088
-695.456	0.532	0.203	0.148
-694.441	125.389	0.157	-0.201
-693.426	-3.079	-0.230	-0.163
-692.412	800.000	-0.149	-0.443
-691.397	35.561	0.053	-0.047
-690.383	514.674	-0.076	0.182
-689.368	294.864	-0.138	-0.257
-688.354	34.588	-0.174	0.155
-687.339	-200.000	0.004	-0.323
-686.324	-6.707	0.162	0.112
-685.310	800.000	0.074	0.214
-684.295	-131.127	-0.285	0.039
-683.281	-85.414	-0.158	0.050
-682.266	-51.111	-0.093	0.044
-681.251	21.601	0.153	0.127
-680.237	800.000	0.128	-0.428
-679.222	-200.000	-0.044	-0.306
-678.208	66.293	0.074	-0.077
-677.193	76.538	-0.193	0.208
-676.178	-90.675	0.328	-0.097
-675.164	-200.000	0.013	0.115
-674.149	-37.015	0.188	-0.102
-673.135	-200.000	-0.007	-0.059
-672.120	298.395	0.140	0.261
-671.105	-32.434	-0.205	0.116
-670.091	649.549	-0.059	0.154
-669.076	163.373	0.268	-0.384
-668.062	-121.233	-0.146	0.025
-667.047	800.000	0.084	0.298
-666.032	206.070	0.097	-0.154
-665.018	-81.857	-0.222	0.074
-664.003	201.202	0.112	0.176
-662.989	-55.894	-0.176	0.080
-661.974	-200.000	0.003	-0.343
-660.959	-88.439	-0.313	-0.095
-659.945	-127.472	-0.100	0.015
-658.930	-161.048	0.272	0.014
-657.916	560.472	-0.060	-0.147
-656.901	63.913	0.116	-0.119
-655.886	103.129	0.237	-0.282
-654.872	20.431	-0.224	0.184
-653.857	800.000	0.069	-0.220
-652.843	-200.000	-0.011	-0.088
-651.828	289.030	-0.154	-0.283
-650.814	-200.000	0.013	0.174
-649.799	299.629	0.103	0.193
-648.784	216.432	0.239	-0.386
-647.770	-200.000	-0.002	0.505
-646.755	800.000	-0.073	-0.299
-645.741	-200.000	0.033	0.357
-644.726	-30.726	0.041	-0.024
-643.711	243.327	-0.059	0.100
-642.697	15.442	-0.166	0.133
-641.682	-117.305	0.081	-0.015
-640.668	800.000	-0.037	0.115
-639.653	-143.900	-0.115	0.011
-638.638	-36.144	0.294	-0.161
-637.624	-33.094	0.092	0.052
-636.609	-15.170	-0.108	-0.070
-635.595	-65.058	0.251	-0.103
-634.580	-117.954	0.152	0.028
-633.565	293.614	-0.128	-0.238
-632.551	-33.497	-0.116	0.065
-631.536	133.756	0.064	0.085
-630.522	-49.199	-0.086	-0.042
-629.507	236.041	0.042	0.071
-628.492	243.088	0.018	-0.031
-627.478	-74.555	-0.221	-0.081
-626.463	-168.331	0.294	-0.011
-625.449	800.000	0.025	-0.070
-624.434	-30.394	0.045	-0.026
-623.419	-139.835	0.163	0.018
-622.405	21.531	0.022	-0.018
-621.390	57.680	0.259	0.257
-620.376	65.683	0.272	-0.279
-619.361	-5.528	-0.079	-0.055
-618.346	8.570	-0.195	-0.149
-617.332	-78.634	-0.068	0.024
-616.317	154.567	0.089	-0.125
-615.303	29.277	-0.152	0.131
-614.288	98.712	0.116	-0.135
-613.273	800.000	0.033	-0.122
-612.259	800.000	-0.010	-0.033
-611.244	-200.000	0.017	-0.204
-610.230	-152.785	-0.069	0.005
-609.215	79.969	-0.189	0.207
-608.201	-28.360	0.187	0.109
-607.186	-135.483	-0.073	-0.009
-606.171	61.257	-0.171	0.172
-605.157	-7.245	-0.250	0.172
-604.142	-93.598	0.074	-0.021
-603.128	-78.836	0.155	0.053
-602.113	-172.955	0.139	-0.004
-601.098	-120.224	-0.291	-0.050
-600.084	-26.986	-0.176	-0.104
-599.069	800.000	0.059	0.237
-598.055	-112.729	-0.084	-0.017
-597.040	800.000	0.063	0.187
-596.025	-139.511	-0.226	-0.025
-595.011	589.932	-0.138	-0.345
-593.996	800.000	-0.164	-0.482
-592.982	244.861	0.197	0.337
-591.967	-22.304	-0.221	-0.136
-590.952	-200.000	-0.004	-0.147
-589.938	305.564	0.100	0.189
-588.923	-66.658	0.279	-0.112
-587.909	243.597	-0.024	0.042
-586.894	-90.664	-0.109	-0.032
-585.879	91.355	0.065	0.074
-584.865	228.578	0.143	-0.237
-583.850	64.771	0.260	0.266
-582.836	2.508	0.215	0.158
-581.821	-139.824	0.129	0.014
-580.806	113.646	-0.152	-0.187
-579.792	57.108	0.099	-0.098
-578.777	377.900	-0.083	0.173
-577.763	-141.326	-0.090	0.009
-576.748	552.700	-0.095	0.231
-575.733	-115.717	-0.382	0.073
-574.719	303.554	-0.190	-0.357
-573.704	-200.000	-0.026	-0.237
-572.690	-111.854	0.227	0.046
-571.675	189.244	-0.134	0.204
-570.661	157.494	-0.197	-0.277
-569.646	800.000	-0.042	0.151
-568.631	-31.143	-0.061	-0.035
-567.617	-200.000	0.024	0.153
-566.602	240.341	-0.110	0.186
-565.588	-84.601	0.191	-0.061
-564.573	-200.000	-0.005	-0.066
-563.558	12.981	0.173	0.135
-562.544	279.442	0.134	-0.242
-561.529	800.000	0.127	-0.433
-560.515	166.719	0.110	0.157
-559.500	-150.880	0.365	-0.028
-558.485	-40.969	0.183	-0.096
-557.471	432.642	0.048	-0.105
-556.456	-200.000	0.009	-0.127
-555.442	-200.000	0.004	-0.083
-554.427	-200.000	-0.023	0.287
-553.412	-91.781	0.153	0.044
-552.398	-200.000	0.020	-0.127
-551.383	302.511	-0.245	-0.459
-550.369	703.248	-0.048	0.127
-549.354	-88.172	0.077	-0.023
-548.339	-1.312	0.201	0.144
-547.325	800.000	0.106	0.381
-546.310	184.110	0.158	0.237
-545.296	800.000	-0.076	-0.298
-544.281	800.000	-0.023	0.072
-543.266	-56.660	-0.381	0.171
-542.252	-55.917	0.178	-0.080
-541.237	17.671	0.223	-0.179
-540.223	-47.266	0.133	-0.065
-539.208	0.948	-0.358	0.259
-538.193	178.025	0.182	0.269
-537.179	-107.018	-0.175	-0.039
-536.164	196.225	-0.131	-0.201
-535.150	315.226	-0.110	-0.210
-534.135	800.000	0.032	-0.115
-533.121	9.408	0.100	0.077
-532.106	-200.000	0.011	-0.194
-531.091	-200.000	0.050	0.369
-530.077	-200.000	-0.110	0.000
-529.062	-65.275	0.270	-0.110
-528.048	800.000	-0.112	0.338
-527.033	189.948	0.154	-0.233
-526.018	800.000	-0.034	-0.146
-525.004	436.047	0.057	-0.125
-523.989	361.948	0.077	-0.156
-522.975	40.716	0.154	0.141
-521.960	800.000	-0.009	-0.028
-520.945	-96.684	0.102	-0.027
-519.931	-200.000	-0.030	0.247
-518.916	-22.917	-0.314	-0.191
-517.902	-84.247	0.087	-0.028
-516.887	800.000	-0.081	0.247
-515.872	17.823	-0.176	-0.142
-514.858	800.000	0.055	-0.156
-513.843	-36.407	0.120	-0.066
-512.829	67.785	-0.281	0.290
-511.814	-145.924	0.210	-0.019
-510.799	-177.637	0.142	0.003
-509.785	-144.877	-0.252	0.023
-508.770	309.475	0.158	-0.298
-507.756	-157.571	-0.296	-0.018
-506.741	-200.000	0.010	0.150
-505.726	-2.418	-0.016	-0.011
-504.712	-2.248	-0.211	-0.150
-503.697	-200.000	-0.028	0.207
-502.683	-13.280	0.426	-0.280
-501.668	-78.044	-0.147	0.051
-500.653	-39.260	-0.239	0.127
-499.639	-13.488	-0.257	-0.169
-498.624	-200.000	-0.008	-0.047
-497.610	-42.511	-0.304	0.157
-496.595	-20.177	-0.142	0.089
-495.581	-77.166	0.093	0.033
-494.566	542.787	-0.049	-0.118
-493.551	-200.000	0.030	0.274
-492.537	81.552	0.132	-0.144
-491.522	53.574	-0.196	-0.190
-490.508	-116.137	0.188	0.035
-489.493	121.517	0.142	0.179
-488.478	41.296	0.166	0.151
-487.464	-54.481	0.253	-0.116
-486.449	-11.418	0.142	-0.095
-485.435	633.482	-0.187	0.478
-484.420	-147.973	0.361	0.030
-483.405	-49.827	0.265	-0.127
-482.391	-200.000	0.042	-0.324
-481.376	-155.082	-0.165	-0.011
-480.362	800.000	-0.028	-0.111
-479.347	-148.401	-0.166	-0.014
-478.332	-169.352	0.150	-0.006
-477.318	-200.000	0.054	-0.248
-476.303	-188.367	-0.263	0.003
-475.289	800.000	-0.088	0.328
-474.274	800.000	0.045	0.155
-473.259	-200.000	0.029	-0.177
-472.245	106.638	-0.163	0.195
-471.230	800.000	-0.065	-0.211
-470.216	-200.000	0.021	0.162
-469.201	-38.867	-0.145	0.077
-468.186	548.895	-0.144	0.349
-467.172	-103.339	0.090	-0.021
-466.157	-122.061	0.231	-0.038
-465.143	-73.521	0.434	0.160
-464.128	361.680	-0.154	0.312
-463.113	154.180	-0.026	0.036
-462.099	123.828	-0.122	-0.155
-461.084	-44.916	0.051	0.026
-460.070	-13.844	0.089	0.058
-459.055	105.526	0.145	0.173
-458.040	634.349	-0.082	0.211
-457.026	246.157	-0.121	-0.205
-456.011	449.958	0.085	0.189
-454.997	-26.703	0.246	-0.145
-453.982	-200.000	0.047	-0.249
-452.968	-134.840	0.150	0.018
-451.953	473.860	-0.162	0.368
-450.938	222.973	-0.152	0.247
-449.924	63.541	-0.200	0.202
-448.909	-200.000	0.011	0.191
-447.895	-200.000	0.030	0.445
-446.880	800.000	0.056	-0.161
-445.865	459.394	-0.022	0.049
-444.851	415.344	-0.068	0.145
-443.836	94.173	0.092	0.105
-442.822	-0.108	0.162	-0.116
-441.807	-137.749	0.230	-0.026
-440.792	-200.000	-0.027	0.152
-439.778	9.428	-0.313	0.239
-438.763	-200.000	0.040	-0.279
-437.749	-163.017	0.068	0.003
-436.734	-93.360	-0.155	-0.043
-435.719	19.891	-0.149	-0.121
-434.705	-66.101	-0.106	0.042
-433.690	-77.090	-0.290	-0.102
-432.676	104.796	-0.062	0.073
-431.661	-98.649	-0.058	-0.015
-430.646	-200.000	-0.011	0.333
-429.632	66.154	-0.210	0.215
-428.617	308.670	-0.192	0.362
-427.603	-23.365	-0.182	0.110
-426.588	-90.821	-0.234	0.068
-425.573	181.211	-0.142	-0.211
-424.559	-200.000	0.019	0.159
-423.544	-35.266	-0.286	0.157
-422.530	157.610	0.155	-0.216
-421.515	186.407	-0.117	-0.176
-420.500	69.079	-0.240	-0.248
-419.486	-139.035	-0.213	-0.023
-418.471	-17.897	-0.120	0.076
-417.457	2.520	0.110	-0.080
-416.442	-105.216	-0.186	0.043
-415.428	177.279	-0.075	0.110
-414.413	-200.000	0.079	-0.354
-413.398	1.395	0.069	0.050
-412.384	800.000	-0.130	0.364
-411.369	-86.289	0.214	-0.066
-410.355	-84.393	-0.230	-0.073
-409.340	532.535	-0.067	0.160
-408.325	-200.000	0.036	-0.195
-407.311	114.771	0.103	0.126
-406.296	69.526	0.107	0.111
-405.282	162.604	0.172	0.243
-404.267	-17.219	0.095	0.060
-403.252	-200.000	-0.013	0.074
-402.238	584.957	-0.047	0.116
-401.223	-165.813	0.070	-0.003
-400.209	-144.905	-0.128	-0.012
-399.194	347.973	0.165	-0.327
-398.179	368.599	-0.091	0.186
-397.165	63.007	0.197	0.198
-396.150	-200.000	0.002	0.347
-395.136	-109.588	0.091	-0.019
-394.121	250.159	0.085	0.145
-393.106	-144.252	-0.208	-0.020
-392.092	80.120	0.154	0.167
-391.077	246.226	0.059	-0.100
-390.063	9.023	0.158	-0.120
-389.048	-25.207	0.121	-0.072
-388.033	-200.000	-0.011	-0.325
-387.019	-200.000	0.054	0.238
-386.004	87.948	0.097	0.108
-384.990	8.349	-0.189	0.143
-383.975	-11.907	0.181	0.119
-382.960	-200.000	0.001	-0.280
-381.946	-200.000	-0.004	-0.229
-380.931	-200.000	-0.011	-0.113
-379.917	556.011	0.050	-0.120
-378.902	66.438	0.169	-0.173
-377.888	-129.848	-0.434	-0.060
-376.873	-114.311	-0.055	-0.011
-375.858	-107.321	0.285	-0.063
-374.844	456.074	-0.128	0.286
-373.829	-184.411	0.148	0.002
-372.815	-200.000	-0.016	-0.243
-371.800	-200.000	0.026	-0.142
-370.785	-168.048	-0.165	0.006
-369.771	-2.634	0.073	-0.051
-368.756	-71.345	-0.270	-0.102
-367.742	-176.223	-0.126	0.003
-366.727	-200.000	-0.016	0.110
-365.712	142.134	0.168	-0.224
-364.698	302.567	0.093	-0.173
-363.683	-70.177	0.197	0.075
-362.669	-179.941	-0.059	0.001
-361.654	153.310	-0.049	-0.068
-360.639	196.526	-0.039	0.059
-359.625	-136.165	-0.216	0.025
-358.610	-200.000	0.015	-0.381
-357.596	206.134	0.048	0.075
-356.581	-21.835	-0.143	0.088
-355.566	173.114	-0.056	-0.082
-354.552	-200.000	0.013	-0.109
-353.537	16.702	-0.182	0.145
-352.523	171.942	-0.199	0.288
-351.508	-200.000	-0.008	0.083
-350.493	-16.903	0.281	-0.178
-349.479	17.877	-0.169	0.135
-348.464	-200.000	0.030	-0.218
-347.450	-200.000	0.011	0.058
-346.435	227.113	-0.147	-0.241
-345.420	-200.000	-0.031	-0.171
-344.406	-155.069	0.055	-0.004
-343.391	-105.791	0.127	-0.029
-342.377	146.211	-0.162	0.219
-341.362	252.004	-0.146	-0.250
-340.348	34.350	0.073	-0.064
-339.333	-22.066	-0.053	-0.033
-338.318	196.210	0.064	0.098
-337.304	800.000	-0.059	-0.186
-336.289	158.809	-0.104	-0.145
-335.275	-200.000	-0.001	0.094
-334.260	-53.020	-0.252	0.116
-333.245	1.003	-0.062	-0.044
-332.231	-88.426	0.245	0.074
-331.216	-27.881	0.205	-0.119
-330.202	-200.000	-0.002	-0.565
-329.187	800.000	0.065	-0.201
-328.172	-128.920	0.175	0.025
-327.158	347.931	0.102	-0.203
-326.143	800.000	0.097	-0.312
-325.129	396.379	-0.051	0.107
-324.114	193.485	0.043	0.065
-323.099	125.384	-0.167	-0.211
-322.085	62.025	0.108	-0.108
-321.070	-196.434	0.486	0.003
-320.056	-144.058	0.210	-0.020
-319.041	-95.144	0.071	0.019
-318.026	-69.568	-0.115	0.044
-317.012	72.229	-0.264	0.276
-315.997	216.423	-0.065	-0.104
-314.983	-97.034	-0.025	-0.006
-313.968	118.822	-0.190	-0.236
-312.953	-91.615	-0.104	0.030
-311.939	239.063	0.115	0.192
-310.924	267.398	0.168	0.295
-309.910	800.000	0.050	-0.184
-308.895	-60.224	0.126	-0.054
-307.880	-200.000	0.006	-0.159
-306.866	40.846	0.283	0.256
-305.851	-200.000	0.021	-0.103
-304.837	-200.000	0.010	-0.069
-303.822	-200.000	-0.008	-0.100
-302.807	-29.705	-0.107	0.061
-301.793	276.697	0.135	-0.240
-300.778	-34.187	-0.369	-0.204
-299.764	118.438	0.207	0.256
-298.749	-194.884	-0.185	-0.001
-297.735	-141.382	0.236	-0.024
-296.720	71.390	0.094	-0.098
-295.705	800.000	0.046	0.191
-294.691	-104.398	-0.204	-0.047
-293.676	-50.218	-0.121	-0.057
-292.662	66.006	-0.162	-0.164
-291.647	800.000	0.071	-0.224
-290.632	-68.036	0.061	0.024
-289.618	85.421	0.163	-0.179
-288.603	-200.000	0.028	0.202
-287.589	71.768	0.193	0.201
-286.574	800.000	-0.047	0.180
-285.559	-30.072	-0.207	0.118
-284.545	-41.713	-0.023	0.012
-283.530	-39.467	-0.253	-0.133
-282.516	102.187	-0.165	-0.193
-281.501	-105.096	0.577	0.132
-280.486	800.000	-0.020	-0.059
-279.472	-200.000	-0.015	0.165
-278.457	-9.904	-0.159	-0.106
-277.443	43.165	0.050	-0.045
-276.428	-68.996	-0.238	0.092
-275.413	276.651	-0.028	0.050
-274.399	800.000	0.058	-0.239
-273.384	-49.994	-0.373	0.177
-272.370	-200.000	0.007	0.183
-271.355	73.542	0.150	0.157
-270.340	458.148	0.064	-0.143
-269.326	223.839	0.042	-0.067
-268.311	-200.000	0.005	-0.115
-267.297	467.187	0.070	0.158
-266.282	32.291	-0.123	0.107
-265.267	10.035	0.127	0.097
-264.253	70.290	0.038	-0.039
-263.238	-113.151	0.221	0.044
-262.224	-19.159	0.225	-0.140
-261.209	432.182	0.087	-0.189
-260.195	42.977	-0.158	-0.144
-259.180	800.000	0.074	0.205
-258.165	180.076	-0.046	0.067
-257.151	93.951	-0.200	-0.228
-256.136	181.210	-0.104	0.153
-255.122	800.000	-0.122	-0.341
-254.107	-40.851	0.197	0.102
-253.092	-200.000	-0.018	0.178
-252.078	67.543	-0.162	0.166
-251.063	-144.045	0.100	-0.009
-250.049	-200.000	0.015	0.117
-249.034	-137.425	0.261	-0.030
-248.019	113.480	-0.304	-0.369
-247.005	-73.684	-0.186	-0.068
-245.990	77.160	-0.019	0.020
-244.976	643.187	0.097	0.247
-243.961	800.000	0.068	0.223
-242.946	455.434	-0.130	0.289
-241.932	148.328	-0.043	-0.059
-240.917	285.939	-0.132	-0.239
-239.903	160.003	-0.209	0.291
-238.888	-56.722	0.109	0.048
-237.873	513.303	-0.016	0.038
-236.859	27.920	-0.128	-0.108
-235.844	253.716	0.082	-0.140
-234.830	-178.634	0.326	0.007
-233.815	231.255	-0.041	-0.066
-232.800	-63.508	-0.397	0.163
-231.786	36.164	-0.218	-0.192
-230.771	-57.523	0.121	0.053
-229.757	-12.266	0.338	0.221
-228.742	100.026	-0.237	0.275
-227.727	249.818	0.132	0.223
-226.713	-134.975	-0.201	0.024
-225.698	-200.000	-0.027	-0.240
-224.684	539.270	0.061	-0.146
-223.669	-200.000	-0.007	-0.220
-222.655	-52.490	-0.304	0.141
-221.640	167.896	-0.107	0.153
-220.625	338.050	-0.160	0.310
-219.611	-65.692	-0.255	-0.102
-218.596	-114.781	0.255	-0.049
-217.582	-156.339	0.067	0.004
-216.567	-143.915	0.325	0.031
-215.552	-200.000	0.021	0.229
-214.538	-200.000	0.009	-0.169
-213.523	-200.000	0.004	-0.105
-212.509	-89.260	0.172	-0.051
-211.494	544.885	0.026	-0.062
-210.479	25.991	-0.240	-0.200
-209.465	-47.763	-0.321	-0.156
-208.450	-200.000	-0.001	-0.079
-207.436	-63.056	0.196	0.081
-206.421	-200.000	0.054	0.277
-205.406	-200.000	0.050	0.436
-204.392	-139.205	0.154	-0.017
-203.377	115.502	0.127	-0.155
-202.363	-200.000	0.057	-0.428
-201.348	180.868	0.170	-0.249
-200.333	-22.044	-0.035	-0.021
-199.319	0.296	0.099	0.071
-198.304	-47.135	-0.195	0.095
-197.290	-48.502	0.128	-0.062
-196.275	-200.000	0.019	0.153
-195.260	5.057	0.550	-0.404
-194.246	757.056	0.111	-0.301
-193.231	-148.958	0.060	0.005
-192.217	334.351	-0.278	0.537
-191.202	-95.544	0.056	-0.015
-190.187	-92.034	-0.196	0.055
-189.173	-10.473	0.120	0.080
-188.158	-68.744	-0.160	0.062
-187.144	-2.190	0.212	-0.149
-186.129	-75.729	-0.195	0.069
-185.114	800.000	0.066	-0.270
-184.100	21.929	0.125	0.102
-183.085	-109.780	-0.064	-0.013
-182.071	-158.484	0.053	-0.003
-181.056	139.894	-0.135	-0.177
-180.042	-135.677	-0.281	0.033
-179.027	800.000	-0.094	-0.355
-178.012	-136.086	0.330	0.039
-176.998	-92.932	-0.361	-0.101
-175.983	-61.271	0.213	0.090
-174.969	-144.141	0.177	-0.017
-173.954	-200.000	-0.042	0.295
-172.939	-89.574	0.362	-0.106
-171.925	-68.225	-0.327	-0.127
-170.910	-200.000	-0.003	-0.223
-169.896	769.446	-0.080	0.216
-168.881	-200.000	0.014	-0.169
-167.866	-200.000	-0.037	0.253
-166.852	13.067	0.265	0.204
-165.837	800.000	-0.125	-0.441
-164.823	-69.512	-0.386	0.147
-163.808	607.180	-0.085	-0.210
-162.793	-173.356	-0.322	-0.010
-161.779	8.002	0.223	0.167
-160.764	0.672	0.130	-0.093
-159.750	136.108	-0.270	0.351
-158.735	46.624	0.106	-0.098
-157.720	-113.969	-0.151	0.029
-156.706	-160.499	0.468	0.025
-155.691	339.893	0.069	0.134
-154.677	-200.000	0.006	0.032
-153.662	-200.000	-0.039	-0.416
-152.647	-81.720	0.218	-0.071
-151.633	215.379	0.317	0.501
-150.618	-200.000	-0.000	0.067
-149.604	-200.000	0.054	-0.252
-148.589	-90.894	-0.461	-0.132
-147.574	-82.958	0.361	0.116
-146.560	-200.000	-0.004	0.054
-145.545	-176.122	-0.297	-0.008
-144.531	800.000	0.053	0.169
-143.516	165.730	-0.186	-0.263
-142.502	800.000	-0.087	0.246
-141.487	16.486	-0.172	-0.135
-140.472	62.838	0.308	-0.307
-139.458	-122.079	-0.456	-0.075
-138.443	800.000	-0.058	-0.181
-137.429	-88.298	0.114	0.034
-136.414	-46.652	0.210	-0.103
-135.399	421.403	0.048	0.103
-134.385	-200.000	0.050	-0.244
-133.370	129.562	-0.242	0.307
-132.356	-190.183	-0.247	0.003
-131.341	534.612	0.114	-0.270
-130.326	38.854	0.388	0.345
-129.312	330.301	0.106	0.203
-128.297	-125.839	0.059	0.009
-127.283	800.000	0.055	0.177
-126.268	-1.937	-0.008	-0.006
-125.253	-16.981	-0.149	-0.093
-124.239	95.311	-0.054	0.061
-123.224	340.041	0.190	-0.370
-122.210	-200.000	-0.051	-0.264
-121.195	-74.622	-0.148	-0.053
