DTS Sentinel unit serial number:	SN413079Multiplexer serial number:	ORYXHardware model number:	OX4-SRSoftware version number:	ORYX F/W v4.00 Oryx Data Collector v3.7.2.0data status	okinstallation	princeton_trtdifferential loss correction	single-endedforward channel	channel 3reverse channel	N/Adate	2019/09/16time	23:20:35forward acquisition time	60.00reverse acquisition time	0.00gamma	496.2192k internal	0.2325k external	0.2325temperature offset calibration	0.9943default loss term (dB/km)	0.3790temperature slope calibration	1.0000multiplexer offset coefficient	1.0000multiplexer slope coefficient	1.0000fibre end	0.00T internal ref (°C)	30.00T ext. ref 1 (°C)	0.09T ext. ref 2 (°C)	23.64length (m)	temperature (°C)	Stokes	anti-Stokes-747.200	-98.780	-0.327	0.084
-746.185	-158.497	0.072	-0.004
-745.171	-200.000	-0.007	0.079
-744.156	71.169	0.381	0.398
-743.142	14.781	-0.196	-0.154
-742.127	-98.765	-0.471	-0.121
-741.112	-24.176	0.043	-0.026
-740.098	800.000	-0.051	0.154
-739.083	-159.198	0.420	-0.024
-738.069	-61.138	-0.239	-0.102
-737.054	-90.041	-0.156	0.046
-736.039	-200.000	0.028	-0.211
-735.025	-34.138	-0.293	-0.162
-734.010	125.040	-0.166	-0.211
-732.996	-200.000	-0.028	-0.235
-731.981	-58.240	-0.213	0.093
-730.966	-200.000	-0.019	-0.139
-729.952	-43.305	-0.074	-0.038
-728.937	-114.831	-0.236	-0.045
-727.923	-40.238	0.046	-0.024
-726.908	-200.000	-0.034	0.486
-725.894	342.676	-0.047	-0.093
-724.879	-92.407	0.244	0.069
-723.864	-50.370	-0.128	-0.061
-722.850	-200.000	-0.008	0.275
-721.835	-200.000	0.001	-0.259
-720.821	17.767	0.200	-0.161
-719.806	-120.980	0.290	0.049
-718.791	57.860	0.050	-0.049
-717.777	-170.026	0.149	-0.005
-716.762	41.876	0.151	-0.138
-715.748	175.882	-0.198	-0.289
-714.733	-139.645	0.355	-0.038
-713.718	425.853	-0.052	-0.112
-712.704	219.638	-0.199	-0.321
-711.689	800.000	-0.026	-0.089
-710.675	-152.225	0.188	-0.014
-709.660	29.409	-0.277	0.238
-708.645	-152.631	-0.290	0.021
-707.631	-200.000	0.063	-0.484
-706.616	102.125	-0.026	0.030
-705.602	327.044	-0.127	0.245
-704.587	-90.371	-0.454	-0.133
-703.572	-136.469	-0.180	0.021
-702.558	-200.000	0.007	-0.348
-701.543	14.220	-0.031	0.025
-700.529	152.158	0.213	-0.293
-699.514	-200.000	-0.050	-0.255
-698.499	139.419	0.253	-0.335
-697.485	137.999	0.063	0.083
-696.470	-107.044	-0.202	0.045
-695.456	230.687	0.165	-0.272
-694.441	800.000	0.055	-0.163
-693.426	497.403	-0.069	-0.161
-692.412	219.770	0.054	-0.087
-691.397	-118.912	0.023	0.004
-690.383	-200.000	-0.047	0.258
-689.368	93.327	0.224	0.255
-688.354	6.576	0.154	0.116
-687.339	-53.835	-0.112	-0.052
-686.324	15.130	0.126	0.099
-685.310	800.000	-0.033	-0.142
-684.295	334.019	-0.032	-0.062
-683.281	-175.086	-0.095	0.003
-682.266	-107.535	-0.132	0.029
-681.251	800.000	0.051	0.199
-680.237	263.864	0.132	0.231
-679.222	-42.077	-0.148	-0.076
-678.208	-200.000	0.033	0.375
-677.193	73.009	-0.307	-0.323
-676.178	-200.000	-0.002	-0.184
-675.164	-63.774	-0.087	0.036
-674.149	-86.671	-0.253	-0.078
-673.135	-82.213	-0.315	-0.103
-672.120	166.003	0.118	0.167
-671.105	317.157	-0.040	0.077
-670.091	177.948	-0.264	0.388
-669.076	474.460	0.180	-0.408
-668.062	-61.523	-0.036	-0.015
-667.047	-143.014	0.353	0.034
-666.032	179.839	-0.102	0.151
-665.018	-120.235	-0.159	-0.027
-664.003	-46.025	0.116	0.057
-662.989	-179.528	-0.257	-0.006
-661.974	-50.116	0.172	-0.082
-660.959	-200.000	0.012	0.146
-659.945	-89.422	0.218	0.065
-658.930	-51.450	0.149	-0.070
-657.916	-23.631	0.266	0.160
-656.901	-72.798	-0.301	-0.111
-655.886	548.086	0.129	-0.310
-654.872	-83.110	0.272	-0.088
-653.857	-20.194	-0.028	0.017
-652.843	-200.000	0.010	0.044
-651.828	123.256	0.180	0.227
-650.814	-51.440	0.299	-0.141
-649.799	92.210	-0.166	-0.188
-648.784	-12.787	0.268	-0.175
-647.770	-42.639	0.231	0.118
-646.755	24.840	0.137	0.114
-645.741	152.616	-0.139	-0.191
-644.726	369.717	-0.141	-0.287
-643.711	800.000	0.036	-0.101
-642.697	-200.000	0.006	0.253
-641.682	596.129	-0.102	-0.254
-640.668	-124.635	0.222	0.035
-639.653	12.706	0.087	0.067
-638.638	-6.852	0.210	-0.143
-637.624	81.825	-0.173	0.188
-636.609	161.354	-0.113	-0.159
-635.595	530.468	-0.061	-0.146
-634.580	77.589	-0.057	-0.061
-633.565	241.447	-0.166	-0.279
-632.551	-200.000	0.022	0.163
-631.536	-119.763	0.250	-0.043
-630.522	25.213	-0.259	-0.216
-629.507	-200.000	0.010	0.196
-628.492	800.000	-0.091	-0.312
-627.478	800.000	-0.058	0.205
-626.463	223.778	-0.218	-0.354
-625.449	-200.000	0.064	-0.306
-624.434	155.588	0.141	-0.195
-623.419	-200.000	-0.011	0.178
-622.405	-139.238	0.460	-0.050
-621.390	526.317	-0.102	0.241
-620.376	-32.976	0.058	0.032
-619.361	-56.229	-0.298	-0.133
-618.346	36.160	-0.213	-0.189
-617.332	361.123	0.077	-0.154
-616.317	172.148	-0.108	0.156
-615.303	-64.333	0.249	-0.102
-614.288	16.682	-0.129	-0.102
-613.273	-29.145	-0.398	0.229
-612.259	112.070	-0.123	-0.149
-611.244	800.000	0.087	-0.306
-610.230	-74.267	-0.329	-0.119
-609.215	591.186	0.210	-0.521
-608.201	-0.571	0.043	0.031
-607.186	-108.309	-0.073	0.016
-606.171	344.800	0.058	0.115
-605.157	-200.000	-0.020	-0.302
-604.142	-200.000	-0.006	0.170
-603.128	63.370	0.119	0.120
-602.113	137.930	0.134	-0.176
-601.098	131.768	0.148	0.191
-600.084	28.754	0.071	-0.060
-599.069	-200.000	-0.062	0.280
-598.055	78.721	0.075	0.081
-597.040	71.444	-0.128	-0.133
-596.025	-94.685	-0.151	0.041
-595.011	54.172	-0.138	-0.133
-593.996	800.000	-0.063	-0.193
-592.982	318.606	0.058	0.110
-591.967	-200.000	-0.031	0.190
-590.952	-161.409	-0.007	0.000
-589.938	-56.851	-0.223	-0.099
-588.923	800.000	-0.026	0.083
-587.909	-200.000	-0.019	-0.094
-586.894	-200.000	0.019	-0.287
-585.879	-200.000	-0.032	-0.351
-584.865	-51.121	-0.217	0.102
-583.850	-43.601	-0.418	-0.212
-582.836	216.547	0.132	-0.211
-581.821	-200.000	-0.014	0.153
-580.806	182.911	-0.125	0.185
-579.792	-48.429	-0.112	-0.054
-578.777	-200.000	-0.015	0.326
-577.763	740.857	0.068	-0.184
-576.748	-41.394	-0.292	0.151
-575.733	-200.000	0.030	-0.265
-574.719	-150.670	0.187	0.014
-573.704	5.072	0.081	0.060
-572.690	126.272	0.073	-0.093
-571.675	800.000	0.074	0.219
-570.661	800.000	0.028	-0.100
-569.646	-200.000	0.009	0.206
-568.631	800.000	0.090	-0.298
-567.617	154.384	-0.214	-0.295
-566.602	-39.709	0.136	-0.071
-565.588	17.352	-0.249	0.198
-564.573	-35.367	0.023	-0.013
-563.558	198.821	0.078	-0.119
-562.544	249.604	-0.156	0.266
-561.529	-49.836	0.083	0.040
-560.515	58.493	-0.117	-0.115
-559.500	-104.304	-0.150	-0.035
-558.485	56.144	0.063	-0.061
-557.471	126.596	0.193	0.245
-556.456	227.622	0.131	0.214
-555.442	-200.000	-0.017	-0.355
-554.427	-176.223	-0.054	-0.001
-553.412	-130.786	-0.326	0.044
-552.398	-67.881	0.143	-0.056
-551.383	800.000	-0.043	0.177
-550.369	-69.708	0.274	0.105
-549.354	44.047	-0.094	-0.087
-548.339	10.300	0.321	0.245
-547.325	-148.904	-0.431	0.035
-546.310	-166.385	0.112	-0.005
-545.296	-48.621	-0.414	0.199
-544.281	-170.965	0.207	-0.007
-543.266	-200.000	0.050	0.254
-542.252	70.422	-0.168	0.174
-541.237	-17.332	-0.112	0.071
-540.223	800.000	-0.048	-0.136
-539.208	33.894	-0.134	0.117
-538.193	259.807	-0.032	0.055
-537.179	15.948	-0.396	0.312
-536.164	322.866	0.163	-0.311
-535.150	164.652	0.245	0.345
-534.135	-157.555	-0.398	-0.024
-533.121	-200.000	0.005	-0.054
-532.106	25.562	0.209	0.174
-531.091	-200.000	0.005	-0.357
-530.077	-200.000	-0.003	0.129
-529.062	-87.066	-0.155	0.047
-528.048	-200.000	-0.036	-0.299
-527.033	800.000	0.121	0.442
-526.018	-200.000	0.021	0.176
-525.004	-129.687	-0.140	0.019
-523.989	-114.237	-0.046	-0.009
-522.975	-115.224	-0.101	-0.019
-521.960	126.674	-0.133	-0.169
-520.945	683.427	-0.108	0.281
-519.931	591.969	-0.097	0.239
-518.916	-200.000	-0.027	0.179
-517.902	186.579	-0.147	-0.218
-516.887	0.317	-0.189	-0.135
-515.872	4.835	-0.068	0.050
-514.858	630.659	-0.091	0.229
-513.843	-200.000	-0.027	-0.146
-512.829	-50.383	-0.265	-0.125
-511.814	-119.048	-0.147	-0.026
-510.799	-19.862	0.316	0.195
-509.785	-113.829	0.076	-0.015
-508.770	-107.476	0.141	0.031
-507.756	-200.000	0.007	0.164
-506.741	-200.000	-0.022	0.166
-505.726	-67.214	0.081	0.032
-504.712	27.325	-0.191	0.161
-503.697	235.399	0.068	0.113
-502.683	149.346	-0.338	0.457
-501.668	173.550	0.095	0.137
-500.653	-143.216	-0.182	-0.018
-499.639	-67.065	-0.033	-0.013
-498.624	202.071	0.079	-0.121
-497.610	-24.736	-0.133	-0.079
-496.595	59.683	-0.015	0.015
-495.581	-181.247	-0.340	0.007
-494.566	49.238	0.440	-0.413
-493.551	-200.000	-0.054	0.307
-492.537	-76.937	0.237	0.083
-491.522	283.314	0.181	0.324
-490.508	-200.000	0.036	-0.432
-489.493	-16.184	-0.089	0.057
-488.478	13.757	0.196	0.152
-487.464	191.801	0.102	-0.153
-486.449	50.193	-0.252	-0.238
-485.435	-108.559	-0.158	-0.034
-484.420	514.755	0.084	-0.197
-483.405	25.594	0.151	-0.125
-482.391	-48.519	-0.244	-0.117
-481.376	-133.291	-0.273	-0.034
-480.362	-59.650	0.354	-0.152
-479.347	-118.126	0.259	0.046
-478.332	-200.000	0.027	0.245
-477.318	800.000	-0.127	-0.453
-476.303	-26.586	0.149	-0.087
-475.289	-88.227	0.055	0.016
-474.274	14.344	-0.152	0.118
-473.259	94.191	0.127	0.144
-472.245	235.995	0.182	-0.300
-471.230	-24.078	0.171	-0.102
-470.216	-38.833	0.321	-0.169
-469.201	-91.431	0.238	-0.068
-468.186	1.372	0.130	-0.093
-467.172	144.836	0.109	0.145
-466.157	-99.901	0.094	0.024
-465.143	-200.000	0.011	0.055
-464.128	106.393	0.144	-0.170
-463.113	-200.000	-0.012	0.126
-462.099	90.259	-0.052	0.058
-461.084	-200.000	0.050	-0.293
-460.070	-40.752	0.113	0.059
-459.055	-200.000	-0.039	0.245
-458.040	-200.000	-0.011	0.156
-457.026	800.000	-0.080	0.238
-456.011	800.000	-0.044	-0.125
-454.997	-93.174	0.281	-0.078
-453.982	-34.362	0.104	0.057
-452.968	800.000	-0.012	-0.051
-451.953	-173.923	0.135	0.004
-450.938	800.000	0.101	0.292
-449.924	323.924	-0.078	-0.148
-448.909	322.197	-0.139	0.264
-447.895	-130.860	-0.123	0.016
-446.880	-53.124	0.110	-0.050
-445.865	-200.000	0.024	-0.274
-444.851	-67.777	0.148	0.058
-443.836	-50.447	-0.357	-0.168
-442.822	47.870	-0.254	0.237
-441.807	-200.000	-0.017	-0.322
-440.792	48.482	0.271	-0.253
-439.778	-58.753	-0.169	-0.073
-438.763	187.143	-0.134	-0.200
-437.749	-69.157	0.286	0.110
-436.734	155.547	0.109	0.150
-435.719	-18.254	-0.237	0.148
-434.705	-200.000	-0.021	0.142
-433.690	609.658	-0.122	0.303
-432.676	630.637	-0.066	-0.167
-431.661	-28.723	0.203	0.117
-430.646	800.000	-0.054	0.214
-429.632	-55.174	-0.242	0.108
-428.617	-57.904	0.128	0.056
-427.603	45.354	0.266	0.244
-426.588	-32.502	-0.101	-0.056
-425.573	-200.000	-0.014	0.219
-424.559	-200.000	0.007	0.090
-423.544	-46.096	-0.143	0.070
-422.530	800.000	0.037	0.130
-421.515	262.743	0.142	-0.245
-420.500	800.000	0.038	-0.160
-419.486	-16.091	-0.152	-0.096
-418.471	-3.498	0.095	0.066
-417.457	-200.000	-0.003	-0.170
-416.442	6.558	-0.153	-0.113
-415.428	800.000	0.064	-0.179
-414.413	54.324	0.333	-0.319
-413.398	-200.000	0.001	0.044
-412.384	-2.226	-0.309	0.216
-411.369	672.145	-0.053	-0.136
-410.355	-124.064	-0.286	-0.045
-409.340	-20.138	0.152	-0.093
-408.325	800.000	0.082	0.238
-407.311	312.859	0.068	0.127
-406.296	344.441	0.038	-0.074
-405.282	-59.108	-0.034	-0.014
-404.267	282.572	0.088	0.156
-403.252	99.888	-0.102	0.118
-402.238	-30.474	0.183	0.103
-401.223	-111.834	0.253	-0.051
-400.209	131.149	-0.199	0.255
-399.194	-62.837	-0.278	0.115
-398.179	-23.937	0.219	-0.130
-397.165	-139.504	-0.031	-0.003
-396.150	-200.000	-0.040	-0.360
-395.136	-200.000	-0.058	0.337
-394.121	262.204	-0.081	0.141
-393.106	-200.000	-0.032	-0.233
-392.092	-134.666	0.006	-0.001
-391.077	-93.113	-0.277	-0.077
-390.063	-200.000	0.029	-0.126
-389.048	10.784	-0.146	0.111
-388.033	-200.000	0.321	-0.001
-387.019	39.148	0.110	-0.098
-386.004	-56.544	-0.090	0.040
-384.990	28.245	0.060	0.051
-383.975	665.945	0.051	-0.131
-382.960	-52.369	0.172	0.079
-381.946	-29.018	-0.171	-0.097
-380.931	-86.708	0.261	-0.079
-379.917	-200.000	0.021	-0.244
-378.902	-142.970	0.112	0.011
-377.888	65.062	0.184	0.185
-376.873	-164.667	-0.270	0.012
-375.858	178.412	-0.133	-0.193
-374.844	272.394	-0.023	-0.041
-373.829	105.651	0.202	-0.237
-372.815	66.688	-0.070	0.071
-371.800	-38.487	-0.061	-0.032
-370.785	-200.000	-0.037	-0.186
-369.771	-200.000	0.038	0.203
-368.756	-61.868	0.155	-0.065
-367.742	-111.515	-0.293	-0.059
-366.727	-77.152	0.108	0.038
-365.712	-180.813	0.093	-0.002
-364.698	120.382	-0.167	-0.206
-363.683	-58.733	-0.065	0.028
-362.669	-50.224	-0.179	0.084
-361.654	151.678	-0.099	-0.134
-360.639	42.649	0.247	0.223
-359.625	39.089	0.224	-0.199
-358.610	-200.000	-0.016	0.300
-357.596	-200.000	-0.023	-0.134
-356.581	-200.000	0.006	-0.182
-355.566	193.713	-0.055	0.082
-354.552	-200.000	-0.061	0.302
-353.537	251.436	0.153	0.259
-352.523	299.061	0.098	0.179
-351.508	-200.000	-0.007	0.183
-350.493	451.235	-0.092	0.203
-349.479	384.037	-0.044	0.090
-348.464	800.000	0.078	-0.277
-347.450	800.000	0.075	-0.302
-346.435	-170.339	0.277	-0.010
-345.420	-200.000	0.004	-0.048
-344.406	-200.000	0.012	0.118
-343.391	56.969	-0.189	0.183
-342.377	-50.879	0.444	0.207
-341.362	800.000	0.126	0.393
-340.348	-200.000	-0.028	-0.233
-339.333	800.000	-0.059	-0.246
-338.318	0.316	0.064	0.046
-337.304	320.016	0.086	-0.163
-336.289	-200.000	-0.036	0.180
-335.275	113.385	0.105	0.126
-334.260	76.465	-0.267	0.282
-333.245	-86.330	0.084	0.026
-332.231	800.000	-0.041	0.151
-331.216	759.360	0.101	0.271
-330.202	-200.000	-0.015	0.255
-329.187	-146.748	-0.093	-0.008
-328.172	-80.529	0.087	0.029
-327.158	25.967	-0.080	-0.067
-326.143	47.054	-0.161	-0.149
-325.129	-200.000	-0.058	0.263
-324.114	-59.365	0.166	0.071
-323.099	110.307	0.183	-0.218
-322.085	399.025	-0.039	-0.081
-321.070	800.000	0.046	0.192
-320.056	-200.000	-0.035	0.240
-319.041	241.439	0.176	-0.291
-318.026	358.232	-0.180	-0.356
-317.012	716.966	-0.033	-0.087
-315.997	-8.291	0.172	-0.115
-314.983	132.057	-0.117	0.149
-313.968	55.638	-0.066	0.064
-312.953	-16.829	-0.438	-0.275
-311.939	348.422	-0.131	-0.257
-310.924	800.000	-0.027	-0.110
-309.910	248.459	0.063	-0.105
-308.895	509.686	0.057	0.131
-307.880	123.266	0.175	-0.218
-306.866	-89.559	-0.045	-0.013
-305.851	-45.483	-0.130	-0.064
-304.837	-38.809	0.044	0.023
-303.822	-148.215	-0.223	0.018
-302.807	-200.000	-0.007	-0.373
-301.793	82.090	0.179	-0.192
-300.778	123.545	0.094	-0.117
-299.764	190.503	-0.236	-0.352
-298.749	252.170	-0.164	0.277
-297.735	-31.208	-0.220	-0.123
-296.720	237.869	0.012	-0.019
-295.705	40.020	0.110	-0.098
-294.691	-41.617	-0.112	-0.057
-293.676	-157.446	-0.131	0.008
-292.662	-54.884	-0.148	-0.066
-291.647	800.000	0.097	-0.342
-290.632	-127.782	0.157	-0.022
-289.618	-129.079	-0.165	0.023
-288.603	-200.000	-0.046	-0.332
-287.589	-155.274	0.166	-0.011
-286.574	-136.271	-0.074	0.009
-285.559	-62.180	0.170	-0.070
-284.545	438.781	0.130	0.281
-283.530	-122.577	-0.403	-0.065
-282.516	-65.009	0.056	0.022
-281.501	-200.000	-0.005	-0.101
-280.486	800.000	-0.081	0.274
-279.472	-78.088	0.157	0.054
-278.457	-200.000	-0.037	-0.242
-277.443	141.842	-0.240	0.315
-276.428	800.000	0.067	0.276
-275.413	-53.286	0.259	0.118
-274.399	800.000	-0.110	-0.454
-273.384	10.356	0.183	-0.138
-272.370	24.804	-0.278	0.228
-271.355	119.787	-0.096	0.118
-270.340	-32.958	0.394	0.217
-269.326	-200.000	-0.123	0.615
-268.311	-78.787	-0.362	-0.122
-267.297	-36.204	0.402	0.215
-266.282	160.824	-0.029	-0.041
-265.267	29.462	-0.189	-0.159
-264.253	155.834	-0.173	0.236
-263.238	184.609	0.043	0.063
-262.224	-200.000	0.033	0.148
-261.209	-169.284	0.056	0.002
-260.195	603.143	-0.130	0.321
-259.180	-179.116	0.276	-0.006
-258.165	-200.000	-0.027	0.274
-257.151	-128.826	0.199	0.028
-256.136	212.161	0.164	-0.256
-255.122	-120.727	-0.073	0.012
-254.107	-19.391	-0.060	-0.037
-253.092	171.107	0.102	-0.145
-252.078	-200.000	-0.088	-0.490
-251.063	-200.000	-0.028	-0.438
-250.049	79.694	0.126	-0.134
-249.034	197.916	0.133	0.201
-248.019	84.041	0.151	-0.163
-247.005	449.094	-0.084	0.183
-245.990	174.526	0.223	-0.319
-244.976	-92.361	0.441	0.123
-243.961	-107.166	-0.453	0.099
-242.946	-21.844	-0.143	-0.086
-241.932	-130.524	0.121	0.016
-240.917	-52.876	-0.137	-0.062
-239.903	377.728	-0.123	0.248
-238.888	-36.696	-0.190	-0.101
-237.873	-105.263	0.089	-0.020
-236.859	359.998	-0.158	0.312
-235.844	167.493	-0.123	-0.173
-234.830	-102.517	-0.151	-0.036
-233.815	311.560	-0.092	-0.171
-232.800	247.018	-0.128	-0.214
-231.786	43.992	-0.150	0.136
-230.771	800.000	0.052	0.172
-229.757	405.759	0.064	0.133
-228.742	-137.724	0.330	0.037
-227.727	684.456	-0.139	0.359
-226.713	-32.711	0.035	-0.019
-225.698	20.055	-0.079	0.063
-224.684	-126.527	0.128	-0.019
-223.669	-200.000	-0.028	0.231
-222.655	397.836	-0.150	-0.310
-221.640	483.958	0.063	-0.141
-220.625	91.271	-0.055	0.061
-219.611	-186.924	-0.364	-0.005
-218.596	-105.051	0.044	0.010
-217.582	-13.215	0.192	-0.123
-216.567	800.000	0.026	-0.104
-215.552	-6.663	0.102	0.069
-214.538	-200.000	-0.067	0.333
-213.523	84.605	-0.070	-0.076
-212.509	342.578	0.027	0.051
-211.494	55.430	-0.069	-0.066
-210.479	108.834	0.187	0.221
-209.465	-58.829	-0.140	0.060
-208.450	-103.691	0.442	0.102
-207.436	-136.450	-0.136	0.016
-206.421	63.271	0.046	0.046
-205.406	-133.087	-0.376	-0.047
-204.392	-13.483	-0.183	-0.117
-203.377	152.420	-0.163	-0.220
-202.363	342.655	0.077	-0.149
-201.348	23.723	-0.034	-0.028
-200.333	84.379	0.126	-0.136
-199.319	72.893	0.146	0.151
-198.304	165.559	0.073	0.102
-197.290	786.347	0.031	-0.083
-196.275	-40.743	0.067	-0.034
-195.260	-200.000	0.051	0.255
-194.246	-200.000	0.003	-0.098
-193.231	-15.198	0.168	-0.106
-192.217	-200.000	-0.021	0.250
-191.202	-200.000	-0.014	0.131
-190.187	800.000	-0.042	-0.177
-189.173	-90.865	-0.064	0.018
-188.158	441.904	-0.133	0.287
-187.144	16.590	0.158	-0.124
-186.129	-11.451	0.046	-0.030
-185.114	-146.268	0.167	0.014
-184.100	298.653	0.115	0.209
-183.085	48.778	0.038	0.035
-182.071	-21.364	0.139	0.084
-181.056	-37.130	0.149	-0.079
-180.042	40.890	0.240	0.214
-179.027	72.991	0.220	-0.227
-178.012	800.000	-0.133	0.448
-176.998	63.196	0.092	0.091
-175.983	-168.226	0.160	-0.006
-174.969	55.986	0.152	-0.146
-173.954	800.000	0.070	0.219
-172.939	-7.930	0.191	-0.127
-171.925	-26.051	0.182	-0.106
-170.910	0.299	-0.198	0.139
-169.896	-75.190	0.306	0.108
-168.881	800.000	-0.063	0.268
-167.866	99.528	-0.080	-0.091
-166.852	-200.000	-0.012	-0.075
-165.837	446.460	0.192	-0.416
-164.823	-171.455	-0.399	0.013
-163.808	148.562	-0.289	0.385
-162.793	-200.000	0.019	0.402
-161.779	256.665	0.071	-0.121
-160.764	665.277	0.038	0.096
-159.750	-43.048	-0.064	-0.032
-158.735	102.619	0.169	0.195
-157.720	-137.724	-0.032	0.004
-156.706	-61.156	0.195	-0.081
-155.691	-114.635	0.178	-0.034
-154.677	-103.749	0.349	-0.080
-153.662	145.037	0.270	-0.355
-152.647	800.000	0.052	-0.178
-151.633	636.074	-0.060	0.150
-150.618	-200.000	0.001	0.016
-149.604	448.624	0.106	-0.231
-148.589	91.325	0.342	0.379
-147.574	-60.883	0.100	0.042
-146.560	135.866	0.130	0.166
-145.545	254.850	-0.153	-0.257
-144.531	-200.000	-0.017	-0.327
-143.516	-136.780	0.313	-0.035
-142.502	-130.020	-0.120	-0.016
-141.487	174.927	-0.029	0.042
-140.472	81.511	-0.242	0.258
-139.458	-200.000	-0.002	0.079
-138.443	344.060	-0.044	-0.085
-137.429	-144.877	-0.217	-0.020
-136.414	58.504	0.085	0.082
-135.399	-37.745	-0.451	-0.236
-134.385	200.078	-0.251	-0.379
-133.370	-118.304	0.256	0.045
-132.356	-128.463	-0.278	0.039
-131.341	-157.157	0.111	0.007
-130.326	-130.652	0.299	0.040
-129.312	-57.410	0.233	-0.101
-128.297	15.871	0.258	-0.200
-127.283	64.392	-0.155	-0.154
-126.268	-42.504	-0.180	0.091
-125.253	-200.000	-0.019	-0.161
-124.239	102.214	0.055	0.064
-123.224	-200.000	-0.027	0.218
-122.210	23.748	-0.139	-0.113
