DTS Sentinel unit serial number:	SN413079Multiplexer serial number:	ORYXHardware model number:	OX4-SRSoftware version number:	ORYX F/W v4.00 Oryx Data Collector v3.7.2.0data status	okinstallation	princeton_trtdifferential loss correction	single-endedforward channel	channel 3reverse channel	N/Adate	2019/09/15time	09:48:35forward acquisition time	60.00reverse acquisition time	0.00gamma	496.2192k internal	0.2308k external	0.2308temperature offset calibration	0.9972default loss term (dB/km)	0.3790temperature slope calibration	1.0000multiplexer offset coefficient	1.0000multiplexer slope coefficient	1.0000fibre end	0.00T internal ref (°C)	34.00T ext. ref 1 (°C)	4.97T ext. ref 2 (°C)	29.69length (m)	temperature (°C)	Stokes	anti-Stokes-747.200	-200.000	0.002	-0.086
-746.185	-200.000	-0.057	0.274
-745.171	800.000	0.068	0.301
-744.156	1.265	-0.130	-0.095
-743.142	-50.285	-0.329	-0.158
-742.127	633.980	-0.081	0.208
-741.112	206.837	-0.068	-0.108
-740.098	-200.000	-0.040	0.446
-739.083	-122.102	-0.064	0.011
-738.069	-142.684	-0.106	-0.011
-737.054	0.416	0.033	0.024
-736.039	-200.000	0.008	0.089
-735.025	100.344	0.175	0.206
-734.010	-200.000	-0.031	-0.314
-732.996	117.145	0.124	-0.155
-731.981	715.648	0.043	0.115
-730.966	-116.800	0.217	-0.040
-729.952	-173.916	-0.065	-0.002
-728.937	-200.000	-0.024	-0.141
-727.923	-75.215	-0.225	-0.082
-726.908	-89.478	0.271	-0.081
-725.894	35.127	0.245	-0.218
-724.879	156.219	-0.076	-0.107
-723.864	22.238	0.222	-0.184
-722.850	37.842	0.103	0.093
-721.835	-200.000	-0.002	0.141
-720.821	-200.000	-0.011	0.087
-719.806	72.233	-0.199	0.211
-718.791	-200.000	-0.031	0.210
-717.777	-69.121	-0.121	-0.047
-716.762	496.170	0.155	0.363
-715.748	800.000	-0.093	-0.346
-714.733	268.480	0.029	0.051
-713.718	176.005	0.102	-0.151
-712.704	-106.958	-0.165	-0.037
-711.689	501.831	0.139	0.327
-710.675	-66.835	-0.099	0.040
-709.660	800.000	0.010	-0.042
-708.645	-143.595	0.517	0.050
-707.631	272.809	-0.128	-0.229
-706.616	-189.172	-0.050	-0.001
-705.602	-30.427	0.152	-0.088
-704.587	-87.940	0.277	0.085
-703.572	-76.209	-0.162	-0.058
-702.558	-43.573	-0.150	0.077
-701.543	-200.000	0.019	0.120
-700.529	-4.500	-0.273	-0.191
-699.514	-36.774	0.163	0.089
-698.499	-200.000	0.056	0.291
-697.485	-86.056	-0.299	0.094
-696.470	-79.229	-0.382	-0.132
-695.456	-155.040	0.098	-0.007
-694.441	800.000	-0.140	-0.412
-693.426	-200.000	0.017	-0.353
-692.412	158.884	0.009	-0.012
-691.397	800.000	0.059	-0.173
-690.383	-200.000	-0.015	-0.199
-689.368	-200.000	0.016	0.245
-688.354	347.888	-0.076	-0.153
-687.339	-200.000	-0.029	-0.351
-686.324	-114.154	0.054	0.011
-685.310	-3.408	-0.315	0.223
-684.295	-81.691	0.083	0.028
-683.281	102.368	0.248	0.294
-682.266	15.829	0.073	-0.058
-681.251	188.313	-0.177	-0.268
-680.237	-6.558	-0.115	0.080
-679.222	6.817	0.209	0.158
-678.208	20.585	0.168	0.138
-677.193	-67.924	-0.316	0.125
-676.178	56.399	-0.158	0.155
-675.164	56.510	-0.242	-0.239
-674.149	205.917	-0.082	-0.130
-673.135	322.866	0.075	-0.145
-672.120	-17.490	-0.237	-0.151
-671.105	-200.000	-0.065	-0.429
-670.091	-125.341	-0.115	-0.018
-669.076	-200.000	-0.058	-0.337
-668.062	800.000	0.046	-0.147
-667.047	40.201	0.085	0.078
-666.032	190.862	0.191	0.291
-665.018	588.265	-0.039	0.097
-664.003	26.478	0.274	0.232
-662.989	-57.339	-0.226	0.101
-661.974	-200.000	0.025	-0.124
-660.959	26.020	0.124	-0.105
-659.945	800.000	-0.044	-0.125
-658.930	187.645	0.072	-0.109
-657.916	-200.000	0.026	0.124
-656.901	152.855	-0.106	-0.146
-655.886	-163.342	0.539	0.026
-654.872	-155.798	-0.210	0.014
-653.857	365.317	0.179	0.365
-652.843	-200.000	0.000	0.159
-651.828	482.896	-0.106	0.243
-650.814	-110.617	-0.273	-0.057
-649.799	-87.388	0.311	0.095
-648.784	420.507	-0.085	-0.183
-647.770	12.229	-0.208	0.162
-646.755	-63.841	0.505	-0.209
-645.741	121.083	-0.211	0.266
-644.726	800.000	0.061	0.174
-643.711	26.564	-0.138	0.117
-642.697	-2.251	0.281	0.200
-641.682	800.000	0.041	0.155
-640.668	800.000	-0.079	-0.247
-639.653	-110.095	-0.503	-0.106
-638.638	466.791	0.126	-0.285
-637.624	-47.206	-0.317	0.156
-636.609	-94.400	0.128	0.035
-635.595	4.020	0.269	-0.199
-634.580	38.666	0.143	-0.129
-633.565	-75.517	-0.353	0.127
-632.551	-72.787	-0.219	0.082
-631.536	97.642	-0.132	0.154
-630.522	-88.965	0.213	0.064
-629.507	73.521	0.187	0.198
-628.492	9.545	-0.069	-0.053
-627.478	-200.000	0.019	0.099
-626.463	-62.625	0.165	0.069
-625.449	-69.941	0.091	0.035
-624.434	156.258	0.057	-0.080
-623.419	-168.651	-0.092	0.004
-622.405	-166.135	-0.177	-0.008
-621.390	-86.244	-0.238	0.074
-620.376	38.833	-0.203	0.184
-619.361	78.461	-0.191	-0.206
-618.346	140.683	-0.137	0.183
-617.332	21.850	-0.346	-0.285
-616.317	-52.789	-0.234	-0.109
-615.303	269.445	0.023	-0.040
-614.288	-200.000	0.007	0.287
-613.273	47.010	-0.085	-0.080
-612.259	800.000	-0.033	-0.100
-611.244	513.888	0.071	-0.168
-610.230	-12.843	0.160	0.105
-609.215	-200.000	0.318	-0.000
-608.201	800.000	0.084	-0.239
-607.186	-166.878	-0.192	0.008
-606.171	800.000	-0.040	-0.128
-605.157	-115.835	0.052	0.010
-604.142	-153.005	0.165	-0.012
-603.128	36.427	0.138	-0.123
-602.113	-200.000	0.001	-0.208
-601.098	-184.818	0.231	-0.004
-600.084	442.116	0.117	0.259
-599.069	800.000	-0.130	0.365
-598.055	32.056	-0.203	-0.177
-597.040	-157.124	0.058	0.004
-596.025	371.412	0.053	0.109
-595.011	258.930	0.015	0.027
-593.996	-200.000	-0.024	-0.148
-592.982	197.082	0.127	0.196
-591.967	454.405	0.096	-0.215
-590.952	-35.373	0.066	0.036
-589.938	180.153	-0.101	-0.149
-588.923	-93.770	-0.329	-0.092
-587.909	608.627	0.072	-0.182
-586.894	41.427	-0.141	0.129
-585.879	31.034	-0.058	-0.050
-584.865	232.225	-0.123	-0.205
-583.850	67.410	-0.075	0.077
-582.836	-200.000	-0.005	0.194
-581.821	800.000	0.077	0.229
-580.806	-13.273	0.328	0.215
-579.792	-122.910	-0.177	-0.029
-578.777	-58.470	-0.298	0.131
-577.763	-200.000	-0.063	0.345
-576.748	-78.584	-0.213	-0.074
-575.733	69.430	0.067	0.070
-574.719	-97.067	0.122	0.032
-573.704	30.187	-0.203	-0.175
-572.690	35.393	0.187	0.165
-571.675	-158.976	0.171	-0.010
-570.661	800.000	-0.011	0.044
-569.646	-200.000	0.013	-0.124
-568.631	403.488	0.130	0.277
-567.617	-95.863	0.201	0.054
-566.602	103.438	0.196	-0.232
-565.588	-83.226	0.228	0.074
-564.573	-25.873	0.302	-0.179
-563.558	146.033	0.186	0.251
-562.544	-161.518	-0.151	0.008
-561.529	-46.828	-0.278	-0.137
-560.515	-92.901	0.207	-0.058
-559.500	-43.074	0.195	-0.100
-558.485	510.969	-0.182	-0.426
-557.471	108.032	-0.115	-0.138
-556.456	783.874	-0.049	-0.136
-555.442	61.783	0.132	-0.133
-554.427	489.462	0.055	0.127
-553.412	-113.714	0.242	0.048
-552.398	-38.787	-0.193	0.103
-551.383	204.370	0.035	0.055
-550.369	393.060	0.074	0.156
-549.354	-45.634	0.126	-0.063
-548.339	195.894	-0.084	-0.129
-547.325	3.766	0.168	0.124
-546.310	-55.512	-0.170	-0.077
-545.296	-39.072	-0.124	-0.066
-544.281	-200.000	-0.005	-0.435
-543.266	27.096	-0.237	-0.201
-542.252	-40.973	0.189	-0.099
-541.237	11.430	-0.245	-0.190
-540.223	45.638	-0.120	0.112
-539.208	-154.324	0.265	-0.018
-538.193	123.008	-0.150	-0.189
-537.179	800.000	0.019	0.076
-536.164	-105.301	-0.163	0.037
-535.150	73.932	-0.297	-0.314
-534.135	-200.000	0.030	0.335
-533.121	-39.790	0.209	0.110
-532.106	71.352	-0.234	-0.245
-531.091	800.000	0.102	0.360
-530.077	638.244	0.107	0.275
-529.062	800.000	0.121	0.484
-528.048	76.403	-0.237	-0.253
-527.033	45.350	-0.195	0.182
-526.018	-8.716	0.199	0.135
-525.004	-56.874	0.113	-0.050
-523.989	88.126	-0.126	0.141
-522.975	-42.009	-0.146	0.075
-521.960	-103.078	0.151	0.036
-520.945	800.000	-0.041	-0.135
-519.931	-19.216	-0.169	-0.106
-518.916	-200.000	-0.042	0.201
-517.902	548.742	0.079	0.190
-516.887	-200.000	-0.066	-0.370
-515.872	-136.534	-0.136	0.016
-514.858	-200.000	-0.010	0.073
-513.843	-200.000	0.019	0.103
-512.829	-67.534	-0.117	0.046
-511.814	-122.165	0.193	-0.032
-510.799	466.942	0.122	-0.276
-509.785	800.000	0.065	0.272
-508.770	79.716	-0.149	0.161
-507.756	177.034	-0.170	-0.249
-506.741	800.000	-0.029	-0.107
-505.726	800.000	-0.032	0.121
-504.712	-21.179	-0.103	0.063
-503.697	-200.000	0.006	0.231
-502.683	664.066	0.090	0.234
-501.668	-61.953	-0.206	-0.087
-500.653	186.652	0.114	0.170
-499.639	-200.000	0.073	-0.369
-498.624	-180.145	0.278	0.006
-497.610	-66.643	0.175	-0.070
-496.595	-3.745	0.167	0.117
-495.581	-106.391	-0.297	-0.067
-494.566	-200.000	-0.085	-0.391
-493.551	-200.000	0.023	-0.144
-492.537	190.728	0.045	0.069
-491.522	58.453	-0.339	0.335
-490.508	4.257	0.122	0.090
-489.493	-89.234	-0.058	0.017
-488.478	-86.670	-0.198	0.061
-487.464	46.834	-0.245	-0.229
-486.449	85.083	-0.156	-0.172
-485.435	181.019	0.084	0.124
-484.420	800.000	-0.059	-0.234
-483.405	-109.024	0.109	-0.023
-482.391	-131.275	-0.152	0.020
-481.376	-36.446	0.173	-0.094
-480.362	-138.326	-0.485	-0.054
-479.347	-200.000	0.004	0.071
-478.332	-27.261	-0.177	-0.104
-477.318	-81.855	0.141	-0.046
-476.303	-129.190	-0.159	-0.022
-475.289	630.156	0.109	0.278
-474.274	5.614	-0.313	-0.233
-473.259	800.000	-0.061	-0.192
-472.245	-76.327	-0.276	0.098
-471.230	25.160	0.226	-0.189
-470.216	619.561	-0.040	0.101
-469.201	-36.269	-0.162	-0.088
-468.186	-101.370	0.147	-0.036
-467.172	800.000	-0.093	-0.333
-466.157	467.103	0.052	-0.117
-465.143	33.221	-0.101	-0.088
-464.128	-72.985	0.392	-0.145
-463.113	43.394	0.183	-0.168
-462.099	-200.000	-0.008	-0.050
-461.084	-92.671	0.288	0.081
-460.070	-25.692	-0.082	-0.049
-459.055	20.212	0.095	-0.077
-458.040	-200.000	-0.027	0.165
-457.026	295.000	0.135	-0.247
-456.011	-55.303	-0.060	0.027
-454.997	574.963	-0.139	-0.340
-453.982	544.427	-0.053	-0.127
-452.968	800.000	0.034	-0.137
-451.953	-148.787	0.115	-0.009
-450.938	12.107	0.085	-0.066
-449.924	20.392	-0.173	0.141
-448.909	-6.806	0.114	0.078
-447.895	-200.000	0.013	0.090
-446.880	582.844	-0.146	-0.359
-445.865	-45.955	-0.400	-0.198
-444.851	-200.000	-0.011	0.187
-443.836	75.076	-0.156	0.165
-442.822	800.000	-0.085	0.336
-441.807	-136.897	-0.381	-0.044
-440.792	86.028	-0.051	0.057
-439.778	-113.311	0.372	0.073
-438.763	120.495	0.078	-0.097
-437.749	800.000	-0.032	-0.126
-436.734	-81.141	0.238	-0.079
-435.719	702.649	0.061	-0.162
-434.705	-200.000	0.026	-0.350
-433.690	441.105	0.150	0.330
-432.676	-58.962	0.189	-0.082
-431.661	800.000	0.037	-0.135
-430.646	-200.000	0.051	-0.458
-429.632	218.296	-0.050	-0.080
-428.617	-200.000	-0.011	-0.099
-427.603	88.849	0.280	0.313
-426.588	-48.365	-0.222	0.107
-425.573	-85.499	0.198	0.062
-424.559	320.249	-0.126	0.240
-423.544	86.947	0.183	0.203
-422.530	800.000	-0.016	-0.069
-421.515	111.701	-0.125	-0.151
-420.500	-200.000	-0.004	-0.222
-419.486	800.000	0.073	-0.214
-418.471	-200.000	-0.023	0.280
-417.457	92.231	-0.081	-0.091
-416.442	-146.174	0.422	-0.037
-415.428	-56.468	-0.233	-0.104
-414.413	-1.856	-0.367	0.259
-413.398	40.570	0.078	-0.071
-412.384	-1.784	-0.063	-0.045
-411.369	134.079	0.087	0.113
-410.355	193.044	-0.123	-0.187
-409.340	-200.000	-0.064	-0.286
-408.325	100.837	-0.173	-0.202
-407.311	0.561	-0.311	-0.223
-406.296	-67.078	0.099	0.039
-405.282	800.000	0.053	0.202
-404.267	293.009	-0.110	0.202
-403.252	-172.246	-0.231	-0.007
-402.238	800.000	-0.016	-0.059
-401.223	-75.422	0.266	-0.095
-400.209	217.337	0.025	0.040
-399.194	15.784	-0.162	0.128
-398.179	126.526	-0.071	-0.091
-397.165	18.710	-0.180	0.145
-396.150	-200.000	0.030	0.248
-395.136	179.611	0.101	-0.148
-394.121	-98.174	-0.183	0.047
-393.106	-120.237	-0.113	0.019
-392.092	288.690	0.032	0.058
-391.077	-18.783	0.133	-0.083
-390.063	-93.474	-0.148	0.041
-389.048	800.000	0.083	-0.297
-388.033	-30.642	-0.183	0.104
-387.019	410.615	0.111	-0.237
-386.004	-59.263	0.249	-0.107
-384.990	800.000	-0.066	-0.194
-383.975	-22.894	-0.112	0.068
-382.960	-200.000	0.013	-0.257
-381.946	-26.051	-0.089	-0.052
-380.931	-200.000	-0.010	-0.079
-379.917	74.248	0.284	-0.299
-378.902	100.836	0.101	0.117
-377.888	394.251	-0.131	-0.274
-376.873	800.000	-0.076	0.270
-375.858	-200.000	-0.090	-0.630
-374.844	25.042	-0.097	0.081
-373.829	-85.541	0.105	0.033
-372.815	-5.945	0.192	0.132
-371.800	378.664	-0.052	-0.106
-370.785	708.376	0.127	0.337
-369.771	800.000	0.041	0.122
-368.756	46.556	0.232	0.215
-367.742	-200.000	0.024	0.312
-366.727	-25.716	-0.237	0.140
-365.712	-57.770	0.231	-0.101
-364.698	-200.000	0.049	-0.282
-363.683	40.987	-0.053	0.048
-362.669	172.849	-0.072	-0.104
-361.654	128.674	0.106	0.136
-360.639	453.083	-0.054	0.120
-359.625	-32.967	0.271	0.151
-358.610	46.983	-0.114	-0.106
-357.596	34.676	0.299	0.262
-356.581	-60.974	-0.168	-0.071
-355.566	-72.152	0.216	0.080
-354.552	66.192	-0.259	0.264
-353.537	355.980	-0.039	0.077
-352.523	-157.057	-0.129	-0.008
-351.508	-27.956	-0.175	0.102
-350.493	800.000	-0.073	-0.265
-349.479	21.797	0.161	0.132
-348.464	107.436	-0.050	0.060
-347.450	-23.359	-0.087	0.052
-346.435	97.352	0.164	-0.188
-345.420	-113.033	0.236	-0.047
-344.406	30.366	0.166	0.142
-343.391	112.673	0.167	0.202
-342.377	-61.374	-0.152	-0.064
-341.362	7.186	-0.208	0.155
-340.348	104.278	0.096	-0.113
-339.333	-149.288	-0.061	0.005
-338.318	266.844	0.056	0.098
-337.304	229.932	-0.095	0.154
-336.289	-200.000	0.016	-0.277
-335.275	-153.398	0.196	0.014
-334.260	800.000	-0.057	0.161
-333.245	800.000	-0.050	0.155
-332.231	-0.188	-0.419	0.298
-331.216	-200.000	-0.004	-0.105
-330.202	-9.705	0.157	-0.105
-329.187	31.666	0.244	0.210
-328.172	-200.000	0.010	-0.128
-327.158	59.853	0.386	0.381
-326.143	-75.870	0.328	0.116
-325.129	-94.478	-0.173	0.047
-324.114	425.940	0.051	0.110
-323.099	-93.412	-0.344	0.095
-322.085	-60.250	0.079	0.034
-321.070	-11.030	0.144	-0.095
-320.056	120.435	0.086	-0.107
-319.041	267.843	0.192	-0.336
-318.026	-130.051	0.188	0.026
-317.012	-140.835	-0.282	0.029
-315.997	-105.904	0.191	0.043
-314.983	-5.687	0.210	-0.144
-313.968	231.770	-0.103	-0.168
-312.953	800.000	-0.034	-0.109
-311.939	527.607	-0.161	-0.379
-310.924	-200.000	-0.023	0.328
-309.910	-129.856	-0.276	0.038
-308.895	49.146	-0.188	-0.176
-307.880	-60.151	0.148	0.063
-306.866	111.197	0.289	-0.348
-305.851	-200.000	-0.025	-0.241
-304.837	-200.000	0.007	-0.067
-303.822	28.706	0.088	0.074
-302.807	-22.428	0.105	0.064
-301.793	-75.923	0.172	0.061
-300.778	171.929	0.131	-0.188
-299.764	49.433	0.267	0.251
-298.749	-82.573	0.324	0.105
-297.735	-63.863	0.228	0.093
-296.720	296.704	-0.065	-0.119
-295.705	228.328	-0.154	0.250
-294.691	292.189	0.090	0.163
-293.676	268.154	-0.110	0.192
-292.662	92.747	-0.207	0.233
-291.647	-91.799	0.393	0.111
-290.632	-92.494	0.008	0.002
-289.618	2.238	0.160	0.115
-288.603	-200.000	-0.008	-0.041
-287.589	-17.909	0.233	0.146
-286.574	-200.000	-0.025	0.115
-285.559	453.474	-0.109	0.241
-284.545	-170.810	-0.355	-0.012
-283.530	136.826	0.113	0.147
-282.516	68.255	-0.175	0.179
-281.501	231.062	-0.105	0.171
-280.486	799.029	0.058	0.159
-279.472	-165.863	0.269	0.012
-278.457	-87.997	0.198	-0.059
-277.443	111.246	0.074	-0.089
-276.428	800.000	-0.067	0.243
-275.413	-200.000	0.005	0.230
-274.399	195.864	-0.314	-0.476
-273.384	-42.120	0.148	0.075
-272.370	-28.175	-0.383	0.221
-271.355	-66.200	0.032	0.013
-270.340	800.000	0.052	-0.182
-269.326	-46.291	-0.140	-0.069
-268.311	68.682	0.289	-0.296
-267.297	147.621	-0.108	0.145
-266.282	-200.000	-0.037	-0.180
-265.267	211.711	0.072	-0.113
-264.253	41.500	-0.109	-0.098
-263.238	394.744	-0.105	-0.217
-262.224	-136.432	-0.216	-0.025
-261.209	51.749	0.244	0.232
-260.195	1.511	0.338	-0.243
-259.180	240.341	0.098	0.162
-258.165	200.691	0.073	-0.113
-257.151	135.072	0.165	-0.213
-256.136	-68.645	0.338	-0.130
-255.122	800.000	-0.048	0.139
-254.107	236.179	0.084	0.139
-253.092	7.616	-0.196	0.146
-252.078	143.940	0.258	0.344
-251.063	125.587	-0.181	-0.227
-250.049	175.182	0.073	0.106
-249.034	-200.000	0.017	-0.114
-248.019	-77.650	-0.064	0.022
-247.005	373.002	-0.044	-0.089
-245.990	306.987	0.122	-0.226
-244.976	41.753	-0.179	0.161
-243.961	-130.790	0.284	0.038
-242.946	571.309	0.141	-0.341
-241.932	510.601	-0.108	-0.251
-240.917	-169.477	-0.231	0.008
-239.903	536.309	0.080	0.189
-238.888	24.678	0.101	-0.083
-237.873	10.532	0.080	-0.061
-236.859	-200.000	-0.028	-0.395
-235.844	61.386	-0.133	0.132
-234.830	153.189	-0.249	-0.339
-233.815	12.286	-0.293	-0.225
-232.800	-200.000	-0.004	-0.115
-231.786	-148.639	0.387	0.031
-230.771	-200.000	0.033	0.321
-229.757	96.464	-0.057	0.065
-228.742	-75.035	0.262	0.094
-227.727	234.839	0.110	0.180
-226.713	-130.115	-0.063	-0.009
-225.698	-60.594	0.371	-0.157
-224.684	-154.618	-0.099	-0.007
-223.669	-99.038	-0.232	0.059
-222.655	800.000	0.036	0.144
-221.640	139.972	0.039	0.051
-220.625	-122.082	-0.162	0.027
-219.611	-19.274	0.182	0.113
-218.596	339.958	0.081	-0.157
-217.582	95.308	0.117	-0.133
-216.567	-142.693	-0.199	0.019
-215.552	800.000	0.111	0.468
-214.538	61.025	-0.357	0.353
-213.523	17.119	-0.178	0.141
-212.509	-30.059	0.303	0.172
-211.494	-111.070	0.147	-0.030
-210.479	197.976	-0.219	0.333
-209.465	75.719	0.170	0.178
-208.450	-124.090	-0.212	0.033
-207.436	-101.097	-0.364	0.089
-206.421	552.294	-0.076	0.182
-205.406	800.000	-0.059	-0.241
-204.392	-23.944	-0.183	0.109
-203.377	-154.323	0.248	0.017
-202.363	167.050	-0.147	-0.208
-201.348	206.814	-0.063	-0.098
-200.333	-200.000	0.019	0.243
-199.319	800.000	0.099	-0.351
-198.304	800.000	-0.020	0.072
-197.290	-153.586	0.251	-0.017
-196.275	-200.000	-0.023	0.283
-195.260	-86.998	-0.208	-0.063
-194.246	-109.604	0.101	0.021
-193.231	118.327	-0.233	0.286
-192.217	97.672	0.134	-0.153
-191.202	236.860	0.080	-0.131
-190.187	39.364	-0.085	-0.076
-189.173	-200.000	-0.035	0.277
-188.158	-97.960	-0.295	0.076
-187.144	800.000	-0.052	0.222
-186.129	-69.098	0.332	-0.127
-185.114	-101.738	-0.313	-0.075
-184.100	-170.305	0.232	0.008
-183.085	99.539	0.175	0.202
-182.071	-87.438	-0.164	0.049
-181.056	-69.349	0.116	0.044
-180.042	-200.000	0.005	-0.232
-179.027	231.638	-0.194	-0.316
-178.012	387.038	0.116	-0.238
-176.998	479.121	0.026	0.058
-175.983	-200.000	-0.016	-0.122
-174.969	800.000	-0.035	0.101
-173.954	504.512	-0.075	0.172
-172.939	-171.510	0.323	0.011
-171.925	480.581	0.048	-0.108
-170.910	43.389	-0.128	0.117
-169.896	-83.434	0.230	-0.073
-168.881	-200.000	-0.021	-0.226
-167.866	800.000	0.074	0.287
-166.852	800.000	-0.096	-0.286
-165.837	-200.000	0.008	-0.079
-164.823	-200.000	0.025	0.143
-163.808	11.098	-0.067	0.051
-162.793	41.021	0.065	0.058
-161.779	276.510	-0.187	0.329
-160.764	-200.000	0.006	0.135
-159.750	645.218	0.081	0.206
-158.735	800.000	0.002	-0.008
-157.720	-35.969	0.190	-0.102
-156.706	800.000	-0.063	-0.248
-155.691	68.869	-0.192	-0.196
-154.677	-3.935	-0.188	0.130
-153.662	35.133	0.158	-0.138
-152.647	47.144	-0.154	0.142
-151.633	-34.601	-0.114	-0.062
-150.618	-108.866	-0.092	-0.020
-149.604	-81.270	-0.351	0.115
-148.589	-11.753	-0.127	0.083
-147.574	144.304	-0.245	-0.325
-146.560	361.208	0.078	-0.155
-145.545	-141.779	-0.038	0.004
-144.531	37.397	0.098	0.086
-143.516	92.920	-0.032	-0.036
-142.502	521.379	0.084	-0.197
-141.487	-30.225	-0.191	0.108
-140.472	-9.414	0.330	-0.219
-139.458	-200.000	0.049	-0.263
-138.443	-28.561	0.367	-0.210
-137.429	-200.000	-0.000	0.093
-136.414	-18.548	0.204	-0.126
-135.399	174.766	-0.293	-0.420
-134.385	271.572	0.173	-0.302
-133.370	-200.000	-0.006	-0.366
-132.356	800.000	0.066	-0.185
-131.341	596.210	0.093	-0.229
-130.326	-39.091	0.222	-0.116
-129.312	-0.250	-0.023	-0.016
-128.297	-197.559	-0.312	0.002
-127.283	201.347	-0.128	-0.195
-126.268	201.969	0.163	0.250
-125.253	100.449	-0.078	-0.090
-124.239	-200.000	-0.004	0.245
-123.224	524.265	0.075	-0.176
-122.210	208.557	-0.061	0.095
-121.195	-48.742	0.348	-0.166
-120.180	-19.056	0.242	-0.149
-119.166	0.236	0.162	0.115
