DTS Sentinel unit serial number:	SN413079Multiplexer serial number:	ORYXHardware model number:	OX4-SRSoftware version number:	ORYX F/W v4.00 Oryx Data Collector v3.7.2.0data status	okinstallation	princeton_trtdifferential loss correction	single-endedforward channel	channel 3reverse channel	N/Adate	2019/09/12time	21:32:34forward acquisition time	60.00reverse acquisition time	0.00gamma	496.2192k internal	0.2326k external	0.2326temperature offset calibration	1.0127default loss term (dB/km)	0.3790temperature slope calibration	1.0000multiplexer offset coefficient	1.0000multiplexer slope coefficient	1.0000fibre end	0.00T internal ref (°C)	30.42T ext. ref 1 (°C)	3.67T ext. ref 2 (°C)	25.04length (m)	temperature (°C)	Stokes	anti-Stokes-747.200	800.000	-0.042	-0.174
-746.185	-200.000	-0.036	-0.216
-745.171	-117.914	-0.404	-0.073
-744.156	122.636	0.078	-0.099
-743.142	-155.883	0.116	-0.007
-742.127	20.619	-0.267	0.218
-741.112	-200.000	-0.059	0.265
-740.098	-38.348	0.070	-0.037
-739.083	-200.000	-0.053	0.266
-738.069	-113.544	-0.158	-0.031
-737.054	-200.000	-0.033	-0.213
-736.039	221.531	-0.080	0.130
-735.025	70.233	0.211	0.220
-734.010	110.037	0.113	-0.137
-732.996	-200.000	0.017	-0.300
-731.981	29.318	0.155	0.133
-730.966	-45.461	0.066	-0.033
-729.952	-200.000	0.038	-0.168
-728.937	-74.023	-0.349	-0.128
-727.923	150.655	0.147	-0.201
-726.908	481.856	-0.037	0.085
-725.894	186.552	-0.092	0.138
-724.879	-122.805	-0.157	0.026
-723.864	94.034	0.246	-0.281
-722.850	-4.623	0.095	-0.066
-721.835	-87.724	0.211	-0.064
-720.821	156.502	0.188	-0.262
-719.806	-119.706	-0.244	-0.042
-718.791	16.691	-0.093	-0.074
-717.777	-116.896	0.303	0.056
-716.762	-200.000	-0.032	0.301
-715.748	627.456	0.049	0.125
-714.733	-200.000	-0.022	-0.239
-713.718	-10.481	0.033	0.022
-712.704	-142.716	0.218	0.021
-711.689	-72.918	-0.203	-0.075
-710.675	-20.138	0.412	-0.256
-709.660	207.967	-0.116	0.182
-708.645	-94.578	0.125	-0.034
-707.631	-77.938	0.235	-0.082
-706.616	-200.000	0.065	-0.336
-705.602	800.000	0.032	0.116
-704.587	529.830	-0.024	0.057
-703.572	-87.455	-0.104	0.032
-702.558	-24.066	0.359	0.216
-701.543	283.522	-0.096	0.173
-700.529	-22.977	-0.276	0.167
-699.514	27.649	0.098	0.083
-698.499	-200.000	-0.031	0.266
-697.485	-99.782	-0.182	0.046
-696.470	-200.000	-0.057	0.375
-695.456	-200.000	0.032	-0.216
-694.441	800.000	-0.105	-0.391
-693.426	110.252	-0.309	0.374
-692.412	-200.000	-0.003	-0.056
-691.397	-42.192	0.427	0.220
-690.383	301.452	-0.097	-0.180
-689.368	-51.015	-0.126	-0.060
-688.354	-200.000	0.024	0.163
-687.339	-79.480	-0.187	-0.064
-686.324	-50.889	0.300	-0.142
-685.310	-127.628	0.230	-0.033
-684.295	-37.395	0.143	0.077
-683.281	-200.000	-0.043	-0.231
-682.266	-185.918	0.018	0.000
-681.251	-124.036	0.068	0.011
-680.237	-24.941	-0.157	0.094
-679.222	232.565	0.092	0.152
-678.208	-200.000	-0.034	-0.191
-677.193	527.817	-0.099	-0.236
-676.178	-200.000	-0.034	-0.267
-675.164	149.672	-0.113	-0.154
-674.149	-58.563	-0.047	-0.020
-673.135	-94.955	-0.138	-0.038
-672.120	-21.953	-0.303	0.185
-671.105	-156.171	0.393	-0.025
-670.091	38.984	0.114	-0.102
-669.076	-200.000	-0.013	-0.275
-668.062	182.042	0.086	-0.128
-667.047	-23.257	-0.165	0.100
-666.032	-200.000	-0.073	0.323
-665.018	188.665	0.045	0.068
-664.003	67.085	0.234	0.239
-662.989	47.097	-0.287	-0.269
-661.974	225.868	-0.046	-0.075
-660.959	439.147	0.078	0.170
-659.945	119.322	-0.102	-0.127
-658.930	44.606	-0.122	0.113
-657.916	-200.000	0.007	0.137
-656.901	22.719	0.034	-0.028
-655.886	-200.000	0.002	0.210
-654.872	75.126	0.175	-0.185
-653.857	209.055	0.053	-0.083
-652.843	-66.897	-0.318	-0.126
-651.828	-115.729	-0.351	0.066
-650.814	89.062	-0.159	0.178
-649.799	24.883	0.073	0.061
-648.784	5.506	-0.248	-0.184
-647.770	29.559	0.293	0.250
-646.755	-200.000	0.078	0.342
-645.741	-95.779	0.117	-0.031
-644.726	224.799	-0.111	-0.181
-643.711	-200.000	-0.001	-0.196
-642.697	800.000	0.079	0.245
-641.682	301.071	0.032	0.060
-640.668	-24.197	0.100	-0.060
-639.653	-146.151	-0.454	0.040
-638.638	-200.000	-0.004	-0.412
-637.624	118.129	0.156	0.193
-636.609	-121.395	0.222	0.037
-635.595	-200.000	0.018	0.243
-634.580	-86.035	-0.215	0.067
-633.565	225.943	0.076	0.124
-632.551	67.753	-0.125	-0.128
-631.536	-200.000	-0.005	0.119
-630.522	-170.216	-0.319	0.011
-629.507	-11.577	-0.406	-0.268
-628.492	-200.000	-0.011	0.111
-627.478	7.601	-0.115	0.087
-626.463	-76.476	-0.156	-0.055
-625.449	800.000	-0.040	0.158
-624.434	-51.937	-0.371	-0.173
-623.419	-118.431	0.399	-0.071
-622.405	128.904	-0.223	0.285
-621.390	800.000	0.042	0.136
-620.376	69.421	0.132	0.136
-619.361	50.745	-0.084	-0.080
-618.346	-200.000	0.026	0.233
-617.332	-200.000	0.052	-0.354
-616.317	120.531	-0.200	0.249
-615.303	-122.379	0.227	0.037
-614.288	169.848	-0.024	-0.034
-613.273	-21.998	-0.073	0.045
-612.259	-86.972	0.203	-0.062
-611.244	-114.867	-0.212	-0.041
-610.230	800.000	-0.139	-0.482
-609.215	288.429	0.026	-0.047
-608.201	-60.789	0.215	0.092
-607.186	57.937	-0.034	-0.034
-606.171	95.017	-0.167	0.190
-605.157	-68.980	0.267	-0.103
-604.142	800.000	-0.084	0.264
-603.128	-2.472	-0.196	0.138
-602.113	402.369	0.090	-0.189
-601.098	182.283	-0.170	0.251
-600.084	521.152	0.017	0.041
-599.069	400.804	0.157	-0.330
-598.055	-1.960	0.327	0.231
-597.040	444.919	-0.126	0.278
-596.025	268.454	-0.040	0.070
-595.011	-200.000	0.049	-0.237
-593.996	-200.000	0.006	0.145
-592.982	585.091	-0.076	0.187
-591.967	-111.741	0.101	0.020
-590.952	800.000	0.085	-0.328
-589.938	142.691	-0.184	0.245
-588.923	37.340	-0.256	0.228
-587.909	800.000	0.088	0.259
-586.894	163.494	0.156	-0.220
-585.879	352.362	-0.066	0.131
-584.865	259.423	0.022	-0.038
-583.850	800.000	-0.065	0.194
-582.836	-79.554	0.202	-0.068
-581.821	71.863	0.116	-0.121
-580.806	241.978	0.153	0.256
-579.792	335.626	0.069	-0.134
-578.777	-200.000	-0.009	0.053
-577.763	-93.876	0.008	0.002
-576.748	-136.878	0.231	-0.027
-575.733	800.000	0.067	0.187
-574.719	-200.000	-0.082	0.392
-573.704	-131.023	0.200	0.027
-572.690	-153.543	0.343	-0.024
-571.675	-148.287	-0.274	0.023
-570.661	800.000	0.049	-0.209
-569.646	800.000	-0.112	-0.421
-568.631	296.385	-0.087	0.160
-567.617	454.106	-0.034	-0.076
-566.602	-106.128	0.123	-0.028
-565.588	626.718	-0.104	-0.262
-564.573	116.792	-0.007	-0.009
-563.558	-151.211	0.295	0.022
-562.544	704.494	-0.168	0.443
-561.529	-30.219	-0.198	0.113
-560.515	-200.000	0.025	0.226
-559.500	-23.676	-0.111	-0.067
-558.485	-66.434	0.158	0.063
-557.471	-200.000	-0.012	-0.236
-556.456	-17.100	0.186	0.117
-555.442	-25.938	-0.145	0.085
-554.427	-12.323	-0.234	0.153
-553.412	200.919	-0.232	-0.358
-552.398	800.000	0.023	0.072
-551.383	-120.066	0.181	0.031
-550.369	-97.417	0.097	0.025
-549.354	800.000	-0.014	0.046
-548.339	-161.512	-0.168	-0.009
-547.325	-100.204	0.289	0.072
-546.310	492.769	0.012	-0.026
-545.296	-200.000	0.026	0.339
-544.281	33.171	-0.218	0.190
-543.266	800.000	0.069	0.223
-542.252	19.904	-0.094	0.076
-541.237	-159.636	-0.115	-0.006
-540.223	107.558	-0.302	0.359
-539.208	-112.349	-0.142	0.028
-538.193	5.095	0.071	-0.053
-537.179	-6.876	-0.108	-0.074
-536.164	-200.000	-0.026	-0.284
-535.150	-200.000	-0.022	-0.338
-534.135	800.000	0.065	-0.250
-533.121	-132.042	0.281	-0.037
-532.106	-200.000	0.008	-0.278
-531.091	-62.655	-0.151	-0.063
-530.077	5.289	0.248	-0.183
-529.062	-33.516	0.139	-0.077
-528.048	800.000	0.105	0.456
-527.033	-48.045	0.203	0.098
-526.018	-77.002	0.236	0.083
-525.004	378.298	0.083	-0.170
-523.989	800.000	-0.057	0.166
-522.975	800.000	0.084	0.263
-521.960	-17.285	0.308	0.194
-520.945	-76.548	-0.322	-0.113
-519.931	-169.894	0.487	0.017
-518.916	-121.504	0.108	0.018
-517.902	-133.987	0.150	-0.019
-516.887	-138.073	-0.234	0.026
-515.872	48.206	0.029	0.028
-514.858	-85.631	-0.305	-0.095
-513.843	0.943	-0.203	0.145
-512.829	140.046	0.150	0.198
-511.814	-27.096	-0.287	-0.167
-510.799	-155.156	0.282	0.018
-509.785	21.617	-0.037	-0.030
-508.770	231.418	-0.063	0.104
-507.756	800.000	-0.055	-0.186
-506.741	57.410	0.088	0.086
-505.726	800.000	-0.034	0.126
-504.712	398.957	-0.080	-0.167
-503.697	34.158	0.114	-0.100
-502.683	-163.889	0.235	-0.011
-501.668	800.000	0.080	0.222
-500.653	-98.258	0.181	-0.046
-499.639	147.435	-0.167	0.225
-498.624	-200.000	-0.010	-0.246
-497.610	31.669	0.067	-0.058
-496.595	-40.063	-0.343	-0.179
-495.581	107.886	-0.173	0.206
-494.566	34.568	-0.109	0.095
-493.551	800.000	0.098	-0.333
-492.537	37.524	-0.304	-0.270
-491.522	246.430	0.143	-0.240
-490.508	409.602	-0.078	-0.165
-489.493	-115.013	-0.292	0.055
-488.478	124.031	-0.109	0.137
-487.464	234.177	-0.186	-0.307
-486.449	-97.497	0.149	0.039
-485.435	423.489	0.072	-0.154
-484.420	-200.000	0.036	0.163
-483.405	-5.698	-0.216	-0.148
-482.391	-187.184	0.292	-0.004
-481.376	-162.590	0.347	-0.017
-480.362	-150.534	0.117	0.009
-479.347	196.293	0.098	0.150
-478.332	195.950	-0.095	0.144
-477.318	-200.000	0.038	0.194
-476.303	-200.000	-0.010	0.169
-475.289	51.747	-0.048	-0.045
-474.274	403.888	0.058	-0.122
-473.259	-200.000	0.021	-0.300
-472.245	-56.469	-0.132	0.059
-471.230	800.000	0.014	0.060
-470.216	-161.513	0.165	0.008
-469.201	800.000	-0.062	-0.238
-468.186	150.543	-0.019	-0.026
-467.172	598.367	0.066	-0.163
-466.157	40.090	0.153	0.137
-465.143	128.175	0.054	-0.068
-464.128	-72.362	-0.077	0.029
-463.113	572.613	0.055	-0.134
-462.099	-146.377	-0.006	-0.001
-461.084	-87.876	-0.200	0.060
-460.070	0.004	0.245	0.174
-459.055	-57.378	0.112	0.049
-458.040	-200.000	-0.035	0.156
-457.026	-94.744	-0.318	0.086
-456.011	-200.000	0.003	0.024
-454.997	-88.101	-0.198	0.059
-453.982	70.288	-0.155	0.160
-452.968	-200.000	0.018	-0.231
-451.953	-126.730	-0.097	-0.014
-450.938	-200.000	-0.011	-0.076
-449.924	-14.303	-0.011	0.007
-448.909	-73.150	-0.282	-0.103
-447.895	31.193	-0.146	0.125
-446.880	-3.169	0.099	-0.069
-445.865	-71.939	-0.255	0.095
-444.851	42.986	0.173	0.157
-443.836	295.551	-0.093	-0.169
-442.822	-200.000	-0.040	0.238
-441.807	167.096	0.103	0.146
-440.792	-120.306	-0.225	-0.038
-439.778	-45.818	0.038	-0.019
-438.763	1.493	-0.279	-0.200
-437.749	125.231	-0.075	-0.095
-436.734	-200.000	-0.021	0.158
-435.719	403.022	-0.077	0.162
-434.705	-99.859	0.115	0.029
-433.690	679.149	0.105	0.272
-432.676	30.170	-0.346	0.294
-431.661	-69.971	-0.308	0.117
-430.646	-180.798	-0.111	-0.002
-429.632	-149.553	-0.386	0.030
-428.617	-64.822	0.087	0.035
-427.603	-117.393	-0.361	0.065
-426.588	-132.650	0.136	0.017
-425.573	-200.000	-0.037	-0.242
-424.559	33.725	-0.099	0.086
-423.544	90.903	-0.345	-0.386
-422.530	-200.000	-0.001	0.071
-421.515	502.476	-0.162	0.372
-420.500	-200.000	-0.031	-0.280
-419.486	123.321	-0.371	-0.463
-418.471	-49.869	-0.294	0.139
-417.457	800.000	-0.058	0.192
-416.442	800.000	-0.071	0.214
-415.428	-113.436	0.239	-0.047
-414.413	-137.523	0.352	-0.040
-413.398	122.126	0.226	-0.281
-412.384	26.772	0.135	0.113
-411.369	-68.033	-0.053	-0.021
-410.355	362.922	0.048	-0.095
-409.340	66.476	0.053	-0.053
-408.325	130.215	0.036	0.045
-407.311	-200.000	-0.011	-0.184
-406.296	193.887	0.064	-0.096
-405.282	-141.930	0.185	-0.018
-404.267	-103.121	-0.424	-0.100
-403.252	74.702	-0.361	-0.378
-402.238	-123.360	0.129	0.020
-401.223	-200.000	0.013	0.325
-400.209	-77.783	-0.089	0.031
-399.194	362.178	0.108	-0.216
-398.179	435.701	0.144	0.312
-397.165	-200.000	-0.036	0.175
-396.150	221.913	0.170	0.273
-395.136	800.000	0.079	-0.334
-394.121	-200.000	-0.063	-0.302
-393.106	-102.454	0.130	-0.031
-392.092	493.895	-0.073	0.168
-391.077	800.000	-0.055	-0.182
-390.063	312.693	-0.055	-0.102
-389.048	-200.000	0.017	0.358
-388.033	-163.685	-0.393	-0.018
-387.019	800.000	-0.045	0.151
-386.004	349.651	-0.132	-0.260
-384.990	11.712	-0.026	0.020
-383.975	-69.895	0.305	0.116
-382.960	159.431	0.340	0.470
-381.946	-200.000	0.009	-0.046
-380.931	800.000	-0.048	0.161
-379.917	349.360	-0.134	0.263
-378.902	223.681	0.083	0.134
-377.888	-149.105	-0.205	-0.016
-376.873	61.874	-0.068	0.067
-375.858	593.787	0.035	0.086
-374.844	313.914	-0.143	0.268
-373.829	-200.000	0.051	-0.331
-372.815	-72.223	-0.069	0.025
-371.800	-200.000	0.013	-0.116
-370.785	-200.000	0.021	-0.188
-369.771	-200.000	-0.048	-0.265
-368.756	45.563	0.238	0.218
-367.742	84.139	0.081	0.088
-366.727	-85.774	0.337	-0.104
-365.712	226.654	0.095	-0.153
-364.698	-41.427	0.146	0.075
-363.683	-63.777	-0.115	0.047
-362.669	-57.707	-0.289	0.126
-361.654	-142.284	0.304	-0.030
-360.639	-106.487	0.306	-0.068
-359.625	-12.734	-0.286	-0.185
-358.610	-200.000	0.010	0.051
-357.596	-200.000	-0.014	0.202
-356.581	-105.395	0.500	-0.113
-355.566	53.895	-0.260	0.249
-354.552	36.747	-0.122	0.107
-353.537	-190.190	0.105	0.001
-352.523	-13.157	-0.351	-0.227
-351.508	-200.000	-0.031	0.143
-350.493	-200.000	0.005	-0.229
-349.479	-31.019	-0.105	0.059
-348.464	5.362	0.134	0.098
-347.450	37.051	0.070	0.061
-346.435	54.268	0.190	0.182
-345.420	-19.646	-0.347	-0.213
-344.406	-21.319	0.129	0.078
-343.391	-200.000	-0.002	-0.020
-342.377	84.124	0.152	-0.165
-341.362	19.591	0.039	-0.031
-340.348	73.694	0.109	0.113
-339.333	-200.000	-0.021	-0.127
-338.318	-89.138	0.149	-0.044
-337.304	-200.000	-0.027	0.317
-336.289	-118.781	-0.260	-0.045
-335.275	134.774	-0.134	-0.173
-334.260	-101.259	0.088	0.021
-333.245	220.067	0.164	-0.261
-332.231	-200.000	-0.004	-0.078
-331.216	-157.736	0.387	-0.023
-330.202	800.000	-0.026	0.075
-329.187	23.269	0.372	0.303
-328.172	800.000	-0.078	-0.311
-327.158	223.681	0.206	0.330
-326.143	800.000	0.058	0.239
-325.129	-68.624	0.149	-0.057
-324.114	-200.000	0.013	-0.303
-323.099	-200.000	-0.011	-0.228
-322.085	334.207	0.065	0.125
-321.070	121.016	-0.061	0.075
-320.056	-107.438	-0.075	-0.016
-319.041	-68.784	-0.127	-0.049
-318.026	800.000	-0.054	-0.224
-317.012	-136.859	-0.377	-0.043
-315.997	71.032	0.255	-0.262
-314.983	-30.490	0.061	-0.035
-313.968	72.405	0.187	0.193
-312.953	-200.000	-0.028	-0.205
-311.939	-2.382	0.160	0.111
-310.924	-7.787	-0.122	0.082
-309.910	-200.000	-0.225	0.000
-308.895	800.000	0.091	0.303
-307.880	-179.039	0.105	-0.002
-306.866	-47.446	-0.182	-0.088
-305.851	-125.767	-0.425	-0.064
-304.837	482.135	0.062	-0.139
-303.822	-200.000	0.003	0.318
-302.807	-140.778	-0.184	-0.019
-301.793	-27.983	0.278	0.159
-300.778	-21.408	0.169	0.102
-299.764	-50.486	0.138	-0.064
-298.749	104.320	-0.109	-0.128
-297.735	-112.614	0.354	-0.070
-296.720	800.000	0.059	0.178
-295.705	-121.285	0.276	0.046
-294.691	-36.189	0.239	0.128
-293.676	-200.000	0.021	-0.168
-292.662	237.276	0.172	-0.283
-291.647	800.000	-0.056	-0.179
-290.632	556.662	0.056	-0.134
-289.618	-200.000	0.001	0.055
-288.603	18.993	-0.096	0.076
-287.589	338.155	-0.266	-0.514
-286.574	99.362	-0.210	-0.241
-285.559	-200.000	-0.076	-0.346
-284.545	-35.768	-0.038	-0.021
-283.530	134.272	0.074	-0.095
-282.516	-200.000	-0.005	-0.271
-281.501	295.364	0.160	-0.290
-280.486	800.000	-0.044	0.125
-279.472	234.865	-0.180	0.293
-278.457	-127.390	-0.406	-0.059
-277.443	-200.000	0.070	0.335
-276.428	65.785	0.138	-0.139
-275.413	-77.424	0.098	-0.034
-274.399	-105.160	-0.080	0.018
-273.384	217.005	-0.145	0.229
-272.370	-200.000	-0.005	-0.179
-271.355	-200.000	-0.007	-0.155
-270.340	79.211	-0.135	0.143
-269.326	55.359	-0.241	0.231
-268.311	40.371	0.439	0.391
-267.297	387.282	-0.138	0.282
-266.282	-92.540	0.336	-0.093
-265.267	258.889	-0.181	0.308
-264.253	-135.065	-0.366	0.044
-263.238	-131.290	-0.172	-0.023
-262.224	236.895	0.025	0.041
-261.209	19.592	-0.277	-0.221
-260.195	794.146	0.022	-0.061
-259.180	-200.000	-0.004	-0.151
-258.165	58.366	0.170	-0.165
-257.151	-139.639	0.170	0.018
-256.136	134.515	-0.193	0.247
-255.122	-54.075	0.304	-0.137
-254.107	341.906	-0.083	-0.161
-253.092	135.222	-0.209	-0.269
-252.078	-200.000	-0.032	0.609
-251.063	-33.592	-0.293	-0.160
-250.049	-148.271	-0.075	-0.006
-249.034	112.966	0.041	-0.049
-248.019	-200.000	-0.015	-0.282
-247.005	-16.980	0.258	-0.161
-245.990	235.219	0.176	0.287
-244.976	-86.568	0.082	0.025
-243.961	246.275	0.233	-0.388
-242.946	-162.990	-0.134	0.006
-241.932	-200.000	-0.050	-0.232
-240.917	-1.188	0.255	0.178
-239.903	-163.333	0.172	0.008
-238.888	-200.000	0.063	-0.284
-237.873	107.459	0.144	-0.170
-236.859	-28.748	-0.213	0.121
-235.844	800.000	-0.055	-0.189
-234.830	110.381	0.241	-0.286
-233.815	201.936	-0.092	-0.140
-232.800	26.219	0.283	0.234
-231.786	-200.000	0.004	-0.250
-230.771	-33.478	-0.255	0.140
-229.757	-59.604	0.242	-0.103
-228.742	33.956	0.229	0.198
-227.727	155.672	-0.172	0.235
-226.713	105.119	0.120	0.140
-225.698	-80.494	-0.225	0.074
-224.684	800.000	0.101	-0.364
-223.669	-200.000	-0.008	-0.111
-222.655	800.000	-0.062	-0.218
-221.640	11.802	-0.155	-0.118
-220.625	-49.782	0.314	-0.148
-219.611	-89.347	0.213	-0.062
-218.596	-200.000	-0.042	0.362
-217.582	-200.000	-0.006	0.174
-216.567	-37.621	0.189	0.100
-215.552	-149.721	0.203	-0.016
-214.538	-17.103	-0.219	-0.136
-213.523	58.798	-0.133	-0.129
-212.509	74.108	-0.089	-0.093
-211.494	247.269	-0.058	-0.097
-210.479	-13.778	-0.227	0.145
-209.465	12.975	-0.169	0.129
-208.450	-200.000	0.015	-0.092
-207.436	-31.623	-0.167	-0.093
-206.421	800.000	0.049	-0.170
-205.406	-40.633	-0.214	0.110
-204.392	-200.000	0.003	0.059
-203.377	68.146	-0.185	-0.187
-202.363	76.528	-0.176	0.184
-201.348	470.197	0.289	0.642
-200.333	107.496	0.127	0.149
-199.319	81.896	-0.200	-0.214
-198.304	-114.358	0.256	-0.049
-197.290	-131.426	-0.255	-0.033
-196.275	-46.784	0.124	0.060
-195.260	-64.316	-0.389	0.156
-194.246	-27.704	-0.388	0.222
-193.231	-200.000	-0.076	-0.389
-192.217	-131.429	0.283	0.037
-191.202	-49.753	0.154	0.072
-190.187	239.263	0.017	-0.027
-189.173	-65.922	-0.144	0.057
-188.158	76.984	0.191	-0.200
-187.144	338.080	0.072	0.138
-186.129	16.248	0.276	-0.215
-185.114	-200.000	-0.016	-0.091
-184.100	382.657	0.040	-0.080
-183.085	-19.812	0.235	0.143
-182.071	261.320	-0.046	0.079
-181.056	-200.000	-0.018	-0.373
-180.042	-18.595	0.219	0.135
-179.027	448.653	-0.066	0.143
-178.012	-38.241	0.153	-0.080
-176.998	-58.161	0.290	-0.125
-175.983	767.761	-0.034	0.092
-174.969	227.568	0.050	0.080
-173.954	-200.000	-0.052	-0.444
-172.939	-200.000	0.021	0.139
-171.925	35.587	0.110	-0.095
-170.910	-148.450	0.340	-0.027
-169.896	-40.558	0.244	0.125
-168.881	129.742	-0.050	-0.064
-167.866	-200.000	-0.062	-0.383
-166.852	800.000	0.111	-0.386
-165.837	-200.000	-0.061	-0.327
-164.823	-4.538	-0.094	0.064
-163.808	-21.726	-0.289	0.173
-162.793	-152.168	0.097	0.007
-161.779	14.443	-0.147	0.113
-160.764	94.734	0.147	0.165
-159.750	527.337	-0.101	0.235
-158.735	-7.020	0.203	-0.136
-157.720	-200.000	-0.010	0.203
-156.706	162.660	0.089	0.123
-155.691	-89.209	0.257	-0.075
-154.677	-28.249	0.161	-0.092
-153.662	390.486	0.085	-0.174
-152.647	-10.682	0.216	-0.141
-151.633	-176.507	-0.232	-0.006
-150.618	-161.892	-0.036	-0.002
-149.604	-87.529	-0.064	0.019
-148.589	-18.236	0.388	0.239
-147.574	-148.522	0.329	-0.027
-146.560	-200.000	-0.022	0.151
-145.545	-4.903	0.187	0.127
-144.531	-193.580	0.214	-0.002
-143.516	-177.655	-0.141	-0.003
-142.502	-118.388	0.100	0.017
-141.487	344.864	0.198	0.382
-140.472	691.574	0.046	0.119
-139.458	381.064	-0.097	0.196
-138.443	41.717	0.089	-0.080
-137.429	-133.463	0.031	-0.004
-136.414	-200.000	0.000	-0.281
-135.399	-67.115	0.121	-0.047
-134.385	176.128	0.171	0.245
-133.370	652.720	0.053	-0.134
-132.356	296.957	-0.115	0.207
-131.341	150.821	0.096	0.128
-130.326	268.692	-0.181	-0.312
-129.312	21.829	0.232	-0.187
-128.297	764.313	-0.113	0.301
-127.283	-6.554	0.524	0.351
-126.268	-132.150	0.126	-0.016
-125.253	409.088	-0.132	0.275
-124.239	-117.624	0.104	-0.018
-123.224	79.904	-0.131	-0.139
-122.210	-135.642	0.098	-0.011
