DTS Sentinel unit serial number:	SN413079Multiplexer serial number:	ORYXHardware model number:	OX4-SRSoftware version number:	ORYX F/W v4.00 Oryx Data Collector v3.7.2.0data status	okinstallation	princeton_trtdifferential loss correction	single-endedforward channel	channel 3reverse channel	N/Adate	2019/09/14time	04:20:35forward acquisition time	60.00reverse acquisition time	0.00gamma	496.2192k internal	0.2338k external	0.2338temperature offset calibration	1.0059default loss term (dB/km)	0.3790temperature slope calibration	1.0000multiplexer offset coefficient	1.0000multiplexer slope coefficient	1.0000fibre end	0.00T internal ref (°C)	26.75T ext. ref 1 (°C)	3.35T ext. ref 2 (°C)	21.89length (m)	temperature (°C)	Stokes	anti-Stokes-747.200	267.293	-0.161	0.283
-746.185	-86.240	-0.123	-0.038
-745.171	77.760	-0.068	-0.072
-744.156	71.670	-0.318	0.332
-743.142	59.526	0.091	0.090
-742.127	54.837	0.139	-0.135
-741.112	743.280	0.095	-0.256
-740.098	125.574	-0.118	-0.149
-739.083	593.777	0.129	-0.319
-738.069	-200.000	0.007	-0.055
-737.054	49.573	0.066	0.062
-736.039	-68.540	-0.226	0.088
-735.025	800.000	-0.055	0.171
-734.010	-126.841	-0.238	0.035
-732.996	-200.000	-0.068	-0.568
-731.981	-120.723	-0.318	-0.054
-730.966	-95.003	0.111	-0.030
-729.952	132.434	-0.198	-0.256
-728.937	215.975	0.091	-0.146
-727.923	143.475	-0.102	0.136
-726.908	-200.000	0.008	0.340
-725.894	349.904	-0.234	-0.463
-724.879	-200.000	-0.054	-0.299
-723.864	60.896	0.101	-0.100
-722.850	19.573	0.142	-0.115
-721.835	34.064	-0.396	-0.346
-720.821	-171.211	0.185	0.006
-719.806	8.417	-0.162	-0.122
-718.791	-67.618	-0.199	-0.078
-717.777	-1.039	-0.492	-0.349
-716.762	-12.468	0.183	-0.120
-715.748	100.096	-0.080	-0.093
-714.733	84.798	-0.072	-0.079
-713.718	-200.000	-0.027	-0.436
-712.704	-200.000	-0.038	0.218
-711.689	-12.874	-0.254	0.166
-710.675	-200.000	-0.025	-0.130
-709.660	108.287	0.105	-0.126
-708.645	-4.976	0.339	0.234
-707.631	-200.000	-0.028	-0.140
-706.616	-74.489	0.316	-0.114
-705.602	724.890	0.070	0.188
-704.587	800.000	-0.045	-0.160
-703.572	-200.000	-0.010	0.220
-702.558	-200.000	-0.004	0.347
-701.543	48.596	-0.240	-0.225
-700.529	-67.407	-0.262	-0.103
-699.514	-64.402	0.077	0.031
-698.499	39.140	-0.153	0.137
-697.485	800.000	-0.032	0.089
-696.470	15.775	-0.220	-0.173
-695.456	692.190	-0.039	0.102
-694.441	-19.786	-0.025	0.016
-693.426	6.890	-0.238	-0.177
-692.412	-104.776	0.209	-0.048
-691.397	-75.449	-0.138	-0.049
-690.383	-41.272	-0.116	-0.060
-689.368	-134.429	0.247	-0.030
-688.354	800.000	0.069	-0.289
-687.339	-200.000	-0.021	0.105
-686.324	-80.347	-0.037	0.012
-685.310	-200.000	-0.025	-0.204
-684.295	800.000	0.082	0.241
-683.281	-77.329	0.030	-0.011
-682.266	-200.000	-0.017	0.221
-681.251	298.712	-0.108	0.199
-680.237	-200.000	0.042	-0.192
-679.222	31.111	0.150	0.129
-678.208	-54.142	0.077	0.035
-677.193	800.000	-0.093	0.366
-676.178	-84.093	-0.361	-0.115
-675.164	-23.590	0.058	0.035
-674.149	-89.718	0.180	-0.053
-673.135	800.000	-0.082	0.233
-672.120	277.581	-0.068	-0.120
-671.105	59.458	0.223	-0.220
-670.091	302.413	0.028	0.052
-669.076	800.000	-0.031	0.114
-668.062	-180.961	0.228	-0.005
-667.047	-200.000	0.005	-0.052
-666.032	27.339	-0.079	0.067
-665.018	800.000	0.014	0.043
-664.003	-200.000	0.023	-0.213
-662.989	800.000	0.051	-0.143
-661.974	-22.522	0.105	0.064
-660.959	-183.231	-0.108	-0.002
-659.945	49.309	-0.491	-0.462
-658.930	179.492	-0.177	-0.258
-657.916	-200.000	-0.010	-0.061
-656.901	-157.191	-0.404	0.025
-655.886	-1.125	0.174	0.123
-654.872	-53.152	0.076	-0.035
-653.857	-27.237	0.107	-0.062
-652.843	-117.774	-0.061	-0.011
-651.828	-155.509	0.274	0.018
-650.814	539.830	0.028	0.065
-649.799	-200.000	0.006	0.147
-648.784	-20.271	0.400	-0.246
-647.770	648.095	-0.108	-0.277
-646.755	-31.671	0.091	0.051
-645.741	-11.061	-0.249	-0.164
-644.726	-67.045	-0.446	-0.176
-643.711	744.592	-0.146	-0.393
-642.697	156.220	0.296	-0.409
-641.682	-200.000	0.056	-0.591
-640.668	624.611	-0.130	0.327
-639.653	-34.749	0.147	0.080
-638.638	48.087	-0.047	-0.044
-637.624	800.000	-0.060	-0.179
-636.609	-0.790	-0.210	0.148
-635.595	651.187	-0.093	0.237
-634.580	188.199	0.086	-0.129
-633.565	352.042	0.148	-0.293
-632.551	-124.098	0.163	-0.025
-631.536	-177.138	-0.518	0.013
-630.522	-98.601	-0.452	0.115
-629.507	234.422	0.038	-0.063
-628.492	85.349	0.087	-0.095
-627.478	-200.000	0.000	-0.093
-626.463	-93.191	0.269	0.075
-625.449	-165.964	-0.257	0.011
-624.434	375.847	-0.026	-0.054
-623.419	4.186	0.037	0.027
-622.405	-200.000	0.012	0.155
-621.390	-200.000	-0.033	0.154
-620.376	-64.446	-0.229	-0.093
-619.361	49.660	-0.144	-0.135
-618.346	247.889	0.077	-0.129
-617.332	197.777	-0.117	0.179
-616.317	220.888	-0.140	-0.224
-615.303	9.028	-0.065	-0.049
-614.288	-200.000	-0.003	0.049
-613.273	280.378	-0.246	-0.439
-612.259	-113.967	0.138	0.027
-611.244	-200.000	-0.036	0.279
-610.230	100.794	-0.130	-0.151
-609.215	99.572	-0.054	-0.062
-608.201	-46.672	-0.101	-0.049
-607.186	-200.000	-0.015	0.103
-606.171	137.104	0.083	-0.109
-605.157	-68.356	-0.145	0.056
-604.142	173.217	-0.131	-0.188
-603.128	-13.593	-0.331	-0.214
-602.113	-29.015	-0.172	-0.099
-601.098	-200.000	0.033	0.262
-600.084	21.069	0.163	-0.132
-599.069	-74.212	0.285	-0.103
-598.055	16.631	0.263	-0.207
-597.040	-200.000	0.023	0.182
-596.025	265.795	0.060	-0.105
-595.011	143.714	0.136	-0.180
-593.996	-200.000	0.022	0.174
-592.982	16.407	-0.341	-0.268
-591.967	-200.000	0.019	-0.169
-590.952	-7.925	0.273	0.184
-589.938	411.187	-0.097	0.205
-588.923	171.814	-0.138	-0.198
-587.909	83.303	0.116	-0.126
-586.894	149.876	-0.251	0.339
-585.879	76.439	0.257	-0.271
-584.865	793.601	0.135	0.369
-583.850	23.748	-0.371	-0.304
-582.836	800.000	0.022	-0.085
-581.821	800.000	0.075	0.314
-580.806	-175.460	0.410	0.011
-579.792	-51.387	-0.194	0.090
-578.777	682.203	0.071	0.185
-577.763	800.000	0.037	0.131
-576.748	83.448	0.064	-0.070
-575.733	-200.000	-0.008	0.121
-574.719	-133.911	0.182	-0.023
-573.704	769.384	0.047	0.127
-572.690	800.000	0.081	-0.278
-571.675	-193.516	0.273	-0.002
-570.661	482.784	-0.096	-0.217
-569.646	82.258	-0.112	-0.121
-568.631	-42.307	0.121	0.062
-567.617	-125.240	-0.243	0.037
-566.602	-101.764	0.125	-0.030
-565.588	169.715	0.165	-0.234
-564.573	-200.000	-0.013	0.172
-563.558	156.734	-0.201	0.277
-562.544	-101.722	0.106	0.026
-561.529	27.628	-0.257	-0.216
-560.515	-200.000	0.003	-0.108
-559.500	-145.777	-0.229	-0.020
-558.485	-48.568	-0.204	-0.098
-557.471	280.595	-0.063	0.113
-556.456	-154.865	-0.201	0.013
-555.442	127.515	0.082	-0.104
-554.427	-43.288	-0.259	0.131
-553.412	337.894	0.122	0.237
-552.398	20.517	0.037	0.030
-551.383	-92.603	0.048	0.014
-550.369	48.797	-0.288	-0.269
-549.354	-200.000	-0.016	0.109
-548.339	347.594	0.067	-0.132
-547.325	-42.690	0.348	-0.176
-546.310	14.698	-0.184	0.143
-545.296	233.924	0.033	-0.053
-544.281	-200.000	-0.018	0.110
-543.266	78.818	0.160	-0.170
-542.252	-76.108	-0.183	-0.064
-541.237	61.745	-0.116	-0.115
-540.223	515.034	-0.077	0.179
-539.208	800.000	0.054	0.190
-538.193	-200.000	-0.022	-0.295
-537.179	328.913	-0.016	-0.031
-536.164	-125.797	0.099	0.015
-535.150	-73.186	-0.243	-0.089
-534.135	-161.138	-0.300	-0.016
-533.121	-94.716	0.220	0.060
-532.106	-102.290	-0.243	-0.058
-531.091	34.519	-0.097	-0.085
-530.077	2.324	-0.072	-0.052
-529.062	800.000	-0.112	0.327
-528.048	800.000	-0.015	0.064
-527.033	12.440	-0.133	-0.102
-526.018	-27.819	-0.067	-0.039
-525.004	-25.606	0.145	0.085
-523.989	-200.000	-0.026	0.125
-522.975	508.402	0.098	-0.225
-521.960	48.687	-0.107	-0.100
-520.945	-81.529	-0.201	-0.066
-519.931	-200.000	0.058	0.288
-518.916	-110.937	0.088	-0.018
-517.902	25.846	-0.189	0.157
-516.887	-200.000	-0.017	-0.304
-515.872	-83.877	0.330	-0.105
-514.858	800.000	-0.005	-0.020
-513.843	-69.014	0.089	0.034
-512.829	800.000	-0.059	0.230
-511.814	45.221	-0.188	0.172
-510.799	-145.832	-0.173	-0.015
-509.785	-200.000	-0.004	0.036
-508.770	800.000	0.095	-0.280
-507.756	-200.000	0.011	0.272
-506.741	159.009	0.201	-0.277
-505.726	-48.609	-0.202	0.097
-504.712	-129.865	0.312	-0.043
-503.697	83.357	-0.232	-0.251
-502.683	-79.593	-0.209	0.070
-501.668	-40.565	0.137	-0.071
-500.653	2.589	0.120	-0.086
-499.639	107.811	-0.158	0.187
-498.624	-14.876	0.251	-0.160
-497.610	111.382	-0.177	0.212
-496.595	-103.096	-0.039	-0.009
-495.581	213.541	0.018	0.028
-494.566	200.909	-0.080	-0.122
-493.551	-134.235	-0.297	0.036
-492.537	-126.481	-0.350	-0.052
-491.522	-157.276	0.121	-0.007
-490.508	-120.725	0.027	-0.005
-489.493	486.101	0.235	0.533
-488.478	-39.512	-0.126	0.066
-487.464	-79.503	0.182	0.061
-486.449	-200.000	-0.039	0.268
-485.435	-37.780	-0.111	0.059
-484.420	105.852	0.085	0.099
-483.405	636.232	-0.079	0.199
-482.391	-200.000	-0.132	0.613
-481.376	-200.000	-0.037	0.196
-480.362	-173.942	0.503	0.015
-479.347	553.546	0.068	0.163
-478.332	291.489	-0.096	0.174
-477.318	800.000	0.057	-0.209
-476.303	-200.000	0.086	-0.000
-475.289	537.293	0.268	-0.631
-474.274	274.578	0.165	-0.290
-473.259	-200.000	-0.008	-0.066
-472.245	-200.000	0.003	-0.232
-471.230	-11.577	0.035	0.023
-470.216	436.168	-0.124	-0.268
-469.201	158.726	-0.106	-0.146
-468.186	142.640	-0.223	0.294
-467.172	-200.000	0.004	0.108
-466.157	-3.682	0.216	-0.149
-465.143	129.645	-0.086	0.109
-464.128	295.080	-0.048	0.086
-463.113	232.665	0.025	0.040
-462.099	-78.128	0.134	-0.046
-461.084	29.466	0.179	0.151
-460.070	-174.500	-0.100	0.003
-459.055	-200.000	0.076	-0.446
-458.040	-42.155	-0.201	-0.102
-457.026	-200.000	-0.039	-0.285
-456.011	142.918	-0.216	0.284
-454.997	313.631	0.228	-0.425
-453.982	-38.614	0.207	0.108
-452.968	24.205	-0.220	-0.180
-451.953	-8.311	-0.258	0.172
-450.938	-34.053	-0.097	0.053
-449.924	547.809	0.077	0.183
-448.909	-200.000	0.022	-0.110
-447.895	186.161	0.142	0.209
-446.880	-1.995	0.127	-0.089
-445.865	181.872	-0.194	0.283
-444.851	209.286	-0.198	0.307
-443.836	143.570	0.097	0.128
-442.822	800.000	-0.061	-0.174
-441.807	-200.000	-0.042	0.304
-440.792	800.000	-0.078	0.280
-439.778	344.516	0.049	-0.096
-438.763	-55.029	0.234	0.105
-437.749	-200.000	0.008	0.278
-436.734	-155.089	-0.153	-0.010
-435.719	-200.000	-0.040	0.222
-434.705	-80.450	0.474	0.157
-433.690	-200.000	-0.087	-0.401
-432.676	-200.000	-0.083	-0.492
-431.661	56.336	-0.139	0.134
-430.646	-61.414	-0.339	0.141
-429.632	186.514	-0.144	-0.212
-428.617	121.784	-0.098	-0.121
-427.603	-78.333	0.168	-0.057
-426.588	25.185	-0.190	0.156
-425.573	-200.000	0.038	-0.253
-424.559	-200.000	0.004	-0.294
-423.544	172.931	0.056	-0.080
-422.530	-110.780	-0.075	0.015
-421.515	168.224	-0.218	0.307
-420.500	4.555	0.152	0.111
-419.486	88.569	-0.019	-0.021
-418.471	-200.000	-0.015	0.197
-417.457	-48.101	-0.091	0.044
-416.442	205.987	0.188	-0.290
-415.428	188.720	0.079	-0.117
-414.413	-200.000	0.021	0.187
-413.398	-137.773	-0.404	0.045
-412.384	800.000	0.141	-0.388
-411.369	237.441	-0.205	0.336
-410.355	365.344	0.036	0.072
-409.340	-43.407	0.160	-0.080
-408.325	4.652	0.152	-0.111
-407.311	-82.163	0.114	-0.037
-406.296	-44.488	0.190	-0.094
-405.282	40.691	-0.109	-0.097
-404.267	-9.985	-0.104	0.069
-403.252	752.844	-0.149	0.399
-402.238	800.000	0.072	-0.283
-401.223	-65.749	0.313	-0.124
-400.209	-200.000	0.012	-0.087
-399.194	800.000	0.054	-0.199
-398.179	-146.898	0.418	-0.036
-397.165	351.839	-0.068	0.133
-396.150	-81.717	0.286	-0.093
-395.136	-140.507	0.129	-0.013
-394.121	-200.000	0.010	-0.184
-393.106	-12.635	-0.184	0.119
-392.092	2.633	0.112	-0.080
-391.077	-31.443	-0.061	0.034
-390.063	293.060	0.079	-0.142
-389.048	4.305	-0.089	0.065
-388.033	-32.963	0.358	0.197
-387.019	54.325	0.016	0.016
-386.004	-200.000	0.020	-0.293
-384.990	800.000	-0.020	-0.062
-383.975	-106.349	0.103	0.023
-382.960	-200.000	0.009	-0.229
-381.946	-102.367	-0.388	-0.092
-380.931	326.578	0.168	0.318
-379.917	-100.529	0.187	-0.046
-378.902	2.309	-0.082	-0.059
-377.888	-200.000	0.055	0.452
-376.873	2.356	0.178	0.127
-375.858	-52.417	0.205	-0.094
-374.844	-200.000	0.042	-0.353
-373.829	0.861	-0.109	-0.077
-372.815	29.712	-0.152	-0.128
-371.800	-188.571	-0.217	-0.003
-370.785	159.633	-0.267	0.367
-369.771	794.319	0.085	0.231
-368.756	-34.551	0.308	0.167
-367.742	-123.644	-0.230	-0.036
-366.727	-37.089	-0.085	0.045
-365.712	-136.885	0.240	-0.027
-364.698	-200.000	0.030	-0.163
-363.683	-6.556	-0.069	0.047
-362.669	458.374	-0.158	-0.348
-361.654	-89.010	0.099	0.029
-360.639	-178.460	-0.296	-0.007
-359.625	-120.500	0.274	0.046
-358.610	539.421	0.103	-0.243
-357.596	-200.000	0.017	0.141
-356.581	-5.133	0.076	-0.052
-355.566	-19.487	0.031	-0.019
-354.552	0.358	0.144	0.102
-353.537	91.127	0.147	-0.164
-352.523	241.028	-0.129	-0.213
-351.508	63.566	-0.188	0.186
-350.493	-146.393	-0.167	0.014
-349.479	65.737	0.034	-0.034
-348.464	-111.715	0.214	-0.043
-347.450	-200.000	-0.004	-0.203
-346.435	8.382	0.054	0.040
-345.420	299.302	0.127	0.230
-344.406	800.000	-0.061	-0.241
-343.391	40.163	0.083	0.074
-342.377	-163.833	-0.137	-0.006
-341.362	-14.078	-0.307	-0.196
-340.348	-200.000	0.056	-0.254
-339.333	252.102	0.113	-0.191
-338.318	-150.836	0.367	0.027
-337.304	-30.566	-0.129	-0.072
-336.289	16.850	0.249	0.195
-335.275	-108.496	-0.190	0.040
-334.260	-99.587	0.201	0.050
-333.245	344.795	0.061	0.118
-332.231	-86.615	-0.323	0.098
-331.216	100.378	0.278	0.318
-330.202	279.330	0.073	0.128
-329.187	-62.305	0.126	-0.052
-328.172	-200.000	-0.017	-0.260
-327.158	-105.891	0.233	-0.052
-326.143	39.209	-0.203	-0.180
-325.129	-84.930	-0.209	-0.065
-324.114	-4.044	0.290	0.198
-323.099	-7.704	-0.288	-0.192
-322.085	75.318	-0.134	-0.139
-321.070	307.895	-0.053	0.097
-320.056	169.141	-0.021	0.030
-319.041	132.200	0.240	-0.305
-318.026	18.238	-0.025	0.019
-317.012	-200.000	0.042	0.321
-315.997	-25.753	0.126	0.073
-314.983	800.000	0.018	0.065
-313.968	349.820	0.137	0.267
-312.953	52.109	0.173	-0.163
-311.939	31.794	0.205	0.174
-310.924	25.156	-0.166	-0.136
-309.910	800.000	0.023	-0.101
-308.895	-92.442	0.354	-0.098
-307.880	280.147	-0.045	0.079
-306.866	-200.000	-0.023	0.141
-305.851	165.345	-0.181	-0.253
-304.837	186.082	0.023	-0.033
-303.822	-200.000	-0.000	-0.210
-302.807	-200.000	0.039	-0.354
-301.793	-200.000	-0.021	0.142
-300.778	-200.000	-0.059	0.323
-299.764	84.848	-0.215	0.232
-298.749	-200.000	0.016	0.209
-297.735	-45.636	-0.271	0.132
-296.720	295.029	-0.133	-0.240
-295.705	128.345	-0.098	-0.123
-294.691	-12.075	0.284	0.183
-293.676	117.423	0.304	0.369
-292.662	11.657	0.299	0.226
-291.647	50.436	-0.190	-0.177
-290.632	800.000	-0.121	0.336
-289.618	78.113	0.127	-0.134
-288.603	611.205	0.052	0.129
-287.589	74.034	0.066	-0.069
-286.574	159.533	-0.144	0.197
-285.559	-200.000	-0.012	-0.303
-284.545	-200.000	-0.007	0.175
-283.530	-200.000	0.042	-0.208
-282.516	800.000	0.050	-0.188
-281.501	-16.448	-0.281	0.176
-280.486	-125.409	0.237	0.036
-279.472	-38.642	-0.393	0.205
-278.457	-200.000	0.076	0.332
-277.443	-78.312	0.186	0.063
-276.428	-31.486	0.192	-0.106
-275.413	133.987	0.119	0.152
-274.399	-104.300	-0.331	-0.076
-273.384	117.571	-0.161	-0.195
-272.370	-46.458	0.106	0.051
-271.355	13.275	-0.167	0.128
-270.340	800.000	0.029	-0.116
-269.326	-62.007	-0.472	-0.194
-268.311	-200.000	-0.008	-0.169
-267.297	800.000	-0.058	-0.180
-266.282	800.000	-0.103	-0.324
-265.267	286.985	0.135	-0.241
-264.253	-87.600	-0.096	-0.029
-263.238	-200.000	0.005	0.116
-262.224	-17.290	0.206	-0.128
-261.209	800.000	0.095	-0.363
-260.195	-143.441	0.207	-0.019
-259.180	100.835	0.143	0.164
-258.165	82.056	0.098	0.105
-257.151	75.078	-0.129	0.134
-256.136	800.000	-0.046	0.137
-255.122	-99.393	0.242	0.060
-254.107	297.460	-0.172	0.311
-253.092	1.515	0.104	0.074
-252.078	0.426	-0.311	0.219
-251.063	-200.000	0.361	0.001
-250.049	800.000	0.073	0.267
-249.034	-105.646	0.326	0.073
-248.019	133.447	-0.285	0.362
-247.005	-163.984	-0.169	0.008
-245.990	196.121	0.138	-0.206
-244.976	-200.000	-0.004	-0.304
-243.961	-33.213	-0.155	-0.085
-242.946	-47.405	-0.077	0.037
-241.932	-200.000	0.028	-0.160
-240.917	-67.816	0.187	0.072
-239.903	-183.391	0.251	-0.004
-238.888	-129.590	-0.256	0.035
-237.873	154.506	0.083	0.113
-236.859	64.611	-0.081	0.080
-235.844	33.050	0.052	0.044
-234.830	-116.002	0.370	0.068
-233.815	800.000	-0.036	0.112
-232.800	42.891	-0.160	0.143
-231.786	171.438	0.237	0.335
-230.771	-166.905	0.183	-0.007
-229.757	-200.000	-0.002	-0.019
-228.742	-36.735	-0.066	-0.035
-227.727	73.991	-0.143	-0.147
-226.713	800.000	0.080	0.301
-225.698	-144.551	-0.299	-0.027
-224.684	37.747	-0.037	0.032
-223.669	122.711	-0.224	0.275
-222.655	2.947	-0.154	0.110
-221.640	-13.842	-0.260	-0.165
-220.625	-105.332	0.311	0.070
-219.611	15.892	0.288	0.223
-218.596	-57.040	-0.242	0.105
-217.582	-90.864	-0.083	0.023
-216.567	279.316	0.042	0.074
-215.552	203.558	0.189	0.287
-214.538	345.347	0.072	0.139
-213.523	-72.142	-0.175	-0.064
-212.509	672.748	0.161	0.411
-211.494	-200.000	-0.062	0.328
-210.479	645.315	-0.168	-0.421
-209.465	-200.000	0.038	0.227
-208.450	-72.800	0.117	0.042
-207.436	369.033	-0.033	0.066
-206.421	71.004	0.109	-0.111
-205.406	177.766	-0.265	0.379
-204.392	-35.732	-0.165	-0.088
-203.377	19.079	0.099	0.078
-202.363	-22.011	-0.174	0.104
-201.348	800.000	-0.049	0.139
-200.333	111.300	0.155	-0.184
-199.319	-27.651	0.072	0.041
-198.304	672.579	0.086	-0.220
-197.290	-126.317	0.225	-0.033
-196.275	-86.791	-0.155	0.047
-195.260	76.058	0.251	-0.261
-194.246	63.930	0.120	0.118
-193.231	-200.000	0.014	-0.157
-192.217	-200.000	0.038	0.318
-191.202	130.465	-0.207	-0.261
-190.187	-68.739	0.292	0.111
-189.173	-102.746	0.171	0.040
-188.158	78.224	-0.177	-0.185
-187.144	-91.603	0.097	0.027
-186.129	-200.000	0.003	0.111
-185.114	248.045	0.123	0.204
-184.100	89.113	-0.030	0.032
-183.085	-200.000	0.017	0.229
-182.071	1.368	0.151	-0.106
-181.056	-40.615	-0.145	0.074
-180.042	66.550	-0.139	-0.138
-179.027	-95.894	0.178	-0.047
-178.012	2.798	0.243	-0.173
-176.998	92.309	-0.142	-0.157
-175.983	-94.920	0.096	0.025
-174.969	358.342	-0.117	0.229
-173.954	-200.000	0.089	0.564
-172.939	60.867	0.081	0.079
-171.925	800.000	-0.061	0.210
-170.910	300.132	0.154	-0.278
-169.896	800.000	0.068	0.220
-168.881	-200.000	-0.048	-0.375
-167.866	800.000	0.019	0.061
-166.852	-125.204	-0.046	-0.007
-165.837	283.414	0.117	-0.206
-164.823	-57.559	0.136	0.058
-163.808	-32.924	0.226	-0.123
-162.793	34.779	-0.155	-0.133
-161.779	148.282	0.028	-0.037
-160.764	-98.489	0.075	0.019
-159.750	-200.000	-0.077	-0.341
-158.735	-200.000	0.027	-0.227
-157.720	-200.000	0.009	-0.092
-156.706	3.944	0.217	0.155
-155.691	-200.000	-0.035	0.309
-154.677	-59.381	0.205	-0.087
-153.662	36.109	-0.272	0.235
-152.647	-4.109	-0.316	-0.215
-151.633	-8.065	0.149	-0.099
-150.618	92.504	-0.145	-0.161
-149.604	800.000	-0.088	-0.359
-148.589	800.000	-0.055	-0.163
-147.574	77.099	0.238	0.248
-146.560	-77.207	-0.092	0.031
-145.545	-200.000	-0.010	-0.323
-144.531	-51.499	-0.083	0.038
-143.516	45.269	0.207	0.187
-142.502	50.996	0.250	0.233
-141.487	800.000	-0.029	0.086
-140.472	125.656	-0.217	0.268
-139.458	50.575	-0.113	0.105
-138.443	-25.271	-0.175	0.102
-137.429	-200.000	0.020	-0.210
-136.414	-130.584	-0.147	-0.019
-135.399	-74.697	-0.302	-0.107
-134.385	178.654	0.143	-0.205
-133.370	-35.275	0.151	-0.080
-132.356	-100.101	0.074	-0.018
-131.341	-58.794	-0.280	0.119
-130.326	179.671	-0.223	0.320
-129.312	379.835	0.066	0.132
-128.297	226.163	0.145	-0.231
-127.283	-200.000	-0.031	-0.277
-126.268	46.232	-0.213	-0.193
-125.253	-200.000	0.038	-0.423
-124.239	-75.785	-0.217	-0.076
-123.224	-200.000	-0.016	-0.193
-122.210	-134.650	-0.083	0.010
-121.195	-77.068	0.239	-0.082
-120.180	-200.000	-0.011	0.084
