DTS Sentinel unit serial number:	SN413079Multiplexer serial number:	ORYXHardware model number:	OX4-SRSoftware version number:	ORYX F/W v4.00 Oryx Data Collector v3.7.2.0data status	okinstallation	princeton_trtdifferential loss correction	single-endedforward channel	channel 3reverse channel	N/Adate	2019/09/18time	20:00:34forward acquisition time	60.00reverse acquisition time	0.00gamma	496.2192k internal	0.2328k external	0.2328temperature offset calibration	1.0005default loss term (dB/km)	0.3790temperature slope calibration	1.0000multiplexer offset coefficient	1.0000multiplexer slope coefficient	1.0000fibre end	0.00T internal ref (°C)	30.34T ext. ref 1 (°C)	1.02T ext. ref 2 (°C)	21.04length (m)	temperature (°C)	Stokes	anti-Stokes-747.200	29.866	0.145	-0.125
-746.185	-200.000	0.016	0.463
-745.171	-41.970	0.184	0.095
-744.156	-200.000	-0.010	-0.096
-743.142	67.410	0.059	0.060
-742.127	62.393	-0.375	0.377
-741.112	18.724	0.292	0.236
-740.098	800.000	0.148	0.449
-739.083	-48.264	-0.110	0.053
-738.069	408.597	-0.197	0.419
-737.054	-143.198	0.278	0.027
-736.039	6.928	-0.261	-0.196
-735.025	12.943	-0.239	-0.186
-734.010	-75.196	-0.209	-0.075
-732.996	-104.397	-0.167	-0.039
-731.981	1.136	-0.151	-0.109
-730.966	-200.000	-0.011	0.372
-729.952	269.237	0.132	-0.234
-728.937	-200.000	-0.008	-0.045
-727.923	-54.711	-0.185	-0.084
-726.908	-35.671	-0.089	0.049
-725.894	0.546	-0.331	-0.238
-724.879	784.780	0.042	-0.117
-723.864	192.580	-0.067	0.102
-722.850	-70.180	0.072	-0.028
-721.835	-56.148	-0.270	-0.121
-720.821	35.197	0.150	-0.133
-719.806	21.178	-0.251	-0.205
-718.791	800.000	-0.133	-0.518
-717.777	327.766	0.068	-0.132
-716.762	-163.383	-0.467	-0.022
-715.748	398.920	0.092	0.193
-714.733	-200.000	-0.009	0.073
-713.718	-200.000	0.000	-0.373
-712.704	-78.987	0.295	0.101
-711.689	-200.000	0.002	-0.270
-710.675	-1.693	0.075	-0.053
-709.660	-100.730	-0.266	0.066
-708.645	800.000	0.158	0.462
-707.631	-120.374	0.241	-0.041
-706.616	660.719	-0.025	-0.066
-705.602	56.830	-0.287	-0.281
-704.587	-37.587	0.188	0.101
-703.572	-30.108	0.072	0.041
-702.558	-77.786	-0.267	-0.093
-701.543	732.737	-0.108	0.290
-700.529	28.272	0.336	-0.285
-699.514	800.000	0.023	-0.097
-698.499	33.440	0.177	0.154
-697.485	-70.131	0.314	0.120
-696.470	800.000	-0.026	0.092
-695.456	-8.921	0.182	-0.123
-694.441	240.583	-0.068	-0.114
-693.426	-162.514	-0.293	0.015
-692.412	-19.981	-0.251	-0.156
-691.397	239.594	-0.123	-0.207
-690.383	100.255	-0.102	-0.119
-689.368	-61.495	-0.335	0.142
-688.354	123.159	-0.168	0.212
-687.339	200.462	-0.041	-0.063
-686.324	155.570	-0.194	-0.269
-685.310	22.734	0.092	-0.076
-684.295	176.863	0.085	-0.125
-683.281	49.408	0.181	0.171
-682.266	-85.274	0.176	0.055
-681.251	59.133	-0.132	0.131
-680.237	-200.000	0.051	0.263
-679.222	281.650	0.238	-0.429
-678.208	-16.423	0.316	-0.202
-677.193	-73.378	-0.352	-0.129
-676.178	550.555	-0.089	-0.214
-675.164	109.029	-0.097	0.117
-674.149	28.905	-0.058	0.049
-673.135	41.101	0.216	-0.196
-672.120	-103.467	0.196	-0.046
-671.105	-77.108	-0.321	-0.112
-670.091	800.000	-0.057	-0.165
-669.076	50.396	-0.270	0.256
-668.062	800.000	-0.039	0.169
-667.047	-76.998	0.257	-0.090
-666.032	47.514	0.167	-0.156
-665.018	95.415	-0.010	0.011
-664.003	97.757	-0.273	0.316
-662.989	-200.000	0.017	0.092
-661.974	-200.000	-0.029	-0.317
-660.959	-200.000	-0.037	-0.322
-659.945	3.530	-0.240	-0.176
-658.930	314.823	0.101	-0.192
-657.916	-119.390	0.064	0.011
-656.901	204.725	-0.147	-0.230
-655.886	-28.494	-0.085	-0.049
-654.872	-200.000	-0.008	0.250
-653.857	233.158	0.105	-0.174
-652.843	332.641	-0.035	0.068
-651.828	-156.380	0.210	0.013
-650.814	-85.805	0.008	-0.003
-649.799	-200.000	0.003	-0.113
-648.784	-200.000	-0.005	0.053
-647.770	108.588	-0.214	-0.256
-646.755	-200.000	0.056	-0.310
-645.741	-86.180	-0.216	0.067
-644.726	49.921	-0.041	-0.039
-643.711	-200.000	0.007	0.363
-642.697	-200.000	0.081	-0.393
-641.682	-200.000	0.021	-0.239
-640.668	-43.193	-0.327	-0.166
-639.653	-58.135	-0.176	0.077
-638.638	-200.000	0.014	0.068
-637.624	-200.000	0.007	0.050
-636.609	14.751	-0.262	0.205
-635.595	-68.780	-0.199	0.077
-634.580	-9.642	-0.152	-0.101
-633.565	2.618	0.190	0.138
-632.551	-120.469	-0.175	-0.030
-631.536	800.000	-0.079	0.231
-630.522	67.659	0.094	0.097
-629.507	73.266	-0.138	-0.145
-628.492	-200.000	0.025	0.246
-627.478	800.000	0.050	-0.162
-626.463	722.620	0.134	0.358
-625.449	306.047	-0.107	-0.199
-624.434	31.412	-0.116	0.100
-623.419	745.269	-0.133	-0.360
-622.405	-200.000	0.004	-0.033
-621.390	-59.765	-0.374	0.161
-620.376	39.120	0.109	0.098
-619.361	245.337	0.175	-0.295
-618.346	-60.616	-0.274	-0.117
-617.332	32.038	0.170	-0.147
-616.317	-200.000	-0.040	0.206
-615.303	-1.437	0.238	0.168
-614.288	-185.531	0.281	-0.004
-613.273	-48.407	-0.207	0.100
-612.259	68.074	0.244	-0.250
-611.244	-200.000	0.020	-0.132
-610.230	-83.319	-0.214	0.069
-609.215	33.098	-0.185	0.161
-608.201	32.451	-0.067	0.058
-607.186	-165.856	0.154	0.007
-606.171	271.756	0.110	-0.194
-605.157	-200.000	-0.040	-0.263
-604.142	-80.395	0.289	-0.097
-603.128	-75.148	-0.101	0.036
-602.113	-200.000	0.017	0.481
-601.098	11.178	-0.140	-0.107
-600.084	7.129	0.225	0.168
-599.069	13.729	0.176	-0.137
-598.055	-189.431	-0.191	0.002
-597.040	63.861	-0.168	-0.169
-596.025	-179.434	0.075	0.002
-595.011	-2.673	0.306	-0.214
-593.996	-132.496	-0.236	-0.030
-592.982	800.000	0.077	-0.301
-591.967	84.575	0.151	0.165
-590.952	800.000	0.014	-0.055
-589.938	-113.653	0.335	-0.066
-588.923	-0.057	-0.158	-0.113
-587.909	-128.574	0.111	0.016
-586.894	-12.633	-0.104	0.068
-585.879	-159.073	0.058	0.003
-584.865	-79.768	0.117	-0.039
-583.850	415.134	-0.080	-0.172
-582.836	452.583	0.047	0.104
-581.821	-200.000	0.027	-0.127
-580.806	-87.888	0.063	0.019
-579.792	-69.403	0.168	-0.064
-578.777	173.367	-0.117	0.169
-577.763	800.000	-0.093	0.351
-576.748	-30.130	0.182	0.104
-575.733	-200.000	-0.057	-0.390
-574.719	-200.000	0.038	0.255
-573.704	-24.049	-0.182	0.109
-572.690	-130.083	0.086	0.012
-571.675	-200.000	-0.015	-0.335
-570.661	36.438	-0.257	-0.227
-569.646	-14.937	0.152	-0.098
-568.631	79.894	0.047	-0.050
-567.617	248.594	0.111	-0.188
-566.602	-200.000	-0.019	0.277
-565.588	-103.192	-0.199	-0.047
-564.573	-14.008	0.136	0.088
-563.558	145.145	0.160	0.214
-562.544	-35.973	0.166	0.090
-561.529	-200.000	-0.031	-0.217
-560.515	800.000	0.046	-0.169
-559.500	-73.867	0.193	-0.070
-558.485	167.727	0.307	0.437
-557.471	19.329	0.107	-0.086
-556.456	186.868	-0.089	0.132
-555.442	280.172	0.114	0.204
-554.427	-50.656	-0.379	0.179
-553.412	800.000	-0.042	0.129
-552.398	-185.774	0.121	-0.002
-551.383	-115.592	-0.113	0.021
-550.369	-81.299	0.143	-0.047
-549.354	-112.429	-0.526	-0.105
-548.339	-114.625	0.260	0.050
-547.325	-180.926	0.287	0.006
-546.310	-125.925	0.230	-0.035
-545.296	-83.107	-0.156	0.050
-544.281	800.000	0.040	-0.165
-543.266	800.000	-0.027	0.095
-542.252	366.118	0.163	-0.328
-541.237	-82.698	0.131	0.042
-540.223	-142.422	-0.189	-0.019
-539.208	-200.000	-0.053	-0.242
-538.193	-28.197	0.220	0.127
-537.179	48.606	0.038	-0.036
-536.164	-55.024	-0.441	-0.198
-535.150	227.909	0.180	-0.292
-534.135	119.526	0.146	-0.181
-533.121	-200.000	0.020	0.123
-532.106	29.670	0.077	-0.065
-531.091	800.000	-0.061	0.179
-530.077	-144.823	0.197	0.018
-529.062	-27.159	0.327	-0.191
-528.048	172.362	-0.052	-0.074
-527.033	-200.000	-0.005	0.096
-526.018	-200.000	-0.004	0.236
-525.004	17.825	-0.188	0.150
-523.989	-56.774	0.221	-0.097
-522.975	563.185	0.072	0.174
-521.960	396.635	0.161	0.335
-520.945	-72.831	0.253	-0.093
-519.931	24.829	-0.216	-0.179
-518.916	-200.000	0.009	-0.121
-517.902	-200.000	0.026	0.242
-516.887	800.000	0.022	0.090
-515.872	-200.000	0.000	-0.052
-514.858	550.180	-0.035	0.083
-513.843	-114.573	0.300	-0.057
-512.829	54.039	-0.136	0.131
-511.814	-183.132	0.102	-0.002
-510.799	-2.221	0.127	0.089
-509.785	-46.370	0.064	-0.031
-508.770	-130.466	-0.228	0.031
-507.756	-108.113	0.039	0.008
-506.741	-26.907	-0.269	0.157
-505.726	70.531	0.122	-0.126
-504.712	170.321	-0.153	-0.219
-503.697	-200.000	-0.003	-0.042
-502.683	278.538	0.094	-0.167
-501.668	-200.000	-0.072	-0.420
-500.653	800.000	-0.116	-0.346
-499.639	-143.471	-0.333	-0.032
-498.624	-145.555	0.096	0.009
-497.610	74.297	0.054	-0.057
-496.595	-174.907	-0.133	0.004
-495.581	241.736	0.147	0.245
-494.566	-101.926	-0.204	0.049
-493.551	57.623	-0.236	-0.230
-492.537	-11.120	-0.010	-0.007
-491.522	303.213	0.014	0.026
-490.508	-200.000	0.047	-0.237
-489.493	-162.806	0.295	0.014
-488.478	-30.252	0.112	-0.063
-487.464	73.069	-0.141	0.147
-486.449	-40.772	-0.150	0.077
-485.435	-102.539	-0.041	-0.010
-484.420	-200.000	-0.000	-0.008
-483.405	-102.465	-0.334	-0.080
-482.391	74.059	-0.036	-0.037
-481.376	800.000	-0.039	-0.128
-480.362	643.578	0.034	0.086
-479.347	204.684	0.112	0.174
-478.332	-177.795	0.161	0.004
-477.318	-108.747	-0.314	0.067
-476.303	-112.132	0.084	0.017
-475.289	290.183	-0.094	-0.170
-474.274	-200.000	-0.077	-0.364
-473.259	-18.285	0.155	0.097
-472.245	110.862	0.191	0.229
-471.230	-38.499	-0.304	0.160
-470.216	172.072	0.152	-0.217
-469.201	-107.043	0.115	0.025
-468.186	480.532	0.067	0.151
-467.172	273.633	-0.091	0.161
-466.157	116.142	-0.165	0.201
-465.143	167.395	-0.195	0.276
-464.128	235.906	-0.064	-0.106
-463.113	-146.608	0.380	0.033
-462.099	248.430	-0.141	-0.237
-461.084	215.306	-0.253	-0.400
-460.070	-86.952	0.077	0.023
-459.055	453.078	-0.086	-0.189
-458.040	-43.862	-0.271	-0.136
-457.026	-36.033	0.085	0.046
-456.011	-138.168	-0.022	0.002
-454.997	121.494	-0.245	-0.304
-453.982	39.378	0.175	-0.156
-452.968	-200.000	-0.079	0.450
-451.953	-33.586	0.207	0.114
-450.938	-47.251	-0.136	-0.066
-449.924	122.705	-0.159	0.199
-448.909	748.908	-0.174	0.468
-447.895	87.479	-0.122	0.135
-446.880	-200.000	0.034	0.203
-445.865	-200.000	0.007	0.084
-444.851	290.619	0.058	0.105
-443.836	-200.000	-0.032	-0.575
-442.822	-104.310	-0.379	0.087
-441.807	-184.670	0.277	-0.004
-440.792	-106.875	-0.157	-0.035
-439.778	-200.000	0.023	0.313
-438.763	-121.355	-0.044	-0.007
-437.749	-39.576	-0.143	-0.075
-436.734	380.751	-0.082	-0.167
-435.719	800.000	-0.049	0.144
-434.705	56.702	0.080	0.078
-433.690	-39.301	0.125	0.065
-432.676	216.725	0.178	0.281
-431.661	311.809	0.120	-0.225
-430.646	800.000	0.044	-0.151
-429.632	57.778	0.165	-0.161
-428.617	-66.400	0.135	-0.053
-427.603	-172.479	-0.395	0.012
-426.588	-200.000	0.007	0.149
-425.573	334.526	0.088	0.170
-424.559	-57.309	0.223	0.098
-423.544	26.821	0.049	-0.041
-422.530	-64.396	-0.140	-0.057
-421.515	-25.383	-0.229	0.135
-420.500	800.000	0.022	0.092
-419.486	800.000	0.101	0.374
-418.471	-200.000	-0.001	0.287
-417.457	-117.736	0.135	-0.024
-416.442	-48.943	0.302	-0.144
-415.428	568.986	-0.081	-0.196
-414.413	-125.125	-0.083	-0.013
-413.398	-22.216	0.179	-0.108
-412.384	800.000	0.094	0.285
-411.369	800.000	0.026	0.086
-410.355	-200.000	-0.010	0.122
-409.340	731.180	0.210	0.558
-408.325	184.701	0.178	0.262
-407.311	-200.000	0.014	-0.187
-406.296	24.226	0.111	0.091
-405.282	438.994	-0.126	0.273
-404.267	774.651	0.105	0.285
-403.252	-144.018	-0.362	0.034
-402.238	115.487	-0.103	-0.125
-401.223	48.721	-0.131	-0.122
-400.209	-200.000	0.006	-0.224
-399.194	147.211	-0.093	0.125
-398.179	-4.795	-0.136	0.093
-397.165	-200.000	-0.004	0.065
-396.150	-133.370	0.359	-0.045
-395.136	-112.942	-0.363	-0.071
-394.121	71.524	-0.168	0.173
-393.106	-200.000	-0.020	0.146
-392.092	1.305	0.215	0.154
-391.077	-60.654	-0.155	-0.065
-390.063	259.995	0.091	-0.155
-389.048	487.264	-0.061	-0.138
-388.033	32.144	-0.129	0.111
-387.019	-125.318	-0.162	0.025
-386.004	-200.000	0.033	0.165
-384.990	-73.508	0.335	0.121
-383.975	273.902	0.081	0.142
-382.960	-35.121	0.176	0.095
-381.946	-38.900	-0.222	-0.116
-380.931	315.014	-0.058	0.109
-379.917	338.707	-0.132	-0.256
-378.902	-200.000	-0.001	0.116
-377.888	121.825	-0.136	-0.169
-376.873	-200.000	-0.030	-0.170
-375.858	8.855	0.073	-0.055
-374.844	511.912	-0.138	-0.320
-373.829	-96.233	0.185	0.049
-372.815	178.092	-0.043	0.063
-371.800	-200.000	-0.017	-0.238
-370.785	78.956	0.044	-0.047
-369.771	520.235	0.093	-0.217
-368.756	51.652	-0.090	-0.085
-367.742	-132.053	0.088	0.011
-366.727	65.922	0.188	-0.189
-365.712	-200.000	-0.020	0.179
-364.698	29.493	0.188	-0.159
-363.683	-31.975	-0.203	-0.113
-362.669	-200.000	-0.001	-0.121
-361.654	-42.665	0.213	-0.108
-360.639	257.083	-0.183	0.313
-359.625	713.546	0.033	0.086
-358.610	246.689	0.058	0.097
-357.596	762.675	-0.050	0.135
-356.581	-29.525	-0.157	0.089
-355.566	-200.000	0.024	-0.418
-354.552	158.752	0.113	-0.155
-353.537	-52.014	0.259	-0.120
-352.523	56.728	0.050	-0.048
-351.508	-200.000	-0.023	0.372
-350.493	-200.000	0.026	-0.213
-349.479	-134.839	-0.109	-0.013
-348.464	-63.165	-0.537	0.220
-347.450	-144.142	-0.220	0.020
-346.435	169.920	0.103	-0.146
-345.420	94.188	-0.167	0.188
-344.406	60.723	-0.299	-0.294
-343.391	-11.938	0.310	0.202
-342.377	371.433	0.077	0.154
-341.362	195.271	-0.115	0.174
-340.348	800.000	-0.098	0.302
-339.333	196.292	0.108	-0.164
-338.318	800.000	-0.069	0.192
-337.304	-111.254	-0.083	0.017
-336.289	-12.952	-0.174	0.112
-335.275	-200.000	0.014	0.077
-334.260	-151.561	0.540	0.040
-333.245	-103.398	-0.111	0.026
-332.231	21.480	-0.083	-0.067
-331.216	199.682	-0.018	-0.028
-330.202	-200.000	-0.012	0.074
-329.187	339.674	-0.097	0.188
-328.172	80.552	-0.266	-0.285
-327.158	138.306	0.200	0.259
-326.143	310.321	-0.140	0.260
-325.129	-196.704	0.117	-0.001
-324.114	-113.627	0.165	-0.032
-323.099	92.388	-0.272	0.304
-322.085	800.000	-0.136	0.389
-321.070	800.000	-0.076	-0.267
-320.056	-44.878	-0.218	-0.108
-319.041	125.517	-0.209	-0.261
-318.026	800.000	0.031	0.129
-317.012	-12.666	0.226	-0.146
-315.997	-35.510	-0.452	0.243
-314.983	-121.419	0.235	-0.039
-313.968	800.000	0.061	-0.169
-312.953	-146.301	0.299	-0.026
-311.939	-200.000	0.017	0.429
-310.924	255.165	0.248	0.420
-309.910	-32.963	0.241	-0.133
-308.895	-200.000	0.027	0.206
-307.880	25.752	0.338	-0.279
-306.866	159.126	-0.232	-0.319
-305.851	-30.889	0.111	0.062
-304.837	54.142	-0.045	-0.043
-303.822	-114.309	0.123	-0.023
-302.807	800.000	0.039	-0.131
-301.793	-78.970	-0.239	0.081
-300.778	164.129	-0.046	0.065
-299.764	238.530	-0.135	-0.222
-298.749	800.000	-0.033	-0.108
-297.735	140.859	-0.041	0.054
-296.720	756.887	0.063	0.169
-295.705	103.924	-0.211	-0.246
-294.691	212.934	-0.103	-0.160
-293.676	-128.594	0.420	0.059
-292.662	129.791	-0.281	0.356
-291.647	12.157	-0.088	0.067
-290.632	695.196	-0.071	0.185
-289.618	71.192	-0.158	-0.162
-288.603	649.941	0.094	0.239
-287.589	-200.000	-0.051	0.324
-286.574	-56.952	-0.352	-0.154
-285.559	35.368	0.250	-0.217
-284.545	76.756	0.075	0.078
-283.530	-112.815	-0.228	0.045
-282.516	-106.444	0.324	-0.072
-281.501	-200.000	-0.012	-0.083
-280.486	800.000	0.069	-0.234
-279.472	-78.745	0.137	0.046
-278.457	-20.570	0.333	-0.203
-277.443	97.237	0.136	0.154
-276.428	-79.331	-0.092	-0.031
-275.413	-62.092	-0.209	-0.086
-274.399	145.053	-0.127	-0.169
-273.384	-22.038	0.211	-0.127
-272.370	-75.757	-0.161	-0.057
-271.355	31.570	-0.167	0.142
-270.340	145.227	-0.124	0.164
-269.326	391.857	-0.121	0.248
-268.311	57.085	0.212	0.204
-267.297	-200.000	0.044	0.207
-266.282	-140.319	-0.060	0.006
-265.267	-200.000	-0.025	-0.222
-264.253	59.431	0.031	-0.031
-263.238	219.081	-0.219	-0.347
-262.224	-200.000	-0.008	-0.127
-261.209	64.245	0.262	0.261
-260.195	-111.320	-0.218	-0.044
-259.180	121.538	-0.073	0.090
-258.165	-131.042	0.150	0.020
-257.151	-112.233	0.318	0.063
-256.136	188.131	-0.214	-0.317
-255.122	800.000	-0.047	0.171
-254.107	15.793	0.032	-0.025
-253.092	-180.509	0.065	-0.001
-252.078	100.534	-0.039	-0.045
-251.063	390.725	0.027	-0.056
-250.049	-40.881	-0.217	0.111
-249.034	260.101	0.059	0.101
-248.019	567.406	-0.105	0.252
-247.005	-200.000	0.022	0.098
-245.990	719.719	-0.097	-0.256
-244.976	-39.662	-0.088	-0.045
-243.961	-79.859	0.148	0.049
-242.946	-175.202	0.126	0.003
-241.932	-67.040	0.163	-0.063
-240.917	-200.000	-0.020	0.129
-239.903	105.190	0.137	-0.160
-238.888	-120.325	0.197	0.033
-237.873	165.363	0.089	-0.125
-236.859	-131.548	-0.231	0.030
-235.844	153.738	0.142	0.193
-234.830	522.799	0.129	-0.299
-233.815	-98.982	0.042	0.011
-232.800	95.894	0.080	-0.090
-231.786	-104.549	-0.133	-0.030
-230.771	-156.847	0.174	0.011
-229.757	-200.000	-0.035	0.184
-228.742	-200.000	-0.066	-0.286
-227.727	-174.668	0.160	-0.004
-226.713	469.548	0.019	-0.041
-225.698	-191.976	0.313	-0.003
-224.684	189.362	-0.096	-0.142
-223.669	125.711	0.161	-0.201
-222.655	-200.000	-0.035	-0.163
-221.640	195.144	0.124	-0.186
-220.625	800.000	0.046	0.138
-219.611	-30.972	0.143	-0.080
-218.596	88.255	0.032	-0.035
-217.582	-200.000	0.006	0.048
-216.567	800.000	0.039	-0.149
-215.552	38.550	-0.229	-0.202
-214.538	-122.145	0.173	0.028
-213.523	9.922	-0.048	0.036
-212.509	-200.000	0.012	0.175
-211.494	102.513	-0.093	-0.108
-210.479	11.327	0.043	0.033
-209.465	800.000	0.102	-0.298
-208.450	-200.000	0.004	-0.263
-207.436	605.300	0.056	0.138
-206.421	-200.000	0.112	-0.564
-205.406	-164.098	0.497	-0.023
-204.392	310.570	-0.058	0.106
-203.377	800.000	0.088	0.241
-202.363	578.866	0.031	0.076
-201.348	188.754	-0.323	-0.478
-200.333	53.296	0.193	0.182
-199.319	40.749	-0.143	0.127
-198.304	51.116	0.263	-0.246
-197.290	406.157	-0.040	0.083
-196.275	262.455	0.079	-0.136
-195.260	-24.798	-0.406	0.238
-194.246	-41.774	-0.173	-0.088
-193.231	62.102	-0.074	-0.072
-192.217	127.882	-0.041	-0.051
-191.202	110.405	-0.119	-0.140
-190.187	215.705	0.127	-0.198
-189.173	225.646	-0.088	-0.140
-188.158	315.753	-0.068	0.127
-187.144	-50.436	-0.304	0.141
-186.129	-80.372	0.243	0.080
-185.114	-72.219	-0.117	0.043
-184.100	31.495	-0.172	0.146
-183.085	-73.366	0.088	0.032
-182.071	-200.000	0.012	0.143
-181.056	186.624	-0.105	0.154
-180.042	-65.933	0.131	0.051
-179.027	79.429	0.041	-0.043
-178.012	269.946	0.007	-0.012
-176.998	-200.000	0.022	0.118
-175.983	439.273	-0.059	-0.127
-174.969	-98.518	-0.145	-0.037
-173.954	-200.000	-0.003	0.319
-172.939	-16.849	0.090	-0.056
-171.925	-81.066	0.305	0.099
-170.910	-16.963	0.207	-0.129
-169.896	-140.903	-0.288	-0.029
-168.881	251.217	0.125	0.209
-167.866	260.966	0.129	-0.220
-166.852	-135.363	0.362	0.043
-165.837	-200.000	-0.008	0.610
-164.823	-66.012	0.208	0.082
-163.808	23.698	-0.356	-0.289
-162.793	-51.269	-0.051	0.024
-161.779	119.570	0.156	-0.190
-160.764	442.036	-0.024	-0.052
-159.750	-5.294	-0.181	0.122
-158.735	-200.000	-0.035	-0.185
-157.720	-23.334	0.031	-0.018
-156.706	-200.000	0.013	-0.171
-155.691	107.652	0.069	-0.080
-154.677	-143.401	-0.348	0.033
-153.662	800.000	0.054	0.176
-152.647	-200.000	-0.017	-0.108
-151.633	64.921	0.104	0.103
-150.618	-200.000	0.102	-0.449
-149.604	652.078	-0.106	0.267
-148.589	197.285	-0.110	-0.164
-147.574	-129.858	-0.283	0.038
-146.560	-73.398	-0.124	-0.045
-145.545	73.081	-0.043	0.045
-144.531	350.006	0.066	0.128
-143.516	7.135	-0.030	0.022
-142.502	-200.000	0.047	0.469
-141.487	-56.332	0.181	-0.079
-140.472	-134.444	0.289	0.035
-139.458	31.525	-0.102	-0.086
-138.443	727.868	0.088	-0.232
-137.429	-200.000	0.034	-0.300
-136.414	-38.959	0.103	0.053
-135.399	-106.469	0.238	0.052
-134.385	73.163	0.231	-0.237
-133.370	-200.000	-0.021	0.228
-132.356	800.000	0.034	0.134
-131.341	-124.284	0.287	-0.044
-130.326	-200.000	-0.029	0.192
-129.312	66.862	0.177	0.177
-128.297	228.058	-0.125	0.200
-127.283	-2.075	0.160	0.111
-126.268	-105.549	-0.247	-0.055
-125.253	-13.113	0.170	0.109
-124.239	800.000	0.027	0.103
-123.224	-21.203	-0.183	-0.110
-122.210	46.958	0.265	0.242
-121.195	-28.206	-0.385	0.219
