DTS Sentinel unit serial number:	SN413079Multiplexer serial number:	ORYXHardware model number:	OX4-SRSoftware version number:	ORYX F/W v4.00 Oryx Data Collector v3.7.2.0data status	okinstallation	princeton_trtdifferential loss correction	single-endedforward channel	channel 3reverse channel	N/Adate	2019/09/17time	11:40:35forward acquisition time	60.00reverse acquisition time	0.00gamma	496.2192k internal	0.2322k external	0.2322temperature offset calibration	0.9961default loss term (dB/km)	0.3790temperature slope calibration	1.0000multiplexer offset coefficient	1.0000multiplexer slope coefficient	1.0000fibre end	0.00T internal ref (°C)	30.81T ext. ref 1 (°C)	0.37T ext. ref 2 (°C)	26.59length (m)	temperature (°C)	Stokes	anti-Stokes-747.200	62.125	0.232	-0.234
-746.185	-200.000	0.026	-0.262
-745.171	-115.632	0.174	0.033
-744.156	800.000	-0.081	0.266
-743.142	-82.348	0.365	-0.120
-742.127	-104.847	-0.288	0.067
-741.112	-58.903	0.057	0.025
-740.098	-35.673	-0.178	-0.098
-739.083	-117.047	-0.082	-0.015
-738.069	323.980	0.220	0.425
-737.054	800.000	0.040	-0.146
-736.039	100.927	-0.137	-0.161
-735.025	-145.690	0.288	0.026
-734.010	-134.135	-0.207	0.026
-732.996	-54.905	0.068	-0.031
-731.981	298.278	-0.166	-0.308
-730.966	800.000	-0.125	-0.379
-729.952	84.902	-0.242	-0.268
-728.937	575.538	-0.018	0.045
-727.923	-35.472	-0.332	-0.182
-726.908	800.000	-0.055	-0.197
-725.894	-161.910	0.099	0.005
-724.879	-77.677	-0.256	-0.089
-723.864	-200.000	0.029	0.345
-722.850	-91.017	-0.150	0.043
-721.835	-23.783	0.090	-0.054
-720.821	33.979	-0.178	0.157
-719.806	-109.152	-0.303	0.065
-718.791	-88.733	-0.131	-0.039
-717.777	130.020	-0.132	0.171
-716.762	-1.593	-0.136	-0.097
-715.748	-40.780	-0.274	-0.143
-714.733	-200.000	-0.033	-0.225
-713.718	-56.065	-0.331	0.149
-712.704	-6.610	-0.132	-0.091
-711.689	-55.346	0.174	0.079
-710.675	-83.065	-0.305	0.099
-709.660	26.271	-0.345	0.291
-708.645	-49.794	0.435	0.209
-707.631	115.469	0.254	-0.313
-706.616	9.833	-0.236	-0.180
-705.602	175.802	0.004	-0.005
-704.587	18.321	-0.116	-0.094
-703.572	753.388	0.019	-0.051
-702.558	623.975	-0.079	0.200
-701.543	147.980	-0.204	-0.277
-700.529	-53.605	0.117	0.054
-699.514	234.070	-0.060	-0.099
-698.499	271.425	-0.059	0.105
-697.485	79.711	-0.160	-0.174
-696.470	800.000	-0.061	0.169
-695.456	800.000	-0.181	-0.511
-694.441	191.402	0.141	-0.214
-693.426	-141.229	0.334	0.034
-692.412	398.587	0.051	0.108
-691.397	359.869	-0.104	-0.209
-690.383	69.651	0.058	-0.060
-689.368	24.383	-0.150	-0.125
-688.354	-180.210	0.356	-0.008
-687.339	-162.877	0.375	-0.018
-686.324	514.457	0.052	-0.123
-685.310	-142.004	0.213	0.021
-684.295	16.429	-0.077	0.061
-683.281	-12.200	-0.212	0.140
-682.266	-71.525	-0.183	0.069
-681.251	435.307	-0.130	-0.285
-680.237	-200.000	-0.089	0.548
-679.222	-200.000	-0.042	-0.216
-678.208	8.275	-0.341	-0.258
-677.193	74.731	-0.166	0.176
-676.178	-200.000	-0.014	-0.062
-675.164	65.932	0.126	0.129
-674.149	800.000	0.078	0.292
-673.135	788.168	0.053	-0.147
-672.120	-200.000	0.038	-0.348
-671.105	-51.706	0.311	-0.146
-670.091	-42.992	-0.067	0.034
-669.076	338.970	0.079	0.155
-668.062	395.253	0.062	0.130
-667.047	263.423	0.160	-0.280
-666.032	637.405	-0.023	0.059
-665.018	11.278	0.240	-0.185
-664.003	-94.601	0.164	0.045
-662.989	13.137	-0.271	-0.212
-661.974	-200.000	0.023	0.151
-660.959	480.034	-0.167	-0.382
-659.945	-200.000	0.024	-0.205
-658.930	-200.000	0.006	-0.245
-657.916	-78.003	-0.048	0.017
-656.901	11.354	0.232	-0.179
-655.886	-182.206	0.132	-0.002
-654.872	-200.000	-0.013	-0.114
-653.857	162.476	0.083	-0.117
-652.843	-200.000	0.020	-0.440
-651.828	-160.407	0.066	0.004
-650.814	266.153	-0.008	-0.014
-649.799	-139.151	0.415	0.045
-648.784	255.656	-0.030	0.052
-647.770	-68.164	-0.211	0.083
-646.755	1.187	0.209	0.151
-645.741	49.278	0.207	-0.196
-644.726	95.333	0.042	-0.048
-643.711	9.612	-0.184	-0.140
-642.697	-132.917	-0.155	0.020
-641.682	-108.097	-0.268	0.059
-640.668	24.585	-0.153	-0.128
-639.653	22.065	-0.074	-0.061
-638.638	491.733	-0.120	-0.277
-637.624	124.229	0.070	0.089
-636.609	800.000	-0.061	0.194
-635.595	-0.679	-0.332	-0.237
-634.580	296.282	-0.073	-0.135
-633.565	-200.000	-0.011	-0.104
-632.551	518.938	-0.086	-0.202
-631.536	-177.601	0.417	-0.010
-630.522	-15.640	-0.162	-0.104
-629.507	45.571	0.386	-0.359
-628.492	61.019	0.124	0.123
-627.478	-116.611	0.528	-0.098
-626.463	-30.874	0.304	-0.172
-625.449	800.000	-0.062	-0.219
-624.434	155.980	-0.081	-0.113
-623.419	53.522	0.175	-0.169
-622.405	-200.000	0.062	0.378
-621.390	779.748	-0.052	-0.143
-620.376	569.159	-0.016	0.039
-619.361	-134.424	0.162	0.020
-618.346	800.000	0.160	0.453
-617.332	767.246	-0.020	0.053
-616.317	326.385	-0.161	-0.309
-615.303	800.000	-0.117	-0.393
-614.288	-200.000	0.020	0.128
-613.273	2.720	-0.120	-0.087
-612.259	-107.260	-0.021	0.005
-611.244	-200.000	0.023	0.507
-610.230	-200.000	-0.048	0.219
-609.215	126.639	-0.116	-0.148
-608.201	-200.000	-0.003	-0.367
-607.186	34.715	0.121	-0.106
-606.171	739.494	0.064	-0.172
-605.157	-32.416	0.071	-0.040
-604.142	-151.442	-0.127	-0.009
-603.128	311.811	0.034	-0.064
-602.113	-200.000	0.041	-0.236
-601.098	-200.000	0.058	-0.299
-600.084	-4.743	-0.277	0.192
-599.069	458.037	-0.100	0.223
-598.055	-167.844	-0.169	0.007
-597.040	263.491	0.046	-0.080
-596.025	800.000	0.042	-0.185
-595.011	553.005	0.062	-0.149
-593.996	148.872	-0.109	0.148
-592.982	-200.000	0.028	-0.373
-591.967	-155.473	0.076	0.005
-590.952	96.806	-0.157	0.181
-589.938	506.455	0.060	-0.139
-588.923	146.985	-0.092	0.125
-587.909	-68.355	-0.216	-0.084
-586.894	800.000	-0.105	-0.408
-585.879	276.351	0.206	-0.368
-584.865	800.000	-0.045	0.157
-583.850	56.832	0.090	0.088
-582.836	-97.334	-0.217	-0.057
-581.821	-200.000	0.038	0.476
-580.806	-162.534	-0.321	0.016
-579.792	800.000	-0.082	0.289
-578.777	7.157	-0.178	-0.134
-577.763	433.766	0.092	-0.200
-576.748	-49.061	-0.335	-0.161
-575.733	-200.000	0.062	0.284
-574.719	96.091	-0.084	0.096
-573.704	315.217	-0.107	0.202
-572.690	40.907	0.069	-0.062
-571.675	392.797	-0.075	-0.157
-570.661	66.470	-0.144	-0.147
-569.646	-160.152	0.332	-0.018
-568.631	800.000	0.035	0.103
-567.617	120.209	0.146	-0.182
-566.602	169.117	-0.148	0.212
-565.588	65.133	-0.135	0.137
-564.573	-6.829	-0.188	-0.128
-563.558	-83.313	-0.058	0.019
-562.544	409.961	0.142	0.301
-561.529	-200.000	0.035	0.205
-560.515	577.243	0.024	0.060
-559.500	-127.370	-0.066	-0.010
-558.485	77.039	0.032	-0.034
-557.471	-79.112	-0.091	-0.031
-556.456	-200.000	0.046	-0.244
-555.442	-33.047	0.125	0.069
-554.427	62.642	-0.143	-0.144
-553.412	59.862	-0.066	0.065
-552.398	-51.408	-0.238	0.111
-551.383	-84.377	-0.330	0.105
-550.369	40.544	0.080	0.073
-549.354	-131.591	-0.299	-0.039
-548.339	-110.724	0.167	-0.035
-547.325	800.000	-0.069	-0.201
-546.310	-200.000	0.026	-0.209
-545.296	190.436	-0.071	0.107
-544.281	-54.977	-0.062	0.028
-543.266	-133.587	-0.282	0.035
-542.252	570.418	0.043	0.106
-541.237	-161.366	-0.077	-0.004
-540.223	-23.228	0.081	0.049
-539.208	125.323	0.113	-0.143
-538.193	800.000	-0.088	-0.317
-537.179	-30.298	0.097	0.055
-536.164	4.586	0.338	-0.249
-535.150	322.706	0.178	0.341
-534.135	-30.578	-0.226	-0.128
-533.121	-97.378	0.071	0.018
-532.106	141.900	0.106	-0.141
-531.091	-200.000	-0.058	0.265
-530.077	-78.841	-0.020	0.007
-529.062	36.451	0.298	0.264
-528.048	224.298	-0.196	0.317
-527.033	800.000	-0.056	-0.220
-526.018	2.338	0.200	-0.145
-525.004	800.000	0.078	0.244
-523.989	154.221	0.121	-0.166
-522.975	800.000	-0.055	-0.223
-521.960	-34.500	-0.238	-0.131
-520.945	-200.000	-0.023	0.446
-519.931	59.249	0.208	0.205
-518.916	-182.560	-0.121	-0.002
-517.902	-15.181	-0.168	0.108
-516.887	111.954	0.100	0.120
-515.872	7.630	0.095	-0.071
-514.858	-200.000	0.032	0.205
-513.843	-32.965	0.391	-0.217
-512.829	-58.554	0.148	0.064
-511.814	-8.758	0.148	0.099
-510.799	-70.054	0.329	-0.125
-509.785	-200.000	0.017	0.174
-508.770	-200.000	0.049	0.304
-507.756	-200.000	-0.018	-0.094
-506.741	-146.980	0.334	0.029
-505.726	-103.364	0.099	-0.023
-504.712	-200.000	0.011	0.062
-503.697	76.039	-0.108	0.114
-502.683	-29.907	-0.040	0.023
-501.668	-116.216	0.320	-0.059
-500.653	-200.000	0.042	-0.211
-499.639	-44.136	-0.205	-0.103
-498.624	-79.059	-0.130	0.044
-497.610	-200.000	-0.001	0.168
-496.595	-41.301	0.197	0.102
-495.581	-200.000	0.013	-0.209
-494.566	-105.915	-0.386	-0.087
-493.551	305.734	0.095	0.176
-492.537	286.509	0.086	-0.155
-491.522	463.340	-0.058	-0.130
-490.508	258.087	0.164	-0.282
-489.493	54.931	0.169	-0.163
-488.478	-132.966	-0.085	-0.011
-487.464	-200.000	0.010	-0.071
-486.449	800.000	0.051	0.146
-485.435	-61.783	-0.302	-0.126
-484.420	256.856	-0.203	-0.349
-483.405	254.851	0.109	-0.187
-482.391	24.946	-0.219	0.181
-481.376	-133.228	-0.098	-0.012
-480.362	-62.068	-0.323	0.135
-479.347	800.000	0.009	-0.025
-478.332	303.076	0.038	0.071
-477.318	-146.260	-0.124	0.011
-476.303	-200.000	-0.024	-0.125
-475.289	166.592	0.129	0.182
-474.274	-200.000	-0.033	-0.308
-473.259	277.804	-0.167	-0.297
-472.245	184.381	0.178	0.264
-471.230	-93.612	-0.187	0.052
-470.216	-97.265	-0.301	0.078
-469.201	97.704	-0.157	0.181
-468.186	723.849	-0.060	0.159
-467.172	-73.716	-0.150	-0.054
-466.157	-200.000	0.034	-0.362
-465.143	800.000	-0.082	0.246
-464.128	-106.504	-0.303	0.068
-463.113	105.887	-0.130	0.154
-462.099	406.481	0.054	0.114
-461.084	75.038	0.224	0.236
-460.070	-200.000	0.005	0.092
-459.055	800.000	-0.033	-0.118
-458.040	-126.632	-0.311	0.046
-457.026	609.460	-0.093	0.233
-456.011	-36.945	0.201	-0.108
-454.997	800.000	-0.064	-0.279
-453.982	-17.317	0.233	-0.147
-452.968	-177.569	-0.074	0.002
-451.953	27.631	-0.149	0.125
-450.938	514.535	-0.140	0.327
-449.924	-32.033	0.123	-0.069
-448.909	-200.000	-0.004	0.150
-447.895	-42.422	-0.273	-0.139
-446.880	-25.645	-0.097	0.057
-445.865	4.750	0.048	-0.035
-444.851	0.512	-0.233	0.167
-443.836	92.740	-0.157	-0.177
-442.822	283.189	-0.067	-0.120
-441.807	-50.695	-0.493	-0.232
-440.792	-7.798	0.121	0.082
-439.778	14.680	0.176	-0.137
-438.763	-71.217	-0.114	-0.043
-437.749	225.787	-0.165	0.268
-436.734	16.212	-0.055	-0.043
-435.719	-86.314	0.295	-0.091
-434.705	10.791	0.195	0.148
-433.690	403.155	-0.143	0.301
-432.676	-184.254	0.444	0.007
-431.661	-16.395	-0.319	0.202
-430.646	-46.812	-0.170	0.083
-429.632	12.960	-0.351	-0.271
-428.617	800.000	-0.051	0.199
-427.603	-157.579	0.271	-0.016
-426.588	-149.481	0.321	-0.025
-425.573	154.297	0.103	0.141
-424.559	45.318	-0.271	-0.250
-423.544	-96.861	0.293	-0.077
-422.530	1.710	-0.136	-0.098
-421.515	-47.944	-0.121	0.059
-420.500	30.582	0.050	0.043
-419.486	33.252	-0.269	-0.232
-418.471	-200.000	-0.025	0.219
-417.457	-98.454	-0.559	0.143
-416.442	23.001	0.091	0.074
-415.428	62.443	-0.175	-0.175
-414.413	18.164	-0.099	-0.079
-413.398	-57.879	-0.082	-0.036
-412.384	800.000	-0.039	0.142
-411.369	314.244	0.033	-0.062
-410.355	-49.930	0.092	0.043
-409.340	-200.000	0.084	-0.471
-408.325	-200.000	0.030	0.326
-407.311	3.370	0.309	-0.225
-406.296	72.952	0.233	-0.243
-405.282	-56.160	0.145	-0.064
-404.267	800.000	-0.069	0.263
-403.252	201.937	0.121	0.186
-402.238	-98.994	-0.193	-0.049
-401.223	-96.070	0.198	-0.053
-400.209	-151.391	0.360	-0.027
-399.194	132.037	0.059	0.076
-398.179	17.093	-0.083	0.065
-397.165	207.096	-0.009	-0.014
-396.150	-13.717	-0.116	0.075
-395.136	-106.854	-0.400	-0.088
-394.121	277.350	-0.157	-0.278
-393.106	-41.650	0.182	-0.093
-392.092	800.000	0.093	0.286
-391.077	-65.507	0.242	0.097
-390.063	90.763	-0.142	0.159
-389.048	726.752	0.074	0.197
-388.033	152.877	0.222	-0.303
-387.019	-200.000	-0.020	-0.139
-386.004	2.570	0.209	-0.150
-384.990	530.816	0.155	-0.365
-383.975	46.851	-0.301	-0.279
-382.960	-103.506	0.349	0.082
-381.946	30.773	-0.146	-0.124
-380.931	-200.000	-0.005	0.210
-379.917	-86.123	0.124	0.038
-378.902	51.818	-0.172	-0.163
-377.888	165.949	-0.163	-0.230
-376.873	-200.000	0.014	-0.302
-375.858	800.000	0.107	0.351
-374.844	153.731	-0.071	-0.098
-373.829	-200.000	-0.020	0.144
-372.815	-145.018	0.340	0.031
-371.800	800.000	0.066	0.210
-370.785	-169.100	-0.196	-0.007
-369.771	-31.676	-0.188	-0.105
-368.756	269.782	0.164	0.287
-367.742	-200.000	0.015	0.228
-366.727	-47.159	0.130	-0.063
-365.712	-83.154	0.207	0.066
-364.698	-152.626	0.186	0.013
-363.683	800.000	0.065	0.257
-362.669	6.956	-0.153	0.113
-361.654	800.000	-0.033	-0.140
-360.639	327.766	0.045	-0.085
-359.625	-200.000	0.022	-0.125
-358.610	-200.000	0.036	-0.210
-357.596	78.450	-0.025	0.027
-356.581	-103.110	-0.161	-0.038
-355.566	-200.000	-0.022	-0.127
-354.552	-89.415	-0.140	-0.041
-353.537	-200.000	-0.021	-0.140
-352.523	300.868	0.074	-0.135
-351.508	289.353	-0.081	0.146
-350.493	800.000	-0.127	-0.394
-349.479	-200.000	-0.056	0.345
-348.464	305.735	-0.037	-0.069
-347.450	-163.132	0.369	0.018
-346.435	-111.310	0.240	-0.049
-345.420	-197.129	0.135	-0.001
-344.406	-68.198	-0.109	0.042
-343.391	249.813	0.193	0.326
-342.377	-200.000	0.018	0.332
-341.362	177.090	-0.176	0.255
-340.348	-200.000	0.009	0.179
-339.333	53.483	-0.182	-0.173
-338.318	-149.883	0.048	-0.004
-337.304	89.923	-0.134	0.149
-336.289	-99.276	-0.155	-0.039
-335.275	36.627	-0.226	-0.198
-334.260	-145.277	0.125	-0.011
-333.245	800.000	0.088	-0.275
-332.231	-51.418	0.195	-0.091
-331.216	-108.613	-0.218	-0.046
-330.202	800.000	0.023	0.082
-329.187	-4.012	-0.158	0.109
-328.172	-109.177	0.224	0.047
-327.158	-4.018	0.063	0.043
-326.143	294.042	0.073	-0.133
-325.129	-99.130	-0.190	-0.048
-324.114	800.000	0.065	-0.248
-323.099	141.930	-0.178	-0.235
-322.085	-200.000	0.028	0.140
-321.070	546.289	0.028	0.067
-320.056	630.812	-0.084	-0.212
-319.041	119.738	-0.107	0.132
-318.026	230.651	0.113	-0.183
-317.012	61.154	-0.308	-0.304
-315.997	138.974	-0.240	-0.313
-314.983	-88.774	0.157	0.046
-313.968	5.134	-0.163	0.119
-312.953	-82.909	-0.271	0.087
-311.939	133.793	0.131	0.169
-310.924	-200.000	-0.026	0.129
-309.910	106.523	0.092	-0.109
-308.895	-66.231	0.255	0.101
-307.880	71.730	0.182	0.188
-306.866	7.222	0.140	-0.104
-305.851	-200.000	0.004	0.346
-304.837	-37.763	0.223	0.118
-303.822	224.948	-0.132	-0.213
-302.807	-68.926	-0.079	0.030
-301.793	32.570	-0.227	0.195
-300.778	-86.255	-0.127	0.039
-299.764	-200.000	-0.038	-0.301
-298.749	-75.480	-0.407	-0.144
-297.735	-200.000	0.008	-0.128
-296.720	-184.380	0.367	0.006
-295.705	-144.581	0.432	-0.040
-294.691	200.126	-0.083	0.126
-293.676	-72.946	0.278	-0.101
-292.662	483.202	0.031	-0.070
-291.647	40.611	-0.231	-0.207
-290.632	424.353	-0.118	0.252
-289.618	-141.307	0.115	-0.012
-288.603	800.000	0.075	0.237
-287.589	-200.000	-0.019	0.408
-286.574	252.716	0.112	-0.190
-285.559	-54.646	-0.140	-0.063
-284.545	495.023	0.061	0.138
-283.530	72.111	-0.074	-0.077
-282.516	24.674	-0.244	-0.201
-281.501	-200.000	-0.059	0.360
-280.486	240.446	-0.054	-0.089
-279.472	-117.521	-0.615	0.110
-278.457	-22.727	-0.047	-0.028
-277.443	-80.466	-0.443	-0.147
-276.428	7.014	0.116	0.086
-275.413	-200.000	0.033	0.182
-274.399	578.758	0.141	0.341
-273.384	-200.000	0.013	-0.319
-272.370	212.412	-0.206	0.321
-271.355	168.167	0.248	0.351
-270.340	-122.892	0.217	0.035
-269.326	229.184	0.064	0.103
-268.311	-200.000	-0.012	0.434
-267.297	-8.798	0.223	0.148
-266.282	800.000	0.032	-0.131
-265.267	393.630	0.060	0.124
-264.253	-46.995	-0.337	-0.163
-263.238	481.332	-0.017	0.039
-262.224	196.310	-0.150	0.226
-261.209	339.692	0.029	-0.056
-260.195	12.179	0.208	-0.159
-259.180	800.000	0.058	-0.240
-258.165	665.248	-0.123	-0.314
-257.151	15.515	-0.150	0.117
-256.136	-116.340	-0.200	-0.037
-255.122	-65.395	0.199	0.079
-254.107	386.876	0.062	0.128
-253.092	-89.187	-0.285	-0.083
-252.078	-114.336	-0.014	0.003
-251.063	800.000	0.030	-0.098
-250.049	-200.000	0.013	-0.108
-249.034	-200.000	0.005	-0.021
-248.019	252.524	-0.063	0.106
-247.005	784.422	-0.048	0.131
-245.990	-200.000	0.011	-0.389
-244.976	-45.778	0.211	-0.103
-243.961	-86.517	0.134	-0.041
-242.946	314.093	0.211	0.393
-241.932	130.053	0.102	-0.129
-240.917	235.164	-0.056	-0.091
-239.903	-50.707	0.281	0.131
-238.888	75.882	0.199	-0.208
-237.873	9.508	0.115	0.086
-236.859	-129.169	0.060	-0.008
-235.844	754.240	0.069	0.184
-234.830	-140.515	0.121	0.012
-233.815	-84.707	0.355	0.111
-232.800	-200.000	0.051	0.347
-231.786	-38.887	0.236	-0.123
-230.771	-196.865	-0.273	-0.002
-229.757	191.120	-0.063	-0.094
-228.742	345.218	0.035	-0.069
-227.727	-79.878	-0.081	0.027
-226.713	67.485	-0.202	0.204
-225.698	-200.000	0.011	0.171
-224.684	800.000	-0.087	0.275
-223.669	-87.636	0.041	-0.012
-222.655	-115.767	0.143	-0.027
-221.640	75.412	0.302	0.315
-220.625	19.514	0.168	-0.134
-219.611	212.239	0.163	0.255
-218.596	-77.213	0.175	0.060
-217.582	-200.000	-0.003	-0.035
-216.567	140.771	-0.099	0.130
-215.552	-200.000	0.028	0.276
-214.538	-51.298	-0.146	0.067
-213.523	629.618	-0.109	0.272
-212.509	284.077	0.158	0.280
-211.494	221.980	0.145	-0.231
-210.479	377.929	0.140	-0.284
-209.465	44.704	0.158	-0.144
-208.450	800.000	-0.044	-0.192
-207.436	300.924	-0.065	-0.119
-206.421	630.855	0.044	-0.110
-205.406	155.008	-0.065	0.088
-204.392	-165.753	0.237	0.010
-203.377	28.890	-0.076	0.064
-202.363	-200.000	0.012	-0.056
-201.348	-83.666	0.188	-0.059
-200.333	-2.590	0.222	0.154
-199.319	-200.000	-0.038	0.267
-198.304	113.675	-0.229	-0.275
-197.290	-64.363	-0.204	0.082
-196.275	158.152	-0.150	-0.206
-195.260	131.689	-0.026	-0.033
-194.246	220.995	-0.156	0.247
-193.231	-200.000	0.002	-0.200
-192.217	800.000	0.142	0.392
-191.202	-135.852	0.090	-0.011
-190.187	-200.000	0.042	-0.240
-189.173	357.038	0.108	0.212
-188.158	-106.103	0.094	-0.021
-187.144	104.262	0.225	-0.262
-186.129	-39.010	0.295	-0.153
-185.114	-200.000	0.043	-0.301
-184.100	-200.000	0.008	0.185
-183.085	-32.525	0.196	0.108
-182.071	-17.233	-0.150	0.094
-181.056	6.246	-0.113	0.083
-180.042	800.000	-0.082	0.271
-179.027	-200.000	-0.002	0.043
-178.012	177.940	0.217	-0.312
-176.998	241.880	0.087	-0.143
-175.983	800.000	0.048	-0.134
-174.969	456.800	-0.096	-0.210
-173.954	-148.000	0.186	-0.015
-172.939	156.823	-0.150	0.204
-171.925	-37.853	0.115	-0.060
-170.910	229.604	-0.094	-0.152
-169.896	-200.000	0.044	0.212
-168.881	-18.309	-0.006	-0.004
-167.866	146.772	-0.075	0.100
-166.852	-200.000	0.035	-0.285
-165.837	-111.873	0.184	-0.037
-164.823	-133.630	0.343	0.042
-163.808	-200.000	0.042	-0.198
-162.793	800.000	-0.029	0.116
-161.779	-200.000	-0.013	-0.119
-160.764	238.877	-0.043	-0.070
-159.750	-200.000	0.025	0.250
-158.735	114.590	0.235	0.283
-157.720	-13.429	-0.180	-0.115
-156.706	249.165	0.088	-0.147
-155.691	-200.000	-0.012	0.121
-154.677	-160.321	0.084	0.004
-153.662	800.000	-0.143	-0.398
-152.647	178.938	-0.239	0.345
-151.633	-200.000	-0.002	0.218
-150.618	-9.494	-0.265	0.174
-149.604	191.487	0.333	0.495
-148.589	-42.717	-0.152	-0.076
-147.574	-15.756	-0.253	-0.159
-146.560	39.482	0.028	-0.025
-145.545	7.298	-0.086	0.063
-144.531	144.400	-0.198	0.260
-143.516	-200.000	0.046	0.199
-142.502	51.223	0.132	0.123
-141.487	56.308	0.430	0.413
-140.472	53.974	0.082	0.078
-139.458	41.315	-0.058	0.052
-138.443	-100.710	0.087	0.021
-137.429	-200.000	-0.041	-0.251
-136.414	-169.821	0.225	-0.008
-135.399	800.000	0.004	-0.011
-134.385	137.531	-0.012	0.015
-133.370	-200.000	-0.012	-0.053
-132.356	248.468	-0.027	-0.045
-131.341	-52.949	-0.100	0.046
-130.326	-200.000	-0.004	0.082
-129.312	-45.811	-0.251	0.122
-128.297	64.998	0.222	-0.222
-127.283	-50.325	0.147	0.069
-126.268	-60.540	0.262	-0.110
-125.253	74.686	0.116	-0.121
-124.239	-109.402	-0.183	-0.038
-123.224	172.717	-0.033	0.048
-122.210	-40.855	-0.224	0.114
-121.195	-200.000	0.035	-0.170
