DTS Sentinel unit serial number:	SN413079Multiplexer serial number:	ORYXHardware model number:	OX4-SRSoftware version number:	ORYX F/W v4.00 Oryx Data Collector v3.7.2.0data status	okinstallation	princeton_trtdifferential loss correction	single-endedforward channel	channel 3reverse channel	N/Adate	2019/09/18time	03:48:34forward acquisition time	60.00reverse acquisition time	0.00gamma	496.2192k internal	0.2343k external	0.2343temperature offset calibration	0.9946default loss term (dB/km)	0.3790temperature slope calibration	1.0000multiplexer offset coefficient	1.0000multiplexer slope coefficient	1.0000fibre end	0.00T internal ref (°C)	23.00T ext. ref 1 (°C)	0.17T ext. ref 2 (°C)	18.09length (m)	temperature (°C)	Stokes	anti-Stokes-747.200	-56.033	0.239	0.107
-746.185	-153.895	-0.171	-0.012
-745.171	124.718	0.205	0.259
-744.156	-11.924	0.035	0.023
-743.142	800.000	0.096	0.292
-742.127	-172.712	-0.306	-0.010
-741.112	-149.804	0.342	-0.027
-740.098	800.000	0.045	0.154
-739.083	-63.972	0.156	-0.064
-738.069	-155.901	-0.349	-0.022
-737.054	-84.703	-0.247	0.078
-736.039	-150.808	-0.496	0.038
-735.025	-200.000	0.018	0.191
-734.010	800.000	0.061	-0.244
-732.996	-106.591	-0.470	0.105
-731.981	-200.000	-0.057	0.289
-730.966	-94.284	0.086	0.023
-729.952	67.762	-0.331	0.339
-728.937	-200.000	0.000	-0.023
-727.923	80.948	-0.269	-0.290
-726.908	86.633	-0.037	0.040
-725.894	167.483	0.209	-0.297
-724.879	88.292	0.082	-0.091
-723.864	28.998	0.112	-0.095
-722.850	294.411	-0.135	-0.247
-721.835	139.295	0.189	0.249
-720.821	-200.000	0.062	-0.320
-719.806	-142.709	0.073	-0.007
-718.791	-158.996	-0.322	-0.018
-717.777	800.000	-0.022	0.086
-716.762	614.466	-0.061	0.153
-715.748	169.983	-0.087	-0.124
-714.733	780.834	-0.080	0.220
-713.718	-107.793	-0.124	0.027
-712.704	-164.982	-0.323	-0.014
-711.689	230.200	0.270	-0.442
-710.675	-11.536	0.207	-0.136
-709.660	338.411	0.074	0.144
-708.645	289.116	-0.065	0.117
-707.631	22.252	-0.120	-0.098
-706.616	752.315	-0.192	-0.518
-705.602	-200.000	-0.014	0.168
-704.587	197.959	-0.254	-0.388
-703.572	800.000	0.055	-0.169
-702.558	-49.763	0.088	-0.042
-701.543	5.265	-0.074	0.055
-700.529	-200.000	-0.037	-0.276
-699.514	-98.385	-0.458	0.117
-698.499	-95.277	-0.082	0.022
-697.485	54.028	0.079	0.076
-696.470	-98.135	0.343	0.088
-695.456	-71.356	-0.115	0.043
-694.441	-52.299	0.269	0.125
-693.426	-46.139	-0.221	-0.109
-692.412	800.000	0.033	-0.128
-691.397	-200.000	-0.027	-0.151
-690.383	-162.628	0.317	-0.016
-689.368	-111.228	-0.110	0.023
-688.354	-200.000	0.022	0.135
-687.339	800.000	0.041	0.140
-686.324	192.012	0.077	-0.117
-685.310	-42.642	-0.239	-0.121
-684.295	-167.961	0.027	-0.001
-683.281	-23.540	-0.356	-0.214
-682.266	410.184	-0.085	0.181
-681.251	44.478	-0.196	0.180
-680.237	-139.776	0.034	-0.004
-679.222	237.867	-0.217	-0.359
-678.208	117.687	-0.136	0.167
-677.193	20.777	-0.140	0.113
-676.178	-119.693	0.094	0.016
-675.164	-65.981	0.371	-0.148
-674.149	-108.032	0.237	0.051
-673.135	742.910	-0.052	-0.139
-672.120	630.713	-0.120	-0.304
-671.105	-200.000	-0.061	0.404
-670.091	122.149	0.115	0.144
-669.076	-26.924	-0.245	0.143
-668.062	-76.578	0.476	0.167
-667.047	-200.000	-0.020	0.095
-666.032	5.854	0.135	-0.100
-665.018	800.000	0.069	-0.297
-664.003	-200.000	-0.017	0.184
-662.989	-200.000	0.042	-0.276
-661.974	36.264	-0.264	-0.232
-660.959	800.000	-0.091	-0.376
-659.945	665.607	0.063	-0.162
-658.930	-88.207	0.182	-0.054
-657.916	10.913	0.142	-0.108
-656.901	-200.000	0.066	-0.542
-655.886	-200.000	-0.025	0.141
-654.872	-127.560	-0.140	-0.020
-653.857	46.835	-0.131	-0.121
-652.843	-45.552	0.345	-0.171
-651.828	-154.107	0.213	-0.014
-650.814	-88.799	-0.164	0.049
-649.799	783.481	0.015	0.042
-648.784	-169.206	0.232	-0.009
-647.770	-33.558	-0.285	-0.157
-646.755	571.638	-0.045	0.108
-645.741	-200.000	-0.008	-0.173
-644.726	28.975	-0.069	-0.058
-643.711	-82.263	-0.212	-0.069
-642.697	269.032	-0.190	0.333
-641.682	-98.234	-0.191	-0.049
-640.668	215.881	-0.086	0.136
-639.653	394.640	-0.073	0.151
-638.638	-79.397	-0.130	0.044
-637.624	-31.060	-0.072	0.040
-636.609	-123.532	-0.195	-0.031
-635.595	-31.027	0.241	0.136
-634.580	379.835	-0.093	0.190
-633.565	43.919	0.078	-0.072
-632.551	140.443	0.097	-0.127
-631.536	800.000	-0.054	-0.218
-630.522	-27.168	-0.248	-0.144
-629.507	-200.000	-0.006	0.321
-628.492	-46.770	-0.291	-0.142
-627.478	-144.516	0.207	0.019
-626.463	-44.371	-0.226	-0.113
-625.449	-116.607	-0.101	-0.019
-624.434	-72.901	0.097	-0.036
-623.419	177.814	-0.170	-0.246
-622.405	-120.759	-0.131	-0.022
-621.390	348.490	0.118	-0.233
-620.376	394.400	-0.123	0.255
-619.361	144.771	-0.171	-0.228
-618.346	-14.828	0.128	0.082
-617.332	137.374	0.244	0.318
-616.317	-197.108	0.203	-0.001
-615.303	-200.000	-0.010	0.168
-614.288	246.072	-0.058	-0.098
-613.273	18.229	-0.213	0.169
-612.259	800.000	0.068	-0.252
-611.244	-134.142	-0.223	-0.027
-610.230	-200.000	0.019	-0.164
-609.215	18.040	0.143	-0.114
-608.201	-200.000	-0.044	0.232
-607.186	-200.000	0.022	-0.142
-606.171	-27.252	0.171	0.099
-605.157	-79.889	-0.180	-0.060
-604.142	-200.000	0.011	0.235
-603.128	-200.000	-0.000	0.087
-602.113	-113.520	-0.312	0.061
-601.098	-200.000	0.081	0.359
-600.084	-55.687	0.377	-0.168
-599.069	107.250	0.175	-0.208
-598.055	-200.000	0.027	-0.189
-597.040	80.324	0.065	-0.069
-596.025	4.553	0.235	-0.172
-595.011	189.186	-0.155	-0.232
-593.996	-4.875	-0.060	0.041
-592.982	-40.617	-0.101	-0.052
-591.967	-180.758	0.214	0.004
-590.952	37.451	-0.280	0.247
-589.938	-122.070	-0.049	-0.008
-588.923	28.244	0.307	-0.258
-587.909	-200.000	0.016	0.167
-586.894	-99.223	0.238	0.060
-585.879	800.000	0.057	0.186
-584.865	-200.000	-0.011	0.120
-583.850	800.000	-0.055	0.202
-582.836	-3.380	-0.240	0.166
-581.821	-200.000	-0.103	-0.517
-580.806	339.793	0.133	-0.258
-579.792	800.000	-0.031	0.123
-578.777	-137.063	-0.338	0.038
-577.763	-99.850	0.186	-0.046
-576.748	431.949	-0.080	-0.173
-575.733	11.924	-0.143	-0.109
-574.719	63.741	0.134	-0.134
-573.704	-103.609	0.135	-0.031
-572.690	87.859	-0.065	0.071
-571.675	-4.126	0.309	0.213
-570.661	-167.325	-0.138	-0.006
-569.646	461.767	0.169	0.374
-568.631	219.102	0.090	0.143
-567.617	388.600	0.142	0.293
-566.602	-150.875	-0.148	-0.011
-565.588	96.290	-0.228	-0.259
-564.573	143.189	-0.034	0.045
-563.558	-62.964	-0.302	0.124
-562.544	-2.172	-0.101	0.071
-561.529	-200.000	-0.005	0.158
-560.515	653.547	0.043	-0.110
-559.500	203.344	-0.074	0.114
-558.485	65.544	0.122	-0.123
-557.471	22.498	0.207	0.168
-556.456	532.707	0.097	-0.228
-555.442	339.818	0.054	-0.104
-554.427	229.003	-0.078	-0.126
-553.412	177.903	-0.104	-0.150
-552.398	9.905	-0.309	0.233
-551.383	800.000	-0.031	-0.126
-550.369	63.553	0.041	-0.041
-549.354	-200.000	-0.029	0.274
-548.339	-200.000	0.014	-0.212
-547.325	800.000	-0.107	-0.345
-546.310	48.151	-0.182	-0.170
-545.296	125.212	-0.092	0.116
-544.281	800.000	0.045	-0.174
-543.266	18.249	0.202	0.160
-542.252	-200.000	-0.044	0.426
-541.237	-7.022	-0.265	-0.179
-540.223	-200.000	0.035	0.234
-539.208	-8.248	-0.030	-0.020
-538.193	11.019	0.076	0.058
-537.179	-21.309	0.217	0.132
-536.164	-153.015	0.200	-0.014
-535.150	-200.000	0.011	0.144
-534.135	191.898	0.084	-0.126
-533.121	-200.000	0.058	-0.328
-532.106	800.000	-0.130	0.382
-531.091	28.533	0.173	0.145
-530.077	-200.000	0.010	-0.209
-529.062	295.969	0.116	0.210
-528.048	-200.000	0.023	0.175
-527.033	-140.647	0.076	-0.008
-526.018	496.263	-0.010	0.023
-525.004	-65.971	-0.305	-0.121
-523.989	800.000	0.063	0.227
-522.975	272.530	0.110	0.193
-521.960	-131.126	-0.139	0.018
-520.945	34.279	-0.406	-0.352
-519.931	-111.785	-0.226	-0.045
-518.916	-97.829	0.164	0.042
-517.902	-26.198	-0.191	0.112
-516.887	35.500	-0.115	0.100
-515.872	28.829	0.170	-0.143
-514.858	150.497	-0.200	0.269
-513.843	-45.589	0.394	-0.194
-512.829	-200.000	-0.011	-0.102
-511.814	237.020	-0.122	-0.201
-510.799	800.000	-0.062	-0.245
-509.785	40.651	0.121	0.108
-508.770	-13.066	-0.358	0.231
-507.756	500.766	0.068	-0.156
-506.741	-200.000	-0.001	-0.075
-505.726	800.000	0.143	-0.443
-504.712	-130.617	-0.108	-0.014
-503.697	311.221	0.103	0.192
-502.683	-182.976	-0.220	0.004
-501.668	557.764	0.057	-0.136
-500.653	-200.000	0.017	-0.261
-499.639	230.426	0.091	0.148
-498.624	113.552	0.100	-0.120
-497.610	58.728	0.162	0.157
-496.595	477.207	0.047	-0.105
-495.581	400.779	0.129	0.268
-494.566	112.291	-0.189	-0.227
-493.551	56.776	-0.224	-0.216
-492.537	176.260	0.219	-0.315
-491.522	-18.944	-0.347	-0.214
-490.508	92.182	0.221	0.247
-489.493	53.084	0.289	0.274
-488.478	800.000	-0.066	0.233
-487.464	366.149	-0.058	0.116
-486.449	74.200	-0.166	-0.172
-485.435	-200.000	0.015	-0.097
-484.420	535.894	-0.073	0.172
-483.405	43.404	-0.196	0.177
-482.391	-149.604	0.253	0.020
-481.376	-108.863	0.081	0.017
-480.362	-61.028	0.147	0.062
-479.347	203.697	-0.033	-0.050
-478.332	800.000	-0.037	-0.142
-477.318	-150.394	-0.118	0.009
-476.303	-110.597	-0.293	0.060
-475.289	-12.784	0.052	-0.034
-474.274	-120.189	-0.356	-0.060
-473.259	327.079	0.203	-0.385
-472.245	257.530	0.186	-0.317
-471.230	783.585	-0.035	0.094
-470.216	136.728	0.212	0.274
-469.201	-200.000	0.008	0.073
-468.186	187.881	0.074	-0.109
-467.172	41.595	0.315	-0.283
-466.157	-12.103	-0.158	-0.102
-465.143	-81.053	0.183	-0.060
-464.128	45.832	0.101	-0.093
-463.113	-127.290	0.419	-0.061
-462.099	103.242	0.029	0.033
-461.084	267.658	0.164	0.284
-460.070	-200.000	-0.019	0.230
-459.055	-200.000	0.021	0.230
-458.040	205.529	0.102	0.158
-457.026	800.000	-0.058	-0.161
-456.011	-124.375	-0.339	0.052
-454.997	-128.309	0.261	0.037
-453.982	-61.552	0.311	0.129
-452.968	116.927	0.219	-0.266
-451.953	-115.913	-0.329	0.061
-450.938	-53.617	-0.166	0.075
-449.924	-98.009	0.231	-0.059
-448.909	-57.946	-0.618	-0.267
-447.895	800.000	-0.018	-0.056
-446.880	111.731	-0.250	0.298
-445.865	-164.399	-0.140	-0.006
-444.851	-48.605	0.013	0.006
-443.836	800.000	-0.033	0.115
-442.822	289.419	-0.067	-0.121
-441.807	20.312	0.055	-0.044
-440.792	-12.596	-0.129	0.083
-439.778	-170.609	-0.260	0.009
-438.763	800.000	-0.117	-0.390
-437.749	72.302	-0.196	-0.202
-436.734	788.324	-0.033	-0.090
-435.719	229.134	-0.041	-0.067
-434.705	72.179	0.079	0.081
-433.690	-61.473	0.069	-0.029
-432.676	-200.000	-0.039	0.300
-431.661	304.234	-0.032	-0.058
-430.646	-48.148	0.337	-0.161
-429.632	-4.614	0.224	0.153
-428.617	-155.032	-0.082	0.005
-427.603	-0.240	0.291	-0.205
-426.588	146.911	-0.087	-0.116
-425.573	-200.000	-0.021	-0.265
-424.559	-171.608	-0.128	-0.004
-423.544	-97.574	-0.172	0.044
-422.530	421.246	-0.114	-0.243
-421.515	218.444	0.050	0.079
-420.500	-200.000	0.005	-0.073
-419.486	143.796	0.236	0.311
-418.471	-200.000	0.047	0.328
-417.457	-161.354	-0.057	-0.003
-416.442	8.325	-0.294	-0.218
-415.428	-39.548	-0.311	-0.161
-414.413	-11.470	0.344	0.224
-413.398	26.019	-0.130	-0.107
-412.384	800.000	-0.138	-0.542
-411.369	-200.000	0.025	0.277
-410.355	-10.787	0.257	0.168
-409.340	167.092	-0.073	0.102
-408.325	-50.584	0.008	-0.004
-407.311	49.051	0.104	-0.096
-406.296	-55.050	0.174	0.078
-405.282	-119.417	-0.171	-0.029
-404.267	-61.698	0.225	-0.093
-403.252	-200.000	-0.003	0.082
-402.238	-50.202	-0.122	0.057
-401.223	392.744	-0.022	0.046
-400.209	292.805	-0.052	-0.093
-399.194	47.586	-0.135	-0.124
-398.179	-41.335	0.251	-0.128
-397.165	35.048	0.118	0.103
-396.150	-51.590	-0.537	-0.248
-395.136	52.779	0.408	-0.385
-394.121	-46.727	-0.257	-0.124
-393.106	800.000	0.074	-0.255
-392.092	-14.757	-0.146	-0.093
-391.077	800.000	0.038	-0.120
-390.063	9.955	-0.359	0.269
-389.048	-67.071	0.182	0.071
-388.033	370.107	0.112	-0.225
-387.019	-200.000	-0.014	0.146
-386.004	453.319	-0.180	0.393
-384.990	-200.000	-0.015	-0.216
-383.975	-200.000	0.004	-0.133
-382.960	297.404	-0.077	-0.140
-381.946	-101.501	-0.094	0.023
-380.931	-10.973	-0.067	0.044
-379.917	800.000	0.029	-0.111
-378.902	-112.309	-0.290	0.057
-377.888	95.206	-0.231	-0.260
-376.873	-200.000	0.013	-0.207
-375.858	-184.560	0.296	0.005
-374.844	-200.000	0.015	-0.117
-373.829	-63.958	0.113	-0.046
-372.815	-200.000	0.033	-0.280
-371.800	-200.000	0.001	0.069
-370.785	-46.474	0.258	-0.125
-369.771	545.817	-0.016	0.039
-368.756	-200.000	0.024	-0.404
-367.742	60.375	-0.082	-0.080
-366.727	-47.719	-0.081	0.039
-365.712	-200.000	0.031	0.196
-364.698	262.670	-0.151	-0.258
-363.683	-29.149	0.152	0.086
-362.669	800.000	0.065	0.231
-361.654	318.521	0.126	0.236
-360.639	-2.151	-0.136	-0.094
-359.625	-157.979	-0.136	-0.008
-358.610	-53.656	-0.043	0.019
-357.596	800.000	0.025	-0.082
-356.581	-105.476	-0.132	-0.029
-355.566	508.806	0.030	-0.068
-354.552	4.746	0.213	-0.155
-353.537	-153.966	-0.247	0.017
-352.523	409.617	0.146	-0.305
-351.508	800.000	0.051	-0.217
-350.493	-200.000	-0.036	0.202
-349.479	-200.000	0.006	0.200
-348.464	-200.000	0.059	0.307
-347.450	800.000	0.116	0.395
-346.435	141.347	0.174	0.227
-345.420	87.340	-0.170	0.185
-344.406	-200.000	-0.054	0.303
-343.391	-17.492	0.207	0.129
-342.377	-152.579	0.106	0.007
-341.362	495.104	0.050	-0.114
-340.348	800.000	-0.064	0.236
-339.333	-200.000	0.014	-0.068
-338.318	-200.000	-0.083	0.480
-337.304	-200.000	0.013	-0.059
-336.289	-142.019	0.284	-0.028
-335.275	-47.564	-0.168	0.080
-334.260	624.665	-0.184	-0.458
-333.245	-200.000	-0.012	-0.381
-332.231	-200.000	-0.008	0.133
-331.216	135.099	0.181	-0.232
-330.202	-200.000	-0.015	0.113
-329.187	-200.000	0.008	0.251
-328.172	199.762	0.143	-0.216
-327.158	-127.119	0.015	0.002
-326.143	266.714	0.046	0.079
-325.129	108.217	0.217	-0.255
-324.114	-200.000	0.022	-0.128
-323.099	800.000	0.041	0.152
-322.085	800.000	-0.030	-0.092
-321.070	281.963	-0.086	-0.152
-320.056	800.000	-0.064	-0.207
-319.041	-108.313	0.310	-0.066
-318.026	164.294	-0.127	0.176
-317.012	-200.000	0.004	0.168
-315.997	-200.000	0.037	0.263
-314.983	-200.000	0.007	-0.198
-313.968	173.748	0.207	-0.294
-312.953	346.187	-0.043	0.083
-311.939	102.462	0.140	0.161
-310.924	84.955	-0.200	0.216
-309.910	-71.628	0.326	0.120
-308.895	21.074	0.278	0.222
-307.880	-200.000	-0.013	0.139
-306.866	800.000	0.032	0.098
-305.851	277.324	-0.068	0.120
-304.837	64.529	0.126	-0.125
-303.822	44.933	0.161	0.146
-302.807	-200.000	-0.001	0.206
-301.793	800.000	0.085	0.274
-300.778	87.875	-0.164	0.179
-299.764	-92.322	-0.141	0.039
-298.749	-53.517	0.187	-0.084
-297.735	74.503	-0.140	-0.145
-296.720	46.142	0.324	-0.295
-295.705	-200.000	0.011	-0.206
-294.691	-200.000	0.016	0.144
-293.676	-200.000	0.031	-0.249
-292.662	-165.252	-0.235	0.010
-291.647	-200.000	0.021	0.340
-290.632	646.386	-0.096	-0.240
-289.618	-10.016	0.260	0.170
-288.603	81.142	-0.284	-0.301
-287.589	528.742	0.118	-0.273
-286.574	80.400	0.126	0.133
-285.559	6.249	-0.190	0.138
-284.545	-136.163	0.179	0.021
-283.530	-200.000	0.003	-0.037
-282.516	-200.000	0.010	0.219
-281.501	286.349	0.086	0.153
-280.486	-200.000	-0.007	-0.078
-279.472	-62.884	0.270	0.110
-278.457	102.716	-0.121	0.139
-277.443	-6.004	0.180	0.121
-276.428	-200.000	-0.033	0.163
-275.413	-171.383	-0.098	-0.003
-274.399	-5.681	0.151	0.102
-273.384	-200.000	-0.021	-0.213
-272.370	-26.315	-0.148	-0.085
-271.355	-157.033	-0.258	0.015
-270.340	-112.992	-0.307	-0.060
-269.326	79.577	0.063	0.066
-268.311	-36.768	0.309	0.163
-267.297	-107.063	0.280	0.061
-266.282	-44.444	0.050	-0.025
-265.267	68.588	0.125	-0.126
-264.253	800.000	-0.056	0.206
-263.238	-200.000	0.003	-0.203
-262.224	-200.000	-0.005	-0.179
-261.209	-111.908	-0.233	0.046
-260.195	339.014	-0.118	0.226
-259.180	-75.644	-0.076	-0.027
-258.165	-200.000	0.012	0.115
-257.151	-200.000	0.003	0.367
-256.136	-58.161	-0.202	0.086
-255.122	52.945	-0.177	0.166
-254.107	-200.000	0.117	0.630
-253.092	109.561	-0.156	0.184
-252.078	-124.946	-0.161	-0.024
-251.063	370.294	0.050	-0.099
-250.049	800.000	-0.060	-0.195
-249.034	605.537	0.042	0.103
-248.019	-200.000	-0.026	-0.123
-247.005	65.523	-0.147	0.146
-245.990	12.853	0.122	0.093
-244.976	-97.424	-0.094	-0.024
-243.961	-115.278	-0.234	-0.043
-242.946	-104.741	0.164	0.037
-241.932	-134.668	0.363	0.043
-240.917	98.081	0.093	0.105
-239.903	772.857	0.032	0.087
-238.888	540.274	-0.046	0.107
-237.873	-61.415	-0.231	-0.096
-236.859	-35.466	-0.302	-0.161
-235.844	88.708	-0.116	0.127
-234.830	64.555	0.067	0.066
-233.815	-11.700	0.216	-0.139
-232.800	-60.045	-0.227	-0.095
-231.786	-56.423	-0.318	0.138
-230.771	-75.587	-0.261	-0.091
-229.757	778.357	-0.073	-0.195
-228.742	225.457	-0.124	0.197
-227.727	-200.000	0.033	-0.192
-226.713	66.821	0.248	0.247
-225.698	-200.000	-0.012	0.469
-224.684	26.809	0.452	-0.372
-223.669	32.891	-0.084	-0.071
-222.655	800.000	0.081	0.315
-221.640	-200.000	-0.004	0.114
-220.625	28.273	-0.162	0.134
-219.611	-200.000	-0.057	0.258
-218.596	-63.662	-0.060	-0.024
-217.582	800.000	0.029	-0.108
-216.567	483.493	0.187	0.416
-215.552	-60.491	0.275	-0.115
-214.538	-30.746	-0.153	-0.085
-213.523	41.036	0.023	-0.020
-212.509	-200.000	0.006	-0.043
-211.494	87.118	-0.190	0.206
-210.479	-122.882	0.285	0.045
-209.465	-82.546	-0.300	-0.095
-208.450	-25.001	0.207	-0.121
-207.436	-52.917	0.175	-0.079
-206.421	141.502	-0.213	-0.276
-205.406	9.057	0.054	-0.040
-204.392	154.111	0.188	0.253
-203.377	800.000	-0.085	0.238
-202.363	283.974	0.182	0.322
-201.348	6.746	0.392	0.286
-200.333	-200.000	-0.091	-0.574
-199.319	-180.175	-0.260	-0.005
-198.304	196.676	0.100	-0.149
-197.290	93.810	0.221	-0.246
-196.275	128.047	-0.339	-0.422
-195.260	-9.426	-0.063	-0.041
-194.246	90.016	-0.244	-0.268
-193.231	-23.450	-0.193	0.114
-192.217	-80.220	0.288	0.095
-191.202	-19.002	0.081	0.050
-190.187	90.732	0.118	-0.129
-189.173	40.507	0.032	0.028
-188.158	-15.264	0.063	-0.039
-187.144	-200.000	0.002	0.211
-186.129	-200.000	-0.001	0.348
-185.114	-63.469	0.278	-0.112
-184.100	-71.354	0.169	-0.062
-183.085	353.375	-0.096	-0.187
-182.071	-50.863	0.355	0.164
-181.056	-104.050	0.138	-0.031
-180.042	88.626	-0.184	0.200
-179.027	358.532	0.068	0.132
-178.012	-200.000	0.035	-0.304
-176.998	-14.660	0.273	-0.172
-175.983	-77.674	-0.143	-0.049
-174.969	753.163	0.044	-0.116
-173.954	-200.000	-0.024	-0.165
-172.939	-1.498	0.136	-0.094
-171.925	-69.458	-0.176	-0.066
-170.910	0.210	-0.330	0.231
-169.896	-105.415	-0.099	-0.022
-168.881	-200.000	-0.010	-0.057
-167.866	748.053	0.042	-0.111
-166.852	-161.012	0.159	-0.008
-165.837	534.102	-0.072	-0.168
-164.823	-90.571	0.240	0.068
-163.808	-73.770	0.071	0.025
-162.793	-68.311	0.083	0.031
-161.779	800.000	-0.045	0.159
-160.764	21.594	0.110	0.088
-159.750	-0.191	-0.178	0.124
-158.735	-200.000	0.019	0.191
-157.720	-102.949	0.080	-0.019
-156.706	800.000	0.051	-0.209
-155.691	-156.995	-0.198	-0.012
-154.677	-15.157	0.126	-0.079
-153.662	-200.000	-0.055	-0.340
-152.647	-200.000	-0.169	0.000
-151.633	-180.206	0.467	-0.010
-150.618	13.114	-0.146	-0.111
-149.604	-200.000	-0.021	0.243
-148.589	24.697	-0.215	0.174
-147.574	-67.783	0.105	0.040
-146.560	338.841	0.144	0.274
-145.545	180.654	0.121	0.174
-144.531	-113.235	0.204	0.039
-143.516	86.385	-0.100	-0.108
-142.502	-94.360	0.242	0.065
-141.487	-49.598	0.309	0.144
-140.472	-34.264	0.042	0.023
-139.458	204.133	-0.022	0.033
-138.443	-200.000	0.031	0.210
-137.429	800.000	0.174	0.521
-136.414	-65.687	0.273	-0.107
-135.399	17.369	0.038	-0.029
-134.385	-142.260	-0.164	-0.016
-133.370	318.495	0.122	-0.227
-132.356	-71.740	0.284	0.103
-131.341	9.774	-0.083	0.062
-130.326	55.460	0.145	-0.138
-129.312	-37.930	0.241	0.125
-128.297	800.000	-0.086	-0.296
-127.283	-94.645	-0.381	0.101
-126.268	753.331	-0.069	-0.183
-125.253	6.980	-0.081	-0.059
-124.239	242.942	0.151	-0.247
-123.224	148.388	-0.109	0.144
-122.210	93.194	-0.110	-0.122
-121.195	189.814	-0.150	-0.220
