DTS Sentinel unit serial number:	SN413079Multiplexer serial number:	ORYXHardware model number:	OX4-SRSoftware version number:	ORYX F/W v4.00 Oryx Data Collector v3.7.2.0data status	okinstallation	princeton_trtdifferential loss correction	single-endedforward channel	channel 3reverse channel	N/Adate	2019/09/18time	23:16:34forward acquisition time	60.00reverse acquisition time	0.00gamma	496.2192k internal	0.2345k external	0.2345temperature offset calibration	0.9989default loss term (dB/km)	0.3790temperature slope calibration	1.0000multiplexer offset coefficient	1.0000multiplexer slope coefficient	1.0000fibre end	0.00T internal ref (°C)	23.87T ext. ref 1 (°C)	0.77T ext. ref 2 (°C)	17.21length (m)	temperature (°C)	Stokes	anti-Stokes-747.200	800.000	0.027	0.103
-746.185	-55.616	-0.127	-0.057
-745.171	-63.438	0.522	0.215
-744.156	-200.000	-0.071	0.339
-743.142	-54.079	-0.225	-0.103
-742.127	-178.435	-0.262	0.006
-741.112	-23.527	-0.199	-0.119
-740.098	-78.649	-0.276	-0.094
-739.083	-200.000	-0.001	0.031
-738.069	-31.902	-0.112	-0.063
-737.054	592.266	-0.123	0.303
-736.039	505.822	0.018	0.041
-735.025	-146.631	0.439	-0.038
-734.010	77.340	-0.057	-0.061
-732.996	130.099	-0.131	-0.167
-731.981	96.082	-0.223	0.255
-730.966	-200.000	-0.028	0.200
-729.952	24.424	-0.175	0.145
-728.937	-91.455	-0.197	0.056
-727.923	-200.000	-0.021	-0.112
-726.908	-28.646	-0.298	-0.172
-725.894	36.412	0.032	0.028
-724.879	-115.672	-0.154	0.029
-723.864	-200.000	0.009	-0.445
-722.850	101.787	-0.128	0.150
-721.835	-153.483	-0.165	-0.011
-720.821	508.003	-0.138	-0.319
-719.806	800.000	-0.011	0.036
-718.791	91.318	-0.104	0.117
-717.777	200.792	-0.070	-0.107
-716.762	119.986	-0.108	0.133
-715.748	800.000	-0.112	-0.328
-714.733	183.517	-0.133	-0.196
-713.718	800.000	0.075	-0.249
-712.704	-156.939	0.258	-0.016
-711.689	-135.653	-0.124	-0.015
-710.675	800.000	0.068	0.224
-709.660	-40.209	-0.077	0.040
-708.645	-200.000	0.014	-0.340
-707.631	-41.013	-0.273	0.141
-706.616	-200.000	-0.003	-0.365
-705.602	65.608	-0.313	-0.316
-704.587	-143.979	0.040	0.004
-703.572	800.000	-0.045	-0.160
-702.558	77.771	-0.180	-0.192
-701.543	-111.996	-0.069	0.014
-700.529	-165.999	0.259	-0.011
-699.514	-82.304	0.252	0.082
-698.499	779.944	0.159	0.434
-697.485	81.812	0.132	-0.143
-696.470	776.803	0.070	-0.192
-695.456	56.565	0.123	0.119
-694.441	-4.354	0.280	-0.194
-693.426	-200.000	-0.003	-0.199
-692.412	18.995	0.186	0.149
-691.397	195.884	-0.019	-0.029
-690.383	128.101	-0.234	-0.297
-689.368	-57.950	-0.169	0.074
-688.354	800.000	-0.026	-0.098
-687.339	72.408	-0.124	0.129
-686.324	-200.000	-0.020	-0.142
-685.310	-143.285	-0.285	0.027
-684.295	-120.285	0.175	-0.030
-683.281	289.196	0.035	0.062
-682.266	-97.088	-0.183	-0.048
-681.251	800.000	-0.077	0.262
-680.237	-107.928	-0.053	-0.012
-679.222	-200.000	0.023	0.165
-678.208	781.476	-0.209	0.571
-677.193	80.019	-0.112	0.120
-676.178	800.000	0.043	-0.131
-675.164	17.857	-0.202	0.160
-674.149	564.132	-0.100	0.241
-673.135	226.106	0.122	-0.197
-672.120	-148.505	-0.662	0.054
-671.105	43.802	-0.144	0.132
-670.091	209.941	0.238	-0.372
-669.076	71.438	-0.128	-0.132
-668.062	-83.795	-0.082	0.026
-667.047	3.576	-0.061	-0.044
-666.032	-200.000	-0.003	0.129
-665.018	-152.675	-0.252	-0.018
-664.003	-200.000	0.060	-0.318
-662.989	15.698	0.253	-0.198
-661.974	23.995	0.364	0.299
-660.959	-167.704	-0.292	-0.012
-659.945	77.066	0.190	0.201
-658.930	-200.000	0.029	-0.238
-657.916	-4.831	0.180	0.124
-656.901	-162.341	0.135	0.007
-655.886	-150.336	0.184	0.014
-654.872	-200.000	0.007	-0.194
-653.857	-12.834	-0.135	-0.088
-652.843	100.991	0.301	-0.349
-651.828	800.000	-0.114	0.321
-650.814	-92.760	-0.329	0.092
-649.799	-73.846	-0.113	-0.041
-648.784	67.550	0.128	0.130
-647.770	-123.020	0.061	0.010
-646.755	-37.298	-0.265	0.141
-645.741	-45.100	-0.316	-0.157
-644.726	-23.638	-0.096	0.058
-643.711	310.155	0.166	0.310
-642.697	-200.000	0.039	0.392
-641.682	-200.000	0.027	0.213
-640.668	-3.185	-0.127	-0.088
-639.653	-42.416	0.169	-0.086
-638.638	-200.000	0.048	-0.308
-637.624	-144.118	-0.119	-0.011
-636.609	36.105	0.164	0.144
-635.595	-50.672	0.276	0.129
-634.580	96.887	-0.253	-0.288
-633.565	69.090	-0.099	-0.101
-632.551	460.106	-0.074	0.163
-631.536	-200.000	0.002	-0.047
-630.522	-65.429	0.268	-0.107
-629.507	-200.000	0.002	-0.176
-628.492	94.191	-0.153	-0.173
-627.478	-124.240	0.357	-0.056
-626.463	-113.175	0.110	-0.022
-625.449	-108.717	-0.091	0.019
-624.434	-67.249	-0.209	-0.082
-623.419	-123.630	0.249	0.039
-622.405	800.000	-0.144	0.464
-621.390	-116.674	-0.359	-0.066
-620.376	-200.000	-0.048	-0.414
-619.361	-200.000	-0.079	-0.380
-618.346	-200.000	-0.061	-0.272
-617.332	-76.806	-0.191	-0.066
-616.317	240.791	-0.186	0.308
-615.303	800.000	0.046	-0.130
-614.288	13.578	0.117	-0.090
-613.273	-135.461	-0.358	0.042
-612.259	-200.000	-0.018	-0.084
-611.244	-94.019	0.255	-0.070
-610.230	73.383	-0.120	-0.125
-609.215	210.887	0.072	0.113
-608.201	419.412	0.123	0.262
-607.186	-38.711	0.034	0.018
-606.171	94.510	0.089	0.101
-605.157	63.203	0.305	-0.304
-604.142	6.667	-0.306	-0.226
-603.128	42.473	0.053	-0.048
-602.113	-83.240	0.375	-0.120
-601.098	-141.033	0.159	0.016
-600.084	-78.679	-0.232	-0.079
-599.069	54.626	0.094	0.091
-598.055	-139.176	-0.406	0.044
-597.040	-56.230	0.116	-0.051
-596.025	800.000	0.074	-0.209
-595.011	71.921	0.177	-0.183
-593.996	561.798	0.230	-0.554
-592.982	-84.808	0.034	0.011
-591.967	800.000	-0.110	-0.348
-590.952	-28.193	-0.163	-0.094
-589.938	-64.122	-0.133	0.054
-588.923	-121.007	-0.194	0.032
-587.909	-154.027	-0.184	0.012
-586.894	-200.000	-0.008	-0.154
-585.879	-117.676	-0.086	-0.015
-584.865	23.444	-0.132	0.108
-583.850	498.479	0.178	-0.408
-582.836	-200.000	-0.010	0.219
-581.821	800.000	-0.080	0.277
-580.806	-146.893	0.122	-0.010
-579.792	3.219	-0.132	-0.095
-578.777	-115.257	-0.291	-0.055
-577.763	-46.379	-0.433	0.211
-576.748	145.993	-0.080	0.107
-575.733	112.730	-0.271	-0.326
-574.719	36.592	-0.103	0.091
-573.704	174.073	0.161	-0.231
-572.690	-177.729	-0.188	0.005
-571.675	800.000	0.055	-0.163
-570.661	642.557	0.112	0.283
-569.646	8.202	0.381	0.284
-568.631	-22.505	-0.189	-0.113
-567.617	800.000	-0.019	0.072
-566.602	97.118	-0.123	-0.140
-565.588	345.808	0.102	-0.199
-564.573	-58.809	-0.148	-0.063
-563.558	-142.296	0.287	0.028
-562.544	-200.000	-0.051	0.295
-561.529	405.734	0.136	-0.285
-560.515	-64.602	-0.374	0.151
-559.500	-30.707	-0.268	-0.151
-558.485	-157.903	0.213	0.013
-557.471	-200.000	-0.039	-0.275
-556.456	-200.000	-0.003	0.154
-555.442	-77.467	0.401	0.138
-554.427	501.439	-0.030	0.069
-553.412	375.029	-0.203	0.412
-552.398	-9.316	-0.204	-0.135
-551.383	-200.000	0.005	-0.503
-550.369	219.678	0.156	-0.248
-549.354	246.262	-0.159	-0.266
-548.339	100.440	-0.208	0.239
-547.325	-73.843	-0.246	-0.089
-546.310	-88.032	0.303	0.090
-545.296	-166.301	-0.103	-0.004
-544.281	-52.091	0.155	0.071
-543.266	627.850	0.007	0.018
-542.252	-92.139	0.127	-0.036
-541.237	17.767	-0.204	-0.161
-540.223	-29.872	-0.258	-0.146
-539.208	387.851	0.187	0.385
-538.193	-200.000	0.008	0.166
-537.179	-27.031	-0.070	-0.040
-536.164	800.000	0.067	-0.258
-535.150	-105.898	-0.135	-0.030
-534.135	386.071	0.014	0.030
-533.121	800.000	-0.079	0.306
-532.106	-35.260	0.313	0.169
-531.091	-103.943	-0.135	0.031
-530.077	-119.708	-0.516	0.088
-529.062	121.073	-0.153	0.189
-528.048	-53.296	-0.169	0.077
-527.033	-85.026	0.250	0.078
-526.018	-200.000	0.007	0.253
-525.004	28.518	0.189	-0.158
-523.989	410.138	-0.161	0.338
-522.975	22.540	-0.094	-0.076
-521.960	-57.001	0.142	-0.062
-520.945	-200.000	0.043	0.187
-519.931	264.617	0.079	0.136
-518.916	161.814	0.203	-0.282
-517.902	38.786	0.101	0.089
-516.887	201.548	0.089	0.136
-515.872	27.037	0.210	-0.174
-514.858	-168.599	0.216	0.008
-513.843	75.132	-0.354	0.370
-512.829	117.313	0.129	-0.157
-511.814	-131.777	0.557	-0.072
-510.799	-103.982	0.133	0.031
-509.785	-114.139	-0.106	-0.020
-508.770	173.720	-0.141	0.202
-507.756	84.881	0.140	-0.152
-506.741	-46.003	0.208	0.101
-505.726	-135.351	0.122	-0.014
-504.712	-200.000	-0.005	0.025
-503.697	800.000	0.078	-0.215
-502.683	-17.910	0.132	-0.082
-501.668	-73.885	-0.213	0.077
-500.653	-84.444	-0.199	-0.062
-499.639	800.000	-0.065	-0.190
-498.624	-41.359	0.060	0.031
-497.610	694.230	-0.027	-0.070
-496.595	-14.444	0.162	-0.103
-495.581	800.000	0.058	-0.219
-494.566	131.325	-0.162	-0.206
-493.551	68.381	0.119	-0.121
-492.537	-25.437	-0.157	-0.092
-491.522	102.296	-0.303	-0.351
-490.508	-156.717	-0.092	0.006
-489.493	800.000	-0.027	0.096
-488.478	800.000	-0.097	0.266
-487.464	-142.419	-0.028	0.003
-486.449	-69.368	-0.185	-0.070
-485.435	191.674	-0.087	0.130
-484.420	-200.000	0.045	0.268
-483.405	79.082	0.247	0.262
-482.391	-84.185	0.289	-0.091
-481.376	305.132	-0.123	0.226
-480.362	-3.349	0.086	0.059
-479.347	55.320	-0.219	0.209
-478.332	-123.716	0.113	0.018
-477.318	78.909	-0.116	0.123
-476.303	129.559	-0.170	0.215
-475.289	246.047	0.192	0.321
-474.274	-86.073	-0.329	0.101
-473.259	800.000	-0.045	-0.177
-472.245	-200.000	-0.022	-0.118
-471.230	78.181	0.184	0.195
-470.216	-200.000	0.012	0.274
-469.201	-103.752	-0.128	-0.030
-468.186	-200.000	-0.026	0.407
-467.172	-118.012	0.201	0.036
-466.157	-200.000	0.044	-0.415
-465.143	-119.684	-0.497	-0.085
-464.128	560.894	-0.058	-0.139
-463.113	-154.050	0.116	-0.008
-462.099	-74.984	-0.298	-0.106
-461.084	69.483	-0.124	0.127
-460.070	-10.453	0.254	-0.167
-459.055	-84.993	-0.287	0.089
-458.040	800.000	0.060	-0.192
-457.026	77.979	-0.150	0.159
-456.011	-126.157	0.126	0.019
-454.997	-200.000	0.000	0.226
-453.982	-105.204	-0.257	0.058
-452.968	1.066	0.149	0.106
-451.953	91.540	0.152	0.169
-450.938	-65.353	-0.401	0.159
-449.924	60.320	0.150	0.147
-448.909	800.000	-0.069	-0.218
-447.895	-107.570	0.148	-0.032
-446.880	-60.542	-0.081	0.034
-445.865	-7.432	0.449	0.301
-444.851	351.955	-0.133	0.261
-443.836	547.671	-0.038	0.090
-442.822	-32.385	0.283	-0.156
-441.807	-169.066	-0.113	0.004
-440.792	62.765	-0.204	0.202
-439.778	311.575	-0.107	0.199
-438.763	-75.401	0.231	-0.081
-437.749	386.072	0.036	0.073
-436.734	800.000	0.013	0.039
-435.719	-200.000	-0.021	0.132
-434.705	722.228	-0.052	-0.136
-433.690	5.892	-0.267	-0.195
-432.676	-100.633	0.284	-0.069
-431.661	-116.041	0.232	-0.043
-430.646	-80.170	-0.333	-0.110
-429.632	-149.486	0.142	-0.011
-428.617	-200.000	-0.006	-0.095
-427.603	538.490	0.095	-0.224
-426.588	260.041	-0.225	-0.384
-425.573	-48.248	-0.119	-0.057
-424.559	800.000	-0.077	-0.308
-423.544	79.105	0.151	-0.159
-422.530	125.107	0.058	-0.072
-421.515	-42.495	-0.157	-0.079
-420.500	-33.954	-0.350	-0.190
-419.486	10.203	0.315	-0.237
-418.471	536.408	0.083	-0.195
-417.457	-200.000	-0.041	0.182
-416.442	77.426	-0.157	-0.165
-415.428	-64.859	-0.095	0.038
-414.413	-200.000	-0.033	0.249
-413.398	-143.794	0.345	0.032
-412.384	55.594	0.292	-0.279
-411.369	631.882	0.067	0.169
-410.355	-200.000	0.001	0.077
-409.340	-141.226	-0.416	-0.042
-408.325	612.435	0.078	0.193
-407.311	506.555	-0.154	-0.352
-406.296	0.749	0.169	-0.119
-405.282	-109.623	0.384	0.080
-404.267	-163.313	-0.161	0.008
-403.252	-146.483	-0.217	0.019
-402.238	-20.896	-0.180	0.109
-401.223	-58.722	-0.219	0.094
-400.209	170.994	0.231	-0.326
-399.194	223.002	-0.137	0.218
-398.179	237.090	0.090	-0.147
-397.165	223.983	-0.098	0.156
-396.150	533.233	0.022	0.052
-395.136	-200.000	-0.029	-0.141
-394.121	193.765	0.016	0.023
-393.106	-80.056	-0.096	-0.032
-392.092	154.990	0.101	0.136
-391.077	560.746	-0.068	-0.162
-390.063	62.998	0.110	0.109
-389.048	-200.000	-0.051	0.280
-388.033	397.253	-0.075	-0.154
-387.019	118.974	-0.081	-0.099
-386.004	-78.129	-0.131	-0.045
-384.990	403.539	-0.164	0.341
-383.975	233.717	0.109	0.178
-382.960	-65.538	0.258	-0.102
-381.946	59.928	-0.225	-0.219
-380.931	68.310	0.090	0.091
-379.917	135.392	-0.202	-0.260
-378.902	-17.512	0.334	0.207
-377.888	800.000	0.064	-0.178
-376.873	328.563	-0.099	-0.188
-375.858	42.017	-0.266	0.238
-374.844	800.000	0.018	-0.077
-373.829	497.044	-0.143	0.325
-372.815	-94.910	-0.284	0.076
-371.800	-24.786	0.379	-0.222
-370.785	-158.412	0.516	-0.029
-369.771	-200.000	0.025	-0.107
-368.756	-3.176	0.256	-0.176
-367.742	3.856	0.306	0.220
-366.727	367.305	0.144	0.287
-365.712	79.055	-0.183	0.193
-364.698	591.211	0.061	-0.149
-363.683	64.943	0.119	-0.119
-362.669	-48.113	0.148	0.070
-361.654	105.429	0.220	0.256
-360.639	102.503	-0.146	-0.169
-359.625	303.689	0.056	0.102
-358.610	-200.000	0.001	-0.009
-357.596	-53.281	-0.109	-0.049
-356.581	-12.424	0.287	0.185
-355.566	-26.172	-0.047	-0.027
-354.552	-200.000	-0.015	0.169
-353.537	-132.751	-0.042	-0.005
-352.523	800.000	-0.096	0.318
-351.508	-153.366	0.154	0.011
-350.493	-81.105	-0.043	-0.014
-349.479	-0.367	-0.174	-0.122
-348.464	-49.440	-0.326	-0.153
-347.450	-66.826	0.133	-0.052
-346.435	800.000	0.039	0.123
-345.420	-45.451	0.388	0.189
-344.406	77.242	-0.263	0.276
-343.391	121.183	0.036	-0.044
-342.377	69.304	0.228	0.231
-341.362	-103.690	-0.033	0.008
-340.348	-200.000	-0.004	0.278
-339.333	-68.192	-0.029	-0.011
-338.318	-3.286	-0.051	-0.035
-337.304	-61.422	-0.149	-0.062
-336.289	57.711	0.219	-0.211
-335.275	258.591	-0.056	0.095
-334.260	-72.383	0.267	-0.097
-333.245	-90.976	-0.201	-0.057
-332.231	702.156	0.070	-0.182
-331.216	800.000	0.088	0.282
-330.202	-126.419	-0.262	0.038
-329.187	-36.595	-0.240	0.127
-328.172	-200.000	0.132	0.618
-327.158	82.408	-0.130	0.139
-326.143	221.107	0.053	0.083
-325.129	-112.799	0.587	-0.115
-324.114	-113.801	0.492	-0.094
-323.099	-200.000	0.032	-0.273
-322.085	-17.850	0.294	0.182
-321.070	-200.000	-0.020	0.325
-320.056	-200.000	0.030	0.160
-319.041	-28.745	-0.304	0.172
-318.026	36.923	-0.421	-0.366
-317.012	800.000	0.013	0.034
-315.997	212.422	0.161	-0.250
-314.983	-70.901	-0.302	-0.112
-313.968	192.788	-0.149	-0.222
-312.953	111.417	-0.208	0.246
-311.939	243.103	-0.080	0.131
-310.924	-35.300	0.437	-0.234
-309.910	-65.198	-0.149	-0.059
-308.895	800.000	0.041	-0.136
-307.880	-38.973	-0.182	0.094
-306.866	-200.000	-0.037	-0.262
-305.851	-23.228	0.227	-0.134
-304.837	32.572	0.113	0.096
-303.822	112.545	0.178	0.212
-302.807	93.781	0.065	-0.073
-301.793	800.000	0.050	-0.184
-300.778	48.737	0.194	-0.179
-299.764	66.907	0.158	0.158
-298.749	-44.432	-0.060	-0.030
-297.735	-123.883	-0.172	-0.027
-296.720	-132.832	0.150	-0.019
-295.705	387.889	-0.157	-0.319
-294.691	-105.798	-0.182	0.040
-293.676	800.000	-0.073	-0.275
-292.662	-86.050	0.142	-0.043
-291.647	482.465	0.084	0.188
-290.632	-129.197	-0.221	0.030
-289.618	-200.000	-0.034	0.157
-288.603	-142.495	-0.136	0.013
-287.589	-197.905	-0.103	0.001
-286.574	-170.465	0.487	-0.017
-285.559	-150.055	0.159	-0.012
-284.545	-176.844	0.461	0.011
-283.530	-200.000	-0.028	-0.194
-282.516	4.947	0.041	-0.029
-281.501	-200.000	0.000	-0.047
-280.486	89.106	-0.148	0.162
-279.472	630.834	-0.031	-0.078
-278.457	-200.000	-0.030	-0.142
-277.443	176.665	-0.138	0.198
-276.428	-30.343	-0.351	0.196
-275.413	191.492	0.147	0.218
-274.399	-164.960	0.099	0.004
-273.384	-16.913	0.189	0.117
-272.370	-77.759	-0.235	0.080
-271.355	107.915	-0.118	0.138
-270.340	108.522	0.252	0.295
-269.326	61.592	-0.178	-0.174
-268.311	-40.899	-0.205	0.104
-267.297	-200.000	-0.025	0.215
-266.282	-74.979	-0.341	-0.120
-265.267	-9.880	0.283	0.185
-264.253	800.000	-0.064	-0.264
-263.238	23.284	0.283	0.229
-262.224	118.436	0.044	0.053
-261.209	-11.907	-0.202	0.130
-260.195	228.135	-0.106	-0.169
-259.180	160.216	0.238	0.326
-258.165	233.633	0.099	-0.160
-257.151	-12.080	0.283	-0.182
-256.136	124.349	-0.096	-0.119
-255.122	-200.000	0.006	0.247
-254.107	285.991	-0.252	-0.447
-253.092	14.679	-0.133	-0.102
-252.078	-99.657	0.126	0.031
-251.063	-57.264	-0.249	-0.108
-250.049	151.382	0.062	-0.083
-249.034	369.247	-0.039	-0.078
-248.019	209.011	0.010	0.015
-247.005	-160.317	0.314	0.017
-245.990	-128.677	0.149	-0.021
-244.976	800.000	-0.050	0.168
-243.961	104.292	-0.059	0.068
-242.946	231.126	-0.087	-0.139
-241.932	167.717	0.088	0.122
-240.917	-124.801	-0.239	-0.036
-239.903	669.588	-0.060	0.152
-238.888	96.384	0.166	-0.187
-237.873	-57.045	0.148	0.064
-236.859	800.000	0.092	-0.362
-235.844	-200.000	-0.039	-0.459
-234.830	281.233	0.218	-0.382
-233.815	800.000	0.048	-0.173
-232.800	160.898	0.082	0.112
-231.786	-5.503	-0.059	-0.040
-230.771	-168.581	0.218	-0.008
-229.757	-39.062	-0.263	0.136
-228.742	-200.000	-0.050	0.246
-227.727	256.633	-0.088	-0.148
-226.713	-76.829	-0.130	-0.044
-225.698	133.567	0.212	0.269
-224.684	-200.000	0.008	0.080
-223.669	145.742	-0.184	0.241
-222.655	255.444	0.076	-0.127
-221.640	-6.151	-0.081	0.054
-220.625	46.480	-0.203	0.185
-219.611	-105.345	-0.223	-0.050
-218.596	169.508	0.075	0.105
-217.582	-200.000	0.045	-0.200
-216.567	-46.541	0.165	-0.079
-215.552	-200.000	0.061	0.406
-214.538	297.157	-0.255	0.458
-213.523	-200.000	-0.003	0.182
-212.509	172.605	-0.205	-0.290
-211.494	84.393	-0.031	-0.033
-210.479	-200.000	-0.004	0.048
-209.465	-200.000	0.020	-0.291
-208.450	-200.000	-0.025	0.169
-207.436	-18.643	0.163	-0.100
-206.421	58.166	-0.187	-0.179
-205.406	-59.466	0.166	0.070
-204.392	-9.228	-0.148	0.097
-203.377	800.000	0.066	0.243
-202.363	-132.072	0.195	0.025
-201.348	-200.000	0.020	-0.176
-200.333	-200.000	-0.001	-0.127
-199.319	-200.000	0.010	0.102
-198.304	-155.906	-0.143	0.009
-197.290	-22.493	0.097	0.058
-196.275	800.000	0.093	-0.311
-195.260	-86.759	-0.268	-0.080
-194.246	-200.000	-0.020	0.289
-193.231	-145.437	-0.171	0.015
-192.217	37.913	-0.225	-0.195
-191.202	-86.792	0.401	-0.120
-190.187	-200.000	-0.016	-0.147
-189.173	-98.906	0.387	-0.096
-188.158	-164.109	0.334	0.015
-187.144	-52.547	0.100	-0.045
-186.129	-40.207	0.125	-0.064
-185.114	-60.117	-0.274	0.115
-184.100	235.575	-0.169	0.273
-183.085	109.731	0.106	-0.125
-182.071	-200.000	0.019	-0.256
-181.056	-77.219	0.043	-0.015
-180.042	-48.173	0.139	0.066
-179.027	195.598	0.230	0.342
-178.012	-200.000	-0.004	0.404
-176.998	-49.883	0.238	-0.111
-175.983	-39.488	-0.323	-0.166
-174.969	655.010	-0.100	-0.251
-173.954	800.000	0.066	0.268
-172.939	-82.321	0.129	0.041
-171.925	121.933	-0.122	-0.149
-170.910	-127.011	-0.128	0.018
-169.896	-32.843	-0.141	0.077
-168.881	-31.032	0.356	-0.196
-167.866	-112.040	0.446	0.088
-166.852	800.000	0.047	0.184
-165.837	-200.000	0.007	-0.254
-164.823	-80.469	0.371	0.121
-163.808	-101.225	-0.189	-0.045
-162.793	385.424	-0.080	-0.162
-161.779	-103.950	-0.242	-0.055
-160.764	206.984	0.116	-0.177
-159.750	800.000	0.074	-0.306
-158.735	125.401	-0.047	0.058
-157.720	186.934	-0.105	0.153
-156.706	47.647	-0.272	0.248
-155.691	-72.762	-0.077	-0.028
-154.677	-22.407	0.176	0.104
-153.662	42.047	0.171	0.151
-152.647	-76.852	0.324	-0.111
-151.633	-104.915	-0.109	-0.024
-150.618	144.782	-0.110	-0.144
-149.604	201.705	-0.128	-0.193
-148.589	4.761	-0.109	0.078
-147.574	19.955	-0.085	-0.067
-146.560	-200.000	0.047	-0.250
-145.545	266.199	0.087	0.148
-144.531	-124.044	0.244	0.037
-143.516	5.252	0.223	0.160
-142.502	-200.000	-0.022	-0.184
-141.487	-200.000	-0.323	0.001
-140.472	82.287	0.186	-0.197
-139.458	-200.000	0.029	0.137
-138.443	-200.000	-0.048	0.337
-137.429	-69.122	0.435	0.164
-136.414	-15.440	0.189	0.118
-135.399	-200.000	0.008	-0.255
-134.385	-101.842	-0.044	0.010
-133.370	-19.410	0.280	-0.170
-132.356	643.010	0.211	0.526
-131.341	51.097	0.112	0.104
-130.326	-200.000	0.014	0.116
-129.312	800.000	0.117	-0.469
-128.297	90.978	-0.121	-0.133
-127.283	203.221	0.171	0.258
-126.268	-200.000	-0.023	-0.125
-125.253	749.005	0.060	-0.159
-124.239	-59.022	0.127	-0.053
-123.224	-20.584	-0.257	-0.154
-122.210	-25.933	0.212	0.122
