DTS Sentinel unit serial number:	SN413079Multiplexer serial number:	ORYXHardware model number:	OX4-SRSoftware version number:	ORYX F/W v4.00 Oryx Data Collector v3.7.2.0data status	okinstallation	princeton_trtdifferential loss correction	single-endedforward channel	channel 3reverse channel	N/Adate	2019/09/12time	12:38:11forward acquisition time	60.00reverse acquisition time	0.00gamma	496.2192k internal	0.2291k external	0.2291temperature offset calibration	1.0046default loss term (dB/km)	0.3790temperature slope calibration	1.0000multiplexer offset coefficient	1.0000multiplexer slope coefficient	1.0000fibre end	0.00T internal ref (°C)	40.44T ext. ref 1 (°C)	2.03T ext. ref 2 (°C)	36.21length (m)	temperature (°C)	Stokes	anti-Stokes-747.200	126.557	0.088	0.115
-746.185	-155.618	-0.133	-0.009
-745.171	-38.989	0.290	-0.156
-744.156	11.838	-0.154	0.121
-743.142	-200.000	-0.005	0.038
-742.127	554.594	-0.147	0.363
-741.112	542.976	-0.049	-0.120
-740.098	-111.292	-0.321	0.067
-739.083	-41.200	-0.161	0.085
-738.069	-133.689	-0.249	0.032
-737.054	31.700	0.338	-0.297
-736.039	679.417	-0.097	-0.259
-735.025	-200.000	-0.010	0.278
-734.010	-200.000	0.004	-0.366
-732.996	-2.119	-0.104	-0.075
-731.981	-200.000	0.014	-0.176
-730.966	-147.407	-0.286	-0.025
-729.952	152.804	0.073	-0.102
-728.937	-66.321	-0.033	-0.013
-727.923	-113.621	-0.555	0.111
-726.908	371.140	0.096	-0.199
-725.894	-35.758	-0.067	0.037
-724.879	-109.655	-0.172	-0.037
-723.864	108.256	-0.134	-0.163
-722.850	-14.989	0.052	-0.034
-721.835	-200.000	0.047	0.215
-720.821	-78.289	0.324	0.114
-719.806	-157.375	-0.219	0.013
-718.791	-54.831	0.051	-0.023
-717.777	152.189	-0.212	-0.296
-716.762	800.000	-0.014	0.055
-715.748	657.159	-0.034	0.090
-714.733	3.602	0.147	-0.110
-713.718	126.139	0.139	-0.180
-712.704	-100.616	-0.094	0.024
-711.689	104.201	0.109	-0.131
-710.675	-78.597	0.255	0.089
-709.660	-75.906	0.249	-0.090
-708.645	-42.464	-0.323	0.168
-707.631	155.780	0.153	-0.215
-706.616	-95.062	-0.157	-0.043
-705.602	-14.372	-0.173	0.114
-704.587	-200.000	-0.021	0.247
-703.572	800.000	0.122	0.388
-702.558	390.510	-0.037	0.078
-701.543	-31.607	0.099	-0.057
-700.529	-200.000	0.055	0.628
-699.514	256.977	-0.119	-0.208
-698.499	-200.000	0.209	0.001
-697.485	94.818	0.094	-0.109
-696.470	-109.545	0.218	0.047
-695.456	51.198	0.055	-0.053
-694.441	-97.667	-0.253	0.067
-693.426	448.133	0.148	0.332
-692.412	-200.000	0.028	0.167
-691.397	251.753	-0.036	-0.062
-690.383	6.930	0.082	-0.063
-689.368	561.777	-0.096	-0.237
-688.354	-57.102	0.024	0.011
-687.339	82.311	0.124	-0.138
-686.324	-77.935	-0.113	0.040
-685.310	-34.370	-0.253	-0.142
-684.295	473.592	0.100	-0.230
-683.281	-118.444	-0.096	0.017
-682.266	-77.802	0.167	-0.059
-681.251	316.250	0.158	-0.305
-680.237	-200.000	0.014	-0.212
-679.222	-200.000	0.057	-0.477
-678.208	-2.489	-0.073	0.052
-677.193	-200.000	-0.016	0.436
-676.178	-53.394	-0.131	-0.061
-675.164	800.000	0.057	0.186
-674.149	-40.408	0.147	-0.078
-673.135	-7.966	-0.233	-0.161
-672.120	-129.216	-0.327	-0.047
-671.105	-200.000	-0.012	-0.208
-670.091	-200.000	-0.000	0.103
-669.076	-100.171	-0.269	0.068
-668.062	647.335	0.107	-0.280
-667.047	800.000	-0.077	-0.324
-666.032	-114.774	-0.327	-0.064
-665.018	108.360	0.236	-0.288
-664.003	132.289	0.054	-0.071
-662.989	-45.848	-0.203	0.102
-661.974	64.828	-0.240	-0.248
-660.959	116.512	0.139	0.174
-659.945	-23.265	-0.114	-0.070
-658.930	340.688	0.145	-0.290
-657.916	90.133	0.038	0.043
-656.901	624.315	-0.071	0.183
-655.886	-32.963	0.106	-0.060
-654.872	-200.000	-0.036	-0.337
-653.857	284.582	-0.121	-0.222
-652.843	228.318	0.060	-0.100
-651.828	-91.699	0.145	-0.042
-650.814	-9.096	0.206	-0.141
-649.799	87.907	0.127	-0.144
-648.784	-200.000	-0.017	-0.127
-647.770	-108.461	-0.305	0.067
-646.755	-200.000	0.017	0.363
-645.741	-200.000	-0.011	-0.085
-644.726	-39.966	-0.081	-0.043
-643.711	141.567	0.244	0.330
-642.697	786.075	-0.022	-0.060
-641.682	-70.653	-0.074	0.028
-640.668	5.913	0.332	-0.250
-639.653	-200.000	-0.040	-0.183
-638.638	33.914	-0.117	-0.104
-637.624	58.621	0.227	0.227
-636.609	4.803	0.125	0.094
-635.595	-40.979	-0.094	-0.049
-634.580	-105.670	-0.267	0.062
-633.565	-114.086	-0.222	-0.044
-632.551	11.279	-0.232	-0.181
-631.536	575.239	-0.121	-0.302
-630.522	40.261	-0.064	0.059
-629.507	33.071	-0.093	-0.082
-628.492	-200.000	0.025	-0.275
-627.478	-147.766	-0.320	-0.027
-626.463	-200.000	0.037	-0.288
-625.449	7.780	-0.150	0.115
-624.434	205.817	0.090	-0.142
-623.419	800.000	-0.039	0.166
-622.405	-44.144	0.405	0.207
-621.390	498.406	-0.074	0.173
-620.376	-97.731	-0.070	0.018
-619.361	800.000	0.056	0.227
-618.346	707.333	-0.059	0.160
-617.332	-167.324	0.100	0.004
-616.317	800.000	-0.069	-0.197
-615.303	800.000	-0.064	-0.204
-614.288	-200.000	0.004	0.169
-613.273	800.000	0.073	-0.268
-612.259	-105.214	-0.235	-0.055
-611.244	508.596	-0.084	0.199
-610.230	-87.821	-0.290	0.089
-609.215	320.717	-0.113	-0.219
-608.201	-200.000	-0.028	-0.226
-607.186	150.830	-0.071	0.098
-606.171	-88.718	-0.315	0.095
-605.157	-68.045	-0.235	-0.093
-604.142	-200.000	-0.036	-0.211
-603.128	543.894	-0.081	-0.196
-602.113	-2.394	-0.258	0.184
-601.098	800.000	-0.114	-0.343
-600.084	-174.159	-0.290	0.009
-599.069	-200.000	0.009	0.104
-598.055	552.845	0.024	-0.060
-597.040	76.252	0.121	-0.130
-596.025	539.651	-0.084	-0.203
-595.011	11.528	-0.335	-0.262
-593.996	63.447	-0.244	0.250
-592.982	-66.426	0.391	-0.158
-591.967	91.204	-0.169	0.193
-590.952	168.668	-0.098	-0.143
-589.938	159.499	-0.167	0.236
-588.923	-49.669	0.038	-0.018
-587.909	-83.541	-0.127	-0.041
-586.894	800.000	-0.074	0.226
-585.879	-93.065	0.270	-0.077
-584.865	448.029	-0.058	0.130
-583.850	146.791	0.119	0.163
-582.836	-91.837	0.387	-0.112
-581.821	395.573	0.062	-0.133
-580.806	-200.000	0.036	-0.338
-579.792	112.819	-0.184	0.226
-578.777	-15.030	0.237	-0.155
-577.763	-68.348	0.212	-0.084
-576.748	404.051	0.038	0.081
-575.733	180.846	0.119	-0.178
-574.719	-90.537	0.350	0.103
-573.704	93.453	-0.038	-0.044
-572.690	-200.000	-0.037	0.273
-571.675	800.000	-0.064	0.261
-570.661	-149.283	0.069	0.006
-569.646	-200.000	-0.049	-0.263
-568.631	-200.000	0.032	-0.271
-567.617	-151.507	-0.084	0.006
-566.602	317.858	0.144	0.278
-565.588	-200.000	0.044	-0.212
-564.573	-41.334	0.207	-0.109
-563.558	-8.654	0.089	0.061
-562.544	661.352	0.131	0.342
-561.529	-132.042	-0.292	-0.039
-560.515	-200.000	-0.062	-0.372
-559.500	212.360	-0.210	-0.336
-558.485	228.111	-0.138	-0.228
-557.471	-120.820	0.193	-0.033
-556.456	800.000	-0.068	0.272
-555.442	-86.243	-0.222	-0.070
-554.427	-60.877	0.191	-0.082
-553.412	-110.723	0.150	-0.032
-552.398	116.952	-0.128	-0.160
-551.383	572.008	0.015	0.036
-550.369	-105.507	-0.110	-0.025
-549.354	18.744	-0.089	0.072
-548.339	-108.663	-0.302	0.066
-547.325	-29.209	0.117	0.068
-546.310	362.587	0.100	-0.205
-545.296	122.846	-0.142	-0.181
-544.281	-97.995	0.159	0.042
-543.266	25.750	0.189	-0.160
-542.252	317.005	-0.225	0.432
-541.237	-139.211	-0.296	-0.032
-540.223	-116.315	-0.244	-0.046
-539.208	-9.617	0.060	-0.041
-538.193	139.934	-0.227	-0.303
-537.179	-200.000	-0.024	-0.208
-536.164	232.491	-0.149	-0.249
-535.150	-36.998	0.095	0.052
-534.135	153.689	0.025	0.035
-533.121	214.210	-0.173	-0.279
-532.106	-135.417	0.282	0.034
-531.091	-99.361	0.269	0.069
-530.077	26.226	0.096	-0.081
-529.062	134.631	0.058	-0.077
-528.048	97.193	-0.136	-0.159
-527.033	-2.902	0.250	0.177
-526.018	139.264	0.158	0.211
-525.004	37.679	-0.314	0.283
-523.989	226.719	0.151	-0.248
-522.975	203.353	0.148	-0.232
-521.960	-9.993	-0.355	-0.239
-520.945	-109.731	-0.235	0.050
-519.931	80.431	0.080	0.087
-518.916	-200.000	-0.006	-0.135
-517.902	800.000	-0.100	-0.280
-516.887	-200.000	-0.009	-0.055
-515.872	-140.466	0.200	0.021
-514.858	-104.106	-0.374	-0.088
-513.843	-118.983	-0.409	0.073
-512.829	7.346	-0.122	-0.092
-511.814	800.000	-0.075	-0.257
-510.799	-149.703	-0.069	-0.005
-509.785	-52.180	-0.028	0.013
-508.770	-44.136	0.167	0.085
-507.756	-186.044	-0.212	-0.003
-506.741	492.794	0.033	0.077
-505.726	-200.000	-0.030	0.181
-504.712	800.000	-0.063	0.210
-503.697	60.221	-0.089	-0.089
-502.683	-6.029	-0.118	0.082
-501.668	35.500	0.327	0.292
-500.653	51.329	0.016	-0.016
-499.639	-125.672	-0.260	0.040
-498.624	274.541	0.096	-0.173
-497.610	79.166	-0.064	0.069
-496.595	161.969	-0.111	0.157
-495.581	800.000	0.059	0.235
-494.566	-65.676	-0.065	0.026
-493.551	-19.640	-0.156	0.098
-492.537	800.000	0.143	-0.492
-491.522	411.021	0.108	-0.232
-490.508	-164.375	0.281	0.013
-489.493	433.124	-0.154	-0.338
-488.478	50.960	-0.106	0.102
-487.464	-121.966	0.256	-0.043
-486.449	800.000	-0.040	0.168
-485.435	274.148	-0.152	0.273
-484.420	-81.269	-0.127	0.042
-483.405	800.000	0.028	0.089
-482.391	-136.294	0.188	0.022
-481.376	541.951	-0.057	-0.137
-480.362	-41.995	-0.114	-0.059
-479.347	232.071	-0.145	-0.242
-478.332	-62.801	0.048	-0.020
-477.318	-70.670	0.196	-0.075
-476.303	-200.000	0.039	-0.261
-475.289	50.706	0.118	-0.113
-474.274	-154.063	0.047	0.003
-473.259	-141.662	0.178	-0.018
-472.245	210.662	0.087	-0.138
-471.230	800.000	-0.062	-0.256
-470.216	25.128	-0.102	0.085
-469.201	-170.257	0.219	0.008
-468.186	305.863	-0.099	0.187
-467.172	7.450	0.099	-0.075
-466.157	-200.000	0.023	0.348
-465.143	-107.381	0.281	-0.063
-464.128	-104.965	-0.121	0.028
-463.113	800.000	0.095	-0.310
-462.099	6.093	0.089	0.067
-461.084	140.491	-0.088	-0.117
-460.070	52.624	0.087	0.084
-459.055	-13.069	-0.190	-0.125
-458.040	800.000	0.079	-0.346
-457.026	-85.323	0.355	0.112
-456.011	-91.752	-0.031	0.009
-454.997	-7.939	-0.264	0.180
-453.982	-73.289	0.286	-0.106
-452.968	17.770	-0.118	-0.095
-451.953	59.885	0.103	0.103
-450.938	99.709	-0.220	0.258
-449.924	800.000	-0.079	0.283
-448.909	-33.898	0.115	0.064
-447.895	312.500	-0.098	0.187
-446.880	-200.000	-0.033	0.315
-445.865	152.509	-0.243	0.336
-444.851	-128.093	0.258	-0.037
-443.836	800.000	0.080	-0.330
-442.822	800.000	-0.036	-0.128
-441.807	-112.875	-0.161	0.032
-440.792	26.058	-0.345	0.292
-439.778	94.991	-0.138	-0.159
-438.763	-108.094	0.188	0.041
-437.749	-82.690	-0.178	0.058
-436.734	227.630	-0.089	0.147
-435.719	-4.055	-0.202	0.142
-434.705	464.134	0.080	0.181
-433.690	24.001	-0.187	-0.156
-432.676	800.000	0.056	0.204
-431.661	77.398	-0.154	0.166
-430.646	-35.426	-0.245	-0.135
-429.632	-62.517	-0.216	-0.091
-428.617	800.000	-0.111	-0.329
-427.603	-200.000	-0.004	0.123
-426.588	-200.000	-0.012	0.148
-425.573	-21.171	0.355	0.219
-424.559	237.836	0.178	-0.299
-423.544	-18.514	0.134	0.085
-422.530	81.645	0.122	-0.134
-421.515	115.714	-0.124	0.153
-420.500	502.927	0.132	-0.308
-419.486	-12.964	-0.223	-0.147
-418.471	-108.305	0.268	-0.059
-417.457	171.499	-0.118	0.171
-416.442	800.000	-0.028	0.095
-415.428	-16.803	-0.169	-0.108
-414.413	-55.287	0.063	-0.029
-413.398	-106.311	0.228	-0.052
-412.384	-107.585	0.077	0.017
-411.369	12.682	0.066	0.052
-410.355	20.142	0.077	-0.063
-409.340	800.000	0.100	0.412
-408.325	232.049	0.102	0.169
-407.311	-89.364	0.302	0.090
-406.296	-75.643	-0.173	0.062
-405.282	-200.000	-0.042	-0.267
-404.267	-200.000	0.034	-0.156
-403.252	-40.971	-0.110	-0.058
-402.238	-101.670	-0.080	0.020
-401.223	72.193	0.122	-0.128
-400.209	800.000	0.049	0.146
-399.194	424.148	-0.047	0.101
-398.179	466.257	0.046	0.105
-397.165	24.788	0.249	0.209
-396.150	82.210	0.082	0.090
-395.136	-78.511	-0.247	-0.085
-394.121	136.307	0.186	0.246
-393.106	-200.000	-0.040	-0.185
-392.092	285.756	-0.154	-0.280
-391.077	-102.097	-0.141	-0.034
-390.063	-23.101	-0.124	0.075
-389.048	800.000	0.086	-0.279
-388.033	-200.000	0.037	0.343
-387.019	-200.000	0.339	0.001
-386.004	691.071	-0.093	0.246
-384.990	-87.336	-0.218	-0.067
-383.975	393.338	0.059	0.124
-382.960	-154.986	0.263	0.017
-381.946	337.827	-0.202	-0.396
-380.931	414.170	-0.095	-0.204
-379.917	28.088	0.079	-0.068
-378.902	220.087	0.104	-0.168
-377.888	3.192	0.104	0.077
-376.873	150.241	0.044	0.060
-375.858	-76.682	0.189	-0.067
-374.844	670.199	-0.199	0.520
-373.829	543.123	0.114	0.275
-372.815	205.787	0.036	0.056
-371.800	-1.894	-0.108	0.077
-370.785	-19.455	0.229	-0.143
-369.771	800.000	-0.046	0.130
-368.756	-163.884	0.185	0.009
-367.742	800.000	0.059	0.183
-366.727	-200.000	-0.019	0.184
-365.712	-121.589	-0.126	-0.021
-364.698	-124.442	-0.375	-0.059
-363.683	-78.257	0.061	-0.021
-362.669	-42.718	-0.120	-0.061
-361.654	800.000	0.061	0.261
-360.639	53.989	-0.073	0.071
-359.625	-200.000	0.044	0.232
-358.610	-53.250	0.116	0.054
-357.596	350.426	-0.087	-0.174
-356.581	-200.000	0.012	-0.444
-355.566	41.989	0.107	0.098
-354.552	-200.000	-0.040	0.354
-353.537	-86.757	-0.060	0.018
-352.523	800.000	0.063	-0.217
-351.508	-42.067	-0.061	-0.032
-350.493	129.749	-0.085	-0.109
-349.479	800.000	-0.181	-0.508
-348.464	-11.288	-0.172	0.114
-347.450	424.229	-0.061	0.132
-346.435	-168.549	0.062	0.002
-345.420	-149.348	0.052	-0.004
-344.406	-93.855	-0.247	-0.069
-343.391	99.399	0.062	-0.073
-342.377	-79.596	0.252	-0.086
-341.362	-192.140	-0.066	-0.001
-340.348	-200.000	-0.019	-0.093
-339.333	-62.300	-0.308	0.129
-338.318	-118.806	0.195	-0.035
-337.304	800.000	-0.065	-0.222
-336.289	539.985	0.036	-0.087
-335.275	800.000	-0.011	0.033
-334.260	-119.096	-0.227	0.040
-333.245	-160.280	0.238	-0.013
-332.231	-200.000	-0.015	0.219
-331.216	-159.270	0.350	0.020
-330.202	-23.661	0.478	0.288
-329.187	-120.671	0.266	0.045
-328.172	601.078	-0.079	0.198
-327.158	800.000	-0.047	-0.141
-326.143	-71.453	0.321	0.121
-325.129	74.446	-0.010	-0.011
-324.114	354.498	0.127	0.254
-323.099	781.241	0.065	-0.179
-322.085	-200.000	-0.005	-0.088
-321.070	-200.000	-0.075	0.397
-320.056	-200.000	-0.006	0.167
-319.041	-101.235	0.110	-0.027
-318.026	-200.000	-0.062	-0.343
-317.012	16.414	-0.017	-0.014
-315.997	-69.657	0.331	0.127
-314.983	20.295	-0.101	0.082
-313.968	127.667	0.055	0.070
-312.953	29.316	0.279	0.238
-311.939	-7.594	0.343	-0.234
-310.924	-60.488	0.268	0.115
-309.910	-6.835	0.202	-0.138
-308.895	-85.927	-0.327	0.102
-307.880	173.583	-0.110	-0.160
-306.866	96.972	-0.227	0.262
-305.851	578.075	-0.150	-0.368
-304.837	708.529	0.025	0.068
-303.822	108.253	0.186	-0.223
-302.807	-200.000	-0.000	-0.078
-301.793	64.183	0.113	-0.115
-300.778	800.000	-0.049	0.196
-299.764	-38.887	0.184	-0.097
-298.749	-30.619	-0.157	-0.090
-297.735	-200.000	-0.031	0.273
-296.720	12.657	0.213	0.165
-295.705	179.215	-0.060	-0.088
-294.691	104.481	0.131	-0.156
-293.676	-184.688	-0.285	-0.005
-292.662	-149.048	-0.150	0.012
-291.647	-200.000	-0.002	0.099
-290.632	552.223	0.017	-0.042
-289.618	-103.910	-0.172	0.040
-288.603	-200.000	-0.005	-0.161
-287.589	-116.789	0.452	-0.083
-286.574	-200.000	-0.009	0.343
-285.559	-200.000	-0.038	0.173
-284.545	14.846	-0.071	0.056
-283.530	-76.916	-0.185	0.065
-282.516	139.103	-0.259	-0.342
-281.501	-49.042	0.128	0.062
-280.486	88.183	0.065	-0.072
-279.472	-91.492	0.223	0.064
-278.457	44.451	-0.149	0.137
-277.443	800.000	0.006	-0.016
-276.428	100.955	-0.078	-0.091
-275.413	219.678	0.030	0.048
-274.399	424.348	-0.016	-0.035
-273.384	-16.578	0.171	0.109
-272.370	-123.730	0.145	0.023
-271.355	167.051	0.072	-0.103
-270.340	-125.743	-0.223	0.034
-269.326	796.619	-0.095	0.263
-268.311	54.535	-0.152	-0.147
-267.297	79.052	-0.093	0.101
-266.282	-100.227	-0.274	0.068
-265.267	-200.000	0.038	0.281
-264.253	24.965	0.143	0.119
-263.238	-149.274	0.026	0.002
-262.224	-1.096	0.180	0.128
-261.209	53.602	-0.111	-0.107
-260.195	175.263	-0.154	0.224
-259.180	-64.434	0.206	-0.084
-258.165	-92.033	-0.254	-0.072
-257.151	800.000	-0.052	-0.154
-256.136	-80.846	0.122	-0.041
-255.122	139.408	0.157	0.208
-254.107	-0.956	-0.051	0.036
-253.092	93.800	-0.202	0.231
-252.078	22.315	0.354	-0.291
-251.063	-127.923	0.467	0.067
-250.049	432.265	0.084	0.184
-249.034	800.000	0.073	0.277
-248.019	-79.028	0.100	0.034
-247.005	-114.028	0.209	-0.041
-245.990	204.101	0.115	0.179
-244.976	-49.080	-0.251	0.120
-243.961	11.606	0.270	0.208
-242.946	-68.117	0.369	-0.144
-241.932	405.118	-0.085	-0.179
-240.917	-59.085	0.093	0.040
-239.903	-86.795	-0.267	0.082
-238.888	128.697	-0.126	-0.162
-237.873	-82.533	-0.247	0.080
-236.859	223.110	-0.048	0.078
-235.844	485.578	-0.088	0.201
-234.830	-82.311	0.134	0.044
-233.815	197.721	0.135	0.207
-232.800	-106.127	-0.222	0.050
-231.786	208.527	0.081	0.127
-230.771	-142.922	0.093	0.009
-229.757	-31.245	0.173	-0.098
-228.742	180.649	0.185	0.272
-227.727	54.583	0.261	-0.252
-226.713	-14.382	-0.144	-0.093
-225.698	-200.000	-0.002	-0.099
-224.684	180.248	0.080	0.117
-223.669	18.163	-0.077	-0.062
-222.655	-115.298	0.120	-0.023
-221.640	800.000	0.110	0.435
-220.625	800.000	-0.025	0.080
-219.611	134.806	0.121	0.158
-218.596	-200.000	-0.017	0.153
-217.582	-187.266	-0.291	0.004
-216.567	368.814	-0.124	0.251
-215.552	94.872	0.122	-0.140
-214.538	-77.314	-0.128	0.045
-213.523	343.358	0.204	-0.400
-212.509	800.000	0.040	0.115
-211.494	668.918	-0.153	0.398
-210.479	-200.000	-0.044	-0.206
-209.465	-22.907	-0.306	-0.185
-208.450	-3.019	-0.165	-0.116
-207.436	114.677	0.015	0.019
-206.421	639.116	0.049	-0.126
-205.406	84.735	0.240	-0.263
-204.392	139.466	-0.117	-0.155
-203.377	66.373	0.196	-0.199
-202.363	-200.000	0.054	0.329
-201.348	-30.310	0.065	0.037
-200.333	-126.272	0.058	-0.009
-199.319	-65.678	0.138	0.055
-198.304	-200.000	-0.014	-0.184
-197.290	-137.414	0.108	0.012
-196.275	800.000	0.064	-0.207
-195.260	-15.180	0.172	0.110
-194.246	165.537	0.189	0.267
-193.231	184.203	0.130	-0.193
-192.217	-200.000	-0.001	-0.091
-191.202	-15.962	-0.194	0.124
-190.187	160.230	0.184	0.256
-189.173	297.006	0.110	-0.203
-188.158	497.962	-0.116	-0.267
-187.144	45.435	-0.155	0.143
-186.129	-200.000	0.029	-0.152
-185.114	-62.582	0.080	0.033
-184.100	79.209	-0.103	-0.111
-183.085	-99.088	-0.179	-0.045
-182.071	144.015	0.122	-0.163
-181.056	800.000	-0.041	-0.116
-180.042	-154.340	0.145	-0.010
-179.027	36.977	-0.106	0.094
-178.012	800.000	0.029	0.101
-176.998	163.919	-0.195	-0.275
-175.983	-75.449	0.047	-0.017
-174.969	209.180	-0.006	0.009
-173.954	-200.000	-0.010	-0.216
-172.939	-109.978	0.242	-0.051
-171.925	79.923	-0.214	0.231
-170.910	800.000	-0.025	0.084
-169.896	111.524	-0.166	-0.200
-168.881	-200.000	0.034	0.322
-167.866	-3.604	0.046	0.032
-166.852	7.388	-0.313	0.234
-165.837	-83.103	-0.280	0.090
-164.823	-104.214	-0.248	-0.058
-163.808	-200.000	0.003	-0.072
-162.793	7.402	-0.185	-0.138
-161.779	30.232	0.176	0.151
-160.764	-86.526	0.472	0.145
-159.750	-148.583	-0.252	0.021
-158.735	-94.282	-0.040	0.011
-157.720	96.417	0.113	-0.130
-156.706	151.672	0.144	-0.197
-155.691	-97.002	0.303	-0.079
-154.677	-200.000	-0.013	0.152
-153.662	352.360	-0.139	-0.276
-152.647	31.362	0.084	0.072
-151.633	-36.851	0.291	0.156
-150.618	10.664	0.299	-0.228
-149.604	800.000	0.061	0.171
-148.589	-200.000	0.009	0.405
-147.574	-111.598	-0.103	0.021
-146.560	154.446	-0.050	-0.069
-145.545	560.027	0.016	-0.038
-144.531	-98.180	0.275	-0.071
-143.516	254.803	0.100	0.171
-142.502	-94.433	0.103	0.028
-141.487	800.000	0.008	0.025
-140.472	-95.692	-0.124	0.033
-139.458	785.589	-0.071	0.193
-138.443	800.000	0.110	0.303
-137.429	-147.319	-0.028	-0.002
-136.414	-39.876	-0.239	-0.125
-135.399	81.569	-0.089	0.097
-134.385	-200.000	0.017	0.175
-133.370	292.153	-0.033	-0.060
-132.356	-7.132	-0.251	-0.170
-131.341	707.202	-0.125	-0.330
-130.326	365.452	0.153	0.307
-129.312	84.432	0.258	0.282
-128.297	-190.085	0.063	0.001
-127.283	760.999	0.029	0.078
-126.268	64.893	0.043	-0.043
-125.253	800.000	-0.078	-0.250
-124.239	-200.000	-0.043	0.261
-123.224	-85.790	-0.168	-0.052
-122.210	-123.638	0.044	0.007
-121.195	-16.112	-0.260	-0.165
