DTS Sentinel unit serial number:	SN413079Multiplexer serial number:	ORYXHardware model number:	OX4-SRSoftware version number:	ORYX F/W v4.00 Oryx Data Collector v3.7.2.0data status	okinstallation	princeton_trtdifferential loss correction	single-endedforward channel	channel 3reverse channel	N/Adate	2019/09/12time	18:51:04forward acquisition time	15.00reverse acquisition time	0.00gamma	496.2192k internal	0.2318k external	0.2318temperature offset calibration	1.0100default loss term (dB/km)	0.3790temperature slope calibration	1.0000multiplexer offset coefficient	1.0000multiplexer slope coefficient	1.0000fibre end	0.00T internal ref (°C)	32.87T ext. ref 1 (°C)	2.98T ext. ref 2 (°C)	27.39length (m)	temperature (°C)	Stokes	anti-Stokes-747.200	107.583	-0.073	0.088
-746.185	800.000	0.242	-0.789
-745.171	-66.236	0.315	0.127
-744.156	-200.000	-0.033	-0.584
-743.142	-128.978	-0.321	0.046
-742.127	-200.000	-0.020	-0.557
-741.112	254.003	0.314	-0.544
-740.098	-167.375	-0.544	0.022
-739.083	-124.431	0.580	-0.091
-738.069	-200.000	-0.025	-0.796
-737.054	54.097	-0.221	-0.215
-736.039	-55.705	-0.416	-0.188
-735.025	96.413	-0.265	-0.306
-734.010	-163.194	0.671	0.033
-732.996	-181.253	-0.405	-0.008
-731.981	-72.435	-0.495	0.185
-730.966	-121.055	1.093	-0.185
-729.952	57.436	0.107	0.106
-728.937	-98.829	-0.756	-0.195
-727.923	228.031	0.182	-0.300
-726.908	-117.262	0.346	-0.064
-725.894	-107.077	-0.441	-0.099
-724.879	-9.293	-0.284	-0.192
-723.864	-174.650	0.179	-0.005
-722.850	-174.381	0.236	-0.007
-721.835	52.194	-0.215	0.207
-720.821	696.230	0.100	-0.267
-719.806	-18.574	0.129	-0.081
-718.791	293.874	0.149	-0.275
-717.777	-91.953	0.396	0.114
-716.762	-200.000	-0.007	0.132
-715.748	-200.000	0.085	0.559
-714.733	1.568	-0.155	-0.113
-713.718	-200.000	0.026	0.121
-712.704	53.517	0.661	-0.641
-711.689	-200.000	0.057	-0.848
-710.675	-147.121	1.356	-0.117
-709.660	-83.472	0.509	-0.165
-708.645	265.785	-0.069	-0.123
-707.631	800.000	0.074	-0.297
-706.616	-165.872	-0.432	0.019
-705.602	-49.640	-0.357	-0.172
-704.587	-26.431	-0.312	-0.185
-703.572	-200.000	-0.015	0.254
-702.558	-200.000	0.000	-0.146
-701.543	284.102	0.496	-0.902
-700.529	-119.793	0.537	-0.093
-699.514	-200.000	0.111	0.686
-698.499	800.000	-0.236	-0.876
-697.485	408.300	-0.282	0.603
-696.470	-74.021	-0.816	-0.299
-695.456	-37.883	0.563	0.302
-694.441	-137.681	0.075	-0.009
-693.426	15.278	0.428	0.339
-692.412	-70.168	-0.560	0.215
-691.397	800.000	0.162	-0.489
-690.383	-20.522	-0.523	0.325
-689.368	66.090	-0.012	-0.013
-688.354	-71.363	0.285	0.108
-687.339	-50.256	-0.410	0.196
-686.324	800.000	-0.052	-0.160
-685.310	-158.194	0.392	0.023
-684.295	137.077	0.245	0.323
-683.281	129.565	-0.303	-0.390
-682.266	32.169	0.835	-0.727
-681.251	-200.000	-0.020	0.895
-680.237	-39.639	-0.528	0.279
-679.222	-94.155	-0.871	-0.241
-678.208	-76.759	0.630	-0.223
-677.193	-56.866	0.359	-0.160
-676.178	-35.941	-0.279	-0.152
-675.164	25.832	-0.697	0.587
-674.149	-200.000	0.067	0.507
-673.135	686.195	-0.070	0.185
-672.120	-85.886	-0.470	0.147
-671.105	-61.824	0.660	-0.279
-670.091	-140.586	-0.169	-0.018
-669.076	800.000	0.010	0.029
-668.062	234.144	0.177	-0.293
-667.047	-200.000	0.045	0.343
-666.032	111.793	0.030	-0.036
-665.018	38.023	0.616	-0.552
-664.003	-200.000	0.038	0.219
-662.989	246.960	-0.259	0.440
-661.974	-200.000	0.032	-0.514
-660.959	-157.645	-0.745	-0.045
-659.945	-21.079	-0.543	0.335
-658.930	-151.837	0.542	-0.040
-657.916	800.000	0.165	0.537
-656.901	-200.000	-0.148	0.826
-655.886	800.000	-0.287	-0.955
-654.872	-200.000	-0.006	-0.148
-653.857	-27.223	0.536	0.315
-652.843	185.992	-0.282	0.423
-651.828	27.446	0.524	0.444
-650.814	-62.981	-0.259	0.108
-649.799	4.349	0.256	-0.189
-648.784	-96.572	0.744	-0.198
-647.770	-56.737	-0.480	-0.214
-646.755	310.848	-0.255	-0.482
-645.741	800.000	0.382	1.117
-644.726	94.080	-0.312	0.357
-643.711	-13.537	0.594	0.388
-642.697	-64.190	0.274	-0.113
-641.682	-200.000	0.095	0.558
-640.668	-200.000	0.031	-0.184
-639.653	362.615	-0.713	-1.443
-638.638	-18.982	0.111	-0.070
-637.624	-78.837	0.382	0.131
-636.609	-114.324	-0.758	-0.147
-635.595	96.748	-0.280	0.323
-634.580	376.956	-0.269	-0.554
-633.565	480.669	-0.178	-0.406
-632.551	29.334	-0.521	0.446
-631.536	-61.052	0.375	-0.160
-630.522	-112.150	0.682	-0.138
-629.507	163.396	-0.393	0.556
-628.492	211.954	0.344	-0.545
-627.478	133.425	-0.051	-0.067
-626.463	9.390	0.208	-0.158
-625.449	45.820	-0.423	-0.394
-624.434	-200.000	-0.064	-0.419
-623.419	-130.988	0.588	0.079
-622.405	-200.000	-0.043	-0.466
-621.390	-64.057	0.171	-0.070
-620.376	-9.329	-0.732	-0.493
-619.361	81.293	-0.402	-0.438
-618.346	221.563	0.309	0.500
-617.332	-93.019	0.329	-0.092
-616.317	91.581	0.186	-0.211
-615.303	44.819	0.069	0.064
-614.288	30.664	-0.263	0.227
-613.273	27.758	0.583	0.494
-612.259	256.779	0.180	-0.312
-611.244	192.727	-0.130	-0.198
-610.230	-200.000	0.030	0.141
-609.215	-123.160	-0.776	-0.125
-608.201	-122.516	0.607	-0.099
-607.186	-71.578	-1.015	0.382
-606.171	219.153	0.168	-0.270
-605.157	223.844	-0.195	0.316
-604.142	-17.939	-0.210	-0.133
-603.128	78.342	-0.303	-0.326
-602.113	800.000	0.297	-1.072
-601.098	-167.561	0.405	-0.016
-600.084	-200.000	0.106	0.915
-599.069	86.059	0.513	-0.568
-598.055	104.655	-0.156	0.185
-597.040	-200.000	-0.089	0.457
-596.025	-112.316	0.480	-0.097
-595.011	-124.621	-0.220	-0.034
-593.996	-6.450	1.095	-0.751
-592.982	-110.731	0.067	0.014
-591.967	-200.000	-0.072	-0.549
-590.952	63.166	-0.120	-0.121
-589.938	342.850	-0.181	-0.356
-588.923	142.563	-0.194	0.259
-587.909	-154.535	0.200	0.013
-586.894	89.296	0.407	-0.457
-585.879	45.776	-0.695	-0.646
-584.865	800.000	0.071	0.276
-583.850	-50.502	0.199	-0.094
-582.836	-200.000	-0.076	-0.371
-581.821	-200.000	-0.013	0.146
-580.806	-200.000	0.055	0.464
-579.792	-164.892	-0.770	-0.035
-578.777	0.751	0.466	0.336
-577.763	4.901	-1.011	-0.748
-576.748	268.047	-0.166	0.292
-575.733	-157.384	0.426	0.026
-574.719	230.596	-0.603	-0.992
-573.704	-200.000	0.025	-0.847
-572.690	165.486	0.318	-0.452
-571.675	415.935	-0.342	0.733
-570.661	209.739	0.160	0.252
-569.646	96.016	-0.502	0.577
-568.631	-200.000	0.058	0.403
-567.617	-3.815	-0.263	0.183
-566.602	-22.646	-0.117	0.071
-565.588	45.061	-0.919	0.851
-564.573	-79.020	0.664	0.227
-563.558	181.233	0.301	0.445
-562.544	-4.554	0.647	0.449
-561.529	20.731	-0.249	0.202
-560.515	278.998	-0.241	0.432
-559.500	800.000	0.089	-0.295
-558.485	-82.893	-0.430	-0.140
-557.471	-98.011	-1.131	-0.293
-556.456	28.897	0.357	0.304
-555.442	257.881	0.246	-0.425
-554.427	800.000	-0.052	-0.213
-553.412	469.232	-0.230	-0.520
-552.398	-113.494	0.859	-0.169
-551.383	-200.000	0.100	0.558
-550.369	19.797	-0.710	-0.574
-549.354	25.960	0.429	-0.359
-548.339	-70.101	0.052	-0.020
-547.325	-200.000	-0.010	-0.614
-546.310	-71.356	-0.589	0.222
-545.296	57.897	-0.357	-0.350
-544.281	199.716	0.331	-0.509
-543.266	-97.066	-0.605	0.159
-542.252	104.686	0.481	0.569
-541.237	280.774	0.166	0.298
-540.223	-90.389	0.280	-0.082
-539.208	-25.782	0.250	-0.148
-538.193	72.864	-0.666	0.698
-537.179	66.847	-0.085	-0.087
-536.164	7.831	0.491	0.369
-535.150	267.131	-0.219	0.384
-534.135	-200.000	0.008	-0.064
-533.121	59.278	-0.178	0.176
-532.106	-75.407	0.514	-0.184
-531.091	377.690	0.078	-0.160
-530.077	395.553	0.133	-0.278
-529.062	319.882	-0.485	-0.924
-528.048	-44.259	-0.256	0.129
-527.033	-200.000	-0.055	0.330
-526.018	800.000	-0.146	-0.587
-525.004	41.135	0.325	0.294
-523.989	13.736	0.641	-0.500
-522.975	-73.727	1.005	-0.367
-521.960	-13.226	-0.446	0.290
-520.945	800.000	-0.121	0.461
-519.931	134.745	0.116	-0.151
-518.916	108.206	0.488	0.584
-517.902	-69.287	-1.077	0.415
-516.887	226.821	-0.082	0.134
-515.872	90.742	0.281	-0.315
-514.858	98.979	-0.136	-0.158
-513.843	11.559	0.135	0.104
-512.829	138.145	-0.093	-0.123
-511.814	800.000	-0.111	-0.382
-510.799	800.000	-0.179	0.544
-509.785	-108.972	-0.634	0.136
-508.770	-200.000	-0.478	-0.002
-507.756	-200.000	0.153	0.771
-506.741	787.875	0.285	0.783
-505.726	-73.406	0.438	-0.160
-504.712	201.801	-0.433	0.668
-503.697	211.036	0.336	-0.530
-502.683	77.168	0.421	0.448
-501.668	-200.000	-0.095	-0.676
-500.653	509.036	0.113	0.262
-499.639	273.921	0.256	0.453
-498.624	-187.498	0.625	-0.008
-497.610	-139.465	-0.385	0.041
-496.595	193.396	0.296	-0.448
-495.581	129.626	0.078	-0.100
-494.566	-118.479	-0.283	-0.050
-493.551	800.000	0.026	0.074
-492.537	124.529	-0.317	0.400
-491.522	-200.000	-0.166	-0.864
-490.508	-35.046	-0.326	-0.178
-489.493	-38.700	-0.527	-0.279
-488.478	-200.000	0.190	-1.114
-487.464	-20.755	0.434	0.267
-486.449	800.000	-0.149	0.437
-485.435	18.263	0.515	-0.412
-484.420	211.511	-0.658	1.038
-483.405	36.053	0.210	0.185
-482.391	254.362	0.368	-0.631
-481.376	775.625	-0.330	0.903
-480.362	-125.053	-0.381	-0.059
-479.347	21.944	-0.300	0.245
-478.332	12.005	0.779	-0.600
-477.318	-14.243	-0.567	-0.366
-476.303	-154.692	-0.753	-0.050
-475.289	-105.096	-0.053	0.012
-474.274	-139.735	-0.390	0.042
-473.259	-19.750	-0.865	0.535
-472.245	28.861	0.410	0.348
-471.230	76.084	0.664	0.703
-470.216	-68.491	-0.555	-0.216
-469.201	-17.307	-0.458	-0.289
-468.186	-91.922	0.306	0.087
-467.172	-200.000	-0.004	0.264
-466.157	678.616	0.237	-0.618
-465.143	-189.955	-0.611	-0.007
-464.128	-20.247	0.733	0.452
-463.113	-111.889	-0.352	-0.071
-462.099	100.963	0.754	-0.878
-461.084	-17.401	0.353	-0.223
-460.070	99.492	-0.406	0.471
-459.055	630.360	-0.089	-0.226
-458.040	212.584	0.137	0.216
-457.026	-61.435	0.224	-0.094
-456.011	-200.000	0.004	-0.280
-454.997	-60.524	-0.567	0.241
-453.982	-44.732	-0.519	-0.259
-452.968	-60.937	0.683	-0.289
-451.953	-44.398	-0.180	-0.090
-450.938	-59.199	-0.730	-0.315
-449.924	29.061	-0.465	0.395
-448.909	30.260	-0.444	-0.379
-447.895	-20.851	0.911	-0.559
-446.880	-104.527	0.140	-0.032
-445.865	10.341	0.448	-0.341
-444.851	-26.447	0.592	0.347
-443.836	-7.540	-0.417	-0.282
-442.822	-51.485	-0.438	-0.205
-441.807	14.316	-0.142	-0.111
-440.792	93.391	-0.272	0.308
-439.778	387.278	-0.150	0.310
-438.763	-200.000	-0.059	-0.381
-437.749	-200.000	0.183	0.949
-436.734	-200.000	0.014	0.181
-435.719	608.851	-0.227	-0.567
-434.705	-97.798	0.302	0.078
-433.690	-200.000	-0.046	0.616
-432.676	-200.000	0.051	0.372
-431.661	252.583	0.198	-0.338
-430.646	-126.987	-0.423	0.062
-429.632	-92.626	0.953	0.267
-428.617	356.364	-0.236	-0.470
-427.603	-43.448	0.076	-0.038
-426.588	-17.976	0.896	-0.561
-425.573	-200.000	-0.001	-0.091
-424.559	-103.191	0.889	0.210
-423.544	-200.000	0.026	0.347
-422.530	800.000	-0.078	-0.261
-421.515	214.737	0.298	0.472
-420.500	459.057	0.259	0.576
-419.486	131.907	-0.119	-0.153
-418.471	-200.000	-0.061	-0.773
-417.457	106.842	0.126	-0.149
-416.442	27.180	-0.350	0.293
-415.428	139.328	-0.482	0.634
-414.413	-45.525	0.294	0.145
-413.398	-113.544	0.242	-0.047
-412.384	43.837	-0.221	0.202
-411.369	-174.773	-1.234	0.035
-410.355	-84.661	-0.323	-0.102
-409.340	-114.151	0.268	0.052
-408.325	-200.000	0.042	-0.410
-407.311	-27.191	0.534	0.311
-406.296	-12.556	-0.456	0.297
-405.282	277.268	0.370	0.657
-404.267	44.264	0.301	-0.276
-403.252	-127.276	0.428	0.062
-402.238	-68.085	0.523	0.203
-401.223	127.980	-0.514	0.653
-400.209	-4.061	0.213	-0.147
-399.194	800.000	0.061	-0.227
-398.179	-12.680	-0.243	-0.159
-397.165	-99.455	0.703	0.177
-396.150	-148.300	0.183	-0.015
-395.136	-99.869	-0.781	0.195
-394.121	24.917	0.207	0.171
-393.106	-67.483	-0.618	-0.242
-392.092	32.840	0.892	-0.771
-391.077	-163.809	0.205	-0.010
-390.063	91.055	-0.329	0.369
-389.048	8.111	0.426	0.319
-388.033	-200.000	0.054	-0.288
-387.019	-200.000	-0.068	0.442
-386.004	-200.000	-0.066	0.869
-384.990	-200.000	0.042	-0.406
-383.975	-61.262	-0.379	-0.159
-382.960	-79.170	-0.198	0.067
-381.946	-49.999	-0.219	0.104
-380.931	767.435	-0.324	0.880
-379.917	-200.000	-0.004	-0.119
-378.902	800.000	0.177	0.517
-377.888	141.022	-0.326	-0.430
-376.873	283.318	-0.323	-0.578
-375.858	800.000	-0.059	-0.202
-374.844	-98.488	1.347	-0.344
-373.829	800.000	0.060	-0.259
-372.815	-200.000	-0.144	-0.922
-371.800	65.020	0.258	-0.259
-370.785	800.000	-0.247	-0.830
-369.771	-118.633	-0.675	0.119
-368.756	200.898	-0.317	0.486
-367.742	384.227	0.212	0.436
-366.727	-106.532	-0.471	0.105
-365.712	66.384	-0.525	0.532
-364.698	-200.000	-0.030	0.317
-363.683	-200.000	0.041	-0.417
-362.669	-60.615	-0.735	0.311
-361.654	-39.525	0.202	0.105
-360.639	-200.000	-0.043	0.342
-359.625	21.824	0.500	-0.406
-358.610	120.199	-0.492	-0.609
-357.596	-150.641	0.691	-0.053
-356.581	-55.862	1.106	-0.492
-355.566	56.207	0.305	0.295
-354.552	-66.252	-0.485	0.193
-353.537	-200.000	0.000	0.554
-352.523	202.837	0.472	0.726
-351.508	64.849	0.446	0.449
-350.493	-149.455	-0.780	-0.062
-349.479	-34.173	0.052	-0.028
-348.464	119.886	-0.288	-0.356
-347.450	14.005	1.007	-0.781
-346.435	-117.733	0.604	-0.108
-345.420	-62.825	-0.612	-0.252
-344.406	-27.843	-0.287	-0.166
-343.391	-104.877	-0.672	0.154
-342.377	213.466	-0.256	-0.403
-341.362	-13.690	-0.407	-0.263
-340.348	-200.000	-0.016	0.580
-339.333	-200.000	-0.019	0.170
-338.318	-32.597	0.240	0.133
-337.304	-170.031	0.109	-0.004
-336.289	-129.188	-0.251	0.035
-335.275	-200.000	0.000	-0.694
-334.260	-75.739	-0.035	-0.012
-333.245	-100.596	-0.367	-0.090
-332.231	136.360	-0.199	0.259
-331.216	293.871	0.155	-0.282
-330.202	320.446	0.198	-0.375
-329.187	-47.669	0.466	-0.225
-328.172	255.028	0.410	0.698
-327.158	88.789	0.084	0.094
-326.143	209.633	0.615	-0.960
-325.129	-122.683	-0.271	-0.044
-324.114	72.321	0.294	0.305
-323.099	800.000	0.252	0.824
-322.085	232.012	0.260	0.425
-321.070	211.212	0.024	-0.038
-320.056	-93.888	0.520	0.142
-319.041	67.815	0.041	0.042
-318.026	-197.851	-0.294	0.002
-317.012	800.000	-0.143	0.516
-315.997	-200.000	-0.014	-0.209
-314.983	575.437	-0.257	0.625
-313.968	789.978	-0.171	-0.468
-312.953	-115.316	-0.939	0.176
-311.939	-200.000	-0.079	0.444
-310.924	-200.000	-0.126	-0.811
-309.910	-2.861	-0.685	0.476
-308.895	19.674	0.584	-0.468
-307.880	-200.000	-0.061	0.402
-306.866	142.354	-0.057	0.075
-305.851	610.549	-0.029	0.073
-304.837	753.425	0.098	-0.263
-303.822	-22.252	-0.273	0.165
-302.807	-99.869	0.838	0.208
-301.793	800.000	0.084	-0.237
-300.778	-200.000	0.095	0.481
-299.764	-31.605	0.330	-0.184
-298.749	-3.039	0.289	0.200
-297.735	-158.524	-0.371	-0.021
-296.720	-135.486	0.185	0.022
-295.705	-149.506	-0.886	0.070
-294.691	410.685	-0.468	0.988
-293.676	-131.749	0.364	-0.047
-292.662	505.537	-0.203	-0.468
-291.647	-136.626	0.445	0.051
-290.632	-200.000	0.017	-0.155
-289.618	66.073	0.503	-0.508
-288.603	18.586	0.496	-0.394
-287.589	3.546	-0.372	-0.270
-286.574	26.201	-0.492	-0.409
-285.559	30.631	0.924	0.785
-284.545	-200.000	-0.001	0.672
-283.530	313.138	0.227	0.425
-282.516	33.716	-0.651	-0.563
-281.501	311.380	-0.259	0.482
-280.486	142.519	-0.507	0.670
-279.472	-200.000	-0.086	-0.515
-278.457	-200.000	-0.036	0.385
-277.443	56.238	-0.292	-0.282
-276.428	-200.000	-0.033	0.355
-275.413	16.656	0.390	-0.306
-274.399	719.902	0.152	-0.401
-273.384	25.563	0.358	0.296
-272.370	19.077	-0.311	0.248
-271.355	-59.023	-0.672	-0.288
-270.340	800.000	0.126	-0.548
-269.326	287.679	-0.258	0.464
-268.311	-200.000	-0.025	0.212
-267.297	-200.000	0.102	-0.513
-266.282	-135.958	0.704	-0.082
-265.267	-10.771	0.446	-0.293
-264.253	196.520	-0.332	-0.502
-263.238	-102.932	0.704	-0.166
-262.224	243.352	0.547	0.910
-261.209	141.158	-0.373	0.490
-260.195	-110.513	0.460	-0.095
-259.180	-143.078	-0.438	-0.042
-258.165	800.000	-0.193	0.623
-257.151	11.639	-0.631	0.481
-256.136	253.284	-0.301	0.510
-255.122	164.312	0.100	0.140
-254.107	800.000	-0.112	-0.313
-253.092	3.925	-0.310	-0.225
-252.078	93.876	0.270	0.304
-251.063	194.753	0.064	0.096
-250.049	109.551	-0.232	-0.276
-249.034	217.361	0.210	-0.333
-248.019	111.474	0.210	-0.252
-247.005	165.293	0.189	0.265
-245.990	-91.377	0.081	-0.023
-244.976	-129.246	0.266	-0.037
-243.961	98.093	0.088	-0.101
-242.946	472.993	0.263	0.587
-241.932	-147.307	-0.172	0.014
-240.917	800.000	0.028	-0.084
-239.903	-89.070	1.404	0.412
-238.888	-20.609	-0.455	0.277
-237.873	-200.000	-0.039	0.171
-236.859	304.079	0.277	0.510
-235.844	62.040	0.841	0.832
-234.830	-67.695	0.438	0.170
-233.815	800.000	0.108	-0.387
-232.800	-85.467	-0.484	-0.149
-231.786	15.383	0.359	0.280
-230.771	74.887	0.297	-0.310
-229.757	-120.813	-0.831	0.139
-228.742	-200.000	-0.066	-0.452
-227.727	-31.639	0.316	-0.176
-226.713	800.000	-0.202	-0.600
-225.698	74.981	-0.374	0.391
-224.684	131.838	0.386	0.493
-223.669	59.551	0.267	0.261
-222.655	-200.000	0.172	1.076
-221.640	800.000	0.266	-0.832
-220.625	703.689	0.090	-0.236
-219.611	800.000	0.182	0.614
-218.596	800.000	0.309	1.209
-217.582	193.991	0.356	-0.535
-216.567	-200.000	0.056	-0.673
-215.552	374.080	-0.142	0.287
-214.538	-200.000	-0.041	0.376
-213.523	-2.045	-0.241	0.168
-212.509	31.475	-0.248	0.211
-211.494	-101.712	-0.365	0.088
-210.479	153.158	-0.194	0.263
-209.465	-0.967	-0.018	-0.013
-208.450	-24.326	0.745	0.440
-207.436	10.629	-0.980	0.741
-206.421	10.075	-0.494	-0.372
-205.406	-200.000	-0.027	-0.525
-204.392	170.999	0.080	0.113
-203.377	281.503	0.145	-0.257
-202.363	61.142	-0.450	-0.443
-201.348	106.366	0.405	-0.476
-200.333	44.424	-0.377	-0.343
-199.319	-146.584	0.188	0.016
-198.304	-41.360	-0.431	0.220
-197.290	-34.101	-0.169	0.092
-196.275	800.000	-0.179	-0.519
-195.260	-153.432	-1.073	-0.074
-194.246	186.709	0.379	-0.559
-193.231	8.558	-0.507	0.378
-192.217	89.535	0.347	0.383
-191.202	22.744	-0.254	0.206
-190.187	-119.739	0.680	0.116
-189.173	-125.243	0.473	0.072
-188.158	-163.380	0.573	-0.027
-187.144	-120.310	0.739	-0.125
-186.129	800.000	-0.113	0.431
-185.114	289.519	0.287	-0.515
-184.100	138.600	-0.754	-0.980
-183.085	89.240	-0.426	-0.470
-182.071	-36.689	0.904	-0.481
-181.056	183.181	0.122	0.178
-180.042	107.162	-0.914	1.075
-179.027	-127.995	-0.421	-0.060
-178.012	-90.685	1.399	0.400
-176.998	-200.000	-0.040	0.213
-175.983	-200.000	-0.200	-0.954
-174.969	800.000	-0.252	-0.748
-173.954	-25.124	-0.608	0.357
-172.939	-68.827	0.282	0.108
-171.925	-33.882	0.266	0.145
-170.910	-78.451	0.182	-0.062
-169.896	595.493	-0.098	-0.239
-168.881	-52.505	0.319	-0.146
-167.866	-75.695	0.402	0.141
-166.852	438.380	-0.233	-0.503
-165.837	209.577	-0.479	-0.743
-164.823	-200.000	-0.009	0.246
-163.808	-115.616	-0.514	-0.095
-162.793	-200.000	0.165	-0.723
-161.779	84.740	-0.353	0.383
-160.764	-100.600	-1.021	0.249
-159.750	-41.983	0.673	0.341
-158.735	270.183	0.366	0.637
-157.720	-64.815	0.378	-0.151
-156.706	15.016	-0.849	-0.657
-155.691	465.556	0.380	-0.842
-154.677	-31.356	0.608	0.338
-153.662	-46.268	0.471	0.229
-152.647	61.247	-0.307	-0.301
-151.633	-158.906	-0.479	-0.027
-150.618	-161.842	-0.298	0.015
-149.604	-141.996	0.332	-0.033
-148.589	-137.558	-0.625	0.070
-147.574	67.382	0.676	-0.682
-146.560	-8.817	-0.401	0.266
-145.545	48.704	-0.456	-0.423
-144.531	-199.204	0.419	-0.002
-143.516	-84.905	0.640	0.198
-142.502	800.000	0.103	0.404
-141.487	-200.000	-0.034	-0.469
-140.472	-200.000	0.060	0.570
-139.458	-200.000	-0.096	-0.467
-138.443	-146.075	0.492	-0.043
-137.429	-98.647	0.659	-0.166
-136.414	-84.592	0.751	-0.234
-135.399	104.438	-0.235	0.273
-134.385	284.748	-0.299	-0.533
-133.370	-20.161	0.274	-0.167
-132.356	21.931	-0.152	0.122
-131.341	-132.919	0.209	-0.026
-130.326	-123.027	-1.104	-0.175
-129.312	66.283	-0.489	-0.491
-128.297	318.751	0.217	-0.405
-127.283	-200.000	-0.062	-0.318
-126.268	-200.000	0.022	-0.260
-125.253	-200.000	0.130	-1.152
-124.239	800.000	0.053	-0.159
-123.224	-18.933	0.668	0.411
-122.210	-134.328	0.597	-0.072
-121.195	191.573	0.038	-0.056
