DTS Sentinel unit serial number:	SN413079Multiplexer serial number:	ORYXHardware model number:	OX4-SRSoftware version number:	ORYX F/W v4.00 Oryx Data Collector v3.7.2.0data status	okinstallation	princeton_trtdifferential loss correction	single-endedforward channel	channel 3reverse channel	N/Adate	2019/09/19time	15:48:35forward acquisition time	60.00reverse acquisition time	0.00gamma	496.2192k internal	0.2303k external	0.2303temperature offset calibration	1.0005default loss term (dB/km)	0.3790temperature slope calibration	1.0000multiplexer offset coefficient	1.0000multiplexer slope coefficient	1.0000fibre end	0.00T internal ref (°C)	35.00T ext. ref 1 (°C)	1.18T ext. ref 2 (°C)	33.56length (m)	temperature (°C)	Stokes	anti-Stokes-747.200	9.214	-0.353	-0.272
-746.185	-150.732	0.128	0.010
-745.171	63.678	0.200	0.205
-744.156	-200.000	0.025	0.424
-743.142	-200.000	0.046	0.466
-742.127	24.277	-0.127	0.107
-741.112	539.020	0.156	-0.377
-740.098	-27.658	-0.024	-0.014
-739.083	209.578	-0.123	0.196
-738.069	60.256	-0.258	0.260
-737.054	404.502	-0.036	-0.076
-736.039	-200.000	-0.047	-0.272
-735.025	24.696	-0.250	-0.210
-734.010	147.753	-0.159	0.219
-732.996	282.775	0.059	-0.107
-731.981	6.333	0.082	0.062
-730.966	28.635	0.311	0.268
-729.952	251.655	-0.127	0.219
-728.937	-31.682	-0.072	0.041
-727.923	126.188	-0.096	-0.123
-726.908	225.569	-0.101	-0.166
-725.894	337.731	-0.111	-0.220
-724.879	313.798	0.096	-0.185
-723.864	-124.402	-0.205	0.032
-722.850	-199.130	0.127	-0.001
-721.835	-8.224	0.095	-0.065
-720.821	800.000	0.041	-0.175
-719.806	528.202	0.027	-0.066
-718.791	106.307	-0.110	0.132
-717.777	-200.000	-0.041	-0.253
-716.762	112.874	0.123	0.152
-715.748	-33.267	-0.074	-0.042
-714.733	130.906	-0.168	-0.219
-713.718	-85.313	-0.184	0.058
-712.704	93.919	0.100	-0.115
-711.689	-109.996	0.051	-0.011
-710.675	443.785	-0.078	0.174
-709.660	77.760	0.086	0.093
-708.645	-200.000	0.007	0.269
-707.631	605.519	-0.070	-0.177
-706.616	-200.000	0.053	0.247
-705.602	90.680	0.176	0.201
-704.587	-122.335	0.192	0.032
-703.572	-200.000	0.005	0.030
-702.558	-89.146	0.065	0.020
-701.543	-132.480	-0.413	-0.054
-700.529	800.000	-0.115	0.325
-699.514	-70.724	-0.140	-0.054
-698.499	-117.393	0.042	-0.008
-697.485	-130.944	0.199	0.027
-696.470	178.298	0.149	-0.221
-695.456	-98.637	0.225	0.058
-694.441	-200.000	0.014	0.366
-693.426	800.000	0.053	-0.167
-692.412	-108.178	-0.280	0.062
-691.397	158.245	0.124	0.175
-690.383	-115.174	-0.234	0.045
-689.368	800.000	0.033	0.102
-688.354	-41.265	-0.053	0.028
-687.339	-124.693	0.327	0.051
-686.324	-93.148	0.237	-0.067
-685.310	-52.347	-0.705	-0.332
-684.295	-136.605	-0.254	0.030
-683.281	141.741	-0.062	0.083
-682.266	219.901	-0.138	0.225
-681.251	-38.525	-0.326	-0.175
-680.237	131.453	0.219	0.286
-679.222	-183.960	0.146	0.003
-678.208	465.397	0.066	0.150
-677.193	-142.317	-0.103	0.010
-676.178	-76.369	0.382	0.136
-675.164	28.005	-0.280	-0.240
-674.149	32.476	-0.168	-0.148
-673.135	-200.000	-0.008	-0.163
-672.120	499.498	-0.174	-0.407
-671.105	55.936	0.154	-0.152
-670.091	-128.871	0.233	-0.033
-669.076	89.090	0.173	0.195
-668.062	-34.174	0.197	-0.110
-667.047	140.458	-0.161	0.216
-666.032	419.695	-0.080	-0.174
-665.018	-103.056	0.327	-0.079
-664.003	-17.735	-0.488	-0.311
-662.989	234.979	0.048	-0.080
-661.974	-48.744	-0.375	0.183
-660.959	-115.366	-0.217	-0.042
-659.945	-32.116	0.260	-0.148
-658.930	-103.926	-0.449	0.106
-657.916	-200.000	-0.011	0.196
-656.901	800.000	-0.049	0.174
-655.886	-81.682	-0.285	-0.095
-654.872	-200.000	-0.002	-0.034
-653.857	-200.000	0.016	-0.306
-652.843	308.653	0.074	-0.140
-651.828	-19.995	0.164	0.103
-650.814	-200.000	0.056	0.357
-649.799	-54.626	-0.246	-0.113
-648.784	67.235	0.275	-0.285
-647.770	227.931	0.126	0.208
-646.755	-56.927	0.388	0.174
-645.741	-140.472	-0.136	-0.014
-644.726	-44.468	-0.081	0.041
-643.711	69.077	0.062	0.064
-642.697	-85.507	-0.101	0.032
-641.682	425.676	-0.186	0.406
-640.668	-91.067	0.335	0.098
-639.653	-22.035	0.210	-0.130
-638.638	-39.432	0.093	-0.049
-637.624	-58.968	0.275	0.120
-636.609	-36.770	-0.124	0.067
-635.595	-82.772	-0.251	-0.082
-634.580	125.721	-0.207	-0.265
-633.565	-55.753	-0.199	-0.090
-632.551	88.041	0.282	-0.317
-631.536	-111.701	-0.295	-0.061
-630.522	-46.286	0.068	-0.034
-629.507	48.333	0.180	-0.171
-628.492	28.181	-0.142	-0.122
-627.478	55.226	-0.164	-0.160
-626.463	33.702	0.155	0.137
-625.449	-158.661	-0.167	-0.010
-624.434	293.899	-0.059	0.109
-623.419	33.623	0.075	0.066
-622.405	494.856	-0.148	-0.345
-621.390	-127.612	0.194	-0.028
-620.376	-200.000	0.030	0.137
-619.361	-120.977	0.179	0.030
-618.346	774.721	0.097	-0.268
-617.332	139.473	0.140	-0.186
-616.317	-200.000	0.059	-0.301
-615.303	36.824	0.142	-0.127
-614.288	541.839	-0.047	0.112
-613.273	800.000	-0.070	-0.210
-612.259	-200.000	-0.015	-0.106
-611.244	-101.362	0.448	0.111
-610.230	-200.000	-0.081	-0.361
-609.215	-26.746	0.103	0.061
-608.201	800.000	0.006	-0.024
-607.186	124.107	0.347	0.442
-606.171	-104.512	-0.093	0.022
-605.157	-200.000	-0.015	-0.174
-604.142	800.000	0.035	0.138
-603.128	172.970	-0.185	0.270
-602.113	800.000	0.066	-0.196
-601.098	-147.318	-0.239	0.021
-600.084	418.325	-0.106	0.230
-599.069	800.000	0.042	0.164
-598.055	-200.000	0.021	0.094
-597.040	124.306	-0.205	0.261
-596.025	117.599	0.157	-0.196
-595.011	-6.536	-0.069	0.047
-593.996	800.000	0.080	-0.264
-592.982	60.422	-0.147	-0.148
-591.967	201.569	-0.081	-0.126
-590.952	110.135	-0.276	-0.336
-589.938	-154.908	-0.267	-0.018
-588.923	-91.070	-0.105	0.030
-587.909	381.502	0.096	-0.200
-586.894	-37.705	0.182	-0.098
-585.879	-64.101	0.251	-0.104
-584.865	-200.000	0.004	-0.050
-583.850	-200.000	0.051	0.398
-582.836	32.418	0.372	0.325
-581.821	-200.000	-0.017	0.110
-580.806	-200.000	0.020	0.137
-579.792	-200.000	-0.045	0.399
-578.777	-200.000	0.017	-0.148
-577.763	-88.786	-0.518	-0.156
-576.748	-127.186	-0.164	0.024
-575.733	17.139	-0.228	0.183
-574.719	677.899	-0.056	0.148
-573.704	154.544	-0.018	0.025
-572.690	98.992	-0.244	-0.286
-571.675	800.000	0.012	0.046
-570.661	248.622	0.196	0.336
-569.646	-149.968	0.197	0.016
-568.631	800.000	-0.035	0.122
-567.617	391.279	0.160	0.335
-566.602	-46.915	-0.158	-0.078
-565.588	282.842	0.117	-0.212
-564.573	-173.569	0.241	0.007
-563.558	800.000	0.052	0.177
-562.544	-200.000	-0.042	-0.279
-561.529	612.709	0.066	-0.167
-560.515	-104.906	-0.093	-0.021
-559.500	-11.786	0.190	-0.126
-558.485	-179.557	0.166	-0.004
-557.471	800.000	0.108	-0.311
-556.456	-16.968	-0.188	-0.120
-555.442	348.398	0.097	-0.193
-554.427	-161.721	0.175	-0.009
-553.412	-200.000	-0.022	0.120
-552.398	-161.057	0.071	0.004
-551.383	-78.785	0.086	-0.030
-550.369	-45.617	0.044	0.022
-549.354	-94.598	-0.108	0.030
-548.339	-188.724	0.283	-0.004
-547.325	673.047	0.155	0.406
-546.310	800.000	0.078	0.253
-545.296	120.050	-0.143	0.179
-544.281	423.587	-0.045	-0.099
-543.266	-9.685	0.136	0.092
-542.252	-200.000	-0.023	0.173
-541.237	357.378	0.141	0.284
-540.223	326.415	-0.116	0.224
-539.208	-92.046	0.274	-0.078
-538.193	-200.000	-0.032	-0.143
-537.179	7.047	0.278	0.209
-536.164	258.607	-0.040	0.070
-535.150	-13.593	-0.189	-0.123
-534.135	-200.000	0.016	0.248
-533.121	-200.000	0.009	-0.186
-532.106	-200.000	-0.011	0.149
-531.091	11.769	-0.102	0.079
-530.077	17.050	-0.097	-0.077
-529.062	-118.524	-0.217	0.039
-528.048	102.321	0.172	-0.203
-527.033	79.041	-0.129	-0.140
-526.018	-62.891	0.071	0.030
-525.004	-200.000	-0.022	0.119
-523.989	-132.059	-0.084	-0.011
-522.975	41.361	0.126	-0.115
-521.960	-200.000	-0.027	-0.127
-520.945	-200.000	-0.069	0.314
-519.931	-200.000	-0.008	-0.156
-518.916	-200.000	0.043	-0.215
-517.902	-91.131	0.133	0.038
-516.887	-111.825	-0.294	0.060
-515.872	-45.649	0.146	-0.073
-514.858	27.818	0.370	-0.314
-513.843	141.429	0.208	0.278
-512.829	-200.000	0.002	-0.142
-511.814	800.000	-0.049	0.146
-510.799	-169.073	0.213	0.008
-509.785	-99.671	0.132	-0.033
-508.770	108.620	0.073	-0.088
-507.756	55.473	0.261	-0.255
-506.741	-80.763	0.125	0.042
-505.726	-200.000	0.042	0.314
-504.712	12.426	-0.277	-0.215
-503.697	-139.459	-0.377	0.041
-502.683	3.894	-0.252	0.186
-501.668	-116.360	0.260	0.048
-500.653	16.636	-0.230	-0.183
-499.639	265.289	-0.130	-0.229
-498.624	-20.679	0.257	0.159
-497.610	31.858	0.085	0.074
-496.595	-125.773	-0.249	-0.038
-495.581	169.954	0.050	-0.073
-494.566	70.957	-0.035	0.036
-493.551	-200.000	-0.018	0.179
-492.537	-72.383	-0.155	0.058
-491.522	-121.001	0.268	-0.045
-490.508	110.993	-0.195	0.237
-489.493	-200.000	-0.013	-0.144
-488.478	-76.418	-0.269	0.096
-487.464	45.485	-0.298	-0.277
-486.449	-47.370	-0.329	0.161
-485.435	399.801	0.075	0.159
-484.420	-155.310	0.242	0.016
-483.405	-99.894	-0.214	-0.054
-482.391	472.733	0.051	0.115
-481.376	-130.687	-0.308	-0.042
-480.362	2.192	-0.210	-0.153
-479.347	-91.495	-0.203	-0.058
-478.332	-131.455	0.286	-0.038
-477.318	143.174	0.116	-0.155
-476.303	66.661	-0.179	0.183
-475.289	210.257	-0.129	-0.205
-474.274	55.469	0.313	0.306
-473.259	112.758	-0.049	0.060
-472.245	65.469	0.138	-0.141
-471.230	-0.234	-0.129	-0.092
-470.216	-147.403	-0.207	-0.018
-469.201	-200.000	-0.025	0.264
-468.186	-144.755	-0.219	0.020
-467.172	-16.169	-0.183	-0.117
-466.157	158.383	0.093	-0.130
-465.143	526.224	0.066	-0.156
-464.128	615.742	0.084	-0.212
-463.113	-71.663	0.286	0.107
-462.099	-131.442	-0.189	-0.025
-461.084	14.874	-0.053	0.041
-460.070	-131.287	0.323	-0.043
-459.055	-109.332	-0.208	-0.044
-458.040	51.764	-0.055	0.053
-457.026	-200.000	-0.000	0.048
-456.011	800.000	0.099	0.319
-454.997	-132.131	-0.019	-0.002
-453.982	-104.568	0.192	-0.045
-452.968	176.893	-0.065	0.095
-451.953	-78.625	0.269	0.093
-450.938	218.225	-0.177	0.284
-449.924	151.692	-0.140	0.192
-448.909	-40.573	-0.268	-0.140
-447.895	-83.976	0.072	-0.023
-446.880	-36.858	-0.348	0.188
-445.865	-200.000	0.005	-0.313
-444.851	-35.295	-0.104	-0.057
-443.836	800.000	0.086	0.265
-442.822	-200.000	-0.026	0.268
-441.807	-200.000	-0.010	0.050
-440.792	24.478	-0.370	0.308
-439.778	-200.000	0.001	0.181
-438.763	-146.883	-0.438	0.038
-437.749	77.157	-0.140	-0.150
-436.734	305.949	-0.163	-0.306
-435.719	-200.000	0.058	-0.319
-434.705	-50.889	0.058	-0.027
-433.690	-48.731	0.254	0.123
-432.676	774.945	0.137	-0.375
-431.661	-89.527	0.305	-0.090
-430.646	285.854	0.051	0.093
-429.632	800.000	0.073	-0.244
-428.617	45.110	-0.214	0.198
-427.603	74.677	0.032	-0.034
-426.588	7.494	0.244	-0.184
-425.573	41.928	-0.272	-0.248
-424.559	-24.779	0.042	-0.025
-423.544	800.000	-0.058	0.242
-422.530	-90.987	0.374	0.108
-421.515	-200.000	0.001	-0.155
-420.500	-108.693	0.165	-0.036
-419.486	-1.160	-0.091	0.064
-418.471	800.000	0.064	0.198
-417.457	212.815	0.158	-0.251
-416.442	111.241	-0.098	-0.119
-415.428	800.000	0.106	-0.406
-414.413	-39.381	-0.266	0.140
-413.398	81.310	0.243	0.264
-412.384	10.943	-0.249	0.191
-411.369	-200.000	-0.013	0.192
-410.355	-111.649	-0.089	-0.018
-409.340	-200.000	-0.010	-0.100
-408.325	16.707	0.159	0.126
-407.311	223.620	-0.229	0.371
-406.296	156.651	-0.062	0.085
-405.282	332.028	-0.169	-0.327
-404.267	394.655	0.121	0.254
-403.252	-89.051	-0.130	0.039
-402.238	-200.000	0.012	0.282
-401.223	800.000	0.056	0.199
-400.209	22.024	0.088	0.072
-399.194	-44.227	-0.159	0.080
-398.179	750.772	-0.065	-0.177
-397.165	21.032	0.213	-0.174
-396.150	135.185	-0.079	0.103
-395.136	33.186	-0.289	0.252
-394.121	204.593	0.128	0.200
-393.106	-87.765	-0.141	-0.043
-392.092	-58.438	-0.074	-0.032
-391.077	-71.298	-0.036	-0.013
-390.063	310.286	-0.136	0.255
-389.048	122.405	0.158	-0.199
-388.033	-8.410	0.103	0.069
-387.019	240.469	0.082	0.138
-386.004	152.170	-0.304	0.417
-384.990	-177.042	-0.319	-0.008
-383.975	138.952	0.162	-0.214
-382.960	-36.935	-0.129	-0.070
-381.946	800.000	-0.040	0.168
-380.931	86.816	0.181	0.201
-379.917	-85.066	-0.392	0.123
-378.902	348.792	-0.093	0.184
-377.888	-50.466	-0.079	0.037
-376.873	-17.232	0.138	-0.088
-375.858	135.840	0.147	0.192
-374.844	119.621	-0.195	0.243
-373.829	-5.000	-0.184	-0.127
-372.815	-40.463	-0.192	0.100
-371.800	27.327	0.028	0.023
-370.785	800.000	0.071	0.205
-369.771	-106.325	0.117	0.026
-368.756	-64.004	-0.089	-0.037
-367.742	75.538	0.089	0.094
-366.727	264.849	0.129	0.225
-365.712	-200.000	0.023	0.112
-364.698	543.759	0.109	-0.261
-363.683	-200.000	0.012	0.110
-362.669	-119.787	-0.054	0.009
-361.654	-35.148	0.140	-0.077
-360.639	512.389	-0.073	0.171
-359.625	-104.394	0.103	0.024
-358.610	-76.218	0.026	0.009
-357.596	102.255	0.147	0.173
-356.581	45.322	-0.102	0.095
-355.566	-61.755	0.172	0.072
-354.552	514.278	0.057	0.133
-353.537	82.282	0.154	-0.167
-352.523	53.267	0.071	0.069
-351.508	472.412	0.245	0.552
-350.493	-200.000	0.015	-0.182
-349.479	559.860	-0.071	-0.173
-348.464	101.399	-0.092	-0.107
-347.450	91.545	0.199	-0.224
-346.435	-84.516	0.144	0.046
-345.420	-167.200	0.122	0.005
-344.406	360.597	0.017	-0.034
-343.391	-75.422	0.310	-0.111
-342.377	106.867	0.340	-0.405
-341.362	-83.980	-0.134	-0.043
-340.348	398.867	0.081	-0.169
-339.333	129.638	-0.105	-0.134
-338.318	800.000	-0.028	-0.118
-337.304	120.547	0.130	0.162
-336.289	-24.333	0.276	0.165
-335.275	-200.000	0.009	-0.162
-334.260	-200.000	-0.044	-0.324
-333.245	-96.696	0.188	0.049
-332.231	-1.951	0.239	-0.168
-331.216	-130.411	0.529	-0.072
-330.202	-56.766	-0.159	0.070
-329.187	-200.000	-0.093	0.491
-328.172	-200.000	0.002	-0.188
-327.158	505.954	-0.112	0.259
-326.143	-8.195	0.069	0.047
-325.129	-75.948	-0.130	-0.046
-324.114	-11.150	0.038	0.025
-323.099	-42.918	0.320	0.163
-322.085	27.620	-0.182	-0.153
-321.070	241.211	0.043	0.073
-320.056	317.711	-0.069	0.131
-319.041	744.098	-0.089	-0.239
-318.026	-175.464	0.148	-0.004
-317.012	-45.728	-0.124	-0.061
-315.997	-200.000	0.029	-0.237
-314.983	427.146	-0.137	-0.295
-313.968	-1.502	-0.047	0.033
-312.953	800.000	0.092	-0.320
-311.939	79.949	0.065	-0.070
-310.924	70.667	-0.123	0.127
-309.910	-200.000	0.010	-0.066
-308.895	-200.000	0.005	0.072
-307.880	151.817	-0.211	0.288
-306.866	-200.000	-0.002	-0.027
-305.851	-63.655	0.293	0.120
-304.837	-200.000	0.018	0.219
-303.822	31.659	-0.078	0.067
-302.807	-96.779	0.253	0.067
-301.793	800.000	0.008	-0.033
-300.778	800.000	-0.042	-0.167
-299.764	-200.000	0.022	-0.463
-298.749	122.794	-0.100	-0.125
-297.735	-100.999	0.042	-0.010
-296.720	-200.000	0.022	-0.162
-295.705	-167.837	-0.287	-0.011
-294.691	800.000	0.097	0.408
-293.676	-57.316	-0.174	0.077
-292.662	60.616	0.239	-0.237
-291.647	378.029	-0.045	0.093
-290.632	-200.000	-0.020	0.159
-289.618	40.798	-0.237	0.214
-288.603	425.607	0.101	-0.218
-287.589	257.796	0.080	-0.137
-286.574	-64.320	-0.225	0.091
-285.559	166.840	-0.124	0.176
-284.545	97.052	0.034	0.039
-283.530	0.370	0.086	-0.062
-282.516	27.693	-0.111	0.094
-281.501	-175.008	0.091	-0.003
-280.486	619.518	-0.088	-0.221
-279.472	-120.368	0.222	-0.038
-278.457	-200.000	0.011	0.079
-277.443	800.000	-0.097	0.353
-276.428	502.869	0.027	-0.062
-275.413	594.415	0.117	0.288
-274.399	-88.213	-0.205	-0.061
-273.384	800.000	-0.049	0.174
-272.370	344.210	0.051	-0.100
-271.355	91.206	-0.101	-0.113
-270.340	666.080	0.060	-0.154
-269.326	135.201	-0.034	-0.044
-268.311	-17.924	-0.021	-0.013
-267.297	-124.763	-0.269	-0.042
-266.282	220.288	-0.036	-0.057
-265.267	800.000	0.067	-0.192
-264.253	800.000	0.115	-0.363
-263.238	-46.228	0.200	-0.098
-262.224	-4.562	-0.044	0.030
-261.209	-200.000	-0.005	-0.127
-260.195	623.579	0.033	0.083
-259.180	156.246	0.024	0.033
-258.165	4.278	-0.167	0.123
-257.151	625.730	-0.102	0.258
-256.136	-41.529	-0.028	0.014
-255.122	-48.717	0.073	0.035
-254.107	800.000	-0.021	-0.082
-253.092	-124.193	-0.239	-0.037
-252.078	-76.669	0.212	-0.074
-251.063	-66.371	0.160	0.063
-250.049	-200.000	0.005	-0.072
-249.034	-141.461	0.163	-0.017
-248.019	218.436	-0.175	-0.279
-247.005	95.551	-0.143	0.163
-245.990	-200.000	-0.005	0.173
-244.976	-200.000	0.028	-0.240
-243.961	-89.522	0.142	-0.042
-242.946	-37.803	0.063	-0.034
-241.932	496.702	0.119	-0.273
-240.917	-190.277	-0.164	-0.002
-239.903	-0.154	0.185	0.131
-238.888	-200.000	0.035	0.208
-237.873	110.229	0.198	-0.238
-236.859	800.000	-0.052	-0.222
-235.844	-42.971	0.356	-0.180
-234.830	77.936	-0.162	0.173
-233.815	61.724	-0.175	0.174
-232.800	-200.000	-0.061	-0.282
-231.786	102.055	-0.047	-0.055
-230.771	-46.162	-0.251	-0.123
-229.757	24.395	-0.202	-0.167
-228.742	-38.453	-0.411	-0.217
-227.727	-200.000	-0.011	-0.048
-226.713	786.973	-0.124	0.341
-225.698	-106.829	0.188	0.042
-224.684	-41.499	0.172	0.088
-223.669	26.843	-0.089	-0.074
-222.655	49.470	0.179	-0.168
-221.640	47.983	-0.061	-0.057
-220.625	34.148	-0.102	0.089
-219.611	-200.000	-0.036	-0.167
-218.596	800.000	-0.009	0.034
-217.582	-200.000	0.045	0.322
-216.567	-200.000	-0.035	0.185
-215.552	-49.801	-0.171	-0.081
-214.538	-127.824	-0.156	-0.022
-213.523	-200.000	0.020	-0.384
-212.509	-200.000	0.026	-0.232
-211.494	13.162	-0.111	0.086
-210.479	-16.432	0.201	-0.127
-209.465	465.403	0.124	-0.278
-208.450	103.199	0.166	-0.194
-207.436	-200.000	0.019	-0.463
-206.421	-123.767	-0.348	-0.055
-205.406	-142.258	-0.153	0.015
-204.392	-35.216	-0.132	-0.071
-203.377	96.815	-0.189	0.216
-202.363	-78.100	0.176	0.060
-201.348	284.315	-0.070	0.125
-200.333	630.779	0.088	0.223
-199.319	390.134	0.255	-0.526
-198.304	112.397	-0.196	-0.236
-197.290	-200.000	0.001	-0.229
-196.275	-200.000	0.015	-0.365
-195.260	-13.861	-0.368	0.237
-194.246	-172.524	0.159	0.005
-193.231	-76.781	0.160	-0.056
-192.217	142.774	0.107	0.142
-191.202	-101.559	-0.095	-0.023
-190.187	491.335	-0.167	0.381
-189.173	303.024	-0.221	0.407
-188.158	133.653	0.093	0.121
-187.144	1.392	-0.174	-0.125
-186.129	-98.149	0.171	0.044
-185.114	-200.000	0.003	-0.311
-184.100	800.000	-0.007	0.029
-183.085	-110.514	0.173	0.036
-182.071	-200.000	0.027	0.331
-181.056	118.146	-0.058	0.071
-180.042	-200.000	-0.007	-0.162
-179.027	-171.922	0.047	0.002
-178.012	11.929	-0.053	0.041
-176.998	177.152	0.050	0.073
-175.983	800.000	0.073	0.226
-174.969	-13.629	0.109	-0.071
-173.954	-200.000	0.011	-0.186
-172.939	83.978	0.295	-0.321
-171.925	-124.973	0.166	-0.025
-170.910	73.095	0.145	-0.151
-169.896	-103.894	-0.075	0.017
-168.881	-107.265	-0.292	0.064
-167.866	-135.402	-0.224	-0.027
-166.852	432.761	-0.019	0.041
-165.837	-117.338	-0.227	-0.041
-164.823	-93.771	-0.073	-0.020
-163.808	800.000	0.086	0.367
-162.793	139.515	0.188	0.246
-161.779	-200.000	0.004	0.107
-160.764	-104.162	0.124	-0.029
-159.750	101.672	0.162	-0.188
-158.735	407.189	0.086	-0.180
-157.720	108.794	-0.196	0.233
-156.706	224.846	0.138	-0.222
-155.691	26.104	-0.251	0.209
-154.677	177.462	-0.129	-0.187
-153.662	308.406	0.139	-0.258
-152.647	-51.788	-0.172	0.080
-151.633	-200.000	0.007	0.136
-150.618	51.477	-0.278	0.263
-149.604	-134.110	0.105	0.013
-148.589	7.439	-0.229	-0.171
-147.574	-67.055	0.201	0.079
-146.560	-57.780	-0.155	-0.067
-145.545	-59.508	0.190	-0.081
-144.531	-63.324	0.054	-0.022
-143.516	800.000	0.104	-0.304
-142.502	54.707	-0.241	-0.231
-141.487	-156.165	-0.203	0.013
-140.472	209.137	-0.112	-0.174
-139.458	-160.342	-0.121	0.007
-138.443	-200.000	-0.040	-0.201
-137.429	212.893	0.044	0.070
-136.414	71.640	0.201	-0.208
-135.399	-28.482	0.245	0.140
-134.385	-24.103	0.103	-0.061
-133.370	425.472	-0.105	-0.226
-132.356	800.000	0.061	0.257
-131.341	197.480	-0.122	0.186
-130.326	-78.883	0.151	-0.051
-129.312	-200.000	-0.040	-0.187
-128.297	23.057	0.109	-0.089
-127.283	-199.300	0.117	-0.001
-126.268	79.789	0.101	-0.108
-125.253	-50.063	-0.269	-0.127
-124.239	-200.000	0.009	0.075
-123.224	-133.963	-0.101	0.012
-122.210	-8.633	0.240	0.160
-121.195	13.256	0.243	0.187
