DTS Sentinel unit serial number:	SN413079Multiplexer serial number:	ORYXHardware model number:	OX4-SRSoftware version number:	ORYX F/W v4.00 Oryx Data Collector v3.7.2.0data status	okinstallation	princeton_trtdifferential loss correction	single-endedforward channel	channel 3reverse channel	N/Adate	2019/09/18time	08:00:34forward acquisition time	60.00reverse acquisition time	0.00gamma	496.2192k internal	0.2341k external	0.2341temperature offset calibration	0.9942default loss term (dB/km)	0.3790temperature slope calibration	1.0000multiplexer offset coefficient	1.0000multiplexer slope coefficient	1.0000fibre end	0.00T internal ref (°C)	23.61T ext. ref 1 (°C)	0.19T ext. ref 2 (°C)	19.30length (m)	temperature (°C)	Stokes	anti-Stokes-747.200	17.750	0.187	0.149
-746.185	8.910	-0.294	0.222
-745.171	-66.861	0.349	0.138
-744.156	31.589	-0.254	0.219
-743.142	-200.000	0.020	-0.190
-742.127	68.506	-0.075	0.077
-741.112	-116.749	-0.062	-0.011
-740.098	-161.209	-0.399	0.021
-739.083	-125.613	0.059	0.009
-738.069	-200.000	-0.039	0.489
-737.054	-26.363	-0.082	-0.048
-736.039	-200.000	0.041	-0.243
-735.025	-4.767	0.280	0.193
-734.010	-77.757	-0.312	0.108
-732.996	-16.414	-0.146	-0.092
-731.981	27.743	0.179	-0.151
-730.966	391.140	0.091	-0.189
-729.952	-200.000	0.003	-0.252
-728.937	139.261	-0.146	-0.193
-727.923	-183.528	0.031	-0.001
-726.908	166.426	-0.070	-0.099
-725.894	52.866	0.154	0.148
-724.879	-25.031	-0.336	0.200
-723.864	-35.454	-0.307	-0.167
-722.850	88.326	-0.183	-0.204
-721.835	800.000	0.039	-0.130
-720.821	263.409	-0.234	0.407
-719.806	602.743	0.046	0.115
-718.791	-26.685	-0.336	0.197
-717.777	117.214	-0.073	-0.090
-716.762	-200.000	0.001	-0.125
-715.748	9.053	-0.065	-0.049
-714.733	800.000	0.084	-0.244
-713.718	-81.118	-0.070	0.023
-712.704	23.455	0.171	-0.141
-711.689	-70.584	-0.331	0.125
-710.675	-8.977	-0.134	0.090
-709.660	-113.230	0.284	-0.056
-708.645	4.834	-0.222	0.163
-707.631	-200.000	-0.013	-0.229
-706.616	-4.638	0.144	0.099
-705.602	33.994	-0.169	-0.148
-704.587	800.000	0.127	-0.419
-703.572	-101.340	-0.180	-0.044
-702.558	-167.771	0.211	0.008
-701.543	37.499	0.178	0.158
-700.529	216.162	0.169	0.268
-699.514	16.270	-0.181	-0.143
-698.499	-200.000	0.004	-0.112
-697.485	800.000	0.073	0.302
-696.470	131.199	0.145	-0.187
-695.456	135.515	0.023	-0.030
-694.441	-85.613	0.361	-0.112
-693.426	800.000	0.074	0.238
-692.412	-164.237	0.078	0.004
-691.397	-4.256	-0.216	0.150
-690.383	6.060	0.072	-0.054
-689.368	-87.240	0.277	0.084
-688.354	-200.000	-0.037	0.177
-687.339	-65.912	0.212	-0.085
-686.324	88.343	0.026	-0.029
-685.310	28.165	0.231	-0.195
-684.295	1.060	-0.170	-0.122
-683.281	112.800	0.146	-0.176
-682.266	-90.983	-0.087	0.025
-681.251	-28.892	0.232	-0.133
-680.237	-41.098	0.102	-0.053
-679.222	15.910	-0.035	-0.028
-678.208	36.831	-0.155	-0.137
-677.193	291.105	-0.207	-0.377
-676.178	-200.000	0.035	-0.165
-675.164	-200.000	0.046	0.224
-674.149	-200.000	0.024	0.369
-673.135	-200.000	-0.077	0.403
-672.120	51.592	0.037	-0.035
-671.105	-58.532	-0.264	0.115
-670.091	124.491	-0.367	-0.461
-669.076	87.294	0.324	0.357
-668.062	-93.722	0.327	0.090
-667.047	-21.086	0.178	-0.109
-666.032	507.361	0.086	-0.198
-665.018	-176.110	0.115	0.003
-664.003	33.520	0.246	0.214
-662.989	296.919	0.062	-0.114
-661.974	2.550	-0.408	0.295
-660.959	-135.776	0.163	-0.019
-659.945	-84.455	0.360	0.114
-658.930	587.677	-0.088	-0.217
-657.916	800.000	0.066	0.220
-656.901	43.969	-0.234	0.214
-655.886	31.958	-0.036	0.031
-654.872	800.000	-0.094	-0.318
-653.857	-141.952	-0.093	0.009
-652.843	-18.006	-0.175	-0.109
-651.828	-58.554	0.088	-0.038
-650.814	518.990	0.174	0.408
-649.799	-38.459	-0.301	0.159
-648.784	86.210	0.080	0.088
-647.770	579.672	0.051	-0.125
-646.755	-66.768	0.228	0.090
-645.741	195.697	-0.188	-0.286
-644.726	155.896	-0.133	-0.183
-643.711	362.564	-0.168	-0.337
-642.697	-79.077	-0.245	0.083
-641.682	146.650	-0.121	-0.163
-640.668	559.142	-0.116	-0.278
-639.653	107.918	-0.225	0.267
-638.638	256.786	-0.147	0.251
-637.624	-200.000	-0.067	0.306
-636.609	-85.779	0.119	0.037
-635.595	-26.020	0.462	-0.271
-634.580	-141.695	-0.150	-0.015
-633.565	-96.329	-0.106	0.028
-632.551	-124.987	0.279	-0.043
-631.536	365.296	0.054	-0.108
-630.522	-43.244	0.261	0.132
-629.507	800.000	0.053	0.150
-628.492	-200.000	0.032	-0.296
-627.478	-200.000	-0.022	-0.115
-626.463	104.917	0.183	-0.215
-625.449	-91.214	0.184	0.053
-624.434	11.978	-0.271	-0.208
-623.419	107.386	-0.141	0.168
-622.405	-121.195	0.121	0.020
-621.390	129.003	-0.125	-0.159
-620.376	-12.992	0.041	0.027
-619.361	-200.000	-0.007	-0.087
-618.346	403.181	-0.137	0.288
-617.332	-121.526	-0.181	-0.030
-616.317	8.483	-0.414	-0.311
-615.303	-54.780	-0.013	-0.006
-614.288	800.000	0.085	0.250
-613.273	199.548	0.150	0.229
-612.259	-109.459	0.403	-0.085
-611.244	-80.727	-0.392	0.130
-610.230	-168.253	0.078	0.003
-609.215	74.878	-0.113	-0.119
-608.201	800.000	-0.049	-0.208
-607.186	-22.905	-0.275	-0.165
-606.171	800.000	0.087	-0.267
-605.157	364.890	0.073	0.147
-604.142	-74.626	-0.362	0.130
-603.128	-200.000	-0.049	-0.316
-602.113	386.336	-0.143	0.295
-601.098	272.999	0.156	0.275
-600.084	800.000	0.047	0.162
-599.069	-118.396	0.095	0.017
-598.055	33.901	-0.116	0.101
-597.040	-190.757	0.243	0.003
-596.025	-142.040	-0.332	-0.033
-595.011	-16.006	0.213	0.135
-593.996	152.159	-0.098	-0.133
-592.982	-24.959	-0.138	0.082
-591.967	311.156	-0.146	-0.273
-590.952	265.435	0.083	0.145
-589.938	4.377	-0.147	-0.107
-588.923	-172.447	-0.308	-0.010
-587.909	112.123	0.213	0.257
-586.894	45.794	0.225	-0.208
-585.879	-200.000	-0.020	-0.108
-584.865	484.790	-0.116	-0.262
-583.850	354.861	0.039	-0.078
-582.836	-144.352	0.343	0.032
-581.821	-200.000	0.001	0.489
-580.806	-91.584	0.182	-0.052
-579.792	79.319	0.165	0.176
-578.777	71.049	-0.114	0.118
-577.763	91.231	-0.070	-0.078
-576.748	20.750	-0.270	0.217
-575.733	-59.409	-0.099	-0.042
-574.719	-125.099	-0.044	-0.007
-573.704	177.845	0.181	-0.263
-572.690	-200.000	-0.088	-0.598
-571.675	164.118	-0.122	-0.171
-570.661	-167.215	0.245	-0.010
-569.646	-200.000	0.035	0.238
-568.631	-134.863	-0.472	-0.057
-567.617	800.000	0.087	0.313
-566.602	-92.859	-0.569	0.158
-565.588	480.221	0.070	-0.159
-564.573	-200.000	-0.036	-0.346
-563.558	-15.909	0.161	-0.102
-562.544	800.000	-0.059	-0.207
-561.529	-83.295	-0.575	0.183
-560.515	263.842	-0.166	0.287
-559.500	329.478	-0.093	-0.177
-558.485	6.525	-0.440	-0.325
-557.471	145.161	0.123	-0.164
-556.456	27.190	0.128	0.107
-555.442	46.215	-0.126	-0.116
-554.427	-165.512	-0.159	0.007
-553.412	800.000	0.104	-0.355
-552.398	-32.487	-0.082	0.045
-551.383	-50.263	-0.158	-0.074
-550.369	-102.762	-0.049	0.012
-549.354	374.027	-0.147	-0.297
-548.339	-126.510	-0.180	0.027
-547.325	-200.000	0.010	-0.249
-546.310	5.021	-0.223	0.163
-545.296	800.000	-0.026	0.092
-544.281	144.168	0.248	0.329
-543.266	170.372	-0.204	0.290
-542.252	-79.882	0.167	0.056
-541.237	-200.000	-0.014	-0.193
-540.223	15.536	0.166	0.130
-539.208	-14.644	-0.087	-0.056
-538.193	78.602	0.141	-0.150
-537.179	-58.313	0.189	0.082
-536.164	-105.742	0.072	0.016
-535.150	-66.348	-0.405	0.160
-534.135	-200.000	0.035	-0.154
-533.121	502.826	-0.029	0.067
-532.106	-69.191	0.184	0.070
-531.091	261.485	-0.172	-0.297
-530.077	663.942	-0.138	0.353
-529.062	-200.000	-0.017	-0.182
-528.048	23.021	0.418	0.341
-527.033	53.974	-0.296	-0.283
-526.018	13.346	0.324	-0.250
-525.004	-70.399	-0.064	0.024
-523.989	104.526	-0.038	-0.045
-522.975	112.843	0.357	-0.430
-521.960	-200.000	-0.011	-0.073
-520.945	-182.015	0.329	-0.006
-519.931	-200.000	-0.074	-0.382
-518.916	-9.558	0.173	-0.115
-517.902	-200.000	-0.050	0.349
-516.887	-200.000	-0.039	0.207
-515.872	-62.426	0.341	-0.141
-514.858	-47.078	0.236	-0.114
-513.843	417.958	0.033	-0.071
-512.829	73.530	0.175	0.182
-511.814	800.000	0.013	-0.038
-510.799	132.665	0.155	0.199
-509.785	129.508	0.218	-0.276
-508.770	-19.414	0.138	-0.085
-507.756	-20.034	0.212	-0.130
-506.741	-25.968	-0.097	-0.056
-505.726	800.000	0.072	-0.258
-504.712	96.316	-0.182	0.206
-503.697	-26.969	-0.159	-0.092
-502.683	22.826	0.338	0.275
-501.668	-200.000	-0.029	-0.298
-500.653	-200.000	0.005	0.212
-499.639	189.972	-0.085	-0.127
-498.624	-23.774	0.303	-0.180
-497.610	40.316	0.217	0.194
-496.595	-108.913	-0.246	-0.052
-495.581	47.731	-0.099	0.092
-494.566	4.937	-0.192	-0.140
-493.551	2.019	0.259	-0.185
-492.537	39.173	-0.153	-0.136
-491.522	-108.596	-0.263	0.056
-490.508	65.531	0.108	-0.108
-489.493	-10.490	0.137	-0.090
-488.478	-83.184	-0.229	-0.073
-487.464	800.000	-0.022	-0.068
-486.449	67.611	-0.159	-0.161
-485.435	82.403	0.148	-0.160
-484.420	-167.806	0.217	0.009
-483.405	-122.096	-0.112	-0.018
-482.391	162.501	0.091	-0.127
-481.376	-200.000	0.020	0.235
-480.362	1.079	0.165	0.117
-479.347	800.000	-0.027	0.099
-478.332	-164.551	0.219	0.010
-477.318	-107.474	-0.304	0.066
-476.303	15.838	0.032	0.025
-475.289	-169.847	-0.185	0.007
-474.274	800.000	0.091	-0.333
-473.259	-43.937	-0.310	0.154
-472.245	-200.000	-0.016	0.340
-471.230	-95.937	0.140	0.037
-470.216	258.970	0.115	-0.197
-469.201	-200.000	0.098	0.459
-468.186	679.576	-0.132	0.341
-467.172	-200.000	-0.000	0.020
-466.157	-154.927	-0.210	0.014
-465.143	210.522	0.119	-0.185
-464.128	62.751	0.103	0.103
-463.113	160.222	0.129	0.178
-462.099	204.779	0.230	-0.353
-461.084	-125.893	0.657	0.098
-460.070	20.991	-0.086	-0.069
-459.055	-200.000	0.014	-0.088
-458.040	-100.555	0.043	-0.011
-457.026	361.271	0.072	0.143
-456.011	-69.764	-0.153	0.058
-454.997	800.000	0.061	0.198
-453.982	122.035	-0.030	-0.037
-452.968	-57.902	-0.233	-0.101
-451.953	-90.750	-0.190	0.054
-450.938	-40.026	0.267	0.138
-449.924	77.351	0.327	0.344
-448.909	-19.296	-0.189	-0.116
-447.895	-200.000	0.048	-0.307
-446.880	166.030	0.192	0.269
-445.865	4.917	-0.034	0.025
-444.851	166.884	0.158	-0.222
-443.836	-41.762	0.210	0.107
-442.822	211.228	-0.050	0.079
-441.807	-51.924	0.051	-0.024
-440.792	-66.351	-0.138	0.054
-439.778	-101.923	0.144	0.034
-438.763	38.680	-0.164	0.144
-437.749	181.209	0.145	-0.211
-436.734	-93.532	0.178	0.049
-435.719	-200.000	0.002	0.300
-434.705	800.000	-0.079	0.265
-433.690	26.217	-0.150	0.124
-432.676	-8.157	-0.215	-0.143
-431.661	-200.000	-0.007	0.047
-430.646	-200.000	-0.011	-0.121
-429.632	-80.556	-0.049	-0.016
-428.617	66.481	0.104	0.104
-427.603	-200.000	0.014	0.073
-426.588	106.242	-0.212	-0.249
-425.573	-82.482	-0.136	0.044
-424.559	499.359	0.185	0.423
-423.544	-100.984	0.130	0.031
-422.530	309.113	-0.114	-0.211
-421.515	-103.677	0.211	-0.049
-420.500	-90.185	-0.247	0.071
-419.486	139.544	-0.138	0.179
-418.471	-11.592	0.139	-0.090
-417.457	50.776	-0.068	-0.063
-416.442	-132.672	0.055	-0.007
-415.428	154.480	-0.237	-0.322
-414.413	-200.000	0.008	0.060
-413.398	-200.000	0.045	-0.388
-412.384	393.327	0.036	0.074
-411.369	219.337	0.097	0.153
-410.355	209.117	0.087	-0.134
-409.340	341.725	-0.081	0.158
-408.325	50.661	-0.139	-0.130
-407.311	160.812	0.020	0.027
-406.296	-99.812	0.443	-0.110
-405.282	-73.904	0.205	-0.074
-404.267	-30.085	-0.066	-0.037
-403.252	-104.816	-0.238	0.054
-402.238	63.563	-0.139	-0.138
-401.223	-75.086	0.120	0.043
-400.209	-86.793	-0.123	0.037
-399.194	-200.000	-0.011	0.092
-398.179	-69.581	-0.329	-0.125
-397.165	456.124	-0.115	-0.252
-396.150	629.888	0.060	0.149
-395.136	36.345	0.113	0.099
-394.121	-3.144	0.161	-0.111
-393.106	-200.000	-0.029	-0.159
-392.092	-10.456	-0.191	-0.125
-391.077	800.000	0.046	-0.192
-390.063	376.203	0.054	0.110
-389.048	-200.000	-0.031	0.227
-388.033	-200.000	0.000	0.075
-387.019	-125.586	-0.161	-0.024
-386.004	341.282	-0.067	0.129
-384.990	-200.000	-0.015	0.160
-383.975	204.605	0.178	0.273
-382.960	-5.443	0.146	-0.099
-381.946	-99.390	-0.190	0.047
-380.931	-87.350	0.249	0.075
-379.917	800.000	0.030	0.085
-378.902	72.119	-0.273	-0.281
-377.888	146.486	0.091	0.121
-376.873	98.340	-0.232	0.264
-375.858	500.869	-0.136	0.311
-374.844	-46.996	0.252	-0.122
-373.829	-200.000	0.004	0.054
-372.815	-122.363	0.281	-0.045
-371.800	198.390	-0.132	-0.199
-370.785	-93.906	0.200	-0.054
-369.771	-200.000	0.064	0.295
-368.756	6.297	-0.077	0.057
-367.742	300.080	-0.203	0.370
-366.727	-85.724	-0.188	-0.058
-365.712	182.850	0.109	-0.159
-364.698	-79.562	0.468	0.156
-363.683	50.346	-0.051	-0.048
-362.669	-2.648	-0.210	0.145
-361.654	-97.029	0.353	-0.091
-360.639	311.911	0.106	0.196
-359.625	800.000	0.105	-0.312
-358.610	-109.866	-0.404	0.084
-357.596	-9.424	0.241	0.159
-356.581	-200.000	-0.001	-0.222
-355.566	-16.674	-0.054	-0.034
-354.552	316.514	-0.083	0.155
-353.537	-200.000	0.066	-0.337
-352.523	-3.357	-0.111	-0.076
-351.508	366.484	-0.046	-0.092
-350.493	-200.000	-0.053	0.482
-349.479	800.000	-0.031	0.109
-348.464	23.958	0.321	-0.261
-347.450	-200.000	0.030	-0.209
-346.435	460.332	-0.118	-0.260
-345.420	-26.516	0.148	0.085
-344.406	-30.738	0.129	0.072
-343.391	-17.357	0.182	0.113
-342.377	-60.287	-0.193	0.081
-341.362	800.000	0.022	0.093
-340.348	-144.798	-0.273	-0.025
-339.333	58.291	-0.213	0.206
-338.318	37.320	-0.111	0.097
-337.304	-200.000	0.008	-0.071
-336.289	483.834	0.120	-0.269
-335.275	-141.813	0.227	0.022
-334.260	-138.798	-0.118	-0.013
-333.245	-200.000	-0.021	0.114
-332.231	710.527	0.129	0.335
-331.216	-1.857	-0.256	0.177
-330.202	-133.664	-0.074	-0.009
-329.187	621.203	-0.127	-0.314
-328.172	-200.000	0.024	0.133
-327.158	453.827	-0.090	-0.197
-326.143	-200.000	-0.033	0.245
-325.129	645.558	0.072	0.181
-324.114	-48.244	0.088	-0.042
-323.099	-200.000	0.015	0.074
-322.085	-130.319	-0.115	-0.015
-321.070	92.769	-0.180	0.200
-320.056	-17.310	0.135	0.084
-319.041	-30.167	-0.155	-0.087
-318.026	322.010	-0.102	0.192
-317.012	81.721	0.163	0.174
-315.997	-143.344	0.360	0.034
-314.983	-200.000	-0.027	-0.349
-313.968	121.759	-0.117	-0.143
-312.953	-200.000	0.001	0.058
-311.939	-78.519	-0.095	-0.032
-310.924	-69.869	0.129	-0.048
-309.910	169.393	0.259	-0.364
-308.895	800.000	-0.017	0.073
-307.880	85.071	-0.274	0.296
-306.866	100.082	0.018	0.021
-305.851	-6.964	-0.339	0.227
-304.837	-200.000	-0.089	0.416
-303.822	-115.681	-0.108	0.020
-302.807	219.326	-0.097	0.152
-301.793	243.202	-0.087	-0.144
-300.778	-37.067	0.245	0.129
-299.764	-200.000	-0.016	-0.395
-298.749	-37.518	0.242	-0.127
-297.735	380.331	0.191	0.385
-296.720	123.090	0.146	0.180
-295.705	493.220	-0.059	-0.132
-294.691	119.046	-0.100	-0.122
-293.676	60.133	0.139	0.136
-292.662	-200.000	0.026	-0.191
-291.647	-43.455	-0.275	-0.137
-290.632	8.431	-0.093	0.069
-289.618	162.603	-0.029	0.040
-288.603	-94.476	0.165	-0.044
-287.589	438.835	0.102	0.218
-286.574	332.618	0.061	0.116
-285.559	-200.000	-0.012	-0.073
-284.545	-64.573	-0.105	0.042
-283.530	-200.000	-0.061	-0.385
-282.516	38.457	-0.152	-0.134
-281.501	322.740	-0.069	0.130
-280.486	143.476	0.104	0.136
-279.472	-52.711	-0.264	-0.120
-278.457	67.453	0.225	-0.226
-277.443	-200.000	-0.100	-0.508
-276.428	-96.752	-0.253	0.065
-275.413	-200.000	0.028	-0.290
-274.399	-200.000	0.015	-0.245
-273.384	74.342	0.088	0.091
-272.370	-119.625	-0.381	0.065
-271.355	92.764	-0.168	0.186
-270.340	800.000	-0.039	-0.116
-269.326	-83.841	-0.090	0.028
-268.311	-200.000	0.035	0.206
-267.297	-200.000	0.010	0.094
-266.282	-108.467	0.072	0.015
-265.267	-200.000	-0.005	-0.122
-264.253	36.619	-0.169	-0.147
-263.238	-91.121	0.467	-0.132
-262.224	-127.757	-0.441	-0.063
-261.209	-151.261	0.332	0.024
-260.195	231.066	0.157	0.253
-259.180	-30.522	0.263	0.147
-258.165	-200.000	-0.011	0.109
-257.151	800.000	0.045	-0.134
-256.136	800.000	-0.041	-0.152
-255.122	161.398	-0.136	-0.187
-254.107	280.692	0.097	0.171
-253.092	-45.076	0.233	0.114
-252.078	-200.000	-0.009	0.081
-251.063	-200.000	0.050	0.385
-250.049	-200.000	0.008	-0.208
-249.034	-46.635	-0.093	-0.045
-248.019	598.578	-0.074	-0.180
-247.005	-108.571	0.147	0.031
-245.990	-71.057	0.164	-0.060
-244.976	455.901	0.086	0.188
-243.961	-200.000	0.026	-0.176
-242.946	-97.577	0.155	0.040
-241.932	-200.000	0.206	0.001
-240.917	576.166	-0.030	0.072
-239.903	800.000	0.046	-0.168
-238.888	0.670	0.161	0.113
-237.873	295.721	-0.176	-0.316
-236.859	-7.158	-0.121	0.081
-235.844	-200.000	-0.003	-0.135
-234.830	-94.420	0.041	0.011
-233.815	224.336	0.075	0.119
-232.800	-105.778	0.240	-0.053
-231.786	776.638	-0.093	0.249
-230.771	-2.826	-0.221	-0.152
-229.757	-200.000	-0.076	-0.343
-228.742	19.659	-0.070	0.055
-227.727	-110.484	0.172	-0.035
-226.713	-34.286	-0.147	0.079
-225.698	17.289	-0.204	0.159
-224.684	800.000	0.068	-0.278
-223.669	105.789	0.074	-0.086
-222.655	-165.347	0.154	-0.007
-221.640	473.143	-0.044	0.098
-220.625	764.772	0.113	-0.302
-219.611	227.874	-0.066	-0.105
-218.596	161.715	-0.028	0.039
-217.582	398.713	0.073	0.150
-216.567	-200.000	-0.027	0.211
-215.552	45.814	0.107	-0.097
-214.538	-2.973	0.360	0.246
-213.523	-200.000	-0.028	0.165
-212.509	-200.000	0.035	-0.254
-211.494	15.699	-0.100	0.077
-210.479	55.736	-0.190	-0.181
-209.465	800.000	-0.042	0.154
-208.450	-200.000	-0.050	0.354
-207.436	427.949	0.161	-0.341
-206.421	-45.749	0.426	0.207
-205.406	15.252	0.365	-0.281
-204.392	-200.000	-0.043	-0.268
-203.377	-200.000	0.065	-0.329
-202.363	33.747	0.014	-0.012
-201.348	800.000	0.159	-0.486
-200.333	-200.000	-0.049	0.251
-199.319	-41.042	0.216	0.109
-198.304	62.884	-0.231	-0.227
-197.290	-194.016	0.359	-0.003
-196.275	223.944	-0.153	-0.243
-195.260	800.000	-0.149	0.454
-194.246	-200.000	-0.005	0.127
-193.231	77.999	-0.074	-0.077
-192.217	-17.512	0.107	0.066
-191.202	49.451	0.257	0.237
-190.187	-51.830	-0.178	0.081
-189.173	-88.735	0.255	0.074
-188.158	-89.414	-0.256	0.074
-187.144	67.170	-0.346	-0.346
-186.129	162.785	-0.075	0.104
-185.114	-63.616	-0.418	-0.168
-184.100	800.000	-0.052	0.191
-183.085	422.965	0.113	-0.238
-182.071	-138.126	-0.152	-0.017
-181.056	-0.065	0.066	-0.046
-180.042	70.313	-0.131	-0.133
-179.027	-200.000	-0.054	0.250
-178.012	-200.000	-0.003	0.353
-176.998	800.000	-0.064	-0.210
-175.983	49.055	-0.166	-0.152
-174.969	-200.000	-0.019	-0.088
-173.954	-24.388	0.228	-0.133
-172.939	-62.820	-0.079	0.032
-171.925	-90.394	-0.129	0.037
-170.910	-200.000	-0.009	0.176
-169.896	121.336	-0.246	0.301
-168.881	272.600	0.223	0.386
-167.866	800.000	0.056	0.232
-166.852	61.204	-0.019	0.019
-165.837	184.717	-0.054	0.078
-164.823	420.965	0.095	0.200
-163.808	-178.326	0.257	-0.006
-162.793	613.190	0.086	0.211
-161.779	558.487	-0.135	0.318
-160.764	141.865	-0.120	-0.156
-159.750	133.790	0.158	0.200
-158.735	316.755	-0.062	-0.115
-157.720	274.160	0.078	-0.135
-156.706	4.296	0.162	-0.117
-155.691	-102.394	-0.133	0.031
-154.677	-57.506	-0.057	0.025
-153.662	-138.393	0.351	0.038
-152.647	326.696	-0.262	0.491
-151.633	-25.387	0.163	0.094
-150.618	427.752	0.121	-0.256
-149.604	-200.000	-0.011	-0.094
-148.589	800.000	0.099	-0.300
-147.574	205.752	0.113	0.172
-146.560	-184.173	0.204	0.003
-145.545	-107.526	0.200	-0.043
-144.531	-200.000	0.014	-0.246
-143.516	-27.509	-0.206	-0.117
-142.502	-64.126	-0.358	0.143
-141.487	-200.000	-0.013	0.098
-140.472	-76.121	0.231	0.080
-139.458	-26.549	-0.185	-0.106
-138.443	96.743	-0.157	-0.176
-137.429	10.988	-0.240	-0.179
-136.414	759.593	0.010	0.027
-135.399	34.857	-0.154	0.131
-134.385	800.000	-0.074	-0.288
-133.370	-200.000	0.024	0.162
-132.356	-200.000	0.008	-0.111
-131.341	53.875	-0.094	0.088
-130.326	38.317	0.140	0.122
-129.312	800.000	0.048	-0.146
-128.297	-158.644	0.202	-0.011
-127.283	49.350	-0.187	0.172
-126.268	244.786	0.172	0.282
-125.253	567.812	0.095	0.226
-124.239	800.000	0.076	-0.293
-123.224	-200.000	-0.024	-0.280
-122.210	-71.622	0.073	-0.026
-121.195	-63.155	0.159	0.064
-120.180	27.084	0.195	-0.160
