DTS Sentinel unit serial number:	SN413079Multiplexer serial number:	ORYXHardware model number:	OX4-SRSoftware version number:	ORYX F/W v4.00 Oryx Data Collector v3.7.2.0data status	okinstallation	princeton_trtdifferential loss correction	single-endedforward channel	channel 3reverse channel	N/Adate	2019/09/12time	06:26:10forward acquisition time	60.00reverse acquisition time	0.00gamma	496.2192k internal	0.2320k external	0.2320temperature offset calibration	1.0032default loss term (dB/km)	0.3790temperature slope calibration	1.0000multiplexer offset coefficient	1.0000multiplexer slope coefficient	1.0000fibre end	0.00T internal ref (°C)	32.16T ext. ref 1 (°C)	1.57T ext. ref 2 (°C)	27.36length (m)	temperature (°C)	Stokes	anti-Stokes-747.200	664.065	-0.149	0.390
-746.185	17.159	-0.141	-0.113
-745.171	800.000	-0.048	-0.165
-744.156	800.000	-0.076	-0.253
-743.142	-146.488	0.065	-0.006
-742.127	-153.535	-0.369	-0.026
-741.112	-132.712	0.412	0.053
-740.098	-79.783	-0.367	0.125
-739.083	-68.754	0.185	-0.072
-738.069	-141.553	0.176	0.018
-737.054	-52.920	0.120	0.056
-736.039	800.000	-0.021	-0.066
-735.025	570.941	0.028	0.069
-734.010	-40.640	-0.323	-0.170
-732.996	130.739	-0.111	0.145
-731.981	-52.711	0.442	0.206
-730.966	-200.000	0.036	0.448
-729.952	-200.000	-0.018	-0.227
-728.937	-169.762	-0.165	0.006
-727.923	-75.548	-0.255	-0.092
-726.908	-120.225	0.267	-0.046
-725.894	-200.000	-0.178	-0.000
-724.879	-91.447	-0.325	0.094
-723.864	-70.467	0.384	0.147
-722.850	4.213	0.189	-0.140
-721.835	-104.007	-0.122	-0.029
-720.821	227.802	-0.175	-0.288
-719.806	800.000	0.052	-0.187
-718.791	800.000	0.074	-0.215
-717.777	-47.019	0.103	-0.051
-716.762	-200.000	-0.037	0.340
-715.748	-200.000	-0.003	-0.447
-714.733	84.563	0.136	-0.151
-713.718	155.786	0.044	-0.061
-712.704	117.171	-0.150	0.186
-711.689	-139.947	0.448	-0.048
-710.675	-50.079	0.157	-0.075
-709.660	-80.809	0.060	0.020
-708.645	-200.000	0.031	-0.209
-707.631	-200.000	-0.020	0.178
-706.616	36.253	0.184	0.164
-705.602	800.000	0.089	-0.299
-704.587	739.609	-0.023	0.063
-703.572	-19.787	0.273	-0.170
-702.558	-200.000	-0.008	0.102
-701.543	29.789	-0.172	-0.148
-700.529	-200.000	-0.076	0.384
-699.514	-200.000	0.030	0.189
-698.499	-200.000	-0.058	0.315
-697.485	-144.168	-0.287	0.027
-696.470	-115.019	0.283	0.054
-695.456	59.152	0.194	0.193
-694.441	-18.452	0.084	0.053
-693.426	-156.172	-0.322	-0.020
-692.412	-49.220	-0.226	-0.109
-691.397	356.613	0.041	-0.083
-690.383	333.772	-0.049	0.096
-689.368	-106.683	-0.054	-0.012
-688.354	800.000	0.079	0.294
-687.339	-200.000	-0.082	-0.543
-686.324	-200.000	-0.015	-0.254
-685.310	800.000	0.030	-0.101
-684.295	-48.929	0.215	0.104
-683.281	385.107	0.045	-0.093
-682.266	800.000	-0.033	0.122
-681.251	41.967	-0.106	-0.097
-680.237	312.977	0.041	0.078
-679.222	-138.389	-0.415	0.046
-678.208	-136.607	-0.080	0.009
-677.193	-13.135	0.061	-0.040
-676.178	-56.301	-0.253	-0.113
-675.164	-105.503	0.201	0.046
-674.149	-54.592	0.238	0.109
-673.135	-77.609	-0.036	-0.012
-672.120	50.019	0.128	-0.122
-671.105	-200.000	-0.014	-0.139
-670.091	71.771	0.265	-0.277
-669.076	28.621	-0.273	-0.233
-668.062	45.939	-0.242	-0.226
-667.047	722.759	0.105	-0.282
-666.032	-152.880	-0.348	-0.025
-665.018	-179.908	0.241	-0.005
-664.003	-140.993	0.041	-0.004
-662.989	-200.000	0.030	-0.239
-661.974	29.906	0.045	-0.039
-660.959	-121.225	0.113	0.019
-659.945	66.219	0.108	-0.111
-658.930	341.988	-0.119	0.235
-657.916	-79.359	-0.334	0.114
-656.901	-96.193	-0.162	0.043
-655.886	-200.000	0.029	0.214
-654.872	30.574	0.303	-0.261
-653.857	17.687	0.163	0.130
-652.843	-106.995	-0.196	-0.044
-651.828	-15.887	-0.153	-0.098
-650.814	-200.000	0.012	-0.124
-649.799	175.683	0.210	0.307
-648.784	504.752	-0.162	0.377
-647.770	-200.000	0.023	0.194
-646.755	516.657	-0.060	-0.141
-645.741	-108.173	-0.308	0.067
-644.726	321.477	-0.044	-0.085
-643.711	800.000	-0.036	-0.122
-642.697	204.631	-0.073	-0.114
-641.682	-200.000	0.016	-0.082
-640.668	230.604	0.189	-0.312
-639.653	-10.565	-0.095	0.064
-638.638	343.518	0.067	-0.132
-637.624	-58.250	-0.063	-0.027
-636.609	800.000	-0.136	-0.435
-635.595	241.275	-0.053	-0.089
-634.580	-33.681	-0.146	0.081
-633.565	-158.592	0.237	0.014
-632.551	-120.055	0.266	-0.046
-631.536	590.079	0.080	-0.199
-630.522	407.145	0.053	-0.112
-629.507	-110.700	-0.039	0.008
-628.492	-200.000	0.007	-0.049
-627.478	13.565	-0.088	-0.069
-626.463	-200.000	0.010	0.338
-625.449	-100.326	-0.030	0.008
-624.434	1.512	0.117	-0.085
-623.419	31.865	-0.253	-0.220
-622.405	8.503	-0.083	-0.063
-621.390	161.230	0.172	-0.243
-620.376	-45.313	0.078	0.039
-619.361	-200.000	-0.058	0.254
-618.346	329.054	-0.088	-0.171
-617.332	-52.174	-0.099	0.046
-616.317	335.799	0.037	0.072
-615.303	12.896	-0.187	-0.146
-614.288	58.217	0.113	0.111
-613.273	-52.512	0.083	0.039
-612.259	800.000	-0.058	-0.244
-611.244	46.109	-0.237	-0.221
-610.230	-94.792	0.332	-0.090
-609.215	-67.788	-0.255	-0.100
-608.201	429.256	0.160	-0.347
-607.186	-200.000	0.035	0.229
-606.171	209.828	-0.031	0.049
-605.157	-111.817	0.321	0.065
-604.142	-200.000	0.092	0.452
-603.128	-198.373	0.170	0.001
-602.113	-173.414	-0.297	0.009
-601.098	3.574	-0.241	-0.176
-600.084	-200.000	-0.013	-0.266
-599.069	299.335	0.144	0.267
-598.055	54.051	-0.061	0.059
-597.040	-39.057	0.218	0.115
-596.025	-64.522	0.174	0.071
-595.011	-92.171	-0.143	0.041
-593.996	153.586	-0.466	0.642
-592.982	267.025	0.139	-0.245
-591.967	121.559	-0.113	0.142
-590.952	-65.138	0.243	-0.098
-589.938	800.000	-0.037	-0.128
-588.923	-93.461	-0.250	0.069
-587.909	-200.000	0.041	0.307
-586.894	49.468	-0.294	0.278
-585.879	-119.728	-0.318	0.055
-584.865	-41.165	-0.139	-0.072
-583.850	-59.266	-0.230	0.100
-582.836	168.628	0.109	-0.156
-581.821	-200.000	0.041	-0.206
-580.806	57.534	-0.148	0.146
-579.792	40.242	0.226	-0.204
-578.777	800.000	-0.060	-0.179
-577.763	-21.994	-0.202	0.124
-576.748	-139.366	0.299	-0.032
-575.733	-13.860	0.186	0.121
-574.719	-92.057	-0.183	-0.052
-573.704	264.708	0.153	0.267
-572.690	111.469	0.093	0.113
-571.675	197.022	-0.026	0.040
-570.661	57.137	-0.169	0.166
-569.646	800.000	0.067	0.263
-568.631	19.177	-0.013	-0.011
-567.617	292.011	-0.220	-0.403
-566.602	800.000	0.062	-0.253
-565.588	41.854	-0.037	0.034
-564.573	25.536	-0.113	0.094
-563.558	378.171	0.094	0.192
-562.544	-200.000	-0.001	-0.271
-561.529	673.889	-0.123	-0.320
-560.515	-103.712	-0.544	-0.128
-559.500	187.221	-0.096	0.144
-558.485	-3.202	-0.157	-0.110
-557.471	-200.000	0.034	0.155
-556.456	395.427	-0.040	0.083
-555.442	206.050	-0.047	-0.074
-554.427	-200.000	-0.010	-0.192
-553.412	174.544	0.125	-0.182
-552.398	704.050	-0.028	-0.073
-551.383	2.381	0.245	0.178
-550.369	36.331	0.267	-0.236
-549.354	111.894	-0.107	0.130
-548.339	-139.059	-0.265	-0.029
-547.325	-141.907	-0.432	-0.043
-546.310	266.403	0.062	-0.108
-545.296	57.009	-0.371	0.363
-544.281	11.990	-0.199	0.153
-543.266	-44.748	-0.150	0.075
-542.252	-118.844	-0.270	-0.048
-541.237	800.000	-0.041	-0.148
-540.223	203.860	-0.106	0.164
-539.208	-174.979	0.270	-0.008
-538.193	16.268	-0.207	0.164
-537.179	335.470	0.091	-0.178
-536.164	49.616	0.503	0.476
-535.150	492.816	0.186	0.427
-534.135	-7.179	0.382	0.260
-533.121	224.131	-0.086	0.139
-532.106	-200.000	0.069	-0.339
-531.091	75.124	0.056	-0.059
-530.077	274.262	-0.027	0.048
-529.062	45.994	-0.276	0.256
-528.048	109.724	0.111	-0.133
-527.033	-96.737	0.228	-0.060
-526.018	338.435	-0.068	-0.133
-525.004	-200.000	0.018	-0.132
-523.989	221.713	-0.077	-0.124
-522.975	-123.349	0.358	-0.057
-521.960	-200.000	0.030	-0.181
-520.945	511.022	0.047	0.109
-519.931	30.983	0.051	0.044
-518.916	687.645	0.082	-0.215
-517.902	104.449	0.216	0.255
-516.887	-24.993	-0.163	-0.097
-515.872	-200.000	0.012	-0.189
-514.858	-18.190	-0.228	-0.143
-513.843	800.000	-0.141	0.484
-512.829	800.000	0.107	0.308
-511.814	-200.000	-0.009	-0.291
-510.799	-200.000	0.052	0.261
-509.785	-162.139	0.161	0.008
-508.770	-200.000	0.009	0.062
-507.756	25.034	-0.096	-0.080
-506.741	-177.430	0.241	0.006
-505.726	-2.057	0.204	-0.143
-504.712	85.266	0.138	-0.152
-503.697	150.461	0.127	0.173
-502.683	-200.000	0.010	0.066
-501.668	-200.000	-0.006	0.110
-500.653	800.000	-0.092	0.260
-499.639	120.961	-0.069	0.086
-498.624	800.000	0.059	-0.169
-497.610	-200.000	-0.019	0.208
-496.595	-200.000	-0.012	-0.083
-495.581	-36.977	-0.144	0.077
-494.566	-42.252	0.207	0.106
-493.551	800.000	0.029	-0.091
-492.537	-14.586	0.284	0.183
-491.522	42.311	0.385	0.351
-490.508	800.000	0.163	-0.511
-489.493	-200.000	-0.009	0.101
-488.478	-124.928	-0.090	-0.014
-487.464	-200.000	-0.002	0.038
-486.449	-99.668	-0.214	-0.054
-485.435	800.000	-0.083	0.338
-484.420	800.000	-0.015	0.055
-483.405	175.381	0.124	-0.179
-482.391	-172.675	-0.387	-0.012
-481.376	-39.620	0.154	-0.080
-480.362	-17.599	0.186	0.117
-479.347	-61.552	0.354	-0.149
-478.332	-62.984	0.203	-0.084
-477.318	-92.871	-0.052	0.015
-476.303	-79.400	-0.285	0.097
-475.289	800.000	0.029	-0.108
-474.274	-84.671	0.244	0.077
-473.259	349.137	-0.077	0.152
-472.245	-182.839	-0.214	-0.004
-471.230	169.005	0.185	0.264
-470.216	166.412	-0.156	0.221
-469.201	-184.546	-0.324	-0.005
-468.186	-37.319	0.115	-0.061
-467.172	246.292	-0.176	0.297
-466.157	31.380	-0.178	-0.153
-465.143	568.384	-0.049	0.118
-464.128	800.000	0.042	0.163
-463.113	-150.977	-0.098	0.007
-462.099	-57.018	-0.157	-0.069
-461.084	71.966	-0.106	0.110
-460.070	-200.000	0.014	0.152
-459.055	-172.168	-0.353	0.011
-458.040	14.774	0.266	0.208
-457.026	-200.000	0.011	0.060
-456.011	55.026	0.080	-0.078
-454.997	-21.327	0.182	0.111
-453.982	34.524	0.201	0.175
-452.968	-77.459	-0.087	0.030
-451.953	-86.364	-0.146	-0.045
-450.938	800.000	-0.020	0.056
-449.924	125.213	0.126	-0.159
-448.909	800.000	-0.054	-0.178
-447.895	-71.799	-0.375	-0.140
-446.880	-200.000	0.018	-0.224
-445.865	-33.888	0.112	0.062
-444.851	29.566	0.168	-0.143
-443.836	-200.000	-0.002	-0.310
-442.822	-80.560	0.165	-0.055
-441.807	25.483	0.038	-0.032
-440.792	-95.482	-0.083	0.022
-439.778	800.000	-0.050	-0.181
-438.763	800.000	0.067	-0.191
-437.749	-51.389	-0.033	0.015
-436.734	-126.711	0.053	-0.008
-435.719	600.662	-0.101	0.252
-434.705	-96.147	-0.409	0.109
-433.690	-130.179	-0.279	0.038
-432.676	-200.000	0.024	0.199
-431.661	-200.000	0.001	0.042
-430.646	-68.138	-0.246	-0.096
-429.632	-48.405	-0.368	-0.177
-428.617	-48.138	-0.015	0.007
-427.603	-200.000	0.038	0.203
-426.588	-200.000	-0.012	-0.122
-425.573	299.340	0.037	-0.068
-424.559	115.811	-0.087	0.107
-423.544	-200.000	0.029	0.258
-422.530	150.888	0.184	-0.250
-421.515	-33.200	-0.132	-0.073
-420.500	-200.000	-0.005	-0.219
-419.486	8.495	-0.233	-0.175
-418.471	-200.000	-0.036	-0.199
-417.457	-54.919	0.151	-0.068
-416.442	-74.742	-0.246	-0.088
-415.428	800.000	0.065	-0.185
-414.413	-200.000	0.020	-0.369
-413.398	-89.895	0.329	0.096
-412.384	-200.000	-0.006	0.230
-411.369	-200.000	-0.002	-0.311
-410.355	47.334	0.321	-0.299
-409.340	306.530	-0.063	0.117
-408.325	-123.652	-0.195	-0.031
-407.311	-166.664	-0.161	-0.007
-406.296	-88.575	0.194	-0.058
-405.282	-96.897	-0.205	-0.054
-404.267	169.162	-0.057	-0.081
-403.252	-72.040	0.406	0.150
-402.238	162.654	-0.254	-0.356
-401.223	67.402	-0.012	0.012
-400.209	-200.000	-0.110	-0.514
-399.194	110.048	-0.072	-0.087
-398.179	-200.000	-0.017	0.158
-397.165	89.603	0.151	-0.169
-396.150	-200.000	0.015	0.128
-395.136	-56.958	-0.327	-0.144
-394.121	-51.594	0.242	-0.112
-393.106	800.000	0.053	0.177
-392.092	66.296	-0.277	-0.281
-391.077	-191.080	-0.172	-0.002
-390.063	80.942	0.188	0.202
-389.048	-200.000	-0.091	-0.000
-388.033	-8.091	-0.169	-0.113
-387.019	-47.290	-0.157	-0.076
-386.004	800.000	0.032	0.131
-384.990	-200.000	0.052	0.271
-383.975	-79.560	0.159	0.053
-382.960	62.383	-0.258	0.257
-381.946	-200.000	0.041	0.272
-380.931	106.933	-0.125	-0.147
-379.917	-75.768	0.219	-0.077
-378.902	25.832	0.154	0.128
-377.888	229.685	-0.085	-0.138
-376.873	-200.000	-0.039	-0.439
-375.858	543.307	0.101	-0.240
-374.844	36.131	0.247	-0.217
-373.829	-69.937	0.095	0.036
-372.815	-200.000	0.125	0.560
-371.800	-200.000	0.031	0.555
-370.785	181.639	-0.161	-0.237
-369.771	751.803	0.088	-0.237
-368.756	-200.000	-0.065	-0.318
-367.742	-20.755	0.201	-0.123
-366.727	-151.230	-0.243	-0.018
-365.712	688.769	-0.115	0.300
-364.698	-64.304	0.199	-0.081
-363.683	-200.000	0.014	-0.096
-362.669	-85.036	-0.249	0.078
-361.654	-66.491	0.306	-0.121
-360.639	-96.016	0.058	0.015
-359.625	-200.000	0.003	0.104
-358.610	-200.000	-0.021	-0.227
-357.596	539.764	0.043	0.102
-356.581	800.000	0.114	-0.423
-355.566	59.815	0.052	-0.051
-354.552	41.761	-0.245	-0.221
-353.537	488.006	0.077	0.175
-352.523	800.000	0.051	0.154
-351.508	124.743	-0.162	0.204
-350.493	-45.561	0.316	-0.156
-349.479	800.000	0.067	0.236
-348.464	177.854	-0.118	-0.172
-347.450	-61.023	-0.159	-0.067
-346.435	-153.420	0.154	-0.011
-345.420	-30.438	0.229	0.129
-344.406	94.390	0.024	0.028
-343.391	-67.363	-0.251	-0.098
-342.377	-157.252	-0.428	0.026
-341.362	6.618	0.225	-0.167
-340.348	8.312	0.192	0.144
-339.333	12.821	-0.201	-0.154
-338.318	-200.000	0.038	0.288
-337.304	-32.404	-0.190	0.106
-336.289	31.849	0.275	0.236
-335.275	-48.352	-0.100	0.048
-334.260	-60.598	0.198	-0.084
-333.245	-107.767	0.122	0.026
-332.231	-69.213	-0.130	-0.050
-331.216	-17.622	0.034	-0.021
-330.202	101.535	0.068	0.079
-329.187	-38.813	0.238	0.125
-328.172	-74.675	-0.090	-0.032
-327.158	70.752	-0.128	0.132
-326.143	-138.329	0.090	0.010
-325.129	800.000	0.082	-0.239
-324.114	-26.480	-0.294	0.171
-323.099	-56.088	-0.112	-0.050
-322.085	45.949	-0.081	0.075
-321.070	-131.624	0.149	-0.019
-320.056	-103.089	0.252	-0.059
-319.041	201.097	0.082	-0.126
-318.026	75.891	0.045	0.047
-317.012	30.353	0.319	-0.271
-315.997	-200.000	0.014	-0.065
-314.983	206.915	0.066	0.103
-313.968	800.000	0.106	0.332
-312.953	800.000	-0.032	0.102
-311.939	125.781	-0.077	-0.097
-310.924	800.000	0.099	0.274
-309.910	-200.000	0.028	-0.250
-308.895	-34.250	-0.307	0.167
-307.880	37.403	0.031	0.027
-306.866	-86.486	-0.172	-0.052
-305.851	-200.000	0.014	0.154
-304.837	128.892	-0.129	0.164
-303.822	37.657	0.077	-0.068
-302.807	-200.000	-0.005	-0.062
-301.793	38.291	-0.032	-0.028
-300.778	800.000	-0.012	0.046
-299.764	-200.000	-0.021	-0.310
-298.749	-162.271	0.131	0.006
-297.735	-200.000	0.026	0.236
-296.720	631.937	0.087	-0.220
-295.705	254.257	0.111	-0.189
-294.691	-77.129	0.189	0.065
-293.676	-133.312	-0.050	-0.006
-292.662	800.000	-0.013	-0.057
-291.647	-82.267	-0.314	0.102
-290.632	179.617	-0.201	0.292
-289.618	-44.187	-0.073	0.037
-288.603	130.238	0.076	0.097
-287.589	-103.569	0.201	-0.047
-286.574	46.903	-0.202	-0.187
-285.559	51.587	-0.137	-0.129
-284.545	729.582	0.026	0.068
-283.530	593.355	0.090	-0.222
-282.516	-200.000	-0.016	0.151
-281.501	-76.728	-0.127	-0.044
-280.486	800.000	-0.071	0.234
-279.472	-41.320	0.186	0.095
-278.457	800.000	-0.075	0.227
-277.443	-200.000	0.058	0.433
-276.428	-42.501	0.147	0.074
-275.413	-36.804	-0.145	0.077
-274.399	-69.716	0.229	0.087
-273.384	5.272	0.145	-0.106
-272.370	-180.034	-0.265	0.006
-271.355	204.424	0.050	0.078
-270.340	-200.000	-0.001	-0.149
-269.326	27.194	-0.172	-0.144
-268.311	411.351	-0.125	-0.263
-267.297	68.840	-0.173	-0.177
-266.282	-68.538	0.210	0.081
-265.267	141.141	0.053	0.069
-264.253	-1.732	0.217	0.152
-263.238	-200.000	0.039	-0.265
-262.224	-107.706	0.262	0.057
-261.209	11.003	0.143	0.109
-260.195	-101.645	0.283	-0.068
-259.180	290.174	0.079	-0.141
-258.165	-190.180	0.306	0.003
-257.151	-200.000	-0.016	0.144
-256.136	-200.000	0.010	0.101
-255.122	-200.000	-0.038	-0.192
-254.107	-200.000	-0.001	-0.090
-253.092	341.515	-0.144	0.278
-252.078	66.918	0.150	0.152
-251.063	-6.366	-0.193	-0.131
-250.049	-200.000	-0.008	-0.127
-249.034	45.346	0.425	0.389
-248.019	-33.267	-0.096	0.053
-247.005	-77.678	0.197	0.068
-245.990	-77.671	0.114	-0.039
-244.976	-187.102	-0.098	-0.001
-243.961	-130.629	0.287	-0.038
-242.946	-34.720	0.579	0.314
-241.932	171.976	-0.087	-0.124
-240.917	-118.157	-0.262	-0.046
-239.903	-200.000	0.007	-0.219
-238.888	549.558	0.045	-0.108
-237.873	-200.000	0.014	0.474
-236.859	-140.883	-0.128	0.013
-235.844	634.134	-0.095	-0.239
-234.830	-178.135	0.209	0.005
-233.815	800.000	-0.073	0.220
-232.800	-2.728	0.240	0.166
-231.786	-93.751	0.238	-0.065
-230.771	-122.798	-0.069	-0.011
-229.757	217.974	0.058	-0.092
-228.742	615.132	0.122	-0.303
-227.727	37.427	0.110	-0.097
-226.713	41.556	-0.228	0.204
-225.698	101.752	-0.094	-0.108
-224.684	201.792	-0.117	0.179
-223.669	-112.489	-0.275	-0.054
-222.655	-65.694	-0.335	0.133
-221.640	-95.088	-0.302	-0.081
-220.625	-120.237	-0.142	0.024
-219.611	44.190	-0.243	0.221
-218.596	-85.599	0.317	-0.098
-217.582	-91.891	0.076	-0.021
-216.567	-28.409	-0.208	0.119
-215.552	103.139	0.134	0.156
-214.538	-123.169	-0.254	0.040
-213.523	410.620	0.227	0.478
-212.509	-200.000	-0.032	-0.206
-211.494	93.254	-0.109	-0.122
-210.479	-123.044	0.277	-0.044
-209.465	120.079	0.193	0.237
-208.450	-200.000	0.008	-0.082
-207.436	-100.244	-0.097	-0.024
-206.421	-28.846	0.045	-0.025
-205.406	-60.490	-0.056	-0.024
-204.392	800.000	-0.083	-0.305
-203.377	248.502	0.119	-0.199
-202.363	-67.576	-0.037	-0.015
-201.348	76.394	-0.118	0.123
-200.333	-142.903	-0.259	-0.025
-199.319	-200.000	-0.015	-0.088
-198.304	-68.984	-0.040	-0.015
-197.290	-81.369	-0.159	0.052
-196.275	205.812	0.123	-0.189
-195.260	800.000	-0.092	-0.264
-194.246	-10.123	0.251	-0.165
-193.231	-44.687	0.356	0.176
-192.217	-58.028	-0.206	0.089
-191.202	-105.407	-0.175	-0.039
-190.187	-143.562	-0.052	-0.005
-189.173	-200.000	0.003	-0.103
-188.158	-103.917	-0.167	-0.039
-187.144	-200.000	0.024	-0.345
-186.129	-106.577	0.066	0.015
-185.114	-99.827	-0.244	0.060
-184.100	130.023	0.084	-0.107
-183.085	768.952	-0.047	-0.127
-182.071	152.882	0.114	0.154
-181.056	77.204	0.052	-0.055
-180.042	800.000	-0.083	-0.297
-179.027	-35.514	0.067	-0.036
-178.012	93.784	-0.214	-0.240
-176.998	-59.935	-0.198	-0.084
-175.983	205.940	0.077	-0.118
-174.969	113.831	0.121	0.146
-173.954	-43.850	0.213	0.106
-172.939	-200.000	-0.012	0.103
-171.925	-48.747	0.166	-0.079
-170.910	28.165	-0.052	0.044
-169.896	-94.037	0.353	-0.096
-168.881	-116.106	0.123	0.023
-167.866	-99.123	-0.197	0.049
-166.852	-85.118	0.230	-0.071
-165.837	-62.412	-0.211	0.087
-164.823	800.000	-0.102	-0.281
-163.808	-9.931	0.282	0.186
-162.793	-40.383	-0.261	0.134
-161.779	-56.582	0.118	-0.052
-160.764	347.631	-0.144	0.279
-159.750	-200.000	0.033	0.400
-158.735	-200.000	0.021	0.108
-157.720	222.820	-0.146	0.232
-156.706	-200.000	0.035	-0.233
-155.691	-17.183	0.212	-0.132
-154.677	800.000	-0.016	-0.046
-153.662	-58.850	0.339	-0.145
-152.647	446.309	-0.018	-0.039
-151.633	-29.665	0.238	0.134
-150.618	-9.223	0.311	0.206
-149.604	800.000	-0.046	0.129
-148.589	-200.000	-0.005	0.174
-147.574	-93.654	-0.063	0.017
-146.560	13.282	-0.100	-0.077
-145.545	-16.606	-0.121	0.075
-144.531	-139.604	-0.113	-0.012
-143.516	-127.825	0.415	0.059
-142.502	189.978	0.221	0.328
-141.487	-119.742	-0.279	0.048
-140.472	58.697	-0.090	0.087
-139.458	-124.639	0.535	0.082
-138.443	800.000	-0.045	0.162
-137.429	379.134	0.067	-0.136
-136.414	-200.000	0.017	0.368
-135.399	-13.937	-0.143	0.091
-134.385	-125.769	-0.062	-0.009
-133.370	76.301	-0.121	-0.127
-132.356	608.621	0.081	0.200
-131.341	-200.000	-0.013	0.065
-130.326	386.891	-0.230	-0.470
-129.312	-105.096	0.310	-0.070
-128.297	103.657	-0.097	0.112
-127.283	-66.588	-0.175	0.069
-126.268	-5.013	-0.158	-0.107
-125.253	15.698	-0.098	0.076
-124.239	-200.000	0.002	0.065
-123.224	349.608	0.170	-0.331
-122.210	70.980	0.335	-0.342
