DTS Sentinel unit serial number:	SN413079Multiplexer serial number:	ORYXHardware model number:	OX4-SRSoftware version number:	ORYX F/W v4.00 Oryx Data Collector v3.7.2.0data status	okinstallation	princeton_trtdifferential loss correction	single-endedforward channel	channel 3reverse channel	N/Adate	2019/09/13time	13:04:35forward acquisition time	60.00reverse acquisition time	0.00gamma	496.2192k internal	0.2304k external	0.2304temperature offset calibration	1.0150default loss term (dB/km)	0.3790temperature slope calibration	1.0000multiplexer offset coefficient	1.0000multiplexer slope coefficient	1.0000fibre end	0.00T internal ref (°C)	34.81T ext. ref 1 (°C)	4.57T ext. ref 2 (°C)	31.19length (m)	temperature (°C)	Stokes	anti-Stokes-747.200	-6.734	0.061	-0.042
-746.185	-7.838	0.126	0.087
-745.171	389.162	-0.102	-0.214
-744.156	403.476	-0.066	0.141
-743.142	800.000	-0.036	0.145
-742.127	7.346	0.098	0.075
-741.112	-82.162	0.169	-0.056
-740.098	103.416	-0.223	0.266
-739.083	-43.583	-0.196	0.101
-738.069	-122.745	0.299	-0.049
-737.054	426.301	-0.077	-0.169
-736.039	32.688	-0.126	-0.111
-735.025	11.593	0.243	0.190
-734.010	-184.017	-0.182	0.003
-732.996	-115.683	-0.353	-0.067
-731.981	800.000	0.064	-0.217
-730.966	-200.000	-0.072	0.324
-729.952	-60.221	0.262	-0.113
-728.937	800.000	-0.023	-0.098
-727.923	93.146	0.119	-0.137
-726.908	36.637	-0.168	-0.151
-725.894	-78.953	-0.419	-0.145
-724.879	-200.000	-0.027	-0.125
-723.864	-200.000	0.024	0.284
-722.850	-143.701	-0.176	0.017
-721.835	248.250	-0.108	0.186
-720.821	-81.155	-0.096	-0.032
-719.806	-200.000	-0.003	0.216
-718.791	297.722	-0.057	-0.106
-717.777	105.624	-0.084	-0.101
-716.762	150.069	0.230	0.318
-715.748	-125.205	-0.187	-0.029
-714.733	-150.710	0.139	0.011
-713.718	95.012	-0.242	0.280
-712.704	227.692	0.108	-0.179
-711.689	328.276	-0.029	-0.057
-710.675	-123.150	-0.162	-0.026
-709.660	445.668	0.080	-0.179
-708.645	-137.123	0.312	0.036
-707.631	-152.030	0.345	0.026
-706.616	-134.271	-0.338	-0.042
-705.602	-168.182	0.117	-0.005
-704.587	30.572	0.066	0.057
-703.572	161.741	0.010	-0.014
-702.558	-200.000	-0.036	0.161
-701.543	-200.000	0.012	-0.072
-700.529	4.201	0.147	-0.110
-699.514	762.364	-0.081	-0.225
-698.499	101.842	-0.124	-0.147
-697.485	800.000	0.040	-0.141
-696.470	10.342	-0.420	0.325
-695.456	187.002	-0.153	-0.232
-694.441	0.156	-0.228	-0.166
-693.426	-52.640	-0.367	0.172
-692.412	99.113	-0.178	-0.209
-691.397	37.896	-0.149	0.135
-690.383	59.556	-0.122	-0.122
-689.368	-88.938	0.343	-0.103
-688.354	55.225	0.183	-0.180
-687.339	336.003	0.019	0.038
-686.324	39.369	0.032	0.029
-685.310	800.000	0.050	-0.193
-684.295	86.564	0.076	-0.085
-683.281	-156.977	0.146	0.009
-682.266	800.000	-0.039	-0.143
-681.251	-200.000	0.073	-0.378
-680.237	-45.156	0.149	-0.075
-679.222	-112.411	-0.262	-0.053
-678.208	-200.000	0.010	-0.306
-677.193	186.593	-0.233	-0.353
-676.178	800.000	0.112	-0.328
-675.164	-125.324	-0.209	0.032
-674.149	-77.919	-0.086	0.030
-673.135	22.006	-0.026	-0.022
-672.120	-133.480	-0.199	-0.025
-671.105	-200.000	0.010	-0.101
-670.091	47.473	0.138	-0.130
-669.076	-118.456	0.184	-0.033
-668.062	-40.452	0.089	-0.047
-667.047	-72.028	0.059	-0.022
-666.032	-140.385	-0.421	0.045
-665.018	800.000	0.038	0.152
-664.003	99.138	0.120	0.141
-662.989	-59.428	0.208	0.091
-661.974	358.379	-0.185	0.375
-660.959	11.494	0.131	-0.102
-659.945	-200.000	-0.029	-0.157
-658.930	-53.989	0.280	-0.129
-657.916	800.000	-0.060	-0.189
-656.901	462.181	0.074	-0.168
-655.886	-200.000	-0.024	0.198
-654.872	-30.526	-0.163	0.094
-653.857	2.425	0.276	0.203
-652.843	77.595	-0.064	0.069
-651.828	135.172	0.062	-0.081
-650.814	-162.414	-0.153	0.008
-649.799	800.000	0.039	-0.125
-648.784	387.619	-0.127	-0.267
-647.770	-151.503	0.106	0.008
-646.755	-200.000	0.001	0.156
-645.741	59.831	-0.164	-0.164
-644.726	-200.000	-0.003	-0.198
-643.711	-120.716	0.067	-0.012
-642.697	-200.000	0.001	0.004
-641.682	111.805	-0.131	-0.161
-640.668	-6.745	-0.246	-0.170
-639.653	126.733	-0.229	-0.295
-638.638	-200.000	0.047	-0.354
-637.624	442.072	0.098	-0.217
-636.609	243.270	-0.075	-0.128
-635.595	75.256	-0.008	-0.008
-634.580	-131.580	0.264	0.035
-633.565	-81.088	0.103	0.034
-632.551	-200.000	0.078	0.424
-631.536	649.444	0.113	0.294
-630.522	-52.176	-0.020	-0.009
-629.507	800.000	-0.009	0.041
-628.492	-165.549	0.107	0.005
-627.478	-200.000	-0.022	0.220
-626.463	-173.184	0.575	-0.018
-625.449	-200.000	0.027	0.127
-624.434	-148.553	-0.163	0.014
-623.419	171.862	-0.033	0.048
-622.405	-200.000	0.027	0.230
-621.390	-200.000	0.058	0.392
-620.376	-200.000	0.009	0.332
-619.361	14.105	-0.140	-0.110
-618.346	187.586	-0.148	-0.224
-617.332	112.759	0.068	-0.084
-616.317	-152.669	-0.193	0.014
-615.303	646.533	0.065	0.168
-614.288	97.942	0.137	0.160
-613.273	-140.986	-0.175	-0.018
-612.259	235.473	0.113	-0.189
-611.244	399.495	-0.058	-0.123
-610.230	590.718	-0.060	-0.149
-609.215	-34.107	0.209	-0.116
-608.201	7.107	0.182	0.137
-607.186	-82.876	0.430	0.141
-606.171	-48.531	0.167	-0.081
-605.157	12.321	0.095	-0.074
-604.142	440.228	0.103	0.228
-603.128	-91.827	0.037	0.011
-602.113	-101.491	-0.172	0.042
-601.098	800.000	0.061	0.185
-600.084	-17.694	0.111	0.071
-599.069	-62.954	0.130	-0.054
-598.055	-137.132	-0.161	0.019
-597.040	758.018	0.098	-0.270
-596.025	60.434	-0.126	-0.126
-595.011	534.799	-0.047	-0.113
-593.996	-36.327	0.045	0.025
-592.982	-200.000	0.036	-0.275
-591.967	260.239	0.082	0.143
-590.952	-22.351	-0.287	-0.176
-589.938	710.504	-0.134	-0.359
-588.923	-79.475	0.216	0.074
-587.909	-125.427	-0.136	-0.021
-586.894	58.929	0.082	0.082
-585.879	-140.086	-0.293	0.031
-584.865	-134.322	-0.208	-0.026
-583.850	282.380	-0.023	-0.043
-582.836	-200.000	-0.008	0.086
-581.821	12.984	0.211	-0.165
-580.806	-89.311	-0.170	0.051
-579.792	52.410	0.007	-0.007
-578.777	-72.026	-0.228	-0.086
-577.763	-200.000	0.020	-0.126
-576.748	800.000	-0.051	0.157
-575.733	29.049	-0.212	-0.182
-574.719	-200.000	0.011	-0.115
-573.704	-34.350	-0.260	-0.144
-572.690	-94.584	-0.287	0.079
-571.675	296.080	0.114	0.212
-570.661	-200.000	-0.012	-0.291
-569.646	-59.171	-0.250	0.109
-568.631	456.569	0.092	-0.207
-567.617	-167.459	0.279	-0.011
-566.602	800.000	0.122	0.365
-565.588	-41.441	0.069	0.036
-564.573	-200.000	-0.019	-0.103
-563.558	31.339	-0.071	-0.062
-562.544	-1.862	-0.126	-0.090
-561.529	-200.000	-0.040	-0.225
-560.515	-116.274	-0.092	-0.017
-559.500	136.479	-0.052	0.069
-558.485	109.381	-0.208	-0.252
-557.471	-13.269	0.124	0.081
-556.456	275.235	0.172	-0.308
-555.442	-179.300	0.173	-0.004
-554.427	-139.465	0.367	-0.040
-553.412	115.827	0.105	-0.130
-552.398	-200.000	0.050	0.333
-551.383	-116.404	0.201	0.038
-550.369	118.520	-0.263	0.328
-549.354	-194.460	-0.222	-0.002
-548.339	628.964	0.130	-0.331
-547.325	29.517	0.130	0.112
-546.310	93.101	-0.177	-0.202
-545.296	-96.813	-0.227	0.060
-544.281	-1.612	0.235	-0.167
-543.266	800.000	-0.040	0.114
-542.252	-78.005	0.061	0.021
-541.237	69.976	-0.090	0.094
-540.223	-68.792	-0.239	0.093
-539.208	-156.227	0.098	-0.006
-538.193	418.939	-0.134	-0.289
-537.179	-200.000	-0.000	0.045
-536.164	248.949	-0.155	0.265
-535.150	-72.204	-0.157	-0.059
-534.135	800.000	0.060	-0.217
-533.121	36.503	-0.032	-0.028
-532.106	-53.309	-0.392	-0.181
-531.091	572.650	-0.097	-0.238
-530.077	146.589	0.102	-0.138
-529.062	-200.000	0.030	-0.146
-528.048	-200.000	0.008	-0.146
-527.033	-68.383	0.057	-0.022
-526.018	-124.243	-0.085	0.013
-525.004	-15.446	0.180	0.116
-523.989	188.432	0.095	0.144
-522.975	318.636	0.008	-0.015
-521.960	800.000	0.046	-0.178
-520.945	25.844	0.122	-0.103
-519.931	155.551	0.115	0.160
-518.916	800.000	-0.006	0.019
-517.902	90.298	-0.110	0.124
-516.887	-165.387	-0.178	-0.008
-515.872	800.000	0.068	-0.262
-514.858	-35.236	-0.011	-0.006
-513.843	-200.000	-0.004	0.047
-512.829	-165.372	-0.332	0.015
-511.814	-116.753	-0.426	0.079
-510.799	-101.649	-0.092	0.022
-509.785	86.673	0.104	-0.116
-508.770	43.054	0.065	0.060
-507.756	-161.252	-0.242	-0.013
-506.741	266.598	-0.030	0.052
-505.726	-127.524	-0.342	0.050
-504.712	128.167	0.123	-0.157
-503.697	243.854	0.164	-0.278
-502.683	91.035	0.192	0.217
-501.668	-130.167	0.235	0.032
-500.653	-8.386	0.157	0.107
-499.639	-179.225	0.341	0.008
-498.624	-27.509	-0.043	-0.025
-497.610	800.000	0.141	-0.411
-496.595	-61.918	-0.135	0.057
-495.581	-36.089	0.093	0.050
-494.566	4.837	-0.337	-0.250
-493.551	219.520	-0.129	-0.208
-492.537	261.979	-0.053	-0.092
-491.522	-67.272	-0.398	-0.158
-490.508	421.219	-0.133	0.286
-489.493	130.149	0.265	0.342
-488.478	-200.000	-0.090	-0.000
-487.464	60.121	0.029	-0.028
-486.449	229.335	-0.324	0.533
-485.435	-200.000	0.016	-0.174
-484.420	800.000	0.034	0.140
-483.405	366.751	-0.087	-0.177
-482.391	78.587	-0.228	0.245
-481.376	764.251	-0.010	0.026
-480.362	81.846	-0.138	-0.151
-479.347	-85.523	-0.054	0.017
-478.332	-56.377	-0.118	0.053
-477.318	220.621	0.104	0.168
-476.303	-116.480	0.085	0.016
-475.289	163.339	-0.023	-0.032
-474.274	-200.000	-0.012	0.205
-473.259	72.496	0.060	-0.063
-472.245	174.066	-0.135	0.196
-471.230	-49.095	-0.288	0.139
-470.216	22.135	0.089	0.074
-469.201	-28.959	0.209	-0.121
-468.186	800.000	-0.040	-0.147
-467.172	10.477	-0.116	0.089
-466.157	159.438	0.088	-0.124
-465.143	475.504	0.037	0.084
-464.128	-138.416	-0.286	0.032
-463.113	-200.000	0.003	0.056
-462.099	402.981	-0.233	-0.494
-461.084	800.000	-0.029	0.128
-460.070	-183.735	-0.105	-0.002
-459.055	167.778	0.188	-0.269
-458.040	800.000	0.068	-0.251
-457.026	45.482	-0.205	-0.191
-456.011	800.000	0.030	-0.106
-454.997	120.726	-0.248	-0.310
-453.982	800.000	0.047	-0.163
-452.968	-58.432	0.419	-0.183
-451.953	-200.000	-0.012	-0.122
-450.938	44.928	-0.242	-0.225
-449.924	55.921	0.225	-0.220
-448.909	-95.596	0.274	-0.074
-447.895	107.780	0.061	-0.073
-446.880	-200.000	0.001	-0.184
-445.865	-200.000	0.012	-0.054
-444.851	-138.029	0.191	0.021
-443.836	31.925	0.202	-0.175
-442.822	172.903	0.017	0.025
-441.807	-166.446	-0.186	0.008
-440.792	-66.124	0.027	0.011
-439.778	-95.288	-0.298	0.081
-438.763	-89.990	0.135	-0.040
-437.749	-29.302	0.239	-0.138
-436.734	-20.321	0.088	-0.054
-435.719	-149.422	-0.104	-0.008
-434.705	454.014	-0.141	-0.313
-433.690	-44.130	0.051	-0.026
-432.676	-113.006	-0.189	-0.038
-431.661	-54.414	-0.111	-0.051
-430.646	7.881	0.220	-0.166
-429.632	15.863	-0.150	0.119
-428.617	75.785	0.253	0.269
-427.603	-154.103	0.196	0.013
-426.588	-89.844	0.310	-0.091
-425.573	100.059	-0.165	0.193
-424.559	-200.000	-0.029	0.213
-423.544	-179.856	-0.350	0.008
-422.530	300.603	-0.233	-0.433
-421.515	-200.000	-0.004	-0.120
-420.500	11.827	0.084	0.065
-419.486	-40.763	0.205	-0.107
-418.471	217.726	0.126	-0.201
-417.457	-70.542	0.053	0.020
-416.442	-48.622	-0.229	0.111
-415.428	800.000	-0.035	-0.141
-414.413	156.674	-0.148	0.206
-413.398	800.000	0.034	0.103
-412.384	-150.108	0.146	-0.011
-411.369	160.387	0.123	-0.173
-410.355	272.065	-0.091	0.161
-409.340	-9.494	-0.117	0.079
-408.325	-200.000	0.060	0.407
-407.311	250.771	0.092	0.157
-406.296	183.147	-0.101	-0.150
-405.282	106.170	-0.108	0.129
-404.267	728.971	-0.105	0.282
-403.252	-200.000	0.070	0.331
-402.238	-33.834	-0.202	0.112
-401.223	-113.966	-0.121	-0.024
-400.209	375.672	0.031	-0.063
-399.194	-112.759	0.347	-0.069
-398.179	292.387	-0.056	0.103
-397.165	314.273	-0.216	-0.409
-396.150	-92.549	0.173	0.049
-395.136	-122.264	0.630	-0.103
-394.121	-49.209	0.272	0.130
-393.106	229.548	0.082	-0.134
-392.092	-145.500	0.167	-0.015
-391.077	-200.000	-0.017	0.079
-390.063	-200.000	-0.014	0.102
-389.048	-7.702	-0.142	0.096
-388.033	-200.000	-0.009	0.066
-387.019	548.660	-0.118	0.284
-386.004	12.436	-0.162	0.125
-384.990	493.803	-0.110	-0.254
-383.975	-44.523	0.310	0.156
-382.960	-53.337	-0.060	-0.027
-381.946	-99.780	0.156	0.039
-380.931	-200.000	-0.004	0.444
-379.917	67.338	-0.065	-0.067
-378.902	-49.531	0.031	0.015
-377.888	-200.000	0.004	-0.047
-376.873	-102.635	-0.480	-0.115
-375.858	267.512	-0.074	-0.130
-374.844	-30.646	0.187	-0.107
-373.829	-139.069	0.277	-0.030
-372.815	-96.358	-0.198	0.053
-371.800	412.440	-0.047	0.100
-370.785	-43.332	0.241	-0.122
-369.771	2.022	-0.105	-0.076
-368.756	61.429	-0.086	0.086
-367.742	-152.444	-0.133	0.010
-366.727	-11.556	-0.071	-0.047
-365.712	-24.751	0.163	-0.097
-364.698	-200.000	0.004	0.209
-363.683	-91.727	0.255	-0.073
-362.669	602.929	0.033	0.083
-361.654	-200.000	0.000	0.252
-360.639	-25.875	-0.023	-0.014
-359.625	800.000	-0.078	0.251
-358.610	-141.586	0.443	0.045
-357.596	74.665	0.143	0.151
-356.581	449.056	-0.109	-0.241
-355.566	800.000	0.097	0.307
-354.552	636.967	0.092	0.234
-353.537	636.244	-0.048	-0.122
-352.523	103.666	-0.154	-0.181
-351.508	800.000	0.106	-0.382
-350.493	-106.766	-0.146	0.033
-349.479	57.330	-0.009	0.009
-348.464	215.269	0.260	-0.414
-347.450	-82.701	0.306	-0.099
-346.435	38.127	0.027	-0.024
-345.420	-145.499	-0.228	0.021
-344.406	213.987	-0.184	-0.292
-343.391	800.000	0.056	0.164
-342.377	-200.000	-0.005	-0.055
-341.362	800.000	-0.028	0.093
-340.348	32.730	-0.222	0.192
-339.333	-117.536	-0.388	0.070
-338.318	15.650	0.231	0.182
-337.304	-200.000	-0.012	-0.491
-336.289	-12.187	-0.388	-0.255
-335.275	-104.683	-0.101	0.023
-334.260	-36.419	-0.138	-0.075
-333.245	-16.735	0.128	-0.081
-332.231	-200.000	0.008	-0.096
-331.216	800.000	0.084	0.268
-330.202	-78.974	0.228	0.078
-329.187	-58.997	0.156	-0.067
-328.172	210.172	0.057	-0.090
-327.158	-9.673	-0.256	0.171
-326.143	-81.027	0.333	0.110
-325.129	302.453	0.115	-0.214
-324.114	-124.896	-0.305	-0.047
-323.099	8.639	0.165	0.124
-322.085	800.000	-0.058	0.210
-321.070	-89.239	0.202	-0.060
-320.056	-72.161	0.177	0.066
-319.041	538.546	-0.015	-0.036
-318.026	-7.750	0.151	0.102
-317.012	-72.639	0.117	-0.043
-315.997	-75.181	-0.303	-0.109
-314.983	-56.911	-0.168	-0.074
-313.968	-78.732	0.175	0.060
-312.953	2.747	-0.284	0.206
-311.939	96.564	-0.157	-0.180
-310.924	-64.122	0.386	0.158
-309.910	116.518	0.192	0.236
-308.895	-200.000	-0.009	0.388
-307.880	800.000	0.062	0.245
-306.866	-56.447	-0.065	-0.029
-305.851	800.000	0.109	0.358
-304.837	81.175	-0.190	0.205
-303.822	-200.000	0.018	-0.233
-302.807	-28.721	-0.152	0.087
-301.793	93.710	-0.163	-0.185
-300.778	-139.938	-0.241	0.025
-299.764	800.000	-0.063	-0.248
-298.749	251.896	0.112	0.191
-297.735	-200.000	0.005	0.201
-296.720	-138.525	0.390	0.043
-295.705	-60.781	0.251	-0.106
-294.691	-23.014	-0.482	-0.290
-293.676	-200.000	-0.025	0.127
-292.662	-200.000	0.053	0.345
-291.647	159.825	-0.031	-0.043
-290.632	4.609	-0.309	0.227
-289.618	-200.000	0.004	-0.043
-288.603	-200.000	-0.342	0.002
-287.589	-200.000	-0.049	0.556
-286.574	47.418	0.091	0.085
-285.559	-85.249	-0.128	-0.040
-284.545	-200.000	-0.031	-0.158
-283.530	266.914	-0.066	0.115
-282.516	-50.992	0.071	0.033
-281.501	800.000	-0.098	0.405
-280.486	211.665	0.158	0.249
-279.472	-6.229	-0.077	-0.052
-278.457	-149.253	0.259	0.021
-277.443	-200.000	-0.037	-0.439
-276.428	-142.255	0.205	0.020
-275.413	1.361	-0.365	-0.262
-274.399	-36.587	-0.225	0.121
-273.384	68.013	0.028	-0.028
-272.370	-200.000	-0.021	-0.166
-271.355	-101.957	-0.218	-0.053
-270.340	-87.532	-0.297	0.090
-269.326	-200.000	-0.008	-0.182
-268.311	-132.068	0.527	0.069
-267.297	-200.000	0.029	0.226
-266.282	151.697	-0.033	0.045
-265.267	-59.368	0.212	0.091
-264.253	94.607	0.209	-0.237
-263.238	-200.000	0.050	-0.265
-262.224	800.000	-0.093	0.393
-261.209	245.485	0.222	-0.373
-260.195	800.000	-0.085	0.280
-259.180	-19.544	0.312	0.193
-258.165	-72.131	-0.459	-0.170
-257.151	-99.547	0.158	0.040
-256.136	-200.000	-0.020	0.262
-255.122	184.562	0.134	-0.198
-254.107	43.169	0.252	0.230
-253.092	-132.178	-0.112	-0.015
-252.078	-4.382	-0.098	0.068
-251.063	-6.533	0.174	-0.118
-250.049	55.215	-0.153	0.148
-249.034	-163.320	-0.317	0.015
-248.019	800.000	0.044	-0.154
-247.005	-62.091	0.214	0.089
-245.990	126.854	-0.156	0.198
-244.976	-200.000	0.051	0.377
-243.961	800.000	0.029	0.126
-242.946	-82.034	-0.251	0.082
-241.932	-66.838	0.045	0.018
-240.917	-19.358	0.378	0.234
-239.903	-200.000	-0.027	-0.367
-238.888	800.000	-0.088	0.243
-237.873	431.141	-0.052	0.112
-236.859	-68.742	0.213	-0.082
-235.844	-128.367	0.123	0.017
-234.830	-200.000	-0.024	0.136
-233.815	800.000	0.077	-0.268
-232.800	123.537	0.181	-0.227
-231.786	800.000	-0.095	-0.410
-230.771	-200.000	-0.010	-0.146
-229.757	-28.364	0.163	-0.094
-228.742	-200.000	0.048	0.260
-227.727	-13.310	0.172	0.111
-226.713	-37.050	0.209	0.112
-225.698	-200.000	0.006	0.191
-224.684	110.003	0.131	-0.157
-223.669	-144.345	-0.212	-0.020
-222.655	-133.091	-0.096	-0.012
-221.640	-105.712	-0.093	0.021
-220.625	15.335	0.118	0.093
-219.611	11.028	0.229	0.175
-218.596	-13.759	-0.292	0.188
-217.582	117.377	-0.133	0.163
-216.567	800.000	-0.070	-0.222
-215.552	567.590	-0.206	-0.500
-214.538	-98.504	0.154	0.039
-213.523	-41.721	0.208	0.107
-212.509	88.310	-0.091	0.101
-211.494	79.380	-0.121	-0.130
-210.479	84.493	0.171	0.187
-209.465	65.979	-0.060	0.061
-208.450	223.673	-0.111	-0.179
-207.436	-200.000	-0.005	-0.053
-206.421	-48.497	-0.262	-0.126
-205.406	-86.230	0.269	0.083
-204.392	-200.000	0.055	0.375
-203.377	-69.005	-0.220	0.085
-202.363	-119.988	0.500	-0.086
-201.348	223.587	0.186	0.300
-200.333	63.726	0.237	0.237
-199.319	-200.000	0.034	0.323
-198.304	442.056	0.109	-0.237
-197.290	-200.000	-0.062	0.353
-196.275	-117.760	0.132	-0.024
-195.260	-79.110	-0.369	0.125
-194.246	72.860	0.143	-0.149
-193.231	800.000	0.038	-0.161
-192.217	140.125	0.023	-0.031
-191.202	800.000	0.074	0.238
-190.187	203.411	-0.046	-0.071
-189.173	-13.485	0.083	-0.054
-188.158	-105.132	0.267	0.061
-187.144	-200.000	-0.008	-0.191
-186.129	-28.573	-0.112	0.064
-185.114	169.896	-0.069	-0.099
-184.100	-175.960	0.506	-0.013
-183.085	716.611	0.067	0.178
-182.071	-132.601	-0.239	-0.031
-181.056	339.150	-0.088	-0.171
-180.042	-68.008	0.081	0.031
-179.027	272.438	0.058	-0.102
-178.012	-4.740	-0.103	0.071
-176.998	-200.000	0.007	0.179
-175.983	-18.930	0.128	0.080
-174.969	-87.133	0.257	0.078
-173.954	-200.000	0.020	0.237
-172.939	-3.586	-0.483	-0.334
-171.925	-200.000	0.001	0.176
-170.910	-200.000	0.005	0.298
-169.896	-32.347	-0.023	0.013
-168.881	81.686	-0.078	-0.084
-167.866	3.203	0.166	0.120
-166.852	413.748	0.057	-0.120
-165.837	-200.000	0.004	0.217
-164.823	-51.654	0.283	0.131
-163.808	30.916	0.139	0.119
-162.793	-41.803	0.362	-0.185
-161.779	69.119	0.098	-0.100
-160.764	407.495	-0.113	-0.237
-159.750	418.575	-0.186	-0.396
-158.735	502.608	0.073	0.167
-157.720	-135.736	-0.206	-0.024
-156.706	-80.556	-0.291	0.097
-155.691	72.040	-0.041	-0.043
-154.677	152.075	0.047	-0.064
-153.662	108.685	-0.155	-0.184
-152.647	-98.065	-0.294	-0.075
-151.633	38.974	-0.183	0.162
-150.618	-123.029	0.140	-0.022
-149.604	800.000	0.067	-0.183
-148.589	-125.119	0.092	0.014
-147.574	-101.012	-0.036	-0.009
-146.560	456.394	-0.235	0.519
-145.545	-47.013	-0.161	-0.078
-144.531	-200.000	-0.012	-0.124
-143.516	-200.000	0.003	-0.073
-142.502	-114.798	0.125	0.024
-141.487	-200.000	0.035	-0.290
-140.472	-200.000	-0.035	-0.310
-139.458	437.486	-0.100	0.216
-138.443	-200.000	-0.015	0.085
-137.429	-200.000	-0.020	-0.114
-136.414	800.000	0.016	0.043
-135.399	-67.799	0.255	0.099
-134.385	66.912	0.358	0.362
-133.370	-105.855	-0.358	-0.080
-132.356	-99.565	0.040	0.010
-131.341	173.905	-0.038	-0.055
-130.326	57.402	0.349	0.339
-129.312	158.193	0.158	0.217
-128.297	-200.000	0.020	0.115
-127.283	33.410	0.092	-0.079
-126.268	15.059	-0.119	0.093
-125.253	146.348	-0.027	-0.036
-124.239	-200.000	-0.019	0.167
-123.224	-200.000	-0.028	0.192
-122.210	10.943	-0.195	0.148
-121.195	-11.529	-0.277	-0.181
