DTS Sentinel unit serial number:	SN413079Multiplexer serial number:	ORYXHardware model number:	OX4-SRSoftware version number:	ORYX F/W v4.00 Oryx Data Collector v3.7.2.0data status	okinstallation	princeton_trtdifferential loss correction	single-endedforward channel	channel 3reverse channel	N/Adate	2019/09/19time	12:24:35forward acquisition time	60.00reverse acquisition time	0.00gamma	496.2192k internal	0.2337k external	0.2337temperature offset calibration	0.9990default loss term (dB/km)	0.3790temperature slope calibration	1.0000multiplexer offset coefficient	1.0000multiplexer slope coefficient	1.0000fibre end	0.00T internal ref (°C)	26.81T ext. ref 1 (°C)	0.87T ext. ref 2 (°C)	24.16length (m)	temperature (°C)	Stokes	anti-Stokes-747.200	-200.000	0.009	0.355
-746.185	-91.112	-0.292	0.084
-745.171	319.228	-0.048	0.091
-744.156	-22.153	-0.282	0.172
-743.142	-100.710	-0.337	-0.083
-742.127	147.458	-0.204	0.276
-741.112	-128.291	0.132	0.019
-740.098	3.380	-0.136	0.100
-739.083	413.450	-0.094	0.202
-738.069	-160.620	0.095	-0.005
-737.054	-104.019	-0.064	-0.015
-736.039	-126.511	0.023	-0.003
-735.025	-200.000	-0.009	-0.228
-734.010	485.714	-0.084	-0.192
-732.996	-70.124	-0.125	0.048
-731.981	212.614	-0.176	0.279
-730.966	-14.996	0.253	0.163
-729.952	-37.798	0.377	-0.201
-728.937	312.581	-0.121	-0.228
-727.923	182.816	-0.131	-0.194
-726.908	23.744	-0.178	-0.148
-725.894	-200.000	-0.011	-0.144
-724.879	253.131	-0.049	-0.084
-723.864	2.384	-0.338	-0.245
-722.850	22.313	-0.126	0.104
-721.835	170.531	-0.258	-0.371
-720.821	800.000	0.045	-0.170
-719.806	271.570	0.110	-0.195
-718.791	800.000	-0.016	-0.060
-717.777	800.000	-0.082	-0.330
-716.762	24.487	0.184	0.153
-715.748	-200.000	0.022	0.249
-714.733	-200.000	0.025	-0.389
-713.718	-67.850	-0.090	-0.035
-712.704	-75.083	0.167	-0.060
-711.689	-53.884	-0.208	0.095
-710.675	-121.674	-0.276	-0.046
-709.660	-6.528	-0.163	0.112
-708.645	286.340	-0.176	-0.319
-707.631	111.508	-0.097	-0.118
-706.616	-33.712	0.075	-0.042
-705.602	-82.815	-0.055	0.018
-704.587	-23.686	-0.075	-0.045
-703.572	-142.510	-0.168	0.017
-702.558	58.119	-0.128	-0.126
-701.543	-107.705	-0.064	-0.014
-700.529	318.627	-0.150	0.284
-699.514	153.549	-0.120	-0.164
-698.499	331.674	-0.116	-0.224
-697.485	195.096	0.136	-0.207
-696.470	-47.878	-0.083	-0.040
-695.456	57.085	0.087	-0.085
-694.441	-28.305	0.218	0.126
-693.426	800.000	0.090	-0.383
-692.412	-89.029	0.087	0.026
-691.397	-131.471	-0.155	-0.021
-690.383	-39.121	-0.137	-0.072
-689.368	39.150	-0.151	0.135
-688.354	-200.000	-0.093	0.455
-687.339	-200.000	0.008	-0.146
-686.324	62.511	0.106	0.106
-685.310	-112.763	0.135	-0.027
-684.295	115.703	-0.064	-0.078
-683.281	-20.507	-0.082	0.051
-682.266	-112.446	0.119	0.024
-681.251	-151.022	-0.308	-0.023
-680.237	-12.680	-0.142	0.093
-679.222	800.000	-0.054	-0.209
-678.208	800.000	-0.026	0.107
-677.193	7.970	-0.136	-0.102
-676.178	249.242	-0.069	0.117
-675.164	-99.061	0.200	0.051
-674.149	303.480	0.018	0.034
-673.135	800.000	0.092	-0.339
-672.120	-14.145	0.063	-0.041
-671.105	-60.588	-0.222	0.094
-670.091	366.937	0.096	0.194
-669.076	697.078	0.247	-0.649
-668.062	-200.000	-0.001	0.010
-667.047	-200.000	0.014	-0.281
-666.032	143.945	0.250	-0.334
-665.018	117.362	-0.278	-0.342
-664.003	-46.944	0.084	-0.041
-662.989	-200.000	-0.025	0.119
-661.974	208.134	-0.102	-0.159
-660.959	-0.973	0.199	-0.141
-659.945	242.608	0.052	-0.086
-658.930	800.000	0.137	-0.542
-657.916	529.894	-0.074	0.175
-656.901	-67.513	0.069	0.027
-655.886	-200.000	0.021	-0.322
-654.872	-32.266	-0.051	-0.029
-653.857	-200.000	0.011	0.197
-652.843	368.792	0.031	-0.064
-651.828	490.406	0.034	-0.078
-650.814	-135.455	-0.148	0.018
-649.799	800.000	-0.056	-0.181
-648.784	-98.895	0.026	0.006
-647.770	65.953	0.213	-0.216
-646.755	-200.000	-0.022	-0.227
-645.741	-200.000	0.020	0.179
-644.726	-200.000	0.028	-0.136
-643.711	-200.000	0.019	-0.108
-642.697	280.180	-0.031	0.056
-641.682	68.130	0.286	-0.293
-640.668	-143.711	-0.104	-0.010
-639.653	-66.540	-0.368	-0.146
-638.638	166.636	0.172	-0.244
-637.624	58.645	0.118	-0.116
-636.609	-90.742	-0.271	-0.078
-635.595	203.726	0.061	0.094
-634.580	-200.000	-0.033	-0.220
-633.565	399.325	0.126	-0.265
-632.551	-15.264	-0.166	-0.106
-631.536	20.940	0.199	0.161
-630.522	113.129	-0.021	0.025
-629.507	-200.000	-0.012	-0.163
-628.492	385.184	0.051	-0.106
-627.478	295.522	0.060	-0.110
-626.463	-111.664	-0.252	0.051
-625.449	-200.000	-0.020	0.165
-624.434	-151.087	-0.372	-0.028
-623.419	370.181	-0.156	-0.317
-622.405	91.098	0.068	-0.077
-621.390	-112.877	-0.158	0.031
-620.376	188.315	-0.084	-0.125
-619.361	299.126	0.195	0.359
-618.346	-200.000	-0.008	0.230
-617.332	-82.352	-0.424	-0.138
-616.317	-200.000	0.034	0.559
-615.303	800.000	-0.079	0.288
-614.288	800.000	-0.047	-0.184
-613.273	-120.746	0.143	-0.024
-612.259	-48.307	0.292	0.140
-611.244	-200.000	0.050	0.283
-610.230	-36.278	0.064	-0.034
-609.215	415.829	0.012	0.025
-608.201	800.000	-0.098	0.291
-607.186	-118.192	0.065	-0.012
-606.171	800.000	-0.134	-0.449
-605.157	-148.607	0.203	0.016
-604.142	-99.656	0.201	-0.050
-603.128	47.925	0.136	0.127
-602.113	-15.710	0.153	-0.098
-601.098	613.464	-0.161	0.401
-600.084	-33.105	-0.186	0.103
-599.069	252.999	-0.023	-0.039
-598.055	-200.000	0.061	0.292
-597.040	-30.328	-0.074	0.042
-596.025	800.000	0.119	0.426
-595.011	800.000	-0.078	0.276
-593.996	800.000	-0.055	-0.157
-592.982	194.544	-0.155	-0.234
-591.967	18.869	-0.110	0.088
-590.952	602.674	0.076	0.189
-589.938	-200.000	-0.001	0.140
-588.923	-200.000	0.015	-0.109
-587.909	242.263	0.077	0.129
-586.894	-200.000	-0.003	0.023
-585.879	-48.500	0.054	0.026
-584.865	-92.324	0.299	0.084
-583.850	20.678	-0.225	-0.182
-582.836	800.000	-0.047	-0.174
-581.821	-129.074	-0.160	-0.022
-580.806	582.025	-0.141	-0.344
-579.792	-60.063	-0.341	-0.145
-578.777	-200.000	-0.030	-0.208
-577.763	39.793	0.158	-0.141
-576.748	151.349	0.067	-0.092
-575.733	-65.086	-0.195	-0.079
-574.719	-104.527	-0.311	-0.072
-573.704	191.338	0.166	0.250
-572.690	-200.000	0.017	0.545
-571.675	-109.271	0.040	0.008
-570.661	202.656	0.048	-0.074
-569.646	-170.585	-0.096	-0.003
-568.631	-80.371	0.061	-0.020
-567.617	286.047	-0.287	-0.515
-566.602	-108.036	-0.268	0.058
-565.588	142.020	-0.133	0.176
-564.573	-200.000	-0.009	-0.112
-563.558	466.001	0.164	-0.367
-562.544	291.034	-0.094	0.170
-561.529	-1.810	0.083	0.058
-560.515	-200.000	-0.002	-0.212
-559.500	-128.252	-0.416	-0.059
-558.485	-128.485	0.126	0.018
-557.471	-150.731	-0.178	0.013
-556.456	316.016	-0.106	-0.200
-555.442	155.659	0.047	-0.064
-554.427	-46.466	0.113	0.055
-553.412	800.000	-0.134	0.477
-552.398	16.944	-0.200	-0.158
-551.383	800.000	0.016	-0.055
-550.369	-58.921	-0.341	0.147
-549.354	-163.159	0.088	-0.004
-548.339	32.032	-0.190	-0.163
-547.325	800.000	-0.080	-0.252
-546.310	169.191	-0.190	-0.271
-545.296	454.729	0.032	-0.071
-544.281	511.181	-0.037	-0.085
-543.266	225.508	0.097	-0.157
-542.252	50.139	0.121	-0.113
-541.237	243.073	-0.143	-0.238
-540.223	262.690	0.109	-0.189
-539.208	-131.463	-0.194	0.025
-538.193	-115.748	0.547	-0.102
-537.179	57.777	-0.125	0.121
-536.164	-130.968	-0.373	0.050
-535.150	8.371	0.272	0.204
-534.135	-163.772	0.442	-0.021
-533.121	-33.488	0.219	-0.120
-532.106	66.938	0.132	0.134
-531.091	-72.028	-0.219	0.081
-530.077	800.000	-0.068	-0.215
-529.062	800.000	0.073	0.258
-528.048	-200.000	0.019	0.216
-527.033	-144.905	0.136	-0.012
-526.018	748.083	0.023	0.062
-525.004	-85.964	0.450	0.139
-523.989	-8.252	-0.191	-0.128
-522.975	110.607	-0.122	-0.145
-521.960	-133.673	0.148	0.018
-520.945	-83.728	-0.331	-0.105
-519.931	38.751	0.283	0.251
-518.916	-75.785	0.064	0.023
-517.902	44.757	-0.163	-0.149
-516.887	-56.483	-0.158	-0.070
-515.872	-200.000	-0.088	-0.406
-514.858	15.014	0.361	-0.282
-513.843	-90.970	-0.203	0.058
-512.829	-44.276	-0.431	-0.215
-511.814	800.000	0.081	0.276
-510.799	-60.407	0.168	0.071
-509.785	305.610	-0.187	-0.345
-508.770	-102.107	-0.216	0.052
-507.756	3.345	0.114	-0.083
-506.741	-200.000	0.024	0.163
-505.726	-44.030	-0.148	-0.074
-504.712	-69.126	0.182	0.070
-503.697	-200.000	0.031	0.227
-502.683	-127.055	0.089	-0.013
-501.668	-200.000	0.043	-0.429
-500.653	-200.000	-0.042	0.253
-499.639	4.307	0.056	0.041
-498.624	-200.000	-0.011	-0.197
-497.610	165.025	0.092	-0.129
-496.595	179.394	0.126	0.183
-495.581	-200.000	-0.016	-0.135
-494.566	-200.000	0.014	0.094
-493.551	-200.000	0.009	-0.087
-492.537	23.709	-0.239	-0.196
-491.522	-108.139	0.052	-0.011
-490.508	-22.763	0.315	0.189
-489.493	-200.000	-0.007	-0.490
-488.478	-200.000	0.015	0.221
-487.464	-200.000	-0.021	0.279
-486.449	-67.917	-0.285	0.111
-485.435	17.629	0.274	0.216
-484.420	-200.000	0.030	0.182
-483.405	-177.930	0.225	-0.005
-482.391	800.000	-0.074	-0.206
-481.376	-80.603	-0.292	-0.097
-480.362	-74.050	-0.202	0.073
-479.347	-120.289	-0.298	-0.051
-478.332	408.385	0.096	-0.202
-477.318	-11.953	-0.377	0.245
-476.303	-60.870	-0.060	-0.025
-475.289	-200.000	0.025	-0.281
-474.274	180.335	-0.196	0.286
-473.259	516.619	-0.120	0.278
-472.245	33.718	0.142	0.123
-471.230	258.546	0.292	-0.500
-470.216	-200.000	-0.005	0.301
-469.201	800.000	-0.052	0.150
-468.186	542.702	0.105	-0.249
-467.172	-200.000	-0.055	-0.461
-466.157	-56.142	-0.200	-0.088
-465.143	-200.000	0.006	-0.064
-464.128	-63.254	-0.306	-0.125
-463.113	-66.036	-0.172	0.068
-462.099	-52.920	-0.108	-0.050
-461.084	-81.577	0.370	0.121
-460.070	-89.689	-0.173	-0.050
-459.055	243.877	-0.083	0.139
-458.040	110.266	-0.361	-0.430
-457.026	800.000	0.058	-0.172
-456.011	-117.388	-0.238	0.043
-454.997	-200.000	0.002	0.176
-453.982	179.129	-0.111	-0.162
-452.968	457.994	0.050	-0.110
-451.953	-200.000	-0.024	0.168
-450.938	0.620	0.093	0.066
-449.924	-70.216	-0.172	-0.065
-448.909	-121.719	-0.191	-0.031
-447.895	342.629	-0.016	-0.031
-446.880	800.000	0.067	0.280
-445.865	47.884	0.081	0.075
-444.851	-104.307	-0.128	-0.029
-443.836	-141.733	0.096	0.010
-442.822	298.785	0.051	0.093
-441.807	11.481	0.108	0.082
-440.792	-200.000	0.015	0.186
-439.778	261.767	0.105	0.181
-438.763	359.862	0.037	-0.074
-437.749	-67.613	0.281	-0.109
-436.734	-58.758	-0.190	0.082
-435.719	518.998	0.116	0.269
-434.705	156.808	0.051	-0.070
-433.690	-58.783	-0.187	0.080
-432.676	74.364	0.118	0.123
-431.661	722.487	-0.103	-0.271
-430.646	767.703	0.038	-0.102
-429.632	72.031	0.037	0.038
-428.617	-200.000	0.030	-0.323
-427.603	179.780	0.031	0.045
-426.588	800.000	-0.048	-0.153
-425.573	634.896	0.078	-0.196
-424.559	66.443	-0.201	-0.203
-423.544	102.133	0.198	0.229
-422.530	-134.126	-0.039	-0.005
-421.515	800.000	0.133	-0.395
-420.500	18.846	0.132	0.105
-419.486	14.246	0.069	-0.054
-418.471	-149.525	0.290	-0.023
-417.457	-53.989	0.236	-0.107
-416.442	-49.888	-0.399	-0.188
-415.428	224.169	-0.037	-0.059
-414.413	800.000	0.096	-0.374
-413.398	-85.082	-0.158	-0.049
-412.384	-15.590	0.218	-0.138
-411.369	2.568	0.076	-0.055
-410.355	88.654	0.173	0.191
-409.340	27.488	0.161	0.135
-408.325	-5.280	-0.293	0.200
-407.311	-200.000	-0.011	-0.228
-406.296	800.000	0.079	-0.239
-405.282	-26.498	0.110	0.064
-404.267	100.642	0.152	-0.175
-403.252	-101.991	0.241	-0.058
-402.238	518.676	-0.025	0.059
-401.223	71.335	0.291	-0.299
-400.209	188.270	-0.188	0.278
-399.194	800.000	-0.133	0.506
-398.179	-134.316	0.220	-0.027
-397.165	521.311	0.051	-0.118
-396.150	-115.158	-0.230	-0.043
-395.136	161.009	-0.159	0.220
-394.121	800.000	0.089	0.287
-393.106	711.896	0.100	-0.262
-392.092	-86.372	0.260	0.079
-391.077	800.000	-0.058	0.169
-390.063	-47.344	0.080	-0.038
-389.048	-86.799	-0.136	-0.041
-388.033	-200.000	-0.051	-0.323
-387.019	-159.889	0.297	0.016
-386.004	123.074	-0.289	0.359
-384.990	14.246	0.047	-0.036
-383.975	-200.000	-0.028	-0.152
-382.960	398.687	-0.018	-0.037
-381.946	-81.308	-0.278	-0.091
-380.931	-128.423	0.455	0.064
-379.917	-35.726	0.087	-0.047
-378.902	-70.368	-0.180	0.068
-377.888	-101.105	0.285	-0.069
-376.873	47.666	0.149	0.138
-375.858	800.000	-0.037	-0.107
-374.844	-108.515	0.285	0.061
-373.829	5.605	-0.300	-0.219
-372.815	262.865	-0.053	-0.091
-371.800	-33.349	0.167	-0.091
-370.785	-116.696	-0.377	0.069
-369.771	-143.109	0.260	0.025
-368.756	-200.000	0.002	-0.104
-367.742	-4.886	-0.147	-0.100
-366.727	-102.598	0.041	-0.010
-365.712	-200.000	0.011	0.338
-364.698	63.167	0.089	-0.088
-363.683	-132.731	0.119	-0.015
-362.669	800.000	0.095	0.378
-361.654	119.056	0.056	0.069
-360.639	80.513	-0.033	0.035
-359.625	-200.000	-0.000	-0.092
-358.610	37.925	-0.145	-0.127
-357.596	-200.000	0.015	-0.227
-356.581	209.481	-0.095	0.147
-355.566	-137.510	0.130	0.015
-354.552	182.911	0.131	-0.191
-353.537	-200.000	-0.061	-0.431
-352.523	800.000	0.009	-0.036
-351.508	-127.024	0.235	-0.034
-350.493	-200.000	-0.012	0.496
-349.479	-13.038	-0.130	0.083
-348.464	133.489	-0.152	0.194
-347.450	-200.000	-0.009	0.274
-346.435	-32.840	-0.064	-0.035
-345.420	-27.477	0.183	-0.105
-344.406	-200.000	0.029	0.286
-343.391	-106.961	-0.039	0.008
-342.377	-200.000	0.001	0.037
-341.362	-200.000	-0.062	0.319
-340.348	155.141	-0.139	-0.189
-339.333	140.451	-0.174	0.227
-338.318	-16.062	0.224	-0.141
-337.304	800.000	0.047	0.153
-336.289	-43.951	-0.175	-0.087
-335.275	-200.000	-0.002	-0.071
-334.260	-200.000	0.031	-0.157
-333.245	190.596	0.079	-0.118
-332.231	-124.959	-0.253	-0.039
-331.216	800.000	-0.161	-0.462
-330.202	-200.000	0.057	0.282
-329.187	-11.989	0.056	-0.036
-328.172	-170.678	0.125	0.004
-327.158	-200.000	0.010	-0.091
-326.143	255.164	-0.202	0.342
-325.129	-200.000	-0.066	0.537
-324.114	261.170	0.203	0.348
-323.099	-200.000	-0.087	0.387
-322.085	-47.648	0.453	-0.217
-321.070	107.208	0.115	0.135
-320.056	43.193	-0.107	-0.096
-319.041	91.491	-0.140	-0.156
-318.026	-200.000	-0.016	-0.220
-317.012	165.267	-0.054	0.075
-315.997	344.855	-0.123	-0.238
-314.983	59.120	-0.322	-0.313
-313.968	441.534	0.199	0.429
-312.953	-51.331	0.123	0.057
-311.939	59.610	0.244	-0.237
-310.924	-200.000	-0.001	0.065
-309.910	-97.833	0.064	-0.016
-308.895	-135.991	-0.097	0.011
-307.880	-36.516	0.119	-0.063
-306.866	-200.000	-0.005	0.259
-305.851	-200.000	0.026	0.293
-304.837	800.000	-0.108	0.404
-303.822	-104.424	-0.171	-0.039
-302.807	-200.000	-0.018	-0.265
-301.793	-200.000	0.000	0.154
-300.778	-200.000	-0.058	0.359
-299.764	144.737	0.218	0.287
-298.749	-93.080	-0.354	0.097
-297.735	158.358	0.153	-0.209
-296.720	5.973	0.136	0.100
-295.705	-200.000	0.018	-0.197
-294.691	800.000	0.018	0.052
-293.676	44.552	-0.036	-0.033
-292.662	-23.671	0.100	-0.059
-291.647	235.206	0.100	0.163
-290.632	69.250	0.180	0.183
-289.618	-200.000	-0.006	-0.164
-288.603	800.000	0.039	-0.164
-287.589	139.648	-0.138	-0.179
-286.574	-31.134	-0.096	0.053
-285.559	35.688	-0.083	-0.072
-284.545	-125.910	-0.199	-0.030
-283.530	476.817	-0.151	-0.338
-282.516	-160.723	0.128	-0.007
-281.501	123.662	-0.199	-0.246
-280.486	-81.332	0.189	0.061
-279.472	-200.000	0.008	-0.078
-278.457	591.795	0.125	0.303
-277.443	44.389	-0.178	0.161
-276.428	-91.609	-0.248	-0.070
-275.413	-200.000	0.016	-0.096
-274.399	-200.000	-0.001	0.071
-273.384	-200.000	-0.013	0.098
-272.370	245.039	0.130	-0.216
-271.355	48.823	0.216	-0.199
-270.340	31.536	0.108	0.092
-269.326	800.000	-0.041	0.118
-268.311	-200.000	-0.009	-0.087
-267.297	800.000	-0.033	-0.104
-266.282	-26.119	0.221	0.128
-265.267	-200.000	-0.013	0.302
-264.253	60.748	0.092	0.090
-263.238	-91.388	0.158	0.044
-262.224	-35.386	-0.415	0.222
-261.209	-70.194	-0.119	-0.045
-260.195	270.381	-0.118	0.205
-259.180	69.939	0.091	0.092
-258.165	-200.000	0.048	0.243
-257.151	-121.418	0.207	-0.034
-256.136	-200.000	0.016	0.187
-255.122	800.000	-0.130	0.482
-254.107	45.529	-0.049	-0.044
-253.092	139.697	0.205	-0.266
-252.078	800.000	-0.054	0.186
-251.063	362.949	-0.053	0.106
-250.049	60.295	0.181	-0.176
-249.034	85.690	-0.044	0.047
-248.019	-76.592	0.245	-0.085
-247.005	25.616	-0.176	0.144
-245.990	147.762	-0.232	-0.308
-244.976	-131.677	-0.189	0.024
-243.961	501.067	-0.049	0.111
-242.946	-152.928	0.157	0.011
-241.932	31.412	0.155	0.131
-240.917	562.290	0.094	0.223
-239.903	650.841	0.202	0.510
-238.888	27.178	-0.185	0.153
-237.873	464.526	-0.020	-0.044
-236.859	-161.902	0.097	0.005
-235.844	38.566	0.286	-0.251
-234.830	-91.359	0.072	-0.020
-233.815	130.258	0.140	0.177
-232.800	80.077	-0.015	-0.016
-231.786	-45.400	-0.096	-0.047
-230.771	111.713	0.204	0.243
-229.757	-123.569	-0.118	-0.018
-228.742	272.659	-0.154	-0.268
-227.727	-130.838	0.435	-0.057
-226.713	-23.888	0.136	-0.080
-225.698	-177.440	-0.074	-0.002
-224.684	800.000	0.048	-0.158
-223.669	4.096	0.058	-0.042
-222.655	800.000	0.068	0.277
-221.640	100.529	-0.314	0.358
-220.625	116.726	0.089	0.107
-219.611	-82.791	-0.301	-0.096
-218.596	-200.000	0.010	-0.165
-217.582	24.829	0.401	0.327
-216.567	120.451	0.188	0.230
-215.552	-169.496	-0.368	0.013
-214.538	800.000	0.105	0.299
-213.523	-200.000	-0.023	-0.112
-212.509	71.928	0.108	-0.111
-211.494	57.419	-0.081	-0.077
-210.479	89.591	-0.091	-0.099
-209.465	-12.978	0.075	-0.048
-208.450	-200.000	0.006	0.044
-207.436	800.000	-0.088	0.306
-206.421	-110.356	0.279	-0.057
-205.406	537.662	-0.018	0.042
-204.392	244.161	-0.077	-0.128
-203.377	-71.705	-0.125	-0.046
-202.363	-154.146	-0.666	0.044
-201.348	227.636	-0.069	0.111
-200.333	-129.040	0.026	0.004
-199.319	32.602	0.209	-0.178
-198.304	-200.000	0.016	-0.210
-197.290	-136.901	0.288	-0.033
-196.275	-191.739	0.419	-0.004
-195.260	-200.000	-0.029	-0.282
-194.246	56.748	0.175	0.167
-193.231	-159.685	0.170	-0.009
-192.217	-82.226	0.432	0.138
-191.202	800.000	-0.070	-0.296
-190.187	-200.000	-0.084	-0.494
-189.173	-76.688	0.421	0.145
-188.158	800.000	0.035	-0.097
-187.144	289.923	0.070	0.124
-186.129	-89.217	-0.112	-0.032
-185.114	-9.598	0.268	0.176
-184.100	654.036	0.077	0.194
-183.085	-183.570	0.088	-0.001
-182.071	-200.000	-0.018	-0.086
-181.056	263.059	-0.108	0.184
-180.042	48.774	0.175	0.162
-179.027	800.000	-0.118	0.353
-178.012	558.787	0.040	-0.094
-176.998	-58.947	0.115	0.049
-175.983	800.000	-0.082	0.286
-174.969	-200.000	-0.015	0.342
-173.954	-126.106	-0.175	-0.026
-172.939	356.794	-0.207	-0.405
-171.925	71.571	-0.159	-0.162
-170.910	-136.041	-0.222	0.026
-169.896	449.804	-0.065	-0.140
-168.881	88.880	0.286	0.312
-167.866	-12.571	0.146	-0.094
-166.852	-101.528	0.261	-0.062
-165.837	-104.946	-0.360	0.081
-164.823	34.785	-0.163	0.140
-163.808	-131.304	-0.189	0.025
-162.793	800.000	0.037	-0.102
-161.779	800.000	0.047	-0.146
-160.764	160.205	-0.274	-0.374
-159.750	104.394	0.076	-0.088
-158.735	149.330	-0.252	0.335
-157.720	-200.000	0.062	-0.331
-156.706	45.506	-0.282	-0.255
-155.691	-167.980	-0.056	-0.002
-154.677	16.903	0.142	-0.110
-153.662	-49.275	0.284	0.133
-152.647	-10.335	-0.099	0.065
-151.633	-59.236	0.178	0.075
-150.618	59.653	-0.182	-0.176
-149.604	-18.068	0.255	0.157
-148.589	69.564	-0.064	-0.065
-147.574	-200.000	0.013	-0.124
-146.560	-170.993	0.089	-0.003
-145.545	-19.071	-0.224	-0.137
-144.531	-23.941	-0.080	0.047
-143.516	-200.000	0.017	-0.579
-142.502	800.000	-0.028	-0.076
-141.487	-200.000	0.025	-0.188
-140.472	543.880	-0.136	-0.317
-139.458	418.044	-0.062	-0.130
-138.443	-144.766	0.150	0.014
-137.429	-92.576	0.320	0.088
-136.414	-148.597	-0.178	0.014
-135.399	372.718	0.192	-0.383
-134.385	-200.000	-0.054	-0.377
-133.370	70.874	-0.245	-0.249
-132.356	-40.060	-0.253	0.129
-131.341	93.157	0.038	-0.042
-130.326	161.121	0.118	0.162
-129.312	800.000	0.078	0.267
-128.297	-149.619	0.123	0.010
-127.283	251.818	-0.135	0.226
-126.268	-131.954	0.492	0.063
-125.253	-110.766	-0.108	0.022
-124.239	-200.000	-0.017	-0.371
-123.224	445.195	0.097	0.209
