DTS Sentinel unit serial number:	SN413079Multiplexer serial number:	ORYXHardware model number:	OX4-SRSoftware version number:	ORYX F/W v4.00 Oryx Data Collector v3.7.2.0data status	okinstallation	princeton_trtdifferential loss correction	single-endedforward channel	channel 3reverse channel	N/Adate	2019/09/16time	07:40:34forward acquisition time	60.00reverse acquisition time	0.00gamma	496.2192k internal	0.2332k external	0.2332temperature offset calibration	0.9958default loss term (dB/km)	0.3790temperature slope calibration	1.0000multiplexer offset coefficient	1.0000multiplexer slope coefficient	1.0000fibre end	0.00T internal ref (°C)	27.87T ext. ref 1 (°C)	11.67T ext. ref 2 (°C)	24.62length (m)	temperature (°C)	Stokes	anti-Stokes-747.200	-23.391	0.171	-0.103
-746.185	19.861	-0.067	0.055
-745.171	648.598	0.083	0.213
-744.156	800.000	-0.101	0.299
-743.142	84.751	-0.202	-0.222
-742.127	800.000	0.093	0.316
-741.112	-200.000	0.036	-0.328
-740.098	800.000	0.078	-0.241
-739.083	-17.084	0.075	0.048
-738.069	800.000	-0.060	-0.204
-737.054	800.000	0.056	0.206
-736.039	-53.863	-0.435	0.199
-735.025	-110.166	0.664	-0.139
-734.010	253.934	-0.042	0.073
-732.996	262.028	-0.118	0.206
-731.981	-8.817	-0.118	-0.080
-730.966	-157.754	-0.454	0.027
-729.952	-112.109	0.160	0.032
-728.937	-98.045	0.089	0.023
-727.923	800.000	0.044	-0.132
-726.908	393.667	0.032	-0.067
-725.894	134.797	0.161	-0.210
-724.879	198.034	-0.035	-0.054
-723.864	-136.703	-0.299	-0.035
-722.850	800.000	-0.093	-0.345
-721.835	800.000	0.111	-0.365
-720.821	-18.722	-0.245	-0.154
-719.806	-29.378	-0.256	-0.147
-718.791	37.217	0.263	0.234
-717.777	800.000	0.027	-0.076
-716.762	36.890	0.080	0.071
-715.748	-134.645	0.197	-0.024
-714.733	-66.602	-0.233	0.093
-713.718	-200.000	0.001	-0.064
-712.704	-200.000	0.122	-0.559
-711.689	-200.000	-0.001	-0.138
-710.675	330.506	0.171	0.331
-709.660	-200.000	0.075	0.342
-708.645	-108.108	-0.093	0.020
-707.631	-55.882	0.238	0.107
-706.616	65.683	-0.065	-0.066
-705.602	-8.167	0.400	0.271
-704.587	-113.219	-0.379	0.075
-703.572	800.000	0.083	0.273
-702.558	-85.251	-0.296	0.093
-701.543	375.274	-0.093	0.191
-700.529	-102.388	-0.227	-0.055
-699.514	800.000	0.091	0.341
-698.499	800.000	-0.030	0.087
-697.485	19.728	0.217	0.176
-696.470	-200.000	-0.010	0.124
-695.456	-131.243	-0.391	-0.052
-694.441	-60.842	0.452	0.192
-693.426	-91.500	0.085	-0.024
-692.412	-94.680	-0.264	-0.072
-691.397	-108.482	0.197	0.043
-690.383	150.231	0.135	0.183
-689.368	303.160	-0.163	-0.304
-688.354	-45.797	-0.312	0.155
-687.339	-35.459	0.145	0.079
-686.324	606.944	-0.088	0.221
-685.310	800.000	-0.038	-0.143
-684.295	99.037	-0.068	-0.078
-683.281	-94.599	0.274	-0.075
-682.266	-60.208	-0.140	-0.060
-681.251	-56.799	0.089	0.039
-680.237	-200.000	-0.008	0.085
-679.222	385.196	-0.164	0.339
-678.208	-200.000	-0.001	0.022
-677.193	800.000	-0.039	-0.153
-676.178	-200.000	0.063	-0.285
-675.164	-200.000	0.019	-0.167
-674.149	-200.000	0.052	0.269
-673.135	336.653	0.023	-0.044
-672.120	-95.727	0.264	-0.071
-671.105	-200.000	0.027	-0.210
-670.091	323.428	-0.064	0.122
-669.076	-10.149	0.143	-0.095
-668.062	-200.000	-0.004	-0.136
-667.047	-69.188	-0.128	-0.050
-666.032	163.936	0.254	-0.358
-665.018	-68.726	0.097	-0.038
-664.003	269.672	-0.094	-0.165
-662.989	40.754	-0.154	0.139
-661.974	249.914	0.272	-0.463
-660.959	-200.000	0.032	-0.166
-659.945	161.506	0.170	0.239
-658.930	-99.160	0.278	-0.070
-657.916	1.666	0.315	-0.227
-656.901	-200.000	0.023	-0.485
-655.886	-53.354	0.423	0.194
-654.872	9.525	-0.105	0.080
-653.857	309.753	-0.066	0.123
-652.843	-200.000	-0.002	0.035
-651.828	-180.831	0.365	0.007
-650.814	-80.417	-0.390	-0.131
-649.799	-5.504	-0.082	0.056
-648.784	367.609	-0.017	0.035
-647.770	475.874	-0.063	-0.142
-646.755	237.732	-0.030	-0.049
-645.741	56.601	0.118	0.115
-644.726	-22.119	-0.098	-0.060
-643.711	-200.000	0.000	-0.206
-642.697	-200.000	-0.012	-0.187
-641.682	-128.112	-0.202	0.029
-640.668	395.857	-0.134	-0.280
-639.653	3.426	0.050	0.037
-638.638	800.000	0.010	0.038
-637.624	73.485	0.121	-0.127
-636.609	-6.427	0.222	0.151
-635.595	-9.272	-0.110	-0.073
-634.580	144.126	-0.152	0.203
-633.565	-200.000	0.004	-0.172
-632.551	800.000	0.017	-0.067
-631.536	-200.000	0.041	-0.325
-630.522	-55.111	0.138	0.062
-629.507	-97.659	-0.094	0.024
-628.492	-173.119	-0.247	0.008
-627.478	800.000	-0.035	-0.143
-626.463	-112.335	0.119	-0.024
-625.449	171.095	0.153	-0.220
-624.434	296.721	0.078	-0.144
-623.419	192.580	0.094	-0.142
-622.405	-200.000	-0.016	-0.111
-621.390	-200.000	0.007	0.193
-620.376	-46.181	-0.101	0.050
-619.361	800.000	0.019	0.055
-618.346	800.000	0.054	0.177
-617.332	-45.293	-0.196	0.097
-616.317	191.667	0.167	0.252
-615.303	105.015	-0.230	-0.272
-614.288	-68.849	-0.262	0.101
-613.273	106.295	-0.086	0.102
-612.259	-106.411	0.114	0.026
-611.244	105.707	0.246	-0.292
-610.230	546.952	-0.129	0.309
-609.215	-152.594	0.404	-0.029
-608.201	-85.833	0.392	0.122
-607.186	800.000	-0.068	0.206
-606.171	-118.419	0.283	-0.050
-605.157	145.278	-0.210	0.281
-604.142	49.938	-0.218	-0.205
-603.128	92.469	0.108	0.121
-602.113	180.914	-0.084	0.123
-601.098	-200.000	-0.042	-0.252
-600.084	42.980	-0.249	-0.227
-599.069	-200.000	-0.019	0.222
-598.055	-3.114	0.164	-0.115
-597.040	-48.569	0.183	0.088
-596.025	-125.384	0.219	-0.033
-595.011	800.000	-0.053	0.166
-593.996	60.969	0.153	0.152
-592.982	-46.097	-0.034	-0.017
-591.967	39.782	-0.135	-0.121
-590.952	22.090	0.281	-0.229
-589.938	-89.145	0.208	0.061
-588.923	-177.814	-0.172	-0.004
-587.909	148.518	-0.249	0.337
-586.894	104.589	0.347	-0.408
-585.879	109.372	0.093	0.111
-584.865	-185.743	0.031	0.000
-583.850	-110.442	-0.397	-0.082
-582.836	568.347	-0.093	-0.226
-581.821	-184.255	0.313	-0.005
-580.806	222.308	-0.132	-0.213
-579.792	-173.225	0.038	-0.001
-578.777	-193.614	0.154	-0.001
-577.763	494.449	0.077	0.177
-576.748	-101.542	-0.163	-0.040
-575.733	-119.801	-0.155	0.027
-574.719	-132.533	-0.201	0.026
-573.704	-117.472	0.125	-0.023
-572.690	-200.000	-0.014	-0.122
-571.675	800.000	0.070	0.288
-570.661	330.624	-0.185	-0.355
-569.646	12.866	0.152	0.118
-568.631	164.358	0.194	0.273
-567.617	135.257	-0.068	0.088
-566.602	-87.578	-0.018	-0.005
-565.588	-69.904	-0.157	0.060
-564.573	10.613	0.139	-0.106
-563.558	165.348	0.098	-0.139
-562.544	211.643	0.209	0.329
-561.529	-192.272	0.044	-0.000
-560.515	-64.407	-0.149	0.060
-559.500	49.231	0.204	-0.192
-558.485	45.629	-0.277	0.255
-557.471	-150.915	-0.275	-0.021
-556.456	530.118	0.046	-0.109
-555.442	800.000	-0.096	-0.319
-554.427	440.675	-0.023	0.051
-553.412	-200.000	0.088	-0.464
-552.398	73.386	0.231	0.241
-551.383	3.897	0.062	0.045
-550.369	-149.030	0.160	-0.013
-549.354	339.628	-0.056	0.109
-548.339	-30.541	0.255	-0.145
-547.325	-145.502	-0.045	0.004
-546.310	113.265	0.185	-0.224
-545.296	108.814	-0.079	0.094
-544.281	682.579	-0.076	0.197
-543.266	126.578	0.098	-0.124
-542.252	411.983	0.032	-0.068
-541.237	168.573	-0.121	-0.172
-540.223	100.567	-0.198	0.230
-539.208	-112.524	0.136	0.027
-538.193	292.650	0.149	-0.272
-537.179	-200.000	0.061	0.328
-536.164	800.000	-0.087	-0.272
-535.150	-200.000	-0.047	-0.370
-534.135	229.238	0.185	0.301
-533.121	-91.600	-0.255	-0.072
-532.106	-164.847	-0.268	-0.012
-531.091	55.498	-0.119	-0.115
-530.077	-156.251	-0.253	-0.016
-529.062	583.981	-0.053	-0.129
-528.048	-89.771	-0.360	0.105
-527.033	-78.891	0.241	-0.082
-526.018	455.498	0.120	-0.266
-525.004	216.276	0.192	0.305
-523.989	-140.610	-0.174	0.018
-522.975	58.108	-0.204	-0.199
-521.960	171.294	-0.146	-0.209
-520.945	-36.857	-0.064	-0.034
-519.931	-155.701	0.067	-0.004
-518.916	-108.401	-0.413	0.089
-517.902	-94.957	-0.205	0.055
-516.887	-200.000	0.014	0.161
-515.872	37.638	0.128	-0.113
-514.858	-23.198	-0.130	0.078
-513.843	293.021	-0.029	-0.053
-512.829	-82.581	0.119	0.038
-511.814	-200.000	-0.028	0.182
-510.799	-200.000	-0.021	-0.219
-509.785	165.199	0.151	-0.213
-508.770	-200.000	-0.026	-0.269
-507.756	438.869	0.152	0.331
-506.741	384.078	-0.061	0.126
-505.726	464.193	-0.106	-0.235
-504.712	-200.000	-0.064	0.334
-503.697	800.000	0.052	0.173
-502.683	213.837	-0.076	-0.119
-501.668	124.552	-0.255	0.320
-500.653	-16.722	-0.019	0.012
-499.639	-160.393	0.365	-0.020
-498.624	-200.000	0.013	-0.241
-497.610	-200.000	-0.036	-0.165
-496.595	-200.000	0.018	0.147
-495.581	623.455	0.021	0.052
-494.566	800.000	0.125	-0.428
-493.551	-200.000	-0.030	-0.310
-492.537	-111.132	0.152	-0.031
-491.522	-65.398	-0.268	0.108
-490.508	-87.730	0.149	0.045
-489.493	26.295	0.239	0.199
-488.478	85.657	-0.028	-0.030
-487.464	-63.132	-0.165	-0.068
-486.449	-104.255	-0.278	-0.064
-485.435	176.492	0.104	-0.151
-484.420	-4.807	-0.392	0.269
-483.405	-65.948	0.117	0.046
-482.391	-105.453	-0.441	0.100
-481.376	177.970	0.140	0.203
-480.362	6.038	-0.110	-0.081
-479.347	-63.929	0.131	-0.053
-478.332	242.687	0.027	0.046
-477.318	-200.000	-0.028	0.239
-476.303	24.736	-0.277	0.229
-475.289	9.173	0.172	0.130
-474.274	-200.000	0.007	-0.125
-473.259	174.024	-0.162	0.233
-472.245	1.066	0.145	0.103
-471.230	276.359	-0.063	-0.111
-470.216	54.849	-0.204	0.196
-469.201	-23.666	0.401	-0.239
-468.186	-123.348	-0.153	-0.024
-467.172	800.000	0.064	0.254
-466.157	105.306	0.083	-0.097
-465.143	-93.610	-0.267	0.073
-464.128	-118.642	0.083	0.015
-463.113	-200.000	0.017	-0.130
-462.099	-200.000	0.001	-0.107
-461.084	29.081	0.053	0.045
-460.070	-75.938	0.046	-0.016
-459.055	-8.326	0.083	0.055
-458.040	-16.658	-0.197	-0.124
-457.026	115.592	-0.153	-0.187
-456.011	400.934	-0.106	0.221
-454.997	237.181	-0.151	0.249
-453.982	-23.729	0.282	0.168
-452.968	-200.000	-0.007	0.058
-451.953	-5.632	0.148	0.101
-450.938	2.024	0.217	-0.156
-449.924	12.812	0.160	0.123
-448.909	-103.411	0.476	0.112
-447.895	333.606	-0.062	0.120
-446.880	563.750	-0.104	-0.250
-445.865	250.156	0.161	-0.272
-444.851	560.069	0.133	0.318
-443.836	-200.000	0.035	0.194
-442.822	800.000	0.023	0.074
-441.807	-200.000	0.058	0.413
-440.792	-200.000	-0.005	0.129
-439.778	779.923	0.106	0.290
-438.763	18.186	0.052	0.041
-437.749	-18.909	-0.264	0.164
-436.734	-168.888	-0.178	-0.007
-435.719	-123.089	-0.261	0.042
-434.705	-200.000	0.017	-0.251
-433.690	800.000	-0.046	0.157
-432.676	223.976	0.084	0.135
-431.661	800.000	-0.040	0.123
-430.646	-126.076	-0.207	0.031
-429.632	212.237	0.080	0.125
-428.617	-7.168	0.186	-0.125
-427.603	7.077	-0.168	-0.125
-426.588	-109.439	-0.100	-0.021
-425.573	-114.746	0.128	-0.024
-424.559	-200.000	-0.043	0.211
-423.544	800.000	0.046	0.148
-422.530	63.774	0.144	0.144
-421.515	-200.000	-0.003	0.064
-420.500	653.272	-0.147	-0.375
-419.486	152.479	0.183	0.248
-418.471	639.974	-0.063	0.158
-417.457	-126.679	-0.316	-0.047
-416.442	331.175	-0.093	0.177
-415.428	52.051	-0.099	0.094
-414.413	-200.000	0.007	-0.220
-413.398	171.750	-0.120	0.172
-412.384	-200.000	0.008	-0.209
-411.369	69.254	0.241	-0.246
-410.355	126.841	-0.151	0.191
-409.340	-200.000	-0.060	-0.353
-408.325	-75.134	0.120	0.042
-407.311	131.269	0.086	0.110
-406.296	-200.000	0.022	-0.452
-405.282	-62.168	0.314	0.130
-404.267	-15.295	0.324	0.206
-403.252	-107.958	0.543	-0.117
-402.238	161.138	-0.209	0.290
-401.223	-200.000	0.025	-0.244
-400.209	172.955	-0.061	0.087
-399.194	605.063	-0.043	-0.106
-398.179	762.670	0.030	0.080
-397.165	333.327	0.130	-0.249
-396.150	368.900	0.078	-0.156
-395.136	-200.000	-0.030	-0.132
-394.121	-28.897	-0.244	0.139
-393.106	800.000	-0.104	0.336
-392.092	-65.884	-0.080	0.032
-391.077	800.000	-0.051	-0.198
-390.063	32.812	-0.138	-0.118
-389.048	-73.914	-0.158	-0.057
-388.033	381.151	-0.097	0.197
-387.019	49.625	-0.124	0.116
-386.004	113.054	0.178	-0.215
-384.990	88.230	-0.326	-0.359
-383.975	52.775	-0.308	-0.292
-382.960	-200.000	-0.006	-0.085
-381.946	-6.547	-0.078	-0.053
-380.931	99.532	-0.053	-0.061
-379.917	571.833	0.075	-0.180
-378.902	-200.000	-0.041	0.207
-377.888	-85.427	-0.220	0.068
-376.873	128.248	0.249	-0.315
-375.858	800.000	-0.100	0.424
-374.844	800.000	-0.014	0.059
-373.829	-195.823	0.170	0.001
-372.815	800.000	0.046	-0.187
-371.800	-47.380	0.387	0.187
-370.785	-200.000	0.007	-0.311
-369.771	-37.340	0.197	-0.104
-368.756	385.757	-0.167	-0.341
-367.742	83.826	0.170	-0.184
-366.727	-26.094	0.107	0.062
-365.712	-200.000	0.057	-0.272
-364.698	796.780	-0.079	0.216
-363.683	-88.535	-0.195	-0.058
-362.669	736.092	0.073	0.194
-361.654	183.329	-0.125	-0.183
-360.639	42.470	-0.150	-0.135
-359.625	800.000	0.018	-0.072
-358.610	37.958	-0.272	0.240
-357.596	-179.078	0.506	-0.011
-356.581	-180.320	0.302	0.006
-355.566	637.975	-0.111	-0.281
-354.552	800.000	0.032	-0.138
-353.537	-55.074	-0.219	-0.098
-352.523	24.040	0.180	0.147
-351.508	16.942	-0.054	0.043
-350.493	-85.497	-0.295	0.091
-349.479	-175.444	-0.202	-0.005
-348.464	-60.625	-0.384	-0.161
-347.450	356.366	0.033	-0.065
-346.435	51.589	0.282	0.265
-345.420	136.459	0.275	-0.356
-344.406	134.097	-0.063	0.081
-343.391	722.278	-0.084	-0.221
-342.377	18.171	0.098	0.077
-341.362	-66.254	-0.051	-0.020
-340.348	-200.000	-0.037	-0.411
-339.333	10.668	0.090	-0.068
-338.318	-63.546	0.321	0.130
-337.304	-200.000	0.008	-0.176
-336.289	69.016	0.194	-0.198
-335.275	800.000	-0.029	0.086
-334.260	-79.268	-0.074	0.025
-333.245	-6.268	-0.121	-0.082
-332.231	-90.547	-0.118	-0.034
-331.216	-163.447	0.268	0.013
-330.202	370.338	-0.251	-0.504
-329.187	-200.000	-0.289	-0.000
-328.172	179.327	0.115	-0.167
-327.158	-103.614	0.221	0.051
-326.143	-142.035	-0.182	-0.018
-325.129	-200.000	0.000	0.245
-324.114	800.000	-0.120	-0.329
-323.099	6.387	0.187	0.137
-322.085	2.055	0.301	-0.215
-321.070	-135.501	-0.269	0.032
-320.056	-133.624	0.079	0.010
-319.041	19.188	-0.173	-0.137
-318.026	-28.152	0.064	0.037
-317.012	-137.667	-0.293	0.033
-315.997	256.197	-0.049	0.083
-314.983	-200.000	-0.007	0.059
-313.968	-17.160	-0.111	0.069
-312.953	-200.000	-0.019	0.242
-311.939	-200.000	0.031	-0.267
-310.924	-200.000	-0.023	0.123
-309.910	46.818	-0.281	0.258
-308.895	55.281	0.091	0.088
-307.880	6.906	-0.121	0.089
-306.866	-24.674	0.097	-0.057
-305.851	138.970	0.141	0.183
-304.837	-80.278	-0.315	-0.104
-303.822	-96.125	-0.326	0.086
-302.807	95.213	-0.206	-0.232
-301.793	-64.566	0.339	-0.136
-300.778	40.979	0.111	-0.099
-299.764	-181.089	0.219	0.004
-298.749	753.295	-0.035	-0.095
-297.735	-136.719	-0.191	-0.022
-296.720	-57.306	0.059	0.026
-295.705	-200.000	0.037	-0.282
-294.691	800.000	-0.056	-0.189
-293.676	39.928	0.066	-0.059
-292.662	300.196	0.097	0.176
-291.647	9.794	0.176	0.132
-290.632	-174.966	0.794	0.022
-289.618	-2.320	-0.177	0.123
-288.603	423.768	-0.267	0.567
-287.589	-119.621	-0.173	0.030
-286.574	-12.053	-0.074	0.048
-285.559	-43.173	-0.303	0.152
-284.545	43.249	-0.365	0.329
-283.530	-33.531	0.332	0.181
-282.516	114.517	-0.022	0.026
-281.501	-200.000	-0.002	0.025
-280.486	-200.000	-0.071	0.363
-279.472	373.111	-0.092	-0.185
-278.457	-25.627	-0.126	-0.074
-277.443	-132.185	0.516	-0.066
-276.428	-200.000	-0.039	0.337
-275.413	28.058	0.163	-0.136
-274.399	-200.000	-0.032	0.210
-273.384	-199.160	-0.089	0.000
-272.370	-9.413	-0.257	-0.169
-271.355	-182.962	0.158	-0.003
-270.340	-20.639	0.137	0.083
-269.326	800.000	0.075	-0.204
-268.311	-34.076	-0.320	-0.174
-267.297	106.716	0.166	-0.194
-266.282	233.402	0.110	-0.179
-265.267	-200.000	0.042	-0.279
-264.253	7.865	-0.317	-0.234
-263.238	376.256	0.051	-0.102
-262.224	9.815	-0.116	0.087
-261.209	38.361	-0.034	-0.030
-260.195	-200.000	0.023	0.267
-259.180	75.496	0.124	0.129
-258.165	98.723	0.115	-0.131
-257.151	-200.000	-0.223	-0.001
-256.136	-70.290	-0.327	-0.122
-255.122	-200.000	-0.009	0.097
-254.107	101.208	0.100	0.115
-253.092	-27.305	0.295	-0.169
-252.078	-200.000	0.026	0.158
-251.063	800.000	0.010	-0.035
-250.049	-133.430	0.132	0.016
-249.034	18.573	0.198	0.156
-248.019	-200.000	-0.037	-0.219
-247.005	-200.000	0.031	0.398
-245.990	-200.000	0.038	0.251
-244.976	124.923	0.215	-0.268
-243.961	55.037	0.132	0.126
-242.946	-200.000	-0.018	0.120
-241.932	-200.000	-0.021	0.098
-240.917	-132.609	-0.204	-0.026
-239.903	-113.971	0.228	0.044
-238.888	-200.000	-0.003	0.389
-237.873	-119.425	0.135	-0.023
-236.859	-9.806	-0.118	-0.078
-235.844	800.000	-0.100	0.301
-234.830	-112.833	-0.171	0.033
-233.815	-127.178	-0.098	0.014
-232.800	-200.000	0.035	0.168
-231.786	-200.000	0.005	-0.024
-230.771	-104.658	-0.078	-0.018
-229.757	42.883	0.082	0.073
-228.742	-130.151	-0.170	-0.023
-227.727	-14.760	0.207	-0.131
-226.713	-1.869	0.165	0.114
-225.698	-31.465	0.189	0.105
-224.684	-57.545	-0.094	-0.041
-223.669	-43.469	-0.085	-0.043
-222.655	404.442	0.135	-0.281
-221.640	-47.116	-0.213	0.102
-220.625	-72.350	0.187	-0.068
-219.611	-10.711	-0.086	-0.056
-218.596	17.546	0.114	-0.089
-217.582	-200.000	0.028	0.146
-216.567	180.499	0.181	0.263
-215.552	-82.907	0.247	-0.079
-214.538	89.099	0.172	-0.189
-213.523	800.000	-0.076	-0.264
-212.509	-56.431	-0.098	0.043
-211.494	-102.522	-0.293	-0.069
-210.479	800.000	0.081	-0.296
-209.465	174.241	0.143	-0.204
-208.450	-52.930	0.497	0.225
-207.436	-122.843	-0.325	-0.052
-206.421	11.131	0.150	0.113
-205.406	800.000	0.024	-0.069
-204.392	-31.982	0.203	-0.112
-203.377	800.000	0.106	0.370
-202.363	-72.066	-0.469	0.172
-201.348	-80.406	0.399	-0.131
-200.333	45.247	-0.176	0.160
-199.319	-200.000	-0.023	0.303
-198.304	-51.161	-0.154	0.071
-197.290	235.992	0.115	0.187
-196.275	-86.155	0.380	0.115
-195.260	-26.472	-0.151	0.087
-194.246	-200.000	-0.001	-0.099
-193.231	329.893	-0.164	-0.311
-192.217	454.910	-0.100	-0.219
-191.202	-96.869	0.542	-0.140
-190.187	719.853	-0.114	-0.299
-189.173	-23.154	-0.130	-0.077
-188.158	-125.353	0.369	0.055
-187.144	335.468	0.165	0.315
-186.129	14.722	0.126	0.097
-185.114	-161.927	0.119	-0.006
-184.100	-25.674	0.089	0.051
-183.085	317.182	-0.126	0.234
-182.071	-95.202	-0.308	-0.082
-181.056	29.759	0.023	0.019
-180.042	174.808	-0.137	-0.195
-179.027	-170.611	0.161	0.006
-178.012	-26.663	0.004	0.003
-176.998	121.690	0.066	-0.081
-175.983	-124.962	-0.347	-0.053
-174.969	10.315	-0.092	0.069
-173.954	-160.250	-0.426	-0.023
-172.939	207.515	0.081	0.124
-171.925	289.310	0.140	0.249
-170.910	103.520	0.082	-0.094
-169.896	201.790	-0.099	0.151
-168.881	-156.100	0.129	0.008
-167.866	-106.221	-0.128	-0.028
-166.852	-200.000	-0.009	0.040
-165.837	170.561	-0.082	0.116
-164.823	20.457	-0.173	-0.138
-163.808	-127.302	0.214	0.031
-162.793	-31.911	0.236	0.130
-161.779	800.000	-0.050	0.187
-160.764	-200.000	0.001	-0.174
-159.750	47.419	-0.123	-0.113
-158.735	-34.042	-0.367	0.198
-157.720	407.277	0.105	-0.218
-156.706	200.373	-0.071	-0.107
-155.691	324.370	0.180	0.338
-154.677	232.457	0.068	-0.110
-153.662	-177.939	0.033	0.001
-152.647	-138.685	-0.185	0.020
-151.633	260.456	0.220	0.375
-150.618	-14.884	0.153	0.096
-149.604	376.354	-0.129	-0.258
-148.589	610.987	-0.128	-0.315
-147.574	4.442	0.073	-0.052
-146.560	99.316	0.223	0.253
-145.545	539.459	-0.139	0.325
-144.531	-200.000	-0.012	-0.052
-143.516	-50.193	-0.018	-0.008
-142.502	-7.773	0.104	-0.069
-141.487	-200.000	0.006	-0.044
-140.472	19.676	0.201	-0.159
-139.458	-138.089	0.276	0.030
-138.443	-60.689	-0.390	-0.163
-137.429	26.800	0.270	-0.222
-136.414	4.988	-0.122	-0.088
-135.399	759.509	-0.067	-0.180
-134.385	341.378	0.162	0.311
-133.370	300.511	-0.082	0.149
-132.356	-200.000	0.043	-0.431
-131.341	-2.325	0.111	-0.076
-130.326	800.000	-0.053	-0.142
-129.312	159.084	-0.138	-0.189
-128.297	-70.363	-0.247	-0.092
-127.283	800.000	0.042	-0.115
-126.268	10.396	-0.148	-0.110
-125.253	183.833	0.190	-0.276
-124.239	28.495	0.175	-0.145
-123.224	114.372	-0.139	-0.166
-122.210	19.742	0.085	0.067
-121.195	12.797	0.137	0.104
