DTS Sentinel unit serial number:	SN413079Multiplexer serial number:	ORYXHardware model number:	OX4-SRSoftware version number:	ORYX F/W v4.00 Oryx Data Collector v3.7.2.0data status	okinstallation	princeton_trtdifferential loss correction	single-endedforward channel	channel 3reverse channel	N/Adate	2019/09/12time	19:50:04forward acquisition time	15.00reverse acquisition time	0.00gamma	496.2192k internal	0.2323k external	0.2323temperature offset calibration	1.0116default loss term (dB/km)	0.3790temperature slope calibration	1.0000multiplexer offset coefficient	1.0000multiplexer slope coefficient	1.0000fibre end	0.00T internal ref (°C)	31.94T ext. ref 1 (°C)	3.48T ext. ref 2 (°C)	26.57length (m)	temperature (°C)	Stokes	anti-Stokes-747.200	-83.413	-0.419	0.136
-746.185	50.467	0.358	-0.341
-745.171	98.891	-0.146	0.170
-744.156	-118.137	1.115	-0.201
-743.142	-200.000	0.050	0.384
-742.127	-200.000	0.072	0.496
-741.112	73.264	-0.538	0.568
-740.098	136.319	-0.336	-0.442
-739.083	210.449	-0.193	0.306
-738.069	-107.931	-0.198	-0.044
-737.054	133.572	-0.258	-0.337
-736.039	-57.875	-0.057	-0.025
-735.025	37.096	0.334	-0.299
-734.010	-1.041	-0.772	-0.552
-732.996	171.749	-0.141	-0.204
-731.981	603.054	0.055	-0.137
-730.966	-65.085	0.210	0.086
-729.952	188.896	-0.441	0.666
-728.937	-167.262	-0.820	0.033
-727.923	-200.000	0.061	0.715
-726.908	800.000	-0.188	-0.553
-725.894	-193.198	0.700	-0.006
-724.879	271.838	-0.211	-0.375
-723.864	800.000	-0.130	0.568
-722.850	80.000	0.817	0.886
-721.835	-82.766	-0.311	0.101
-720.821	67.991	0.208	-0.215
-719.806	-200.000	-0.113	1.005
-718.791	-200.000	-0.065	-0.419
-717.777	-53.722	0.170	0.079
-716.762	-104.940	0.442	-0.102
-715.748	-23.137	0.040	0.024
-714.733	-89.048	0.069	0.021
-713.718	-119.151	-0.530	-0.093
-712.704	800.000	0.020	-0.069
-711.689	-19.126	0.430	-0.270
-710.675	114.871	-0.180	-0.222
-709.660	114.600	0.428	0.526
-708.645	-138.772	-0.227	-0.025
-707.631	64.513	0.255	-0.259
-706.616	-107.839	0.634	0.139
-705.602	110.639	-0.230	0.279
-704.587	800.000	-0.224	-0.867
-703.572	-108.560	-0.617	0.134
-702.558	414.640	0.591	-1.269
-701.543	-88.612	-0.123	-0.037
-700.529	-200.000	-0.017	0.317
-699.514	50.592	-0.255	-0.243
-698.499	433.226	0.085	0.185
-697.485	-138.955	0.481	-0.053
-696.470	672.882	-0.337	-0.880
-695.456	183.222	-0.247	-0.368
-694.441	-72.118	-0.436	0.163
-693.426	-200.000	-0.003	-0.224
-692.412	-190.085	0.173	-0.002
-691.397	98.547	0.313	0.363
-690.383	451.749	0.013	0.029
-689.368	-200.000	0.014	-0.531
-688.354	-141.116	-0.514	-0.053
-687.339	304.743	-0.301	0.564
-686.324	33.508	0.029	-0.025
-685.310	156.572	0.258	0.359
-684.295	74.859	0.883	-0.937
-683.281	-200.000	0.080	-0.447
-682.266	-31.899	-0.424	-0.240
-681.251	-128.293	0.423	0.061
-680.237	239.376	-0.484	-0.812
-679.222	77.902	-0.401	0.431
-678.208	-139.293	0.456	0.049
-677.193	131.757	-0.465	-0.602
-676.178	-200.000	-0.067	-0.421
-675.164	-190.859	-0.282	0.003
-674.149	800.000	0.208	0.910
-673.135	81.253	-0.578	0.628
-672.120	367.985	0.323	0.657
-671.105	-200.000	-0.004	0.212
-670.091	-20.043	0.914	0.568
-669.076	314.737	-0.459	-0.870
-668.062	37.324	-0.390	-0.348
-667.047	-4.869	-0.380	-0.264
-666.032	-123.680	0.909	-0.145
-665.018	59.516	0.354	0.352
-664.003	-138.816	-0.574	0.063
-662.989	-75.311	-0.613	-0.220
-661.974	800.000	0.405	-1.253
-660.959	214.037	0.442	-0.704
-659.945	800.000	0.104	-0.441
-658.930	-110.177	1.031	0.216
-657.916	-44.426	0.263	-0.133
-656.901	5.495	-0.838	0.623
-655.886	12.538	-0.421	-0.327
-654.872	-45.294	-0.125	0.062
-653.857	800.000	0.150	0.526
-652.843	800.000	-0.149	-0.476
-651.828	-80.234	0.650	-0.219
-650.814	-40.887	-0.571	-0.297
-649.799	-38.987	-0.775	-0.411
-648.784	-161.442	0.203	0.011
-647.770	-31.182	-0.279	0.158
-646.755	64.751	0.815	-0.828
-645.741	72.737	0.342	0.359
-644.726	585.119	-0.334	-0.825
-643.711	128.297	0.225	0.288
-642.697	-145.954	0.902	-0.080
-641.682	438.846	0.238	-0.523
-640.668	-50.281	0.569	0.270
-639.653	262.087	-0.116	0.201
-638.638	-162.544	-0.524	0.026
-637.624	-197.597	-0.637	-0.004
-636.609	800.000	-0.167	-0.503
-635.595	93.372	0.189	0.215
-634.580	139.114	0.205	0.271
-633.565	395.103	-0.213	0.446
-632.551	638.249	0.133	-0.340
-631.536	-18.764	0.580	0.363
-630.522	-54.638	-0.494	-0.224
-629.507	-21.091	-0.513	-0.316
-628.492	-66.571	-0.428	0.171
-627.478	732.886	0.178	-0.479
-626.463	112.209	-0.215	-0.261
-625.449	-102.196	0.538	-0.130
-624.434	-57.804	1.159	0.509
-623.419	10.015	0.792	0.605
-622.405	316.778	-0.083	-0.158
-621.390	-129.833	0.889	0.123
-620.376	800.000	0.044	0.142
-619.361	177.377	0.462	-0.676
-618.346	-29.982	0.275	0.158
-617.332	162.494	-0.234	0.330
-616.317	800.000	0.325	-1.058
-615.303	-25.589	-0.487	-0.289
-614.288	12.959	-0.030	0.024
-613.273	-4.860	0.594	-0.411
-612.259	800.000	0.072	-0.283
-611.244	-154.065	-0.195	-0.013
-610.230	93.950	-0.410	0.467
-609.215	467.082	-0.094	-0.211
-608.201	800.000	0.207	-0.747
-607.186	-57.417	-0.334	0.147
-606.171	-91.811	-0.504	-0.144
-605.157	-58.785	-0.519	-0.226
-604.142	97.443	-0.433	0.499
-603.128	-200.000	0.073	-0.460
-602.113	182.490	-0.147	0.218
-601.098	260.768	-0.312	0.542
-600.084	122.850	0.266	-0.334
-599.069	-135.465	-0.415	0.050
-598.055	-33.074	-0.240	0.133
-597.040	-77.671	0.242	-0.084
-596.025	-173.831	-0.411	0.012
-595.011	35.668	-0.654	0.577
-593.996	16.107	0.234	0.185
-592.982	-110.457	-0.625	-0.130
-591.967	101.699	0.479	-0.561
-590.952	-200.000	-0.138	0.647
-589.938	800.000	-0.180	0.532
-588.923	-200.000	-0.141	0.789
-587.909	-55.852	-0.305	0.137
-586.894	-200.000	0.042	-0.355
-585.879	-7.911	0.404	-0.274
-584.865	-57.402	-0.343	0.151
-583.850	176.428	-0.235	-0.342
-582.836	-70.056	-0.329	0.126
-581.821	30.665	0.382	0.328
-580.806	-46.604	-0.758	0.373
-579.792	800.000	0.134	-0.485
-578.777	-60.544	-0.247	-0.105
-577.763	-73.389	0.502	-0.184
-576.748	-200.000	0.074	0.482
-575.733	69.033	-0.226	0.234
-574.719	-83.915	-0.026	-0.008
-573.704	97.523	-0.330	0.380
-572.690	-200.000	-0.055	0.254
-571.675	-89.290	-0.125	0.037
-570.661	-200.000	0.013	0.336
-569.646	459.569	-0.036	-0.081
-568.631	-63.665	0.248	-0.102
-567.617	-200.000	-0.052	-0.705
-566.602	-58.686	0.068	0.029
-565.588	420.303	0.328	0.705
-564.573	-89.995	-1.145	-0.335
-563.558	800.000	0.151	0.480
-562.544	-23.666	-0.397	0.238
-561.529	-189.780	0.254	-0.003
-560.515	144.291	-0.107	-0.143
-559.500	221.291	-0.186	-0.300
-558.485	-8.531	-0.313	0.211
-557.471	-77.849	-0.786	-0.272
-556.456	557.086	0.149	-0.361
-555.442	550.614	0.045	0.107
-554.427	-136.279	-0.486	0.057
-553.412	71.879	0.253	-0.264
-552.398	-36.433	-0.321	0.173
-551.383	459.169	-0.184	0.410
-550.369	-157.671	0.260	-0.016
-549.354	27.404	0.639	0.539
-548.339	-200.000	0.005	0.946
-547.325	575.280	-0.635	-1.555
-546.310	-52.044	-0.693	0.323
-545.296	93.612	0.462	-0.525
-544.281	-92.293	-0.257	-0.072
-543.266	51.459	-0.732	0.697
-542.252	619.504	0.250	-0.630
-541.237	263.917	0.050	-0.087
-540.223	-41.953	0.042	-0.022
-539.208	-6.622	-0.154	0.105
-538.193	48.735	-0.047	0.044
-537.179	-200.000	0.270	0.001
-536.164	-200.000	0.025	0.144
-535.150	297.426	-0.270	-0.497
-534.135	-123.919	0.213	-0.034
-533.121	6.780	-0.464	-0.346
-532.106	201.617	-0.277	-0.428
-531.091	-84.115	0.507	-0.161
-530.077	87.019	0.275	-0.305
-529.062	174.344	-0.409	-0.592
-528.048	-200.000	0.019	0.339
-527.033	86.449	-0.217	0.240
-526.018	519.666	-0.252	0.592
-525.004	4.023	-0.402	-0.295
-523.989	-200.000	-0.094	0.780
-522.975	-200.000	0.004	-0.608
-521.960	70.789	0.376	-0.390
-520.945	200.446	-0.167	0.257
-519.931	642.470	-0.133	0.340
-518.916	-87.905	0.350	0.105
-517.902	-82.433	0.328	0.107
-516.887	57.964	0.275	0.270
-515.872	-142.101	0.203	0.020
-514.858	-34.186	0.323	-0.177
-513.843	-77.362	0.855	-0.297
-512.829	-55.696	-0.566	0.253
-511.814	5.916	0.442	-0.327
-510.799	-200.000	0.074	0.418
-509.785	-200.000	-0.036	-0.221
-508.770	9.133	-0.589	-0.445
-507.756	-117.082	0.833	-0.152
-506.741	115.579	-0.691	0.845
-505.726	-146.664	0.313	0.027
-504.712	800.000	-0.064	-0.186
-503.697	272.420	0.337	0.595
-502.683	-57.705	-0.832	-0.364
-501.668	-200.000	0.002	0.093
-500.653	-157.854	0.259	0.015
-499.639	17.062	-0.650	0.516
-498.624	5.333	-0.065	-0.048
-497.610	-24.866	0.375	0.223
-496.595	-69.888	0.532	-0.203
-495.581	-200.000	0.157	-1.039
-494.566	283.871	-0.400	-0.720
-493.551	800.000	-0.291	-0.823
-492.537	-160.611	-0.697	-0.037
-491.522	-68.515	0.570	-0.221
-490.508	201.390	0.190	-0.292
-489.493	-7.331	-0.727	-0.492
-488.478	-134.881	0.595	-0.072
-487.464	131.073	-0.314	0.403
-486.449	-200.000	0.022	-0.387
-485.435	447.483	0.258	-0.568
-484.420	-103.409	-0.727	0.171
-483.405	800.000	-0.153	0.434
-482.391	-76.246	-0.702	-0.247
-481.376	-200.000	-0.025	-0.473
-480.362	-87.413	0.359	-0.109
-479.347	124.764	0.503	-0.632
-478.332	-7.756	-0.530	0.358
-477.318	227.883	0.113	0.184
-476.303	63.495	-0.322	0.323
-475.289	-173.048	0.193	-0.006
-474.274	-123.275	0.990	0.158
-473.259	458.339	-0.078	0.173
-472.245	-88.735	-0.095	-0.028
-471.230	113.357	-0.211	0.255
-470.216	-200.000	-0.103	0.742
-469.201	739.967	-0.132	-0.354
-468.186	9.538	0.993	0.752
-467.172	-200.000	0.075	-0.560
-466.157	-12.331	-0.454	0.297
-465.143	800.000	0.102	-0.321
-464.128	-38.505	0.930	0.491
-463.113	-12.419	-0.620	0.404
-462.099	800.000	-0.163	0.583
-461.084	-62.413	-0.882	-0.366
-460.070	-200.000	0.032	0.415
-459.055	-72.121	-0.570	0.211
-458.040	-34.265	-0.241	0.132
-457.026	226.296	-0.432	-0.700
-456.011	92.842	0.220	0.248
-454.997	-200.000	0.013	-1.234
-453.982	100.685	0.210	-0.243
-452.968	232.690	0.248	0.407
-451.953	-200.000	0.003	-0.041
-450.938	489.084	-0.150	0.343
-449.924	800.000	-0.227	-0.817
-448.909	-150.851	0.748	-0.057
-447.895	-153.865	0.403	-0.027
-446.880	187.995	-0.542	-0.808
-445.865	112.226	-0.442	-0.533
-444.851	58.366	0.782	-0.766
-443.836	-99.831	-0.402	-0.100
-442.822	0.948	-0.269	-0.192
-441.807	384.106	0.427	0.878
-440.792	-158.681	0.318	0.018
-439.778	-165.317	0.253	0.011
-438.763	619.834	0.287	0.721
-437.749	-66.967	-0.681	-0.268
-436.734	800.000	-0.174	0.623
-435.719	800.000	0.227	0.789
-434.705	539.366	-0.558	1.324
-433.690	100.291	0.262	-0.303
-432.676	800.000	0.176	-0.500
-431.661	800.000	0.177	0.563
-430.646	423.152	0.237	-0.508
-429.632	108.781	0.187	0.223
-428.617	250.702	0.536	-0.909
-427.603	56.802	-0.268	0.260
-426.588	42.334	-0.806	-0.730
-425.573	71.391	-0.106	-0.109
-424.559	126.142	0.443	-0.558
-423.544	583.100	0.199	0.487
-422.530	49.983	-0.388	-0.365
-421.515	-9.357	0.450	-0.299
-420.500	-132.195	0.376	0.049
-419.486	205.282	-0.235	0.364
-418.471	226.834	-0.092	-0.149
-417.457	666.763	0.097	0.250
-416.442	-33.461	0.076	-0.042
-415.428	108.064	-0.159	-0.189
-414.413	318.595	-0.394	0.743
-413.398	192.971	0.065	0.098
-412.384	-60.613	0.258	-0.109
-411.369	392.885	-0.162	-0.335
-410.355	-56.517	-0.796	-0.352
-409.340	626.131	-0.115	-0.290
-408.325	-200.000	-0.010	0.185
-407.311	-200.000	0.033	0.189
-406.296	483.165	-0.151	-0.342
-405.282	-2.655	-0.844	0.589
-404.267	-34.384	0.571	-0.312
-403.252	29.595	0.680	0.576
-402.238	-200.000	0.102	0.730
-401.223	-90.724	0.068	-0.020
-400.209	800.000	0.186	0.577
-399.194	514.689	-0.131	-0.304
-398.179	24.237	-0.256	-0.210
-397.165	-105.998	-0.916	-0.205
-396.150	-129.924	0.432	0.059
-395.136	-8.370	0.690	0.462
-394.121	800.000	0.116	0.426
-393.106	800.000	0.173	0.578
-392.092	-20.898	0.236	-0.144
-391.077	44.697	0.160	0.146
-390.063	167.349	0.117	-0.165
-389.048	-20.544	0.267	-0.163
-388.033	43.640	0.203	0.185
-387.019	459.869	-0.159	-0.352
-386.004	445.906	-0.123	0.269
-384.990	-122.137	0.275	0.045
-383.975	353.113	0.142	-0.281
-382.960	37.145	0.550	-0.485
-381.946	-66.758	0.199	-0.078
-380.931	-36.520	-0.691	-0.371
-379.917	-200.000	0.052	-0.227
-378.902	-200.000	0.024	0.362
-377.888	-72.860	0.098	0.036
-376.873	-50.602	-0.253	0.118
-375.858	178.174	0.954	-1.386
-374.844	146.278	0.182	-0.244
-373.829	59.618	0.448	0.440
-372.815	270.856	0.200	0.351
-371.800	-106.306	0.934	-0.208
-370.785	-200.000	-0.017	-0.496
-369.771	79.804	-0.514	0.550
-368.756	82.053	-0.255	0.275
-367.742	-68.563	0.097	-0.037
-366.727	-42.454	-1.150	-0.583
-365.712	294.471	-0.191	-0.347
-364.698	49.766	0.779	-0.730
-363.683	37.778	-0.298	0.263
-362.669	65.390	0.246	-0.248
-361.654	-200.000	-0.039	-0.271
-360.639	-200.000	-0.116	0.986
-359.625	-31.972	0.660	0.368
-358.610	489.668	0.302	0.686
-357.596	800.000	-0.218	0.890
-356.581	-200.000	-0.093	-0.499
-355.566	486.544	0.335	0.760
-354.552	396.180	-0.072	0.150
-353.537	353.123	0.409	0.807
-352.523	131.007	-0.453	0.578
-351.508	211.669	0.606	-0.948
-350.493	-12.260	-0.222	-0.144
-349.479	-29.347	-0.386	0.219
-348.464	-150.580	0.922	0.070
-347.450	63.177	0.322	-0.321
-346.435	528.789	-0.162	0.379
-345.420	-48.982	0.503	-0.239
-344.406	800.000	0.345	0.974
-343.391	-41.746	0.520	0.265
-342.377	-163.601	-0.431	0.020
-341.362	-59.901	0.579	-0.246
-340.348	25.393	0.085	0.070
-339.333	56.503	-0.072	0.070
-338.318	21.760	-0.491	-0.398
-337.304	-85.649	-0.447	0.138
-336.289	-200.000	0.035	-0.257
-335.275	253.036	-0.331	-0.562
-334.260	-97.362	-0.364	0.094
-333.245	320.922	-0.136	0.257
-332.231	-115.649	-0.471	-0.088
-331.216	83.521	0.387	-0.419
-330.202	168.508	-0.163	-0.231
-329.187	-200.000	0.205	1.263
-328.172	-200.000	-0.000	-0.463
-327.158	-36.285	0.969	-0.519
-326.143	-114.067	-0.333	-0.064
-325.129	240.786	-0.296	-0.490
-324.114	-80.101	-0.242	0.081
-323.099	-4.845	0.264	0.181
-322.085	-89.890	0.799	0.232
-321.070	164.778	0.364	-0.510
-320.056	-76.593	-0.839	-0.293
-319.041	275.473	-0.251	0.443
-318.026	-121.947	-0.979	-0.160
-317.012	-113.254	-0.131	-0.026
-315.997	-40.508	0.507	0.262
-314.983	-164.630	-0.719	-0.032
-313.968	688.075	-0.226	-0.587
-312.953	88.821	0.400	-0.442
-311.939	-75.151	1.175	0.417
-310.924	16.805	0.404	-0.318
-309.910	46.987	-0.322	0.297
-308.895	-104.448	-0.329	-0.076
-307.880	75.469	-0.413	0.433
-306.866	-200.000	0.049	-0.746
-305.851	-70.970	-0.324	-0.121
-304.837	-26.313	0.359	-0.209
-303.822	-163.188	0.282	-0.013
-302.807	800.000	-0.156	0.607
-301.793	15.083	0.416	-0.323
-300.778	-200.000	-0.129	-0.734
-299.764	204.315	-0.265	-0.407
-298.749	-171.371	-0.853	-0.028
-297.735	28.018	0.381	-0.319
-296.720	-11.468	0.179	0.117
-295.705	1.685	-0.226	-0.162
-294.691	25.663	-0.202	-0.167
-293.676	-36.675	-0.601	-0.320
-292.662	-200.000	0.063	-0.439
-291.647	237.685	0.313	0.516
-290.632	-135.299	-0.740	0.088
-289.618	-164.570	-1.004	-0.045
-288.603	-200.000	-0.012	0.931
-287.589	-36.804	0.306	-0.163
-286.574	47.650	-0.941	0.871
-285.559	399.181	-0.167	-0.347
-284.545	39.023	-0.513	0.455
-283.530	-16.039	-0.408	0.257
-282.516	186.969	-0.323	-0.478
-281.501	-200.000	-0.057	-0.481
-280.486	250.238	-0.115	-0.193
-279.472	-143.719	0.430	0.040
-278.457	367.974	-0.369	0.739
-277.443	92.016	0.569	0.635
-276.428	-3.594	0.682	0.470
-275.413	-144.007	0.217	0.020
-274.399	34.600	-0.439	-0.381
-273.384	-200.000	-0.066	0.592
-272.370	-85.742	0.469	-0.144
-271.355	-10.515	-0.556	0.365
-270.340	-94.664	-0.220	0.059
-269.326	-200.000	0.014	-0.136
-268.311	-26.732	0.200	-0.116
-267.297	392.745	-0.156	0.322
-266.282	-69.983	-0.351	0.133
-265.267	-55.243	0.317	0.141
-264.253	-200.000	-0.071	-0.552
-263.238	-33.660	0.562	-0.307
-262.224	800.000	0.250	0.833
-261.209	-115.299	1.265	0.237
-260.195	800.000	0.224	-0.715
-259.180	-64.709	0.671	0.269
-258.165	800.000	-0.095	-0.278
-257.151	-200.000	0.021	0.293
-256.136	-200.000	0.116	0.791
-255.122	800.000	0.321	0.896
-254.107	236.414	0.254	0.416
-253.092	-116.434	-1.173	-0.215
-252.078	800.000	0.238	-0.779
-251.063	44.377	0.324	0.295
-250.049	-200.000	-0.026	0.171
-249.034	-200.000	0.023	-0.231
-248.019	533.906	-0.450	-1.055
-247.005	-114.501	0.185	-0.035
-245.990	-68.347	0.028	-0.011
-244.976	63.755	0.252	0.251
-243.961	800.000	-0.127	0.540
-242.946	-68.217	0.307	0.118
-241.932	-79.269	-0.700	0.235
-240.917	-200.000	0.033	0.333
-239.903	89.831	-0.278	-0.307
-238.888	755.307	0.065	0.173
-237.873	-102.227	0.355	0.084
-236.859	-93.160	-0.345	0.095
-235.844	278.609	-0.141	0.250
-234.830	-45.657	-0.600	-0.294
-233.815	222.846	0.255	0.407
-232.800	302.792	0.477	-0.874
-231.786	-148.334	0.658	0.054
-230.771	-200.000	-0.174	-0.838
-229.757	800.000	0.466	1.546
-228.742	-36.124	0.347	0.185
-227.727	-200.000	-0.039	-0.412
-226.713	204.582	0.181	-0.278
-225.698	-34.743	-0.460	-0.249
-224.684	78.783	-0.270	-0.286
-223.669	-200.000	0.007	-0.273
-222.655	30.842	-0.759	-0.643
-221.640	-200.000	-0.009	0.292
-220.625	-26.637	-0.481	-0.278
-219.611	-27.402	-0.847	0.487
-218.596	-25.304	-0.204	-0.120
-217.582	-200.000	0.000	-0.052
-216.567	-66.868	0.549	-0.215
-215.552	-200.000	0.017	0.245
-214.538	-50.127	0.473	0.222
-213.523	-200.000	0.026	-0.201
-212.509	-102.158	0.772	-0.184
-211.494	800.000	-0.015	0.048
-210.479	-200.000	0.025	-0.257
-209.465	-37.596	0.336	-0.177
-208.450	-135.567	-0.081	-0.009
-207.436	-200.000	-0.046	0.595
-206.421	-78.538	1.095	-0.371
-205.406	-76.609	0.605	-0.210
-204.392	5.007	-0.109	0.080
-203.377	55.616	0.285	0.273
-202.363	238.688	0.211	-0.347
-201.348	-24.447	-0.426	-0.251
-200.333	18.511	0.087	-0.069
-199.319	73.850	0.366	-0.380
-198.304	-91.414	0.296	-0.084
-197.290	-200.000	0.016	0.469
-196.275	325.329	-0.262	0.496
-195.260	71.714	-0.360	0.369
-194.246	-109.565	0.677	0.141
-193.231	-74.086	0.169	0.061
-192.217	50.670	-0.367	0.343
-191.202	-200.000	-0.024	-0.309
-190.187	-200.000	-0.016	0.603
-189.173	-8.252	0.368	-0.245
-188.158	29.935	-0.690	-0.581
-187.144	800.000	-0.400	-1.404
-186.129	-52.080	0.485	-0.223
-185.114	-9.414	-0.284	0.187
-184.100	-105.223	-0.098	0.022
-183.085	-200.000	-0.125	-0.714
-182.071	-21.634	0.379	0.228
-181.056	-43.023	-0.357	0.179
-180.042	-200.000	-0.054	0.268
-179.027	-200.000	-0.062	0.496
-178.012	800.000	-0.055	-0.174
-176.998	30.572	-0.594	0.502
-175.983	-71.005	-0.817	0.304
-174.969	-25.275	0.187	-0.109
-173.954	250.878	0.246	-0.413
-172.939	10.002	0.391	0.294
-171.925	-67.082	-0.283	-0.110
-170.910	-47.329	0.922	0.443
-169.896	32.595	0.445	0.380
-168.881	800.000	0.170	0.700
-167.866	-200.000	0.007	0.991
-166.852	-123.964	-0.454	-0.071
-165.837	-200.000	0.059	-0.827
-164.823	39.876	0.448	-0.397
-163.808	-200.000	0.089	0.778
-162.793	-19.751	-0.553	0.338
-161.779	800.000	-0.344	1.139
-160.764	-6.186	-0.209	0.141
-159.750	633.468	0.143	-0.357
-158.735	619.948	-0.120	-0.298
-157.720	298.648	0.282	0.512
-156.706	-147.104	0.759	-0.064
-155.691	124.883	-0.400	-0.497
-154.677	464.539	-0.185	0.408
-153.662	259.577	-0.133	-0.226
-152.647	21.895	0.677	-0.544
-151.633	44.853	0.432	-0.392
-150.618	423.789	-0.213	0.451
-149.604	-139.007	-0.077	0.008
-148.589	800.000	-0.287	1.093
-147.574	-21.183	-0.202	-0.122
-146.560	-43.009	-0.665	-0.333
-145.545	584.884	-0.267	0.647
-144.531	-128.473	-0.499	0.070
-143.516	51.023	0.905	-0.846
-142.502	211.529	0.375	-0.583
-141.487	170.407	0.207	-0.293
-140.472	-200.000	-0.081	-0.498
-139.458	800.000	0.137	0.399
-138.443	108.263	0.382	0.450
-137.429	716.678	0.187	-0.488
-136.414	-76.166	0.576	0.200
-135.399	-40.019	0.549	-0.282
-134.385	-90.832	0.351	0.100
-133.370	185.142	0.516	0.754
-132.356	-200.000	-0.007	0.644
-131.341	-188.561	-0.165	-0.002
-130.326	81.157	-0.447	-0.476
-129.312	-88.363	-0.154	-0.046
-128.297	704.503	-0.130	-0.338
-127.283	-104.222	-0.091	-0.021
-126.268	181.623	-0.106	-0.153
-125.253	-200.000	0.063	0.698
-124.239	6.617	-0.171	0.125
-123.224	-108.308	-0.282	0.060
-122.210	50.810	-0.234	0.218
-121.195	114.497	-0.157	-0.188
-120.180	-122.582	0.480	-0.077
