DTS Sentinel unit serial number:	SN413079Multiplexer serial number:	ORYXHardware model number:	OX4-SRSoftware version number:	ORYX F/W v4.00 Oryx Data Collector v3.7.2.0data status	okinstallation	princeton_trtdifferential loss correction	single-endedforward channel	channel 3reverse channel	N/Adate	2019/09/12time	09:26:11forward acquisition time	60.00reverse acquisition time	0.00gamma	496.2192k internal	0.2301k external	0.2301temperature offset calibration	1.0032default loss term (dB/km)	0.3790temperature slope calibration	1.0000multiplexer offset coefficient	1.0000multiplexer slope coefficient	1.0000fibre end	0.00T internal ref (°C)	35.31T ext. ref 1 (°C)	1.79T ext. ref 2 (°C)	33.54length (m)	temperature (°C)	Stokes	anti-Stokes-747.200	34.417	-0.276	-0.245
-746.185	-200.000	-0.039	0.314
-745.171	-13.168	-0.055	0.036
-744.156	42.786	-0.227	0.211
-743.142	-53.465	-0.078	0.036
-742.127	800.000	-0.052	-0.175
-741.112	123.647	0.185	0.237
-740.098	-52.251	0.342	-0.162
-739.083	-41.905	0.249	0.130
-738.069	151.022	-0.251	0.347
-737.054	-200.000	0.012	0.113
-736.039	-118.683	-0.410	0.074
-735.025	81.000	0.173	0.190
-734.010	91.186	-0.166	0.190
-732.996	107.312	-0.185	-0.225
-731.981	-186.902	-0.320	-0.005
-730.966	25.863	-0.065	0.055
-729.952	800.000	0.018	-0.075
-728.937	411.520	-0.132	-0.286
-727.923	-30.297	0.397	0.230
-726.908	264.741	-0.033	0.059
-725.894	30.626	0.195	0.170
-724.879	-31.616	-0.243	0.139
-723.864	-200.000	0.008	-0.057
-722.850	800.000	0.043	-0.136
-721.835	-134.675	-0.235	0.029
-720.821	193.954	-0.078	0.120
-719.806	-200.000	0.046	-0.219
-718.791	259.526	-0.113	-0.198
-717.777	-130.980	0.139	-0.019
-716.762	-86.947	-0.163	0.051
-715.748	-65.102	0.244	-0.100
-714.733	-89.042	-0.205	-0.062
-713.718	-200.000	0.210	0.001
-712.704	17.023	0.250	0.202
-711.689	18.143	0.128	0.104
-710.675	273.143	0.077	-0.139
-709.660	800.000	0.142	-0.426
-708.645	800.000	0.108	0.324
-707.631	-114.552	-0.176	-0.034
-706.616	23.596	-0.209	0.175
-705.602	-123.723	-0.110	-0.018
-704.587	-200.000	-0.027	0.138
-703.572	-171.927	0.119	-0.004
-702.558	-88.701	-0.139	-0.042
-701.543	-36.788	-0.050	0.027
-700.529	69.134	-0.260	0.272
-699.514	5.258	0.246	-0.184
-698.499	133.675	0.119	0.157
-697.485	-82.854	-0.203	-0.067
-696.470	325.637	-0.164	-0.320
-695.456	-89.581	0.432	-0.129
-694.441	444.018	-0.066	0.148
-693.426	351.904	0.068	0.137
-692.412	-106.146	0.194	0.044
-691.397	160.732	-0.258	-0.367
-690.383	-200.000	-0.015	-0.132
-689.368	-53.726	0.094	0.044
-688.354	-97.979	0.319	0.084
-687.339	-52.844	0.227	-0.107
-686.324	10.580	-0.228	-0.177
-685.310	-167.904	-0.362	-0.014
-684.295	-87.112	-0.431	-0.133
-683.281	-81.162	0.042	-0.014
-682.266	-2.639	-0.232	0.165
-681.251	13.061	0.250	0.197
-680.237	83.476	0.161	0.178
-679.222	64.489	0.247	0.253
-678.208	800.000	0.066	0.200
-677.193	-92.663	-0.297	-0.085
-676.178	-82.654	0.144	0.048
-675.164	800.000	-0.026	0.098
-674.149	-194.235	-0.230	0.002
-673.135	24.793	-0.049	0.041
-672.120	-87.047	-0.267	-0.083
-671.105	-23.228	-0.108	-0.066
-670.091	-67.751	0.307	-0.122
-669.076	-172.815	0.194	0.006
-668.062	-78.243	0.153	-0.054
-667.047	-200.000	0.036	0.299
-666.032	-200.000	-0.055	0.482
-665.018	-11.990	-0.227	-0.151
-664.003	-67.740	0.226	-0.090
-662.989	114.374	0.133	-0.164
-661.974	-7.167	0.185	0.128
-660.959	-200.000	0.016	0.165
-659.945	-200.000	0.004	-0.116
-658.930	-200.000	-0.022	-0.309
-657.916	46.585	0.100	0.095
-656.901	240.371	0.077	-0.131
-655.886	328.439	0.051	0.100
-654.872	42.578	0.056	-0.052
-653.857	-126.643	0.401	0.060
-652.843	-89.878	0.023	0.007
-651.828	800.000	-0.044	-0.167
-650.814	-101.275	0.351	0.087
-649.799	800.000	0.096	-0.348
-648.784	-60.407	0.190	-0.082
-647.770	16.074	-0.258	0.207
-646.755	418.998	-0.060	0.130
-645.741	68.922	-0.047	-0.049
-644.726	800.000	0.065	-0.266
-643.711	-92.783	-0.121	-0.034
-642.697	63.106	0.063	0.064
-641.682	-45.273	-0.280	-0.141
-640.668	19.425	0.098	-0.080
-639.653	-180.833	-0.037	-0.001
-638.638	198.081	-0.253	0.393
-637.624	12.390	0.154	0.121
-636.609	-108.605	-0.345	0.075
-635.595	-53.520	0.116	0.054
-634.580	-126.135	0.028	0.004
-633.565	-200.000	-0.034	-0.206
-632.551	800.000	-0.152	-0.432
-631.536	-97.193	-0.110	0.029
-630.522	-67.277	-0.251	-0.100
-629.507	66.942	0.178	0.184
-628.492	239.458	0.121	-0.204
-627.478	-153.895	0.112	-0.008
-626.463	111.775	-0.251	0.307
-625.449	130.898	0.208	0.271
-624.434	-30.403	-0.300	-0.173
-623.419	-160.170	-0.070	0.004
-622.405	800.000	-0.021	0.067
-621.390	2.783	-0.049	-0.036
-620.376	-200.000	-0.012	-0.225
-619.361	-91.900	-0.410	-0.118
-618.346	-77.665	0.101	0.035
-617.332	-71.367	-0.256	0.097
-616.317	181.761	-0.177	-0.264
-615.303	-52.413	0.263	0.124
-614.288	-88.215	-0.236	0.072
-613.273	-33.896	0.287	0.160
-612.259	-200.000	0.023	0.124
-611.244	165.810	-0.077	-0.110
-610.230	59.413	-0.071	0.071
-609.215	-70.910	0.338	0.129
-608.201	121.808	-0.122	0.154
-607.186	-39.167	-0.479	-0.255
-606.171	-47.244	0.260	-0.129
-605.157	-200.000	0.012	0.132
-604.142	800.000	0.120	-0.368
-603.128	-200.000	0.014	0.128
-602.113	-74.916	0.122	0.044
-601.098	74.140	-0.195	-0.208
-600.084	800.000	-0.055	0.227
-599.069	-53.935	0.240	0.111
-598.055	-200.000	0.020	0.215
-597.040	120.420	0.152	-0.191
-596.025	-200.000	0.039	0.305
-595.011	58.659	-0.186	0.185
-593.996	220.660	0.031	0.050
-592.982	104.337	0.295	-0.352
-591.967	85.495	-0.139	-0.154
-590.952	91.416	-0.344	0.392
-589.938	-200.000	-0.005	0.045
-588.923	-51.559	-0.228	0.108
-587.909	400.571	0.145	-0.309
-586.894	470.702	0.059	-0.135
-585.879	-164.641	0.199	0.009
-584.865	-24.209	-0.243	0.147
-583.850	-200.000	0.022	-0.110
-582.836	-45.535	-0.373	-0.187
-581.821	542.158	-0.113	-0.272
-580.806	800.000	-0.003	-0.009
-579.792	-167.537	0.123	0.005
-578.777	51.858	-0.130	-0.125
-577.763	35.955	0.259	0.231
-576.748	-200.000	0.000	0.104
-575.733	121.184	0.068	0.086
-574.719	800.000	0.048	-0.162
-573.704	-17.574	0.138	0.088
-572.690	-172.773	-0.135	0.004
-571.675	-13.617	-0.316	-0.207
-570.661	161.438	-0.114	0.161
-569.646	81.869	0.096	0.105
-568.631	-200.000	-0.017	0.259
-567.617	286.098	0.072	0.131
-566.602	443.026	0.076	-0.169
-565.588	395.681	0.050	-0.106
-564.573	-187.564	-0.200	-0.003
-563.558	6.241	-0.022	0.017
-562.544	-200.000	0.024	0.116
-561.529	-108.803	0.494	0.107
-560.515	-200.000	0.061	0.312
-559.500	16.831	0.126	-0.101
-558.485	-48.230	0.413	-0.202
-557.471	-200.000	-0.021	0.185
-556.456	800.000	-0.059	0.174
-555.442	-61.142	-0.197	-0.084
-554.427	20.700	0.150	-0.123
-553.412	-58.764	0.330	0.144
-552.398	800.000	0.014	-0.056
-551.383	-57.747	0.201	0.089
-550.369	-200.000	-0.048	-0.353
-549.354	-43.593	-0.023	-0.012
-548.339	54.603	0.224	-0.218
-547.325	-50.230	-0.279	0.134
-546.310	-138.181	-0.182	0.020
-545.296	-45.506	-0.278	-0.139
-544.281	-200.000	-0.042	-0.198
-543.266	-200.000	0.044	-0.209
-542.252	-143.296	0.296	0.029
-541.237	-31.798	-0.295	-0.168
-540.223	-178.544	-0.350	-0.008
-539.208	-89.879	0.220	0.065
-538.193	-200.000	-0.005	-0.125
-537.179	-22.379	0.061	0.037
-536.164	21.776	-0.323	-0.266
-535.150	-140.109	-0.263	0.028
-534.135	-76.618	-0.443	-0.157
-533.121	0.548	-0.108	-0.078
-532.106	-84.456	-0.117	0.037
-531.091	-12.057	-0.167	-0.110
-530.077	696.863	-0.135	-0.359
-529.062	109.286	-0.066	0.080
-528.048	125.248	-0.109	-0.139
-527.033	114.524	0.194	0.239
-526.018	-69.783	-0.186	-0.072
-525.004	-119.049	-0.083	-0.015
-523.989	800.000	-0.110	0.353
-522.975	-18.609	0.302	0.191
-521.960	119.812	-0.162	-0.203
-520.945	367.312	-0.161	0.328
-519.931	107.651	-0.098	-0.118
-518.916	-181.667	-0.217	-0.004
-517.902	-9.571	0.068	0.046
-516.887	6.694	-0.228	0.171
-515.872	154.049	0.144	-0.200
-514.858	-39.301	0.122	-0.065
-513.843	-200.000	0.012	0.212
-512.829	125.243	0.088	-0.113
-511.814	-200.000	0.039	0.191
-510.799	-200.000	-0.016	0.190
-509.785	17.737	0.145	0.116
-508.770	27.942	0.347	0.295
-507.756	-200.000	0.018	-0.118
-506.741	-93.602	0.270	-0.075
-505.726	800.000	-0.112	-0.322
-504.712	-68.933	0.229	-0.089
-503.697	510.883	0.116	0.273
-502.683	-77.958	-0.398	-0.139
-501.668	800.000	-0.113	-0.372
-500.653	-137.651	0.425	-0.048
-499.639	60.414	-0.237	0.237
-498.624	-16.132	0.081	-0.052
-497.610	-200.000	-0.102	0.588
-496.595	-35.142	-0.374	0.206
-495.581	-102.131	0.248	-0.060
-494.566	173.276	-0.194	0.283
-493.551	184.642	0.172	-0.258
-492.537	68.980	-0.091	-0.094
-491.522	1.352	-0.045	0.032
-490.508	-41.096	0.286	-0.149
-489.493	236.068	-0.069	0.115
-488.478	706.283	-0.069	0.184
-487.464	282.918	-0.049	0.089
-486.449	-149.642	0.323	0.026
-485.435	34.512	0.206	-0.182
-484.420	799.366	-0.040	-0.111
-483.405	-121.662	0.092	-0.015
-482.391	175.312	-0.126	-0.185
-481.376	-200.000	0.015	0.140
-480.362	304.448	0.155	-0.289
-479.347	-98.132	-0.187	-0.049
-478.332	-116.437	0.273	0.051
-477.318	-116.513	-0.261	0.048
-476.303	19.166	0.292	-0.237
-475.289	-69.458	-0.250	-0.097
-474.274	-70.334	-0.040	0.015
-473.259	-66.902	0.283	0.113
-472.245	800.000	0.115	-0.346
-471.230	800.000	-0.027	-0.116
-470.216	-200.000	-0.031	-0.157
-469.201	528.432	0.065	0.155
-468.186	-200.000	-0.008	0.176
-467.172	476.722	0.214	0.487
-466.157	67.705	0.055	-0.057
-465.143	800.000	-0.063	-0.234
-464.128	421.865	-0.114	-0.247
-463.113	800.000	-0.080	-0.264
-462.099	39.747	-0.156	0.141
-461.084	-53.659	0.054	0.025
-460.070	800.000	-0.090	0.327
-459.055	59.313	-0.180	-0.179
-458.040	-120.781	0.183	0.031
-457.026	-43.464	0.283	-0.144
-456.011	282.655	-0.133	0.241
-454.997	266.328	-0.040	-0.070
-453.982	133.784	0.014	-0.019
-452.968	-17.587	0.186	0.118
-451.953	-150.262	0.127	-0.010
-450.938	-76.476	-0.078	0.028
-449.924	800.000	-0.062	-0.256
-448.909	173.158	-0.043	-0.063
-447.895	-76.616	0.197	-0.069
-446.880	267.644	-0.084	-0.147
-445.865	141.700	0.269	-0.360
-444.851	-200.000	0.014	-0.108
-443.836	-200.000	-0.010	0.317
-442.822	51.721	0.166	0.159
-441.807	-69.848	-0.048	0.018
-440.792	363.686	0.036	0.073
-439.778	185.760	-0.160	0.240
-438.763	-164.002	-0.213	-0.010
-437.749	-200.000	0.073	-0.000
-436.734	-106.003	-0.141	0.032
-435.719	150.250	0.177	-0.242
-434.705	-200.000	-0.050	-0.238
-433.690	-32.423	-0.230	-0.129
-432.676	-200.000	0.015	-0.210
-431.661	-200.000	0.018	-0.086
-430.646	-89.781	-0.080	-0.023
-429.632	-38.604	0.195	-0.104
-428.617	213.000	-0.157	0.250
-427.603	2.584	0.260	-0.190
-426.588	-25.266	0.191	0.114
-425.573	38.654	0.275	0.247
-424.559	224.057	-0.109	0.178
-423.544	-142.671	-0.091	0.009
-422.530	102.408	-0.084	0.099
-421.515	-200.000	-0.003	-0.092
-420.500	629.954	0.054	-0.137
-419.486	-200.000	0.006	-0.119
-418.471	348.205	0.044	-0.086
-417.457	-23.236	-0.151	-0.092
-416.442	-200.000	-0.019	0.160
-415.428	1.431	-0.094	-0.068
-414.413	238.659	-0.227	-0.380
-413.398	-31.787	0.084	-0.047
-412.384	-19.476	-0.240	0.150
-411.369	-200.000	-0.039	0.254
-410.355	-200.000	-0.026	-0.201
-409.340	800.000	-0.063	-0.206
-408.325	-200.000	0.026	-0.203
-407.311	-35.973	0.483	-0.263
-406.296	-50.294	-0.240	0.114
-405.282	-165.665	0.124	0.005
-404.267	123.437	-0.066	0.083
-403.252	-60.426	0.248	0.106
-402.238	35.129	-0.232	0.205
-401.223	-197.531	-0.131	-0.001
-400.209	-200.000	0.090	-0.411
-399.194	192.120	0.111	-0.169
-398.179	43.919	-0.264	0.243
-397.165	31.565	-0.122	0.106
-396.150	-29.367	0.141	0.081
-395.136	-43.372	-0.064	-0.033
-394.121	717.560	0.109	0.291
-393.106	-200.000	-0.021	0.410
-392.092	-120.626	0.184	0.031
-391.077	-173.480	-0.247	-0.007
-390.063	-129.480	0.401	-0.056
-389.048	-147.498	-0.605	-0.051
-388.033	31.018	-0.152	0.131
-387.019	28.340	0.159	0.135
-386.004	-65.525	0.329	-0.133
-384.990	-5.904	-0.063	-0.043
-383.975	409.822	0.085	-0.181
-382.960	-8.729	0.071	0.048
-381.946	-38.850	0.302	-0.160
-380.931	-120.552	-0.112	0.019
-379.917	-200.000	0.028	-0.222
-378.902	-200.000	-0.010	-0.091
-377.888	-55.220	0.257	-0.116
-376.873	394.742	-0.172	0.361
-375.858	44.519	0.412	-0.381
-374.844	-200.000	-0.033	-0.247
-373.829	-200.000	-0.008	0.326
-372.815	-29.030	0.263	-0.152
-371.800	163.479	0.070	-0.098
-370.785	800.000	0.083	-0.240
-369.771	800.000	-0.059	0.229
-368.756	-63.291	0.296	0.122
-367.742	761.582	-0.104	0.284
-366.727	72.637	-0.138	-0.145
-365.712	-41.865	-0.157	-0.081
-364.698	800.000	-0.069	0.239
-363.683	-54.386	0.171	0.078
-362.669	-200.000	0.028	-0.353
-361.654	-24.889	-0.255	-0.152
-360.639	-200.000	0.031	-0.193
-359.625	-59.616	-0.251	0.108
-358.610	327.892	0.034	0.066
-357.596	-100.754	0.209	-0.052
-356.581	-104.872	0.227	0.052
-355.566	-80.693	0.181	0.060
-354.552	-108.965	0.099	0.021
-353.537	31.089	-0.186	-0.160
-352.523	266.457	-0.033	0.058
-351.508	287.621	0.077	-0.140
-350.493	735.540	-0.052	-0.141
-349.479	-190.624	0.112	-0.001
-348.464	-105.764	0.326	-0.074
-347.450	-105.525	-0.265	0.060
-346.435	-52.644	0.237	0.110
-345.420	-35.737	-0.108	0.059
-344.406	-200.000	-0.017	0.124
-343.391	15.923	0.275	-0.217
-342.377	-200.000	0.079	-0.525
-341.362	489.478	-0.118	0.270
-340.348	-31.584	0.244	0.138
-339.333	-131.520	-0.262	0.035
-338.318	-200.000	-0.007	0.102
-337.304	-200.000	-0.017	0.099
-336.289	188.990	-0.084	0.126
-335.275	247.119	0.195	0.330
-334.260	495.462	-0.054	-0.124
-333.245	54.914	-0.247	-0.240
-332.231	800.000	-0.041	0.129
-331.216	800.000	-0.112	0.397
-330.202	-161.009	0.058	0.003
-329.187	387.957	0.010	0.021
-328.172	-47.938	-0.191	-0.093
-327.158	-72.872	0.074	0.027
-326.143	800.000	0.075	-0.252
-325.129	-68.158	0.086	0.033
-324.114	-56.990	-0.306	-0.136
-323.099	-97.303	0.209	-0.055
-322.085	-200.000	0.001	0.060
-321.070	135.718	-0.122	-0.159
-320.056	105.891	-0.016	-0.019
-319.041	-200.000	-0.006	-0.297
-318.026	321.897	-0.161	-0.308
-317.012	-200.000	-0.024	-0.209
-315.997	800.000	0.067	0.233
-314.983	47.970	-0.239	0.223
-313.968	66.329	0.172	-0.176
-312.953	-59.062	0.297	-0.128
-311.939	-200.000	-0.095	-0.461
-310.924	-133.855	0.097	-0.012
-309.910	744.104	0.046	-0.125
-308.895	38.374	-0.082	-0.074
-307.880	11.472	-0.191	0.147
-306.866	211.476	-0.198	-0.313
-305.851	-126.239	0.304	-0.046
-304.837	-5.381	0.305	0.210
-303.822	-200.000	-0.000	-0.007
-302.807	24.905	-0.183	0.152
-301.793	557.055	0.073	0.177
-300.778	-57.081	-0.183	0.081
-299.764	524.800	0.023	0.054
-298.749	-134.193	0.190	0.023
-297.735	-54.637	0.136	0.062
-296.720	-55.285	0.169	0.076
-295.705	527.533	-0.021	-0.049
-294.691	-200.000	0.006	-0.088
-293.676	60.020	-0.336	-0.333
-292.662	-139.439	0.112	0.012
-291.647	708.835	-0.155	-0.411
-290.632	-167.373	0.301	0.012
-289.618	-98.823	0.532	0.135
-288.603	-64.525	0.524	0.213
-287.589	21.741	-0.184	0.150
-286.574	800.000	0.061	-0.198
-285.559	-172.989	-0.204	0.006
-284.545	-45.975	0.168	-0.083
-283.530	800.000	-0.115	0.334
-282.516	-126.065	0.374	0.056
-281.501	31.048	-0.208	0.178
-280.486	-69.264	-0.080	0.031
-279.472	800.000	0.070	-0.198
-278.457	800.000	0.097	-0.309
-277.443	-36.087	0.174	-0.094
-276.428	129.610	-0.076	0.097
-275.413	157.765	-0.102	0.141
-274.399	81.473	-0.127	-0.138
-273.384	-38.823	0.093	-0.049
-272.370	449.318	0.129	0.285
-271.355	-200.000	-0.026	0.271
-270.340	-143.561	0.140	-0.013
-269.326	-52.766	0.312	0.144
-268.311	-123.463	0.283	0.045
-267.297	305.834	-0.100	0.186
-266.282	-51.138	-0.227	0.107
-265.267	-200.000	-0.057	0.254
-264.253	46.629	0.111	-0.103
-263.238	-200.000	0.021	0.170
-262.224	800.000	-0.065	0.246
-261.209	22.382	0.123	0.101
-260.195	393.542	-0.091	0.190
-259.180	-160.268	0.089	0.005
-258.165	-200.000	-0.003	0.337
-257.151	-11.168	-0.163	-0.107
-256.136	-97.796	-0.332	0.086
-255.122	183.856	-0.226	-0.335
-254.107	-200.000	0.024	-0.207
-253.092	-200.000	-0.212	-0.001
-252.078	-37.897	-0.026	0.014
-251.063	108.429	0.309	0.369
-250.049	-27.603	-0.119	0.069
-249.034	-200.000	0.004	0.322
-248.019	-200.000	0.031	0.149
-247.005	-200.000	-0.028	0.248
-245.990	-200.000	-0.024	0.176
-244.976	-200.000	-0.034	0.233
-243.961	-48.180	-0.111	0.053
-242.946	800.000	0.054	-0.218
-241.932	800.000	-0.108	0.372
-240.917	-147.373	-0.109	-0.009
-239.903	-164.947	-0.216	-0.010
-238.888	144.839	-0.130	0.173
-237.873	-165.878	0.319	-0.014
-236.859	800.000	-0.059	-0.196
-235.844	-63.775	-0.098	0.040
-234.830	145.011	-0.127	0.170
-233.815	-63.626	0.209	0.086
-232.800	-34.617	-0.156	-0.085
-231.786	-200.000	-0.011	0.102
-230.771	-200.000	-0.003	-0.370
-229.757	-80.254	0.172	0.058
-228.742	376.932	-0.098	0.201
-227.727	316.745	0.132	0.249
-226.713	-54.094	-0.300	0.137
-225.698	800.000	-0.074	-0.317
-224.684	132.946	0.092	0.119
-223.669	47.661	0.422	0.393
-222.655	800.000	0.057	-0.178
-221.640	-111.575	0.207	-0.042
-220.625	274.955	0.109	0.194
-219.611	395.395	-0.133	0.277
-218.596	-200.000	0.051	0.232
-217.582	800.000	0.171	-0.653
-216.567	547.273	-0.038	-0.090
-215.552	301.009	-0.024	-0.044
-214.538	-54.186	0.122	-0.055
-213.523	-67.941	0.264	-0.103
-212.509	103.948	0.135	0.159
-211.494	-200.000	-0.026	-0.129
-210.479	800.000	0.071	0.214
-209.465	-11.165	0.135	-0.089
-208.450	32.599	-0.121	-0.104
-207.436	-200.000	-0.063	-0.279
-206.421	800.000	0.068	0.194
-205.406	-84.442	0.278	0.088
-204.392	-200.000	0.001	-0.177
-203.377	543.731	0.116	0.276
-202.363	-200.000	-0.007	-0.037
-201.348	-200.000	-0.035	-0.229
-200.333	-53.674	-0.386	0.176
-199.319	-200.000	0.007	-0.223
-198.304	-16.486	-0.160	0.101
-197.290	-133.534	-0.172	-0.022
-196.275	-200.000	-0.018	0.142
-195.260	800.000	-0.059	-0.200
-194.246	-200.000	-0.002	-0.171
-193.231	0.478	-0.159	-0.114
-192.217	-38.706	-0.115	-0.061
-191.202	800.000	-0.090	0.376
-190.187	-9.873	-0.329	-0.218
-189.173	-39.339	-0.107	-0.056
-188.158	34.243	0.067	-0.058
-187.144	2.472	-0.096	-0.070
-186.129	164.856	-0.192	0.271
-185.114	-200.000	-0.034	0.336
-184.100	352.461	0.025	0.050
-183.085	-171.471	-0.095	-0.003
-182.071	463.355	0.074	-0.166
-181.056	20.340	0.138	-0.111
-180.042	-56.290	-0.208	0.092
-179.027	800.000	0.081	0.268
-178.012	123.668	0.293	0.367
-176.998	32.873	0.083	-0.071
-175.983	-200.000	0.005	-0.115
-174.969	14.716	0.174	0.135
-173.954	-181.403	-0.133	0.003
-172.939	-136.550	0.617	0.071
-171.925	-200.000	-0.009	-0.323
-170.910	-200.000	0.031	0.348
-169.896	-200.000	-0.015	0.168
-168.881	53.664	-0.211	-0.202
-167.866	166.734	0.292	0.413
-166.852	10.854	0.096	-0.073
-165.837	-78.512	0.166	-0.057
-164.823	-61.200	0.261	-0.110
-163.808	-200.000	0.001	-0.029
-162.793	-162.494	-0.106	-0.005
-161.779	-105.674	0.078	0.018
-160.764	-102.284	-0.101	0.024
-159.750	800.000	-0.081	-0.314
-158.735	-118.010	-0.236	0.042
-157.720	-200.000	-0.016	-0.168
-156.706	-9.826	-0.138	-0.092
-155.691	-87.349	-0.390	-0.118
-154.677	-102.317	-0.062	0.015
-153.662	-185.635	-0.232	-0.003
-152.647	224.007	-0.064	-0.102
-151.633	14.305	-0.195	0.152
-150.618	79.129	-0.122	0.130
-149.604	-19.758	-0.070	-0.043
-148.589	-4.804	-0.156	0.107
-147.574	800.000	0.037	0.124
-146.560	61.719	0.149	0.148
-145.545	-200.000	-0.004	0.059
-144.531	37.999	0.105	-0.093
-143.516	46.489	0.081	-0.075
-142.502	167.400	0.127	-0.180
-141.487	42.574	0.390	0.353
-140.472	-128.747	-0.205	0.029
-139.458	-26.140	0.158	0.093
-138.443	-200.000	0.001	-0.035
-137.429	26.852	-0.076	-0.064
-136.414	-130.272	0.134	0.018
-135.399	-12.153	0.183	-0.119
-134.385	242.932	-0.258	-0.431
-133.370	16.559	-0.066	-0.052
-132.356	-38.186	0.134	-0.070
-131.341	-68.226	-0.330	0.128
-130.326	-43.631	0.192	-0.097
-129.312	232.232	-0.144	0.235
-128.297	111.751	0.202	-0.242
-127.283	6.290	0.053	-0.039
-126.268	-200.000	-0.023	0.136
-125.253	-53.118	0.303	-0.139
-124.239	-200.000	-0.000	0.058
-123.224	-48.793	0.073	-0.035
-122.210	800.000	0.037	0.123
-121.195	800.000	0.019	0.060
