DTS Sentinel unit serial number:	SN413079Multiplexer serial number:	ORYXHardware model number:	OX4-SRSoftware version number:	ORYX F/W v4.00 Oryx Data Collector v3.7.2.0data status	okinstallation	princeton_trtdifferential loss correction	single-endedforward channel	channel 3reverse channel	N/Adate	2019/09/19time	09:08:34forward acquisition time	60.00reverse acquisition time	0.00gamma	496.2192k internal	0.2346k external	0.2346temperature offset calibration	0.9967default loss term (dB/km)	0.3790temperature slope calibration	1.0000multiplexer offset coefficient	1.0000multiplexer slope coefficient	1.0000fibre end	0.00T internal ref (°C)	21.84T ext. ref 1 (°C)	0.61T ext. ref 2 (°C)	18.98length (m)	temperature (°C)	Stokes	anti-Stokes-747.200	21.941	-0.259	-0.211
-746.185	-40.490	-0.252	0.131
-745.171	30.218	-0.141	0.120
-744.156	166.999	-0.223	0.317
-743.142	6.289	0.099	-0.073
-742.127	-200.000	-0.009	0.133
-741.112	-40.772	-0.179	0.093
-740.098	-158.525	-0.271	-0.016
-739.083	-113.041	0.380	0.075
-738.069	-200.000	0.005	0.451
-737.054	-200.000	-0.021	-0.153
-736.039	-99.546	-0.222	-0.056
-735.025	-151.354	-0.270	-0.020
-734.010	-151.327	-0.275	0.021
-732.996	108.567	-0.135	0.161
-731.981	-200.000	0.050	-0.274
-730.966	-200.000	-0.041	-0.561
-729.952	800.000	-0.059	-0.247
-728.937	-200.000	-0.013	-0.220
-727.923	-62.126	-0.261	-0.109
-726.908	-57.634	-0.166	0.073
-725.894	-200.000	-0.002	-0.137
-724.879	129.788	-0.210	-0.268
-723.864	592.893	0.080	-0.198
-722.850	-200.000	0.015	-0.201
-721.835	-200.000	-0.326	0.002
-720.821	360.089	-0.084	-0.168
-719.806	-140.207	-0.413	0.043
-718.791	-74.467	0.224	-0.081
-717.777	800.000	-0.090	-0.312
-716.762	-51.582	-0.086	-0.040
-715.748	143.850	0.061	0.081
-714.733	452.011	-0.130	-0.288
-713.718	-85.685	0.224	0.069
-712.704	20.808	0.243	-0.196
-711.689	800.000	-0.048	-0.187
-710.675	-200.000	-0.018	-0.113
-709.660	51.174	-0.161	-0.153
-708.645	40.454	-0.059	0.053
-707.631	-52.477	0.296	0.137
-706.616	193.348	0.133	0.201
-705.602	-47.373	0.044	-0.021
-704.587	62.485	-0.215	-0.215
-703.572	375.188	-0.091	0.185
-702.558	-10.904	0.045	-0.030
-701.543	-200.000	-0.012	-0.290
-700.529	-200.000	-0.007	0.088
-699.514	-149.782	-0.398	0.031
-698.499	800.000	-0.046	0.144
-697.485	-48.533	0.323	-0.155
-696.470	407.616	-0.097	-0.204
-695.456	-155.754	0.113	0.007
-694.441	-138.949	-0.173	-0.019
-693.426	-32.200	-0.196	-0.109
-692.412	800.000	0.054	-0.191
-691.397	800.000	-0.011	-0.034
-690.383	-0.152	0.083	0.059
-689.368	-113.075	0.040	0.008
-688.354	-116.134	-0.431	-0.080
-687.339	-200.000	-0.081	-0.373
-686.324	800.000	-0.097	-0.310
-685.310	-138.685	-0.173	-0.019
-684.295	-81.711	0.132	-0.043
-683.281	5.862	-0.493	-0.364
-682.266	-74.023	-0.301	-0.109
-681.251	430.948	0.273	-0.590
-680.237	707.372	0.037	0.097
-679.222	-200.000	0.008	-0.087
-678.208	-145.985	0.137	0.012
-677.193	-136.097	-0.205	0.024
-676.178	-147.502	0.150	0.013
-675.164	784.750	-0.057	-0.155
-674.149	724.432	0.028	-0.073
-673.135	-5.439	0.093	-0.064
-672.120	-83.239	0.147	0.047
-671.105	800.000	0.038	-0.108
-670.091	-200.000	0.003	0.077
-669.076	590.096	0.122	-0.300
-668.062	-200.000	0.061	-0.360
-667.047	-6.977	0.046	-0.031
-666.032	-41.623	-0.078	-0.040
-665.018	-200.000	0.009	-0.267
-664.003	-200.000	0.089	0.401
-662.989	-65.333	0.075	-0.030
-661.974	156.467	-0.118	0.162
-660.959	-26.686	0.247	-0.144
-659.945	-200.000	0.000	0.024
-658.930	-109.785	-0.101	-0.021
-657.916	-62.184	0.182	0.076
-656.901	42.199	0.155	-0.140
-655.886	233.155	-0.147	-0.241
-654.872	583.241	-0.066	-0.161
-653.857	285.218	-0.092	0.165
-652.843	800.000	0.040	0.139
-651.828	178.131	-0.209	-0.304
-650.814	-51.748	-0.200	0.093
-649.799	-139.538	0.198	0.021
-648.784	-200.000	-0.033	0.489
-647.770	-65.499	-0.385	0.154
-646.755	43.944	-0.156	-0.143
-645.741	127.367	-0.277	-0.350
-644.726	280.528	0.233	-0.416
-643.711	-16.831	0.184	-0.116
-642.697	-123.066	0.218	-0.035
-641.682	800.000	0.054	0.200
-640.668	800.000	0.038	0.138
-639.653	-138.274	-0.197	0.022
-638.638	-159.839	0.115	-0.006
-637.624	-66.547	-0.096	0.038
-636.609	-138.894	0.194	0.021
-635.595	45.048	0.102	-0.093
-634.580	-6.622	0.222	-0.151
-633.565	-134.907	0.186	-0.022
-632.551	-119.893	-0.154	0.026
-631.536	3.534	-0.284	-0.206
-630.522	-200.000	-0.030	0.169
-629.507	25.550	-0.183	-0.152
-628.492	9.212	-0.100	-0.075
-627.478	800.000	-0.079	0.220
-626.463	22.731	-0.165	-0.134
-625.449	185.304	-0.076	0.113
-624.434	-137.612	0.149	0.017
-623.419	-200.000	-0.034	0.170
-622.405	-91.220	0.086	0.025
-621.390	-200.000	0.003	0.127
-620.376	-127.658	-0.072	0.010
-619.361	73.936	-0.123	-0.128
-618.346	-62.636	-0.073	-0.030
-617.332	-200.000	0.020	-0.149
-616.317	-89.362	-0.021	0.006
-615.303	-57.050	-0.055	0.024
-614.288	19.064	-0.232	0.185
-613.273	-136.352	0.058	0.007
-612.259	207.221	-0.261	-0.405
-611.244	149.092	0.125	-0.168
-610.230	19.207	-0.144	0.115
-609.215	187.061	-0.180	-0.267
-608.201	-65.318	-0.226	0.090
-607.186	-127.303	0.140	-0.020
-606.171	-41.889	-0.276	-0.141
-605.157	-200.000	0.007	0.258
-604.142	-200.000	-0.024	-0.149
-603.128	-200.000	-0.024	-0.150
-602.113	-91.026	0.381	-0.109
-601.098	-105.396	0.352	0.080
-600.084	-200.000	-0.037	-0.261
-599.069	-200.000	-0.037	0.169
-598.055	44.310	-0.060	0.054
-597.040	-104.357	0.244	0.056
-596.025	78.916	0.151	-0.160
-595.011	-200.000	-0.069	-0.345
-593.996	-82.127	0.093	0.030
-592.982	66.340	-0.131	0.132
-591.967	292.426	-0.045	0.082
-590.952	-200.000	-0.011	0.083
-589.938	38.346	0.039	0.034
-588.923	-118.611	-0.136	-0.024
-587.909	565.467	-0.041	0.099
-586.894	35.062	-0.222	0.194
-585.879	800.000	-0.055	0.201
-584.865	-200.000	0.018	0.295
-583.850	-200.000	0.002	0.081
-582.836	-116.039	0.113	0.021
-581.821	-131.530	-0.335	-0.044
-580.806	-35.655	-0.080	0.043
-579.792	-69.853	-0.110	-0.042
-578.777	-200.000	0.003	-0.078
-577.763	-200.000	0.032	0.234
-576.748	75.523	0.290	-0.304
-575.733	-200.000	-0.010	-0.046
-574.719	-28.731	-0.124	0.071
-573.704	-12.780	0.163	0.106
-572.690	800.000	-0.058	-0.177
-571.675	152.201	-0.138	0.187
-570.661	-160.602	-0.165	-0.009
-569.646	-200.000	-0.010	-0.076
-568.631	94.590	0.039	0.044
-567.617	-60.644	0.273	0.115
-566.602	-43.683	0.144	-0.072
-565.588	-159.405	-0.322	0.018
-564.573	-68.695	-0.215	0.083
-563.558	-125.441	0.130	-0.020
-562.544	55.508	-0.175	-0.168
-561.529	-200.000	0.025	-0.240
-560.515	-128.063	-0.489	-0.070
-559.500	179.015	0.191	0.277
-558.485	-200.000	0.013	0.275
-557.471	280.065	0.084	0.149
-556.456	-200.000	-0.012	0.127
-555.442	6.653	0.259	-0.192
-554.427	-147.947	0.131	0.011
-553.412	24.622	-0.197	-0.162
-552.398	-101.334	0.351	-0.085
-551.383	18.699	0.160	0.127
-550.369	65.916	0.183	0.184
-549.354	319.813	0.065	0.123
-548.339	-43.621	0.163	-0.081
-547.325	31.476	-0.368	0.314
-546.310	-23.860	-0.263	0.156
-545.296	120.882	-0.162	-0.199
-544.281	-61.999	0.143	0.059
-543.266	1.223	0.225	-0.161
-542.252	-200.000	0.043	-0.216
-541.237	-200.000	-0.008	0.040
-540.223	-200.000	0.012	0.084
-539.208	-200.000	0.001	0.168
-538.193	-200.000	0.042	-0.258
-537.179	438.483	-0.059	-0.128
-536.164	118.332	-0.036	-0.044
-535.150	800.000	-0.033	-0.098
-534.135	-122.602	0.223	-0.036
-533.121	21.225	-0.120	-0.096
-532.106	-40.096	-0.375	-0.194
-531.091	-200.000	-0.028	-0.154
-530.077	-33.792	-0.185	-0.101
-529.062	-200.000	-0.026	0.404
-528.048	800.000	-0.105	-0.299
-527.033	103.584	0.208	-0.242
-526.018	-99.704	0.242	0.060
-525.004	153.767	-0.100	0.136
-523.989	-200.000	-0.038	0.214
-522.975	286.068	-0.099	-0.178
-521.960	-124.334	0.170	-0.026
-520.945	800.000	-0.055	0.186
-519.931	317.400	-0.224	-0.419
-518.916	-200.000	-0.030	0.224
-517.902	-200.000	0.070	-0.424
-516.887	94.609	0.145	-0.164
-515.872	-108.601	-0.163	0.035
-514.858	107.432	0.075	0.088
-513.843	-200.000	0.026	0.134
-512.829	-199.550	0.189	-0.001
-511.814	-162.826	-0.203	0.010
-510.799	-51.306	-0.316	-0.146
-509.785	-154.930	0.199	-0.013
-508.770	57.729	0.157	0.153
-507.756	-200.000	0.024	0.264
-506.741	800.000	-0.068	-0.206
-505.726	-176.244	0.039	-0.001
-504.712	-127.660	0.272	0.039
-503.697	8.695	0.253	0.189
-502.683	210.509	-0.116	0.181
-501.668	171.254	-0.078	-0.111
-500.653	-76.954	-0.055	-0.019
-499.639	800.000	0.075	0.238
-498.624	800.000	-0.047	-0.188
-497.610	475.914	0.009	0.020
-496.595	-101.827	0.258	-0.062
-495.581	-127.058	0.220	0.032
-494.566	-71.680	0.385	0.142
-493.551	-15.370	0.315	0.199
-492.537	800.000	-0.035	-0.141
-491.522	-78.889	0.558	0.188
-490.508	-67.623	0.176	0.068
-489.493	-200.000	-0.044	0.203
-488.478	35.882	-0.087	-0.076
-487.464	-35.601	0.266	0.143
-486.449	86.791	-0.051	-0.056
-485.435	387.071	0.115	0.236
-484.420	-200.000	0.005	0.182
-483.405	18.141	-0.121	0.096
-482.391	-200.000	0.017	0.126
-481.376	-99.357	-0.045	0.011
-480.362	-72.005	0.289	0.106
-479.347	54.140	0.200	-0.191
-478.332	-10.673	-0.098	-0.064
-477.318	-3.391	-0.202	-0.139
-476.303	-200.000	0.003	-0.086
-475.289	-200.000	0.036	0.284
-474.274	-64.625	0.377	0.151
-473.259	155.219	0.192	-0.262
-472.245	800.000	-0.057	-0.237
-471.230	-200.000	-0.010	0.094
-470.216	409.236	0.135	0.284
-469.201	-115.078	-0.084	-0.016
-468.186	49.693	0.122	0.114
-467.172	-188.297	-0.074	0.001
-466.157	-200.000	0.062	0.476
-465.143	-64.903	-0.280	-0.112
-464.128	-67.798	0.162	0.063
-463.113	-87.915	-0.053	0.016
-462.099	701.749	0.100	-0.260
-461.084	13.432	0.106	0.081
-460.070	-200.000	-0.024	0.178
-459.055	188.513	0.021	0.031
-458.040	-167.395	-0.054	0.002
-457.026	132.697	0.096	-0.123
-456.011	-102.997	-0.148	0.035
-454.997	188.630	-0.114	0.169
-453.982	-200.000	-0.011	-0.140
-452.968	190.175	-0.181	0.268
-451.953	50.712	-0.289	-0.271
-450.938	545.609	-0.102	0.242
-449.924	-21.460	-0.228	0.137
-448.909	-11.193	0.040	0.026
-447.895	712.535	-0.044	-0.114
-446.880	-200.000	-0.032	0.195
-445.865	94.771	0.181	-0.203
-444.851	-193.636	-0.286	0.002
-443.836	191.393	-0.110	0.163
-442.822	51.317	-0.086	-0.081
-441.807	188.204	-0.089	0.132
-440.792	-71.743	-0.036	-0.013
-439.778	201.054	0.031	0.048
-438.763	-58.409	-0.220	-0.094
-437.749	35.887	-0.248	0.216
-436.734	-137.715	-0.200	-0.022
-435.719	10.906	-0.261	0.197
-434.705	48.721	-0.028	-0.026
-433.690	92.825	-0.182	-0.203
-432.676	231.400	0.066	0.106
-431.661	126.196	-0.252	0.315
-430.646	507.038	0.025	0.058
-429.632	21.329	-0.358	-0.287
-428.617	236.724	-0.076	0.124
-427.603	79.955	-0.065	0.069
-426.588	-10.625	0.228	0.149
-425.573	-200.000	0.014	0.372
-424.559	-200.000	-0.005	0.309
-423.544	800.000	0.122	-0.395
-422.530	800.000	0.068	0.193
-421.515	800.000	-0.052	0.154
-420.500	-20.820	0.180	0.109
-419.486	157.142	-0.196	0.268
-418.471	-190.347	-0.017	0.000
-417.457	800.000	-0.017	-0.061
-416.442	-45.059	-0.328	0.161
-415.428	576.438	-0.069	-0.166
-414.413	110.473	0.023	0.027
-413.398	800.000	-0.113	-0.334
-412.384	-200.000	-0.019	-0.140
-411.369	168.026	0.118	0.166
-410.355	-200.000	-0.006	0.073
-409.340	106.092	0.125	0.146
-408.325	-200.000	0.016	0.336
-407.311	-112.119	-0.434	-0.086
-406.296	800.000	0.099	0.296
-405.282	-200.000	-0.052	0.250
-404.267	-29.898	0.069	0.039
-403.252	375.583	-0.029	-0.059
-402.238	-200.000	-0.059	-0.266
-401.223	143.239	0.180	0.236
-400.209	-200.000	-0.033	0.193
-399.194	-200.000	-0.013	0.144
-398.179	35.536	-0.008	0.007
-397.165	-157.738	0.034	-0.002
-396.150	343.296	0.116	0.223
-395.136	37.975	0.283	-0.248
-394.121	205.945	-0.391	-0.600
-393.106	800.000	-0.019	-0.074
-392.092	-98.002	-0.136	-0.035
-391.077	401.847	0.082	-0.170
-390.063	574.057	0.208	-0.500
-389.048	-94.689	0.111	-0.030
-388.033	-92.340	-0.137	0.038
-387.019	121.851	-0.262	0.322
-386.004	247.372	0.096	0.159
-384.990	-118.589	0.135	0.024
-383.975	800.000	-0.039	0.157
-382.960	800.000	-0.006	0.020
-381.946	152.910	0.171	-0.231
-380.931	108.338	0.123	-0.145
-379.917	520.091	0.040	0.093
-378.902	32.661	0.304	0.259
-377.888	-200.000	-0.008	0.045
-376.873	-200.000	0.014	-0.153
-375.858	-91.159	0.186	0.053
-374.844	-5.243	-0.166	-0.112
-373.829	216.896	-0.101	-0.159
-372.815	-20.638	0.036	-0.022
-371.800	-160.652	0.209	-0.011
-370.785	-200.000	0.034	0.165
-369.771	61.667	0.033	0.032
-368.756	287.175	0.149	-0.266
-367.742	800.000	-0.055	-0.167
-366.727	-200.000	0.012	0.247
-365.712	800.000	-0.106	0.357
-364.698	-200.000	-0.034	-0.386
-363.683	51.911	0.231	-0.217
-362.669	-107.472	0.267	0.058
-361.654	488.971	-0.047	0.105
-360.639	800.000	-0.003	-0.012
-359.625	-200.000	0.023	0.331
-358.610	800.000	0.156	0.508
-357.596	-14.080	0.218	-0.138
-356.581	279.221	-0.235	-0.412
-355.566	-67.582	0.145	-0.056
-354.552	24.472	-0.160	-0.130
-353.537	128.378	0.036	0.045
-352.523	69.405	0.208	0.211
-351.508	-27.972	0.212	0.121
-350.493	179.299	0.166	0.239
-349.479	130.645	0.366	0.462
-348.464	-63.459	-0.084	-0.034
-347.450	361.843	-0.058	0.114
-346.435	-109.145	-0.165	0.034
-345.420	800.000	0.044	-0.185
-344.406	158.636	-0.148	-0.202
-343.391	-78.480	-0.029	0.010
-342.377	-47.170	-0.094	0.045
-341.362	-86.507	0.151	-0.045
-340.348	800.000	0.078	-0.314
-339.333	-80.642	-0.255	0.083
-338.318	-49.070	0.205	0.097
-337.304	120.470	-0.129	0.157
-336.289	-200.000	-0.007	0.283
-335.275	800.000	-0.109	-0.330
-334.260	220.851	0.058	-0.091
-333.245	-200.000	0.020	0.276
-332.231	-200.000	-0.077	-0.491
-331.216	476.730	0.242	-0.538
-330.202	-1.267	0.123	0.086
-329.187	-62.374	0.129	-0.053
-328.172	-110.329	-0.224	-0.046
-327.158	40.032	0.320	0.283
-326.143	-149.964	-0.088	0.007
-325.129	-200.000	-0.034	-0.188
-324.114	-159.543	0.091	-0.005
-323.099	319.382	0.143	-0.267
-322.085	-12.799	0.268	0.172
-321.070	-120.214	-0.315	-0.053
-320.056	500.706	-0.045	0.103
-319.041	-45.524	-0.121	0.059
-318.026	800.000	-0.074	0.269
-317.012	-200.000	-0.053	-0.348
-315.997	-12.877	0.077	0.050
-314.983	-40.975	-0.026	0.013
-313.968	299.880	0.195	0.353
-312.953	94.393	-0.134	0.150
-311.939	100.505	-0.152	-0.173
-310.924	-171.755	0.270	-0.009
-309.910	-114.809	-0.160	-0.030
-308.895	80.825	0.072	-0.076
-307.880	207.349	-0.127	-0.194
-306.866	800.000	0.063	-0.237
-305.851	-60.741	-0.424	-0.177
-304.837	-36.905	0.314	-0.166
-303.822	386.439	0.053	-0.108
-302.807	555.249	0.061	-0.145
-301.793	138.135	-0.083	0.107
-300.778	-200.000	0.037	0.207
-299.764	469.749	-0.049	0.109
-298.749	162.385	0.119	-0.164
-297.735	219.469	0.197	-0.310
-296.720	-60.403	-0.290	-0.121
-295.705	62.848	-0.141	-0.139
-294.691	-200.000	-0.028	-0.291
-293.676	-42.405	0.287	-0.144
-292.662	-115.057	-0.133	0.025
-291.647	356.075	0.062	0.122
-290.632	-200.000	-0.015	-0.101
-289.618	800.000	-0.085	0.232
-288.603	-146.647	0.071	-0.006
-287.589	369.607	-0.035	0.069
-286.574	280.208	0.176	-0.309
-285.559	283.832	-0.192	-0.339
-284.545	-5.702	-0.052	0.035
-283.530	-65.242	-0.227	0.090
-282.516	800.000	0.058	-0.215
-281.501	-142.598	0.198	-0.019
-280.486	719.360	-0.107	0.278
-279.472	-181.022	-0.523	-0.010
-278.457	270.843	0.095	0.164
-277.443	-64.351	0.341	-0.136
-276.428	-200.000	0.013	-0.263
-275.413	-42.848	-0.217	0.108
-274.399	-200.000	0.008	0.052
-273.384	-200.000	0.011	0.222
-272.370	98.562	-0.221	0.250
-271.355	200.416	0.103	0.156
-270.340	800.000	0.080	-0.340
-269.326	-200.000	0.025	0.164
-268.311	355.867	0.094	-0.184
-267.297	-32.695	-0.060	0.033
-266.282	-16.769	0.251	-0.156
-265.267	-200.000	0.007	0.078
-264.253	-71.242	0.179	0.066
-263.238	800.000	-0.039	-0.113
-262.224	-109.451	0.216	-0.045
-261.209	-51.322	-0.155	0.071
-260.195	-81.369	0.013	0.004
-259.180	-200.000	-0.030	0.497
-258.165	-200.000	-0.022	0.207
-257.151	800.000	-0.155	-0.422
-256.136	-63.820	-0.103	-0.041
-255.122	584.071	0.039	-0.095
-254.107	-126.022	-0.205	0.030
-253.092	-114.300	0.374	-0.071
-252.078	542.392	0.032	0.075
-251.063	-90.762	0.274	-0.078
-250.049	53.465	0.097	-0.091
-249.034	-91.719	-0.036	0.010
-248.019	147.534	-0.184	-0.244
-247.005	273.212	-0.122	0.212
-245.990	-200.000	0.024	-0.193
-244.976	800.000	-0.015	0.062
-243.961	47.274	0.042	-0.039
-242.946	-44.845	-0.223	0.109
-241.932	339.356	-0.076	0.146
-240.917	267.903	0.100	-0.171
-239.903	-200.000	-0.008	-0.082
-238.888	-97.242	0.348	0.089
-237.873	-79.964	-0.244	-0.080
-236.859	-55.694	0.239	0.105
-235.844	108.435	-0.034	0.039
-234.830	268.064	0.066	-0.114
-233.815	-136.431	0.398	-0.045
-232.800	358.101	0.114	-0.224
-231.786	415.225	-0.138	-0.289
-230.771	-2.124	-0.287	-0.198
-229.757	-43.053	0.408	-0.203
-228.742	-200.000	-0.001	0.130
-227.727	-8.839	0.150	-0.098
-226.713	800.000	-0.069	0.201
-225.698	-147.594	0.139	0.011
-224.684	-200.000	0.035	0.206
-223.669	800.000	-0.049	-0.183
-222.655	-38.701	0.072	-0.037
-221.640	-52.655	-0.356	0.161
-220.625	-139.478	0.091	-0.010
-219.611	800.000	0.087	-0.288
-218.596	-127.326	-0.222	0.032
-217.582	-200.000	0.014	-0.099
-216.567	160.685	0.229	-0.313
-215.552	-38.493	-0.186	0.096
-214.538	-102.193	-0.022	-0.005
-213.523	-15.188	0.136	0.085
-212.509	-182.996	-0.361	-0.006
-211.494	-115.223	0.263	0.049
-210.479	127.854	0.219	0.273
-209.465	46.755	-0.417	0.380
-208.450	731.133	0.020	-0.053
-207.436	-149.353	-0.280	0.022
-206.421	-200.000	0.049	-0.262
-205.406	170.635	-0.260	0.364
-204.392	-52.342	-0.174	-0.079
-203.377	-200.000	-0.037	0.244
-202.363	72.113	-0.224	-0.229
-201.348	46.634	-0.162	-0.148
-200.333	800.000	-0.071	0.230
-199.319	241.750	-0.176	0.289
-198.304	-53.603	-0.121	0.054
-197.290	232.805	-0.106	0.170
-196.275	477.790	0.022	-0.048
-195.260	-138.874	-0.187	0.020
-194.246	-114.897	0.159	0.030
-193.231	-200.000	-0.014	-0.295
-192.217	-21.713	-0.130	-0.077
-191.202	255.798	0.161	-0.271
-190.187	279.693	0.239	-0.418
-189.173	307.724	-0.138	-0.252
-188.158	72.201	0.134	0.136
-187.144	-75.704	-0.084	-0.029
-186.129	-126.111	0.285	0.042
-185.114	800.000	-0.075	0.245
-184.100	-200.000	-0.026	-0.138
-183.085	-137.037	-0.374	0.042
-182.071	7.361	0.054	-0.040
-181.056	-115.691	-0.295	0.054
-180.042	-49.391	0.320	-0.149
-179.027	-200.000	-0.010	-0.279
-178.012	106.125	-0.181	-0.209
-176.998	99.197	0.129	-0.146
-175.983	-200.000	-0.045	-0.251
-174.969	226.622	0.065	0.104
-173.954	-64.565	0.139	-0.055
-172.939	127.600	0.189	0.234
-171.925	-63.775	0.102	-0.041
-170.910	721.798	-0.052	0.134
-169.896	-105.701	0.137	-0.030
-168.881	22.499	0.095	-0.076
-167.866	-20.182	-0.081	0.049
-166.852	-42.993	0.239	0.118
-165.837	79.289	0.118	0.123
-164.823	-37.715	-0.152	-0.079
-163.808	60.405	0.242	-0.234
-162.793	800.000	-0.137	-0.371
-161.779	-109.086	0.277	-0.058
-160.764	-200.000	0.027	0.276
-159.750	-7.722	0.175	0.116
-158.735	800.000	0.109	0.310
-157.720	800.000	-0.193	-0.582
-156.706	2.682	-0.141	-0.100
-155.691	-56.366	-0.403	0.175
-154.677	-200.000	-0.011	0.054
-153.662	-114.377	-0.164	-0.031
-152.647	-104.998	0.216	0.048
-151.633	-200.000	-0.013	0.214
-150.618	20.233	0.224	0.177
-149.604	-33.366	0.041	0.022
-148.589	-39.209	0.152	0.078
-147.574	30.533	-0.165	0.138
-146.560	-144.422	0.162	-0.015
-145.545	-200.000	-0.020	0.109
-144.531	262.503	0.020	0.034
-143.516	-6.511	0.107	0.071
-142.502	800.000	0.101	0.393
-141.487	-48.638	0.219	0.103
-140.472	-200.000	-0.074	-0.344
-139.458	89.465	0.225	0.245
-138.443	62.111	-0.141	-0.137
-137.429	-76.749	-0.410	-0.140
-136.414	-200.000	0.003	0.067
-135.399	116.504	-0.031	-0.037
-134.385	-200.000	-0.007	0.226
-133.370	-200.000	-0.011	0.220
-132.356	34.638	-0.284	-0.242
-131.341	168.753	-0.115	-0.160
-130.326	-200.000	-0.086	-0.492
-129.312	-92.811	-0.126	0.034
-128.297	81.416	-0.252	0.265
-127.283	-200.000	-0.026	0.137
-126.268	-200.000	-0.004	-0.399
-125.253	-200.000	0.002	-0.153
-124.239	-164.525	-0.106	-0.005
-123.224	410.615	-0.103	0.213
