DTS Sentinel unit serial number:	SN413079Multiplexer serial number:	ORYXHardware model number:	OX4-SRSoftware version number:	ORYX F/W v4.00 Oryx Data Collector v3.7.2.0data status	okinstallation	princeton_trtdifferential loss correction	single-endedforward channel	channel 3reverse channel	N/Adate	2019/09/15time	17:16:35forward acquisition time	60.00reverse acquisition time	0.00gamma	496.2192k internal	0.2286k external	0.2286temperature offset calibration	0.9930default loss term (dB/km)	0.3790temperature slope calibration	1.0000multiplexer offset coefficient	1.0000multiplexer slope coefficient	1.0000fibre end	0.00T internal ref (°C)	44.69T ext. ref 1 (°C)	6.01T ext. ref 2 (°C)	40.15length (m)	temperature (°C)	Stokes	anti-Stokes-747.200	-200.000	-0.066	0.502
-746.185	250.090	0.098	0.172
-745.171	216.096	0.015	0.025
-744.156	800.000	0.080	0.250
-743.142	-20.734	-0.210	-0.132
-742.127	-200.000	0.025	0.494
-741.112	-98.546	0.099	-0.026
-740.098	800.000	-0.037	0.133
-739.083	-200.000	-0.039	0.186
-738.069	140.018	-0.255	0.345
-737.054	-72.803	-0.307	-0.116
-736.039	-200.000	-0.070	0.531
-735.025	298.789	-0.126	0.237
-734.010	65.677	-0.170	-0.177
-732.996	151.568	-0.122	0.170
-731.981	217.715	-0.193	0.316
-730.966	198.817	0.189	0.297
-729.952	-161.906	-0.351	0.018
-728.937	-110.903	-0.240	0.051
-727.923	-200.000	-0.002	-0.191
-726.908	-91.321	0.225	0.066
-725.894	-75.932	0.248	-0.090
-724.879	-200.000	-0.059	-0.000
-723.864	-120.390	-0.191	-0.033
-722.850	346.772	-0.203	-0.409
-721.835	-47.433	0.358	-0.179
-720.821	-104.047	-0.266	-0.064
-719.806	102.386	-0.175	0.209
-718.791	-200.000	0.010	-0.051
-717.777	-20.332	0.222	-0.140
-716.762	-130.506	-0.194	-0.027
-715.748	-63.820	0.196	-0.082
-714.733	176.079	0.098	0.145
-713.718	495.957	0.087	-0.205
-712.704	-194.502	-0.210	0.002
-711.689	127.687	0.029	0.038
-710.675	-200.000	0.008	0.085
-709.660	171.494	-0.100	-0.147
-708.645	319.831	0.125	-0.243
-707.631	-138.404	0.447	0.050
-706.616	211.460	0.038	-0.062
-705.602	369.070	0.151	-0.314
-704.587	16.466	0.205	-0.166
-703.572	-4.258	-0.168	-0.119
-702.558	-35.596	-0.327	0.182
-701.543	298.838	0.141	-0.265
-700.529	170.017	-0.107	-0.157
-699.514	-200.000	0.009	-0.042
-698.499	-6.293	-0.103	-0.072
-697.485	309.385	0.100	-0.191
-696.470	650.683	0.030	-0.079
-695.456	800.000	-0.093	0.306
-694.441	18.351	0.289	-0.237
-693.426	258.054	-0.147	0.259
-692.412	-97.174	-0.049	-0.013
-691.397	-12.352	0.105	-0.070
-690.383	-200.000	-0.047	0.213
-689.368	24.956	0.254	-0.215
-688.354	-79.727	0.043	-0.015
-687.339	-78.670	-0.266	0.093
-686.324	127.848	0.041	-0.053
-685.310	-46.180	-0.217	-0.110
-684.295	20.473	-0.091	0.075
-683.281	-63.735	0.404	0.169
-682.266	-200.000	-0.004	-0.171
-681.251	-115.941	-0.169	0.032
-680.237	595.904	0.119	-0.302
-679.222	800.000	0.023	-0.100
-678.208	-20.530	-0.237	0.149
-677.193	-85.741	-0.119	0.038
-676.178	-119.766	-0.171	-0.030
-675.164	133.819	0.077	-0.102
-674.149	-142.631	0.235	-0.024
-673.135	119.882	-0.091	-0.115
-672.120	-200.000	0.010	0.276
-671.105	-200.000	0.019	-0.105
-670.091	133.292	-0.175	-0.232
-669.076	800.000	0.093	-0.392
-668.062	-56.654	-0.354	-0.160
-667.047	-200.000	-0.039	0.360
-666.032	264.544	0.065	-0.116
-665.018	183.312	0.127	-0.193
-664.003	462.905	0.149	-0.341
-662.989	-108.271	0.189	-0.042
-661.974	75.908	-0.099	0.107
-660.959	-134.527	-0.453	0.057
-659.945	-93.759	0.106	0.030
-658.930	800.000	0.098	0.305
-657.916	-34.902	0.100	-0.056
-656.901	157.792	0.227	0.321
-655.886	800.000	-0.026	-0.093
-654.872	222.817	0.175	-0.288
-653.857	253.054	-0.046	0.080
-652.843	75.453	-0.089	-0.096
-651.828	-98.089	-0.228	-0.060
-650.814	-30.500	-0.239	-0.139
-649.799	-37.545	0.129	0.071
-648.784	362.237	0.162	-0.332
-647.770	-87.098	0.060	0.019
-646.755	-113.586	0.200	-0.040
-645.741	-158.709	-0.137	-0.008
-644.726	-200.000	0.026	0.144
-643.711	-98.206	0.022	-0.006
-642.697	-200.000	-0.003	-0.278
-641.682	-200.000	0.007	-0.047
-640.668	800.000	-0.023	0.095
-639.653	-95.592	0.116	-0.032
-638.638	-200.000	0.056	0.296
-637.624	-113.096	-0.212	-0.043
-636.609	-98.410	-0.070	-0.018
-635.595	-71.907	-0.233	-0.089
-634.580	-200.000	0.038	0.220
-633.565	-28.033	0.263	-0.156
-632.551	800.000	-0.076	-0.224
-631.536	-18.787	0.199	-0.127
-630.522	-105.173	0.192	0.045
-629.507	-91.656	0.366	-0.106
-628.492	-200.000	-0.008	0.368
-627.478	94.401	-0.265	0.307
-626.463	187.172	-0.145	-0.220
-625.449	-63.840	-0.052	0.022
-624.434	-162.687	-0.219	0.011
-623.419	29.004	-0.199	0.173
-622.405	-139.777	-0.276	-0.030
-621.390	233.374	-0.125	-0.209
-620.376	800.000	-0.054	-0.211
-619.361	40.027	-0.048	-0.044
-618.346	173.688	0.074	-0.110
-617.332	-0.928	0.152	0.110
-616.317	800.000	-0.085	0.292
-615.303	219.695	0.180	-0.294
-614.288	800.000	-0.013	0.041
-613.273	5.354	-0.059	0.044
-612.259	-200.000	-0.015	0.445
-611.244	84.398	0.136	-0.152
-610.230	-189.332	0.208	0.002
-609.215	-106.191	0.175	0.040
-608.201	18.659	0.218	-0.178
-607.186	-8.273	-0.262	0.180
-606.171	-122.000	-0.242	0.041
-605.157	-114.982	0.415	-0.081
-604.142	307.469	0.030	-0.057
-603.128	-47.636	0.285	0.141
-602.113	271.442	0.100	-0.180
-601.098	-46.238	0.280	-0.141
-600.084	52.675	-0.086	0.084
-599.069	-200.000	-0.001	0.297
-598.055	-30.972	-0.105	0.061
-597.040	-200.000	-0.057	0.338
-596.025	188.079	-0.122	0.186
-595.011	142.712	0.133	-0.180
-593.996	-130.657	-0.173	0.024
-592.982	800.000	0.024	0.085
-591.967	171.564	0.128	-0.188
-590.952	15.022	0.175	0.139
-589.938	667.973	-0.108	0.285
-588.923	199.930	-0.048	0.076
-587.909	22.369	0.093	-0.077
-586.894	17.748	0.177	0.143
-585.879	-88.199	-0.161	-0.049
-584.865	-136.216	0.131	-0.016
-583.850	-144.993	-0.291	0.027
-582.836	100.137	0.042	-0.050
-581.821	-200.000	0.026	-0.134
-580.806	-200.000	-0.014	0.227
-579.792	-121.730	0.230	-0.039
-578.777	-68.833	0.330	0.130
-577.763	87.396	-0.152	0.172
-576.748	-149.406	0.325	0.026
-575.733	-42.703	-0.167	0.086
-574.719	527.044	-0.121	-0.291
-573.704	-112.874	-0.237	-0.048
-572.690	800.000	-0.024	-0.092
-571.675	165.970	0.109	-0.157
-570.661	488.264	-0.092	-0.213
-569.646	800.000	-0.070	0.258
-568.631	676.638	-0.214	0.567
-567.617	201.900	-0.119	0.187
-566.602	-127.422	-0.201	0.030
-565.588	-139.764	-0.076	-0.008
-564.573	-10.924	-0.338	0.228
-563.558	-200.000	-0.046	-0.282
-562.544	-33.022	-0.377	-0.213
-561.529	800.000	0.067	-0.216
-560.515	35.107	-0.209	0.187
-559.500	222.743	0.144	0.236
-558.485	-124.368	-0.508	-0.081
-557.471	-200.000	0.005	0.307
-556.456	-174.768	-0.204	0.006
-555.442	-173.233	-0.273	-0.008
-554.427	64.086	0.095	0.097
-553.412	-104.342	0.219	-0.052
-552.398	-127.194	-0.115	-0.017
-551.383	-46.320	0.251	-0.125
-550.369	33.503	-0.167	-0.148
-549.354	800.000	-0.045	-0.151
-548.339	-173.605	0.158	-0.005
-547.325	-143.426	0.068	-0.007
-546.310	-200.000	-0.015	-0.161
-545.296	-111.073	-0.185	-0.039
-544.281	-53.578	-0.316	0.147
-543.266	-44.024	0.174	-0.089
-542.252	113.931	0.094	-0.116
-541.237	-141.232	-0.501	0.052
-540.223	-5.057	0.333	0.234
-539.208	34.704	-0.280	-0.249
-538.193	-110.077	-0.174	0.037
-537.179	-78.933	-0.087	-0.030
-536.164	-66.126	-0.153	0.062
-535.150	124.331	0.176	-0.226
-534.135	48.113	-0.240	0.229
-533.121	646.836	-0.038	-0.099
-532.106	-147.598	-0.134	-0.011
-531.091	-131.435	0.372	-0.050
-530.077	800.000	-0.027	0.118
-529.062	-123.399	0.006	-0.001
-528.048	800.000	-0.088	-0.277
-527.033	800.000	-0.043	-0.133
-526.018	416.684	0.079	-0.172
-525.004	-200.000	-0.015	-0.212
-523.989	196.529	-0.303	-0.469
-522.975	-200.000	0.036	-0.344
-521.960	-200.000	-0.024	0.140
-520.945	73.323	0.220	0.235
-519.931	800.000	-0.034	0.110
-518.916	381.773	0.111	0.232
-517.902	79.129	0.041	0.045
-516.887	294.021	-0.093	-0.174
-515.872	235.897	0.159	0.267
-514.858	-90.177	-0.176	0.052
-513.843	250.419	-0.088	0.153
-512.829	14.920	-0.182	0.145
-511.814	187.635	0.133	-0.203
-510.799	-106.461	0.070	-0.016
-509.785	-200.000	0.002	0.156
-508.770	-110.280	-0.238	0.050
-507.756	478.962	-0.071	-0.163
-506.741	66.205	-0.032	0.033
-505.726	290.962	-0.059	-0.109
-504.712	-82.864	0.067	0.022
-503.697	20.566	0.110	-0.090
-502.683	800.000	-0.073	-0.267
-501.668	-124.054	-0.172	0.027
-500.653	-42.413	0.066	0.034
-499.639	800.000	0.020	-0.071
-498.624	-200.000	-0.003	-0.103
-497.610	505.900	0.167	-0.394
-496.595	-115.119	0.132	-0.025
-495.581	38.098	0.186	0.168
-494.566	496.902	0.120	0.280
-493.551	19.582	0.046	0.038
-492.537	112.770	-0.044	0.054
-491.522	-109.597	-0.178	-0.038
-490.508	-200.000	-0.006	-0.050
-489.493	-52.024	0.356	0.168
-488.478	-93.170	0.249	0.070
-487.464	-56.353	0.060	0.027
-486.449	75.485	-0.288	-0.309
-485.435	315.649	0.006	0.011
-484.420	800.000	0.106	-0.366
-483.405	-75.641	-0.217	0.078
-482.391	800.000	0.091	-0.280
-481.376	448.319	-0.144	-0.321
-480.362	205.084	0.086	-0.135
-479.347	-200.000	0.006	0.040
-478.332	214.450	-0.112	-0.180
-477.318	-196.272	0.341	0.002
-476.303	-200.000	0.038	-0.252
-475.289	-200.000	0.033	-0.153
-474.274	356.424	-0.092	0.186
-473.259	544.844	-0.103	-0.249
-472.245	-92.323	0.291	-0.083
-471.230	-96.591	0.309	-0.083
-470.216	457.528	-0.097	0.219
-469.201	704.679	0.117	-0.315
-468.186	-11.291	0.173	0.116
-467.172	42.678	0.232	-0.214
-466.157	89.853	0.227	-0.257
-465.143	-200.000	-0.028	-0.305
-464.128	112.820	0.144	0.177
-463.113	800.000	0.046	-0.138
-462.099	-200.000	0.011	-0.309
-461.084	122.542	0.026	0.033
-460.070	-200.000	-0.015	0.137
-459.055	52.178	-0.097	0.093
-458.040	-51.717	-0.133	-0.063
-457.026	-200.000	-0.040	-0.314
-456.011	-1.858	-0.121	0.087
-454.997	-54.201	0.112	0.052
-453.982	-200.000	-0.035	-0.202
-452.968	614.994	0.071	0.182
-451.953	-117.509	-0.292	0.054
-450.938	308.090	-0.135	-0.256
-449.924	191.476	0.024	0.037
-448.909	800.000	0.028	-0.123
-447.895	20.821	0.243	0.199
-446.880	-75.387	0.479	0.173
-445.865	-87.534	0.175	0.054
-444.851	-67.605	0.173	0.069
-443.836	-38.535	-0.051	-0.027
-442.822	56.540	-0.125	-0.123
-441.807	-144.659	-0.077	-0.007
-440.792	-111.241	-0.227	0.047
-439.778	-200.000	-0.047	-0.226
-438.763	396.406	-0.210	0.445
-437.749	40.880	-0.164	0.150
-436.734	-2.074	0.192	0.137
-435.719	-12.851	0.081	0.054
-434.705	-52.251	-0.147	0.069
-433.690	-67.711	0.144	0.057
-432.676	321.225	0.020	0.039
-431.661	471.869	-0.046	0.106
-430.646	180.491	0.077	-0.114
-429.632	33.997	0.205	-0.181
-428.617	-176.641	0.129	0.003
-427.603	800.000	-0.003	-0.010
-426.588	292.982	0.088	0.163
-425.573	182.901	-0.015	0.022
-424.559	61.432	-0.159	0.160
-423.544	-26.706	0.094	-0.056
-422.530	-91.086	-0.294	0.086
-421.515	27.335	-0.237	0.202
-420.500	367.125	-0.032	-0.066
-419.486	-81.440	0.037	0.012
-418.471	22.545	0.072	0.059
-417.457	41.634	0.156	0.143
-416.442	103.467	-0.083	0.098
-415.428	53.560	0.143	0.139
-414.413	153.629	-0.133	-0.185
-413.398	-132.991	-0.132	0.017
-412.384	-200.000	-0.017	-0.141
-411.369	-115.234	-0.170	0.033
-410.355	800.000	-0.102	0.366
-409.340	216.861	-0.125	0.202
-408.325	5.223	0.435	0.325
-407.311	-2.706	-0.221	0.156
-406.296	-200.000	-0.030	-0.207
-405.282	-161.839	0.115	0.006
-404.267	111.322	0.037	-0.045
-403.252	-0.523	-0.186	0.134
-402.238	426.056	0.062	-0.136
-401.223	-200.000	0.009	0.301
-400.209	346.381	-0.081	-0.162
-399.194	330.330	0.024	0.046
-398.179	-146.143	0.154	0.014
-397.165	-200.000	-0.050	0.458
-396.150	49.221	0.116	0.110
-395.136	237.767	-0.084	-0.141
-394.121	-123.990	0.163	0.026
-393.106	-200.000	-0.048	-0.278
-392.092	169.499	0.193	-0.280
-391.077	800.000	0.053	-0.166
-390.063	-61.467	0.219	0.093
-389.048	-200.000	0.009	-0.103
-388.033	-200.000	0.010	-0.070
-387.019	110.083	0.117	0.142
-386.004	731.289	0.093	-0.252
-384.990	336.959	0.159	0.313
-383.975	691.786	0.114	0.304
-382.960	188.977	-0.114	-0.172
-381.946	800.000	0.014	-0.056
-380.931	-175.931	-0.180	-0.005
-379.917	175.573	-0.120	0.175
-378.902	-86.883	-0.191	-0.059
-377.888	-77.873	-0.313	-0.109
-376.873	102.175	-0.119	-0.140
-375.858	-200.000	0.020	-0.222
-374.844	-111.766	0.117	0.024
-373.829	11.231	-0.105	-0.082
-372.815	-34.230	0.106	0.059
-371.800	-190.610	-0.322	0.003
-370.785	255.917	0.239	0.415
-369.771	79.916	0.061	0.067
-368.756	-200.000	-0.029	-0.243
-367.742	-33.855	0.034	0.019
-366.727	420.841	-0.128	-0.278
-365.712	-200.000	-0.000	0.147
-364.698	51.360	-0.188	-0.181
-363.683	-131.144	-0.196	-0.026
-362.669	410.893	-0.139	0.298
-361.654	-200.000	-0.016	0.096
-360.639	800.000	0.049	0.164
-359.625	473.910	-0.007	-0.016
-358.610	-70.587	-0.125	-0.048
-357.596	-67.448	-0.130	0.052
-356.581	800.000	-0.073	-0.277
-355.566	-200.000	-0.045	0.330
-354.552	88.845	-0.218	-0.245
-353.537	7.588	-0.057	-0.043
-352.523	-200.000	-0.021	-0.149
-351.508	-77.211	-0.374	0.132
-350.493	800.000	0.100	0.353
-349.479	-106.495	-0.305	0.069
-348.464	128.565	-0.067	-0.087
-347.450	-131.465	0.246	-0.033
-346.435	-60.430	0.235	0.101
-345.420	114.582	0.034	-0.042
-344.406	-139.870	-0.156	-0.017
-343.391	377.696	-0.108	-0.223
-342.377	30.660	-0.170	-0.147
-341.362	89.971	0.160	-0.181
-340.348	35.475	-0.180	-0.160
-339.333	-200.000	-0.004	0.019
-338.318	-68.053	0.207	-0.081
-337.304	-6.693	0.111	-0.076
-336.289	800.000	0.099	-0.371
-335.275	129.076	0.064	-0.082
-334.260	-170.095	0.111	0.004
-333.245	436.644	0.117	-0.256
-332.231	6.351	0.181	-0.136
-331.216	-139.291	0.155	-0.017
-330.202	-200.000	-0.035	-0.224
-329.187	4.384	-0.140	0.103
-328.172	-200.000	-0.031	0.220
-327.158	800.000	0.034	0.117
-326.143	260.607	-0.058	0.102
-325.129	-82.411	-0.205	-0.067
-324.114	97.822	0.092	-0.107
-323.099	-93.419	-0.317	-0.089
-322.085	800.000	0.112	-0.384
-321.070	-200.000	0.041	-0.212
-320.056	168.103	0.055	-0.079
-319.041	-141.033	-0.234	-0.024
-318.026	205.758	0.134	-0.210
-317.012	12.024	-0.056	-0.043
-315.997	197.981	0.035	0.054
-314.983	800.000	-0.061	-0.213
-313.968	-166.447	0.514	0.022
-312.953	471.031	-0.037	-0.084
-311.939	764.846	0.052	-0.141
-310.924	-98.653	0.220	-0.057
-309.910	-153.108	0.071	0.005
-308.895	60.666	-0.138	0.138
-307.880	-141.887	0.171	0.017
-306.866	-27.261	0.084	-0.050
-305.851	147.489	-0.099	0.135
-304.837	-200.000	0.005	0.135
-303.822	428.784	0.092	0.201
-302.807	-74.964	0.167	0.060
-301.793	116.632	0.144	-0.178
-300.778	291.253	-0.147	-0.270
-299.764	386.887	-0.092	-0.191
-298.749	-29.878	0.026	-0.015
-297.735	170.447	0.190	0.274
-296.720	-83.549	-0.196	0.063
-295.705	21.044	0.222	-0.181
-294.691	-48.133	0.293	-0.143
-293.676	-200.000	-0.026	0.187
-292.662	-200.000	-0.012	0.350
-291.647	800.000	0.118	0.339
-290.632	-129.855	0.217	-0.030
-289.618	-200.000	0.041	0.223
-288.603	-178.083	-0.187	0.004
-287.589	-32.173	-0.214	-0.120
-286.574	-200.000	0.011	-0.098
-285.559	-127.110	-0.141	0.021
-284.545	477.329	0.104	-0.237
-283.530	472.657	0.097	-0.219
-282.516	318.825	0.159	-0.303
-281.501	-11.571	0.217	0.144
-280.486	-81.143	0.376	0.125
-279.472	200.826	-0.082	-0.127
-278.457	-111.413	-0.108	0.022
-277.443	800.000	0.060	-0.182
-276.428	-65.150	-0.204	0.083
-275.413	39.066	-0.248	0.223
-274.399	-79.012	-0.239	0.082
-273.384	625.493	-0.024	-0.061
-272.370	-44.319	0.305	-0.154
-271.355	93.353	-0.162	-0.184
-270.340	352.508	-0.132	-0.263
-269.326	237.240	0.161	-0.269
-268.311	-200.000	0.016	0.090
-267.297	800.000	0.071	-0.202
-266.282	-53.981	0.591	-0.271
-265.267	-200.000	-0.011	0.311
-264.253	392.330	0.061	-0.128
-263.238	-200.000	0.001	0.047
-262.224	-80.728	0.245	-0.082
-261.209	-12.636	0.045	0.030
-260.195	148.901	0.167	0.227
-259.180	-157.583	0.365	-0.022
-258.165	-34.987	-0.175	0.096
-257.151	800.000	0.095	0.361
-256.136	-11.907	0.120	0.079
-255.122	19.509	-0.062	-0.050
-254.107	-78.241	-0.318	0.110
-253.092	211.079	0.087	0.137
-252.078	-83.439	-0.186	0.060
-251.063	-55.013	-0.315	0.143
-250.049	-200.000	-0.037	-0.180
-249.034	32.275	-0.148	0.129
-248.019	-35.047	0.216	-0.118
-247.005	-200.000	0.007	-0.412
-245.990	-16.800	0.030	-0.019
-244.976	1.648	0.257	0.187
-243.961	329.531	-0.064	-0.123
-242.946	-200.000	-0.079	-0.348
-241.932	-90.209	0.067	-0.020
-240.917	-12.044	0.229	-0.151
-239.903	158.348	0.222	0.310
-238.888	506.617	0.052	-0.122
-237.873	-200.000	0.014	-0.207
-236.859	-200.000	-0.005	0.036
-235.844	-200.000	-0.005	0.043
-234.830	-200.000	0.060	0.296
-233.815	-200.000	-0.107	-0.000
-232.800	297.623	0.103	0.190
-231.786	714.464	0.093	0.247
-230.771	29.477	-0.018	0.015
-229.757	-116.353	-0.043	-0.008
-228.742	203.879	0.073	0.113
-227.727	-200.000	0.038	0.238
-226.713	68.817	-0.203	0.210
-225.698	-98.669	0.105	0.027
-224.684	-200.000	-0.028	0.197
-223.669	3.075	-0.229	0.168
-222.655	180.690	-0.115	0.170
-221.640	30.338	-0.124	0.106
-220.625	-200.000	-0.002	-0.165
-219.611	-107.487	0.146	-0.032
-218.596	256.694	0.175	0.303
-217.582	159.703	-0.080	0.112
-216.567	396.880	0.040	-0.083
-215.552	-118.072	-0.333	-0.060
-214.538	-200.000	0.038	0.210
-213.523	-17.115	0.103	0.065
-212.509	-101.218	0.116	-0.028
-211.494	-200.000	0.007	-0.092
-210.479	102.825	-0.128	0.150
-209.465	371.008	0.111	-0.226
-208.450	33.192	0.275	0.240
-207.436	486.053	0.084	-0.193
-206.421	-32.140	-0.246	-0.138
-205.406	516.412	0.172	0.405
-204.392	-64.902	-0.331	0.135
-203.377	128.782	0.046	-0.059
-202.363	-17.937	-0.142	0.090
-201.348	-84.953	-0.097	-0.030
-200.333	-184.248	-0.330	0.005
-199.319	-200.000	0.018	0.295
-198.304	-158.817	0.205	0.012
-197.290	46.602	-0.077	-0.071
-196.275	-200.000	0.067	-0.000
-195.260	172.929	0.122	0.177
-194.246	196.058	0.033	-0.051
-193.231	-200.000	0.013	0.168
-192.217	-200.000	0.030	-0.350
-191.202	442.893	0.168	-0.370
-190.187	-149.870	-0.087	0.007
-189.173	-168.726	-0.301	-0.011
-188.158	800.000	-0.032	0.090
-187.144	597.131	-0.060	-0.150
-186.129	209.808	-0.166	-0.262
-185.114	-133.185	-0.110	-0.014
-184.100	44.908	-0.114	0.105
-183.085	324.483	-0.083	0.159
-182.071	-98.101	0.244	0.063
-181.056	339.383	-0.184	0.361
-180.042	-200.000	0.021	-0.271
-179.027	-152.749	0.283	0.020
-178.012	-182.152	0.297	-0.006
-176.998	-135.208	0.118	0.014
-175.983	-200.000	-0.029	0.135
-174.969	-200.000	-0.028	-0.134
-173.954	60.984	-0.218	0.217
-172.939	56.375	-0.216	0.210
-171.925	-196.568	0.139	0.001
-170.910	-200.000	-0.008	0.116
-169.896	77.584	-0.103	0.110
-168.881	-14.279	0.194	0.125
-167.866	-17.494	-0.248	0.157
-166.852	378.340	0.121	0.247
-165.837	-154.539	-0.165	0.011
-164.823	-178.052	-0.172	0.004
-163.808	-199.471	0.136	0.001
-162.793	158.779	-0.194	-0.270
-161.779	276.729	0.145	0.259
-160.764	308.402	-0.079	0.148
-159.750	-200.000	-0.007	-0.303
-158.735	-88.370	-0.234	-0.070
-157.720	107.836	-0.114	0.136
-156.706	495.254	-0.147	-0.338
-155.691	-53.958	0.126	0.058
-154.677	-200.000	-0.092	0.452
-153.662	-200.000	-0.038	-0.302
-152.647	-200.000	-0.006	0.100
-151.633	415.354	0.139	0.297
-150.618	-91.695	-0.311	-0.089
-149.604	-75.713	-0.182	-0.065
-148.589	-200.000	0.024	-0.136
-147.574	-19.848	0.160	-0.099
-146.560	6.519	0.089	-0.066
-145.545	-130.605	-0.220	-0.030
-144.531	-125.013	-0.113	0.017
-143.516	-30.620	-0.179	0.101
-142.502	48.717	-0.178	-0.167
-141.487	-200.000	0.001	0.253
-140.472	173.317	0.104	0.150
-139.458	322.145	-0.060	-0.115
-138.443	-50.053	0.179	-0.085
-137.429	-120.338	-0.027	-0.005
-136.414	323.729	0.171	-0.328
-135.399	168.367	-0.019	0.027
-134.385	-200.000	-0.051	0.283
-133.370	800.000	0.050	0.150
-132.356	255.136	0.056	0.096
-131.341	18.896	0.178	-0.143
-130.326	-200.000	0.007	-0.081
-129.312	-200.000	0.018	0.340
-128.297	800.000	0.118	0.351
-127.283	-77.915	0.161	-0.056
-126.268	-67.257	0.359	-0.141
-125.253	182.060	0.152	-0.225
-124.239	-61.811	0.189	0.079
-123.224	-48.913	-0.269	-0.129
-122.210	-200.000	0.006	-0.137
