DTS Sentinel unit serial number:	SN413079Multiplexer serial number:	ORYXHardware model number:	OX4-SRSoftware version number:	ORYX F/W v4.00 Oryx Data Collector v3.7.2.0data status	okinstallation	princeton_trtdifferential loss correction	single-endedforward channel	channel 3reverse channel	N/Adate	2019/09/11time	10:50:10forward acquisition time	60.00reverse acquisition time	0.00gamma	496.2192k internal	0.2296k external	0.2296temperature offset calibration	0.9938default loss term (dB/km)	0.3790temperature slope calibration	1.0000multiplexer offset coefficient	1.0000multiplexer slope coefficient	1.0000fibre end	0.00T internal ref (°C)	36.94T ext. ref 1 (°C)	0.15T ext. ref 2 (°C)	33.46length (m)	temperature (°C)	Stokes	anti-Stokes-747.200	-200.000	0.011	0.198
-746.185	-200.000	-0.007	0.110
-745.171	-200.000	-0.018	-0.128
-744.156	543.453	-0.097	0.237
-743.142	134.408	0.183	0.242
-742.127	-131.905	-0.251	-0.033
-741.112	-177.493	0.126	0.003
-740.098	160.694	-0.078	0.111
-739.083	164.095	-0.083	-0.120
-738.069	800.000	-0.059	-0.196
-737.054	36.050	0.064	0.057
-736.039	-44.233	-0.223	0.114
-735.025	143.944	-0.237	0.323
-734.010	-24.760	0.254	-0.154
-732.996	-200.000	-0.078	-0.391
-731.981	800.000	0.059	0.166
-730.966	-200.000	0.046	0.245
-729.952	707.658	-0.177	0.477
-728.937	95.265	-0.133	-0.154
-727.923	-2.898	-0.405	-0.289
-726.908	404.166	0.086	-0.186
-725.894	-169.342	-0.464	0.017
-724.879	15.382	-0.206	-0.165
-723.864	-83.487	0.043	0.014
-722.850	296.848	-0.228	0.427
-721.835	-123.626	0.101	0.016
-720.821	10.653	-0.077	0.060
-719.806	-18.916	-0.209	0.133
-718.791	-200.000	-0.001	0.039
-717.777	95.124	0.290	0.337
-716.762	13.442	0.219	0.174
-715.748	800.000	0.039	-0.160
-714.733	-95.601	-0.276	0.076
-713.718	5.108	0.049	-0.037
-712.704	36.317	0.189	0.170
-711.689	108.681	-0.231	0.282
-710.675	91.520	0.034	-0.040
-709.660	-123.792	-0.177	0.029
-708.645	352.714	-0.083	-0.168
-707.631	-200.000	0.030	-0.371
-706.616	-21.367	0.214	0.133
-705.602	-55.220	-0.259	0.119
-704.587	-200.000	-0.048	0.263
-703.572	-16.636	0.211	-0.136
-702.558	280.949	0.101	-0.185
-701.543	-76.888	0.048	0.017
-700.529	211.532	-0.096	0.154
-699.514	-74.169	0.391	-0.144
-698.499	112.857	0.097	0.120
-697.485	-200.000	0.032	-0.411
-696.470	-60.178	-0.391	0.170
-695.456	55.997	0.020	0.019
-694.441	800.000	0.095	0.303
-693.426	23.113	-0.329	0.275
-692.412	88.107	0.036	0.041
-691.397	-117.725	0.084	-0.015
-690.383	110.516	-0.126	0.154
-689.368	800.000	-0.073	-0.310
-688.354	50.908	-0.123	0.118
-687.339	586.981	0.041	0.104
-686.324	-85.559	-0.195	-0.062
-685.310	-38.446	0.207	-0.112
-684.295	-198.515	-0.377	-0.002
-683.281	120.933	-0.261	-0.331
-682.266	800.000	0.038	-0.148
-681.251	-34.433	-0.127	-0.071
-680.237	26.096	0.066	-0.056
-679.222	-104.291	0.101	0.024
-678.208	-63.522	0.061	0.026
-677.193	-164.806	-0.296	0.014
-676.178	271.234	0.016	0.028
-675.164	238.469	0.107	0.181
-674.149	113.478	-0.108	-0.134
-673.135	-113.742	0.178	0.035
-672.120	-23.307	0.308	0.189
-671.105	-45.592	-0.149	0.075
-670.091	178.077	0.039	0.058
-669.076	96.802	-0.139	0.162
-668.062	-200.000	-0.014	0.155
-667.047	-89.274	-0.279	-0.084
-666.032	225.145	-0.082	-0.135
-665.018	-86.896	0.125	-0.039
-664.003	473.251	0.141	-0.323
-662.989	-38.092	-0.101	-0.055
-661.974	-39.892	-0.171	-0.091
-660.959	-63.802	0.439	-0.183
-659.945	318.020	0.058	-0.112
-658.930	445.280	-0.112	-0.250
-657.916	-19.751	-0.214	0.135
-656.901	-200.000	0.065	0.372
-655.886	403.103	0.135	-0.290
-654.872	-200.000	-0.019	0.110
-653.857	242.855	-0.199	-0.340
-652.843	-200.000	-0.016	0.385
-651.828	800.000	-0.098	-0.292
-650.814	-200.000	-0.008	-0.266
-649.799	99.771	0.044	0.052
-648.784	-14.067	0.073	0.048
-647.770	54.990	0.078	-0.076
-646.755	-90.223	-0.210	0.062
-645.741	102.883	0.144	0.171
-644.726	800.000	0.071	0.282
-643.711	-21.910	0.072	0.045
-642.697	800.000	0.057	0.166
-641.682	-196.280	-0.154	0.001
-640.668	-22.535	-0.201	-0.124
-639.653	-200.000	-0.112	-0.557
-638.638	-70.204	0.269	-0.104
-637.624	-200.000	0.008	0.243
-636.609	45.041	-0.113	0.106
-635.595	-68.931	0.094	0.037
-634.580	-155.502	0.164	-0.011
-633.565	358.548	-0.074	-0.150
-632.551	253.269	-0.043	0.075
-631.536	622.299	-0.075	0.193
-630.522	-104.788	-0.229	0.054
-629.507	27.445	0.061	0.052
-628.492	-10.965	0.126	-0.085
-627.478	-163.258	0.381	0.019
-626.463	800.000	-0.080	-0.242
-625.449	-88.085	-0.342	0.104
-624.434	90.548	-0.153	0.174
-623.419	67.791	-0.064	0.066
-622.405	613.987	-0.075	-0.192
-621.390	-200.000	0.004	0.197
-620.376	-178.502	0.191	0.005
-619.361	104.501	-0.063	0.076
-618.346	797.609	-0.099	-0.278
-617.332	-200.000	-0.008	-0.111
-616.317	-29.365	0.136	0.079
-615.303	-105.651	0.188	0.043
-614.288	41.935	0.404	-0.372
-613.273	800.000	-0.024	0.078
-612.259	-200.000	-0.029	-0.196
-611.244	-200.000	0.043	-0.211
-610.230	-200.000	-0.019	-0.181
-609.215	155.217	0.077	-0.107
-608.201	-52.691	-0.204	0.096
-607.186	-145.980	-0.051	-0.005
-606.171	15.831	-0.057	0.045
-605.157	30.013	0.213	0.185
-604.142	159.805	-0.072	0.101
-603.128	800.000	-0.033	0.138
-602.113	-40.891	0.171	0.090
-601.098	-200.000	0.040	-0.200
-600.084	224.832	0.022	-0.036
-599.069	-200.000	-0.060	-0.332
-598.055	-159.060	0.176	0.010
-597.040	22.488	-0.070	0.058
-596.025	532.935	0.071	-0.170
-595.011	482.701	-0.037	0.086
-593.996	800.000	0.012	0.047
-592.982	-6.311	-0.327	-0.227
-591.967	-200.000	-0.001	-0.163
-590.952	-4.213	-0.432	-0.304
-589.938	-27.415	0.249	-0.147
-588.923	-200.000	-0.023	-0.115
-587.909	378.173	-0.093	0.192
-586.894	319.314	0.059	-0.113
-585.879	-162.658	-0.347	-0.017
-584.865	-200.000	-0.017	-0.296
-583.850	-57.829	-0.365	-0.162
-582.836	-61.756	0.308	0.131
-581.821	-76.029	0.312	-0.112
-580.806	128.967	-0.070	-0.091
-579.792	7.147	-0.146	0.111
-578.777	35.543	0.218	-0.194
-577.763	-11.407	-0.217	0.145
-576.748	186.478	-0.037	0.056
-575.733	-31.745	-0.359	-0.205
-574.719	-111.820	-0.114	0.023
-573.704	178.931	0.139	0.207
-572.690	800.000	-0.072	-0.219
-571.675	-86.068	-0.233	0.073
-570.661	131.643	0.154	0.202
-569.646	-80.043	0.394	0.134
-568.631	-13.029	0.256	-0.169
-567.617	-35.996	-0.131	0.072
-566.602	-144.135	0.160	-0.015
-565.588	-16.758	0.201	0.129
-564.573	339.459	0.188	-0.371
-563.558	-125.108	-0.339	0.053
-562.544	-152.070	0.083	0.006
-561.529	-58.537	-0.197	0.087
-560.515	-16.387	-0.102	0.066
-559.500	-45.539	0.236	-0.118
-558.485	-195.555	-0.406	0.003
-557.471	-73.440	0.243	0.090
-556.456	241.151	-0.037	0.063
-555.442	133.558	-0.100	0.131
-554.427	-17.504	-0.245	0.156
-553.412	-84.628	-0.093	0.030
-552.398	66.468	-0.113	-0.116
-551.383	-200.000	0.222	-0.001
-550.369	-78.047	-0.176	0.061
-549.354	192.346	0.141	-0.215
-548.339	-135.756	0.130	0.016
-547.325	343.203	-0.147	0.292
-546.310	-109.985	-0.170	0.036
-545.296	-200.000	0.022	0.149
-544.281	-9.314	-0.250	-0.169
-543.266	-50.244	0.029	0.014
-542.252	800.000	0.063	-0.222
-541.237	-200.000	-0.031	0.235
-540.223	-46.132	-0.150	0.075
-539.208	249.631	-0.158	-0.272
-538.193	-86.143	0.042	0.013
-537.179	344.674	0.096	0.191
-536.164	-159.898	0.105	0.006
-535.150	800.000	0.055	-0.205
-534.135	-82.098	0.231	-0.076
-533.121	-200.000	-0.002	0.015
-532.106	380.988	0.094	0.195
-531.091	160.649	-0.140	-0.199
-530.077	-28.493	-0.200	0.117
-529.062	800.000	0.059	-0.232
-528.048	320.661	-0.174	0.335
-527.033	-193.129	0.191	-0.002
-526.018	288.924	-0.075	0.137
-525.004	-200.000	0.002	-0.054
-523.989	-200.000	-0.032	-0.151
-522.975	182.637	0.120	0.179
-521.960	-200.000	0.024	-0.201
-520.945	800.000	0.055	0.174
-519.931	-117.207	-0.112	0.021
-518.916	-200.000	0.008	-0.238
-517.902	-134.133	-0.165	0.021
-516.887	-200.000	0.014	0.078
-515.872	-113.295	0.249	-0.049
-514.858	129.576	-0.270	-0.349
-513.843	538.651	0.057	-0.136
-512.829	178.491	0.321	0.474
-511.814	75.629	-0.161	-0.172
-510.799	-108.411	-0.098	-0.021
-509.785	173.606	-0.241	-0.353
-508.770	-75.448	0.340	-0.123
-507.756	-123.220	-0.112	-0.018
-506.741	-140.301	-0.250	0.026
-505.726	-90.987	-0.150	-0.044
-504.712	-200.000	0.045	-0.419
-503.697	-200.000	0.003	0.304
-502.683	662.279	-0.131	0.342
-501.668	-11.531	-0.026	-0.017
-500.653	800.000	0.064	0.184
-499.639	-40.525	-0.174	0.091
-498.624	352.787	0.151	0.303
-497.610	-200.000	0.003	-0.052
-496.595	617.450	0.060	0.151
-495.581	800.000	0.032	0.095
-494.566	414.198	-0.072	0.156
-493.551	509.766	-0.067	0.157
-492.537	-135.817	0.115	-0.014
-491.522	646.537	0.068	-0.176
-490.508	-200.000	0.041	-0.398
-489.493	49.963	0.107	-0.102
-488.478	-115.434	-0.232	-0.044
-487.464	-128.630	0.057	0.008
-486.449	-152.493	-0.119	0.009
-485.435	-98.871	0.008	0.002
-484.420	-62.259	0.571	0.241
-483.405	-116.147	-0.325	0.061
-482.391	288.047	-0.076	0.139
-481.376	800.000	-0.050	0.151
-480.362	140.041	0.145	-0.194
-479.347	30.659	0.181	0.156
-478.332	-140.507	-0.112	0.012
-477.318	-167.552	-0.417	0.017
-476.303	335.230	0.099	-0.194
-475.289	-200.000	0.030	-0.143
-474.274	-200.000	-0.047	-0.219
-473.259	-112.904	-0.285	0.057
-472.245	-78.738	0.129	0.044
-471.230	800.000	0.072	-0.289
-470.216	56.836	0.176	0.173
-469.201	74.429	0.048	-0.051
-468.186	-54.958	0.113	-0.051
-467.172	-38.071	-0.222	0.119
-466.157	455.636	-0.148	-0.331
-465.143	-171.006	-0.206	-0.007
-464.128	800.000	-0.045	0.190
-463.113	267.002	-0.120	0.212
-462.099	55.294	0.218	0.213
-461.084	68.323	0.108	0.112
-460.070	-200.000	-0.018	-0.417
-459.055	800.000	-0.046	-0.206
-458.040	-200.000	0.004	0.281
-457.026	-84.463	0.023	0.007
-456.011	800.000	-0.042	-0.122
-454.997	-200.000	0.034	-0.169
-453.982	-105.197	-0.126	-0.029
-452.968	-34.978	-0.143	0.079
-451.953	135.886	-0.053	-0.069
-450.938	-122.520	0.344	0.056
-449.924	-200.000	-0.050	-0.460
-448.909	800.000	-0.110	-0.308
-447.895	416.833	0.029	-0.062
-446.880	-80.589	0.420	0.141
-445.865	63.878	0.095	0.097
-444.851	-200.000	-0.090	-0.516
-443.836	33.997	0.549	-0.483
-442.822	-27.260	0.122	-0.072
-441.807	60.782	0.085	0.085
-440.792	253.620	0.171	0.294
-439.778	195.086	-0.136	0.208
-438.763	-52.407	0.334	0.156
-437.749	-93.775	-0.166	-0.046
-436.734	800.000	-0.156	-0.485
-435.719	90.107	0.175	-0.198
-434.705	7.280	0.060	-0.045
-433.690	-127.952	0.420	0.061
-432.676	69.991	-0.216	-0.225
-431.661	86.559	0.063	-0.070
-430.646	-106.379	-0.072	0.016
-429.632	260.835	0.083	-0.145
-428.617	-153.989	-0.088	-0.006
-427.603	800.000	-0.062	-0.245
-426.588	-58.344	0.343	-0.151
-425.573	800.000	-0.117	-0.367
-424.559	40.365	0.392	-0.356
-423.544	166.505	-0.034	-0.049
-422.530	163.865	0.117	-0.165
-421.515	96.635	-0.400	-0.462
-420.500	800.000	-0.046	-0.187
-419.486	-31.639	0.109	-0.062
-418.471	-0.039	-0.219	-0.158
-417.457	49.447	0.103	-0.098
-416.442	-39.845	-0.100	-0.052
-415.428	-62.810	0.073	0.030
-414.413	-96.632	0.237	0.063
-413.398	151.131	0.135	-0.185
-412.384	-200.000	-0.066	-0.295
-411.369	288.561	0.106	-0.194
-410.355	-81.886	-0.171	0.057
-409.340	-200.000	-0.034	0.227
-408.325	-117.893	-0.191	0.035
-407.311	-71.467	-0.172	-0.065
-406.296	800.000	0.035	-0.132
-405.282	-131.951	0.355	0.047
-404.267	279.799	0.093	0.167
-403.252	-37.043	-0.232	-0.125
-402.238	-106.002	0.188	0.043
-401.223	800.000	-0.052	-0.219
-400.209	88.345	0.039	0.044
-399.194	-85.804	-0.216	-0.068
-398.179	-22.834	-0.165	0.100
-397.165	13.319	0.360	-0.281
-396.150	-200.000	-0.052	-0.312
-395.136	1.089	0.250	0.181
-394.121	5.496	-0.027	-0.020
-393.106	-59.946	0.063	0.027
-392.092	800.000	0.082	0.244
-391.077	45.121	0.044	0.041
-390.063	-133.307	0.300	0.038
-389.048	-12.672	-0.294	-0.193
-388.033	800.000	0.038	-0.110
-387.019	24.249	-0.147	0.123
-386.004	800.000	-0.121	-0.411
-384.990	-82.769	-0.445	-0.145
-383.975	-117.940	-0.133	0.024
-382.960	-76.571	-0.119	-0.042
-381.946	-89.333	-0.192	-0.057
-380.931	-43.092	-0.068	0.034
-379.917	-65.564	0.305	0.123
-378.902	-70.759	-0.033	-0.013
-377.888	-200.000	0.011	0.172
-376.873	-81.561	-0.086	0.029
-375.858	86.347	-0.067	-0.074
-374.844	-200.000	-0.039	-0.369
-373.829	-169.825	-0.050	0.002
-372.815	234.532	-0.210	0.349
-371.800	-200.000	0.237	0.000
-370.785	-96.314	-0.326	0.087
-369.771	21.450	-0.124	0.102
-368.756	27.061	-0.272	0.230
-367.742	-200.000	-0.101	0.567
-366.727	-39.704	0.312	-0.164
-365.712	-0.290	0.154	0.110
-364.698	800.000	0.062	0.222
-363.683	-72.992	-0.099	-0.037
-362.669	-200.000	0.037	0.274
-361.654	106.962	-0.114	0.136
-360.639	6.204	0.081	0.060
-359.625	585.766	-0.042	-0.105
-358.610	-56.141	0.176	0.079
-357.596	104.367	-0.250	0.296
-356.581	-157.015	-0.225	0.014
-355.566	533.831	-0.116	0.278
-354.552	-68.731	-0.301	-0.117
-353.537	-200.000	-0.017	-0.271
-352.523	-8.935	-0.208	0.140
-351.508	-176.414	-0.144	0.004
-350.493	-68.288	0.242	-0.095
-349.479	800.000	-0.081	0.228
-348.464	-98.952	-0.183	-0.047
-347.450	-2.355	-0.101	0.071
-346.435	260.680	0.051	-0.089
-345.420	728.035	-0.082	-0.219
-344.406	443.759	-0.166	-0.366
-343.391	-120.030	0.346	0.060
-342.377	87.924	-0.134	0.150
-341.362	83.928	-0.203	0.223
-340.348	52.088	0.114	-0.110
-339.333	-145.612	0.323	0.029
-338.318	159.054	-0.175	-0.245
-337.304	159.344	0.066	0.092
-336.289	-160.121	-0.232	-0.013
-335.275	-101.949	0.048	0.012
-334.260	58.883	0.324	0.321
-333.245	37.196	0.131	-0.117
-332.231	200.246	-0.051	-0.079
-331.216	-100.505	0.183	0.045
-330.202	543.551	0.079	0.191
-329.187	465.724	-0.052	-0.116
-328.172	224.012	-0.070	0.114
-327.158	246.266	0.110	-0.186
-326.143	-50.281	-0.255	0.121
-325.129	70.990	0.129	-0.135
-324.114	-12.509	0.199	0.130
-323.099	-200.000	-0.079	0.422
-322.085	-200.000	-0.018	-0.131
-321.070	-200.000	0.036	0.189
-320.056	-200.000	0.017	0.108
-319.041	133.215	-0.137	0.177
-318.026	118.265	0.094	-0.117
-317.012	118.142	-0.192	-0.238
-315.997	137.385	0.037	0.048
-314.983	80.602	0.101	-0.109
-313.968	40.083	-0.120	-0.108
-312.953	-115.794	0.257	0.048
-311.939	-58.848	-0.176	0.076
-310.924	800.000	-0.036	-0.127
-309.910	800.000	-0.026	-0.104
-308.895	800.000	-0.073	0.223
-307.880	205.664	-0.146	-0.228
-306.866	53.934	-0.088	-0.085
-305.851	-42.858	-0.275	0.140
-304.837	-200.000	-0.050	0.232
-303.822	-55.784	0.116	0.052
-302.807	-200.000	0.050	0.318
-301.793	618.226	-0.066	-0.167
-300.778	161.864	0.016	-0.023
-299.764	-154.523	-0.290	0.019
-298.749	-132.909	0.111	-0.014
-297.735	800.000	0.013	0.049
-296.720	800.000	-0.018	0.067
-295.705	-37.103	-0.176	-0.095
-294.691	368.329	-0.164	0.334
-293.676	-75.064	0.115	0.041
-292.662	-200.000	0.006	0.054
-291.647	120.234	-0.135	-0.169
-290.632	-200.000	-0.044	0.304
-289.618	274.569	-0.024	-0.044
-288.603	800.000	0.038	0.108
-287.589	64.721	0.213	-0.216
-286.574	800.000	-0.098	-0.392
-285.559	-127.233	-0.368	0.054
-284.545	11.644	-0.109	-0.084
-283.530	-200.000	-0.078	-0.522
-282.516	113.105	-0.109	-0.133
-281.501	-200.000	0.059	0.272
-280.486	800.000	-0.106	0.372
-279.472	-109.299	0.208	0.044
-278.457	-77.310	0.167	0.058
-277.443	-11.198	-0.317	0.210
-276.428	-137.599	0.076	-0.009
-275.413	139.314	-0.184	0.243
-274.399	-146.649	-0.204	-0.018
-273.384	-97.129	-0.199	0.052
-272.370	86.198	0.267	0.295
-271.355	-111.303	-0.171	-0.035
-270.340	347.951	0.067	-0.131
-269.326	800.000	-0.081	0.271
-268.311	198.298	-0.062	0.096
-267.297	222.192	0.146	-0.236
-266.282	-31.501	-0.187	0.105
-265.267	-200.000	0.005	0.059
-264.253	322.963	0.133	-0.253
-263.238	507.085	-0.108	-0.251
-262.224	-69.346	-0.093	-0.036
-261.209	514.520	-0.086	0.200
-260.195	84.556	-0.223	0.244
-259.180	800.000	0.014	-0.041
-258.165	188.074	0.138	0.207
-257.151	386.859	-0.095	-0.196
-256.136	47.330	0.222	0.207
-255.122	-133.352	0.200	-0.025
-254.107	146.106	0.208	0.280
-253.092	295.058	0.182	0.334
-252.078	50.309	-0.049	-0.047
-251.063	-200.000	0.008	0.067
-250.049	93.958	0.169	-0.192
-249.034	800.000	-0.085	-0.246
-248.019	-186.324	-0.151	-0.002
-247.005	-21.310	0.127	-0.078
-245.990	96.400	-0.157	0.180
-244.976	-131.194	0.189	-0.025
-243.961	800.000	0.044	0.182
-242.946	-27.965	0.173	0.100
-241.932	753.344	0.047	-0.127
-240.917	-200.000	-0.003	0.043
-239.903	-95.232	0.302	0.081
-238.888	230.984	0.139	0.229
-237.873	-22.168	-0.147	0.090
-236.859	-13.402	-0.158	-0.103
-235.844	-12.231	-0.047	0.031
-234.830	49.275	0.087	0.082
-233.815	5.737	-0.068	-0.050
-232.800	148.357	-0.040	-0.054
-231.786	-118.124	0.421	-0.075
-230.771	-200.000	0.010	0.046
-229.757	-151.978	0.261	-0.019
-228.742	67.596	0.220	0.225
-227.727	800.000	0.056	-0.173
-226.713	-86.114	-0.248	-0.077
-225.698	97.250	-0.110	0.127
-224.684	120.986	0.134	0.167
-223.669	800.000	0.036	0.120
-222.655	-200.000	-0.010	0.373
-221.640	355.604	-0.066	0.131
-220.625	38.322	0.143	0.127
-219.611	-60.168	0.197	-0.084
-218.596	-73.788	0.549	-0.200
-217.582	-15.264	0.215	-0.138
-216.567	-83.352	-0.100	0.032
-215.552	74.252	0.053	-0.055
-214.538	248.617	0.024	0.040
-213.523	7.824	-0.217	-0.163
-212.509	-200.000	-0.036	0.324
-211.494	215.147	0.191	0.303
-210.479	566.250	-0.072	-0.175
-209.465	-200.000	-0.043	-0.196
-208.450	445.863	-0.079	-0.173
-207.436	-142.546	0.321	0.031
-206.421	-200.000	-0.051	0.351
-205.406	-75.818	-0.300	-0.106
-204.392	2.801	0.225	-0.163
-203.377	-200.000	0.016	-0.371
-202.363	-27.731	0.237	0.137
-201.348	-195.152	0.378	0.003
-200.333	-117.847	-0.097	-0.017
-199.319	94.869	-0.061	-0.069
-198.304	53.142	0.061	0.058
-197.290	-200.000	-0.021	0.462
-196.275	-200.000	-0.005	0.147
-195.260	57.636	-0.196	-0.191
-194.246	800.000	0.069	-0.230
-193.231	-111.301	0.161	0.033
-192.217	-60.100	0.441	0.188
-191.202	130.057	-0.116	0.148
-190.187	-126.137	-0.258	-0.039
-189.173	-200.000	0.021	0.329
-188.158	800.000	0.047	0.140
-187.144	-131.930	-0.235	0.031
-186.129	800.000	0.081	-0.246
-185.114	-34.284	-0.131	-0.072
-184.100	-200.000	-0.043	0.194
-183.085	184.448	-0.221	0.327
-182.071	13.579	0.027	-0.021
-181.056	-102.849	0.250	0.060
-180.042	104.969	-0.084	0.099
-179.027	-66.682	-0.031	-0.012
-178.012	168.567	-0.069	-0.099
-176.998	98.639	0.064	0.074
-175.983	-200.000	-0.029	0.396
-174.969	94.636	-0.194	-0.220
-173.954	-19.660	0.187	-0.116
-172.939	-172.165	0.566	-0.018
-171.925	147.774	-0.188	0.253
-170.910	-200.000	0.011	-0.397
-169.896	603.709	0.165	0.409
-168.881	-13.850	0.097	-0.063
-167.866	-200.000	0.071	0.480
-166.852	-200.000	0.026	-0.168
-165.837	-180.505	-0.241	-0.005
-164.823	-147.873	-0.194	0.016
-163.808	281.755	-0.199	0.355
-162.793	134.887	-0.073	0.095
-161.779	-200.000	0.036	-0.252
-160.764	38.580	0.139	0.124
-159.750	271.294	0.077	0.135
-158.735	-43.768	-0.158	0.079
-157.720	573.579	-0.073	0.178
-156.706	-115.200	0.263	0.050
-155.691	-106.540	0.518	0.115
-154.677	-200.000	-0.024	-0.211
-153.662	131.907	-0.196	-0.252
-152.647	312.744	0.153	0.287
-151.633	-86.146	0.173	-0.053
-150.618	-200.000	-0.023	-0.258
-149.604	293.788	0.226	-0.412
-148.589	-117.803	-0.101	-0.018
-147.574	-39.785	-0.191	0.100
-146.560	-113.232	-0.306	0.060
-145.545	-91.671	0.362	0.103
-144.531	652.829	0.056	0.144
-143.516	-98.315	0.193	0.049
-142.502	73.988	-0.145	0.152
-141.487	32.689	0.137	-0.118
-140.472	800.000	0.024	-0.068
-139.458	80.323	-0.195	-0.210
-138.443	-93.536	0.168	-0.046
-137.429	-15.906	0.200	-0.127
-136.414	-38.336	0.244	0.129
-135.399	-200.000	-0.002	-0.211
-134.385	-67.670	-0.264	0.103
-133.370	110.693	0.143	0.171
-132.356	800.000	-0.124	0.348
-131.341	-109.791	-0.108	0.023
-130.326	-178.264	-0.093	-0.002
-129.312	-200.000	0.002	-0.208
-128.297	-107.825	0.383	-0.083
-127.283	-144.783	-0.116	-0.011
-126.268	-61.667	0.430	0.180
-125.253	-44.755	0.232	-0.115
-124.239	220.249	0.169	-0.270
-123.224	-77.404	-0.372	-0.129
-122.210	138.478	0.278	0.363
-121.195	-182.534	-0.271	0.005
