DTS Sentinel unit serial number:	SN413079Multiplexer serial number:	ORYXHardware model number:	OX4-SRSoftware version number:	ORYX F/W v4.00 Oryx Data Collector v3.7.2.0data status	okinstallation	princeton_trtdifferential loss correction	single-endedforward channel	channel 3reverse channel	N/Adate	2019/09/18time	02:32:35forward acquisition time	60.00reverse acquisition time	0.00gamma	496.2192k internal	0.2344k external	0.2344temperature offset calibration	0.9950default loss term (dB/km)	0.3790temperature slope calibration	1.0000multiplexer offset coefficient	1.0000multiplexer slope coefficient	1.0000fibre end	0.00T internal ref (°C)	22.80T ext. ref 1 (°C)	0.16T ext. ref 2 (°C)	16.90length (m)	temperature (°C)	Stokes	anti-Stokes-747.200	679.838	0.141	0.367
-746.185	99.280	0.037	0.042
-745.171	-200.000	0.031	0.210
-744.156	-200.000	-0.075	0.662
-743.142	-75.327	0.293	0.105
-742.127	377.152	-0.061	0.125
-741.112	183.873	0.100	-0.148
-740.098	800.000	0.065	0.215
-739.083	254.474	0.084	0.144
-738.069	450.589	0.119	0.262
-737.054	-17.642	0.181	0.114
-736.039	-200.000	0.016	-0.213
-735.025	312.219	0.049	-0.091
-734.010	-58.030	-0.384	0.168
-732.996	-14.904	0.342	-0.219
-731.981	-60.779	-0.239	-0.101
-730.966	48.853	-0.193	-0.181
-729.952	-200.000	0.059	-0.296
-728.937	-66.826	-0.239	0.095
-727.923	104.603	-0.284	-0.335
-726.908	-109.370	0.067	-0.014
-725.894	700.016	-0.091	-0.240
-724.879	-52.100	-0.007	0.003
-723.864	201.217	-0.058	-0.089
-722.850	800.000	0.077	0.239
-721.835	128.385	0.085	-0.108
-720.821	2.618	-0.239	0.173
-719.806	-88.276	0.478	0.143
-718.791	10.223	-0.339	-0.257
-717.777	-24.128	-0.176	0.105
-716.762	-95.553	0.283	-0.076
-715.748	175.621	-0.185	-0.268
-714.733	343.225	0.046	0.090
-713.718	800.000	0.082	0.309
-712.704	-59.021	-0.201	0.087
-711.689	97.757	0.085	0.098
-710.675	-94.416	0.100	-0.027
-709.660	-59.719	-0.405	0.173
-708.645	-142.902	0.140	0.014
-707.631	-28.804	-0.182	0.105
-706.616	-160.529	0.065	0.003
-705.602	800.000	0.097	-0.426
-704.587	68.726	-0.187	-0.192
-703.572	207.093	-0.058	-0.091
-702.558	87.185	0.092	-0.101
-701.543	27.358	0.149	-0.125
-700.529	-83.816	-0.062	0.020
-699.514	-200.000	0.008	0.050
-698.499	101.301	-0.154	-0.179
-697.485	-13.231	0.249	-0.161
-696.470	-133.172	-0.168	-0.021
-695.456	40.679	-0.043	0.039
-694.441	219.328	0.016	0.025
-693.426	-3.099	-0.313	-0.218
-692.412	-14.465	0.174	-0.112
-691.397	-58.442	-0.150	-0.065
-690.383	800.000	-0.049	0.162
-689.368	-146.038	0.267	-0.024
-688.354	800.000	-0.055	-0.190
-687.339	-137.148	0.375	-0.043
-686.324	-8.087	-0.189	-0.127
-685.310	-56.704	-0.029	0.013
-684.295	130.843	-0.131	0.167
-683.281	-88.126	0.124	-0.037
-682.266	-93.914	-0.129	-0.036
-681.251	160.238	-0.171	-0.238
-680.237	-129.639	-0.486	-0.067
-679.222	-200.000	-0.000	0.248
-678.208	-144.922	-0.230	0.021
-677.193	261.026	0.063	0.108
-676.178	12.323	0.114	-0.088
-675.164	274.400	-0.156	-0.275
-674.149	-113.391	-0.206	-0.040
-673.135	-113.025	-0.241	-0.048
-672.120	51.773	-0.031	0.030
-671.105	800.000	0.036	-0.146
-670.091	84.251	-0.133	-0.145
-669.076	-91.979	0.262	0.074
-668.062	-124.122	0.142	-0.022
-667.047	-101.116	-0.188	-0.046
-666.032	800.000	0.034	0.095
-665.018	-139.537	0.143	0.015
-664.003	-70.167	0.255	-0.097
-662.989	-200.000	0.226	-0.001
-661.974	-200.000	-0.023	0.179
-660.959	166.388	0.013	-0.019
-659.945	452.429	0.069	-0.153
-658.930	270.336	-0.086	0.151
-657.916	-3.804	-0.164	-0.114
-656.901	-44.933	-0.322	-0.160
-655.886	-36.724	-0.232	-0.124
-654.872	-28.021	0.134	-0.078
-653.857	800.000	0.030	0.099
-652.843	-131.762	0.215	0.028
-651.828	-51.984	0.160	0.074
-650.814	-200.000	0.006	0.120
-649.799	134.970	0.136	-0.176
-648.784	-114.036	0.275	0.053
-647.770	95.471	-0.202	-0.229
-646.755	-200.000	-0.015	0.092
-645.741	109.804	-0.112	0.134
-644.726	-29.845	-0.371	0.211
-643.711	241.719	-0.088	-0.147
-642.697	-106.610	0.185	-0.041
-641.682	127.629	0.242	-0.307
-640.668	-200.000	0.036	-0.321
-639.653	800.000	-0.049	-0.147
-638.638	457.228	-0.176	0.391
-637.624	58.130	-0.162	0.158
-636.609	-199.566	0.201	0.001
-635.595	-200.000	-0.101	0.539
-634.580	59.271	-0.182	0.178
-633.565	116.840	0.096	0.118
-632.551	73.852	0.082	0.086
-631.536	197.529	0.055	0.084
-630.522	-200.000	0.020	-0.224
-629.507	-200.000	-0.064	-0.437
-628.492	615.322	-0.033	0.082
-627.478	-70.804	0.286	-0.107
-626.463	-200.000	0.027	-0.145
-625.449	231.466	-0.097	0.158
-624.434	-200.000	0.030	-0.230
-623.419	-200.000	-0.005	0.195
-622.405	108.733	-0.147	-0.175
-621.390	800.000	0.082	0.290
-620.376	53.368	-0.275	0.262
-619.361	800.000	0.067	0.286
-618.346	-200.000	-0.052	0.352
-617.332	636.825	0.085	0.214
-616.317	-137.894	0.236	0.026
-615.303	-104.864	0.229	-0.052
-614.288	2.556	-0.011	0.008
-613.273	-200.000	0.016	-0.154
-612.259	441.885	0.139	-0.304
-611.244	-24.707	-0.222	0.131
-610.230	-110.131	-0.137	-0.028
-609.215	-69.256	-0.131	0.050
-608.201	295.622	0.068	-0.124
-607.186	-106.198	-0.166	-0.037
-606.171	193.777	-0.058	0.088
-605.157	-61.017	0.098	0.041
-604.142	-140.899	0.162	0.017
-603.128	-200.000	-0.001	0.302
-602.113	-110.826	0.058	-0.012
-601.098	800.000	0.048	0.177
-600.084	-188.604	0.168	0.002
-599.069	-87.350	-0.100	0.030
-598.055	186.203	-0.175	-0.259
-597.040	-200.000	-0.041	-0.211
-596.025	800.000	-0.032	0.108
-595.011	-124.794	0.197	-0.030
-593.996	-200.000	-0.019	-0.091
-592.982	141.841	-0.207	-0.273
-591.967	-35.573	0.203	-0.109
-590.952	-60.457	0.096	-0.041
-589.938	421.776	-0.216	0.461
-588.923	283.054	0.085	0.151
-587.909	800.000	-0.018	-0.061
-586.894	657.485	-0.033	-0.085
-585.879	-200.000	0.007	-0.232
-584.865	598.926	-0.041	-0.102
-583.850	204.776	-0.134	0.207
-582.836	800.000	0.088	0.263
-581.821	-95.046	-0.248	0.067
-580.806	-178.594	-0.107	0.002
-579.792	-62.719	-0.149	0.062
-578.777	97.666	0.222	-0.254
-577.763	-200.000	-0.041	-0.214
-576.748	-27.434	-0.266	-0.154
-575.733	-43.956	-0.402	-0.201
-574.719	601.035	0.077	-0.190
-573.704	800.000	0.066	0.214
-572.690	600.280	-0.068	0.167
-571.675	-200.000	-0.004	-0.059
-570.661	800.000	-0.059	0.217
-569.646	138.822	0.100	0.131
-568.631	44.883	0.278	-0.254
-567.617	295.706	0.159	0.289
-566.602	-112.302	0.412	0.082
-565.588	184.291	-0.077	-0.114
-564.573	-122.718	-0.156	0.025
-563.558	708.330	0.071	-0.187
-562.544	-77.401	0.120	-0.041
-561.529	-200.000	0.061	-0.295
-560.515	800.000	0.042	0.151
-559.500	-97.016	-0.277	-0.072
-558.485	17.543	0.114	-0.090
-557.471	152.548	-0.098	-0.133
-556.456	139.805	0.096	0.126
-555.442	495.346	-0.128	0.293
-554.427	-200.000	0.005	0.041
-553.412	397.229	0.173	-0.359
-552.398	-39.235	0.206	0.108
-551.383	-136.199	0.146	0.017
-550.369	118.288	0.018	-0.022
-549.354	800.000	-0.019	-0.060
-548.339	-14.873	-0.103	-0.065
-547.325	-200.000	-0.015	0.307
-546.310	-135.304	0.205	0.024
-545.296	32.444	-0.190	-0.163
-544.281	-39.200	-0.266	0.139
-543.266	800.000	0.042	-0.132
-542.252	128.327	0.209	-0.264
-541.237	800.000	-0.057	0.224
-540.223	-148.553	-0.081	-0.007
-539.208	-133.266	0.243	0.030
-538.193	-66.004	0.401	0.159
-537.179	-133.859	-0.182	-0.022
-536.164	-200.000	0.026	0.161
-535.150	-200.000	0.022	-0.225
-534.135	21.524	-0.174	-0.140
-533.121	-95.689	0.362	0.096
-532.106	-102.510	-0.345	-0.082
-531.091	-200.000	0.056	0.321
-530.077	-200.000	0.016	0.151
-529.062	-99.444	0.280	-0.070
-528.048	-61.996	-0.382	-0.158
-527.033	-200.000	0.010	-0.337
-526.018	179.983	-0.023	-0.033
-525.004	278.969	0.119	0.211
-523.989	-113.894	0.187	-0.036
-522.975	61.503	-0.168	0.165
-521.960	727.507	-0.113	-0.299
-520.945	800.000	0.010	-0.039
-519.931	800.000	-0.079	-0.309
-518.916	-145.561	0.472	-0.042
-517.902	609.976	0.043	-0.107
-516.887	9.206	0.047	-0.036
-515.872	-200.000	0.032	0.280
-514.858	-200.000	0.040	0.311
-513.843	40.105	-0.153	-0.136
-512.829	-20.302	-0.341	0.208
-511.814	-160.173	0.136	-0.007
-510.799	287.596	0.061	0.110
-509.785	36.028	-0.084	0.073
-508.770	-200.000	0.010	0.094
-507.756	-200.000	0.043	-0.444
-506.741	-121.831	-0.159	-0.026
-505.726	-200.000	-0.006	-0.060
-504.712	-149.119	0.153	0.012
-503.697	785.920	-0.117	0.318
-502.683	572.256	-0.123	-0.296
-501.668	-159.559	-0.117	0.006
-500.653	312.954	-0.080	0.148
-499.639	463.424	-0.105	0.233
-498.624	-32.180	0.286	-0.158
-497.610	-124.248	-0.232	0.036
-496.595	-200.000	0.001	-0.031
-495.581	-108.094	0.137	-0.029
-494.566	-200.000	0.010	0.102
-493.551	267.810	0.200	0.347
-492.537	-12.758	-0.255	0.165
-491.522	204.783	-0.199	-0.306
-490.508	-93.010	0.151	-0.042
-489.493	-48.637	-0.069	0.033
-488.478	-131.857	-0.352	0.046
-487.464	95.724	-0.112	-0.127
-486.449	-122.990	-0.199	-0.032
-485.435	151.804	-0.155	0.210
-484.420	195.869	-0.112	0.169
-483.405	482.296	0.044	0.099
-482.391	123.164	0.109	-0.136
-481.376	247.781	0.226	-0.379
-480.362	800.000	-0.057	0.160
-479.347	313.642	0.098	0.183
-478.332	78.801	0.139	-0.147
-477.318	378.194	0.110	0.223
-476.303	-200.000	-0.074	0.471
-475.289	634.854	0.075	0.188
-474.274	270.235	-0.044	-0.077
-473.259	-47.670	-0.095	0.046
-472.245	50.836	-0.122	0.114
-471.230	136.101	0.193	-0.250
-470.216	-34.815	-0.283	-0.153
-469.201	107.985	0.107	-0.126
-468.186	162.944	0.313	-0.435
-467.172	-30.625	-0.165	-0.092
-466.157	17.038	-0.108	-0.085
-465.143	450.534	0.031	-0.068
-464.128	800.000	-0.068	-0.260
-463.113	16.167	-0.144	0.113
-462.099	-80.221	-0.307	0.102
-461.084	-70.321	-0.061	-0.023
-460.070	142.519	0.092	-0.121
-459.055	68.885	-0.084	0.085
-458.040	26.052	-0.369	0.305
-457.026	-112.591	-0.285	-0.056
-456.011	352.229	-0.189	-0.371
-454.997	34.702	-0.053	-0.045
-453.982	-200.000	-0.038	0.165
-452.968	17.782	-0.153	0.121
-451.953	-5.570	0.173	-0.117
-450.938	-7.732	-0.258	0.172
-449.924	-200.000	-0.056	0.277
-448.909	-62.398	0.181	0.074
-447.895	800.000	-0.070	-0.214
-446.880	76.393	0.240	0.252
-445.865	316.624	0.128	0.239
-444.851	652.652	-0.136	-0.345
-443.836	318.944	-0.160	0.301
-442.822	568.958	0.036	0.087
-441.807	-29.222	-0.140	-0.080
-440.792	800.000	0.101	0.398
-439.778	334.855	-0.052	0.100
-438.763	-77.405	-0.252	0.086
-437.749	216.482	0.072	0.113
-436.734	800.000	-0.083	-0.267
-435.719	-124.954	0.275	0.042
-434.705	-30.650	0.091	-0.051
-433.690	48.335	-0.147	0.136
-432.676	5.613	-0.084	-0.061
-431.661	-102.902	0.226	0.053
-430.646	46.119	0.280	-0.256
-429.632	-56.448	-0.026	-0.012
-428.617	-200.000	0.021	-0.157
-427.603	602.279	-0.123	-0.302
-426.588	-73.511	-0.177	-0.064
-425.573	800.000	0.055	-0.203
-424.559	-200.000	0.008	0.041
-423.544	-200.000	-0.016	0.117
-422.530	-179.503	0.490	-0.011
-421.515	-200.000	0.009	0.043
-420.500	-200.000	0.076	-0.362
-419.486	-200.000	-0.032	0.210
-418.471	84.683	0.043	0.047
-417.457	-128.991	0.407	0.056
-416.442	9.840	0.163	-0.122
-415.428	27.969	0.081	-0.067
-414.413	93.566	0.153	0.172
-413.398	-113.963	-0.088	-0.017
-412.384	-200.000	0.055	-0.399
-411.369	-142.695	0.031	0.003
-410.355	-122.691	-0.272	0.044
-409.340	416.626	0.094	0.199
-408.325	-200.000	0.009	0.073
-407.311	-200.000	-0.007	-0.078
-406.296	-71.208	0.334	0.124
-405.282	383.234	-0.006	-0.013
-404.267	-11.867	0.160	-0.103
-403.252	-63.875	0.256	-0.103
-402.238	374.754	0.102	-0.205
-401.223	571.435	-0.102	0.246
-400.209	-200.000	-0.005	0.116
-399.194	-89.216	-0.161	0.047
-398.179	-68.315	-0.078	0.030
-397.165	-200.000	0.002	0.058
-396.150	718.886	-0.113	0.297
-395.136	-30.694	0.116	-0.065
-394.121	-200.000	-0.042	0.186
-393.106	-55.438	0.121	-0.053
-392.092	105.966	0.139	0.163
-391.077	800.000	0.039	-0.118
-390.063	683.216	-0.121	0.311
-389.048	-31.439	-0.082	0.046
-388.033	-200.000	0.115	0.001
-387.019	311.696	0.102	0.189
-386.004	17.785	0.185	0.145
-384.990	177.536	0.079	-0.114
-383.975	-200.000	-0.025	0.201
-382.960	-200.000	0.079	-0.386
-381.946	800.000	-0.046	0.154
-380.931	159.987	-0.146	-0.201
-379.917	16.543	-0.209	-0.163
-378.902	800.000	-0.096	-0.284
-377.888	17.160	0.196	0.153
-376.873	-128.541	-0.171	-0.024
-375.858	626.631	0.049	0.122
-374.844	-109.053	-0.103	0.022
-373.829	285.857	-0.038	0.067
-372.815	-45.534	-0.393	0.192
-371.800	-200.000	-0.042	0.310
-370.785	800.000	0.028	0.111
-369.771	800.000	-0.114	-0.319
-368.756	-47.013	0.254	0.122
-367.742	-56.444	-0.061	0.027
-366.727	24.384	-0.237	0.194
-365.712	259.756	-0.006	-0.009
-364.698	-30.268	-0.135	-0.076
-363.683	-200.000	0.016	-0.282
-362.669	139.070	0.060	-0.077
-361.654	42.113	0.181	0.162
-360.639	-18.008	0.317	0.196
-359.625	-92.430	-0.230	-0.064
-358.610	162.892	0.107	0.148
-357.596	627.528	0.070	-0.174
-356.581	-200.000	0.006	-0.308
-355.566	403.885	-0.035	-0.073
-354.552	86.334	0.260	-0.282
-353.537	745.165	0.045	-0.119
-352.523	190.670	-0.050	-0.074
-351.508	-131.761	-0.157	0.020
-350.493	-9.333	-0.034	0.022
-349.479	-37.428	0.268	-0.141
-348.464	-200.000	-0.047	-0.205
-347.450	184.226	-0.184	0.268
-346.435	332.813	0.079	-0.150
-345.420	-93.800	0.174	0.047
-344.406	57.454	-0.082	0.079
-343.391	50.487	0.152	0.142
-342.377	227.112	0.088	0.141
-341.362	70.513	0.078	0.079
-340.348	800.000	-0.005	0.015
-339.333	-200.000	0.003	-0.123
-338.318	-46.709	-0.159	-0.077
-337.304	125.050	-0.062	-0.076
-336.289	-116.211	-0.031	0.006
-335.275	-43.712	-0.104	0.052
-334.260	248.972	0.192	0.321
-333.245	94.069	-0.133	0.149
-332.231	360.338	-0.081	-0.161
-331.216	-85.909	-0.253	-0.077
-330.202	-142.111	-0.223	0.022
-329.187	-200.000	-0.030	-0.134
-328.172	215.167	0.051	-0.080
-327.158	179.170	0.200	0.288
-326.143	48.602	-0.186	0.172
-325.129	38.948	-0.222	0.195
-324.114	-102.052	0.453	0.108
-323.099	-85.733	-0.195	-0.060
-322.085	308.742	-0.134	0.246
-321.070	467.613	0.161	0.355
-320.056	-155.381	-0.177	0.011
-319.041	464.744	0.217	-0.478
-318.026	-31.099	0.263	-0.146
-317.012	126.096	-0.295	0.367
-315.997	800.000	0.062	-0.191
-314.983	586.337	0.101	-0.244
-313.968	64.618	0.426	-0.423
-312.953	44.467	-0.211	-0.191
-311.939	-98.821	0.234	0.059
-310.924	-200.000	-0.044	0.224
-309.910	118.172	-0.318	0.385
-308.895	-200.000	-0.074	0.501
-307.880	-22.928	-0.051	-0.030
-306.866	-200.000	0.040	0.434
-305.851	-200.000	-0.009	0.215
-304.837	-200.000	0.009	-0.056
-303.822	-135.350	-0.076	0.009
-302.807	236.577	0.218	0.355
-301.793	60.224	-0.245	0.238
-300.778	-200.000	0.008	0.219
-299.764	258.353	0.051	0.086
-298.749	-200.000	0.024	0.137
-297.735	-96.076	0.100	0.026
-296.720	-200.000	0.076	0.000
-295.705	62.304	0.178	-0.175
-294.691	305.433	0.212	0.388
-293.676	86.880	0.157	-0.171
-292.662	380.585	0.204	-0.411
-291.647	33.802	-0.316	-0.270
-290.632	-200.000	0.011	0.087
-289.618	333.185	-0.266	0.505
-288.603	317.816	0.155	-0.288
-287.589	257.842	-0.068	0.115
-286.574	-200.000	0.034	0.215
-285.559	40.423	0.296	0.262
-284.545	205.436	-0.118	-0.180
-283.530	-5.387	-0.263	-0.177
-282.516	-72.381	0.249	-0.090
-281.501	92.869	0.067	-0.075
-280.486	-200.000	-0.023	0.195
-279.472	-26.986	-0.056	-0.032
-278.457	800.000	-0.121	-0.403
-277.443	145.116	0.263	-0.346
-276.428	44.039	-0.161	-0.145
-275.413	-58.737	-0.108	0.046
-274.399	-116.074	-0.195	-0.036
-273.384	126.649	0.005	-0.006
-272.370	-164.983	0.530	-0.023
-271.355	-109.593	0.049	0.010
-270.340	348.815	0.048	-0.093
-269.326	29.084	-0.197	0.164
-268.311	490.142	-0.109	-0.244
-267.297	237.562	0.089	0.145
-266.282	120.800	0.179	0.218
-265.267	151.577	0.262	-0.350
-264.253	-200.000	-0.064	0.345
-263.238	-35.856	0.044	0.023
-262.224	800.000	0.081	-0.243
-261.209	41.811	0.173	-0.154
-260.195	-13.678	0.202	-0.129
-259.180	-200.000	0.010	-0.151
-258.165	-72.351	-0.345	-0.125
-257.151	508.409	0.059	-0.134
-256.136	-31.493	-0.202	-0.112
-255.122	-200.000	0.001	-0.187
-254.107	165.733	0.063	-0.087
-253.092	24.461	-0.258	0.209
-252.078	59.758	0.163	-0.158
-251.063	-79.510	-0.082	-0.027
-250.049	-181.673	-0.465	-0.009
-249.034	425.832	-0.064	0.135
-248.019	-54.453	-0.245	0.109
-247.005	-57.554	0.274	-0.118
-245.990	-200.000	-0.004	-0.110
-244.976	682.741	-0.093	0.238
-243.961	-74.467	0.321	0.113
-242.946	-6.095	-0.128	0.086
-241.932	257.195	-0.186	-0.313
-240.917	-140.708	0.010	-0.001
-239.903	-200.000	0.018	0.270
-238.888	800.000	-0.025	-0.092
-237.873	10.190	-0.242	0.180
-236.859	181.225	0.165	0.238
-235.844	-153.762	-0.354	0.024
-234.830	-97.895	0.502	0.127
-233.815	-148.766	0.139	-0.011
-232.800	-124.209	-0.381	-0.059
-231.786	91.911	0.134	-0.148
-230.771	46.075	-0.134	-0.121
-229.757	38.268	0.088	-0.077
-228.742	-88.325	-0.128	-0.038
-227.727	-45.653	-0.207	-0.100
-226.713	800.000	0.111	0.332
-225.698	-125.440	-0.224	0.033
-224.684	-11.869	-0.381	0.245
-223.669	-134.872	0.244	0.029
-222.655	-200.000	-0.023	-0.379
-221.640	284.105	0.019	0.034
-220.625	-95.928	0.246	0.064
-219.611	15.396	-0.117	0.090
-218.596	-86.196	-0.356	0.108
-217.582	206.792	0.045	-0.069
-216.567	-13.622	-0.164	0.104
-215.552	-124.736	-0.313	0.048
-214.538	800.000	0.026	-0.098
-213.523	-200.000	0.041	-0.222
-212.509	-82.487	-0.355	0.113
-211.494	-38.423	0.141	0.073
-210.479	598.126	-0.087	-0.211
-209.465	491.339	0.081	0.182
-208.450	-114.817	0.567	-0.106
-207.436	0.342	-0.306	0.214
-206.421	39.964	-0.029	-0.026
-205.406	785.766	-0.140	-0.376
-204.392	42.669	0.055	-0.049
-203.377	89.107	0.118	0.129
-202.363	-1.519	0.179	0.124
-201.348	-200.000	-0.002	0.025
-200.333	12.684	0.118	0.089
-199.319	-73.854	-0.139	0.049
-198.304	714.850	-0.185	-0.481
-197.290	-22.867	0.108	0.064
-196.275	-35.686	-0.089	-0.047
-195.260	-200.000	-0.018	-0.317
-194.246	-106.787	0.312	0.068
-193.231	800.000	-0.052	-0.188
-192.217	443.722	0.046	0.098
-191.202	385.964	-0.217	0.438
-190.187	800.000	-0.110	-0.405
-189.173	334.897	-0.003	0.005
-188.158	-87.769	0.227	-0.067
-187.144	-125.493	0.113	-0.017
-186.129	-200.000	0.024	-0.346
-185.114	69.569	0.100	-0.101
-184.100	-90.976	0.394	-0.111
-183.085	219.973	-0.208	0.326
-182.071	78.875	-0.165	-0.173
-181.056	228.900	0.247	-0.395
-180.042	-71.453	-0.216	-0.079
-179.027	53.218	-0.314	-0.294
-178.012	367.084	0.057	0.113
-176.998	-1.311	0.125	-0.086
-175.983	-52.898	-0.182	-0.082
-174.969	656.111	-0.139	-0.350
-173.954	86.512	-0.068	-0.073
-172.939	-41.698	0.385	-0.193
-171.925	-80.919	0.152	0.049
-170.910	-58.435	-0.217	0.092
-169.896	-91.990	0.187	-0.052
-168.881	43.221	0.152	0.136
-167.866	71.921	-0.077	-0.078
-166.852	211.329	-0.094	-0.145
-165.837	-157.625	0.305	0.018
-164.823	-200.000	0.049	-0.423
-163.808	71.015	0.138	-0.140
-162.793	-9.102	0.274	-0.179
-161.779	-200.000	0.011	0.367
-160.764	-90.559	-0.253	-0.072
-159.750	-78.742	-0.412	0.138
-158.735	-45.285	-0.207	0.100
-157.720	146.150	0.199	0.262
-156.706	19.108	0.246	0.193
-155.691	-200.000	0.040	-0.301
-154.677	258.090	-0.133	-0.224
-153.662	106.329	0.080	0.093
-152.647	-55.726	0.356	-0.156
-151.633	86.203	0.152	0.164
-150.618	147.910	-0.148	0.195
-149.604	-74.475	-0.212	-0.075
-148.589	-54.173	0.146	0.065
-147.574	187.206	-0.261	-0.381
-146.560	-72.875	0.202	0.072
-145.545	800.000	-0.065	-0.203
-144.531	298.235	-0.111	-0.200
-143.516	52.179	-0.143	-0.134
-142.502	-94.082	-0.211	0.057
-141.487	-107.515	0.105	0.022
-140.472	800.000	0.029	-0.096
-139.458	453.019	-0.104	0.224
-138.443	66.567	-0.041	0.041
-137.429	26.154	-0.050	-0.041
-136.414	-90.561	-0.145	-0.041
-135.399	199.413	0.108	0.162
-134.385	137.750	-0.138	0.177
-133.370	-41.554	-0.187	0.094
-132.356	-86.203	-0.123	-0.037
-131.341	177.472	-0.141	0.201
-130.326	178.265	0.200	0.285
-129.312	41.306	0.126	0.112
-128.297	55.695	0.201	-0.190
-127.283	-200.000	0.020	0.099
-126.268	68.963	0.241	0.242
-125.253	313.629	-0.134	0.246
-124.239	678.601	0.084	0.213
-123.224	70.014	-0.227	0.229
-122.210	-80.920	-0.326	0.106
-121.195	-200.000	-0.007	-0.054
