DTS Sentinel unit serial number:	SN413079Multiplexer serial number:	ORYXHardware model number:	OX4-SRSoftware version number:	ORYX F/W v4.00 Oryx Data Collector v3.7.2.0data status	okinstallation	princeton_trtdifferential loss correction	single-endedforward channel	channel 3reverse channel	N/Adate	2019/09/12time	18:40:03forward acquisition time	15.00reverse acquisition time	0.00gamma	496.2192k internal	0.2318k external	0.2318temperature offset calibration	1.0101default loss term (dB/km)	0.3790temperature slope calibration	1.0000multiplexer offset coefficient	1.0000multiplexer slope coefficient	1.0000fibre end	0.00T internal ref (°C)	33.06T ext. ref 1 (°C)	2.94T ext. ref 2 (°C)	27.62length (m)	temperature (°C)	Stokes	anti-Stokes-747.200	-113.090	-0.292	0.058
-746.185	-114.011	-0.647	-0.127
-745.171	535.533	-0.185	-0.445
-744.156	-129.737	0.542	0.076
-743.142	65.594	-0.481	0.493
-742.127	800.000	0.116	0.382
-741.112	11.911	-0.464	-0.361
-740.098	3.955	-0.537	0.397
-739.083	800.000	0.097	-0.402
-738.069	-34.685	0.390	0.216
-737.054	800.000	0.111	0.449
-736.039	-36.557	0.163	-0.088
-735.025	-157.994	0.671	-0.040
-734.010	-148.223	0.404	-0.034
-732.996	-200.000	-0.179	1.078
-731.981	283.966	-0.256	-0.466
-730.966	-79.754	0.634	0.216
-729.952	429.416	-0.431	0.942
-728.937	108.617	-0.382	-0.462
-727.923	573.448	0.194	-0.479
-726.908	-200.000	0.067	0.505
-725.894	-200.000	0.002	0.287
-724.879	-113.730	0.447	-0.088
-723.864	-135.033	-0.584	-0.071
-722.850	800.000	0.048	0.142
-721.835	-91.919	-1.012	0.290
-720.821	626.693	-0.093	-0.238
-719.806	-48.248	-0.604	0.295
-718.791	-200.000	0.007	-0.365
-717.777	40.394	-0.410	0.373
-716.762	187.297	0.471	-0.710
-715.748	-83.765	0.427	0.138
-714.733	206.558	0.566	-0.891
-713.718	800.000	-0.132	0.477
-712.704	664.688	0.151	0.393
-711.689	108.785	-0.527	-0.637
-710.675	18.598	0.506	-0.409
-709.660	20.028	0.130	-0.106
-708.645	234.816	-0.375	0.626
-707.631	-80.347	-1.020	-0.344
-706.616	223.194	-0.068	0.112
-705.602	90.563	0.202	0.229
-704.587	204.326	-0.077	0.121
-703.572	58.986	0.339	-0.337
-702.558	-94.790	-0.314	0.086
-701.543	69.057	-0.654	-0.679
-700.529	-101.666	0.741	-0.182
-699.514	-0.854	-0.508	-0.364
-698.499	259.372	-0.534	-0.931
-697.485	27.331	0.370	-0.314
-696.470	444.128	0.240	0.531
-695.456	-144.111	-0.725	0.069
-694.441	90.681	0.884	-1.001
-693.426	-17.134	0.128	-0.082
-692.412	-109.752	-0.198	0.042
-691.397	-200.000	-0.063	0.566
-690.383	-54.267	0.279	0.128
-689.368	76.255	-0.336	0.360
-688.354	-159.829	1.113	0.062
-687.339	179.411	0.092	0.137
-686.324	118.557	-0.443	-0.552
-685.310	6.845	0.786	0.591
-684.295	401.582	0.272	-0.577
-683.281	-42.762	0.090	-0.046
-682.266	-107.918	0.242	0.053
-681.251	369.167	-0.293	0.599
-680.237	242.224	-0.406	0.685
-679.222	45.444	-0.272	-0.253
-678.208	-114.091	0.840	0.164
-677.193	800.000	0.209	0.744
-676.178	-75.525	-0.668	-0.240
-675.164	-67.129	-0.907	-0.361
-674.149	-200.000	0.111	-0.702
-673.135	-140.902	-0.396	-0.041
-672.120	-200.000	-0.134	-0.640
-671.105	-118.527	-0.578	-0.103
-670.091	254.643	0.214	-0.370
-669.076	-66.167	0.522	0.210
-668.062	800.000	-0.261	0.780
-667.047	-200.000	0.006	0.310
-666.032	-192.564	-0.038	-0.000
-665.018	-200.000	-0.009	0.382
-664.003	175.225	-0.166	-0.243
-662.989	48.106	-0.297	0.280
-661.974	-6.796	0.477	0.327
-660.959	-40.857	-1.050	-0.548
-659.945	652.689	0.276	-0.713
-658.930	-108.422	0.391	0.085
-657.916	9.142	0.471	-0.359
-656.901	800.000	-0.178	-0.706
-655.886	25.997	-0.150	-0.126
-654.872	259.689	-0.304	0.530
-653.857	-126.463	-0.088	-0.013
-652.843	38.384	-0.619	0.556
-651.828	-69.982	-0.427	0.164
-650.814	-15.466	0.596	-0.384
-649.799	-200.000	0.466	-0.000
-648.784	-200.000	0.006	-0.917
-647.770	-89.973	0.375	-0.110
-646.755	-27.598	0.272	0.160
-645.741	-40.545	0.120	-0.063
-644.726	-39.915	0.334	0.176
-643.711	800.000	-0.170	-0.569
-642.697	23.570	-0.055	0.046
-641.682	-85.624	-0.240	0.075
-640.668	800.000	-0.061	-0.245
-639.653	173.658	-0.251	-0.366
-638.638	-115.528	-0.617	-0.117
-637.624	-104.029	0.507	-0.119
-636.609	800.000	0.026	0.113
-635.595	-148.063	-0.533	-0.045
-634.580	-66.371	0.726	-0.291
-633.565	-200.000	-0.004	-0.393
-632.551	-143.141	0.902	-0.088
-631.536	-107.586	-0.808	-0.178
-630.522	-123.154	0.352	0.057
-629.507	-162.281	-0.656	-0.033
-628.492	11.026	-0.235	-0.181
-627.478	50.782	-0.275	0.262
-626.463	102.176	-0.520	-0.612
-625.449	274.406	-0.080	0.143
-624.434	140.257	-0.067	0.089
-623.419	-200.000	0.019	-0.118
-622.405	275.407	-0.127	0.226
-621.390	-54.479	0.539	0.246
-620.376	-200.000	0.045	-0.271
-619.361	217.062	0.375	0.602
-618.346	225.542	0.438	0.714
-617.332	247.358	0.269	0.457
-616.317	-104.561	-0.306	0.071
-615.303	-117.474	-0.791	-0.144
-614.288	-180.043	0.369	-0.008
-613.273	800.000	0.149	-0.530
-612.259	-200.000	0.050	-0.707
-611.244	17.699	0.209	0.167
-610.230	36.713	-0.347	-0.308
-609.215	-115.450	-0.097	0.018
-608.201	46.868	0.248	-0.233
-607.186	241.245	-0.210	-0.353
-606.171	-200.000	0.032	0.800
-605.157	-140.447	0.829	0.087
-604.142	-15.332	0.161	-0.103
-603.128	241.918	0.362	-0.609
-602.113	800.000	-0.230	1.002
-601.098	340.744	0.141	0.277
-600.084	135.572	0.333	-0.436
-599.069	-200.000	0.038	0.403
-598.055	-47.152	-0.483	-0.237
-597.040	-107.776	1.395	0.306
-596.025	338.345	-0.472	0.925
-595.011	136.410	-0.437	0.574
-593.996	-77.530	0.298	0.104
-592.982	89.930	-0.396	0.446
-591.967	-2.891	-0.614	-0.432
-590.952	-66.974	0.924	-0.367
-589.938	82.370	0.296	-0.323
-588.923	-1.120	0.615	0.438
-587.909	-63.837	0.105	0.043
-586.894	306.063	-0.224	-0.419
-585.879	736.137	-0.206	-0.557
-584.865	800.000	-0.149	0.586
-583.850	-80.610	1.018	0.341
-582.836	-200.000	0.510	0.002
-581.821	229.592	-0.159	0.261
-580.806	-46.894	-0.309	-0.152
-579.792	-42.854	-0.511	0.261
-578.777	408.489	-0.378	0.804
-577.763	-85.585	0.782	-0.244
-576.748	-63.827	-0.098	0.040
-575.733	427.014	0.130	0.281
-574.719	-200.000	-0.811	0.004
-573.704	-116.230	0.113	-0.021
-572.690	-64.288	0.879	0.360
-571.675	-200.000	0.001	-0.041
-570.661	-46.838	1.057	-0.520
-569.646	-168.522	0.324	-0.012
-568.631	29.687	-0.163	0.139
-567.617	1.446	-0.795	0.575
-566.602	145.713	0.390	0.526
-565.588	-200.000	0.016	0.260
-564.573	-8.165	-0.734	0.497
-563.558	-200.000	0.009	-0.447
-562.544	-154.653	0.140	-0.009
-561.529	-165.616	-0.495	-0.022
-560.515	88.526	-0.154	0.172
-559.500	76.515	-0.092	0.098
-558.485	620.309	-0.071	0.179
-557.471	-147.876	0.855	-0.072
-556.456	800.000	-0.178	0.545
-555.442	-200.000	-0.191	0.873
-554.427	5.763	-0.540	0.401
-553.412	-200.000	-0.113	-0.595
-552.398	-157.101	0.297	-0.018
-551.383	106.356	-0.256	-0.305
-550.369	-200.000	-0.063	-0.361
-549.354	3.177	0.198	0.145
-548.339	-200.000	0.001	0.569
-547.325	89.118	-0.248	-0.277
-546.310	354.509	0.369	-0.738
-545.296	-10.397	0.292	-0.194
-544.281	-23.817	-0.546	0.329
-543.266	562.340	0.235	0.571
-542.252	-200.000	-0.180	0.001
-541.237	56.577	0.098	-0.095
-540.223	24.811	-0.317	-0.264
-539.208	63.473	0.368	-0.370
-538.193	74.723	0.414	0.437
-537.179	-200.000	0.118	0.937
-536.164	12.219	0.551	-0.426
-535.150	25.989	-0.183	-0.153
-534.135	-59.178	0.395	0.171
-533.121	-74.081	-0.432	-0.157
-532.106	-136.367	-0.574	0.067
-531.091	-39.455	-0.314	-0.165
-530.077	-3.463	-0.292	0.204
-529.062	-161.104	-0.490	0.026
-528.048	-200.000	-0.029	0.271
-527.033	-126.575	0.511	0.076
-526.018	58.047	0.297	0.292
-525.004	-135.279	0.813	0.098
-523.989	31.034	-0.272	0.234
-522.975	800.000	-0.063	-0.206
-521.960	-121.707	0.694	0.115
-520.945	-55.881	-0.552	0.247
-519.931	-51.834	0.747	-0.349
-518.916	-117.049	1.270	-0.233
-517.902	615.168	-0.163	0.410
-516.887	-171.891	0.341	0.011
-515.872	242.414	0.241	-0.405
-514.858	-200.000	0.080	0.570
-513.843	800.000	-0.131	0.408
-512.829	103.407	-0.111	-0.131
-511.814	800.000	0.168	-0.683
-510.799	-115.006	-0.256	-0.049
-509.785	33.796	-0.871	0.760
-508.770	46.870	-0.192	-0.179
-507.756	-200.000	0.034	-0.320
-506.741	-78.598	-0.575	-0.197
-505.726	45.745	0.487	-0.451
-504.712	-127.617	-0.356	-0.052
-503.697	105.736	0.427	0.506
-502.683	-11.510	0.249	0.164
-501.668	1.222	0.370	0.267
-500.653	800.000	-0.069	0.262
-499.639	327.747	0.074	0.142
-498.624	-200.000	-0.057	0.547
-497.610	-200.000	0.136	-0.804
-496.595	-124.418	0.905	-0.141
-495.581	-200.000	-0.038	-0.810
-494.566	46.897	0.428	0.398
-493.551	-22.501	-0.762	-0.462
-492.537	-136.602	0.732	-0.085
-491.522	-200.000	0.028	0.642
-490.508	-200.000	0.026	0.267
-489.493	-89.218	-0.187	0.055
-488.478	-19.774	0.330	0.205
-487.464	-72.699	-0.692	0.255
-486.449	241.450	-0.451	0.755
-485.435	-99.923	1.092	0.273
-484.420	-16.938	-0.392	-0.248
-483.405	469.934	0.129	-0.291
-482.391	-8.924	0.165	0.110
-481.376	-89.784	0.901	-0.264
-480.362	11.456	-0.350	-0.269
-479.347	-59.995	-0.797	-0.341
-478.332	800.000	-0.183	-0.754
-477.318	-4.235	-0.290	-0.201
-476.303	177.505	0.068	-0.099
-475.289	-200.000	-0.050	-0.353
-474.274	724.929	-0.039	0.104
-473.259	800.000	-0.027	0.097
-472.245	800.000	-0.140	-0.551
-471.230	-200.000	-0.070	-0.443
-470.216	-78.139	-1.092	0.376
-469.201	-59.170	0.448	0.194
-468.186	54.438	-0.264	0.255
-467.172	800.000	-0.182	0.686
-466.157	-39.344	0.466	-0.245
-465.143	-35.272	0.460	-0.250
-464.128	78.015	-0.869	0.928
-463.113	18.293	-0.218	0.175
-462.099	-22.740	0.657	-0.397
-461.084	0.494	0.300	-0.214
-460.070	-48.251	-1.049	-0.507
-459.055	123.028	-0.423	-0.531
-458.040	127.981	0.333	0.424
-457.026	-95.519	-0.846	0.227
-456.011	-61.979	-0.589	0.246
-454.997	-74.292	0.492	-0.178
-453.982	789.426	0.156	-0.428
-452.968	-200.000	0.035	-0.918
-451.953	67.795	0.400	-0.410
-450.938	50.476	0.519	0.492
-449.924	683.307	0.119	-0.310
-448.909	-200.000	-0.012	0.672
-447.895	434.800	-0.337	-0.734
-446.880	-200.000	0.025	-0.111
-445.865	272.656	0.102	0.180
-444.851	-147.359	-0.959	-0.081
-443.836	-200.000	-0.031	-0.294
-442.822	-200.000	-0.126	-0.729
-441.807	-200.000	0.031	1.020
-440.792	800.000	-0.198	-0.801
-439.778	-200.000	0.046	-0.359
-438.763	56.172	0.246	0.239
-437.749	244.777	-0.389	-0.655
-436.734	28.895	0.677	0.574
-435.719	91.119	0.524	0.588
-434.705	760.182	-0.379	-1.027
-433.690	800.000	0.149	-0.489
-432.676	-200.000	0.079	-0.767
-431.661	-156.353	-0.476	-0.030
-430.646	-101.496	-0.064	0.016
-429.632	-10.258	0.301	0.200
-428.617	189.358	-0.162	-0.242
-427.603	-49.107	-0.232	0.111
-426.588	-98.284	-0.358	-0.092
-425.573	83.849	0.438	0.477
-424.559	-135.294	0.425	-0.051
-423.544	46.443	-0.013	0.012
-422.530	-22.789	0.565	-0.341
-421.515	-1.364	0.617	-0.435
-420.500	-94.060	-0.637	0.175
-419.486	134.725	0.435	-0.564
-418.471	-175.494	-0.462	0.013
-417.457	-200.000	-0.052	-0.699
-416.442	-125.826	0.307	0.046
-415.428	73.926	-0.299	0.313
-414.413	-47.342	-1.097	0.534
-413.398	-200.000	0.180	0.947
-412.384	-200.000	-0.195	0.984
-411.369	346.085	0.274	-0.538
-410.355	104.869	0.536	-0.632
-409.340	81.335	0.404	0.436
-408.325	80.388	-0.198	-0.213
-407.311	-30.585	-0.422	0.239
-406.296	695.973	0.166	0.435
-405.282	-200.000	0.084	0.404
-404.267	502.016	0.396	-0.913
-403.252	47.161	0.494	-0.459
-402.238	391.739	0.254	0.528
-401.223	10.354	0.210	-0.160
-400.209	-94.606	0.224	0.061
-399.194	-200.000	0.052	0.805
-398.179	-200.000	-0.004	-0.527
-397.165	-200.000	0.022	0.287
-396.150	800.000	-0.133	0.488
-395.136	137.720	0.257	0.336
-394.121	-51.519	-0.429	0.200
-393.106	-104.011	-0.192	0.045
-392.092	143.075	0.204	-0.271
-391.077	-166.663	0.186	0.008
-390.063	-19.279	0.222	-0.137
-389.048	427.250	0.291	-0.626
-388.033	743.966	-0.069	-0.186
-387.019	77.798	0.328	-0.349
-386.004	-10.414	-0.324	0.214
-384.990	208.049	-0.591	-0.922
-383.975	21.219	0.375	-0.304
-382.960	-200.000	-0.001	0.448
-381.946	-15.371	-0.482	-0.308
-380.931	-169.936	1.084	-0.039
-379.917	-57.424	-0.653	-0.286
-378.902	-200.000	0.058	-0.485
-377.888	51.607	-0.220	-0.209
-376.873	20.904	0.413	-0.334
-375.858	-60.579	0.466	0.197
-374.844	70.777	-0.416	-0.430
-373.829	-200.000	-0.001	-0.408
-372.815	145.285	0.372	0.497
-371.800	-200.000	-0.008	0.232
-370.785	-200.000	0.274	0.000
-369.771	19.438	-1.132	-0.908
-368.756	-44.206	0.729	0.365
-367.742	280.715	0.111	-0.197
-366.727	-150.233	0.264	0.020
-365.712	-155.671	-0.874	-0.056
-364.698	-200.000	-0.176	-0.806
-363.683	-3.406	-0.212	0.147
-362.669	299.305	-0.162	0.297
-361.654	-87.489	-0.569	0.172
-360.639	-41.355	0.076	-0.039
-359.625	-200.000	-0.071	-0.351
-358.610	2.990	0.495	0.358
-357.596	223.889	-0.272	-0.438
-356.581	-93.674	-1.281	-0.352
-355.566	-44.384	-0.365	0.182
-354.552	99.772	-0.218	0.251
-353.537	-200.000	-0.032	-0.827
-352.523	800.000	-0.174	-0.505
-351.508	-120.354	0.467	-0.079
-350.493	-200.000	0.057	0.266
-349.479	-109.913	1.202	0.251
-348.464	-161.286	0.759	-0.039
-347.450	-161.352	0.854	0.044
-346.435	800.000	-0.067	0.211
-345.420	-77.216	0.589	0.204
-344.406	800.000	0.113	-0.430
-343.391	-90.571	-0.225	-0.065
-342.377	-167.941	0.322	0.013
-341.362	38.954	0.405	0.360
-340.348	94.120	0.096	-0.109
-339.333	-200.000	0.051	0.257
-338.318	-1.759	0.613	-0.430
-337.304	28.050	-0.474	-0.399
-336.289	125.017	-0.679	-0.853
-335.275	-122.391	0.655	0.106
-334.260	-118.333	0.472	0.083
-333.245	-113.948	-0.276	-0.053
-332.231	166.478	-0.091	-0.129
-331.216	135.343	-0.543	0.703
-330.202	349.632	-0.400	0.787
-329.187	800.000	-0.077	0.334
-328.172	800.000	0.146	0.437
-327.158	-27.117	-0.435	0.253
-326.143	-200.000	-0.007	-0.457
-325.129	-200.000	-0.050	0.371
-324.114	3.379	0.349	-0.253
-323.099	-161.704	0.201	0.010
-322.085	-200.000	0.023	0.354
-321.070	-200.000	-0.043	0.229
-320.056	800.000	-0.131	-0.366
-319.041	-200.000	-0.058	0.346
-318.026	107.222	-0.465	-0.550
-317.012	800.000	0.221	0.679
-315.997	106.716	-0.251	0.297
-314.983	-82.610	-0.486	-0.157
-313.968	-23.691	-0.863	-0.515
-312.953	453.859	-0.235	-0.517
-311.939	150.493	0.212	0.287
-310.924	625.326	0.143	0.358
-309.910	-10.853	0.289	0.190
-308.895	100.077	-0.866	1.000
-307.880	81.892	0.228	0.245
-306.866	170.408	0.251	0.357
-305.851	9.243	-0.273	-0.205
-304.837	-200.000	-0.015	-0.720
-303.822	277.012	0.336	-0.595
-302.807	-38.078	-0.492	-0.260
-301.793	800.000	0.116	-0.486
-300.778	-162.989	0.206	-0.010
-299.764	-53.502	-0.248	-0.113
-298.749	-104.846	0.373	0.085
-297.735	800.000	0.121	0.512
-296.720	23.795	0.126	0.103
-295.705	-9.586	0.630	0.418
-294.691	98.497	-0.201	-0.230
-293.676	-116.763	0.337	-0.061
-292.662	-31.874	0.752	-0.419
-291.647	-200.000	0.076	-0.443
-290.632	800.000	0.085	-0.250
-289.618	671.064	0.037	-0.095
-288.603	-116.714	0.168	-0.031
-287.589	800.000	-0.061	0.177
-286.574	-31.799	-0.487	-0.271
-285.559	-34.234	-0.574	-0.314
-284.545	-96.460	0.675	0.177
-283.530	-119.899	-0.289	0.049
-282.516	115.997	0.082	-0.099
-281.501	419.531	-0.165	0.351
-280.486	800.000	0.015	-0.060
-279.472	-21.539	-0.864	0.523
-278.457	95.835	0.342	0.388
-277.443	-45.553	-0.443	-0.218
-276.428	800.000	-0.151	0.557
-275.413	-109.026	-0.619	-0.131
-274.399	3.405	0.764	0.553
-273.384	-110.815	-0.643	-0.132
-272.370	-100.634	-0.525	0.129
-271.355	56.732	0.233	-0.225
-270.340	203.483	-0.158	0.242
-269.326	86.625	0.383	0.420
-268.311	-116.399	-0.447	0.082
-267.297	165.818	-0.469	-0.659
-266.282	-95.299	-0.530	0.142
-265.267	35.086	-0.695	0.605
-264.253	-120.931	0.394	0.066
-263.238	-63.757	-0.924	-0.376
-262.224	-200.000	-0.002	0.194
-261.209	-200.000	0.084	0.738
-260.195	800.000	0.069	0.213
-259.180	739.360	-0.040	-0.107
-258.165	-200.000	-0.075	0.695
-257.151	256.374	-0.188	-0.320
-256.136	-166.431	-0.139	0.006
-255.122	-13.093	-0.528	-0.341
-254.107	-123.933	0.732	-0.114
-253.092	158.221	-0.263	0.362
-252.078	262.599	-0.403	-0.694
-251.063	118.121	-0.527	0.645
-250.049	164.064	0.082	-0.115
-249.034	-30.206	0.126	-0.071
-248.019	800.000	0.085	-0.329
-247.005	287.262	-0.103	0.185
-245.990	148.258	0.161	-0.216
-244.976	568.237	0.267	0.644
-243.961	45.511	-0.361	-0.331
-242.946	154.287	-0.445	0.606
-241.932	511.638	0.405	-0.936
-240.917	401.286	-0.168	0.350
-239.903	-103.392	0.544	-0.127
-238.888	800.000	-0.224	-0.683
-237.873	429.182	0.291	-0.624
-236.859	199.205	-0.265	-0.403
-235.844	-200.000	0.040	0.311
-234.830	502.179	-0.307	-0.705
-233.815	-150.819	-0.523	0.039
-232.800	86.763	0.257	0.282
-231.786	-100.898	-0.601	-0.147
-230.771	-114.257	0.152	-0.029
-229.757	361.280	-0.227	0.451
-228.742	62.579	-0.375	0.371
-227.727	800.000	0.103	-0.432
-226.713	800.000	0.074	0.312
-225.698	190.374	-0.159	0.237
-224.684	77.179	0.129	0.136
-223.669	-73.769	-0.629	0.227
-222.655	159.352	-0.200	-0.276
-221.640	563.313	-0.130	-0.312
-220.625	-14.755	-0.202	-0.128
-219.611	-146.960	-0.625	0.053
-218.596	-141.337	0.246	-0.025
-217.582	112.083	0.166	0.199
-216.567	0.238	-0.329	0.233
-215.552	-200.000	0.013	-0.322
-214.538	-200.000	0.014	0.537
-213.523	737.302	0.276	0.734
-212.509	55.266	0.238	-0.228
-211.494	-15.148	0.355	0.225
-210.479	390.464	-0.070	0.143
-209.465	-147.585	0.812	0.068
-208.450	-84.254	0.181	-0.057
-207.436	-200.000	0.053	0.959
-206.421	231.098	-0.160	0.260
-205.406	23.528	-0.302	0.246
-204.392	-143.787	-0.267	0.025
-203.377	345.506	0.283	-0.551
-202.363	-159.604	0.671	-0.037
-201.348	389.209	0.065	-0.133
-200.333	9.635	0.601	-0.451
-199.319	-170.629	0.182	-0.006
-198.304	39.527	-0.048	0.042
-197.290	194.808	0.217	0.326
-196.275	203.793	0.036	0.056
-195.260	-200.000	0.003	-0.028
-194.246	800.000	-0.119	0.351
-193.231	364.978	-0.251	-0.501
-192.217	-102.799	0.068	0.016
-191.202	180.791	0.260	0.378
-190.187	790.452	-0.361	0.983
-189.173	340.384	0.059	0.115
-188.158	408.359	0.091	-0.190
-187.144	800.000	-0.192	0.665
-186.129	368.759	-0.044	0.089
-185.114	-200.000	0.070	-0.530
-184.100	21.023	-0.159	0.128
-183.085	75.896	-0.273	-0.286
-182.071	-200.000	0.070	0.357
-181.056	107.742	-0.428	-0.505
-180.042	-34.045	0.302	-0.164
-179.027	-200.000	-0.080	0.756
-178.012	195.666	-0.293	-0.441
-176.998	94.757	-0.244	-0.275
-175.983	731.345	-0.335	-0.887
-174.969	-31.446	0.067	-0.037
-173.954	91.633	0.511	0.568
-172.939	800.000	0.217	-0.695
-171.925	51.982	0.191	-0.180
-170.910	-127.416	0.808	-0.116
-169.896	43.176	-0.362	-0.327
-168.881	284.831	0.131	0.234
-167.866	17.786	0.437	-0.344
-166.852	-200.000	0.088	-0.536
-165.837	-11.061	-0.394	-0.257
-164.823	-4.477	0.198	0.135
-163.808	-175.807	-0.160	0.004
-162.793	-200.000	-0.085	-0.609
-161.779	-200.000	-0.043	0.724
-160.764	-125.899	-0.373	-0.056
-159.750	-200.000	0.108	0.591
-158.735	-200.000	-0.122	-0.830
-157.720	57.265	0.677	0.653
-156.706	171.818	-0.285	0.405
-155.691	95.366	-0.550	-0.620
-154.677	734.804	-0.259	0.686
-153.662	-67.644	0.463	0.179
-152.647	61.288	-0.526	0.517
-151.633	-14.567	-0.241	-0.153
-150.618	-126.312	-0.295	-0.044
-149.604	-37.500	0.875	0.462
-148.589	71.552	-0.544	-0.559
-147.574	255.332	0.191	-0.323
-146.560	90.187	0.545	0.602
-145.545	448.042	0.073	-0.159
-144.531	-200.000	-0.012	0.249
-143.516	-57.089	-0.392	0.171
-142.502	-115.939	-0.868	0.160
-141.487	-122.187	-0.964	-0.156
-140.472	173.711	-0.258	0.368
-139.458	-138.358	-0.319	0.035
-138.443	-200.000	-0.049	0.504
-137.429	-200.000	-0.021	-0.194
-136.414	161.749	-0.283	-0.391
-135.399	-163.192	1.085	0.052
-134.385	-100.434	0.804	0.197
-133.370	461.225	0.392	0.863
-132.356	710.058	0.412	1.076
-131.341	-200.000	-0.081	0.469
-130.326	32.977	-0.132	0.113
-129.312	-200.000	0.062	0.354
-128.297	1.365	0.708	-0.503
-127.283	-200.000	0.017	0.190
-126.268	-151.560	-0.160	-0.012
-125.253	231.720	-0.558	-0.903
-124.239	139.292	0.532	-0.691
-123.224	-80.717	-0.377	0.124
-122.210	141.583	0.181	0.237
-121.195	-200.000	-0.084	-0.743
