DTS Sentinel unit serial number:	SN413079Multiplexer serial number:	ORYXHardware model number:	OX4-SRSoftware version number:	ORYX F/W v4.00 Oryx Data Collector v3.7.2.0data status	okinstallation	princeton_trtdifferential loss correction	single-endedforward channel	channel 3reverse channel	N/Adate	2019/09/14time	11:20:35forward acquisition time	60.00reverse acquisition time	0.00gamma	496.2192k internal	0.2297k external	0.2297temperature offset calibration	1.0067default loss term (dB/km)	0.3790temperature slope calibration	1.0000multiplexer offset coefficient	1.0000multiplexer slope coefficient	1.0000fibre end	0.00T internal ref (°C)	36.66T ext. ref 1 (°C)	4.51T ext. ref 2 (°C)	32.89length (m)	temperature (°C)	Stokes	anti-Stokes-747.200	663.622	-0.078	-0.206
-746.185	-200.000	0.018	0.171
-745.171	-200.000	0.030	-0.331
-744.156	-69.553	0.253	0.099
-743.142	77.614	-0.102	-0.111
-742.127	795.262	0.089	0.250
-741.112	800.000	-0.033	-0.118
-740.098	-60.145	-0.084	0.037
-739.083	94.593	0.155	0.180
-738.069	-44.848	0.070	-0.036
-737.054	156.971	0.115	0.163
-736.039	-125.783	0.168	0.026
-735.025	-88.346	0.292	-0.089
-734.010	-143.528	-0.189	-0.018
-732.996	8.556	-0.274	-0.211
-731.981	148.039	-0.041	-0.056
-730.966	22.167	-0.152	-0.127
-729.952	-105.122	-0.206	-0.048
-728.937	-60.073	-0.134	-0.058
-727.923	-200.000	0.003	0.097
-726.908	-200.000	-0.044	-0.301
-725.894	333.796	-0.104	-0.205
-724.879	-116.455	-0.154	-0.029
-723.864	-200.000	0.049	-0.344
-722.850	-24.561	0.186	0.113
-721.835	800.000	-0.086	-0.377
-720.821	4.400	-0.173	0.129
-719.806	45.812	0.069	-0.066
-718.791	25.611	-0.145	0.123
-717.777	12.398	-0.207	0.162
-716.762	559.205	-0.025	0.061
-715.748	-128.343	-0.182	-0.026
-714.733	-200.000	-0.031	-0.186
-713.718	226.408	0.141	-0.233
-712.704	-4.516	0.181	-0.127
-711.689	800.000	0.057	0.238
-710.675	800.000	-0.011	0.032
-709.660	800.000	-0.080	-0.289
-708.645	69.226	-0.080	-0.084
-707.631	-200.000	0.037	0.416
-706.616	20.026	-0.221	0.182
-705.602	-139.987	-0.489	-0.053
-704.587	370.423	0.081	0.168
-703.572	-154.049	-0.424	-0.029
-702.558	391.918	0.205	-0.434
-701.543	-200.000	-0.006	0.129
-700.529	-200.000	0.060	0.412
-699.514	102.380	0.110	0.131
-698.499	-62.328	-0.246	-0.104
-697.485	44.207	0.141	-0.132
-696.470	85.212	-0.278	0.311
-695.456	672.702	-0.040	-0.106
-694.441	479.461	0.136	-0.315
-693.426	41.280	-0.116	-0.107
-692.412	204.936	0.155	-0.245
-691.397	-200.000	0.012	-0.177
-690.383	101.361	0.144	-0.170
-689.368	13.087	-0.386	0.304
-688.354	-111.058	-0.406	0.085
-687.339	112.795	-0.179	-0.221
-686.324	-104.563	0.104	-0.024
-685.310	378.854	-0.159	0.332
-684.295	28.963	-0.256	0.221
-683.281	-200.000	-0.003	0.305
-682.266	-102.974	-0.213	0.052
-681.251	-200.000	0.039	-0.324
-680.237	16.041	-0.274	0.220
-679.222	95.475	-0.285	0.331
-678.208	69.020	-0.133	0.140
-677.193	-200.000	-0.023	-0.193
-676.178	800.000	0.022	0.063
-675.164	-200.000	-0.009	0.063
-674.149	729.007	-0.185	-0.503
-673.135	19.535	-0.108	-0.088
-672.120	800.000	0.051	-0.194
-671.105	418.294	-0.060	-0.131
-670.091	-42.237	-0.324	-0.168
-669.076	-200.000	0.007	0.296
-668.062	112.496	-0.112	0.138
-667.047	18.586	-0.137	-0.112
-666.032	132.195	0.069	-0.090
-665.018	186.350	-0.071	0.108
-664.003	-170.142	0.066	-0.002
-662.989	800.000	0.040	0.150
-661.974	390.504	0.123	0.259
-660.959	-96.920	-0.278	0.074
-659.945	-90.456	0.158	-0.047
-658.930	29.116	-0.216	-0.187
-657.916	800.000	-0.097	0.331
-656.901	-49.190	0.035	0.017
-655.886	-59.173	0.152	0.067
-654.872	-131.334	0.298	-0.040
-653.857	-135.955	0.169	0.020
-652.843	800.000	-0.021	0.065
-651.828	131.368	-0.067	-0.087
-650.814	31.106	-0.252	-0.220
-649.799	43.233	0.297	-0.276
-648.784	-200.000	0.021	-0.280
-647.770	-129.285	-0.139	0.020
-646.755	-200.000	0.010	0.099
-645.741	179.907	-0.047	0.070
-644.726	-85.916	-0.098	0.031
-643.711	414.626	0.020	-0.044
-642.697	-200.000	0.040	-0.282
-641.682	125.134	0.116	-0.149
-640.668	-101.546	0.237	0.059
-639.653	179.199	-0.208	0.309
-638.638	540.003	-0.060	-0.144
-637.624	129.624	-0.069	0.090
-636.609	800.000	0.098	-0.299
-635.595	-200.000	0.020	0.172
-634.580	12.049	-0.055	0.043
-633.565	479.812	-0.100	0.231
-632.551	-200.000	-0.025	-0.502
-631.536	-20.743	0.055	-0.034
-630.522	418.223	0.043	-0.093
-629.507	-1.871	-0.321	0.229
-628.492	-45.467	-0.106	0.054
-627.478	-200.000	0.022	-0.213
-626.463	-10.540	0.416	-0.280
-625.449	131.416	0.156	-0.204
-624.434	-14.770	-0.110	-0.071
-623.419	-137.927	-0.355	0.040
-622.405	275.888	-0.050	0.090
-621.390	-56.341	0.153	-0.069
-620.376	49.108	-0.130	-0.124
-619.361	-52.949	0.305	-0.143
-618.346	-119.745	0.025	0.004
-617.332	-23.523	0.210	0.128
-616.317	-46.915	0.275	-0.137
-615.303	-45.902	0.273	0.137
-614.288	5.690	0.020	0.015
-613.273	-200.000	-0.009	0.061
-612.259	-64.577	-0.249	0.103
-611.244	800.000	-0.052	-0.228
-610.230	-38.699	-0.194	-0.104
-609.215	22.163	-0.390	0.324
-608.201	22.328	0.277	-0.230
-607.186	69.921	-0.203	-0.212
-606.171	157.492	-0.109	-0.154
-605.157	86.658	0.243	-0.273
-604.142	-87.773	-0.230	0.070
-603.128	20.399	-0.194	0.159
-602.113	180.057	-0.150	-0.223
-601.098	-109.154	-0.131	-0.028
-600.084	-127.743	0.227	-0.033
-599.069	155.952	-0.135	0.188
-598.055	-128.514	0.140	-0.020
-597.040	115.026	0.150	-0.186
-596.025	-24.575	-0.152	-0.092
-595.011	-5.520	-0.031	-0.022
-593.996	800.000	0.003	-0.013
-592.982	521.020	0.052	-0.123
-591.967	-97.165	-0.364	0.097
-590.952	14.057	-0.136	0.107
-589.938	800.000	-0.087	-0.381
-588.923	-132.821	0.266	-0.034
-587.909	-108.212	-0.080	0.018
-586.894	-108.920	0.179	0.039
-585.879	52.973	0.028	0.027
-584.865	-200.000	-0.015	-0.302
-583.850	-75.892	-0.202	0.073
-582.836	200.281	-0.048	0.075
-581.821	-200.000	0.006	0.157
-580.806	94.319	-0.114	-0.132
-579.792	800.000	-0.106	0.417
-578.777	800.000	-0.092	0.386
-577.763	-28.594	0.222	0.130
-576.748	647.865	0.103	-0.267
-575.733	135.059	-0.079	0.104
-574.719	800.000	-0.104	0.305
-573.704	800.000	0.068	-0.280
-572.690	-200.000	0.048	0.266
-571.675	-139.375	-0.225	-0.024
-570.661	609.172	-0.012	-0.030
-569.646	-124.880	0.250	-0.039
-568.631	290.070	0.076	0.140
-567.617	5.894	-0.026	0.019
-566.602	-200.000	0.049	-0.293
-565.588	-200.000	-0.028	0.162
-564.573	207.709	0.056	-0.089
-563.558	68.539	0.165	0.172
-562.544	154.457	0.038	0.054
-561.529	33.926	0.103	-0.091
-560.515	-136.942	-0.354	-0.041
-559.500	243.019	0.107	0.182
-558.485	-171.878	0.261	-0.009
-557.471	271.773	-0.077	0.137
-556.456	296.545	-0.077	0.142
-555.442	-33.587	0.294	0.164
-554.427	-100.679	0.097	0.024
-553.412	-29.825	0.311	0.180
-552.398	-55.835	0.357	-0.162
-551.383	468.382	-0.064	0.146
-550.369	0.441	-0.134	-0.097
-549.354	140.165	0.073	0.098
-548.339	43.248	0.276	-0.256
-547.325	121.544	0.030	0.038
-546.310	-95.409	0.128	-0.035
-545.296	145.415	-0.299	0.405
-544.281	-18.510	-0.230	-0.146
-543.266	-99.927	-0.221	-0.056
-542.252	84.116	0.220	0.243
-541.237	-200.000	-0.045	0.448
-540.223	-139.667	-0.047	-0.005
-539.208	-32.171	0.123	-0.069
-538.193	30.596	0.194	-0.168
-537.179	-200.000	-0.025	0.118
-536.164	-103.324	0.234	0.056
-535.150	-56.316	-0.237	0.107
-534.135	69.337	-0.177	-0.184
-533.121	-200.000	-0.002	-0.056
-532.106	-200.000	0.048	-0.217
-531.091	297.883	-0.078	0.145
-530.077	-20.000	0.169	-0.106
-529.062	108.499	0.053	0.064
-528.048	21.760	-0.174	0.144
-527.033	-200.000	0.032	-0.301
-526.018	34.969	-0.114	-0.101
-525.004	97.384	0.192	0.223
-523.989	118.765	-0.273	0.342
-522.975	-35.603	-0.157	-0.086
-521.960	115.379	0.030	0.037
-520.945	143.514	-0.225	0.304
-519.931	-200.000	0.024	0.586
-518.916	-15.287	-0.221	-0.143
-517.902	570.716	-0.031	0.077
-516.887	378.666	-0.099	-0.206
-515.872	-116.344	-0.058	0.011
-514.858	-200.000	-0.006	0.085
-513.843	501.294	0.109	0.255
-512.829	14.418	-0.367	0.290
-511.814	-58.322	0.181	0.079
-510.799	26.168	0.265	-0.224
-509.785	653.742	0.155	-0.402
-508.770	741.597	0.131	-0.355
-507.756	-21.436	-0.240	-0.148
-506.741	8.110	-0.201	-0.152
-505.726	-28.631	-0.065	0.038
-504.712	-200.000	0.073	0.342
-503.697	-64.528	-0.335	0.137
-502.683	101.355	0.072	0.085
-501.668	-200.000	-0.013	0.196
-500.653	167.393	-0.148	-0.212
-499.639	-200.000	-0.008	0.187
-498.624	-55.199	-0.186	0.085
-497.610	-71.431	0.233	-0.088
-496.595	-140.980	0.376	-0.039
-495.581	-54.479	-0.156	0.072
-494.566	508.740	0.061	-0.144
-493.551	-37.463	-0.056	0.030
-492.537	111.887	-0.113	-0.138
-491.522	-2.530	0.113	-0.080
-490.508	247.128	0.167	-0.285
-489.493	0.748	-0.207	-0.150
-488.478	-140.472	-0.209	0.022
-487.464	175.526	0.192	-0.281
-486.449	-62.565	-0.129	0.054
-485.435	14.766	0.089	0.070
-484.420	-93.941	0.081	0.022
-483.405	273.224	-0.044	-0.079
-482.391	60.344	0.279	0.279
-481.376	-200.000	-0.028	-0.288
-480.362	111.958	-0.139	-0.169
-479.347	800.000	-0.122	-0.410
-478.332	412.385	0.104	0.223
-477.318	-74.697	0.309	-0.112
-476.303	-44.664	-0.133	-0.067
-475.289	-8.464	0.150	-0.102
-474.274	-116.650	0.338	0.063
-473.259	15.036	-0.193	0.152
-472.245	-200.000	-0.034	-0.306
-471.230	-200.000	-0.017	0.088
-470.216	-61.423	0.187	-0.079
-469.201	800.000	-0.057	-0.252
-468.186	800.000	-0.043	-0.166
-467.172	-200.000	-0.011	-0.174
-466.157	160.429	-0.036	0.051
-465.143	-0.679	-0.482	-0.345
-464.128	83.407	-0.201	0.222
-463.113	-5.755	0.186	-0.129
-462.099	-116.039	0.210	0.039
-461.084	303.097	-0.121	0.227
-460.070	-22.037	-0.149	0.092
-459.055	-3.496	-0.453	-0.318
-458.040	800.000	-0.083	0.256
-457.026	-200.000	-0.012	0.221
-456.011	-73.815	-0.156	-0.057
-454.997	-102.188	0.199	-0.048
-453.982	-200.000	-0.005	-0.136
-452.968	-122.451	0.194	-0.032
-451.953	104.406	-0.221	-0.262
-450.938	-200.000	-0.017	-0.229
-449.924	340.482	-0.060	0.119
-448.909	-112.534	-0.372	0.075
-447.895	800.000	-0.056	-0.244
-446.880	-35.400	-0.090	0.049
-445.865	283.048	0.117	0.212
-444.851	-76.559	0.236	0.083
-443.836	800.000	-0.037	0.125
-442.822	-68.421	-0.067	0.026
-441.807	462.095	-0.110	-0.247
-440.792	-106.630	0.179	0.040
-439.778	-51.411	0.172	-0.081
-438.763	-165.619	0.116	-0.005
-437.749	-200.000	-0.010	0.154
-436.734	-21.293	-0.187	0.115
-435.719	-11.655	0.309	-0.205
-434.705	-69.424	-0.138	0.053
-433.690	800.000	-0.153	0.588
-432.676	28.140	0.046	0.039
-431.661	153.077	0.229	0.316
-430.646	-200.000	-0.015	0.104
-429.632	-169.936	-0.099	-0.004
-428.617	-172.522	0.301	0.010
-427.603	-200.000	-0.022	0.168
-426.588	-200.000	0.030	0.200
-425.573	245.947	-0.072	0.123
-424.559	-2.017	0.166	0.117
-423.544	727.146	-0.106	0.286
-422.530	-200.000	0.037	-0.219
-421.515	-107.817	0.157	-0.035
-420.500	157.749	-0.046	-0.064
-419.486	-39.660	-0.085	-0.045
-418.471	800.000	0.047	0.172
-417.457	-92.071	0.197	-0.056
-416.442	-141.479	0.203	0.021
-415.428	239.142	0.118	0.199
-414.413	-84.025	-0.257	0.082
-413.398	394.602	-0.062	-0.129
-412.384	0.616	0.111	-0.080
-411.369	-200.000	0.005	-0.100
-410.355	800.000	-0.101	-0.345
-409.340	-12.376	0.377	0.249
-408.325	-75.701	0.191	-0.068
-407.311	800.000	-0.078	-0.320
-406.296	-200.000	0.021	0.182
-405.282	-148.319	0.336	0.028
-404.267	-101.261	-0.238	0.059
-403.252	-123.455	0.324	-0.052
-402.238	-200.000	0.099	-0.506
-401.223	-200.000	-0.003	-0.256
-400.209	800.000	-0.039	-0.116
-399.194	-114.700	-0.233	-0.045
-398.179	66.682	-0.186	-0.190
-397.165	297.763	-0.133	-0.247
-396.150	-135.375	0.282	-0.034
-395.136	-56.703	-0.266	-0.119
-394.121	800.000	0.072	0.310
-393.106	-94.343	0.303	-0.083
-392.092	-95.808	0.221	-0.059
-391.077	-73.881	-0.096	-0.035
-390.063	61.096	-0.049	0.049
-389.048	-171.907	-0.163	-0.005
-388.033	8.333	-0.052	0.039
-387.019	-113.374	-0.145	0.029
-386.004	800.000	-0.064	0.237
-384.990	134.404	-0.171	0.223
-383.975	-95.054	0.369	0.100
-382.960	-200.000	-0.005	-0.255
-381.946	39.564	-0.205	-0.185
-380.931	-200.000	-0.051	-0.265
-379.917	-19.429	0.295	-0.184
-378.902	800.000	-0.095	-0.282
-377.888	-133.618	0.126	-0.016
-376.873	-200.000	0.015	-0.368
-375.858	466.971	-0.104	0.235
-374.844	279.129	-0.041	-0.074
-373.829	382.810	0.203	-0.421
-372.815	-200.000	0.043	-0.200
-371.800	-46.285	0.138	0.068
-370.785	-200.000	0.007	0.101
-369.771	-153.715	0.150	-0.010
-368.756	-131.040	0.095	-0.013
-367.742	641.164	-0.062	0.160
-366.727	562.943	-0.046	-0.111
-365.712	27.764	-0.252	-0.213
-364.698	33.740	-0.128	-0.112
-363.683	-89.131	-0.131	-0.039
-362.669	169.711	-0.060	0.086
-361.654	-61.532	-0.280	-0.118
-360.639	-200.000	0.038	0.172
-359.625	186.980	-0.185	0.278
-358.610	33.891	0.212	0.185
-357.596	116.551	0.307	-0.379
-356.581	-200.000	-0.021	-0.198
-355.566	121.658	0.150	0.188
-354.552	313.980	-0.060	-0.113
-353.537	-146.762	0.377	0.033
-352.523	-200.000	0.007	-0.212
-351.508	800.000	-0.058	-0.193
-350.493	174.670	-0.149	-0.217
-349.479	-71.895	-0.226	-0.085
-348.464	-147.520	0.215	-0.018
-347.450	64.031	-0.183	0.185
-346.435	-123.739	0.413	-0.066
-345.420	452.304	0.131	0.290
-344.406	-129.718	-0.143	0.020
-343.391	380.212	-0.136	0.281
-342.377	-200.000	-0.022	0.097
-341.362	46.946	0.159	-0.149
-340.348	-200.000	0.015	0.230
-339.333	800.000	-0.034	-0.148
-338.318	-168.000	0.340	0.013
-337.304	-8.575	-0.099	0.067
-336.289	323.358	-0.160	-0.307
-335.275	93.929	-0.158	-0.180
-334.260	-134.722	0.127	0.016
-333.245	635.900	-0.064	-0.164
-332.231	-40.808	-0.334	-0.174
-331.216	122.081	-0.115	0.145
-330.202	-21.269	-0.114	0.070
-329.187	179.833	-0.253	0.373
-328.172	-180.187	0.462	-0.010
-327.158	-44.575	-0.266	0.133
-326.143	35.693	-0.159	-0.140
-325.129	-119.135	0.127	0.022
-324.114	-157.038	0.029	-0.002
-323.099	-27.706	-0.138	0.080
-322.085	142.812	0.310	-0.413
-321.070	-82.025	0.092	0.030
-320.056	-200.000	-0.014	0.253
-319.041	-24.908	-0.303	0.180
-318.026	-109.227	0.194	0.041
-317.012	-144.116	0.260	-0.024
-315.997	103.491	0.194	0.229
-314.983	446.945	-0.098	-0.216
-313.968	800.000	-0.067	-0.235
-312.953	62.194	-0.080	0.080
-311.939	-41.159	0.410	0.212
-310.924	-200.000	0.003	0.084
-309.910	-20.043	-0.380	0.236
-308.895	-200.000	0.030	-0.146
-307.880	-51.757	-0.031	-0.015
-306.866	-200.000	0.001	0.045
-305.851	-72.890	-0.110	-0.040
-304.837	-46.205	0.105	0.052
-303.822	40.300	0.149	0.135
-302.807	258.101	0.114	-0.196
-301.793	-105.983	-0.328	0.074
-300.778	-200.000	0.026	0.125
-299.764	1.404	0.434	0.313
-298.749	-70.586	0.130	0.049
-297.735	-51.923	0.173	0.081
-296.720	107.653	0.273	-0.327
-295.705	31.249	-0.311	-0.268
-294.691	800.000	-0.091	0.296
-293.676	-169.297	0.084	-0.003
-292.662	-86.894	0.381	-0.117
-291.647	-70.625	-0.312	0.118
-290.632	-161.879	-0.250	0.013
-289.618	182.138	-0.059	0.088
-288.603	10.631	0.223	0.171
-287.589	-37.688	0.118	0.063
-286.574	6.755	-0.030	-0.023
-285.559	-39.210	-0.285	-0.150
-284.545	-200.000	0.023	-0.134
-283.530	318.329	-0.100	0.190
-282.516	-113.107	0.130	-0.026
-281.501	268.087	-0.072	-0.126
-280.486	800.000	-0.083	-0.267
-279.472	145.070	0.195	0.261
-278.457	-39.233	-0.030	0.016
-277.443	-85.954	0.217	0.067
-276.428	147.119	-0.123	-0.166
-275.413	390.902	-0.084	0.175
-274.399	31.792	-0.169	0.146
-273.384	-93.189	-0.269	0.075
-272.370	796.600	0.099	0.274
-271.355	200.129	-0.093	0.143
-270.340	800.000	-0.047	-0.139
-269.326	-88.017	0.301	-0.091
-268.311	800.000	0.077	0.258
-267.297	-135.619	-0.207	0.025
-266.282	628.946	-0.054	0.137
-265.267	800.000	-0.037	0.127
-264.253	201.033	-0.158	-0.244
-263.238	-128.580	-0.271	0.038
-262.224	-55.947	-0.107	0.048
-261.209	-96.394	-0.333	-0.088
-260.195	79.610	0.153	-0.165
-259.180	171.490	-0.161	0.231
-258.165	144.158	-0.128	0.171
-257.151	-18.479	0.022	0.013
-256.136	-27.405	-0.113	-0.066
-255.122	-6.805	-0.250	-0.170
-254.107	-65.522	-0.072	0.029
-253.092	-65.561	-0.029	0.012
-252.078	-200.000	0.037	-0.280
-251.063	15.640	-0.173	0.136
-250.049	-39.052	-0.357	0.188
-249.034	-200.000	0.021	-0.110
-248.019	-200.000	-0.008	-0.274
-247.005	168.795	0.086	0.122
-245.990	281.408	-0.015	0.027
-244.976	12.548	0.075	0.058
-243.961	-24.238	-0.202	-0.120
-242.946	159.953	-0.131	-0.182
-241.932	635.234	-0.046	-0.116
-240.917	-172.491	0.299	-0.009
-239.903	-200.000	-0.003	-0.119
-238.888	-192.576	-0.271	-0.003
-237.873	-31.934	0.120	-0.067
-236.859	101.326	0.146	-0.170
-235.844	50.851	-0.224	0.213
-234.830	-87.925	0.332	-0.100
-233.815	-107.630	0.354	0.078
-232.800	-42.878	0.190	-0.096
-231.786	586.933	0.066	-0.162
-230.771	-200.000	0.059	0.404
-229.757	-200.000	-0.023	0.141
-228.742	-200.000	0.053	0.306
-227.727	5.769	-0.042	0.031
-226.713	117.420	0.187	0.230
-225.698	39.926	0.318	-0.285
-224.684	-23.317	-0.186	-0.112
-223.669	15.052	-0.218	-0.171
-222.655	-200.000	-0.062	-0.349
-221.640	-31.298	0.259	0.146
-220.625	-179.599	-0.252	0.005
-219.611	-200.000	0.000	-0.036
-218.596	-152.459	0.198	-0.014
-217.582	47.844	0.232	-0.217
-216.567	34.797	0.181	0.158
-215.552	-200.000	0.052	0.248
-214.538	287.117	-0.175	0.316
-213.523	2.883	-0.103	0.075
-212.509	800.000	0.043	-0.163
-211.494	800.000	0.028	-0.093
-210.479	-20.908	0.112	-0.069
-209.465	-163.145	0.135	0.006
-208.450	-19.617	-0.299	-0.185
-207.436	44.326	0.029	-0.027
-206.421	34.157	0.149	-0.129
-205.406	354.341	-0.164	-0.326
-204.392	-1.797	-0.136	-0.096
-203.377	-69.553	-0.166	-0.064
-202.363	426.671	0.069	-0.150
-201.348	-200.000	-0.027	0.389
-200.333	7.427	-0.194	0.145
-199.319	-36.129	-0.381	0.206
-198.304	-108.853	0.187	0.040
-197.290	-200.000	-0.432	-0.002
-196.275	-200.000	0.013	0.223
-195.260	-200.000	0.017	0.084
-194.246	-200.000	-0.013	0.186
-193.231	169.533	0.053	-0.076
-192.217	52.990	-0.100	-0.096
-191.202	-200.000	0.045	0.237
-190.187	61.732	-0.134	0.133
-189.173	-46.249	0.101	0.050
-188.158	85.034	0.120	-0.132
-187.144	-200.000	0.007	0.219
-186.129	-200.000	-0.035	-0.534
-185.114	116.262	-0.168	0.206
-184.100	-33.832	-0.142	0.078
-183.085	358.858	-0.075	0.151
-182.071	-200.000	-0.001	-0.154
-181.056	-43.759	0.266	0.134
-180.042	106.370	-0.139	0.165
-179.027	482.466	0.067	0.153
-178.012	211.446	-0.050	-0.078
-176.998	407.780	-0.069	0.146
-175.983	69.062	0.204	0.210
-174.969	-200.000	0.029	-0.406
-173.954	-170.402	0.136	0.005
-172.939	-200.000	-0.005	-0.095
-171.925	10.604	0.248	0.188
-170.910	-24.492	0.333	-0.198
-169.896	63.856	0.147	0.148
-168.881	-200.000	0.006	0.212
-167.866	371.567	-0.073	0.148
-166.852	-24.222	0.292	-0.174
-165.837	-119.661	-0.225	0.039
-164.823	-108.087	0.424	0.092
-163.808	-99.871	-0.319	-0.080
-162.793	-109.144	-0.513	0.109
-161.779	54.303	0.127	0.122
-160.764	-200.000	-0.012	0.360
-159.750	-107.161	-0.220	0.048
-158.735	481.269	0.167	0.378
-157.720	-73.900	0.392	-0.142
-156.706	-79.315	-0.164	-0.055
-155.691	-31.268	0.336	0.189
-154.677	-160.670	-0.053	0.003
-153.662	-43.155	0.209	0.106
-152.647	-200.000	-0.019	0.199
-151.633	-99.217	0.093	-0.024
-150.618	354.605	-0.043	0.085
-149.604	-69.196	0.111	-0.043
-148.589	-171.442	0.121	-0.004
-147.574	-200.000	-0.006	0.048
-146.560	-170.842	0.118	-0.004
-145.545	-69.880	-0.172	0.066
-144.531	702.805	0.029	0.075
-143.516	313.960	0.007	0.013
-142.502	-175.943	0.273	0.007
-141.487	316.713	-0.085	-0.160
-140.472	-200.000	-0.022	0.211
-139.458	281.243	-0.246	0.438
-138.443	-92.358	-0.126	0.035
-137.429	211.329	0.031	-0.048
-136.414	16.461	0.114	0.090
-135.399	112.024	-0.073	-0.088
-134.385	-109.707	-0.300	0.063
-133.370	-24.574	-0.300	-0.178
-132.356	571.678	-0.109	-0.265
-131.341	-144.358	0.154	-0.014
-130.326	-23.597	0.276	-0.165
-129.312	-84.221	-0.195	-0.062
-128.297	109.365	-0.133	-0.159
-127.283	-149.856	-0.219	0.017
-126.268	-11.887	0.084	0.055
-125.253	91.945	0.040	-0.044
-124.239	-1.041	0.090	0.064
-123.224	-49.610	-0.410	0.195
-122.210	-200.000	0.012	-0.060
