DTS Sentinel unit serial number:	SN413079Multiplexer serial number:	ORYXHardware model number:	OX4-SRSoftware version number:	ORYX F/W v4.00 Oryx Data Collector v3.7.2.0data status	okinstallation	princeton_trtdifferential loss correction	single-endedforward channel	channel 3reverse channel	N/Adate	2019/09/18time	20:36:35forward acquisition time	60.00reverse acquisition time	0.00gamma	496.2192k internal	0.2341k external	0.2341temperature offset calibration	0.9995default loss term (dB/km)	0.3790temperature slope calibration	1.0000multiplexer offset coefficient	1.0000multiplexer slope coefficient	1.0000fibre end	0.00T internal ref (°C)	27.87T ext. ref 1 (°C)	0.82T ext. ref 2 (°C)	18.81length (m)	temperature (°C)	Stokes	anti-Stokes-747.200	800.000	0.140	0.393
-746.185	-28.190	0.126	-0.073
-745.171	594.052	-0.056	0.140
-744.156	7.398	-0.226	0.169
-743.142	-59.808	0.165	0.071
-742.127	40.213	-0.261	0.235
-741.112	800.000	0.103	-0.337
-740.098	92.128	0.142	0.160
-739.083	-54.970	-0.060	0.027
-738.069	-200.000	0.019	0.291
-737.054	478.652	0.106	-0.241
-736.039	-200.000	-0.034	0.275
-735.025	-87.411	-0.167	0.051
-734.010	-77.467	-0.486	-0.169
-732.996	800.000	-0.045	-0.195
-731.981	133.283	0.114	-0.147
-730.966	11.436	-0.136	-0.104
-729.952	509.213	0.123	-0.285
-728.937	800.000	-0.052	-0.203
-727.923	132.719	-0.140	-0.181
-726.908	80.608	0.111	-0.119
-725.894	-130.450	-0.534	0.072
-724.879	39.705	-0.164	0.147
-723.864	221.404	-0.207	-0.333
-722.850	83.784	-0.209	-0.228
-721.835	34.636	-0.078	-0.069
-720.821	12.050	-0.316	0.243
-719.806	-140.626	0.274	-0.028
-718.791	-200.000	-0.077	-0.596
-717.777	-89.477	-0.059	0.017
-716.762	-67.018	0.475	-0.187
-715.748	-84.279	0.199	-0.063
-714.733	-200.000	-0.036	-0.163
-713.718	105.846	-0.215	-0.254
-712.704	-89.982	0.191	-0.056
-711.689	334.708	0.053	0.104
-710.675	-200.000	-0.011	0.216
-709.660	-50.951	-0.330	-0.155
-708.645	29.817	-0.158	0.135
-707.631	286.114	-0.077	-0.139
-706.616	800.000	0.068	-0.275
-705.602	-200.000	-0.005	0.035
-704.587	-117.272	-0.391	0.071
-703.572	-138.979	0.201	0.022
-702.558	11.079	-0.075	-0.057
-701.543	265.537	0.163	-0.284
-700.529	-60.958	0.161	-0.068
-699.514	-200.000	0.029	-0.192
-698.499	253.558	0.065	0.110
-697.485	800.000	0.029	0.113
-696.470	62.907	-0.105	0.105
-695.456	-46.552	-0.247	-0.121
-694.441	771.149	0.026	0.070
-693.426	326.070	-0.261	-0.500
-692.412	100.249	-0.079	0.092
-691.397	-79.274	-0.197	0.067
-690.383	28.918	0.132	-0.112
-689.368	28.493	-0.227	0.192
-688.354	4.996	0.086	0.063
-687.339	-1.867	-0.247	-0.174
-686.324	-106.433	-0.245	0.055
-685.310	265.880	-0.053	-0.092
-684.295	747.588	-0.072	-0.194
-683.281	-100.163	0.319	0.079
-682.266	800.000	0.041	-0.134
-681.251	95.870	-0.081	-0.092
-680.237	-94.664	-0.238	-0.065
-679.222	800.000	0.013	0.049
-678.208	67.033	-0.122	-0.124
-677.193	-55.953	-0.288	-0.129
-676.178	95.080	-0.084	0.095
-675.164	-200.000	0.023	0.128
-674.149	316.097	0.139	-0.263
-673.135	271.665	0.159	0.280
-672.120	-40.930	-0.250	-0.129
-671.105	-86.668	-0.582	-0.178
-670.091	223.683	0.023	0.037
-669.076	-22.695	0.071	-0.043
-668.062	110.574	-0.199	0.240
-667.047	-20.645	0.362	-0.222
-666.032	-91.051	-0.122	0.035
-665.018	-200.000	0.011	-0.058
-664.003	-129.258	0.286	-0.040
-662.989	-95.981	-0.317	0.084
-661.974	800.000	0.030	-0.089
-660.959	29.414	-0.196	-0.166
-659.945	6.798	-0.220	-0.164
-658.930	41.632	0.108	-0.098
-657.916	246.098	0.159	0.268
-656.901	741.283	-0.095	-0.254
-655.886	-158.044	-0.350	-0.021
-654.872	70.708	-0.093	0.097
-653.857	-200.000	0.014	-0.262
-652.843	-4.378	0.271	-0.187
-651.828	-9.425	0.129	-0.086
-650.814	-200.000	-0.033	-0.159
-649.799	54.575	-0.257	-0.247
-648.784	-86.726	0.177	-0.054
-647.770	-117.318	-0.290	-0.052
-646.755	-190.162	0.216	0.002
-645.741	711.081	0.095	-0.250
-644.726	-200.000	0.017	-0.151
-643.711	800.000	-0.046	0.202
-642.697	-200.000	0.016	-0.113
-641.682	146.264	-0.115	0.154
-640.668	-105.117	0.168	0.038
-639.653	659.415	-0.034	-0.086
-638.638	800.000	0.026	0.076
-637.624	26.567	0.279	0.233
-636.609	800.000	-0.058	0.197
-635.595	-200.000	-0.019	-0.139
-634.580	172.304	0.088	-0.126
-633.565	187.018	-0.069	0.102
-632.551	-119.167	0.126	0.022
-631.536	188.937	0.099	0.148
-630.522	434.345	-0.163	0.353
-629.507	-23.879	-0.222	-0.133
-628.492	196.496	-0.075	-0.114
-627.478	-200.000	-0.019	-0.214
-626.463	800.000	-0.097	0.390
-625.449	96.641	0.035	-0.039
-624.434	-53.572	0.216	-0.098
-623.419	-183.977	0.228	-0.004
-622.405	74.750	0.039	0.041
-621.390	59.098	-0.114	0.111
-620.376	-136.302	0.163	-0.019
-619.361	-200.000	0.023	-0.216
-618.346	-132.312	0.354	-0.046
-617.332	-122.957	-0.601	0.096
-616.317	-134.315	-0.419	-0.051
-615.303	-118.795	0.178	-0.031
-614.288	-200.000	0.001	-0.013
-613.273	-139.395	0.376	0.040
-612.259	8.902	-0.046	-0.035
-611.244	238.185	0.078	-0.129
-610.230	162.040	-0.152	-0.212
-609.215	-82.176	-0.294	0.095
-608.201	-194.111	-0.124	-0.001
-607.186	-28.103	0.072	-0.042
-606.171	-152.727	-0.240	-0.017
-605.157	-12.112	0.124	-0.081
-604.142	123.634	0.194	-0.243
-603.128	163.495	0.141	-0.198
-602.113	126.706	-0.336	-0.424
-601.098	-75.317	-0.371	0.132
-600.084	-200.000	0.044	-0.254
-599.069	-102.707	-0.341	0.081
-598.055	-85.568	0.139	0.043
-597.040	-200.000	-0.034	0.160
-596.025	26.353	0.161	-0.134
-595.011	70.915	-0.096	0.099
-593.996	66.889	-0.070	-0.071
-592.982	41.061	0.170	-0.153
-591.967	406.883	-0.060	0.126
-590.952	248.432	0.103	-0.174
-589.938	-200.000	-0.014	-0.439
-588.923	-115.703	-0.320	-0.060
-587.909	800.000	0.038	0.147
-586.894	-27.659	0.033	-0.019
-585.879	25.791	0.088	-0.073
-584.865	800.000	-0.103	0.341
-583.850	43.021	-0.115	-0.105
-582.836	-44.340	0.355	-0.177
-581.821	800.000	-0.036	-0.102
-580.806	15.941	0.037	-0.029
-579.792	800.000	0.007	-0.023
-578.777	73.369	0.357	-0.372
-577.763	800.000	0.034	0.119
-576.748	-200.000	0.006	0.051
-575.733	-200.000	0.070	0.402
-574.719	-50.544	0.297	-0.140
-573.704	799.658	0.089	0.243
-572.690	-19.347	0.151	0.093
-571.675	-34.114	0.132	0.072
-570.661	-18.862	-0.104	0.065
-569.646	402.270	0.119	-0.248
-568.631	-0.687	-0.243	0.171
-567.617	-36.431	-0.124	0.066
-566.602	-89.516	-0.195	-0.057
-565.588	346.865	0.162	0.318
-564.573	350.368	-0.033	-0.065
-563.558	-141.631	0.213	0.021
-562.544	-6.539	-0.263	-0.178
-561.529	-139.380	-0.224	0.024
-560.515	-103.495	0.521	0.122
-559.500	355.247	-0.115	-0.228
-558.485	24.069	-0.267	-0.219
-557.471	-178.117	0.163	-0.004
-556.456	548.862	-0.128	-0.304
-555.442	51.774	0.070	-0.066
-554.427	1.928	-0.072	-0.052
-553.412	-133.057	-0.093	-0.012
-552.398	433.199	0.112	-0.241
-551.383	-39.551	-0.141	-0.073
-550.369	190.642	-0.177	0.265
-549.354	-200.000	-0.009	0.190
-548.339	-96.339	0.240	-0.063
-547.325	65.258	0.073	-0.073
-546.310	-200.000	0.045	-0.233
-545.296	519.671	0.086	0.200
-544.281	-114.029	-0.231	0.045
-543.266	-106.253	0.466	0.104
-542.252	-124.095	-0.234	-0.037
-541.237	580.213	0.043	0.104
-540.223	168.660	0.168	0.238
-539.208	-27.696	-0.330	-0.191
-538.193	220.046	-0.054	-0.085
-537.179	-4.153	0.307	0.212
-536.164	800.000	0.007	-0.028
-535.150	-200.000	-0.080	-0.518
-534.135	31.292	-0.160	-0.136
-533.121	-200.000	0.026	-0.213
-532.106	-104.177	0.201	-0.046
-531.091	53.408	-0.138	0.132
-530.077	189.523	-0.110	0.163
-529.062	800.000	-0.159	-0.443
-528.048	127.443	-0.242	0.306
-527.033	77.847	-0.115	-0.122
-526.018	568.648	0.166	0.401
-525.004	-160.654	0.239	0.013
-523.989	305.833	0.062	0.115
-522.975	599.632	0.063	0.155
-521.960	-132.616	-0.189	-0.024
-520.945	170.960	-0.162	-0.230
-519.931	800.000	0.112	-0.360
-518.916	3.996	-0.279	0.203
-517.902	95.335	-0.017	-0.019
-516.887	-33.520	0.236	0.129
-515.872	283.284	0.159	-0.284
-514.858	800.000	0.068	-0.193
-513.843	37.629	-0.066	-0.058
-512.829	59.060	-0.240	0.234
-511.814	800.000	-0.024	0.087
-510.799	-27.026	-0.213	0.123
-509.785	-61.371	0.152	0.063
-508.770	-200.000	-0.030	0.381
-507.756	-173.450	0.068	-0.002
-506.741	399.127	-0.062	0.129
-505.726	-73.663	-0.176	-0.064
-504.712	-95.847	0.041	-0.011
-503.697	800.000	-0.080	0.302
-502.683	155.592	-0.097	0.133
-501.668	-139.880	-0.195	0.021
-500.653	-129.222	-0.366	-0.051
-499.639	-42.420	0.173	-0.088
-498.624	-200.000	-0.014	-0.310
-497.610	245.879	0.188	0.314
-496.595	800.000	0.059	0.244
-495.581	-146.597	0.061	0.005
-494.566	-9.284	-0.308	0.204
-493.551	800.000	0.139	0.444
-492.537	-44.723	-0.218	0.108
-491.522	-59.863	0.363	-0.154
-490.508	132.198	0.123	-0.157
-489.493	166.908	0.111	-0.156
-488.478	-12.568	0.191	0.123
-487.464	169.257	-0.209	-0.296
-486.449	42.482	0.114	0.103
-485.435	800.000	0.059	-0.222
-484.420	-200.000	-0.063	-0.328
-483.405	-59.943	-0.297	-0.126
-482.391	-53.579	-0.131	-0.060
-481.376	132.504	-0.159	0.204
-480.362	-24.321	0.318	0.188
-479.347	153.965	0.099	0.135
-478.332	800.000	-0.047	0.189
-477.318	-150.215	0.301	-0.023
-476.303	366.531	-0.062	0.125
-475.289	-49.442	0.022	0.010
-474.274	-4.233	-0.438	-0.301
-473.259	223.652	-0.212	-0.339
-472.245	-5.484	0.072	0.049
-471.230	-67.201	-0.284	0.111
-470.216	-200.000	-0.007	-0.038
-469.201	-86.258	0.031	0.010
-468.186	-200.000	-0.060	0.322
-467.172	-200.000	-0.060	0.285
-466.157	197.675	0.068	0.103
-465.143	109.386	-0.192	0.229
-464.128	800.000	-0.139	0.490
-463.113	313.843	0.049	-0.091
-462.099	800.000	-0.078	-0.329
-461.084	-39.093	-0.144	0.075
-460.070	-126.407	-0.338	-0.050
-459.055	354.068	0.070	0.139
-458.040	-13.975	0.079	-0.051
-457.026	-36.024	-0.339	0.182
-456.011	-47.491	-0.227	-0.109
-454.997	-26.914	-0.251	-0.145
-453.982	413.129	-0.157	-0.330
-452.968	544.850	-0.176	-0.416
-451.953	4.180	0.058	-0.042
-450.938	-16.368	0.187	0.118
-449.924	-113.885	0.411	0.079
-448.909	-106.683	-0.044	0.010
-447.895	136.572	0.221	0.285
-446.880	-65.854	-0.090	-0.036
-445.865	-186.388	0.105	0.002
-444.851	-134.586	0.130	-0.016
-443.836	383.498	0.058	0.117
-442.822	144.879	-0.059	0.078
-441.807	-11.822	0.278	-0.181
-440.792	-200.000	-0.032	0.157
-439.778	800.000	0.086	0.260
-438.763	-85.271	-0.256	0.079
-437.749	-42.664	0.385	-0.194
-436.734	154.472	-0.136	-0.185
-435.719	10.472	-0.170	-0.128
-434.705	-200.000	-0.021	0.105
-433.690	204.019	-0.315	0.482
-432.676	304.494	0.096	0.176
-431.661	76.294	-0.245	0.257
-430.646	687.998	0.178	0.461
-429.632	-100.484	-0.211	0.052
-428.617	-26.232	0.303	0.176
-427.603	-81.750	0.155	-0.050
-426.588	130.406	-0.132	0.168
-425.573	-121.603	-0.075	-0.012
-424.559	800.000	-0.089	-0.256
-423.544	-47.151	0.238	0.115
-422.530	-168.781	-0.136	0.005
-421.515	118.869	0.136	-0.166
-420.500	-144.911	0.202	0.018
-419.486	800.000	-0.074	-0.245
-418.471	-109.855	-0.364	-0.076
-417.457	114.563	0.192	-0.232
-416.442	676.115	-0.097	-0.249
-415.428	-98.701	0.059	0.015
-414.413	-167.584	-0.570	0.022
-413.398	86.753	-0.218	0.238
-412.384	800.000	-0.005	0.019
-411.369	248.600	0.057	-0.096
-410.355	-174.275	0.183	0.005
-409.340	31.634	0.190	-0.162
-408.325	258.921	-0.162	-0.277
-407.311	103.278	0.280	-0.325
-406.296	462.058	-0.156	-0.345
-405.282	-200.000	0.028	-0.321
-404.267	52.047	-0.044	0.041
-403.252	157.875	-0.069	-0.095
-402.238	502.561	0.037	-0.085
-401.223	66.172	-0.112	-0.113
-400.209	-131.074	0.283	0.037
-399.194	800.000	-0.055	-0.151
-398.179	-200.000	0.022	0.169
-397.165	-200.000	0.016	-0.169
-396.150	-43.896	0.196	0.098
-395.136	-200.000	0.038	-0.268
-394.121	395.709	0.050	0.103
-393.106	-2.625	0.258	-0.178
-392.092	-20.847	-0.302	-0.183
-391.077	109.696	-0.120	0.143
-390.063	-200.000	0.014	-0.132
-389.048	-59.959	0.327	-0.138
-388.033	788.313	-0.032	0.087
-387.019	-182.253	0.104	-0.002
-386.004	-112.640	-0.346	0.068
-384.990	132.037	0.084	-0.107
-383.975	24.659	-0.200	0.164
-382.960	318.065	0.089	-0.166
-381.946	-200.000	0.021	0.277
-380.931	102.515	0.057	0.066
-379.917	800.000	0.048	0.133
-378.902	-11.630	-0.241	-0.156
-377.888	55.059	0.086	0.082
-376.873	-200.000	0.012	0.104
-375.858	44.281	0.270	-0.245
-374.844	-117.411	0.404	0.072
-373.829	-47.117	0.189	-0.091
-372.815	112.608	-0.136	-0.162
-371.800	-84.791	-0.238	0.074
-370.785	-200.000	-0.033	-0.163
-369.771	-128.326	0.259	-0.036
-368.756	502.265	-0.172	0.392
-367.742	39.514	0.195	-0.172
-366.727	6.551	-0.026	-0.019
-365.712	-156.525	0.291	0.018
-364.698	-20.270	0.162	-0.098
-363.683	-200.000	-0.042	-0.465
-362.669	-58.867	-0.106	0.045
-361.654	-99.350	-0.060	-0.015
-360.639	136.109	-0.048	0.062
-359.625	-43.364	-0.354	-0.177
-358.610	800.000	-0.154	-0.566
-357.596	-40.838	0.345	0.176
-356.581	-133.788	-0.170	-0.021
-355.566	-200.000	-0.042	0.183
-354.552	-200.000	0.018	0.161
-353.537	-16.980	-0.118	-0.074
-352.523	183.690	0.070	0.102
-351.508	29.999	-0.120	0.101
-350.493	-150.777	-0.188	0.014
-349.479	246.311	-0.082	-0.137
-348.464	410.031	0.183	-0.382
-347.450	71.746	-0.132	0.135
-346.435	-200.000	0.061	0.352
-345.420	-24.513	0.370	-0.217
-344.406	-200.000	0.033	-0.403
-343.391	-183.623	-0.313	-0.005
-342.377	66.713	0.106	-0.106
-341.362	309.987	0.087	0.161
-340.348	-24.355	-0.463	0.272
-339.333	-80.568	-0.226	0.074
-338.318	-21.123	0.182	-0.110
-337.304	544.650	-0.119	0.281
-336.289	-200.000	-0.063	0.380
-335.275	-200.000	-0.307	-0.001
-334.260	27.991	-0.160	0.133
-333.245	40.256	0.144	0.127
-332.231	70.357	0.217	0.221
-331.216	-200.000	0.029	-0.400
-330.202	300.312	-0.170	-0.310
-329.187	40.511	0.362	-0.322
-328.172	-45.229	0.319	0.156
-327.158	229.704	-0.231	-0.372
-326.143	85.788	-0.199	-0.216
-325.129	-53.136	0.372	0.168
-324.114	-12.265	0.088	0.057
-323.099	-52.513	0.129	0.059
-322.085	85.770	-0.258	0.280
-321.070	128.043	-0.233	-0.292
-320.056	-169.416	0.083	0.003
-319.041	124.321	0.032	-0.039
-318.026	-133.479	-0.072	-0.009
-317.012	800.000	0.090	-0.309
-315.997	164.407	0.232	0.322
-314.983	-200.000	0.018	-0.143
-313.968	-156.868	-0.424	0.026
-312.953	-200.000	0.001	0.043
-311.939	-115.927	-0.329	-0.061
-310.924	-124.222	0.423	-0.065
-309.910	239.152	0.072	0.117
-308.895	12.162	0.104	0.079
-307.880	800.000	-0.087	-0.348
-306.866	-200.000	0.067	-0.488
-305.851	49.353	-0.273	-0.253
-304.837	-149.705	-0.318	0.025
-303.822	-149.600	0.155	0.012
-302.807	355.936	0.144	-0.282
-301.793	543.241	0.064	0.149
-300.778	800.000	0.083	-0.264
-299.764	493.988	-0.059	0.133
-298.749	-51.385	-0.205	0.094
-297.735	-200.000	-0.006	0.055
-296.720	148.165	0.219	0.291
-295.705	46.510	-0.105	-0.096
-294.691	-119.408	0.260	-0.044
-293.676	-83.914	0.037	0.011
-292.662	-200.000	0.106	-0.000
-291.647	-200.000	0.031	-0.152
-290.632	218.711	0.056	-0.089
-289.618	148.205	-0.219	0.290
-288.603	-18.324	-0.129	-0.079
-287.589	800.000	0.091	0.366
-286.574	366.857	-0.013	-0.026
-285.559	74.903	0.093	0.097
-284.545	-82.179	-0.157	0.050
-283.530	800.000	0.034	-0.121
-282.516	-99.210	0.345	0.086
-281.501	-34.283	0.105	0.057
-280.486	-91.412	-0.125	-0.035
-279.472	331.387	-0.075	0.142
-278.457	102.155	-0.165	-0.190
-277.443	-74.512	0.479	0.170
-276.428	-150.208	-0.158	0.012
-275.413	-181.681	-0.243	0.005
-274.399	18.871	-0.256	-0.201
-273.384	9.510	0.209	0.156
-272.370	-116.617	0.306	0.055
-271.355	-112.450	-0.266	-0.052
-270.340	-158.878	0.406	0.023
-269.326	-28.574	-0.062	-0.035
-268.311	-21.699	0.103	0.062
-267.297	39.800	-0.195	0.172
-266.282	13.032	0.228	0.174
-265.267	229.865	-0.076	0.122
-264.253	109.935	-0.078	-0.092
-263.238	690.586	-0.051	-0.132
-262.224	384.465	-0.019	0.039
-261.209	-36.531	0.216	0.114
-260.195	-200.000	0.048	0.260
-259.180	800.000	-0.132	-0.378
-258.165	102.476	0.107	-0.123
-257.151	800.000	-0.057	0.181
-256.136	8.897	0.317	0.235
-255.122	800.000	-0.059	-0.173
-254.107	-137.097	-0.054	-0.006
-253.092	800.000	-0.027	0.082
-252.078	-118.386	0.207	-0.036
-251.063	800.000	-0.016	-0.048
-250.049	-154.119	-0.347	-0.023
-249.034	-30.184	0.153	0.085
-248.019	-42.102	-0.308	-0.155
-247.005	214.755	0.254	-0.396
-245.990	387.352	0.057	0.115
-244.976	-42.200	-0.214	-0.108
-243.961	800.000	-0.033	0.116
-242.946	-49.041	0.298	0.140
-241.932	-159.665	-0.217	0.012
-240.917	-10.585	-0.145	-0.094
-239.903	-109.010	-0.166	-0.035
-238.888	475.438	-0.154	0.342
-237.873	-200.000	0.055	0.250
-236.859	800.000	-0.086	0.266
-235.844	-86.445	-0.203	0.061
-234.830	-30.018	-0.234	-0.131
-233.815	-137.744	0.170	0.019
-232.800	-57.721	0.288	-0.124
-231.786	-100.183	-0.161	-0.039
-230.771	-200.000	-0.057	0.255
-229.757	151.543	-0.047	-0.062
-228.742	-200.000	0.015	0.249
-227.727	15.705	-0.290	-0.224
-226.713	-99.476	-0.084	-0.021
-225.698	6.204	-0.131	0.095
-224.684	-200.000	-0.037	-0.207
-223.669	800.000	-0.062	0.200
-222.655	73.138	-0.167	-0.171
-221.640	-26.517	0.139	0.080
-220.625	10.787	-0.085	-0.063
-219.611	224.174	-0.153	0.243
-218.596	719.500	0.093	-0.242
-217.582	-102.135	0.510	-0.120
-216.567	32.295	-0.381	-0.323
-215.552	96.404	0.137	0.154
-214.538	250.457	-0.132	-0.220
-213.523	-63.314	0.342	-0.138
-212.509	-200.000	-0.026	0.337
-211.494	-115.941	0.315	-0.058
-210.479	150.115	-0.099	0.132
-209.465	298.758	0.047	0.084
-208.450	-64.893	0.363	0.144
-207.436	-157.651	0.216	0.013
-206.421	-150.897	0.258	0.019
-205.406	229.785	0.217	0.348
-204.392	-110.501	0.314	0.064
-203.377	-200.000	-0.002	-0.416
-202.363	115.032	-0.160	0.192
-201.348	-164.925	0.256	-0.011
-200.333	287.352	0.145	-0.257
-199.319	-101.115	0.159	-0.038
-198.304	800.000	-0.019	0.063
-197.290	484.897	-0.196	0.437
-196.275	-176.683	0.190	0.005
-195.260	121.341	0.267	0.326
-194.246	-90.538	0.245	-0.069
-193.231	800.000	-0.059	0.190
-192.217	-59.843	-0.097	-0.041
-191.202	108.994	0.160	0.188
-190.187	-95.902	0.040	-0.011
-189.173	-60.636	-0.259	0.108
-188.158	91.904	-0.175	0.193
-187.144	-23.407	0.217	0.128
-186.129	-69.011	0.167	-0.063
-185.114	800.000	-0.021	-0.065
-184.100	-200.000	0.012	-0.203
-183.085	-200.000	0.022	-0.259
-182.071	-162.116	-0.072	-0.004
-181.056	-200.000	0.112	-0.499
-180.042	-63.723	-0.140	-0.056
-179.027	-200.000	0.004	0.116
-178.012	-16.289	0.106	0.066
-176.998	539.075	0.088	0.206
-175.983	-200.000	0.024	0.251
-174.969	-200.000	0.028	0.552
-173.954	-51.602	0.034	0.016
-172.939	-200.000	-0.015	0.299
-171.925	800.000	0.053	-0.202
-170.910	-2.390	-0.030	-0.020
-169.896	-139.461	0.130	0.014
-168.881	125.496	-0.147	0.182
-167.866	-70.524	-0.054	-0.020
-166.852	-200.000	-0.048	0.234
-165.837	374.658	-0.026	0.051
-164.823	800.000	0.069	-0.229
-163.808	-47.972	0.310	0.147
-162.793	202.071	0.133	-0.201
-161.779	16.057	-0.270	0.209
-160.764	75.807	-0.131	-0.135
-159.750	97.974	-0.164	-0.185
-158.735	800.000	0.112	0.332
-157.720	245.002	0.198	0.326
-156.706	47.682	0.105	-0.096
-155.691	-125.421	0.103	-0.015
-154.677	800.000	0.029	0.117
-153.662	-200.000	-0.039	0.338
-152.647	-172.893	-0.109	0.003
-151.633	-155.263	0.014	-0.001
-150.618	335.836	-0.045	-0.085
-149.604	-57.183	0.153	-0.066
-148.589	-55.675	0.126	0.055
-147.574	105.191	-0.103	-0.119
-146.560	249.368	0.149	0.247
-145.545	800.000	0.137	0.415
-144.531	-29.115	-0.153	-0.086
-143.516	-37.279	0.078	-0.041
-142.502	87.336	0.182	0.197
-141.487	2.089	-0.153	0.108
-140.472	135.322	0.083	-0.105
-139.458	800.000	-0.169	-0.575
-138.443	361.686	-0.185	0.364
-137.429	-200.000	0.011	-0.132
-136.414	-96.192	0.276	-0.072
-135.399	-148.697	0.231	-0.018
-134.385	-200.000	-0.042	-0.261
-133.370	800.000	0.092	0.322
-132.356	-87.715	-0.084	0.025
-131.341	50.819	-0.093	0.086
-130.326	375.473	0.161	-0.321
-129.312	428.252	0.200	-0.423
-128.297	686.307	0.127	0.325
-127.283	262.938	0.143	-0.244
-126.268	-200.000	-0.014	0.209
-125.253	313.283	-0.068	-0.125
-124.239	37.796	0.039	0.034
-123.224	554.524	0.052	-0.122
-122.210	132.059	0.207	0.261
-121.195	-110.850	0.213	0.043
