DTS Sentinel unit serial number:	SN413079Multiplexer serial number:	ORYXHardware model number:	OX4-SRSoftware version number:	ORYX F/W v4.00 Oryx Data Collector v3.7.2.0data status	okinstallation	princeton_trtdifferential loss correction	single-endedforward channel	channel 3reverse channel	N/Adate	2019/09/17time	01:28:34forward acquisition time	60.00reverse acquisition time	0.00gamma	496.2192k internal	0.2324k external	0.2324temperature offset calibration	0.9941default loss term (dB/km)	0.3790temperature slope calibration	1.0000multiplexer offset coefficient	1.0000multiplexer slope coefficient	1.0000fibre end	0.00T internal ref (°C)	29.52T ext. ref 1 (°C)	0.12T ext. ref 2 (°C)	24.33length (m)	temperature (°C)	Stokes	anti-Stokes-747.200	84.283	0.078	-0.086
-746.185	-200.000	0.037	0.284
-745.171	394.193	0.185	0.389
-744.156	5.552	-0.114	0.085
-743.142	519.130	0.072	-0.170
-742.127	-18.271	0.161	-0.102
-741.112	77.286	-0.161	-0.173
-740.098	-200.000	-0.020	0.354
-739.083	-89.212	0.109	-0.033
-738.069	-200.000	-0.035	0.191
-737.054	33.043	0.161	-0.141
-736.039	-111.946	-0.474	0.096
-735.025	70.620	0.187	-0.196
-734.010	17.801	-0.077	0.062
-732.996	-151.068	-0.257	0.019
-731.981	-74.152	0.087	-0.032
-730.966	143.836	0.221	-0.297
-729.952	800.000	0.050	0.192
-728.937	800.000	0.049	-0.189
-727.923	362.950	-0.075	-0.153
-726.908	-200.000	-0.022	0.224
-725.894	-70.749	0.255	-0.097
-724.879	620.645	-0.081	-0.205
-723.864	525.350	-0.135	-0.319
-722.850	-169.072	-0.010	-0.000
-721.835	82.476	-0.293	-0.321
-720.821	-125.047	-0.270	0.042
-719.806	-104.020	-0.094	-0.022
-718.791	-36.386	-0.146	0.079
-717.777	-12.109	0.145	-0.095
-716.762	340.197	0.085	-0.167
-715.748	-48.214	-0.210	-0.102
-714.733	243.670	-0.054	0.092
-713.718	98.553	-0.065	-0.076
-712.704	41.538	0.222	0.203
-711.689	162.671	0.213	0.302
-710.675	53.338	-0.142	-0.137
-709.660	177.624	0.118	-0.173
-708.645	-200.000	0.008	0.091
-707.631	-85.999	0.242	0.075
-706.616	-40.555	0.090	-0.047
-705.602	318.762	-0.113	0.216
-704.587	19.074	0.261	0.211
-703.572	261.306	-0.158	0.276
-702.558	-200.000	0.002	0.130
-701.543	800.000	-0.036	0.153
-700.529	71.936	0.124	0.130
-699.514	-7.270	0.275	0.188
-698.499	-36.831	-0.209	0.113
-697.485	-59.007	-0.541	-0.235
-696.470	-117.626	-0.200	-0.036
-695.456	104.977	-0.174	-0.206
-694.441	-90.042	0.384	0.113
-693.426	-200.000	-0.024	0.146
-692.412	-200.000	-0.003	0.043
-691.397	54.949	-0.399	-0.388
-690.383	-91.651	-0.075	0.021
-689.368	-138.960	-0.290	-0.032
-688.354	118.982	0.214	0.266
-687.339	-57.952	-0.053	0.023
-686.324	506.996	-0.118	0.276
-685.310	103.170	-0.130	0.154
-684.295	-69.909	0.398	-0.153
-683.281	-200.000	-0.044	0.274
-682.266	-164.550	-0.174	-0.008
-681.251	800.000	-0.035	-0.130
-680.237	269.069	-0.062	0.109
-679.222	242.656	0.076	0.128
-678.208	497.711	0.036	0.084
-677.193	-200.000	0.016	0.168
-676.178	-49.289	0.165	-0.079
-675.164	800.000	0.075	-0.216
-674.149	-111.367	-0.167	-0.034
-673.135	113.156	0.096	-0.117
-672.120	145.890	0.183	-0.248
-671.105	221.931	0.111	0.180
-670.091	-166.628	0.321	0.013
-669.076	-65.706	0.177	-0.071
-668.062	-39.315	0.042	-0.022
-667.047	274.109	-0.141	-0.251
-666.032	3.319	0.275	-0.202
-665.018	-22.082	0.135	0.083
-664.003	800.000	-0.046	0.190
-662.989	65.325	0.074	-0.075
-661.974	-123.754	-0.263	0.042
-660.959	218.998	-0.086	-0.138
-659.945	37.762	0.045	-0.041
-658.930	168.306	0.171	0.244
-657.916	-109.448	0.255	0.054
-656.901	-0.302	0.103	-0.074
-655.886	52.325	-0.159	0.153
-654.872	-89.647	0.280	0.083
-653.857	-96.580	0.190	-0.050
-652.843	238.260	-0.134	0.224
-651.828	2.612	-0.285	0.208
-650.814	266.642	0.104	-0.183
-649.799	1.746	-0.345	0.250
-648.784	20.484	-0.179	-0.146
-647.770	800.000	-0.112	-0.346
-646.755	26.341	-0.202	-0.170
-645.741	-200.000	-0.042	-0.205
-644.726	30.220	0.153	0.131
-643.711	800.000	-0.089	-0.298
-642.697	-104.438	0.294	0.068
-641.682	14.400	-0.294	-0.231
-640.668	800.000	-0.038	0.110
-639.653	800.000	0.132	0.451
-638.638	-75.768	-0.170	-0.060
-637.624	41.274	-0.080	-0.073
-636.609	-157.182	0.320	-0.020
-635.595	202.283	0.070	-0.108
-634.580	-25.660	0.285	0.169
-633.565	-48.999	-0.256	-0.123
-632.551	141.559	0.059	0.078
-631.536	114.520	-0.182	0.223
-630.522	-18.812	0.218	0.136
-629.507	-160.101	-0.553	-0.030
-628.492	211.763	-0.112	-0.177
-627.478	390.346	-0.054	-0.113
-626.463	-48.907	0.084	0.041
-625.449	-200.000	-0.008	-0.051
-624.434	95.289	0.286	0.328
-623.419	142.157	0.147	-0.196
-622.405	-77.679	-0.194	0.067
-621.390	-20.497	0.296	0.183
-620.376	143.442	-0.203	-0.271
-619.361	25.936	-0.303	-0.254
-618.346	406.390	-0.124	0.264
-617.332	24.418	-0.188	-0.156
-616.317	-53.969	-0.219	-0.100
-615.303	-97.766	0.296	0.077
-614.288	16.765	0.062	-0.049
-613.273	-200.000	-0.012	0.269
-612.259	10.912	0.084	0.064
-611.244	-42.494	-0.303	-0.155
-610.230	131.403	-0.160	0.207
-609.215	-21.935	-0.359	0.219
-608.201	-91.094	0.305	-0.088
-607.186	736.596	-0.197	0.530
-606.171	-157.564	0.409	-0.025
-605.157	-200.000	-0.008	0.138
-604.142	-200.000	0.018	-0.140
-603.128	-173.474	-0.257	0.008
-602.113	-200.000	0.017	-0.174
-601.098	-200.000	-0.007	-0.342
-600.084	800.000	0.020	-0.056
-599.069	-126.957	0.228	0.034
-598.055	-147.700	0.274	0.023
-597.040	-200.000	0.003	0.083
-596.025	486.044	-0.123	-0.281
-595.011	37.326	-0.209	-0.186
-593.996	800.000	-0.109	0.377
-592.982	367.068	0.095	-0.193
-591.967	-200.000	-0.020	0.141
-590.952	72.328	0.031	-0.032
-589.938	-200.000	-0.038	0.251
-588.923	-21.377	-0.457	0.280
-587.909	74.445	-0.093	0.098
-586.894	-200.000	0.014	-0.089
-585.879	24.228	-0.224	0.185
-584.865	-136.839	-0.187	-0.022
-583.850	250.698	0.053	0.090
-582.836	-40.903	0.240	-0.125
-581.821	-200.000	0.032	-0.281
-580.806	83.042	0.076	-0.082
-579.792	800.000	0.048	0.148
-578.777	-200.000	0.060	-0.307
-577.763	-81.902	-0.327	-0.107
-576.748	57.146	-0.098	0.095
-575.733	-200.000	-0.002	0.360
-574.719	253.630	0.079	0.135
-573.704	99.726	0.176	-0.204
-572.690	-74.185	0.118	-0.043
-571.675	800.000	-0.097	0.385
-570.661	-116.894	0.235	0.043
-569.646	-4.596	-0.234	-0.162
-568.631	-69.299	0.207	0.080
-567.617	184.645	-0.117	-0.173
-566.602	-115.610	0.257	0.048
-565.588	800.000	-0.040	0.167
-564.573	20.273	-0.174	-0.141
-563.558	800.000	0.047	-0.141
-562.544	800.000	-0.046	-0.129
-561.529	-200.000	-0.019	-0.133
-560.515	10.469	-0.023	0.017
-559.500	425.039	0.109	-0.236
-558.485	-118.279	-0.338	-0.060
-557.471	41.698	-0.077	-0.070
-556.456	392.234	-0.075	0.156
-555.442	-128.340	-0.228	0.033
-554.427	-187.958	0.178	-0.002
-553.412	381.512	0.132	0.271
-552.398	85.731	0.194	0.213
-551.383	-127.981	-0.296	0.043
-550.369	-79.339	-0.116	-0.039
-549.354	-78.132	-0.081	-0.028
-548.339	204.584	0.102	0.159
-547.325	67.599	-0.189	-0.193
-546.310	380.346	-0.074	-0.152
-545.296	-143.746	0.304	-0.029
-544.281	-40.610	0.125	0.065
-543.266	-122.854	-0.120	0.019
-542.252	-120.491	0.347	0.059
-541.237	-150.468	-0.557	-0.043
-540.223	117.428	0.084	-0.103
-539.208	358.905	0.145	-0.290
-538.193	69.468	-0.157	-0.162
-537.179	800.000	0.023	0.100
-536.164	339.852	-0.210	0.410
-535.150	-97.371	0.145	0.038
-534.135	366.666	0.017	-0.034
-533.121	791.905	0.102	-0.282
-532.106	111.795	0.394	-0.476
-531.091	21.538	0.060	0.049
-530.077	121.005	0.159	0.198
-529.062	33.621	0.217	0.189
-528.048	800.000	-0.031	-0.097
-527.033	800.000	0.031	-0.122
-526.018	-90.887	-0.091	0.026
-525.004	55.222	0.010	-0.010
-523.989	-73.353	-0.154	0.056
-522.975	-0.631	0.180	0.127
-521.960	148.794	-0.088	-0.119
-520.945	-74.227	0.128	-0.046
-519.931	-161.031	-0.406	0.021
-518.916	-2.346	0.045	0.032
-517.902	-25.168	0.132	-0.078
-516.887	-10.296	-0.226	-0.150
-515.872	165.612	0.198	-0.281
-514.858	327.391	-0.140	0.268
-513.843	800.000	0.059	0.221
-512.829	-158.045	0.206	-0.012
-511.814	546.319	0.112	0.269
-510.799	68.159	0.023	-0.024
-509.785	-200.000	0.024	0.193
-508.770	27.603	0.070	-0.059
-507.756	-115.703	0.338	0.063
-506.741	51.770	-0.155	0.148
-505.726	611.644	-0.158	0.395
-504.712	-82.977	-0.269	-0.087
-503.697	-45.264	0.256	-0.127
-502.683	56.380	0.192	0.186
-501.668	204.908	0.046	-0.071
-500.653	-200.000	0.040	-0.359
-499.639	-200.000	0.069	-0.307
-498.624	137.929	-0.135	0.176
-497.610	578.030	0.132	0.323
-496.595	387.400	-0.136	0.281
-495.581	115.835	-0.149	-0.182
-494.566	800.000	0.079	0.270
-493.551	-80.168	-0.192	0.064
-492.537	586.970	-0.035	-0.085
-491.522	57.259	-0.200	-0.195
-490.508	-62.746	0.152	-0.063
-489.493	-93.406	-0.142	0.039
-488.478	-23.467	-0.158	0.095
-487.464	800.000	0.030	-0.083
-486.449	800.000	-0.025	-0.084
-485.435	-96.956	0.083	0.022
-484.420	197.509	-0.168	-0.256
-483.405	63.040	0.113	-0.113
-482.391	59.984	-0.123	0.122
-481.376	-80.463	-0.406	0.135
-480.362	45.284	0.102	-0.094
-479.347	-200.000	-0.050	0.224
-478.332	-55.713	-0.110	-0.049
-477.318	-200.000	0.076	-0.425
-476.303	800.000	-0.060	-0.182
-475.289	248.819	-0.087	-0.146
-474.274	199.270	0.083	0.127
-473.259	167.490	-0.198	0.280
-472.245	14.784	0.090	0.071
-471.230	-200.000	-0.016	-0.263
-470.216	800.000	-0.102	-0.281
-469.201	-17.432	0.182	0.115
-468.186	-108.567	0.199	-0.043
-467.172	-109.919	0.352	0.074
-466.157	-200.000	0.018	-0.149
-465.143	683.152	0.052	0.134
-464.128	-119.682	-0.056	-0.010
-463.113	422.065	0.080	-0.172
-462.099	-49.221	-0.264	-0.126
-461.084	45.323	0.215	0.198
-460.070	-86.704	0.283	0.087
-459.055	303.581	-0.071	0.132
-458.040	173.926	0.096	0.138
-457.026	-79.900	-0.197	0.066
-456.011	-12.167	0.139	-0.091
-454.997	38.751	-0.106	-0.095
-453.982	303.074	0.077	-0.143
-452.968	292.495	-0.050	0.091
-451.953	11.882	0.249	0.191
-450.938	-107.064	0.136	-0.030
-449.924	127.474	0.044	-0.056
-448.909	131.527	-0.025	0.033
-447.895	198.207	-0.114	-0.174
-446.880	800.000	0.086	0.291
-445.865	-139.703	-0.201	-0.021
-444.851	800.000	0.121	-0.517
-443.836	-200.000	-0.028	0.133
-442.822	-52.785	0.296	-0.136
-441.807	332.864	0.021	0.040
-440.792	800.000	0.022	-0.075
-439.778	110.582	-0.200	0.239
-438.763	-62.236	-0.106	-0.044
-437.749	528.490	-0.155	-0.366
-436.734	-167.200	0.193	0.008
-435.719	85.055	-0.051	-0.056
-434.705	-200.000	-0.005	0.038
-433.690	-92.651	0.325	-0.091
-432.676	531.508	0.061	0.143
-431.661	-108.586	0.170	0.036
-430.646	-6.597	-0.251	0.170
-429.632	-47.594	-0.160	0.077
-428.617	-37.726	0.267	0.142
-427.603	-134.612	-0.148	-0.018
-426.588	-200.000	-0.014	-0.065
-425.573	-107.878	-0.214	0.046
-424.559	-29.828	-0.415	0.236
-423.544	-168.794	0.195	0.007
-422.530	268.742	0.123	-0.215
-421.515	412.039	-0.041	0.086
-420.500	-200.000	-0.002	-0.228
-419.486	44.635	-0.031	0.029
-418.471	80.256	-0.157	0.168
-417.457	-12.820	0.301	-0.195
-416.442	-163.492	-0.208	0.010
-415.428	-94.878	0.034	-0.009
-414.413	-75.900	0.410	-0.145
-413.398	-114.963	0.406	-0.077
-412.384	175.469	-0.026	0.038
-411.369	-85.770	0.243	0.075
-410.355	-65.323	-0.224	-0.090
-409.340	-200.000	0.055	0.269
-408.325	-70.126	-0.349	0.132
-407.311	18.073	-0.124	-0.098
-406.296	-200.000	0.001	-0.027
-405.282	414.629	-0.088	-0.187
-404.267	-200.000	0.028	0.310
-403.252	-200.000	0.010	-0.068
-402.238	-149.529	0.445	0.035
-401.223	800.000	-0.039	0.139
-400.209	800.000	0.034	0.141
-399.194	-72.015	0.470	-0.174
-398.179	183.813	0.097	-0.143
-397.165	527.180	-0.095	-0.223
-396.150	-103.327	-0.310	-0.073
-395.136	133.898	0.181	-0.233
-394.121	-200.000	-0.043	-0.211
-393.106	-200.000	-0.004	-0.194
-392.092	-200.000	0.041	0.288
-391.077	57.105	0.129	0.125
-390.063	-71.627	0.206	0.077
-389.048	-164.648	0.351	0.016
-388.033	-54.584	-0.221	-0.100
-387.019	223.071	0.030	-0.048
-386.004	800.000	0.052	-0.165
-384.990	-52.968	-0.124	-0.057
-383.975	233.516	-0.088	-0.144
-382.960	-200.000	-0.036	-0.281
-381.946	0.217	0.239	0.170
-380.931	-119.079	0.063	0.011
-379.917	800.000	0.054	-0.199
-378.902	27.677	-0.475	-0.398
-377.888	-20.963	-0.271	-0.165
-376.873	-123.445	-0.156	-0.025
-375.858	-11.925	-0.173	0.113
-374.844	13.448	0.354	0.273
-373.829	-83.412	0.020	0.006
-372.815	-61.080	-0.413	0.174
-371.800	800.000	0.075	0.251
-370.785	2.126	-0.168	-0.121
-369.771	80.792	0.058	-0.062
-368.756	800.000	-0.069	0.195
-367.742	95.615	0.180	0.204
-366.727	-142.127	0.158	0.016
-365.712	-126.426	0.275	-0.041
-364.698	-200.000	0.007	-0.178
-363.683	-79.445	-0.233	-0.078
-362.669	800.000	0.068	-0.207
-361.654	800.000	-0.032	0.098
-360.639	-47.906	0.058	-0.028
-359.625	-54.014	0.318	-0.144
-358.610	664.680	0.023	0.060
-357.596	-200.000	0.015	0.090
-356.581	-76.466	-0.261	0.091
-355.566	413.348	0.022	-0.047
-354.552	800.000	-0.058	-0.190
-353.537	-200.000	-0.079	-0.433
-352.523	-200.000	-0.014	-0.249
-351.508	124.996	-0.029	-0.037
-350.493	-61.475	-0.234	0.098
-349.479	-200.000	-0.009	-0.332
-348.464	-128.462	-0.122	0.017
-347.450	119.622	0.207	0.255
-346.435	-200.000	-0.055	0.297
-345.420	-106.597	0.184	0.041
-344.406	342.538	0.180	-0.350
-343.391	84.608	-0.126	-0.137
-342.377	70.485	-0.088	0.090
-341.362	171.016	-0.049	0.069
-340.348	329.781	-0.057	0.109
-339.333	-116.852	-0.202	0.037
-338.318	50.901	0.122	0.115
-337.304	800.000	-0.041	-0.159
-336.289	-167.675	-0.299	-0.012
-335.275	-200.000	0.038	-0.269
-334.260	94.659	-0.107	-0.121
-333.245	-200.000	-0.029	-0.181
-332.231	-75.852	-0.153	-0.054
-331.216	-75.156	0.343	0.122
-330.202	-125.007	0.279	-0.043
-329.187	119.079	-0.267	0.328
-328.172	-200.000	-0.006	0.278
-327.158	87.738	0.104	-0.115
-326.143	116.785	0.027	-0.033
-325.129	389.062	0.066	-0.136
-324.114	-76.095	-0.154	0.054
-323.099	317.883	0.167	-0.315
-322.085	-65.997	-0.197	-0.078
-321.070	498.433	0.062	-0.141
-320.056	-61.646	-0.066	-0.027
-319.041	800.000	0.034	-0.115
-318.026	163.357	0.083	0.115
-317.012	-143.616	-0.240	0.023
-315.997	800.000	-0.068	-0.225
-314.983	7.228	0.296	0.220
-313.968	-200.000	-0.104	0.511
-312.953	-150.945	0.181	-0.014
-311.939	6.937	0.273	0.202
-310.924	-68.268	0.031	-0.012
-309.910	18.484	0.152	0.120
-308.895	28.436	0.129	0.108
-307.880	-100.652	-0.192	0.047
-306.866	-200.000	0.013	0.125
-305.851	-174.260	0.400	-0.012
-304.837	-24.840	-0.247	0.146
-303.822	800.000	-0.125	-0.424
-302.807	-200.000	-0.011	0.214
-301.793	82.106	-0.257	-0.276
-300.778	292.191	0.206	-0.372
-299.764	-69.912	-0.056	0.021
-298.749	12.931	-0.425	0.326
-297.735	-74.995	-0.404	0.143
-296.720	72.327	-0.273	-0.283
-295.705	95.925	-0.168	-0.190
-294.691	-200.000	0.019	0.217
-293.676	-73.453	0.166	0.060
-292.662	89.624	0.095	-0.105
-291.647	263.476	0.142	-0.244
-290.632	122.014	-0.073	-0.090
-289.618	800.000	-0.086	-0.264
-288.603	98.383	0.172	0.196
-287.589	23.548	-0.212	-0.173
-286.574	229.588	0.180	0.291
-285.559	-51.413	-0.236	0.109
-284.545	-116.449	-0.283	0.052
-283.530	7.488	-0.341	0.253
-282.516	-16.566	0.154	-0.097
-281.501	-19.396	0.038	0.023
-280.486	78.912	-0.099	-0.105
-279.472	800.000	-0.060	-0.251
-278.457	800.000	0.091	-0.331
-277.443	-200.000	0.008	0.473
-276.428	-200.000	-0.013	0.128
-275.413	373.506	-0.019	0.038
-274.399	252.571	-0.080	0.135
-273.384	-3.095	0.311	-0.215
-272.370	2.581	-0.324	0.232
-271.355	-86.322	-0.123	0.038
-270.340	760.006	0.035	-0.095
-269.326	-107.552	-0.014	0.003
-268.311	125.345	-0.179	0.223
-267.297	-77.427	-0.309	-0.106
-266.282	-8.586	-0.109	-0.072
-265.267	-99.606	0.210	0.052
-264.253	209.307	-0.142	0.220
-263.238	800.000	0.048	0.158
-262.224	-108.286	-0.255	-0.055
-261.209	800.000	0.019	0.075
-260.195	3.039	0.122	0.088
-259.180	13.576	0.247	0.190
-258.165	800.000	0.030	-0.090
-257.151	-200.000	0.011	0.143
-256.136	6.318	0.326	-0.240
-255.122	800.000	0.113	0.396
-254.107	800.000	0.077	0.256
-253.092	136.734	0.082	0.106
-252.078	209.065	-0.082	0.126
-251.063	634.935	0.056	0.140
-250.049	-128.996	0.298	-0.041
-249.034	-77.403	-0.500	0.172
-248.019	-154.682	-0.260	0.017
-247.005	-200.000	-0.000	0.330
-245.990	-7.003	0.209	-0.140
-244.976	320.077	0.174	-0.327
-243.961	-166.991	0.178	0.007
-242.946	165.961	0.019	0.027
-241.932	690.968	-0.077	0.200
-240.917	572.815	0.073	0.175
-239.903	133.397	0.102	0.131
-238.888	800.000	-0.021	0.059
-237.873	53.694	0.171	-0.162
-236.859	-126.062	-0.348	-0.052
-235.844	-159.571	-0.239	0.013
-234.830	-200.000	-0.000	-0.184
-233.815	367.143	-0.070	0.139
-232.800	800.000	0.085	-0.340
-231.786	-200.000	0.023	-0.183
-230.771	608.234	0.071	-0.174
-229.757	35.139	-0.141	0.122
-228.742	800.000	0.048	-0.160
-227.727	-120.625	-0.055	0.009
-226.713	568.779	0.039	-0.094
-225.698	-20.145	0.363	-0.221
-224.684	333.025	-0.102	-0.194
-223.669	-169.877	0.457	0.016
-222.655	-91.651	0.254	-0.071
-221.640	-56.641	0.045	0.019
-220.625	800.000	-0.065	-0.274
-219.611	-96.725	0.170	0.044
-218.596	209.193	-0.105	0.163
-217.582	-11.777	-0.037	0.024
-216.567	-117.277	0.489	0.088
-215.552	78.328	0.177	-0.186
-214.538	-200.000	-0.030	0.213
-213.523	336.161	-0.095	-0.182
-212.509	-85.067	-0.386	0.119
-211.494	-156.779	-0.332	0.020
-210.479	800.000	0.035	0.102
-209.465	800.000	-0.039	0.109
-208.450	-131.453	-0.165	0.022
-207.436	51.268	0.071	0.067
-206.421	-65.339	0.086	-0.034
-205.406	-23.293	0.147	0.087
-204.392	-158.663	0.121	0.007
-203.377	-85.001	0.174	0.054
-202.363	37.566	0.205	-0.180
-201.348	800.000	-0.117	-0.326
-200.333	-164.587	-0.164	-0.007
-199.319	204.987	0.023	0.036
-198.304	800.000	-0.088	0.319
-197.290	-200.000	0.007	0.136
-196.275	13.013	-0.127	0.097
-195.260	673.730	-0.055	-0.141
-194.246	-200.000	0.059	-0.445
-193.231	355.774	0.061	0.120
-192.217	-47.889	-0.256	0.123
-191.202	1.146	0.067	-0.048
-190.187	12.307	0.306	-0.233
-189.173	-104.974	0.523	0.118
-188.158	-38.750	0.164	-0.085
-187.144	-200.000	-0.029	-0.130
-186.129	-95.235	0.011	0.003
-185.114	-63.745	-0.176	0.071
-184.100	145.120	-0.103	0.136
-183.085	302.384	-0.068	0.124
-182.071	634.203	0.073	0.182
-181.056	-120.226	0.122	0.021
-180.042	360.277	-0.056	0.111
-179.027	-36.629	0.072	0.038
-178.012	50.155	-0.257	0.240
-176.998	-200.000	-0.187	0.001
-175.983	174.508	0.231	0.330
-174.969	-79.154	-0.128	0.043
-173.954	800.000	-0.067	-0.266
-172.939	78.019	-0.179	-0.189
-171.925	139.366	0.039	0.050
-170.910	387.040	0.080	-0.163
-169.896	-89.983	0.208	-0.060
-168.881	62.308	0.156	0.154
-167.866	-158.929	0.202	0.011
-166.852	-200.000	0.013	0.257
-165.837	-62.883	0.202	-0.082
-164.823	-60.081	0.150	-0.063
-163.808	91.826	-0.062	-0.069
-162.793	-162.261	-0.107	-0.005
-161.779	260.047	0.204	0.348
-160.764	416.318	0.049	-0.102
-159.750	447.649	0.132	0.287
-158.735	-200.000	-0.079	0.453
-157.720	651.712	0.072	0.182
-156.706	800.000	-0.023	-0.087
-155.691	49.284	0.093	0.086
-154.677	216.503	0.026	0.041
-153.662	800.000	0.068	-0.234
-152.647	162.890	0.019	0.026
-151.633	-200.000	0.042	-0.205
-150.618	261.003	0.105	-0.179
-149.604	370.662	0.030	0.060
-148.589	-200.000	-0.024	-0.237
-147.574	-200.000	0.032	-0.217
-146.560	800.000	0.049	-0.136
-145.545	-27.678	-0.441	-0.252
-144.531	-51.234	-0.347	0.160
-143.516	493.758	0.066	-0.149
-142.502	75.357	-0.117	0.121
-141.487	-127.173	-0.148	-0.021
-140.472	-132.863	-0.377	0.047
-139.458	-64.079	0.315	-0.127
-138.443	457.535	0.116	-0.253
-137.429	202.286	0.120	-0.182
-136.414	102.135	-0.223	-0.257
-135.399	800.000	-0.088	0.371
-134.385	-48.972	0.362	0.171
-133.370	329.299	0.130	-0.246
-132.356	-94.169	-0.266	0.072
-131.341	-43.894	-0.140	-0.069
-130.326	309.879	0.105	-0.193
-129.312	41.224	0.025	-0.022
-128.297	544.584	-0.044	-0.103
-127.283	-82.330	0.191	0.061
-126.268	349.780	0.254	-0.494
-125.253	-200.000	0.000	0.198
-124.239	-200.000	-0.020	-0.091
-123.224	210.406	-0.045	-0.070
-122.210	-35.091	0.221	0.119
-121.195	-68.362	-0.362	0.139
-120.180	-200.000	0.008	0.178
-119.166	166.184	0.143	-0.200
