DTS Sentinel unit serial number:	SN413079Multiplexer serial number:	ORYXHardware model number:	OX4-SRSoftware version number:	ORYX F/W v4.00 Oryx Data Collector v3.7.2.0data status	okinstallation	princeton_trtdifferential loss correction	single-endedforward channel	channel 3reverse channel	N/Adate	2019/09/18time	14:24:34forward acquisition time	60.00reverse acquisition time	0.00gamma	496.2192k internal	0.2311k external	0.2311temperature offset calibration	0.9975default loss term (dB/km)	0.3790temperature slope calibration	1.0000multiplexer offset coefficient	1.0000multiplexer slope coefficient	1.0000fibre end	0.00T internal ref (°C)	34.31T ext. ref 1 (°C)	0.69T ext. ref 2 (°C)	30.40length (m)	temperature (°C)	Stokes	anti-Stokes-747.200	-84.771	-0.465	-0.149
-746.185	87.766	0.193	0.217
-745.171	-53.738	-0.133	0.062
-744.156	-40.317	0.068	-0.036
-743.142	37.571	-0.101	-0.091
-742.127	-72.655	-0.118	-0.044
-741.112	86.227	-0.163	0.183
-740.098	-200.000	0.062	0.304
-739.083	-200.000	-0.012	0.261
-738.069	67.781	-0.093	0.096
-737.054	-108.050	-0.151	-0.033
-736.039	48.499	0.264	0.251
-735.025	397.841	0.193	0.409
-734.010	-200.000	0.038	0.273
-732.996	-62.327	0.173	0.073
-731.981	-145.215	0.155	0.014
-730.966	-51.639	-0.100	-0.048
-729.952	800.000	0.032	-0.093
-728.937	719.126	0.118	-0.319
-727.923	6.291	-0.268	-0.202
-726.908	-99.059	-0.163	-0.042
-725.894	-125.906	-0.114	0.017
-724.879	-70.481	-0.041	-0.016
-723.864	-200.000	-0.011	-0.063
-722.850	-42.844	0.138	-0.071
-721.835	-57.338	0.233	0.104
-720.821	-196.664	-0.207	0.001
-719.806	-200.000	-0.246	0.001
-718.791	800.000	-0.059	-0.229
-717.777	-36.790	-0.406	-0.221
-716.762	20.841	-0.219	0.180
-715.748	-200.000	0.014	0.124
-714.733	151.011	-0.250	-0.345
-713.718	56.561	-0.223	-0.220
-712.704	116.522	0.163	-0.202
-711.689	186.665	-0.190	-0.288
-710.675	-11.778	-0.124	-0.082
-709.660	216.515	-0.193	0.312
-708.645	78.421	0.179	-0.194
-707.631	-167.762	-0.211	-0.008
-706.616	259.788	-0.103	-0.180
-705.602	-88.943	-0.341	-0.102
-704.587	68.228	0.132	-0.137
-703.572	-200.000	-0.001	0.141
-702.558	64.593	-0.042	-0.043
-701.543	116.078	0.250	-0.310
-700.529	392.795	-0.118	0.248
-699.514	-156.504	-0.214	-0.014
-698.499	30.149	-0.304	-0.263
-697.485	-92.398	0.262	-0.075
-696.470	-53.773	-0.058	0.027
-695.456	32.523	-0.159	-0.139
-694.441	543.521	-0.013	0.031
-693.426	-119.540	-0.440	-0.077
-692.412	800.000	-0.014	0.061
-691.397	800.000	-0.029	-0.102
-690.383	-200.000	0.023	-0.120
-689.368	83.685	-0.295	0.326
-688.354	-136.303	-0.116	-0.014
-687.339	-23.322	0.254	-0.154
-686.324	37.972	0.288	-0.260
-685.310	-179.987	0.248	-0.005
-684.295	-200.000	-0.027	0.258
-683.281	-200.000	0.042	0.275
-682.266	-200.000	-0.033	-0.256
-681.251	-200.000	0.007	-0.228
-680.237	480.258	-0.018	0.041
-679.222	341.862	0.104	0.207
-678.208	-64.923	-0.103	0.042
-677.193	800.000	0.009	-0.026
-676.178	146.812	-0.155	-0.212
-675.164	-200.000	0.027	0.144
-674.149	-46.631	0.421	0.209
-673.135	138.573	0.090	-0.120
-672.120	172.061	-0.152	-0.222
-671.105	-66.765	-0.242	-0.097
-670.091	-200.000	-0.002	0.251
-669.076	208.891	-0.052	0.083
-668.062	-200.000	0.008	-0.123
-667.047	-200.000	-0.004	0.248
-666.032	-47.076	0.369	-0.182
-665.018	128.967	-0.079	-0.102
-664.003	365.237	0.114	-0.232
-662.989	-178.215	-0.299	-0.007
-661.974	-45.375	-0.218	-0.110
-660.959	-156.377	-0.136	0.009
-659.945	-151.683	0.305	0.023
-658.930	-15.210	-0.248	-0.160
-657.916	-200.000	-0.132	-0.000
-656.901	-175.266	-0.426	0.012
-655.886	-120.493	-0.145	-0.025
-654.872	117.492	0.123	-0.153
-653.857	800.000	-0.102	0.348
-652.843	-200.000	0.008	0.066
-651.828	-98.854	0.338	0.087
-650.814	-26.468	-0.194	-0.115
-649.799	34.995	-0.165	0.146
-648.784	-23.952	-0.394	-0.238
-647.770	17.138	0.213	-0.171
-646.755	255.041	-0.054	-0.094
-645.741	60.996	-0.252	-0.253
-644.726	-103.385	-0.284	0.068
-643.711	105.535	-0.208	-0.248
-642.697	498.035	0.053	0.124
-641.682	-75.049	0.151	-0.055
-640.668	114.730	0.148	-0.182
-639.653	800.000	-0.030	-0.117
-638.638	-11.585	-0.202	-0.134
-637.624	17.198	0.065	-0.052
-636.609	-105.475	-0.039	-0.009
-635.595	287.380	-0.163	-0.298
-634.580	50.083	0.157	0.150
-633.565	-74.540	-0.074	-0.027
-632.551	-15.600	0.198	-0.128
-631.536	256.876	0.087	0.151
-630.522	29.599	-0.065	0.056
-629.507	-122.904	-0.360	-0.059
-628.492	238.781	0.084	0.142
-627.478	160.143	-0.072	-0.101
-626.463	-158.625	-0.326	0.019
-625.449	420.485	0.126	-0.273
-624.434	289.255	-0.157	0.287
-623.419	28.434	0.244	-0.209
-622.405	-200.000	-0.003	-0.058
-621.390	-200.000	-0.045	0.236
-620.376	-72.606	-0.373	-0.139
-619.361	-200.000	-0.004	-0.062
-618.346	-5.817	0.521	0.360
-617.332	-130.383	-0.399	0.055
-616.317	156.526	0.133	-0.186
-615.303	-200.000	0.039	-0.266
-614.288	-108.026	-0.212	0.046
-613.273	120.433	0.073	0.092
-612.259	290.611	0.133	-0.244
-611.244	-20.022	-0.239	0.149
-610.230	800.000	0.083	0.327
-609.215	-82.003	-0.368	0.121
-608.201	-200.000	0.001	-0.030
-607.186	-110.469	0.291	-0.061
-606.171	-38.177	-0.405	-0.217
-605.157	-24.467	0.183	0.110
-604.142	-51.725	0.165	0.078
-603.128	800.000	-0.091	-0.275
-602.113	-200.000	-0.022	0.176
-601.098	57.956	0.206	0.203
-600.084	172.437	0.186	-0.270
-599.069	-69.243	0.089	0.035
-598.055	140.209	-0.064	0.085
-597.040	10.236	0.272	-0.209
-596.025	-200.000	0.060	-0.342
-595.011	226.810	0.032	0.052
-593.996	383.039	-0.172	-0.357
-592.982	612.480	-0.063	-0.158
-591.967	-21.145	0.231	0.143
-590.952	-59.552	-0.203	0.088
-589.938	-200.000	-0.014	0.094
-588.923	-115.833	-0.263	-0.050
-587.909	-3.008	0.226	-0.159
-586.894	-13.010	0.184	-0.121
-585.879	21.865	0.226	-0.186
-584.865	13.077	-0.190	0.148
-583.850	-36.817	0.172	0.093
-582.836	-65.577	-0.341	-0.138
-581.821	-25.957	-0.335	-0.199
-580.806	-163.677	0.058	-0.003
-579.792	120.664	0.156	0.196
-578.777	-57.879	0.287	-0.126
-577.763	95.360	0.361	0.415
-576.748	-87.318	0.302	0.092
-575.733	501.934	0.047	0.110
-574.719	21.406	0.193	-0.158
-573.704	363.733	-0.059	0.120
-572.690	204.287	0.142	0.222
-571.675	92.382	0.138	-0.157
-570.661	-116.518	-0.429	0.080
-569.646	-200.000	0.044	0.375
-568.631	-53.768	-0.239	0.110
-567.617	-103.638	-0.148	0.035
-566.602	-122.889	0.174	0.028
-565.588	-200.000	-0.003	0.136
-564.573	-24.674	0.382	0.229
-563.558	-81.634	-0.380	0.126
-562.544	154.390	0.165	-0.228
-561.529	-1.334	-0.192	0.137
-560.515	-200.000	0.015	-0.171
-559.500	-200.000	0.018	0.259
-558.485	-59.397	-0.247	-0.107
-557.471	-1.622	-0.149	0.106
-556.456	-36.973	0.250	0.135
-555.442	-90.363	0.309	0.090
-554.427	-79.243	0.236	0.081
-553.412	-62.813	-0.209	0.087
-552.398	-200.000	0.010	0.283
-551.383	7.159	-0.147	0.111
-550.369	38.865	-0.225	0.203
-549.354	150.807	0.259	-0.354
-548.339	3.776	0.162	-0.119
-547.325	-200.000	0.009	-0.208
-546.310	-200.000	0.027	-0.120
-545.296	-200.000	0.059	0.334
-544.281	-12.048	0.264	-0.174
-543.266	185.311	-0.179	-0.268
-542.252	540.383	0.026	-0.063
-541.237	47.400	-0.245	0.230
-540.223	162.491	0.120	-0.170
-539.208	504.157	-0.044	-0.104
-538.193	236.263	-0.163	0.271
-537.179	-200.000	0.019	-0.088
-536.164	800.000	-0.034	-0.098
-535.150	-193.797	0.244	0.002
-534.135	104.696	0.121	-0.143
-533.121	-133.217	0.285	-0.036
-532.106	-53.459	-0.428	0.197
-531.091	23.091	-0.108	0.089
-530.077	-200.000	0.015	-0.160
-529.062	-116.384	0.358	-0.067
-528.048	27.273	-0.083	-0.071
-527.033	65.265	0.161	0.164
-526.018	-49.334	-0.122	-0.059
-525.004	266.904	0.238	-0.419
-523.989	251.588	0.074	0.126
-522.975	21.744	0.063	0.052
-521.960	-10.855	-0.264	-0.176
-520.945	-200.000	0.005	0.105
-519.931	-33.172	-0.465	-0.260
-518.916	512.378	0.097	0.226
-517.902	-152.028	-0.191	0.014
-516.887	594.550	-0.025	0.061
-515.872	-77.403	-0.219	-0.076
-514.858	395.398	-0.185	-0.388
-513.843	230.485	-0.167	0.275
-512.829	-83.017	0.296	0.096
-511.814	42.761	-0.163	0.149
-510.799	1.842	0.144	0.104
-509.785	-54.897	0.099	-0.045
-508.770	-143.916	0.186	-0.018
-507.756	-200.000	0.019	-0.146
-506.741	-80.029	-0.039	0.013
-505.726	516.219	0.160	0.375
-504.712	-200.000	-0.062	0.348
-503.697	602.047	0.046	0.116
-502.683	67.529	-0.278	0.286
-501.668	800.000	0.072	0.258
-500.653	-95.372	-0.218	0.059
-499.639	-98.365	0.201	-0.052
-498.624	-143.122	-0.107	-0.010
-497.610	33.418	-0.068	0.059
-496.595	6.112	-0.061	0.045
-495.581	224.246	-0.044	0.071
-494.566	797.333	0.076	-0.211
-493.551	800.000	0.058	-0.178
-492.537	441.680	0.034	-0.075
-491.522	385.223	-0.067	-0.139
-490.508	-161.834	0.384	-0.020
-489.493	-29.331	-0.008	0.005
-488.478	-33.839	-0.212	-0.117
-487.464	31.780	-0.192	-0.166
-486.449	-176.378	-0.329	0.009
-485.435	-28.658	0.073	0.042
-484.420	54.783	0.110	-0.106
-483.405	121.767	0.180	-0.225
-482.391	1.190	0.184	0.133
-481.376	424.088	0.045	0.098
-480.362	-186.436	-0.145	-0.002
-479.347	-200.000	0.012	0.067
-478.332	-110.594	-0.096	-0.020
-477.318	800.000	0.034	0.110
-476.303	751.494	-0.055	-0.150
-475.289	123.538	-0.165	-0.208
-474.274	232.561	-0.150	0.248
-473.259	-200.000	0.043	0.318
-472.245	-200.000	-0.001	-0.105
-471.230	153.793	0.103	-0.142
-470.216	-98.678	-0.240	0.061
-469.201	388.626	-0.088	0.182
-468.186	-200.000	0.023	-0.108
-467.172	0.839	0.229	-0.165
-466.157	-21.303	0.261	0.160
-465.143	-94.859	-0.277	-0.075
-464.128	-200.000	0.144	0.000
-463.113	800.000	-0.127	0.429
-462.099	-200.000	-0.032	-0.286
-461.084	227.063	-0.048	0.079
-460.070	-29.591	-0.186	-0.107
-459.055	-89.331	-0.297	-0.088
-458.040	-72.224	-0.305	0.113
-457.026	-59.044	-0.004	-0.002
-456.011	458.508	0.137	0.307
-454.997	-176.391	-0.259	0.007
-453.982	-33.352	-0.241	-0.134
-452.968	800.000	-0.079	-0.289
-451.953	-105.315	-0.024	0.005
-450.938	-55.342	0.133	-0.060
-449.924	113.095	-0.321	-0.390
-448.909	16.964	0.063	-0.050
-447.895	16.888	-0.199	0.158
-446.880	-87.664	-0.145	0.044
-445.865	-52.365	0.278	0.129
-444.851	172.810	-0.062	0.090
-443.836	-140.568	-0.239	0.025
-442.822	185.751	0.047	-0.070
-441.807	-121.704	-0.359	0.060
-440.792	231.857	-0.253	-0.416
-439.778	419.792	-0.078	0.168
-438.763	-38.547	-0.304	0.161
-437.749	-22.342	-0.103	0.063
-436.734	34.318	0.178	-0.156
-435.719	441.537	-0.122	0.269
-434.705	20.422	-0.209	-0.170
-433.690	-200.000	0.047	0.211
-432.676	23.050	0.110	0.090
-431.661	-75.608	0.134	0.048
-430.646	-200.000	-0.029	0.178
-429.632	-200.000	-0.010	-0.199
-428.617	-200.000	0.029	0.214
-427.603	148.066	-0.186	0.252
-426.588	199.843	0.262	0.403
-425.573	629.487	0.136	-0.345
-424.559	800.000	-0.105	0.369
-423.544	-47.817	-0.190	0.092
-422.530	-51.768	0.285	0.133
-421.515	-47.797	0.092	0.045
-420.500	-26.969	-0.167	-0.098
-419.486	-200.000	0.009	0.174
-418.471	27.114	-0.163	-0.137
-417.457	-44.451	-0.441	0.221
-416.442	-9.209	0.295	-0.198
-415.428	-200.000	0.012	0.093
-414.413	284.749	-0.116	0.210
-413.398	1.091	0.201	-0.145
-412.384	28.712	-0.225	0.191
-411.369	-91.813	-0.186	0.053
-410.355	-80.763	0.161	0.053
-409.340	-200.000	-0.035	0.193
-408.325	-200.000	-0.023	-0.180
-407.311	-104.224	-0.146	-0.034
-406.296	-22.449	-0.190	-0.115
-405.282	398.570	-0.213	-0.446
-404.267	-85.770	-0.194	-0.060
-403.252	800.000	0.056	-0.207
-402.238	800.000	0.099	-0.333
-401.223	-71.962	-0.138	0.051
-400.209	800.000	-0.032	0.090
-399.194	16.628	-0.300	0.237
-398.179	-200.000	0.031	-0.278
-397.165	-21.981	-0.156	-0.095
-396.150	157.592	0.208	-0.288
-395.136	-0.200	0.278	0.198
-394.121	800.000	0.122	0.351
-393.106	259.698	0.189	-0.326
-392.092	800.000	0.086	0.241
-391.077	231.457	0.022	0.037
-390.063	800.000	-0.028	0.083
-389.048	19.076	-0.036	0.029
-388.033	-174.983	-0.098	-0.003
-387.019	-1.229	0.121	-0.085
-386.004	-106.809	0.302	0.067
-384.990	-25.743	0.118	0.070
-383.975	107.919	-0.294	0.351
-382.960	-200.000	-0.007	0.056
-381.946	-18.381	0.395	-0.247
-380.931	-100.737	-0.036	-0.009
-379.917	-200.000	-0.037	-0.208
-378.902	698.170	0.033	-0.086
-377.888	274.930	-0.160	0.283
-376.873	221.044	-0.075	0.121
-375.858	-39.989	0.197	-0.103
-374.844	800.000	-0.056	0.205
-373.829	-67.974	-0.279	-0.109
-372.815	594.357	-0.077	-0.190
-371.800	-80.257	-0.290	0.097
-370.785	-72.245	-0.018	-0.007
-369.771	118.357	0.123	0.152
-368.756	-200.000	-0.020	-0.130
-367.742	-65.933	0.376	0.151
-366.727	-200.000	0.063	-0.304
-365.712	243.358	-0.129	-0.216
-364.698	-89.903	0.419	-0.122
-363.683	-200.000	-0.004	-0.076
-362.669	-116.615	0.050	0.009
-361.654	800.000	0.044	-0.140
-360.639	-200.000	0.030	0.166
-359.625	800.000	-0.157	0.504
-358.610	5.203	-0.136	0.100
-357.596	-200.000	0.023	-0.248
-356.581	361.638	0.148	0.297
-355.566	641.931	0.041	-0.104
-354.552	-164.087	-0.311	0.014
-353.537	-105.278	0.248	-0.056
-352.523	-68.373	0.264	0.103
-351.508	2.569	-0.068	0.049
-350.493	-33.339	0.186	0.103
-349.479	-88.689	0.204	-0.061
-348.464	222.172	0.081	0.130
-347.450	-21.569	-0.102	0.062
-346.435	113.924	0.064	0.077
-345.420	-26.847	0.177	-0.103
-344.406	40.171	0.138	-0.124
-343.391	-152.418	-0.096	0.007
-342.377	-43.386	0.312	-0.158
-341.362	34.798	0.193	-0.169
-340.348	180.735	-0.021	-0.031
-339.333	12.981	0.165	0.127
-338.318	42.353	-0.080	-0.073
-337.304	-90.700	-0.447	-0.129
-336.289	-200.000	-0.028	-0.287
-335.275	-200.000	0.005	0.076
-334.260	800.000	0.093	-0.338
-333.245	-130.165	-0.238	0.032
-332.231	314.079	0.119	0.224
-331.216	-200.000	-0.041	0.233
-330.202	-111.063	-0.143	-0.029
-329.187	-125.550	-0.389	0.059
-328.172	-200.000	-0.014	-0.084
-327.158	800.000	-0.038	0.117
-326.143	-139.584	0.323	0.034
-325.129	14.843	-0.179	0.140
-324.114	-181.919	0.351	0.007
-323.099	46.883	0.159	-0.148
-322.085	-200.000	-0.047	-0.424
-321.070	-200.000	-0.019	0.308
-320.056	38.520	-0.275	-0.245
-319.041	458.379	-0.081	-0.179
-318.026	-19.588	-0.300	-0.185
-317.012	605.022	0.168	0.417
-315.997	-85.214	-0.277	-0.087
-314.983	-173.322	0.281	0.009
-313.968	43.324	0.154	0.140
-312.953	400.847	-0.068	0.143
-311.939	-52.214	0.329	0.152
-310.924	-200.000	-0.045	-0.220
-309.910	369.976	0.041	0.083
-308.895	-200.000	0.044	0.271
-307.880	16.087	0.118	-0.093
-306.866	114.163	-0.109	0.133
-305.851	-139.065	-0.080	-0.009
-304.837	800.000	0.060	-0.234
-303.822	-176.502	0.489	0.013
-302.807	-75.418	0.089	0.032
-301.793	-118.816	0.215	0.038
-300.778	-200.000	0.006	-0.178
-299.764	-84.681	-0.387	0.122
-298.749	-94.276	0.191	0.052
-297.735	-43.252	-0.282	-0.142
-296.720	-70.396	0.161	-0.061
-295.705	-1.994	0.069	-0.049
-294.691	228.319	-0.142	-0.231
-293.676	-200.000	0.013	-0.127
-292.662	16.275	-0.042	-0.033
-291.647	-31.022	-0.286	-0.161
-290.632	8.705	-0.029	-0.022
-289.618	-160.788	-0.138	-0.007
-288.603	-94.212	-0.337	0.092
-287.589	-22.674	0.112	-0.067
-286.574	800.000	-0.061	-0.170
-285.559	-200.000	0.027	0.120
-284.545	-200.000	0.028	0.358
-283.530	8.391	-0.336	-0.252
-282.516	800.000	0.144	-0.440
-281.501	-168.460	0.016	-0.001
-280.486	-200.000	0.052	0.256
-279.472	-159.910	-0.136	0.007
-278.457	406.241	-0.163	0.344
-277.443	-11.250	0.190	0.125
-276.428	-55.057	0.375	0.168
-275.413	62.394	0.081	0.080
-274.399	53.300	0.192	0.184
-273.384	553.161	0.111	0.266
-272.370	800.000	-0.117	0.480
-271.355	4.266	-0.121	-0.088
-270.340	235.316	-0.086	0.141
-269.326	15.965	0.036	-0.028
-268.311	-65.384	0.160	0.064
-267.297	-98.814	-0.184	0.047
-266.282	-58.020	-0.162	0.071
-265.267	-102.218	-0.343	-0.082
-264.253	-101.838	-0.230	0.055
-263.238	-117.636	-0.327	-0.059
-262.224	-90.783	0.214	-0.061
-261.209	45.729	-0.362	-0.334
-260.195	42.376	0.236	-0.214
-259.180	-46.856	-0.130	0.063
-258.165	307.459	0.071	-0.132
-257.151	166.284	0.159	0.224
-256.136	-125.780	0.137	-0.021
-255.122	584.264	0.050	-0.123
-254.107	99.002	0.302	0.347
-253.092	-200.000	0.014	-0.149
-252.078	-200.000	-0.031	-0.172
-251.063	604.978	0.192	0.476
-250.049	-136.807	-0.069	-0.008
-249.034	-171.757	-0.118	0.004
-248.019	-72.681	-0.025	0.009
-247.005	346.717	-0.084	0.165
-245.990	800.000	0.105	-0.370
-244.976	-163.216	-0.403	0.019
-243.961	-2.048	0.306	0.214
-242.946	-124.473	0.251	0.039
-241.932	18.846	0.226	-0.180
-240.917	-162.986	0.431	-0.021
-239.903	-200.000	0.028	0.151
-238.888	-200.000	0.058	-0.343
-237.873	-200.000	-0.003	-0.197
-236.859	12.374	-0.072	0.055
-235.844	-63.103	0.119	0.049
-234.830	317.441	0.004	-0.007
-233.815	-76.602	-0.160	-0.056
-232.800	-200.000	-0.022	-0.248
-231.786	91.380	0.186	0.208
-230.771	-152.141	0.090	0.007
-229.757	3.917	0.163	0.118
-228.742	-32.996	0.305	-0.169
-227.727	21.654	0.112	-0.091
-226.713	81.130	0.123	-0.132
-225.698	408.273	0.056	-0.118
-224.684	-29.532	-0.129	-0.074
-223.669	120.984	-0.072	0.089
-222.655	-143.340	0.129	-0.012
-221.640	410.135	-0.149	0.314
-220.625	571.749	-0.076	-0.184
-219.611	-154.320	0.099	-0.007
-218.596	123.077	-0.078	-0.097
-217.582	372.288	-0.131	0.265
-216.567	-101.985	-0.214	0.051
-215.552	-197.300	0.155	-0.001
-214.538	-154.945	-0.211	0.014
-213.523	21.219	-0.283	-0.228
-212.509	104.573	0.182	-0.213
-211.494	-100.812	-0.229	0.056
-210.479	-129.584	0.354	0.049
-209.465	-104.616	-0.115	-0.026
-208.450	24.148	0.153	0.125
-207.436	33.433	0.185	0.159
-206.421	259.779	0.044	0.076
-205.406	800.000	-0.027	-0.097
-204.392	-47.432	-0.256	-0.124
-203.377	-163.377	-0.333	0.016
-202.363	110.423	0.144	0.172
-201.348	-91.527	0.269	-0.076
-200.333	-80.283	-0.115	-0.038
-199.319	-39.735	0.221	0.115
-198.304	76.992	0.208	-0.219
-197.290	-102.669	-0.020	-0.005
-196.275	-0.994	-0.103	0.072
-195.260	-147.466	-0.158	-0.013
-194.246	-89.543	0.446	0.130
-193.231	20.785	-0.215	-0.173
-192.217	-57.411	0.122	-0.053
-191.202	250.565	-0.081	0.137
-190.187	-100.642	-0.153	0.038
-189.173	678.450	-0.031	0.080
-188.158	-159.410	-0.064	0.004
-187.144	-165.393	0.155	-0.007
-186.129	203.847	0.154	0.236
-185.114	699.743	0.037	-0.098
-184.100	-85.132	0.345	-0.107
-183.085	-200.000	0.095	-0.418
-182.071	12.966	0.102	-0.078
-181.056	-14.220	0.295	0.189
-180.042	29.790	0.264	0.223
-179.027	-68.919	0.054	-0.021
-178.012	275.594	0.104	-0.184
-176.998	222.284	0.070	0.113
-175.983	-200.000	-0.003	0.145
-174.969	-200.000	0.032	-0.293
-173.954	-200.000	-0.001	-0.145
-172.939	-200.000	-0.003	-0.022
-171.925	434.895	-0.074	0.160
-170.910	-200.000	0.003	0.210
-169.896	-200.000	-0.008	-0.267
-168.881	-164.283	0.249	0.011
-167.866	114.830	-0.115	0.139
-166.852	-62.404	-0.039	-0.016
-165.837	800.000	-0.050	0.138
-164.823	148.046	0.276	-0.370
-163.808	-134.229	-0.238	-0.029
-162.793	-1.417	0.220	-0.154
-161.779	16.847	0.183	0.144
-160.764	-136.286	0.206	-0.024
-159.750	252.894	0.146	-0.247
-158.735	167.278	-0.086	-0.121
-157.720	-145.028	-0.209	-0.019
-156.706	-75.472	-0.007	0.003
-155.691	329.139	0.132	-0.253
-154.677	58.389	-0.164	-0.160
-153.662	-75.881	0.465	0.163
-152.647	-12.321	-0.136	-0.088
-151.633	800.000	-0.082	0.301
-150.618	-125.056	0.190	0.029
-149.604	85.797	0.027	0.029
-148.589	-5.269	-0.104	0.071
-147.574	-200.000	-0.033	-0.146
-146.560	-18.093	-0.202	0.125
-145.545	-200.000	0.028	0.180
-144.531	9.417	0.228	0.171
-143.516	800.000	0.083	0.276
-142.502	205.569	-0.092	0.142
-141.487	53.717	-0.079	-0.075
-140.472	-200.000	-0.024	-0.113
-139.458	-97.063	0.297	-0.077
-138.443	-93.836	-0.194	-0.053
-137.429	-41.507	0.182	0.093
-136.414	-164.754	-0.025	-0.001
-135.399	342.346	0.081	-0.157
-134.385	165.324	-0.140	-0.196
-133.370	52.975	-0.168	-0.160
-132.356	-15.022	0.084	-0.053
-131.341	-151.675	-0.100	-0.007
-130.326	-27.373	0.067	0.039
-129.312	54.252	0.114	-0.109
-128.297	287.189	0.200	-0.358
-127.283	-28.055	0.258	0.148
-126.268	-200.000	0.014	-0.092
-125.253	-155.411	-0.097	0.006
-124.239	-62.727	0.144	0.059
-123.224	-200.000	-0.013	-0.122
-122.210	-120.459	0.467	0.079
-121.195	-105.352	-0.326	0.074
