DTS Sentinel unit serial number:	SN413079Multiplexer serial number:	ORYXHardware model number:	OX4-SRSoftware version number:	ORYX F/W v4.00 Oryx Data Collector v3.7.2.0data status	okinstallation	princeton_trtdifferential loss correction	single-endedforward channel	channel 3reverse channel	N/Adate	2019/09/15time	18:52:34forward acquisition time	60.00reverse acquisition time	0.00gamma	496.2192k internal	0.2290k external	0.2290temperature offset calibration	0.9932default loss term (dB/km)	0.3790temperature slope calibration	1.0000multiplexer offset coefficient	1.0000multiplexer slope coefficient	1.0000fibre end	0.00T internal ref (°C)	42.89T ext. ref 1 (°C)	6.95T ext. ref 2 (°C)	33.42length (m)	temperature (°C)	Stokes	anti-Stokes-747.200	-9.141	0.182	0.125
-746.185	-200.000	-0.027	0.165
-745.171	-200.000	-0.020	0.310
-744.156	-43.045	0.280	0.145
-743.142	800.000	0.040	0.128
-742.127	-138.912	0.281	-0.031
-741.112	166.751	0.122	-0.177
-740.098	-40.095	0.155	0.083
-739.083	-14.293	0.292	0.193
-738.069	761.320	-0.162	0.450
-737.054	200.488	0.103	0.163
-736.039	163.186	-0.195	-0.281
-735.025	-200.000	0.087	0.409
-734.010	-200.000	0.045	-0.487
-732.996	-200.000	0.063	-0.342
-731.981	-19.595	0.100	-0.063
-730.966	321.071	-0.076	-0.148
-729.952	95.536	-0.315	-0.368
-728.937	209.973	-0.042	-0.067
-727.923	-50.769	-0.087	0.042
-726.908	-13.868	0.266	0.176
-725.894	329.561	0.079	-0.155
-724.879	-9.436	-0.155	0.106
-723.864	268.861	-0.181	-0.326
-722.850	-200.000	0.057	0.344
-721.835	235.029	-0.148	0.250
-720.821	-200.000	-0.042	-0.222
-719.806	235.284	-0.172	-0.291
-718.791	-24.952	0.128	0.078
-717.777	3.483	-0.184	0.138
-716.762	-200.000	0.010	-0.213
-715.748	-200.000	0.002	-0.150
-714.733	246.441	-0.144	-0.249
-713.718	0.076	0.054	-0.040
-712.704	39.669	-0.180	0.165
-711.689	243.038	0.067	0.114
-710.675	-200.000	0.018	0.111
-709.660	800.000	-0.051	0.167
-708.645	33.311	0.121	0.108
-707.631	-99.962	-0.111	-0.028
-706.616	67.962	-0.034	0.035
-705.602	800.000	0.029	-0.084
-704.587	55.025	-0.169	-0.167
-703.572	800.000	0.053	-0.238
-702.558	465.216	-0.070	-0.161
-701.543	106.727	0.267	0.325
-700.529	-60.105	-0.257	0.112
-699.514	109.670	0.258	-0.316
-698.499	-38.764	0.221	0.119
-697.485	800.000	-0.123	-0.395
-696.470	-200.000	0.014	-0.174
-695.456	105.651	0.125	-0.152
-694.441	126.752	0.081	-0.105
-693.426	-50.041	0.073	0.035
-692.412	-200.000	0.019	0.205
-691.397	598.958	-0.106	0.269
-690.383	-200.000	-0.040	-0.232
-689.368	-122.824	0.161	-0.026
-688.354	-53.911	-0.072	0.033
-687.339	-127.429	-0.559	0.083
-686.324	-76.697	-0.243	-0.087
-685.310	-136.049	-0.200	-0.024
-684.295	-200.000	0.108	-0.489
-683.281	-33.728	-0.100	-0.056
-682.266	31.837	-0.244	0.215
-681.251	-122.607	-0.080	0.013
-680.237	-44.048	-0.171	0.088
-679.222	353.720	-0.113	-0.230
-678.208	-200.000	0.011	-0.057
-677.193	-84.128	0.174	0.056
-676.178	-23.973	0.117	-0.072
-675.164	-200.000	0.002	0.021
-674.149	702.758	-0.078	-0.210
-673.135	169.689	-0.072	0.105
-672.120	55.175	-0.307	0.303
-671.105	125.282	-0.090	-0.116
-670.091	-48.661	0.448	-0.220
-669.076	135.596	-0.260	-0.346
-668.062	108.758	-0.034	0.041
-667.047	800.000	0.057	-0.172
-666.032	-113.212	-0.143	0.029
-665.018	-102.638	0.510	-0.124
-664.003	18.336	0.172	0.140
-662.989	64.634	-0.274	-0.282
-661.974	-107.411	-0.204	-0.046
-660.959	46.931	-0.110	-0.105
-659.945	-71.795	-0.097	-0.037
-658.930	-97.245	0.287	-0.076
-657.916	-28.612	-0.124	0.073
-656.901	254.910	0.086	-0.151
-655.886	330.357	-0.160	0.314
-654.872	185.006	-0.110	-0.167
-653.857	46.468	0.100	-0.095
-652.843	31.164	0.166	0.145
-651.828	-35.537	0.159	-0.088
-650.814	156.497	0.081	0.114
-649.799	800.000	0.092	0.313
-648.784	-200.000	0.015	-0.107
-647.770	-80.943	0.340	-0.115
-646.755	202.514	0.123	-0.194
-645.741	-115.145	-0.074	-0.014
-644.726	-23.813	0.120	-0.073
-643.711	-32.104	0.187	-0.106
-642.697	800.000	0.053	-0.222
-641.682	152.001	-0.073	0.102
-640.668	24.350	-0.329	-0.277
-639.653	26.270	0.141	-0.121
-638.638	800.000	-0.047	-0.193
-637.624	-55.806	-0.062	-0.028
-636.609	-113.135	-0.096	-0.019
-635.595	499.878	0.041	-0.095
-634.580	-130.604	-0.144	-0.020
-633.565	-66.476	-0.181	0.074
-632.551	97.179	-0.085	0.100
-631.536	31.149	0.061	-0.054
-630.522	-200.000	0.019	-0.156
-629.507	-53.167	-0.280	0.131
-628.492	-167.237	-0.268	-0.011
-627.478	107.847	-0.181	-0.220
-626.463	800.000	-0.006	0.020
-625.449	-78.971	0.073	0.025
-624.434	533.882	0.126	-0.305
-623.419	-6.280	-0.087	-0.061
-622.405	-117.988	0.415	-0.076
-621.390	227.761	-0.068	0.113
-620.376	-165.136	0.028	0.001
-619.361	-178.685	-0.314	-0.007
-618.346	-70.919	0.259	-0.099
-617.332	-28.438	0.091	-0.053
-616.317	198.367	-0.069	0.108
-615.303	113.553	-0.036	0.045
-614.288	-200.000	0.022	-0.138
-613.273	329.549	-0.164	0.322
-612.259	-200.000	-0.030	-0.367
-611.244	109.150	-0.072	0.088
-610.230	-81.179	0.313	-0.106
-609.215	635.137	-0.085	0.221
-608.201	30.739	-0.111	-0.097
-607.186	90.292	0.115	-0.131
-606.171	-200.000	0.037	-0.177
-605.157	10.112	0.141	0.109
-604.142	13.356	0.399	0.315
-603.128	-44.481	0.135	0.069
-602.113	71.736	0.217	0.230
-601.098	-52.696	-0.172	0.081
-600.084	-64.334	0.156	0.065
-599.069	153.217	-0.121	-0.169
-598.055	-200.000	0.013	0.186
-597.040	25.671	-0.234	-0.199
-596.025	-200.000	0.050	-0.394
-595.011	143.159	0.185	-0.251
-593.996	-124.630	0.132	-0.021
-592.982	-111.213	0.100	0.021
-591.967	-118.753	-0.330	0.059
-590.952	-86.979	-0.242	0.075
-589.938	-125.038	-0.268	0.042
-588.923	-118.621	0.288	-0.052
-587.909	800.000	-0.139	0.406
-586.894	117.458	-0.340	-0.426
-585.879	800.000	0.034	-0.133
-584.865	62.950	-0.234	0.239
-583.850	-34.010	-0.192	0.107
-582.836	-44.429	0.299	0.152
-581.821	-14.806	-0.200	0.131
-580.806	-157.136	-0.039	0.002
-579.792	800.000	-0.094	-0.319
-578.777	-22.330	0.139	0.086
-577.763	-138.780	0.105	0.012
-576.748	-67.405	-0.139	0.055
-575.733	-59.740	0.287	-0.125
-574.719	-109.235	0.244	0.053
-573.704	-43.177	0.052	0.027
-572.690	699.342	0.060	-0.160
-571.675	-106.695	0.366	0.083
-570.661	37.230	0.248	-0.223
-569.646	-67.903	0.265	0.105
-568.631	-135.571	-0.164	0.020
-567.617	-200.000	0.018	0.149
-566.602	400.870	-0.161	0.343
-565.588	272.333	-0.063	0.113
-564.573	126.062	0.054	0.069
-563.558	-92.208	-0.460	0.132
-562.544	-146.948	-0.057	0.005
-561.529	-37.623	-0.309	0.168
-560.515	-14.730	0.196	-0.128
-559.500	172.403	-0.110	-0.161
-558.485	-55.090	-0.125	-0.057
-557.471	-144.873	0.021	0.002
-556.456	800.000	0.090	0.304
-555.442	800.000	0.138	0.388
-554.427	-62.435	0.002	-0.001
-553.412	175.687	-0.199	0.294
-552.398	184.330	-0.061	0.093
-551.383	-124.643	0.161	-0.025
-550.369	800.000	0.048	0.175
-549.354	-102.987	0.022	0.005
-548.339	-107.786	0.157	-0.035
-547.325	-104.961	0.222	0.052
-546.310	-134.706	0.352	0.044
-545.296	-200.000	0.026	-0.313
-544.281	73.382	-0.136	-0.145
-543.266	79.475	-0.215	-0.235
-542.252	800.000	0.054	0.185
-541.237	800.000	-0.092	-0.292
-540.223	308.449	-0.159	0.301
-539.208	-28.798	-0.238	0.139
-538.193	673.703	0.235	0.619
-537.179	-200.000	-0.019	-0.090
-536.164	73.910	0.176	-0.188
-535.150	15.570	0.243	-0.194
-534.135	800.000	-0.048	-0.177
-533.121	704.952	0.061	-0.163
-532.106	361.262	0.054	-0.110
-531.091	-200.000	0.033	0.159
-530.077	-122.024	-0.335	0.056
-529.062	-154.017	-0.462	0.032
-528.048	-163.241	0.376	-0.018
-527.033	800.000	0.134	-0.392
-526.018	-71.053	-0.425	-0.162
-525.004	-200.000	-0.029	0.235
-523.989	282.112	-0.186	-0.339
-522.975	619.787	-0.034	-0.087
-521.960	-85.714	0.220	-0.070
-520.945	-74.269	0.207	0.076
-519.931	-108.727	-0.324	-0.071
-518.916	475.458	-0.147	0.336
-517.902	-140.223	-0.291	-0.031
-516.887	423.700	-0.189	0.412
-515.872	-200.000	-0.021	-0.410
-514.858	800.000	0.110	-0.425
-513.843	18.484	-0.239	0.194
-512.829	436.592	-0.088	-0.195
-511.814	0.784	0.312	-0.227
-510.799	375.594	0.193	-0.400
-509.785	-70.522	0.091	0.035
-508.770	0.520	-0.055	-0.040
-507.756	126.922	0.018	-0.023
-506.741	-84.194	0.240	0.077
-505.726	253.093	-0.077	-0.133
-504.712	60.384	0.111	0.112
-503.697	-167.426	0.038	0.002
-502.683	-43.756	0.085	0.043
-501.668	-200.000	-0.039	-0.307
-500.653	-184.575	-0.259	-0.004
-499.639	-200.000	-0.036	-0.338
-498.624	-200.000	0.006	-0.067
-497.610	800.000	0.051	0.213
-496.595	-159.861	-0.313	0.017
-495.581	-200.000	-0.063	-0.457
-494.566	58.509	-0.055	-0.055
-493.551	-200.000	-0.001	0.456
-492.537	-200.000	-0.042	0.243
-491.522	13.134	0.382	0.300
-490.508	-32.318	0.260	-0.147
-489.493	-200.000	-0.001	0.170
-488.478	20.293	0.232	0.190
-487.464	-107.633	-0.208	-0.046
-486.449	-108.051	0.215	0.047
-485.435	-75.335	0.194	0.070
-484.420	800.000	-0.090	0.298
-483.405	81.674	-0.072	-0.079
-482.391	-130.767	-0.501	-0.068
-481.376	-155.522	0.119	0.008
-480.362	-200.000	-0.016	0.135
-479.347	-148.218	0.311	-0.026
-478.332	-4.573	0.206	0.144
-477.318	-200.000	-0.008	0.278
-476.303	-103.755	-0.182	-0.043
-475.289	-200.000	0.041	0.294
-474.274	-71.622	0.274	0.104
-473.259	-89.649	-0.146	-0.043
-472.245	-200.000	-0.024	-0.147
-471.230	91.440	-0.098	0.111
-470.216	111.694	0.092	0.113
-469.201	-200.000	0.009	-0.140
-468.186	13.308	0.038	-0.030
-467.172	-200.000	0.005	0.024
-466.157	156.671	0.152	-0.213
-465.143	5.561	0.084	-0.063
-464.128	112.939	0.068	0.083
-463.113	21.081	-0.061	-0.050
-462.099	649.589	0.029	-0.076
-461.084	-125.943	0.296	-0.045
-460.070	-41.274	-0.095	0.050
-459.055	-138.831	0.205	0.023
-458.040	157.775	0.055	0.078
-457.026	463.927	0.103	-0.234
-456.011	-200.000	0.005	0.272
-454.997	-55.595	-0.165	-0.075
-453.982	706.017	0.051	-0.135
-452.968	-200.000	-0.008	-0.111
-451.953	207.281	0.164	-0.260
-450.938	185.148	0.109	0.164
-449.924	800.000	0.039	0.156
-448.909	-73.877	0.151	0.055
-447.895	-125.632	0.150	0.023
-446.880	95.912	-0.098	-0.113
-445.865	119.456	0.163	-0.205
-444.851	-80.568	0.114	0.038
-443.836	357.027	-0.180	0.364
-442.822	-30.728	0.272	0.156
-441.807	-117.891	-0.158	0.029
-440.792	271.099	0.177	0.315
-439.778	38.126	-0.191	-0.172
-438.763	-114.656	-0.218	0.042
-437.749	502.355	-0.066	0.156
-436.734	800.000	0.042	-0.187
-435.719	-186.612	0.252	0.004
-434.705	-124.476	-0.274	-0.043
-433.690	-200.000	0.054	0.305
-432.676	800.000	-0.118	-0.407
-431.661	81.118	0.079	-0.087
-430.646	-71.208	0.138	-0.053
-429.632	-37.879	-0.072	-0.039
-428.617	297.110	-0.122	-0.227
-427.603	-53.791	0.047	0.022
-426.588	42.039	0.169	-0.155
-425.573	19.511	0.097	-0.079
-424.559	-90.544	0.275	-0.081
-423.544	7.521	0.164	0.124
-422.530	112.869	-0.069	-0.084
-421.515	-96.735	-0.091	0.024
-420.500	-101.310	-0.229	-0.057
-419.486	47.214	0.059	-0.056
-418.471	59.285	0.190	0.189
-417.457	-1.115	-0.267	-0.191
-416.442	207.170	0.075	-0.119
-415.428	37.490	0.106	-0.095
-414.413	272.878	-0.069	0.123
-413.398	-34.092	-0.187	-0.104
-412.384	-154.479	0.238	-0.016
-411.369	-38.515	0.058	-0.031
-410.355	-50.811	-0.118	-0.056
-409.340	800.000	-0.053	0.155
-408.325	-125.329	0.081	0.013
-407.311	-200.000	-0.011	0.057
-406.296	-93.898	-0.215	-0.060
-405.282	372.056	0.047	-0.096
-404.267	16.757	0.091	0.073
-403.252	80.996	0.167	0.182
-402.238	-200.000	-0.062	-0.416
-401.223	800.000	0.085	-0.324
-400.209	385.910	0.074	-0.155
-399.194	-182.718	0.231	-0.004
-398.179	635.807	-0.058	-0.148
-397.165	305.956	-0.044	0.083
-396.150	800.000	0.087	0.245
-395.136	229.301	0.060	-0.099
-394.121	136.985	-0.186	0.246
-393.106	16.334	0.222	-0.177
-392.092	-200.000	-0.060	-0.324
-391.077	-129.841	-0.236	-0.033
-390.063	-58.665	-0.271	0.119
-389.048	92.970	-0.092	-0.105
-388.033	-24.933	-0.124	-0.075
-387.019	233.210	0.156	-0.260
-386.004	261.255	0.083	-0.146
-384.990	-152.861	-0.310	-0.022
-383.975	87.144	0.077	0.086
-382.960	88.499	-0.081	0.091
-381.946	122.710	0.163	-0.206
-380.931	-200.000	-0.003	0.076
-379.917	-126.490	-0.078	-0.012
-378.902	-133.967	-0.264	0.033
-377.888	-200.000	0.022	0.131
-376.873	-109.911	-0.225	-0.048
-375.858	-145.020	0.189	0.017
-374.844	-200.000	0.002	-0.106
-373.829	800.000	0.029	0.120
-372.815	77.331	-0.243	-0.261
-371.800	-200.000	0.033	-0.168
-370.785	554.049	-0.075	-0.183
-369.771	245.685	-0.052	-0.088
-368.756	-114.119	0.139	0.027
-367.742	-200.000	-0.067	-0.336
-366.727	-200.000	0.057	0.295
-365.712	172.503	0.092	-0.133
-364.698	800.000	-0.065	-0.226
-363.683	-91.953	0.207	0.059
-362.669	77.003	0.084	-0.090
-361.654	-141.888	-0.208	0.021
-360.639	-200.000	0.010	0.100
-359.625	382.906	0.048	-0.099
-358.610	-98.094	0.506	-0.132
-357.596	31.557	0.161	0.140
-356.581	368.984	0.148	-0.303
-355.566	33.946	0.334	-0.293
-354.552	-37.387	0.320	0.172
-353.537	-81.365	-0.154	-0.051
-352.523	800.000	-0.108	-0.316
-351.508	800.000	0.038	0.118
-350.493	92.800	-0.139	0.158
-349.479	365.514	-0.062	-0.126
-348.464	-9.532	-0.137	-0.092
-347.450	-200.000	-0.014	0.204
-346.435	-138.173	0.156	-0.017
-345.420	-46.269	0.156	0.077
-344.406	-50.656	-0.176	-0.084
-343.391	-78.497	-0.171	-0.059
-342.377	-200.000	-0.077	0.000
-341.362	173.403	-0.244	0.355
-340.348	-200.000	0.008	0.404
-339.333	63.208	-0.063	0.063
-338.318	800.000	0.124	-0.373
-337.304	-65.145	-0.119	-0.048
-336.289	-121.544	0.286	-0.048
-335.275	-200.000	-0.022	-0.222
-334.260	2.908	-0.147	0.108
-333.245	640.913	0.083	0.214
-332.231	297.189	-0.065	-0.121
-331.216	-48.516	-0.064	-0.031
-330.202	-200.000	0.036	0.217
-329.187	99.502	-0.331	0.386
-328.172	-15.436	0.031	-0.020
-327.158	557.154	-0.042	0.102
-326.143	394.720	-0.033	0.068
-325.129	24.792	0.129	-0.108
-324.114	-54.323	0.239	0.109
-323.099	5.194	0.058	0.043
-322.085	-19.077	0.209	0.131
-321.070	-200.000	0.031	0.270
-320.056	307.546	-0.102	0.191
-319.041	-72.812	-0.071	-0.026
-318.026	-24.431	-0.036	0.022
-317.012	-200.000	0.010	-0.048
-315.997	800.000	0.026	-0.100
-314.983	313.289	-0.078	0.147
-313.968	-166.875	0.203	-0.008
-312.953	124.592	0.143	-0.181
-311.939	-134.307	-0.393	-0.049
-310.924	67.007	-0.087	0.090
-309.910	486.874	0.125	0.287
-308.895	152.819	0.027	0.038
-307.880	-200.000	0.052	0.249
-306.866	-38.106	0.099	0.053
-305.851	174.225	-0.088	0.128
-304.837	-13.043	-0.056	-0.037
-303.822	-165.480	0.103	-0.005
-302.807	510.147	0.125	-0.292
-301.793	117.498	0.235	-0.291
-300.778	98.376	0.173	-0.201
-299.764	800.000	0.133	0.437
-298.749	-200.000	0.028	0.165
-297.735	108.166	-0.118	0.141
-296.720	87.948	0.095	0.106
-295.705	76.542	0.078	0.083
-294.691	109.697	0.192	0.231
-293.676	206.119	-0.156	0.244
-292.662	-3.999	0.174	-0.122
-291.647	32.790	-0.207	-0.180
-290.632	253.356	-0.120	0.207
-289.618	-8.945	-0.052	0.035
-288.603	800.000	0.042	-0.152
-287.589	800.000	0.122	-0.376
-286.574	742.736	0.046	0.125
-285.559	-193.420	0.418	-0.004
-284.545	-163.230	-0.189	0.009
-283.530	-47.925	0.204	-0.099
-282.516	-85.862	-0.104	0.032
-281.501	113.786	-0.136	-0.166
-280.486	-16.828	0.189	0.121
-279.472	167.140	0.189	0.269
-278.457	-200.000	-0.026	0.326
-277.443	-200.000	0.019	0.162
-276.428	-34.589	-0.253	0.139
-275.413	-129.781	-0.168	0.023
-274.399	800.000	-0.057	-0.198
-273.384	-200.000	0.019	-0.176
-272.370	8.273	-0.218	-0.165
-271.355	-110.445	-0.196	0.041
-270.340	-30.792	0.130	0.074
-269.326	36.102	-0.096	0.085
-268.311	-79.883	0.251	0.085
-267.297	-119.707	-0.391	0.068
-266.282	-3.436	0.324	-0.227
-265.267	149.138	-0.221	-0.301
-264.253	800.000	0.072	0.281
-263.238	492.983	-0.122	0.281
-262.224	602.114	0.036	-0.091
-261.209	-106.988	0.216	0.048
-260.195	431.104	0.079	-0.172
-259.180	32.050	-0.107	-0.093
-258.165	90.563	-0.095	-0.107
-257.151	66.549	0.204	0.208
-256.136	-0.393	-0.278	-0.199
-255.122	174.703	-0.165	-0.240
-254.107	800.000	-0.072	0.305
-253.092	-153.124	-0.115	-0.008
-252.078	-200.000	0.023	-0.168
-251.063	-47.219	-0.162	0.079
-250.049	-90.260	0.404	0.118
-249.034	245.642	-0.112	0.190
-248.019	-200.000	0.078	-0.629
-247.005	-200.000	-0.043	-0.239
-245.990	-200.000	0.033	-0.150
-244.976	-200.000	0.215	0.001
-243.961	-10.184	0.154	-0.103
-242.946	83.055	-0.117	0.128
-241.932	44.091	-0.031	0.029
-240.917	-50.953	0.208	0.098
-239.903	13.581	-0.348	0.272
-238.888	-200.000	-0.013	0.266
-237.873	18.874	-0.180	0.145
-236.859	-49.401	0.255	-0.122
-235.844	96.733	0.149	-0.172
-234.830	252.568	-0.077	-0.131
-233.815	302.588	0.133	-0.247
-232.800	732.129	-0.023	0.062
-231.786	-200.000	0.015	-0.076
-230.771	-200.000	0.001	0.018
-229.757	-72.578	-0.084	-0.031
-228.742	-17.481	-0.324	-0.205
-227.727	800.000	-0.054	0.214
-226.713	-88.264	0.378	-0.114
-225.698	-17.888	0.060	0.038
-224.684	216.206	-0.175	-0.279
-223.669	134.828	0.136	-0.177
-222.655	254.361	0.088	0.151
-221.640	-129.533	-0.168	-0.023
-220.625	-38.864	-0.115	-0.061
-219.611	-200.000	-0.074	-0.482
-218.596	-125.703	-0.302	0.046
-217.582	304.899	-0.155	-0.290
-216.567	16.123	0.355	-0.281
-215.552	-112.438	-0.190	-0.038
-214.538	-152.035	0.062	0.005
-213.523	-200.000	0.045	0.397
-212.509	-174.259	-0.022	0.001
-211.494	-200.000	-0.017	0.262
-210.479	-183.368	-0.173	0.003
-209.465	-154.710	-0.197	0.013
-208.450	-200.000	0.030	-0.187
-207.436	118.115	0.109	0.134
-206.421	-200.000	-0.029	0.294
-205.406	-200.000	0.015	-0.203
-204.392	-47.410	0.105	0.051
-203.377	-27.542	-0.176	-0.102
-202.363	-56.407	0.143	0.064
-201.348	-200.000	-0.020	0.256
-200.333	-200.000	-0.037	0.287
-199.319	-124.544	0.056	0.009
-198.304	-128.367	0.168	0.024
-197.290	224.693	-0.032	0.052
-196.275	-178.976	-0.212	0.005
-195.260	11.534	-0.212	0.163
-194.246	-93.539	-0.300	0.083
-193.231	-171.752	-0.205	-0.007
-192.217	186.089	0.055	-0.082
-191.202	225.864	-0.058	-0.094
-190.187	196.465	-0.091	0.139
-189.173	-78.078	0.097	0.034
-188.158	-130.115	0.123	0.017
-187.144	-116.317	0.163	0.030
-186.129	38.846	0.116	0.103
-185.114	154.840	-0.063	0.087
-184.100	-7.230	0.228	-0.155
-183.085	-37.081	0.282	0.151
-182.071	-200.000	-0.003	-0.061
-181.056	177.824	-0.092	-0.134
-180.042	6.597	-0.169	0.126
-179.027	252.186	-0.071	-0.122
-178.012	-92.773	-0.199	0.056
-176.998	107.814	-0.232	0.278
-175.983	-52.314	0.169	-0.079
-174.969	-102.311	-0.202	-0.049
-173.954	-120.250	-0.308	-0.053
-172.939	-167.300	0.108	0.004
-171.925	-97.799	-0.066	-0.017
-170.910	800.000	-0.158	0.482
-169.896	-49.803	-0.333	-0.159
-168.881	-76.311	-0.192	-0.068
-167.866	-122.294	-0.200	-0.033
-166.852	-200.000	0.099	0.583
-165.837	800.000	-0.081	0.276
-164.823	-24.351	-0.045	-0.027
-163.808	-200.000	0.031	0.267
-162.793	-200.000	-0.060	0.306
-161.779	-35.255	0.202	0.110
-160.764	-200.000	0.000	-0.086
-159.750	-69.634	0.059	-0.023
-158.735	148.035	-0.030	0.041
-157.720	0.387	-0.313	0.224
-156.706	-200.000	0.007	0.161
-155.691	-57.047	-0.178	-0.078
-154.677	-150.571	0.139	-0.011
-153.662	-200.000	-0.025	0.273
-152.647	-200.000	-0.066	-0.311
-151.633	7.022	0.155	0.115
-150.618	-42.708	-0.065	-0.033
-149.604	307.047	0.192	0.357
-148.589	-109.920	0.234	-0.049
-147.574	14.782	0.087	-0.068
-146.560	71.372	-0.075	-0.078
-145.545	-183.287	-0.538	-0.009
-144.531	130.076	-0.081	-0.103
-143.516	-94.234	0.261	0.071
-142.502	83.154	-0.137	0.149
-141.487	-122.429	0.136	-0.022
-140.472	-72.638	-0.092	0.034
-139.458	226.361	-0.256	0.416
-138.443	800.000	-0.019	0.070
-137.429	-121.888	-0.202	-0.033
-136.414	-34.686	0.141	0.077
-135.399	-64.610	-0.163	-0.066
-134.385	-92.643	-0.123	-0.035
-133.370	-200.000	0.002	0.511
-132.356	800.000	0.088	0.308
-131.341	31.839	0.238	-0.205
-130.326	-200.000	-0.046	-0.264
-129.312	11.828	0.190	0.146
-128.297	800.000	-0.103	-0.295
-127.283	-71.707	0.138	0.052
-126.268	252.112	-0.060	-0.102
-125.253	500.858	-0.045	-0.105
-124.239	-200.000	-0.056	-0.257
-123.224	-200.000	-0.010	-0.166
-122.210	99.899	0.108	0.125
-121.195	714.460	0.089	0.235
