DTS Sentinel unit serial number:	SN413079Multiplexer serial number:	ORYXHardware model number:	OX4-SRSoftware version number:	ORYX F/W v4.00 Oryx Data Collector v3.7.2.0data status	okinstallation	princeton_trtdifferential loss correction	single-endedforward channel	channel 3reverse channel	N/Adate	2019/09/14time	04:00:34forward acquisition time	60.00reverse acquisition time	0.00gamma	496.2192k internal	0.2338k external	0.2338temperature offset calibration	1.0055default loss term (dB/km)	0.3790temperature slope calibration	1.0000multiplexer offset coefficient	1.0000multiplexer slope coefficient	1.0000fibre end	0.00T internal ref (°C)	26.69T ext. ref 1 (°C)	3.31T ext. ref 2 (°C)	21.78length (m)	temperature (°C)	Stokes	anti-Stokes-747.200	-114.323	0.054	0.010
-746.185	134.786	0.254	0.331
-745.171	-139.992	-0.078	0.008
-744.156	-90.791	-0.180	-0.052
-743.142	19.366	-0.088	0.071
-742.127	-189.925	0.113	-0.001
-741.112	9.542	-0.120	-0.091
-740.098	-157.844	-0.274	-0.016
-739.083	410.274	0.097	0.207
-738.069	-92.888	0.193	0.054
-737.054	465.643	0.215	-0.483
-736.039	243.208	-0.145	-0.243
-735.025	-200.000	-0.004	-0.169
-734.010	133.324	-0.045	-0.058
-732.996	-103.213	0.410	-0.097
-731.981	743.275	-0.045	-0.121
-730.966	-104.406	0.131	-0.030
-729.952	-163.701	-0.285	-0.013
-728.937	-200.000	0.013	0.231
-727.923	701.238	0.083	-0.219
-726.908	-194.223	0.393	0.003
-725.894	-4.855	-0.054	-0.037
-724.879	-120.108	-0.240	0.041
-723.864	44.147	-0.050	0.046
-722.850	35.716	-0.138	0.122
-721.835	50.920	0.323	0.307
-720.821	-58.619	-0.170	-0.074
-719.806	21.354	-0.114	0.093
-718.791	-85.308	0.122	-0.038
-717.777	-200.000	0.008	0.087
-716.762	-200.000	0.027	-0.155
-715.748	-1.676	-0.257	-0.181
-714.733	800.000	0.015	-0.057
-713.718	-117.951	-0.235	0.042
-712.704	50.982	-0.137	-0.130
-711.689	-96.028	-0.468	0.125
-710.675	-76.449	0.181	0.064
-709.660	-200.000	-0.034	0.154
-708.645	436.489	-0.127	-0.278
-707.631	-200.000	-0.012	-0.325
-706.616	191.396	0.115	0.174
-705.602	-106.194	-0.321	-0.072
-704.587	112.085	-0.231	-0.279
-703.572	117.204	0.058	0.072
-702.558	-200.000	-0.004	0.171
-701.543	105.590	0.365	-0.433
-700.529	-200.000	-0.028	-0.226
-699.514	384.188	0.124	-0.257
-698.499	-200.000	-0.005	0.081
-697.485	-200.000	0.013	0.091
-696.470	-165.114	-0.179	0.008
-695.456	-157.171	-0.186	0.011
-694.441	-111.188	0.285	-0.058
-693.426	-24.462	-0.202	-0.120
-692.412	-159.039	0.093	0.005
-691.397	-200.000	-0.025	0.127
-690.383	-66.134	-0.319	0.127
-689.368	110.220	-0.072	0.086
-688.354	39.083	0.110	-0.099
-687.339	-10.564	0.203	0.134
-686.324	1.299	0.234	0.169
-685.310	2.879	0.103	-0.075
-684.295	-200.000	-0.024	-0.139
-683.281	-200.000	-0.027	0.284
-682.266	-146.994	0.049	-0.004
-681.251	39.351	0.068	-0.061
-680.237	-173.926	-0.117	-0.003
-679.222	-200.000	0.019	0.086
-678.208	5.871	-0.057	-0.042
-677.193	218.583	0.138	0.221
-676.178	800.000	0.076	-0.212
-675.164	44.794	0.226	0.208
-674.149	-99.509	-0.269	0.068
-673.135	342.210	0.144	0.282
-672.120	-119.219	-0.342	-0.060
-671.105	-78.068	-0.149	0.051
-670.091	-68.824	-0.215	-0.083
-669.076	109.450	-0.070	-0.083
-668.062	72.295	0.105	-0.110
-667.047	18.233	-0.193	-0.154
-666.032	17.098	-0.239	-0.189
-665.018	-200.000	0.003	-0.142
-664.003	2.516	-0.142	-0.103
-662.989	-185.224	-0.137	0.002
-661.974	-59.290	-0.425	-0.183
-660.959	174.316	-0.135	-0.196
-659.945	116.158	-0.309	0.378
-658.930	-98.069	0.243	-0.063
-657.916	383.746	0.210	-0.431
-656.901	-133.557	0.267	-0.033
-655.886	-57.755	-0.343	0.150
-654.872	-100.213	0.279	0.069
-653.857	45.196	-0.140	0.129
-652.843	-148.227	-0.104	-0.009
-651.828	148.151	0.252	0.340
-650.814	-138.005	0.186	-0.021
-649.799	112.876	-0.161	0.195
-648.784	31.532	0.275	-0.236
-647.770	-110.531	-0.068	-0.014
-646.755	-200.000	0.008	0.050
-645.741	97.952	0.174	0.200
-644.726	208.465	-0.054	-0.084
-643.711	-176.687	-0.287	-0.007
-642.697	420.838	0.100	-0.214
-641.682	-171.906	0.067	0.002
-640.668	756.144	0.083	0.223
-639.653	-149.819	-0.334	-0.026
-638.638	-9.586	-0.110	0.073
-637.624	-138.531	-0.173	-0.019
-636.609	800.000	0.029	-0.124
-635.595	281.454	0.151	0.271
-634.580	800.000	0.037	-0.109
-633.565	-36.904	-0.225	0.121
-632.551	-6.354	-0.124	0.084
-631.536	12.629	-0.335	0.258
-630.522	30.223	0.237	-0.202
-629.507	-200.000	0.014	-0.227
-628.492	-45.292	-0.236	-0.117
-627.478	-200.000	0.062	0.275
-626.463	-106.035	0.317	-0.071
-625.449	132.149	0.079	-0.102
-624.434	-123.604	-0.514	0.081
-623.419	-129.793	-0.219	0.030
-622.405	-107.684	0.155	-0.034
-621.390	-27.936	-0.182	0.106
-620.376	162.996	0.039	-0.054
-619.361	156.508	-0.040	0.055
-618.346	317.714	-0.130	0.246
-617.332	-200.000	-0.010	0.248
-616.317	5.531	0.121	-0.089
-615.303	-200.000	-0.026	-0.667
-614.288	129.975	-0.034	0.043
-613.273	-108.046	-0.205	0.044
-612.259	140.749	-0.055	-0.073
-611.244	113.006	-0.128	0.155
-610.230	-200.000	-0.051	-0.235
-609.215	111.994	-0.055	0.066
-608.201	32.701	0.114	0.098
-607.186	-200.000	-0.009	-0.065
-606.171	68.740	-0.117	-0.120
-605.157	-96.477	0.391	-0.103
-604.142	404.232	-0.118	-0.247
-603.128	209.655	0.132	-0.207
-602.113	-67.194	-0.252	0.099
-601.098	-197.391	0.039	0.000
-600.084	-20.041	-0.131	-0.081
-599.069	-18.603	0.047	0.029
-598.055	45.066	0.366	-0.337
-597.040	800.000	-0.087	-0.270
-596.025	-200.000	0.007	0.038
-595.011	522.181	-0.137	-0.321
-593.996	147.629	-0.331	-0.445
-592.982	421.168	-0.097	0.207
-591.967	758.775	0.067	0.181
-590.952	183.723	-0.182	0.269
-589.938	-90.797	-0.050	-0.014
-588.923	-116.018	0.309	-0.057
-587.909	160.948	0.142	0.198
-586.894	-106.341	-0.143	0.032
-585.879	295.119	-0.038	-0.069
-584.865	800.000	0.081	-0.270
-583.850	-91.481	0.198	0.056
-582.836	522.550	-0.023	-0.054
-581.821	-35.667	-0.200	0.108
-580.806	29.291	0.152	-0.129
-579.792	-126.007	0.146	0.022
-578.777	800.000	-0.079	-0.307
-577.763	44.671	-0.092	-0.085
-576.748	-200.000	0.026	-0.400
-575.733	800.000	0.074	-0.298
-574.719	684.302	0.030	-0.078
-573.704	245.954	-0.085	-0.143
-572.690	95.772	-0.051	0.058
-571.675	-69.698	0.468	0.178
-570.661	286.612	-0.034	-0.061
-569.646	800.000	0.041	0.175
-568.631	350.380	0.104	0.206
-567.617	69.204	0.103	-0.106
-566.602	-164.415	0.308	0.014
-565.588	-119.526	0.137	-0.024
-564.573	-118.861	0.330	0.058
-563.558	160.561	0.178	0.248
-562.544	66.010	-0.084	0.085
-561.529	-95.039	-0.222	-0.060
-560.515	664.990	0.030	0.078
-559.500	-200.000	0.062	-0.343
-558.485	-200.000	-0.009	0.054
-557.471	-200.000	0.027	-0.142
-556.456	-200.000	-0.011	0.179
-555.442	60.465	0.189	-0.187
-554.427	-93.300	0.076	-0.021
-553.412	45.568	-0.239	0.220
-552.398	461.291	-0.063	-0.141
-551.383	-10.433	0.176	-0.116
-550.369	17.376	0.060	-0.047
-549.354	286.237	-0.111	-0.200
-548.339	60.785	-0.104	0.102
-547.325	346.961	-0.135	0.265
-546.310	-80.012	-0.157	-0.052
-545.296	-64.594	-0.097	-0.039
-544.281	179.464	0.277	0.404
-543.266	172.326	-0.083	-0.119
-542.252	26.030	0.118	-0.098
-541.237	-200.000	0.001	0.037
-540.223	-200.000	-0.035	0.168
-539.208	208.179	-0.075	0.117
-538.193	-200.000	-0.009	0.212
-537.179	59.449	-0.056	0.055
-536.164	-200.000	0.023	0.139
-535.150	-40.980	0.159	-0.082
-534.135	800.000	0.122	0.361
-533.121	-146.248	0.354	0.031
-532.106	-66.201	-0.099	0.039
-531.091	223.014	0.062	-0.100
-530.077	-148.003	-0.289	-0.024
-529.062	-200.000	0.082	-0.483
-528.048	346.389	0.073	0.142
-527.033	69.002	-0.347	0.354
-526.018	300.292	0.169	-0.310
-525.004	134.705	0.243	0.314
-523.989	35.339	-0.206	0.180
-522.975	-148.745	-0.176	-0.014
-521.960	-200.000	-0.026	0.156
-520.945	-176.437	-0.343	-0.009
-519.931	800.000	-0.066	0.200
-518.916	-200.000	0.006	-0.067
-517.902	-62.571	-0.139	-0.058
-516.887	-21.534	0.227	0.138
-515.872	-97.116	0.130	0.034
-514.858	-57.029	0.211	0.092
-513.843	111.040	0.229	-0.274
-512.829	277.162	0.058	0.102
-511.814	476.124	-0.105	0.236
-510.799	-200.000	0.022	-0.205
-509.785	-200.000	-0.048	-0.255
-508.770	-142.801	0.208	-0.020
-507.756	130.510	0.080	0.102
-506.741	800.000	0.083	-0.317
-505.726	-21.244	0.020	0.012
-504.712	-130.527	0.121	-0.016
-503.697	550.291	0.031	-0.073
-502.683	205.002	0.011	0.017
-501.668	-70.827	-0.247	0.093
-500.653	324.265	-0.159	0.302
-499.639	800.000	-0.040	-0.161
-498.624	-200.000	0.014	-0.216
-497.610	-138.057	0.431	-0.048
-496.595	55.320	0.176	0.169
-495.581	-105.447	-0.325	0.074
-494.566	-81.075	-0.241	0.079
-493.551	121.412	-0.098	-0.122
-492.537	-196.309	0.318	-0.002
-491.522	-200.000	0.006	0.136
-490.508	81.859	0.248	0.267
-489.493	28.054	0.031	0.026
-488.478	592.015	-0.079	-0.194
-487.464	11.268	-0.045	-0.034
-486.449	800.000	0.038	-0.130
-485.435	-136.573	0.088	-0.010
-484.420	349.972	-0.125	-0.244
-483.405	800.000	0.039	-0.148
-482.391	-80.726	0.116	-0.038
-481.376	172.007	0.225	-0.321
-480.362	800.000	0.060	0.187
-479.347	-200.000	0.083	0.437
-478.332	-81.173	-0.110	-0.036
-477.318	-118.977	-0.131	0.023
-476.303	-70.969	-0.238	0.089
-475.289	800.000	-0.051	0.200
-474.274	263.762	0.098	-0.169
-473.259	-49.098	-0.093	0.044
-472.245	3.571	-0.149	-0.108
-471.230	183.847	-0.072	0.106
-470.216	53.017	-0.229	0.217
-469.201	356.014	-0.162	-0.321
-468.186	16.468	0.125	-0.098
-467.172	-125.966	-0.114	0.017
-466.157	-200.000	-0.018	0.078
-465.143	148.246	0.068	0.091
-464.128	54.987	0.064	0.062
-463.113	-105.158	-0.274	0.062
-462.099	346.284	-0.167	-0.325
-461.084	-200.000	-0.007	-0.189
-460.070	724.096	-0.079	-0.210
-459.055	-200.000	-0.037	0.345
-458.040	40.746	-0.060	-0.054
-457.026	-81.255	-0.401	0.131
-456.011	-200.000	0.053	0.239
-454.997	-136.934	-0.136	0.016
-453.982	-200.000	-0.048	0.282
-452.968	148.286	0.049	-0.066
-451.953	800.000	0.034	-0.122
-450.938	465.315	0.075	-0.167
-449.924	-200.000	0.018	0.112
-448.909	669.972	-0.083	-0.213
-447.895	-200.000	0.005	-0.174
-446.880	141.954	-0.151	0.198
-445.865	493.941	0.055	-0.125
-444.851	47.364	-0.180	-0.166
-443.836	432.756	-0.211	-0.455
-442.822	150.794	-0.160	-0.215
-441.807	452.192	0.025	-0.054
-440.792	65.412	-0.268	-0.269
-439.778	44.329	-0.060	0.054
-438.763	667.640	0.025	0.064
-437.749	-200.000	-0.050	0.320
-436.734	800.000	-0.079	0.229
-435.719	-142.192	0.123	0.012
-434.705	-38.056	0.109	-0.057
-433.690	489.799	0.049	-0.111
-432.676	134.793	-0.061	-0.078
-431.661	-40.384	-0.030	0.016
-430.646	-98.852	-0.150	0.038
-429.632	318.754	-0.018	-0.033
-428.617	512.909	0.033	0.076
-427.603	59.461	0.045	0.044
-426.588	-105.535	0.152	-0.034
-425.573	-52.455	-0.072	-0.033
-424.559	-200.000	-0.015	-0.176
-423.544	736.582	-0.065	0.173
-422.530	-8.857	0.069	-0.046
-421.515	-200.000	0.002	-0.190
-420.500	-114.158	0.231	0.044
-419.486	-200.000	0.364	0.001
-418.471	-194.585	-0.120	-0.001
-417.457	209.955	0.036	-0.055
-416.442	-154.537	-0.160	-0.011
-415.428	194.268	-0.132	0.198
-414.413	30.764	-0.035	0.030
-413.398	182.074	0.126	0.183
-412.384	124.493	-0.238	0.297
-411.369	-200.000	0.005	0.107
-410.355	17.631	-0.234	0.184
-409.340	56.121	0.210	-0.202
-408.325	-21.297	0.385	-0.233
-407.311	-100.159	0.326	-0.080
-406.296	-144.450	0.115	-0.011
-405.282	-17.956	0.179	0.111
-404.267	-200.000	-0.000	-0.419
-403.252	133.243	-0.165	-0.211
-402.238	81.584	-0.315	-0.338
-401.223	-31.138	0.285	0.159
-400.209	-96.028	0.173	-0.045
-399.194	-163.720	0.114	-0.005
-398.179	167.003	0.079	0.111
-397.165	169.105	-0.181	-0.256
-396.150	91.766	0.181	-0.201
-395.136	-130.444	-0.148	0.020
-394.121	-143.114	-0.472	0.045
-393.106	-200.000	0.010	0.079
-392.092	295.295	0.046	-0.083
-391.077	-34.778	0.173	0.094
-390.063	-200.000	-0.022	-0.105
-389.048	800.000	-0.109	0.309
-388.033	79.732	0.115	0.122
-387.019	61.475	0.183	-0.180
-386.004	800.000	-0.111	0.389
-384.990	14.140	-0.093	0.072
-383.975	800.000	0.077	0.233
-382.960	-47.762	-0.097	0.046
-381.946	-200.000	0.024	0.115
-380.931	-67.831	0.359	-0.139
-379.917	-200.000	-0.037	0.195
-378.902	-200.000	-0.068	-0.356
-377.888	-102.336	0.262	-0.062
-376.873	-45.783	-0.142	0.070
-375.858	43.731	-0.124	-0.112
-374.844	-48.098	0.147	-0.070
-373.829	227.793	-0.203	-0.326
-372.815	-200.000	-0.003	0.358
-371.800	-1.203	0.276	0.193
-370.785	-63.468	-0.023	-0.009
-369.771	-200.000	0.002	0.050
-368.756	-200.000	0.043	-0.239
-367.742	-137.159	-0.125	0.014
-366.727	682.894	-0.119	0.307
-365.712	462.026	-0.038	-0.085
-364.698	-200.000	0.055	0.298
-363.683	-76.661	-0.232	0.080
-362.669	-52.438	-0.170	0.078
-361.654	-149.058	0.240	-0.019
-360.639	-170.606	0.235	0.008
-359.625	245.094	0.088	-0.146
-358.610	150.349	-0.188	-0.252
-357.596	800.000	-0.090	-0.246
-356.581	-61.613	0.291	-0.121
-355.566	800.000	0.049	0.156
-354.552	-115.844	0.037	-0.007
-353.537	-84.713	-0.037	0.012
-352.523	-28.796	-0.083	-0.047
-351.508	147.280	0.307	-0.408
-350.493	800.000	-0.043	0.124
-349.479	-142.417	-0.302	-0.029
-348.464	-200.000	-0.003	-0.079
-347.450	-150.246	-0.129	0.010
-346.435	3.926	0.083	-0.060
-345.420	800.000	0.074	0.248
-344.406	-146.948	-0.220	-0.019
-343.391	-200.000	-0.011	0.076
-342.377	30.050	0.112	-0.094
-341.362	127.448	0.186	-0.233
-340.348	46.847	-0.311	0.285
-339.333	59.428	0.148	0.144
-338.318	376.185	0.185	-0.372
-337.304	0.383	-0.076	-0.053
-336.289	-73.844	0.265	-0.095
-335.275	236.830	-0.064	0.105
-334.260	-35.698	-0.157	-0.084
-333.245	-108.907	0.327	0.069
-332.231	474.019	-0.080	0.178
-331.216	-200.000	-0.020	-0.185
-330.202	119.229	0.398	0.486
-329.187	-102.330	-0.259	0.061
-328.172	502.160	0.124	0.284
-327.158	-136.181	-0.318	-0.037
-326.143	-102.051	-0.276	0.066
-325.129	-62.699	0.294	-0.120
-324.114	-147.541	-0.232	0.019
-323.099	-200.000	-0.011	-0.077
-322.085	-200.000	-0.031	0.216
-321.070	800.000	0.033	0.115
-320.056	-200.000	-0.016	0.362
-319.041	-200.000	0.033	0.319
-318.026	-200.000	-0.001	-0.214
-317.012	-162.086	0.294	-0.015
-315.997	11.885	-0.063	0.048
-314.983	-120.500	0.232	-0.039
-313.968	-73.839	-0.158	0.057
-312.953	-71.959	-0.243	-0.089
-311.939	-200.000	0.027	0.258
-310.924	-200.000	0.065	0.402
-309.910	-130.686	-0.260	-0.034
-308.895	-92.941	-0.032	0.009
-307.880	-45.076	0.251	0.123
-306.866	57.153	0.195	-0.188
-305.851	154.915	0.095	-0.129
-304.837	34.103	0.104	-0.090
-303.822	800.000	-0.070	0.303
-302.807	-23.147	-0.136	-0.081
-301.793	410.356	-0.063	0.131
-300.778	800.000	0.101	0.289
-299.764	-200.000	-0.012	0.088
-298.749	7.701	0.235	-0.173
-297.735	-100.259	-0.262	0.064
-296.720	-128.441	0.224	-0.031
-295.705	255.531	0.109	-0.184
-294.691	-68.285	-0.066	0.025
-293.676	-149.162	-0.484	-0.038
-292.662	-38.356	-0.061	-0.032
-291.647	-200.000	0.049	-0.394
-290.632	38.615	-0.355	-0.312
-289.618	78.451	0.026	-0.027
-288.603	-200.000	-0.024	0.133
-287.589	59.419	-0.310	0.301
-286.574	800.000	0.058	0.162
-285.559	-15.795	-0.078	-0.049
-284.545	-200.000	-0.002	0.144
-283.530	-4.174	0.243	0.166
-282.516	-200.000	0.004	-0.314
-281.501	-65.702	0.095	-0.038
-280.486	800.000	-0.044	-0.162
-279.472	-200.000	0.064	-0.536
-278.457	-200.000	0.028	-0.195
-277.443	-77.777	0.141	-0.048
-276.428	-81.847	-0.168	-0.054
-275.413	800.000	-0.024	0.093
-274.399	260.158	0.152	0.259
-273.384	-160.267	0.213	0.011
-272.370	242.760	-0.266	-0.439
-271.355	-12.406	-0.090	0.058
-270.340	-137.784	-0.288	-0.032
-269.326	155.835	-0.329	-0.446
-268.311	206.266	-0.140	-0.215
-267.297	68.935	-0.155	-0.157
-266.282	-141.491	0.274	0.027
-265.267	-111.978	-0.074	0.015
-264.253	222.743	0.152	-0.241
-263.238	404.130	-0.087	0.181
-262.224	14.089	0.096	0.074
-261.209	56.895	-0.153	0.147
-260.195	92.297	0.346	0.383
-259.180	136.309	-0.106	0.136
-258.165	370.583	0.101	0.203
-257.151	99.920	-0.131	0.149
-256.136	2.784	-0.329	0.235
-255.122	-85.751	0.322	-0.098
-254.107	44.049	-0.210	-0.189
-253.092	-2.231	-0.255	-0.176
-252.078	49.949	0.509	-0.473
-251.063	-200.000	0.014	-0.151
-250.049	800.000	0.084	0.242
-249.034	25.130	0.092	0.075
-248.019	-175.646	0.087	0.002
-247.005	2.135	-0.050	0.036
-245.990	426.893	0.091	0.193
-244.976	-109.491	0.416	0.087
-243.961	97.201	0.205	0.231
-242.946	259.595	0.120	-0.203
-241.932	-110.297	0.074	0.015
-240.917	450.367	0.138	-0.299
-239.903	-133.950	0.279	0.034
-238.888	59.279	0.209	0.202
-237.873	232.848	-0.063	-0.102
-236.859	-200.000	-0.010	-0.688
-235.844	121.853	0.114	-0.139
-234.830	173.781	0.048	0.068
-233.815	-47.765	-0.189	0.090
-232.800	800.000	-0.058	0.178
-231.786	-27.467	0.142	-0.081
-230.771	240.562	-0.123	0.202
-229.757	187.287	0.113	0.165
-228.742	-200.000	0.002	0.017
-227.727	-87.770	0.141	0.042
-226.713	122.341	0.036	0.044
-225.698	-200.000	0.073	0.502
-224.684	-85.207	-0.254	0.078
-223.669	-200.000	0.035	-0.349
-222.655	176.109	0.183	-0.261
-221.640	-69.613	-0.225	0.085
-220.625	-110.056	0.112	-0.023
-219.611	-11.505	0.190	0.123
-218.596	-200.000	-0.076	0.377
-217.582	41.182	-0.103	0.092
-216.567	-9.381	0.331	0.217
-215.552	-200.000	0.055	0.462
-214.538	481.961	-0.060	-0.135
-213.523	-21.576	0.216	-0.129
-212.509	800.000	0.051	0.183
-211.494	-200.000	-0.002	0.059
-210.479	61.338	0.165	0.161
-209.465	113.780	-0.153	-0.183
-208.450	80.553	-0.218	0.230
-207.436	-151.532	-0.026	0.002
-206.421	343.812	0.073	0.141
-205.406	-11.807	-0.256	-0.165
-204.392	-5.185	0.040	0.027
-203.377	-146.896	-0.052	0.004
-202.363	528.448	0.096	0.224
-201.348	800.000	0.127	-0.441
-200.333	-35.776	-0.386	-0.205
-199.319	-116.769	0.114	0.021
-198.304	761.080	-0.082	-0.218
-197.290	-15.981	0.132	-0.083
-196.275	-68.416	-0.079	-0.030
-195.260	362.408	0.026	0.052
-194.246	-161.255	-0.492	0.025
-193.231	459.729	-0.114	0.248
-192.217	198.012	-0.217	0.326
-191.202	-92.608	0.328	0.090
-190.187	331.352	-0.064	-0.122
-189.173	-169.998	-0.281	-0.010
-188.158	800.000	0.064	-0.251
-187.144	68.700	0.201	-0.202
-186.129	-0.089	-0.278	0.194
-185.114	-200.000	-0.048	0.250
-184.100	-70.748	-0.168	0.062
-183.085	-29.935	0.276	0.154
-182.071	110.270	-0.200	0.235
-181.056	282.412	0.114	-0.201
-180.042	-149.908	0.084	0.006
-179.027	39.377	-0.129	-0.113
-178.012	800.000	-0.028	0.079
-176.998	-199.859	0.169	0.001
-175.983	57.688	-0.274	-0.263
-174.969	-200.000	0.015	0.224
-173.954	240.728	-0.086	0.140
-172.939	155.055	0.197	0.266
-171.925	734.965	0.096	0.251
-170.910	800.000	-0.099	-0.382
-169.896	-141.009	0.259	-0.026
-168.881	42.591	-0.183	-0.163
-167.866	-200.000	-0.003	0.082
-166.852	780.769	-0.072	-0.193
-165.837	-67.901	0.213	-0.082
-164.823	368.684	-0.062	-0.123
-163.808	162.952	-0.157	0.216
-162.793	90.370	0.209	0.229
-161.779	57.725	-0.135	0.129
-160.764	800.000	-0.037	-0.137
-159.750	800.000	-0.083	0.229
-158.735	82.707	0.061	-0.065
-157.720	27.840	0.010	0.009
-156.706	800.000	0.037	0.131
-155.691	-103.013	0.222	0.052
-154.677	66.843	-0.180	-0.180
-153.662	-54.638	0.395	-0.175
-152.647	-169.515	0.309	0.011
-151.633	-56.753	-0.208	-0.090
-150.618	800.000	-0.019	0.068
-149.604	24.872	0.324	0.264
-148.589	-3.229	-0.146	0.099
-147.574	-79.796	0.334	0.110
-146.560	-105.388	0.145	0.032
-145.545	742.070	-0.054	-0.142
-144.531	55.605	0.274	0.260
-143.516	-131.323	-0.255	0.033
-142.502	-200.000	0.012	0.144
-141.487	-119.036	0.095	0.016
-140.472	96.198	0.041	0.046
-139.458	8.570	0.233	0.172
-138.443	0.187	0.259	-0.181
-137.429	86.512	0.013	-0.014
-136.414	-1.068	-0.316	0.219
-135.399	-33.398	-0.280	-0.152
-134.385	800.000	-0.025	0.080
-133.370	800.000	-0.065	0.266
-132.356	566.941	-0.109	0.259
-131.341	-163.911	-0.215	0.010
-130.326	279.391	-0.104	-0.181
-129.312	-76.132	-0.034	0.012
-128.297	800.000	0.041	0.115
-127.283	235.523	0.223	-0.360
-126.268	128.818	-0.044	-0.055
-125.253	-29.872	0.196	0.109
-124.239	-132.382	-0.102	0.013
-123.224	-31.652	0.387	0.213
-122.210	800.000	-0.128	0.366
-121.195	214.400	-0.144	0.223
