DTS Sentinel unit serial number:	SN413079Multiplexer serial number:	ORYXHardware model number:	OX4-SRSoftware version number:	ORYX F/W v4.00 Oryx Data Collector v3.7.2.0data status	okinstallation	princeton_trtdifferential loss correction	single-endedforward channel	channel 3reverse channel	N/Adate	2019/09/19time	01:04:35forward acquisition time	60.00reverse acquisition time	0.00gamma	496.2192k internal	0.2348k external	0.2348temperature offset calibration	0.9992default loss term (dB/km)	0.3790temperature slope calibration	1.0000multiplexer offset coefficient	1.0000multiplexer slope coefficient	1.0000fibre end	0.00T internal ref (°C)	21.91T ext. ref 1 (°C)	0.74T ext. ref 2 (°C)	15.21length (m)	temperature (°C)	Stokes	anti-Stokes-747.200	80.746	-0.109	0.117
-746.185	-113.656	-0.311	-0.061
-745.171	133.269	-0.238	0.307
-744.156	800.000	-0.026	-0.075
-743.142	-148.987	-0.312	0.025
-742.127	297.376	-0.158	0.290
-741.112	21.427	0.126	-0.102
-740.098	-14.505	0.018	-0.011
-739.083	21.965	0.118	0.096
-738.069	107.858	-0.231	0.275
-737.054	800.000	-0.063	-0.254
-736.039	-27.745	-0.330	0.191
-735.025	501.389	0.125	0.289
-734.010	92.875	0.125	-0.141
-732.996	-200.000	-0.049	-0.268
-731.981	-52.846	0.299	-0.138
-730.966	-135.359	0.138	0.016
-729.952	487.282	-0.139	-0.316
-728.937	489.675	-0.120	-0.274
-727.923	7.590	-0.268	0.200
-726.908	375.966	-0.106	-0.215
-725.894	-9.944	-0.116	-0.077
-724.879	-169.118	0.045	0.002
-723.864	-52.602	0.045	-0.021
-722.850	127.535	0.149	-0.189
-721.835	143.109	0.333	-0.442
-720.821	199.024	-0.096	-0.147
-719.806	-39.448	0.182	-0.095
-718.791	6.655	-0.154	-0.114
-717.777	-200.000	-0.000	0.139
-716.762	800.000	0.067	0.187
-715.748	55.007	-0.133	0.128
-714.733	-136.883	-0.193	0.022
-713.718	-58.211	-0.413	0.180
-712.704	-30.131	-0.174	-0.099
-711.689	188.637	0.246	0.367
-710.675	38.116	-0.289	0.256
-709.660	29.074	-0.073	-0.061
-708.645	-38.707	0.049	0.026
-707.631	-120.836	0.237	0.040
-706.616	-26.819	-0.115	-0.067
-705.602	-89.966	0.276	0.080
-704.587	101.317	-0.124	-0.144
-703.572	-54.051	-0.171	0.078
-702.558	5.271	0.348	-0.256
-701.543	800.000	-0.065	-0.242
-700.529	-167.773	-0.368	-0.015
-699.514	752.992	0.073	0.196
-698.499	30.720	0.082	-0.070
-697.485	800.000	0.034	0.123
-696.470	195.537	-0.061	-0.092
-695.456	-88.278	0.093	-0.028
-694.441	-163.114	-0.293	0.014
-693.426	-96.151	-0.044	0.012
-692.412	506.156	0.057	0.133
-691.397	194.144	0.116	0.176
-690.383	-169.734	-0.230	-0.008
-689.368	800.000	0.060	-0.188
-688.354	0.437	-0.118	-0.084
-687.339	264.097	0.098	0.170
-686.324	158.213	-0.119	-0.164
-685.310	800.000	0.043	-0.150
-684.295	-79.834	0.041	-0.014
-683.281	443.310	-0.140	-0.306
-682.266	321.113	0.124	-0.235
-681.251	-7.868	-0.064	-0.043
-680.237	-159.778	-0.316	-0.017
-679.222	-143.195	0.317	-0.030
-678.208	-47.509	-0.324	-0.157
-677.193	-63.529	-0.159	-0.065
-676.178	544.770	0.092	0.218
-675.164	194.568	0.092	0.139
-674.149	-200.000	0.076	-0.448
-673.135	-200.000	-0.008	-0.156
-672.120	800.000	0.041	-0.148
-671.105	-200.000	0.005	0.420
-670.091	-52.954	-0.194	-0.089
-669.076	-39.163	0.216	0.113
-668.062	139.503	-0.130	-0.170
-667.047	-154.515	0.276	0.018
-666.032	-35.539	0.271	-0.146
-665.018	146.571	0.148	-0.198
-664.003	-69.236	0.150	-0.058
-662.989	23.151	0.043	-0.035
-661.974	324.034	-0.036	0.069
-660.959	-60.711	0.308	0.130
-659.945	-124.797	-0.380	0.058
-658.930	800.000	-0.020	-0.078
-657.916	-59.931	-0.145	0.062
-656.901	244.913	0.047	0.078
-655.886	-12.173	-0.168	0.110
-654.872	-28.969	-0.125	0.071
-653.857	-44.906	0.214	-0.106
-652.843	-200.000	0.005	-0.402
-651.828	100.249	-0.152	-0.175
-650.814	-200.000	-0.003	-0.207
-649.799	-23.787	0.046	0.027
-648.784	262.970	-0.068	0.117
-647.770	143.124	-0.296	-0.392
-646.755	-104.222	-0.192	0.044
-645.741	216.728	0.180	-0.284
-644.726	195.372	0.152	-0.230
-643.711	431.471	-0.170	-0.366
-642.697	44.722	0.098	0.090
-641.682	-200.000	-0.050	-0.388
-640.668	-168.824	-0.143	-0.005
-639.653	108.165	-0.185	0.219
-638.638	-43.056	-0.114	-0.057
-637.624	-104.955	0.141	0.032
-636.609	331.629	0.108	0.208
-635.595	122.697	0.087	0.108
-634.580	178.004	0.071	-0.103
-633.565	402.590	-0.189	0.395
-632.551	800.000	-0.064	0.269
-631.536	-157.665	-0.222	-0.013
-630.522	-163.817	0.194	0.009
-629.507	-4.799	0.051	0.035
-628.492	-200.000	-0.023	-0.225
-627.478	-144.948	-0.251	-0.023
-626.463	-123.611	0.113	0.018
-625.449	-200.000	-0.018	-0.189
-624.434	3.009	-0.474	-0.343
-623.419	131.576	-0.082	-0.105
-622.405	-200.000	0.061	-0.288
-621.390	-200.000	-0.025	-0.155
-620.376	-16.927	-0.262	-0.165
-619.361	800.000	0.023	-0.090
-618.346	14.458	-0.152	-0.118
-617.332	-8.022	-0.254	0.170
-616.317	-136.264	-0.080	0.009
-615.303	388.776	-0.164	0.338
-614.288	16.527	0.102	0.080
-613.273	-71.958	0.138	-0.051
-612.259	197.121	-0.165	0.250
-611.244	-33.739	0.305	-0.167
-610.230	-200.000	-0.055	-0.247
-609.215	-109.523	0.330	0.069
-608.201	-200.000	0.002	-0.147
-607.186	-200.000	-0.054	-0.288
-606.171	204.396	-0.121	0.187
-605.157	547.215	-0.073	0.173
-604.142	800.000	0.089	0.298
-603.128	-123.790	0.172	0.027
-602.113	261.307	-0.128	-0.220
-601.098	110.509	0.101	-0.120
-600.084	-132.800	0.243	-0.031
-599.069	-200.000	0.058	0.264
-598.055	-83.934	-0.173	0.055
-597.040	-200.000	-0.005	-0.176
-596.025	800.000	-0.024	-0.095
-595.011	17.031	0.154	-0.121
-593.996	68.358	-0.122	0.125
-592.982	82.821	0.101	0.109
-591.967	-81.183	0.078	0.025
-590.952	69.994	0.294	0.301
-589.938	-94.317	0.097	0.026
-588.923	-69.202	-0.252	0.096
-587.909	-36.926	-0.075	0.040
-586.894	197.686	-0.212	-0.321
-585.879	66.234	-0.103	0.104
-584.865	-73.386	-0.047	-0.017
-583.850	-183.315	-0.332	0.006
-582.836	711.364	-0.092	0.241
-581.821	-162.503	-0.079	-0.004
-580.806	-135.195	0.127	0.015
-579.792	220.681	0.174	-0.277
-578.777	800.000	-0.103	0.349
-577.763	86.292	-0.240	-0.263
-576.748	-29.997	0.208	-0.118
-575.733	-96.757	-0.247	0.064
-574.719	375.814	0.079	-0.160
-573.704	800.000	-0.048	-0.150
-572.690	-84.313	-0.422	0.133
-571.675	-188.728	0.157	0.002
-570.661	-38.566	0.139	-0.073
-569.646	186.105	-0.138	0.203
-568.631	800.000	0.090	0.368
-567.617	-23.250	0.082	-0.049
-566.602	502.016	-0.019	-0.044
-565.588	-78.252	0.065	0.022
-564.573	-51.090	-0.262	-0.122
-563.558	-137.230	-0.261	-0.030
-562.544	-81.543	0.176	-0.057
-561.529	-53.830	0.117	-0.053
-560.515	473.224	-0.046	-0.102
-559.500	-47.325	-0.205	0.099
-558.485	-134.466	0.336	-0.041
-557.471	305.861	0.057	-0.105
-556.456	-66.939	0.137	0.054
-555.442	-200.000	-0.094	0.431
-554.427	-200.000	0.040	0.228
-553.412	-47.480	0.276	-0.133
-552.398	-2.525	-0.175	-0.122
-551.383	332.793	-0.182	0.349
-550.369	800.000	-0.065	0.280
-549.354	112.499	0.191	0.229
-548.339	800.000	0.106	0.332
-547.325	154.594	-0.168	0.229
-546.310	-162.337	-0.358	0.018
-545.296	-158.917	-0.355	-0.020
-544.281	800.000	-0.094	-0.352
-543.266	-200.000	-0.001	0.157
-542.252	-43.378	-0.095	-0.048
-541.237	800.000	0.047	0.189
-540.223	-49.881	-0.380	0.179
-539.208	63.617	-0.094	-0.093
-538.193	293.871	-0.097	-0.175
-537.179	-200.000	-0.009	0.096
-536.164	-200.000	-0.044	0.294
-535.150	-55.180	0.355	0.158
-534.135	-15.850	-0.318	-0.201
-533.121	174.797	0.094	-0.135
-532.106	-4.308	0.033	-0.023
-531.091	-130.023	-0.103	-0.014
-530.077	641.682	-0.063	0.158
-529.062	800.000	0.065	0.274
-528.048	-37.214	0.182	0.096
-527.033	800.000	0.055	0.192
-526.018	-200.000	-0.054	0.250
-525.004	251.570	-0.106	-0.179
-523.989	800.000	-0.074	-0.234
-522.975	-200.000	-0.074	-0.477
-521.960	154.447	0.021	0.028
-520.945	800.000	-0.060	0.230
-519.931	-173.923	0.507	-0.015
-518.916	617.372	-0.051	0.126
-517.902	-200.000	-0.064	0.278
-516.887	800.000	0.042	0.139
-515.872	-200.000	0.017	0.320
-514.858	-200.000	-0.040	-0.195
-513.843	9.241	0.317	0.237
-512.829	-8.894	-0.307	0.204
-511.814	243.042	0.102	0.170
-510.799	0.025	-0.086	0.061
-509.785	112.052	0.097	-0.116
-508.770	68.140	0.142	0.144
-507.756	365.741	-0.099	0.198
-506.741	-200.000	0.014	0.218
-505.726	13.605	-0.099	-0.076
-504.712	-36.542	0.318	0.169
-503.697	-189.955	-0.255	0.003
-502.683	147.391	-0.151	0.202
-501.668	-37.263	-0.295	0.156
-500.653	-15.453	-0.107	0.068
-499.639	-200.000	0.176	-0.000
-498.624	55.514	0.205	0.197
-497.610	209.328	0.059	0.091
-496.595	798.003	0.004	0.010
-495.581	-153.210	-0.159	0.011
-494.566	-119.450	0.133	-0.023
-493.551	-59.020	0.428	-0.183
-492.537	800.000	0.016	0.045
-491.522	-124.312	-0.168	-0.026
-490.508	-17.271	0.273	-0.170
-489.493	371.973	0.194	0.390
-488.478	-51.390	0.119	0.055
-487.464	276.101	-0.150	0.263
-486.449	-200.000	0.024	-0.290
-485.435	-161.915	-0.177	-0.009
-484.420	186.077	0.050	-0.074
-483.405	748.611	-0.118	0.316
-482.391	152.248	-0.121	0.164
-481.376	-15.468	-0.247	-0.156
-480.362	800.000	0.082	0.265
-479.347	73.747	-0.028	0.029
-478.332	800.000	0.070	-0.267
-477.318	711.397	0.031	-0.082
-476.303	-28.711	0.045	-0.026
-475.289	-200.000	0.009	0.048
-474.274	-90.494	-0.246	0.071
-473.259	-5.881	-0.124	-0.084
-472.245	117.160	0.187	0.227
-471.230	395.188	0.102	0.211
-470.216	-57.883	-0.170	-0.074
-469.201	-29.445	-0.101	-0.057
-468.186	-102.726	-0.315	-0.074
-467.172	-56.447	-0.240	0.105
-466.157	-96.395	-0.056	-0.015
-465.143	-200.000	0.006	-0.067
-464.128	-200.000	0.041	-0.294
-463.113	-118.867	0.173	0.030
-462.099	-102.123	0.183	-0.044
-461.084	139.283	-0.148	0.192
-460.070	-200.000	-0.035	-0.223
-459.055	800.000	0.037	-0.115
-458.040	120.890	-0.035	0.043
-457.026	-35.793	0.047	0.025
-456.011	-132.494	-0.246	0.031
-454.997	503.574	0.114	0.259
-453.982	41.924	-0.080	0.072
-452.968	-90.497	0.249	0.071
-451.953	-56.077	0.313	0.138
-450.938	106.937	-0.182	0.214
-449.924	287.282	0.131	0.233
-448.909	69.593	-0.158	-0.161
-447.895	800.000	0.032	-0.134
-446.880	330.648	-0.028	-0.054
-445.865	-200.000	-0.005	0.231
-444.851	-200.000	0.015	-0.357
-443.836	-152.543	0.184	0.013
-442.822	-5.957	-0.123	0.083
-441.807	-26.557	0.281	-0.163
-440.792	-113.533	-0.085	0.016
-439.778	-200.000	0.076	0.404
-438.763	800.000	0.091	0.306
-437.749	-137.996	-0.039	-0.004
-436.734	-72.920	-0.223	0.081
-435.719	-5.237	0.133	-0.090
-434.705	151.861	-0.110	-0.148
-433.690	25.218	0.138	-0.113
-432.676	319.811	-0.093	-0.174
-431.661	-124.805	-0.266	-0.041
-430.646	-115.252	0.207	0.039
-429.632	153.543	-0.232	-0.314
-428.617	-174.201	0.077	-0.002
-427.603	38.840	0.061	-0.054
-426.588	-200.000	-0.000	0.108
-425.573	106.393	0.096	-0.113
-424.559	42.993	-0.280	0.252
-423.544	151.303	0.048	-0.065
-422.530	-150.214	0.297	0.023
-421.515	-80.937	0.238	0.078
-420.500	-200.000	-0.008	0.105
-419.486	800.000	-0.054	-0.201
-418.471	103.812	-0.159	0.185
-417.457	-200.000	-0.064	-0.406
-416.442	398.007	0.114	-0.236
-415.428	75.781	-0.153	-0.160
-414.413	-200.000	0.005	0.430
-413.398	-200.000	0.071	-0.353
-412.384	534.877	0.062	-0.146
-411.369	-152.620	0.659	0.046
-410.355	-54.875	0.101	-0.045
-409.340	800.000	0.081	0.338
-408.325	-49.443	-0.332	-0.156
-407.311	224.444	0.097	0.155
-406.296	800.000	0.040	0.125
-405.282	-200.000	-0.003	0.076
-404.267	-75.621	0.225	0.079
-403.252	-79.975	0.169	-0.056
-402.238	800.000	0.146	-0.451
-401.223	-31.419	-0.157	0.087
-400.209	-200.000	-0.054	0.350
-399.194	-153.577	-0.274	-0.019
-398.179	100.479	0.077	-0.088
-397.165	47.136	-0.158	-0.145
-396.150	87.308	-0.072	0.079
-395.136	197.496	0.110	0.165
-394.121	142.303	-0.130	-0.170
-393.106	-11.367	0.257	-0.167
-392.092	372.622	0.028	0.057
-391.077	-77.911	-0.197	0.067
-390.063	96.478	0.243	0.274
-389.048	-200.000	0.023	0.206
-388.033	-38.178	0.279	-0.146
-387.019	-39.450	0.134	0.069
-386.004	573.257	0.083	-0.199
-384.990	190.770	0.091	0.135
-383.975	33.231	-0.200	-0.171
-382.960	30.594	-0.363	-0.306
-381.946	10.297	0.195	0.146
-380.931	62.968	-0.184	-0.181
-379.917	8.787	0.159	0.118
-378.902	47.711	0.130	-0.120
-377.888	121.984	-0.008	-0.010
-376.873	-81.154	0.064	0.021
-375.858	83.510	-0.179	-0.192
-374.844	124.437	0.235	0.291
-373.829	-121.981	-0.064	-0.010
-372.815	222.647	0.126	-0.200
-371.800	161.711	-0.124	-0.172
-370.785	-42.959	-0.316	-0.158
-369.771	80.890	0.167	0.178
-368.756	-74.193	-0.256	0.091
-367.742	-191.386	-0.206	-0.002
-366.727	221.303	0.111	0.176
-365.712	-113.232	0.151	-0.029
-364.698	-86.715	0.258	-0.078
-363.683	-200.000	0.024	-0.297
-362.669	-39.560	-0.261	0.135
-361.654	-151.899	0.346	0.025
-360.639	-200.000	-0.055	0.472
-359.625	650.420	-0.181	0.456
-358.610	283.854	-0.097	0.171
-357.596	-200.000	-0.029	-0.294
-356.581	-66.817	0.018	-0.007
-355.566	800.000	0.086	-0.258
-354.552	-2.091	0.278	-0.192
-353.537	-61.987	-0.226	-0.093
-352.523	91.272	-0.167	-0.184
-351.508	-200.000	-0.010	0.051
-350.493	-92.463	-0.216	0.060
-349.479	-200.000	0.017	-0.115
-348.464	37.585	0.134	0.117
-347.450	767.117	-0.023	0.060
-346.435	-113.292	0.272	-0.053
-345.420	54.254	0.172	0.163
-344.406	-54.612	0.050	0.022
-343.391	154.974	0.140	0.189
-342.377	-15.955	0.274	-0.172
-341.362	800.000	0.089	0.242
-340.348	148.662	0.202	-0.269
-339.333	800.000	0.041	-0.169
-338.318	42.129	-0.058	-0.052
-337.304	-74.254	0.182	-0.065
-336.289	-100.005	-0.169	0.042
-335.275	800.000	-0.053	0.204
-334.260	-182.765	-0.175	0.003
-333.245	-116.655	-0.307	0.055
-332.231	-72.946	0.214	-0.077
-331.216	-98.245	-0.249	0.063
-330.202	-5.320	0.084	0.056
-329.187	-146.504	-0.144	0.012
-328.172	-200.000	0.017	0.154
-327.158	-25.142	-0.222	-0.130
-326.143	-200.000	0.142	0.001
-325.129	-45.448	-0.242	-0.118
-324.114	-200.000	-0.004	-0.113
-323.099	-200.000	0.025	0.217
-322.085	111.188	-0.194	-0.230
-321.070	67.442	-0.308	-0.309
-320.056	173.157	-0.178	-0.252
-319.041	-200.000	-0.008	-0.126
-318.026	141.777	0.171	-0.222
-317.012	113.889	0.133	-0.158
-315.997	800.000	0.043	0.175
-314.983	-190.990	0.060	0.001
-313.968	-200.000	-0.011	0.234
-312.953	279.225	-0.141	0.247
-311.939	800.000	0.078	0.285
-310.924	156.721	0.079	-0.108
-309.910	509.454	0.105	0.240
-308.895	170.499	0.172	0.241
-307.880	267.755	-0.184	0.317
-306.866	20.751	0.056	0.044
-305.851	-200.000	-0.002	0.011
-304.837	-100.407	-0.173	-0.042
-303.822	-53.234	0.161	-0.072
-302.807	-200.000	0.017	0.212
-301.793	-200.000	-0.025	0.344
-300.778	37.817	0.308	0.269
-299.764	-200.000	0.015	-0.087
-298.749	-121.653	0.349	-0.057
-297.735	-200.000	0.003	0.209
-296.720	-22.987	-0.122	-0.072
-295.705	-200.000	-0.020	0.231
-294.691	-102.849	0.180	0.042
-293.676	-200.000	-0.026	-0.136
-292.662	185.147	-0.084	-0.122
-291.647	800.000	-0.055	-0.188
-290.632	28.127	-0.251	-0.208
-289.618	800.000	0.007	-0.029
-288.603	-128.697	-0.094	0.013
-287.589	800.000	-0.057	0.237
-286.574	-40.694	0.209	0.106
-285.559	57.254	0.225	0.215
-284.545	461.094	-0.151	0.330
-283.530	-10.459	-0.083	0.054
-282.516	3.607	0.080	-0.058
-281.501	-178.206	-0.154	0.004
-280.486	-200.000	-0.011	-0.078
-279.472	-88.097	-0.204	0.060
-278.457	7.862	-0.099	0.073
-277.443	-200.000	0.014	-0.073
-276.428	-43.744	0.338	-0.167
-275.413	-96.399	-0.130	-0.034
-274.399	585.006	-0.089	-0.213
-273.384	363.151	-0.036	-0.071
-272.370	-4.157	0.104	-0.071
-271.355	-108.141	0.171	0.036
-270.340	800.000	0.007	-0.023
-269.326	800.000	-0.072	0.206
-268.311	66.488	0.184	0.183
-267.297	-124.063	-0.033	-0.005
-266.282	800.000	-0.081	-0.221
-265.267	28.003	0.076	-0.063
-264.253	44.698	-0.124	-0.112
-263.238	-108.043	-0.092	0.020
-262.224	288.923	0.217	0.386
-261.209	-200.000	-0.016	0.399
-260.195	-40.421	0.195	-0.099
-259.180	710.291	0.019	0.050
-258.165	291.814	0.105	0.188
-257.151	477.110	-0.021	-0.047
-256.136	478.151	-0.149	-0.331
-255.122	183.033	-0.122	0.176
-254.107	362.744	0.130	-0.256
-253.092	119.057	-0.115	-0.140
-252.078	-200.000	0.017	-0.187
-251.063	800.000	0.133	-0.436
-250.049	-200.000	0.008	-0.215
-249.034	-200.000	-0.012	0.219
-248.019	-133.951	0.102	-0.012
-247.005	-66.125	0.536	0.209
-245.990	-114.188	0.304	-0.058
-244.976	-147.668	-0.076	-0.006
-243.961	493.766	-0.005	-0.011
-242.946	800.000	-0.062	-0.233
-241.932	-200.000	-0.004	0.372
-240.917	-5.056	-0.285	0.192
-239.903	-200.000	-0.002	0.333
-238.888	166.558	-0.133	-0.184
-237.873	41.332	-0.252	0.224
-236.859	33.566	0.043	0.036
-235.844	400.277	0.102	-0.209
-234.830	-114.026	-0.259	-0.049
-233.815	586.591	-0.114	0.274
-232.800	331.039	-0.148	0.280
-231.786	-200.000	-0.052	0.288
-230.771	-200.000	-0.006	-0.274
-229.757	-172.418	-0.425	0.013
-228.742	800.000	-0.097	-0.373
-227.727	-41.748	0.325	0.164
-226.713	-135.964	0.345	0.040
-225.698	62.131	-0.159	0.155
-224.684	-111.385	-0.209	0.042
-223.669	-200.000	-0.074	0.340
-222.655	-136.133	-0.107	-0.012
-221.640	711.013	-0.020	-0.052
-220.625	48.229	-0.286	-0.262
-219.611	-90.613	0.318	-0.090
-218.596	568.251	0.196	-0.465
-217.582	393.863	-0.037	-0.075
-216.567	-200.000	-0.017	0.185
-215.552	-12.582	0.272	-0.174
-214.538	-68.923	0.166	0.063
-213.523	-64.051	0.280	-0.112
-212.509	-160.386	0.118	0.006
-211.494	0.790	0.146	-0.102
-210.479	-104.900	0.060	0.013
-209.465	-200.000	0.005	-0.142
-208.450	254.552	0.128	-0.214
-207.436	177.662	0.157	0.223
-206.421	-44.162	0.091	0.044
-205.406	25.226	0.171	-0.139
-204.392	-200.000	0.073	0.481
-203.377	-12.854	-0.128	-0.082
-202.363	-44.011	0.095	-0.047
-201.348	-200.000	-0.009	0.121
-200.333	252.675	-0.144	0.239
-199.319	633.674	0.075	-0.186
-198.304	800.000	0.053	-0.181
-197.290	116.234	-0.069	-0.082
-196.275	-32.142	-0.329	0.180
-195.260	-67.577	0.069	-0.026
-194.246	192.719	-0.062	-0.091
-193.231	46.656	0.363	-0.329
-192.217	-139.633	0.206	0.021
-191.202	619.577	-0.175	-0.431
-190.187	0.277	0.081	0.056
-189.173	-200.000	0.053	-0.367
-188.158	-200.000	0.026	0.295
-187.144	93.510	0.038	0.042
-186.129	-200.000	0.036	-0.329
-185.114	134.029	-0.119	-0.151
-184.100	66.011	0.158	-0.157
-183.085	-200.000	-0.024	-0.427
-182.071	-38.129	0.141	-0.073
-181.056	191.625	-0.181	-0.266
-180.042	-200.000	-0.060	-0.679
-179.027	-134.728	0.117	-0.014
-178.012	-200.000	0.022	0.124
-176.998	-140.835	-0.162	0.016
-175.983	3.955	0.292	-0.209
-174.969	-121.351	0.170	-0.028
-173.954	-0.980	0.199	-0.138
-172.939	-161.481	0.333	0.017
-171.925	74.132	-0.213	-0.218
-170.910	-88.094	-0.153	-0.045
-169.896	-125.780	-0.144	0.021
-168.881	64.079	0.043	-0.042
-167.866	44.645	0.080	-0.072
-166.852	-200.000	0.031	-0.145
-165.837	530.192	0.080	-0.185
-164.823	28.110	0.224	-0.184
-163.808	164.948	-0.016	-0.022
-162.793	-50.043	-0.229	-0.106
-161.779	-131.127	0.238	0.031
-160.764	135.569	0.193	-0.246
-159.750	212.402	-0.179	-0.276
-158.735	-122.868	-0.314	-0.049
-157.720	669.462	0.060	0.151
-156.706	-93.362	-0.442	0.120
-155.691	-124.981	-0.195	-0.029
-154.677	-29.087	0.356	-0.199
-153.662	-200.000	0.067	-0.388
-152.647	17.285	-0.281	-0.218
-151.633	-106.375	0.240	-0.052
-150.618	800.000	-0.054	0.223
-149.604	-100.817	-0.150	0.036
-148.589	267.189	-0.041	0.069
-147.574	-200.000	-0.006	0.115
-146.560	312.465	0.229	0.421
-145.545	-8.120	-0.365	0.240
-144.531	-117.619	-0.330	0.058
-143.516	-200.000	0.064	-0.304
-142.502	65.719	-0.107	0.106
-141.487	-200.000	-0.019	0.375
-140.472	-91.620	-0.264	0.073
-139.458	35.961	0.359	0.308
-138.443	423.487	-0.192	0.402
-137.429	54.873	-0.153	-0.144
-136.414	-200.000	0.011	0.048
-135.399	207.565	-0.061	-0.093
-134.385	-50.059	0.275	0.127
-133.370	40.577	-0.086	-0.075
-132.356	97.212	-0.146	-0.163
-131.341	131.081	0.130	-0.163
-130.326	800.000	-0.037	0.109
-129.312	290.470	-0.092	0.163
-128.297	-9.624	-0.120	0.078
-127.283	-200.000	-0.015	0.221
-126.268	-32.397	-0.163	0.089
-125.253	119.336	0.304	0.367
-124.239	103.565	-0.005	-0.005
-123.224	733.862	0.043	-0.113
-122.210	1.202	-0.281	0.197
