DTS Sentinel unit serial number:	SN413079Multiplexer serial number:	ORYXHardware model number:	OX4-SRSoftware version number:	ORYX F/W v4.00 Oryx Data Collector v3.7.2.0data status	okinstallation	princeton_trtdifferential loss correction	single-endedforward channel	channel 3reverse channel	N/Adate	2019/09/10time	16:38:11forward acquisition time	60.00reverse acquisition time	0.00gamma	496.2192k internal	0.2299k external	0.2299temperature offset calibration	0.9908default loss term (dB/km)	0.3790temperature slope calibration	1.0000multiplexer offset coefficient	1.0000multiplexer slope coefficient	1.0000fibre end	0.00T internal ref (°C)	37.87T ext. ref 1 (°C)	-0.28T ext. ref 2 (°C)	30.39length (m)	temperature (°C)	Stokes	anti-Stokes-747.200	-200.000	0.002	-0.135
-746.185	-200.000	-0.009	0.218
-745.171	26.253	-0.170	0.145
-744.156	-116.276	-0.565	-0.107
-743.142	-200.000	-0.029	0.228
-742.127	326.945	-0.150	0.294
-741.112	800.000	0.029	-0.081
-740.098	-179.090	-0.054	-0.001
-739.083	-160.415	0.259	0.014
-738.069	-200.000	0.006	0.207
-737.054	-106.049	-0.251	-0.058
-736.039	-36.002	0.134	-0.074
-735.025	800.000	0.044	-0.142
-734.010	-150.669	-0.580	0.045
-732.996	-55.027	-0.302	0.139
-731.981	0.833	-0.345	0.252
-730.966	229.558	0.082	0.137
-729.952	95.413	-0.160	-0.186
-728.937	6.968	-0.209	-0.159
-727.923	-152.625	-0.152	0.011
-726.908	-200.000	0.033	-0.462
-725.894	-200.000	0.015	0.218
-724.879	-27.165	-0.158	-0.094
-723.864	184.842	-0.216	-0.327
-722.850	-135.134	-0.122	0.015
-721.835	34.130	-0.300	0.267
-720.821	312.054	-0.239	-0.457
-719.806	30.760	0.180	-0.157
-718.791	117.481	0.168	-0.211
-717.777	133.344	-0.182	-0.239
-716.762	221.211	0.199	0.325
-715.748	800.000	-0.007	0.021
-714.733	0.503	-0.073	0.053
-713.718	-36.607	-0.142	0.078
-712.704	-40.493	-0.134	-0.071
-711.689	361.889	-0.177	-0.362
-710.675	63.963	0.145	0.148
-709.660	-89.133	-0.261	0.079
-708.645	54.296	-0.184	0.181
-707.631	170.801	-0.155	-0.227
-706.616	386.256	-0.047	-0.099
-705.602	-30.911	0.265	-0.153
-704.587	121.271	-0.084	0.106
-703.572	168.981	-0.199	-0.288
-702.558	146.775	0.104	-0.143
-701.543	242.356	-0.104	-0.177
-700.529	200.284	-0.298	-0.467
-699.514	103.465	0.050	-0.060
-698.499	-200.000	0.011	-0.173
-697.485	800.000	-0.050	0.198
-696.470	-43.224	-0.066	0.034
-695.456	166.548	-0.122	0.176
-694.441	-104.010	-0.272	-0.064
-693.426	167.734	-0.315	0.457
-692.412	18.613	-0.105	-0.085
-691.397	800.000	-0.033	0.129
-690.383	-200.000	-0.048	-0.410
-689.368	-179.383	-0.349	0.008
-688.354	-35.582	0.172	-0.095
-687.339	113.642	-0.265	0.328
-686.324	-200.000	0.014	-0.189
-685.310	55.847	-0.048	-0.048
-684.295	438.340	0.123	0.272
-683.281	116.619	-0.174	0.218
-682.266	-152.636	0.534	-0.039
-681.251	-55.595	-0.300	0.137
-680.237	-116.767	-0.104	0.019
-679.222	67.635	-0.147	0.153
-678.208	-200.000	-0.016	0.450
-677.193	-200.000	-0.041	-0.215
-676.178	-35.884	-0.205	0.113
-675.164	-36.819	-0.133	0.073
-674.149	362.118	-0.043	0.087
-673.135	61.542	-0.107	-0.108
-672.120	214.852	0.152	0.246
-671.105	-200.000	0.016	-0.241
-670.091	111.758	-0.255	0.314
-669.076	366.147	-0.108	-0.222
-668.062	-80.425	-0.436	0.148
-667.047	-68.598	0.027	-0.011
-666.032	-61.994	-0.126	-0.054
-665.018	241.482	-0.090	0.154
-664.003	55.504	0.282	-0.278
-662.989	374.439	-0.032	-0.066
-661.974	-19.419	-0.045	0.028
-660.959	126.391	-0.128	-0.165
-659.945	278.669	0.175	-0.316
-658.930	-200.000	-0.003	0.140
-657.916	-40.872	0.245	-0.129
-656.901	-92.505	-0.022	-0.006
-655.886	660.280	-0.032	0.085
-654.872	800.000	-0.063	0.207
-653.857	-124.364	0.148	0.024
-652.843	129.991	0.133	-0.173
-651.828	391.703	-0.133	0.280
-650.814	-174.231	-0.208	-0.006
-649.799	-42.151	-0.156	-0.081
-648.784	800.000	0.068	-0.208
-647.770	-112.512	-0.060	-0.012
-646.755	-200.000	0.104	-0.511
-645.741	-52.965	0.105	-0.049
-644.726	-170.253	-0.106	0.004
-643.711	-78.406	-0.181	-0.063
-642.697	-200.000	0.091	0.432
-641.682	-200.000	-0.045	0.212
-640.668	-124.507	-0.048	-0.008
-639.653	-100.666	0.141	0.035
-638.638	800.000	-0.020	-0.080
-637.624	135.817	-0.063	-0.083
-636.609	800.000	0.046	0.163
-635.595	84.389	0.137	-0.152
-634.580	-110.136	0.160	-0.034
-633.565	786.571	0.044	-0.121
-632.551	-57.680	-0.291	-0.129
-631.536	41.607	-0.118	-0.109
-630.522	-200.000	-0.000	-0.093
-629.507	-158.474	-0.390	0.023
-628.492	-165.882	-0.288	0.013
-627.478	-12.039	0.132	0.088
-626.463	-40.517	-0.180	0.095
-625.449	800.000	-0.055	0.180
-624.434	800.000	-0.037	0.149
-623.419	174.262	0.134	-0.196
-622.405	-114.432	-0.086	0.017
-621.390	134.858	0.105	-0.138
-620.376	-68.862	-0.200	-0.078
-619.361	-98.057	-0.147	-0.038
-618.346	141.249	-0.282	-0.379
-617.332	56.172	-0.113	0.111
-616.317	-28.485	-0.292	0.171
-615.303	68.686	-0.054	-0.056
-614.288	-143.461	0.084	0.008
-613.273	302.015	0.044	0.083
-612.259	-200.000	0.022	0.267
-611.244	-103.343	0.248	0.059
-610.230	-2.101	0.005	-0.004
-609.215	-200.000	-0.020	0.171
-608.201	224.744	0.128	0.209
-607.186	-1.472	-0.247	0.177
-606.171	-200.000	-0.005	-0.240
-605.157	-50.775	-0.129	0.061
-604.142	-148.336	0.126	0.010
-603.128	222.342	-0.060	0.098
-602.113	141.528	0.210	0.282
-601.098	-160.571	0.473	-0.026
-600.084	-118.365	-0.289	-0.052
-599.069	5.265	-0.152	0.114
-598.055	-171.480	-0.298	0.010
-597.040	260.849	-0.114	-0.200
-596.025	-123.155	-0.375	-0.061
-595.011	-200.000	0.001	-0.055
-593.996	40.822	-0.178	-0.163
-592.982	-162.609	0.200	-0.010
-591.967	747.694	-0.052	-0.142
-590.952	71.746	-0.115	-0.122
-589.938	-32.684	-0.182	-0.103
-588.923	-200.000	-0.026	-0.247
-587.909	-50.772	0.285	0.136
-586.894	-116.060	-0.177	0.033
-585.879	194.299	-0.159	0.244
-584.865	-67.169	0.219	0.087
-583.850	632.730	-0.092	-0.235
-582.836	-200.000	-0.004	0.192
-581.821	-200.000	-0.007	-0.190
-580.806	800.000	0.059	-0.237
-579.792	31.046	0.252	-0.219
-578.777	-59.656	-0.245	0.107
-577.763	473.051	0.061	-0.139
-576.748	-81.761	-0.097	-0.032
-575.733	800.000	0.064	-0.210
-574.719	4.393	-0.171	-0.127
-573.704	-27.283	-0.198	0.117
-572.690	12.917	-0.285	-0.223
-571.675	-200.000	0.037	-0.365
-570.661	457.493	-0.065	0.146
-569.646	-34.804	0.177	-0.098
-568.631	-164.250	-0.234	-0.011
-567.617	30.558	-0.183	0.159
-566.602	-200.000	0.002	-0.038
-565.588	800.000	-0.110	-0.338
-564.573	-200.000	0.025	-0.207
-563.558	-46.056	-0.092	-0.046
-562.544	-128.906	-0.319	0.045
-561.529	-72.948	0.074	-0.028
-560.515	-200.000	0.011	-0.346
-559.500	456.075	-0.099	0.222
-558.485	800.000	-0.068	0.244
-557.471	-200.000	0.020	-0.302
-556.456	74.340	0.175	-0.187
-555.442	233.458	0.033	0.054
-554.427	218.763	-0.048	0.077
-553.412	-197.798	0.225	-0.001
-552.398	36.114	0.133	-0.119
-551.383	-88.220	-0.239	0.072
-550.369	800.000	0.026	0.098
-549.354	-148.849	0.104	-0.009
-548.339	800.000	-0.038	0.163
-547.325	316.882	-0.024	-0.045
-546.310	-200.000	-0.006	0.292
-545.296	-200.000	0.030	0.233
-544.281	-200.000	0.024	0.254
-543.266	223.827	0.197	0.322
-542.252	-200.000	0.008	-0.146
-541.237	800.000	-0.007	-0.020
-540.223	185.797	0.207	-0.311
-539.208	407.371	-0.181	-0.387
-538.193	404.125	0.059	0.126
-537.179	800.000	-0.031	0.111
-536.164	163.231	0.112	0.160
-535.150	-43.587	0.098	0.050
-534.135	-48.715	0.387	0.188
-533.121	-38.671	0.065	-0.035
-532.106	-52.423	0.244	0.114
-531.091	800.000	-0.053	-0.195
-530.077	-37.961	-0.145	-0.078
-529.062	3.468	-0.115	-0.085
-528.048	-19.854	0.040	-0.025
-527.033	353.441	-0.032	0.063
-526.018	17.245	-0.154	-0.124
-525.004	800.000	-0.083	0.259
-523.989	800.000	0.014	0.044
-522.975	-200.000	-0.014	0.166
-521.960	-193.885	-0.183	-0.002
-520.945	-141.490	-0.194	0.020
-519.931	70.758	0.171	0.179
-518.916	800.000	-0.070	0.215
-517.902	3.886	-0.136	0.101
-516.887	458.962	-0.070	-0.158
-515.872	-159.637	-0.222	0.012
-514.858	-116.985	0.165	-0.030
-513.843	-88.054	-0.103	-0.031
-512.829	51.446	0.211	-0.203
-511.814	800.000	0.141	-0.421
-510.799	97.910	0.244	-0.284
-509.785	-49.641	-0.147	-0.071
-508.770	-58.870	0.229	-0.100
-507.756	-200.000	0.025	-0.120
-506.741	59.052	0.139	-0.139
-505.726	800.000	0.124	0.495
-504.712	20.206	0.133	-0.109
-503.697	-28.834	-0.236	0.137
-502.683	-200.000	0.005	0.063
-501.668	477.140	-0.022	0.051
-500.653	-200.000	-0.015	-0.379
-499.639	-200.000	-0.016	-0.137
-498.624	355.071	-0.117	0.235
-497.610	178.712	-0.097	0.144
-496.595	-134.064	-0.260	0.032
-495.581	0.124	0.083	-0.060
-494.566	52.387	0.144	0.138
-493.551	-82.483	0.248	0.081
-492.537	257.565	-0.097	0.169
-491.522	-72.947	-0.251	0.093
-490.508	-200.000	-0.024	0.306
-489.493	-59.401	-0.077	-0.034
-488.478	657.073	-0.048	0.126
-487.464	47.274	-0.199	0.188
-486.449	3.414	-0.225	-0.166
-485.435	-37.448	0.149	0.080
-484.420	433.533	-0.066	0.145
-483.405	-38.899	-0.342	0.182
-482.391	117.047	-0.150	-0.187
-481.376	-31.486	-0.048	-0.027
-480.362	800.000	-0.026	0.101
-479.347	-200.000	-0.011	-0.157
-478.332	222.160	-0.092	0.150
-477.318	-52.630	-0.223	-0.104
-476.303	2.431	0.131	0.095
-475.289	33.180	-0.176	-0.154
-474.274	-167.097	-0.113	-0.005
-473.259	166.210	-0.088	-0.125
-472.245	-9.440	0.279	0.188
-471.230	-122.863	-0.128	0.021
-470.216	-39.000	0.116	0.062
-469.201	-10.546	-0.175	0.117
-468.186	-162.038	0.212	0.011
-467.172	555.168	-0.077	-0.188
-466.157	45.946	-0.429	-0.400
-465.143	-81.185	-0.276	0.092
-464.128	-20.494	-0.055	0.034
-463.113	-76.463	0.411	-0.146
-462.099	-81.791	-0.247	0.082
-461.084	268.818	0.070	-0.123
-460.070	-93.747	0.053	0.015
-459.055	110.167	-0.138	0.167
-458.040	-200.000	-0.038	-0.175
-457.026	800.000	-0.057	-0.161
-456.011	800.000	-0.037	-0.119
-454.997	-61.702	0.318	-0.135
-453.982	91.285	-0.124	0.141
-452.968	127.563	-0.110	0.142
-451.953	-200.000	-0.010	-0.253
-450.938	800.000	0.061	0.193
-449.924	-200.000	-0.008	0.049
-448.909	40.344	0.184	-0.167
-447.895	-200.000	0.031	0.333
-446.880	-137.746	0.345	-0.039
-445.865	800.000	-0.018	-0.049
-444.851	-181.176	0.129	-0.003
-443.836	432.231	0.119	0.261
-442.822	-200.000	0.046	0.269
-441.807	-4.463	-0.324	-0.226
-440.792	379.530	0.159	0.329
-439.778	792.681	-0.092	-0.255
-438.763	800.000	0.071	-0.201
-437.749	800.000	-0.075	-0.248
-436.734	-3.378	-0.287	-0.202
-435.719	-200.000	-0.061	0.296
-434.705	150.619	-0.301	-0.413
-433.690	-71.667	0.108	0.041
-432.676	800.000	-0.142	-0.494
-431.661	-95.778	-0.140	0.038
-430.646	39.172	0.281	-0.253
-429.632	-144.833	-0.246	-0.023
-428.617	360.086	-0.088	0.177
-427.603	-157.330	0.010	-0.001
-426.588	579.044	-0.112	-0.277
-425.573	-200.000	0.014	-0.157
-424.559	346.463	0.198	-0.392
-423.544	34.262	-0.092	-0.081
-422.530	-163.278	-0.202	0.010
-421.515	800.000	0.068	0.263
-420.500	-109.614	-0.242	-0.051
-419.486	-4.696	0.358	-0.249
-418.471	-109.812	0.124	0.026
-417.457	800.000	-0.042	0.116
-416.442	22.376	-0.271	-0.223
-415.428	-200.000	0.010	-0.110
-414.413	-102.694	-0.203	0.049
-413.398	-167.614	-0.068	-0.003
-412.384	-62.475	0.023	0.010
-411.369	-200.000	0.059	-0.327
-410.355	-97.391	-0.090	-0.024
-409.340	196.808	-0.102	0.156
-408.325	-1.790	0.024	0.017
-407.311	15.166	-0.278	-0.220
-406.296	136.112	0.119	-0.156
-405.282	205.077	0.144	0.225
-404.267	163.414	0.197	-0.279
-403.252	-6.937	0.178	0.122
-402.238	800.000	0.061	-0.177
-401.223	800.000	-0.103	0.294
-400.209	-48.434	-0.187	-0.091
-399.194	-101.619	-0.082	-0.020
-398.179	-106.607	-0.414	0.093
-397.165	-13.720	-0.061	0.040
-396.150	800.000	0.055	-0.197
-395.136	131.372	0.123	-0.160
-394.121	800.000	-0.076	0.230
-393.106	179.353	0.133	-0.196
-392.092	800.000	0.098	0.414
-391.077	-6.125	-0.332	-0.228
-390.063	536.635	0.107	-0.256
-389.048	510.772	-0.125	0.293
-388.033	-91.073	-0.257	-0.074
-387.019	-95.263	-0.283	-0.077
-386.004	-184.642	-0.207	0.003
-384.990	10.639	0.105	0.081
-383.975	-10.472	0.201	0.134
-382.960	-138.399	0.315	0.035
-381.946	142.958	0.048	0.065
-380.931	-200.000	-0.010	0.066
-379.917	-200.000	-0.049	-0.378
-378.902	121.007	0.066	0.083
-377.888	-11.065	-0.320	-0.212
-376.873	-200.000	-0.013	-0.080
-375.858	135.413	0.139	0.181
-374.844	800.000	-0.024	-0.074
-373.829	-51.925	-0.168	0.078
-372.815	-12.843	-0.026	-0.017
-371.800	246.620	0.183	-0.310
-370.785	-48.695	0.338	-0.163
-369.771	151.703	0.117	-0.160
-368.756	-200.000	-0.053	0.416
-367.742	-200.000	0.057	0.331
-366.727	800.000	-0.099	0.292
-365.712	305.651	0.084	0.156
-364.698	-90.822	-0.186	0.054
-363.683	-57.080	0.177	0.078
-362.669	29.078	0.134	0.114
-361.654	-200.000	-0.019	0.150
-360.639	503.306	0.159	0.369
-359.625	-31.516	0.209	0.118
-358.610	73.368	-0.057	-0.060
-357.596	-200.000	0.007	-0.064
-356.581	-59.908	0.202	0.087
-355.566	-66.668	0.420	-0.167
-354.552	-25.940	0.147	0.087
-353.537	173.397	-0.201	0.291
-352.523	-52.106	0.453	0.211
-351.508	-60.898	0.235	-0.100
-350.493	-9.883	-0.085	0.057
-349.479	158.330	0.098	-0.136
-348.464	-59.236	0.291	-0.126
-347.450	137.711	0.073	-0.096
-346.435	228.213	-0.062	-0.102
-345.420	-200.000	-0.019	0.102
-344.406	-74.262	0.294	0.107
-343.391	-38.982	-0.190	-0.100
-342.377	-200.000	0.295	-0.000
-341.362	-200.000	-0.004	-0.053
-340.348	-114.981	-0.280	0.053
-339.333	17.586	-0.135	-0.108
-338.318	86.085	-0.309	-0.342
-337.304	-200.000	-0.008	0.111
-336.289	552.447	0.110	0.267
-335.275	-200.000	-0.053	0.557
-334.260	-63.012	-0.107	-0.044
-333.245	800.000	-0.036	0.156
-332.231	-200.000	0.013	0.180
-331.216	800.000	-0.055	0.178
-330.202	374.703	0.055	0.113
-329.187	402.195	0.138	-0.292
-328.172	155.171	-0.070	0.096
-327.158	800.000	-0.079	0.316
-326.143	-183.012	-0.177	-0.003
-325.129	-99.501	-0.257	0.065
-324.114	800.000	0.134	0.396
-323.099	-112.962	0.240	0.048
-322.085	-200.000	-0.017	0.167
-321.070	-4.546	0.191	0.132
-320.056	800.000	0.022	0.060
-319.041	119.788	-0.112	0.139
-318.026	588.023	-0.023	-0.057
-317.012	-52.517	-0.119	0.055
-315.997	212.295	0.098	-0.155
-314.983	-36.610	-0.404	0.218
-313.968	-200.000	-0.014	0.128
-312.953	54.094	0.166	-0.160
-311.939	164.637	-0.032	0.045
-310.924	788.584	0.103	0.284
-309.910	-32.971	0.293	0.163
-308.895	588.186	0.046	0.112
-307.880	-169.044	-0.065	-0.002
-306.866	-200.000	-0.018	0.132
-305.851	47.754	0.155	0.145
-304.837	-200.000	0.043	0.292
-303.822	800.000	0.020	-0.070
-302.807	15.446	-0.073	0.058
-301.793	-26.576	0.212	0.124
-300.778	-123.925	0.155	0.024
-299.764	-139.074	0.139	-0.015
-298.749	-98.927	-0.108	-0.028
-297.735	115.862	-0.204	-0.250
-296.720	200.689	-0.034	0.053
-295.705	-132.785	0.196	0.025
-294.691	19.326	0.047	0.038
-293.676	-200.000	-0.022	-0.175
-292.662	-43.040	0.200	0.102
-291.647	1.426	-0.237	0.171
-290.632	-129.006	0.264	-0.037
-289.618	312.295	0.166	0.312
-288.603	-200.000	-0.034	-0.262
-287.589	-116.748	0.094	0.017
-286.574	-200.000	-0.014	0.127
-285.559	800.000	-0.051	-0.169
-284.545	118.466	0.032	-0.040
-283.530	51.666	-0.196	-0.187
-282.516	-83.260	0.167	0.054
-281.501	-200.000	-0.007	0.091
-280.486	202.986	0.175	0.272
-279.472	-83.946	0.161	0.051
-278.457	154.888	-0.087	-0.120
-277.443	-200.000	0.010	0.162
-276.428	-20.973	-0.238	-0.146
-275.413	475.494	0.115	0.260
-274.399	-44.590	0.399	-0.200
-273.384	-77.663	-0.168	-0.058
-272.370	280.168	0.166	-0.297
-271.355	-135.530	-0.110	-0.013
-270.340	800.000	0.113	-0.318
-269.326	-200.000	-0.023	-0.190
-268.311	60.745	0.189	-0.188
-267.297	167.138	-0.104	0.148
-266.282	-71.230	-0.174	-0.065
-265.267	123.784	0.030	0.037
-264.253	379.751	-0.169	-0.346
-263.238	-9.406	-0.189	-0.126
-262.224	-102.567	0.142	0.034
-261.209	203.782	0.167	-0.259
-260.195	-138.519	-0.322	-0.035
-259.180	13.147	0.167	0.130
-258.165	31.782	0.303	0.261
-257.151	-95.787	-0.209	0.056
-256.136	-52.132	0.332	-0.154
-255.122	-78.568	0.139	-0.048
-254.107	185.974	0.095	-0.141
-253.092	73.320	-0.292	-0.306
-252.078	-116.982	0.367	-0.067
-251.063	-200.000	0.001	0.305
-250.049	-29.486	-0.285	0.163
-249.034	31.748	-0.243	-0.209
-248.019	258.423	-0.117	-0.202
-247.005	1.988	0.322	0.233
-245.990	142.931	0.096	0.128
-244.976	684.513	-0.039	0.103
-243.961	88.765	0.128	0.142
-242.946	-139.101	0.304	-0.033
-241.932	-116.821	0.071	0.013
-240.917	-112.152	0.148	0.030
-239.903	800.000	-0.051	0.153
-238.888	-179.097	0.062	-0.001
-237.873	-139.981	0.345	0.036
-236.859	-200.000	0.022	0.131
-235.844	-88.215	-0.154	0.046
-234.830	800.000	0.137	0.518
-233.815	-138.117	-0.177	0.020
-232.800	-200.000	-0.038	-0.401
-231.786	172.951	-0.074	0.106
-230.771	-11.810	-0.086	-0.056
-229.757	285.044	0.140	-0.253
-228.742	-200.000	-0.040	-0.348
-227.727	125.813	-0.093	0.118
-226.713	-81.668	0.252	0.083
-225.698	682.346	-0.077	-0.201
-224.684	-200.000	-0.023	-0.270
-223.669	138.974	0.146	0.191
-222.655	0.642	-0.062	-0.044
-221.640	-125.534	-0.154	-0.023
-220.625	-87.573	0.129	-0.039
-219.611	123.429	0.057	0.072
-218.596	-76.453	-0.261	-0.092
-217.582	412.715	0.174	0.369
-216.567	-72.644	-0.157	0.058
-215.552	-15.756	-0.146	-0.093
-214.538	800.000	0.009	-0.033
-213.523	-200.000	-0.027	-0.124
-212.509	67.751	0.201	-0.205
-211.494	-41.556	-0.215	0.110
-210.479	265.372	-0.123	0.214
-209.465	20.806	0.112	-0.091
-208.450	178.156	-0.118	0.173
-207.436	-200.000	-0.001	-0.040
-206.421	-61.612	0.121	0.051
-205.406	-19.693	0.059	0.037
-204.392	-33.028	-0.112	-0.062
-203.377	300.352	-0.095	0.175
-202.363	238.058	0.048	-0.080
-201.348	-121.458	0.101	0.017
-200.333	-200.000	-0.003	-0.199
-199.319	119.828	-0.117	-0.144
-198.304	148.591	0.185	0.249
-197.290	1.886	0.179	0.129
-196.275	14.861	-0.108	0.085
-195.260	-58.455	0.126	-0.055
-194.246	-200.000	-0.004	-0.028
-193.231	-19.316	-0.011	-0.007
-192.217	107.866	0.241	-0.287
-191.202	800.000	-0.058	0.242
-190.187	176.640	0.147	-0.213
-189.173	-105.388	0.299	-0.068
-188.158	-115.446	0.294	0.055
-187.144	-157.323	-0.051	0.003
-186.129	-200.000	0.023	0.115
-185.114	5.322	0.082	0.060
-184.100	65.278	-0.051	0.051
-183.085	-129.635	0.053	-0.007
-182.071	-56.787	0.229	-0.101
-181.056	-133.362	0.174	0.022
-180.042	-30.289	-0.314	-0.178
-179.027	-200.000	0.025	0.501
-178.012	-30.595	-0.090	0.051
-176.998	800.000	-0.063	-0.227
-175.983	-59.187	0.141	-0.061
-174.969	800.000	0.101	0.344
-173.954	78.280	0.142	0.151
-172.939	6.179	0.085	-0.063
-171.925	-200.000	-0.016	0.141
-170.910	-80.038	0.148	0.050
-169.896	54.098	0.184	-0.177
-168.881	82.790	-0.095	-0.103
-167.866	-133.690	0.282	-0.035
-166.852	-143.447	-0.090	0.009
-165.837	800.000	0.053	-0.156
-164.823	489.287	0.065	-0.148
-163.808	-99.645	-0.181	0.045
-162.793	-55.797	0.301	0.134
-161.779	-200.000	-0.029	-0.433
-160.764	63.388	-0.226	0.226
-159.750	178.250	-0.125	0.182
-158.735	-78.838	0.318	0.108
-157.720	-200.000	0.010	0.249
-156.706	308.707	0.196	-0.364
-155.691	-101.292	0.290	-0.071
-154.677	-200.000	-0.003	0.023
-153.662	-121.540	0.168	-0.028
-152.647	-185.999	-0.438	-0.006
-151.633	153.936	0.092	-0.125
-150.618	-1.988	-0.189	0.133
-149.604	-70.152	0.078	-0.030
-148.589	144.613	0.154	-0.205
-147.574	146.727	0.152	-0.203
-146.560	10.089	-0.237	0.180
-145.545	163.581	0.112	0.157
-144.531	375.299	0.066	-0.135
-143.516	800.000	0.102	0.332
-142.502	800.000	0.084	-0.266
-141.487	733.331	0.150	0.399
-140.472	41.193	0.020	0.018
-139.458	800.000	-0.129	0.382
-138.443	623.816	0.142	-0.357
-137.429	46.164	0.102	-0.094
-136.414	-96.068	-0.061	-0.016
-135.399	126.702	0.096	-0.121
-134.385	-114.785	-0.227	-0.043
-133.370	311.280	0.075	-0.139
-132.356	-124.939	-0.357	0.055
-131.341	-8.568	-0.166	-0.111
-130.326	56.902	0.166	0.161
-129.312	800.000	0.073	0.205
-128.297	79.445	0.487	0.520
-127.283	-112.125	0.253	-0.051
-126.268	46.661	-0.197	0.182
-125.253	-6.971	0.108	0.073
-124.239	-6.054	0.091	-0.062
-123.224	-200.000	-0.009	0.042
-122.210	611.758	-0.194	0.482
