DTS Sentinel unit serial number:	SN413079Multiplexer serial number:	ORYXHardware model number:	OX4-SRSoftware version number:	ORYX F/W v4.00 Oryx Data Collector v3.7.2.0data status	okinstallation	princeton_trtdifferential loss correction	single-endedforward channel	channel 3reverse channel	N/Adate	2019/09/15time	03:20:35forward acquisition time	60.00reverse acquisition time	0.00gamma	496.2192k internal	0.2323k external	0.2323temperature offset calibration	0.9967default loss term (dB/km)	0.3790temperature slope calibration	1.0000multiplexer offset coefficient	1.0000multiplexer slope coefficient	1.0000fibre end	0.00T internal ref (°C)	31.06T ext. ref 1 (°C)	4.60T ext. ref 2 (°C)	25.72length (m)	temperature (°C)	Stokes	anti-Stokes-747.200	48.378	-0.073	-0.069
-746.185	140.528	-0.341	0.455
-745.171	800.000	-0.082	0.242
-744.156	61.982	0.214	0.215
-743.142	800.000	-0.127	-0.368
-742.127	-200.000	-0.016	-0.271
-741.112	375.633	0.065	-0.134
-740.098	41.920	-0.112	0.102
-739.083	-126.572	0.199	0.030
-738.069	73.505	-0.199	0.210
-737.054	76.274	0.102	0.109
-736.039	800.000	0.043	-0.186
-735.025	492.485	0.141	0.327
-734.010	800.000	-0.016	0.063
-732.996	800.000	-0.064	-0.237
-731.981	800.000	-0.021	0.091
-730.966	-8.626	-0.171	-0.116
-729.952	-48.200	-0.272	-0.132
-728.937	-121.257	-0.390	-0.066
-727.923	-38.087	-0.116	-0.062
-726.908	118.275	-0.085	0.106
-725.894	-108.185	-0.482	-0.105
-724.879	92.142	0.121	0.138
-723.864	-176.320	-0.436	-0.011
-722.850	110.237	-0.226	-0.273
-721.835	800.000	0.014	-0.053
-720.821	-49.989	-0.211	-0.101
-719.806	800.000	-0.092	0.314
-718.791	-200.000	-0.024	-0.362
-717.777	-200.000	-0.008	-0.430
-716.762	-8.932	0.141	0.096
-715.748	52.801	-0.151	0.146
-714.733	109.523	0.134	-0.162
-713.718	-16.391	-0.327	-0.209
-712.704	15.430	-0.214	0.170
-711.689	74.450	0.114	-0.121
-710.675	-141.633	-0.152	0.015
-709.660	745.649	0.023	0.062
-708.645	70.827	-0.114	0.119
-707.631	305.367	0.090	-0.169
-706.616	-200.000	0.024	-0.245
-705.602	-68.321	0.088	-0.034
-704.587	52.337	-0.102	0.098
-703.572	-200.000	-0.021	-0.260
-702.558	71.725	0.047	-0.049
-701.543	-69.362	-0.059	0.023
-700.529	-22.428	-0.243	-0.149
-699.514	404.843	0.180	0.383
-698.499	800.000	-0.010	0.041
-697.485	139.356	-0.057	0.075
-696.470	15.351	-0.183	-0.145
-695.456	-78.436	-0.141	-0.049
-694.441	-200.000	-0.025	-0.221
-693.426	336.536	0.109	0.212
-692.412	-68.135	-0.272	-0.107
-691.397	-125.424	0.227	0.035
-690.383	-158.720	-0.398	-0.023
-689.368	-117.373	0.155	-0.028
-688.354	-19.991	0.206	-0.128
-687.339	-156.336	0.234	-0.015
-686.324	-46.253	-0.058	-0.029
-685.310	175.068	-0.227	-0.331
-684.295	10.435	-0.179	0.137
-683.281	500.789	0.170	0.394
-682.266	-68.592	-0.182	0.071
-681.251	-29.989	-0.205	0.118
-680.237	-128.367	-0.473	0.068
-679.222	800.000	-0.059	0.192
-678.208	58.425	-0.215	0.212
-677.193	-72.924	0.160	0.059
-676.178	25.048	-0.180	0.150
-675.164	-104.803	-0.316	0.073
-674.149	-16.057	-0.454	-0.291
-673.135	139.279	-0.169	0.224
-672.120	-200.000	-0.085	0.398
-671.105	35.842	0.059	-0.052
-670.091	538.039	0.133	-0.318
-669.076	-200.000	0.046	-0.504
-668.062	-2.746	-0.143	0.101
-667.047	-70.116	0.307	-0.118
-666.032	330.321	-0.160	-0.311
-665.018	236.999	0.115	0.192
-664.003	417.989	0.046	-0.099
-662.989	113.220	0.109	0.133
-661.974	-71.499	0.210	-0.079
-660.959	97.502	-0.283	0.328
-659.945	-110.075	0.157	-0.033
-658.930	303.344	-0.118	-0.220
-657.916	-200.000	0.065	0.291
-656.901	650.240	0.123	-0.316
-655.886	63.715	0.091	0.092
-654.872	-53.856	-0.319	-0.146
-653.857	-113.108	0.246	0.049
-652.843	-141.002	-0.173	0.018
-651.828	-200.000	0.086	0.401
-650.814	77.056	-0.048	-0.052
-649.799	-14.406	-0.228	-0.147
-648.784	-138.078	-0.263	0.029
-647.770	186.963	-0.114	0.171
-646.755	-200.000	-0.042	-0.372
-645.741	-40.054	0.204	-0.107
-644.726	123.962	-0.008	-0.010
-643.711	-58.273	0.395	0.173
-642.697	115.052	0.021	-0.026
-641.682	20.988	-0.145	-0.119
-640.668	232.893	-0.103	-0.171
-639.653	-81.026	-0.174	-0.058
-638.638	-4.125	-0.421	0.293
-637.624	33.490	-0.173	-0.151
-636.609	49.589	-0.102	-0.097
-635.595	116.764	-0.176	-0.218
-634.580	-40.134	-0.132	0.069
-633.565	271.243	-0.038	0.066
-632.551	19.452	-0.310	0.251
-631.536	-200.000	-0.021	-0.119
-630.522	-200.000	-0.030	0.356
-629.507	453.086	-0.034	0.076
-628.492	-200.000	0.010	0.229
-627.478	-84.340	-0.279	-0.089
-626.463	151.111	0.121	-0.166
-625.449	14.002	-0.064	-0.050
-624.434	-38.635	-0.037	0.020
-623.419	-112.888	-0.472	-0.094
-622.405	271.319	-0.055	-0.098
-621.390	800.000	-0.142	0.444
-620.376	-154.737	0.048	0.003
-619.361	155.335	-0.186	0.257
-618.346	800.000	0.040	-0.128
-617.332	222.986	0.126	0.204
-616.317	-200.000	0.078	-0.493
-615.303	-200.000	-0.033	-0.360
-614.288	-200.000	0.056	-0.317
-613.273	-141.476	-0.318	0.032
-612.259	540.723	0.076	-0.181
-611.244	-200.000	-0.065	-0.348
-610.230	-200.000	-0.016	-0.201
-609.215	72.471	-0.158	-0.165
-608.201	-200.000	0.025	0.322
-607.186	-200.000	0.069	0.332
-606.171	800.000	-0.095	-0.273
-605.157	182.483	-0.180	-0.267
-604.142	611.088	-0.162	0.407
-603.128	82.247	0.244	0.265
-602.113	-200.000	-0.045	0.244
-601.098	85.004	-0.178	0.196
-600.084	-111.820	-0.165	-0.033
-599.069	719.254	0.017	-0.044
-598.055	173.729	-0.139	0.201
-597.040	-98.194	0.105	-0.027
-596.025	171.588	0.155	0.223
-595.011	-200.000	-0.082	0.371
-593.996	-139.542	-0.053	0.006
-592.982	-200.000	-0.009	0.118
-591.967	38.988	0.105	-0.094
-590.952	800.000	-0.141	0.413
-589.938	-200.000	-0.036	0.212
-588.923	-200.000	-0.009	-0.144
-587.909	616.867	-0.073	-0.185
-586.894	8.238	0.118	0.089
-585.879	492.193	-0.131	0.301
-584.865	-30.585	0.102	-0.058
-583.850	668.337	0.092	-0.240
-582.836	450.482	-0.138	0.306
-581.821	-200.000	0.012	0.140
-580.806	-16.669	-0.380	-0.241
-579.792	-49.112	0.099	0.048
-578.777	67.606	-0.026	-0.027
-577.763	-200.000	-0.024	-0.118
-576.748	800.000	0.033	-0.131
-575.733	800.000	0.107	-0.342
-574.719	230.514	-0.163	0.267
-573.704	-95.726	-0.289	0.078
-572.690	-161.975	0.393	-0.020
-571.675	-90.729	0.338	0.098
-570.661	-200.000	0.024	-0.141
-569.646	-11.987	-0.127	0.083
-568.631	-200.000	0.002	0.074
-567.617	196.031	-0.085	-0.130
-566.602	-200.000	-0.011	-0.132
-565.588	800.000	0.075	0.245
-564.573	21.172	0.174	0.142
-563.558	-69.771	-0.269	0.103
-562.544	37.962	0.044	0.039
-561.529	204.759	-0.149	0.232
-560.515	38.343	0.100	-0.089
-559.500	800.000	0.062	0.231
-558.485	-165.048	-0.140	-0.006
-557.471	-8.931	-0.412	0.276
-556.456	404.706	-0.089	-0.188
-555.442	149.728	0.142	0.193
-554.427	-200.000	0.012	0.211
-553.412	14.043	-0.025	0.020
-552.398	800.000	-0.086	-0.359
-551.383	-98.082	0.516	-0.133
-550.369	-149.398	-0.326	-0.026
-549.354	-102.746	0.058	0.014
-548.339	105.129	-0.079	0.094
-547.325	39.634	0.219	0.196
-546.310	-200.000	-0.003	0.150
-545.296	800.000	0.097	0.372
-544.281	90.141	-0.241	-0.270
-543.266	-49.392	-0.167	0.080
-542.252	157.653	-0.278	-0.385
-541.237	-23.080	0.024	0.014
-540.223	-75.424	0.068	0.024
-539.208	-200.000	-0.027	-0.243
-538.193	83.392	0.143	-0.156
-537.179	-9.125	-0.076	-0.051
-536.164	176.961	0.049	-0.071
-535.150	800.000	-0.086	-0.342
-534.135	469.581	0.106	0.238
-533.121	130.972	-0.195	-0.250
-532.106	-190.073	0.156	0.002
-531.091	27.003	0.263	0.221
-530.077	-79.209	0.142	0.048
-529.062	-102.716	-0.074	0.018
-528.048	-200.000	-0.008	-0.073
-527.033	-181.062	0.121	-0.002
-526.018	107.714	0.102	-0.121
-525.004	-177.490	-0.052	0.001
-523.989	59.627	-0.127	-0.125
-522.975	-111.357	0.334	0.068
-521.960	81.976	0.123	-0.133
-520.945	46.305	0.182	-0.169
-519.931	201.910	0.060	0.093
-518.916	48.712	-0.264	0.248
-517.902	124.542	0.278	0.350
-516.887	-19.178	-0.301	-0.187
-515.872	-93.669	0.264	-0.073
-514.858	-200.000	0.006	-0.033
-513.843	-96.100	-0.161	0.043
-512.829	-16.034	0.102	0.065
-511.814	800.000	0.069	0.221
-510.799	800.000	-0.029	0.106
-509.785	800.000	-0.160	0.442
-508.770	-6.868	-0.284	-0.193
-507.756	-200.000	-0.021	-0.151
-506.741	800.000	0.095	-0.418
-505.726	132.176	-0.249	-0.321
-504.712	114.464	-0.167	0.203
-503.697	-200.000	0.022	0.412
-502.683	800.000	0.102	0.319
-501.668	282.683	-0.011	-0.019
-500.653	764.933	-0.074	-0.200
-499.639	35.330	0.213	0.187
-498.624	-200.000	0.010	-0.248
-497.610	-200.000	-0.009	-0.159
-496.595	-134.777	0.217	-0.026
-495.581	-24.910	-0.158	0.094
-494.566	5.500	0.152	-0.112
-493.551	11.187	-0.129	0.099
-492.537	439.936	0.113	0.246
-491.522	-33.658	0.142	0.079
-490.508	-193.001	-0.208	0.002
-489.493	0.612	-0.105	0.075
-488.478	-200.000	0.043	0.250
-487.464	207.881	0.087	0.136
-486.449	-39.315	0.054	0.029
-485.435	-129.957	-0.477	-0.065
-484.420	-27.640	0.339	0.197
-483.405	632.121	-0.021	0.054
-482.391	-7.858	-0.241	-0.163
-481.376	-47.550	-0.023	-0.011
-480.362	634.474	-0.086	0.218
-479.347	-117.333	0.195	-0.035
-478.332	800.000	0.013	0.050
-477.318	-148.987	-0.144	-0.012
-476.303	-0.425	-0.369	0.262
-475.289	-200.000	0.033	0.150
-474.274	-67.117	0.102	-0.040
-473.259	453.262	0.137	-0.303
-472.245	135.322	-0.200	0.260
-471.230	-200.000	-0.001	-0.077
-470.216	71.517	0.278	-0.288
-469.201	-200.000	0.042	0.186
-468.186	-161.166	-0.167	0.009
-467.172	-1.375	0.217	-0.153
-466.157	-200.000	0.015	-0.341
-465.143	-27.226	-0.275	0.160
-464.128	31.919	0.239	-0.205
-463.113	378.465	-0.038	0.077
-462.099	45.599	-0.200	0.184
-461.084	800.000	-0.016	-0.060
-460.070	-97.760	0.168	0.044
-459.055	-9.140	-0.096	0.064
-458.040	-89.845	0.489	0.143
-457.026	39.407	0.093	-0.083
-456.011	67.880	-0.305	-0.311
-454.997	-102.007	0.285	-0.069
-453.982	-33.874	-0.268	0.147
-452.968	-200.000	-0.017	-0.275
-451.953	33.479	-0.148	-0.128
-450.938	-70.062	0.328	-0.125
-449.924	-200.000	0.018	-0.103
-448.909	-70.810	0.280	-0.105
-447.895	800.000	0.129	-0.364
-446.880	47.070	0.032	0.030
-445.865	189.929	0.252	-0.377
-444.851	564.002	-0.094	-0.226
-443.836	-55.436	0.176	-0.079
-442.822	-200.000	0.006	0.218
-441.807	57.555	-0.087	-0.085
-440.792	73.605	-0.111	0.116
-439.778	-12.525	0.159	-0.103
-438.763	-179.516	-0.338	0.007
-437.749	-200.000	-0.028	0.188
-436.734	-129.377	-0.569	0.079
-435.719	102.675	0.122	-0.142
-434.705	63.049	0.162	-0.162
-433.690	-103.235	0.227	0.053
-432.676	-200.000	-0.007	0.444
-431.661	-92.171	-0.112	-0.031
-430.646	18.618	-0.191	-0.152
-429.632	41.220	-0.140	-0.126
-428.617	-156.075	-0.125	-0.008
-427.603	-200.000	0.050	-0.332
-426.588	265.915	-0.053	-0.092
-425.573	98.102	0.027	0.030
-424.559	259.055	0.224	-0.385
-423.544	-6.515	-0.100	0.068
-422.530	-200.000	0.029	-0.342
-421.515	510.382	-0.040	-0.093
-420.500	320.925	0.086	-0.164
-419.486	-70.169	0.193	-0.073
-418.471	191.046	0.061	-0.091
-417.457	27.775	0.315	0.265
-416.442	78.937	-0.192	0.205
-415.428	263.413	-0.110	0.191
-414.413	56.296	0.033	-0.032
-413.398	-31.089	0.334	-0.188
-412.384	800.000	-0.089	-0.246
-411.369	-45.864	0.069	-0.034
-410.355	-40.239	0.448	-0.232
-409.340	125.366	0.174	-0.218
-408.325	-146.583	0.309	-0.027
-407.311	-200.000	0.000	-0.061
-406.296	145.172	-0.046	-0.061
-405.282	-50.551	-0.182	0.085
-404.267	-14.470	-0.092	0.059
-403.252	-103.524	0.086	-0.020
-402.238	-94.628	-0.156	-0.042
-401.223	-200.000	-0.110	-0.000
-400.209	115.173	0.038	0.046
-399.194	328.396	0.166	-0.317
-398.179	-174.506	-0.170	0.005
-397.165	29.944	-0.281	-0.238
-396.150	655.562	0.093	0.238
-395.136	-70.190	0.093	-0.035
-394.121	0.421	0.195	0.139
-393.106	-177.654	0.366	0.009
-392.092	800.000	-0.035	-0.121
-391.077	127.392	-0.229	0.290
-390.063	-120.383	-0.146	0.025
-389.048	24.954	0.007	-0.005
-388.033	335.650	-0.096	-0.186
-387.019	210.042	0.167	-0.260
-386.004	-34.613	-0.161	-0.088
-384.990	-60.153	-0.205	-0.087
-383.975	594.733	0.092	0.228
-382.960	800.000	-0.045	-0.136
-381.946	-83.906	0.315	-0.100
-380.931	-4.345	-0.183	-0.126
-379.917	246.714	-0.113	-0.190
-378.902	800.000	-0.060	-0.230
-377.888	-110.383	-0.113	-0.023
-376.873	768.856	-0.071	-0.191
-375.858	-200.000	0.001	-0.178
-374.844	-200.000	0.032	-0.278
-373.829	21.461	-0.119	0.096
-372.815	-1.343	-0.115	0.081
-371.800	157.183	-0.165	0.227
-370.785	150.151	-0.261	0.353
-369.771	-200.000	0.021	-0.161
-368.756	-4.136	-0.194	0.134
-367.742	-5.223	0.272	-0.186
-366.727	93.835	0.094	-0.106
-365.712	-28.847	0.294	-0.168
-364.698	-173.804	-0.138	-0.004
-363.683	-117.304	0.363	-0.066
-362.669	-101.928	-0.213	0.051
-361.654	-22.754	-0.155	0.093
-360.639	443.333	-0.221	0.481
-359.625	54.480	-0.404	0.387
-358.610	-107.627	0.251	-0.055
-357.596	800.000	0.103	-0.335
-356.581	-177.313	-0.250	-0.006
-355.566	-200.000	0.026	0.259
-354.552	-92.538	0.390	0.109
-353.537	-83.822	0.114	0.036
-352.523	144.960	-0.071	0.094
-351.508	-200.000	0.006	-0.177
-350.493	72.336	0.046	-0.048
-349.479	-45.063	0.134	0.066
-348.464	27.635	-0.019	-0.016
-347.450	120.275	0.215	0.265
-346.435	-58.725	-0.333	0.143
-345.420	73.125	-0.278	0.289
-344.406	-200.000	0.008	0.073
-343.391	-71.885	0.264	-0.098
-342.377	12.649	-0.070	-0.054
-341.362	53.321	0.094	-0.089
-340.348	-2.049	0.079	-0.056
-339.333	-27.894	-0.124	0.071
-338.318	-16.544	0.435	-0.274
-337.304	-24.821	0.054	-0.032
-336.289	-97.352	0.018	0.005
-335.275	333.389	0.067	0.129
-334.260	369.044	0.006	0.013
-333.245	233.080	0.252	-0.411
-332.231	458.699	0.186	-0.412
-331.216	-200.000	0.195	0.000
-330.202	800.000	-0.051	0.171
-329.187	148.480	0.224	0.300
-328.172	167.000	-0.123	0.174
-327.158	211.834	-0.071	0.111
-326.143	-68.200	0.242	-0.094
-325.129	-96.545	-0.193	0.051
-324.114	-107.308	-0.188	0.041
-323.099	800.000	-0.098	-0.275
-322.085	800.000	-0.091	0.387
-321.070	-32.311	-0.303	-0.168
-320.056	167.646	0.129	0.182
-319.041	-80.066	-0.107	0.036
-318.026	-200.000	-0.009	0.243
-317.012	-57.158	0.393	0.172
-315.997	-137.725	-0.152	-0.017
-314.983	-200.000	0.017	-0.202
-313.968	-65.461	0.208	0.083
-312.953	506.370	-0.113	0.261
-311.939	38.578	0.075	-0.066
-310.924	-200.000	0.010	0.161
-309.910	-125.617	-0.265	-0.040
-308.895	147.563	-0.111	-0.148
-307.880	-48.413	0.157	-0.075
-306.866	-200.000	0.020	-0.125
-305.851	44.777	-0.174	-0.159
-304.837	471.536	0.106	-0.237
-303.822	61.864	0.169	-0.167
-302.807	-127.720	-0.181	-0.026
-301.793	70.438	-0.202	-0.207
-300.778	189.790	-0.140	0.209
-299.764	-124.307	-0.075	0.012
-298.749	36.277	0.008	-0.007
-297.735	-92.860	-0.063	-0.018
-296.720	14.832	-0.115	0.090
-295.705	-66.121	0.221	-0.087
-294.691	107.450	-0.066	0.078
-293.676	108.540	0.285	0.338
-292.662	-200.000	-0.003	-0.039
-291.647	-104.865	-0.146	-0.033
-290.632	-32.187	-0.445	-0.247
-289.618	-200.000	-0.032	0.245
-288.603	-43.068	0.187	0.094
-287.589	-167.423	-0.143	-0.006
-286.574	-123.501	0.152	-0.024
-285.559	345.672	0.026	-0.050
-284.545	149.176	-0.167	0.224
-283.530	-200.000	0.021	0.302
-282.516	-49.548	0.117	-0.055
-281.501	-24.983	0.230	0.135
-280.486	-31.951	-0.170	-0.094
-279.472	163.916	-0.066	-0.092
-278.457	-9.072	0.128	0.085
-277.443	-65.662	-0.129	0.051
-276.428	-164.926	-0.130	0.006
-275.413	-200.000	0.031	-0.152
-274.399	-59.756	0.296	-0.126
-273.384	-88.618	-0.143	-0.042
-272.370	318.932	-0.095	0.179
-271.355	800.000	-0.015	0.065
-270.340	-49.407	-0.146	-0.069
-269.326	53.660	0.151	0.144
-268.311	-158.695	-0.151	0.009
-267.297	800.000	0.118	0.363
-266.282	81.942	0.155	-0.167
-265.267	800.000	0.045	-0.146
-264.253	-200.000	0.022	0.140
-263.238	-157.066	0.156	-0.009
-262.224	-200.000	0.003	-0.167
-261.209	-41.839	-0.144	-0.073
-260.195	35.110	0.281	0.244
-259.180	-35.982	-0.059	0.031
-258.165	-70.703	-0.141	-0.053
-257.151	800.000	0.067	-0.214
-256.136	-91.842	0.434	-0.122
-255.122	-68.307	0.121	-0.047
-254.107	774.246	-0.043	0.116
-253.092	-168.072	0.171	-0.007
-252.078	58.601	0.205	-0.200
-251.063	-73.442	-0.211	-0.076
-250.049	24.214	0.196	-0.161
-249.034	65.559	-0.243	0.244
-248.019	-134.883	0.253	-0.030
-247.005	38.970	-0.161	-0.142
-245.990	-24.776	-0.393	0.231
-244.976	800.000	-0.095	0.368
-243.961	-200.000	0.014	0.092
-242.946	-104.713	0.169	-0.039
-241.932	-200.000	0.010	0.489
-240.917	-78.315	0.245	-0.083
-239.903	-39.021	0.406	-0.212
-238.888	22.035	0.330	0.267
-237.873	-200.000	0.076	-0.340
-236.859	-200.000	-0.011	0.076
-235.844	-57.159	0.128	0.056
-234.830	-173.446	0.250	-0.007
-233.815	1.246	-0.331	0.235
-232.800	-56.543	0.243	-0.107
-231.786	238.073	0.185	0.303
-230.771	-32.356	-0.400	0.221
-229.757	800.000	-0.059	0.183
-228.742	800.000	0.060	0.244
-227.727	782.649	0.052	-0.140
-226.713	800.000	0.054	0.164
-225.698	-97.815	0.100	-0.026
-224.684	-108.929	-0.280	0.059
-223.669	-73.674	0.151	0.054
-222.655	-30.348	0.087	0.049
-221.640	-168.226	0.384	-0.015
-220.625	800.000	-0.074	-0.271
-219.611	470.065	0.074	-0.165
-218.596	28.810	0.257	0.215
-217.582	314.448	0.175	-0.327
-216.567	549.306	-0.094	0.223
-215.552	-200.000	-0.060	0.293
-214.538	-73.785	0.191	-0.069
-213.523	-0.799	0.180	0.126
-212.509	-152.399	-0.126	-0.009
-211.494	-136.271	0.295	0.034
-210.479	-99.063	0.088	0.022
-209.465	-26.685	-0.319	-0.185
-208.450	365.273	0.154	0.306
-207.436	-173.943	0.284	0.008
-206.421	-131.313	-0.356	0.047
-205.406	800.000	0.050	0.206
-204.392	-200.000	-0.034	0.176
-203.377	82.209	-0.126	-0.135
-202.363	18.176	0.434	0.343
-201.348	800.000	-0.008	-0.033
-200.333	64.661	-0.167	0.166
-199.319	188.638	-0.099	-0.147
-198.304	219.492	-0.034	-0.053
-197.290	-76.103	-0.061	0.021
-196.275	589.479	-0.139	-0.338
-195.260	398.110	0.071	0.147
-194.246	800.000	-0.056	-0.207
-193.231	-200.000	0.048	0.491
-192.217	85.072	0.010	0.011
-191.202	-188.074	-0.173	0.002
-190.187	-200.000	-0.021	-0.304
-189.173	138.563	-0.019	0.025
-188.158	800.000	-0.055	-0.174
-187.144	172.315	0.086	-0.122
-186.129	-200.000	0.019	0.279
-185.114	302.090	0.112	-0.204
-184.100	203.443	0.136	0.208
-183.085	3.937	-0.111	0.080
-182.071	207.743	-0.110	-0.170
-181.056	800.000	-0.059	0.178
-180.042	12.425	-0.263	-0.201
-179.027	-30.903	0.127	-0.071
-178.012	-180.426	-0.184	-0.004
-176.998	626.644	0.155	-0.386
-175.983	-118.925	-0.209	-0.036
-174.969	-118.500	-0.158	-0.028
-173.954	42.108	0.132	-0.118
-172.939	800.000	0.065	0.271
-171.925	87.634	0.129	-0.141
-170.910	-168.146	-0.084	0.003
-169.896	-200.000	-0.003	-0.075
-168.881	-70.049	0.365	-0.137
-167.866	-200.000	0.005	-0.250
-166.852	254.363	0.076	-0.129
-165.837	95.616	-0.088	0.099
-164.823	-200.000	0.000	0.108
-163.808	66.138	0.113	0.114
-162.793	84.337	-0.113	-0.122
-161.779	118.569	0.038	0.046
-160.764	800.000	-0.053	0.190
-159.750	-200.000	0.024	-0.200
-158.735	100.413	0.124	-0.142
-157.720	-150.037	0.356	0.027
-156.706	-200.000	-0.006	0.088
-155.691	800.000	-0.018	0.067
-154.677	-63.016	-0.106	-0.043
-153.662	800.000	0.180	-0.512
-152.647	-67.944	-0.302	0.116
-151.633	-91.769	0.333	-0.093
-150.618	87.797	0.143	-0.156
-149.604	-33.959	-0.157	-0.085
-148.589	292.095	-0.123	0.222
-147.574	151.071	-0.177	0.237
-146.560	800.000	-0.056	-0.230
-145.545	287.163	0.093	-0.165
-144.531	395.873	-0.157	0.323
-143.516	-126.549	0.178	0.026
-142.502	-193.026	0.239	-0.002
-141.487	7.120	0.164	0.120
-140.472	-200.000	-0.023	0.298
-139.458	-190.480	0.144	-0.002
-138.443	31.496	0.188	-0.159
-137.429	144.200	-0.079	0.104
-136.414	-131.585	0.217	0.028
-135.399	64.883	-0.142	0.141
-134.385	-21.481	-0.307	-0.184
-133.370	293.987	0.147	-0.266
-132.356	-153.845	0.258	-0.017
-131.341	-90.132	-0.219	-0.063
-130.326	220.288	-0.197	-0.311
-129.312	-200.000	-0.004	0.328
-128.297	473.613	0.078	0.174
-127.283	-135.837	0.297	-0.035
-126.268	61.405	-0.139	-0.136
-125.253	526.016	0.067	-0.155
-124.239	-18.990	-0.229	-0.141
-123.224	327.878	-0.038	-0.071
-122.210	-28.769	-0.298	-0.169
-121.195	-147.554	0.251	-0.021
