DTS Sentinel unit serial number:	SN413079Multiplexer serial number:	ORYXHardware model number:	OX4-SRSoftware version number:	ORYX F/W v4.00 Oryx Data Collector v3.7.2.0data status	okinstallation	princeton_trtdifferential loss correction	single-endedforward channel	channel 3reverse channel	N/Adate	2019/09/15time	23:16:35forward acquisition time	60.00reverse acquisition time	0.00gamma	496.2192k internal	0.2334k external	0.2334temperature offset calibration	0.9947default loss term (dB/km)	0.3790temperature slope calibration	1.0000multiplexer offset coefficient	1.0000multiplexer slope coefficient	1.0000fibre end	0.00T internal ref (°C)	28.33T ext. ref 1 (°C)	9.08T ext. ref 2 (°C)	22.13length (m)	temperature (°C)	Stokes	anti-Stokes-747.200	-108.899	0.202	0.043
-746.185	-3.410	-0.252	-0.176
-745.171	-137.371	0.285	0.032
-744.156	-102.051	-0.240	0.058
-743.142	-200.000	0.020	-0.500
-742.127	7.047	-0.154	0.116
-741.112	-200.000	-0.023	0.113
-740.098	800.000	0.045	0.131
-739.083	492.103	0.028	0.065
-738.069	-200.000	-0.006	0.335
-737.054	800.000	0.040	-0.176
-736.039	690.711	-0.059	-0.154
-735.025	-200.000	-0.008	-0.170
-734.010	39.231	-0.238	0.214
-732.996	31.624	0.082	-0.071
-731.981	-107.761	-0.394	-0.086
-730.966	299.469	0.081	0.150
-729.952	-37.180	-0.236	0.127
-728.937	-78.422	0.212	0.073
-727.923	-89.917	0.135	0.040
-726.908	157.022	0.126	0.175
-725.894	-75.629	-0.124	0.044
-724.879	-84.854	-0.166	-0.052
-723.864	-140.634	-0.282	-0.029
-722.850	-54.970	-0.148	0.067
-721.835	-200.000	-0.015	-0.114
-720.821	800.000	0.068	-0.268
-719.806	-200.000	-0.029	-0.157
-718.791	-87.591	-0.291	-0.088
-717.777	-8.755	-0.257	-0.173
-716.762	424.920	-0.125	-0.270
-715.748	-44.781	-0.460	0.230
-714.733	-133.077	-0.270	0.034
-713.718	-98.070	-0.114	0.030
-712.704	-200.000	0.005	-0.101
-711.689	800.000	0.023	0.091
-710.675	-12.855	-0.212	-0.139
-709.660	-200.000	0.002	0.091
-708.645	800.000	-0.056	0.183
-707.631	800.000	0.046	-0.193
-706.616	-163.580	0.371	0.018
-705.602	163.766	0.162	-0.229
-704.587	168.667	0.134	-0.191
-703.572	168.384	-0.113	-0.161
-702.558	-5.940	-0.178	-0.122
-701.543	236.027	-0.174	-0.288
-700.529	-36.475	0.085	0.046
-699.514	-116.635	0.112	0.021
-698.499	800.000	-0.017	-0.051
-697.485	-200.000	-0.023	-0.204
-696.470	246.694	-0.082	-0.139
-695.456	-117.185	-0.361	0.066
-694.441	-126.928	0.450	-0.066
-693.426	368.094	-0.072	-0.146
-692.412	669.181	-0.195	-0.507
-691.397	230.258	-0.187	-0.306
-690.383	-84.519	0.251	-0.079
-689.368	282.974	0.190	0.342
-688.354	-180.859	0.156	-0.003
-687.339	146.852	-0.200	0.270
-686.324	-200.000	0.002	0.428
-685.310	40.278	-0.006	0.005
-684.295	690.969	0.130	0.341
-683.281	468.888	-0.138	0.312
-682.266	182.077	-0.107	-0.157
-681.251	-23.320	-0.173	-0.104
-680.237	-84.329	0.493	-0.156
-679.222	-150.718	-0.438	0.033
-678.208	-200.000	0.001	0.145
-677.193	131.576	-0.118	0.152
-676.178	-70.969	-0.335	-0.126
-675.164	123.568	0.119	-0.150
-674.149	20.563	0.039	-0.032
-673.135	85.187	-0.143	-0.157
-672.120	800.000	-0.079	-0.265
-671.105	800.000	-0.101	-0.317
-670.091	270.116	-0.079	0.138
-669.076	800.000	0.114	0.343
-668.062	-138.994	-0.033	-0.004
-667.047	21.046	0.103	-0.084
-666.032	97.423	-0.083	0.095
-665.018	-39.269	-0.071	0.038
-664.003	-133.930	0.266	0.033
-662.989	800.000	-0.076	-0.288
-661.974	50.864	0.144	0.137
-660.959	75.387	-0.117	0.124
-659.945	183.422	-0.144	-0.214
-658.930	-200.000	-0.047	-0.238
-657.916	210.986	-0.115	-0.181
-656.901	-100.456	-0.184	-0.046
-655.886	-200.000	0.004	-0.051
-654.872	800.000	0.114	-0.455
-653.857	-189.987	-0.088	0.001
-652.843	88.889	-0.126	0.140
-651.828	800.000	0.063	-0.244
-650.814	-78.641	-0.079	0.027
-649.799	18.300	-0.166	-0.133
-648.784	366.141	0.116	0.235
-647.770	330.239	0.229	0.442
-646.755	-120.243	-0.187	0.032
-645.741	32.072	-0.243	0.210
-644.726	34.322	0.264	0.231
-643.711	800.000	0.088	-0.294
-642.697	-200.000	0.015	-0.206
-641.682	-200.000	-0.020	-0.146
-640.668	-60.672	-0.086	-0.037
-639.653	421.594	-0.049	-0.105
-638.638	800.000	-0.067	-0.222
-637.624	-200.000	0.028	0.187
-636.609	64.609	0.193	0.195
-635.595	800.000	0.087	0.262
-634.580	89.105	-0.112	-0.124
-633.565	-200.000	0.003	-0.060
-632.551	21.411	-0.149	-0.121
-631.536	2.352	-0.074	-0.054
-630.522	-81.820	-0.097	-0.032
-629.507	-32.590	-0.230	-0.128
-628.492	339.007	-0.052	0.101
-627.478	116.425	-0.093	0.114
-626.463	400.047	0.128	-0.267
-625.449	-200.000	0.045	-0.374
-624.434	-71.023	0.146	0.055
-623.419	182.554	-0.171	-0.253
-622.405	-182.930	-0.265	0.005
-621.390	-73.004	0.180	0.066
-620.376	-200.000	-0.234	-0.001
-619.361	309.306	-0.134	-0.250
-618.346	-98.449	-0.257	0.066
-617.332	182.915	-0.107	0.158
-616.317	-26.023	0.092	-0.054
-615.303	82.749	0.089	-0.097
-614.288	800.000	-0.072	-0.227
-613.273	57.593	0.241	-0.235
-612.259	800.000	0.025	-0.086
-611.244	419.087	-0.039	0.084
-610.230	800.000	0.027	0.118
-609.215	51.757	0.077	0.074
-608.201	-115.878	-0.170	-0.032
-607.186	-200.000	-0.030	0.224
-606.171	800.000	-0.041	-0.115
-605.157	-72.405	0.273	-0.101
-604.142	-200.000	0.016	-0.460
-603.128	-200.000	0.005	0.048
-602.113	240.923	-0.051	-0.085
-601.098	511.673	-0.073	-0.171
-600.084	-48.110	-0.220	0.106
-599.069	131.775	0.147	-0.189
-598.055	800.000	0.043	-0.151
-597.040	-200.000	0.006	-0.168
-596.025	-168.555	0.051	-0.002
-595.011	40.056	-0.332	0.298
-593.996	106.589	-0.235	0.278
-592.982	11.668	-0.224	-0.171
-591.967	-137.265	-0.240	-0.027
-590.952	-29.846	0.107	0.061
-589.938	-104.489	0.057	0.013
-588.923	184.886	0.229	0.339
-587.909	-66.925	0.156	-0.061
-586.894	553.261	0.030	0.072
-585.879	140.008	0.106	-0.140
-584.865	-74.138	0.280	-0.101
-583.850	295.900	0.049	-0.090
-582.836	800.000	-0.047	-0.200
-581.821	-149.232	-0.318	-0.025
-580.806	296.524	-0.096	0.176
-579.792	-130.828	-0.548	0.073
-578.777	106.183	-0.176	0.208
-577.763	-1.085	0.317	-0.224
-576.748	-28.972	-0.244	0.140
-575.733	-2.645	-0.246	0.172
-574.719	-200.000	0.056	0.377
-573.704	-200.000	-0.007	-0.275
-572.690	-77.414	-0.201	0.070
-571.675	800.000	-0.043	0.147
-570.661	-19.607	0.113	0.070
-569.646	-200.000	-0.017	-0.288
-568.631	-200.000	0.029	0.183
-567.617	-14.782	-0.126	-0.081
-566.602	-200.000	0.061	-0.369
-565.588	11.594	-0.034	0.026
-564.573	-44.563	0.165	-0.082
-563.558	-107.536	-0.048	0.011
-562.544	-200.000	-0.008	-0.099
-561.529	-12.307	-0.264	-0.172
-560.515	796.776	0.086	0.236
-559.500	32.232	-0.244	0.210
-558.485	-28.383	0.029	-0.017
-557.471	304.558	0.078	-0.145
-556.456	-159.693	0.314	0.017
-555.442	-200.000	-0.001	0.192
-554.427	-200.000	-0.122	0.607
-553.412	707.296	0.100	0.263
-552.398	463.120	0.041	0.091
-551.383	-4.770	-0.098	0.067
-550.369	103.939	-0.034	-0.040
-549.354	-200.000	0.015	0.190
-548.339	-143.394	-0.046	0.004
-547.325	-65.720	0.333	0.133
-546.310	-4.192	-0.108	0.075
-545.296	141.895	0.054	-0.071
-544.281	800.000	0.056	0.216
-543.266	-200.000	-0.008	0.200
-542.252	-20.493	0.131	-0.080
-541.237	107.299	-0.158	0.187
-540.223	-21.556	0.064	0.039
-539.208	117.503	0.212	0.259
-538.193	237.806	0.184	-0.304
-537.179	389.767	-0.009	0.019
-536.164	147.658	-0.126	-0.169
-535.150	-106.254	-0.131	-0.029
-534.135	-50.485	-0.128	-0.060
-533.121	252.314	0.041	0.070
-532.106	-200.000	0.007	-0.114
-531.091	-200.000	0.023	-0.213
-530.077	205.999	-0.119	0.184
-529.062	-62.940	-0.474	0.195
-528.048	800.000	-0.063	-0.201
-527.033	12.898	0.157	0.121
-526.018	-77.093	-0.140	-0.049
-525.004	-200.000	-0.030	0.167
-523.989	49.331	0.271	-0.254
-522.975	37.563	-0.228	-0.201
-521.960	206.850	-0.084	0.130
-520.945	800.000	0.057	-0.168
-519.931	-95.525	0.153	0.041
-518.916	-138.878	0.262	0.028
-517.902	225.833	0.029	0.047
-516.887	373.263	0.097	0.196
-515.872	-138.095	-0.082	-0.009
-514.858	-142.815	0.266	0.026
-513.843	54.457	0.358	0.344
-512.829	264.251	-0.066	-0.114
-511.814	-4.330	0.199	-0.137
-510.799	-54.487	0.164	0.074
-509.785	123.960	-0.242	-0.303
-508.770	-50.747	-0.173	0.081
-507.756	-115.749	0.274	0.051
-506.741	43.262	0.249	-0.226
-505.726	-177.690	-0.176	0.004
-504.712	-11.671	-0.113	-0.074
-503.697	6.778	0.141	0.104
-502.683	-200.000	-0.024	-0.249
-501.668	24.307	-0.163	0.134
-500.653	-200.000	-0.059	-0.389
-499.639	-113.385	0.079	-0.015
-498.624	-72.303	0.172	-0.063
-497.610	82.158	-0.065	0.070
-496.595	320.018	0.152	-0.287
-495.581	-200.000	0.004	0.372
-494.566	-134.307	-0.027	0.003
-493.551	-200.000	0.007	-0.191
-492.537	3.049	0.084	-0.061
-491.522	290.458	0.040	-0.072
-490.508	-115.363	0.049	-0.009
-489.493	-136.094	-0.248	0.029
-488.478	-200.000	-0.003	0.254
-487.464	-144.661	0.250	0.023
-486.449	-82.649	0.188	0.061
-485.435	-37.244	-0.187	-0.100
-484.420	559.455	0.126	-0.303
-483.405	-44.790	-0.262	-0.130
-482.391	175.448	-0.103	0.149
-481.376	-92.846	-0.046	-0.013
-480.362	-64.244	0.319	0.129
-479.347	450.675	-0.037	-0.081
-478.332	800.000	0.120	0.353
-477.318	-129.966	0.044	-0.006
-476.303	-200.000	0.012	-0.236
-475.289	-200.000	0.046	-0.206
-474.274	-65.814	0.295	-0.118
-473.259	-6.594	-0.249	-0.168
-472.245	-200.000	-0.066	-0.353
-471.230	-23.743	0.090	-0.054
-470.216	800.000	-0.056	-0.244
-469.201	-200.000	-0.032	0.159
-468.186	-181.851	0.273	-0.005
-467.172	482.781	-0.132	-0.298
-466.157	-179.577	0.068	-0.001
-465.143	-200.000	-0.007	-0.073
-464.128	536.295	-0.073	-0.172
-463.113	-57.298	-0.428	0.187
-462.099	-167.258	-0.174	-0.007
-461.084	-126.696	0.033	0.005
-460.070	-135.382	0.322	0.038
-459.055	800.000	-0.069	0.280
-458.040	38.274	-0.281	0.249
-457.026	17.691	0.080	0.063
-456.011	489.789	0.145	0.329
-454.997	265.889	0.092	0.160
-453.982	800.000	0.094	0.274
-452.968	-47.549	-0.091	-0.044
-451.953	-10.999	-0.081	0.053
-450.938	-200.000	0.053	-0.282
-449.924	571.662	0.119	-0.289
-448.909	-200.000	0.049	-0.398
-447.895	-177.437	0.268	0.007
-446.880	104.496	-0.099	-0.116
-445.865	-115.156	0.266	0.050
-444.851	800.000	-0.023	0.096
-443.836	800.000	-0.029	0.108
-442.822	139.964	-0.080	0.104
-441.807	-200.000	-0.103	0.000
-440.792	-39.501	-0.165	0.086
-439.778	53.862	0.101	0.096
-438.763	64.505	0.088	0.089
-437.749	6.723	-0.164	0.121
-436.734	250.233	0.047	-0.080
-435.719	-11.227	0.186	0.121
-434.705	-89.987	0.127	-0.037
-433.690	-200.000	-0.000	0.006
-432.676	-200.000	0.001	-0.189
-431.661	-200.000	-0.009	-0.139
-430.646	-200.000	0.022	-0.188
-429.632	-200.000	0.010	0.161
-428.617	-200.000	-0.021	-0.147
-427.603	-40.338	0.183	0.095
-426.588	-200.000	0.012	0.183
-425.573	-200.000	0.075	-0.478
-424.559	63.897	0.094	0.094
-423.544	-37.176	0.060	-0.032
-422.530	-16.440	-0.189	-0.119
-421.515	-200.000	-0.007	-0.356
-420.500	85.842	0.052	-0.057
-419.486	-100.910	0.260	0.063
-418.471	-62.601	-0.197	-0.081
-417.457	-165.623	-0.155	-0.007
-416.442	96.943	-0.106	0.120
-415.428	-114.877	0.199	0.038
-414.413	28.032	-0.113	0.095
-413.398	-200.000	0.003	0.279
-412.384	-126.065	-0.211	-0.031
-411.369	276.814	0.110	0.194
-410.355	99.918	0.149	0.172
-409.340	800.000	-0.032	-0.107
-408.325	-18.756	-0.168	0.104
-407.311	297.232	-0.093	0.170
-406.296	210.842	-0.173	0.270
-405.282	267.634	0.082	0.142
-404.267	-200.000	-0.023	0.130
-403.252	-200.000	-0.013	-0.207
-402.238	-128.232	-0.353	-0.050
-401.223	-55.728	0.478	-0.212
-400.209	38.431	-0.100	-0.089
-399.194	-100.686	-0.211	0.052
-398.179	330.906	0.092	0.176
-397.165	143.846	-0.198	0.262
-396.150	-42.507	-0.067	-0.034
-395.136	104.150	-0.183	0.214
-394.121	589.364	-0.168	-0.411
-393.106	19.879	-0.088	0.071
-392.092	-85.710	-0.183	0.056
-391.077	-58.137	-0.226	-0.098
-390.063	-35.476	-0.084	0.045
-389.048	-200.000	0.015	-0.093
-388.033	-59.708	0.059	0.025
-387.019	-167.583	-0.226	0.009
-386.004	-3.673	0.188	0.130
-384.990	69.310	-0.250	0.255
-383.975	497.564	-0.090	0.205
-382.960	187.157	-0.147	0.218
-381.946	-200.000	-0.021	-0.175
-380.931	125.570	0.125	-0.157
-379.917	203.589	0.230	0.353
-378.902	50.705	0.249	0.234
-377.888	104.506	0.082	0.095
-376.873	-200.000	0.048	0.240
-375.858	-73.981	-0.295	-0.106
-374.844	800.000	0.041	0.148
-373.829	29.562	-0.191	0.161
-372.815	48.018	-0.226	-0.209
-371.800	110.664	0.121	0.144
-370.785	-168.137	0.416	-0.016
-369.771	23.766	-0.119	0.097
-368.756	552.567	-0.070	-0.168
-367.742	-68.480	0.120	0.046
-366.727	-119.899	0.402	-0.068
-365.712	-200.000	-0.014	0.067
-364.698	99.965	-0.207	-0.238
-363.683	800.000	-0.065	0.230
-362.669	-151.650	0.098	0.007
-361.654	377.440	-0.111	-0.225
-360.639	-13.429	0.334	0.214
-359.625	358.933	-0.052	-0.102
-358.610	-200.000	0.001	-0.205
-357.596	-175.099	-0.164	-0.005
-356.581	275.699	-0.127	-0.223
-355.566	-200.000	-0.056	-0.364
-354.552	293.708	-0.108	0.196
-353.537	229.842	0.174	-0.282
-352.523	4.117	0.305	-0.221
-351.508	-200.000	-0.010	-0.084
-350.493	353.618	0.022	-0.043
-349.479	22.233	-0.191	-0.154
-348.464	-93.870	-0.057	-0.015
-347.450	42.400	0.047	-0.042
-346.435	800.000	0.041	0.164
-345.420	395.333	0.171	0.352
-344.406	234.027	-0.097	-0.159
-343.391	-159.056	-0.206	0.012
-342.377	-3.425	-0.086	0.059
-341.362	-41.694	0.177	0.090
-340.348	68.148	-0.105	-0.106
-339.333	-133.420	0.051	0.006
-338.318	-94.823	0.159	-0.043
-337.304	-200.000	-0.009	0.203
-336.289	478.902	0.081	0.182
-335.275	-128.855	0.099	0.014
-334.260	800.000	-0.029	0.115
-333.245	-28.983	0.212	0.121
-332.231	-57.783	0.276	0.119
-331.216	-200.000	-0.001	-0.260
-330.202	81.937	-0.342	0.366
-329.187	106.074	0.096	-0.112
-328.172	-3.128	-0.299	0.206
-327.158	386.688	-0.052	0.106
-326.143	-200.000	0.002	-0.079
-325.129	335.295	0.067	0.128
-324.114	800.000	0.044	0.132
-323.099	-200.000	0.004	0.238
-322.085	34.639	0.216	-0.187
-321.070	-63.117	-0.179	-0.073
-320.056	-98.994	-0.157	-0.039
-319.041	-91.375	0.103	0.029
-318.026	-32.104	-0.099	-0.054
-317.012	72.916	0.140	0.145
-315.997	-162.405	0.109	0.005
-314.983	160.158	0.014	0.019
-313.968	556.605	-0.160	0.380
-312.953	800.000	0.011	0.034
-311.939	242.307	0.066	-0.108
-310.924	-60.910	-0.243	-0.102
-309.910	21.136	-0.020	-0.016
-308.895	-55.979	0.395	-0.174
-307.880	-94.995	-0.169	0.045
-306.866	-200.000	-0.005	-0.130
-305.851	800.000	-0.040	-0.118
-304.837	800.000	0.065	-0.205
-303.822	-75.628	-0.205	-0.072
-302.807	150.779	-0.045	0.060
-301.793	-137.808	-0.370	-0.041
-300.778	-193.286	-0.285	0.002
-299.764	-121.593	-0.181	-0.030
-298.749	800.000	0.125	0.412
-297.735	-200.000	0.020	-0.089
-296.720	138.081	0.045	-0.059
-295.705	182.840	0.053	-0.077
-294.691	-200.000	0.002	0.545
-293.676	659.563	0.049	-0.125
-292.662	-152.423	-0.285	-0.020
-291.647	-90.246	0.241	-0.069
-290.632	-120.207	-0.259	-0.044
-289.618	-101.168	-0.365	-0.088
-288.603	113.856	0.182	-0.218
-287.589	-124.505	0.402	0.062
-286.574	-71.258	0.188	0.070
-285.559	-200.000	0.012	-0.246
-284.545	-38.285	0.107	0.056
-283.530	162.115	0.162	-0.224
-282.516	-200.000	-0.013	0.165
-281.501	-200.000	0.044	-0.202
-280.486	-19.673	-0.094	0.058
-279.472	28.265	0.138	-0.115
-278.457	-200.000	0.002	-0.203
-277.443	-26.297	-0.117	0.068
-276.428	-5.051	0.289	0.196
-275.413	-38.293	-0.059	-0.031
-274.399	800.000	0.129	0.415
-273.384	675.884	-0.044	-0.113
-272.370	137.886	0.166	-0.215
-271.355	-200.000	-0.011	-0.099
-270.340	326.827	0.128	0.242
-269.326	788.652	0.138	0.375
-268.311	-158.207	-0.326	0.019
-267.297	22.814	-0.108	0.088
-266.282	-200.000	0.006	-0.242
-265.267	-110.256	-0.087	-0.018
-264.253	-7.935	0.333	0.222
-263.238	20.370	0.063	-0.050
-262.224	-84.007	0.183	0.057
-261.209	353.992	0.159	0.312
-260.195	-2.639	-0.190	-0.131
-259.180	-200.000	-0.046	0.330
-258.165	-177.728	0.152	-0.004
-257.151	-130.576	-0.062	0.008
-256.136	79.469	-0.161	0.171
-255.122	99.204	0.221	-0.252
-254.107	-185.600	0.202	-0.003
-253.092	800.000	0.055	-0.175
-252.078	-164.537	-0.130	-0.006
-251.063	-174.133	-0.103	-0.003
-250.049	-37.816	-0.294	-0.154
-249.034	7.497	0.081	0.060
-248.019	-200.000	-0.058	-0.386
-247.005	-119.996	0.208	-0.035
-245.990	286.885	0.048	0.086
-244.976	-108.321	-0.389	0.083
-243.961	-44.166	0.187	0.093
-242.946	319.282	-0.097	0.181
-241.932	-200.000	0.049	0.403
-240.917	439.507	0.024	0.052
-239.903	-89.483	-0.144	0.042
-238.888	6.217	-0.032	-0.024
-237.873	84.400	0.069	-0.075
-236.859	-19.434	-0.173	0.106
-235.844	251.469	-0.063	0.105
-234.830	392.905	0.105	0.214
-233.815	-200.000	-0.029	-0.179
-232.800	64.689	0.143	-0.142
-231.786	0.711	0.111	-0.078
-230.771	29.268	0.341	0.285
-229.757	-112.288	-0.233	-0.046
-228.742	522.581	-0.023	-0.054
-227.727	-98.517	0.172	-0.043
-226.713	-200.000	-0.046	0.205
-225.698	-32.546	-0.083	0.046
-224.684	800.000	0.115	-0.421
-223.669	-69.401	-0.059	-0.022
-222.655	-200.000	-0.013	-0.131
-221.640	648.609	0.040	-0.102
-220.625	800.000	-0.035	-0.099
-219.611	-200.000	-0.015	-0.175
-218.596	800.000	0.081	-0.225
-217.582	303.511	0.137	-0.250
-216.567	-200.000	-0.040	0.458
-215.552	-200.000	0.078	-0.432
-214.538	-200.000	0.012	-0.141
-213.523	99.269	-0.170	-0.194
-212.509	83.601	0.247	0.265
-211.494	-121.593	-0.122	-0.020
-210.479	-83.251	-0.173	-0.055
-209.465	800.000	-0.027	0.095
-208.450	662.487	0.126	0.319
-207.436	767.680	-0.052	-0.138
-206.421	-27.068	-0.132	0.076
-205.406	-200.000	0.035	0.160
-204.392	280.811	0.118	-0.207
-203.377	-113.114	0.229	-0.044
-202.363	362.865	0.026	0.051
-201.348	-67.008	0.084	0.032
-200.333	-200.000	-0.032	0.226
-199.319	99.774	-0.333	0.379
-198.304	127.037	-0.098	0.122
-197.290	407.319	0.297	-0.618
-196.275	184.932	0.151	-0.220
-195.260	-159.493	0.391	-0.021
-194.246	800.000	-0.084	-0.263
-193.231	307.604	-0.123	-0.225
-192.217	800.000	-0.075	-0.222
-191.202	-115.011	0.354	0.066
-190.187	-120.124	0.209	0.035
-189.173	-89.383	0.141	0.041
-188.158	-200.000	0.000	-0.251
-187.144	714.888	-0.062	-0.162
-186.129	-200.000	0.010	-0.144
-185.114	-61.251	0.060	0.025
-184.100	-46.930	-0.148	0.071
-183.085	-153.564	0.353	0.024
-182.071	800.000	0.054	0.222
-181.056	-89.489	-0.148	0.043
-180.042	-46.675	-0.234	-0.113
-179.027	-200.000	-0.007	0.222
-178.012	-93.440	-0.207	0.056
-176.998	-58.736	0.205	0.087
-175.983	109.486	-0.191	0.225
-174.969	-200.000	-0.028	0.183
-173.954	-200.000	-0.021	0.103
-172.939	-52.866	-0.119	0.054
-171.925	-53.507	-0.279	-0.125
-170.910	647.030	0.113	-0.283
-169.896	-68.811	-0.294	-0.111
-168.881	800.000	0.063	0.189
-167.866	-200.000	-0.000	-0.175
-166.852	-200.000	-0.012	-0.110
-165.837	360.775	0.108	0.212
-164.823	754.833	-0.120	-0.320
-163.808	-200.000	0.007	0.046
-162.793	-45.065	0.157	0.077
-161.779	-145.329	0.361	0.032
-160.764	-200.000	0.054	-0.266
-159.750	-2.464	-0.278	0.191
-158.735	575.633	-0.032	0.078
-157.720	59.439	-0.023	-0.022
-156.706	15.085	0.134	0.103
-155.691	132.680	0.051	-0.065
-154.677	-200.000	0.033	-0.235
-153.662	284.754	0.162	-0.287
-152.647	800.000	0.043	-0.131
-151.633	-200.000	-0.000	0.363
-150.618	347.650	0.147	0.284
-149.604	125.104	-0.197	-0.244
-148.589	5.020	0.025	-0.018
-147.574	67.537	-0.119	0.119
-146.560	800.000	0.055	-0.197
-145.545	-200.000	-0.024	-0.135
-144.531	-200.000	0.038	0.244
-143.516	-82.599	-0.506	0.161
-142.502	800.000	0.082	-0.295
-141.487	-101.973	-0.039	0.009
-140.472	800.000	0.070	0.261
-139.458	157.253	0.108	-0.147
-138.443	-200.000	0.015	0.078
-137.429	284.506	0.044	-0.078
-136.414	67.205	-0.152	0.153
-135.399	-200.000	0.012	-0.397
-134.385	322.119	-0.043	-0.081
-133.370	800.000	-0.090	0.336
-132.356	-30.717	-0.146	0.081
-131.341	-200.000	-0.008	-0.109
-130.326	10.410	0.169	-0.126
-129.312	-200.000	-0.024	-0.132
-128.297	-200.000	-0.028	-0.150
-127.283	-53.912	0.368	-0.164
-126.268	800.000	0.061	0.198
-125.253	16.546	-0.413	-0.320
-124.239	171.528	0.115	-0.162
-123.224	434.199	0.104	0.221
-122.210	-142.804	-0.321	-0.031
