DTS Sentinel unit serial number:	SN413079Multiplexer serial number:	ORYXHardware model number:	OX4-SRSoftware version number:	ORYX F/W v4.00 Oryx Data Collector v3.7.2.0data status	okinstallation	princeton_trtdifferential loss correction	single-endedforward channel	channel 3reverse channel	N/Adate	2019/09/16time	14:00:35forward acquisition time	60.00reverse acquisition time	0.00gamma	496.2192k internal	0.2293k external	0.2293temperature offset calibration	0.9945default loss term (dB/km)	0.3790temperature slope calibration	1.0000multiplexer offset coefficient	1.0000multiplexer slope coefficient	1.0000fibre end	0.00T internal ref (°C)	42.39T ext. ref 1 (°C)	14.04T ext. ref 2 (°C)	37.41length (m)	temperature (°C)	Stokes	anti-Stokes-747.200	800.000	-0.090	0.321
-746.185	-0.643	-0.183	0.133
-745.171	-46.366	-0.217	0.109
-744.156	-20.261	-0.100	-0.063
-743.142	-48.649	0.069	-0.034
-742.127	-51.848	0.080	0.038
-741.112	45.463	0.175	-0.165
-740.098	-71.192	0.301	0.116
-739.083	800.000	-0.046	0.188
-738.069	94.843	-0.293	0.342
-737.054	-130.221	-0.108	0.015
-736.039	25.683	-0.368	0.314
-735.025	800.000	-0.042	0.129
-734.010	-200.000	-0.062	-0.287
-732.996	102.482	-0.138	-0.165
-731.981	-94.504	-0.320	-0.089
-730.966	638.647	0.014	-0.038
-729.952	176.972	0.159	-0.237
-728.937	89.919	-0.317	-0.362
-727.923	-2.037	-0.334	-0.240
-726.908	164.928	0.032	0.047
-725.894	135.949	0.144	0.191
-724.879	-159.523	-0.062	-0.004
-723.864	-75.038	0.237	-0.087
-722.850	-29.068	-0.129	0.075
-721.835	423.281	0.058	0.127
-720.821	800.000	0.039	0.142
-719.806	-138.382	0.150	0.017
-718.791	264.598	0.080	0.142
-717.777	9.065	-0.246	-0.190
-716.762	-200.000	0.004	0.046
-715.748	-71.989	0.175	-0.067
-714.733	800.000	0.095	0.413
-713.718	-200.000	0.060	0.332
-712.704	-200.000	-0.014	0.147
-711.689	215.842	0.145	-0.236
-710.675	-74.285	0.197	0.073
-709.660	-66.556	0.117	0.048
-708.645	14.713	-0.244	0.195
-707.631	759.261	0.056	-0.156
-706.616	800.000	0.094	-0.415
-705.602	800.000	0.023	0.084
-704.587	-103.891	0.345	0.082
-703.572	800.000	0.032	-0.126
-702.558	120.126	0.265	-0.336
-701.543	-200.000	-0.014	-0.249
-700.529	800.000	0.084	-0.332
-699.514	-151.031	-0.268	0.021
-698.499	475.242	0.119	0.274
-697.485	800.000	-0.102	-0.409
-696.470	-106.020	-0.097	-0.022
-695.456	72.663	-0.292	-0.311
-694.441	-110.162	-0.262	0.056
-693.426	76.985	0.074	-0.081
-692.412	726.693	-0.012	0.032
-691.397	40.809	0.054	0.050
-690.383	-200.000	-0.018	-0.442
-689.368	261.125	-0.057	0.101
-688.354	-77.171	-0.091	0.032
-687.339	-159.432	-0.117	0.007
-686.324	-200.000	0.066	0.350
-685.310	-177.186	0.281	-0.007
-684.295	271.745	0.131	-0.236
-683.281	21.614	0.342	-0.284
-682.266	-0.528	-0.406	-0.294
-681.251	-49.956	-0.221	0.107
-680.237	697.461	0.023	0.062
-679.222	-200.000	0.005	0.187
-678.208	-200.000	0.018	-0.163
-677.193	-85.736	0.156	-0.049
-676.178	800.000	0.161	-0.468
-675.164	164.760	-0.042	-0.061
-674.149	288.727	0.113	-0.209
-673.135	-144.463	-0.130	0.012
-672.120	-61.898	-0.150	-0.064
-671.105	58.404	0.055	-0.055
-670.091	-200.000	-0.039	0.227
-669.076	464.072	0.150	0.342
-668.062	692.947	0.040	0.108
-667.047	421.344	0.171	-0.373
-666.032	-200.000	0.009	0.101
-665.018	112.425	0.066	-0.082
-664.003	-119.049	0.300	0.054
-662.989	800.000	0.095	-0.341
-661.974	-120.974	-0.235	-0.040
-660.959	748.636	-0.087	0.240
-659.945	184.107	-0.076	-0.115
-658.930	237.602	-0.060	0.102
-657.916	-86.286	0.283	-0.089
-656.901	14.890	-0.136	0.108
-655.886	-69.116	-0.439	0.172
-654.872	-156.466	-0.182	-0.012
-653.857	-178.449	0.225	-0.005
-652.843	83.618	0.193	-0.215
-651.828	-33.798	0.196	0.110
-650.814	-200.000	-0.030	-0.291
-649.799	800.000	-0.071	0.224
-648.784	-151.304	0.109	-0.008
-647.770	-116.718	0.318	-0.059
-646.755	-200.000	-0.016	0.189
-645.741	-125.542	0.118	-0.018
-644.726	-200.000	0.043	-0.259
-643.711	207.868	0.132	0.211
-642.697	-119.865	-0.302	-0.053
-641.682	800.000	-0.112	-0.345
-640.668	-91.870	0.309	-0.089
-639.653	-93.532	-0.286	-0.081
-638.638	141.895	-0.078	-0.106
-637.624	427.037	0.097	-0.212
-636.609	-166.882	0.127	0.005
-635.595	800.000	0.073	0.211
-634.580	-34.198	-0.301	-0.169
-633.565	234.405	-0.181	0.305
-632.551	529.800	0.097	-0.233
-631.536	316.867	-0.039	-0.075
-630.522	-91.320	0.161	-0.047
-629.507	-200.000	-0.012	-0.059
-628.492	-82.460	-0.152	-0.050
-627.478	-69.561	-0.095	0.037
-626.463	-24.505	-0.215	0.130
-625.449	-200.000	-0.007	0.052
-624.434	-180.304	0.216	0.005
-623.419	-168.993	-0.503	0.019
-622.405	77.905	-0.182	-0.198
-621.390	-57.909	-0.256	0.114
-620.376	-176.572	-0.244	-0.006
-619.361	188.650	-0.066	-0.101
-618.346	279.031	0.133	-0.242
-617.332	-150.744	-0.029	-0.002
-616.317	-14.530	-0.223	0.146
-615.303	800.000	0.102	-0.335
-614.288	-33.024	-0.314	-0.177
-613.273	-200.000	-0.025	0.191
-612.259	267.682	0.185	-0.329
-611.244	-200.000	0.031	-0.232
-610.230	407.418	0.055	-0.117
-609.215	-200.000	-0.029	0.146
-608.201	800.000	0.092	-0.340
-607.186	-119.119	-0.143	-0.026
-606.171	-200.000	-0.004	-0.530
-605.157	54.463	0.064	0.063
-604.142	-38.816	-0.163	-0.087
-603.128	106.907	-0.089	-0.107
-602.113	49.098	-0.139	0.132
-601.098	800.000	0.138	-0.540
-600.084	-24.839	0.219	0.132
-599.069	-76.208	0.183	-0.066
-598.055	-200.000	0.033	-0.182
-597.040	574.509	-0.054	-0.133
-596.025	-49.628	-0.396	-0.192
-595.011	-18.751	0.165	0.105
-593.996	336.302	0.072	-0.142
-592.982	287.024	-0.163	-0.299
-591.967	53.445	0.268	0.262
-590.952	311.512	-0.135	0.257
-589.938	-93.834	0.147	0.041
-588.923	277.370	0.136	-0.247
-587.909	-123.284	0.271	-0.044
-586.894	-155.949	-0.066	-0.004
-585.879	133.731	0.198	-0.260
-584.865	-6.715	0.170	-0.117
-583.850	138.137	0.048	0.064
-582.836	535.550	-0.059	0.143
-581.821	-124.408	0.173	-0.027
-580.806	-200.000	0.038	-0.230
-579.792	112.664	-0.158	-0.195
-578.777	47.087	-0.025	0.024
-577.763	95.576	0.172	-0.200
-576.748	-200.000	-0.053	0.390
-575.733	243.549	-0.150	0.255
-574.719	-89.701	0.262	0.078
-573.704	-200.000	-0.020	-0.197
-572.690	-200.000	0.046	0.241
-571.675	98.481	-0.128	-0.150
-570.661	146.386	-0.125	-0.170
-569.646	83.017	0.231	0.255
-568.631	800.000	-0.093	0.317
-567.617	112.126	-0.172	-0.211
-566.602	-4.527	-0.099	0.070
-565.588	-86.623	-0.335	0.104
-564.573	1.790	-0.169	0.123
-563.558	-84.262	-0.172	-0.055
-562.544	-100.326	0.016	-0.004
-561.529	-18.558	0.197	0.125
-560.515	77.184	-0.191	-0.206
-559.500	23.853	0.096	0.080
-558.485	-88.479	0.209	-0.063
-557.471	-107.009	-0.108	0.024
-556.456	-16.396	0.331	-0.213
-555.442	800.000	0.016	0.068
-554.427	109.254	-0.300	-0.365
-553.412	-37.639	-0.294	-0.159
-552.398	-192.991	-0.031	-0.000
-551.383	-93.429	-0.389	-0.109
-550.369	96.521	-0.138	0.160
-549.354	37.069	0.036	-0.032
-548.339	136.920	-0.044	0.058
-547.325	-38.309	-0.228	0.122
-546.310	-13.333	0.319	0.210
-545.296	-17.507	0.201	-0.128
-544.281	-6.646	-0.125	0.086
-543.266	800.000	0.045	-0.158
-542.252	-200.000	0.053	-0.333
-541.237	382.304	0.190	0.397
-540.223	220.096	-0.099	0.162
-539.208	-119.536	0.063	-0.011
-538.193	800.000	0.064	0.232
-537.179	-73.738	-0.220	0.081
-536.164	-113.659	-0.259	-0.051
-535.150	-128.198	-0.235	0.034
-534.135	-200.000	0.008	-0.198
-533.121	-164.510	-0.190	-0.009
-532.106	-81.616	0.236	0.079
-531.091	800.000	-0.068	0.243
-530.077	19.058	-0.164	0.134
-529.062	800.000	0.040	-0.174
-528.048	-163.381	0.132	-0.006
-527.033	-200.000	-0.009	0.214
-526.018	-154.619	0.365	0.025
-525.004	-124.586	-0.107	-0.017
-523.989	221.192	-0.067	-0.109
-522.975	-28.321	0.253	-0.148
-521.960	-97.576	-0.250	0.066
-520.945	61.767	-0.147	-0.148
-519.931	-200.000	-0.007	0.098
-518.916	-28.355	-0.113	0.066
-517.902	-28.666	-0.182	-0.106
-516.887	-128.964	0.075	0.011
-515.872	-134.564	-0.311	0.038
-514.858	-145.213	0.442	0.041
-513.843	-25.184	0.138	-0.083
-512.829	800.000	0.026	-0.105
-511.814	3.001	-0.217	0.160
-510.799	-200.000	-0.008	-0.154
-509.785	-122.913	-0.229	0.037
-508.770	59.683	0.302	-0.302
-507.756	-200.000	0.020	-0.125
-506.741	-67.627	0.262	-0.104
-505.726	347.653	-0.134	-0.268
-504.712	800.000	0.074	-0.208
-503.697	800.000	-0.040	-0.162
-502.683	216.315	0.102	0.164
-501.668	76.643	0.106	-0.113
-500.653	116.028	-0.033	0.041
-499.639	372.605	-0.036	-0.073
-498.624	-135.533	-0.151	-0.018
-497.610	49.533	-0.092	-0.087
-496.595	78.338	0.098	0.106
-495.581	-118.407	-0.101	0.018
-494.566	-200.000	0.016	-0.422
-493.551	799.909	-0.029	-0.081
-492.537	-200.000	-0.001	0.130
-491.522	327.040	0.118	-0.229
-490.508	265.704	0.074	0.130
-489.493	-200.000	0.012	-0.063
-488.478	-200.000	0.008	0.088
-487.464	-36.232	0.044	0.024
-486.449	167.659	-0.057	-0.082
-485.435	47.946	0.217	-0.206
-484.420	-30.962	0.198	-0.114
-483.405	-8.035	0.291	-0.198
-482.391	-114.329	0.097	0.019
-481.376	-81.713	-0.453	-0.151
-480.362	54.704	0.043	0.042
-479.347	-121.374	-0.354	0.060
-478.332	398.233	-0.116	0.245
-477.318	6.840	-0.193	0.146
-476.303	800.000	-0.021	-0.069
-475.289	-106.657	-0.112	-0.025
-474.274	90.598	-0.091	0.103
-473.259	34.962	0.164	0.145
-472.245	800.000	0.078	-0.240
-471.230	800.000	-0.075	0.328
-470.216	160.486	0.109	0.155
-469.201	63.079	-0.200	-0.203
-468.186	-136.474	0.447	-0.053
-467.172	-147.118	0.010	0.001
-466.157	116.483	0.086	0.106
-465.143	-200.000	0.027	0.358
-464.128	206.553	0.136	0.215
-463.113	651.227	-0.023	-0.059
-462.099	34.688	0.243	0.215
-461.084	800.000	-0.031	-0.101
-460.070	800.000	-0.016	-0.058
-459.055	95.563	-0.312	-0.360
-458.040	-60.261	0.165	0.071
-457.026	-30.812	-0.182	-0.104
-456.011	213.725	-0.120	-0.192
-454.997	90.165	-0.259	-0.293
-453.982	144.070	-0.048	-0.064
-452.968	185.158	0.095	0.142
-451.953	734.136	0.021	-0.058
-450.938	348.480	-0.214	0.427
-449.924	486.164	-0.054	0.125
-448.909	-147.761	-0.191	0.016
-447.895	80.353	-0.055	0.060
-446.880	285.046	-0.038	0.069
-445.865	-200.000	0.011	0.266
-444.851	-200.000	-0.014	0.197
-443.836	-107.235	0.375	0.084
-442.822	-200.000	0.024	0.242
-441.807	-103.962	-0.237	0.056
-440.792	-200.000	0.001	0.141
-439.778	-49.640	-0.130	0.063
-438.763	-137.661	0.091	-0.010
-437.749	647.664	-0.164	0.424
-436.734	57.250	-0.300	-0.296
-435.719	-136.023	-0.220	-0.026
-434.705	-52.205	0.444	0.208
-433.690	-200.000	-0.017	-0.087
-432.676	368.669	-0.149	-0.305
-431.661	-200.000	-0.013	-0.084
-430.646	54.733	-0.043	0.042
-429.632	3.293	-0.107	-0.078
-428.617	-36.468	0.333	-0.181
-427.603	-171.019	0.224	0.008
-426.588	5.170	0.157	-0.117
-425.573	-134.596	-0.323	0.040
-424.559	138.445	0.093	-0.124
-423.544	-200.000	-0.026	-0.254
-422.530	115.458	-0.205	0.254
-421.515	-111.423	-0.412	-0.085
-420.500	64.837	0.178	0.181
-419.486	41.069	-0.234	-0.213
-418.471	181.558	0.138	0.205
-417.457	-7.806	-0.213	0.146
-416.442	800.000	0.165	0.461
-415.428	608.987	-0.027	0.068
-414.413	108.046	0.103	0.124
-413.398	24.406	0.268	0.224
-412.384	686.767	-0.087	-0.230
-411.369	-21.879	-0.115	-0.071
-410.355	89.200	0.322	0.363
-409.340	255.071	-0.173	0.300
-408.325	80.249	0.284	0.308
-407.311	180.666	-0.183	-0.271
-406.296	-200.000	-0.044	0.326
-405.282	-200.000	-0.009	0.077
-404.267	-136.233	-0.199	-0.023
-403.252	149.764	0.144	-0.197
-402.238	775.318	-0.073	-0.201
-401.223	-24.557	-0.355	0.214
-400.209	800.000	-0.045	0.151
-399.194	-22.871	0.120	0.073
-398.179	-200.000	-0.003	0.386
-397.165	197.159	0.132	-0.204
-396.150	-186.009	0.250	0.004
-395.136	800.000	-0.128	-0.373
-394.121	30.469	-0.222	-0.191
-393.106	13.308	0.095	0.074
-392.092	-200.000	0.040	0.442
-391.077	38.788	-0.201	0.181
-390.063	-93.400	-0.222	-0.062
-389.048	-200.000	-0.020	-0.191
-388.033	-176.715	0.197	0.005
-387.019	-132.695	0.191	0.025
-386.004	-54.785	0.178	-0.081
-384.990	-200.000	-0.003	-0.041
-383.975	-102.811	0.161	0.039
-382.960	800.000	0.167	0.474
-381.946	800.000	0.027	-0.109
-380.931	-113.601	0.178	-0.035
-379.917	292.608	-0.072	0.133
-378.902	-200.000	-0.036	-0.411
-377.888	111.988	-0.284	-0.346
-376.873	126.094	-0.214	-0.272
-375.858	509.303	0.116	0.271
-374.844	570.111	-0.039	-0.097
-373.829	439.525	0.176	-0.389
-372.815	800.000	-0.038	-0.143
-371.800	-200.000	0.026	0.276
-370.785	800.000	-0.064	-0.227
-369.771	26.746	0.167	0.141
-368.756	693.200	-0.066	0.173
-367.742	167.675	0.120	-0.172
-366.727	110.950	-0.066	0.081
-365.712	-71.749	-0.242	0.091
-364.698	-86.597	0.131	-0.041
-363.683	110.529	0.270	-0.327
-362.669	6.596	-0.146	-0.110
-361.654	368.091	0.031	-0.062
-360.639	-200.000	0.054	-0.241
-359.625	12.616	0.170	-0.132
-358.610	241.576	0.147	-0.248
-357.596	-167.346	-0.341	0.014
-356.581	56.491	-0.194	0.190
-355.566	-115.872	0.215	-0.040
-354.552	-141.759	-0.018	-0.002
-353.537	13.452	-0.163	-0.127
-352.523	-31.197	-0.073	-0.042
-351.508	-200.000	-0.057	0.436
-350.493	-200.000	-0.027	-0.208
-349.479	-12.836	-0.217	0.142
-348.464	141.181	-0.134	0.178
-347.450	-75.109	0.099	-0.036
-346.435	-200.000	0.008	-0.044
-345.420	-92.397	-0.118	-0.033
-344.406	800.000	0.040	-0.148
-343.391	-41.010	-0.288	-0.150
-342.377	-55.170	-0.424	-0.192
-341.362	72.068	-0.257	-0.270
-340.348	-200.000	0.032	0.172
-339.333	800.000	-0.040	0.128
-338.318	517.188	0.026	0.061
-337.304	137.472	0.252	-0.332
-336.289	340.717	-0.059	0.115
-335.275	229.427	0.036	-0.058
-334.260	148.536	0.107	0.146
-333.245	-200.000	0.045	-0.328
-332.231	35.135	-0.158	0.139
-331.216	-26.887	0.135	0.080
-330.202	378.987	0.062	-0.128
-329.187	800.000	0.059	-0.192
-328.172	290.194	-0.066	0.120
-327.158	372.739	-0.076	0.156
-326.143	52.932	0.071	0.069
-325.129	44.633	-0.219	0.203
-324.114	-53.260	0.203	0.094
-323.099	535.574	0.064	0.153
-322.085	-65.239	-0.234	0.095
-321.070	-122.581	-0.243	0.040
-320.056	-131.692	-0.257	0.034
-319.041	-100.422	0.263	0.066
-318.026	306.785	0.074	0.138
-317.012	104.785	0.094	0.111
-315.997	-88.568	0.437	-0.131
-314.983	447.620	0.106	-0.234
-313.968	-170.998	-0.187	-0.006
-312.953	154.751	0.276	0.381
-311.939	-34.688	0.074	0.041
-310.924	121.131	-0.293	-0.367
-309.910	800.000	0.041	-0.132
-308.895	-58.239	-0.200	-0.088
-307.880	108.457	0.101	0.121
-306.866	-200.000	0.051	0.252
-305.851	-96.458	0.335	0.089
-304.837	142.443	-0.198	-0.264
-303.822	-45.454	-0.204	0.102
-302.807	-200.000	0.014	-0.224
-301.793	-200.000	0.020	-0.110
-300.778	-34.614	-0.099	0.054
-299.764	-200.000	0.009	0.270
-298.749	397.560	-0.033	0.068
-297.735	-165.040	0.126	-0.006
-296.720	-133.055	-0.215	0.027
-295.705	214.142	-0.010	0.016
-294.691	-45.363	-0.176	0.088
-293.676	526.989	-0.091	0.215
-292.662	360.139	0.136	0.274
-291.647	800.000	0.147	0.559
-290.632	33.762	0.200	-0.175
-289.618	683.353	-0.041	-0.107
-288.603	-23.744	-0.075	0.045
-287.589	800.000	0.085	0.254
-286.574	-200.000	-0.001	0.139
-285.559	36.367	0.064	0.056
-284.545	800.000	-0.047	0.172
-283.530	-200.000	0.024	-0.299
-282.516	-200.000	0.003	-0.110
-281.501	423.520	-0.084	-0.182
-280.486	222.028	-0.153	0.247
-279.472	526.158	-0.037	0.087
-278.457	29.323	-0.039	-0.033
-277.443	467.145	0.136	-0.307
-276.428	-200.000	-0.018	0.213
-275.413	197.021	-0.026	0.040
-274.399	-53.895	0.345	0.158
-273.384	77.114	-0.123	0.131
-272.370	-172.056	0.443	0.014
-271.355	-120.538	0.184	-0.031
-270.340	55.690	-0.447	0.435
-269.326	-34.819	-0.233	-0.128
-268.311	17.514	-0.106	-0.085
-267.297	786.869	0.121	-0.333
-266.282	70.970	0.181	-0.188
-265.267	705.622	-0.115	0.304
-264.253	57.130	0.141	-0.138
-263.238	-74.455	-0.225	0.081
-262.224	800.000	0.056	-0.200
-261.209	-200.000	-0.070	0.317
-260.195	-200.000	-0.033	-0.156
-259.180	48.526	0.199	0.187
-258.165	174.486	-0.203	-0.294
-257.151	-154.526	0.252	0.017
-256.136	127.707	0.148	0.189
-255.122	-131.942	0.227	-0.030
-254.107	800.000	-0.103	-0.307
-253.092	-200.000	-0.032	-0.233
-252.078	188.092	-0.199	-0.299
-251.063	282.488	-0.132	0.237
-250.049	-110.106	0.157	-0.033
-249.034	-78.271	0.129	-0.045
-248.019	800.000	0.014	0.059
-247.005	282.081	0.121	0.218
-245.990	-177.061	0.455	0.011
-244.976	1.740	0.151	0.109
-243.961	3.620	-0.238	-0.174
-242.946	240.608	-0.156	0.261
-241.932	-35.349	-0.109	0.060
-240.917	-200.000	-0.019	-0.191
-239.903	800.000	-0.047	0.148
-238.888	-5.878	0.312	0.214
-237.873	-55.090	0.148	-0.067
-236.859	183.201	0.138	0.204
-235.844	-66.832	0.131	-0.052
-234.830	-92.953	-0.268	-0.075
-233.815	249.247	-0.135	0.229
-232.800	-66.166	-0.147	0.059
-231.786	47.793	0.276	0.258
-230.771	246.575	0.093	0.157
-229.757	-156.052	0.148	0.009
-228.742	-111.669	0.079	0.016
-227.727	8.372	0.181	-0.136
-226.713	-195.662	0.040	0.000
-225.698	-200.000	-0.010	0.142
-224.684	-200.000	0.016	-0.195
-223.669	-200.000	-0.014	0.137
-222.655	0.279	-0.242	-0.173
-221.640	70.776	-0.157	0.162
-220.625	222.599	0.148	0.239
-219.611	56.372	0.256	0.249
-218.596	-11.554	0.288	-0.190
-217.582	44.976	0.279	-0.257
-216.567	-200.000	-0.023	0.262
-215.552	-56.237	0.305	-0.136
-214.538	34.904	-0.172	0.150
-213.523	-127.394	0.411	-0.060
-212.509	422.768	-0.073	0.157
-211.494	-99.463	-0.105	-0.027
-210.479	-44.534	0.100	-0.050
-209.465	160.050	-0.097	-0.135
-208.450	301.031	0.090	0.167
-207.436	-200.000	-0.016	0.231
-206.421	-60.722	-0.048	0.020
-205.406	137.164	0.145	0.190
-204.392	253.365	0.169	-0.289
-203.377	21.996	-0.210	-0.172
-202.363	637.492	-0.021	0.054
-201.348	117.439	0.143	-0.176
-200.333	401.628	0.121	-0.255
-199.319	-80.388	0.091	-0.031
-198.304	-57.426	0.202	0.089
-197.290	-46.689	0.222	0.109
-196.275	-200.000	-0.013	-0.094
-195.260	-174.327	-0.389	-0.011
-194.246	-200.000	0.005	0.119
-193.231	-200.000	-0.017	0.338
-192.217	-55.074	-0.309	0.139
-191.202	-200.000	-0.015	-0.165
-190.187	-131.100	-0.142	-0.019
-189.173	800.000	-0.037	-0.136
-188.158	390.577	0.132	0.274
-187.144	-65.957	0.238	0.095
-186.129	-200.000	0.014	0.336
-185.114	-200.000	0.004	0.105
-184.100	-83.483	-0.086	0.028
-183.085	-200.000	-0.004	-0.043
-182.071	-126.448	-0.137	-0.020
-181.056	-41.573	0.175	-0.090
-180.042	33.496	0.124	0.107
-179.027	64.138	0.069	-0.070
-178.012	-129.569	0.138	-0.019
-176.998	-59.805	-0.073	-0.031
-175.983	-200.000	-0.015	-0.307
-174.969	-65.057	0.247	0.100
-173.954	177.041	0.150	-0.219
-172.939	-200.000	0.012	-0.162
-171.925	800.000	-0.034	0.119
-170.910	37.310	-0.087	0.077
-169.896	800.000	0.066	0.220
-168.881	-65.268	-0.261	-0.105
-167.866	96.563	0.116	0.132
-166.852	-109.135	0.105	-0.022
-165.837	614.351	-0.038	0.094
-164.823	-119.593	0.377	0.065
-163.808	-17.106	0.210	-0.132
-162.793	-200.000	0.004	0.027
-161.779	146.842	-0.098	0.132
-160.764	-200.000	0.029	-0.343
-159.750	-48.323	-0.067	0.032
-158.735	133.981	0.147	-0.190
-157.720	200.638	-0.113	-0.173
-156.706	383.406	0.087	0.180
-155.691	26.802	0.107	0.089
-154.677	800.000	0.059	0.226
-153.662	156.825	-0.202	0.279
-152.647	261.063	-0.043	-0.074
-151.633	-91.317	0.095	0.027
-150.618	-69.866	0.146	-0.056
-149.604	800.000	0.047	0.194
-148.589	227.407	0.177	0.288
-147.574	325.735	-0.224	0.429
-146.560	-149.423	0.238	0.019
-145.545	800.000	0.081	0.306
-144.531	-111.098	-0.171	-0.035
-143.516	-72.938	0.043	-0.016
-142.502	-129.920	0.092	-0.013
-141.487	-126.730	-0.176	0.026
-140.472	-110.199	0.099	-0.021
-139.458	-11.885	0.146	0.096
-138.443	-70.615	-0.142	-0.054
-137.429	6.328	0.116	0.086
-136.414	21.616	0.100	-0.081
-135.399	61.215	-0.101	-0.100
-134.385	87.979	-0.104	0.116
-133.370	336.010	0.083	0.161
-132.356	233.907	-0.039	-0.064
-131.341	-116.743	-0.061	0.011
-130.326	-130.382	-0.165	-0.022
-129.312	800.000	-0.028	0.110
-128.297	-200.000	0.069	0.491
-127.283	44.797	-0.163	-0.150
-126.268	-155.835	0.340	-0.022
-125.253	153.267	0.100	-0.136
-124.239	-200.000	-0.009	0.395
-123.224	-21.177	-0.152	0.093
-122.210	80.946	0.261	-0.281
-121.195	-39.237	0.141	-0.074
