DTS Sentinel unit serial number:	SN413079Multiplexer serial number:	ORYXHardware model number:	OX4-SRSoftware version number:	ORYX F/W v4.00 Oryx Data Collector v3.7.2.0data status	okinstallation	princeton_trtdifferential loss correction	single-endedforward channel	channel 3reverse channel	N/Adate	2019/09/17time	22:20:35forward acquisition time	60.00reverse acquisition time	0.00gamma	496.2192k internal	0.2345k external	0.2345temperature offset calibration	0.9948default loss term (dB/km)	0.3790temperature slope calibration	1.0000multiplexer offset coefficient	1.0000multiplexer slope coefficient	1.0000fibre end	0.00T internal ref (°C)	25.56T ext. ref 1 (°C)	0.18T ext. ref 2 (°C)	18.56length (m)	temperature (°C)	Stokes	anti-Stokes-747.200	800.000	0.050	0.191
-746.185	162.936	0.157	-0.220
-745.171	-150.694	0.016	0.001
-744.156	-95.654	-0.096	0.026
-743.142	-125.155	0.415	0.064
-742.127	-29.088	-0.265	-0.152
-741.112	-200.000	0.033	-0.165
-740.098	26.087	-0.114	-0.095
-739.083	-175.793	-0.310	-0.008
-738.069	-200.000	-0.008	-0.053
-737.054	800.000	-0.115	-0.339
-736.039	14.906	-0.321	-0.252
-735.025	-8.812	0.463	0.311
-734.010	150.956	-0.242	0.329
-732.996	26.473	-0.223	-0.187
-731.981	800.000	-0.043	-0.120
-730.966	630.224	0.089	0.226
-729.952	-117.309	0.336	-0.061
-728.937	-200.000	0.014	-0.452
-727.923	380.503	-0.120	-0.245
-726.908	-76.637	0.292	0.102
-725.894	-92.789	-0.152	-0.042
-724.879	-3.172	-0.205	-0.143
-723.864	-18.515	0.316	0.197
-722.850	-67.100	-0.249	0.098
-721.835	800.000	0.071	-0.267
-720.821	70.792	0.053	-0.055
-719.806	93.898	-0.289	-0.328
-718.791	-34.344	0.205	0.113
-717.777	98.019	-0.131	-0.151
-716.762	-38.783	0.127	-0.067
-715.748	160.923	-0.127	0.177
-714.733	800.000	-0.087	0.281
-713.718	-14.753	-0.071	-0.046
-712.704	75.180	0.262	-0.276
-711.689	800.000	-0.108	-0.441
-710.675	-48.831	0.120	-0.058
-709.660	129.348	-0.131	0.167
-708.645	-200.000	-0.083	0.380
-707.631	-93.165	0.081	-0.023
-706.616	724.613	-0.072	-0.192
-705.602	1.807	0.144	-0.104
-704.587	72.165	-0.167	0.174
-703.572	-6.139	-0.138	-0.094
-702.558	-181.753	-0.309	-0.006
-701.543	127.746	-0.120	0.152
-700.529	-72.899	-0.034	-0.012
-699.514	800.000	0.071	0.209
-698.499	800.000	-0.002	0.006
-697.485	-174.451	-0.086	-0.002
-696.470	-114.175	0.214	-0.041
-695.456	-184.995	0.232	-0.004
-694.441	-44.761	-0.372	0.185
-693.426	-5.796	0.021	-0.014
-692.412	591.166	0.054	-0.133
-691.397	-53.202	0.034	0.016
-690.383	504.646	-0.122	0.282
-689.368	-93.762	-0.118	-0.033
-688.354	-75.505	0.355	-0.126
-687.339	151.179	0.164	-0.223
-686.324	84.610	0.153	-0.167
-685.310	157.168	-0.052	-0.072
-684.295	390.190	-0.111	-0.231
-683.281	-122.543	0.179	0.029
-682.266	275.391	-0.097	-0.172
-681.251	92.109	-0.096	0.108
-680.237	109.644	-0.272	0.325
-679.222	42.770	0.292	0.266
-678.208	-148.472	-0.145	-0.012
-677.193	404.906	-0.103	0.217
-676.178	156.397	0.055	0.075
-675.164	-48.796	0.120	0.058
-674.149	-85.490	-0.375	0.117
-673.135	-86.904	-0.273	-0.083
-672.120	-17.861	0.086	0.054
-671.105	52.269	0.211	0.201
-670.091	-164.036	-0.430	0.020
-669.076	362.110	-0.089	-0.178
-668.062	310.977	0.095	-0.178
-667.047	179.472	0.119	-0.174
-666.032	-40.950	-0.373	0.192
-665.018	180.154	-0.074	-0.108
-664.003	-60.150	0.120	0.051
-662.989	52.026	-0.195	0.185
-661.974	-77.990	-0.258	0.089
-660.959	-200.000	-0.005	-0.087
-659.945	222.975	0.223	0.358
-658.930	-144.270	0.025	0.002
-657.916	-200.000	-0.019	-0.087
-656.901	25.940	-0.190	-0.158
-655.886	43.402	-0.190	0.173
-654.872	-81.298	-0.061	0.020
-653.857	203.335	-0.067	-0.104
-652.843	243.322	-0.132	-0.221
-651.828	-95.456	-0.233	0.062
-650.814	-62.977	0.163	-0.067
-649.799	164.812	-0.084	-0.119
-648.784	781.229	-0.028	-0.076
-647.770	282.547	-0.087	-0.155
-646.755	3.183	0.092	0.067
-645.741	111.813	0.050	0.060
-644.726	-200.000	0.013	0.238
-643.711	-99.903	-0.147	-0.037
-642.697	-35.570	-0.271	0.146
-641.682	22.393	-0.032	0.026
-640.668	-89.572	0.267	-0.078
-639.653	-200.000	0.044	0.249
-638.638	-200.000	0.012	0.080
-637.624	-152.539	0.231	0.016
-636.609	-47.642	-0.220	-0.106
-635.595	219.321	0.107	0.171
-634.580	-200.000	0.006	0.193
-633.565	-200.000	0.010	-0.095
-632.551	14.845	0.300	0.234
-631.536	666.380	-0.103	0.266
-630.522	-107.515	-0.324	-0.071
-629.507	-50.954	0.169	0.079
-628.492	-66.128	-0.191	0.076
-627.478	79.917	0.320	0.342
-626.463	-88.061	-0.248	0.074
-625.449	800.000	-0.107	-0.300
-624.434	800.000	-0.088	0.254
-623.419	135.933	-0.129	0.167
-622.405	17.126	-0.103	0.081
-621.390	-41.235	0.179	0.092
-620.376	800.000	-0.097	0.294
-619.361	-138.307	-0.208	0.023
-618.346	185.351	-0.199	-0.294
-617.332	67.285	0.120	-0.121
-616.317	48.295	0.139	0.129
-615.303	122.292	0.156	-0.194
-614.288	-61.748	-0.320	0.133
-613.273	800.000	-0.073	0.213
-612.259	-136.585	-0.269	0.031
-611.244	800.000	0.035	-0.130
-610.230	800.000	-0.139	0.401
-609.215	32.019	-0.070	0.060
-608.201	800.000	0.059	-0.215
-607.186	800.000	-0.136	-0.438
-606.171	94.069	0.065	-0.073
-605.157	749.951	0.052	0.139
-604.142	167.936	0.082	-0.115
-603.128	77.458	-0.041	0.044
-602.113	222.934	0.218	0.350
-601.098	218.982	-0.166	-0.264
-600.084	90.471	0.109	0.121
-599.069	-61.050	0.012	0.005
-598.055	329.349	0.162	-0.311
-597.040	-200.000	-0.032	0.211
-596.025	-54.995	0.199	0.089
-595.011	-109.696	-0.267	-0.056
-593.996	122.606	0.124	-0.155
-592.982	-102.202	0.203	0.049
-591.967	72.168	-0.132	0.136
-590.952	-107.027	-0.287	0.063
-589.938	-126.601	0.407	0.060
-588.923	-184.347	0.100	-0.002
-587.909	199.236	0.187	0.285
-586.894	47.114	-0.117	-0.108
-585.879	464.338	-0.054	-0.120
-584.865	781.933	0.073	0.198
-583.850	1.326	0.223	0.159
-582.836	409.179	0.103	-0.217
-581.821	-67.541	0.047	-0.018
-580.806	-104.969	-0.424	0.097
-579.792	-19.238	-0.168	0.104
-578.777	-200.000	-0.049	-0.230
-577.763	140.542	-0.021	0.027
-576.748	133.073	-0.288	0.370
-575.733	-117.391	0.237	0.043
-574.719	22.354	-0.270	0.220
-573.704	19.714	-0.052	0.042
-572.690	-134.955	0.112	-0.014
-571.675	4.185	0.106	0.077
-570.661	-151.098	0.205	0.015
-569.646	-142.621	-0.202	-0.020
-568.631	30.390	0.118	-0.100
-567.617	-109.291	0.353	-0.074
-566.602	119.089	-0.140	-0.173
-565.588	141.435	-0.081	-0.107
-564.573	161.343	-0.112	-0.156
-563.558	248.069	-0.239	-0.402
-562.544	-104.594	0.094	-0.022
-561.529	300.053	0.163	0.299
-560.515	-61.952	0.349	0.145
-559.500	69.819	-0.340	0.349
-558.485	-94.812	0.088	0.024
-557.471	800.000	0.094	0.339
-556.456	-136.762	0.365	0.042
-555.442	-162.634	-0.260	-0.013
-554.427	69.884	-0.112	-0.114
-553.412	-153.742	0.029	0.002
-552.398	-113.788	0.159	-0.031
-551.383	-200.000	0.005	0.031
-550.369	-74.338	0.075	-0.027
-549.354	-0.031	-0.305	0.216
-548.339	800.000	-0.100	0.285
-547.325	-28.946	0.200	0.114
-546.310	-200.000	-0.007	0.320
-545.296	-115.717	0.100	0.019
-544.281	86.389	0.136	-0.149
-543.266	-104.871	0.271	-0.062
-542.252	26.741	-0.305	-0.253
-541.237	-200.000	0.023	-0.116
-540.223	-91.458	0.312	0.089
-539.208	-200.000	-0.019	-0.398
-538.193	65.650	0.264	-0.266
-537.179	-200.000	-0.002	-0.188
-536.164	-125.688	0.380	-0.057
-535.150	309.240	0.225	-0.418
-534.135	224.740	0.109	-0.174
-533.121	-18.492	-0.288	-0.178
-532.106	-144.326	-0.175	0.016
-531.091	112.622	0.050	-0.061
-530.077	-3.582	0.069	0.047
-529.062	-42.431	-0.335	-0.169
-528.048	800.000	-0.096	0.276
-527.033	-9.632	0.213	-0.141
-526.018	139.970	-0.284	0.372
-525.004	800.000	0.015	0.054
-523.989	49.535	-0.172	0.161
-522.975	-200.000	0.001	0.219
-521.960	76.267	0.287	-0.302
-520.945	-6.676	0.175	0.118
-519.931	-7.366	0.230	-0.155
-518.916	-102.803	-0.194	0.046
-517.902	-200.000	0.032	0.202
-516.887	26.985	0.417	0.347
-515.872	800.000	-0.087	0.275
-514.858	800.000	0.062	-0.242
-513.843	-200.000	-0.017	0.215
-512.829	-126.095	-0.073	0.011
-511.814	271.056	0.229	0.400
-510.799	88.275	-0.122	-0.134
-509.785	400.463	-0.093	-0.193
-508.770	567.797	-0.092	-0.221
-507.756	-200.000	-0.036	0.229
-506.741	114.332	-0.113	0.137
-505.726	-200.000	-0.061	-0.418
-504.712	-200.000	0.058	0.325
-503.697	85.813	-0.254	-0.277
-502.683	800.000	-0.069	-0.246
-501.668	-27.335	-0.108	0.062
-500.653	237.504	-0.086	0.142
-499.639	-200.000	0.020	0.102
-498.624	800.000	0.040	-0.170
-497.610	-116.372	-0.047	0.009
-496.595	700.338	-0.072	-0.189
-495.581	800.000	-0.059	0.167
-494.566	-15.642	-0.197	-0.125
-493.551	-200.000	-0.015	-0.155
-492.537	-200.000	-0.017	-0.103
-491.522	12.230	0.290	-0.221
-490.508	-88.505	-0.267	-0.079
-489.493	164.356	0.128	0.179
-488.478	0.206	-0.099	0.070
-487.464	737.057	-0.064	0.171
-486.449	681.583	-0.080	0.206
-485.435	800.000	-0.052	0.145
-484.420	-66.347	0.221	0.087
-483.405	-85.064	-0.134	0.042
-482.391	-94.679	-0.301	0.081
-481.376	243.378	-0.162	-0.268
-480.362	-140.679	0.272	0.028
-479.347	189.600	0.015	0.023
-478.332	800.000	0.058	-0.190
-477.318	763.495	0.103	0.276
-476.303	-161.528	0.057	0.003
-475.289	365.802	-0.211	-0.420
-474.274	-119.324	0.124	0.021
-473.259	151.949	-0.057	-0.078
-472.245	-141.510	-0.232	0.023
-471.230	82.015	-0.303	0.325
-470.216	-40.328	-0.151	0.078
-469.201	800.000	0.026	0.100
-468.186	3.596	0.203	-0.147
-467.172	-143.207	-0.290	0.028
-466.157	-65.222	0.241	-0.096
-465.143	-14.877	0.131	0.083
-464.128	130.546	0.011	0.014
-463.113	717.820	0.049	-0.129
-462.099	800.000	-0.121	-0.387
-461.084	676.068	0.145	-0.372
-460.070	-59.911	0.210	-0.089
-459.055	-53.592	-0.327	0.148
-458.040	128.629	0.111	0.140
-457.026	-44.253	-0.107	-0.053
-456.011	-200.000	-0.008	-0.076
-454.997	60.587	-0.161	0.158
-453.982	202.133	-0.167	0.255
-452.968	223.719	-0.130	-0.207
-451.953	57.837	-0.307	0.297
-450.938	-200.000	0.023	0.385
-449.924	272.576	-0.074	-0.129
-448.909	-200.000	0.019	0.124
-447.895	176.006	-0.102	0.147
-446.880	135.340	0.036	0.046
-445.865	93.065	0.205	-0.229
-444.851	-167.417	-0.524	0.021
-443.836	-67.916	0.103	-0.040
-442.822	-200.000	-0.033	0.205
-441.807	215.937	0.077	-0.121
-440.792	19.502	-0.391	-0.311
-439.778	-65.465	-0.449	0.179
-438.763	-200.000	-0.011	-0.183
-437.749	-156.987	0.242	0.015
-436.734	150.186	0.086	-0.115
-435.719	-71.103	0.333	0.124
-434.705	-56.925	0.225	0.098
-433.690	612.460	0.057	0.140
-432.676	-64.960	-0.060	0.024
-431.661	230.573	0.138	0.223
-430.646	124.566	-0.090	-0.112
-429.632	-200.000	-0.029	-0.131
-428.617	509.697	0.052	0.120
-427.603	52.726	0.155	0.146
-426.588	-200.000	0.018	0.095
-425.573	506.052	0.066	-0.151
-424.559	-169.427	0.394	0.014
-423.544	236.342	-0.015	0.024
-422.530	-200.000	0.029	-0.334
-421.515	800.000	0.149	-0.451
-420.500	800.000	-0.035	0.096
-419.486	704.014	-0.042	0.109
-418.471	-64.145	-0.245	-0.099
-417.457	59.410	-0.007	-0.007
-416.442	617.051	-0.089	-0.220
-415.428	-200.000	-0.034	0.178
-414.413	722.464	-0.070	-0.185
-413.398	-123.651	-0.264	-0.041
-412.384	729.751	-0.112	-0.295
-411.369	-200.000	0.013	-0.200
-410.355	-80.207	-0.249	-0.082
-409.340	800.000	-0.084	0.231
-408.325	-185.575	0.238	-0.004
-407.311	169.869	0.101	-0.143
-406.296	112.852	0.111	-0.133
-405.282	32.317	0.188	-0.160
-404.267	-75.484	-0.192	-0.067
-403.252	-46.682	0.142	0.069
-402.238	-200.000	-0.034	0.270
-401.223	-40.551	0.089	-0.046
-400.209	-96.102	0.299	-0.079
-399.194	-9.559	-0.162	0.107
-398.179	-131.455	0.154	-0.020
-397.165	210.329	-0.149	-0.231
-396.150	-98.333	0.380	-0.096
-395.136	-35.978	-0.302	0.161
-394.121	59.645	0.154	0.150
-393.106	305.719	-0.027	-0.050
-392.092	-156.304	0.029	-0.002
-391.077	120.264	-0.313	-0.383
-390.063	-97.166	-0.401	0.103
-389.048	800.000	0.038	0.107
-388.033	-128.378	-0.152	-0.021
-387.019	659.620	0.113	0.287
-386.004	-200.000	0.054	0.275
-384.990	-79.880	-0.187	-0.062
-383.975	-154.165	0.198	0.013
-382.960	71.349	0.263	0.270
-381.946	-13.867	0.082	-0.052
-380.931	89.451	-0.319	-0.351
-379.917	-146.358	-0.179	-0.015
-378.902	-200.000	-0.029	0.152
-377.888	-63.281	-0.343	-0.139
-376.873	-124.224	0.156	0.024
-375.858	-148.960	-0.084	-0.007
-374.844	-166.919	0.083	-0.003
-373.829	425.622	0.074	-0.158
-372.815	-200.000	-0.017	-0.175
-371.800	-127.860	-0.395	-0.056
-370.785	-99.119	0.101	-0.025
-369.771	800.000	-0.118	0.321
-368.756	-66.228	-0.133	-0.052
-367.742	242.610	-0.202	0.334
-366.727	48.803	-0.395	0.365
-365.712	-29.654	-0.111	-0.063
-364.698	-200.000	0.011	0.160
-363.683	597.762	-0.164	-0.402
-362.669	224.765	-0.120	-0.192
-361.654	-79.860	0.170	0.056
-360.639	-88.282	-0.151	-0.044
-359.625	-200.000	-0.002	-0.314
-358.610	135.678	0.090	-0.115
-357.596	-79.799	-0.047	0.015
-356.581	-78.205	0.059	-0.020
-355.566	498.047	-0.088	0.200
-354.552	183.725	0.198	-0.289
-353.537	9.051	0.121	-0.090
-352.523	-62.259	-0.280	0.115
-351.508	-29.374	0.321	-0.181
-350.493	167.822	0.047	-0.066
-349.479	202.671	0.113	0.172
-348.464	-200.000	-0.027	-0.232
-347.450	-200.000	-0.015	-0.090
-346.435	96.190	0.186	0.209
-345.420	145.391	0.109	-0.144
-344.406	76.972	0.142	0.149
-343.391	247.434	-0.091	0.151
-342.377	-58.521	0.202	0.086
-341.362	-200.000	0.000	-0.217
-340.348	19.704	-0.175	-0.139
-339.333	-58.624	0.186	-0.079
-338.318	-105.149	0.091	0.021
-337.304	304.647	-0.133	0.244
-336.289	-32.182	-0.136	0.075
-335.275	-50.224	0.064	0.030
-334.260	-75.401	0.179	-0.063
-333.245	535.007	0.044	0.104
-332.231	-50.549	0.363	0.168
-331.216	-200.000	0.038	-0.186
-330.202	93.123	0.117	0.130
-329.187	-68.428	-0.035	0.013
-328.172	-116.457	0.126	-0.023
-327.158	800.000	0.041	-0.162
-326.143	800.000	0.101	-0.367
-325.129	280.653	0.110	0.194
-324.114	45.523	-0.041	0.037
-323.099	112.130	0.192	0.229
-322.085	223.883	0.108	0.172
-321.070	-195.684	0.354	-0.003
-320.056	-200.000	-0.020	-0.105
-319.041	267.004	0.104	0.178
-318.026	-141.605	0.357	-0.035
-317.012	-177.916	0.221	0.005
-315.997	800.000	0.084	-0.238
-314.983	-98.837	0.259	-0.065
-313.968	-200.000	0.011	0.082
-312.953	114.534	0.231	0.277
-311.939	-116.652	-0.146	0.026
-310.924	800.000	-0.090	-0.353
-309.910	-66.550	-0.260	-0.102
-308.895	-108.027	-0.220	-0.047
-307.880	-76.848	-0.082	-0.028
-306.866	-200.000	-0.033	0.194
-305.851	-200.000	0.026	0.269
-304.837	44.162	0.081	0.073
-303.822	15.361	0.097	0.075
-302.807	4.015	0.149	-0.107
-301.793	341.716	-0.111	-0.214
-300.778	13.974	-0.054	0.041
-299.764	206.998	0.131	0.201
-298.749	-200.000	-0.010	-0.060
-297.735	414.840	0.053	0.112
-296.720	320.315	0.115	0.214
-295.705	-95.708	-0.184	0.048
-294.691	-183.250	0.086	-0.001
-293.676	-200.000	0.003	-0.213
-292.662	-125.492	-0.153	-0.023
-291.647	-79.456	0.302	0.100
-290.632	62.848	-0.169	-0.166
-289.618	380.278	0.048	0.096
-288.603	-114.524	0.184	-0.035
-287.589	-90.515	-0.142	-0.040
-286.574	222.418	-0.118	0.187
-285.559	-88.769	0.176	0.051
-284.545	123.622	-0.157	0.194
-283.530	117.786	-0.055	0.066
-282.516	319.152	-0.178	-0.332
-281.501	55.794	-0.010	-0.010
-280.486	6.537	0.351	0.256
-279.472	267.940	-0.206	-0.355
-278.457	35.906	0.101	-0.087
-277.443	-80.772	0.450	0.147
-276.428	-200.000	-0.006	-0.103
-275.413	132.233	0.136	0.172
-274.399	-200.000	-0.035	-0.311
-273.384	-200.000	-0.037	-0.360
-272.370	15.075	-0.196	-0.151
-271.355	800.000	0.018	0.048
-270.340	42.682	0.262	0.234
-269.326	42.640	0.088	0.079
-268.311	50.371	-0.294	-0.273
-267.297	530.867	-0.141	-0.328
-266.282	37.918	-0.194	0.169
-265.267	-200.000	-0.051	-0.235
-264.253	128.036	-0.090	-0.112
-263.238	-102.910	0.156	0.036
-262.224	148.308	-0.150	-0.199
-261.209	238.944	0.062	0.102
-260.195	101.767	0.142	-0.162
-259.180	-200.000	0.002	0.186
-258.165	-34.566	0.027	0.015
-257.151	334.662	-0.136	-0.258
-256.136	800.000	0.048	-0.179
-255.122	715.776	0.073	-0.191
-254.107	253.468	0.205	-0.343
-253.092	478.332	0.069	0.153
-252.078	-3.221	0.226	-0.155
-251.063	185.646	-0.158	-0.231
-250.049	800.000	0.050	0.185
-249.034	-133.905	0.218	-0.027
-248.019	800.000	-0.068	-0.206
-247.005	-82.390	0.182	0.058
-245.990	800.000	0.010	-0.041
-244.976	-200.000	0.010	-0.338
-243.961	-200.000	0.013	-0.192
-242.946	-138.033	-0.186	-0.020
-241.932	-15.995	0.269	-0.168
-240.917	800.000	0.079	-0.286
-239.903	-22.363	0.189	0.112
-238.888	-130.059	0.037	-0.005
-237.873	80.239	0.173	0.182
-236.859	-115.517	0.292	-0.054
-235.844	357.849	-0.032	0.063
-234.830	784.750	0.024	-0.064
-233.815	-12.936	-0.057	-0.036
-232.800	48.431	-0.028	0.026
-231.786	800.000	0.108	0.354
-230.771	-18.109	-0.053	0.032
-229.757	800.000	-0.062	-0.228
-228.742	-46.133	-0.190	0.092
-227.727	325.805	-0.089	0.167
-226.713	800.000	-0.106	-0.311
-225.698	-121.192	0.480	0.079
-224.684	-33.474	-0.147	0.080
-223.669	144.400	-0.143	0.188
-222.655	-148.755	0.130	-0.010
-221.640	501.632	0.063	0.142
-220.625	-142.029	-0.113	-0.011
-219.611	-146.067	0.302	-0.026
-218.596	119.682	-0.028	0.034
-217.582	87.138	-0.049	-0.053
-216.567	-200.000	0.021	-0.179
-215.552	499.399	-0.033	-0.075
-214.538	-59.055	0.163	-0.069
-213.523	-41.023	-0.282	-0.143
-212.509	-143.170	0.123	0.012
-211.494	-15.865	0.127	-0.079
-210.479	-81.161	0.076	-0.025
-209.465	34.609	0.094	0.081
-208.450	-200.000	-0.011	0.132
-207.436	-87.941	0.251	-0.074
-206.421	-105.244	-0.147	-0.033
-205.406	-170.908	-0.195	0.007
-204.392	180.131	-0.133	0.190
-203.377	-81.643	0.363	-0.117
-202.363	157.568	-0.106	0.144
-201.348	-95.764	0.317	0.083
-200.333	-200.000	0.034	-0.161
-199.319	-45.368	-0.051	-0.025
-198.304	761.366	0.052	0.138
-197.290	147.374	-0.141	-0.186
-196.275	651.591	-0.058	-0.146
-195.260	-86.559	0.107	-0.032
-194.246	-200.000	0.040	0.417
-193.231	-157.824	-0.207	0.012
-192.217	-145.000	-0.242	0.022
-191.202	-194.927	-0.098	-0.001
-190.187	144.389	-0.105	-0.138
-189.173	-200.000	0.005	-0.050
-188.158	-13.519	-0.117	0.074
-187.144	174.437	-0.115	0.163
-186.129	-200.000	-0.015	0.314
-185.114	14.625	-0.048	0.037
-184.100	800.000	-0.055	0.201
-183.085	108.743	-0.113	0.132
-182.071	10.036	0.215	0.160
-181.056	800.000	0.042	0.170
-180.042	541.011	-0.125	-0.291
-179.027	59.353	-0.061	-0.059
-178.012	-200.000	0.013	0.231
-176.998	-98.689	0.157	0.039
-175.983	128.742	-0.073	0.091
-174.969	73.990	-0.069	-0.071
-173.954	248.688	-0.080	-0.133
-172.939	-200.000	-0.004	-0.236
-171.925	-23.492	-0.222	-0.130
-170.910	66.583	-0.229	-0.228
-169.896	-200.000	-0.009	0.090
-168.881	297.740	-0.166	0.298
-167.866	454.017	0.068	0.147
-166.852	97.602	-0.088	-0.099
-165.837	206.275	-0.108	-0.164
-164.823	-200.000	0.035	0.266
-163.808	51.931	0.092	-0.086
-162.793	-193.102	0.221	-0.002
-161.779	-200.000	0.017	-0.086
-160.764	-116.180	-0.052	0.010
-159.750	-200.000	0.046	-0.223
-158.735	-118.672	0.082	-0.014
-157.720	-200.000	-0.004	-0.154
-156.706	293.027	-0.061	0.108
-155.691	-146.374	-0.174	0.015
-154.677	800.000	-0.148	0.428
-153.662	-156.508	0.189	-0.012
-152.647	-113.160	-0.353	-0.068
-151.633	99.636	-0.151	0.171
-150.618	321.565	0.243	0.453
-149.604	727.599	-0.076	-0.198
-148.589	59.773	-0.210	-0.203
-147.574	-52.944	-0.160	-0.072
-146.560	683.988	-0.056	-0.142
-145.545	-15.456	0.356	0.222
-144.531	-105.411	0.097	0.022
-143.516	21.195	-0.182	0.145
-142.502	-200.000	0.010	-0.253
-141.487	-78.815	-0.181	0.060
-140.472	104.499	-0.055	-0.064
-139.458	21.331	0.291	0.231
-138.443	555.250	0.105	-0.248
-137.429	130.420	-0.026	-0.032
-136.414	800.000	-0.056	0.224
-135.399	264.581	0.047	0.080
-134.385	-72.293	0.223	0.081
-133.370	-170.827	-0.370	-0.012
-132.356	-200.000	-0.024	-0.160
-131.341	2.184	-0.226	0.160
-130.326	57.265	0.173	0.165
-129.312	-200.000	-0.049	-0.220
-128.297	-195.367	0.183	-0.001
-127.283	577.363	-0.131	-0.312
-126.268	173.765	-0.128	0.180
-125.253	-97.217	0.329	-0.084
-124.239	-35.234	0.020	-0.011
-123.224	722.448	0.033	-0.085
-122.210	-102.819	-0.077	0.018
-121.195	27.936	-0.460	0.379
