DTS Sentinel unit serial number:	SN413079Multiplexer serial number:	ORYXHardware model number:	OX4-SRSoftware version number:	ORYX F/W v4.00 Oryx Data Collector v3.7.2.0data status	okinstallation	princeton_trtdifferential loss correction	single-endedforward channel	channel 3reverse channel	N/Adate	2019/09/18time	13:48:35forward acquisition time	60.00reverse acquisition time	0.00gamma	496.2192k internal	0.2310k external	0.2310temperature offset calibration	0.9972default loss term (dB/km)	0.3790temperature slope calibration	1.0000multiplexer offset coefficient	1.0000multiplexer slope coefficient	1.0000fibre end	0.00T internal ref (°C)	34.50T ext. ref 1 (°C)	0.64T ext. ref 2 (°C)	29.99length (m)	temperature (°C)	Stokes	anti-Stokes-747.200	-73.576	-0.147	-0.054
-746.185	299.281	-0.109	0.204
-745.171	112.450	-0.145	0.178
-744.156	800.000	-0.035	-0.139
-743.142	-200.000	-0.003	0.177
-742.127	1.706	-0.011	-0.008
-741.112	-131.397	0.172	-0.023
-740.098	800.000	-0.119	0.422
-739.083	2.310	0.181	-0.133
-738.069	-31.238	-0.077	0.044
-737.054	-200.000	-0.016	0.130
-736.039	76.349	-0.108	-0.116
-735.025	-8.520	0.431	-0.294
-734.010	81.525	0.019	0.021
-732.996	800.000	-0.048	-0.164
-731.981	-103.153	0.321	0.077
-730.966	-85.276	-0.277	0.088
-729.952	25.083	-0.314	-0.264
-728.937	-68.330	-0.205	-0.081
-727.923	800.000	-0.072	-0.266
-726.908	107.617	-0.218	-0.263
-725.894	182.520	0.100	-0.150
-724.879	170.328	-0.037	-0.054
-723.864	-143.042	0.397	0.039
-722.850	-200.000	0.014	-0.101
-721.835	-137.216	-0.078	-0.009
-720.821	-93.263	-0.102	0.029
-719.806	135.902	-0.269	-0.356
-718.791	296.092	-0.127	0.236
-717.777	-31.055	0.095	-0.054
-716.762	-46.254	0.222	0.111
-715.748	-200.000	-0.018	0.180
-714.733	-82.294	-0.311	-0.103
-713.718	-39.098	-0.017	0.009
-712.704	-125.494	0.369	-0.057
-711.689	-39.618	-0.207	0.110
-710.675	-56.565	-0.241	-0.108
-709.660	316.042	-0.103	0.197
-708.645	-71.697	0.228	0.086
-707.631	-200.000	0.030	-0.277
-706.616	-200.000	0.027	0.260
-705.602	800.000	-0.034	0.115
-704.587	-122.899	0.212	0.035
-703.572	716.566	0.148	-0.397
-702.558	-108.293	-0.145	0.032
-701.543	-128.080	-0.329	0.048
-700.529	-127.826	0.134	-0.020
-699.514	123.132	-0.299	-0.379
-698.499	-200.000	-0.045	-0.207
-697.485	-88.010	0.249	-0.076
-696.470	-5.868	0.119	0.082
-695.456	-56.680	-0.211	-0.095
-694.441	225.035	-0.100	-0.164
-693.426	197.813	-0.212	-0.327
-692.412	132.916	0.188	0.245
-691.397	66.890	0.039	0.040
-690.383	-162.651	0.082	0.004
-689.368	-37.972	-0.238	0.128
-688.354	319.287	-0.079	-0.151
-687.339	-200.000	-0.019	-0.145
-686.324	-137.152	0.161	-0.019
-685.310	800.000	-0.020	0.064
-684.295	13.520	0.152	0.120
-683.281	-90.341	-0.440	-0.129
-682.266	-94.605	-0.155	-0.043
-681.251	-200.000	0.033	-0.259
-680.237	-90.627	-0.157	0.046
-679.222	-130.983	-0.103	-0.014
-678.208	608.373	0.034	-0.086
-677.193	-34.305	-0.172	-0.096
-676.178	-113.754	0.335	-0.066
-675.164	-76.031	-0.452	-0.162
-674.149	80.859	0.081	0.088
-673.135	188.255	-0.117	-0.177
-672.120	800.000	-0.032	-0.111
-671.105	105.615	0.073	0.087
-670.091	96.565	-0.159	0.184
-669.076	-10.082	-0.166	0.112
-668.062	-200.000	-0.066	-0.298
-667.047	-200.000	0.046	0.534
-666.032	570.786	-0.112	0.276
-665.018	-200.000	-0.001	-0.035
-664.003	-200.000	-0.047	0.215
-662.989	-76.347	0.114	-0.040
-661.974	257.196	0.162	0.282
-660.959	163.064	-0.037	0.053
-659.945	35.342	-0.029	0.026
-658.930	-5.496	0.211	-0.147
-657.916	2.251	0.135	-0.099
-656.901	251.942	-0.172	-0.296
-655.886	68.971	0.136	0.141
-654.872	529.220	0.068	0.164
-653.857	361.363	0.041	0.082
-652.843	800.000	0.158	-0.485
-651.828	-200.000	-0.001	0.034
-650.814	52.566	-0.108	0.104
-649.799	131.693	-0.232	-0.301
-648.784	-200.000	-0.021	-0.178
-647.770	-57.173	0.171	-0.076
-646.755	21.126	-0.154	-0.126
-645.741	-200.000	0.025	0.284
-644.726	655.381	-0.087	-0.225
-643.711	103.158	0.102	-0.121
-642.697	53.103	-0.100	-0.097
-641.682	-63.624	-0.174	-0.072
-640.668	-125.038	-0.217	0.034
-639.653	-69.528	0.200	0.077
-638.638	17.953	0.071	0.057
-637.624	-200.000	0.011	-0.306
-636.609	-200.000	-0.016	-0.208
-635.595	31.496	0.051	0.044
-634.580	514.299	-0.064	0.152
-633.565	-200.000	0.005	-0.133
-632.551	-138.525	-0.137	-0.015
-631.536	-21.049	-0.050	-0.031
-630.522	145.885	0.132	0.179
-629.507	800.000	-0.063	0.229
-628.492	39.297	0.447	-0.405
-627.478	515.058	-0.104	0.246
-626.463	-102.616	0.237	-0.057
-625.449	-118.243	-0.332	-0.060
-624.434	174.356	0.103	-0.150
-623.419	138.306	-0.177	-0.235
-622.405	-163.907	0.291	0.014
-621.390	110.380	-0.179	-0.217
-620.376	-41.912	0.117	-0.061
-619.361	100.696	-0.161	-0.189
-618.346	99.901	0.126	0.148
-617.332	-3.809	0.190	0.134
-616.317	-152.921	0.087	-0.006
-615.303	-169.138	-0.228	0.009
-614.288	114.199	-0.071	-0.087
-613.273	26.755	0.162	0.137
-612.259	-200.000	-0.037	0.358
-611.244	-38.594	-0.275	0.147
-610.230	-114.327	-0.138	0.027
-609.215	800.000	0.043	-0.125
-608.201	800.000	0.039	-0.119
-607.186	53.469	-0.109	0.105
-606.171	-132.953	-0.204	0.026
-605.157	-200.000	-0.025	0.322
-604.142	-137.930	0.243	0.027
-603.128	-120.745	-0.254	-0.043
-602.113	37.997	-0.104	-0.093
-601.098	182.768	0.181	-0.270
-600.084	145.668	0.088	0.119
-599.069	97.893	0.085	-0.098
-598.055	-126.581	0.298	-0.045
-597.040	163.581	0.031	0.044
-596.025	48.663	-0.273	-0.258
-595.011	-200.000	0.005	-0.088
-593.996	37.238	-0.256	-0.229
-592.982	800.000	0.044	-0.122
-591.967	-200.000	-0.005	-0.180
-590.952	787.148	-0.066	0.184
-589.938	494.497	0.111	-0.257
-588.923	197.638	0.072	0.110
-587.909	-16.364	0.163	0.105
-586.894	-200.000	-0.058	0.000
-585.879	341.838	-0.142	0.279
-584.865	-13.554	-0.285	0.186
-583.850	-3.334	-0.226	0.159
-582.836	35.648	-0.162	-0.144
-581.821	186.639	0.032	-0.048
-580.806	-53.825	0.301	0.138
-579.792	-200.000	0.035	0.222
-578.777	-65.469	-0.156	0.063
-577.763	92.383	-0.089	-0.102
-576.748	153.828	-0.113	0.156
-575.733	52.922	-0.164	0.158
-574.719	123.320	-0.036	-0.045
-573.704	-57.194	-0.020	0.009
-572.690	150.289	0.104	0.142
-571.675	-71.677	0.203	-0.076
-570.661	-96.562	0.139	0.037
-569.646	9.945	-0.035	0.026
-568.631	-200.000	0.026	-0.318
-567.617	146.353	-0.181	-0.245
-566.602	-72.690	0.193	-0.072
-565.588	124.147	-0.093	-0.117
-564.573	-88.920	0.135	-0.040
-563.558	61.814	-0.259	0.260
-562.544	82.757	0.131	0.143
-561.529	-200.000	0.005	0.292
-560.515	-200.000	0.017	-0.289
-559.500	-46.447	0.253	0.125
-558.485	233.851	0.192	0.319
-557.471	22.370	0.134	0.110
-556.456	20.770	0.124	-0.101
-555.442	-66.703	0.047	0.019
-554.427	7.836	0.311	0.235
-553.412	483.413	-0.074	0.168
-552.398	-92.405	0.242	-0.069
-551.383	522.228	-0.013	0.030
-550.369	-200.000	-0.005	-0.177
-549.354	354.871	0.061	-0.123
-548.339	-133.743	0.110	-0.014
-547.325	-200.000	-0.020	-0.182
-546.310	-117.772	0.240	-0.043
-545.296	11.722	-0.185	-0.143
-544.281	2.372	-0.214	0.156
-543.266	208.384	-0.063	0.099
-542.252	-91.102	-0.300	0.087
-541.237	-5.916	0.234	0.161
-540.223	-4.351	0.111	-0.077
-539.208	34.947	-0.192	0.169
-538.193	-200.000	0.027	0.135
-537.179	-47.078	0.216	-0.106
-536.164	-5.273	-0.153	-0.106
-535.150	-157.751	0.542	0.032
-534.135	243.410	0.174	-0.294
-533.121	-58.819	0.264	-0.115
-532.106	-99.634	-0.446	-0.113
-531.091	82.268	0.204	-0.223
-530.077	800.000	0.067	-0.215
-529.062	-41.327	-0.210	-0.109
-528.048	-80.654	-0.135	-0.045
-527.033	-200.000	-0.022	-0.319
-526.018	148.766	0.101	0.137
-525.004	41.082	0.119	0.108
-523.989	-200.000	0.045	0.286
-522.975	-62.716	0.146	-0.061
-521.960	-67.655	0.150	0.059
-520.945	143.825	-0.036	-0.048
-519.931	-47.740	-0.153	-0.075
-518.916	79.979	0.260	0.281
-517.902	653.141	0.125	0.322
-516.887	303.765	0.168	0.313
-515.872	-71.241	-0.237	-0.089
-514.858	-49.426	0.108	0.052
-513.843	-38.071	-0.246	-0.132
-512.829	-65.455	-0.405	-0.164
-511.814	-200.000	-0.044	-0.197
-510.799	-200.000	0.008	0.156
-509.785	-200.000	-0.025	-0.155
-508.770	-200.000	-0.022	-0.157
-507.756	-200.000	0.003	-0.140
-506.741	123.700	-0.095	0.120
-505.726	12.416	-0.204	-0.158
-504.712	-200.000	-0.059	0.349
-503.697	380.137	-0.102	0.209
-502.683	297.730	-0.200	0.369
-501.668	93.443	-0.155	0.176
-500.653	-96.729	0.192	-0.051
-499.639	-96.628	-0.291	0.077
-498.624	33.711	0.068	-0.060
-497.610	-200.000	0.029	-0.170
-496.595	10.813	-0.269	-0.206
-495.581	-152.494	0.141	0.010
-494.566	270.694	0.087	-0.154
-493.551	172.589	-0.020	-0.028
-492.537	0.652	-0.147	0.106
-491.522	83.964	-0.103	-0.113
-490.508	-200.000	-0.024	0.322
-489.493	-97.391	0.101	0.027
-488.478	273.184	0.115	-0.204
-487.464	-136.536	-0.073	-0.009
-486.449	3.043	-0.102	0.074
-485.435	-63.463	0.167	0.069
-484.420	-134.619	0.353	0.043
-483.405	184.453	-0.210	-0.312
-482.391	17.603	-0.275	-0.219
-481.376	583.592	0.088	-0.218
-480.362	-200.000	0.008	0.064
-479.347	704.691	-0.020	-0.052
-478.332	26.638	0.113	0.095
-477.318	-200.000	-0.035	-0.228
-476.303	-67.986	-0.097	0.038
-475.289	-58.922	0.245	0.107
-474.274	-200.000	0.028	0.149
-473.259	-95.766	-0.200	0.054
-472.245	113.463	-0.254	0.310
-471.230	218.802	0.134	-0.215
-470.216	-186.900	0.028	-0.000
-469.201	116.198	-0.167	-0.205
-468.186	-71.795	-0.360	0.135
-467.172	-162.268	0.221	0.011
-466.157	-69.290	-0.113	-0.044
-465.143	-119.331	-0.088	-0.015
-464.128	84.637	0.147	0.161
-463.113	44.465	0.138	-0.127
-462.099	-85.031	-0.144	-0.045
-461.084	-75.337	0.467	-0.167
-460.070	-200.000	-0.004	0.066
-459.055	475.924	-0.201	-0.457
-458.040	97.523	-0.205	0.236
-457.026	-118.399	0.289	0.051
-456.011	295.174	-0.073	0.133
-454.997	-87.803	-0.214	-0.065
-453.982	401.587	0.078	0.165
-452.968	-84.441	0.269	0.085
-451.953	-142.812	-0.014	0.001
-450.938	800.000	-0.050	-0.209
-449.924	500.352	-0.114	-0.264
-448.909	-95.743	0.147	0.039
-447.895	257.407	-0.090	0.156
-446.880	177.423	0.173	-0.253
-445.865	-19.520	0.239	0.148
-444.851	-71.446	-0.101	-0.038
-443.836	773.619	-0.124	-0.341
-442.822	-31.253	-0.084	-0.048
-441.807	59.429	0.100	-0.099
-440.792	218.015	-0.050	-0.080
-439.778	-138.304	0.136	0.015
-438.763	800.000	0.032	-0.111
-437.749	-84.793	-0.305	-0.096
-436.734	-90.448	0.421	-0.122
-435.719	-117.023	0.104	0.019
-434.705	-200.000	0.037	-0.183
-433.690	1.632	0.083	0.060
-432.676	-100.947	0.059	-0.015
-431.661	26.145	0.274	0.229
-430.646	-200.000	-0.342	-0.001
-429.632	-40.327	-0.072	0.037
-428.617	-15.444	0.338	0.217
-427.603	-0.771	-0.319	-0.227
-426.588	800.000	-0.102	0.305
-425.573	-153.746	-0.057	0.004
-424.559	22.997	-0.106	-0.088
-423.544	112.917	0.176	0.213
-422.530	-100.639	-0.178	-0.044
-421.515	-105.428	-0.250	0.057
-420.500	800.000	0.040	0.163
-419.486	738.733	-0.045	-0.120
-418.471	303.837	0.103	0.192
-417.457	-200.000	0.000	-0.126
-416.442	-27.456	0.261	-0.152
-415.428	-40.765	0.469	-0.243
-414.413	800.000	-0.055	0.206
-413.398	10.005	-0.267	0.204
-412.384	-200.000	-0.033	0.216
-411.369	-93.767	-0.178	-0.049
-410.355	117.488	0.189	0.233
-409.340	-58.354	0.095	0.041
-408.325	83.520	0.169	-0.184
-407.311	800.000	0.057	-0.234
-406.296	800.000	-0.080	-0.331
-405.282	380.512	-0.053	-0.109
-404.267	-113.635	-0.456	-0.089
-403.252	676.365	0.057	-0.150
-402.238	78.745	0.172	-0.184
-401.223	580.607	0.087	-0.214
-400.209	800.000	-0.061	0.182
-399.194	-200.000	0.004	-0.214
-398.179	-200.000	0.046	0.276
-397.165	104.162	0.127	-0.150
-396.150	-200.000	-0.003	-0.223
-395.136	-48.344	-0.192	-0.093
-394.121	-140.120	0.269	-0.028
-393.106	230.829	-0.146	-0.239
-392.092	-18.407	0.103	0.064
-391.077	-102.885	-0.376	0.089
-390.063	464.630	-0.091	-0.203
-389.048	-12.163	0.107	-0.070
-388.033	-54.448	-0.202	-0.092
-387.019	312.062	0.072	0.136
-386.004	4.862	-0.273	-0.201
-384.990	-84.146	-0.063	-0.020
-383.975	52.848	0.411	0.394
-382.960	60.226	-0.236	0.233
-381.946	-90.269	-0.189	0.055
-380.931	-200.000	0.037	0.215
-379.917	-42.574	0.277	0.141
-378.902	-11.224	-0.331	-0.219
-377.888	523.346	-0.035	-0.082
-376.873	-90.215	-0.121	-0.035
-375.858	-200.000	-0.011	-0.141
-374.844	-16.260	0.097	0.062
-373.829	800.000	-0.125	-0.392
-372.815	-200.000	-0.005	-0.106
-371.800	-94.933	-0.130	0.035
-370.785	-96.513	0.336	0.089
-369.771	-33.037	-0.418	0.232
-368.756	93.408	0.147	0.167
-367.742	-200.000	0.050	-0.348
-366.727	166.708	0.026	-0.038
-365.712	-91.862	-0.331	0.094
-364.698	-200.000	0.305	-0.001
-363.683	-1.099	0.194	0.137
-362.669	463.411	0.153	-0.342
-361.654	226.073	-0.215	0.349
-360.639	-148.115	-0.309	0.026
-359.625	-200.000	0.007	-0.233
-358.610	-200.000	-0.032	-0.196
-357.596	-84.419	-0.264	0.083
-356.581	79.921	-0.211	0.227
-355.566	-200.000	-0.074	0.591
-354.552	-165.801	0.309	-0.013
-353.537	800.000	0.004	0.015
-352.523	-9.356	0.250	0.167
-351.508	-70.739	0.285	0.108
-350.493	-183.771	0.344	0.006
-349.479	16.224	0.072	0.057
-348.464	67.576	-0.017	0.017
-347.450	361.511	-0.084	0.168
-346.435	-200.000	-0.022	-0.098
-345.420	80.977	0.081	0.088
-344.406	-176.380	-0.122	0.003
-343.391	2.192	0.248	0.179
-342.377	210.571	0.186	-0.293
-341.362	166.254	0.079	-0.112
-340.348	-100.655	0.439	0.108
-339.333	19.683	-0.160	-0.129
-338.318	108.656	-0.149	0.178
-337.304	-200.000	0.040	0.279
-336.289	183.519	-0.149	-0.220
-335.275	780.983	-0.100	-0.274
-334.260	-22.229	0.341	0.207
-333.245	68.249	0.088	-0.091
-332.231	800.000	0.033	-0.124
-331.216	-200.000	0.033	0.270
-330.202	582.135	0.067	0.164
-329.187	372.199	-0.063	-0.127
-328.172	-137.030	-0.262	0.030
-327.158	-33.805	0.148	0.081
-326.143	182.120	0.142	-0.208
-325.129	-119.655	-0.144	-0.025
-324.114	-101.900	0.347	-0.084
-323.099	155.441	-0.087	-0.119
-322.085	-31.927	0.160	-0.090
-321.070	800.000	-0.065	0.284
-320.056	-200.000	0.035	-0.241
-319.041	-79.697	-0.218	0.073
-318.026	795.259	-0.114	-0.314
-317.012	-51.014	-0.207	0.097
-315.997	-65.039	-0.094	0.038
-314.983	442.425	-0.048	-0.105
-313.968	-200.000	-0.049	-0.248
-312.953	-1.752	0.188	0.132
-311.939	249.932	-0.194	0.328
-310.924	-69.666	0.139	-0.053
-309.910	0.247	-0.322	-0.230
-308.895	17.816	0.237	-0.188
-307.880	-147.125	-0.251	0.021
-306.866	-9.992	0.110	-0.073
-305.851	641.265	0.143	0.362
-304.837	-92.594	0.179	0.050
-303.822	-151.535	-0.065	0.005
-302.807	85.244	-0.129	-0.142
-301.793	-133.688	0.141	0.018
-300.778	-136.063	-0.240	0.028
-299.764	-180.635	0.324	-0.007
-298.749	-91.098	-0.178	-0.051
-297.735	-200.000	-0.002	-0.108
-296.720	800.000	0.113	-0.382
-295.705	800.000	-0.093	0.375
-294.691	-141.600	0.357	0.036
-293.676	-115.955	0.190	0.035
-292.662	-118.125	0.140	0.025
-291.647	800.000	0.028	0.090
-290.632	78.390	-0.050	-0.053
-289.618	152.964	0.232	0.317
-288.603	-91.906	0.177	-0.050
-287.589	481.790	0.203	-0.460
-286.574	-46.485	0.200	0.098
-285.559	800.000	-0.016	0.054
-284.545	-56.373	0.385	-0.170
-283.530	-200.000	-0.047	-0.283
-282.516	800.000	-0.056	0.179
-281.501	561.912	-0.075	-0.180
-280.486	800.000	-0.071	0.282
-279.472	88.249	-0.065	-0.072
-278.457	-154.896	-0.214	0.014
-277.443	-75.088	0.070	0.025
-276.428	-94.070	0.237	0.065
-275.413	51.473	0.106	0.100
-274.399	-73.776	-0.125	-0.045
-273.384	111.421	0.127	0.152
-272.370	18.147	-0.161	-0.128
-271.355	-74.816	0.101	-0.036
-270.340	-106.637	-0.194	0.043
-269.326	-25.219	-0.302	-0.178
-268.311	125.003	-0.087	0.109
-267.297	114.343	0.151	0.183
-266.282	683.747	-0.057	-0.147
-265.267	-200.000	-0.009	0.101
-264.253	800.000	0.156	0.497
-263.238	-60.939	-0.331	-0.139
-262.224	64.518	0.279	0.281
-261.209	-200.000	-0.003	0.143
-260.195	-200.000	-0.080	0.370
-259.180	800.000	-0.043	0.126
-258.165	-123.944	-0.114	0.018
-257.151	800.000	-0.037	-0.110
-256.136	40.661	0.080	0.072
-255.122	-200.000	-0.035	0.297
-254.107	32.634	0.153	0.132
-253.092	-200.000	-0.004	-0.025
-252.078	18.877	0.211	-0.168
-251.063	-200.000	-0.030	-0.190
-250.049	-200.000	-0.029	-0.129
-249.034	243.332	-0.124	0.208
-248.019	-32.227	0.291	0.162
-247.005	-200.000	0.017	0.242
-245.990	93.768	-0.254	-0.287
-244.976	-152.562	-0.283	-0.020
-243.961	-200.000	0.002	0.094
-242.946	220.686	-0.103	-0.164
-241.932	-119.025	-0.275	-0.048
-240.917	486.529	-0.109	-0.247
-239.903	327.298	0.154	-0.294
-238.888	-200.000	0.055	0.315
-237.873	-200.000	-0.011	0.055
-236.859	-40.779	0.386	0.199
-235.844	20.149	-0.079	-0.063
-234.830	800.000	0.037	-0.132
-233.815	-144.200	0.301	0.028
-232.800	199.282	-0.112	-0.170
-231.786	-200.000	0.102	-0.515
-230.771	-120.373	-0.272	0.046
-229.757	-92.712	-0.155	0.043
-228.742	396.718	-0.162	-0.336
-227.727	202.360	0.130	-0.200
-226.713	-57.906	-0.255	0.111
-225.698	-155.329	-0.284	-0.018
-224.684	-153.886	-0.228	0.016
-223.669	800.000	-0.053	-0.198
-222.655	-133.891	0.182	-0.023
-221.640	-200.000	-0.055	-0.321
-220.625	-35.947	-0.363	-0.195
-219.611	438.866	-0.104	-0.227
-218.596	800.000	0.053	-0.194
-217.582	-200.000	0.007	-0.143
-216.567	271.396	0.124	-0.218
-215.552	497.426	-0.039	-0.089
-214.538	-200.000	0.007	0.179
-213.523	-128.122	0.149	-0.021
-212.509	152.794	-0.192	0.260
-211.494	426.216	-0.083	0.179
-210.479	624.382	-0.133	0.332
-209.465	435.758	-0.115	0.248
-208.450	800.000	-0.055	0.208
-207.436	800.000	-0.049	0.184
-206.421	-7.066	0.048	0.033
-205.406	504.060	0.135	0.311
-204.392	795.868	0.088	-0.240
-203.377	-181.082	-0.109	0.002
-202.363	-83.075	-0.280	0.090
-201.348	-38.830	-0.277	0.145
-200.333	-18.639	0.294	0.182
-199.319	131.035	-0.140	-0.178
-198.304	800.000	0.054	-0.150
-197.290	-56.554	-0.263	-0.116
-196.275	322.015	0.109	0.207
-195.260	-69.113	-0.125	0.048
-194.246	128.854	0.112	0.142
-193.231	552.258	0.057	-0.137
-192.217	-56.254	0.109	0.048
-191.202	-148.625	0.168	0.014
-190.187	442.247	0.023	0.050
-189.173	-0.163	0.117	0.082
-188.158	104.916	-0.224	0.263
-187.144	224.092	0.084	0.134
-186.129	-124.598	0.289	-0.045
-185.114	-26.312	0.136	0.079
-184.100	32.626	0.208	-0.179
-183.085	-200.000	0.016	-0.271
-182.071	-31.175	-0.185	-0.104
-181.056	-121.937	0.087	-0.014
-180.042	-200.000	0.089	0.511
-179.027	-200.000	0.032	0.165
-178.012	-167.119	-0.380	0.015
-176.998	-16.325	0.167	0.106
-175.983	230.698	-0.148	-0.240
-174.969	-200.000	-0.019	-0.319
-173.954	-45.429	0.153	-0.075
-172.939	-200.000	-0.032	0.236
-171.925	423.709	0.111	-0.237
-170.910	800.000	0.104	0.375
-169.896	214.406	0.108	0.169
-168.881	768.307	-0.120	0.325
-167.866	442.448	-0.166	0.362
-166.852	-200.000	0.012	0.280
-165.837	-34.708	-0.101	-0.055
-164.823	349.998	0.140	0.275
-163.808	160.083	0.208	-0.288
-162.793	129.574	-0.013	0.017
-161.779	-200.000	-0.184	0.000
-160.764	-134.817	-0.054	-0.006
-159.750	800.000	0.075	-0.286
-158.735	43.603	-0.092	0.083
-157.720	-26.485	0.100	-0.058
-156.706	-200.000	-0.004	0.328
-155.691	-63.150	0.022	0.009
-154.677	-200.000	0.030	0.248
-153.662	-101.061	0.139	0.034
-152.647	-200.000	0.030	0.149
-151.633	-177.344	-0.149	-0.004
-150.618	-35.127	0.322	0.174
-149.604	28.871	0.022	-0.018
-148.589	-200.000	-0.040	0.000
-147.574	-28.935	0.036	-0.021
-146.560	486.334	-0.064	-0.144
-145.545	800.000	-0.038	-0.142
-144.531	81.209	0.225	0.241
-143.516	-200.000	-0.010	0.259
-142.502	-3.695	0.313	0.216
-141.487	315.968	-0.130	-0.243
-140.472	39.479	0.417	-0.371
-139.458	700.518	0.057	-0.148
-138.443	42.012	-0.172	-0.155
-137.429	203.830	-0.154	0.236
-136.414	-52.642	0.320	0.147
-135.399	600.378	0.092	0.227
-134.385	3.182	-0.135	-0.098
-133.370	49.174	0.178	0.166
-132.356	90.214	-0.156	-0.173
-131.341	157.474	-0.123	0.168
-130.326	-104.016	0.192	0.044
-129.312	-200.000	-0.037	-0.190
-128.297	-105.909	0.141	-0.032
-127.283	335.489	0.182	-0.349
-126.268	381.255	-0.114	0.232
-125.253	48.316	-0.144	-0.134
-124.239	800.000	-0.065	-0.227
-123.224	-200.000	-0.010	0.170
-122.210	800.000	-0.132	0.384
-121.195	-120.307	-0.047	0.008
