DTS Sentinel unit serial number:	SN413079Multiplexer serial number:	ORYXHardware model number:	OX4-SRSoftware version number:	ORYX F/W v4.00 Oryx Data Collector v3.7.2.0data status	okinstallation	princeton_trtdifferential loss correction	single-endedforward channel	channel 3reverse channel	N/Adate	2019/09/12time	06:54:10forward acquisition time	60.00reverse acquisition time	0.00gamma	496.2192k internal	0.2320k external	0.2320temperature offset calibration	1.0035default loss term (dB/km)	0.3790temperature slope calibration	1.0000multiplexer offset coefficient	1.0000multiplexer slope coefficient	1.0000fibre end	0.00T internal ref (°C)	32.14T ext. ref 1 (°C)	1.58T ext. ref 2 (°C)	27.25length (m)	temperature (°C)	Stokes	anti-Stokes-747.200	-135.979	-0.121	-0.014
-746.185	-116.966	0.093	0.017
-745.171	800.000	-0.039	0.134
-744.156	50.447	-0.223	0.213
-743.142	105.985	-0.086	0.103
-742.127	97.038	0.237	0.275
-741.112	174.493	-0.197	0.289
-740.098	800.000	-0.123	0.418
-739.083	602.371	0.066	-0.165
-738.069	264.587	-0.106	0.187
-737.054	155.956	-0.245	-0.341
-736.039	-156.772	-0.572	-0.036
-735.025	800.000	0.103	0.334
-734.010	-81.113	-0.121	0.040
-732.996	148.326	0.104	-0.142
-731.981	-157.597	0.087	-0.005
-730.966	428.978	0.162	-0.354
-729.952	-200.000	-0.007	-0.073
-728.937	-79.483	0.191	0.065
-727.923	223.002	0.090	0.147
-726.908	-165.212	-0.232	0.010
-725.894	-74.817	-0.157	0.057
-724.879	30.385	-0.179	-0.155
-723.864	9.812	0.080	0.061
-722.850	155.035	0.032	0.044
-721.835	314.808	-0.148	0.282
-720.821	800.000	-0.093	0.317
-719.806	209.030	-0.050	-0.079
-718.791	-156.330	-0.346	0.022
-717.777	13.437	-0.360	-0.282
-716.762	-200.000	0.012	-0.132
-715.748	-97.527	-0.141	-0.037
-714.733	-170.432	0.185	-0.007
-713.718	124.660	-0.146	0.186
-712.704	-90.970	0.339	-0.098
-711.689	-90.632	-0.306	0.089
-710.675	269.460	0.111	-0.197
-709.660	-200.000	-0.038	-0.244
-708.645	-68.807	0.257	0.100
-707.631	201.849	0.043	0.066
-706.616	-155.913	-0.236	-0.015
-705.602	397.426	0.121	0.255
-704.587	644.024	-0.232	0.599
-703.572	-200.000	0.017	-0.189
-702.558	33.038	-0.113	-0.099
-701.543	-107.029	0.305	0.068
-700.529	-155.691	0.278	-0.018
-699.514	257.026	-0.169	0.293
-698.499	-166.344	-0.262	-0.011
-697.485	40.398	0.255	0.232
-696.470	-200.000	-0.012	-0.263
-695.456	-121.065	0.503	-0.085
-694.441	-57.562	-0.143	0.063
-693.426	-13.758	-0.420	0.274
-692.412	327.925	0.167	-0.324
-691.397	-65.235	0.131	0.053
-690.383	800.000	-0.088	-0.305
-689.368	-200.000	-0.004	-0.310
-688.354	800.000	-0.016	0.048
-687.339	234.298	-0.238	-0.396
-686.324	-120.706	0.204	-0.035
-685.310	-200.000	-0.002	0.096
-684.295	73.500	0.141	-0.149
-683.281	335.245	0.112	-0.220
-682.266	-58.251	-0.168	0.074
-681.251	800.000	0.029	-0.107
-680.237	122.009	-0.170	-0.214
-679.222	10.282	-0.083	0.064
-678.208	423.260	-0.106	-0.229
-677.193	-134.405	0.104	0.013
-676.178	13.927	0.288	0.226
-675.164	5.531	0.357	-0.266
-674.149	66.575	-0.138	-0.141
-673.135	800.000	-0.012	-0.035
-672.120	-32.610	0.095	0.054
-671.105	172.776	-0.137	0.198
-670.091	251.206	0.120	-0.205
-669.076	-109.132	-0.264	0.057
-668.062	-181.123	0.043	0.001
-667.047	-33.104	0.288	-0.161
-666.032	-89.593	0.312	0.092
-665.018	437.173	0.054	0.118
-664.003	-68.751	-0.140	0.055
-662.989	50.114	0.283	-0.269
-661.974	2.610	-0.090	-0.066
-660.959	-144.363	-0.281	0.026
-659.945	-33.487	-0.245	0.136
-658.930	123.102	-0.135	0.170
-657.916	800.000	0.025	-0.110
-656.901	800.000	0.042	0.142
-655.886	103.133	-0.254	-0.300
-654.872	-23.412	-0.162	0.098
-653.857	-109.126	-0.305	-0.065
-652.843	-200.000	0.014	-0.091
-651.828	33.583	0.116	-0.102
-650.814	288.584	-0.107	-0.196
-649.799	23.839	-0.167	-0.139
-648.784	-125.522	0.212	-0.033
-647.770	-60.550	-0.212	0.091
-646.755	652.424	0.096	-0.249
-645.741	-16.496	0.332	-0.212
-644.726	-147.643	0.342	-0.029
-643.711	-200.000	0.037	-0.375
-642.697	800.000	0.075	-0.238
-641.682	286.164	-0.206	-0.374
-640.668	-27.732	0.298	0.174
-639.653	14.199	-0.316	-0.248
-638.638	-200.000	-0.027	-0.207
-637.624	800.000	0.026	0.083
-636.609	-46.101	-0.370	-0.184
-635.595	800.000	-0.078	-0.244
-634.580	-165.246	-0.302	-0.013
-633.565	-182.909	-0.165	-0.003
-632.551	101.240	0.263	0.308
-631.536	2.193	0.119	0.086
-630.522	29.644	-0.198	0.169
-629.507	3.377	-0.373	0.273
-628.492	-76.319	0.250	0.089
-627.478	-117.418	-0.383	-0.070
-626.463	44.775	-0.227	0.210
-625.449	350.469	-0.044	0.087
-624.434	64.193	0.171	0.173
-623.419	-186.091	-0.072	-0.001
-622.405	-75.001	-0.227	-0.082
-621.390	800.000	0.038	-0.164
-620.376	800.000	0.090	-0.281
-619.361	24.321	0.118	0.098
-618.346	68.515	-0.150	0.154
-617.332	-168.784	0.270	-0.010
-616.317	369.580	0.090	0.183
-615.303	-158.992	-0.156	-0.009
-614.288	191.909	0.111	-0.169
-613.273	97.521	-0.123	-0.142
-612.259	201.594	0.223	0.346
-611.244	288.217	-0.108	-0.197
-610.230	-200.000	-0.090	0.405
-609.215	164.030	0.108	0.153
-608.201	-116.352	0.181	0.034
-607.186	-200.000	-0.062	0.349
-606.171	296.183	-0.096	0.177
-605.157	23.581	-0.060	0.050
-604.142	-145.234	-0.396	-0.036
-603.128	-101.669	-0.413	0.101
-602.113	-144.403	0.088	0.008
-601.098	-12.757	-0.193	0.126
-600.084	-113.074	-0.210	-0.042
-599.069	223.584	0.087	-0.142
-598.055	-200.000	-0.012	-0.272
-597.040	-92.229	-0.082	-0.023
-596.025	305.891	-0.113	0.212
-595.011	-182.202	-0.111	-0.002
-593.996	-134.884	0.376	0.046
-592.982	-119.580	-0.189	-0.033
-591.967	174.443	-0.024	0.035
-590.952	-77.293	-0.267	-0.093
-589.938	37.759	-0.286	-0.256
-588.923	-200.000	-0.014	0.103
-587.909	28.636	0.106	-0.091
-586.894	-83.802	-0.168	-0.054
-585.879	-200.000	0.001	-0.005
-584.865	191.134	0.152	-0.230
-583.850	-200.000	-0.042	0.452
-582.836	724.409	0.123	-0.330
-581.821	-80.675	0.138	-0.046
-580.806	-45.835	-0.170	0.084
-579.792	-200.000	-0.009	-0.090
-578.777	-200.000	0.070	-0.451
-577.763	-200.000	0.025	0.192
-576.748	-200.000	-0.009	0.174
-575.733	800.000	0.106	0.327
-574.719	130.043	-0.155	0.200
-573.704	49.941	0.073	0.069
-572.690	218.450	-0.091	0.146
-571.675	176.763	0.019	-0.027
-570.661	-119.908	0.124	-0.021
-569.646	487.663	-0.044	0.101
-568.631	270.552	-0.242	-0.427
-567.617	-29.481	-0.184	0.105
-566.602	-106.854	-0.409	0.091
-565.588	334.885	0.086	-0.168
-564.573	-200.000	0.010	0.244
-563.558	-160.610	-0.326	0.017
-562.544	-45.849	-0.339	-0.168
-561.529	367.446	0.018	-0.036
-560.515	117.902	-0.051	-0.063
-559.500	231.469	-0.102	0.168
-558.485	-48.349	0.162	-0.079
-557.471	401.580	0.077	-0.162
-556.456	-197.897	0.194	0.001
-555.442	128.918	-0.160	0.205
-554.427	-126.696	0.248	-0.037
-553.412	-200.000	-0.024	-0.107
-552.398	-57.598	-0.139	-0.061
-551.383	555.554	0.082	-0.197
-550.369	-65.891	0.211	0.085
-549.354	-15.550	0.213	-0.136
-548.339	218.943	-0.174	0.279
-547.325	-35.993	0.103	-0.056
-546.310	476.031	0.150	0.339
-545.296	446.670	0.009	-0.019
-544.281	-113.164	0.249	-0.049
-543.266	-120.628	0.093	0.016
-542.252	250.824	-0.012	-0.021
-541.237	-200.000	-0.007	0.037
-540.223	-200.000	0.059	0.365
-539.208	145.703	0.179	-0.241
-538.193	-81.253	-0.111	-0.037
-537.179	800.000	-0.061	-0.249
-536.164	-166.621	0.320	0.013
-535.150	800.000	-0.065	0.264
-534.135	128.965	0.057	-0.073
-533.121	-79.824	0.152	-0.051
-532.106	-4.880	0.200	0.138
-531.091	125.587	-0.084	-0.107
-530.077	85.981	-0.027	-0.030
-529.062	191.691	-0.138	-0.209
-528.048	-65.217	0.294	0.119
-527.033	-67.767	-0.313	0.123
-526.018	9.010	-0.276	-0.209
-525.004	215.485	0.107	0.170
-523.989	-89.551	0.327	-0.096
-522.975	-83.866	0.022	-0.007
-521.960	-72.724	0.079	-0.029
-520.945	-200.000	-0.020	0.252
-519.931	152.573	0.068	-0.094
-518.916	66.882	-0.065	0.067
-517.902	-200.000	0.033	-0.251
-516.887	184.477	0.264	0.393
-515.872	-200.000	0.035	-0.210
-514.858	-60.245	0.304	-0.130
-513.843	157.553	-0.088	-0.121
-512.829	-200.000	-0.037	0.265
-511.814	800.000	0.045	0.141
-510.799	131.314	0.023	-0.029
-509.785	594.908	0.063	-0.157
-508.770	-200.000	-0.077	-0.365
-507.756	-186.982	-0.376	-0.005
-506.741	-32.334	-0.109	0.061
-505.726	-109.815	0.267	0.056
-504.712	-163.575	0.230	-0.011
-503.697	-89.283	0.234	0.069
-502.683	-27.746	0.119	0.069
-501.668	214.044	-0.217	-0.344
-500.653	360.568	-0.237	-0.476
-499.639	-45.773	-0.119	-0.059
-498.624	-12.041	0.208	0.136
-497.610	-26.604	-0.067	0.039
-496.595	-73.969	0.302	-0.110
-495.581	-200.000	0.016	0.137
-494.566	-37.508	-0.332	-0.177
-493.551	15.308	0.060	0.047
-492.537	350.974	0.124	-0.246
-491.522	425.261	0.195	-0.420
-490.508	-157.778	-0.273	-0.016
-489.493	800.000	0.027	0.085
-488.478	800.000	-0.081	0.288
-487.464	-200.000	0.013	0.168
-486.449	-58.975	-0.046	-0.020
-485.435	-141.487	-0.252	-0.026
-484.420	226.570	0.231	0.376
-483.405	-200.000	0.015	0.121
-482.391	21.146	0.047	0.038
-481.376	-12.982	-0.035	0.023
-480.362	246.336	-0.073	0.123
-479.347	-73.572	-0.167	-0.061
-478.332	-4.974	-0.175	0.120
-477.318	321.630	0.137	0.260
-476.303	-200.000	0.002	0.125
-475.289	-162.165	-0.103	0.005
-474.274	-29.168	-0.099	0.057
-473.259	800.000	0.011	-0.039
-472.245	78.115	0.252	-0.269
-471.230	-200.000	-0.021	-0.164
-470.216	800.000	-0.133	0.427
-469.201	-69.056	-0.256	-0.099
-468.186	87.909	0.136	0.151
-467.172	-95.670	-0.309	0.083
-466.157	19.107	-0.124	0.100
-465.143	-97.941	0.434	-0.112
-464.128	-200.000	-0.029	-0.372
-463.113	373.175	-0.155	-0.316
-462.099	68.331	-0.180	0.185
-461.084	716.599	0.047	0.124
-460.070	-200.000	-0.001	0.060
-459.055	-60.312	-0.276	0.118
-458.040	-24.903	0.045	-0.027
-457.026	-177.335	0.145	-0.004
-456.011	29.878	-0.064	0.055
-454.997	207.994	0.132	-0.206
-453.982	4.265	-0.183	-0.134
-452.968	-200.000	0.003	-0.076
-451.953	-125.923	0.382	-0.057
-450.938	-37.860	-0.116	0.062
-449.924	511.329	0.055	0.127
-448.909	25.126	0.400	-0.332
-447.895	-61.269	-0.373	-0.157
-446.880	271.113	0.226	0.398
-445.865	3.968	-0.285	0.208
-444.851	-195.650	-0.228	-0.002
-443.836	140.339	-0.092	-0.121
-442.822	147.366	0.096	-0.129
-441.807	11.522	-0.089	0.068
-440.792	-38.145	0.104	0.055
-439.778	-158.783	-0.251	0.014
-438.763	800.000	0.012	-0.042
-437.749	415.861	-0.090	0.193
-436.734	800.000	-0.103	-0.330
-435.719	800.000	0.101	-0.291
-434.705	217.516	-0.095	0.152
-433.690	-200.000	-0.018	-0.216
-432.676	-200.000	0.004	0.105
-431.661	36.327	-0.045	-0.040
-430.646	-140.818	0.165	0.017
-429.632	-52.119	-0.105	-0.049
-428.617	-4.461	-0.267	0.184
-427.603	-83.397	-0.061	-0.020
-426.588	112.678	0.134	0.162
-425.573	235.040	0.088	-0.144
-424.559	41.136	-0.245	-0.221
-423.544	-84.155	0.286	0.091
-422.530	4.161	-0.442	0.323
-421.515	-106.621	-0.346	-0.077
-420.500	-200.000	0.028	0.169
-419.486	-37.180	-0.124	-0.066
-418.471	-26.275	0.151	-0.089
-417.457	-96.627	-0.105	0.028
-416.442	-79.258	0.164	0.056
-415.428	15.261	0.384	-0.301
-414.413	800.000	-0.118	-0.441
-413.398	410.636	0.117	0.248
-412.384	800.000	0.120	-0.381
-411.369	515.723	0.122	0.285
-410.355	285.953	-0.186	0.336
-409.340	530.005	-0.089	-0.210
-408.325	-58.053	-0.346	0.151
-407.311	-200.000	0.052	-0.251
-406.296	-84.313	-0.240	0.076
-405.282	800.000	-0.102	-0.384
-404.267	168.845	0.098	0.140
-403.252	51.082	-0.147	-0.139
-402.238	21.041	0.056	0.045
-401.223	-200.000	0.018	-0.196
-400.209	273.578	0.077	-0.135
-399.194	9.273	0.092	-0.070
-398.179	-200.000	0.001	0.455
-397.165	-154.565	-0.253	0.017
-396.150	271.688	0.186	-0.327
-395.136	-130.385	0.197	-0.027
-394.121	27.491	-0.050	0.042
-393.106	583.083	0.170	-0.417
-392.092	-192.798	-0.361	-0.003
-391.077	167.423	0.269	0.382
-390.063	-200.000	0.033	0.417
-389.048	-200.000	-0.014	-0.191
-388.033	789.567	-0.033	-0.090
-387.019	-107.351	0.114	0.025
-386.004	-200.000	0.070	-0.306
-384.990	212.015	-0.107	-0.168
-383.975	103.510	-0.097	0.114
-382.960	-200.000	0.009	-0.369
-381.946	82.489	-0.201	-0.218
-380.931	453.831	0.055	-0.122
-379.917	-200.000	-0.038	-0.268
-378.902	-18.746	0.202	0.126
-377.888	38.314	-0.138	0.123
-376.873	114.286	-0.071	0.086
-375.858	107.863	-0.061	0.073
-374.844	10.713	0.064	-0.049
-373.829	146.977	0.103	0.138
-372.815	168.314	0.178	-0.252
-371.800	91.535	-0.106	-0.119
-370.785	247.963	-0.077	-0.131
-369.771	19.934	0.147	-0.118
-368.756	132.572	-0.077	0.099
-367.742	773.313	0.120	-0.325
-366.727	-43.449	-0.279	0.141
-365.712	-187.675	-0.205	-0.003
-364.698	78.098	-0.172	0.183
-363.683	669.586	0.065	0.168
-362.669	15.997	-0.295	0.231
-361.654	163.839	0.035	0.049
-360.639	1.539	-0.190	-0.136
-359.625	-75.699	0.049	0.017
-358.610	56.425	-0.118	-0.114
-357.596	-127.364	-0.297	0.043
-356.581	-98.135	0.119	0.030
-355.566	121.228	-0.080	0.099
-354.552	800.000	-0.111	0.349
-353.537	-200.000	-0.047	0.495
-352.523	76.995	-0.065	0.068
-351.508	48.726	0.181	0.169
-350.493	800.000	-0.056	0.164
-349.479	120.873	0.166	-0.205
-348.464	-72.641	0.215	-0.079
-347.450	-200.000	-0.000	-0.107
-346.435	60.180	-0.181	0.178
-345.420	481.464	-0.063	-0.142
-344.406	233.176	0.099	0.162
-343.391	-12.078	-0.152	0.099
-342.377	391.011	0.124	0.256
-341.362	-64.409	0.129	0.052
-340.348	-86.463	-0.119	-0.036
-339.333	-200.000	0.007	0.103
-338.318	102.235	-0.389	-0.452
-337.304	800.000	-0.038	0.107
-336.289	-77.335	-0.185	0.064
-335.275	-20.822	0.280	-0.171
-334.260	800.000	-0.019	-0.067
-333.245	62.472	-0.206	-0.205
-332.231	255.686	-0.090	-0.154
-331.216	-45.475	0.182	0.090
-330.202	47.797	-0.115	0.106
-329.187	320.801	0.171	-0.324
-328.172	59.810	0.133	0.130
-327.158	307.448	0.296	-0.549
-326.143	166.454	-0.104	-0.147
-325.129	512.607	-0.133	-0.308
-324.114	571.201	-0.074	0.179
-323.099	145.779	-0.048	-0.063
-322.085	800.000	-0.057	-0.184
-321.070	-23.321	-0.130	0.078
-320.056	800.000	0.134	0.449
-319.041	-200.000	-0.008	0.050
-318.026	385.419	0.157	-0.322
-317.012	116.046	-0.028	-0.034
-315.997	138.047	0.028	-0.037
-314.983	8.044	0.226	-0.168
-313.968	-200.000	0.010	-0.202
-312.953	-110.884	-0.386	0.079
-311.939	-37.760	0.217	0.115
-310.924	89.077	0.040	0.045
-309.910	800.000	-0.018	0.053
-308.895	255.286	0.095	-0.161
-307.880	-200.000	0.009	-0.236
-306.866	337.295	-0.036	-0.070
-305.851	-59.527	0.150	0.064
-304.837	-110.864	0.137	0.028
-303.822	-200.000	-0.016	0.189
-302.807	800.000	0.099	0.273
-301.793	111.219	-0.222	0.266
-300.778	-126.754	-0.225	-0.033
-299.764	-74.963	0.226	0.081
-298.749	-118.817	-0.461	0.081
-297.735	707.437	-0.165	-0.433
-296.720	-15.354	0.137	-0.087
-295.705	92.564	0.023	0.026
-294.691	8.943	0.226	-0.170
-293.676	-32.395	-0.063	0.035
-292.662	-200.000	0.013	0.076
-291.647	-200.000	0.036	-0.248
-290.632	-83.811	-0.261	-0.083
-289.618	756.513	-0.041	0.111
-288.603	-173.947	-0.273	0.008
-287.589	131.814	-0.107	0.136
-286.574	24.132	-0.113	-0.093
-285.559	30.139	-0.124	-0.105
-284.545	243.871	0.057	-0.094
-283.530	-39.873	0.347	-0.180
-282.516	-200.000	-0.017	0.321
-281.501	-200.000	-0.027	-0.280
-280.486	-21.504	0.018	0.011
-279.472	177.262	0.049	0.070
-278.457	3.703	-0.098	0.071
-277.443	38.301	0.245	0.217
-276.428	-16.653	0.164	-0.103
-275.413	399.738	-0.076	0.159
-274.399	-95.822	0.128	0.034
-273.384	-125.588	-0.296	-0.045
-272.370	50.082	-0.180	-0.168
-271.355	-127.150	-0.262	0.038
-270.340	-90.924	-0.220	0.063
-269.326	39.069	-0.343	0.304
-268.311	577.199	0.118	0.286
-267.297	-52.416	0.174	-0.080
-266.282	-91.085	0.196	-0.056
-265.267	34.819	0.079	0.068
-264.253	-200.000	0.001	-0.150
-263.238	169.963	0.125	0.177
-262.224	197.918	0.046	-0.070
-261.209	-129.577	0.454	-0.062
-260.195	400.398	-0.112	0.232
-259.180	-89.799	0.360	-0.105
-258.165	43.403	0.119	0.108
-257.151	-101.594	0.116	0.028
-256.136	-114.596	0.135	-0.026
-255.122	-200.000	-0.015	-0.137
-254.107	-200.000	0.013	0.301
-253.092	800.000	-0.028	-0.105
-252.078	218.356	0.113	0.179
-251.063	17.958	0.130	-0.103
-250.049	800.000	0.029	0.087
-249.034	-200.000	-0.010	0.147
-248.019	-198.932	0.352	0.002
-247.005	286.746	0.074	0.133
-245.990	-92.633	0.101	-0.028
-244.976	-101.703	-0.217	-0.052
-243.961	-90.924	-0.275	0.078
-242.946	-200.000	-0.005	0.079
-241.932	245.789	0.157	0.261
-240.917	-56.549	-0.085	-0.038
-239.903	800.000	-0.045	0.171
-238.888	105.259	0.123	0.145
-237.873	800.000	0.072	0.262
-236.859	47.266	0.180	-0.166
-235.844	-200.000	-0.038	0.211
-234.830	-180.667	-0.107	0.002
-233.815	259.205	0.187	0.320
-232.800	-20.963	0.080	-0.049
-231.786	179.297	0.118	-0.171
-230.771	67.795	0.054	-0.055
-229.757	-82.852	-0.093	0.030
-228.742	-79.790	0.117	-0.039
-227.727	-116.712	0.136	0.025
-226.713	-74.720	-0.085	0.030
-225.698	38.437	-0.092	-0.081
-224.684	-105.330	-0.206	0.047
-223.669	-9.538	0.196	0.129
-222.655	-61.088	-0.106	-0.044
-221.640	773.647	0.076	-0.206
-220.625	10.626	0.272	0.205
-219.611	521.914	0.117	-0.272
-218.596	541.424	0.103	0.244
-217.582	327.007	0.122	0.232
-216.567	800.000	0.028	-0.087
-215.552	-10.374	0.149	0.098
-214.538	-90.657	-0.227	-0.065
-213.523	-30.621	0.191	0.107
-212.509	284.874	-0.117	0.209
-211.494	505.137	0.187	0.428
-210.479	48.702	-0.237	-0.220
-209.465	82.405	0.193	-0.208
-208.450	-200.000	0.007	0.213
-207.436	581.611	-0.041	0.100
-206.421	322.759	-0.107	-0.202
-205.406	-200.000	-0.035	0.257
-204.392	58.009	-0.030	-0.029
-203.377	205.022	0.081	-0.125
-202.363	-160.301	0.129	-0.007
-201.348	-115.836	0.454	0.084
-200.333	-200.000	0.007	0.152
-199.319	-88.757	0.062	-0.018
-198.304	800.000	0.021	0.092
-197.290	800.000	0.025	0.106
-196.275	-76.006	0.293	-0.102
-195.260	334.069	0.046	-0.088
-194.246	678.382	0.070	-0.180
-193.231	91.776	0.123	0.137
-192.217	-200.000	-0.013	-0.163
-191.202	108.636	0.149	-0.177
-190.187	-93.594	0.390	0.107
-189.173	439.666	0.054	0.116
-188.158	526.507	0.104	-0.243
-187.144	-137.105	0.072	0.008
-186.129	776.662	0.089	0.241
-185.114	-200.000	-0.008	0.116
-184.100	800.000	0.070	-0.289
-183.085	-30.475	0.242	0.136
-182.071	79.623	-0.238	0.252
-181.056	-104.354	0.271	-0.062
-180.042	800.000	0.061	0.221
-179.027	-152.243	-0.255	-0.018
-178.012	21.535	-0.137	0.110
-176.998	137.430	0.183	0.237
-175.983	-34.215	0.219	0.119
-174.969	49.804	-0.215	-0.201
-173.954	800.000	0.142	-0.449
-172.939	-200.000	-0.005	-0.139
-171.925	-200.000	0.055	-0.333
-170.910	-129.044	0.335	-0.046
-169.896	15.485	0.078	-0.061
-168.881	800.000	-0.007	-0.022
-167.866	10.518	-0.154	0.116
-166.852	126.339	0.199	-0.249
-165.837	-124.936	-0.160	-0.024
-164.823	-58.640	0.441	0.189
-163.808	-137.627	0.085	0.009
-162.793	283.299	-0.064	-0.113
-161.779	-47.604	0.135	-0.065
-160.764	25.804	-0.226	0.186
-159.750	261.799	0.064	0.110
-158.735	161.749	0.042	0.058
-157.720	52.688	-0.192	0.181
-156.706	-64.976	-0.146	0.058
-155.691	86.039	-0.091	-0.099
-154.677	-141.864	0.039	0.004
-153.662	-40.849	-0.083	0.042
-152.647	-200.000	-0.039	0.261
-151.633	-200.000	0.041	-0.252
-150.618	-200.000	-0.022	0.098
-149.604	209.395	0.133	0.207
-148.589	-73.818	0.147	-0.053
-147.574	-112.898	-0.059	-0.011
-146.560	-36.198	-0.478	-0.255
-145.545	800.000	-0.098	-0.348
-144.531	-54.088	0.363	-0.163
-143.516	-200.000	-0.026	0.373
-142.502	99.356	-0.100	-0.114
-141.487	389.527	-0.024	0.050
-140.472	-200.000	0.013	0.086
-139.458	76.191	0.146	-0.153
-138.443	-88.763	0.302	-0.089
-137.429	-200.000	-0.008	-0.189
-136.414	8.437	-0.101	0.075
-135.399	-47.862	-0.244	-0.116
-134.385	800.000	-0.060	0.182
-133.370	325.828	0.198	0.374
-132.356	-200.000	0.024	0.341
-131.341	91.864	-0.115	-0.128
-130.326	-115.189	0.178	0.033
-129.312	-54.028	0.281	-0.126
-128.297	800.000	-0.041	-0.155
-127.283	-101.992	0.223	0.053
-126.268	559.885	-0.052	0.124
-125.253	159.200	-0.156	0.214
-124.239	800.000	0.156	0.482
-123.224	-34.320	0.075	-0.041
-122.210	-66.467	-0.115	-0.045
-121.195	-11.416	-0.339	0.220
-120.180	139.573	-0.085	-0.110
