DTS Sentinel unit serial number:	SN413079Multiplexer serial number:	ORYXHardware model number:	OX4-SRSoftware version number:	ORYX F/W v4.00 Oryx Data Collector v3.7.2.0data status	okinstallation	princeton_trtdifferential loss correction	single-endedforward channel	channel 3reverse channel	N/Adate	2019/09/16time	11:28:35forward acquisition time	60.00reverse acquisition time	0.00gamma	496.2192k internal	0.2298k external	0.2298temperature offset calibration	0.9939default loss term (dB/km)	0.3790temperature slope calibration	1.0000multiplexer offset coefficient	1.0000multiplexer slope coefficient	1.0000fibre end	0.00T internal ref (°C)	37.56T ext. ref 1 (°C)	12.95T ext. ref 2 (°C)	35.53length (m)	temperature (°C)	Stokes	anti-Stokes-747.200	-5.051	0.111	-0.078
-746.185	-200.000	-0.056	0.311
-745.171	-179.219	0.021	-0.000
-744.156	-91.002	-0.348	-0.102
-743.142	-45.450	-0.104	-0.053
-742.127	146.993	-0.155	0.213
-741.112	508.547	0.067	-0.159
-740.098	229.705	-0.207	0.345
-739.083	-30.729	0.069	0.040
-738.069	47.013	-0.191	0.181
-737.054	394.381	0.182	0.388
-736.039	83.361	-0.186	-0.207
-735.025	-131.617	0.191	0.026
-734.010	145.399	-0.174	0.238
-732.996	131.265	-0.180	0.236
-731.981	76.369	0.239	-0.259
-730.966	60.523	-0.158	-0.159
-729.952	-99.286	-0.215	0.055
-728.937	432.733	-0.275	-0.609
-727.923	-113.073	0.245	0.049
-726.908	-200.000	-0.012	-0.062
-725.894	-103.754	-0.243	0.058
-724.879	-134.665	-0.042	0.005
-723.864	-166.755	0.274	0.012
-722.850	800.000	-0.077	0.332
-721.835	-60.574	-0.228	0.099
-720.821	-172.562	0.400	0.013
-719.806	-20.567	-0.230	0.144
-718.791	364.743	-0.236	-0.484
-717.777	-167.478	-0.171	0.007
-716.762	-125.050	-0.232	-0.036
-715.748	-30.990	0.195	-0.112
-714.733	-200.000	-0.049	-0.375
-713.718	14.363	0.164	0.130
-712.704	-139.641	-0.172	-0.019
-711.689	-28.109	-0.373	0.220
-710.675	553.888	-0.068	0.167
-709.660	785.437	-0.032	-0.089
-708.645	214.299	-0.064	-0.103
-707.631	-107.961	-0.332	-0.074
-706.616	-164.459	-0.256	-0.012
-705.602	105.848	0.086	0.103
-704.587	-121.682	-0.378	0.064
-703.572	-112.905	-0.452	0.091
-702.558	-102.142	-0.205	0.050
-701.543	800.000	-0.034	-0.132
-700.529	-200.000	-0.058	-0.293
-699.514	40.768	0.202	0.186
-698.499	348.313	-0.052	-0.104
-697.485	-200.000	-0.034	0.281
-696.470	-200.000	-0.011	0.146
-695.456	-200.000	0.012	-0.325
-694.441	43.855	-0.252	0.235
-693.426	13.548	0.066	0.052
-692.412	-137.104	0.135	-0.016
-691.397	800.000	-0.046	0.198
-690.383	-35.398	0.243	0.135
-689.368	-200.000	-0.458	0.002
-688.354	-72.937	-0.281	-0.105
-687.339	-70.080	-0.255	-0.099
-686.324	101.269	0.138	0.163
-685.310	247.867	-0.175	0.301
-684.295	30.896	-0.196	0.171
-683.281	-9.401	0.089	-0.060
-682.266	-9.654	-0.166	-0.113
-681.251	-200.000	0.051	-0.452
-680.237	-67.639	0.058	-0.023
-679.222	-61.035	0.148	0.063
-678.208	2.146	0.154	0.113
-677.193	800.000	-0.060	0.180
-676.178	-79.100	0.395	0.136
-675.164	371.805	-0.097	-0.201
-674.149	173.068	-0.139	0.204
-673.135	-28.155	0.138	-0.081
-672.120	-12.685	-0.114	0.076
-671.105	-200.000	-0.011	0.094
-670.091	405.842	-0.161	-0.345
-669.076	134.107	0.169	0.223
-668.062	-189.192	0.279	0.003
-667.047	-69.035	0.345	0.135
-666.032	355.744	-0.047	-0.096
-665.018	101.099	0.065	0.077
-664.003	-171.652	-0.388	0.013
-662.989	-54.326	-0.297	0.137
-661.974	669.879	-0.170	-0.449
-660.959	-15.520	-0.076	-0.049
-659.945	-88.850	-0.164	-0.050
-658.930	-181.810	0.274	-0.005
-657.916	-120.426	0.257	-0.045
-656.901	-200.000	0.029	0.204
-655.886	-16.631	-0.188	-0.121
-654.872	259.392	0.119	0.209
-653.857	-200.000	0.014	-0.186
-652.843	47.512	-0.081	0.077
-651.828	27.354	-0.078	-0.067
-650.814	115.216	0.119	-0.148
-649.799	136.275	-0.145	-0.192
-648.784	95.845	0.153	-0.178
-647.770	-86.322	-0.244	-0.076
-646.755	424.354	0.120	0.262
-645.741	-36.530	0.277	-0.151
-644.726	93.079	0.180	-0.206
-643.711	-4.488	0.188	0.132
-642.697	19.238	-0.165	0.135
-641.682	216.978	-0.132	0.214
-640.668	31.541	-0.143	0.125
-639.653	77.498	-0.123	-0.133
-638.638	-15.268	0.256	-0.166
-637.624	525.277	0.169	-0.405
-636.609	-200.000	0.009	-0.062
-635.595	-141.372	-0.159	0.016
-634.580	-200.000	0.037	-0.285
-633.565	-147.581	-0.208	0.018
-632.551	-55.918	0.127	0.057
-631.536	800.000	0.092	0.292
-630.522	78.586	-0.012	0.013
-629.507	36.431	0.052	0.047
-628.492	-200.000	0.021	-0.184
-627.478	51.468	0.187	0.181
-626.463	-200.000	-0.051	-0.266
-625.449	-159.372	-0.363	-0.021
-624.434	-115.824	0.235	-0.045
-623.419	-200.000	0.019	0.243
-622.405	154.518	0.265	-0.369
-621.390	-200.000	-0.021	-0.163
-620.376	-86.987	0.086	-0.027
-619.361	36.891	-0.126	0.113
-618.346	173.714	-0.133	0.195
-617.332	544.756	0.116	0.282
-616.317	-104.490	-0.042	0.010
-615.303	-45.548	0.229	0.115
-614.288	3.064	0.195	0.144
-613.273	100.979	0.098	-0.116
-612.259	88.525	-0.081	0.091
-611.244	-200.000	0.027	-0.256
-610.230	-87.150	-0.481	-0.149
-609.215	800.000	-0.084	0.316
-608.201	606.145	-0.039	-0.098
-607.186	76.901	-0.061	-0.066
-606.171	-41.901	-0.109	0.057
-605.157	22.234	-0.155	0.128
-604.142	800.000	0.061	-0.228
-603.128	-32.302	-0.427	0.242
-602.113	-31.202	-0.163	0.093
-601.098	-33.740	-0.063	-0.035
-600.084	-0.717	-0.438	0.315
-599.069	-200.000	-0.012	0.000
-598.055	-200.000	0.015	0.195
-597.040	800.000	-0.102	0.454
-596.025	248.235	-0.207	-0.355
-595.011	800.000	-0.048	0.199
-593.996	36.078	0.138	0.124
-592.982	14.363	0.325	-0.258
-591.967	-13.123	-0.041	-0.027
-590.952	-114.131	0.256	0.050
-589.938	-99.764	-0.231	0.059
-588.923	-91.705	-0.209	0.060
-587.909	194.570	-0.099	0.152
-586.894	103.494	0.123	-0.146
-585.879	448.948	-0.053	-0.119
-584.865	212.754	-0.132	0.211
-583.850	8.561	-0.084	0.064
-582.836	34.830	0.143	0.127
-581.821	-200.000	-0.050	0.228
-580.806	-66.909	0.386	-0.155
-579.792	46.708	0.267	0.251
-578.777	-87.213	-0.184	-0.057
-577.763	-200.000	-0.021	-0.317
-576.748	224.955	0.177	0.291
-575.733	-82.517	0.364	0.120
-574.719	137.049	-0.103	-0.137
-573.704	-61.943	0.234	-0.099
-572.690	57.499	-0.180	0.179
-571.675	40.428	-0.090	-0.082
-570.661	-200.000	0.015	0.088
-569.646	91.210	0.148	-0.169
-568.631	-200.000	-0.010	-0.377
-567.617	20.850	0.361	0.297
-566.602	-36.287	0.253	-0.138
-565.588	-11.378	0.068	-0.046
-564.573	-9.207	0.116	0.078
-563.558	603.987	0.100	0.251
-562.544	-83.460	-0.348	0.113
-561.529	-145.172	-0.219	-0.020
-560.515	-179.009	-0.073	-0.002
-559.500	800.000	-0.035	0.116
-558.485	20.675	-0.118	-0.097
-557.471	-54.608	-0.161	0.074
-556.456	256.032	-0.243	-0.422
-555.442	800.000	-0.086	-0.330
-554.427	-173.800	0.174	-0.005
-553.412	46.638	-0.063	-0.059
-552.398	277.263	-0.021	-0.037
-551.383	800.000	0.142	0.493
-550.369	98.425	-0.098	-0.115
-549.354	-5.169	-0.082	0.057
-548.339	203.924	-0.136	-0.214
-547.325	16.848	-0.073	0.058
-546.310	800.000	0.019	0.073
-545.296	-49.102	-0.179	0.087
-544.281	273.571	-0.146	-0.261
-543.266	25.716	0.158	-0.133
-542.252	-35.517	0.274	-0.150
-541.237	-136.394	0.171	-0.020
-540.223	279.418	-0.061	0.110
-539.208	61.803	0.203	-0.204
-538.193	-200.000	0.001	-0.242
-537.179	-200.000	0.034	-0.235
-536.164	-54.008	-0.218	-0.100
-535.150	-26.204	-0.127	-0.075
-534.135	-86.697	-0.498	0.154
-533.121	15.274	-0.010	0.008
-532.106	-130.846	0.204	-0.028
-531.091	-85.260	0.357	0.113
-530.077	-145.086	0.175	0.016
-529.062	-20.213	0.280	-0.175
-528.048	800.000	-0.061	-0.220
-527.033	-132.396	0.145	0.019
-526.018	4.066	0.158	0.117
-525.004	463.375	0.118	0.266
-523.989	4.430	-0.066	0.049
-522.975	-117.558	0.141	0.026
-521.960	-17.568	-0.050	0.032
-520.945	-61.847	-0.090	0.038
-519.931	800.000	-0.025	0.094
-518.916	800.000	-0.071	0.259
-517.902	-200.000	-0.048	0.306
-516.887	4.172	-0.209	-0.155
-515.872	-136.640	0.239	-0.028
-514.858	-35.801	0.055	0.030
-513.843	356.981	0.152	0.306
-512.829	42.497	-0.147	0.136
-511.814	-80.386	0.090	0.030
-510.799	-2.977	-0.255	0.180
-509.785	-155.237	-0.113	-0.007
-508.770	-79.870	-0.160	-0.054
-507.756	-200.000	-0.028	-0.158
-506.741	20.338	0.200	-0.163
-505.726	800.000	-0.046	-0.145
-504.712	-200.000	-0.004	0.035
-503.697	-200.000	-0.040	0.313
-502.683	83.006	0.098	0.107
-501.668	387.461	0.043	0.091
-500.653	-200.000	-0.008	-0.056
-499.639	-83.693	-0.313	-0.101
-498.624	-101.236	-0.065	0.016
-497.610	-84.619	-0.170	-0.054
-496.595	-38.962	0.105	-0.056
-495.581	-122.579	-0.403	0.066
-494.566	-200.000	-0.031	-0.216
-493.551	-200.000	0.018	-0.171
-492.537	130.611	-0.088	0.114
-491.522	-200.000	-0.030	-0.293
-490.508	232.332	0.142	-0.236
-489.493	227.575	0.033	0.054
-488.478	-157.244	0.218	-0.013
-487.464	105.701	0.142	0.170
-486.449	-22.024	0.159	-0.098
-485.435	-23.235	-0.118	0.072
-484.420	-137.361	0.208	-0.024
-483.405	12.732	-0.109	-0.085
-482.391	-136.887	0.079	0.009
-481.376	131.718	0.250	0.325
-480.362	-200.000	-0.054	-0.262
-479.347	84.431	-0.081	-0.089
-478.332	385.332	0.055	-0.114
-477.318	-149.584	0.335	-0.027
-476.303	-200.000	-0.007	0.347
-475.289	-67.479	0.249	-0.099
-474.274	-142.553	-0.241	0.024
-473.259	-61.736	-0.290	-0.123
-472.245	-89.531	-0.177	-0.053
-471.230	800.000	0.006	-0.018
-470.216	800.000	-0.090	0.306
-469.201	-200.000	-0.031	0.329
-468.186	36.570	-0.267	0.238
-467.172	-163.171	0.086	-0.004
-466.157	-131.938	-0.027	0.004
-465.143	-95.542	0.202	-0.055
-464.128	-118.711	0.037	0.007
-463.113	-68.949	0.125	-0.049
-462.099	137.430	-0.053	-0.070
-461.084	-200.000	0.074	0.385
-460.070	384.617	0.059	-0.122
-459.055	800.000	-0.056	-0.215
-458.040	-103.243	-0.254	-0.061
-457.026	4.052	0.204	0.151
-456.011	-200.000	-0.028	0.281
-454.997	-12.905	0.119	0.078
-453.982	800.000	0.031	-0.102
-452.968	-200.000	0.011	-0.287
-451.953	208.947	0.070	-0.111
-450.938	-200.000	-0.064	-0.292
-449.924	78.506	-0.110	-0.118
-448.909	786.533	0.133	0.369
-447.895	800.000	0.055	0.160
-446.880	585.740	-0.065	-0.161
-445.865	-169.304	0.239	0.009
-444.851	25.208	-0.233	-0.196
-443.836	102.546	-0.106	0.125
-442.822	-18.511	-0.085	-0.053
-441.807	-62.730	0.266	0.111
-440.792	-127.742	0.101	-0.015
-439.778	-200.000	0.018	0.103
-438.763	153.577	-0.140	-0.193
-437.749	-11.784	0.142	0.094
-436.734	171.976	-0.117	-0.170
-435.719	-93.535	-0.133	0.037
-434.705	25.669	-0.177	0.149
-433.690	-92.664	-0.062	-0.018
-432.676	49.983	-0.143	-0.136
-431.661	-108.577	-0.288	0.062
-430.646	-19.827	-0.160	0.100
-429.632	689.014	-0.036	0.096
-428.617	107.908	0.032	-0.038
-427.603	366.905	-0.081	-0.164
-426.588	-105.707	0.241	0.055
-425.573	-200.000	-0.051	-0.263
-424.559	462.363	0.036	-0.081
-423.544	-110.838	-0.157	0.033
-422.530	800.000	-0.029	0.104
-421.515	-99.571	-0.158	-0.040
-420.500	-171.049	0.220	0.008
-419.486	-200.000	0.020	0.232
-418.471	-200.000	-0.018	-0.174
-417.457	99.344	-0.090	-0.105
-416.442	-200.000	-0.018	0.384
-415.428	8.085	0.188	0.142
-414.413	-128.793	-0.132	0.019
-413.398	294.855	0.043	0.079
-412.384	-147.568	0.420	-0.036
-411.369	49.085	0.039	-0.037
-410.355	211.261	-0.168	-0.267
-409.340	231.496	0.066	-0.110
-408.325	85.483	-0.073	0.081
-407.311	-25.756	-0.110	0.066
-406.296	-135.784	-0.273	-0.033
-405.282	-22.783	0.184	0.112
-404.267	64.709	-0.039	-0.040
-403.252	294.747	0.097	-0.179
-402.238	182.774	0.148	-0.219
-401.223	205.715	-0.156	-0.245
-400.209	-7.943	0.255	-0.173
-399.194	-200.000	-0.011	-0.096
-398.179	-100.008	-0.064	0.016
-397.165	-10.222	0.209	-0.140
-396.150	16.078	0.104	-0.083
-395.136	75.723	0.289	-0.307
-394.121	618.771	-0.069	-0.175
-393.106	9.773	-0.231	-0.177
-392.092	11.416	-0.437	-0.337
-391.077	-90.776	-0.231	-0.067
-390.063	-200.000	0.048	-0.406
-389.048	-200.000	0.017	-0.219
-388.033	427.364	-0.026	-0.057
-387.019	-54.509	-0.244	0.111
-386.004	-123.989	-0.203	-0.032
-384.990	-200.000	-0.008	0.053
-383.975	800.000	0.042	0.184
-382.960	-73.424	0.178	-0.066
-381.946	453.161	0.027	-0.061
-380.931	800.000	-0.128	-0.427
-379.917	84.615	0.182	-0.201
-378.902	236.505	0.060	-0.101
-377.888	274.422	-0.161	-0.287
-376.873	-179.345	-0.234	-0.005
-375.858	188.574	-0.132	0.199
-374.844	800.000	0.014	-0.043
-373.829	35.600	0.202	-0.178
-372.815	-129.098	-0.317	0.045
-371.800	191.422	0.177	-0.268
-370.785	-0.461	0.082	-0.058
-369.771	800.000	-0.025	-0.080
-368.756	48.940	0.110	-0.104
-367.742	800.000	-0.115	0.410
-366.727	-36.979	0.297	0.160
-365.712	-98.906	-0.476	-0.122
-364.698	532.575	0.054	0.128
-363.683	39.953	0.154	0.139
-362.669	119.736	0.241	0.301
-361.654	-9.910	0.306	0.205
-360.639	-59.072	-0.215	0.093
-359.625	800.000	-0.026	0.115
-358.610	-200.000	-0.003	-0.302
-357.596	108.639	-0.217	0.261
-356.581	-162.291	0.198	0.010
-355.566	800.000	-0.022	-0.062
-354.552	-42.059	0.096	0.049
-353.537	800.000	0.047	0.146
-352.523	209.586	-0.088	-0.138
-351.508	-115.079	0.457	0.087
-350.493	108.715	-0.264	0.317
-349.479	689.942	-0.092	-0.243
-348.464	510.178	-0.077	0.180
-347.450	34.844	0.122	-0.107
-346.435	800.000	0.090	-0.301
-345.420	91.413	0.121	-0.136
-344.406	-109.660	-0.416	-0.088
-343.391	-131.613	-0.162	-0.021
-342.377	-173.419	0.244	-0.007
-341.362	-81.083	-0.155	0.052
-340.348	-143.216	0.356	0.034
-339.333	8.783	0.152	0.115
-338.318	-128.929	-0.430	-0.061
-337.304	78.422	0.220	0.236
-336.289	-200.000	-0.051	-0.345
-335.275	-97.640	0.067	0.017
-334.260	19.710	-0.088	-0.072
-333.245	800.000	-0.064	-0.251
-332.231	-25.110	0.162	-0.097
-331.216	800.000	0.111	0.421
-330.202	-200.000	-0.006	0.082
-329.187	36.364	0.111	0.098
-328.172	-154.164	-0.138	-0.009
-327.158	13.766	0.298	-0.233
-326.143	800.000	-0.040	-0.130
-325.129	-116.607	0.094	-0.017
-324.114	211.239	0.071	0.113
-323.099	-107.287	0.091	0.020
-322.085	-200.000	0.052	-0.248
-321.070	-200.000	-0.017	0.496
-320.056	224.759	0.099	-0.161
-319.041	-37.925	0.030	0.016
-318.026	-63.736	-0.422	0.173
-317.012	800.000	0.043	0.179
-315.997	-125.078	-0.192	-0.030
-314.983	-5.614	-0.301	0.207
-313.968	-145.250	0.082	0.007
-312.953	-50.614	-0.268	0.127
-311.939	259.082	-0.144	-0.249
-310.924	191.362	0.204	-0.308
-309.910	-172.547	-0.098	-0.003
-308.895	40.384	0.138	-0.125
-307.880	800.000	-0.072	-0.206
-306.866	76.097	-0.108	-0.115
-305.851	-64.477	-0.439	0.179
-304.837	-30.180	-0.096	0.055
-303.822	-101.271	-0.258	0.063
-302.807	73.039	-0.251	-0.263
-301.793	-107.461	-0.114	0.025
-300.778	186.852	0.233	0.349
-299.764	-29.480	0.330	0.189
-298.749	84.758	0.268	0.294
-297.735	457.635	-0.120	0.268
-296.720	-200.000	-0.002	-0.030
-295.705	-142.433	0.246	0.024
-294.691	-200.000	0.003	-0.187
-293.676	-50.789	0.230	0.108
-292.662	100.564	0.073	0.086
-291.647	1.228	-0.216	0.156
-290.632	-200.000	-0.014	0.212
-289.618	-148.448	0.148	-0.012
-288.603	800.000	0.009	-0.027
-287.589	800.000	-0.026	0.110
-286.574	174.644	0.054	0.078
-285.559	-200.000	-0.017	0.159
-284.545	533.384	0.134	0.318
-283.530	800.000	-0.069	0.253
-282.516	800.000	0.034	0.132
-281.501	166.074	-0.152	-0.216
-280.486	-26.644	-0.111	0.065
-279.472	-22.266	-0.054	-0.033
-278.457	-200.000	0.046	-0.218
-277.443	20.038	0.156	0.126
-276.428	-87.544	0.218	-0.066
-275.413	257.766	0.070	0.121
-274.399	-200.000	0.058	0.467
-273.384	-200.000	-0.066	0.413
-272.370	-99.037	-0.275	-0.070
-271.355	-4.474	-0.107	-0.074
-270.340	-101.630	0.256	-0.062
-269.326	-85.499	0.330	0.103
-268.311	-50.095	-0.215	0.102
-267.297	15.830	-0.274	0.216
-266.282	14.793	0.440	0.345
-265.267	-159.902	-0.357	0.020
-264.253	40.235	0.186	-0.168
-263.238	-34.243	0.209	-0.115
-262.224	-73.663	-0.178	-0.065
-261.209	36.732	0.293	0.260
-260.195	254.848	0.093	0.159
-259.180	-200.000	0.051	-0.274
-258.165	-130.264	0.049	-0.007
-257.151	-200.000	-0.077	-0.454
-256.136	361.751	0.119	-0.239
-255.122	-200.000	0.008	0.200
-254.107	-108.799	-0.083	-0.018
-253.092	383.471	0.131	0.269
-252.078	-44.178	0.161	-0.081
-251.063	-53.803	-0.112	-0.051
-250.049	-66.513	0.155	-0.062
-249.034	800.000	-0.127	-0.440
-248.019	-50.600	0.126	0.059
-247.005	74.885	-0.226	-0.239
-245.990	92.149	0.130	-0.147
-244.976	800.000	0.030	0.108
-243.961	622.425	-0.171	0.431
-242.946	-134.483	0.412	0.050
-241.932	-200.000	0.030	-0.282
-240.917	-64.698	-0.283	0.115
-239.903	95.529	-0.228	0.260
-238.888	-113.992	0.061	0.012
-237.873	141.946	-0.158	-0.210
-236.859	8.529	0.233	0.176
-235.844	-77.921	-0.049	-0.017
-234.830	-138.155	0.097	0.011
-233.815	800.000	-0.025	-0.085
-232.800	331.029	-0.227	-0.438
-231.786	-200.000	-0.023	0.165
-230.771	58.306	-0.142	-0.139
-229.757	-124.911	-0.185	0.029
-228.742	-56.633	-0.158	0.070
-227.727	51.103	-0.213	0.202
-226.713	169.921	0.120	-0.171
-225.698	-133.424	-0.449	0.056
-224.684	-67.127	-0.239	0.094
-223.669	-200.000	0.024	-0.167
-222.655	327.104	-0.076	0.145
-221.640	-200.000	-0.068	-0.340
-220.625	800.000	0.097	-0.347
-219.611	-73.567	-0.083	-0.030
-218.596	220.878	-0.076	0.121
-217.582	-164.728	-0.184	0.008
-216.567	-200.000	0.056	0.347
-215.552	-118.450	0.236	-0.042
-214.538	-200.000	0.052	0.239
-213.523	-168.343	0.319	0.012
-212.509	549.959	0.071	-0.171
-211.494	800.000	-0.141	0.394
-210.479	-0.127	0.357	0.254
-209.465	800.000	0.046	0.149
-208.450	11.651	0.082	-0.063
-207.436	337.127	0.036	-0.070
-206.421	-200.000	0.002	0.161
-205.406	800.000	-0.156	-0.565
-204.392	-163.763	0.126	0.006
-203.377	284.767	0.090	0.162
-202.363	-147.051	0.258	-0.022
-201.348	-109.744	-0.326	0.069
-200.333	29.368	-0.146	0.124
-199.319	141.533	0.120	0.159
-198.304	800.000	0.070	0.208
-197.290	-69.705	0.169	0.065
-196.275	800.000	0.034	0.097
-195.260	-88.206	-0.242	-0.072
-194.246	77.626	0.055	0.059
-193.231	43.997	0.274	0.251
-192.217	800.000	-0.065	-0.203
-191.202	121.592	-0.037	0.047
-190.187	-59.618	-0.125	0.053
-189.173	299.536	0.092	-0.169
-188.158	228.670	0.046	0.074
-187.144	-200.000	-0.003	0.043
-186.129	-58.020	0.342	-0.149
-185.114	176.326	-0.049	-0.071
-184.100	12.046	0.243	0.187
-183.085	-99.428	0.553	0.139
-182.071	-146.213	-0.044	0.004
-181.056	341.607	0.054	0.105
-180.042	-6.459	-0.053	0.036
-179.027	-93.280	-0.324	0.090
-178.012	-200.000	-0.013	0.269
-176.998	-200.000	0.036	0.238
-175.983	110.118	0.073	-0.088
-174.969	721.658	0.050	-0.132
-173.954	155.608	-0.018	0.024
-172.939	-39.634	0.239	-0.125
-171.925	-200.000	-0.072	0.322
-170.910	-173.407	0.200	0.006
-169.896	400.747	0.063	-0.131
-168.881	217.996	-0.021	-0.034
-167.866	-62.320	0.082	-0.034
-166.852	87.867	-0.113	-0.125
-165.837	-200.000	-0.005	-0.342
-164.823	-200.000	0.014	-0.341
-163.808	-107.907	0.099	-0.022
-162.793	29.293	-0.220	-0.186
-161.779	11.592	-0.123	-0.094
-160.764	24.113	0.162	-0.134
-159.750	800.000	0.017	-0.069
-158.735	-200.000	0.001	0.132
-157.720	-25.141	-0.223	-0.132
-156.706	147.673	0.292	-0.393
-155.691	-99.745	0.121	0.030
-154.677	-138.814	-0.425	0.046
-153.662	-200.000	0.074	0.338
-152.647	342.136	-0.121	-0.237
-151.633	-200.000	0.036	-0.252
-150.618	-160.498	0.165	-0.009
-149.604	53.375	0.234	0.224
-148.589	-65.734	-0.109	-0.044
-147.574	-200.000	0.074	-0.598
-146.560	-44.221	0.138	-0.069
-145.545	-33.147	0.038	0.021
-144.531	-200.000	0.050	0.231
-143.516	-155.458	-0.272	0.018
-142.502	317.973	0.082	-0.154
-141.487	20.411	-0.139	0.112
-140.472	104.428	-0.284	-0.334
-139.458	196.848	0.225	-0.342
-138.443	549.921	-0.065	-0.155
-137.429	45.821	-0.184	-0.170
-136.414	-200.000	0.049	-0.239
-135.399	187.420	0.100	0.149
-134.385	-200.000	0.022	-0.318
-133.370	172.359	-0.118	-0.169
-132.356	34.760	-0.038	-0.033
-131.341	109.243	-0.276	0.329
-130.326	310.399	0.077	0.143
-129.312	-96.723	0.076	-0.020
-128.297	158.207	0.095	0.131
-127.283	-117.841	0.352	0.063
-126.268	-48.906	-0.251	0.120
-125.253	800.000	0.050	0.159
-124.239	-85.447	-0.289	0.090
-123.224	-200.000	-0.026	0.208
-122.210	-48.620	-0.163	0.078
-121.195	800.000	0.126	-0.358
