DTS Sentinel unit serial number:	SN413079Multiplexer serial number:	ORYXHardware model number:	OX4-SRSoftware version number:	ORYX F/W v4.00 Oryx Data Collector v3.7.2.0data status	okinstallation	princeton_trtdifferential loss correction	single-endedforward channel	channel 3reverse channel	N/Adate	2019/09/13time	06:52:35forward acquisition time	60.00reverse acquisition time	0.00gamma	496.2192k internal	0.2339k external	0.2339temperature offset calibration	1.0137default loss term (dB/km)	0.3790temperature slope calibration	1.0000multiplexer offset coefficient	1.0000multiplexer slope coefficient	1.0000fibre end	0.00T internal ref (°C)	26.00T ext. ref 1 (°C)	4.12T ext. ref 2 (°C)	20.62length (m)	temperature (°C)	Stokes	anti-Stokes-747.200	112.464	-0.075	0.090
-746.185	99.803	0.049	-0.057
-745.171	-200.000	-0.000	0.161
-744.156	-32.382	0.243	0.136
-743.142	396.610	0.115	-0.242
-742.127	-200.000	0.040	0.301
-741.112	669.855	-0.095	0.246
-740.098	101.066	-0.264	-0.309
-739.083	46.484	-0.206	0.191
-738.069	-42.137	-0.315	0.162
-737.054	13.238	0.129	-0.100
-736.039	654.728	-0.082	-0.210
-735.025	196.824	-0.089	0.137
-734.010	-200.000	-0.023	-0.379
-732.996	-200.000	-0.065	0.456
-731.981	-200.000	-0.037	-0.260
-730.966	-200.000	0.014	-0.115
-729.952	24.445	-0.399	0.330
-728.937	-200.000	0.019	0.161
-727.923	-72.015	0.308	-0.115
-726.908	604.748	-0.046	-0.115
-725.894	58.514	-0.140	-0.138
-724.879	7.709	-0.105	0.079
-723.864	58.132	0.105	-0.104
-722.850	42.589	0.129	-0.118
-721.835	-17.661	-0.085	-0.054
-720.821	800.000	0.057	-0.182
-719.806	113.168	0.262	-0.318
-718.791	-200.000	0.019	-0.220
-717.777	-30.318	-0.103	0.059
-716.762	59.527	-0.093	-0.091
-715.748	271.866	0.141	-0.250
-714.733	800.000	-0.025	0.089
-713.718	-37.646	-0.260	0.139
-712.704	-101.319	0.118	-0.029
-711.689	-68.110	-0.513	-0.200
-710.675	-1.713	-0.247	0.174
-709.660	-200.000	-0.069	-0.309
-708.645	800.000	0.075	-0.260
-707.631	800.000	0.079	-0.234
-706.616	-91.164	-0.258	0.074
-705.602	108.795	-0.149	-0.178
-704.587	-152.720	0.350	0.025
-703.572	-109.909	-0.076	-0.016
-702.558	1.601	0.270	0.195
-701.543	62.715	0.126	-0.127
-700.529	-0.148	0.252	-0.179
-699.514	-88.606	0.154	0.046
-698.499	-37.501	0.034	-0.018
-697.485	-141.814	0.099	-0.010
-696.470	255.081	0.121	-0.207
-695.456	73.639	0.143	-0.150
-694.441	-164.204	-0.270	-0.012
-693.426	251.135	0.108	-0.184
-692.412	-200.000	0.044	-0.202
-691.397	197.650	0.190	-0.290
-690.383	-200.000	-0.042	0.299
-689.368	-77.771	-0.237	-0.082
-688.354	-14.752	0.153	0.098
-687.339	800.000	-0.023	-0.078
-686.324	-174.178	-0.433	0.013
-685.310	-88.363	-0.217	0.065
-684.295	800.000	-0.093	-0.326
-683.281	113.802	0.052	0.064
-682.266	-78.389	-0.083	0.029
-681.251	-126.461	-0.231	-0.034
-680.237	-152.758	-0.177	0.013
-679.222	-120.149	-0.218	-0.037
-678.208	-200.000	0.160	0.000
-677.193	-32.012	0.139	-0.078
-676.178	-133.277	0.206	0.026
-675.164	-100.876	-0.058	-0.014
-674.149	243.859	-0.166	-0.278
-673.135	-89.454	-0.496	-0.146
-672.120	-119.586	-0.185	0.032
-671.105	-200.000	-0.027	-0.162
-670.091	-49.699	-0.175	0.083
-669.076	-200.000	-0.018	-0.128
-668.062	-79.004	0.271	-0.092
-667.047	-43.220	-0.207	-0.105
-666.032	-96.325	0.106	-0.028
-665.018	-173.327	0.444	0.013
-664.003	204.467	-0.130	-0.202
-662.989	64.182	0.075	-0.076
-661.974	720.091	-0.164	-0.435
-660.959	-200.000	-0.050	-0.315
-659.945	335.003	0.031	-0.060
-658.930	-112.004	-0.294	-0.059
-657.916	-94.727	-0.272	-0.074
-656.901	800.000	0.042	-0.160
-655.886	26.463	-0.169	-0.141
-654.872	-104.298	-0.287	-0.066
-653.857	-47.283	0.182	-0.089
-652.843	-41.851	0.067	0.034
-651.828	-18.746	-0.113	0.070
-650.814	137.037	-0.072	-0.093
-649.799	-115.218	-0.314	0.059
-648.784	-93.732	0.383	0.106
-647.770	-200.000	-0.010	0.227
-646.755	286.120	0.121	0.218
-645.741	-4.031	0.156	-0.108
-644.726	-31.855	0.206	0.115
-643.711	-145.117	0.305	0.028
-642.697	129.509	0.179	0.228
-641.682	-200.000	0.054	0.396
-640.668	-34.696	-0.142	0.078
-639.653	122.382	-0.207	-0.258
-638.638	-108.426	0.112	0.024
-637.624	147.403	0.256	-0.344
-636.609	80.630	-0.205	-0.221
-635.595	24.419	0.132	0.109
-634.580	-23.038	0.252	0.152
-633.565	-156.206	-0.038	-0.002
-632.551	800.000	0.156	0.479
-631.536	-200.000	0.012	-0.237
-630.522	281.858	-0.117	-0.209
-629.507	556.094	-0.083	0.201
-628.492	-200.000	-0.018	0.297
-627.478	800.000	-0.036	-0.136
-626.463	5.463	-0.129	-0.095
-625.449	58.033	-0.090	0.088
-624.434	227.928	-0.096	0.155
-623.419	693.540	0.126	0.329
-622.405	533.062	-0.193	-0.455
-621.390	-174.541	0.187	0.005
-620.376	-77.624	-0.182	-0.063
-619.361	-66.126	0.241	-0.096
-618.346	-93.975	0.253	0.069
-617.332	-31.663	0.095	0.053
-616.317	189.689	-0.166	0.249
-615.303	-108.329	0.070	0.015
-614.288	737.857	0.020	-0.053
-613.273	800.000	0.080	-0.271
-612.259	-22.868	0.065	-0.039
-611.244	-7.728	-0.157	0.106
-610.230	800.000	0.071	-0.294
-609.215	318.593	-0.018	0.033
-608.201	800.000	-0.063	0.197
-607.186	-64.051	-0.232	-0.094
-606.171	-133.204	0.253	-0.032
-605.157	248.722	0.119	-0.202
-604.142	26.353	-0.271	-0.226
-603.128	151.068	-0.085	-0.116
-602.113	184.492	0.180	-0.266
-601.098	65.430	-0.197	-0.198
-600.084	50.285	-0.078	-0.074
-599.069	-73.825	-0.346	0.125
-598.055	100.068	-0.211	-0.244
-597.040	-167.346	0.096	-0.004
-596.025	-34.518	0.040	-0.022
-595.011	-200.000	-0.044	-0.215
-593.996	35.246	-0.098	0.086
-592.982	248.760	-0.116	-0.196
-591.967	89.966	-0.261	0.291
-590.952	-21.457	0.327	0.199
-589.938	800.000	-0.120	-0.335
-588.923	93.140	-0.103	0.116
-587.909	87.780	0.071	-0.079
-586.894	73.672	-0.151	-0.158
-585.879	54.779	-0.098	0.095
-584.865	218.952	-0.184	0.294
-583.850	-136.198	-0.341	-0.040
-582.836	-66.035	-0.042	0.017
-581.821	-43.128	-0.025	-0.012
-580.806	749.897	0.116	-0.311
-579.792	309.268	0.086	-0.160
-578.777	158.304	-0.178	0.247
-577.763	1.998	-0.095	0.069
-576.748	96.099	-0.121	0.138
-575.733	149.973	-0.201	0.272
-574.719	352.072	-0.099	0.195
-573.704	-36.892	-0.120	0.064
-572.690	-200.000	-0.033	-0.152
-571.675	-200.000	-0.042	0.386
-570.661	77.170	-0.338	0.358
-569.646	-98.323	-0.147	0.038
-568.631	132.472	0.162	-0.208
-567.617	-155.617	-0.169	0.011
-566.602	800.000	-0.061	0.176
-565.588	-200.000	0.025	-0.123
-564.573	-130.545	-0.270	0.036
-563.558	-37.678	0.399	-0.211
-562.544	-30.631	-0.106	0.060
-561.529	33.765	0.115	-0.100
-560.515	-200.000	-0.028	-0.212
-559.500	800.000	-0.098	-0.276
-558.485	-161.326	0.109	0.006
-557.471	260.750	-0.275	0.473
-556.456	38.022	0.228	-0.202
-555.442	540.110	-0.100	-0.238
-554.427	-200.000	-0.013	-0.212
-553.412	-200.000	-0.048	0.250
-552.398	-69.593	-0.086	-0.033
-551.383	200.081	0.069	-0.106
-550.369	800.000	0.070	-0.256
-549.354	-2.314	0.306	0.214
-548.339	-200.000	-0.020	0.151
-547.325	-22.156	-0.165	0.099
-546.310	-69.867	-0.018	0.007
-545.296	63.930	-0.164	0.164
-544.281	800.000	-0.028	-0.088
-543.266	-89.555	-0.201	-0.059
-542.252	-29.695	0.175	-0.099
-541.237	263.882	0.153	-0.266
-540.223	-75.986	-0.118	-0.042
-539.208	138.445	-0.029	0.038
-538.193	100.182	0.263	-0.304
-537.179	-46.963	0.371	0.180
-536.164	123.213	-0.163	-0.203
-535.150	10.710	0.081	-0.062
-534.135	800.000	0.103	0.411
-533.121	86.332	-0.069	-0.075
-532.106	472.417	0.080	-0.180
-531.091	201.519	-0.122	-0.186
-530.077	-200.000	0.006	-0.112
-529.062	-65.020	-0.319	-0.128
-528.048	800.000	0.022	-0.086
-527.033	69.720	0.066	-0.068
-526.018	-31.564	0.236	-0.132
-525.004	-178.731	-0.131	0.003
-523.989	-158.790	-0.193	0.011
-522.975	26.778	0.231	-0.192
-521.960	335.980	0.090	-0.174
-520.945	-49.547	0.207	-0.098
-519.931	96.694	0.124	-0.142
-518.916	-200.000	-0.063	0.500
-517.902	276.410	-0.093	0.165
-516.887	-200.000	0.008	-0.045
-515.872	7.516	0.169	-0.125
-514.858	38.844	-0.108	-0.096
-513.843	-58.009	-0.185	-0.080
-512.829	-200.000	-0.029	-0.230
-511.814	-52.222	-0.107	-0.049
-510.799	-149.579	-0.170	0.013
-509.785	-60.844	0.272	-0.115
-508.770	-25.451	-0.224	-0.132
-507.756	65.107	-0.154	0.155
-506.741	-200.000	-0.018	0.231
-505.726	7.136	-0.071	0.053
-504.712	800.000	0.053	0.180
-503.697	0.777	-0.104	0.074
-502.683	494.582	-0.030	0.069
-501.668	-114.205	0.473	0.091
-500.653	442.575	0.067	0.145
-499.639	-101.687	-0.109	0.026
-498.624	121.612	0.161	-0.200
-497.610	800.000	0.086	-0.340
-496.595	-200.000	-0.012	0.064
-495.581	107.022	0.159	0.188
-494.566	800.000	-0.055	-0.236
-493.551	657.570	-0.103	0.262
-492.537	-200.000	0.040	-0.176
-491.522	-200.000	-0.003	0.078
-490.508	123.146	-0.200	0.249
-489.493	11.770	-0.160	0.122
-488.478	327.395	0.133	0.253
-487.464	-200.000	-0.033	0.250
-486.449	-90.743	0.148	0.042
-485.435	13.899	0.112	0.086
-484.420	-140.322	-0.313	0.032
-483.405	-74.486	0.317	0.113
-482.391	800.000	0.038	0.146
-481.376	800.000	0.026	0.077
-480.362	164.106	0.162	-0.226
-479.347	-23.259	0.236	0.141
-478.332	115.253	-0.140	0.170
-477.318	-111.090	0.179	-0.036
-476.303	386.930	0.028	-0.057
-475.289	800.000	-0.040	0.120
-474.274	800.000	0.052	-0.178
-473.259	444.804	0.114	-0.249
-472.245	-52.895	-0.102	0.047
-471.230	-101.792	-0.063	0.015
-470.216	-144.007	-0.185	0.017
-469.201	-33.831	-0.208	-0.114
-468.186	-200.000	0.011	-0.178
-467.172	800.000	-0.035	-0.138
-466.157	-27.255	0.238	-0.138
-465.143	13.780	0.160	0.123
-464.128	47.995	-0.200	0.186
-463.113	106.916	0.016	0.019
-462.099	67.512	-0.237	-0.240
-461.084	-106.144	-0.226	0.050
-460.070	133.694	-0.174	0.224
-459.055	294.048	-0.186	-0.336
-458.040	-98.787	-0.402	-0.102
-457.026	-200.000	-0.018	0.130
-456.011	2.801	0.190	0.137
-454.997	91.534	-0.102	0.113
-453.982	643.510	0.062	0.157
-452.968	-48.516	0.177	0.085
-451.953	-147.641	-0.185	-0.015
-450.938	-105.806	-0.149	-0.033
-449.924	4.857	0.189	0.138
-448.909	-114.813	-0.172	0.032
-447.895	-18.088	-0.211	0.131
-446.880	800.000	0.135	-0.486
-445.865	-8.565	0.237	-0.158
-444.851	-200.000	0.019	0.229
-443.836	-200.000	0.047	0.214
-442.822	800.000	-0.088	-0.369
-441.807	-200.000	0.043	0.246
-440.792	109.625	-0.154	-0.183
-439.778	-13.035	-0.143	-0.092
-438.763	-172.323	-0.122	0.004
-437.749	231.397	-0.127	-0.206
-436.734	334.021	-0.107	-0.205
-435.719	-38.533	0.330	-0.173
-434.705	2.138	-0.180	0.129
-433.690	-148.120	0.217	0.018
-432.676	-32.671	0.349	-0.192
-431.661	-48.755	-0.287	-0.137
-430.646	800.000	0.081	0.348
-429.632	-134.491	0.192	0.023
-428.617	-74.508	-0.464	0.166
-427.603	56.270	-0.294	-0.283
-426.588	-27.977	0.176	0.101
-425.573	27.068	-0.115	-0.096
-424.559	465.289	-0.135	-0.299
-423.544	-86.097	-0.241	0.074
-422.530	800.000	-0.144	-0.448
-421.515	800.000	0.058	0.182
-420.500	-83.505	0.296	0.094
-419.486	402.845	-0.074	-0.154
-418.471	800.000	0.037	-0.148
-417.457	281.472	0.276	-0.490
-416.442	-200.000	0.023	-0.283
-415.428	192.126	-0.091	-0.136
-414.413	-81.611	-0.046	0.015
-413.398	548.042	0.022	0.053
-412.384	-43.083	0.362	0.182
-411.369	-200.000	0.004	0.121
-410.355	-63.823	0.017	0.007
-409.340	-3.595	0.256	0.176
-408.325	55.877	0.069	0.066
-407.311	47.972	0.160	-0.148
-406.296	168.255	0.125	0.176
-405.282	-97.790	0.088	0.023
-404.267	58.969	-0.092	-0.090
-403.252	-200.000	0.018	-0.110
-402.238	-81.643	0.293	0.095
-401.223	211.535	-0.126	-0.196
-400.209	12.069	0.198	0.151
-399.194	800.000	-0.091	0.372
-398.179	-120.459	-0.486	0.082
-397.165	22.807	0.197	0.160
-396.150	-200.000	0.024	0.154
-395.136	217.512	-0.079	0.125
-394.121	227.542	0.112	-0.180
-393.106	102.754	-0.232	0.269
-392.092	-200.000	-0.013	0.153
-391.077	11.214	0.354	-0.268
-390.063	223.696	0.091	0.145
-389.048	397.532	0.062	-0.128
-388.033	-200.000	-0.002	-0.060
-387.019	97.045	0.194	-0.221
-386.004	-132.521	0.164	-0.021
-384.990	-200.000	-0.046	0.246
-383.975	-103.759	-0.343	-0.079
-382.960	255.756	0.049	-0.084
-381.946	-4.620	-0.177	0.121
-380.931	-76.048	0.282	0.099
-379.917	-200.000	-0.036	0.414
-378.902	-99.790	0.225	-0.056
-377.888	-200.000	-0.082	0.456
-376.873	-147.848	0.189	0.016
-375.858	-147.810	0.368	-0.030
-374.844	-32.809	-0.031	0.017
-373.829	-10.681	-0.216	-0.141
-372.815	-144.224	0.088	-0.008
-371.800	-142.984	0.113	-0.011
-370.785	111.442	-0.103	0.123
-369.771	-107.058	-0.098	-0.021
-368.756	67.985	-0.179	-0.182
-367.742	-200.000	0.008	0.045
-366.727	488.455	0.071	-0.161
-365.712	-200.000	-0.035	0.213
-364.698	237.871	-0.179	-0.293
-363.683	-65.499	0.193	-0.077
-362.669	-6.714	0.149	-0.100
-361.654	51.218	0.256	0.240
-360.639	124.777	-0.138	0.171
-359.625	18.643	-0.056	0.044
-358.610	-200.000	0.012	0.093
-357.596	109.023	-0.221	-0.262
-356.581	-68.377	-0.311	-0.119
-355.566	-102.896	-0.210	-0.049
-354.552	-139.014	-0.252	-0.027
-353.537	-196.205	0.108	-0.001
-352.523	-38.225	0.127	0.066
-351.508	60.222	-0.209	-0.205
-350.493	43.172	-0.049	-0.044
-349.479	47.093	-0.094	-0.087
-348.464	39.704	-0.111	-0.098
-347.450	-2.485	0.366	-0.253
-346.435	314.401	0.070	0.131
-345.420	-66.679	0.238	-0.093
-344.406	-164.018	-0.152	-0.007
-343.391	-95.582	0.075	0.020
-342.377	214.983	0.102	0.159
-341.362	-53.548	0.091	-0.041
-340.348	-200.000	-0.021	-0.122
-339.333	122.126	0.081	-0.100
-338.318	242.813	0.063	0.104
-337.304	800.000	0.096	-0.404
-336.289	37.576	-0.198	-0.173
-335.275	-21.658	0.141	0.085
-334.260	-114.720	-0.353	-0.067
-333.245	-107.589	-0.289	-0.062
-332.231	78.513	0.333	-0.352
-331.216	-200.000	-0.064	-0.480
-330.202	-69.230	0.133	0.051
-329.187	800.000	0.042	0.124
-328.172	131.353	-0.055	0.069
-327.158	-200.000	-0.030	0.184
-326.143	5.703	-0.041	0.030
-325.129	63.430	-0.081	-0.080
-324.114	-87.991	0.220	-0.065
-323.099	56.945	0.083	0.080
-322.085	-65.329	0.366	0.145
-321.070	211.360	-0.176	0.273
-320.056	101.335	0.210	-0.242
-319.041	-200.000	-0.045	0.273
-318.026	-26.647	-0.158	-0.091
-317.012	-137.479	-0.351	-0.039
-315.997	-42.191	-0.327	-0.165
-314.983	153.056	0.050	-0.067
-313.968	-120.232	0.466	-0.078
-312.953	800.000	-0.040	0.112
-311.939	-177.342	-0.104	0.003
-310.924	62.730	-0.060	0.059
-309.910	-165.125	0.183	-0.008
-308.895	-71.222	0.452	0.167
-307.880	-64.358	0.174	-0.070
-306.866	800.000	0.048	0.136
-305.851	12.785	0.240	-0.183
-304.837	-52.692	0.136	-0.062
-303.822	234.617	-0.093	0.151
-302.807	22.848	-0.037	-0.030
-301.793	-60.071	0.082	0.035
-300.778	292.166	0.102	0.183
-299.764	-200.000	0.018	-0.085
-298.749	-142.925	0.276	0.026
-297.735	-48.722	-0.087	-0.041
-296.720	247.207	0.290	-0.482
-295.705	800.000	0.069	0.269
-294.691	-147.526	0.107	-0.009
-293.676	-87.744	0.414	0.123
-292.662	-200.000	0.021	-0.212
-291.647	77.900	0.253	-0.266
-290.632	-113.094	-0.244	0.047
-289.618	103.883	0.043	0.049
-288.603	-14.795	-0.305	0.193
-287.589	490.841	-0.026	0.060
-286.574	-47.381	0.261	0.125
-285.559	-109.285	-0.148	0.031
-284.545	-200.000	0.048	-0.266
-283.530	-46.294	0.203	0.098
-282.516	22.147	-0.106	-0.085
-281.501	49.567	-0.095	-0.088
-280.486	800.000	0.126	0.424
-279.472	-77.905	-0.201	-0.068
-278.457	44.997	0.094	-0.085
-277.443	800.000	0.058	-0.226
-276.428	201.100	0.077	-0.117
-275.413	108.483	0.057	0.067
-274.399	800.000	0.066	-0.249
-273.384	-58.762	0.273	-0.116
-272.370	800.000	0.097	0.386
-271.355	354.988	0.165	0.323
-270.340	155.742	0.127	-0.172
-269.326	223.675	0.265	-0.421
-268.311	35.026	0.146	-0.126
-267.297	-18.104	-0.175	0.108
-266.282	-200.000	0.019	0.238
-265.267	-44.666	0.317	0.156
-264.253	-38.411	0.087	0.045
-263.238	267.208	0.153	-0.264
-262.224	-171.486	-0.227	0.007
-261.209	-38.631	-0.331	-0.172
-260.195	-35.795	0.236	0.126
-259.180	-71.232	-0.348	0.129
-258.165	762.194	-0.038	-0.102
-257.151	800.000	0.134	0.382
-256.136	7.160	0.103	-0.076
-255.122	166.558	0.155	0.216
-254.107	106.386	-0.167	-0.195
-253.092	-200.000	0.002	-0.019
-252.078	-121.931	-0.029	-0.005
-251.063	49.844	0.161	0.150
-250.049	-10.504	0.192	0.125
-249.034	219.207	0.140	0.220
-248.019	96.319	-0.131	-0.147
-247.005	-127.311	0.333	-0.048
-245.990	-200.000	-0.036	0.270
-244.976	-101.412	-0.102	-0.024
-243.961	-99.788	-0.075	-0.018
-242.946	6.766	0.220	0.161
-241.932	90.683	-0.314	-0.346
-240.917	206.231	-0.087	0.134
-239.903	-200.000	0.033	0.192
-238.888	-120.880	-0.247	-0.041
-237.873	-80.030	0.184	0.061
-236.859	4.053	0.194	0.139
-235.844	37.847	0.069	0.060
-234.830	283.622	-0.162	0.287
-233.815	122.323	0.087	0.107
-232.800	46.955	-0.218	-0.200
-231.786	-9.175	-0.060	-0.039
-230.771	-10.306	0.155	0.101
-229.757	-200.000	-0.037	-0.204
-228.742	800.000	0.016	-0.058
-227.727	-86.738	-0.424	-0.127
-226.713	264.002	-0.207	-0.354
-225.698	800.000	0.013	-0.052
-224.684	-39.855	0.190	0.098
-223.669	-137.296	-0.167	-0.019
-222.655	91.209	-0.056	0.061
-221.640	100.187	-0.138	-0.158
-220.625	-200.000	-0.013	0.077
-219.611	-200.000	0.061	0.264
-218.596	-200.000	-0.066	-0.410
-217.582	-94.112	0.167	-0.045
-216.567	-200.000	0.009	0.100
-215.552	-200.000	0.022	0.110
-214.538	-108.816	0.199	0.042
-213.523	40.962	-0.035	-0.031
-212.509	-176.568	-0.217	-0.005
-211.494	84.424	-0.120	-0.129
-210.479	130.157	-0.046	-0.058
-209.465	-200.000	-0.035	0.271
-208.450	800.000	0.051	0.200
-207.436	57.572	-0.246	-0.237
-206.421	230.478	0.092	-0.148
-205.406	47.725	-0.142	-0.130
-204.392	-10.582	0.386	0.251
-203.377	-51.803	-0.164	0.075
-202.363	-98.402	-0.118	0.030
-201.348	232.798	-0.114	0.185
-200.333	800.000	-0.118	-0.340
-199.319	-40.673	-0.135	0.069
-198.304	-43.811	0.377	0.187
-197.290	-16.615	-0.107	0.066
-196.275	507.860	-0.116	0.263
-195.260	-38.188	0.222	-0.115
-194.246	800.000	0.043	0.180
-193.231	-200.000	-0.037	-0.197
-192.217	-64.569	-0.328	-0.131
-191.202	19.752	0.099	0.078
-190.187	-64.591	0.133	0.053
-189.173	687.226	0.064	0.164
-188.158	-200.000	0.018	-0.179
-187.144	-200.000	-0.021	0.228
-186.129	800.000	0.098	0.412
-185.114	800.000	-0.006	0.024
-184.100	149.500	0.143	-0.191
-183.085	357.953	-0.122	0.240
-182.071	32.757	-0.170	0.145
-181.056	35.077	-0.125	0.108
-180.042	145.498	0.062	0.081
-179.027	-44.669	0.300	0.147
-178.012	113.700	-0.145	-0.173
-176.998	711.443	-0.036	-0.094
-175.983	800.000	0.065	-0.243
-174.969	436.459	0.102	0.219
-173.954	-9.168	-0.128	0.084
-172.939	-2.428	0.166	-0.114
-171.925	-200.000	0.017	-0.075
-170.910	31.716	-0.215	0.182
-169.896	-70.318	-0.208	0.078
-168.881	-64.781	0.126	-0.050
-167.866	181.581	-0.028	0.041
-166.852	327.936	-0.164	0.308
-165.837	-45.346	-0.466	0.227
-164.823	-35.962	-0.004	-0.002
-163.808	-200.000	-0.008	-0.160
-162.793	-76.726	0.123	-0.042
-161.779	-200.000	-0.057	0.350
-160.764	-200.000	0.016	-0.314
-159.750	133.822	-0.196	-0.249
-158.735	146.534	-0.163	0.214
-157.720	22.517	-0.253	-0.203
-156.706	40.287	-0.155	0.137
-155.691	654.543	-0.091	-0.230
-154.677	-200.000	-0.021	0.111
-153.662	380.168	0.148	0.298
-152.647	85.662	-0.085	-0.092
-151.633	-16.519	-0.041	-0.025
-150.618	-71.167	-0.112	-0.041
-149.604	567.129	-0.049	0.116
-148.589	-200.000	-0.041	-0.279
-147.574	472.031	0.061	-0.134
-146.560	-200.000	0.063	-0.424
-145.545	-200.000	0.042	0.229
-144.531	-200.000	-0.017	0.243
-143.516	-200.000	0.004	-0.080
-142.502	-200.000	0.035	-0.292
-141.487	-79.216	-0.159	-0.053
-140.472	65.149	0.174	-0.172
-139.458	-90.948	-0.328	-0.093
-138.443	-100.468	0.240	0.058
-137.429	320.905	0.137	0.254
-136.414	12.828	-0.172	-0.130
-135.399	-58.306	0.097	0.041
-134.385	499.010	0.055	0.125
-133.370	-85.823	-0.090	0.027
-132.356	800.000	0.089	-0.262
-131.341	321.030	-0.096	-0.179
-130.326	140.616	-0.217	0.280
-129.312	12.217	0.324	0.244
-128.297	776.162	-0.155	-0.415
-127.283	-135.292	0.192	-0.023
-126.268	-134.602	0.207	-0.025
-125.253	-13.241	-0.172	-0.110
-124.239	81.823	0.127	0.135
-123.224	-109.565	0.259	0.054
-122.210	-11.088	-0.114	-0.073
-121.195	800.000	0.064	0.175
