DTS Sentinel unit serial number:	SN413079Multiplexer serial number:	ORYXHardware model number:	OX4-SRSoftware version number:	ORYX F/W v4.00 Oryx Data Collector v3.7.2.0data status	okinstallation	princeton_trtdifferential loss correction	single-endedforward channel	channel 3reverse channel	N/Adate	2019/09/19time	10:16:35forward acquisition time	60.00reverse acquisition time	0.00gamma	496.2192k internal	0.2343k external	0.2343temperature offset calibration	0.9977default loss term (dB/km)	0.3790temperature slope calibration	1.0000multiplexer offset coefficient	1.0000multiplexer slope coefficient	1.0000fibre end	0.00T internal ref (°C)	24.11T ext. ref 1 (°C)	0.69T ext. ref 2 (°C)	19.80length (m)	temperature (°C)	Stokes	anti-Stokes-747.200	471.911	0.150	0.338
-746.185	800.000	-0.090	0.366
-745.171	-55.403	-0.213	0.096
-744.156	-78.451	-0.289	0.099
-743.142	155.542	0.041	0.057
-742.127	154.993	-0.117	0.162
-741.112	-29.100	0.237	-0.136
-740.098	-200.000	-0.024	0.144
-739.083	240.108	-0.108	0.181
-738.069	199.379	-0.058	-0.090
-737.054	49.199	0.089	0.083
-736.039	100.285	0.276	0.321
-735.025	70.552	0.301	0.312
-734.010	-95.999	-0.239	-0.064
-732.996	-141.836	0.293	-0.029
-731.981	-56.645	-0.548	0.243
-730.966	-54.107	-0.142	-0.065
-729.952	-200.000	0.004	0.047
-728.937	-89.603	-0.190	0.056
-727.923	87.008	-0.203	-0.224
-726.908	-200.000	-0.029	-0.241
-725.894	-16.781	-0.276	0.175
-724.879	-61.834	-0.125	-0.053
-723.864	-146.468	-0.056	-0.005
-722.850	55.144	0.259	-0.251
-721.835	1.346	-0.387	0.278
-720.821	800.000	-0.149	-0.421
-719.806	-48.510	0.178	0.086
-718.791	126.357	-0.021	-0.026
-717.777	-81.434	-0.167	-0.055
-716.762	-200.000	0.030	-0.142
-715.748	204.990	-0.130	-0.202
-714.733	-67.856	0.255	-0.100
-713.718	-184.905	0.254	-0.004
-712.704	-100.095	-0.357	-0.089
-711.689	12.071	0.008	0.006
-710.675	-12.108	-0.255	-0.167
-709.660	-79.055	0.172	-0.059
-708.645	-53.897	-0.347	0.158
-707.631	-64.257	-0.247	-0.101
-706.616	-71.059	0.296	-0.111
-705.602	6.452	0.143	0.106
-704.587	-88.784	0.187	-0.056
-703.572	-200.000	-0.025	0.162
-702.558	0.471	0.352	-0.252
-701.543	10.700	-0.295	-0.225
-700.529	-44.467	0.144	-0.072
-699.514	-139.333	0.252	-0.027
-698.499	-95.954	0.105	-0.028
-697.485	-78.828	0.280	0.096
-696.470	116.696	-0.175	0.215
-695.456	-52.353	-0.384	-0.178
-694.441	800.000	0.068	0.271
-693.426	-200.000	0.029	-0.168
-692.412	-27.696	-0.174	0.101
-691.397	-47.239	-0.098	-0.048
-690.383	-116.636	-0.100	-0.018
-689.368	-200.000	0.031	0.140
-688.354	-70.939	0.142	0.053
-687.339	239.915	-0.184	0.307
-686.324	3.111	0.232	-0.169
-685.310	-200.000	-0.020	-0.096
-684.295	-35.859	-0.043	0.023
-683.281	-12.426	0.202	0.132
-682.266	-178.230	0.608	0.014
-681.251	218.181	0.100	-0.159
-680.237	156.081	0.047	-0.065
-679.222	-110.916	-0.103	-0.021
-678.208	-200.000	-0.006	-0.236
-677.193	800.000	0.036	-0.135
-676.178	369.390	-0.126	-0.255
-675.164	-200.000	-0.006	0.175
-674.149	97.822	0.061	-0.071
-673.135	800.000	0.057	-0.185
-672.120	-140.144	0.028	-0.003
-671.105	-102.310	-0.180	-0.043
-670.091	-200.000	-0.008	-0.408
-669.076	466.352	-0.176	-0.393
-668.062	36.470	0.206	0.181
-667.047	-19.452	-0.204	0.126
-666.032	-107.320	-0.283	0.062
-665.018	-163.308	-0.105	0.005
-664.003	-200.000	0.030	-0.198
-662.989	-111.887	-0.162	0.033
-661.974	-18.662	-0.074	0.046
-660.959	-39.141	0.121	0.064
-659.945	-19.721	0.208	-0.129
-658.930	513.358	-0.018	0.043
-657.916	800.000	-0.042	0.170
-656.901	-33.730	0.176	-0.097
-655.886	74.089	-0.083	0.087
-654.872	382.378	-0.133	0.272
-653.857	351.012	0.108	0.213
-652.843	444.362	0.021	0.046
-651.828	-41.638	-0.152	-0.078
-650.814	800.000	-0.135	0.382
-649.799	-101.241	-0.145	0.035
-648.784	-104.887	-0.198	0.045
-647.770	-61.392	0.201	0.084
-646.755	430.338	-0.144	-0.310
-645.741	-51.460	-0.106	0.049
-644.726	-200.000	-0.016	0.099
-643.711	-16.185	0.050	-0.031
-642.697	79.607	-0.146	0.156
-641.682	183.363	0.164	0.241
-640.668	109.896	-0.125	-0.150
-639.653	-200.000	0.019	0.233
-638.638	-51.123	-0.251	0.118
-637.624	13.468	-0.130	-0.101
-636.609	-200.000	0.038	0.197
-635.595	-24.292	-0.180	-0.107
-634.580	256.799	-0.033	-0.056
-633.565	-137.064	-0.133	-0.015
-632.551	68.018	0.194	0.198
-631.536	-200.000	-0.039	-0.246
-630.522	200.161	-0.080	-0.122
-629.507	-119.895	0.242	-0.042
-628.492	23.778	-0.156	0.128
-627.478	-165.159	-0.374	0.016
-626.463	-59.526	-0.175	0.075
-625.449	99.973	0.179	0.206
-624.434	615.534	0.157	0.393
-623.419	-200.000	-0.005	-0.050
-622.405	370.787	0.037	-0.075
-621.390	127.902	0.220	0.279
-620.376	-117.567	-0.172	0.031
-619.361	-133.806	-0.191	-0.024
-618.346	595.417	0.066	-0.162
-617.332	-200.000	0.016	-0.075
-616.317	-15.527	-0.133	-0.084
-615.303	99.498	0.097	-0.111
-614.288	513.647	-0.059	-0.137
-613.273	800.000	-0.105	-0.327
-612.259	-46.975	0.148	0.072
-611.244	145.170	0.289	-0.385
-610.230	236.798	-0.074	-0.122
-609.215	101.674	-0.140	0.163
-608.201	-155.059	0.034	-0.002
-607.186	-196.812	-0.365	0.002
-606.171	800.000	-0.092	0.281
-605.157	1.748	0.052	-0.038
-604.142	-66.573	0.092	-0.036
-603.128	217.744	0.091	0.145
-602.113	140.082	-0.049	-0.064
-601.098	-103.713	0.127	-0.030
-600.084	-147.156	-0.327	-0.028
-599.069	70.329	-0.134	-0.138
-598.055	-19.588	-0.132	-0.081
-597.040	369.213	0.074	0.150
-596.025	-51.278	-0.053	-0.025
-595.011	-55.153	-0.282	-0.126
-593.996	-200.000	0.019	-0.126
-592.982	800.000	0.057	0.208
-591.967	-144.045	0.345	0.032
-590.952	62.281	-0.274	-0.272
-589.938	-26.967	0.457	-0.266
-588.923	-118.098	-0.066	-0.012
-587.909	-200.000	0.041	-0.261
-586.894	-63.788	-0.305	0.124
-585.879	-61.104	0.259	-0.109
-584.865	-144.798	0.235	-0.022
-583.850	-15.847	-0.063	-0.040
-582.836	-107.465	0.171	-0.037
-581.821	-200.000	0.005	0.160
-580.806	-14.512	0.166	-0.106
-579.792	-101.548	0.192	0.046
-578.777	134.501	0.010	-0.013
-577.763	106.548	-0.126	-0.148
-576.748	359.365	0.136	-0.271
-575.733	114.944	0.192	0.233
-574.719	132.481	-0.058	-0.074
-573.704	77.062	-0.251	0.266
-572.690	-69.162	0.105	-0.040
-571.675	387.994	0.057	-0.118
-570.661	-102.548	0.072	0.017
-569.646	-137.077	-0.302	0.034
-568.631	-90.893	0.256	-0.073
-567.617	-200.000	-0.046	-0.246
-566.602	-200.000	0.069	-0.432
-565.588	122.554	0.083	-0.104
-564.573	-200.000	-0.058	-0.256
-563.558	-200.000	-0.006	-0.106
-562.544	-101.541	0.066	0.016
-561.529	-16.963	-0.180	0.113
-560.515	-157.732	-0.261	-0.015
-559.500	-200.000	0.014	0.297
-558.485	243.841	-0.118	0.197
-557.471	163.575	-0.106	0.148
-556.456	124.036	-0.126	0.158
-555.442	800.000	0.041	0.144
-554.427	-200.000	0.011	-0.128
-553.412	155.375	0.176	-0.240
-552.398	-200.000	0.006	-0.096
-551.383	-163.566	-0.243	-0.011
-550.369	-21.531	0.208	-0.126
-549.354	316.674	-0.120	0.226
-548.339	144.838	-0.116	-0.154
-547.325	190.507	-0.126	-0.189
-546.310	89.056	0.056	0.061
-545.296	-43.511	-0.140	0.070
-544.281	-200.000	0.004	0.127
-543.266	-200.000	-0.021	-0.330
-542.252	-157.053	-0.125	0.008
-541.237	800.000	-0.054	0.185
-540.223	30.125	0.203	0.172
-539.208	509.040	-0.162	0.374
-538.193	800.000	0.206	0.598
-537.179	530.116	-0.060	-0.142
-536.164	-18.904	0.138	-0.085
-535.150	-74.848	-0.229	0.082
-534.135	-30.729	0.156	0.087
-533.121	-200.000	0.012	-0.158
-532.106	678.318	-0.031	0.080
-531.091	595.858	-0.084	0.207
-530.077	-6.189	-0.133	-0.090
-529.062	-200.000	-0.003	-0.147
-528.048	260.037	0.151	-0.259
-527.033	195.096	0.014	0.021
-526.018	51.410	-0.072	0.068
-525.004	-63.563	0.216	-0.088
-523.989	242.172	-0.120	0.200
-522.975	-42.372	-0.287	-0.145
-521.960	268.252	0.191	-0.333
-520.945	-38.364	-0.284	-0.149
-519.931	312.594	-0.101	-0.189
-518.916	-94.165	0.237	0.065
-517.902	-123.791	0.355	0.056
-516.887	80.150	-0.146	-0.156
-515.872	800.000	-0.034	0.143
-514.858	76.501	0.093	0.097
-513.843	309.716	0.111	0.206
-512.829	800.000	-0.057	-0.197
-511.814	-200.000	-0.039	-0.182
-510.799	16.050	-0.178	-0.139
-509.785	800.000	0.122	-0.408
-508.770	-9.309	-0.272	0.180
-507.756	-36.014	-0.083	0.044
-506.741	464.377	-0.139	-0.309
-505.726	-200.000	0.002	-0.188
-504.712	316.810	0.232	0.435
-503.697	-43.671	-0.007	-0.004
-502.683	26.739	-0.083	-0.069
-501.668	-85.326	0.252	0.078
-500.653	-103.178	0.127	0.030
-499.639	-16.570	0.068	-0.043
-498.624	-43.874	0.134	0.067
-497.610	53.928	0.286	0.273
-496.595	800.000	0.090	0.309
-495.581	-140.411	0.329	-0.034
-494.566	-20.189	0.215	-0.131
-493.551	163.171	-0.089	-0.125
-492.537	100.813	-0.132	-0.152
-491.522	520.259	-0.128	-0.297
-490.508	123.684	-0.195	-0.243
-489.493	-153.562	0.265	0.018
-488.478	62.516	-0.308	-0.305
-487.464	-92.747	-0.468	-0.130
-486.449	-200.000	-0.027	0.166
-485.435	-46.767	-0.100	-0.049
-484.420	36.110	0.112	0.098
-483.405	-147.561	0.121	-0.010
-482.391	-200.000	-0.011	0.052
-481.376	71.448	0.132	0.136
-480.362	-200.000	-0.005	0.154
-479.347	22.216	-0.250	0.202
-478.332	800.000	-0.116	-0.401
-477.318	127.042	0.138	-0.173
-476.303	-68.882	-0.074	-0.028
-475.289	85.569	0.070	0.076
-474.274	-200.000	-0.002	0.119
-473.259	350.387	0.143	0.280
-472.245	-74.669	-0.234	0.084
-471.230	43.253	-0.179	-0.162
-470.216	-80.838	-0.221	0.073
-469.201	726.737	-0.061	0.160
-468.186	50.423	-0.367	0.344
-467.172	-8.556	-0.197	0.131
-466.157	800.000	-0.126	0.460
-465.143	7.629	0.245	0.182
-464.128	800.000	-0.043	-0.186
-463.113	245.758	0.078	-0.130
-462.099	-72.802	0.027	0.010
-461.084	564.797	-0.140	-0.336
-460.070	155.753	-0.018	0.025
-459.055	191.141	-0.182	0.271
-458.040	-200.000	0.005	0.364
-457.026	-10.048	0.214	-0.141
-456.011	800.000	-0.033	-0.125
-454.997	-95.749	-0.081	-0.021
-453.982	-133.614	0.331	-0.041
-452.968	800.000	-0.049	-0.161
-451.953	-88.047	-0.207	0.061
-450.938	-200.000	0.071	0.345
-449.924	-14.429	0.162	0.103
-448.909	215.801	0.240	-0.378
-447.895	-22.429	-0.242	-0.145
-446.880	-89.321	0.158	0.046
-445.865	-26.337	-0.087	-0.050
-444.851	800.000	0.042	0.164
-443.836	800.000	-0.053	0.183
-442.822	-89.820	0.198	-0.057
-441.807	1.763	0.222	0.158
-440.792	290.000	-0.095	-0.171
-439.778	-126.346	0.283	-0.042
-438.763	-200.000	-0.002	-0.099
-437.749	-67.511	-0.176	0.068
-436.734	-200.000	-0.007	-0.210
-435.719	-90.896	0.337	-0.096
-434.705	-200.000	-0.006	-0.436
-433.690	-200.000	-0.021	0.273
-432.676	-45.329	0.185	-0.091
-431.661	292.857	-0.010	0.018
-430.646	-200.000	0.041	0.376
-429.632	339.003	0.132	0.255
-428.617	-67.206	-0.425	0.166
-427.603	-130.041	-0.148	0.020
-426.588	-74.389	0.093	-0.033
-425.573	-92.513	0.184	-0.051
-424.559	-122.289	-0.314	0.051
-423.544	150.487	-0.093	0.125
-422.530	-93.416	0.193	-0.053
-421.515	54.094	-0.324	0.308
-420.500	-42.104	0.106	-0.054
-419.486	800.000	-0.127	-0.364
-418.471	136.293	0.133	-0.171
-417.457	-59.805	-0.257	0.109
-416.442	-200.000	0.043	0.337
-415.428	-184.977	0.201	-0.003
-414.413	800.000	-0.097	-0.299
-413.398	-109.645	-0.093	-0.019
-412.384	251.610	0.134	0.225
-411.369	800.000	-0.075	0.252
-410.355	800.000	0.040	0.137
-409.340	-98.673	-0.514	0.130
-408.325	93.106	0.177	0.198
-407.311	-50.047	-0.137	-0.064
-406.296	0.750	0.048	-0.034
-405.282	92.794	0.252	0.281
-404.267	-158.297	0.206	-0.012
-403.252	450.818	0.039	-0.086
-402.238	74.130	-0.048	-0.050
-401.223	-141.700	-0.138	-0.014
-400.209	-200.000	0.014	-0.171
-399.194	-119.024	0.284	-0.049
-398.179	-102.763	-0.356	0.084
-397.165	131.567	-0.129	-0.164
-396.150	-178.137	0.139	-0.003
-395.136	-182.921	-0.385	0.007
-394.121	-200.000	-0.001	-0.031
-393.106	10.752	-0.078	0.058
-392.092	-36.357	0.142	0.076
-391.077	594.333	-0.075	0.183
-390.063	559.823	-0.139	0.331
-389.048	-72.849	0.147	0.053
-388.033	-69.699	-0.066	0.025
-387.019	-200.000	-0.002	0.189
-386.004	43.077	0.216	0.195
-384.990	-200.000	-0.032	-0.306
-383.975	-133.642	0.323	-0.040
-382.960	-4.073	0.310	-0.212
-381.946	15.479	-0.194	-0.150
-380.931	347.848	-0.061	0.118
-379.917	355.991	0.081	-0.160
-378.902	662.462	0.032	0.082
-377.888	-65.944	0.221	-0.087
-376.873	-56.404	0.187	-0.082
-375.858	310.127	-0.130	-0.240
-374.844	800.000	0.154	0.435
-373.829	-16.749	0.108	0.067
-372.815	-133.602	0.140	0.017
-371.800	800.000	-0.054	0.195
-370.785	242.143	-0.308	-0.509
-369.771	242.283	0.055	0.090
-368.756	-5.750	0.040	-0.027
-367.742	-135.285	-0.347	0.041
-366.727	223.848	0.163	-0.260
-365.712	-200.000	0.014	-0.073
-364.698	-93.387	0.338	-0.092
-363.683	-164.291	-0.476	0.022
-362.669	-200.000	-0.149	-0.001
-361.654	-180.988	-0.141	-0.003
-360.639	-91.421	0.278	0.078
-359.625	-18.372	-0.079	0.049
-358.610	800.000	-0.116	-0.319
-357.596	155.665	-0.050	0.068
-356.581	-169.231	-0.036	0.001
-355.566	-144.298	-0.081	-0.007
-354.552	76.759	0.100	0.105
-353.537	267.054	0.089	-0.153
-352.523	800.000	-0.056	-0.181
-351.508	-90.526	-0.291	0.083
-350.493	-64.360	0.249	0.100
-349.479	-39.019	-0.206	0.107
-348.464	-76.982	-0.176	0.061
-347.450	-130.510	-0.072	-0.010
-346.435	16.359	-0.202	-0.157
-345.420	-33.075	0.048	0.026
-344.406	-200.000	-0.032	0.244
-343.391	331.343	-0.117	0.223
-342.377	606.485	-0.154	-0.378
-341.362	-4.763	0.138	-0.094
-340.348	-73.523	-0.134	0.048
-339.333	-200.000	0.022	0.225
-338.318	-82.309	0.126	-0.040
-337.304	800.000	0.035	0.124
-336.289	800.000	-0.088	-0.270
-335.275	-63.007	-0.305	-0.124
-334.260	-200.000	-0.032	0.147
-333.245	-49.783	0.056	0.026
-332.231	-85.306	-0.283	-0.087
-331.216	-179.260	-0.230	-0.005
-330.202	170.510	-0.127	0.179
-329.187	-12.895	-0.025	-0.016
-328.172	749.031	-0.133	-0.352
-327.158	-66.899	0.233	0.091
-326.143	-27.975	0.268	-0.153
-325.129	56.321	-0.034	-0.033
-324.114	47.807	0.030	-0.028
-323.099	-139.548	-0.336	-0.035
-322.085	-117.689	0.338	-0.060
-321.070	-119.698	-0.256	-0.043
-320.056	-200.000	0.022	0.291
-319.041	285.538	0.072	-0.128
-318.026	-200.000	0.002	0.368
-317.012	-35.611	-0.151	0.080
-315.997	79.448	0.292	-0.308
-314.983	-105.466	0.194	-0.043
-313.968	-28.186	0.324	-0.184
-312.953	-200.000	0.011	-0.103
-311.939	-185.101	0.211	0.003
-310.924	-73.802	-0.082	0.029
-309.910	800.000	-0.073	0.203
-308.895	-52.560	-0.295	0.134
-307.880	7.426	-0.048	0.035
-306.866	714.237	0.036	0.095
-305.851	163.057	-0.240	-0.332
-304.837	-136.074	0.361	-0.042
-303.822	800.000	0.039	0.153
-302.807	-200.000	-0.004	-0.199
-301.793	-96.815	-0.142	0.037
-300.778	441.139	-0.138	0.296
-299.764	60.129	0.102	0.099
-298.749	-5.736	0.156	-0.106
-297.735	84.411	0.281	-0.303
-296.720	436.210	0.153	0.328
-295.705	-17.684	0.063	-0.039
-294.691	800.000	0.036	-0.121
-293.676	-96.671	0.285	-0.074
-292.662	187.703	0.071	0.104
-291.647	-200.000	0.008	0.517
-290.632	342.963	0.032	-0.061
-289.618	800.000	-0.035	-0.110
-288.603	-146.456	-0.218	-0.019
-287.589	-38.603	0.305	-0.159
-286.574	27.640	0.291	0.241
-285.559	-98.895	0.341	-0.085
-284.545	49.942	-0.139	-0.129
-283.530	-46.463	0.260	-0.125
-282.516	-73.004	-0.295	-0.107
-281.501	1.858	0.054	0.039
-280.486	-129.167	0.203	-0.028
-279.472	-58.023	-0.220	-0.095
-278.457	38.457	0.074	0.064
-277.443	-63.112	-0.053	0.021
-276.428	18.632	-0.225	-0.177
-275.413	-88.395	-0.056	0.016
-274.399	143.425	-0.123	0.161
-273.384	262.141	-0.127	0.216
-272.370	-42.330	0.095	-0.048
-271.355	420.119	0.110	0.231
-270.340	-42.468	0.273	-0.137
-269.326	-17.082	-0.130	0.080
-268.311	-56.811	0.242	0.105
-267.297	321.346	-0.160	-0.299
-266.282	-77.802	0.105	-0.036
-265.267	800.000	-0.096	-0.279
-264.253	323.322	0.037	-0.070
-263.238	119.342	0.213	0.259
-262.224	-107.345	-0.230	-0.050
-261.209	196.434	0.283	0.424
-260.195	-200.000	-0.005	-0.104
-259.180	60.104	0.183	-0.178
-258.165	-134.056	0.108	0.013
-257.151	-200.000	-0.001	0.216
-256.136	22.026	0.062	-0.050
-255.122	-140.802	0.179	-0.018
-254.107	607.041	-0.073	-0.180
-253.092	607.895	0.174	0.428
-252.078	-200.000	-0.014	-0.220
-251.063	-200.000	-0.032	0.141
-250.049	-200.000	-0.015	-0.102
-249.034	17.952	0.269	0.210
-248.019	635.043	-0.082	-0.204
-247.005	47.723	0.280	-0.257
-245.990	-200.000	0.008	0.126
-244.976	-200.000	0.063	0.309
-243.961	266.542	-0.235	0.403
-242.946	143.234	0.108	0.141
-241.932	800.000	0.026	0.078
-240.917	29.408	0.064	0.054
-239.903	800.000	-0.082	-0.343
-238.888	-127.769	0.459	0.065
-237.873	129.362	0.162	0.203
-236.859	284.684	0.144	-0.255
-235.844	-104.946	-0.102	0.023
-234.830	-127.289	-0.238	0.034
-233.815	-200.000	-0.056	0.360
-232.800	-200.000	0.020	-0.161
-231.786	-78.192	-0.275	0.093
-230.771	-141.823	0.119	0.012
-229.757	-169.138	0.435	-0.016
-228.742	800.000	0.044	-0.137
-227.727	56.023	-0.217	0.206
-226.713	-107.518	0.141	0.030
-225.698	228.751	-0.211	0.338
-224.684	-128.805	0.216	-0.030
-223.669	-200.000	0.015	0.101
-222.655	-61.634	-0.182	-0.075
-221.640	-143.248	0.365	0.034
-220.625	26.312	-0.268	-0.220
-219.611	-61.795	-0.244	0.100
-218.596	800.000	0.055	0.168
-217.582	19.232	-0.143	0.113
-216.567	-86.252	0.205	-0.062
-215.552	-165.126	-0.044	-0.002
-214.538	45.718	0.179	0.162
-213.523	-200.000	0.045	-0.241
-212.509	156.126	0.139	-0.188
-211.494	233.074	-0.087	-0.140
-210.479	-19.838	0.239	0.145
-209.465	18.734	0.062	0.049
-208.450	-7.472	-0.282	0.187
-207.436	-156.849	0.367	0.022
-206.421	-2.569	0.108	-0.074
-205.406	800.000	0.043	0.143
-204.392	238.432	-0.053	-0.086
-203.377	-200.000	0.037	0.290
-202.363	-23.592	-0.325	-0.191
-201.348	21.204	0.145	0.115
-200.333	-154.507	0.202	-0.013
-199.319	-200.000	0.044	0.444
-198.304	-200.000	0.027	-0.182
-197.290	-63.243	0.137	0.055
-196.275	-59.254	0.155	0.065
-195.260	34.528	0.178	0.152
-194.246	-121.615	0.402	0.065
-193.231	44.919	0.203	-0.183
-192.217	280.401	0.177	-0.310
-191.202	294.990	-0.126	-0.226
-190.187	-200.000	-0.005	-0.070
-189.173	4.802	-0.178	-0.128
-188.158	157.894	-0.169	-0.230
-187.144	-200.000	-0.052	-0.373
-186.129	-39.235	0.263	-0.135
-185.114	9.749	0.273	-0.203
-184.100	-11.049	0.125	0.081
-183.085	-200.000	0.014	-0.073
-182.071	685.666	0.054	-0.137
-181.056	-200.000	-0.027	-0.144
-180.042	84.753	-0.343	-0.368
-179.027	-89.722	-0.045	-0.013
-178.012	-97.005	-0.169	-0.043
-176.998	65.298	-0.261	0.258
-175.983	-134.347	0.298	-0.036
-174.969	-200.000	-0.017	0.174
-173.954	52.569	-0.137	0.128
-172.939	136.502	-0.093	0.119
-171.925	800.000	-0.111	0.344
-170.910	800.000	0.041	-0.176
-169.896	262.304	-0.023	-0.038
-168.881	-14.339	-0.099	-0.062
-167.866	374.280	0.154	-0.308
-166.852	156.412	-0.333	0.451
-165.837	800.000	-0.053	-0.195
-164.823	142.753	0.134	-0.174
-163.808	390.727	-0.033	-0.067
-162.793	561.701	0.050	-0.119
-161.779	398.730	-0.068	0.140
-160.764	8.794	0.118	-0.087
-159.750	-118.857	-0.167	-0.029
-158.735	-116.746	-0.080	0.014
-157.720	800.000	-0.008	0.024
-156.706	13.788	-0.081	-0.061
-155.691	-30.660	-0.098	0.054
-154.677	-61.840	-0.220	0.090
-153.662	171.288	-0.162	0.228
-152.647	-186.205	-0.228	-0.003
-151.633	-200.000	-0.040	-0.224
-150.618	243.649	-0.049	-0.080
-149.604	533.972	-0.130	-0.302
-148.589	-200.000	-0.067	0.475
-147.574	-200.000	-0.022	-0.121
-146.560	81.465	-0.130	0.137
-145.545	-200.000	0.007	0.122
-144.531	-200.000	0.008	0.084
-143.516	177.003	0.121	-0.173
-142.502	-200.000	-0.064	-0.390
-141.487	-29.474	-0.217	0.121
-140.472	220.007	-0.110	-0.172
-139.458	452.102	-0.101	0.217
-138.443	-89.796	-0.397	-0.114
-137.429	361.657	-0.031	0.062
-136.414	-44.612	0.261	0.128
-135.399	168.782	-0.143	0.199
-134.385	-19.833	0.225	0.136
-133.370	450.309	0.090	0.195
-132.356	361.802	0.085	0.167
-131.341	-200.000	-0.023	0.115
-130.326	313.077	-0.078	0.143
-129.312	800.000	0.037	-0.138
-128.297	91.678	0.220	0.241
-127.283	-200.000	0.013	0.222
-126.268	99.057	-0.096	0.108
-125.253	-33.069	-0.058	-0.031
-124.239	285.232	-0.055	-0.097
-123.224	-139.911	-0.201	0.021
-122.210	179.623	0.286	0.409
