DTS Sentinel unit serial number:	SN413079Multiplexer serial number:	ORYXHardware model number:	OX4-SRSoftware version number:	ORYX F/W v4.00 Oryx Data Collector v3.7.2.0data status	okinstallation	princeton_trtdifferential loss correction	single-endedforward channel	channel 3reverse channel	N/Adate	2019/09/14time	21:24:35forward acquisition time	60.00reverse acquisition time	0.00gamma	496.2192k internal	0.2318k external	0.2318temperature offset calibration	0.9997default loss term (dB/km)	0.3790temperature slope calibration	1.0000multiplexer offset coefficient	1.0000multiplexer slope coefficient	1.0000fibre end	0.00T internal ref (°C)	32.94T ext. ref 1 (°C)	4.78T ext. ref 2 (°C)	27.75length (m)	temperature (°C)	Stokes	anti-Stokes-747.200	-46.160	0.280	-0.139
-746.185	-4.728	-0.298	0.208
-745.171	100.568	0.136	-0.160
-744.156	324.642	-0.123	-0.238
-743.142	81.069	-0.207	0.226
-742.127	-31.580	-0.232	0.132
-741.112	22.081	0.157	0.130
-740.098	-103.127	-0.205	0.049
-739.083	84.309	-0.063	-0.070
-738.069	518.046	-0.179	0.425
-737.054	-200.000	0.023	-0.297
-736.039	800.000	-0.055	0.165
-735.025	-1.151	0.082	-0.059
-734.010	136.593	0.209	-0.277
-732.996	-200.000	-0.350	0.001
-731.981	3.988	0.045	-0.033
-730.966	-200.000	0.016	-0.134
-729.952	-191.723	-0.231	-0.002
-728.937	-133.945	-0.329	0.041
-727.923	-200.000	0.005	0.337
-726.908	259.160	-0.031	-0.054
-725.894	32.316	0.214	0.187
-724.879	242.764	-0.062	0.104
-723.864	800.000	0.026	-0.082
-722.850	-8.703	-0.277	0.188
-721.835	-145.619	-0.357	-0.032
-720.821	-103.126	-0.319	0.076
-719.806	709.777	-0.074	-0.197
-718.791	-34.011	-0.202	0.112
-717.777	-150.891	-0.129	-0.010
-716.762	259.128	0.174	-0.303
-715.748	-91.085	-0.133	-0.039
-714.733	-200.000	-0.012	-0.177
-713.718	-200.000	-0.006	-0.035
-712.704	-138.397	-0.226	-0.025
-711.689	460.196	-0.046	0.104
-710.675	177.944	0.199	-0.293
-709.660	61.544	0.033	0.033
-708.645	-200.000	0.019	0.348
-707.631	4.686	0.075	-0.055
-706.616	-150.895	0.049	-0.004
-705.602	-200.000	0.076	0.364
-704.587	282.638	-0.100	-0.180
-703.572	253.286	0.075	-0.129
-702.558	-63.990	-0.156	0.064
-701.543	-160.753	-0.320	0.017
-700.529	766.909	0.083	-0.228
-699.514	800.000	0.096	-0.423
-698.499	202.109	-0.101	0.157
-697.485	800.000	0.132	-0.374
-696.470	371.612	-0.043	0.089
-695.456	-200.000	-0.026	0.236
-694.441	-63.554	-0.230	-0.096
-693.426	325.006	-0.109	-0.211
-692.412	-54.708	-0.121	0.055
-691.397	551.054	-0.032	0.078
-690.383	13.940	0.232	-0.183
-689.368	-200.000	0.026	0.168
-688.354	463.824	0.027	-0.060
-687.339	800.000	0.112	-0.323
-686.324	294.712	0.090	-0.166
-685.310	-200.000	-0.033	-0.496
-684.295	800.000	-0.036	0.124
-683.281	32.930	-0.141	0.123
-682.266	242.390	-0.171	0.290
-681.251	191.055	-0.139	0.211
-680.237	-200.000	0.004	0.026
-679.222	-200.000	0.105	0.489
-678.208	-200.000	-0.043	0.286
-677.193	-91.695	-0.562	0.161
-676.178	-96.774	-0.247	0.065
-675.164	17.927	0.114	-0.092
-674.149	-89.771	0.200	0.059
-673.135	193.763	-0.060	-0.092
-672.120	-200.000	0.006	0.127
-671.105	-19.078	0.371	0.233
-670.091	-200.000	0.033	0.236
-669.076	-200.000	-0.000	-0.144
-668.062	-112.439	-0.045	-0.009
-667.047	-101.023	-0.186	-0.046
-666.032	-120.261	0.174	-0.030
-665.018	716.041	0.075	-0.202
-664.003	324.860	-0.197	-0.379
-662.989	-102.139	0.399	-0.097
-661.974	-200.000	0.018	0.223
-660.959	-172.155	-0.240	-0.008
-659.945	60.346	0.197	-0.197
-658.930	-200.000	0.037	0.256
-657.916	380.843	-0.059	-0.122
-656.901	201.647	-0.154	0.240
-655.886	-45.989	-0.299	-0.149
-654.872	198.648	0.085	0.132
-653.857	-120.943	0.272	0.046
-652.843	-200.000	-0.025	0.288
-651.828	191.433	0.152	-0.231
-650.814	800.000	0.075	0.225
-649.799	194.830	0.147	-0.225
-648.784	-18.506	0.219	-0.138
-647.770	-102.161	-0.484	-0.117
-646.755	-200.000	0.021	-0.203
-645.741	-145.533	-0.256	-0.023
-644.726	-200.000	-0.002	0.385
-643.711	108.448	-0.147	0.177
-642.697	-200.000	-0.010	-0.081
-641.682	31.187	0.178	-0.154
-640.668	139.845	-0.087	0.115
-639.653	122.037	-0.043	0.054
-638.638	-200.000	0.050	-0.265
-637.624	-28.728	-0.228	0.132
-636.609	-50.556	0.084	-0.040
-635.595	-48.819	0.087	0.042
-634.580	-52.453	0.325	0.152
-633.565	-89.587	-0.184	0.054
-632.551	28.859	0.264	-0.225
-631.536	56.145	-0.376	0.367
-630.522	800.000	0.047	-0.148
-629.507	800.000	0.108	0.306
-628.492	-119.075	0.045	0.008
-627.478	143.966	-0.084	0.113
-626.463	800.000	0.055	0.203
-625.449	-144.161	-0.080	-0.008
-624.434	484.334	-0.096	-0.220
-623.419	-5.635	0.356	0.246
-622.405	-36.929	0.107	-0.058
-621.390	43.886	-0.009	-0.008
-620.376	272.034	-0.076	0.134
-619.361	23.620	-0.205	0.170
-618.346	-53.574	-0.216	0.100
-617.332	226.577	-0.061	0.100
-616.317	-200.000	-0.043	-0.453
-615.303	-134.540	-0.162	-0.020
-614.288	-200.000	0.022	-0.201
-613.273	-96.941	0.123	0.032
-612.259	-67.047	0.150	0.060
-611.244	-160.564	-0.199	0.011
-610.230	83.724	-0.054	-0.059
-609.215	346.432	-0.078	-0.154
-608.201	800.000	-0.093	0.380
-607.186	-169.360	-0.076	0.003
-606.171	19.978	0.041	-0.033
-605.157	-144.204	-0.256	0.024
-604.142	590.491	0.082	-0.205
-603.128	111.626	-0.029	0.035
-602.113	800.000	0.061	0.197
-601.098	223.922	-0.046	0.074
-600.084	-92.262	-0.423	-0.120
-599.069	-200.000	-0.029	0.231
-598.055	-162.145	0.172	-0.009
-597.040	438.743	0.021	-0.045
-596.025	-71.888	-0.131	0.049
-595.011	-21.130	-0.234	-0.144
-593.996	191.847	-0.066	-0.100
-592.982	54.322	-0.003	-0.003
-591.967	-32.250	0.165	0.093
-590.952	781.690	-0.102	-0.281
-589.938	-37.046	0.360	0.194
-588.923	77.252	-0.058	-0.062
-587.909	39.744	0.266	-0.240
-586.894	-81.322	0.106	0.035
-585.879	-77.497	0.248	0.087
-584.865	199.382	-0.062	-0.096
-583.850	-20.283	-0.262	-0.162
-582.836	-3.371	0.256	-0.179
-581.821	-16.927	0.210	-0.133
-580.806	170.576	-0.164	-0.236
-579.792	-104.607	-0.007	-0.002
-578.777	800.000	0.003	-0.010
-577.763	365.657	0.159	-0.322
-576.748	800.000	-0.082	-0.259
-575.733	-96.144	-0.288	0.077
-574.719	-136.613	-0.143	0.017
-573.704	-35.798	0.453	-0.247
-572.690	658.350	-0.066	-0.169
-571.675	-41.352	0.136	0.070
-570.661	-200.000	-0.040	-0.179
-569.646	11.171	-0.206	-0.159
-568.631	0.412	0.315	0.226
-567.617	86.057	-0.027	0.030
-566.602	355.167	-0.051	-0.102
-565.588	-27.189	-0.449	-0.263
-564.573	-200.000	0.036	-0.233
-563.558	-194.909	-0.221	-0.002
-562.544	19.751	-0.116	-0.094
-561.529	-200.000	0.009	0.129
-560.515	-140.443	-0.118	0.012
-559.500	-34.336	0.256	-0.141
-558.485	44.335	-0.089	0.082
-557.471	-200.000	0.035	-0.191
-556.456	77.426	-0.212	0.226
-555.442	-16.147	-0.113	0.072
-554.427	115.341	0.161	0.198
-553.412	58.375	-0.095	0.093
-552.398	627.956	-0.015	-0.039
-551.383	40.688	-0.049	0.045
-550.369	12.563	-0.132	-0.103
-549.354	-51.997	0.331	0.155
-548.339	423.525	0.089	-0.192
-547.325	306.102	0.051	-0.095
-546.310	-71.868	0.042	0.016
-545.296	-200.000	-0.003	-0.382
-544.281	-200.000	0.003	0.102
-543.266	100.806	0.155	-0.181
-542.252	338.259	0.028	-0.055
-541.237	-170.921	-0.192	0.007
-540.223	-29.849	0.231	-0.132
-539.208	117.750	0.277	0.343
-538.193	800.000	0.053	-0.158
-537.179	-54.020	-0.045	0.020
-536.164	74.451	-0.189	0.199
-535.150	800.000	0.025	-0.101
-534.135	-200.000	0.024	0.214
-533.121	-71.471	-0.186	-0.070
-532.106	-162.195	-0.254	-0.013
-531.091	-58.488	-0.177	-0.077
-530.077	312.726	0.081	0.153
-529.062	800.000	0.040	0.166
-528.048	310.956	-0.072	0.136
-527.033	-59.785	0.124	0.053
-526.018	-39.030	0.068	-0.036
-525.004	-95.143	0.191	0.052
-523.989	136.624	-0.275	0.360
-522.975	-0.046	-0.173	-0.123
-521.960	-200.000	-0.022	0.124
-520.945	800.000	0.086	0.248
-519.931	679.426	-0.105	0.275
-518.916	-200.000	-0.067	0.298
-517.902	80.532	-0.113	-0.122
-516.887	-110.021	0.146	-0.031
-515.872	-48.950	0.158	-0.076
-514.858	622.474	-0.061	0.154
-513.843	-7.103	-0.134	-0.091
-512.829	-64.102	0.184	0.075
-511.814	-200.000	-0.007	0.170
-510.799	-124.972	-0.168	-0.026
-509.785	-200.000	0.024	0.207
-508.770	330.510	-0.126	-0.242
-507.756	-67.077	0.208	0.082
-506.741	-18.249	-0.211	0.132
-505.726	-120.951	0.388	0.065
-504.712	-200.000	-0.006	0.456
-503.697	36.391	-0.110	-0.097
-502.683	800.000	-0.021	-0.094
-501.668	239.746	-0.210	-0.351
-500.653	800.000	-0.146	0.428
-499.639	-200.000	0.020	0.144
-498.624	-169.450	-0.520	-0.019
-497.610	-18.231	0.223	-0.140
-496.595	-63.740	0.489	0.201
-495.581	-130.326	0.155	0.021
-494.566	62.340	0.080	-0.080
-493.551	93.076	0.049	0.055
-492.537	-200.000	0.090	0.450
-491.522	28.035	0.243	-0.206
-490.508	-112.454	-0.208	0.042
-489.493	-74.976	0.142	0.051
-488.478	114.204	0.026	0.032
-487.464	-200.000	0.016	-0.204
-486.449	-77.535	0.234	-0.081
-485.435	4.991	-0.208	0.154
-484.420	-200.000	-0.013	0.298
-483.405	800.000	0.048	0.162
-482.391	800.000	-0.084	0.236
-481.376	-30.110	0.097	0.056
-480.362	-200.000	-0.028	0.224
-479.347	-200.000	-0.125	0.000
-478.332	120.778	0.153	0.191
-477.318	-200.000	-0.003	-0.032
-476.303	111.943	-0.210	-0.254
-475.289	-200.000	0.070	-0.318
-474.274	-127.741	-0.097	-0.014
-473.259	-81.326	-0.280	-0.092
-472.245	800.000	-0.090	0.296
-471.230	-8.220	0.106	0.072
-470.216	-200.000	-0.059	0.264
-469.201	-200.000	-0.002	0.104
-468.186	800.000	-0.024	0.068
-467.172	173.869	0.184	-0.267
-466.157	480.376	0.087	-0.197
-465.143	42.802	0.053	-0.048
-464.128	656.176	-0.060	-0.155
-463.113	22.913	-0.058	0.047
-462.099	148.800	0.017	-0.023
-461.084	-176.602	0.121	-0.003
-460.070	-152.377	-0.298	0.021
-459.055	-200.000	0.011	-0.145
-458.040	9.256	0.075	-0.057
-457.026	-200.000	0.029	-0.356
-456.011	2.580	0.073	0.053
-454.997	-94.242	0.184	-0.050
-453.982	58.670	-0.132	-0.129
-452.968	-50.093	-0.044	-0.021
-451.953	-90.848	0.104	-0.030
-450.938	293.443	-0.135	0.247
-449.924	401.047	-0.034	0.071
-448.909	16.217	-0.223	-0.176
-447.895	-200.000	-0.063	0.349
-446.880	-91.296	-0.133	0.038
-445.865	13.161	0.145	-0.113
-444.851	63.536	-0.050	0.050
-443.836	-200.000	0.040	-0.225
-442.822	118.220	0.134	0.165
-441.807	-73.439	-0.210	0.077
-440.792	-56.831	0.208	-0.092
-439.778	188.271	0.086	0.128
-438.763	31.402	0.054	-0.046
-437.749	-200.000	-0.050	-0.374
-436.734	-145.438	-0.122	-0.011
-435.719	-139.468	-0.356	0.038
-434.705	-1.587	0.122	0.086
-433.690	-200.000	-0.068	0.430
-432.676	-104.053	-0.344	-0.080
-431.661	8.469	0.224	0.168
-430.646	-200.000	0.007	0.244
-429.632	195.149	-0.210	0.319
-428.617	71.428	-0.076	-0.079
-427.603	800.000	-0.075	0.252
-426.588	712.730	-0.053	0.141
-425.573	0.615	0.090	-0.065
-424.559	-87.668	-0.545	-0.164
-423.544	47.344	-0.106	-0.099
-422.530	655.555	-0.043	0.111
-421.515	-200.000	0.054	0.307
-420.500	-35.997	-0.122	-0.066
-419.486	-40.039	0.235	0.123
-418.471	29.822	0.128	-0.109
-417.457	-26.249	-0.129	-0.076
-416.442	-200.000	0.008	-0.060
-415.428	458.672	-0.066	0.147
-414.413	-121.280	0.391	0.065
-413.398	188.667	-0.079	0.118
-412.384	800.000	-0.073	-0.307
-411.369	-98.117	-0.150	-0.039
-410.355	-57.471	0.197	0.087
-409.340	-200.000	0.003	0.420
-408.325	-200.000	0.034	0.288
-407.311	193.893	-0.239	0.362
-406.296	628.007	-0.044	-0.111
-405.282	800.000	0.022	0.073
-404.267	800.000	-0.022	-0.093
-403.252	800.000	-0.098	0.369
-402.238	-89.327	0.334	-0.098
-401.223	365.211	-0.065	0.130
-400.209	205.903	0.021	0.032
-399.194	-36.522	-0.181	-0.097
-398.179	37.744	-0.085	-0.075
-397.165	-98.115	0.089	0.023
-396.150	145.029	-0.060	-0.080
-395.136	14.308	0.179	0.139
-394.121	-76.140	-0.203	0.072
-393.106	429.953	-0.078	-0.169
-392.092	-96.691	0.237	-0.062
-391.077	502.366	0.095	0.219
-390.063	-99.005	0.101	0.026
-389.048	18.591	-0.118	0.094
-388.033	-200.000	-0.046	0.620
-387.019	-108.099	-0.074	-0.016
-386.004	-200.000	0.041	0.337
-384.990	-77.907	-0.164	0.057
-383.975	-38.726	-0.068	-0.036
-382.960	455.847	-0.069	0.152
-381.946	-39.259	0.265	-0.139
-380.931	-200.000	-0.081	0.457
-379.917	-200.000	0.012	-0.062
-378.902	409.495	0.096	0.202
-377.888	134.179	0.216	0.279
-376.873	-87.440	-0.169	0.051
-375.858	-189.948	0.225	-0.003
-374.844	148.273	0.115	-0.155
-373.829	47.218	-0.256	0.237
-372.815	-14.954	0.307	0.196
-371.800	281.785	-0.102	-0.182
-370.785	-102.613	-0.396	-0.094
-369.771	-45.040	0.190	0.094
-368.756	20.100	0.319	-0.257
-367.742	19.089	-0.147	-0.117
-366.727	185.830	0.166	0.246
-365.712	-155.389	-0.248	-0.016
-364.698	256.999	-0.052	-0.090
-363.683	-118.748	0.327	-0.057
-362.669	-78.512	0.207	-0.071
-361.654	800.000	0.129	0.400
-360.639	260.228	-0.051	-0.089
-359.625	126.650	0.140	0.177
-358.610	-200.000	0.012	-0.125
-357.596	800.000	-0.038	-0.123
-356.581	-200.000	-0.032	0.252
-355.566	614.040	0.038	-0.094
-354.552	800.000	-0.101	0.352
-353.537	125.161	-0.077	0.097
-352.523	-9.481	0.182	-0.121
-351.508	-19.432	-0.069	-0.043
-350.493	-200.000	0.023	-0.374
-349.479	-11.219	-0.177	0.116
-348.464	-154.422	0.117	-0.008
-347.450	367.397	0.221	-0.446
-346.435	-134.187	0.426	-0.052
-345.420	-84.402	0.239	0.075
-344.406	17.796	0.146	0.116
-343.391	-140.830	-0.291	0.030
-342.377	800.000	-0.099	0.344
-341.362	9.293	0.066	-0.050
-340.348	456.785	0.143	-0.316
-339.333	-56.900	0.202	0.089
-338.318	150.798	-0.113	0.152
-337.304	682.832	-0.073	0.190
-336.289	112.585	-0.200	0.241
-335.275	69.453	0.138	0.141
-334.260	-131.745	0.310	-0.040
-333.245	-200.000	0.021	-0.139
-332.231	70.966	0.216	0.222
-331.216	476.545	0.023	0.052
-330.202	-122.425	-0.401	-0.065
-329.187	-200.000	-0.023	0.204
-328.172	89.179	-0.226	0.251
-327.158	-165.121	0.158	-0.007
-326.143	41.252	0.142	-0.128
-325.129	-72.463	0.168	-0.062
-324.114	-83.081	-0.118	0.038
-323.099	246.459	0.211	0.353
-322.085	-11.889	0.114	-0.074
-321.070	-169.216	-0.173	0.006
-320.056	196.004	-0.363	-0.550
-319.041	-52.228	0.166	-0.077
-318.026	6.607	-0.145	0.107
-317.012	-3.053	0.236	-0.164
-315.997	-116.028	-0.200	0.037
-314.983	52.134	-0.262	0.248
-313.968	-200.000	0.043	0.200
-312.953	252.172	0.169	-0.286
-311.939	97.087	-0.051	-0.058
-310.924	296.725	0.027	-0.049
-309.910	404.429	0.244	-0.511
-308.895	-19.097	-0.083	-0.051
-307.880	-200.000	0.019	-0.109
-306.866	779.700	0.037	0.102
-305.851	-91.091	0.329	0.094
-304.837	116.037	0.175	0.214
-303.822	-78.042	-0.386	0.132
-302.807	245.063	-0.123	-0.206
-301.793	75.898	-0.059	0.062
-300.778	81.323	-0.094	0.101
-299.764	-95.676	-0.356	-0.095
-298.749	-200.000	-0.081	-0.354
-297.735	88.287	0.100	0.110
-296.720	58.709	-0.294	0.287
-295.705	-20.243	-0.343	0.210
-294.691	11.440	0.129	0.098
-293.676	-140.389	-0.201	-0.021
-292.662	117.029	-0.072	0.088
-291.647	-200.000	0.034	-0.200
-290.632	-44.288	-0.255	0.127
-289.618	71.915	0.067	-0.069
-288.603	-95.329	0.248	0.066
-287.589	-110.876	0.222	0.045
-286.574	161.229	0.098	0.137
-285.559	-179.177	-0.271	-0.006
-284.545	-88.336	-0.336	0.100
-283.530	-3.416	0.172	0.119
-282.516	-23.829	0.259	-0.154
-281.501	17.833	-0.048	0.038
-280.486	-5.875	-0.039	-0.027
-279.472	774.493	-0.079	-0.215
-278.457	-200.000	-0.045	0.287
-277.443	-200.000	-0.000	0.102
-276.428	800.000	0.024	-0.085
-275.413	-13.231	-0.096	0.062
-274.399	-28.987	0.312	0.178
-273.384	-102.421	0.223	-0.053
-272.370	-170.933	0.197	-0.007
-271.355	-200.000	-0.001	-0.223
-270.340	33.578	0.314	-0.271
-269.326	-95.832	0.173	0.046
-268.311	5.047	0.193	-0.141
-267.297	-179.982	0.087	0.002
-266.282	-200.000	-0.019	0.171
-265.267	688.556	-0.158	-0.409
-264.253	-23.900	0.070	0.042
-263.238	-200.000	-0.020	0.228
-262.224	139.112	-0.064	-0.084
-261.209	-15.288	0.182	-0.116
-260.195	781.595	0.097	0.262
-259.180	-121.622	-0.161	-0.026
-258.165	-200.000	0.015	0.113
-257.151	116.091	-0.129	0.157
-256.136	800.000	0.040	-0.126
-255.122	530.665	0.092	0.216
-254.107	470.042	0.062	-0.138
-253.092	68.620	0.107	-0.109
-252.078	590.763	-0.047	-0.115
-251.063	44.545	0.062	-0.057
-250.049	-151.282	0.168	0.012
-249.034	137.155	0.161	-0.208
-248.019	-200.000	-0.022	-0.343
-247.005	150.556	-0.315	-0.424
-245.990	-83.186	-0.326	-0.104
-244.976	25.644	-0.115	-0.095
-243.961	11.246	0.224	-0.170
-242.946	-200.000	0.042	-0.242
-241.932	-118.533	0.137	0.024
-240.917	168.481	-0.290	-0.410
-239.903	-95.058	0.094	0.025
-238.888	-137.241	-0.179	0.020
-237.873	-74.711	-0.173	-0.062
-236.859	17.581	0.247	0.194
-235.844	-14.294	0.041	-0.026
-234.830	-49.100	0.228	-0.108
-233.815	196.397	0.170	-0.258
-232.800	318.713	0.175	0.329
-231.786	-165.232	0.139	-0.006
-230.771	289.687	-0.117	-0.211
-229.757	458.289	0.016	0.035
-228.742	-200.000	-0.010	0.109
-227.727	-31.202	-0.310	-0.173
-226.713	-200.000	0.009	-0.197
-225.698	28.961	-0.100	0.084
-224.684	146.296	0.147	-0.195
-223.669	116.424	0.128	0.155
-222.655	125.171	-0.057	-0.071
-221.640	9.763	-0.184	-0.138
-220.625	1.133	0.136	0.097
-219.611	352.367	-0.044	0.087
-218.596	456.499	0.050	-0.111
-217.582	800.000	-0.068	-0.264
-216.567	-124.104	0.296	0.046
-215.552	221.613	-0.058	-0.093
-214.538	-108.324	0.301	0.064
-213.523	1.016	-0.100	-0.071
-212.509	16.335	-0.180	0.140
-211.494	7.318	0.070	0.052
-210.479	-106.826	0.106	0.023
-209.465	-142.110	-0.280	-0.028
-208.450	-3.745	-0.283	-0.195
-207.436	197.219	0.165	-0.250
-206.421	-55.572	0.138	0.061
-205.406	-200.000	0.031	0.185
-204.392	210.011	0.147	-0.228
-203.377	540.744	0.179	0.424
-202.363	393.844	-0.115	-0.237
-201.348	800.000	0.063	-0.192
-200.333	48.986	0.138	-0.128
-199.319	-200.000	0.013	-0.179
-198.304	-105.691	0.228	0.051
-197.290	165.204	-0.332	-0.465
-196.275	248.255	-0.154	-0.259
-195.260	-200.000	0.001	0.227
-194.246	45.722	0.121	-0.111
-193.231	-200.000	-0.050	0.296
-192.217	800.000	0.036	-0.102
-191.202	30.016	0.166	0.140
-190.187	800.000	0.067	-0.279
-189.173	800.000	0.054	0.176
-188.158	-85.775	0.248	-0.076
-187.144	-69.058	-0.174	0.066
-186.129	47.123	-0.186	-0.171
-185.114	35.805	0.037	0.032
-184.100	7.740	-0.036	-0.026
-183.085	35.546	-0.066	0.057
-182.071	1.068	-0.110	0.078
-181.056	-108.838	-0.137	0.029
-180.042	-55.012	-0.304	0.135
-179.027	178.800	0.168	-0.243
-178.012	-199.818	0.132	0.001
-176.998	-141.866	0.166	-0.016
-175.983	-200.000	-0.106	-0.461
-174.969	360.036	-0.064	-0.127
-173.954	-143.336	-0.131	-0.012
-172.939	138.343	0.069	0.089
-171.925	261.984	-0.073	0.125
-170.910	-100.095	0.249	0.061
-169.896	521.695	0.046	-0.106
-168.881	48.612	-0.151	0.140
-167.866	102.698	0.091	-0.106
-166.852	800.000	-0.073	-0.275
-165.837	134.451	0.138	0.177
-164.823	-200.000	0.029	-0.216
-163.808	800.000	-0.018	-0.054
-162.793	691.027	-0.041	-0.105
-161.779	-200.000	-0.031	-0.140
-160.764	222.229	0.102	-0.162
-159.750	397.924	-0.129	-0.266
-158.735	-116.692	-0.174	0.032
-157.720	29.724	-0.061	0.052
-156.706	424.384	0.068	-0.144
-155.691	-39.843	0.241	-0.124
-154.677	13.365	0.165	0.127
-153.662	800.000	-0.147	-0.514
-152.647	-200.000	-0.045	-0.389
-151.633	-26.092	0.144	-0.084
-150.618	-14.669	-0.333	0.211
-149.604	-150.030	0.311	0.024
-148.589	-74.657	0.174	-0.062
-147.574	452.844	0.085	-0.186
-146.560	-31.003	0.035	-0.020
-145.545	-15.332	0.334	0.211
-144.531	-94.847	0.281	-0.075
-143.516	-109.439	0.034	-0.007
-142.502	-161.480	0.076	-0.004
-141.487	297.201	0.144	-0.261
-140.472	-200.000	-0.023	0.288
-139.458	169.330	-0.070	-0.099
-138.443	-48.765	0.059	-0.028
-137.429	-177.585	-0.286	0.007
-136.414	130.506	0.141	-0.179
-135.399	346.981	-0.006	0.011
-134.385	99.593	-0.036	0.042
-133.370	-38.602	0.097	-0.051
-132.356	800.000	-0.101	-0.368
-131.341	-111.599	0.335	-0.067
-130.326	-38.805	0.370	0.193
-129.312	-171.304	-0.217	0.007
-128.297	-117.716	0.114	0.020
-127.283	800.000	0.066	0.182
-126.268	-22.975	-0.223	0.133
-125.253	-126.573	0.460	0.067
-124.239	-33.601	0.093	0.050
-123.224	-200.000	0.006	0.307
-122.210	-200.000	0.007	0.045
-121.195	800.000	0.091	0.254
