DTS Sentinel unit serial number:	SN413079Multiplexer serial number:	ORYXHardware model number:	OX4-SRSoftware version number:	ORYX F/W v4.00 Oryx Data Collector v3.7.2.0data status	okinstallation	princeton_trtdifferential loss correction	single-endedforward channel	channel 3reverse channel	N/Adate	2019/09/16time	15:44:35forward acquisition time	60.00reverse acquisition time	0.00gamma	496.2192k internal	0.2292k external	0.2292temperature offset calibration	0.9942default loss term (dB/km)	0.3790temperature slope calibration	1.0000multiplexer offset coefficient	1.0000multiplexer slope coefficient	1.0000fibre end	0.00T internal ref (°C)	41.16T ext. ref 1 (°C)	14.78T ext. ref 2 (°C)	36.39length (m)	temperature (°C)	Stokes	anti-Stokes-747.200	-200.000	0.041	0.271
-746.185	-119.575	-0.248	0.044
-745.171	-59.104	0.222	0.098
-744.156	-200.000	-0.058	0.524
-743.142	-121.641	-0.109	0.018
-742.127	230.550	-0.133	-0.222
-741.112	-152.033	0.218	0.016
-740.098	-82.813	-0.190	0.063
-739.083	-142.254	0.472	-0.048
-738.069	170.446	0.243	0.355
-737.054	-28.684	0.513	-0.302
-736.039	-134.387	-0.499	-0.063
-735.025	-200.000	0.028	0.268
-734.010	162.798	-0.045	-0.065
-732.996	-200.000	0.041	0.246
-731.981	-200.000	0.012	0.176
-730.966	800.000	-0.026	-0.107
-729.952	800.000	-0.107	-0.424
-728.937	800.000	-0.103	-0.377
-727.923	314.538	-0.170	-0.327
-726.908	-81.059	-0.336	-0.114
-725.894	61.487	-0.142	0.144
-724.879	800.000	-0.058	-0.247
-723.864	97.443	-0.298	-0.350
-722.850	48.752	0.205	-0.197
-721.835	107.708	-0.258	-0.314
-720.821	-200.000	-0.042	0.279
-719.806	5.994	0.027	-0.021
-718.791	-162.093	0.535	-0.028
-717.777	-158.550	0.091	-0.005
-716.762	519.025	0.096	0.230
-715.748	787.631	-0.059	-0.166
-714.733	233.933	-0.201	-0.339
-713.718	21.378	-0.137	0.114
-712.704	-120.448	-0.229	0.040
-711.689	74.603	-0.189	-0.204
-710.675	800.000	0.013	0.045
-709.660	-163.058	-0.155	0.008
-708.645	-23.870	-0.058	-0.035
-707.631	-200.000	0.051	-0.360
-706.616	554.338	0.060	-0.147
-705.602	-76.475	-0.087	-0.031
-704.587	35.864	0.009	0.008
-703.572	27.405	-0.309	0.265
-702.558	-98.005	-0.268	-0.071
-701.543	-200.000	-0.006	0.120
-700.529	-91.370	0.249	0.073
-699.514	108.902	0.094	0.114
-698.499	678.865	0.087	0.231
-697.485	-200.000	0.045	-0.428
-696.470	-4.160	-0.313	-0.221
-695.456	469.942	-0.063	0.144
-694.441	-164.406	0.192	0.009
-693.426	-200.000	-0.009	-0.049
-692.412	431.118	-0.112	0.249
-691.397	-16.335	-0.022	0.014
-690.383	329.229	-0.245	-0.482
-689.368	-150.139	0.200	0.016
-688.354	12.512	0.148	0.117
-687.339	402.909	0.121	0.260
-686.324	359.523	-0.144	-0.293
-685.310	800.000	-0.092	-0.373
-684.295	109.284	0.061	0.075
-683.281	2.081	-0.147	0.108
-682.266	65.539	-0.054	0.056
-681.251	-5.187	-0.059	-0.042
-680.237	800.000	0.022	0.086
-679.222	56.146	-0.024	0.024
-678.208	301.952	0.083	-0.158
-677.193	222.675	0.101	-0.166
-676.178	151.724	-0.165	-0.229
-675.164	-42.657	-0.316	0.164
-674.149	-103.196	0.247	-0.060
-673.135	491.206	-0.046	0.109
-672.120	-200.000	-0.043	0.254
-671.105	-47.832	0.150	-0.074
-670.091	-200.000	0.007	0.113
-669.076	-108.557	-0.224	0.049
-668.062	159.582	0.083	0.118
-667.047	28.278	0.141	-0.122
-666.032	800.000	0.068	0.275
-665.018	128.123	-0.128	0.166
-664.003	-97.290	0.245	0.065
-662.989	-143.137	-0.139	-0.014
-661.974	-109.512	-0.252	-0.054
-660.959	-156.617	-0.176	-0.011
-659.945	800.000	0.056	0.238
-658.930	-131.066	-0.105	0.014
-657.916	-72.599	-0.094	-0.036
-656.901	174.811	-0.223	0.330
-655.886	198.715	-0.102	-0.159
-654.872	57.369	-0.141	-0.141
-653.857	698.931	0.052	-0.139
-652.843	-116.983	0.261	-0.049
-651.828	-200.000	0.002	0.227
-650.814	-102.100	0.195	0.048
-649.799	318.183	-0.019	-0.036
-648.784	347.710	-0.055	0.111
-647.770	72.082	-0.105	-0.111
-646.755	167.200	-0.105	-0.152
-645.741	-24.416	-0.223	0.135
-644.726	254.958	0.184	0.321
-643.711	-46.399	-0.260	0.130
-642.697	800.000	-0.068	-0.195
-641.682	43.572	0.115	0.107
-640.668	-200.000	0.054	-0.264
-639.653	4.600	0.171	0.128
-638.638	800.000	0.051	0.177
-637.624	166.922	0.169	0.245
-636.609	603.901	0.067	-0.171
-635.595	512.462	0.095	-0.225
-634.580	-65.229	0.198	0.081
-633.565	39.483	-0.049	-0.045
-632.551	-200.000	0.082	0.497
-631.536	221.008	-0.129	-0.211
-630.522	-200.000	0.023	-0.124
-629.507	-157.219	-0.236	-0.015
-628.492	-200.000	-0.018	-0.146
-627.478	215.896	0.269	0.436
-626.463	-91.520	0.119	0.035
-625.449	-15.937	0.409	0.265
-624.434	-40.651	0.282	0.149
-623.419	12.818	-0.110	0.087
-622.405	-70.231	0.212	0.082
-621.390	19.647	0.120	-0.099
-620.376	117.320	0.101	-0.126
-619.361	64.523	0.120	0.123
-618.346	374.288	0.178	-0.368
-617.332	197.044	-0.121	-0.189
-616.317	160.087	0.094	0.134
-615.303	437.342	-0.104	0.231
-614.288	800.000	0.085	-0.264
-613.273	-33.249	-0.080	0.045
-612.259	329.692	-0.007	-0.014
-611.244	117.807	0.072	0.090
-610.230	229.770	-0.113	0.188
-609.215	-87.413	-0.246	0.076
-608.201	62.223	0.110	0.112
-607.186	-111.069	0.176	-0.037
-606.171	-200.000	-0.003	-0.079
-605.157	-101.158	-0.263	0.065
-604.142	-200.000	0.003	0.042
-603.128	270.709	0.091	-0.163
-602.113	15.348	0.048	-0.039
-601.098	800.000	0.074	-0.278
-600.084	17.387	-0.185	-0.149
-599.069	-60.642	-0.182	-0.078
-598.055	-200.000	-0.048	0.220
-597.040	-66.943	0.103	-0.041
-596.025	30.906	-0.293	0.256
-595.011	-200.000	0.014	-0.261
-593.996	-200.000	0.003	0.217
-592.982	-200.000	0.001	-0.168
-591.967	388.458	0.131	-0.275
-590.952	336.279	-0.111	-0.220
-589.938	-200.000	0.073	-0.389
-588.923	-112.599	-0.125	-0.025
-587.909	-200.000	0.042	-0.398
-586.894	1.725	0.084	0.062
-585.879	-200.000	-0.010	0.184
-584.865	-78.126	-0.149	0.052
-583.850	89.570	0.100	0.113
-582.836	36.228	-0.098	-0.088
-581.821	-200.000	0.035	0.344
-580.806	120.625	0.111	-0.140
-579.792	39.582	0.293	0.267
-578.777	-8.711	-0.325	0.222
-577.763	86.519	-0.125	-0.140
-576.748	-172.632	0.234	-0.007
-575.733	223.078	-0.151	-0.247
-574.719	-2.467	-0.061	0.043
-573.704	0.309	-0.082	-0.059
-572.690	44.508	-0.193	0.180
-571.675	800.000	-0.041	0.169
-570.661	-23.747	0.219	-0.134
-569.646	262.468	-0.110	0.193
-568.631	218.156	-0.208	0.338
-567.617	-69.609	-0.211	-0.082
-566.602	173.993	-0.050	0.074
-565.588	-66.722	-0.167	-0.067
-564.573	-58.639	0.138	-0.061
-563.558	536.555	0.123	-0.296
-562.544	428.555	0.152	0.334
-561.529	-117.948	0.278	-0.051
-560.515	-200.000	-0.012	-0.305
-559.500	135.662	0.055	-0.073
-558.485	-15.222	0.257	0.167
-557.471	-74.010	0.171	0.063
-556.456	-200.000	0.026	0.196
-555.442	33.576	0.238	-0.210
-554.427	-150.275	-0.283	0.022
-553.412	-200.000	0.031	0.244
-552.398	708.830	0.108	-0.290
-551.383	209.027	-0.119	-0.189
-550.369	-9.470	0.135	-0.092
-549.354	-0.730	0.228	-0.164
-548.339	53.084	0.007	-0.007
-547.325	164.269	0.152	0.217
-546.310	-200.000	-0.043	-0.421
-545.296	-19.965	-0.040	0.025
-544.281	95.960	-0.375	0.435
-543.266	-200.000	-0.091	-0.000
-542.252	-182.032	0.089	0.002
-541.237	-200.000	0.004	0.322
-540.223	-133.169	-0.406	0.052
-539.208	94.848	-0.046	-0.053
-538.193	-116.960	0.301	-0.056
-537.179	800.000	-0.104	-0.362
-536.164	800.000	0.085	-0.240
-535.150	800.000	0.075	0.246
-534.135	-53.312	0.225	0.105
-533.121	800.000	-0.089	-0.254
-532.106	800.000	-0.032	0.119
-531.091	-200.000	-0.059	0.363
-530.077	147.511	-0.173	-0.237
-529.062	470.171	-0.167	0.382
-528.048	-126.519	-0.478	-0.072
-527.033	347.995	0.146	-0.292
-526.018	343.183	-0.059	-0.118
-525.004	188.393	0.097	0.146
-523.989	151.278	-0.166	0.229
-522.975	730.880	-0.055	-0.148
-521.960	-46.545	-0.200	-0.100
-520.945	259.817	0.167	-0.293
-519.931	-49.682	-0.176	0.085
-518.916	-31.124	0.241	0.138
-517.902	-128.848	0.052	-0.007
-516.887	-200.000	0.012	-0.067
-515.872	-5.816	-0.195	-0.135
-514.858	59.370	0.047	0.047
-513.843	-200.000	0.034	0.155
-512.829	74.051	0.185	-0.197
-511.814	-200.000	0.060	-0.269
-510.799	141.541	0.227	-0.305
-509.785	-17.783	-0.212	0.135
-508.770	800.000	-0.034	-0.124
-507.756	-200.000	0.019	-0.136
-506.741	-54.199	0.144	-0.066
-505.726	0.417	-0.134	-0.097
-504.712	518.969	-0.032	-0.076
-503.697	-16.115	0.175	0.113
-502.683	-200.000	-0.004	-0.048
-501.668	-128.732	0.205	-0.029
-500.653	-61.898	0.185	-0.078
-499.639	800.000	-0.073	-0.213
-498.624	800.000	0.120	0.465
-497.610	-7.103	0.310	0.214
-496.595	-105.823	-0.030	0.007
-495.581	-60.898	0.199	0.085
-494.566	800.000	-0.083	0.286
-493.551	249.534	-0.112	0.192
-492.537	213.104	-0.152	0.244
-491.522	800.000	0.037	-0.137
-490.508	253.392	-0.093	-0.161
-489.493	5.554	-0.062	-0.046
-488.478	-41.917	0.428	-0.222
-487.464	-200.000	0.032	0.159
-486.449	-200.000	-0.004	0.034
-485.435	659.102	0.065	-0.170
-484.420	-200.000	0.004	0.147
-483.405	247.067	0.079	-0.136
-482.391	-200.000	-0.031	-0.260
-481.376	800.000	0.085	0.238
-480.362	-162.000	0.159	0.008
-479.347	-70.976	0.234	-0.089
-478.332	800.000	0.033	0.118
-477.318	50.052	-0.356	0.341
-476.303	800.000	0.010	-0.042
-475.289	-123.026	-0.225	-0.037
-474.274	204.534	0.110	0.173
-473.259	179.558	0.181	0.269
-472.245	581.133	-0.043	-0.106
-471.230	213.987	0.161	0.258
-470.216	-138.783	-0.094	0.010
-469.201	442.880	-0.067	0.149
-468.186	800.000	0.033	0.112
-467.172	-49.620	-0.234	-0.113
-466.157	-35.267	0.244	-0.134
-465.143	255.178	-0.121	-0.210
-464.128	-132.107	0.116	0.015
-463.113	-86.898	-0.237	-0.073
-462.099	-72.818	0.282	-0.105
-461.084	-200.000	-0.031	-0.163
-460.070	-200.000	-0.011	-0.304
-459.055	131.791	-0.166	-0.217
-458.040	106.266	0.198	0.237
-457.026	796.066	-0.017	-0.047
-456.011	10.933	-0.159	-0.123
-454.997	800.000	0.057	0.210
-453.982	-64.222	-0.234	0.097
-452.968	20.658	0.258	0.211
-451.953	-151.614	-0.171	-0.013
-450.938	-65.559	-0.078	-0.032
-449.924	-70.681	0.128	0.049
-448.909	7.626	-0.213	-0.161
-447.895	-45.279	-0.202	-0.102
-446.880	-63.812	0.093	-0.039
-445.865	-18.571	0.287	-0.181
-444.851	-175.107	-0.182	-0.005
-443.836	143.237	0.083	0.112
-442.822	93.039	0.184	0.210
-441.807	-55.408	0.338	-0.153
-440.792	800.000	-0.054	0.203
-439.778	-139.823	0.204	0.022
-438.763	-174.696	-0.152	0.004
-437.749	26.110	0.177	0.150
-436.734	-68.606	0.312	-0.122
-435.719	57.416	-0.293	0.290
-434.705	-200.000	-0.199	0.000
-433.690	-169.577	-0.174	-0.006
-432.676	482.791	-0.091	-0.209
-431.661	-93.841	0.348	-0.097
-430.646	-83.696	0.143	0.046
-429.632	-138.449	0.371	0.041
-428.617	68.868	0.336	-0.348
-427.603	-96.347	0.244	0.065
-426.588	-65.251	-0.129	-0.052
-425.573	-25.709	0.089	-0.053
-424.559	-125.172	0.130	-0.020
-423.544	-42.006	0.112	-0.058
-422.530	64.570	-0.119	0.122
-421.515	115.168	-0.043	0.054
-420.500	-86.354	-0.336	0.104
-419.486	-200.000	0.014	-0.181
-418.471	-79.614	0.359	0.123
-417.457	51.691	0.272	0.261
-416.442	-200.000	0.030	0.158
-415.428	-68.052	-0.445	0.175
-414.413	800.000	0.083	0.255
-413.398	487.715	-0.119	-0.275
-412.384	6.754	0.082	0.062
-411.369	-1.565	-0.264	-0.188
-410.355	-26.123	-0.039	-0.023
-409.340	-96.605	0.077	0.021
-408.325	-114.518	-0.250	-0.049
-407.311	766.429	-0.025	0.068
-406.296	60.212	-0.253	-0.252
-405.282	630.938	0.021	-0.054
-404.267	128.504	-0.183	0.236
-403.252	-85.494	0.015	0.005
-402.238	64.491	0.212	0.216
-401.223	-85.141	-0.366	-0.116
-400.209	343.239	-0.136	-0.269
-399.194	524.227	-0.032	-0.076
-398.179	-22.673	-0.165	0.100
-397.165	8.343	-0.169	0.128
-396.150	26.799	-0.129	0.109
-395.136	-200.000	-0.016	-0.134
-394.121	18.580	0.072	0.058
-393.106	46.782	0.094	0.088
-392.092	7.448	-0.185	0.140
-391.077	90.495	0.117	0.132
-390.063	-135.254	-0.034	0.004
-389.048	158.584	-0.151	-0.212
-388.033	94.947	0.221	-0.254
-387.019	399.961	0.149	0.316
-386.004	-62.056	-0.233	-0.098
-384.990	-71.367	-0.334	-0.126
-383.975	169.992	0.219	-0.316
-382.960	-71.697	0.232	0.087
-381.946	-11.579	0.122	0.081
-380.931	73.861	0.384	0.407
-379.917	-200.000	0.003	-0.058
-378.902	-102.046	-0.424	-0.103
-377.888	-82.719	-0.077	-0.025
-376.873	800.000	0.038	-0.156
-375.858	800.000	-0.093	-0.382
-374.844	65.102	0.174	0.177
-373.829	-200.000	0.054	-0.337
-372.815	-13.387	-0.244	-0.159
-371.800	47.836	0.101	-0.095
-370.785	-45.421	-0.191	-0.096
-369.771	-200.000	0.003	-0.020
-368.756	-104.980	0.193	0.045
-367.742	760.513	-0.040	0.110
-366.727	800.000	-0.030	-0.117
-365.712	124.363	-0.108	-0.137
-364.698	-137.485	-0.094	-0.011
-363.683	209.892	-0.152	-0.240
-362.669	-167.476	-0.098	0.004
-361.654	-26.438	-0.081	-0.048
-360.639	-36.889	0.208	-0.112
-359.625	-141.202	0.064	0.007
-358.610	140.256	0.027	-0.036
-357.596	800.000	-0.054	0.206
-356.581	-109.165	-0.413	-0.089
-355.566	301.776	0.064	0.120
-354.552	-85.769	-0.292	0.091
-353.537	3.249	-0.222	0.163
-352.523	159.490	-0.175	0.245
-351.508	80.635	-0.098	0.107
-350.493	-200.000	0.003	0.626
-349.479	-200.000	0.001	0.210
-348.464	82.485	0.159	0.174
-347.450	800.000	0.077	-0.256
-346.435	-21.665	0.217	-0.133
-345.420	148.010	0.113	0.153
-344.406	-90.245	-0.185	0.054
-343.391	100.053	-0.207	-0.241
-342.377	5.747	0.167	0.124
-341.362	-22.104	-0.125	0.076
-340.348	49.430	-0.124	0.118
-339.333	111.412	-0.089	-0.108
-338.318	-71.243	-0.082	0.031
-337.304	-145.510	-0.719	-0.065
-336.289	-76.187	-0.277	-0.099
-335.275	-5.706	-0.408	-0.282
-334.260	273.162	-0.048	-0.085
-333.245	-200.000	0.016	-0.249
-332.231	120.937	0.160	-0.200
-331.216	800.000	0.093	0.329
-330.202	-30.651	0.116	0.066
-329.187	-92.405	-0.090	-0.025
-328.172	245.260	0.035	-0.059
-327.158	-32.660	0.147	-0.083
-326.143	303.890	0.020	0.038
-325.129	-22.005	-0.162	-0.099
-324.114	-26.836	0.410	-0.241
-323.099	59.423	-0.243	-0.241
-322.085	-200.000	0.009	0.383
-321.070	-124.121	0.133	-0.021
-320.056	-162.289	0.178	-0.009
-319.041	-14.157	0.135	0.087
-318.026	-200.000	-0.011	-0.279
-317.012	14.326	-0.069	-0.054
-315.997	-200.000	0.040	-0.187
-314.983	-81.743	0.141	0.047
-313.968	274.355	0.100	-0.179
-312.953	-31.669	-0.168	0.095
-311.939	-200.000	-0.007	-0.085
-310.924	-87.220	0.011	0.003
-309.910	-128.140	0.252	0.036
-308.895	51.192	0.087	-0.083
-307.880	800.000	-0.050	-0.186
-306.866	-64.852	-0.233	-0.095
-305.851	87.041	0.114	0.127
-304.837	-84.305	0.201	-0.064
-303.822	-200.000	-0.037	-0.300
-302.807	18.897	0.167	-0.135
-301.793	124.625	-0.145	0.184
-300.778	221.854	0.063	0.102
-299.764	360.138	0.050	-0.101
-298.749	145.126	-0.130	0.175
-297.735	-124.271	-0.217	-0.034
-296.720	-140.061	0.324	0.034
-295.705	-72.481	-0.122	0.045
-294.691	-200.000	0.014	-0.262
-293.676	58.726	0.113	0.112
-292.662	-138.013	0.189	-0.021
-291.647	-200.000	-0.017	0.097
-290.632	52.587	0.140	0.135
-289.618	-20.722	0.282	0.174
-288.603	-142.723	0.274	0.027
-287.589	-129.024	-0.297	0.042
-286.574	-33.569	0.320	-0.177
-285.559	145.589	-0.205	-0.276
-284.545	-128.671	-0.144	-0.020
-283.530	-117.207	-0.146	-0.027
-282.516	-108.857	0.200	-0.043
-281.501	-200.000	-0.042	-0.225
-280.486	257.940	-0.070	-0.121
-279.472	752.808	-0.204	-0.553
-278.457	-57.594	0.243	0.107
-277.443	133.196	-0.144	-0.186
-276.428	39.024	0.284	-0.255
-275.413	98.246	-0.170	-0.196
-274.399	62.423	0.067	-0.067
-273.384	50.965	-0.162	-0.154
-272.370	-123.352	0.211	-0.034
-271.355	-93.520	0.142	0.039
-270.340	-200.000	-0.014	-0.104
-269.326	800.000	0.036	0.123
-268.311	-200.000	-0.180	-0.001
-267.297	-200.000	0.042	-0.347
-266.282	-200.000	0.047	0.334
-265.267	105.413	0.053	0.063
-264.253	-130.233	-0.266	-0.036
-263.238	-108.000	-0.079	0.017
-262.224	800.000	-0.068	-0.202
-261.209	-38.756	0.210	-0.111
-260.195	-100.633	-0.129	-0.032
-259.180	-200.000	0.007	-0.126
-258.165	-51.011	-0.153	0.072
-257.151	-27.833	-0.074	0.043
-256.136	-71.771	0.204	0.076
-255.122	-30.581	-0.365	0.208
-254.107	-200.000	-0.002	-0.228
-253.092	-71.719	-0.146	-0.055
-252.078	800.000	-0.030	0.107
-251.063	-5.129	0.025	-0.017
-250.049	-63.373	-0.177	-0.073
-249.034	-109.376	-0.194	-0.041
-248.019	25.142	0.138	0.115
-247.005	139.597	0.077	-0.101
-245.990	-155.466	-0.202	-0.013
-244.976	2.175	0.072	0.052
-243.961	156.743	0.166	-0.230
-242.946	800.000	0.058	-0.168
-241.932	80.414	0.115	0.124
-240.917	1.035	0.242	-0.174
-239.903	183.287	-0.028	0.041
-238.888	524.823	-0.094	-0.222
-237.873	127.632	0.174	-0.222
-236.859	31.309	0.121	-0.104
-235.844	-173.199	0.447	-0.014
-234.830	-47.392	-0.285	0.139
-233.815	-192.458	-0.213	0.002
-232.800	800.000	0.049	-0.178
-231.786	-86.207	-0.303	-0.094
-230.771	470.866	-0.262	0.591
-229.757	-79.947	-0.140	0.047
-228.742	-21.621	-0.079	-0.048
-227.727	25.020	-0.084	-0.070
-226.713	-102.213	-0.248	0.060
-225.698	800.000	0.003	0.014
-224.684	-9.729	0.185	0.123
-223.669	466.990	0.063	-0.141
-222.655	-104.118	0.235	-0.055
-221.640	-129.704	-0.322	-0.045
-220.625	171.517	-0.092	0.132
-219.611	179.008	0.078	-0.115
-218.596	-12.236	-0.158	0.103
-217.582	800.000	0.119	0.331
-216.567	0.947	0.155	0.111
-215.552	-128.747	0.207	0.029
-214.538	187.745	-0.240	0.359
-213.523	-138.018	0.048	-0.005
-212.509	703.941	-0.112	-0.295
-211.494	-121.297	-0.144	0.024
-210.479	800.000	0.018	-0.066
-209.465	800.000	0.069	0.223
-208.450	-92.197	-0.256	-0.073
-207.436	76.830	0.178	-0.189
-206.421	-62.168	-0.155	0.065
-205.406	154.397	0.036	-0.050
-204.392	-82.660	0.195	0.063
-203.377	-95.575	0.382	0.103
-202.363	-164.898	-0.090	-0.004
-201.348	-147.155	0.192	0.016
-200.333	273.731	0.053	0.095
-199.319	371.931	0.128	0.261
-198.304	-200.000	-0.046	0.305
-197.290	11.999	0.182	0.141
-196.275	78.999	-0.075	0.080
-195.260	76.786	0.060	0.064
-194.246	800.000	-0.088	0.268
-193.231	48.722	0.138	-0.130
-192.217	-174.469	-0.383	-0.011
-191.202	-200.000	0.004	0.108
-190.187	78.531	-0.199	0.213
-189.173	-129.003	0.157	-0.022
-188.158	-40.297	-0.241	0.126
-187.144	-43.648	-0.101	-0.051
-186.129	-141.536	0.116	-0.012
-185.114	800.000	-0.021	-0.072
-184.100	-189.753	-0.198	-0.002
-183.085	-200.000	0.080	0.498
-182.071	14.953	0.165	0.129
-181.056	-146.862	-0.181	0.016
-180.042	-84.665	-0.105	-0.033
-179.027	800.000	0.037	0.108
-178.012	44.864	-0.190	0.175
-176.998	-106.774	-0.084	0.019
-175.983	-98.354	0.163	0.042
-174.969	-122.134	-0.116	-0.019
-173.954	-58.961	-0.188	-0.081
-172.939	26.661	0.250	-0.210
-171.925	-200.000	-0.058	0.343
-170.910	-159.081	0.295	-0.017
-169.896	-200.000	-0.013	0.129
-168.881	234.571	0.147	0.242
-167.866	-200.000	0.003	-0.136
-166.852	-164.223	0.526	0.024
-165.837	567.265	-0.148	-0.361
-164.823	-52.169	0.151	0.070
-163.808	309.204	-0.106	0.197
-162.793	800.000	-0.026	0.081
-161.779	46.048	-0.071	0.066
-160.764	93.532	0.091	0.103
-159.750	-200.000	-0.001	-0.100
-158.735	97.066	-0.224	0.257
-157.720	-114.432	-0.083	0.016
-156.706	110.719	0.083	0.100
-155.691	-164.208	-0.157	0.007
-154.677	800.000	0.066	-0.184
-153.662	105.130	-0.046	0.054
-152.647	109.367	0.226	0.270
-151.633	-200.000	-0.006	0.136
-150.618	140.376	0.155	0.204
-149.604	800.000	0.072	0.206
-148.589	-65.582	0.019	-0.008
-147.574	50.667	-0.123	0.117
-146.560	78.996	-0.154	0.165
-145.545	3.621	-0.247	-0.180
-144.531	-200.000	-0.059	0.404
-143.516	-200.000	-0.011	0.092
-142.502	-200.000	0.012	0.080
-141.487	-21.969	-0.084	0.051
-140.472	-41.594	-0.208	0.107
-139.458	-200.000	0.073	0.424
-138.443	-80.855	0.475	0.157
-137.429	-200.000	0.000	0.084
-136.414	800.000	0.094	0.272
-135.399	88.961	-0.146	0.162
-134.385	-200.000	-0.015	-0.143
-133.370	-200.000	-0.017	0.283
-132.356	-62.556	0.085	0.035
-131.341	-50.135	0.042	-0.020
-130.326	-34.835	-0.236	-0.129
-129.312	269.228	-0.175	-0.306
-128.297	-34.214	0.186	-0.102
-127.283	-200.000	-0.008	0.140
-126.268	127.784	-0.151	0.192
-125.253	-128.641	-0.410	-0.058
-124.239	-15.357	-0.386	0.247
-123.224	148.565	0.022	-0.030
-122.210	-71.509	0.131	0.049
-121.195	-148.587	-0.171	0.014
