DTS Sentinel unit serial number:	SN413079Multiplexer serial number:	ORYXHardware model number:	OX4-SRSoftware version number:	ORYX F/W v4.00 Oryx Data Collector v3.7.2.0data status	okinstallation	princeton_trtdifferential loss correction	single-endedforward channel	channel 3reverse channel	N/Adate	2019/09/12time	23:48:34forward acquisition time	60.00reverse acquisition time	0.00gamma	496.2192k internal	0.2329k external	0.2329temperature offset calibration	1.0130default loss term (dB/km)	0.3790temperature slope calibration	1.0000multiplexer offset coefficient	1.0000multiplexer slope coefficient	1.0000fibre end	0.00T internal ref (°C)	28.80T ext. ref 1 (°C)	3.79T ext. ref 2 (°C)	23.53length (m)	temperature (°C)	Stokes	anti-Stokes-747.200	69.179	0.071	0.074
-746.185	309.314	0.055	-0.103
-745.171	-54.324	-0.108	-0.050
-744.156	240.379	0.178	0.299
-743.142	-129.492	0.328	-0.046
-742.127	519.046	0.086	0.202
-741.112	-200.000	0.001	-0.026
-740.098	-200.000	-0.028	0.199
-739.083	-92.900	-0.279	0.078
-738.069	27.074	0.206	0.174
-737.054	800.000	-0.054	-0.165
-736.039	-117.602	-0.083	0.015
-735.025	-86.395	0.154	-0.048
-734.010	134.896	-0.130	-0.169
-732.996	192.610	0.043	-0.065
-731.981	-58.753	-0.165	-0.072
-730.966	13.895	-0.254	0.199
-729.952	231.803	-0.045	0.074
-728.937	-81.141	-0.387	-0.129
-727.923	-46.788	-0.223	-0.110
-726.908	480.000	-0.030	-0.069
-725.894	-165.800	-0.058	0.003
-724.879	-157.343	0.124	0.008
-723.864	-72.010	-0.260	0.097
-722.850	-48.058	-0.544	-0.265
-721.835	132.962	0.303	0.394
-720.821	-126.020	-0.263	-0.040
-719.806	-200.000	-0.017	-0.164
-718.791	-127.798	0.096	-0.014
-717.777	-40.524	-0.261	0.136
-716.762	-200.000	0.033	-0.149
-715.748	79.051	0.102	-0.110
-714.733	-200.000	-0.036	0.229
-713.718	75.406	0.071	-0.075
-712.704	-11.807	-0.281	0.186
-711.689	178.719	-0.058	0.085
-710.675	-143.648	-0.302	0.029
-709.660	179.720	-0.087	-0.128
-708.645	17.911	-0.116	0.093
-707.631	-200.000	0.013	-0.139
-706.616	-200.000	0.004	-0.138
-705.602	213.302	0.161	-0.255
-704.587	-156.527	-0.080	0.005
-703.572	54.293	-0.156	0.151
-702.558	40.666	-0.211	-0.191
-701.543	-200.000	0.038	0.192
-700.529	-200.000	0.040	0.331
-699.514	-71.498	-0.354	-0.133
-698.499	-46.921	-0.187	-0.092
-697.485	-104.324	-0.075	-0.018
-696.470	-120.942	0.429	-0.073
-695.456	122.950	0.097	-0.122
-694.441	-134.433	0.152	-0.019
-693.426	122.700	-0.025	-0.031
-692.412	54.826	-0.155	-0.150
-691.397	-46.835	0.022	-0.011
-690.383	-140.276	-0.326	-0.034
-689.368	41.088	0.068	-0.062
-688.354	-200.000	-0.007	0.094
-687.339	156.634	-0.140	-0.194
-686.324	31.737	0.094	-0.082
-685.310	-69.772	0.148	-0.057
-684.295	-43.479	-0.185	0.094
-683.281	-135.258	-0.330	0.040
-682.266	-200.000	-0.006	0.412
-681.251	800.000	-0.047	-0.151
-680.237	12.480	-0.339	0.263
-679.222	174.543	0.205	-0.297
-678.208	38.663	-0.036	-0.032
-677.193	-71.083	0.153	0.058
-676.178	125.640	-0.119	-0.151
-675.164	160.219	-0.143	0.200
-674.149	-63.773	-0.358	0.147
-673.135	-15.526	0.269	0.172
-672.120	-70.176	-0.157	-0.060
-671.105	-145.413	0.144	0.013
-670.091	-200.000	-0.052	0.295
-669.076	-200.000	-0.048	0.228
-668.062	10.035	-0.036	-0.028
-667.047	-37.816	0.274	-0.147
-666.032	425.148	0.065	-0.140
-665.018	-19.963	0.301	-0.186
-664.003	329.801	-0.021	-0.041
-662.989	-45.637	-0.149	0.074
-661.974	800.000	0.074	-0.254
-660.959	-200.000	-0.023	0.182
-659.945	46.830	0.084	-0.078
-658.930	-200.000	0.015	-0.310
-657.916	-131.417	0.183	-0.024
-656.901	-158.610	-0.108	-0.006
-655.886	-106.399	0.240	-0.054
-654.872	800.000	0.109	-0.370
-653.857	-25.224	0.058	-0.035
-652.843	297.755	-0.194	-0.357
-651.828	-138.216	-0.155	-0.017
-650.814	12.104	0.257	0.198
-649.799	-85.010	0.180	0.057
-648.784	-83.566	0.190	0.061
-647.770	-157.849	0.246	0.015
-646.755	-59.358	-0.045	0.019
-645.741	92.344	-0.135	0.152
-644.726	35.225	-0.112	-0.099
-643.711	583.782	-0.153	-0.378
-642.697	800.000	0.111	-0.463
-641.682	-200.000	-0.016	-0.162
-640.668	-133.289	-0.199	0.025
-639.653	-7.151	-0.092	0.063
-638.638	-9.161	-0.048	0.032
-637.624	800.000	0.009	0.041
-636.609	-174.870	-0.152	0.004
-635.595	-50.206	0.060	-0.029
-634.580	-200.000	-0.061	-0.402
-633.565	-200.000	0.014	-0.334
-632.551	-77.191	-0.315	0.110
-631.536	394.023	-0.068	0.141
-630.522	-106.202	0.313	0.070
-629.507	13.835	0.044	0.034
-628.492	-144.329	0.089	-0.008
-627.478	402.233	-0.108	-0.228
-626.463	-200.000	0.012	-0.245
-625.449	-200.000	-0.032	0.196
-624.434	-124.711	0.448	0.070
-623.419	-118.115	-0.341	0.061
-622.405	78.097	0.182	0.195
-621.390	-62.771	0.125	0.052
-620.376	-43.176	-0.228	0.116
-619.361	-65.030	-0.308	0.125
-618.346	65.789	-0.212	0.215
-617.332	81.497	-0.099	0.107
-616.317	393.220	-0.038	-0.080
-615.303	-110.368	-0.320	0.067
-614.288	223.012	-0.159	0.258
-613.273	44.798	0.005	0.005
-612.259	166.597	-0.195	-0.277
-611.244	76.891	0.107	-0.114
-610.230	-148.535	0.235	0.019
-609.215	-200.000	0.047	-0.292
-608.201	-118.162	-0.354	-0.063
-607.186	6.998	-0.243	0.181
-606.171	31.601	0.090	0.077
-605.157	-104.505	-0.255	-0.059
-604.142	117.434	0.041	-0.050
-603.128	800.000	-0.053	-0.169
-602.113	30.346	-0.094	0.080
-601.098	-26.331	0.190	-0.111
-600.084	-139.781	-0.113	-0.012
-599.069	-43.327	0.147	0.074
-598.055	134.070	-0.091	0.117
-597.040	-122.323	0.113	0.018
-596.025	6.937	0.044	-0.032
-595.011	414.995	-0.010	-0.022
-593.996	-200.000	0.012	0.101
-592.982	384.144	0.045	0.093
-591.967	-85.697	-0.043	0.013
-590.952	-200.000	0.055	-0.351
-589.938	-34.753	0.153	-0.084
-588.923	126.360	-0.213	-0.270
-587.909	-89.382	0.203	-0.060
-586.894	-57.598	-0.179	0.078
-585.879	176.275	0.151	-0.219
-584.865	800.000	0.092	0.339
-583.850	536.934	-0.028	-0.067
-582.836	-200.000	0.009	0.148
-581.821	-137.502	0.111	0.013
-580.806	-200.000	0.041	0.211
-579.792	800.000	0.073	-0.316
-578.777	49.978	0.121	0.115
-577.763	800.000	-0.009	-0.034
-576.748	151.042	0.150	0.205
-575.733	800.000	-0.076	0.227
-574.719	-200.000	-0.020	-0.097
-573.704	-1.798	0.076	-0.054
-572.690	78.553	0.099	0.106
-571.675	-106.718	0.279	0.062
-570.661	613.630	0.050	0.126
-569.646	-200.000	0.023	0.131
-568.631	139.992	-0.096	-0.126
-567.617	-200.000	0.026	0.187
-566.602	-200.000	-0.007	-0.208
-565.588	-91.290	0.396	0.113
-564.573	677.099	-0.072	0.188
-563.558	18.899	0.108	0.086
-562.544	-56.289	0.129	-0.057
-561.529	196.263	-0.325	-0.495
-560.515	-200.000	0.057	0.373
-559.500	-200.000	-0.054	0.254
-558.485	-122.321	0.138	-0.022
-557.471	-72.930	-0.296	-0.109
-556.456	-72.845	-0.197	-0.072
-555.442	-16.337	-0.118	-0.075
-554.427	-52.462	0.330	0.152
-553.412	-123.533	-0.529	-0.084
-552.398	548.092	-0.049	0.117
-551.383	14.201	0.118	-0.092
-550.369	393.672	0.049	0.102
-549.354	-200.000	-0.002	0.422
-548.339	-118.665	0.163	-0.029
-547.325	-200.000	-0.004	0.146
-546.310	149.873	-0.110	0.149
-545.296	-200.000	-0.009	0.060
-544.281	800.000	-0.170	0.478
-543.266	-136.842	0.218	0.025
-542.252	-133.927	0.321	0.040
-541.237	-23.944	0.278	0.166
-540.223	-200.000	0.004	-0.030
-539.208	-75.101	0.295	-0.105
-538.193	-78.156	0.336	-0.115
-537.179	282.957	-0.116	0.207
-536.164	731.658	0.124	-0.333
-535.150	-200.000	-0.054	-0.239
-534.135	-100.324	-0.194	-0.048
-533.121	176.991	-0.240	0.349
-532.106	34.952	0.223	0.195
-531.091	-90.306	-0.510	0.148
-530.077	554.849	-0.142	0.341
-529.062	-161.083	0.065	0.003
-528.048	211.474	0.065	0.102
-527.033	36.422	-0.175	0.154
-526.018	-200.000	0.005	-0.148
-525.004	800.000	0.065	-0.203
-523.989	-200.000	0.012	-0.193
-522.975	52.466	-0.144	0.137
-521.960	151.461	0.095	-0.129
-520.945	-200.000	-0.039	-0.253
-519.931	-69.230	0.357	0.137
-518.916	394.850	0.142	-0.296
-517.902	23.041	-0.100	-0.082
-516.887	157.658	0.387	-0.535
-515.872	-200.000	-0.061	0.335
-514.858	-24.553	0.381	0.226
-513.843	110.560	-0.086	-0.103
-512.829	-20.400	-0.067	0.041
-511.814	-200.000	-0.009	0.134
-510.799	37.186	-0.124	-0.110
-509.785	-200.000	0.031	-0.178
-508.770	-39.758	-0.050	-0.026
-507.756	800.000	0.116	-0.330
-506.741	272.433	-0.045	-0.078
-505.726	273.334	-0.025	0.045
-504.712	107.530	-0.058	0.069
-503.697	62.141	0.187	-0.186
-502.683	-48.759	-0.104	0.050
-501.668	-200.000	-0.075	-0.377
-500.653	-200.000	-0.013	-0.178
-499.639	-200.000	-0.030	0.212
-498.624	171.731	-0.171	-0.245
-497.610	0.077	0.185	-0.131
-496.595	-89.928	0.165	0.048
-495.581	-156.117	0.269	-0.017
-494.566	32.994	-0.141	-0.122
-493.551	-189.124	0.079	-0.001
-492.537	104.788	0.067	-0.079
-491.522	-112.897	-0.045	-0.009
-490.508	302.125	-0.142	0.262
-489.493	-133.474	-0.041	0.005
-488.478	800.000	0.033	0.143
-487.464	800.000	-0.035	-0.130
-486.449	800.000	-0.047	-0.165
-485.435	403.624	-0.091	0.191
-484.420	-200.000	-0.001	0.131
-483.405	-200.000	0.007	0.128
-482.391	800.000	0.099	-0.305
-481.376	72.105	-0.007	-0.007
-480.362	134.496	-0.148	-0.191
-479.347	657.328	-0.017	-0.045
-478.332	-41.951	0.094	-0.048
-477.318	-114.044	-0.196	-0.038
-476.303	629.987	0.067	0.170
-475.289	-171.318	0.460	0.015
-474.274	-200.000	0.014	-0.181
-473.259	784.312	0.080	-0.220
-472.245	449.452	-0.142	-0.312
-471.230	800.000	-0.024	-0.099
-470.216	-162.034	0.352	-0.018
-469.201	-200.000	0.017	0.233
-468.186	496.858	0.183	-0.420
-467.172	-200.000	0.002	-0.089
-466.157	800.000	-0.100	0.382
-465.143	-75.173	0.106	0.038
-464.128	173.561	0.093	-0.134
-463.113	-94.724	-0.186	-0.050
-462.099	-200.000	0.009	-0.216
-461.084	-115.082	-0.211	-0.040
-460.070	800.000	-0.067	0.236
-459.055	320.934	-0.059	-0.112
-458.040	-200.000	0.014	-0.246
-457.026	99.305	0.224	-0.258
-456.011	335.558	0.104	-0.200
-454.997	281.387	-0.178	-0.318
-453.982	-10.195	0.116	-0.077
-452.968	158.573	0.062	-0.086
-451.953	-174.326	0.114	-0.003
-450.938	56.491	0.126	-0.122
-449.924	-162.807	0.079	-0.004
-448.909	-67.726	-0.027	-0.010
-447.895	800.000	0.056	-0.227
-446.880	263.238	0.040	-0.070
-445.865	164.453	-0.144	-0.202
-444.851	800.000	0.017	-0.063
-443.836	4.973	-0.132	-0.096
-442.822	69.532	0.201	-0.206
-441.807	-92.601	0.305	-0.085
-440.792	-145.090	0.017	0.002
-439.778	-200.000	-0.007	-0.120
-438.763	119.453	-0.275	0.339
-437.749	-77.788	0.231	0.079
-436.734	-85.242	-0.414	0.129
-435.719	-59.222	-0.269	0.115
-434.705	656.158	0.019	0.048
-433.690	25.949	0.115	-0.096
-432.676	-49.478	0.124	0.059
-431.661	643.884	-0.121	0.308
-430.646	800.000	-0.071	-0.273
-429.632	14.770	-0.468	-0.364
-428.617	-200.000	0.050	-0.223
-427.603	-82.554	0.062	-0.020
-426.588	-0.172	-0.172	0.121
-425.573	727.396	0.041	-0.110
-424.559	-200.000	-0.016	0.180
-423.544	348.188	-0.170	-0.334
-422.530	304.152	-0.154	-0.284
-421.515	-36.920	0.143	0.076
-420.500	800.000	-0.023	-0.100
-419.486	-200.000	0.009	-0.105
-418.471	-200.000	-0.055	0.000
-417.457	-168.314	-0.189	0.007
-416.442	175.206	0.137	0.197
-415.428	-200.000	0.038	0.176
-414.413	-99.158	0.224	0.056
-413.398	30.291	-0.133	0.113
-412.384	-200.000	-0.022	-0.134
-411.369	-43.086	0.160	-0.081
-410.355	-43.346	-0.403	0.203
-409.340	-200.000	0.007	0.228
-408.325	-1.445	0.222	-0.156
-407.311	169.766	-0.091	-0.129
-406.296	411.237	0.052	-0.111
-405.282	-200.000	0.007	-0.110
-404.267	-101.541	0.097	-0.023
-403.252	-100.488	0.296	-0.073
-402.238	-125.950	-0.336	-0.050
-401.223	-153.495	0.299	0.021
-400.209	-101.399	-0.043	0.010
-399.194	-200.000	0.001	0.035
-398.179	-82.144	-0.148	0.048
-397.165	380.040	0.230	0.468
-396.150	42.412	-0.317	-0.286
-395.136	-81.685	0.118	-0.039
-394.121	-70.688	-0.132	0.050
-393.106	38.982	0.194	0.172
-392.092	27.442	-0.059	0.050
-391.077	-200.000	0.004	0.115
-390.063	-104.353	0.024	-0.006
-389.048	-109.101	0.398	-0.084
-388.033	-184.590	0.198	-0.003
-387.019	-111.662	0.195	-0.039
-386.004	800.000	0.099	-0.309
-384.990	30.814	0.059	0.050
-383.975	-120.915	-0.418	-0.070
-382.960	777.762	-0.086	0.232
-381.946	-86.562	0.250	0.076
-380.931	-32.398	0.324	0.179
-379.917	21.377	0.079	0.064
-378.902	71.094	0.094	-0.096
-377.888	-117.011	-0.197	-0.036
-376.873	-29.410	-0.297	0.169
-375.858	-200.000	0.034	0.286
-374.844	-48.729	0.224	0.107
-373.829	-200.000	0.002	-0.154
-372.815	549.358	-0.133	0.317
-371.800	-62.662	0.352	-0.145
-370.785	-82.325	0.168	-0.054
-369.771	-64.397	-0.335	-0.135
-368.756	-167.290	0.189	0.008
-367.742	-96.384	-0.295	0.078
-366.727	800.000	-0.010	0.033
-365.712	-200.000	-0.265	0.000
-364.698	800.000	0.068	-0.217
-363.683	66.772	0.048	0.049
-362.669	29.433	0.149	0.126
-361.654	-127.300	-0.419	0.061
-360.639	227.857	-0.029	0.047
-359.625	-116.818	0.158	-0.029
-358.610	800.000	0.068	0.231
-357.596	287.225	0.167	-0.299
-356.581	-174.729	0.153	-0.004
-355.566	192.388	-0.103	-0.154
-354.552	236.721	0.071	-0.116
-353.537	-11.266	0.205	0.134
-352.523	-200.000	0.040	-0.436
-351.508	90.478	0.181	0.200
-350.493	-200.000	0.040	0.192
-349.479	271.775	0.181	0.316
-348.464	-200.000	-0.026	0.301
-347.450	-200.000	0.010	-0.179
-346.435	-200.000	0.043	-0.491
-345.420	800.000	-0.013	-0.042
-344.406	162.187	0.162	0.225
-343.391	-34.536	0.052	0.028
-342.377	-78.163	-0.373	0.127
-341.362	231.027	0.078	-0.126
-340.348	-200.000	0.083	0.374
-339.333	130.698	0.125	-0.158
-338.318	-200.000	-0.003	-0.092
-337.304	94.466	0.132	-0.148
-336.289	36.769	-0.256	0.225
-335.275	72.162	0.167	0.173
-334.260	800.000	-0.048	-0.166
-333.245	800.000	0.070	0.287
-332.231	29.649	-0.222	0.187
-331.216	182.278	0.095	-0.139
-330.202	13.536	-0.113	0.087
-329.187	113.802	-0.048	-0.058
-328.172	-103.460	0.061	0.014
-327.158	-128.775	0.130	-0.018
-326.143	-88.525	-0.468	0.138
-325.129	184.815	0.228	0.335
-324.114	-117.176	-0.136	-0.024
-323.099	375.473	-0.053	-0.107
-322.085	729.647	-0.107	0.284
-321.070	-200.000	0.012	0.076
-320.056	-58.238	-0.329	0.142
-319.041	-12.637	0.143	-0.093
-318.026	170.987	-0.203	-0.289
-317.012	204.950	-0.067	0.102
-315.997	-200.000	-0.021	0.314
-314.983	75.879	-0.116	0.122
-313.968	40.052	0.243	-0.217
-312.953	-94.276	-0.230	0.062
-311.939	302.846	-0.080	-0.147
-310.924	791.526	0.179	0.488
-309.910	85.794	0.094	0.102
-308.895	-117.781	-0.244	-0.044
-307.880	-200.000	-0.030	0.443
-306.866	-200.000	0.027	-0.164
-305.851	203.428	0.114	0.174
-304.837	800.000	0.077	-0.260
-303.822	393.655	0.068	0.140
-302.807	-92.786	0.158	0.044
-301.793	294.633	0.095	-0.172
-300.778	-56.175	0.177	0.078
-299.764	-200.000	0.044	-0.245
-298.749	-0.261	0.302	-0.213
-297.735	-200.000	-0.064	-0.382
-296.720	-43.623	-0.164	-0.082
-295.705	800.000	0.063	0.249
-294.691	128.288	-0.150	-0.189
-293.676	-80.350	-0.116	-0.038
-292.662	-200.000	-0.005	-0.039
-291.647	-200.000	0.010	-0.355
-290.632	-36.669	-0.073	-0.039
-289.618	-24.377	-0.139	0.082
-288.603	281.615	-0.156	-0.277
-287.589	23.495	-0.048	-0.039
-286.574	800.000	0.090	0.324
-285.559	-175.467	0.176	0.005
-284.545	751.846	-0.025	-0.066
-283.530	74.222	0.158	-0.165
-282.516	-7.002	0.189	-0.127
-281.501	-134.982	0.264	-0.032
-280.486	42.094	-0.217	-0.195
-279.472	-52.376	-0.090	-0.041
-278.457	-133.381	0.278	0.035
-277.443	60.374	-0.185	0.181
-276.428	-74.349	0.247	0.088
-275.413	469.808	0.144	-0.319
-274.399	-129.300	0.133	0.018
-273.384	-200.000	0.010	0.229
-272.370	-109.952	-0.656	0.136
-271.355	592.389	0.050	0.121
-270.340	104.700	-0.040	0.046
-269.326	800.000	-0.101	-0.323
-268.311	-89.413	-0.225	0.065
-267.297	-129.728	-0.505	0.069
-266.282	800.000	0.051	0.164
-265.267	800.000	-0.039	0.148
-264.253	191.591	-0.182	-0.271
-263.238	-200.000	0.048	-0.380
-262.224	-47.092	-0.156	0.075
-261.209	-39.866	-0.118	-0.061
-260.195	-200.000	0.006	0.151
-259.180	-200.000	0.001	-0.024
-258.165	-22.708	0.090	0.054
-257.151	800.000	0.027	0.103
-256.136	-64.929	0.145	0.058
-255.122	20.024	-0.081	-0.064
-254.107	225.747	-0.211	-0.338
-253.092	183.455	0.290	-0.424
-252.078	68.688	0.121	0.122
-251.063	-111.820	0.100	0.020
-250.049	-200.000	-0.015	-0.109
-249.034	304.117	0.061	0.112
-248.019	-104.400	0.270	0.062
-247.005	-200.000	0.005	0.233
-245.990	-55.489	-0.356	0.157
-244.976	-200.000	0.016	0.214
-243.961	-200.000	0.017	-0.345
-242.946	-101.883	0.256	0.061
-241.932	692.003	0.054	-0.139
-240.917	-83.909	-0.272	-0.085
-239.903	800.000	-0.019	-0.068
-238.888	-14.156	0.117	0.074
-237.873	-113.806	-0.078	0.015
-236.859	168.098	-0.147	0.207
-235.844	800.000	0.079	-0.244
-234.830	-130.749	-0.181	-0.024
-233.815	9.199	0.266	0.198
-232.800	-82.433	0.260	-0.083
-231.786	800.000	0.034	0.104
-230.771	-81.678	-0.314	0.102
-229.757	96.348	-0.112	-0.127
-228.742	270.301	0.093	0.161
-227.727	-99.127	-0.211	0.053
-226.713	-91.796	-0.283	0.079
-225.698	533.922	-0.096	-0.224
-224.684	800.000	0.047	0.178
-223.669	27.187	-0.088	-0.073
-222.655	-105.745	0.275	-0.061
-221.640	-163.462	0.172	-0.008
-220.625	12.763	0.261	-0.199
-219.611	99.550	-0.154	-0.176
-218.596	-132.395	-0.409	0.052
-217.582	800.000	-0.089	-0.246
-216.567	670.106	0.052	0.132
-215.552	292.369	0.227	0.409
-214.538	-200.000	-0.047	0.309
-213.523	-200.000	0.061	0.310
-212.509	-142.074	0.487	0.048
-211.494	-24.498	0.097	0.057
-210.479	-40.902	-0.323	-0.165
-209.465	800.000	-0.115	-0.332
-208.450	-200.000	-0.014	0.213
-207.436	-53.345	-0.076	-0.034
-206.421	553.932	0.052	-0.123
-205.406	-5.300	-0.196	0.133
-204.392	358.275	0.169	0.333
-203.377	800.000	0.021	0.080
-202.363	162.722	-0.183	-0.253
-201.348	171.100	-0.036	0.051
-200.333	-139.229	-0.226	0.024
-199.319	-101.271	-0.234	0.056
-198.304	45.469	0.169	0.154
-197.290	-56.026	0.115	0.051
-196.275	-63.856	-0.259	0.105
-195.260	800.000	-0.021	0.067
-194.246	-80.382	0.044	0.014
-193.231	415.956	-0.145	-0.306
-192.217	800.000	0.086	0.354
-191.202	-200.000	0.051	0.360
-190.187	390.654	-0.093	0.189
-189.173	-200.000	0.068	-0.353
-188.158	46.211	-0.383	-0.350
-187.144	682.947	-0.055	-0.141
-186.129	-88.389	-0.120	0.035
-185.114	-107.827	-0.369	-0.079
-184.100	-74.905	0.256	-0.090
-183.085	800.000	-0.064	-0.183
-182.071	-107.976	-0.369	0.079
-181.056	-43.639	0.143	0.071
-180.042	-57.124	-0.159	0.069
-179.027	387.906	-0.112	0.227
-178.012	661.410	-0.011	-0.029
-176.998	-9.558	0.473	0.311
-175.983	334.631	-0.140	-0.266
-174.969	788.691	0.062	0.168
-173.954	-74.189	-0.258	0.092
-172.939	388.576	-0.088	-0.180
-171.925	-1.857	0.109	0.075
-170.910	-91.187	0.070	0.020
-169.896	18.812	0.173	0.136
-168.881	299.848	-0.209	0.379
-167.866	306.180	0.028	0.052
-166.852	-200.000	-0.029	0.178
-165.837	258.264	0.103	0.175
-164.823	-128.424	0.280	0.039
-163.808	800.000	-0.054	-0.227
-162.793	258.019	-0.159	0.269
-161.779	607.877	0.123	-0.302
-160.764	-200.000	0.018	0.099
-159.750	-55.034	-0.189	0.084
-158.735	800.000	0.102	0.291
-157.720	-200.000	-0.037	-0.164
-156.706	340.843	0.081	-0.155
-155.691	-200.000	-0.004	0.090
-154.677	179.076	0.212	0.305
-153.662	-12.405	0.172	0.110
-152.647	-200.000	0.039	0.448
-151.633	800.000	0.026	-0.110
-150.618	-200.000	-0.006	0.047
-149.604	-80.870	-0.342	-0.112
-148.589	268.144	-0.034	-0.058
-147.574	-200.000	-0.042	-0.332
-146.560	72.913	-0.202	-0.208
-145.545	800.000	0.023	-0.064
-144.531	-63.169	-0.138	-0.056
-143.516	95.471	-0.103	-0.116
-142.502	-62.415	0.127	0.052
-141.487	92.174	0.235	0.260
-140.472	797.316	0.098	0.267
-139.458	-110.149	-0.111	-0.023
-138.443	-200.000	-0.016	0.376
-137.429	-176.268	0.277	-0.007
-136.414	-57.365	-0.265	-0.114
-135.399	-162.920	-0.320	0.015
-134.385	-200.000	-0.058	-0.300
-133.370	-180.324	-0.195	0.004
-132.356	-191.517	-0.351	-0.003
-131.341	33.444	0.110	0.094
-130.326	-200.000	-0.020	0.089
-129.312	800.000	-0.079	0.229
-128.297	-126.422	-0.568	-0.083
-127.283	-23.023	0.221	0.131
-126.268	121.478	-0.139	0.170
-125.253	-200.000	-0.039	0.189
-124.239	-200.000	0.041	0.222
-123.224	130.346	0.157	0.198
-122.210	335.436	-0.105	-0.201
