DTS Sentinel unit serial number:	SN413079Multiplexer serial number:	ORYXHardware model number:	OX4-SRSoftware version number:	ORYX F/W v4.00 Oryx Data Collector v3.7.2.0data status	okinstallation	princeton_trtdifferential loss correction	single-endedforward channel	channel 3reverse channel	N/Adate	2019/09/14time	13:12:35forward acquisition time	60.00reverse acquisition time	0.00gamma	496.2192k internal	0.2293k external	0.2293temperature offset calibration	1.0069default loss term (dB/km)	0.3790temperature slope calibration	1.0000multiplexer offset coefficient	1.0000multiplexer slope coefficient	1.0000fibre end	0.00T internal ref (°C)	37.94T ext. ref 1 (°C)	4.89T ext. ref 2 (°C)	34.11length (m)	temperature (°C)	Stokes	anti-Stokes-747.200	-104.415	0.426	-0.101
-746.185	40.849	-0.209	0.193
-745.171	-169.469	0.385	0.014
-744.156	800.000	0.094	0.284
-743.142	-82.821	-0.250	0.083
-742.127	-110.714	0.241	-0.051
-741.112	309.383	-0.210	-0.402
-740.098	-200.000	0.021	-0.144
-739.083	-27.076	0.258	-0.154
-738.069	151.235	0.147	0.205
-737.054	-51.986	-0.100	-0.048
-736.039	-25.616	-0.262	0.158
-735.025	-183.775	0.068	0.001
-734.010	66.225	-0.420	0.436
-732.996	-90.222	-0.112	-0.033
-731.981	-1.524	-0.036	0.026
-730.966	800.000	0.064	-0.181
-729.952	-200.000	-0.004	-0.084
-728.937	397.070	-0.105	0.224
-727.923	-120.452	-0.049	0.009
-726.908	-65.228	-0.376	-0.155
-725.894	120.410	-0.110	0.139
-724.879	-81.055	0.223	0.076
-723.864	28.992	-0.190	-0.164
-722.850	94.459	0.152	-0.177
-721.835	-46.330	-0.275	0.138
-720.821	-47.140	-0.295	-0.147
-719.806	49.787	0.329	-0.316
-718.791	120.052	-0.300	-0.380
-717.777	800.000	-0.059	-0.166
-716.762	167.986	-0.107	0.156
-715.748	84.902	-0.174	0.195
-714.733	190.174	0.024	0.037
-713.718	139.465	-0.249	-0.335
-712.704	800.000	0.027	0.101
-711.689	103.493	-0.245	-0.294
-710.675	405.355	0.100	-0.215
-709.660	-94.955	-0.392	-0.108
-708.645	763.398	0.050	-0.140
-707.631	318.374	0.047	0.091
-706.616	84.624	0.066	-0.073
-705.602	-200.000	0.027	-0.188
-704.587	-200.000	-0.008	0.159
-703.572	-31.388	0.148	-0.085
-702.558	800.000	-0.132	-0.471
-701.543	-200.000	0.000	-0.367
-700.529	300.417	0.106	0.200
-699.514	-200.000	-0.009	0.172
-698.499	234.172	-0.098	-0.166
-697.485	655.510	-0.025	-0.066
-696.470	-139.948	0.179	0.019
-695.456	-92.008	0.053	0.015
-694.441	-130.834	0.211	0.029
-693.426	800.000	0.104	-0.448
-692.412	-200.000	-0.008	-0.071
-691.397	-135.448	0.014	0.002
-690.383	-30.672	-0.328	-0.190
-689.368	-46.419	-0.216	0.108
-688.354	-3.693	0.215	-0.152
-687.339	576.037	0.084	-0.210
-686.324	-200.000	-0.007	0.132
-685.310	-82.780	0.337	-0.111
-684.295	88.128	0.155	0.176
-683.281	36.939	-0.075	-0.068
-682.266	114.693	-0.132	-0.165
-681.251	677.987	-0.113	-0.300
-680.237	-145.561	-0.281	0.026
-679.222	-29.678	0.143	0.083
-678.208	-154.973	0.327	0.022
-677.193	57.435	-0.153	0.152
-676.178	800.000	0.041	0.163
-675.164	82.142	0.111	0.123
-674.149	-18.148	0.387	0.247
-673.135	-120.273	-0.141	-0.025
-672.120	-200.000	-0.053	-0.541
-671.105	306.894	0.023	0.044
-670.091	-93.576	-0.296	-0.083
-669.076	-200.000	-0.047	0.327
-668.062	598.334	0.048	0.122
-667.047	800.000	0.048	-0.192
-666.032	167.974	0.035	0.050
-665.018	450.595	0.194	-0.437
-664.003	46.688	0.128	0.121
-662.989	-151.551	0.307	0.023
-661.974	-200.000	0.024	0.237
-660.959	-89.781	-0.236	-0.071
-659.945	-200.000	0.048	-0.227
-658.930	-200.000	-0.030	-0.225
-657.916	-200.000	0.002	0.116
-656.901	-200.000	-0.031	0.340
-655.886	-145.791	-0.185	0.017
-654.872	800.000	-0.062	0.233
-653.857	-60.884	-0.047	-0.020
-652.843	7.871	-0.132	-0.101
-651.828	-88.299	0.137	-0.042
-650.814	26.821	0.143	0.122
-649.799	-29.378	-0.075	-0.043
-648.784	800.000	-0.073	-0.283
-647.770	-165.625	-0.158	-0.007
-646.755	46.126	-0.184	0.173
-645.741	291.634	-0.109	0.202
-644.726	-54.743	0.186	-0.086
-643.711	-45.024	-0.080	0.041
-642.697	389.355	-0.044	-0.092
-641.682	-200.000	-0.058	0.276
-640.668	-21.977	-0.457	0.283
-639.653	32.286	0.204	0.179
-638.638	554.373	0.014	0.035
-637.624	-200.000	0.010	-0.081
-636.609	-200.000	-0.038	0.206
-635.595	3.429	0.137	-0.101
-634.580	-40.418	0.287	-0.152
-633.565	800.000	-0.031	-0.137
-632.551	28.000	-0.217	-0.186
-631.536	331.326	-0.105	-0.206
-630.522	-61.810	-0.091	-0.039
-629.507	-85.107	0.220	-0.070
-628.492	800.000	0.058	-0.235
-627.478	106.769	0.139	0.168
-626.463	-37.125	-0.202	0.110
-625.449	285.275	-0.060	-0.110
-624.434	69.903	-0.232	0.243
-623.419	-87.009	-0.328	0.102
-622.405	-200.000	0.001	0.129
-621.390	14.257	-0.223	-0.177
-620.376	353.450	-0.085	-0.171
-619.361	-200.000	-0.010	0.234
-618.346	-81.045	0.041	0.014
-617.332	31.832	0.097	0.085
-616.317	-14.754	0.068	-0.045
-615.303	-91.119	-0.283	-0.083
-614.288	85.300	0.147	-0.164
-613.273	273.092	0.016	-0.028
-612.259	-33.965	-0.307	-0.172
-611.244	-78.524	0.219	-0.076
-610.230	5.675	0.165	-0.124
-609.215	-140.045	-0.166	-0.018
-608.201	-99.478	0.317	-0.081
-607.186	-15.532	0.163	0.106
-606.171	-155.365	-0.250	0.017
-605.157	-96.091	0.143	0.039
-604.142	800.000	-0.086	-0.255
-603.128	-125.085	0.198	-0.031
-602.113	-59.769	-0.248	-0.108
-601.098	-83.971	-0.288	0.093
-600.084	640.432	0.041	-0.106
-599.069	267.077	-0.113	-0.201
-598.055	-200.000	-0.030	-0.191
-597.040	151.121	-0.258	-0.357
-596.025	171.773	-0.254	0.372
-595.011	8.312	0.199	-0.152
-593.996	63.902	0.069	0.070
-592.982	-99.791	-0.370	-0.094
-591.967	-41.317	-0.008	0.004
-590.952	-2.204	0.336	-0.240
-589.938	-200.000	-0.043	-0.207
-588.923	800.000	0.046	-0.147
-587.909	-0.720	-0.104	-0.075
-586.894	-3.617	-0.298	-0.210
-585.879	-83.635	0.268	0.087
-584.865	-92.435	0.430	-0.123
-583.850	55.051	0.102	-0.100
-582.836	800.000	0.030	0.124
-581.821	22.442	0.125	0.104
-580.806	-53.793	0.081	-0.038
-579.792	60.088	0.235	0.236
-578.777	-200.000	-0.022	-0.491
-577.763	46.045	-0.074	0.070
-576.748	-200.000	0.019	0.123
-575.733	399.799	0.030	0.064
-574.719	-117.823	-0.305	0.056
-573.704	-196.839	0.229	0.002
-572.690	800.000	0.008	0.029
-571.675	-122.824	0.123	0.020
-570.661	16.608	0.126	0.101
-569.646	-158.170	-0.350	0.021
-568.631	356.621	-0.075	-0.151
-567.617	800.000	0.019	0.056
-566.602	-12.219	0.130	-0.086
-565.588	56.048	-0.028	0.027
-564.573	-200.000	-0.009	0.373
-563.558	56.761	0.158	0.156
-562.544	-200.000	0.046	0.262
-561.529	-200.000	-0.004	0.194
-560.515	-200.000	0.019	0.145
-559.500	9.451	0.137	0.105
-558.485	-200.000	-0.022	-0.203
-557.471	123.189	-0.262	0.334
-556.456	37.649	-0.110	0.099
-555.442	361.678	0.042	0.086
-554.427	47.788	0.019	0.018
-553.412	800.000	0.064	-0.188
-552.398	-200.000	0.002	-0.069
-551.383	-110.816	0.079	0.017
-550.369	21.614	-0.124	-0.102
-549.354	529.556	-0.043	0.102
-548.339	800.000	0.065	-0.209
-547.325	800.000	0.095	-0.349
-546.310	-162.145	0.114	0.006
-545.296	-49.476	-0.167	-0.081
-544.281	-192.645	-0.032	0.000
-543.266	235.425	-0.021	0.036
-542.252	-25.914	-0.124	-0.074
-541.237	-18.562	0.240	-0.152
-540.223	-200.000	0.018	-0.131
-539.208	-200.000	-0.006	-0.221
-538.193	-110.130	0.341	-0.072
-537.179	694.254	-0.103	-0.275
-536.164	-110.160	-0.296	0.063
-535.150	-200.000	0.015	-0.224
-534.135	-200.000	0.058	-0.331
-533.121	347.920	-0.171	0.341
-532.106	312.498	0.133	0.254
-531.091	-200.000	-0.001	0.160
-530.077	-55.059	-0.052	0.024
-529.062	564.770	0.119	-0.292
-528.048	-200.000	0.039	0.183
-527.033	-200.000	-0.046	-0.256
-526.018	91.801	-0.009	-0.010
-525.004	-170.505	0.236	0.008
-523.989	-0.963	-0.310	-0.222
-522.975	-48.825	-0.193	0.094
-521.960	800.000	0.065	0.260
-520.945	106.526	-0.088	-0.106
-519.931	800.000	0.041	-0.148
-518.916	8.757	-0.173	0.133
-517.902	-173.317	-0.212	-0.007
-516.887	-200.000	0.014	0.162
-515.872	17.744	-0.146	-0.118
-514.858	-13.531	-0.167	-0.110
-513.843	56.815	0.265	0.262
-512.829	424.841	-0.182	0.398
-511.814	-169.341	0.263	0.010
-510.799	800.000	-0.078	0.320
-509.785	568.978	0.052	-0.128
-508.770	20.270	0.284	-0.232
-507.756	-21.523	0.356	-0.220
-506.741	-170.841	-0.198	0.007
-505.726	800.000	0.061	0.204
-504.712	800.000	-0.073	0.270
-503.697	693.675	-0.025	0.067
-502.683	-58.446	0.129	-0.057
-501.668	-46.277	-0.228	0.114
-500.653	216.631	0.100	0.162
-499.639	-26.212	0.146	0.087
-498.624	-140.873	0.197	-0.021
-497.610	800.000	-0.078	-0.246
-496.595	303.041	-0.061	-0.115
-495.581	-90.792	0.161	-0.047
-494.566	800.000	-0.036	-0.153
-493.551	174.953	-0.064	-0.094
-492.537	-57.629	0.063	-0.028
-491.522	447.283	-0.070	0.155
-490.508	368.357	0.085	0.174
-489.493	800.000	-0.036	-0.115
-488.478	-63.986	-0.357	0.148
-487.464	7.939	-0.111	-0.084
-486.449	-200.000	0.037	0.314
-485.435	-7.538	-0.038	-0.026
-484.420	-4.304	-0.131	0.092
-483.405	-144.955	-0.367	-0.034
-482.391	-64.375	-0.155	-0.064
-481.376	-200.000	0.022	-0.108
-480.362	800.000	0.063	-0.179
-479.347	274.920	-0.081	0.145
-478.332	112.612	-0.176	-0.216
-477.318	800.000	0.064	0.192
-476.303	-200.000	0.031	-0.174
-475.289	-130.039	-0.310	-0.043
-474.274	6.603	-0.154	-0.116
-473.259	-124.646	-0.133	-0.021
-472.245	-87.582	0.128	-0.039
-471.230	-200.000	0.010	0.063
-470.216	-91.549	-0.049	0.014
-469.201	-71.401	-0.080	0.030
-468.186	-200.000	-0.072	-0.461
-467.172	595.934	-0.181	-0.453
-466.157	-200.000	-0.077	-0.563
-465.143	151.942	-0.091	-0.126
-464.128	-200.000	0.007	0.294
-463.113	-96.873	0.201	0.053
-462.099	-83.573	0.182	-0.059
-461.084	-40.710	0.163	-0.085
-460.070	-94.157	0.102	-0.028
-459.055	280.435	-0.065	-0.117
-458.040	800.000	0.026	0.101
-457.026	-200.000	0.006	0.080
-456.011	257.813	0.119	0.207
-454.997	-128.637	0.377	0.054
-453.982	289.877	0.007	0.013
-452.968	150.007	0.131	0.179
-451.953	71.267	0.164	0.172
-450.938	-137.954	-0.375	-0.042
-449.924	-196.809	0.260	-0.002
-448.909	-119.269	-0.333	-0.059
-447.895	800.000	-0.043	-0.120
-446.880	242.548	0.196	0.332
-445.865	403.204	-0.069	-0.146
-444.851	-66.343	-0.059	-0.024
-443.836	480.638	0.178	0.407
-442.822	800.000	-0.019	0.060
-441.807	86.334	0.097	-0.108
-440.792	459.058	-0.087	-0.195
-439.778	-103.648	0.268	-0.064
-438.763	-60.305	0.400	0.172
-437.749	-89.087	0.212	-0.063
-436.734	-200.000	-0.029	0.163
-435.719	-125.008	-0.205	0.032
-434.705	81.908	-0.097	-0.106
-433.690	-95.195	0.141	0.038
-432.676	-125.308	-0.045	-0.007
-431.661	317.676	0.210	0.401
-430.646	800.000	0.117	-0.343
-429.632	110.865	0.089	-0.108
-428.617	276.650	0.044	0.080
-427.603	17.354	0.034	0.027
-426.588	320.376	0.088	-0.169
-425.573	37.425	0.192	0.172
-424.559	800.000	0.012	-0.045
-423.544	-12.391	0.293	-0.193
-422.530	-200.000	0.039	-0.380
-421.515	-70.588	-0.189	0.072
-420.500	15.988	-0.485	0.386
-419.486	800.000	-0.124	0.367
-418.471	800.000	-0.100	0.297
-417.457	800.000	0.038	-0.167
-416.442	-147.676	-0.282	-0.024
-415.428	800.000	-0.046	-0.179
-414.413	-98.231	0.435	0.113
-413.398	-4.584	-0.131	0.091
-412.384	37.592	0.131	0.117
-411.369	-69.457	-0.125	0.048
-410.355	178.464	-0.136	0.201
-409.340	232.052	-0.191	-0.317
-408.325	158.486	0.150	-0.210
-407.311	-200.000	-0.026	-0.295
-406.296	358.021	-0.081	-0.164
-405.282	13.362	0.186	-0.145
-404.267	800.000	-0.098	-0.351
-403.252	-86.650	-0.272	-0.084
-402.238	19.422	0.312	-0.253
-401.223	-89.758	0.166	-0.049
-400.209	800.000	0.073	0.304
-399.194	-57.548	0.066	-0.029
-398.179	359.210	0.107	-0.216
-397.165	-200.000	0.017	-0.169
-396.150	-149.105	-0.229	0.019
-395.136	101.880	-0.058	0.068
-394.121	-184.830	0.582	0.009
-393.106	800.000	-0.024	0.082
-392.092	-116.956	-0.232	0.043
-391.077	-200.000	-0.067	0.487
-390.063	-129.572	-0.122	-0.017
-389.048	-12.267	0.122	-0.081
-388.033	-87.423	-0.181	-0.055
-387.019	-200.000	-0.029	0.212
-386.004	80.097	-0.290	-0.314
-384.990	-4.928	-0.138	0.096
-383.975	37.084	-0.074	-0.066
-382.960	800.000	0.049	0.207
-381.946	800.000	0.030	-0.111
-380.931	168.932	0.182	-0.262
-379.917	38.213	-0.188	-0.169
-378.902	726.681	-0.069	-0.184
-377.888	800.000	-0.015	-0.050
-376.873	524.428	-0.078	-0.184
-375.858	16.456	-0.277	0.221
-374.844	48.921	-0.040	-0.037
-373.829	-200.000	-0.001	0.113
-372.815	-200.000	-0.005	-0.044
-371.800	800.000	-0.046	-0.129
-370.785	-73.117	0.272	0.101
-369.771	-102.882	-0.219	-0.052
-368.756	-47.486	-0.225	-0.110
-367.742	-32.120	-0.299	0.169
-366.727	-200.000	-0.008	-0.107
-365.712	-181.922	-0.163	0.003
-364.698	-106.600	0.207	0.046
-363.683	-21.482	0.201	-0.123
-362.669	151.361	-0.150	-0.206
-361.654	58.138	-0.121	0.120
-360.639	-165.552	0.141	-0.006
-359.625	-145.823	0.167	-0.015
-358.610	800.000	-0.014	-0.046
-357.596	-143.990	0.105	0.010
-356.581	-91.875	0.817	-0.233
-355.566	72.022	-0.268	-0.281
-354.552	463.616	-0.061	0.138
-353.537	-200.000	-0.016	-0.084
-352.523	-25.470	0.116	0.069
-351.508	-37.280	-0.208	0.112
-350.493	-200.000	-0.009	-0.090
-349.479	101.789	-0.209	0.246
-348.464	308.406	0.082	-0.155
-347.450	165.907	0.221	-0.314
-346.435	-93.244	-0.212	-0.059
-345.420	110.277	0.215	0.260
-344.406	101.998	0.133	0.156
-343.391	223.136	0.095	-0.155
-342.377	-6.443	0.102	0.070
-341.362	75.869	-0.176	0.187
-340.348	-69.624	-0.216	0.083
-339.333	206.462	-0.022	-0.034
-338.318	406.185	0.151	0.321
-337.304	511.259	0.150	0.351
-336.289	171.058	-0.114	-0.164
-335.275	-17.970	0.138	-0.087
-334.260	800.000	0.012	-0.045
-333.245	-200.000	0.005	0.254
-332.231	338.719	0.072	-0.141
-331.216	112.447	-0.078	-0.095
-330.202	-65.585	-0.238	0.096
-329.187	29.356	0.284	0.243
-328.172	800.000	0.036	-0.122
-327.158	-50.300	-0.136	-0.065
-326.143	-48.248	-0.213	-0.103
-325.129	-95.795	0.282	-0.076
-324.114	44.422	-0.238	0.220
-323.099	6.858	-0.111	0.083
-322.085	41.643	0.192	0.175
-321.070	-14.471	0.186	-0.121
-320.056	-101.885	-0.151	0.037
-319.041	-13.514	0.287	0.187
-318.026	-42.888	-0.111	-0.057
-317.012	206.576	-0.061	0.096
-315.997	63.580	-0.269	-0.272
-314.983	331.829	-0.054	0.105
-313.968	-200.000	0.005	0.313
-312.953	-0.698	-0.194	0.138
-311.939	180.887	0.088	-0.130
-310.924	-15.805	0.121	0.077
-309.910	139.478	0.141	0.187
-308.895	-70.615	0.127	-0.048
-307.880	163.958	-0.080	0.113
-306.866	318.463	0.139	0.264
-305.851	-26.636	0.100	0.059
-304.837	242.229	0.104	0.175
-303.822	179.322	-0.113	-0.166
-302.807	-82.709	-0.207	0.067
-301.793	-4.295	0.041	0.028
-300.778	-136.324	0.209	-0.024
-299.764	470.542	-0.097	-0.220
-298.749	-200.000	-0.012	0.133
-297.735	-200.000	0.013	0.293
-296.720	-176.745	0.243	0.006
-295.705	37.373	0.316	-0.282
-294.691	490.835	0.153	-0.353
-293.676	-147.491	0.207	-0.018
-292.662	-200.000	-0.002	-0.040
-291.647	358.912	0.023	0.045
-290.632	800.000	-0.046	0.136
-289.618	6.407	-0.174	0.130
-288.603	-41.677	0.070	-0.036
-287.589	-17.111	-0.178	0.113
-286.574	-10.314	0.074	0.049
-285.559	800.000	0.094	-0.342
-284.545	-200.000	0.011	0.123
-283.530	-67.759	0.504	0.198
-282.516	-200.000	-0.024	-0.126
-281.501	319.693	-0.095	-0.181
-280.486	-147.326	0.169	0.014
-279.472	128.578	-0.104	-0.133
-278.457	115.578	-0.092	-0.113
-277.443	-26.739	-0.261	0.153
-276.428	-99.353	0.242	-0.061
-275.413	-17.904	0.409	0.258
-274.399	-141.890	0.232	-0.023
-273.384	-200.000	0.034	-0.311
-272.370	-200.000	0.054	0.438
-271.355	-64.087	0.035	0.014
-270.340	-10.742	0.418	-0.278
-269.326	-200.000	-0.011	0.061
-268.311	9.747	-0.069	0.052
-267.297	267.235	0.108	0.189
-266.282	-13.217	-0.087	-0.057
-265.267	9.221	-0.070	-0.053
-264.253	-19.762	-0.210	0.130
-263.238	-12.773	-0.153	0.100
-262.224	180.127	0.048	-0.070
-261.209	299.154	0.053	-0.098
-260.195	283.706	-0.216	-0.390
-259.180	56.456	-0.152	0.148
-258.165	322.092	-0.127	-0.243
-257.151	142.732	-0.208	0.278
-256.136	-6.553	0.343	0.234
-255.122	38.038	0.039	-0.035
-254.107	-200.000	0.044	-0.223
-253.092	-163.853	-0.235	0.011
-252.078	-3.147	-0.214	0.150
-251.063	-111.811	-0.346	-0.070
-250.049	-46.211	0.221	-0.109
-249.034	116.388	0.177	-0.218
-248.019	-43.185	-0.016	0.008
-247.005	-200.000	-0.032	0.237
-245.990	-141.312	0.335	-0.034
-244.976	209.276	0.093	0.146
-243.961	18.135	-0.163	-0.130
-242.946	800.000	-0.081	-0.236
-241.932	382.981	0.162	0.333
-240.917	34.317	0.066	-0.058
-239.903	800.000	0.022	-0.072
-238.888	96.443	-0.158	-0.182
-237.873	-20.292	0.090	-0.055
-236.859	457.716	-0.165	-0.369
-235.844	442.354	-0.088	0.193
-234.830	-105.240	-0.265	0.061
-233.815	-56.944	0.329	-0.146
-232.800	-115.372	-0.160	0.030
-231.786	800.000	0.030	0.110
-230.771	159.780	0.149	0.208
-229.757	27.265	-0.231	-0.194
-228.742	-39.858	-0.197	0.103
-227.727	-102.455	-0.216	0.052
-226.713	-12.071	0.181	-0.119
-225.698	800.000	0.060	0.218
-224.684	31.211	0.105	0.090
-223.669	800.000	-0.026	-0.084
-222.655	-200.000	-0.053	-0.315
-221.640	-129.795	-0.461	-0.063
-220.625	87.248	0.105	0.116
-219.611	209.877	-0.309	0.485
-218.596	447.100	-0.074	-0.163
-217.582	207.768	-0.078	-0.122
-216.567	800.000	0.024	-0.085
-215.552	-200.000	-0.028	-0.237
-214.538	-200.000	-0.018	0.331
-213.523	-91.580	0.046	-0.013
-212.509	95.741	-0.199	0.227
-211.494	-31.597	-0.321	-0.181
-210.479	54.880	0.105	-0.102
-209.465	-200.000	-0.013	-0.096
-208.450	-42.571	0.235	-0.120
-207.436	193.380	0.226	0.343
-206.421	273.225	-0.108	-0.192
-205.406	-53.377	-0.111	-0.051
-204.392	34.896	-0.189	0.166
-203.377	149.320	0.206	0.279
-202.363	-200.000	0.089	-0.418
-201.348	-146.116	-0.220	0.019
-200.333	-155.941	-0.399	0.025
-199.319	295.526	0.097	-0.179
-198.304	-15.217	0.206	0.132
-197.290	800.000	-0.050	0.162
-196.275	800.000	-0.057	0.174
-195.260	621.977	0.058	0.146
-194.246	23.490	-0.241	-0.198
-193.231	445.839	-0.144	-0.317
-192.217	326.283	0.137	0.262
-191.202	1.934	-0.135	0.097
-190.187	-26.744	-0.060	0.035
-189.173	5.451	-0.238	0.176
-188.158	578.683	0.122	0.299
-187.144	800.000	0.059	0.196
-186.129	12.324	-0.120	0.093
-185.114	575.084	0.023	-0.055
-184.100	226.856	-0.044	0.072
-183.085	779.077	-0.055	0.151
-182.071	-53.913	0.088	0.040
-181.056	800.000	0.025	0.098
-180.042	197.329	0.136	0.208
-179.027	251.453	-0.116	0.198
-178.012	-188.302	0.160	-0.002
-176.998	255.975	0.064	-0.111
-175.983	-109.981	0.441	0.092
-174.969	3.574	-0.237	0.173
-173.954	50.050	0.171	-0.161
-172.939	103.300	0.338	-0.396
-171.925	-200.000	0.009	0.109
-170.910	226.185	0.155	0.251
-169.896	-91.878	0.315	0.089
-168.881	203.249	0.270	0.417
-167.866	76.729	0.212	0.225
-166.852	-158.542	0.080	-0.005
-165.837	35.727	-0.286	-0.251
-164.823	-83.082	0.121	-0.039
-163.808	-66.599	-0.447	0.177
-162.793	-136.413	-0.337	0.039
-161.779	800.000	-0.014	-0.054
-160.764	-150.555	0.578	-0.044
-159.750	139.426	-0.124	-0.164
-158.735	7.160	-0.333	-0.248
-157.720	-146.123	0.363	0.032
-156.706	800.000	-0.038	-0.131
-155.691	176.980	0.145	-0.211
-154.677	291.587	0.194	0.353
-153.662	800.000	0.095	0.394
-152.647	-50.389	0.477	0.225
-151.633	-15.777	-0.138	0.088
-150.618	-9.841	-0.188	0.125
-149.604	-29.071	0.071	-0.041
-148.589	-88.987	0.441	-0.131
-147.574	108.379	0.030	0.036
-146.560	-4.504	-0.165	0.114
-145.545	179.294	-0.199	-0.291
-144.531	404.959	0.100	-0.211
-143.516	16.423	0.206	0.162
-142.502	179.414	0.097	0.141
-141.487	-200.000	-0.002	0.149
-140.472	-11.310	0.184	-0.121
-139.458	232.361	-0.123	0.202
-138.443	-104.847	0.215	-0.049
-137.429	800.000	-0.067	-0.195
-136.414	29.507	0.049	0.042
-135.399	-35.662	-0.111	-0.060
-134.385	259.342	0.023	0.040
-133.370	291.408	-0.115	-0.210
-132.356	19.036	-0.213	0.171
-131.341	-13.190	0.083	-0.054
-130.326	72.181	0.087	-0.090
-129.312	-59.895	0.188	-0.080
-128.297	-92.950	-0.026	0.007
-127.283	404.415	0.123	-0.258
-126.268	800.000	-0.135	-0.375
-125.253	67.303	0.141	-0.144
-124.239	-19.376	0.148	0.092
-123.224	800.000	-0.053	-0.152
-122.210	-84.682	0.064	0.020
-121.195	-8.755	0.184	0.123
-120.180	34.626	0.497	0.433
