DTS Sentinel unit serial number:	SN413079Multiplexer serial number:	ORYXHardware model number:	OX4-SRSoftware version number:	ORYX F/W v4.00 Oryx Data Collector v3.7.2.0data status	okinstallation	princeton_trtdifferential loss correction	single-endedforward channel	channel 3reverse channel	N/Adate	2019/09/13time	04:08:34forward acquisition time	60.00reverse acquisition time	0.00gamma	496.2192k internal	0.2337k external	0.2337temperature offset calibration	1.0138default loss term (dB/km)	0.3790temperature slope calibration	1.0000multiplexer offset coefficient	1.0000multiplexer slope coefficient	1.0000fibre end	0.00T internal ref (°C)	26.94T ext. ref 1 (°C)	4.05T ext. ref 2 (°C)	21.26length (m)	temperature (°C)	Stokes	anti-Stokes-747.200	800.000	-0.098	-0.318
-746.185	37.388	-0.301	0.268
-745.171	-200.000	0.012	0.299
-744.156	-56.544	-0.107	0.047
-743.142	-95.246	0.394	-0.107
-742.127	353.385	0.032	-0.063
-741.112	-128.775	-0.414	0.059
-740.098	20.589	-0.133	-0.108
-739.083	-111.321	0.359	-0.074
-738.069	435.589	-0.117	0.256
-737.054	-37.842	0.160	-0.085
-736.039	-110.726	-0.246	-0.051
-735.025	-89.081	0.336	0.100
-734.010	-200.000	-0.064	-0.397
-732.996	70.324	-0.228	-0.237
-731.981	800.000	0.041	0.175
-730.966	-128.896	-0.210	-0.030
-729.952	119.986	-0.172	-0.214
-728.937	15.138	-0.192	-0.151
-727.923	800.000	0.019	0.065
-726.908	800.000	-0.087	0.285
-725.894	-83.020	0.484	-0.157
-724.879	123.152	-0.225	0.283
-723.864	-70.267	0.098	0.037
-722.850	155.685	-0.240	-0.332
-721.835	340.534	0.118	-0.231
-720.821	-120.578	-0.306	0.052
-719.806	-78.278	-0.220	0.076
-718.791	21.681	-0.166	0.136
-717.777	51.642	-0.083	0.079
-716.762	-104.126	0.302	-0.071
-715.748	74.161	-0.216	-0.227
-714.733	-46.355	-0.118	-0.058
-713.718	-200.000	-0.005	-0.025
-712.704	-156.343	0.152	0.010
-711.689	-126.760	-0.278	0.041
-710.675	-128.769	0.138	-0.020
-709.660	-190.955	0.579	-0.006
-708.645	-200.000	-0.078	0.385
-707.631	180.916	-0.155	0.228
-706.616	-156.627	0.315	-0.020
-705.602	-200.000	0.376	0.000
-704.587	77.869	-0.262	-0.280
-703.572	107.704	0.254	-0.303
-702.558	-102.133	0.093	0.022
-701.543	87.242	-0.134	-0.149
-700.529	-102.217	0.321	0.077
-699.514	212.855	-0.013	0.021
-698.499	137.902	0.089	-0.117
-697.485	-130.207	-0.309	0.042
-696.470	-120.158	0.158	-0.027
-695.456	800.000	-0.028	-0.124
-694.441	589.059	-0.199	-0.491
-693.426	196.426	-0.119	-0.182
-692.412	-166.196	0.242	0.010
-691.397	-96.817	-0.112	-0.029
-690.383	23.164	0.185	0.152
-689.368	267.440	-0.094	0.165
-688.354	-200.000	0.073	-0.332
-687.339	-152.390	-0.239	0.017
-686.324	-200.000	-0.006	0.130
-685.310	800.000	-0.065	-0.264
-684.295	-143.582	0.169	-0.016
-683.281	-117.421	0.241	0.044
-682.266	-200.000	0.037	0.269
-681.251	-200.000	-0.002	-0.386
-680.237	130.245	-0.218	0.280
-679.222	-86.131	-0.134	-0.042
-678.208	-142.912	0.113	0.011
-677.193	-66.219	-0.327	-0.130
-676.178	-144.401	-0.388	0.036
-675.164	590.305	0.072	-0.179
-674.149	-148.579	0.286	-0.023
-673.135	7.629	-0.273	0.205
-672.120	84.634	0.190	-0.209
-671.105	190.482	0.158	-0.238
-670.091	221.654	0.040	0.064
-669.076	-177.994	0.161	-0.004
-668.062	456.164	-0.051	0.113
-667.047	-56.119	-0.265	0.118
-666.032	25.999	0.219	-0.183
-665.018	-115.848	0.361	0.067
-664.003	800.000	-0.009	-0.025
-662.989	-158.397	-0.189	0.011
-661.974	-200.000	-0.079	-0.435
-660.959	12.222	-0.066	-0.051
-659.945	21.145	-0.064	-0.052
-658.930	254.172	0.133	0.227
-657.916	-113.630	-0.226	0.044
-656.901	-200.000	-0.026	-0.131
-655.886	49.752	0.122	-0.115
-654.872	-20.129	-0.107	-0.066
-653.857	316.335	0.169	-0.319
-652.843	-200.000	-0.082	-0.361
-651.828	-102.682	-0.175	-0.042
-650.814	70.630	0.159	0.164
-649.799	-200.000	0.430	0.000
-648.784	-137.456	-0.282	0.032
-647.770	-14.003	-0.304	0.197
-646.755	125.006	-0.116	0.146
-645.741	374.045	-0.027	-0.054
-644.726	-63.731	-0.271	-0.111
-643.711	-87.413	0.634	-0.192
-642.697	517.371	-0.168	0.392
-641.682	-170.387	0.217	0.008
-640.668	800.000	0.084	-0.237
-639.653	-42.969	-0.418	0.212
-638.638	67.685	0.174	-0.178
-637.624	-200.000	-0.038	0.175
-636.609	-200.000	0.037	0.174
-635.595	-64.654	-0.363	-0.147
-634.580	-77.757	0.211	-0.073
-633.565	-200.000	-0.310	0.001
-632.551	353.515	-0.086	-0.171
-631.536	-200.000	-0.030	-0.162
-630.522	800.000	-0.032	0.094
-629.507	-106.827	-0.355	0.079
-628.492	-119.598	0.250	0.043
-627.478	-35.106	0.231	0.126
-626.463	1.465	0.185	-0.133
-625.449	800.000	-0.026	0.099
-624.434	-148.047	0.367	-0.030
-623.419	-200.000	-0.036	-0.251
-622.405	-200.000	0.021	-0.219
-621.390	70.883	-0.302	-0.312
-620.376	90.885	0.029	-0.032
-619.361	-168.202	-0.271	-0.010
-618.346	-46.107	0.035	0.017
-617.332	800.000	0.079	0.311
-616.317	142.297	0.072	-0.096
-615.303	8.063	-0.202	0.152
-614.288	-200.000	-0.016	-0.073
-613.273	-175.346	-0.510	0.014
-612.259	-59.525	-0.167	0.071
-611.244	499.645	0.132	0.304
-610.230	540.159	-0.189	-0.450
-609.215	-200.000	-0.062	0.280
-608.201	800.000	0.059	0.221
-607.186	22.412	0.153	0.125
-606.171	-93.672	-0.138	0.038
-605.157	-200.000	0.002	0.206
-604.142	86.693	0.097	-0.106
-603.128	-41.941	-0.203	-0.104
-602.113	800.000	-0.043	-0.150
-601.098	-10.533	0.168	0.111
-600.084	-83.441	-0.129	-0.041
-599.069	250.915	-0.048	-0.082
-598.055	481.347	-0.127	-0.287
-597.040	315.010	-0.201	-0.379
-596.025	-128.900	-0.485	-0.068
-595.011	-97.570	0.256	-0.066
-593.996	-122.707	0.396	-0.064
-592.982	657.995	-0.073	-0.188
-591.967	129.647	0.130	-0.166
-590.952	-157.741	0.298	0.018
-589.938	177.489	-0.107	-0.155
-588.923	-141.186	-0.342	-0.035
-587.909	-4.937	-0.059	0.041
-586.894	-76.303	-0.102	0.036
-585.879	-57.138	-0.419	-0.184
-584.865	-83.717	0.232	0.074
-583.850	-39.826	-0.084	0.044
-582.836	305.176	0.063	0.117
-581.821	-200.000	-0.002	0.106
-580.806	44.362	-0.067	0.061
-579.792	-200.000	0.039	0.225
-578.777	35.693	-0.184	-0.161
-577.763	-66.668	-0.215	0.085
-576.748	426.527	-0.022	0.046
-575.733	-200.000	-0.153	0.000
-574.719	-24.898	-0.121	-0.072
-573.704	5.998	-0.147	0.109
-572.690	800.000	0.113	0.391
-571.675	597.660	-0.079	0.195
-570.661	221.238	-0.108	0.173
-569.646	800.000	0.048	-0.185
-568.631	-67.019	-0.141	0.055
-567.617	-88.168	0.257	-0.077
-566.602	77.137	-0.105	0.111
-565.588	144.414	0.107	0.142
-564.573	-53.128	0.295	0.135
-563.558	-200.000	-0.013	0.257
-562.544	252.455	-0.277	-0.471
-561.529	119.695	0.130	0.160
-560.515	-159.463	-0.198	0.011
-559.500	259.322	0.055	-0.094
-558.485	65.975	-0.063	-0.064
-557.471	99.582	0.143	0.165
-556.456	472.629	0.089	-0.199
-555.442	-80.402	-0.229	0.076
-554.427	800.000	-0.059	0.256
-553.412	62.475	0.025	0.024
-552.398	-142.535	-0.226	-0.022
-551.383	-79.457	-0.212	0.071
-550.369	358.149	0.072	0.144
-549.354	209.554	-0.098	-0.153
-548.339	800.000	0.095	-0.262
-547.325	457.374	0.052	-0.116
-546.310	204.074	-0.179	0.276
-545.296	18.320	0.095	0.076
-544.281	-180.009	-0.146	-0.003
-543.266	-42.116	0.111	-0.056
-542.252	-158.275	-0.145	-0.008
-541.237	147.935	-0.198	0.265
-540.223	-200.000	-0.012	-0.438
-539.208	-200.000	-0.057	0.278
-538.193	-131.905	-0.244	-0.032
-537.179	86.329	0.072	0.079
-536.164	-200.000	-0.027	-0.245
-535.150	-200.000	0.027	-0.144
-534.135	-119.378	0.198	0.034
-533.121	800.000	0.016	0.050
-532.106	800.000	0.141	0.410
-531.091	189.224	0.141	0.210
-530.077	-4.420	-0.124	-0.085
-529.062	573.710	0.108	-0.261
-528.048	213.553	0.129	-0.202
-527.033	-200.000	-0.006	0.035
-526.018	-146.810	0.218	0.019
-525.004	-54.988	0.148	-0.066
-523.989	800.000	0.070	-0.261
-522.975	-104.342	-0.165	-0.038
-521.960	22.688	0.256	0.209
-520.945	-200.000	0.009	-0.243
-519.931	-200.000	-0.033	-0.294
-518.916	623.494	0.052	-0.131
-517.902	-94.883	-0.066	-0.018
-516.887	-58.142	-0.250	0.109
-515.872	109.886	0.125	-0.149
-514.858	-147.802	0.224	-0.019
-513.843	513.237	0.116	-0.269
-512.829	-67.565	-0.380	-0.148
-511.814	-56.848	-0.223	0.098
-510.799	-92.789	0.216	-0.060
-509.785	31.398	0.105	0.089
-508.770	-200.000	-0.038	-0.188
-507.756	-82.344	0.311	0.101
-506.741	-125.127	-0.372	0.057
-505.726	27.444	0.240	-0.201
-504.712	-200.000	-0.042	0.217
-503.697	-200.000	-0.001	-0.195
-502.683	-200.000	-0.020	0.136
-501.668	-7.684	0.389	0.261
-500.653	433.278	-0.025	-0.054
-499.639	-200.000	0.017	-0.127
-498.624	-53.465	0.324	-0.147
-497.610	-146.864	-0.168	0.014
-496.595	-81.981	-0.102	-0.033
-495.581	79.037	-0.248	0.264
-494.566	-200.000	0.067	-0.412
-493.551	139.313	0.075	-0.098
-492.537	-200.000	-0.004	0.097
-491.522	549.742	0.121	0.288
-490.508	173.891	0.090	0.129
-489.493	513.199	-0.012	-0.029
-488.478	-20.673	0.082	0.050
-487.464	-74.437	0.269	-0.096
-486.449	6.470	0.206	0.152
-485.435	-23.729	-0.214	0.128
-484.420	-121.485	-0.273	-0.045
-483.405	-140.518	0.042	0.004
-482.391	-73.990	0.082	-0.030
-481.376	191.470	0.035	-0.052
-480.362	177.507	0.196	-0.283
-479.347	550.694	-0.121	-0.289
-478.332	288.013	0.185	-0.332
-477.318	-160.636	-0.172	0.009
-476.303	-57.350	0.090	-0.039
-475.289	-200.000	-0.003	-0.246
-474.274	162.551	0.140	-0.195
-473.259	-45.970	-0.283	-0.138
-472.245	-73.456	0.149	0.054
-471.230	23.451	0.220	0.179
-470.216	-200.000	0.006	-0.113
-469.201	800.000	-0.105	0.371
-468.186	-43.137	0.358	-0.180
-467.172	-85.410	-0.080	0.025
-466.157	-115.962	-0.226	0.042
-465.143	-81.281	-0.085	-0.028
-464.128	-200.000	-0.004	0.106
-463.113	605.808	0.018	0.045
-462.099	-200.000	-0.015	0.082
-461.084	-100.134	-0.185	0.046
-460.070	-21.968	0.043	0.026
-459.055	800.000	-0.051	0.210
-458.040	-40.549	-0.303	0.156
-457.026	-200.000	0.027	-0.333
-456.011	-91.484	0.127	-0.036
-454.997	-3.678	-0.170	0.117
-453.982	316.770	0.177	0.331
-452.968	-107.058	-0.225	-0.049
-451.953	147.061	-0.222	0.297
-450.938	-118.478	0.192	-0.034
-449.924	-53.625	0.167	-0.076
-448.909	-200.000	0.021	0.174
-447.895	-158.960	-0.434	0.024
-446.880	-18.730	0.212	-0.131
-445.865	800.000	-0.020	-0.060
-444.851	-29.576	0.123	0.070
-443.836	-115.927	-0.078	0.014
-442.822	-200.000	0.048	-0.339
-441.807	800.000	-0.039	0.135
-440.792	-89.259	0.120	0.035
-439.778	74.662	0.171	-0.178
-438.763	620.380	-0.069	-0.172
-437.749	-153.863	-0.221	-0.015
-436.734	103.008	0.117	-0.136
-435.719	31.921	-0.318	0.272
-434.705	106.103	0.022	0.025
-433.690	-172.738	0.325	-0.010
-432.676	-200.000	0.015	0.271
-431.661	24.802	-0.298	0.245
-430.646	-32.489	0.086	-0.047
-429.632	649.682	-0.057	-0.145
-428.617	800.000	-0.039	-0.127
-427.603	-58.197	-0.304	-0.131
-426.588	126.656	0.323	-0.405
-425.573	-27.221	0.235	0.136
-424.559	-82.407	0.068	-0.022
-423.544	122.000	-0.152	-0.188
-422.530	-79.483	0.164	-0.055
-421.515	-200.000	0.004	-0.084
-420.500	693.056	0.051	-0.132
-419.486	-28.066	0.058	-0.033
-418.471	-141.388	-0.518	-0.052
-417.457	-49.056	-0.312	0.148
-416.442	427.335	-0.078	-0.166
-415.428	39.934	0.149	0.133
-414.413	-123.907	0.344	0.054
-413.398	87.172	-0.264	0.289
-412.384	800.000	-0.057	0.169
-411.369	69.779	-0.110	0.112
-410.355	-179.202	0.243	0.005
-409.340	-200.000	0.219	0.000
-408.325	181.523	0.108	0.158
-407.311	-125.420	-0.266	-0.040
-406.296	-171.315	-0.166	0.006
-405.282	59.659	-0.053	0.052
-404.267	261.870	0.042	0.072
-403.252	-139.667	0.266	0.028
-402.238	-0.164	0.132	0.093
-401.223	52.753	-0.220	-0.209
-400.209	800.000	-0.031	0.116
-399.194	-200.000	0.010	0.178
-398.179	800.000	-0.065	-0.254
-397.165	-56.887	0.124	0.054
-396.150	-200.000	0.030	0.299
-395.136	-148.344	-0.184	-0.015
-394.121	-200.000	-0.003	0.109
-393.106	291.644	0.063	-0.114
-392.092	-19.905	-0.053	-0.032
-391.077	-42.083	0.283	-0.143
-390.063	-200.000	0.008	-0.061
-389.048	-200.000	0.024	0.158
-388.033	-62.897	-0.073	-0.030
-387.019	-111.544	-0.170	0.034
-386.004	-200.000	-0.004	-0.125
-384.990	-67.558	0.189	-0.074
-383.975	-107.944	0.259	-0.056
-382.960	-98.617	0.187	-0.047
-381.946	-4.580	0.183	0.125
-380.931	76.486	0.176	-0.185
-379.917	-99.242	-0.102	-0.025
-378.902	247.502	-0.090	0.151
-377.888	10.890	-0.112	0.084
-376.873	-18.278	-0.235	-0.145
-375.858	279.611	0.130	-0.230
-374.844	29.065	0.242	-0.203
-373.829	800.000	-0.105	-0.342
-372.815	800.000	0.049	-0.184
-371.800	-47.178	-0.371	0.179
-370.785	41.764	0.189	-0.170
-369.771	-76.124	-0.274	-0.096
-368.756	-63.232	0.275	-0.112
-367.742	-114.231	0.247	0.047
-366.727	18.519	-0.072	0.057
-365.712	-36.180	-0.112	-0.060
-364.698	-200.000	0.001	-0.172
-363.683	-55.091	0.194	0.086
-362.669	-155.410	0.264	0.017
-361.654	234.688	-0.103	0.168
-360.639	366.095	0.157	-0.312
-359.625	479.966	-0.035	-0.079
-358.610	238.774	0.011	0.018
-357.596	-19.080	-0.279	0.172
-356.581	-16.374	0.161	-0.101
-355.566	30.555	-0.179	0.152
-354.552	-167.805	0.392	0.015
-353.537	-70.042	0.067	-0.025
-352.523	141.249	-0.146	-0.191
-351.508	53.329	-0.080	-0.076
-350.493	48.384	0.089	0.082
-349.479	-200.000	-0.038	0.245
-348.464	-200.000	-0.028	-0.303
-347.450	150.682	-0.060	0.081
-346.435	58.791	0.174	-0.169
-345.420	-26.062	0.263	-0.153
-344.406	595.149	-0.063	-0.155
-343.391	185.020	0.145	-0.213
-342.377	-19.136	-0.238	-0.146
-341.362	-200.000	-0.052	-0.281
-340.348	92.842	0.126	0.140
-339.333	-123.481	0.333	-0.052
-338.318	530.782	0.054	-0.126
-337.304	800.000	0.117	-0.343
-336.289	48.498	0.046	-0.042
-335.275	332.955	0.065	-0.124
-334.260	-52.273	-0.099	-0.045
-333.245	-200.000	0.010	-0.097
-332.231	18.400	0.064	-0.050
-331.216	-95.609	-0.156	-0.041
-330.202	-200.000	-0.015	-0.234
-329.187	275.632	-0.122	-0.213
-328.172	-168.446	-0.259	0.010
-327.158	29.560	-0.177	-0.148
-326.143	800.000	0.083	0.343
-325.129	-200.000	0.268	0.001
-324.114	800.000	-0.122	-0.448
-323.099	-58.400	0.222	-0.095
-322.085	117.988	0.198	-0.241
-321.070	25.715	-0.234	0.193
-320.056	-45.072	-0.135	0.066
-319.041	-67.657	-0.533	-0.206
-318.026	-200.000	0.004	0.214
-317.012	-200.000	-0.025	0.301
-315.997	-58.416	-0.224	-0.096
-314.983	21.592	-0.315	-0.253
-313.968	-200.000	-0.010	-0.135
-312.953	-64.915	-0.302	-0.121
-311.939	9.533	0.083	-0.062
-310.924	-155.120	0.226	0.015
-309.910	-29.767	0.233	-0.131
-308.895	124.375	-0.207	0.257
-307.880	163.336	0.099	0.137
-306.866	800.000	-0.066	-0.194
-305.851	204.125	0.043	0.066
-304.837	181.262	-0.011	0.016
-303.822	25.542	-0.063	0.052
-302.807	133.655	0.050	0.064
-301.793	48.669	-0.032	-0.030
-300.778	-33.400	0.308	0.168
-299.764	188.267	-0.080	0.118
-298.749	-136.535	-0.085	0.010
-297.735	6.854	0.261	0.192
-296.720	601.067	0.189	0.464
-295.705	66.590	0.201	0.202
-294.691	-70.587	-0.132	0.049
-293.676	0.948	0.095	0.067
-292.662	-129.570	-0.201	-0.027
-291.647	-200.000	0.074	0.366
-290.632	-65.154	0.120	-0.048
-289.618	800.000	-0.124	-0.352
-288.603	178.776	-0.166	0.240
-287.589	352.632	-0.047	0.092
-286.574	49.844	-0.165	-0.154
-285.559	-26.877	0.189	0.109
-284.545	90.672	-0.053	0.058
-283.530	44.443	-0.206	0.186
-282.516	-173.600	0.245	-0.007
-281.501	-87.703	-0.171	-0.051
-280.486	-15.933	-0.164	0.103
-279.472	-56.601	0.194	0.085
-278.457	-200.000	-0.053	0.424
-277.443	-38.417	-0.272	0.142
-276.428	140.031	-0.104	0.135
-275.413	60.383	-0.248	0.242
-274.399	192.776	-0.171	0.254
-273.384	-32.348	0.383	0.211
-272.370	-200.000	-0.058	-0.273
-271.355	-200.000	-0.053	-0.248
-270.340	29.185	-0.029	-0.025
-269.326	800.000	-0.050	0.149
-268.311	-69.254	-0.059	-0.022
-267.297	31.907	-0.174	-0.147
-266.282	391.084	0.117	0.239
-265.267	-200.000	0.027	-0.153
-264.253	-105.041	-0.118	-0.027
-263.238	-37.260	-0.114	0.060
-262.224	-200.000	-0.007	-0.151
-261.209	25.037	0.177	0.144
-260.195	27.173	0.115	0.095
-259.180	-200.000	0.098	0.474
-258.165	800.000	-0.102	0.309
-257.151	-19.693	-0.125	0.076
-256.136	-82.647	-0.017	-0.005
-255.122	106.956	-0.244	-0.285
-254.107	50.755	-0.145	0.135
-253.092	79.229	0.156	0.165
-252.078	70.525	0.060	0.061
-251.063	-200.000	-0.005	-0.097
-250.049	-111.843	0.387	0.077
-249.034	800.000	-0.078	0.296
-248.019	-200.000	0.008	-0.075
-247.005	-152.475	0.246	-0.017
-245.990	496.188	-0.037	0.083
-244.976	-197.473	-0.461	0.003
-243.961	-200.000	-0.037	0.366
-242.946	-38.492	0.106	0.055
-241.932	784.561	0.016	-0.043
-240.917	800.000	0.050	-0.172
-239.903	-126.588	0.505	0.074
-238.888	-94.543	0.063	0.017
-237.873	-200.000	0.016	0.138
-236.859	-168.320	-0.149	0.006
-235.844	38.647	0.188	0.165
-234.830	-58.597	0.186	-0.079
-233.815	-34.700	0.173	0.093
-232.800	104.901	-0.154	0.179
-231.786	361.117	0.080	0.158
-230.771	320.350	-0.040	0.074
-229.757	537.653	-0.152	-0.355
-228.742	-130.822	0.178	0.023
-227.727	-200.000	-0.010	-0.064
-226.713	-74.052	-0.296	0.106
-225.698	-87.680	0.260	0.077
-224.684	-72.736	0.234	0.085
-223.669	298.483	-0.122	-0.220
-222.655	12.364	-0.026	0.020
-221.640	5.123	0.209	-0.151
-220.625	-31.486	0.233	0.129
-219.611	-60.874	-0.156	0.065
-218.596	87.276	-0.498	0.541
-217.582	-78.508	-0.167	-0.056
-216.567	-104.228	0.210	0.048
-215.552	-68.177	0.407	0.156
-214.538	-200.000	-0.061	0.303
-213.523	-56.999	-0.174	0.076
-212.509	31.548	-0.092	0.078
-211.494	-119.321	0.233	-0.040
-210.479	-200.000	0.003	-0.315
-209.465	-112.512	-0.188	-0.037
-208.450	-33.932	-0.171	-0.092
-207.436	624.644	-0.063	-0.156
-206.421	-63.720	0.204	0.082
-205.406	-169.052	0.333	0.012
-204.392	-83.752	-0.287	0.090
-203.377	8.124	-0.059	-0.044
-202.363	201.700	-0.167	0.254
-201.348	-200.000	-0.025	-0.164
-200.333	-42.059	0.159	0.080
-199.319	800.000	-0.062	-0.257
-198.304	-143.980	0.215	0.020
-197.290	-25.567	0.192	0.111
-196.275	-200.000	-0.008	0.035
-195.260	-33.425	0.253	0.138
-194.246	-133.002	0.241	0.030
-193.231	800.000	0.164	-0.454
-192.217	247.836	-0.039	0.064
-191.202	-137.831	0.232	0.026
-190.187	-200.000	0.042	0.327
-189.173	-46.235	0.245	0.118
-188.158	13.791	0.246	-0.188
-187.144	-15.869	0.216	-0.135
-186.129	-119.375	-0.287	-0.049
-185.114	323.352	-0.068	-0.128
-184.100	-23.065	0.116	-0.069
-183.085	50.359	-0.068	0.063
-182.071	-118.379	-0.151	-0.026
-181.056	-200.000	0.010	0.074
-180.042	-140.710	0.114	0.012
-179.027	303.584	-0.042	0.077
-178.012	198.415	-0.237	-0.355
-176.998	-108.692	0.071	0.015
-175.983	-23.163	-0.070	0.041
-174.969	-136.115	-0.224	-0.026
-173.954	-200.000	-0.007	-0.235
-172.939	-200.000	-0.025	-0.118
-171.925	-99.545	-0.057	0.014
-170.910	-200.000	0.019	-0.203
-169.896	-65.703	-0.186	0.073
-168.881	315.196	-0.108	0.200
-167.866	32.778	0.214	-0.182
-166.852	61.970	0.136	-0.133
-165.837	800.000	0.034	-0.119
-164.823	570.247	0.079	0.188
-163.808	-93.709	0.361	0.098
-162.793	-200.000	0.062	-0.312
-161.779	7.070	-0.125	-0.091
-160.764	335.311	0.137	-0.261
-159.750	265.400	-0.060	0.102
-158.735	85.667	0.376	0.405
-157.720	-200.000	-0.018	0.092
-156.706	-200.000	-0.049	0.312
-155.691	800.000	0.045	0.140
-154.677	259.394	-0.158	-0.267
-153.662	-52.633	-0.068	0.031
-152.647	-200.000	0.060	0.326
-151.633	-158.981	0.213	0.012
-150.618	-105.584	-0.144	0.032
-149.604	-101.419	-0.369	0.088
-148.589	157.710	0.100	0.136
-147.574	124.785	0.071	-0.088
-146.560	-16.786	-0.305	0.189
-145.545	197.972	-0.183	0.275
-144.531	-200.000	0.003	0.221
-143.516	-47.387	0.067	0.032
-142.502	-200.000	0.033	0.278
-141.487	-200.000	0.010	-0.147
-140.472	92.413	0.023	0.026
-139.458	-200.000	0.018	0.102
-138.443	800.000	0.076	-0.254
-137.429	562.816	0.052	0.124
-136.414	500.411	-0.084	0.191
-135.399	290.179	-0.163	-0.291
-134.385	-64.403	0.054	0.022
-133.370	-52.926	-0.173	0.078
-132.356	-145.371	0.323	0.029
-131.341	159.725	0.105	-0.143
-130.326	90.271	-0.182	0.199
-129.312	495.209	-0.062	0.139
-128.297	-26.728	-0.262	0.150
-127.283	-200.000	0.028	0.274
-126.268	65.773	0.380	-0.377
-125.253	-105.390	-0.489	0.109
-124.239	-7.509	-0.264	0.175
-123.224	296.359	0.101	0.181
-122.210	-200.000	-0.019	-0.116
