DTS Sentinel unit serial number:	SN413079Multiplexer serial number:	ORYXHardware model number:	OX4-SRSoftware version number:	ORYX F/W v4.00 Oryx Data Collector v3.7.2.0data status	okinstallation	princeton_trtdifferential loss correction	single-endedforward channel	channel 3reverse channel	N/Adate	2019/09/18time	07:56:35forward acquisition time	60.00reverse acquisition time	0.00gamma	496.2192k internal	0.2341k external	0.2341temperature offset calibration	0.9947default loss term (dB/km)	0.3790temperature slope calibration	1.0000multiplexer offset coefficient	1.0000multiplexer slope coefficient	1.0000fibre end	0.00T internal ref (°C)	23.50T ext. ref 1 (°C)	0.20T ext. ref 2 (°C)	19.36length (m)	temperature (°C)	Stokes	anti-Stokes-747.200	-105.760	-0.209	-0.047
-746.185	-117.980	-0.036	0.007
-745.171	-19.511	0.066	-0.041
-744.156	-77.519	-0.255	-0.089
-743.142	-200.000	-0.013	0.340
-742.127	6.182	-0.137	0.102
-741.112	-106.907	0.118	0.026
-740.098	-149.617	-0.034	0.003
-739.083	242.097	-0.063	0.106
-738.069	71.110	0.031	0.032
-737.054	-200.000	0.036	0.568
-736.039	-88.842	-0.243	-0.072
-735.025	66.067	0.177	-0.180
-734.010	-89.506	-0.317	-0.093
-732.996	-13.093	-0.119	0.078
-731.981	-27.282	-0.245	-0.143
-730.966	-95.518	0.105	-0.028
-729.952	43.870	-0.159	-0.146
-728.937	79.713	-0.230	0.247
-727.923	-23.826	0.218	0.130
-726.908	298.602	-0.149	0.275
-725.894	-200.000	0.033	-0.149
-724.879	-200.000	-0.024	-0.440
-723.864	-0.626	0.223	0.158
-722.850	340.716	0.076	0.149
-721.835	271.614	0.125	-0.221
-720.821	131.255	0.122	0.157
-719.806	121.560	0.128	-0.160
-718.791	170.049	-0.082	-0.117
-717.777	-79.158	0.349	0.118
-716.762	-200.000	-0.016	0.173
-715.748	-200.000	-0.099	-0.526
-714.733	-136.872	0.336	0.039
-713.718	-80.143	-0.062	0.021
-712.704	26.403	-0.174	-0.146
-711.689	-102.875	-0.117	-0.028
-710.675	-28.735	0.166	0.095
-709.660	-52.402	-0.080	-0.037
-708.645	245.519	-0.076	-0.128
-707.631	-53.358	-0.084	-0.039
-706.616	-196.645	-0.239	-0.002
-705.602	116.871	-0.024	0.029
-704.587	440.971	-0.152	-0.332
-703.572	-200.000	-0.015	0.135
-702.558	-8.336	0.068	-0.046
-701.543	-200.000	0.020	-0.387
-700.529	-200.000	0.033	0.412
-699.514	142.397	-0.139	-0.184
-698.499	-200.000	-0.027	-0.131
-697.485	661.048	0.016	0.041
-696.470	471.184	-0.025	-0.057
-695.456	-178.532	-0.129	0.003
-694.441	-10.845	-0.337	-0.223
-693.426	-200.000	-0.023	0.244
-692.412	800.000	-0.022	0.075
-691.397	649.471	-0.019	0.049
-690.383	82.932	0.117	0.127
-689.368	10.677	-0.062	-0.048
-688.354	-20.662	-0.224	-0.137
-687.339	-16.599	0.076	-0.048
-686.324	272.229	0.185	-0.326
-685.310	-84.341	-0.103	0.033
-684.295	16.154	-0.148	0.117
-683.281	23.755	-0.146	0.120
-682.266	-200.000	-0.012	-0.255
-681.251	800.000	0.044	0.167
-680.237	-1.169	-0.392	-0.277
-679.222	-200.000	0.059	0.280
-678.208	0.501	0.099	-0.071
-677.193	-57.646	-0.018	-0.008
-676.178	-120.921	0.103	0.017
-675.164	-128.406	0.231	-0.033
-674.149	34.011	-0.063	0.055
-673.135	23.134	-0.124	-0.101
-672.120	256.766	0.146	-0.251
-671.105	95.698	-0.120	0.137
-670.091	-80.499	0.234	-0.078
-669.076	-115.435	-0.193	-0.036
-668.062	-200.000	0.023	-0.152
-667.047	234.604	0.123	0.203
-666.032	-200.000	-0.008	0.283
-665.018	-200.000	0.002	0.189
-664.003	256.816	-0.073	0.125
-662.989	-72.546	-0.093	0.034
-661.974	800.000	0.006	-0.024
-660.959	-64.326	-0.355	-0.144
-659.945	148.625	-0.138	-0.186
-658.930	800.000	0.123	0.352
-657.916	-114.494	-0.175	-0.034
-656.901	-49.333	0.099	-0.047
-655.886	-97.040	0.221	-0.058
-654.872	-48.229	-0.210	0.101
-653.857	-165.878	-0.323	0.014
-652.843	-69.991	-0.302	-0.115
-651.828	105.041	0.184	0.217
-650.814	-103.518	0.242	0.057
-649.799	159.353	0.088	-0.122
-648.784	5.015	-0.138	-0.101
-647.770	41.664	-0.174	0.158
-646.755	339.256	0.160	-0.312
-645.741	68.825	0.041	0.042
-644.726	-200.000	0.014	0.085
-643.711	-16.674	-0.074	-0.047
-642.697	-38.717	-0.125	-0.066
-641.682	-14.571	0.077	0.049
-640.668	-58.580	-0.188	0.081
-639.653	66.886	-0.143	0.146
-638.638	800.000	0.060	-0.231
-637.624	-154.574	-0.307	-0.020
-636.609	-200.000	-0.007	-0.042
-635.595	-58.378	0.256	-0.111
-634.580	-200.000	0.014	-0.222
-633.565	514.149	0.033	-0.076
-632.551	311.724	-0.141	0.264
-631.536	345.339	0.182	-0.357
-630.522	-24.616	-0.216	0.128
-629.507	277.088	-0.105	-0.187
-628.492	-148.059	-0.459	-0.038
-627.478	-79.160	-0.248	0.084
-626.463	-40.327	0.150	-0.078
-625.449	606.337	-0.077	-0.191
-624.434	-65.752	0.220	-0.088
-623.419	67.800	-0.146	-0.148
-622.405	-17.899	-0.057	-0.036
-621.390	22.834	0.107	0.088
-620.376	173.858	0.053	0.077
-619.361	397.775	0.073	-0.153
-618.346	48.593	0.159	-0.149
-617.332	-119.910	0.153	-0.026
-616.317	215.765	-0.143	0.227
-615.303	-180.912	-0.124	-0.002
-614.288	23.740	-0.113	-0.093
-613.273	112.943	0.148	0.179
-612.259	32.254	-0.238	-0.204
-611.244	800.000	0.031	0.119
-610.230	-200.000	0.042	-0.261
-609.215	-6.031	-0.228	-0.155
-608.201	-200.000	0.017	0.308
-607.186	-200.000	-0.037	0.356
-606.171	-120.516	-0.177	0.030
-605.157	122.610	0.122	-0.152
-604.142	800.000	0.052	0.162
-603.128	-123.968	0.343	0.054
-602.113	149.962	-0.102	0.138
-601.098	-159.295	-0.319	0.018
-600.084	61.247	-0.306	-0.303
-599.069	137.373	0.051	-0.067
-598.055	272.592	-0.074	-0.130
-597.040	-200.000	-0.006	-0.036
-596.025	-85.625	0.317	-0.098
-595.011	-200.000	-0.021	0.128
-593.996	-68.654	-0.229	0.088
-592.982	18.931	-0.063	-0.050
-591.967	-200.000	0.059	-0.289
-590.952	-173.069	-0.120	-0.004
-589.938	319.638	-0.190	0.359
-588.923	800.000	-0.063	0.188
-587.909	-148.639	0.189	0.015
-586.894	800.000	-0.075	0.315
-585.879	7.428	0.143	0.106
-584.865	800.000	0.078	0.257
-583.850	125.026	-0.025	0.032
-582.836	800.000	0.043	0.162
-581.821	41.914	-0.200	0.181
-580.806	10.467	-0.071	-0.054
-579.792	192.428	0.158	-0.238
-578.777	-172.783	-0.197	0.006
-577.763	86.389	-0.329	0.361
-576.748	66.129	-0.159	-0.161
-575.733	-87.688	0.228	0.068
-574.719	49.449	-0.044	-0.042
-573.704	21.296	-0.098	-0.080
-572.690	-91.808	0.157	0.044
-571.675	-200.000	0.002	0.019
-570.661	800.000	-0.067	0.249
-569.646	520.771	0.107	0.250
-568.631	195.108	0.199	-0.301
-567.617	-102.028	0.084	0.020
-566.602	-151.066	-0.352	-0.026
-565.588	-171.932	-0.188	0.006
-564.573	-200.000	0.040	0.252
-563.558	800.000	-0.029	0.120
-562.544	-200.000	0.009	0.118
-561.529	201.048	-0.156	0.238
-560.515	-132.952	-0.271	-0.034
-559.500	-130.630	-0.335	-0.045
-558.485	-134.309	-0.211	-0.026
-557.471	-12.089	0.121	-0.079
-556.456	-200.000	0.008	0.221
-555.442	800.000	0.085	0.247
-554.427	6.204	0.126	0.093
-553.412	-37.270	-0.066	0.035
-552.398	-80.928	0.144	0.047
-551.383	-151.087	-0.046	0.003
-550.369	-200.000	-0.027	-0.611
-549.354	-127.761	0.175	0.025
-548.339	7.074	0.082	-0.061
-547.325	-191.104	0.131	0.001
-546.310	4.977	0.286	-0.209
-545.296	-114.697	0.158	0.030
-544.281	-154.829	-0.285	0.019
-543.266	-82.117	0.202	0.066
-542.252	-34.647	0.239	-0.130
-541.237	-200.000	0.004	0.095
-540.223	-13.902	-0.056	0.036
-539.208	-200.000	-0.453	-0.002
-538.193	-110.442	-0.276	0.057
-537.179	-138.525	0.085	-0.009
-536.164	-200.000	-0.031	-0.183
-535.150	594.708	-0.050	0.122
-534.135	800.000	-0.057	0.210
-533.121	283.672	0.097	0.174
-532.106	-92.922	-0.168	0.047
-531.091	-10.865	-0.152	0.100
-530.077	800.000	-0.119	-0.366
-529.062	-175.212	-0.130	0.004
-528.048	291.738	-0.034	-0.061
-527.033	-200.000	0.007	-0.069
-526.018	287.454	0.060	0.108
-525.004	75.623	-0.136	-0.143
-523.989	550.932	-0.015	-0.036
-522.975	5.069	-0.080	0.058
-521.960	29.020	0.041	-0.035
-520.945	-39.248	0.287	-0.150
-519.931	309.144	0.013	-0.025
-518.916	-17.123	-0.038	-0.024
-517.902	-200.000	-0.023	0.169
-516.887	486.569	0.039	-0.088
-515.872	-104.770	-0.297	-0.068
-514.858	-94.136	0.207	0.056
-513.843	58.081	0.244	0.238
-512.829	-200.000	0.022	0.119
-511.814	-25.646	0.217	-0.127
-510.799	-154.858	-0.480	-0.031
-509.785	-200.000	-0.002	-0.243
-508.770	2.966	-0.120	0.086
-507.756	-200.000	-0.004	0.226
-506.741	306.029	0.065	0.120
-505.726	54.868	-0.053	-0.051
-504.712	-53.354	0.150	-0.068
-503.697	800.000	0.071	-0.210
-502.683	16.213	0.098	0.077
-501.668	-123.785	0.432	0.068
-500.653	800.000	-0.082	-0.227
-499.639	37.348	-0.054	-0.048
-498.624	-164.701	-0.311	-0.014
-497.610	-158.396	0.249	-0.014
-496.595	-200.000	-0.004	0.017
-495.581	65.640	0.192	-0.193
-494.566	36.529	-0.094	-0.082
-493.551	-16.567	-0.119	-0.075
-492.537	-133.207	0.408	0.051
-491.522	-155.364	-0.253	-0.016
-490.508	55.164	-0.053	0.051
-489.493	-124.231	-0.347	-0.054
-488.478	-200.000	-0.003	0.382
-487.464	469.109	0.106	0.236
-486.449	-200.000	-0.017	-0.077
-485.435	427.984	0.084	-0.180
-484.420	104.200	0.143	-0.167
-483.405	24.603	-0.157	0.129
-482.391	77.578	0.076	-0.081
-481.376	-163.011	0.157	-0.008
-480.362	-122.637	-0.077	0.012
-479.347	-3.359	-0.145	-0.100
-478.332	-112.400	-0.128	-0.025
-477.318	265.471	-0.039	0.067
-476.303	-200.000	0.038	-0.302
-475.289	51.301	-0.298	-0.280
-474.274	800.000	-0.045	0.158
-473.259	800.000	-0.054	0.158
-472.245	-76.816	0.312	-0.108
-471.230	160.420	-0.083	0.114
-470.216	-16.234	0.113	-0.071
-469.201	52.209	0.118	-0.111
-468.186	-78.157	-0.173	0.059
-467.172	25.887	0.255	0.211
-466.157	65.328	0.105	-0.105
-465.143	800.000	0.052	-0.152
-464.128	53.240	-0.085	-0.081
-463.113	375.191	0.121	-0.244
-462.099	218.973	0.046	-0.073
-461.084	184.507	0.127	0.187
-460.070	46.251	-0.208	0.191
-459.055	302.692	0.075	0.138
-458.040	-200.000	0.065	0.311
-457.026	33.685	-0.045	-0.039
-456.011	-200.000	0.011	-0.553
-454.997	-172.623	0.172	0.005
-453.982	-200.000	-0.014	-0.113
-452.968	319.565	0.152	-0.286
-451.953	-200.000	0.027	-0.150
-450.938	-51.428	0.218	-0.101
-449.924	-63.953	-0.132	0.054
-448.909	94.641	-0.130	0.147
-447.895	800.000	-0.033	0.092
-446.880	61.921	0.187	-0.185
-445.865	486.939	0.088	0.198
-444.851	-200.000	-0.060	0.342
-443.836	-32.342	0.182	0.100
-442.822	800.000	0.107	-0.309
-441.807	-62.419	-0.151	-0.062
-440.792	-82.765	0.359	0.115
-439.778	18.749	0.120	0.095
-438.763	-177.030	-0.196	-0.005
-437.749	24.762	0.162	0.133
-436.734	650.588	-0.040	0.103
-435.719	800.000	-0.121	-0.368
-434.705	-0.269	-0.277	-0.195
-433.690	-200.000	-0.001	-0.025
-432.676	-131.249	0.232	-0.031
-431.661	353.076	0.067	-0.131
-430.646	722.268	0.029	0.076
-429.632	-149.334	-0.268	0.021
-428.617	-10.933	-0.140	-0.091
-427.603	-2.872	0.101	-0.070
-426.588	-30.037	-0.172	0.097
-425.573	436.900	0.055	-0.118
-424.559	13.502	0.113	0.086
-423.544	28.770	0.210	0.176
-422.530	61.991	-0.193	-0.191
-421.515	-67.404	0.523	-0.203
-420.500	363.841	0.087	0.174
-419.486	66.719	0.106	-0.107
-418.471	382.237	-0.051	-0.104
-417.457	403.532	0.068	0.142
-416.442	800.000	-0.035	-0.143
-415.428	-63.658	0.272	-0.111
-414.413	555.879	-0.090	0.215
-413.398	12.288	0.273	-0.208
-412.384	-111.369	0.066	0.013
-411.369	-200.000	-0.034	-0.267
-410.355	-52.747	0.353	-0.161
-409.340	-200.000	-0.033	-0.372
-408.325	-73.115	-0.189	-0.068
-407.311	800.000	-0.028	0.107
-406.296	90.359	-0.072	0.080
-405.282	800.000	0.020	-0.070
-404.267	213.953	-0.070	0.109
-403.252	124.760	0.065	-0.081
-402.238	341.761	-0.077	-0.148
-401.223	-74.539	0.032	-0.011
-400.209	255.579	0.022	0.037
-399.194	-85.960	0.254	0.078
-398.179	-150.372	0.198	-0.015
-397.165	0.691	0.271	0.192
-396.150	-82.760	0.255	0.081
-395.136	254.841	-0.185	-0.313
-394.121	-50.206	-0.285	-0.133
-393.106	-37.037	0.140	-0.074
-392.092	49.452	-0.193	-0.179
-391.077	-173.196	0.068	-0.002
-390.063	-112.876	0.171	0.034
-389.048	800.000	-0.074	-0.211
-388.033	-7.966	-0.152	0.101
-387.019	262.407	-0.119	0.204
-386.004	-171.938	-0.103	0.003
-384.990	1.895	-0.247	0.176
-383.975	-40.388	0.150	0.077
-382.960	-200.000	-0.000	0.268
-381.946	-121.709	-0.261	0.043
-380.931	-137.627	-0.504	0.056
-379.917	58.103	-0.293	-0.284
-378.902	-15.513	-0.154	-0.097
-377.888	68.021	-0.322	-0.325
-376.873	-4.195	0.087	-0.060
-375.858	9.230	0.086	0.064
-374.844	97.484	0.234	0.265
-373.829	-69.158	0.255	-0.097
-372.815	71.157	0.116	-0.119
-371.800	172.897	0.251	0.357
-370.785	113.766	-0.243	0.291
-369.771	21.448	0.262	-0.211
-368.756	35.526	-0.097	-0.084
-367.742	-142.359	0.088	-0.009
-366.727	15.090	-0.206	-0.159
-365.712	-50.049	-0.141	0.066
-364.698	768.897	0.090	-0.241
-363.683	48.729	0.266	0.246
-362.669	-20.572	-0.249	0.151
-361.654	221.925	0.067	0.106
-360.639	-63.569	0.172	-0.070
-359.625	-190.660	0.172	0.002
-358.610	-95.474	0.073	0.019
-357.596	800.000	0.050	0.216
-356.581	-152.298	0.348	-0.025
-355.566	394.580	0.065	0.133
-354.552	171.632	-0.085	-0.121
-353.537	-200.000	0.004	0.146
-352.523	1.923	0.090	-0.064
-351.508	800.000	-0.018	-0.062
-350.493	-200.000	-0.004	0.156
-349.479	137.617	-0.245	-0.316
-348.464	99.412	-0.216	0.246
-347.450	-23.416	0.031	0.019
-346.435	2.804	0.196	0.141
-345.420	68.419	0.261	-0.264
-344.406	-3.487	-0.155	0.106
-343.391	352.934	0.088	-0.172
-342.377	-82.450	-0.048	0.015
-341.362	332.831	-0.064	-0.121
-340.348	13.556	0.206	-0.158
-339.333	-84.164	-0.219	0.069
-338.318	-200.000	-0.013	0.228
-337.304	-78.680	-0.298	0.100
-336.289	-200.000	-0.034	-0.176
-335.275	-200.000	-0.015	-0.098
-334.260	403.633	0.149	-0.309
-333.245	-200.000	0.060	-0.284
-332.231	-200.000	-0.032	0.286
-331.216	-44.386	0.068	0.034
-330.202	800.000	-0.033	-0.101
-329.187	-71.362	-0.221	0.082
-328.172	40.074	-0.019	-0.017
-327.158	-157.621	-0.314	-0.019
-326.143	-88.439	0.248	0.073
-325.129	440.004	0.048	-0.104
-324.114	211.621	0.188	0.291
-323.099	6.497	0.134	0.098
-322.085	161.468	-0.215	0.296
-321.070	800.000	-0.148	0.440
-320.056	-6.159	0.190	0.128
-319.041	-66.176	0.032	-0.012
-318.026	-22.730	-0.074	-0.044
-317.012	19.239	0.205	0.162
-315.997	-34.962	-0.180	-0.097
-314.983	800.000	-0.066	-0.196
-313.968	125.638	0.080	-0.099
-312.953	-129.630	0.169	0.023
-311.939	-48.750	-0.173	-0.082
-310.924	123.214	0.091	0.113
-309.910	-103.203	-0.148	0.034
-308.895	16.381	0.317	-0.247
-307.880	-200.000	0.047	-0.277
-306.866	-200.000	0.074	-0.425
-305.851	230.952	-0.051	0.083
-304.837	-85.824	-0.141	0.043
-303.822	-150.311	-0.223	0.017
-302.807	478.913	-0.088	-0.197
-301.793	436.889	-0.195	-0.417
-300.778	-80.450	-0.124	0.041
-299.764	-200.000	-0.028	0.150
-298.749	541.783	-0.040	0.094
-297.735	-51.664	0.033	-0.015
-296.720	153.088	0.131	0.176
-295.705	-164.387	-0.201	0.009
-294.691	230.752	0.057	0.092
-293.676	-110.032	-0.234	0.048
-292.662	400.609	0.113	0.233
-291.647	468.650	0.112	0.249
-290.632	-81.203	0.353	0.115
-289.618	-200.000	0.066	-0.459
-288.603	-200.000	0.013	-0.236
-287.589	171.835	-0.050	0.071
-286.574	-200.000	-0.001	-0.021
-285.559	-73.967	-0.120	0.043
-284.545	-180.797	-0.236	-0.005
-283.530	272.451	0.127	-0.221
-282.516	800.000	-0.106	0.385
-281.501	384.128	0.133	0.270
-280.486	323.218	0.202	0.378
-279.472	492.146	-0.087	0.197
-278.457	25.423	-0.063	0.052
-277.443	371.549	0.053	0.106
-276.428	-200.000	-0.042	-0.205
-275.413	78.175	0.179	0.187
-274.399	-200.000	-0.030	0.176
-273.384	-89.802	-0.264	0.076
-272.370	-60.437	-0.086	0.036
-271.355	-200.000	-0.029	-0.158
-270.340	-101.448	0.217	0.052
-269.326	222.754	-0.065	0.103
-268.311	-17.263	-0.135	-0.084
-267.297	531.527	-0.092	-0.214
-266.282	296.629	-0.171	-0.309
-265.267	99.917	-0.099	0.113
-264.253	112.360	0.106	-0.126
-263.238	-142.202	0.332	-0.032
-262.224	800.000	-0.062	0.211
-261.209	-165.021	-0.176	-0.008
-260.195	169.776	-0.099	-0.139
-259.180	-133.214	0.059	0.007
-258.165	164.875	-0.185	-0.257
-257.151	-200.000	-0.015	0.157
-256.136	-200.000	0.000	0.246
-255.122	-47.471	0.055	-0.026
-254.107	-55.491	-0.131	0.058
-253.092	-117.223	0.203	0.036
-252.078	800.000	-0.035	-0.118
-251.063	93.858	0.138	-0.153
-250.049	120.306	0.138	-0.168
-249.034	-6.404	0.142	0.095
-248.019	-55.916	0.152	-0.067
-247.005	183.338	-0.074	-0.107
-245.990	-6.733	0.125	-0.083
-244.976	-118.960	0.286	0.049
-243.961	-86.832	-0.266	-0.080
-242.946	-16.201	-0.278	0.174
-241.932	1.849	0.152	-0.108
-240.917	-55.159	-0.134	0.059
-239.903	-83.678	0.244	-0.077
-238.888	-167.468	0.238	0.009
-237.873	-166.544	-0.254	0.010
-236.859	462.934	0.037	0.080
-235.844	-57.010	-0.244	-0.106
-234.830	-71.639	0.429	0.157
-233.815	800.000	0.053	-0.165
-232.800	25.490	0.068	0.056
-231.786	-170.627	0.149	0.005
-230.771	-200.000	-0.020	-0.362
-229.757	-116.558	-0.381	-0.069
-228.742	-18.222	0.345	-0.212
-227.727	250.589	-0.029	-0.048
-226.713	10.249	-0.085	0.064
-225.698	-39.845	0.296	0.152
-224.684	340.369	-0.024	-0.047
-223.669	34.938	0.191	-0.165
-222.655	-23.278	-0.325	-0.192
-221.640	800.000	-0.037	0.161
-220.625	-91.768	0.064	0.018
-219.611	-23.326	-0.265	-0.156
-218.596	-123.544	-0.211	0.033
-217.582	-200.000	-0.005	0.139
-216.567	60.565	0.102	0.099
-215.552	-63.716	0.020	0.008
-214.538	4.028	0.064	-0.046
-213.523	-37.049	-0.075	-0.039
-212.509	199.489	0.180	0.271
-211.494	-200.000	0.005	0.107
-210.479	-81.950	-0.145	0.046
-209.465	-200.000	-0.073	0.397
-208.450	-58.615	0.088	0.037
-207.436	51.100	-0.241	-0.224
-206.421	-200.000	0.068	-0.407
-205.406	-200.000	0.026	0.226
-204.392	260.665	-0.077	-0.130
-203.377	-72.427	0.311	0.113
-202.363	-200.000	-0.052	0.286
-201.348	755.197	-0.088	0.233
-200.333	-100.237	-0.238	-0.058
-199.319	171.651	0.221	-0.312
-198.304	423.933	0.140	-0.295
-197.290	355.113	-0.109	0.212
-196.275	400.618	-0.030	0.061
-195.260	-200.000	-0.002	0.010
-194.246	11.124	0.199	0.150
-193.231	-200.000	0.079	-0.468
-192.217	-71.138	0.109	0.040
-191.202	237.875	0.103	0.168
-190.187	62.871	0.158	0.155
-189.173	-200.000	0.010	0.281
-188.158	176.493	-0.168	-0.240
-187.144	74.964	0.207	-0.213
-186.129	346.205	-0.125	-0.241
-185.114	-40.008	-0.262	0.134
-184.100	377.468	-0.057	-0.113
-183.085	193.881	-0.083	0.123
-182.071	11.579	-0.213	0.160
-181.056	800.000	0.082	0.242
-180.042	-31.773	0.177	-0.097
-179.027	86.561	0.161	0.174
-178.012	-92.633	0.185	-0.051
-176.998	92.939	0.078	0.086
-175.983	13.638	-0.151	0.115
-174.969	766.042	-0.117	0.311
-173.954	-20.778	0.177	0.106
-172.939	36.315	-0.226	0.195
-171.925	-200.000	0.007	0.203
-170.910	295.829	-0.122	0.219
-169.896	-115.555	0.084	-0.015
-168.881	-23.250	0.277	0.163
-167.866	800.000	0.070	0.264
-166.852	258.379	0.173	-0.292
-165.837	-59.707	0.165	0.069
-164.823	-200.000	0.028	0.262
-163.808	-6.508	-0.135	-0.090
-162.793	-1.201	0.291	-0.202
-161.779	-41.548	0.117	-0.059
-160.764	-84.940	-0.159	0.049
-159.750	-98.629	-0.135	0.034
-158.735	187.707	0.069	0.101
-157.720	800.000	0.031	0.127
-156.706	-20.631	0.261	0.157
-155.691	-70.306	0.184	0.068
-154.677	43.131	-0.202	-0.180
-153.662	-118.398	-0.356	-0.062
-152.647	-12.184	0.063	-0.041
-151.633	189.379	0.078	-0.115
-150.618	-76.198	0.258	0.089
-149.604	-200.000	0.037	0.290
-148.589	-200.000	0.044	-0.201
-147.574	-30.770	-0.132	0.073
-146.560	30.265	0.073	-0.061
-145.545	-129.470	-0.231	-0.031
-144.531	106.517	0.121	0.140
-143.516	-200.000	0.021	0.127
-142.502	361.587	0.190	0.372
-141.487	67.316	-0.066	0.066
-140.472	-200.000	-0.006	0.198
-139.458	-62.559	-0.084	-0.034
-138.443	-200.000	-0.053	-0.265
-137.429	-115.422	0.225	0.041
-136.414	-96.990	-0.248	-0.064
-135.399	800.000	-0.101	-0.358
-134.385	-133.823	-0.231	0.028
-133.370	-2.466	0.307	-0.211
-132.356	78.550	0.067	-0.070
-131.341	209.379	-0.160	-0.245
-130.326	-200.000	-0.005	-0.136
-129.312	-45.538	0.354	-0.172
-128.297	484.094	-0.133	0.297
-127.283	-200.000	0.017	0.131
-126.268	-39.742	0.126	0.064
-125.253	93.806	-0.334	0.371
-124.239	11.228	-0.281	0.210
-123.224	230.280	0.087	0.139
-122.210	31.889	-0.097	0.082
-121.195	-15.693	-0.210	-0.131
-120.180	-139.130	0.542	-0.057
