DTS Sentinel unit serial number:	SN413079Multiplexer serial number:	ORYXHardware model number:	OX4-SRSoftware version number:	ORYX F/W v4.00 Oryx Data Collector v3.7.2.0data status	okinstallation	princeton_trtdifferential loss correction	single-endedforward channel	channel 3reverse channel	N/Adate	2019/09/18time	13:20:34forward acquisition time	60.00reverse acquisition time	0.00gamma	496.2192k internal	0.2312k external	0.2312temperature offset calibration	0.9969default loss term (dB/km)	0.3790temperature slope calibration	1.0000multiplexer offset coefficient	1.0000multiplexer slope coefficient	1.0000fibre end	0.00T internal ref (°C)	34.11T ext. ref 1 (°C)	0.60T ext. ref 2 (°C)	29.47length (m)	temperature (°C)	Stokes	anti-Stokes-747.200	-137.656	-0.090	-0.010
-746.185	271.539	-0.161	0.288
-745.171	35.624	-0.091	0.081
-744.156	-200.000	0.022	0.260
-743.142	-56.784	-0.239	0.107
-742.127	-47.853	-0.082	-0.040
-741.112	-200.000	0.044	-0.199
-740.098	-79.223	-0.420	-0.145
-739.083	-39.027	0.340	0.181
-738.069	-128.531	-0.268	0.039
-737.054	-200.000	0.005	0.173
-736.039	157.238	-0.231	0.324
-735.025	-200.000	-0.026	0.150
-734.010	-35.334	-0.234	0.129
-732.996	2.000	0.107	-0.078
-731.981	-157.649	0.148	-0.009
-730.966	143.318	0.202	0.273
-729.952	347.436	-0.080	-0.159
-728.937	-78.079	0.257	-0.090
-727.923	-200.000	0.065	-0.334
-726.908	32.285	-0.234	-0.205
-725.894	-200.000	-0.006	-0.079
-724.879	-23.430	0.170	0.104
-723.864	-43.054	0.044	-0.023
-722.850	161.201	0.009	0.013
-721.835	-40.261	-0.174	-0.092
-720.821	-142.611	-0.332	-0.033
-719.806	-167.659	-0.268	0.011
-718.791	199.881	-0.020	0.031
-717.777	-142.905	0.135	0.013
-716.762	-20.178	0.276	-0.172
-715.748	-78.528	0.147	0.051
-714.733	45.082	-0.087	-0.081
-713.718	800.000	-0.040	0.142
-712.704	29.945	0.124	0.107
-711.689	220.442	-0.093	-0.151
-710.675	-124.096	0.311	-0.049
-709.660	-200.000	0.023	-0.358
-708.645	20.693	0.276	0.226
-707.631	-73.968	-0.112	-0.041
-706.616	-127.130	-0.358	0.053
-705.602	-200.000	0.004	0.247
-704.587	-76.772	-0.188	0.067
-703.572	-145.925	0.126	0.011
-702.558	-200.000	-0.049	-0.248
-701.543	800.000	-0.064	-0.187
-700.529	11.352	0.225	-0.175
-699.514	84.488	0.229	-0.254
-698.499	-85.294	0.062	0.020
-697.485	302.570	-0.122	0.228
-696.470	-200.000	-0.087	0.471
-695.456	-22.760	0.055	-0.034
-694.441	198.790	0.157	-0.244
-693.426	-152.996	0.269	0.019
-692.412	-10.613	-0.173	-0.116
-691.397	-63.630	-0.089	-0.037
-690.383	-200.000	-0.034	0.226
-689.368	273.707	0.148	-0.265
-688.354	-200.000	0.000	-0.038
-687.339	-200.000	-0.018	0.124
-686.324	-200.000	-0.015	0.178
-685.310	-178.104	-0.083	-0.002
-684.295	190.315	0.164	-0.249
-683.281	-56.415	-0.317	-0.143
-682.266	-123.892	0.329	0.052
-681.251	-70.598	0.153	-0.059
-680.237	800.000	-0.072	-0.316
-679.222	56.949	0.195	-0.192
-678.208	-22.280	-0.045	0.028
-677.193	-155.499	0.449	0.029
-676.178	-195.130	0.248	0.002
-675.164	79.661	-0.152	0.165
-674.149	-38.152	0.141	-0.076
-673.135	-200.000	-0.076	-0.471
-672.120	-148.046	-0.394	-0.033
-671.105	64.630	-0.014	-0.015
-670.091	-200.000	0.050	0.348
-669.076	196.657	0.124	-0.191
-668.062	-86.323	-0.345	0.107
-667.047	151.900	-0.114	-0.157
-666.032	-141.325	-0.133	-0.014
-665.018	50.236	0.130	-0.124
-664.003	-155.594	0.239	0.016
-662.989	115.326	0.232	0.287
-661.974	-71.382	-0.247	-0.094
-660.959	-111.328	-0.145	0.030
-659.945	0.345	0.229	-0.165
-658.930	-166.390	0.211	-0.009
-657.916	-118.494	0.356	-0.064
-656.901	800.000	-0.071	-0.219
-655.886	-95.163	-0.131	0.036
-654.872	-61.460	-0.257	0.109
-653.857	60.832	0.133	-0.134
-652.843	-200.000	0.000	-0.270
-651.828	-188.440	-0.443	0.006
-650.814	28.613	0.350	-0.299
-649.799	154.635	0.173	-0.240
-648.784	-200.000	0.006	0.190
-647.770	-173.159	-0.221	-0.007
-646.755	-34.423	0.236	0.131
-645.741	195.077	0.167	-0.256
-644.726	-20.666	-0.157	0.098
-643.711	-19.681	-0.077	0.048
-642.697	-109.189	-0.423	0.091
-641.682	54.869	-0.081	0.079
-640.668	272.279	0.200	0.356
-639.653	11.107	-0.134	-0.104
-638.638	638.983	-0.015	-0.040
-637.624	800.000	0.038	0.160
-636.609	-1.759	-0.274	-0.195
-635.595	-200.000	0.001	0.061
-634.580	40.355	0.111	0.101
-633.565	-47.852	0.153	0.075
-632.551	-62.851	0.290	-0.121
-631.536	591.658	-0.085	-0.212
-630.522	137.329	0.088	0.116
-629.507	800.000	-0.097	-0.309
-628.492	-69.358	0.144	-0.056
-627.478	800.000	-0.017	0.068
-626.463	800.000	-0.051	-0.156
-625.449	-188.645	-0.343	0.004
-624.434	-200.000	0.033	-0.400
-623.419	-200.000	-0.036	0.388
-622.405	20.718	0.272	0.222
-621.390	292.841	-0.143	0.264
-620.376	-64.504	0.219	-0.090
-619.361	89.874	0.190	-0.214
-618.346	18.922	0.066	-0.053
-617.332	-37.472	-0.104	-0.056
-616.317	555.473	0.184	0.447
-615.303	-27.363	0.124	0.073
-614.288	200.222	-0.177	-0.275
-613.273	-103.217	-0.253	-0.060
-612.259	-122.203	-0.135	0.022
-611.244	773.624	0.095	-0.262
-610.230	-200.000	-0.030	-0.261
-609.215	79.256	-0.218	-0.236
-608.201	-91.079	0.195	-0.057
-607.186	258.577	0.073	0.127
-606.171	-31.862	0.115	0.065
-605.157	-93.230	-0.319	-0.089
-604.142	23.079	0.164	-0.136
-603.128	768.639	-0.110	0.302
-602.113	86.065	0.117	0.130
-601.098	-91.244	0.215	-0.062
-600.084	21.585	0.106	0.087
-599.069	800.000	0.119	0.341
-598.055	62.128	-0.095	-0.096
-597.040	-200.000	-0.004	-0.153
-596.025	424.852	-0.065	0.141
-595.011	270.246	-0.157	-0.278
-593.996	431.178	-0.088	0.192
-592.982	-42.095	-0.137	0.070
-591.967	-200.000	-0.016	0.456
-590.952	414.988	-0.049	0.106
-589.938	-76.745	-0.198	-0.070
-588.923	-200.000	-0.036	0.256
-587.909	594.090	0.076	-0.188
-586.894	-200.000	-0.002	-0.235
-585.879	437.083	-0.047	-0.103
-584.865	291.169	-0.218	-0.399
-583.850	-128.704	-0.096	-0.014
-582.836	-200.000	-0.040	-0.232
-581.821	7.773	0.242	0.183
-580.806	324.896	-0.098	0.189
-579.792	-200.000	0.072	0.359
-578.777	-114.215	-0.216	0.042
-577.763	-200.000	-0.018	-0.211
-576.748	-81.465	-0.206	-0.068
-575.733	-200.000	-0.055	-0.251
-574.719	-97.265	-0.072	0.019
-573.704	252.027	0.068	-0.117
-572.690	-200.000	-0.236	-0.001
-571.675	-200.000	-0.031	-0.231
-570.661	12.777	-0.138	0.107
-569.646	-84.654	-0.228	-0.072
-568.631	82.668	0.229	0.250
-567.617	800.000	0.042	0.161
-566.602	283.243	-0.101	-0.182
-565.588	2.678	0.042	0.031
-564.573	-113.320	0.328	0.065
-563.558	176.011	0.070	0.102
-562.544	-130.301	-0.433	-0.059
-561.529	-112.377	-0.300	-0.060
-560.515	-157.074	-0.468	0.029
-559.500	649.811	-0.088	0.227
-558.485	241.500	-0.101	-0.169
-557.471	-78.688	0.442	0.152
-556.456	-51.151	0.054	0.025
-555.442	-27.660	-0.126	-0.074
-554.427	-170.944	-0.117	-0.004
-553.412	101.302	-0.133	0.156
-552.398	166.579	-0.138	0.197
-551.383	-200.000	0.039	0.237
-550.369	-10.908	0.156	-0.104
-549.354	247.814	-0.147	-0.250
-548.339	151.319	0.049	0.067
-547.325	-200.000	-0.007	0.187
-546.310	-30.890	-0.189	0.108
-545.296	376.671	0.052	0.107
-544.281	-75.276	-0.018	0.006
-543.266	201.635	0.132	0.204
-542.252	96.429	-0.174	0.200
-541.237	-45.184	-0.260	0.130
-540.223	-200.000	0.001	-0.142
-539.208	-135.922	-0.110	0.013
-538.193	-112.130	0.296	0.060
-537.179	93.124	-0.069	0.079
-536.164	-200.000	-0.015	-0.191
-535.150	-195.923	-0.196	-0.001
-534.135	-134.763	0.447	-0.055
-533.121	-160.746	-0.135	0.007
-532.106	88.511	0.207	0.232
-531.091	-11.178	-0.111	-0.073
-530.077	62.498	0.114	0.115
-529.062	744.976	0.075	-0.202
-528.048	5.733	-0.530	0.394
-527.033	-84.969	0.188	0.059
-526.018	-110.516	0.147	0.031
-525.004	32.071	-0.059	-0.051
-523.989	-200.000	-0.027	-0.180
-522.975	-200.000	0.031	0.138
-521.960	-55.753	0.055	-0.025
-520.945	-101.127	0.289	0.071
-519.931	-30.073	0.109	-0.063
-518.916	28.306	-0.210	-0.179
-517.902	-200.000	-0.031	0.348
-516.887	208.741	-0.093	0.146
-515.872	-200.000	0.076	0.337
-514.858	-10.391	0.285	0.190
-513.843	-2.528	0.331	-0.233
-512.829	-86.432	-0.194	0.060
-511.814	800.000	-0.069	0.230
-510.799	52.002	-0.102	-0.097
-509.785	-98.665	-0.085	-0.022
-508.770	-22.906	0.063	-0.038
-507.756	-165.437	0.412	-0.018
-506.741	-200.000	0.010	-0.180
-505.726	-54.099	0.077	-0.035
-504.712	-131.238	0.240	0.032
-503.697	-111.597	0.196	0.040
-502.683	64.226	0.165	0.167
-501.668	287.501	0.075	0.136
-500.653	-200.000	-0.038	0.185
-499.639	800.000	0.078	0.236
-498.624	13.481	-0.129	-0.101
-497.610	800.000	-0.106	0.365
-496.595	-44.140	-0.266	-0.134
-495.581	276.405	-0.163	-0.292
-494.566	800.000	-0.049	0.141
-493.551	483.277	-0.034	-0.077
-492.537	-200.000	0.021	-0.426
-491.522	-200.000	-0.017	0.114
-490.508	387.038	-0.174	0.360
-489.493	56.627	0.257	0.251
-488.478	-172.484	-0.175	0.006
-487.464	800.000	-0.081	-0.262
-486.449	-200.000	0.020	0.102
-485.435	-127.346	0.364	-0.053
-484.420	65.363	0.195	0.198
-483.405	108.950	0.137	0.165
-482.391	-47.970	-0.207	-0.100
-481.376	29.691	-0.210	-0.180
-480.362	-24.138	-0.178	-0.107
-479.347	-200.000	-0.002	-0.158
-478.332	403.954	-0.093	-0.197
-477.318	526.190	-0.023	0.053
-476.303	-200.000	-0.034	-0.195
-475.289	-101.793	-0.010	0.002
-474.274	137.981	0.132	-0.173
-473.259	-49.719	-0.238	-0.114
-472.245	243.743	0.126	-0.213
-471.230	800.000	0.015	0.064
-470.216	599.548	0.127	-0.316
-469.201	-162.470	0.244	0.012
-468.186	-200.000	-0.060	0.282
-467.172	291.052	-0.259	-0.472
-466.157	-94.560	0.353	0.096
-465.143	-200.000	0.001	0.331
-464.128	-14.587	-0.044	0.029
-463.113	312.688	-0.047	0.089
-462.099	800.000	-0.017	0.050
-461.084	560.364	-0.048	0.117
-460.070	-17.148	0.042	-0.027
-459.055	83.302	0.098	-0.107
-458.040	-200.000	0.005	-0.275
-457.026	34.438	0.126	-0.111
-456.011	61.240	0.273	-0.272
-454.997	800.000	0.040	0.159
-453.982	-30.979	-0.117	0.066
-452.968	-155.626	0.128	0.008
-451.953	800.000	-0.126	0.442
-450.938	-200.000	-0.015	0.136
-449.924	-113.391	0.234	-0.046
-448.909	105.569	0.098	-0.116
-447.895	-72.960	0.224	0.083
-446.880	106.304	0.122	-0.145
-445.865	376.940	-0.199	-0.407
-444.851	211.924	-0.105	0.166
-443.836	-71.359	-0.183	-0.069
-442.822	266.752	-0.101	-0.177
-441.807	-169.410	0.119	-0.004
-440.792	-200.000	-0.253	-0.000
-439.778	-78.458	0.165	-0.057
-438.763	652.377	-0.039	0.101
-437.749	-200.000	0.034	0.347
-436.734	48.501	-0.180	-0.169
-435.719	5.370	0.142	0.105
-434.705	-62.440	0.162	0.067
-433.690	-43.687	-0.176	-0.089
-432.676	-200.000	0.065	-0.346
-431.661	107.225	0.043	0.051
-430.646	227.471	0.088	-0.143
-429.632	-190.497	-0.252	-0.003
-428.617	330.439	-0.095	-0.184
-427.603	-86.965	0.104	-0.032
-426.588	-83.018	-0.022	0.007
-425.573	-48.626	0.473	0.228
-424.559	38.968	0.112	0.100
-423.544	-164.761	-0.192	-0.009
-422.530	-200.000	0.003	-0.276
-421.515	46.259	-0.137	-0.127
-420.500	-160.833	-0.137	0.007
-419.486	415.107	0.063	-0.135
-418.471	-200.000	-0.018	0.116
-417.457	-21.220	0.317	0.194
-416.442	-95.161	-0.309	-0.083
-415.428	183.765	0.135	-0.200
-414.413	800.000	0.028	-0.121
-413.398	-82.698	-0.233	-0.075
-412.384	-103.763	-0.171	0.040
-411.369	-200.000	-0.055	-0.241
-410.355	252.401	0.173	0.294
-409.340	-105.110	-0.144	-0.033
-408.325	800.000	0.044	0.159
-407.311	-37.843	0.172	0.092
-406.296	63.079	0.050	0.050
-405.282	-114.661	0.285	0.055
-404.267	109.517	0.164	0.197
-403.252	-3.294	-0.177	-0.124
-402.238	182.407	0.197	0.290
-401.223	800.000	-0.091	-0.293
-400.209	-200.000	-0.004	-0.081
-399.194	-144.441	0.103	0.010
-398.179	551.325	-0.074	0.178
-397.165	30.657	-0.252	0.216
-396.150	511.218	-0.058	-0.135
-395.136	155.576	-0.122	-0.168
-394.121	-118.138	0.134	-0.024
-393.106	-200.000	0.002	0.129
-392.092	111.032	-0.106	-0.128
-391.077	206.283	-0.072	-0.111
-390.063	-200.000	0.009	0.118
-389.048	40.018	-0.223	0.201
-388.033	-200.000	-0.003	-0.119
-387.019	23.671	-0.251	0.207
-386.004	322.740	-0.116	-0.221
-384.990	-200.000	0.040	0.307
-383.975	-127.035	0.386	0.057
-382.960	-200.000	0.004	-0.364
-381.946	-182.526	0.244	-0.004
-380.931	-200.000	0.039	-0.291
-379.917	-159.557	-0.281	-0.016
-378.902	693.635	0.083	0.219
-377.888	-200.000	0.015	0.112
-376.873	74.343	-0.161	-0.169
-375.858	39.141	-0.142	-0.127
-374.844	-200.000	0.025	-0.182
-373.829	-145.963	0.229	0.020
-372.815	-200.000	-0.001	-0.023
-371.800	95.680	0.165	0.188
-370.785	-58.493	-0.265	0.115
-369.771	-200.000	0.003	-0.263
-368.756	-164.975	-0.364	-0.016
-367.742	-65.840	-0.136	0.054
-366.727	-200.000	-0.031	-0.190
-365.712	0.112	0.108	0.077
-364.698	111.342	-0.163	-0.196
-363.683	-200.000	0.068	-0.377
-362.669	188.328	0.115	-0.172
-361.654	-120.785	-0.355	0.060
-360.639	-82.804	-0.239	0.077
-359.625	104.673	-0.093	-0.109
-358.610	800.000	0.090	-0.382
-357.596	98.941	-0.148	0.171
-356.581	-39.077	0.228	0.120
-355.566	-99.529	0.312	0.078
-354.552	800.000	0.037	0.113
-353.537	71.411	-0.200	-0.207
-352.523	-200.000	0.070	-0.392
-351.508	167.562	-0.228	-0.324
-350.493	-200.000	-0.039	0.312
-349.479	148.475	0.084	0.113
-348.464	284.752	-0.068	0.122
-347.450	-200.000	0.023	0.298
-346.435	-200.000	-0.013	0.138
-345.420	-89.204	0.177	0.052
-344.406	278.578	0.174	-0.310
-343.391	19.060	0.236	0.189
-342.377	3.329	0.129	0.094
-341.362	-200.000	-0.042	-0.201
-340.348	3.558	0.095	-0.069
-339.333	800.000	-0.089	-0.386
-338.318	43.164	-0.027	0.024
-337.304	51.838	-0.085	0.081
-336.289	267.783	-0.053	-0.092
-335.275	368.878	-0.086	0.174
-334.260	-200.000	-0.036	-0.371
-333.245	-200.000	0.022	-0.229
-332.231	56.277	0.267	-0.259
-331.216	-200.000	0.019	0.166
-330.202	-162.535	-0.258	0.013
-329.187	55.463	0.214	-0.206
-328.172	800.000	0.044	0.190
-327.158	-200.000	-0.010	0.069
-326.143	223.484	0.055	-0.088
-325.129	-103.848	0.144	-0.034
-324.114	-200.000	0.028	-0.501
-323.099	685.555	0.103	-0.268
-322.085	171.732	0.048	-0.068
-321.070	-170.565	0.181	-0.006
-320.056	203.407	0.020	0.030
-319.041	119.426	-0.205	0.253
-318.026	677.130	-0.050	-0.131
-317.012	800.000	0.046	-0.127
-315.997	253.478	0.137	0.233
-314.983	-32.054	0.154	-0.086
-313.968	9.979	0.193	0.146
-312.953	-200.000	-0.030	-0.383
-311.939	-80.775	0.134	-0.044
-310.924	-200.000	0.011	0.458
-309.910	271.962	-0.153	0.269
-308.895	-26.349	0.210	-0.123
-307.880	-200.000	-0.046	-0.226
-306.866	-85.461	0.254	0.079
-305.851	100.678	0.229	-0.265
-304.837	-200.000	-0.071	-0.359
-303.822	-159.268	0.147	0.008
-302.807	800.000	-0.071	-0.307
-301.793	-28.344	-0.262	0.151
-300.778	155.308	0.196	0.269
-299.764	284.175	-0.033	0.060
-298.749	421.934	0.120	0.257
-297.735	205.229	-0.232	0.359
-296.720	594.722	0.074	-0.183
-295.705	-41.081	0.168	0.086
-294.691	231.474	-0.032	0.053
-293.676	31.596	0.159	0.136
-292.662	-131.757	0.337	0.044
-291.647	304.641	0.097	0.179
-290.632	-200.000	-0.005	0.322
-289.618	800.000	0.052	-0.224
-288.603	-188.141	-0.212	-0.003
-287.589	190.274	-0.170	-0.254
-286.574	-107.099	0.043	-0.010
-285.559	-40.327	0.222	0.115
-284.545	106.805	-0.225	-0.266
-283.530	-85.079	-0.256	-0.080
-282.516	586.828	-0.134	0.329
-281.501	-200.000	0.024	0.212
-280.486	60.954	-0.169	-0.167
-279.472	-120.820	-0.148	0.025
-278.457	17.250	-0.077	-0.061
-277.443	-31.466	-0.175	0.098
-276.428	406.723	0.048	-0.101
-275.413	-200.000	-0.015	-0.151
-274.399	35.578	-0.135	0.119
-273.384	229.262	-0.058	0.095
-272.370	-36.787	-0.269	-0.144
-271.355	326.107	0.242	0.462
-270.340	58.244	0.175	0.171
-269.326	-34.544	0.059	-0.032
-268.311	198.588	0.161	0.245
-267.297	136.547	-0.137	-0.178
-266.282	800.000	0.009	-0.030
-265.267	-200.000	-0.013	-0.321
-264.253	-200.000	0.066	0.467
-263.238	151.355	-0.176	0.239
-262.224	-200.000	0.007	-0.188
-261.209	-48.461	-0.152	0.073
-260.195	5.246	0.152	0.112
-259.180	-57.679	-0.300	-0.131
-258.165	800.000	0.065	0.192
-257.151	569.336	0.081	0.197
-256.136	-16.657	-0.050	-0.031
-255.122	-26.260	-0.269	-0.157
-254.107	-75.333	-0.289	0.102
-253.092	149.246	-0.186	-0.250
-252.078	-66.334	0.106	-0.042
-251.063	-188.567	-0.223	0.003
-250.049	606.900	0.039	-0.096
-249.034	-81.500	0.131	0.043
-248.019	-200.000	0.033	-0.162
-247.005	-147.854	-0.276	0.023
-245.990	-125.610	-0.090	-0.014
-244.976	-200.000	-0.006	-0.104
-243.961	800.000	0.119	-0.425
-242.946	-153.424	0.220	-0.015
-241.932	-200.000	0.005	0.037
-240.917	71.944	-0.059	-0.061
-239.903	-25.147	-0.105	-0.062
-238.888	-200.000	-0.002	-0.188
-237.873	-151.669	0.221	-0.016
-236.859	-45.008	-0.066	0.032
-235.844	-45.727	-0.185	-0.091
-234.830	-38.865	0.094	0.049
-233.815	-200.000	-0.046	0.251
-232.800	45.170	0.102	-0.093
-231.786	-84.946	-0.145	0.045
-230.771	142.081	-0.209	0.276
-229.757	-200.000	0.004	0.158
-228.742	-140.525	0.228	0.024
-227.727	214.511	-0.129	-0.203
-226.713	50.119	-0.251	0.236
-225.698	131.807	-0.143	0.183
-224.684	35.472	0.149	-0.130
-223.669	20.904	0.158	0.127
-222.655	68.143	-0.293	-0.298
-221.640	-92.536	-0.194	-0.054
-220.625	-89.279	-0.089	0.026
-219.611	-145.473	0.284	-0.025
-218.596	-200.000	0.015	-0.148
-217.582	-124.493	-0.134	-0.021
-216.567	-89.711	0.151	0.044
-215.552	25.187	0.228	0.188
-214.538	-200.000	0.025	0.298
-213.523	-200.000	0.029	-0.330
-212.509	-200.000	-0.003	0.258
-211.494	39.732	-0.164	-0.146
-210.479	81.112	0.271	-0.290
-209.465	85.927	0.156	0.171
-208.450	730.262	-0.097	0.257
-207.436	-88.662	0.122	0.036
-206.421	-160.324	0.048	-0.003
-205.406	359.309	0.135	-0.267
-204.392	-138.882	0.122	0.013
-203.377	-161.490	-0.046	0.002
-202.363	-200.000	-0.026	0.128
-201.348	-78.913	-0.267	-0.090
-200.333	-149.690	0.513	0.040
-199.319	800.000	0.071	-0.196
-198.304	202.306	-0.148	0.227
-197.290	-200.000	0.032	0.233
-196.275	37.571	0.078	-0.068
-195.260	42.825	0.340	0.308
-194.246	-158.747	0.152	-0.009
-193.231	-19.659	-0.107	0.066
-192.217	-102.743	-0.350	0.083
-191.202	142.570	-0.243	-0.321
-190.187	-155.625	0.190	0.012
-189.173	24.634	-0.109	-0.090
-188.158	-200.000	-0.029	0.228
-187.144	-200.000	-0.114	0.599
-186.129	-93.286	0.388	0.107
-185.114	378.205	-0.056	0.114
-184.100	-30.065	0.436	-0.246
-183.085	-151.107	0.123	0.009
-182.071	328.858	0.185	0.352
-181.056	-29.316	0.025	0.014
-180.042	-200.000	0.011	-0.088
-179.027	-66.360	0.191	0.075
-178.012	110.027	0.321	-0.382
-176.998	166.364	0.086	0.121
-175.983	33.355	-0.143	0.123
-174.969	-101.358	0.197	0.048
-173.954	-145.660	0.078	-0.007
-172.939	-200.000	-0.050	-0.342
-171.925	443.108	-0.044	-0.095
-170.910	-60.352	0.357	-0.151
-169.896	-73.090	-0.297	0.108
-168.881	-164.010	-0.406	-0.019
-167.866	-45.419	-0.287	-0.141
-166.852	286.134	-0.033	0.059
-165.837	128.816	0.184	0.233
-164.823	97.269	0.130	-0.148
-163.808	109.573	-0.179	-0.212
-162.793	-49.026	0.154	0.073
-161.779	89.987	0.188	-0.208
-160.764	111.829	0.103	-0.123
-159.750	-57.068	-0.184	-0.080
-158.735	-200.000	0.011	-0.104
-157.720	39.799	-0.090	0.080
-156.706	-42.445	-0.201	-0.102
-155.691	-52.912	-0.168	0.076
-154.677	-200.000	0.012	0.152
-153.662	-39.123	0.247	0.129
-152.647	-92.395	0.250	0.070
-151.633	652.196	-0.065	0.166
-150.618	-200.000	0.039	0.291
-149.604	193.054	0.112	-0.168
-148.589	-95.929	0.059	0.016
-147.574	-200.000	-0.013	0.308
-146.560	-6.180	0.269	0.182
-145.545	116.448	0.159	0.193
-144.531	-120.143	-0.198	-0.034
-143.516	170.170	-0.068	0.096
-142.502	-58.293	-0.227	0.098
-141.487	799.836	0.137	-0.374
-140.472	577.323	0.129	0.312
-139.458	738.383	-0.071	0.188
-138.443	384.004	-0.058	-0.119
-137.429	115.852	-0.140	0.170
-136.414	259.303	0.244	-0.418
-135.399	184.194	-0.021	-0.031
-134.385	-42.368	0.195	-0.098
-133.370	-36.573	-0.275	0.146
-132.356	-200.000	-0.001	-0.060
-131.341	95.485	0.088	-0.099
-130.326	-200.000	0.008	-0.081
-129.312	-200.000	-0.005	-0.118
-128.297	-200.000	0.034	-0.201
-127.283	-107.341	-0.208	0.045
-126.268	800.000	-0.057	0.173
-125.253	44.976	0.081	-0.074
-124.239	142.667	-0.095	0.125
-123.224	133.778	-0.190	-0.244
-122.210	225.112	0.170	-0.272
