DTS Sentinel unit serial number:	SN413079Multiplexer serial number:	ORYXHardware model number:	OX4-SRSoftware version number:	ORYX F/W v4.00 Oryx Data Collector v3.7.2.0data status	okinstallation	princeton_trtdifferential loss correction	single-endedforward channel	channel 3reverse channel	N/Adate	2019/09/18time	12:16:35forward acquisition time	60.00reverse acquisition time	0.00gamma	496.2192k internal	0.2323k external	0.2323temperature offset calibration	0.9956default loss term (dB/km)	0.3790temperature slope calibration	1.0000multiplexer offset coefficient	1.0000multiplexer slope coefficient	1.0000fibre end	0.00T internal ref (°C)	31.80T ext. ref 1 (°C)	0.51T ext. ref 2 (°C)	28.10length (m)	temperature (°C)	Stokes	anti-Stokes-747.200	-200.000	-0.024	-0.434
-746.185	800.000	-0.081	0.264
-745.171	-141.766	-0.155	-0.016
-744.156	-200.000	0.020	0.411
-743.142	550.189	-0.150	-0.364
-742.127	382.478	-0.259	0.537
-741.112	-200.000	-0.009	-0.107
-740.098	800.000	-0.065	0.221
-739.083	800.000	-0.074	0.244
-738.069	71.904	-0.155	0.163
-737.054	-200.000	0.156	0.000
-736.039	-89.555	-0.157	-0.046
-735.025	129.861	-0.058	0.075
-734.010	-9.922	0.148	-0.099
-732.996	-200.000	-0.027	0.160
-731.981	38.533	-0.204	0.184
-730.966	-76.546	0.189	-0.067
-729.952	326.270	-0.151	-0.292
-728.937	-200.000	0.005	-0.076
-727.923	-200.000	0.000	-0.058
-726.908	-21.421	-0.064	0.040
-725.894	800.000	-0.045	-0.191
-724.879	-71.601	-0.096	0.036
-723.864	-27.368	-0.171	0.101
-722.850	516.219	0.192	-0.452
-721.835	-97.454	-0.312	0.082
-720.821	-14.381	-0.146	-0.095
-719.806	85.865	-0.074	-0.082
-718.791	800.000	-0.066	-0.225
-717.777	-84.970	0.315	0.100
-716.762	-77.519	0.089	0.031
-715.748	-200.000	-0.014	-0.066
-714.733	73.579	0.037	0.039
-713.718	-94.048	0.234	0.065
-712.704	-200.000	-0.020	-0.120
-711.689	90.825	0.157	-0.177
-710.675	-157.887	-0.366	0.022
-709.660	-60.559	0.263	-0.113
-708.645	574.600	0.060	-0.147
-707.631	149.499	0.046	0.062
-706.616	-57.411	0.084	-0.037
-705.602	17.499	-0.213	-0.171
-704.587	-200.000	0.018	-0.535
-703.572	300.836	-0.124	0.231
-702.558	100.796	-0.281	-0.329
-701.543	-200.000	0.039	0.208
-700.529	-90.967	-0.547	-0.159
-699.514	318.015	0.063	0.120
-698.499	-4.739	-0.146	-0.101
-697.485	-200.000	-0.005	-0.328
-696.470	-0.311	-0.257	-0.184
-695.456	5.659	-0.182	-0.136
-694.441	291.215	-0.066	0.122
-693.426	418.921	-0.062	-0.134
-692.412	298.727	0.134	-0.249
-691.397	45.310	0.019	-0.017
-690.383	-200.000	-0.042	0.290
-689.368	-200.000	-0.004	-0.071
-688.354	285.128	0.032	0.058
-687.339	-200.000	0.005	-0.122
-686.324	-61.236	0.265	-0.112
-685.310	220.773	0.228	0.368
-684.295	-138.803	-0.117	-0.013
-683.281	3.365	0.324	-0.238
-682.266	96.091	-0.153	-0.177
-681.251	-5.516	0.092	-0.063
-680.237	-181.946	0.346	-0.007
-679.222	13.010	0.082	0.064
-678.208	43.469	-0.241	0.222
-677.193	-200.000	0.015	0.094
-676.178	474.808	0.068	0.156
-675.164	322.309	0.120	-0.230
-674.149	-10.431	0.094	0.063
-673.135	305.399	-0.022	0.041
-672.120	-200.000	-0.002	0.087
-671.105	-144.834	-0.125	0.012
-670.091	0.166	-0.162	-0.117
-669.076	199.891	-0.271	-0.419
-668.062	133.400	0.108	-0.140
-667.047	66.979	0.175	0.179
-666.032	643.786	-0.085	0.218
-665.018	118.521	0.148	0.184
-664.003	-61.617	0.477	0.202
-662.989	-157.222	0.206	0.013
-661.974	-200.000	-0.012	-0.400
-660.959	-200.000	-0.004	-0.087
-659.945	-200.000	-0.033	0.226
-658.930	-106.297	0.141	0.032
-657.916	-99.339	-0.284	-0.072
-656.901	-55.794	-0.240	-0.108
-655.886	-133.025	0.466	0.060
-654.872	-200.000	0.006	-0.175
-653.857	95.728	-0.188	0.216
-652.843	-29.180	-0.263	-0.152
-651.828	100.391	0.091	-0.107
-650.814	-143.910	0.093	-0.009
-649.799	-200.000	0.006	-0.365
-648.784	265.556	-0.111	-0.194
-647.770	55.691	-0.310	-0.303
-646.755	800.000	-0.057	0.189
-645.741	169.717	-0.046	0.065
-644.726	-53.832	-0.215	-0.099
-643.711	-38.921	-0.053	-0.028
-642.697	710.148	-0.027	0.071
-641.682	-139.758	0.219	-0.023
-640.668	-200.000	0.007	0.198
-639.653	-200.000	0.088	0.415
-638.638	-111.507	-0.136	0.028
-637.624	-200.000	0.042	-0.236
-636.609	-200.000	0.035	0.159
-635.595	-47.956	-0.196	0.095
-634.580	-200.000	0.003	0.177
-633.565	-93.011	0.136	0.038
-632.551	-200.000	0.030	0.239
-631.536	800.000	0.097	0.296
-630.522	456.020	0.039	-0.087
-629.507	-2.495	-0.038	-0.027
-628.492	-45.305	-0.174	-0.087
-627.478	15.393	0.136	0.107
-626.463	167.464	-0.103	0.147
-625.449	-95.656	0.116	-0.031
-624.434	29.574	-0.203	-0.174
-623.419	417.794	0.057	0.123
-622.405	31.347	-0.111	-0.096
-621.390	4.440	0.233	-0.172
-620.376	800.000	-0.037	-0.128
-619.361	-200.000	-0.070	0.372
-618.346	28.265	-0.296	-0.251
-617.332	-200.000	-0.029	0.418
-616.317	7.888	-0.253	-0.191
-615.303	715.595	-0.033	0.087
-614.288	-21.363	0.215	-0.132
-613.273	-34.671	-0.246	-0.135
-612.259	214.302	-0.071	0.113
-611.244	-200.000	0.021	-0.210
-610.230	519.613	0.194	0.457
-609.215	350.567	0.123	0.245
-608.201	-34.541	-0.276	-0.152
-607.186	-91.696	-0.352	-0.101
-606.171	88.104	-0.081	-0.090
-605.157	-60.415	0.260	0.111
-604.142	-10.788	0.042	-0.028
-603.128	-200.000	0.013	0.360
-602.113	-37.956	0.089	-0.048
-601.098	749.153	0.134	0.364
-600.084	-10.881	0.054	0.036
-599.069	-94.700	-0.096	0.026
-598.055	-200.000	-0.004	0.021
-597.040	-98.400	-0.316	0.081
-596.025	-135.167	0.095	0.012
-595.011	407.523	-0.055	0.117
-593.996	82.076	0.283	0.308
-592.982	46.111	0.185	-0.172
-591.967	-200.000	-0.005	0.143
-590.952	-200.000	-0.004	-0.164
-589.938	151.130	-0.243	-0.333
-588.923	116.505	0.123	-0.151
-587.909	15.930	-0.218	-0.173
-586.894	-200.000	-0.005	-0.242
-585.879	-200.000	-0.001	-0.074
-584.865	-23.474	-0.372	0.224
-583.850	-28.229	0.166	0.096
-582.836	800.000	-0.033	0.102
-581.821	-95.617	0.076	-0.020
-580.806	-9.346	0.104	0.070
-579.792	800.000	0.070	-0.276
-578.777	-170.746	-0.413	0.014
-577.763	79.952	-0.324	-0.349
-576.748	-11.128	0.081	-0.054
-575.733	800.000	-0.072	0.241
-574.719	-200.000	-0.017	-0.135
-573.704	-200.000	-0.008	0.232
-572.690	-138.074	0.128	0.014
-571.675	49.792	0.158	-0.149
-570.661	14.627	0.193	0.152
-569.646	-200.000	0.033	-0.207
-568.631	305.128	0.167	-0.311
-567.617	-3.719	0.437	-0.305
-566.602	430.714	0.083	-0.181
-565.588	521.972	0.050	0.118
-564.573	331.432	0.118	-0.229
-563.558	120.840	0.179	-0.223
-562.544	65.117	-0.173	-0.175
-561.529	800.000	0.037	-0.126
-560.515	2.605	0.225	0.163
-559.500	171.014	0.058	-0.083
-558.485	-14.011	-0.149	0.097
-557.471	81.734	0.222	0.240
-556.456	-15.107	0.114	0.073
-555.442	-200.000	-0.021	0.348
-554.427	-200.000	-0.007	0.323
-553.412	-129.923	-0.201	0.028
-552.398	-76.719	-0.433	-0.152
-551.383	462.552	0.081	0.182
-550.369	261.354	-0.111	0.193
-549.354	42.158	0.016	-0.015
-548.339	303.873	0.054	-0.100
-547.325	800.000	-0.033	-0.101
-546.310	143.309	-0.024	-0.032
-545.296	-32.260	-0.056	-0.031
-544.281	-30.148	-0.208	0.118
-543.266	-200.000	-0.004	-0.062
-542.252	95.650	-0.163	0.186
-541.237	-200.000	0.023	0.210
-540.223	53.178	0.161	0.155
-539.208	73.442	-0.223	-0.234
-538.193	800.000	-0.096	-0.273
-537.179	-109.127	0.137	-0.029
-536.164	-200.000	-0.012	0.084
-535.150	-38.959	-0.230	0.121
-534.135	-46.753	-0.499	-0.244
-533.121	-129.779	0.242	-0.033
-532.106	557.380	0.141	-0.342
-531.091	-86.952	-0.099	0.030
-530.077	549.304	0.066	-0.158
-529.062	-75.702	0.169	-0.060
-528.048	28.669	-0.311	-0.264
-527.033	-45.418	-0.100	0.050
-526.018	420.089	0.096	-0.205
-525.004	39.141	0.153	-0.137
-523.989	-200.000	0.000	0.171
-522.975	-42.247	-0.140	-0.072
-521.960	800.000	0.016	0.061
-520.945	108.774	-0.060	0.072
-519.931	-28.459	0.069	-0.040
-518.916	-200.000	-0.024	0.278
-517.902	800.000	-0.046	0.199
-516.887	80.960	0.163	0.177
-515.872	122.873	0.284	0.356
-514.858	196.997	-0.079	-0.120
-513.843	-200.000	-0.003	0.357
-512.829	-126.440	-0.241	-0.036
-511.814	-200.000	0.004	0.246
-510.799	-84.665	-0.123	0.039
-509.785	93.419	0.192	-0.217
-508.770	410.027	0.060	0.128
-507.756	696.598	-0.074	0.194
-506.741	83.785	-0.284	0.310
-505.726	-102.283	-0.182	0.044
-504.712	-200.000	0.033	0.185
-503.697	-83.054	-0.152	-0.049
-502.683	113.599	0.181	0.220
-501.668	-11.516	-0.136	0.089
-500.653	43.153	0.187	0.171
-499.639	-200.000	-0.034	0.344
-498.624	-88.898	0.142	0.042
-497.610	-200.000	0.013	-0.130
-496.595	-12.159	-0.120	0.078
-495.581	-12.007	-0.224	-0.147
-494.566	-45.435	-0.200	-0.099
-493.551	-121.987	-0.113	0.019
-492.537	-104.245	0.312	0.072
-491.522	-29.670	-0.383	0.219
-490.508	408.900	-0.063	0.134
-489.493	-108.864	-0.064	-0.014
-488.478	-200.000	0.012	0.293
-487.464	-4.671	-0.114	-0.079
-486.449	17.275	-0.062	-0.049
-485.435	-32.980	0.227	0.126
-484.420	-75.138	0.317	0.113
-483.405	-98.572	-0.103	-0.026
-482.391	-24.412	0.111	0.066
-481.376	55.344	-0.057	0.055
-480.362	-200.000	0.011	-0.073
-479.347	3.251	0.332	-0.241
-478.332	800.000	0.039	0.133
-477.318	-150.576	0.496	-0.038
-476.303	475.604	0.129	-0.290
-475.289	364.673	-0.239	-0.482
-474.274	800.000	-0.053	-0.214
-473.259	-200.000	-0.029	0.192
-472.245	800.000	-0.074	0.286
-471.230	-200.000	0.088	0.436
-470.216	-92.277	-0.225	-0.063
-469.201	-200.000	0.043	-0.196
-468.186	622.084	0.104	0.262
-467.172	147.965	-0.175	0.236
-466.157	-41.320	-0.262	0.135
-465.143	-43.995	-0.050	-0.025
-464.128	497.855	0.043	-0.099
-463.113	4.535	0.269	0.198
-462.099	-112.216	0.162	-0.032
-461.084	-170.366	0.257	-0.009
-460.070	453.069	0.100	-0.220
-459.055	297.064	-0.075	0.138
-458.040	-64.324	-0.262	-0.107
-457.026	-84.039	0.177	-0.056
-456.011	-113.067	0.191	0.038
-454.997	800.000	0.044	-0.147
-453.982	-154.405	-0.209	0.014
-452.968	-8.727	-0.078	-0.052
-451.953	100.516	-0.025	0.029
-450.938	-200.000	0.029	-0.379
-449.924	96.974	-0.124	0.142
-448.909	282.463	0.100	0.179
-447.895	-200.000	0.006	-0.042
-446.880	-200.000	0.014	0.314
-445.865	170.771	0.019	0.028
-444.851	-200.000	0.054	0.314
-443.836	-14.193	0.084	-0.054
-442.822	-146.697	-0.347	0.030
-441.807	268.065	0.067	-0.117
-440.792	-98.598	0.174	-0.044
-439.778	477.491	-0.129	0.291
-438.763	-11.493	0.040	0.026
-437.749	153.379	-0.190	0.259
-436.734	-20.169	0.119	0.073
-435.719	-84.415	-0.207	0.065
-434.705	-20.633	-0.208	0.128
-433.690	-19.575	0.178	0.110
-432.676	125.430	0.210	0.264
-431.661	264.096	0.143	0.248
-430.646	13.773	0.097	-0.075
-429.632	800.000	-0.033	-0.100
-428.617	296.195	0.261	-0.477
-427.603	-35.649	-0.089	0.048
-426.588	-32.395	0.111	0.062
-425.573	-200.000	0.004	0.383
-424.559	-171.663	0.265	-0.009
-423.544	81.748	0.160	-0.173
-422.530	-87.221	0.057	-0.017
-421.515	-114.449	0.183	-0.035
-420.500	130.660	-0.149	0.190
-419.486	-200.000	0.040	0.368
-418.471	-200.000	-0.010	0.055
-417.457	-200.000	-0.030	0.304
-416.442	169.882	0.093	-0.132
-415.428	-84.521	0.163	0.051
-414.413	223.590	0.062	-0.100
-413.398	800.000	0.038	-0.140
-412.384	-91.204	-0.144	-0.041
-411.369	736.459	-0.030	-0.080
-410.355	65.837	0.157	0.159
-409.340	80.047	-0.092	0.099
-408.325	-200.000	0.005	0.132
-407.311	-30.195	0.192	-0.109
-406.296	126.269	-0.351	-0.443
-405.282	480.140	-0.145	-0.327
-404.267	54.996	0.007	0.007
-403.252	-92.087	0.085	-0.024
-402.238	-25.350	0.039	-0.023
-401.223	-200.000	0.020	0.096
-400.209	-144.326	-0.276	-0.026
-399.194	39.718	0.062	0.056
-398.179	-16.587	-0.177	0.112
-397.165	-35.001	-0.528	0.287
-396.150	-153.044	-0.285	-0.020
-395.136	-115.005	0.155	-0.029
-394.121	-131.186	0.387	-0.051
-393.106	140.180	-0.142	-0.187
-392.092	102.888	-0.154	-0.179
-391.077	-53.831	0.114	-0.052
-390.063	-200.000	0.013	-0.144
-389.048	-97.115	-0.180	-0.047
-388.033	14.095	-0.444	0.344
-387.019	-200.000	0.035	-0.185
-386.004	37.892	0.347	0.308
-384.990	-78.796	0.146	0.049
-383.975	115.002	0.165	-0.201
-382.960	160.648	0.200	-0.279
-381.946	-48.611	0.027	-0.013
-380.931	-114.408	0.302	-0.058
-379.917	-199.076	-0.230	0.001
-378.902	21.682	-0.132	-0.107
-377.888	-200.000	0.038	-0.192
-376.873	-107.206	-0.120	0.026
-375.858	-88.495	-0.095	0.028
-374.844	-200.000	-0.020	0.177
-373.829	-140.126	0.236	-0.025
-372.815	-200.000	0.007	0.139
-371.800	618.146	-0.062	-0.156
-370.785	-1.937	-0.243	-0.170
-369.771	-168.726	-0.137	-0.005
-368.756	279.975	0.062	0.110
-367.742	-55.056	0.219	-0.098
-366.727	14.039	0.286	0.221
-365.712	121.365	0.224	0.277
-364.698	-49.053	-0.099	0.047
-363.683	124.186	-0.290	0.363
-362.669	93.556	0.193	-0.218
-361.654	-200.000	-0.038	0.177
-360.639	-10.936	-0.092	0.060
-359.625	-123.667	0.160	-0.025
-358.610	-141.944	0.424	0.042
-357.596	800.000	-0.055	-0.173
-356.581	47.435	-0.203	-0.188
-355.566	-71.370	0.234	-0.087
-354.552	213.824	0.124	0.195
-353.537	-53.091	-0.160	-0.073
-352.523	-155.019	-0.369	-0.024
-351.508	61.253	-0.084	0.083
-350.493	-83.446	-0.124	-0.039
-349.479	-200.000	0.006	0.058
-348.464	800.000	-0.060	-0.178
-347.450	130.272	0.034	0.044
-346.435	-165.078	-0.190	0.008
-345.420	-112.992	-0.198	-0.039
-344.406	-200.000	-0.036	-0.303
-343.391	186.834	-0.082	-0.121
-342.377	-115.289	-0.243	0.046
-341.362	290.140	-0.121	-0.219
-340.348	-89.948	-0.444	0.129
-339.333	10.025	-0.254	-0.192
-338.318	-200.000	-0.071	0.321
-337.304	-42.204	-0.153	0.078
-336.289	-200.000	0.057	0.250
-335.275	-200.000	0.015	-0.295
-334.260	311.702	-0.080	-0.150
-333.245	26.647	0.147	-0.122
-332.231	445.406	-0.078	0.170
-331.216	-200.000	0.030	0.290
-330.202	20.288	-0.163	0.131
-329.187	-200.000	0.018	-0.100
-328.172	323.440	-0.059	-0.111
-327.158	492.599	-0.130	0.296
-326.143	535.502	0.225	0.531
-325.129	-125.648	0.103	-0.016
-324.114	-22.924	0.096	0.058
-323.099	-200.000	0.018	0.320
-322.085	-31.464	-0.442	0.247
-321.070	340.845	0.024	0.047
-320.056	-200.000	0.009	0.180
-319.041	-138.055	-0.327	0.036
-318.026	378.251	0.278	-0.566
-317.012	169.741	-0.162	0.231
-315.997	-188.887	-0.128	-0.002
-314.983	122.891	-0.084	0.105
-313.968	289.496	0.030	0.054
-312.953	-200.000	0.018	0.089
-311.939	-200.000	0.018	-0.113
-310.924	-131.211	-0.181	-0.024
-309.910	-200.000	0.010	-0.080
-308.895	156.146	0.077	-0.106
-307.880	280.289	-0.059	-0.105
-306.866	25.340	0.044	-0.036
-305.851	-168.223	0.195	0.008
-304.837	65.492	0.078	-0.078
-303.822	127.415	-0.051	-0.064
-302.807	-101.318	-0.099	0.024
-301.793	-95.799	-0.167	0.044
-300.778	243.157	0.089	0.149
-299.764	148.845	-0.021	-0.029
-298.749	-23.994	0.244	0.145
-297.735	-100.662	-0.068	0.017
-296.720	-34.323	0.165	-0.090
-295.705	-200.000	-0.029	-0.133
-294.691	178.991	0.112	0.162
-293.676	-151.072	-0.315	0.024
-292.662	120.653	-0.062	-0.077
-291.647	800.000	0.131	0.379
-290.632	-66.933	0.298	0.117
-289.618	-177.814	-0.203	0.005
-288.603	78.558	-0.159	-0.168
-287.589	800.000	0.012	-0.046
-286.574	43.886	0.108	-0.098
-285.559	-83.302	0.363	-0.115
-284.545	-80.325	-0.080	-0.027
-283.530	-44.034	0.135	0.067
-282.516	110.168	0.167	-0.198
-281.501	279.450	0.115	-0.204
-280.486	-112.130	0.134	-0.027
-279.472	800.000	0.021	-0.065
-278.457	-200.000	-0.029	-0.197
-277.443	800.000	0.037	-0.135
-276.428	12.389	0.236	-0.180
-275.413	-53.395	0.105	-0.048
-274.399	-200.000	-0.005	-0.036
-273.384	-80.610	0.281	-0.093
-272.370	-29.232	0.117	0.067
-271.355	214.078	-0.063	0.099
-270.340	774.734	-0.079	-0.214
-269.326	800.000	0.081	-0.262
-268.311	120.258	0.079	0.097
-267.297	-7.609	-0.242	0.162
-266.282	-116.800	-0.102	-0.018
-265.267	-67.747	0.120	0.047
-264.253	-54.947	-0.155	0.069
-263.238	155.954	0.167	0.229
-262.224	153.158	-0.022	0.030
-261.209	-200.000	0.012	-0.192
-260.195	-200.000	-0.030	0.134
-259.180	-200.000	0.005	-0.173
-258.165	-143.071	0.323	-0.031
-257.151	-55.612	-0.188	0.083
-256.136	-160.702	0.097	0.005
-255.122	800.000	-0.083	-0.352
-254.107	194.920	-0.121	-0.182
-253.092	-200.000	-0.004	-0.135
-252.078	-81.949	0.143	0.046
-251.063	664.781	-0.024	-0.061
-250.049	-193.522	0.318	0.003
-249.034	-200.000	-0.053	-0.338
-248.019	-16.794	0.026	-0.016
-247.005	84.419	0.128	-0.139
-245.990	-27.970	0.095	-0.055
-244.976	-92.228	-0.157	-0.044
-243.961	-62.998	-0.126	-0.052
-242.946	148.034	0.229	-0.306
-241.932	173.677	0.086	0.123
-240.917	-143.408	-0.103	0.010
-239.903	-87.090	0.090	-0.027
-238.888	-200.000	-0.055	0.252
-237.873	297.101	-0.147	-0.268
-236.859	333.332	-0.071	0.136
-235.844	597.194	-0.115	-0.282
-234.830	-200.000	-0.015	0.385
-233.815	674.235	-0.066	-0.169
-232.800	74.360	0.116	0.120
-231.786	-68.510	0.159	0.061
-230.771	-200.000	0.032	-0.148
-229.757	-132.520	0.294	0.037
-228.742	175.633	0.117	-0.168
-227.727	83.386	0.268	-0.289
-226.713	30.801	0.205	-0.174
-225.698	47.505	0.246	0.227
-224.684	444.032	-0.188	0.408
-223.669	114.450	-0.087	0.105
-222.655	-139.411	0.184	-0.019
-221.640	248.098	0.032	0.054
-220.625	139.372	-0.164	-0.214
-219.611	800.000	-0.027	-0.095
-218.596	451.629	-0.079	0.172
-217.582	-103.623	0.168	0.039
-216.567	-96.905	0.249	0.065
-215.552	-200.000	0.001	-0.321
-214.538	133.505	-0.042	0.054
-213.523	-63.813	0.207	-0.084
-212.509	-130.324	0.309	-0.041
-211.494	-166.768	-0.329	-0.013
-210.479	653.642	-0.066	-0.169
-209.465	274.134	0.068	0.118
-208.450	-82.601	-0.297	-0.095
-207.436	497.291	-0.098	-0.223
-206.421	-82.713	0.128	0.041
-205.406	-115.727	-0.270	-0.050
-204.392	38.387	-0.177	-0.156
-203.377	-44.867	0.078	0.038
-202.363	157.400	-0.092	-0.126
-201.348	3.117	0.298	0.214
-200.333	-55.233	-0.092	-0.041
-199.319	-58.301	-0.180	-0.078
-198.304	-5.455	0.250	-0.169
-197.290	10.601	-0.144	0.108
-196.275	582.803	-0.084	-0.203
-195.260	-50.597	-0.203	0.095
-194.246	615.089	0.176	-0.436
-193.231	-84.872	0.061	0.019
-192.217	571.704	-0.024	-0.057
-191.202	303.498	0.158	-0.290
-190.187	540.978	0.103	0.242
-189.173	-200.000	0.085	-0.368
-188.158	-44.587	0.269	0.133
-187.144	-181.862	0.100	-0.002
-186.129	-200.000	-0.031	0.201
-185.114	36.508	-0.120	0.105
-184.100	-200.000	0.001	-0.139
-183.085	102.420	0.152	0.176
-182.071	-14.703	0.320	0.203
-181.056	-26.502	0.229	0.132
-180.042	-183.058	-0.174	0.003
-179.027	56.281	-0.232	0.222
-178.012	-165.351	0.115	0.005
-176.998	-90.551	-0.570	-0.163
-175.983	25.338	-0.074	-0.061
-174.969	499.227	-0.065	0.148
-173.954	-200.000	0.024	0.108
-172.939	81.198	-0.241	-0.257
-171.925	-39.639	0.075	0.039
-170.910	-92.913	-0.342	-0.094
-169.896	-51.997	-0.439	-0.202
-168.881	46.937	0.240	-0.221
-167.866	228.550	-0.026	-0.042
-166.852	-200.000	-0.003	-0.149
-165.837	577.160	0.051	-0.123
-164.823	26.857	-0.196	-0.163
-163.808	48.373	-0.083	-0.077
-162.793	-200.000	-0.013	-0.123
-161.779	-109.800	0.331	-0.069
-160.764	-22.826	0.287	0.171
-159.750	800.000	-0.071	0.297
-158.735	37.967	-0.135	0.119
-157.720	-13.065	0.415	-0.266
-156.706	-79.553	0.054	-0.018
-155.691	800.000	0.076	-0.248
-154.677	12.452	0.240	-0.183
-153.662	33.628	0.365	-0.314
-152.647	436.749	0.108	-0.231
-151.633	-200.000	0.033	-0.197
-150.618	177.611	0.266	-0.383
-149.604	-200.000	-0.065	-0.325
-148.589	-168.807	0.392	0.015
-147.574	800.000	0.107	0.406
-146.560	659.080	-0.125	0.318
-145.545	800.000	-0.067	0.204
-144.531	800.000	-0.077	0.248
-143.516	171.846	-0.147	0.208
-142.502	-62.540	-0.197	0.081
-141.487	7.057	-0.181	0.133
-140.472	230.246	-0.199	0.321
-139.458	-36.027	-0.101	0.054
-138.443	-64.187	0.157	0.063
-137.429	800.000	-0.036	0.139
-136.414	-90.867	-0.072	0.021
-135.399	800.000	-0.078	0.255
-134.385	800.000	-0.077	0.252
-133.370	-130.791	0.306	-0.041
-132.356	67.549	0.131	0.132
-131.341	619.441	0.077	0.191
-130.326	-18.149	-0.249	-0.154
-129.312	33.779	0.248	0.213
-128.297	-133.540	-0.227	-0.028
-127.283	-200.000	0.013	-0.080
-126.268	-90.010	0.035	0.010
-125.253	-77.283	0.199	0.068
-124.239	306.169	0.111	-0.204
-123.224	800.000	-0.065	0.241
-122.210	226.165	-0.161	0.258
-121.195	35.986	0.062	-0.054
