DTS Sentinel unit serial number:	SN413079Multiplexer serial number:	ORYXHardware model number:	OX4-SRSoftware version number:	ORYX F/W v4.00 Oryx Data Collector v3.7.2.0data status	okinstallation	princeton_trtdifferential loss correction	single-endedforward channel	channel 3reverse channel	N/Adate	2019/09/19time	02:28:35forward acquisition time	60.00reverse acquisition time	0.00gamma	496.2192k internal	0.2348k external	0.2348temperature offset calibration	0.9992default loss term (dB/km)	0.3790temperature slope calibration	1.0000multiplexer offset coefficient	1.0000multiplexer slope coefficient	1.0000fibre end	0.00T internal ref (°C)	21.00T ext. ref 1 (°C)	0.67T ext. ref 2 (°C)	14.69length (m)	temperature (°C)	Stokes	anti-Stokes-747.200	119.639	0.187	0.232
-746.185	216.276	-0.294	0.467
-745.171	-200.000	0.022	0.104
-744.156	-200.000	-0.040	0.281
-743.142	121.373	-0.132	0.164
-742.127	-200.000	0.013	-0.242
-741.112	41.046	0.080	0.072
-740.098	-200.000	0.047	0.233
-739.083	-98.119	0.159	-0.041
-738.069	-142.838	-0.371	-0.036
-737.054	393.923	-0.105	-0.219
-736.039	127.672	-0.041	0.051
-735.025	-200.000	0.010	0.169
-734.010	800.000	-0.107	-0.419
-732.996	48.892	-0.139	-0.130
-731.981	41.875	-0.150	-0.136
-730.966	-143.432	-0.073	0.007
-729.952	669.454	-0.113	-0.293
-728.937	-56.325	0.216	0.096
-727.923	109.369	-0.104	0.125
-726.908	-79.437	0.248	0.084
-725.894	-117.650	0.291	-0.052
-724.879	171.055	-0.022	0.031
-723.864	800.000	-0.150	-0.488
-722.850	53.349	0.319	-0.305
-721.835	-176.031	0.231	-0.006
-720.821	-200.000	0.018	-0.323
-719.806	-165.928	-0.082	0.004
-718.791	159.568	0.345	-0.479
-717.777	146.373	0.114	0.152
-716.762	555.596	-0.011	-0.027
-715.748	-130.316	0.482	0.065
-714.733	28.173	-0.196	-0.166
-713.718	800.000	-0.089	-0.314
-712.704	800.000	-0.079	0.273
-711.689	-34.952	-0.026	0.014
-710.675	-28.160	0.245	0.141
-709.660	-200.000	0.079	0.000
-708.645	190.543	-0.068	-0.102
-707.631	-200.000	-0.020	0.140
-706.616	-200.000	0.035	-0.300
-705.602	-148.852	0.274	-0.022
-704.587	785.833	-0.061	-0.167
-703.572	56.625	-0.145	0.141
-702.558	-200.000	-0.001	0.152
-701.543	-58.550	-0.189	-0.082
-700.529	-200.000	-0.038	-0.237
-699.514	-43.712	-0.224	-0.112
-698.499	800.000	-0.038	-0.124
-697.485	-151.786	0.388	0.028
-696.470	-200.000	-0.057	-0.394
-695.456	-152.042	-0.388	0.028
-694.441	-200.000	0.007	-0.068
-693.426	-79.710	0.124	-0.042
-692.412	407.966	0.056	-0.118
-691.397	12.023	0.199	0.152
-690.383	157.543	-0.139	-0.192
-689.368	-200.000	-0.005	-0.174
-688.354	-200.000	0.048	-0.267
-687.339	44.807	0.186	-0.171
-686.324	-200.000	0.023	0.219
-685.310	-171.260	-0.381	-0.013
-684.295	19.225	-0.256	-0.205
-683.281	30.095	-0.136	-0.116
-682.266	12.922	0.050	0.038
-681.251	-200.000	0.013	0.178
-680.237	-76.306	-0.122	0.043
-679.222	-29.804	-0.277	-0.157
-678.208	61.044	-0.094	0.093
-677.193	185.229	0.168	0.249
-676.178	-140.578	-0.172	0.018
-675.164	-65.603	-0.074	0.030
-674.149	800.000	0.076	-0.267
-673.135	-122.222	-0.108	-0.018
-672.120	800.000	0.047	0.131
-671.105	-31.175	-0.262	0.147
-670.091	-160.134	-0.184	-0.010
-669.076	-200.000	0.040	0.220
-668.062	800.000	0.089	0.345
-667.047	-148.028	-0.202	0.017
-666.032	-200.000	0.015	0.212
-665.018	800.000	0.020	0.069
-664.003	-112.667	-0.294	-0.058
-662.989	-11.442	0.044	-0.029
-661.974	781.802	0.089	-0.243
-660.959	373.238	-0.126	-0.256
-659.945	242.639	-0.087	-0.145
-658.930	-200.000	-0.034	0.332
-657.916	-100.600	0.305	-0.075
-656.901	187.852	-0.112	0.166
-655.886	-200.000	0.033	-0.178
-654.872	77.130	-0.274	0.290
-653.857	491.915	0.088	-0.200
-652.843	360.684	-0.043	0.086
-651.828	-31.542	-0.223	-0.125
-650.814	164.287	-0.051	0.071
-649.799	308.212	0.130	0.241
-648.784	800.000	0.095	0.378
-647.770	134.772	-0.320	-0.414
-646.755	421.455	0.074	0.157
-645.741	-200.000	-0.001	-0.042
-644.726	49.889	0.211	0.198
-643.711	-138.546	0.201	0.022
-642.697	-26.520	-0.341	-0.199
-641.682	135.223	0.171	-0.221
-640.668	296.756	-0.121	0.220
-639.653	-156.225	-0.133	-0.008
-638.638	328.413	-0.063	0.120
-637.624	618.150	-0.079	0.197
-636.609	-42.661	0.283	-0.143
-635.595	-200.000	-0.013	0.148
-634.580	6.233	-0.198	0.146
-633.565	-25.187	-0.113	0.067
-632.551	-36.202	0.188	0.101
-631.536	800.000	-0.071	0.266
-630.522	749.587	-0.108	-0.290
-629.507	800.000	-0.064	0.208
-628.492	-116.830	-0.139	-0.025
-627.478	262.240	0.127	-0.219
-626.463	726.402	-0.022	-0.058
-625.449	800.000	0.068	0.247
-624.434	-200.000	0.002	-0.039
-623.419	71.090	-0.197	0.203
-622.405	-87.706	0.454	0.136
-621.390	-200.000	0.045	-0.221
-620.376	-33.267	-0.270	-0.148
-619.361	88.083	-0.073	-0.080
-618.346	90.129	0.105	-0.117
-617.332	40.404	-0.250	-0.223
-616.317	57.314	0.089	-0.086
-615.303	-61.051	-0.244	-0.103
-614.288	390.454	-0.097	-0.199
-613.273	88.529	-0.125	-0.139
-612.259	-200.000	-0.022	-0.096
-611.244	459.252	0.009	-0.020
-610.230	-106.825	-0.137	0.030
-609.215	800.000	0.121	-0.366
-608.201	-200.000	-0.006	0.128
-607.186	800.000	0.098	0.332
-606.171	-200.000	0.019	0.178
-605.157	-120.326	0.197	-0.033
-604.142	225.765	0.076	-0.123
-603.128	316.600	-0.043	0.080
-602.113	48.363	0.080	-0.074
-601.098	350.898	0.131	0.258
-600.084	800.000	0.009	0.032
-599.069	-84.430	-0.225	-0.071
-598.055	-152.465	0.073	-0.005
-597.040	178.499	-0.154	-0.223
-596.025	91.524	-0.273	-0.305
-595.011	-85.875	0.048	0.015
-593.996	300.946	-0.125	-0.230
-592.982	-17.882	-0.140	-0.087
-591.967	31.069	0.118	0.101
-590.952	44.353	-0.086	0.078
-589.938	94.447	0.329	-0.372
-588.923	800.000	-0.098	-0.334
-587.909	31.539	0.165	0.141
-586.894	800.000	-0.054	0.158
-585.879	64.484	-0.329	-0.329
-584.865	-35.866	-0.361	0.194
-583.850	-99.320	-0.199	0.050
-582.836	-36.867	-0.292	0.156
-581.821	95.346	0.234	0.265
-580.806	-84.944	-0.388	0.121
-579.792	-200.000	-0.044	0.304
-578.777	287.018	-0.095	-0.170
-577.763	-31.609	0.162	0.090
-576.748	-18.272	-0.153	0.095
-575.733	48.148	0.231	-0.215
-574.719	-41.316	0.187	0.096
-573.704	-120.239	-0.163	0.028
-572.690	354.930	-0.121	0.239
-571.675	-200.000	-0.012	0.086
-570.661	-200.000	0.027	0.177
-569.646	800.000	-0.039	-0.149
-568.631	800.000	0.019	-0.081
-567.617	800.000	-0.057	0.168
-566.602	-200.000	-0.035	0.159
-565.588	148.787	-0.082	0.110
-564.573	-4.868	-0.233	0.159
-563.558	-70.520	0.130	-0.049
-562.544	541.713	0.079	0.186
-561.529	620.700	0.075	-0.187
-560.515	-52.401	0.243	0.112
-559.500	-179.219	-0.102	-0.002
-558.485	-98.210	-0.321	-0.082
-557.471	-87.791	-0.340	0.102
-556.456	-65.636	-0.286	-0.114
-555.442	70.212	0.236	0.242
-554.427	-200.000	-0.005	-0.225
-553.412	388.486	-0.106	-0.217
-552.398	-200.000	0.002	0.169
-551.383	-94.446	-0.127	0.034
-550.369	270.205	0.040	0.070
-549.354	8.169	-0.125	-0.093
-548.339	-138.870	0.187	0.020
-547.325	787.592	0.069	0.188
-546.310	-200.000	0.013	-0.135
-545.296	59.624	0.072	-0.070
-544.281	-0.701	0.157	0.110
-543.266	-46.509	0.210	0.102
-542.252	20.359	-0.265	0.212
-541.237	-200.000	0.000	-0.005
-540.223	-49.791	0.297	0.140
-539.208	-24.468	-0.213	-0.126
-538.193	800.000	0.162	-0.502
-537.179	-53.764	-0.218	0.098
-536.164	-200.000	-0.033	0.221
-535.150	608.742	-0.143	-0.353
-534.135	-151.766	-0.329	0.024
-533.121	43.312	0.215	-0.195
-532.106	-16.270	-0.286	-0.180
-531.091	-100.949	-0.263	0.064
-530.077	-41.074	-0.076	0.039
-529.062	-47.561	-0.110	-0.053
-528.048	-50.085	0.294	-0.138
-527.033	55.844	0.087	0.084
-526.018	158.214	0.182	0.250
-525.004	58.493	0.134	0.130
-523.989	-51.623	0.226	-0.104
-522.975	217.149	0.049	0.077
-521.960	-200.000	-0.148	-0.000
-520.945	-134.254	-0.380	-0.046
-519.931	38.959	0.115	0.101
-518.916	641.233	0.133	-0.335
-517.902	-65.511	0.213	-0.085
-516.887	37.559	-0.103	-0.090
-515.872	208.229	-0.029	-0.045
-514.858	-200.000	-0.050	0.225
-513.843	318.851	0.180	-0.338
-512.829	-44.311	0.185	-0.092
-511.814	-200.000	-0.010	0.359
-510.799	3.498	-0.354	-0.256
-509.785	9.169	-0.104	-0.078
-508.770	-81.554	-0.345	-0.112
-507.756	-70.434	0.311	0.117
-506.741	-38.480	-0.287	0.150
-505.726	-200.000	-0.058	-0.315
-504.712	-200.000	0.054	0.273
-503.697	271.974	-0.156	0.272
-502.683	82.922	0.127	-0.136
-501.668	-200.000	-0.018	0.111
-500.653	-200.000	-0.018	-0.120
-499.639	-88.395	-0.093	0.028
-498.624	-52.450	0.495	-0.227
-497.610	85.376	0.191	-0.208
-496.595	13.675	0.071	0.054
-495.581	-89.093	0.070	0.021
-494.566	-200.000	-0.029	-0.260
-493.551	-8.799	0.308	-0.205
-492.537	264.343	0.213	-0.368
-491.522	-54.145	0.070	-0.031
-490.508	211.683	-0.063	0.098
-489.493	143.029	0.171	-0.225
-488.478	-200.000	-0.001	0.235
-487.464	340.220	0.030	0.058
-486.449	22.211	-0.151	0.122
-485.435	71.553	0.231	-0.237
-484.420	492.453	0.082	-0.186
-483.405	800.000	0.104	0.294
-482.391	-200.000	0.001	0.037
-481.376	92.881	-0.165	0.184
-480.362	159.044	0.048	0.066
-479.347	-28.105	0.411	-0.235
-478.332	-80.999	0.087	-0.029
-477.318	-200.000	-0.006	-0.030
-476.303	-136.821	-0.086	0.010
-475.289	-183.383	0.174	-0.003
-474.274	11.675	-0.039	-0.029
-473.259	82.660	-0.067	0.071
-472.245	37.009	0.028	0.025
-471.230	-57.054	0.285	0.124
-470.216	-70.584	0.066	-0.025
-469.201	738.271	-0.054	-0.144
-468.186	-107.519	-0.330	-0.071
-467.172	-86.167	0.158	0.048
-466.157	70.778	-0.372	0.380
-465.143	103.691	-0.288	-0.335
-464.128	800.000	0.044	-0.168
-463.113	245.737	-0.138	0.229
-462.099	-200.000	-0.050	0.227
-461.084	361.931	0.023	-0.046
-460.070	-200.000	0.056	-0.261
-459.055	155.198	0.133	-0.181
-458.040	97.613	-0.062	-0.071
-457.026	242.933	-0.154	-0.256
-456.011	-169.303	-0.363	-0.013
-454.997	253.902	-0.087	0.147
-453.982	-75.446	0.272	-0.096
-452.968	-154.637	0.163	-0.011
-451.953	-122.813	0.101	0.016
-450.938	-30.633	0.107	-0.060
-449.924	185.396	-0.090	-0.132
-448.909	225.091	-0.039	-0.062
-447.895	80.309	-0.065	0.069
-446.880	-56.287	-0.283	-0.124
-445.865	-75.989	0.190	0.066
-444.851	-200.000	0.031	-0.229
-443.836	-85.944	0.061	-0.019
-442.822	-12.720	0.232	-0.149
-441.807	-72.578	0.487	0.177
-440.792	-200.000	0.011	0.449
-439.778	-81.342	0.249	-0.081
-438.763	-38.711	-0.088	0.046
-437.749	-152.684	-0.168	0.012
-436.734	-200.000	-0.062	-0.298
-435.719	-5.517	-0.294	-0.199
-434.705	-44.760	0.380	0.187
-433.690	154.896	0.108	0.147
-432.676	379.351	-0.126	0.255
-431.661	172.208	-0.055	-0.079
-430.646	323.539	-0.056	-0.105
-429.632	115.845	0.137	-0.166
-428.617	82.902	-0.157	-0.168
-427.603	-43.307	0.341	0.171
-426.588	-200.000	-0.019	0.253
-425.573	-49.026	0.435	-0.206
-424.559	-63.501	-0.446	-0.181
-423.544	276.246	0.064	-0.113
-422.530	202.358	0.043	0.065
-421.515	-200.000	-0.004	0.145
-420.500	85.243	-0.118	-0.127
-419.486	-109.462	0.129	-0.027
-418.471	31.279	-0.315	0.267
-417.457	-200.000	-0.014	0.306
-416.442	-38.726	0.048	0.025
-415.428	-155.855	0.312	-0.020
-414.413	-200.000	-0.017	-0.133
-413.398	-58.211	-0.295	0.127
-412.384	172.035	-0.188	0.266
-411.369	-200.000	-0.018	0.120
-410.355	-18.036	-0.069	0.042
-409.340	487.971	-0.124	-0.278
-408.325	448.141	-0.082	-0.178
-407.311	800.000	0.051	-0.156
-406.296	-200.000	0.041	0.299
-405.282	41.593	0.221	-0.198
-404.267	53.895	0.044	0.042
-403.252	227.057	-0.225	0.361
-402.238	800.000	0.126	0.460
-401.223	-200.000	-0.051	-0.264
-400.209	-83.871	-0.061	-0.019
-399.194	-73.648	0.095	0.034
-398.179	-117.074	-0.231	-0.042
-397.165	205.661	-0.055	0.084
-396.150	800.000	0.052	-0.182
-395.136	-12.050	0.331	-0.213
-394.121	-25.482	0.176	0.103
-393.106	-200.000	-0.033	-0.317
-392.092	-200.000	-0.012	-0.106
-391.077	-87.909	0.140	-0.041
-390.063	-83.413	-0.241	-0.076
-389.048	-92.586	0.253	0.070
-388.033	61.960	0.019	-0.019
-387.019	423.302	-0.065	-0.138
-386.004	-83.361	-0.200	-0.063
-384.990	800.000	-0.107	0.374
-383.975	-66.816	0.092	0.036
-382.960	467.793	0.091	0.200
-381.946	-1.185	0.153	0.106
-380.931	-12.629	-0.152	-0.098
-379.917	-79.184	0.053	0.018
-378.902	-56.075	0.117	-0.051
-377.888	-40.245	0.346	0.177
-376.873	72.591	-0.229	0.235
-375.858	178.073	-0.060	0.086
-374.844	-44.010	-0.157	0.078
-373.829	-200.000	0.022	-0.433
-372.815	-200.000	0.021	-0.098
-371.800	103.915	0.255	-0.295
-370.785	80.660	-0.065	-0.069
-369.771	-122.446	0.119	-0.019
-368.756	-200.000	-0.035	-0.237
-367.742	800.000	-0.119	0.484
-366.727	-200.000	0.016	-0.099
-365.712	19.693	-0.088	0.070
-364.698	-200.000	-0.044	-0.256
-363.683	166.954	-0.140	0.195
-362.669	-76.693	-0.065	-0.022
-361.654	150.639	-0.073	-0.097
-360.639	-80.619	0.207	0.068
-359.625	-154.343	0.386	-0.026
-358.610	115.795	-0.061	-0.073
-357.596	-200.000	-0.001	0.088
-356.581	686.798	-0.026	0.068
-355.566	-164.463	0.234	0.011
-354.552	37.435	0.189	0.165
-353.537	-200.000	0.039	0.174
-352.523	-200.000	-0.022	-0.109
-351.508	-122.764	-0.302	-0.048
-350.493	-200.000	0.005	-0.073
-349.479	0.617	0.244	0.172
-348.464	146.871	0.200	0.264
-347.450	4.801	0.260	-0.188
-346.435	-126.505	-0.203	-0.030
-345.420	-72.632	-0.255	0.093
-344.406	800.000	0.097	0.318
-343.391	-1.962	-0.173	0.120
-342.377	70.250	0.082	0.084
-341.362	800.000	-0.157	-0.613
-340.348	121.084	-0.065	0.079
-339.333	-39.524	0.122	0.063
-338.318	167.480	-0.142	0.198
-337.304	-193.424	-0.316	-0.003
-336.289	295.255	-0.089	-0.160
-335.275	-200.000	0.026	0.214
-334.260	-200.000	0.001	0.349
-333.245	-162.245	-0.227	-0.011
-332.231	-8.822	-0.268	0.177
-331.216	388.064	-0.130	-0.264
-330.202	-32.398	-0.256	-0.140
-329.187	87.581	0.081	-0.089
-328.172	192.043	-0.142	-0.210
-327.158	800.000	0.068	-0.249
-326.143	800.000	0.090	0.304
-325.129	-200.000	-0.120	-0.551
-324.114	-200.000	0.017	0.126
-323.099	785.085	-0.047	-0.128
-322.085	54.195	0.060	0.057
-321.070	213.525	-0.141	-0.218
-320.056	-134.875	0.132	0.016
-319.041	131.063	0.089	-0.113
-318.026	-68.063	0.145	-0.055
-317.012	6.089	0.093	0.067
-315.997	83.269	-0.092	0.099
-314.983	-68.212	0.133	-0.051
-313.968	-78.025	0.262	0.089
-312.953	-140.552	0.165	0.017
-311.939	800.000	-0.066	-0.194
-310.924	800.000	-0.097	-0.324
-309.910	787.458	0.048	0.130
-308.895	-200.000	-0.012	-0.103
-307.880	378.787	0.050	-0.100
-306.866	-177.857	0.077	-0.002
-305.851	136.616	-0.213	-0.273
-304.837	-38.687	0.029	0.015
-303.822	-137.097	0.174	0.020
-302.807	12.904	0.076	-0.058
-301.793	800.000	0.074	0.223
-300.778	123.412	0.186	-0.229
-299.764	391.407	-0.146	-0.297
-298.749	351.966	0.067	-0.131
-297.735	131.794	-0.249	-0.314
-296.720	-90.392	0.254	-0.072
-295.705	-123.731	-0.152	0.024
-294.691	285.529	0.082	-0.146
-293.676	642.842	-0.036	-0.091
-292.662	714.484	-0.049	0.127
-291.647	-3.074	-0.371	0.254
-290.632	-111.782	0.255	0.051
-289.618	57.676	-0.124	0.119
-288.603	353.905	-0.136	0.265
-287.589	-137.567	0.108	0.012
-286.574	-58.842	-0.217	-0.092
-285.559	278.111	-0.099	0.173
-284.545	680.132	0.063	0.162
-283.530	74.475	0.123	-0.127
-282.516	48.496	0.198	0.182
-281.501	-200.000	0.019	-0.289
-280.486	50.416	-0.102	0.095
-279.472	-200.000	0.056	-0.246
-278.457	-200.000	-0.025	0.154
-277.443	43.318	-0.205	0.184
-276.428	10.484	0.120	0.089
-275.413	-20.512	-0.157	0.095
-274.399	-164.978	-0.325	0.014
-273.384	563.568	0.190	-0.452
-272.370	-200.000	-0.067	0.429
-271.355	-142.641	0.245	0.024
-270.340	530.062	-0.141	-0.326
-269.326	-200.000	0.021	-0.164
-268.311	-109.061	-0.181	-0.038
-267.297	-148.240	0.440	0.036
-266.282	-152.752	-0.068	-0.005
-265.267	143.386	-0.079	-0.103
-264.253	-46.420	0.105	-0.051
-263.238	-62.904	0.091	-0.037
-262.224	-63.851	-0.259	-0.104
-261.209	800.000	-0.041	0.145
-260.195	95.258	0.119	0.133
-259.180	67.117	-0.122	0.122
-258.165	279.805	-0.069	0.121
-257.151	-22.098	0.139	0.083
-256.136	-200.000	-0.031	-0.205
-255.122	-119.654	0.300	0.051
-254.107	-136.561	0.182	-0.021
-253.092	-114.271	0.048	0.009
-252.078	7.046	-0.076	0.056
-251.063	-200.000	-0.039	0.237
-250.049	-14.683	0.195	-0.123
-249.034	219.199	-0.182	0.285
-248.019	-71.862	-0.078	0.028
-247.005	-200.000	-0.045	0.307
-245.990	86.954	0.106	-0.114
-244.976	-134.599	0.059	0.007
-243.961	42.601	-0.097	0.087
-242.946	4.099	0.058	-0.042
-241.932	-200.000	0.017	-0.279
-240.917	-15.752	-0.380	-0.237
-239.903	-200.000	-0.012	-0.168
-238.888	-14.999	-0.131	0.082
-237.873	123.289	-0.136	-0.167
-236.859	791.573	0.079	-0.214
-235.844	-167.070	0.356	0.014
-234.830	-53.866	-0.320	0.143
-233.815	800.000	0.011	0.040
-232.800	508.536	-0.086	0.197
-231.786	122.359	0.070	0.085
-230.771	79.916	-0.282	-0.297
-229.757	-200.000	0.010	-0.164
-228.742	-144.380	-0.175	-0.016
-227.727	-79.750	-0.141	-0.047
-226.713	-200.000	-0.020	-0.121
-225.698	-161.877	-0.227	0.011
-224.684	151.698	-0.167	0.222
-223.669	-200.000	-0.331	0.001
-222.655	-114.262	0.170	-0.032
-221.640	392.296	0.014	-0.028
-220.625	-165.723	-0.106	-0.004
-219.611	8.889	-0.217	0.160
-218.596	-140.798	0.237	-0.024
-217.582	-149.818	0.267	-0.020
-216.567	3.783	0.250	-0.179
-215.552	-200.000	-0.025	-0.217
-214.538	-200.000	0.018	-0.112
-213.523	276.827	0.027	-0.047
-212.509	246.224	-0.217	0.358
-211.494	-67.994	0.346	0.132
-210.479	-111.345	0.194	0.039
-209.465	-103.286	0.125	0.029
-208.450	77.900	0.235	-0.245
-207.436	479.583	0.136	0.302
-206.421	800.000	0.040	-0.127
-205.406	-13.385	0.224	0.142
-204.392	474.855	0.012	-0.026
-203.377	223.101	-0.137	0.216
-202.363	-75.917	0.363	0.126
-201.348	235.542	0.039	-0.063
-200.333	36.022	0.131	-0.113
-199.319	-79.880	0.144	-0.047
-198.304	-97.675	0.036	0.009
-197.290	4.956	0.082	-0.059
-196.275	611.742	-0.119	0.292
-195.260	-200.000	0.045	0.352
-194.246	-200.000	-0.042	0.202
-193.231	800.000	0.110	0.409
-192.217	-200.000	-0.003	0.037
-191.202	117.693	-0.122	0.146
-190.187	-10.379	0.086	-0.056
-189.173	-149.772	-0.483	-0.037
-188.158	67.367	-0.229	0.228
-187.144	800.000	0.067	-0.216
-186.129	-15.172	-0.086	0.054
-185.114	222.757	0.116	0.183
-184.100	148.334	0.032	0.043
-183.085	-200.000	0.024	-0.191
-182.071	-163.586	-0.110	-0.005
-181.056	353.860	-0.175	0.340
-180.042	273.849	0.137	0.236
-179.027	-22.720	0.195	-0.115
-178.012	-200.000	-0.016	0.109
-176.998	-36.935	-0.062	0.032
-175.983	-182.530	0.114	0.002
-174.969	58.968	-0.083	0.080
-173.954	-93.651	0.133	0.036
-172.939	386.770	-0.156	0.315
-171.925	-200.000	0.016	-0.206
-170.910	47.389	0.238	0.217
-169.896	-132.147	-0.309	-0.039
-168.881	-60.733	-0.092	-0.038
-167.866	-200.000	-0.002	0.028
-166.852	93.318	0.100	-0.110
-165.837	-200.000	-0.034	0.304
-164.823	1.157	-0.046	-0.033
-163.808	-3.938	-0.090	0.061
-162.793	-131.931	0.343	-0.044
-161.779	378.042	0.087	-0.174
-160.764	-163.008	0.302	-0.014
-159.750	-200.000	0.000	-0.190
-158.735	95.497	0.162	-0.181
-157.720	-61.954	-0.174	-0.071
-156.706	8.431	0.204	-0.150
-155.691	-13.015	0.447	0.284
-154.677	573.806	-0.036	0.087
-153.662	-57.401	0.155	0.066
-152.647	186.838	0.033	-0.048
-151.633	800.000	-0.016	0.055
-150.618	-113.592	-0.105	0.020
-149.604	35.039	-0.109	0.093
-148.589	14.510	0.118	0.090
-147.574	-94.380	0.028	0.007
-146.560	-200.000	0.018	-0.097
-145.545	4.666	0.301	-0.216
-144.531	58.410	0.181	0.173
-143.516	263.288	-0.120	0.204
-142.502	-136.428	0.391	-0.044
-141.487	751.591	-0.090	-0.236
-140.472	-43.293	0.248	0.123
-139.458	229.778	-0.035	0.056
-138.443	-200.000	0.062	0.343
-137.429	-122.585	0.276	-0.044
-136.414	-98.062	0.024	0.006
-135.399	-200.000	-0.046	0.212
-134.385	-48.121	0.253	0.119
-133.370	-101.292	0.176	-0.042
-132.356	102.687	0.203	0.232
-131.341	195.093	0.103	0.153
-130.326	-200.000	-0.017	0.277
-129.312	-116.903	0.318	-0.057
-128.297	491.817	0.163	-0.365
-127.283	-200.000	0.048	-0.257
-126.268	-200.000	-0.024	0.155
-125.253	49.556	0.211	0.194
-124.239	800.000	0.062	-0.237
-123.224	800.000	0.057	-0.172
-122.210	-58.211	0.109	0.046
-121.195	47.827	0.319	0.290
