DTS Sentinel unit serial number:	SN413079Multiplexer serial number:	ORYXHardware model number:	OX4-SRSoftware version number:	ORYX F/W v4.00 Oryx Data Collector v3.7.2.0data status	okinstallation	princeton_trtdifferential loss correction	single-endedforward channel	channel 3reverse channel	N/Adate	2019/09/11time	20:30:10forward acquisition time	60.00reverse acquisition time	0.00gamma	496.2192k internal	0.2304k external	0.2304temperature offset calibration	1.0030default loss term (dB/km)	0.3790temperature slope calibration	1.0000multiplexer offset coefficient	1.0000multiplexer slope coefficient	1.0000fibre end	0.00T internal ref (°C)	37.62T ext. ref 1 (°C)	1.51T ext. ref 2 (°C)	30.82length (m)	temperature (°C)	Stokes	anti-Stokes-747.200	-45.210	0.301	-0.152
-746.185	323.236	-0.068	0.132
-745.171	777.612	0.041	0.114
-744.156	350.717	0.036	0.073
-743.142	-90.068	0.218	0.065
-742.127	97.254	0.067	0.078
-741.112	166.031	0.201	0.290
-740.098	191.116	-0.155	0.237
-739.083	-20.108	-0.144	0.090
-738.069	-200.000	-0.009	0.174
-737.054	800.000	-0.054	0.186
-736.039	31.457	-0.029	0.025
-735.025	-90.342	0.150	0.044
-734.010	-86.923	-0.232	0.072
-732.996	75.181	-0.113	-0.121
-731.981	-119.011	0.102	-0.018
-730.966	337.968	0.055	0.109
-729.952	-71.696	0.191	-0.073
-728.937	800.000	0.085	0.366
-727.923	32.484	-0.192	-0.169
-726.908	-20.446	0.338	-0.211
-725.894	272.015	-0.107	0.191
-724.879	576.027	-0.042	-0.105
-723.864	-115.192	-0.158	0.031
-722.850	-137.789	0.264	-0.030
-721.835	106.426	0.074	0.089
-720.821	-100.916	-0.363	-0.091
-719.806	-89.363	-0.326	-0.098
-718.791	-73.010	-0.249	-0.093
-717.777	95.241	0.035	-0.041
-716.762	-82.375	0.351	-0.116
-715.748	-94.647	-0.520	0.144
-714.733	-32.032	0.430	-0.245
-713.718	800.000	-0.069	-0.243
-712.704	-44.927	0.238	0.121
-711.689	-200.000	-0.004	-0.255
-710.675	-200.000	-0.005	-0.128
-709.660	-99.768	-0.207	0.053
-708.645	-114.626	0.090	-0.017
-707.631	800.000	-0.045	0.189
-706.616	-136.682	0.289	0.034
-705.602	-58.000	0.083	0.037
-704.587	9.205	-0.165	-0.127
-703.572	-81.126	-0.143	-0.048
-702.558	54.256	0.178	0.174
-701.543	-200.000	-0.023	0.229
-700.529	800.000	0.055	0.158
-699.514	305.367	0.112	0.211
-698.499	132.337	0.135	0.177
-697.485	-84.363	-0.271	-0.087
-696.470	-64.609	-0.069	0.028
-695.456	-170.284	-0.020	0.001
-694.441	800.000	0.097	0.309
-693.426	-200.000	0.016	0.129
-692.412	-200.000	-0.015	-0.155
-691.397	-61.006	0.174	-0.075
-690.383	279.223	-0.134	-0.243
-689.368	28.004	0.145	-0.124
-688.354	-6.550	0.177	-0.123
-687.339	268.008	0.078	-0.138
-686.324	57.329	-0.004	0.004
-685.310	-104.599	-0.168	-0.039
-684.295	-23.405	0.239	-0.146
-683.281	71.274	0.150	-0.158
-682.266	-200.000	-0.098	0.000
-681.251	-108.229	-0.327	-0.072
-680.237	222.647	-0.197	-0.321
-679.222	800.000	-0.036	-0.146
-678.208	-121.593	0.313	0.053
-677.193	23.333	-0.084	-0.070
-676.178	-118.035	-0.205	-0.037
-675.164	0.944	0.139	0.101
-674.149	182.971	0.027	-0.041
-673.135	-9.142	0.060	0.040
-672.120	125.784	0.114	-0.146
-671.105	520.080	0.148	-0.352
-670.091	-85.676	0.211	-0.066
-669.076	-200.000	-0.023	0.294
-668.062	166.530	0.318	0.457
-667.047	-49.386	-0.340	-0.164
-666.032	431.557	0.150	-0.331
-665.018	800.000	-0.014	-0.058
-664.003	407.424	-0.104	-0.222
-662.989	295.380	0.113	-0.210
-661.974	-29.476	-0.060	0.035
-660.959	89.585	-0.045	0.051
-659.945	-200.000	0.029	0.313
-658.930	46.322	-0.079	0.074
-657.916	-111.817	-0.643	-0.132
-656.901	151.965	0.023	0.032
-655.886	-52.812	0.062	-0.029
-654.872	800.000	-0.036	-0.140
-653.857	-25.328	0.092	0.055
-652.843	-159.754	-0.083	-0.005
-651.828	474.470	-0.096	-0.220
-650.814	-200.000	0.028	-0.232
-649.799	-77.152	-0.289	0.102
-648.784	20.554	0.067	0.055
-647.770	800.000	0.099	-0.301
-646.755	-200.000	0.032	-0.284
-645.741	-200.000	0.008	-0.291
-644.726	-58.994	0.199	0.087
-643.711	800.000	-0.056	0.213
-642.697	800.000	-0.142	0.399
-641.682	-200.000	0.032	0.206
-640.668	66.295	-0.131	0.135
-639.653	347.253	0.123	-0.245
-638.638	-200.000	-0.060	0.290
-637.624	-168.864	-0.039	0.001
-636.609	133.337	-0.187	0.246
-635.595	-139.548	-0.304	0.033
-634.580	6.294	-0.228	-0.171
-633.565	125.753	0.073	-0.094
-632.551	17.052	0.025	-0.020
-631.536	31.012	-0.123	-0.107
-630.522	-99.978	-0.029	-0.007
-629.507	-81.928	-0.122	-0.040
-628.492	-88.717	-0.184	-0.055
-627.478	163.357	-0.123	-0.176
-626.463	-165.728	0.243	0.011
-625.449	-200.000	-0.043	-0.305
-624.434	-200.000	-0.006	0.259
-623.419	317.346	-0.184	0.352
-622.405	343.740	-0.151	0.301
-621.390	167.932	0.069	-0.099
-620.376	204.306	0.086	0.135
-619.361	-64.825	-0.330	0.135
-618.346	-200.000	-0.030	0.370
-617.332	800.000	0.006	-0.027
-616.317	800.000	-0.037	-0.104
-615.303	800.000	0.025	-0.080
-614.288	-108.778	0.301	0.065
-613.273	203.399	-0.121	0.190
-612.259	177.445	-0.099	-0.147
-611.244	-146.140	-0.101	-0.009
-610.230	-68.449	0.137	0.054
-609.215	16.120	0.408	-0.326
-608.201	323.898	-0.050	-0.096
-607.186	-71.887	-0.095	0.036
-606.171	-200.000	-0.018	0.111
-605.157	-200.000	-0.018	-0.156
-604.142	12.426	0.200	-0.156
-603.128	525.703	-0.138	0.330
-602.113	-99.941	0.219	-0.055
-601.098	-10.432	0.141	0.095
-600.084	16.344	-0.263	-0.210
-599.069	800.000	0.011	-0.036
-598.055	-48.916	-0.199	0.097
-597.040	-21.769	0.148	0.091
-596.025	-64.339	-0.206	0.085
-595.011	256.169	0.044	-0.077
-593.996	-146.591	0.154	-0.014
-592.982	-87.832	-0.184	-0.056
-591.967	-106.816	0.405	-0.091
-590.952	7.833	0.043	0.033
-589.938	-44.991	-0.305	-0.154
-588.923	-161.527	0.220	0.011
-587.909	-60.892	0.315	-0.135
-586.894	-81.342	-0.262	-0.087
-585.879	800.000	-0.034	0.109
-584.865	45.927	-0.196	-0.184
-583.850	-100.190	-0.322	-0.081
-582.836	-126.515	-0.463	-0.070
-581.821	431.514	-0.053	-0.116
-580.806	-164.655	0.272	0.012
-579.792	800.000	-0.062	0.274
-578.777	-130.487	0.137	-0.019
-577.763	-76.069	-0.308	0.110
-576.748	800.000	-0.196	0.692
-575.733	133.325	0.144	-0.189
-574.719	95.558	-0.092	-0.106
-573.704	-108.375	0.120	0.026
-572.690	70.870	-0.143	-0.149
-571.675	104.983	0.091	-0.109
-570.661	194.775	-0.091	0.139
-569.646	-60.925	0.318	-0.136
-568.631	800.000	0.062	0.227
-567.617	-174.468	0.037	-0.001
-566.602	-131.385	0.184	-0.025
-565.588	215.291	0.009	-0.014
-564.573	87.525	-0.177	-0.199
-563.558	-19.068	-0.161	-0.101
-562.544	-117.994	0.239	0.043
-561.529	800.000	0.012	0.051
-560.515	-200.000	-0.008	-0.088
-559.500	-84.832	-0.157	0.050
-558.485	800.000	0.035	0.121
-557.471	-200.000	-0.006	0.120
-556.456	-200.000	-0.006	0.215
-555.442	-129.183	0.327	0.046
-554.427	-200.000	0.015	-0.152
-553.412	199.932	-0.051	-0.079
-552.398	800.000	-0.077	-0.220
-551.383	141.647	-0.215	0.288
-550.369	-200.000	0.052	0.470
-549.354	107.433	-0.169	-0.203
-548.339	-29.883	-0.381	0.219
-547.325	-52.701	-0.103	-0.048
-546.310	217.280	0.166	-0.268
-545.296	-200.000	-0.008	-0.045
-544.281	-118.773	0.137	-0.024
-543.266	-53.363	0.006	0.003
-542.252	-78.322	0.301	0.104
-541.237	415.067	-0.159	-0.343
-540.223	736.808	-0.077	0.207
-539.208	622.375	0.080	-0.205
-538.193	-200.000	-0.006	-0.069
-537.179	-200.000	-0.009	-0.094
-536.164	2.729	-0.063	-0.046
-535.150	32.440	0.172	-0.150
-534.135	-154.789	-0.313	-0.021
-533.121	160.369	-0.031	0.044
-532.106	-91.894	0.262	-0.075
-531.091	-88.095	0.260	0.079
-530.077	131.107	0.231	0.299
-529.062	-119.046	0.047	-0.008
-528.048	800.000	0.055	0.180
-527.033	-46.962	0.103	-0.051
-526.018	-49.331	0.196	-0.094
-525.004	800.000	-0.033	-0.116
-523.989	-188.762	0.168	-0.002
-522.975	-128.068	0.064	-0.009
-521.960	146.745	-0.108	-0.146
-520.945	-63.899	0.289	-0.119
-519.931	800.000	-0.025	-0.069
-518.916	-200.000	-0.002	-0.103
-517.902	-163.486	0.480	-0.023
-516.887	485.267	0.042	0.096
-515.872	138.811	0.186	-0.247
-514.858	-136.727	-0.222	-0.026
-513.843	800.000	-0.029	0.105
-512.829	7.014	0.120	0.090
-511.814	225.499	0.276	-0.451
-510.799	161.226	-0.211	-0.298
-509.785	-200.000	0.025	0.173
-508.770	-200.000	0.006	0.098
-507.756	-200.000	-0.005	-0.027
-506.741	333.323	-0.071	0.139
-505.726	-91.031	-0.166	-0.048
-504.712	-39.851	0.113	0.060
-503.697	800.000	-0.075	-0.230
-502.683	274.469	-0.054	0.096
-501.668	2.873	-0.291	-0.213
-500.653	-200.000	0.024	-0.156
-499.639	247.250	0.367	-0.625
-498.624	-90.003	-0.175	0.052
-497.610	-200.000	0.002	0.253
-496.595	422.146	0.113	-0.244
-495.581	-44.941	0.169	-0.085
-494.566	98.490	-0.089	0.103
-493.551	-200.000	-0.032	0.151
-492.537	42.834	-0.132	-0.121
-491.522	-111.701	0.205	-0.042
-490.508	22.036	0.270	0.222
-489.493	-147.792	-0.076	0.006
-488.478	-64.984	-0.259	0.105
-487.464	43.365	0.080	-0.074
-486.449	800.000	0.117	0.354
-485.435	288.590	0.073	0.133
-484.420	102.841	0.105	-0.124
-483.405	-58.451	0.113	-0.050
-482.391	-149.515	-0.194	-0.015
-481.376	-12.560	-0.185	0.121
-480.362	-68.513	0.220	-0.086
-479.347	-33.106	0.147	0.082
-478.332	-131.949	0.193	0.025
-477.318	29.821	0.049	0.042
-476.303	459.509	0.041	0.092
-475.289	-86.637	0.252	-0.078
-474.274	-31.507	-0.146	-0.083
-473.259	-45.395	0.152	0.076
-472.245	800.000	-0.030	-0.086
-471.230	81.063	-0.155	-0.169
-470.216	53.052	0.057	0.055
-469.201	-80.302	-0.314	0.106
-468.186	93.666	0.076	-0.087
-467.172	-192.020	-0.289	-0.003
-466.157	163.472	-0.124	0.176
-465.143	-102.057	-0.308	0.075
-464.128	-147.374	0.371	0.032
-463.113	800.000	0.043	0.127
-462.099	-94.957	-0.086	0.023
-461.084	28.034	-0.217	0.184
-460.070	-130.385	-0.165	0.023
-459.055	-96.662	0.281	-0.074
-458.040	15.605	0.134	0.106
-457.026	221.553	-0.107	0.173
-456.011	-200.000	-0.015	-0.149
-454.997	-34.633	-0.265	0.146
-453.982	-133.135	0.162	-0.021
-452.968	-83.220	-0.177	0.057
-451.953	-140.962	-0.193	-0.020
-450.938	-200.000	-0.027	0.307
-449.924	-115.609	0.368	-0.070
-448.909	169.406	-0.120	-0.173
-447.895	-141.199	-0.102	0.011
-446.880	52.907	-0.156	-0.151
-445.865	306.923	-0.016	-0.030
-444.851	0.677	-0.380	-0.273
-443.836	-37.256	0.226	0.122
-442.822	591.058	-0.077	-0.190
-441.807	-157.077	0.336	-0.021
-440.792	116.855	-0.046	-0.057
-439.778	-38.717	-0.247	-0.131
-438.763	141.353	-0.243	-0.323
-437.749	-200.000	-0.041	0.401
-436.734	272.518	0.099	-0.177
-435.719	-24.650	-0.052	0.031
-434.705	-142.634	0.163	0.016
-433.690	-127.786	-0.325	0.047
-432.676	-93.353	0.174	0.049
-431.661	-128.737	0.185	-0.026
-430.646	43.493	0.180	0.166
-429.632	-111.476	-0.162	0.033
-428.617	-138.791	0.342	0.038
-427.603	162.551	0.220	-0.310
-426.588	-148.104	0.157	0.013
-425.573	800.000	-0.042	-0.169
-424.559	-40.378	-0.264	-0.138
-423.544	-200.000	-0.047	0.271
-422.530	-200.000	0.055	0.369
-421.515	-105.899	-0.222	-0.050
-420.500	-159.727	0.123	-0.007
-419.486	57.852	0.161	-0.158
-418.471	-16.853	0.140	0.089
-417.457	-67.955	-0.142	0.056
-416.442	-200.000	0.000	0.074
-415.428	396.848	-0.146	-0.306
-414.413	800.000	-0.079	-0.267
-413.398	-68.268	-0.327	-0.128
-412.384	-200.000	-0.066	-0.369
-411.369	-57.348	-0.352	0.156
-410.355	800.000	-0.016	-0.065
-409.340	-52.527	-0.058	0.027
-408.325	133.385	-0.156	0.203
-407.311	-9.756	-0.323	0.216
-406.296	-200.000	-0.007	0.034
-405.282	157.979	-0.086	0.120
-404.267	211.197	0.068	0.108
-403.252	-40.261	-0.072	-0.037
-402.238	-125.965	-0.137	0.021
-401.223	101.634	-0.208	0.244
-400.209	800.000	-0.056	0.176
-399.194	21.363	0.243	0.198
-398.179	21.443	0.078	0.064
-397.165	320.436	0.219	-0.418
-396.150	193.694	-0.062	-0.095
-395.136	800.000	-0.162	-0.512
-394.121	-200.000	-0.002	0.213
-393.106	-105.714	-0.128	0.029
-392.092	5.300	-0.275	-0.204
-391.077	-200.000	0.023	-0.344
-390.063	-200.000	0.020	0.171
-389.048	53.954	-0.150	-0.145
-388.033	-200.000	-0.006	0.314
-387.019	29.222	-0.101	0.086
-386.004	7.707	0.219	-0.164
-384.990	-77.376	-0.246	-0.086
-383.975	18.593	0.162	0.130
-382.960	14.224	-0.146	-0.114
-381.946	50.084	-0.134	0.127
-380.931	-118.353	0.137	-0.024
-379.917	-50.676	-0.139	0.066
-378.902	57.530	-0.212	0.208
-377.888	-86.894	0.374	-0.114
-376.873	173.806	-0.066	0.095
-375.858	-111.938	-0.242	-0.049
-374.844	47.757	0.187	-0.175
-373.829	-155.553	0.046	-0.003
-372.815	-44.116	0.234	0.118
-371.800	-200.000	0.001	0.297
-370.785	-200.000	-0.024	-0.255
-369.771	-66.142	-0.304	-0.122
-368.756	212.868	0.090	-0.142
-367.742	-97.272	0.114	-0.030
-366.727	96.768	-0.330	-0.380
-365.712	-200.000	0.018	-0.414
-364.698	800.000	0.137	-0.417
-363.683	-20.113	0.361	-0.223
-362.669	800.000	0.032	0.110
-361.654	-176.127	0.185	0.005
-360.639	78.321	-0.242	-0.259
-359.625	800.000	0.054	0.164
-358.610	96.940	0.167	0.192
-357.596	311.487	0.049	0.092
-356.581	-104.203	0.087	-0.020
-355.566	-109.859	-0.345	-0.073
-354.552	746.257	0.055	0.149
-353.537	-24.558	0.220	-0.132
-352.523	55.837	0.254	-0.247
-351.508	-109.037	0.289	-0.062
-350.493	-200.000	0.420	0.001
-349.479	108.921	-0.191	-0.230
-348.464	800.000	0.007	0.026
-347.450	-173.481	0.270	-0.008
-346.435	51.101	-0.218	-0.207
-345.420	-84.202	0.063	0.020
-344.406	800.000	-0.062	-0.235
-343.391	-29.001	-0.209	-0.120
-342.377	-75.484	-0.146	0.052
-341.362	247.517	0.117	0.199
-340.348	-117.645	0.149	0.027
-339.333	-75.044	-0.120	-0.043
-338.318	-200.000	0.006	-0.040
-337.304	82.210	-0.044	-0.048
-336.289	-124.300	-0.167	0.026
-335.275	-73.272	-0.019	0.007
-334.260	800.000	0.036	-0.110
-333.245	76.628	-0.179	0.191
-332.231	-170.210	0.223	-0.008
-331.216	-39.940	0.205	-0.107
-330.202	-73.148	-0.417	-0.153
-329.187	-165.609	-0.160	0.007
-328.172	58.507	-0.075	0.074
-327.158	-114.021	0.069	0.013
-326.143	-200.000	0.003	0.184
-325.129	-200.000	-0.007	0.124
-324.114	-62.992	-0.110	0.046
-323.099	7.770	0.136	0.102
-322.085	-85.469	-0.268	0.083
-321.070	514.898	0.041	0.096
-320.056	-111.886	-0.163	-0.033
-319.041	212.361	0.109	-0.173
-318.026	97.994	-0.021	0.024
-317.012	32.907	-0.333	0.289
-315.997	800.000	-0.075	-0.305
-314.983	-84.731	-0.215	0.068
-313.968	-92.163	0.134	0.038
-312.953	-200.000	-0.090	0.451
-311.939	107.754	-0.127	-0.152
-310.924	-41.050	0.243	0.126
-309.910	-200.000	0.032	-0.143
-308.895	216.284	0.110	0.175
-307.880	-200.000	-0.034	0.374
-306.866	-95.076	-0.487	-0.132
-305.851	201.470	0.040	-0.061
-304.837	-200.000	-0.003	-0.181
-303.822	49.078	0.004	-0.004
-302.807	-153.209	-0.036	-0.003
-301.793	-127.242	0.388	-0.057
-300.778	13.608	-0.032	0.025
-299.764	-64.069	0.214	-0.087
-298.749	-134.637	0.157	-0.019
-297.735	558.582	-0.059	0.142
-296.720	-5.535	-0.281	-0.193
-295.705	129.347	0.092	0.117
-294.691	-22.740	-0.435	-0.263
-293.676	705.437	-0.086	-0.226
-292.662	256.648	0.125	-0.215
-291.647	800.000	0.082	-0.263
-290.632	-24.772	-0.145	-0.086
-289.618	129.233	0.091	-0.116
-288.603	-71.654	0.167	0.062
-287.589	76.232	0.114	-0.121
-286.574	-200.000	-0.005	-0.225
-285.559	39.197	0.011	0.010
-284.545	159.038	0.033	0.046
-283.530	-200.000	-0.010	0.071
-282.516	13.891	0.207	-0.161
-281.501	178.305	0.097	-0.142
-280.486	255.405	-0.008	-0.014
-279.472	-135.056	-0.106	0.013
-278.457	800.000	-0.081	-0.282
-277.443	140.962	0.151	-0.200
-276.428	175.237	0.129	-0.186
-275.413	54.494	0.036	0.035
-274.399	-29.305	0.264	-0.151
-273.384	-22.650	0.230	-0.139
-272.370	-6.481	0.205	0.139
-271.355	-47.131	0.115	-0.056
-270.340	34.979	-0.120	0.105
-269.326	189.325	-0.075	0.112
-268.311	-16.416	-0.147	-0.093
-267.297	-19.695	0.014	-0.009
-266.282	-33.812	-0.147	0.081
-265.267	800.000	0.078	0.233
-264.253	-105.570	-0.131	-0.030
-263.238	-49.965	-0.239	-0.113
-262.224	800.000	-0.120	-0.470
-261.209	-200.000	0.006	-0.030
-260.195	54.065	0.120	0.116
-259.180	119.179	0.034	-0.042
-258.165	-110.196	-0.409	0.085
-257.151	54.409	-0.138	-0.133
-256.136	-200.000	-0.014	0.112
-255.122	-200.000	-0.024	0.480
-254.107	167.267	-0.098	0.139
-253.092	-200.000	0.086	0.461
-252.078	-113.568	-0.091	-0.018
-251.063	230.694	0.151	0.246
-250.049	54.331	-0.028	-0.027
-249.034	-10.282	-0.441	0.292
-248.019	12.115	-0.189	-0.145
-247.005	-200.000	-0.012	-0.086
-245.990	-129.793	-0.084	0.012
-244.976	631.020	-0.185	0.466
-243.961	-198.812	0.619	0.003
-242.946	-189.090	0.399	-0.005
-241.932	800.000	-0.099	0.355
-240.917	181.370	0.087	0.128
-239.903	-200.000	-0.078	-0.000
-238.888	197.435	-0.058	0.089
-237.873	-144.364	0.070	-0.007
-236.859	291.489	0.186	0.338
-235.844	-88.423	0.207	-0.062
-234.830	-52.506	0.164	-0.076
-233.815	480.603	-0.114	-0.257
-232.800	-92.780	-0.412	-0.115
-231.786	-76.950	0.240	0.084
-230.771	-174.950	0.102	-0.003
-229.757	-200.000	-0.005	0.081
-228.742	368.714	0.109	0.220
-227.727	-151.480	-0.094	-0.007
-226.713	265.223	-0.065	-0.113
-225.698	-129.497	0.227	-0.031
-224.684	-200.000	0.041	0.461
-223.669	-104.393	0.382	0.088
-222.655	800.000	-0.067	-0.265
-221.640	-200.000	-0.053	-0.283
-220.625	24.771	-0.139	-0.115
-219.611	52.751	0.130	0.124
-218.596	28.385	-0.341	0.287
-217.582	122.386	0.192	-0.239
-216.567	800.000	-0.049	0.196
-215.552	-200.000	0.006	0.218
-214.538	-82.640	0.107	-0.035
-213.523	345.172	0.106	-0.207
-212.509	-24.573	0.225	-0.133
-211.494	-200.000	-0.005	0.029
-210.479	-200.000	0.007	0.192
-209.465	-41.036	-0.107	0.055
-208.450	-111.256	0.113	0.023
-207.436	-200.000	-0.012	-0.066
-206.421	-200.000	0.008	0.312
-205.406	-200.000	0.042	0.402
-204.392	1.908	-0.214	0.154
-203.377	-190.094	0.187	0.002
-202.363	-48.324	0.196	-0.094
-201.348	-116.945	0.195	-0.036
-200.333	-138.523	-0.277	0.030
-199.319	227.486	-0.194	0.314
-198.304	159.000	0.258	0.357
-197.290	-200.000	-0.014	0.233
-196.275	-200.000	0.111	0.494
-195.260	2.607	0.244	0.176
-194.246	62.633	0.178	-0.177
-193.231	53.621	0.227	-0.217
-192.217	-47.290	-0.271	-0.132
-191.202	-104.332	-0.446	0.103
-190.187	-45.777	0.091	-0.045
-189.173	-78.735	0.389	-0.132
-188.158	-200.000	0.025	0.184
-187.144	-124.187	0.103	-0.016
-186.129	51.816	0.239	-0.226
-185.114	347.706	0.146	-0.286
-184.100	-100.242	0.241	-0.060
-183.085	29.399	0.224	-0.190
-182.071	569.545	0.047	0.113
-181.056	10.437	-0.385	-0.292
-180.042	52.389	-0.070	0.067
-179.027	131.458	-0.199	0.255
-178.012	-132.165	0.108	-0.014
-176.998	-172.603	0.231	-0.007
-175.983	800.000	-0.111	-0.320
-174.969	-50.756	-0.081	0.038
-173.954	-200.000	-0.005	-0.111
-172.939	-200.000	-0.084	-0.472
-171.925	-47.374	0.253	0.123
-170.910	242.492	-0.075	0.126
-169.896	-87.671	-0.137	-0.041
-168.881	-200.000	0.023	0.183
-167.866	-173.587	0.267	0.008
-166.852	-89.458	0.130	-0.038
-165.837	-200.000	-0.033	-0.317
-164.823	268.572	-0.159	0.277
-163.808	49.541	-0.204	0.191
-162.793	86.071	0.245	0.269
-161.779	-117.497	-0.141	-0.025
-160.764	-71.041	-0.043	0.016
-159.750	-200.000	-0.085	-0.374
-158.735	-31.408	-0.203	0.114
-157.720	-59.195	0.246	-0.106
-156.706	-200.000	0.051	0.335
-155.691	-200.000	-0.028	0.161
-154.677	77.764	0.289	0.307
-153.662	800.000	-0.080	0.243
-152.647	350.110	-0.139	0.273
-151.633	-99.163	0.358	-0.090
-150.618	-153.550	-0.276	0.019
-149.604	800.000	0.055	0.221
-148.589	-200.000	0.003	0.162
-147.574	35.185	0.252	0.220
-146.560	89.190	-0.131	-0.145
-145.545	-94.443	0.268	0.073
-144.531	222.314	0.076	0.121
-143.516	800.000	-0.050	0.216
-142.502	-200.000	-0.064	0.386
-141.487	23.156	-0.399	-0.325
-140.472	51.858	-0.234	-0.222
-139.458	-200.000	-0.049	-0.229
-138.443	-25.852	0.091	-0.053
-137.429	-44.326	0.343	-0.171
-136.414	1.092	0.148	-0.106
-135.399	69.197	0.122	-0.124
-134.385	-159.363	-0.467	0.026
-133.370	509.700	-0.006	0.013
-132.356	800.000	0.089	-0.266
-131.341	-200.000	0.004	0.142
-130.326	-200.000	0.056	-0.336
-129.312	-40.621	-0.138	-0.071
-128.297	-200.000	-0.017	0.160
-127.283	68.086	0.061	0.062
-126.268	-18.735	0.257	0.159
-125.253	524.796	-0.151	-0.354
-124.239	168.696	0.212	0.300
-123.224	800.000	0.055	0.152
-122.210	800.000	0.014	0.043
