DTS Sentinel unit serial number:	SN413079Multiplexer serial number:	ORYXHardware model number:	OX4-SRSoftware version number:	ORYX F/W v4.00 Oryx Data Collector v3.7.2.0data status	okinstallation	princeton_trtdifferential loss correction	single-endedforward channel	channel 3reverse channel	N/Adate	2019/09/11time	08:14:11forward acquisition time	60.00reverse acquisition time	0.00gamma	496.2192k internal	0.2318k external	0.2318temperature offset calibration	0.9952default loss term (dB/km)	0.3790temperature slope calibration	1.0000multiplexer offset coefficient	1.0000multiplexer slope coefficient	1.0000fibre end	0.00T internal ref (°C)	32.52T ext. ref 1 (°C)	0.22T ext. ref 2 (°C)	29.46length (m)	temperature (°C)	Stokes	anti-Stokes-747.200	-178.072	-0.100	-0.002
-746.185	-50.688	-0.095	-0.045
-745.171	52.071	-0.202	0.195
-744.156	62.530	-0.213	0.216
-743.142	-149.758	0.323	-0.026
-742.127	66.709	-0.116	0.119
-741.112	-69.186	0.310	-0.121
-740.098	-8.004	0.147	0.101
-739.083	-129.633	0.167	0.023
-738.069	800.000	0.081	0.240
-737.054	-58.551	0.106	0.047
-736.039	-200.000	-0.005	-0.146
-735.025	-199.943	0.378	0.002
-734.010	191.567	-0.106	-0.161
-732.996	-200.000	-0.019	-0.357
-731.981	-200.000	0.058	-0.330
-730.966	794.739	-0.120	-0.334
-729.952	-138.418	-0.106	0.012
-728.937	800.000	-0.067	-0.210
-727.923	-200.000	0.024	-0.329
-726.908	800.000	-0.095	-0.365
-725.894	800.000	0.084	-0.264
-724.879	-200.000	0.031	-0.241
-723.864	424.112	-0.263	0.573
-722.850	55.119	-0.158	-0.154
-721.835	-95.662	-0.343	0.093
-720.821	131.135	-0.177	-0.230
-719.806	-45.926	-0.208	0.104
-718.791	-173.856	-0.248	-0.007
-717.777	-94.983	-0.123	-0.034
-716.762	-123.315	-0.225	0.036
-715.748	-12.271	0.295	-0.195
-714.733	19.738	-0.251	0.205
-713.718	-52.075	-0.182	-0.085
-712.704	-200.000	-0.007	0.121
-711.689	-147.387	-0.088	0.008
-710.675	325.739	-0.082	-0.158
-709.660	-61.354	-0.050	-0.021
-708.645	7.116	-0.157	-0.118
-707.631	-35.125	0.094	-0.051
-706.616	-12.124	-0.309	-0.204
-705.602	-110.219	-0.136	-0.029
-704.587	209.487	0.273	-0.433
-703.572	322.937	0.051	0.098
-702.558	493.323	0.103	0.239
-701.543	-101.224	0.094	-0.023
-700.529	158.930	-0.167	-0.235
-699.514	-200.000	-0.052	0.254
-698.499	-200.000	0.025	-0.160
-697.485	-62.059	-0.360	-0.152
-696.470	140.585	0.246	-0.328
-695.456	-95.384	-0.066	0.018
-694.441	-27.106	-0.129	0.076
-693.426	-145.356	0.249	-0.023
-692.412	44.407	0.131	0.122
-691.397	107.857	0.033	-0.039
-690.383	-200.000	-0.050	-0.362
-689.368	-200.000	-0.035	-0.273
-688.354	-200.000	0.044	0.253
-687.339	-4.172	0.097	0.068
-686.324	-200.000	-0.005	-0.029
-685.310	-200.000	0.003	0.047
-684.295	800.000	0.043	-0.152
-683.281	229.269	-0.103	-0.170
-682.266	70.136	-0.160	-0.167
-681.251	800.000	-0.124	-0.380
-680.237	-41.780	-0.247	-0.128
-679.222	-29.814	0.199	0.114
-678.208	69.828	-0.024	0.025
-677.193	-46.959	-0.053	0.026
-676.178	800.000	0.033	-0.134
-675.164	800.000	0.029	-0.096
-674.149	-200.000	-0.023	-0.199
-673.135	-78.204	-0.289	-0.100
-672.120	-170.046	-0.239	0.009
-671.105	-146.465	0.120	-0.011
-670.091	408.813	0.079	-0.169
-669.076	-118.000	-0.342	-0.062
-668.062	395.144	-0.206	0.434
-667.047	-200.000	0.002	-0.263
-666.032	114.912	-0.089	-0.109
-665.018	-200.000	0.006	0.208
-664.003	-38.039	-0.200	0.107
-662.989	0.096	-0.113	0.082
-661.974	-111.910	-0.141	-0.029
-660.959	-200.000	0.047	-0.333
-659.945	-78.785	0.237	-0.081
-658.930	236.733	-0.078	-0.130
-657.916	721.117	0.098	-0.262
-656.901	352.629	0.120	-0.241
-655.886	-200.000	-0.016	-0.282
-654.872	140.241	-0.053	-0.070
-653.857	10.772	-0.295	0.227
-652.843	288.964	0.075	0.136
-651.828	51.339	0.184	-0.176
-650.814	800.000	-0.069	0.193
-649.799	70.935	0.276	0.288
-648.784	116.833	-0.141	-0.174
-647.770	100.837	0.408	0.478
-646.755	285.472	-0.170	0.309
-645.741	96.099	0.008	-0.009
-644.726	16.724	-0.047	0.038
-643.711	-101.041	0.255	-0.063
-642.697	55.808	0.143	0.140
-641.682	-44.660	-0.086	-0.043
-640.668	-38.447	0.234	0.125
-639.653	54.401	-0.256	-0.248
-638.638	-93.914	0.224	-0.062
-637.624	34.784	0.149	-0.131
-636.609	-200.000	-0.030	0.157
-635.595	-75.906	0.103	0.037
-634.580	-94.293	-0.126	0.035
-633.565	800.000	-0.078	-0.236
-632.551	199.076	-0.024	0.037
-631.536	38.166	-0.175	0.157
-630.522	270.958	-0.120	-0.213
-629.507	-106.752	0.186	-0.042
-628.492	41.922	0.287	-0.262
-627.478	800.000	0.019	0.061
-626.463	-81.931	-0.385	-0.127
-625.449	32.524	-0.218	0.190
-624.434	-200.000	0.014	0.343
-623.419	153.965	-0.073	-0.100
-622.405	24.660	0.118	-0.099
-621.390	-200.000	-0.019	0.312
-620.376	-53.274	-0.179	-0.083
-619.361	-119.164	0.123	-0.022
-618.346	17.622	-0.142	-0.114
-617.332	-200.000	0.005	-0.037
-616.317	-83.672	0.061	0.020
-615.303	800.000	-0.046	-0.165
-614.288	-91.585	-0.147	0.042
-613.273	-105.163	0.151	-0.035
-612.259	9.631	-0.223	0.170
-611.244	86.736	-0.185	-0.206
-610.230	83.187	0.053	-0.059
-609.215	-200.000	0.016	-0.232
-608.201	-13.014	0.172	0.113
-607.186	86.025	-0.163	-0.181
-606.171	800.000	0.097	-0.294
-605.157	-126.736	-0.394	-0.059
-604.142	-141.498	0.454	-0.046
-603.128	800.000	-0.105	0.335
-602.113	-200.000	-0.008	0.072
-601.098	-45.742	-0.298	-0.148
-600.084	120.710	-0.066	0.083
-599.069	501.997	-0.082	0.191
-598.055	55.757	-0.079	-0.077
-597.040	-51.642	-0.071	0.033
-596.025	-159.778	0.375	-0.021
-595.011	-200.000	-0.000	-0.061
-593.996	-29.536	-0.235	0.135
-592.982	2.935	-0.233	-0.170
-591.967	-166.810	0.214	0.009
-590.952	79.925	-0.092	0.100
-589.938	-109.923	-0.402	0.085
-588.923	139.004	-0.070	-0.093
-587.909	800.000	0.079	-0.280
-586.894	36.125	-0.275	-0.243
-585.879	-200.000	-0.010	-0.103
-584.865	800.000	0.047	-0.205
-583.850	-200.000	0.000	-0.038
-582.836	-33.226	0.268	-0.149
-581.821	-53.901	-0.112	-0.051
-580.806	-200.000	-0.007	-0.064
-579.792	44.326	-0.290	-0.268
-578.777	99.964	0.099	-0.115
-577.763	467.826	0.065	0.146
-576.748	800.000	0.047	0.191
-575.733	-154.831	-0.267	0.018
-574.719	182.436	-0.205	-0.304
-573.704	800.000	0.108	-0.358
-572.690	-90.815	0.247	-0.072
-571.675	-39.394	-0.049	0.026
-570.661	-16.318	0.301	-0.192
-569.646	139.793	-0.151	-0.200
-568.631	-200.000	0.012	0.103
-567.617	-123.257	-0.117	0.019
-566.602	-13.485	-0.157	-0.102
-565.588	-17.457	0.275	-0.174
-564.573	274.834	-0.142	-0.252
-563.558	399.027	0.045	-0.095
-562.544	-69.640	-0.073	0.028
-561.529	458.531	-0.095	-0.212
-560.515	-18.838	0.257	0.161
-559.500	-10.457	-0.128	-0.085
-558.485	-19.553	-0.176	0.109
-557.471	-200.000	0.015	0.252
-556.456	205.276	0.112	0.175
-555.442	-109.882	-0.490	0.103
-554.427	479.699	0.072	-0.165
-553.412	196.591	0.263	-0.402
-552.398	-69.143	-0.112	-0.043
-551.383	800.000	0.234	0.671
-550.369	-35.679	0.269	0.146
-549.354	-33.585	0.171	0.095
-548.339	88.544	0.146	-0.163
-547.325	16.829	0.267	0.212
-546.310	341.798	0.071	-0.140
-545.296	4.252	0.149	0.110
-544.281	-94.672	-0.324	0.088
-543.266	-96.011	0.272	0.073
-542.252	-200.000	0.040	0.199
-541.237	327.823	0.165	0.319
-540.223	99.176	-0.185	0.214
-539.208	-0.243	-0.201	0.143
-538.193	6.561	-0.195	0.146
-537.179	800.000	-0.054	0.167
-536.164	800.000	-0.123	0.413
-535.150	756.388	-0.096	0.261
-534.135	-164.136	0.195	0.009
-533.121	-70.562	0.144	-0.055
-532.106	-121.957	0.347	-0.057
-531.091	-2.160	0.035	0.025
-530.077	-153.412	0.368	0.026
-529.062	666.207	-0.104	-0.269
-528.048	-51.747	-0.123	-0.058
-527.033	-86.838	0.092	-0.028
-526.018	-41.855	-0.252	0.129
-525.004	97.013	0.069	-0.080
-523.989	279.016	0.139	-0.248
-522.975	64.604	0.090	0.091
-521.960	182.216	-0.220	-0.326
-520.945	28.430	0.123	-0.105
-519.931	34.942	0.214	0.188
-518.916	32.232	0.138	-0.120
-517.902	380.964	0.087	0.178
-516.887	-52.403	0.025	0.012
-515.872	-64.250	0.157	-0.064
-514.858	343.049	0.178	0.350
-513.843	-180.931	0.168	0.003
-512.829	-200.000	-0.006	-0.039
-511.814	137.087	-0.141	-0.185
-510.799	-38.790	-0.195	0.103
-509.785	66.971	-0.109	-0.111
-508.770	-42.389	-0.159	-0.081
-507.756	228.883	-0.129	-0.211
-506.741	-200.000	-0.012	-0.150
-505.726	123.068	0.180	-0.227
-504.712	245.510	-0.113	0.190
-503.697	456.056	-0.084	-0.187
-502.683	-200.000	-0.007	0.218
-501.668	217.438	0.021	-0.034
-500.653	-151.691	-0.152	0.011
-499.639	-17.583	-0.046	-0.029
-498.624	-200.000	0.028	-0.243
-497.610	-200.000	-0.000	-0.130
-496.595	473.663	0.021	-0.046
-495.581	800.000	0.015	0.048
-494.566	305.723	0.084	-0.156
-493.551	800.000	0.051	0.175
-492.537	-65.174	0.246	0.099
-491.522	688.628	-0.080	-0.210
-490.508	800.000	-0.053	-0.211
-489.493	800.000	-0.054	0.227
-488.478	80.211	0.100	-0.108
-487.464	-52.079	-0.219	0.102
-486.449	-81.871	0.254	0.083
-485.435	237.105	-0.202	0.336
-484.420	-200.000	0.098	-0.436
-483.405	379.928	0.165	-0.339
-482.391	178.420	-0.215	0.315
-481.376	-149.402	0.559	0.044
-480.362	62.258	-0.096	-0.096
-479.347	-200.000	0.013	-0.061
-478.332	-200.000	-0.008	0.037
-477.318	147.206	-0.238	0.321
-476.303	67.627	0.199	0.204
-475.289	7.200	0.361	0.270
-474.274	800.000	-0.074	-0.263
-473.259	-78.404	-0.106	0.036
-472.245	24.784	0.052	0.043
-471.230	-68.136	0.434	-0.169
-470.216	-8.154	-0.040	0.027
-469.201	91.993	-0.317	-0.357
-468.186	-116.641	-0.093	0.017
-467.172	-200.000	0.039	-0.329
-466.157	25.112	-0.050	0.041
-465.143	-200.000	-0.023	-0.132
-464.128	-165.788	-0.082	0.004
-463.113	-200.000	0.009	-0.214
-462.099	186.495	0.063	0.094
-461.084	707.025	0.086	-0.228
-460.070	-2.810	-0.111	-0.077
-459.055	-32.729	-0.336	-0.187
-458.040	800.000	-0.099	-0.366
-457.026	-142.046	-0.758	0.075
-456.011	-51.747	-0.151	-0.071
-454.997	-81.770	-0.101	-0.033
-453.982	-200.000	-0.004	-0.109
-452.968	800.000	-0.079	-0.260
-451.953	144.736	-0.095	0.127
-450.938	74.504	0.218	-0.229
-449.924	-30.133	-0.120	-0.069
-448.909	311.884	-0.105	0.196
-447.895	-122.577	-0.174	-0.028
-446.880	492.808	-0.121	0.279
-445.865	260.553	-0.063	0.108
-444.851	-200.000	0.001	0.354
-443.836	-200.000	0.009	0.413
-442.822	145.027	0.003	-0.004
-441.807	404.340	-0.017	-0.036
-440.792	-75.216	0.189	-0.068
-439.778	647.879	-0.133	0.340
-438.763	-99.567	-0.123	-0.031
-437.749	-20.065	-0.357	-0.220
-436.734	155.382	-0.130	-0.179
-435.719	-40.670	-0.137	0.071
-434.705	800.000	-0.051	-0.206
-433.690	444.585	0.030	-0.065
-432.676	260.513	-0.131	0.226
-431.661	-66.676	0.211	0.084
-430.646	800.000	0.045	-0.198
-429.632	-200.000	0.025	0.113
-428.617	-145.111	0.090	-0.008
-427.603	800.000	0.038	-0.131
-426.588	326.652	0.057	0.110
-425.573	44.800	0.250	-0.230
-424.559	-14.108	0.089	-0.058
-423.544	-45.261	0.288	0.143
-422.530	390.869	-0.093	0.192
-421.515	-86.041	0.128	0.039
-420.500	306.264	0.141	0.263
-419.486	247.847	-0.332	0.562
-418.471	-200.000	0.052	-0.289
-417.457	800.000	0.103	-0.296
-416.442	261.049	0.076	0.132
-415.428	-200.000	0.002	-0.137
-414.413	800.000	0.029	0.111
-413.398	-200.000	-0.005	-0.309
-412.384	-200.000	0.017	-0.116
-411.369	-155.353	-0.321	-0.021
-410.355	-89.251	0.204	-0.060
-409.340	-200.000	0.004	0.399
-408.325	-8.121	0.115	-0.077
-407.311	12.697	-0.052	0.040
-406.296	800.000	-0.072	-0.220
-405.282	-47.789	-0.088	0.043
-404.267	310.004	0.126	-0.236
-403.252	39.940	0.202	-0.181
-402.238	-200.000	0.022	0.251
-401.223	426.015	0.152	-0.328
-400.209	-8.406	-0.051	-0.034
-399.194	221.564	0.092	0.147
-398.179	93.039	0.193	0.218
-397.165	170.454	-0.133	0.191
-396.150	-168.761	-0.259	0.010
-395.136	-200.000	0.403	-0.000
-394.121	56.263	0.059	0.057
-393.106	-123.218	-0.180	0.029
-392.092	154.964	0.159	0.219
-391.077	-75.391	-0.235	0.084
-390.063	610.873	-0.152	-0.379
-389.048	-114.047	-0.215	-0.042
-388.033	-200.000	-0.019	0.287
-387.019	389.877	-0.033	-0.069
-386.004	-200.000	-0.024	0.164
-384.990	-66.394	-0.086	-0.034
-383.975	-110.210	0.116	0.024
-382.960	69.827	0.226	0.232
-381.946	405.247	-0.036	0.076
-380.931	48.396	-0.348	-0.325
-379.917	-1.352	0.141	0.100
-378.902	256.591	0.135	0.232
-377.888	439.246	0.131	0.285
-376.873	88.855	0.132	0.147
-375.858	-57.208	0.330	-0.145
-374.844	-5.325	0.121	0.083
-373.829	68.963	0.161	0.165
-372.815	354.037	-0.112	0.223
-371.800	40.278	0.125	-0.112
-370.785	-200.000	-0.012	0.149
-369.771	-89.482	-0.134	-0.039
-368.756	-119.636	0.345	0.059
-367.742	-86.846	0.260	0.079
-366.727	-16.371	0.206	-0.130
-365.712	298.071	0.124	-0.227
-364.698	-108.851	0.101	0.022
-363.683	800.000	-0.041	0.118
-362.669	23.477	-0.185	-0.152
-361.654	-10.294	-0.144	-0.095
-360.639	-200.000	-0.021	-0.287
-359.625	-200.000	0.009	0.214
-358.610	-117.343	0.040	0.007
-357.596	-128.390	-0.221	0.031
-356.581	-30.863	0.083	0.047
-355.566	-200.000	-0.012	-0.316
-354.552	-1.179	-0.428	-0.302
-353.537	782.225	-0.077	-0.210
-352.523	-16.084	0.085	-0.054
-351.508	-87.536	0.476	-0.144
-350.493	-200.000	-0.003	0.032
-349.479	-47.607	0.080	-0.039
-348.464	-61.405	-0.097	0.041
-347.450	210.573	0.092	-0.143
-346.435	126.359	-0.104	-0.132
-345.420	-97.560	0.339	0.088
-344.406	232.786	-0.194	0.317
-343.391	-38.916	-0.225	0.118
-342.377	404.274	0.047	-0.098
-341.362	21.331	-0.126	0.102
-340.348	157.117	-0.124	0.171
-339.333	-137.151	0.132	0.015
-338.318	-200.000	-0.020	0.303
-337.304	360.764	0.216	0.432
-336.289	-110.969	0.519	-0.106
-335.275	-69.229	-0.181	-0.069
-334.260	-200.000	-0.056	-0.357
-333.245	10.275	0.361	0.274
-332.231	-200.000	0.048	-0.258
-331.216	-150.273	-0.247	0.019
-330.202	367.485	-0.052	0.104
-329.187	-54.298	-0.162	-0.073
-328.172	-100.580	0.165	-0.041
-327.158	-200.000	-0.026	0.382
-326.143	-136.620	-0.474	-0.055
-325.129	-200.000	0.052	0.230
-324.114	800.000	-0.024	0.094
-323.099	193.917	0.165	0.248
-322.085	-75.503	0.363	-0.129
-321.070	139.452	0.086	-0.112
-320.056	-86.178	-0.297	0.091
-319.041	80.758	-0.218	0.234
-318.026	183.966	-0.040	-0.060
-317.012	-28.116	0.135	-0.078
-315.997	-200.000	-0.019	0.339
-314.983	-176.108	-0.118	0.003
-313.968	800.000	-0.147	0.418
-312.953	-20.477	0.315	-0.193
-311.939	705.743	-0.062	0.162
-310.924	-45.355	0.184	-0.091
-309.910	-137.696	0.132	-0.015
-308.895	-79.652	0.106	0.036
-307.880	-21.314	0.188	-0.115
-306.866	-119.921	-0.191	-0.033
-305.851	-1.113	-0.231	0.163
-304.837	198.868	0.117	0.179
-303.822	-55.527	0.281	0.125
-302.807	0.610	0.069	-0.049
-301.793	-200.000	0.022	-0.232
-300.778	360.505	0.105	0.209
-299.764	-200.000	-0.038	0.181
-298.749	-200.000	-0.018	0.309
-297.735	658.727	0.082	0.211
-296.720	-149.277	-0.192	0.015
-295.705	-49.536	-0.036	-0.017
-294.691	-200.000	0.012	0.135
-293.676	44.678	-0.060	0.055
-292.662	-104.923	-0.203	-0.046
-291.647	-63.753	0.210	0.086
-290.632	136.757	-0.326	0.423
-289.618	12.923	-0.247	-0.190
-288.603	55.692	-0.385	-0.371
-287.589	-135.326	-0.387	-0.046
-286.574	-174.071	0.137	0.004
-285.559	-48.765	-0.117	-0.056
-284.545	-31.679	-0.201	0.112
-283.530	-141.854	0.479	-0.048
-282.516	-200.000	0.040	-0.206
-281.501	800.000	-0.091	0.310
-280.486	683.550	-0.148	-0.384
-279.472	-16.883	-0.252	0.158
-278.457	-23.577	-0.173	0.103
-277.443	800.000	-0.052	-0.200
-276.428	457.931	0.080	-0.176
-275.413	31.493	0.091	-0.078
-274.399	800.000	0.006	0.023
-273.384	107.658	-0.053	-0.062
-272.370	-49.183	-0.059	-0.028
-271.355	-119.174	-0.098	0.017
-270.340	-98.416	0.268	-0.068
-269.326	68.018	0.104	-0.106
-268.311	800.000	-0.014	-0.042
-267.297	84.336	0.124	0.135
-266.282	-58.220	-0.080	-0.035
-265.267	74.927	-0.325	0.340
-264.253	-200.000	-0.020	0.120
-263.238	309.039	0.143	-0.265
-262.224	-112.073	0.320	-0.064
-261.209	-200.000	0.013	0.180
-260.195	-43.541	0.198	-0.099
-259.180	-106.061	0.306	-0.068
-258.165	-109.986	0.332	0.069
-257.151	-71.251	-0.440	-0.164
-256.136	326.156	0.187	0.356
-255.122	-138.348	-0.385	0.042
-254.107	-93.657	-0.202	0.055
-253.092	-40.128	0.291	0.151
-252.078	37.124	-0.180	-0.158
-251.063	-149.704	0.343	0.027
-250.049	-200.000	-0.047	-0.228
-249.034	-200.000	-0.052	0.231
-248.019	513.464	-0.098	0.227
-247.005	-134.682	-0.192	-0.023
-245.990	-17.826	0.094	-0.058
-244.976	-161.797	-0.339	-0.017
-243.961	-200.000	-0.022	-0.116
-242.946	184.381	-0.096	-0.141
-241.932	-115.583	-0.303	0.056
-240.917	54.143	-0.143	0.137
-239.903	800.000	0.031	0.104
-238.888	-200.000	0.037	0.196
-237.873	174.685	-0.241	0.346
-236.859	-63.004	-0.282	0.115
-235.844	39.549	-0.253	-0.225
-234.830	131.351	-0.045	-0.057
-233.815	-141.814	0.206	-0.020
-232.800	-98.621	0.459	0.116
-231.786	351.306	-0.018	-0.034
-230.771	-200.000	-0.007	0.200
-229.757	163.363	0.134	0.187
-228.742	118.919	0.227	-0.278
-227.727	-26.546	-0.187	0.109
-226.713	504.114	-0.062	-0.143
-225.698	-71.831	0.122	-0.045
-224.684	149.951	-0.189	0.254
-223.669	441.384	-0.123	0.266
-222.655	23.196	0.118	0.096
-221.640	800.000	0.027	0.095
-220.625	-200.000	-0.021	-0.190
-219.611	208.377	0.145	0.224
-218.596	600.003	-0.060	-0.148
-217.582	19.172	-0.131	-0.105
-216.567	-126.852	-0.241	0.035
-215.552	-71.090	-0.103	0.039
-214.538	4.151	0.184	0.134
-213.523	-200.000	0.072	0.419
-212.509	194.983	-0.065	-0.098
-211.494	214.856	0.211	-0.332
-210.479	-49.178	0.213	-0.101
-209.465	-200.000	-0.011	0.260
-208.450	24.445	0.301	-0.247
-207.436	51.878	-0.168	-0.159
-206.421	-200.000	-0.046	-0.298
-205.406	126.848	0.029	-0.036
-204.392	28.020	0.023	0.020
-203.377	-24.602	-0.205	-0.121
-202.363	402.605	-0.107	-0.224
-201.348	52.250	-0.167	-0.158
-200.333	93.591	0.060	-0.068
-199.319	-16.203	-0.118	-0.074
-198.304	-49.301	-0.057	-0.027
-197.290	584.542	-0.021	0.050
-196.275	63.743	-0.051	0.051
-195.260	58.064	-0.047	0.045
-194.246	-110.882	0.186	-0.038
-193.231	-6.700	-0.094	0.063
-192.217	353.071	-0.155	-0.305
-191.202	-55.927	-0.212	-0.094
-190.187	-1.549	0.143	-0.100
-189.173	188.176	-0.045	0.066
-188.158	15.755	-0.091	-0.071
-187.144	210.744	0.263	-0.410
-186.129	-155.219	0.150	-0.010
-185.114	-105.731	-0.234	-0.053
-184.100	-146.893	0.108	-0.009
-183.085	-104.974	-0.130	0.029
-182.071	-170.136	-0.257	0.009
-181.056	-200.000	0.029	-0.170
-180.042	231.515	0.052	0.084
-179.027	-48.229	0.173	0.083
-178.012	108.711	0.263	-0.311
-176.998	40.722	0.168	-0.150
-175.983	-26.843	0.325	-0.188
-174.969	-93.806	0.468	-0.128
-173.954	-87.420	0.229	0.069
-172.939	4.152	-0.308	-0.224
-171.925	302.762	0.160	0.294
-170.910	328.232	-0.094	0.180
-169.896	-77.173	0.345	0.119
-168.881	-200.000	0.001	0.249
-167.866	-4.919	0.170	0.116
-166.852	-151.278	0.255	-0.019
-165.837	-11.302	0.126	0.082
-164.823	-62.332	-0.045	-0.019
-163.808	-123.657	-0.327	0.051
-162.793	-56.464	-0.370	0.163
-161.779	-167.403	-0.195	-0.008
-160.764	-110.590	0.270	0.055
-159.750	-200.000	0.023	0.153
-158.735	91.516	0.163	0.182
-157.720	27.368	0.136	-0.113
-156.706	-40.472	-0.217	-0.111
-155.691	143.684	-0.224	-0.296
-154.677	-200.000	-0.022	0.132
-153.662	-200.000	0.072	-0.319
-152.647	533.462	-0.086	-0.202
-151.633	-200.000	0.056	-0.255
-150.618	42.796	0.292	0.263
-149.604	-200.000	0.044	0.401
-148.589	-14.903	0.221	0.140
-147.574	-147.991	0.148	-0.012
-146.560	480.029	-0.116	-0.261
-145.545	-126.579	0.305	-0.045
-144.531	-200.000	0.002	-0.105
-143.516	-34.297	0.190	-0.103
-142.502	-79.568	-0.258	-0.086
-141.487	25.132	0.272	-0.224
-140.472	207.017	-0.136	-0.210
-139.458	800.000	0.092	0.263
-138.443	800.000	-0.052	0.204
-137.429	-181.699	-0.177	0.003
-136.414	111.733	-0.102	0.122
-135.399	-5.479	0.284	0.193
-134.385	-35.619	0.261	0.140
-133.370	-92.108	-0.279	0.078
-132.356	389.297	0.149	-0.305
-131.341	69.022	0.107	0.108
-130.326	202.041	0.209	0.318
-129.312	800.000	0.081	0.277
-128.297	-120.851	-0.158	0.026
-127.283	-148.098	0.275	0.023
-126.268	-101.535	0.164	-0.039
-125.253	-200.000	0.016	0.159
-124.239	-200.000	0.005	-0.305
-123.224	126.694	0.166	-0.207
-122.210	5.153	0.205	0.149
