DTS Sentinel unit serial number:	SN413079Multiplexer serial number:	ORYXHardware model number:	OX4-SRSoftware version number:	ORYX F/W v4.00 Oryx Data Collector v3.7.2.0data status	okinstallation	princeton_trtdifferential loss correction	single-endedforward channel	channel 3reverse channel	N/Adate	2019/09/18time	22:44:34forward acquisition time	60.00reverse acquisition time	0.00gamma	496.2192k internal	0.2345k external	0.2345temperature offset calibration	0.9992default loss term (dB/km)	0.3790temperature slope calibration	1.0000multiplexer offset coefficient	1.0000multiplexer slope coefficient	1.0000fibre end	0.00T internal ref (°C)	24.12T ext. ref 1 (°C)	0.79T ext. ref 2 (°C)	17.99length (m)	temperature (°C)	Stokes	anti-Stokes-747.200	-200.000	0.021	-0.194
-746.185	568.584	-0.081	-0.196
-745.171	-197.745	0.341	0.002
-744.156	318.019	-0.198	0.375
-743.142	81.297	0.142	0.154
-742.127	800.000	-0.092	0.268
-741.112	254.417	-0.080	0.137
-740.098	-62.429	0.092	-0.038
-739.083	-33.549	0.124	-0.069
-738.069	-74.805	0.228	-0.082
-737.054	-171.506	-0.272	-0.009
-736.039	-91.539	-0.509	-0.145
-735.025	-16.939	0.254	-0.161
-734.010	117.827	-0.081	-0.100
-732.996	800.000	0.017	-0.050
-731.981	39.734	-0.073	0.065
-730.966	346.007	-0.006	-0.012
-729.952	-200.000	0.011	-0.089
-728.937	-200.000	-0.001	-0.195
-727.923	800.000	0.086	-0.253
-726.908	-91.434	-0.210	-0.060
-725.894	414.270	0.047	0.100
-724.879	19.511	-0.034	-0.027
-723.864	198.000	-0.059	-0.090
-722.850	1.795	0.076	0.054
-721.835	102.879	-0.310	-0.362
-720.821	-171.411	-0.231	-0.008
-719.806	258.060	-0.075	0.130
-718.791	247.322	-0.052	-0.089
-717.777	-200.000	-0.003	-0.036
-716.762	640.550	0.170	-0.432
-715.748	-59.103	-0.185	0.080
-714.733	800.000	0.083	-0.230
-713.718	51.316	-0.145	-0.138
-712.704	800.000	0.009	0.029
-711.689	482.619	0.067	-0.152
-710.675	800.000	-0.069	-0.226
-709.660	381.998	-0.049	-0.101
-708.645	-116.517	-0.334	-0.062
-707.631	447.920	-0.113	-0.249
-706.616	-200.000	0.033	0.195
-705.602	-200.000	0.002	0.192
-704.587	-129.214	0.479	0.067
-703.572	-200.000	-0.057	-0.360
-702.558	38.393	0.088	-0.078
-701.543	-106.996	-0.244	-0.054
-700.529	49.987	-0.326	0.307
-699.514	78.330	-0.117	0.125
-698.499	494.549	0.114	-0.262
-697.485	-116.980	-0.230	0.042
-696.470	-17.670	0.062	-0.039
-695.456	585.558	-0.124	0.304
-694.441	-163.738	0.127	-0.006
-693.426	48.122	0.209	-0.195
-692.412	800.000	0.054	-0.187
-691.397	304.408	-0.114	-0.212
-690.383	501.250	0.123	0.284
-689.368	19.350	0.021	-0.016
-688.354	-103.652	-0.099	-0.023
-687.339	-23.398	-0.268	0.161
-686.324	53.425	0.160	-0.153
-685.310	11.894	-0.199	0.153
-684.295	713.247	-0.060	0.158
-683.281	800.000	0.033	-0.144
-682.266	800.000	0.024	-0.074
-681.251	251.486	-0.211	0.358
-680.237	-139.490	0.193	-0.021
-679.222	800.000	-0.057	-0.188
-678.208	67.802	-0.216	0.220
-677.193	-113.835	0.208	0.040
-676.178	88.808	-0.145	0.161
-675.164	800.000	-0.088	-0.259
-674.149	226.263	-0.232	0.375
-673.135	-200.000	0.012	0.351
-672.120	-96.828	-0.254	-0.066
-671.105	306.350	0.070	-0.131
-670.091	-66.840	0.352	0.139
-669.076	158.072	-0.171	0.237
-668.062	-156.506	0.399	-0.025
-667.047	74.331	0.162	0.169
-666.032	-36.049	-0.286	0.154
-665.018	800.000	-0.091	0.333
-664.003	82.914	-0.088	0.096
-662.989	-4.506	0.076	-0.052
-661.974	708.195	-0.093	0.245
-660.959	-200.000	-0.036	0.194
-659.945	800.000	0.079	0.236
-658.930	-7.830	-0.195	0.131
-657.916	800.000	0.023	0.069
-656.901	167.230	-0.064	-0.091
-655.886	-200.000	0.020	-0.295
-654.872	-64.047	0.169	-0.069
-653.857	-45.420	-0.099	-0.049
-652.843	60.517	-0.169	0.167
-651.828	-200.000	0.018	-0.086
-650.814	113.261	0.207	-0.251
-649.799	-200.000	-0.007	0.132
-648.784	7.139	-0.231	0.172
-647.770	324.914	-0.071	0.135
-646.755	110.033	0.118	0.141
-645.741	-122.877	-0.266	0.043
-644.726	-200.000	-0.012	0.398
-643.711	-22.557	0.322	0.194
-642.697	-200.000	0.015	0.145
-641.682	139.488	-0.178	0.234
-640.668	-92.812	-0.074	-0.021
-639.653	405.259	-0.161	-0.339
-638.638	-118.441	0.045	-0.008
-637.624	205.463	0.161	0.249
-636.609	32.712	-0.138	0.119
-635.595	-135.835	0.236	0.028
-634.580	72.021	-0.326	0.337
-633.565	158.321	0.114	0.157
-632.551	111.074	0.212	0.254
-631.536	-200.000	0.001	0.108
-630.522	472.464	-0.092	-0.207
-629.507	800.000	0.033	-0.117
-628.492	154.142	-0.078	-0.107
-627.478	170.723	-0.252	-0.360
-626.463	286.250	0.077	0.138
-625.449	70.414	0.170	0.175
-624.434	-200.000	0.003	0.044
-623.419	-200.000	0.009	-0.078
-622.405	-47.272	-0.225	0.109
-621.390	800.000	0.038	-0.162
-620.376	198.033	-0.177	-0.270
-619.361	-59.623	-0.210	0.090
-618.346	181.595	-0.322	0.471
-617.332	800.000	-0.102	0.381
-616.317	43.621	-0.334	0.305
-615.303	-19.201	0.265	-0.164
-614.288	315.333	-0.131	0.246
-613.273	800.000	-0.099	0.325
-612.259	-68.890	0.270	0.104
-611.244	669.215	-0.082	-0.211
-610.230	27.816	-0.029	-0.024
-609.215	117.230	0.151	-0.185
-608.201	800.000	0.064	-0.212
-607.186	21.150	-0.136	-0.110
-606.171	700.553	-0.075	0.195
-605.157	16.543	0.124	0.097
-604.142	154.457	-0.077	-0.105
-603.128	24.083	-0.322	-0.265
-602.113	239.581	-0.040	-0.066
-601.098	291.609	-0.136	0.246
-600.084	283.122	-0.173	0.309
-599.069	82.282	-0.295	0.318
-598.055	296.477	0.042	0.076
-597.040	-152.519	0.173	0.012
-596.025	78.098	0.343	-0.364
-595.011	-98.109	0.149	-0.038
-593.996	146.734	-0.146	-0.195
-592.982	-199.698	0.204	0.001
-591.967	-154.484	0.176	0.012
-590.952	-200.000	-0.000	-0.129
-589.938	-196.554	0.225	-0.002
-588.923	-123.588	0.323	-0.051
-587.909	543.954	0.149	0.355
-586.894	-20.522	-0.136	-0.083
-585.879	9.338	0.246	-0.185
-584.865	-200.000	-0.021	0.219
-583.850	-39.796	-0.294	0.153
-582.836	34.281	-0.082	-0.071
-581.821	-10.945	0.033	-0.021
-580.806	-200.000	-0.011	0.194
-579.792	50.357	0.085	0.080
-578.777	-200.000	-0.059	0.330
-577.763	-29.303	-0.032	-0.018
-576.748	12.086	0.175	0.134
-575.733	-200.000	0.018	0.236
-574.719	-200.000	-0.019	-0.145
-573.704	800.000	-0.104	0.333
-572.690	800.000	-0.039	0.141
-571.675	-200.000	0.039	-0.242
-570.661	39.708	0.351	-0.313
-569.646	-12.975	0.078	-0.050
-568.631	-136.986	0.336	-0.038
-567.617	-200.000	-0.022	0.142
-566.602	78.547	-0.207	0.220
-565.588	800.000	0.079	0.257
-564.573	124.657	0.063	-0.078
-563.558	-53.677	0.111	-0.050
-562.544	-116.004	-0.137	0.025
-561.529	-28.777	0.375	-0.214
-560.515	-200.000	-0.029	-0.254
-559.500	-25.482	-0.147	0.086
-558.485	-81.118	-0.047	-0.015
-557.471	-200.000	0.194	0.000
-556.456	209.165	-0.057	-0.089
-555.442	560.992	0.123	-0.296
-554.427	-82.643	-0.223	-0.072
-553.412	14.083	-0.276	0.214
-552.398	-200.000	0.015	0.211
-551.383	-200.000	-0.003	-0.238
-550.369	-120.099	-0.584	0.099
-549.354	-115.491	0.130	0.024
-548.339	-108.519	0.407	-0.087
-547.325	-55.973	0.109	-0.048
-546.310	42.650	0.207	-0.187
-545.296	41.538	-0.034	-0.031
-544.281	7.349	0.342	-0.253
-543.266	-200.000	0.050	-0.286
-542.252	-153.637	-0.117	0.008
-541.237	-100.274	-0.106	0.026
-540.223	94.843	-0.138	-0.156
-539.208	442.209	-0.113	-0.246
-538.193	800.000	-0.165	-0.463
-537.179	-83.480	-0.406	0.129
-536.164	-64.634	0.172	-0.069
-535.150	-168.239	-0.298	-0.011
-534.135	-99.426	-0.211	-0.053
-533.121	-36.285	-0.215	-0.115
-532.106	-200.000	0.034	0.275
-531.091	-131.745	-0.204	-0.027
-530.077	-200.000	0.029	-0.209
-529.062	-157.074	-0.421	0.025
-528.048	800.000	0.041	-0.151
-527.033	-200.000	-0.012	-0.135
-526.018	-92.837	0.102	-0.028
-525.004	-157.040	-0.331	-0.020
-523.989	-10.816	0.144	-0.095
-522.975	20.825	-0.283	0.227
-521.960	81.248	0.120	0.128
-520.945	124.035	0.158	0.196
-519.931	561.771	-0.030	0.073
-518.916	-144.310	0.366	0.034
-517.902	-64.500	-0.477	-0.192
-516.887	-154.667	0.189	0.012
-515.872	90.134	-0.174	0.193
-514.858	451.884	0.085	-0.187
-513.843	-104.520	0.243	-0.056
-512.829	-131.750	0.075	0.010
-511.814	-27.552	0.089	-0.051
-510.799	-200.000	-0.026	-0.336
-509.785	-87.038	0.190	0.057
-508.770	-58.885	0.044	0.019
-507.756	58.487	0.088	-0.086
-506.741	-154.798	-0.362	-0.024
-505.726	800.000	0.113	-0.358
-504.712	-102.072	0.210	0.050
-503.697	-118.492	-0.199	0.035
-502.683	42.884	-0.158	-0.143
-501.668	-6.856	0.195	-0.131
-500.653	4.226	-0.097	-0.070
-499.639	8.459	0.014	-0.011
-498.624	50.665	0.058	-0.055
-497.610	442.992	-0.032	-0.069
-496.595	-40.031	0.294	0.152
-495.581	429.455	0.127	-0.271
-494.566	-200.000	0.005	-0.074
-493.551	250.663	-0.123	0.207
-492.537	-180.700	0.204	0.004
-491.522	252.214	0.115	0.195
-490.508	800.000	-0.014	0.054
-489.493	-200.000	0.009	-0.083
-488.478	-74.024	0.178	-0.064
-487.464	-11.191	0.238	-0.155
-486.449	502.379	-0.049	0.112
-485.435	-200.000	0.027	-0.155
-484.420	-70.078	0.034	-0.013
-483.405	-167.525	0.176	-0.007
-482.391	18.402	-0.069	-0.055
-481.376	-150.641	-0.328	-0.025
-480.362	371.380	-0.116	0.233
-479.347	-200.000	-0.031	0.186
-478.332	567.519	0.138	-0.331
-477.318	-200.000	-0.042	0.295
-476.303	-33.300	-0.068	0.037
-475.289	-200.000	0.009	-0.074
-474.274	191.215	0.048	-0.072
-473.259	-26.538	0.114	0.066
-472.245	377.342	-0.055	-0.111
-471.230	-129.531	0.282	-0.039
-470.216	-86.682	0.230	-0.070
-469.201	93.929	0.253	0.284
-468.186	-200.000	-0.060	-0.283
-467.172	-43.482	-0.288	0.144
-466.157	800.000	0.104	-0.359
-465.143	-24.263	0.222	0.131
-464.128	272.656	-0.058	-0.102
-463.113	-105.905	0.171	0.038
-462.099	-70.716	0.305	0.114
-461.084	-37.885	0.230	-0.121
-460.070	-16.096	0.112	-0.071
-459.055	282.325	-0.093	0.165
-458.040	-75.360	-0.182	0.064
-457.026	-196.403	-0.331	-0.002
-456.011	627.156	-0.091	-0.227
-454.997	28.559	0.147	-0.123
-453.982	-102.447	-0.237	0.056
-452.968	593.707	-0.031	0.075
-451.953	324.470	-0.123	-0.232
-450.938	-124.502	-0.213	-0.033
-449.924	800.000	-0.036	0.116
-448.909	690.575	-0.127	0.329
-447.895	800.000	0.085	-0.236
-446.880	-39.934	-0.168	-0.086
-445.865	88.174	0.317	0.348
-444.851	65.411	-0.076	0.076
-443.836	-78.773	-0.213	0.072
-442.822	-91.273	0.349	-0.099
-441.807	-22.186	-0.308	-0.185
-440.792	-53.291	0.225	-0.102
-439.778	-200.000	0.008	0.097
-438.763	-3.341	0.021	0.015
-437.749	-75.408	0.474	-0.167
-436.734	-54.064	-0.196	0.088
-435.719	25.579	-0.166	-0.136
-434.705	88.732	0.246	-0.271
-433.690	342.175	-0.042	0.082
-432.676	53.141	0.087	0.082
-431.661	369.085	0.037	-0.074
-430.646	-145.246	0.129	-0.012
-429.632	54.341	-0.262	0.249
-428.617	800.000	-0.059	-0.173
-427.603	-159.763	0.201	0.011
-426.588	-3.587	-0.086	0.059
-425.573	-136.132	-0.279	-0.032
-424.559	303.768	-0.162	-0.298
-423.544	-45.684	-0.222	-0.108
-422.530	189.763	-0.226	-0.335
-421.515	-42.871	-0.206	-0.104
-420.500	-135.373	0.240	0.028
-419.486	-150.279	-0.218	-0.017
-418.471	-138.252	0.302	0.033
-417.457	328.485	-0.070	0.134
-416.442	55.532	-0.230	0.220
-415.428	-200.000	0.012	0.379
-414.413	381.166	0.221	0.448
-413.398	-39.168	0.151	-0.078
-412.384	310.217	-0.044	0.082
-411.369	2.835	0.034	0.024
-410.355	-24.226	0.168	0.099
-409.340	220.048	0.041	0.064
-408.325	-36.052	0.130	0.069
-407.311	-200.000	0.114	-0.595
-406.296	372.460	-0.090	0.181
-405.282	-170.067	0.284	-0.010
-404.267	-98.750	0.208	-0.052
-403.252	-69.744	0.126	0.048
-402.238	-32.873	-0.100	-0.055
-401.223	242.159	-0.113	-0.187
-400.209	-23.810	-0.281	-0.166
-399.194	800.000	-0.059	-0.180
-398.179	-145.132	0.010	-0.001
-397.165	-18.001	-0.044	-0.027
-396.150	48.084	0.265	-0.245
-395.136	-164.438	0.066	-0.003
-394.121	-105.436	0.125	0.028
-393.106	800.000	-0.019	0.079
-392.092	-51.883	0.033	0.015
-391.077	81.074	0.085	0.090
-390.063	-200.000	0.004	-0.040
-389.048	800.000	-0.051	-0.153
-388.033	-71.812	0.076	0.028
-387.019	-200.000	-0.009	-0.079
-386.004	-28.453	-0.346	0.197
-384.990	304.488	0.008	-0.015
-383.975	800.000	0.049	-0.141
-382.960	-156.896	0.142	0.009
-381.946	261.683	0.121	-0.207
-380.931	51.752	0.403	-0.378
-379.917	201.168	0.099	0.150
-378.902	52.944	0.151	-0.142
-377.888	-32.491	0.164	-0.090
-376.873	-84.901	-0.366	0.113
-375.858	158.634	-0.188	-0.257
-374.844	-110.377	0.296	-0.061
-373.829	28.161	0.160	-0.133
-372.815	85.372	0.103	0.111
-371.800	-57.372	0.276	-0.120
-370.785	-129.244	0.235	0.032
-369.771	-103.958	0.186	-0.043
-368.756	-124.405	-0.191	-0.029
-367.742	800.000	0.076	0.243
-366.727	101.116	-0.020	-0.023
-365.712	800.000	0.028	0.118
-364.698	-16.891	-0.117	0.073
-363.683	587.220	-0.208	0.505
-362.669	-74.655	-0.285	0.101
-361.654	519.220	-0.084	-0.194
-360.639	126.017	-0.223	0.278
-359.625	-200.000	-0.009	-0.191
-358.610	-86.913	0.012	0.004
-357.596	39.756	0.153	0.135
-356.581	-77.479	0.306	0.105
-355.566	164.792	-0.171	0.237
-354.552	259.603	0.032	-0.055
-353.537	800.000	0.080	-0.235
-352.523	800.000	-0.107	0.294
-351.508	800.000	-0.083	0.263
-350.493	95.588	-0.179	-0.202
-349.479	163.435	-0.266	-0.369
-348.464	-140.231	0.280	-0.029
-347.450	-200.000	-0.061	-0.372
-346.435	800.000	0.025	0.079
-345.420	-91.670	-0.129	-0.036
-344.406	-78.200	0.056	-0.019
-343.391	79.298	0.079	-0.083
-342.377	-23.433	0.127	-0.075
-341.362	-25.409	-0.200	-0.117
-340.348	-192.067	-0.232	0.002
-339.333	195.909	-0.077	-0.115
-338.318	340.436	0.086	0.165
-337.304	-48.233	-0.056	0.027
-336.289	-200.000	0.010	0.257
-335.275	-200.000	0.030	-0.304
-334.260	-200.000	0.022	0.118
-333.245	5.085	0.126	0.091
-332.231	229.814	-0.126	0.202
-331.216	207.125	0.077	-0.118
-330.202	233.862	0.102	-0.166
-329.187	-115.579	-0.244	0.045
-328.172	-43.511	-0.245	-0.122
-327.158	-200.000	-0.010	0.044
-326.143	57.718	-0.133	0.128
-325.129	-189.258	-0.192	-0.002
-324.114	-9.507	0.175	-0.115
-323.099	800.000	-0.091	0.375
-322.085	-93.104	-0.216	0.059
-321.070	-138.525	0.088	-0.009
-320.056	-63.157	0.129	-0.053
-319.041	-126.723	0.437	0.064
-318.026	-59.104	0.131	-0.055
-317.012	106.766	0.076	-0.089
-315.997	-128.298	0.519	0.073
-314.983	-27.067	0.149	-0.086
-313.968	-26.215	0.131	-0.076
-312.953	-172.516	-0.200	-0.006
-311.939	-102.199	-0.186	-0.044
-310.924	40.566	0.116	-0.103
-309.910	-200.000	0.068	-0.431
-308.895	176.661	0.124	-0.177
-307.880	0.694	-0.119	0.084
-306.866	-200.000	0.014	0.400
-305.851	492.929	-0.071	0.160
-304.837	-200.000	-0.009	-0.072
-303.822	172.486	-0.191	0.270
-302.807	-31.388	0.114	0.063
-301.793	42.981	0.199	-0.178
-300.778	-200.000	-0.010	-0.209
-299.764	24.683	-0.491	-0.400
-298.749	-140.413	-0.237	0.024
-297.735	-162.671	-0.454	0.022
-296.720	449.806	-0.070	-0.152
-295.705	-132.820	-0.076	-0.010
-294.691	800.000	0.079	0.312
-293.676	-41.682	-0.337	-0.170
-292.662	323.378	-0.079	0.147
-291.647	112.466	-0.136	0.162
-290.632	118.661	0.111	0.135
-289.618	-87.167	0.434	-0.130
-288.603	-112.775	0.119	0.023
-287.589	-133.124	-0.092	0.011
-286.574	-200.000	-0.018	0.117
-285.559	15.646	0.054	-0.042
-284.545	22.405	-0.093	-0.075
-283.530	628.772	0.083	0.205
-282.516	64.273	-0.245	0.242
-281.501	536.306	0.183	0.428
-280.486	-18.226	-0.217	0.133
-279.472	72.092	0.100	0.102
-278.457	120.309	0.114	0.139
-277.443	44.148	-0.121	0.109
-276.428	605.423	0.084	-0.206
-275.413	-200.000	0.002	-0.470
-274.399	-200.000	0.000	0.074
-273.384	144.681	0.200	0.263
-272.370	-64.377	-0.170	0.068
-271.355	-66.584	0.375	-0.146
-270.340	-76.604	-0.208	-0.072
-269.326	571.882	-0.083	-0.199
-268.311	-13.263	-0.324	0.206
-267.297	195.978	0.081	-0.121
-266.282	27.540	0.167	-0.138
-265.267	-10.472	-0.124	-0.080
-264.253	-200.000	-0.023	-0.121
-263.238	-114.159	-0.120	-0.023
-262.224	24.021	0.182	-0.147
-261.209	2.808	-0.164	0.117
-260.195	-86.419	-0.112	0.034
-259.180	800.000	-0.166	-0.487
-258.165	361.899	0.151	0.297
-257.151	-166.271	0.311	0.013
-256.136	205.776	-0.091	0.138
-255.122	-138.115	0.200	0.022
-254.107	-73.045	0.333	-0.120
-253.092	800.000	0.103	-0.406
-252.078	198.572	-0.032	0.048
-251.063	-200.000	-0.027	0.173
-250.049	32.545	-0.119	0.101
-249.034	-74.861	0.198	0.070
-248.019	195.803	-0.127	0.190
-247.005	-200.000	0.064	-0.390
-245.990	-152.718	0.136	0.009
-244.976	-71.717	-0.109	-0.040
-243.961	34.117	0.149	0.127
-242.946	-138.274	-0.451	-0.049
-241.932	-24.101	0.224	0.132
-240.917	-2.474	0.116	0.080
-239.903	-135.758	0.211	0.024
-238.888	-31.742	-0.240	0.132
-237.873	36.326	-0.166	0.144
-236.859	45.090	0.036	-0.033
-235.844	547.870	-0.114	-0.269
-234.830	79.411	0.139	-0.146
-233.815	315.554	-0.105	-0.194
-232.800	89.692	0.060	0.066
-231.786	614.290	0.019	-0.047
-230.771	78.088	-0.076	0.079
-229.757	-85.293	-0.156	0.048
-228.742	-170.683	0.069	0.002
-227.727	-200.000	-0.040	0.209
-226.713	-200.000	0.012	0.134
-225.698	-200.000	-0.001	-0.014
-224.684	-127.981	0.309	-0.043
-223.669	217.442	-0.079	-0.123
-222.655	145.634	-0.284	-0.373
-221.640	7.737	0.060	-0.044
-220.625	800.000	0.057	0.202
-219.611	150.352	-0.072	0.096
-218.596	-200.000	0.010	0.167
-217.582	-200.000	-0.063	-0.301
-216.567	-28.840	0.242	0.137
-215.552	800.000	-0.048	-0.161
-214.538	-58.993	0.117	-0.050
-213.523	-60.652	-0.232	-0.096
-212.509	-76.526	0.159	-0.055
-211.494	8.078	0.116	-0.085
-210.479	-200.000	-0.010	-0.285
-209.465	339.074	-0.048	0.091
-208.450	-107.403	0.167	0.036
-207.436	8.158	-0.232	0.171
-206.421	-169.810	0.072	-0.003
-205.406	-89.871	0.058	-0.017
-204.392	-0.268	-0.425	0.296
-203.377	-2.524	0.183	-0.125
-202.363	-20.844	0.061	-0.037
-201.348	313.872	0.188	0.347
-200.333	-47.384	0.063	0.030
-199.319	800.000	-0.101	-0.361
-198.304	-164.479	-0.223	-0.010
-197.290	-200.000	0.024	0.164
-196.275	-10.851	0.261	-0.169
-195.260	-117.220	-0.155	0.028
-194.246	300.193	-0.068	0.122
-193.231	478.104	-0.068	-0.151
-192.217	-134.767	0.197	0.023
-191.202	-166.103	0.061	-0.003
-190.187	-200.000	-0.007	0.121
-189.173	-200.000	0.016	0.320
-188.158	-115.348	0.142	-0.026
-187.144	-10.893	0.220	-0.143
-186.129	361.073	0.100	-0.196
-185.114	-38.078	-0.218	0.113
-184.100	-64.297	-0.162	-0.064
-183.085	120.648	-0.137	0.167
-182.071	17.687	0.068	0.053
-181.056	208.509	-0.063	-0.096
-180.042	-200.000	0.073	0.416
-179.027	180.099	-0.059	-0.085
-178.012	800.000	-0.036	0.115
-176.998	-140.132	-0.147	0.015
-175.983	-200.000	-0.058	0.303
-174.969	134.396	-0.124	-0.157
-173.954	800.000	-0.063	0.239
-172.939	413.233	0.071	0.147
-171.925	149.225	0.084	0.112
-170.910	149.224	-0.225	-0.298
-169.896	800.000	0.049	-0.212
-168.881	61.085	-0.096	0.094
-167.866	-54.412	-0.097	0.043
-166.852	800.000	0.125	-0.354
-165.837	37.418	0.189	-0.164
-164.823	135.252	-0.082	-0.104
-163.808	-69.589	0.279	-0.105
-162.793	-200.000	-0.013	0.169
-161.779	-200.000	0.028	0.227
-160.764	-8.046	0.276	0.182
-159.750	149.818	0.121	-0.160
-158.735	46.979	-0.237	0.215
-157.720	130.393	0.091	-0.114
-156.706	95.686	-0.161	-0.179
-155.691	800.000	-0.027	0.093
-154.677	-57.697	-0.208	0.089
-153.662	-86.352	-0.135	0.040
-152.647	-159.349	-0.109	-0.006
-151.633	292.539	0.142	0.253
-150.618	-86.490	-0.273	-0.082
-149.604	388.270	-0.180	-0.364
-148.589	109.014	0.141	-0.165
-147.574	-200.000	-0.008	0.342
-146.560	45.776	-0.230	0.208
-145.545	203.788	0.183	0.277
-144.531	55.807	0.192	-0.182
-143.516	-200.000	0.026	-0.366
-142.502	-200.000	-0.040	0.376
-141.487	-118.057	0.082	0.014
-140.472	256.029	0.044	0.073
-139.458	800.000	-0.079	-0.252
-138.443	-184.948	-0.250	-0.004
-137.429	800.000	-0.011	-0.034
-136.414	-200.000	-0.025	-0.200
-135.399	18.734	-0.278	0.217
-134.385	-34.004	0.283	0.152
-133.370	89.599	0.103	0.112
-132.356	-200.000	-0.023	0.318
-131.341	48.493	0.179	0.164
-130.326	-200.000	-0.069	0.531
-129.312	800.000	0.024	0.076
-128.297	161.532	-0.245	0.335
-127.283	-165.857	0.162	0.007
-126.268	8.354	0.077	-0.056
-125.253	504.937	0.145	0.327
-124.239	-200.000	0.002	-0.063
-123.224	576.856	0.088	0.209
-122.210	754.278	-0.188	0.497
-121.195	800.000	0.013	0.042
