DTS Sentinel unit serial number:	SN413079Multiplexer serial number:	ORYXHardware model number:	OX4-SRSoftware version number:	ORYX F/W v4.00 Oryx Data Collector v3.7.2.0data status	okinstallation	princeton_trtdifferential loss correction	single-endedforward channel	channel 3reverse channel	N/Adate	2019/09/12time	16:58:11forward acquisition time	60.00reverse acquisition time	0.00gamma	496.2192k internal	0.2311k external	0.2311temperature offset calibration	1.0087default loss term (dB/km)	0.3790temperature slope calibration	1.0000multiplexer offset coefficient	1.0000multiplexer slope coefficient	1.0000fibre end	0.00T internal ref (°C)	35.87T ext. ref 1 (°C)	2.81T ext. ref 2 (°C)	28.98length (m)	temperature (°C)	Stokes	anti-Stokes-747.200	0.268	0.059	0.043
-746.185	-200.000	0.026	0.333
-745.171	51.582	0.148	0.143
-744.156	-200.000	-0.030	0.513
-743.142	533.009	-0.117	0.281
-742.127	84.729	-0.068	0.076
-741.112	654.846	-0.118	0.308
-740.098	1.780	0.089	-0.065
-739.083	800.000	-0.082	-0.258
-738.069	-55.508	-0.184	0.084
-737.054	345.058	0.041	-0.082
-736.039	-52.917	0.175	0.082
-735.025	-200.000	0.020	0.142
-734.010	-110.788	0.155	0.033
-732.996	-200.000	0.029	0.170
-731.981	586.926	-0.041	0.103
-730.966	423.474	0.127	0.277
-729.952	165.851	0.138	0.197
-728.937	74.551	0.052	-0.056
-727.923	521.200	-0.090	0.215
-726.908	-145.624	-0.259	-0.023
-725.894	-68.788	-0.294	-0.115
-724.879	132.547	-0.058	0.076
-723.864	-87.958	-0.062	0.019
-722.850	49.008	-0.196	0.187
-721.835	-11.266	-0.079	0.053
-720.821	-200.000	0.031	-0.186
-719.806	-135.108	0.073	0.009
-718.791	800.000	-0.046	0.174
-717.777	-91.686	0.386	0.111
-716.762	800.000	-0.095	-0.360
-715.748	-107.195	-0.127	0.028
-714.733	52.051	0.094	-0.091
-713.718	-53.790	0.194	-0.090
-712.704	-90.370	0.148	-0.044
-711.689	94.440	0.154	-0.178
-710.675	200.302	0.117	0.182
-709.660	563.367	-0.104	-0.256
-708.645	-163.655	-0.221	-0.011
-707.631	-110.519	0.251	0.053
-706.616	56.348	-0.107	0.106
-705.602	-128.748	-0.336	-0.048
-704.587	800.000	-0.076	0.214
-703.572	800.000	0.042	0.176
-702.558	50.124	-0.147	0.141
-701.543	-131.077	0.290	-0.039
-700.529	-93.400	-0.448	-0.126
-699.514	-200.000	-0.022	0.182
-698.499	260.375	-0.183	-0.321
-697.485	-200.000	-0.025	-0.267
-696.470	-138.774	-0.267	-0.030
-695.456	-73.513	-0.149	-0.055
-694.441	252.576	0.063	0.109
-693.426	15.798	0.074	-0.059
-692.412	37.538	0.042	0.038
-691.397	-200.000	-0.044	0.255
-690.383	800.000	0.057	-0.211
-689.368	800.000	-0.070	-0.296
-688.354	-138.018	-0.316	-0.036
-687.339	247.855	-0.090	0.154
-686.324	33.417	-0.083	-0.073
-685.310	2.561	0.098	-0.072
-684.295	-102.883	-0.331	-0.080
-683.281	-200.000	-0.066	0.361
-682.266	-200.000	0.044	-0.258
-681.251	247.795	-0.128	-0.218
-680.237	86.575	-0.124	-0.139
-679.222	-21.919	-0.292	-0.180
-678.208	-60.689	0.245	-0.105
-677.193	-70.186	-0.175	-0.067
-676.178	-200.000	0.090	-0.434
-675.164	542.974	0.041	0.099
-674.149	-35.949	-0.139	-0.076
-673.135	-140.569	0.316	0.033
-672.120	98.285	0.081	0.094
-671.105	-139.460	0.696	0.075
-670.091	-137.907	0.142	-0.016
-669.076	13.415	-0.349	0.274
-668.062	257.009	-0.128	0.222
-667.047	-89.585	-0.087	-0.026
-666.032	107.661	0.193	0.232
-665.018	-61.887	-0.149	-0.063
-664.003	-200.000	0.034	0.167
-662.989	91.729	-0.141	0.161
-661.974	357.900	0.124	0.251
-660.959	8.166	0.256	-0.194
-659.945	47.038	-0.153	0.144
-658.930	-181.252	-0.304	0.006
-657.916	-5.705	-0.294	-0.204
-656.901	-200.000	-0.055	0.441
-655.886	-34.656	-0.064	0.035
-654.872	42.752	0.112	0.103
-653.857	-18.400	0.207	0.131
-652.843	-78.210	0.275	-0.096
-651.828	406.882	0.129	0.275
-650.814	-117.865	0.477	0.087
-649.799	-8.304	0.246	-0.167
-648.784	113.362	0.052	-0.064
-647.770	-148.631	0.092	0.008
-646.755	10.949	0.384	-0.297
-645.741	42.233	0.187	-0.172
-644.726	-95.397	0.215	-0.058
-643.711	-62.248	0.059	0.025
-642.697	800.000	-0.084	0.318
-641.682	117.170	0.197	0.244
-640.668	556.643	0.056	0.135
-639.653	-200.000	0.007	0.261
-638.638	225.178	0.082	0.134
-637.624	179.357	-0.178	0.264
-636.609	28.949	-0.080	-0.068
-635.595	-117.048	0.165	-0.030
-634.580	-27.793	0.148	-0.087
-633.565	212.408	0.053	-0.085
-632.551	800.000	0.060	-0.246
-631.536	-0.250	-0.178	-0.128
-630.522	-200.000	0.039	-0.305
-629.507	-77.437	-0.101	0.036
-628.492	-25.908	-0.393	0.234
-627.478	800.000	-0.018	0.069
-626.463	-9.214	-0.147	-0.099
-625.449	-100.447	-0.202	-0.051
-624.434	-10.746	0.268	-0.179
-623.419	-89.477	-0.057	0.017
-622.405	188.512	0.099	0.149
-621.390	84.308	0.193	0.213
-620.376	-148.957	0.119	-0.010
-619.361	-76.722	-0.206	-0.073
-618.346	-200.000	-0.006	0.228
-617.332	198.378	-0.130	0.200
-616.317	800.000	0.084	-0.276
-615.303	27.098	-0.125	-0.106
-614.288	-167.336	-0.208	0.008
-613.273	-51.047	-0.042	0.020
-612.259	105.434	-0.142	-0.170
-611.244	53.617	-0.100	0.097
-610.230	-38.295	0.354	0.189
-609.215	350.918	0.073	-0.146
-608.201	102.567	0.096	0.114
-607.186	-164.388	-0.308	0.014
-606.171	-22.188	-0.288	-0.176
-605.157	4.403	-0.109	-0.081
-604.142	-200.000	0.027	-0.138
-603.128	277.383	0.212	0.380
-602.113	-200.000	-0.010	0.146
-601.098	144.824	-0.105	0.142
-600.084	-129.335	0.235	0.033
-599.069	381.124	0.101	-0.210
-598.055	251.889	-0.100	0.171
-597.040	-72.318	0.289	0.108
-596.025	-200.000	-0.002	0.155
-595.011	-200.000	0.076	0.000
-593.996	33.988	-0.243	-0.213
-592.982	-200.000	-0.005	-0.037
-591.967	-48.848	-0.059	0.029
-590.952	-68.226	0.166	0.065
-589.938	-52.837	-0.247	0.115
-588.923	-200.000	-0.018	-0.170
-587.909	-99.417	0.201	0.051
-586.894	-98.831	0.074	-0.019
-585.879	-200.000	0.018	0.185
-584.865	-200.000	0.013	-0.160
-583.850	657.600	0.084	0.218
-582.836	-200.000	0.039	-0.302
-581.821	43.859	-0.394	0.364
-580.806	-36.319	-0.041	0.022
-579.792	302.655	0.086	-0.160
-578.777	327.372	-0.084	0.162
-577.763	-17.309	-0.240	-0.152
-576.748	-64.271	-0.088	0.036
-575.733	159.495	-0.147	0.206
-574.719	-117.800	0.085	-0.015
-573.704	734.851	-0.234	-0.631
-572.690	800.000	-0.115	0.411
-571.675	-61.107	-0.240	-0.102
-570.661	-37.286	-0.426	-0.230
-569.646	-121.775	-0.229	0.038
-568.631	-30.131	0.196	0.113
-567.617	-72.702	-0.255	0.095
-566.602	-156.509	0.231	0.015
-565.588	-60.572	-0.107	-0.046
-564.573	-124.579	0.069	-0.011
-563.558	134.336	-0.030	-0.039
-562.544	21.962	-0.410	-0.337
-561.529	100.363	-0.106	0.124
-560.515	-0.445	-0.225	-0.161
-559.500	231.717	-0.120	0.199
-558.485	355.506	-0.060	-0.121
-557.471	120.743	0.132	-0.165
-556.456	-8.488	0.184	-0.124
-555.442	-200.000	-0.006	-0.028
-554.427	82.327	0.079	-0.086
-553.412	-200.000	0.024	-0.242
-552.398	-200.000	-0.027	0.286
-551.383	-114.808	0.256	0.049
-550.369	572.172	-0.046	-0.112
-549.354	-39.782	0.189	-0.100
-548.339	-200.000	0.043	-0.373
-547.325	-142.911	0.070	0.007
-546.310	506.936	-0.110	-0.257
-545.296	-153.625	-0.130	0.009
-544.281	128.077	0.074	-0.095
-543.266	-40.070	0.073	-0.038
-542.252	-200.000	-0.002	-0.142
-541.237	-200.000	-0.006	-0.036
-540.223	537.394	-0.115	-0.274
-539.208	-200.000	-0.025	-0.228
-538.193	141.626	-0.063	-0.084
-537.179	-117.869	-0.101	0.018
-536.164	800.000	-0.030	0.107
-535.150	160.418	-0.116	0.163
-534.135	126.884	0.107	-0.137
-533.121	244.798	0.197	0.333
-532.106	-59.395	0.266	0.115
-531.091	-29.624	-0.060	0.034
-530.077	-91.472	-0.163	-0.047
-529.062	-10.219	-0.140	0.094
-528.048	-110.644	-0.166	-0.034
-527.033	4.649	0.268	-0.198
-526.018	800.000	-0.050	0.183
-525.004	-143.039	-0.188	0.018
-523.989	-61.352	0.216	-0.091
-522.975	124.946	-0.147	0.186
-521.960	-200.000	0.045	-0.209
-520.945	78.017	0.145	-0.156
-519.931	-200.000	-0.075	0.403
-518.916	186.182	0.199	0.298
-517.902	404.191	0.261	-0.553
-516.887	800.000	-0.042	-0.147
-515.872	-0.554	0.189	0.135
-514.858	530.218	-0.088	-0.209
-513.843	-200.000	-0.010	0.159
-512.829	555.975	-0.169	0.409
-511.814	-128.719	0.166	0.024
-510.799	-200.000	0.027	0.182
-509.785	-67.410	-0.251	0.099
-508.770	-135.772	0.227	0.027
-507.756	122.694	0.018	-0.022
-506.741	-45.429	0.191	0.095
-505.726	-200.000	0.013	0.335
-504.712	-200.000	0.029	-0.235
-503.697	-200.000	0.017	0.160
-502.683	-200.000	-0.027	0.166
-501.668	50.241	-0.134	-0.128
-500.653	-136.280	0.157	0.018
-499.639	-200.000	0.023	0.430
-498.624	317.902	0.084	0.159
-497.610	-1.518	-0.310	-0.220
-496.595	-166.509	0.421	-0.018
-495.581	-35.414	-0.291	-0.159
-494.566	-115.350	-0.235	-0.045
-493.551	141.012	0.134	0.179
-492.537	515.017	-0.072	0.169
-491.522	298.944	0.220	0.406
-490.508	-200.000	-0.004	-0.172
-489.493	800.000	-0.069	-0.251
-488.478	-113.429	-0.120	0.024
-487.464	-168.992	0.246	-0.009
-486.449	-117.245	0.086	0.016
-485.435	24.362	0.251	0.208
-484.420	800.000	0.087	0.312
-483.405	-200.000	0.002	0.069
-482.391	-200.000	-0.031	-0.161
-481.376	800.000	-0.035	-0.148
-480.362	260.490	0.151	-0.262
-479.347	33.558	-0.014	-0.013
-478.332	-44.177	-0.114	-0.058
-477.318	-157.768	0.211	0.013
-476.303	132.642	-0.055	-0.072
-475.289	15.818	-0.261	-0.206
-474.274	-46.502	0.119	-0.059
-473.259	-95.944	0.060	0.016
-472.245	-56.653	-0.215	0.096
-471.230	-165.871	-0.311	-0.013
-470.216	-200.000	0.014	0.166
-469.201	800.000	0.025	-0.078
-468.186	349.259	0.083	0.166
-467.172	793.220	-0.074	0.204
-466.157	-200.000	0.034	-0.207
-465.143	60.921	0.217	-0.216
-464.128	800.000	0.041	0.162
-463.113	-40.016	-0.207	-0.108
-462.099	-122.841	-0.347	-0.056
-461.084	800.000	0.047	0.135
-460.070	-200.000	0.019	0.225
-459.055	83.143	0.202	0.221
-458.040	-67.935	-0.123	-0.048
-457.026	-200.000	-0.004	0.320
-456.011	800.000	-0.035	0.136
-454.997	123.741	0.052	-0.066
-453.982	-71.801	0.098	-0.037
-452.968	723.771	-0.077	0.206
-451.953	-73.795	-0.295	0.107
-450.938	95.904	0.152	-0.174
-449.924	-200.000	-0.009	-0.250
-448.909	-200.000	0.060	-0.320
-447.895	4.900	0.134	-0.099
-446.880	32.701	-0.120	0.104
-445.865	-189.644	0.128	0.001
-444.851	800.000	-0.068	-0.224
-443.836	-200.000	0.274	-0.000
-442.822	-8.936	0.257	-0.173
-441.807	-95.261	0.209	-0.057
-440.792	565.414	-0.100	0.243
-439.778	617.258	0.131	0.329
-438.763	-2.468	0.304	0.213
-437.749	800.000	-0.077	-0.247
-436.734	-127.382	-0.243	-0.036
-435.719	56.847	0.073	0.072
-434.705	-118.852	-0.274	-0.048
-433.690	-115.710	0.233	-0.044
-432.676	-200.000	0.035	0.260
-431.661	-71.225	-0.220	0.083
-430.646	-118.872	-0.269	-0.047
-429.632	113.723	0.123	0.150
-428.617	-0.764	0.281	-0.200
-427.603	138.566	-0.167	0.220
-426.588	-64.100	0.067	-0.027
-425.573	4.617	-0.172	0.127
-424.559	431.015	-0.096	-0.207
-423.544	-109.608	-0.081	0.017
-422.530	-74.968	-0.218	-0.078
-421.515	115.899	0.209	0.256
-420.500	234.682	0.184	0.304
-419.486	-200.000	0.003	0.110
-418.471	27.267	-0.121	0.102
-417.457	507.247	-0.088	-0.205
-416.442	-200.000	0.014	0.076
-415.428	-105.564	-0.472	-0.107
-414.413	470.099	0.140	-0.315
-413.398	-200.000	-0.058	0.273
-412.384	687.707	0.032	0.084
-411.369	-75.858	-0.101	-0.036
-410.355	800.000	-0.001	0.003
-409.340	-200.000	-0.010	-0.060
-408.325	663.726	0.091	0.236
-407.311	-200.000	0.018	0.222
-406.296	47.749	0.052	0.049
-405.282	-57.689	0.118	0.052
-404.267	-200.000	0.000	-0.251
-403.252	-200.000	-0.010	0.118
-402.238	-121.709	-0.043	0.007
-401.223	360.653	-0.039	-0.077
-400.209	800.000	-0.068	0.189
-399.194	-200.000	-0.004	0.164
-398.179	-200.000	0.031	-0.207
-397.165	551.227	0.194	-0.465
-396.150	-61.462	-0.103	-0.044
-395.136	-200.000	0.003	0.040
-394.121	-153.317	0.487	0.034
-393.106	800.000	0.020	0.073
-392.092	20.990	0.172	-0.139
-391.077	-200.000	0.004	-0.225
-390.063	109.826	0.121	0.145
-389.048	-160.008	-0.421	0.023
-388.033	-200.000	-0.001	0.087
-387.019	643.073	0.062	-0.157
-386.004	-28.338	-0.254	-0.147
-384.990	-200.000	-0.060	0.269
-383.975	52.247	-0.240	-0.229
-382.960	46.380	-0.293	-0.272
-381.946	3.041	0.100	0.072
-380.931	-200.000	-0.002	-0.214
-379.917	-16.541	-0.132	0.084
-378.902	96.918	-0.345	-0.396
-377.888	-11.179	0.419	-0.276
-376.873	28.106	0.314	0.265
-375.858	519.796	0.051	0.121
-374.844	46.531	0.130	-0.120
-373.829	-1.147	0.022	0.016
-372.815	-200.000	0.001	0.174
-371.800	103.181	-0.088	-0.104
-370.785	800.000	0.087	0.342
-369.771	-41.162	0.246	0.127
-368.756	-66.215	-0.209	0.083
-367.742	-38.169	0.353	0.187
-366.727	-59.158	0.212	0.091
-365.712	242.368	-0.218	-0.365
-364.698	70.929	0.068	0.071
-363.683	-200.000	0.023	0.189
-362.669	681.007	-0.098	-0.254
-361.654	-55.757	0.049	0.022
-360.639	20.226	-0.243	-0.196
-359.625	-200.000	0.070	-0.334
-358.610	800.000	-0.025	0.084
-357.596	203.386	-0.121	-0.187
-356.581	-7.056	0.201	-0.137
-355.566	-40.063	-0.350	0.182
-354.552	15.094	-0.189	0.148
-353.537	296.431	0.064	-0.117
-352.523	-55.623	0.077	0.034
-351.508	-200.000	0.037	-0.396
-350.493	-106.626	-0.179	0.040
-349.479	-36.732	0.246	-0.132
-348.464	121.025	0.124	-0.154
-347.450	800.000	-0.064	0.232
-346.435	-200.000	-0.004	0.241
-345.420	-167.759	0.091	-0.004
-344.406	-104.258	0.112	0.026
-343.391	269.452	-0.214	0.375
-342.377	-200.000	-0.003	0.133
-341.362	-200.000	0.003	-0.033
-340.348	-200.000	-0.015	0.094
-339.333	-24.146	0.149	-0.089
-338.318	800.000	0.038	-0.151
-337.304	800.000	-0.122	-0.388
-336.289	-66.799	0.187	-0.074
-335.275	449.301	0.143	0.315
-334.260	-162.518	-0.256	-0.013
-333.245	214.304	0.146	-0.231
-332.231	757.831	0.159	0.429
-331.216	84.700	-0.161	-0.176
-330.202	800.000	-0.061	0.195
-329.187	-200.000	0.021	0.266
-328.172	216.191	0.201	-0.319
-327.158	-16.883	-0.167	0.105
-326.143	-74.798	-0.134	-0.048
-325.129	-22.784	0.179	-0.108
-324.114	428.811	0.110	-0.238
-323.099	800.000	-0.021	-0.066
-322.085	-164.547	-0.236	0.011
-321.070	-57.513	0.330	-0.145
-320.056	-93.478	0.245	-0.068
-319.041	34.722	0.163	-0.142
-318.026	29.929	0.121	0.103
-317.012	139.757	-0.086	0.114
-315.997	-7.261	0.320	0.216
-314.983	107.033	-0.178	0.211
-313.968	-12.145	-0.170	-0.111
-312.953	-125.753	-0.044	-0.007
-311.939	54.248	0.429	-0.413
-310.924	-200.000	0.033	-0.173
-309.910	15.774	0.167	0.131
-308.895	189.408	0.043	-0.064
-307.880	800.000	-0.040	-0.139
-306.866	243.816	-0.058	-0.098
-305.851	326.747	0.087	0.167
-304.837	-200.000	-0.005	-0.268
-303.822	800.000	-0.139	0.393
-302.807	233.030	0.145	0.237
-301.793	-200.000	0.008	-0.126
-300.778	-59.901	-0.304	-0.130
-299.764	-120.596	0.451	0.076
-298.749	187.381	-0.070	-0.104
-297.735	43.416	-0.021	-0.019
-296.720	193.901	0.095	0.144
-295.705	4.686	-0.090	-0.066
-294.691	764.663	0.072	0.195
-293.676	-200.000	-0.063	-0.338
-292.662	800.000	-0.026	-0.082
-291.647	-27.686	0.315	0.182
-290.632	-114.597	-0.099	0.019
-289.618	91.951	0.233	-0.262
-288.603	-184.824	0.167	0.003
-287.589	68.853	-0.045	-0.046
-286.574	54.346	-0.162	-0.155
-285.559	16.432	-0.339	-0.267
-284.545	261.524	0.034	0.059
-283.530	461.019	-0.075	0.167
-282.516	-200.000	-0.007	0.045
-281.501	-14.767	0.171	0.110
-280.486	72.730	-0.155	0.161
-279.472	183.050	-0.144	0.212
-278.457	208.700	-0.055	0.086
-277.443	-60.882	-0.099	-0.042
-276.428	-39.360	-0.198	0.103
-275.413	-200.000	-0.008	0.413
-274.399	-38.836	0.164	0.086
-273.384	-117.688	0.310	0.056
-272.370	-170.348	-0.115	-0.004
-271.355	61.035	0.226	0.224
-270.340	70.345	0.086	0.088
-269.326	-0.348	-0.033	-0.023
-268.311	800.000	0.074	-0.284
-267.297	800.000	0.026	0.084
-266.282	-125.241	-0.312	0.048
-265.267	-200.000	0.028	0.143
-264.253	-92.407	0.237	0.066
-263.238	76.202	-0.125	-0.132
-262.224	-49.835	0.427	-0.202
-261.209	16.734	-0.059	-0.047
-260.195	-89.395	-0.117	-0.034
-259.180	5.661	0.162	0.120
-258.165	-200.000	0.034	0.302
-257.151	-113.105	0.156	-0.031
-256.136	-200.000	-0.003	0.040
-255.122	30.745	-0.119	-0.101
-254.107	233.482	0.123	0.202
-253.092	-48.745	0.137	-0.065
-252.078	-200.000	0.017	0.079
-251.063	-43.629	-0.108	0.054
-250.049	-50.137	0.149	-0.070
-249.034	-137.657	0.082	0.009
-248.019	-86.571	-0.155	-0.047
-247.005	-93.770	-0.134	0.037
-245.990	800.000	-0.048	0.179
-244.976	-200.000	0.015	-0.357
-243.961	63.955	0.178	0.178
-242.946	-200.000	0.003	0.089
-241.932	-200.000	-0.003	0.041
-240.917	194.140	0.046	-0.069
-239.903	266.197	0.090	0.157
-238.888	-40.740	0.316	0.163
-237.873	800.000	0.105	0.319
-236.859	-200.000	0.026	0.203
-235.844	48.847	-0.281	-0.263
-234.830	16.673	0.271	-0.213
-233.815	275.854	-0.178	0.314
-232.800	145.339	-0.123	-0.164
-231.786	-200.000	0.090	-0.654
-230.771	-200.000	-0.009	-0.149
-229.757	52.486	-0.328	0.312
-228.742	42.882	0.125	0.113
-227.727	-21.056	-0.105	0.064
-226.713	-142.123	-0.263	-0.026
-225.698	-106.277	-0.116	0.026
-224.684	611.934	-0.028	-0.071
-223.669	-95.005	0.164	0.044
-222.655	228.581	0.156	-0.253
-221.640	-90.144	-0.146	-0.042
-220.625	800.000	-0.053	-0.191
-219.611	-28.172	0.260	-0.150
-218.596	-118.638	0.165	0.029
-217.582	238.579	0.068	0.113
-216.567	733.456	0.116	0.310
-215.552	2.586	0.151	0.109
-214.538	106.976	0.053	-0.063
-213.523	-114.850	-0.150	-0.028
-212.509	66.752	-0.425	-0.430
-211.494	-200.000	-0.014	0.106
-210.479	-135.009	-0.207	0.025
-209.465	-200.000	0.010	0.064
-208.450	-200.000	0.027	0.279
-207.436	-144.166	0.107	0.010
-206.421	-200.000	0.052	-0.230
-205.406	268.954	-0.128	0.224
-204.392	800.000	0.074	0.307
-203.377	-10.324	0.212	-0.140
-202.363	-200.000	-0.007	-0.070
-201.348	44.160	-0.083	-0.075
-200.333	130.717	-0.159	-0.203
-199.319	-200.000	0.028	-0.256
-198.304	-81.288	-0.098	0.032
-197.290	228.531	-0.060	-0.098
-196.275	-200.000	-0.010	-0.435
-195.260	-15.171	-0.388	-0.247
-194.246	-137.680	-0.013	-0.001
-193.231	169.272	-0.063	0.090
-192.217	20.444	0.099	0.080
-191.202	-200.000	0.047	0.213
-190.187	-131.048	-0.275	0.036
-189.173	160.822	-0.024	-0.033
-188.158	-57.166	0.102	-0.045
-187.144	-29.066	0.288	-0.164
-186.129	-200.000	0.051	-0.235
-185.114	39.849	0.125	-0.112
-184.100	21.223	-0.146	0.117
-183.085	2.486	0.076	-0.055
-182.071	-67.656	-0.190	0.074
-181.056	119.168	0.129	-0.159
-180.042	128.041	0.049	0.062
-179.027	73.615	-0.183	-0.191
-178.012	123.851	-0.358	-0.446
-176.998	-86.563	-0.249	0.076
-175.983	7.017	0.148	0.110
-174.969	-73.707	-0.138	-0.050
-173.954	-13.668	-0.373	-0.240
-172.939	165.062	-0.135	0.190
-171.925	181.754	-0.162	-0.236
-170.910	-200.000	0.033	0.265
-169.896	-20.805	-0.051	-0.031
-168.881	260.351	0.136	0.234
-167.866	-120.679	-0.171	-0.029
-166.852	80.715	-0.076	-0.081
-165.837	575.837	0.092	-0.222
-164.823	-66.954	-0.295	-0.116
-163.808	162.086	0.122	0.169
-162.793	63.870	-0.214	0.214
-161.779	-200.000	0.047	-0.294
-160.764	325.615	0.017	-0.033
-159.750	-7.777	-0.147	0.099
-158.735	90.998	-0.161	0.179
-157.720	-200.000	-0.007	0.080
-156.706	-101.561	0.217	-0.052
-155.691	59.793	0.096	0.094
-154.677	80.259	0.071	0.076
-153.662	4.364	0.364	0.265
-152.647	-65.974	-0.260	0.103
-151.633	-200.000	-0.011	-0.069
-150.618	800.000	0.053	-0.207
-149.604	301.124	0.114	0.210
-148.589	-82.713	0.149	0.048
-147.574	41.048	0.055	-0.049
-146.560	-200.000	0.005	0.175
-145.545	158.198	0.115	-0.158
-144.531	161.616	-0.093	-0.130
-143.516	18.697	-0.087	-0.069
-142.502	56.050	0.169	0.163
-141.487	-71.593	-0.329	-0.122
-140.472	308.166	0.065	0.120
-139.458	-125.167	-0.327	0.050
-138.443	-120.857	-0.112	-0.019
-137.429	541.374	-0.082	-0.194
-136.414	-33.103	-0.046	-0.025
-135.399	67.552	-0.219	-0.222
-134.385	638.202	-0.128	0.322
-133.370	-1.401	-0.368	0.257
-132.356	307.143	-0.183	0.339
-131.341	-200.000	-0.031	-0.454
-130.326	129.060	0.076	-0.096
-129.312	-46.859	0.422	-0.205
-128.297	-164.639	-0.189	-0.008
-127.283	-200.000	0.014	-0.163
-126.268	-200.000	-0.051	-0.349
-125.253	333.279	0.079	-0.151
-124.239	348.058	-0.069	-0.135
-123.224	277.158	-0.115	0.203
-122.210	800.000	-0.074	-0.205
-121.195	25.256	0.100	-0.082
