DTS Sentinel unit serial number:	SN413079Multiplexer serial number:	ORYXHardware model number:	OX4-SRSoftware version number:	ORYX F/W v4.00 Oryx Data Collector v3.7.2.0data status	okinstallation	princeton_trtdifferential loss correction	single-endedforward channel	channel 3reverse channel	N/Adate	2019/09/16time	16:36:35forward acquisition time	60.00reverse acquisition time	0.00gamma	496.2192k internal	0.2295k external	0.2295temperature offset calibration	0.9944default loss term (dB/km)	0.3790temperature slope calibration	1.0000multiplexer offset coefficient	1.0000multiplexer slope coefficient	1.0000fibre end	0.00T internal ref (°C)	40.00T ext. ref 1 (°C)	15.13T ext. ref 2 (°C)	33.76length (m)	temperature (°C)	Stokes	anti-Stokes-747.200	174.288	-0.222	0.327
-746.185	-200.000	-0.047	0.248
-745.171	67.097	-0.077	0.080
-744.156	262.223	0.101	0.180
-743.142	-59.688	0.172	0.075
-742.127	-200.000	-0.006	0.345
-741.112	-94.694	0.037	-0.010
-740.098	774.956	-0.115	0.322
-739.083	-128.076	0.060	0.009
-738.069	626.045	-0.111	0.287
-737.054	200.898	-0.196	-0.308
-736.039	-200.000	-0.023	-0.176
-735.025	172.425	0.087	0.129
-734.010	-38.492	0.184	0.099
-732.996	370.214	-0.093	-0.193
-731.981	-131.691	-0.509	-0.068
-730.966	33.007	0.082	-0.073
-729.952	107.090	0.393	0.477
-728.937	-7.106	-0.120	-0.083
-727.923	158.720	0.247	-0.350
-726.908	37.978	0.086	0.078
-725.894	-64.899	-0.299	0.123
-724.879	178.456	0.170	0.253
-723.864	-200.000	0.032	-0.261
-722.850	127.090	-0.114	-0.148
-721.835	-91.983	0.092	0.027
-720.821	-49.145	-0.121	0.059
-719.806	-113.723	0.152	-0.030
-718.791	128.967	0.111	0.145
-717.777	12.954	0.150	0.118
-716.762	-117.298	-0.128	0.024
-715.748	800.000	-0.031	-0.089
-714.733	99.367	0.249	0.294
-713.718	3.781	-0.217	0.162
-712.704	-74.479	-0.230	-0.085
-711.689	800.000	0.079	0.226
-710.675	-200.000	0.028	-0.237
-709.660	-43.893	-0.089	-0.046
-708.645	187.368	-0.200	-0.304
-707.631	-159.373	0.166	0.009
-706.616	21.191	0.199	-0.165
-705.602	412.046	-0.143	0.311
-704.587	-21.515	0.428	-0.266
-703.572	130.885	0.092	-0.120
-702.558	-200.000	-0.043	-0.484
-701.543	329.644	0.134	0.262
-700.529	145.881	0.237	-0.324
-699.514	518.740	0.085	-0.204
-698.499	-156.941	0.239	-0.015
-697.485	-200.000	0.037	-0.203
-696.470	-200.000	0.011	-0.295
-695.456	-1.207	-0.089	-0.064
-694.441	-95.520	0.100	-0.027
-693.426	655.645	-0.078	0.204
-692.412	-200.000	0.044	-0.291
-691.397	-200.000	-0.014	-0.203
-690.383	-154.085	-0.144	0.010
-689.368	183.096	-0.298	-0.449
-688.354	-200.000	0.024	-0.213
-687.339	-105.697	0.179	-0.041
-686.324	343.517	0.097	-0.193
-685.310	-84.177	-0.261	0.084
-684.295	-200.000	0.075	-0.391
-683.281	-88.269	-0.209	0.064
-682.266	449.286	-0.081	-0.182
-681.251	-47.985	-0.118	-0.058
-680.237	800.000	-0.080	0.306
-679.222	-200.000	0.017	-0.163
-678.208	-0.945	0.103	0.074
-677.193	-103.635	-0.205	-0.049
-676.178	595.148	0.090	0.227
-675.164	410.031	-0.051	0.110
-674.149	644.898	-0.137	-0.356
-673.135	-92.354	0.239	0.069
-672.120	800.000	-0.056	-0.202
-671.105	-32.741	-0.039	0.022
-670.091	692.759	0.074	-0.198
-669.076	371.701	0.065	-0.134
-668.062	232.228	-0.169	-0.283
-667.047	12.817	0.407	0.320
-666.032	-200.000	0.018	-0.101
-665.018	-200.000	0.036	-0.210
-664.003	20.166	-0.020	0.016
-662.989	344.772	-0.111	0.222
-661.974	-136.048	-0.064	-0.008
-660.959	-131.574	-0.098	0.013
-659.945	290.749	0.106	-0.196
-658.930	-113.822	0.179	-0.035
-657.916	-200.000	-0.025	-0.254
-656.901	-197.835	-0.412	-0.003
-655.886	405.476	-0.104	0.223
-654.872	-135.500	-0.247	0.030
-653.857	-176.504	0.047	0.001
-652.843	800.000	-0.125	-0.400
-651.828	216.850	-0.292	-0.473
-650.814	-42.167	0.097	-0.050
-649.799	357.574	0.046	0.093
-648.784	-200.000	0.011	-0.213
-647.770	403.573	-0.017	0.037
-646.755	-50.773	-0.199	0.095
-645.741	24.217	-0.188	-0.158
-644.726	91.315	-0.228	-0.260
-643.711	-200.000	-0.053	0.500
-642.697	-11.397	0.354	0.237
-641.682	-89.045	-0.138	-0.042
-640.668	800.000	0.106	-0.302
-639.653	-68.963	-0.290	-0.114
-638.638	800.000	-0.059	0.195
-637.624	800.000	-0.196	0.594
-636.609	189.913	0.094	0.143
-635.595	-20.681	-0.139	-0.087
-634.580	107.113	-0.128	-0.154
-633.565	-200.000	0.017	-0.149
-632.551	-174.723	0.406	0.012
-631.536	-108.648	-0.079	0.017
-630.522	-102.272	-0.143	-0.035
-629.507	66.157	0.261	0.270
-628.492	800.000	-0.032	-0.092
-627.478	-109.531	-0.090	0.019
-626.463	23.053	-0.094	0.079
-625.449	-161.320	0.170	0.009
-624.434	-112.331	0.326	-0.066
-623.419	-200.000	0.011	-0.124
-622.405	-104.542	-0.090	-0.021
-621.390	96.862	-0.140	-0.164
-620.376	800.000	0.054	-0.208
-619.361	40.112	-0.070	0.064
-618.346	-47.069	-0.305	-0.151
-617.332	15.201	0.156	-0.124
-616.317	800.000	0.098	-0.345
-615.303	-200.000	-0.031	-0.155
-614.288	80.727	0.051	-0.056
-613.273	-200.000	0.067	0.302
-612.259	144.998	-0.077	-0.104
-611.244	-24.647	-0.277	-0.167
-610.230	800.000	0.064	0.183
-609.215	-118.787	-0.193	0.035
-608.201	-200.000	-0.020	0.457
-607.186	-31.229	0.156	-0.089
-606.171	-200.000	-0.008	0.151
-605.157	104.008	-0.210	-0.251
-604.142	-200.000	0.012	0.258
-603.128	283.673	-0.222	0.406
-602.113	-129.758	-0.104	0.015
-601.098	-107.380	0.023	-0.005
-600.084	-200.000	-0.030	0.344
-599.069	127.310	0.095	0.122
-598.055	-16.048	0.073	-0.047
-597.040	800.000	0.050	0.211
-596.025	-200.000	-0.081	-0.455
-595.011	53.812	-0.250	-0.244
-593.996	190.281	0.124	-0.190
-592.982	90.177	0.191	-0.217
-591.967	500.714	0.119	-0.278
-590.952	-58.400	0.212	-0.094
-589.938	-130.420	-0.127	0.017
-588.923	-200.000	-0.016	0.262
-587.909	108.595	0.098	0.119
-586.894	800.000	0.045	-0.152
-585.879	8.045	0.186	0.142
-584.865	-50.339	-0.139	-0.067
-583.850	-12.393	-0.130	-0.086
-582.836	-141.545	0.095	-0.010
-581.821	-28.464	-0.372	0.218
-580.806	115.632	0.110	0.137
-579.792	49.151	0.062	0.059
-578.777	239.618	-0.058	-0.098
-577.763	799.654	0.106	-0.296
-576.748	7.832	-0.235	-0.179
-575.733	-120.732	0.134	0.023
-574.719	670.512	0.059	-0.156
-573.704	-42.869	-0.174	0.090
-572.690	169.760	-0.164	-0.238
-571.675	101.842	-0.179	-0.212
-570.661	-200.000	0.008	-0.187
-569.646	294.788	0.027	-0.050
-568.631	-200.000	-0.087	-0.417
-567.617	-92.422	-0.069	-0.020
-566.602	762.287	0.039	-0.107
-565.588	-200.000	0.000	0.108
-564.573	103.194	-0.025	0.030
-563.558	150.339	-0.039	0.054
-562.544	-200.000	-0.022	-0.109
-561.529	-2.782	0.220	-0.156
-560.515	-163.464	0.076	-0.004
-559.500	-33.083	-0.082	-0.046
-558.485	511.430	-0.097	-0.228
-557.471	258.502	-0.143	0.250
-556.456	-124.150	0.265	0.042
-555.442	800.000	0.084	0.289
-554.427	-17.257	0.039	0.025
-553.412	-200.000	-0.076	-0.341
-552.398	-200.000	-0.057	-0.268
-551.383	-40.899	0.152	0.080
-550.369	-85.786	-0.170	0.054
-549.354	14.483	0.153	-0.121
-548.339	184.793	-0.064	0.096
-547.325	73.481	0.115	-0.122
-546.310	-200.000	-0.048	0.469
-545.296	-51.410	0.133	0.063
-544.281	92.644	0.129	-0.147
-543.266	329.655	-0.179	0.349
-542.252	-167.592	-0.075	0.003
-541.237	800.000	0.036	0.102
-540.223	-200.000	0.000	-0.080
-539.208	174.547	-0.209	-0.306
-538.193	308.320	-0.051	0.097
-537.179	-93.275	-0.273	-0.077
-536.164	-104.116	-0.205	-0.048
-535.150	-141.137	0.180	0.019
-534.135	210.838	0.168	-0.267
-533.121	800.000	0.067	-0.266
-532.106	135.729	0.191	0.252
-531.091	-200.000	0.025	-0.178
-530.077	-137.510	0.150	-0.017
-529.062	-200.000	-0.003	-0.031
-528.048	-100.645	-0.193	-0.048
-527.033	160.715	0.173	0.245
-526.018	-67.231	0.279	0.111
-525.004	199.180	-0.126	0.195
-523.989	800.000	-0.045	-0.151
-522.975	609.305	0.234	0.593
-521.960	27.544	0.171	-0.145
-520.945	800.000	-0.025	-0.102
-519.931	-131.643	0.304	-0.040
-518.916	-200.000	0.002	0.162
-517.902	412.742	0.097	-0.208
-516.887	24.951	-0.072	0.060
-515.872	-96.697	-0.139	0.037
-514.858	-200.000	0.049	0.367
-513.843	294.202	-0.238	-0.440
-512.829	-156.578	0.307	0.019
-511.814	33.078	0.212	-0.186
-510.799	45.118	0.143	0.134
-509.785	-10.644	-0.200	0.134
-508.770	-200.000	-0.007	0.079
-507.756	800.000	0.085	0.267
-506.741	781.397	0.072	-0.199
-505.726	-47.645	-0.377	-0.185
-504.712	-144.718	0.282	-0.026
-503.697	42.923	-0.217	0.200
-502.683	-37.796	-0.161	0.086
-501.668	101.129	-0.118	-0.139
-500.653	-61.101	-0.241	0.103
-499.639	37.098	-0.106	0.095
-498.624	-200.000	0.028	-0.245
-497.610	800.000	0.055	-0.181
-496.595	22.244	0.102	0.084
-495.581	800.000	0.106	0.430
-494.566	92.173	-0.169	-0.193
-493.551	202.113	-0.013	-0.021
-492.537	-148.899	0.272	0.022
-491.522	-60.563	-0.083	-0.036
-490.508	-138.603	-0.362	-0.040
-489.493	91.753	0.064	-0.073
-488.478	-82.104	0.195	0.065
-487.464	32.064	-0.400	-0.349
-486.449	-188.342	0.278	0.004
-485.435	693.646	-0.081	-0.214
-484.420	-130.684	0.383	-0.052
-483.405	376.606	0.016	-0.033
-482.391	-77.080	0.189	0.067
-481.376	-179.364	-0.142	0.003
-480.362	157.802	0.161	-0.225
-479.347	320.049	0.010	0.019
-478.332	-148.767	-0.123	0.010
-477.318	386.354	-0.093	0.195
-476.303	800.000	-0.117	0.334
-475.289	-200.000	0.009	0.413
-474.274	23.084	-0.032	-0.027
-473.259	-41.980	-0.480	-0.249
-472.245	-26.012	0.334	0.199
-471.230	105.310	0.096	-0.114
-470.216	200.714	0.153	0.238
-469.201	-200.000	-0.014	-0.172
-468.186	-110.976	-0.127	-0.026
-467.172	-121.985	0.144	0.024
-466.157	-35.707	0.086	0.047
-465.143	12.050	-0.247	0.192
-464.128	70.993	0.189	0.199
-463.113	-78.945	-0.358	-0.123
-462.099	397.250	-0.135	-0.286
-461.084	15.204	-0.288	-0.228
-460.070	500.732	0.129	-0.300
-459.055	-200.000	-0.044	-0.205
-458.040	800.000	-0.085	-0.242
-457.026	800.000	-0.056	0.158
-456.011	-66.501	0.363	0.146
-454.997	-200.000	-0.004	-0.087
-453.982	-144.183	-0.157	0.015
-452.968	-57.451	0.379	0.168
-451.953	76.654	-0.072	0.077
-450.938	20.811	0.039	0.032
-449.924	313.062	0.206	-0.391
-448.909	800.000	-0.090	0.374
-447.895	-48.045	0.301	-0.147
-446.880	-148.081	0.429	0.036
-445.865	728.535	0.075	-0.201
-444.851	-122.370	0.235	0.039
-443.836	-73.230	-0.254	0.094
-442.822	-200.000	-0.015	-0.132
-441.807	-118.381	0.040	-0.007
-440.792	800.000	0.042	0.121
-439.778	180.217	-0.067	0.100
-438.763	-50.087	0.365	-0.175
-437.749	-200.000	-0.013	-0.213
-436.734	-21.192	0.185	0.114
-435.719	-200.000	0.003	0.060
-434.705	-173.855	0.175	0.005
-433.690	8.938	-0.059	0.045
-432.676	-200.000	-0.012	0.076
-431.661	-200.000	-0.014	0.212
-430.646	157.220	0.242	-0.338
-429.632	-200.000	0.019	-0.214
-428.617	-176.766	0.198	0.005
-427.603	-97.305	-0.175	-0.046
-426.588	-42.867	-0.214	0.110
-425.573	-72.190	-0.211	-0.079
-424.559	800.000	-0.065	-0.259
-423.544	293.701	0.067	-0.124
-422.530	57.099	0.199	0.196
-421.515	800.000	-0.027	0.076
-420.500	-70.083	-0.067	-0.026
-419.486	410.917	-0.173	0.369
-418.471	558.998	0.185	0.451
-417.457	-134.339	-0.229	-0.028
-416.442	-147.626	0.544	0.046
-415.428	136.873	-0.105	0.138
-414.413	800.000	-0.059	0.199
-413.398	800.000	0.030	0.109
-412.384	84.519	0.056	-0.062
-411.369	-174.424	0.071	0.002
-410.355	-200.000	0.003	0.169
-409.340	-200.000	0.033	-0.352
-408.325	-52.158	0.129	0.060
-407.311	800.000	0.027	-0.111
-406.296	-74.213	0.244	0.089
-405.282	-200.000	0.004	0.085
-404.267	800.000	-0.044	0.129
-403.252	27.663	0.127	0.108
-402.238	-65.883	-0.128	0.052
-401.223	81.139	-0.087	-0.095
-400.209	-178.630	-0.132	-0.003
-399.194	-190.285	0.307	0.003
-398.179	-49.847	-0.373	0.178
-397.165	-82.183	0.280	0.092
-396.150	-163.668	0.171	-0.008
-395.136	-58.117	-0.147	0.065
-394.121	7.291	0.072	-0.055
-393.106	-200.000	0.036	-0.282
-392.092	-8.060	0.163	0.110
-391.077	-116.548	0.219	-0.041
-390.063	-200.000	0.003	-0.412
-389.048	-12.723	-0.366	-0.241
-388.033	-41.531	-0.111	-0.058
-387.019	178.766	0.062	0.091
-386.004	275.362	-0.071	-0.127
-384.990	-25.538	0.061	0.036
-383.975	-200.000	-0.002	0.266
-382.960	800.000	-0.118	0.333
-381.946	47.193	-0.166	-0.156
-380.931	128.782	0.214	0.274
-379.917	-37.285	-0.075	0.040
-378.902	-123.637	0.201	-0.032
-377.888	25.772	0.131	0.110
-376.873	558.456	0.062	-0.150
-375.858	444.338	0.005	0.011
-374.844	413.318	-0.113	0.243
-373.829	151.056	0.067	0.091
-372.815	118.905	-0.168	-0.210
-371.800	31.543	0.165	0.143
-370.785	-200.000	-0.056	0.313
-369.771	-69.551	0.108	0.042
-368.756	-22.934	-0.194	0.118
-367.742	-115.024	-0.203	0.039
-366.727	79.803	-0.011	-0.012
-365.712	189.607	0.018	-0.027
-364.698	91.143	0.106	0.120
-363.683	427.744	-0.127	-0.277
-362.669	192.439	0.092	0.139
-361.654	-200.000	0.017	0.084
-360.639	174.846	0.072	0.105
-359.625	-66.838	0.112	0.045
-358.610	-49.672	-0.222	-0.106
-357.596	508.680	-0.211	0.494
-356.581	599.375	-0.059	-0.147
-355.566	35.858	-0.096	-0.085
-354.552	-124.941	0.129	-0.020
-353.537	92.355	-0.044	0.049
-352.523	-39.800	-0.026	-0.014
-351.508	420.665	0.143	0.309
-350.493	-71.371	-0.261	-0.099
-349.479	315.317	-0.231	-0.438
-348.464	800.000	0.080	-0.271
-347.450	-200.000	-0.001	0.027
-346.435	-149.454	0.286	0.023
-345.420	299.072	0.166	0.308
-344.406	-200.000	-0.063	-0.328
-343.391	800.000	-0.077	0.233
-342.377	85.411	0.296	-0.327
-341.362	38.935	0.046	-0.042
-340.348	-24.814	0.166	0.099
-339.333	-98.968	-0.186	0.048
-338.318	-32.681	0.119	-0.067
-337.304	-200.000	0.009	-0.082
-336.289	800.000	-0.067	-0.254
-335.275	-200.000	0.041	-0.197
-334.260	-200.000	-0.002	-0.543
-333.245	-200.000	-0.044	-0.252
-332.231	800.000	0.114	0.397
-331.216	-200.000	-0.024	0.123
-330.202	-5.682	0.148	0.102
-329.187	280.970	-0.173	-0.310
-328.172	-105.916	0.141	-0.032
-327.158	362.482	-0.113	-0.228
-326.143	800.000	-0.093	-0.314
-325.129	-200.000	0.048	0.222
-324.114	-91.125	-0.235	0.068
-323.099	313.024	0.115	-0.218
-322.085	-200.000	-0.005	-0.051
-321.070	-41.432	0.302	0.156
-320.056	-106.531	-0.546	0.122
-319.041	219.203	-0.103	-0.166
-318.026	800.000	-0.064	-0.191
-317.012	-52.885	0.282	-0.131
-315.997	-200.000	-0.058	-0.310
-314.983	-32.858	0.420	0.235
-313.968	800.000	-0.070	-0.288
-312.953	-43.451	-0.277	0.141
-311.939	79.802	-0.153	-0.165
-310.924	-83.017	0.258	-0.083
-309.910	-42.577	-0.168	0.086
-308.895	-80.843	0.175	0.058
-307.880	-200.000	0.155	0.000
-306.866	-76.117	0.080	0.028
-305.851	-200.000	0.016	0.291
-304.837	-200.000	-0.016	-0.232
-303.822	66.103	0.068	-0.069
-302.807	-52.540	-0.250	0.116
-301.793	-106.958	-0.357	-0.079
-300.778	-200.000	-0.139	-0.000
-299.764	80.514	0.238	-0.258
-298.749	-4.783	-0.168	0.116
-297.735	-200.000	0.018	-0.248
-296.720	-40.893	0.185	-0.096
-295.705	276.946	-0.110	-0.196
-294.691	-36.265	0.169	-0.091
-293.676	781.926	-0.152	0.417
-292.662	132.506	0.277	-0.359
-291.647	-200.000	-0.088	-0.505
-290.632	-190.630	-0.156	0.002
-289.618	-200.000	0.030	0.137
-288.603	-200.000	-0.022	0.236
-287.589	-24.449	0.205	-0.122
-286.574	-90.056	0.165	-0.048
-285.559	-89.837	-0.426	-0.125
-284.545	-24.500	-0.167	0.100
-283.530	-200.000	0.043	0.207
-282.516	202.964	0.175	0.271
-281.501	253.530	0.230	0.394
-280.486	130.278	-0.058	0.075
-279.472	725.269	-0.100	0.268
-278.457	-160.069	0.460	0.025
-277.443	43.115	0.170	0.155
-276.428	73.826	-0.170	-0.179
-275.413	106.699	-0.255	-0.304
-274.399	79.460	-0.054	0.058
-273.384	278.080	-0.207	0.370
-272.370	338.466	-0.064	0.125
-271.355	578.359	-0.054	0.133
-270.340	296.188	-0.098	-0.179
-269.326	-28.280	-0.310	-0.180
-268.311	41.640	-0.329	0.299
-267.297	-41.425	-0.126	0.065
-266.282	40.369	-0.147	0.133
-265.267	14.494	0.102	-0.080
-264.253	673.072	0.046	-0.119
-263.238	800.000	-0.069	0.219
-262.224	-68.645	0.234	0.091
-261.209	143.759	-0.201	0.269
-260.195	800.000	-0.035	-0.107
-259.180	-91.767	-0.185	-0.053
-258.165	800.000	0.138	0.411
-257.151	232.363	-0.047	0.077
-256.136	-55.037	-0.068	-0.031
-255.122	-200.000	0.057	0.270
-254.107	-7.027	-0.124	-0.084
-253.092	-182.415	0.112	0.002
-252.078	-200.000	-0.011	-0.066
-251.063	32.505	0.323	0.280
-250.049	549.519	-0.138	0.332
-249.034	-135.139	0.145	0.017
-248.019	-79.150	-0.256	0.087
-247.005	1.560	0.115	-0.083
-245.990	100.014	0.185	0.215
-244.976	-155.364	-0.324	-0.021
-243.961	34.637	-0.103	0.091
-242.946	60.356	-0.239	0.237
-241.932	-200.000	0.014	0.110
-240.917	-159.305	-0.179	0.010
-239.903	98.488	0.171	0.198
-238.888	142.321	0.125	-0.166
-237.873	-50.769	0.122	-0.058
-236.859	-186.783	0.328	-0.005
-235.844	413.094	-0.155	0.331
-234.830	-75.567	0.233	-0.083
-233.815	332.156	-0.086	0.166
-232.800	-151.039	-0.008	-0.001
-231.786	92.890	0.252	-0.285
-230.771	-57.377	0.200	0.088
-229.757	-28.545	-0.017	-0.010
-228.742	41.314	-0.301	-0.273
-227.727	642.953	-0.123	-0.313
-226.713	284.551	0.072	0.129
-225.698	-200.000	-0.019	0.102
-224.684	-13.356	0.260	0.169
-223.669	57.039	0.067	-0.065
-222.655	-4.061	0.101	-0.070
-221.640	-77.014	0.154	-0.054
-220.625	20.170	-0.049	-0.039
-219.611	-35.153	-0.269	0.147
-218.596	61.410	0.068	-0.068
-217.582	-200.000	0.010	-0.064
-216.567	-200.000	0.020	-0.161
-215.552	800.000	0.077	-0.289
-214.538	22.688	-0.138	0.113
-213.523	-200.000	-0.030	-0.293
-212.509	-73.928	-0.314	-0.114
-211.494	-200.000	0.017	0.182
-210.479	-8.583	-0.302	-0.203
-209.465	-200.000	-0.025	0.295
-208.450	-6.560	-0.192	0.131
-207.436	-24.787	-0.094	0.056
-206.421	800.000	-0.145	0.492
-205.406	12.081	0.165	-0.127
-204.392	-200.000	0.016	-0.195
-203.377	-11.878	0.108	0.071
-202.363	-166.598	0.075	-0.003
-201.348	-200.000	-0.025	0.172
-200.333	-33.428	-0.059	-0.033
-199.319	800.000	-0.243	-0.682
-198.304	27.401	-0.341	-0.287
-197.290	-200.000	-0.014	-0.283
-196.275	-133.819	-0.346	-0.043
-195.260	-39.999	0.245	-0.128
-194.246	282.533	-0.056	0.100
-193.231	129.335	-0.039	-0.050
-192.217	-54.690	-0.074	-0.034
-191.202	21.148	-0.016	-0.013
-190.187	-200.000	-0.004	0.348
-189.173	-93.704	0.141	-0.039
-188.158	500.340	-0.070	0.162
-187.144	2.019	0.102	-0.074
-186.129	325.326	0.083	-0.159
-185.114	-147.669	0.273	-0.023
-184.100	21.165	-0.287	0.233
-183.085	-108.616	-0.214	0.046
-182.071	-200.000	0.001	-0.054
-181.056	-118.340	-0.104	-0.018
-180.042	-200.000	0.018	0.161
-179.027	41.278	0.162	-0.146
-178.012	94.257	-0.130	-0.147
-176.998	-200.000	0.043	-0.358
-175.983	800.000	0.126	0.456
-174.969	-200.000	-0.031	0.345
-173.954	-17.972	0.179	0.112
-172.939	40.109	0.181	0.163
-171.925	4.678	-0.204	0.150
-170.910	-200.000	-0.023	0.272
-169.896	256.540	0.117	-0.200
-168.881	176.117	-0.086	-0.125
-167.866	-78.446	0.273	-0.093
-166.852	105.346	0.092	-0.109
-165.837	-154.128	0.177	0.012
-164.823	-66.890	0.309	0.122
-163.808	373.521	-0.105	0.213
-162.793	382.581	0.077	-0.158
-161.779	-114.511	0.216	-0.041
-160.764	134.236	-0.143	0.185
-159.750	269.036	0.022	-0.039
-158.735	-176.108	0.178	-0.005
-157.720	150.144	-0.069	0.094
-156.706	132.882	0.171	0.220
-155.691	74.880	-0.066	-0.070
-154.677	-168.243	-0.218	-0.008
-153.662	-72.957	0.259	-0.095
-152.647	-48.799	-0.295	-0.141
-151.633	800.000	0.048	-0.156
-150.618	208.142	-0.110	-0.172
-149.604	-49.566	-0.157	-0.075
-148.589	-200.000	-0.079	-0.000
-147.574	-12.306	0.039	-0.026
-146.560	44.914	-0.093	0.085
-145.545	-200.000	-0.061	0.468
-144.531	396.016	-0.081	0.168
-143.516	114.961	0.185	0.225
-142.502	-200.000	0.000	0.010
-141.487	-200.000	-0.014	-0.078
-140.472	136.845	-0.091	0.119
-139.458	-200.000	-0.005	0.130
-138.443	-200.000	-0.011	0.283
-137.429	628.972	0.106	0.268
-136.414	800.000	0.067	0.214
-135.399	800.000	-0.038	-0.154
-134.385	-61.809	-0.091	0.038
-133.370	-141.069	-0.206	-0.021
-132.356	-200.000	0.095	0.437
-131.341	-54.962	0.247	0.111
-130.326	-72.354	-0.250	0.092
-129.312	127.841	-0.144	0.183
-128.297	-56.989	0.088	-0.039
-127.283	135.231	-0.211	-0.274
-126.268	-142.068	-0.486	0.048
-125.253	-6.458	0.171	0.116
-124.239	15.185	0.031	-0.024
-123.224	206.605	-0.137	-0.212
-122.210	800.000	-0.059	-0.167
