DTS Sentinel unit serial number:	SN413079Multiplexer serial number:	ORYXHardware model number:	OX4-SRSoftware version number:	ORYX F/W v4.00 Oryx Data Collector v3.7.2.0data status	okinstallation	princeton_trtdifferential loss correction	single-endedforward channel	channel 3reverse channel	N/Adate	2019/09/11time	22:38:11forward acquisition time	60.00reverse acquisition time	0.00gamma	496.2192k internal	0.2315k external	0.2315temperature offset calibration	1.0049default loss term (dB/km)	0.3790temperature slope calibration	1.0000multiplexer offset coefficient	1.0000multiplexer slope coefficient	1.0000fibre end	0.00T internal ref (°C)	34.94T ext. ref 1 (°C)	1.80T ext. ref 2 (°C)	28.53length (m)	temperature (°C)	Stokes	anti-Stokes-747.200	37.355	0.144	-0.130
-746.185	208.206	0.163	0.258
-745.171	800.000	0.059	-0.170
-744.156	357.142	-0.031	0.064
-743.142	37.503	-0.122	-0.110
-742.127	-145.792	-0.240	0.022
-741.112	800.000	-0.052	0.150
-740.098	0.020	0.114	0.082
-739.083	-200.000	-0.019	0.094
-738.069	-46.922	0.114	-0.056
-737.054	20.304	-0.227	0.186
-736.039	-138.698	-0.301	-0.033
-735.025	99.489	0.263	0.308
-734.010	800.000	-0.086	-0.338
-732.996	-200.000	-0.001	0.038
-731.981	-144.795	-0.139	-0.013
-730.966	36.630	-0.380	-0.339
-729.952	-143.820	-0.066	0.006
-728.937	726.959	-0.066	-0.179
-727.923	133.394	-0.209	-0.274
-726.908	-19.346	-0.257	-0.161
-725.894	800.000	-0.033	0.094
-724.879	253.965	-0.029	0.050
-723.864	-103.180	-0.353	-0.085
-722.850	54.771	0.023	0.022
-721.835	-200.000	-0.079	-0.403
-720.821	159.860	-0.111	0.157
-719.806	-12.106	-0.155	0.102
-718.791	-20.569	-0.339	0.211
-717.777	800.000	-0.074	0.325
-716.762	-163.572	0.188	0.009
-715.748	-86.797	-0.247	-0.077
-714.733	-139.672	0.267	0.029
-713.718	-84.824	0.063	-0.020
-712.704	462.873	-0.074	-0.167
-711.689	556.481	-0.055	-0.135
-710.675	-121.405	0.122	0.021
-709.660	-200.000	0.009	-0.069
-708.645	103.726	0.137	-0.163
-707.631	-24.905	0.140	-0.084
-706.616	-79.833	-0.028	-0.010
-705.602	-30.370	-0.387	0.222
-704.587	380.921	-0.065	0.135
-703.572	151.388	0.214	-0.295
-702.558	800.000	0.114	-0.443
-701.543	240.004	0.154	-0.260
-700.529	249.865	0.160	0.274
-699.514	-108.386	-0.315	0.069
-698.499	52.698	-0.182	0.176
-697.485	238.824	0.134	0.225
-696.470	-59.474	0.074	-0.032
-695.456	-62.111	-0.172	0.073
-694.441	800.000	-0.050	-0.187
-693.426	185.955	-0.092	-0.138
-692.412	-117.880	0.326	-0.059
-691.397	782.344	-0.037	0.101
-690.383	-121.123	0.228	-0.039
-689.368	-49.331	-0.262	0.127
-688.354	-73.200	-0.298	0.110
-687.339	18.121	-0.289	0.233
-686.324	85.513	-0.050	0.055
-685.310	5.970	0.137	-0.103
-684.295	41.302	-0.116	0.106
-683.281	-15.715	-0.186	-0.120
-682.266	307.373	-0.045	-0.085
-681.251	-200.000	-0.012	0.123
-680.237	-22.700	0.141	0.086
-679.222	-21.711	-0.049	-0.030
-678.208	153.853	0.158	-0.219
-677.193	138.537	0.070	0.093
-676.178	223.053	-0.168	-0.274
-675.164	-21.565	0.273	0.168
-674.149	80.990	-0.133	-0.146
-673.135	-51.400	-0.122	0.058
-672.120	-66.456	0.211	-0.085
-671.105	-60.684	-0.251	-0.107
-670.091	-13.059	-0.134	0.088
-669.076	-136.106	0.166	0.020
-668.062	-122.463	-0.365	-0.060
-667.047	-50.031	-0.179	-0.086
-666.032	20.824	-0.118	-0.097
-665.018	800.000	0.049	0.160
-664.003	242.997	0.142	0.240
-662.989	33.943	-0.189	0.166
-661.974	-200.000	-0.035	-0.217
-660.959	91.139	-0.177	-0.200
-659.945	-29.691	0.168	0.097
-658.930	-200.000	0.013	0.160
-657.916	800.000	0.020	-0.066
-656.901	-200.000	0.025	0.143
-655.886	120.100	-0.111	-0.139
-654.872	72.214	0.073	-0.077
-653.857	112.237	0.128	0.156
-652.843	-65.537	-0.210	0.085
-651.828	17.209	0.077	0.062
-650.814	13.453	0.054	0.042
-649.799	182.952	-0.059	0.088
-648.784	-200.000	0.002	-0.256
-647.770	-50.750	0.115	0.055
-646.755	50.883	-0.144	0.138
-645.741	-135.825	-0.317	-0.038
-644.726	-200.000	0.320	0.001
-643.711	180.451	-0.183	-0.271
-642.697	694.943	0.096	-0.255
-641.682	65.387	-0.109	-0.111
-640.668	345.276	-0.064	0.126
-639.653	-159.180	0.198	0.011
-638.638	-19.409	-0.150	0.094
-637.624	-164.423	0.091	-0.004
-636.609	324.783	-0.040	-0.077
-635.595	-200.000	0.008	-0.116
-634.580	-200.000	0.021	0.221
-633.565	76.870	0.057	0.061
-632.551	159.901	0.140	-0.197
-631.536	232.221	-0.082	-0.136
-630.522	-178.313	0.126	-0.003
-629.507	800.000	-0.063	0.224
-628.492	-159.172	-0.075	0.004
-627.478	-146.967	-0.299	0.026
-626.463	-48.775	-0.212	0.103
-625.449	-200.000	-0.004	-0.251
-624.434	-76.879	0.403	-0.142
-623.419	165.959	0.089	0.127
-622.405	-74.781	0.020	0.007
-621.390	-72.885	-0.211	-0.078
-620.376	-16.158	0.084	0.054
-619.361	-123.528	0.337	-0.054
-618.346	134.403	-0.128	0.167
-617.332	-104.726	0.191	-0.044
-616.317	-70.273	0.178	0.068
-615.303	800.000	0.052	0.165
-614.288	-124.157	0.296	0.047
-613.273	106.331	-0.294	-0.352
-612.259	174.126	0.179	-0.261
-611.244	308.585	-0.064	0.120
-610.230	425.051	-0.155	0.336
-609.215	-128.532	-0.201	-0.029
-608.201	-152.151	0.124	-0.009
-607.186	-200.000	0.010	-0.115
-606.171	430.129	-0.129	0.281
-605.157	-149.058	-0.218	-0.018
-604.142	-104.800	-0.403	-0.093
-603.128	-200.000	-0.006	-0.085
-602.113	66.566	0.085	0.087
-601.098	-136.902	0.124	0.014
-600.084	20.467	0.209	-0.171
-599.069	-81.337	-0.527	-0.175
-598.055	770.885	0.076	-0.207
-597.040	-200.000	0.066	-0.405
-596.025	89.313	-0.228	-0.256
-595.011	252.199	0.150	0.257
-593.996	-188.477	0.034	0.000
-592.982	800.000	-0.059	-0.176
-591.967	800.000	-0.062	-0.235
-590.952	-200.000	-0.022	-0.391
-589.938	800.000	0.126	-0.387
-588.923	30.510	0.182	-0.156
-587.909	-150.595	0.181	-0.014
-586.894	-131.078	0.158	-0.021
-585.879	-200.000	0.025	0.233
-584.865	58.822	-0.072	0.071
-583.850	-200.000	-0.003	-0.179
-582.836	672.497	-0.094	-0.245
-581.821	-8.636	0.079	-0.053
-580.806	197.487	-0.068	0.105
-579.792	629.673	-0.067	-0.171
-578.777	90.297	0.167	0.188
-577.763	-75.128	-0.165	-0.059
-576.748	800.000	-0.058	-0.217
-575.733	217.437	-0.074	-0.119
-574.719	-63.165	-0.070	-0.029
-573.704	-53.338	-0.106	-0.049
-572.690	450.393	-0.080	0.177
-571.675	-200.000	-0.005	-0.124
-570.661	800.000	-0.078	0.225
-569.646	406.356	0.088	-0.186
-568.631	-160.652	-0.078	-0.004
-567.617	60.554	-0.201	0.201
-566.602	-106.459	0.176	0.040
-565.588	190.067	-0.064	0.096
-564.573	303.293	-0.169	-0.316
-563.558	82.539	-0.217	0.237
-562.544	-57.923	-0.086	-0.038
-561.529	174.898	0.193	0.282
-560.515	-200.000	0.025	-0.123
-559.500	-200.000	0.011	0.104
-558.485	8.980	0.241	0.183
-557.471	-40.622	0.374	-0.195
-556.456	-200.000	-0.041	0.288
-555.442	800.000	-0.027	0.083
-554.427	-179.609	-0.381	-0.008
-553.412	218.784	-0.092	-0.148
-552.398	-140.429	0.266	0.028
-551.383	631.702	-0.044	0.112
-550.369	-98.332	-0.214	-0.055
-549.354	-0.905	-0.274	0.195
-548.339	262.220	0.147	-0.256
-547.325	-200.000	0.083	-0.405
-546.310	33.630	-0.102	-0.089
-545.296	235.461	0.109	0.181
-544.281	-17.838	0.161	0.101
-543.266	84.642	0.167	0.183
-542.252	193.449	-0.210	0.320
-541.237	800.000	-0.024	0.100
-540.223	-1.097	0.156	0.111
-539.208	0.438	0.244	0.175
-538.193	209.550	0.075	-0.119
-537.179	-77.491	-0.077	-0.027
-536.164	-151.656	0.275	-0.020
-535.150	-124.565	-0.462	0.072
-534.135	198.428	0.108	-0.166
-533.121	-106.414	-0.223	-0.050
-532.106	-50.763	-0.282	-0.133
-531.091	8.221	-0.273	0.206
-530.077	-200.000	0.181	-0.000
-529.062	385.559	-0.194	-0.403
-528.048	-105.050	-0.263	-0.060
-527.033	48.275	-0.189	-0.178
-526.018	436.451	0.085	0.187
-525.004	0.299	0.049	0.035
-523.989	-14.953	0.283	-0.182
-522.975	-73.161	0.103	0.038
-521.960	417.358	-0.076	0.162
-520.945	-24.082	-0.081	-0.049
-519.931	-102.163	0.201	-0.049
-518.916	3.233	0.102	-0.075
-517.902	185.384	0.105	-0.157
-516.887	258.912	-0.090	-0.156
-515.872	86.107	0.130	-0.144
-514.858	93.559	-0.051	0.059
-513.843	-110.326	0.168	0.035
-512.829	21.075	-0.396	-0.322
-511.814	-200.000	0.023	0.229
-510.799	800.000	0.061	0.253
-509.785	-46.122	0.227	0.112
-508.770	676.938	0.064	0.168
-507.756	-200.000	-0.023	-0.179
-506.741	56.318	-0.093	0.091
-505.726	800.000	-0.060	-0.228
-504.712	67.942	-0.048	0.049
-503.697	454.007	0.042	0.093
-502.683	800.000	-0.020	-0.080
-501.668	-200.000	-0.031	-0.147
-500.653	-86.561	-0.530	0.163
-499.639	-32.572	0.161	0.090
-498.624	274.625	0.164	-0.291
-497.610	-200.000	0.032	-0.160
-496.595	-200.000	0.024	0.275
-495.581	-3.853	0.316	0.220
-494.566	361.615	0.103	0.207
-493.551	-200.000	-0.038	-0.176
-492.537	109.108	0.188	0.226
-491.522	-32.886	-0.271	0.151
-490.508	-200.000	0.085	-0.377
-489.493	101.470	-0.123	-0.144
-488.478	-118.967	0.197	-0.035
-487.464	14.364	0.313	0.245
-486.449	-19.014	-0.142	-0.089
-485.435	800.000	0.030	-0.090
-484.420	-114.813	-0.302	-0.058
-483.405	-92.688	-0.133	0.037
-482.391	334.300	0.057	-0.110
-481.376	-132.354	-0.210	0.027
-480.362	696.699	-0.050	0.131
-479.347	-81.450	-0.186	-0.061
-478.332	-74.361	-0.188	-0.068
-477.318	647.507	-0.082	0.210
-476.303	800.000	0.095	0.276
-475.289	-128.771	0.185	-0.026
-474.274	262.929	0.056	0.098
-473.259	800.000	-0.084	0.290
-472.245	800.000	0.079	0.226
-471.230	64.882	0.336	0.340
-470.216	-200.000	0.053	-0.443
-469.201	468.985	-0.022	0.050
-468.186	277.519	-0.152	-0.271
-467.172	-75.847	0.058	-0.021
-466.157	-83.847	0.205	0.066
-465.143	-200.000	-0.001	-0.063
-464.128	-200.000	-0.047	0.290
-463.113	75.329	-0.251	0.265
-462.099	-12.637	0.351	-0.229
-461.084	800.000	-0.084	-0.295
-460.070	-72.470	0.175	0.065
-459.055	431.710	-0.045	-0.097
-458.040	2.328	-0.201	0.145
-457.026	142.486	0.217	-0.289
-456.011	800.000	-0.031	-0.110
-454.997	692.064	0.038	0.101
-453.982	11.534	-0.208	0.159
-452.968	-58.067	0.259	-0.113
-451.953	-177.542	0.375	0.009
-450.938	-200.000	-0.096	0.556
-449.924	800.000	-0.040	-0.152
-448.909	520.765	0.030	-0.072
-447.895	-86.813	0.117	-0.036
-446.880	545.582	0.073	0.174
-445.865	-200.000	-0.000	-0.070
-444.851	-200.000	-0.005	0.058
-443.836	-164.943	0.352	-0.016
-442.822	-200.000	-0.001	-0.017
-441.807	332.618	0.057	-0.111
-440.792	-60.546	-0.203	-0.086
-439.778	-45.068	-0.042	-0.021
-438.763	-159.116	0.363	-0.021
-437.749	322.359	-0.225	-0.429
-436.734	-200.000	-0.019	-0.101
-435.719	-200.000	0.048	0.285
-434.705	-29.889	0.243	0.139
-433.690	-200.000	-0.033	-0.148
-432.676	-200.000	-0.068	-0.364
-431.661	126.174	-0.152	-0.192
-430.646	-200.000	0.009	-0.043
-429.632	463.717	0.136	-0.305
-428.617	128.474	-0.134	-0.170
-427.603	745.222	0.069	-0.187
-426.588	-118.488	-0.324	-0.057
-425.573	800.000	-0.067	0.199
-424.559	800.000	0.062	0.195
-423.544	-56.590	-0.307	0.136
-422.530	245.920	0.140	0.237
-421.515	-200.000	0.039	-0.380
-420.500	-200.000	-0.079	0.409
-419.486	231.244	0.223	0.366
-418.471	-41.822	-0.190	0.098
-417.457	-192.654	0.227	-0.002
-416.442	127.345	0.247	0.313
-415.428	800.000	-0.003	0.008
-414.413	459.265	-0.060	0.133
-413.398	-103.234	0.215	-0.051
-412.384	82.961	0.241	-0.262
-411.369	52.888	-0.404	-0.387
-410.355	192.381	0.219	-0.330
-409.340	-121.050	0.249	0.042
-408.325	-200.000	0.037	-0.313
-407.311	74.030	-0.206	0.216
-406.296	-39.452	-0.045	-0.024
-405.282	195.894	-0.075	-0.114
-404.267	-129.805	0.084	-0.012
-403.252	117.326	-0.300	0.369
-402.238	-76.005	-0.186	-0.066
-401.223	-15.533	-0.237	-0.152
-400.209	25.348	-0.127	0.106
-399.194	-200.000	-0.019	0.323
-398.179	-200.000	0.022	0.244
-397.165	800.000	-0.080	-0.306
-396.150	-88.167	-0.120	-0.036
-395.136	-13.481	0.280	-0.182
-394.121	-78.382	0.378	0.129
-393.106	-44.928	0.515	-0.257
-392.092	91.324	0.167	0.187
-391.077	180.686	0.073	-0.107
-390.063	240.980	0.099	0.165
-389.048	800.000	0.012	0.050
-388.033	247.426	-0.178	0.300
-387.019	-95.937	0.036	0.010
-386.004	580.067	0.150	-0.366
-384.990	800.000	0.058	-0.250
-383.975	800.000	0.007	-0.028
-382.960	-105.384	0.140	-0.032
-381.946	-64.005	-0.146	0.060
-380.931	101.101	0.082	0.096
-379.917	52.619	-0.152	0.145
-378.902	7.736	-0.257	0.192
-377.888	22.961	-0.178	-0.146
-376.873	-157.953	-0.423	-0.025
-375.858	-200.000	0.034	-0.294
-374.844	31.172	-0.237	-0.203
-373.829	71.634	0.157	-0.163
-372.815	-160.084	0.207	0.011
-371.800	-200.000	-0.073	0.321
-370.785	-200.000	0.071	0.425
-369.771	-200.000	-0.018	-0.099
-368.756	300.842	0.117	-0.215
-367.742	-86.860	-0.149	0.045
-366.727	33.542	-0.167	-0.145
-365.712	-145.581	-0.266	0.024
-364.698	-110.899	-0.279	-0.057
-363.683	-200.000	-0.007	-0.375
-362.669	-158.236	0.236	0.014
-361.654	-86.606	-0.218	0.067
-360.639	791.741	0.076	-0.209
-359.625	27.805	-0.200	-0.168
-358.610	-50.063	0.335	0.158
-357.596	489.088	-0.133	0.303
-356.581	-73.677	-0.224	0.081
-355.566	-20.312	0.275	-0.169
-354.552	749.961	0.071	0.190
-353.537	131.660	0.157	0.201
-352.523	-200.000	0.003	0.020
-351.508	119.463	-0.142	0.175
-350.493	800.000	0.075	0.237
-349.479	172.606	0.113	-0.163
-348.464	43.681	0.049	0.045
-347.450	-81.420	-0.228	-0.075
-346.435	-200.000	0.027	0.152
-345.420	-83.513	0.118	-0.038
-344.406	99.382	0.076	0.088
-343.391	-15.633	0.395	-0.251
-342.377	12.205	0.081	0.062
-341.362	-37.618	-0.328	0.174
-340.348	622.880	0.065	-0.163
-339.333	-107.234	-0.296	-0.065
-338.318	58.590	0.083	-0.081
-337.304	800.000	0.075	-0.241
-336.289	505.217	-0.076	0.176
-335.275	-69.770	0.314	0.119
-334.260	152.099	-0.347	0.472
-333.245	36.755	-0.264	0.233
-332.231	-86.612	0.229	-0.070
-331.216	184.615	0.058	-0.085
-330.202	42.619	0.041	0.038
-329.187	311.649	-0.147	0.274
-328.172	-200.000	0.003	0.219
-327.158	290.829	-0.027	0.050
-326.143	202.972	-0.096	-0.148
-325.129	194.400	-0.186	-0.281
-324.114	800.000	-0.057	-0.167
-323.099	18.654	-0.265	-0.211
-322.085	176.656	-0.020	-0.029
-321.070	257.682	-0.153	-0.262
-320.056	82.264	0.161	0.174
-319.041	13.384	-0.164	-0.127
-318.026	-86.116	-0.475	0.146
-317.012	667.048	0.104	-0.267
-315.997	212.085	-0.227	0.356
-314.983	-141.980	0.106	-0.011
-313.968	-200.000	0.063	-0.285
-312.953	-200.000	-0.001	-0.195
-311.939	85.828	-0.168	0.184
-310.924	-25.892	-0.162	0.095
-309.910	-200.000	-0.008	-0.078
-308.895	-26.987	-0.194	-0.113
-307.880	-141.900	-0.308	0.031
-306.866	-67.005	0.309	-0.121
-305.851	-27.166	0.172	0.100
-304.837	59.484	-0.041	0.040
-303.822	-143.629	0.138	0.013
-302.807	-30.022	0.239	0.135
-301.793	-125.128	0.217	0.033
-300.778	406.003	-0.106	0.222
-299.764	174.603	0.105	0.152
-298.749	555.829	0.047	-0.113
-297.735	-200.000	0.024	0.187
-296.720	-83.008	-0.191	-0.061
-295.705	-200.000	-0.043	0.397
-294.691	155.764	-0.184	0.252
-293.676	-200.000	-0.028	0.217
-292.662	-200.000	-0.017	-0.227
-291.647	-200.000	0.010	-0.128
-290.632	113.811	0.118	-0.143
-289.618	-4.357	0.339	-0.233
-288.603	11.497	-0.116	-0.089
-287.589	800.000	-0.006	-0.022
-286.574	763.260	0.073	0.196
-285.559	800.000	-0.042	-0.159
-284.545	-99.281	-0.187	-0.047
-283.530	3.246	-0.110	-0.080
-282.516	39.822	0.204	-0.182
-281.501	-23.174	0.199	-0.119
-280.486	58.782	0.138	0.134
-279.472	136.369	0.265	-0.344
-278.457	-56.591	-0.369	0.163
-277.443	-116.326	-0.501	0.092
-276.428	-200.000	0.047	-0.325
-275.413	-146.998	0.195	-0.017
-274.399	609.413	-0.053	0.132
-273.384	-59.723	-0.364	-0.155
-272.370	124.392	0.019	0.024
-271.355	-108.557	-0.140	-0.030
-270.340	-14.319	-0.167	0.107
-269.326	-75.989	0.360	-0.127
-268.311	-153.060	0.083	-0.006
-267.297	-10.742	0.216	-0.142
-266.282	114.256	0.058	-0.070
-265.267	-175.784	-0.123	-0.003
-264.253	-62.445	-0.333	0.138
-263.238	-200.000	0.010	0.131
-262.224	-56.497	0.197	0.087
-261.209	65.648	0.152	-0.154
-260.195	-52.643	-0.337	0.155
-259.180	-111.387	-0.208	0.042
-258.165	800.000	-0.068	0.223
-257.151	-155.945	-0.134	-0.008
-256.136	-123.915	0.341	0.053
-255.122	128.423	-0.362	0.459
-254.107	356.098	-0.136	0.270
-253.092	-200.000	0.028	0.230
-252.078	-29.400	0.278	-0.158
-251.063	393.160	0.114	0.236
-250.049	267.594	-0.137	0.238
-249.034	-200.000	-0.025	0.233
-248.019	31.080	-0.217	-0.185
-247.005	77.248	-0.156	0.165
-245.990	-76.742	0.378	0.132
-244.976	-200.000	0.005	0.237
-243.961	305.282	0.029	-0.054
-242.946	389.114	0.123	0.254
-241.932	-200.000	-0.011	0.332
-240.917	-112.752	0.273	-0.054
-239.903	129.818	-0.157	0.199
-238.888	-1.333	-0.139	-0.098
-237.873	800.000	-0.057	0.183
-236.859	58.305	-0.115	-0.112
-235.844	71.446	-0.135	-0.140
-234.830	800.000	0.039	-0.129
-233.815	210.747	-0.091	-0.141
-232.800	147.734	-0.188	-0.251
-231.786	-55.477	-0.092	0.041
-230.771	473.948	-0.108	0.243
-229.757	800.000	0.064	0.276
-228.742	12.889	-0.162	0.125
-227.727	99.535	-0.143	0.165
-226.713	-33.152	0.180	-0.099
-225.698	-36.048	0.195	0.105
-224.684	5.101	0.468	-0.342
-223.669	-12.680	-0.086	-0.056
-222.655	800.000	0.081	0.273
-221.640	-200.000	0.078	0.352
-220.625	-147.539	0.273	-0.023
-219.611	-121.443	0.296	0.049
-218.596	-106.861	0.268	-0.059
-217.582	6.784	-0.138	-0.102
-216.567	-153.044	-0.085	-0.006
-215.552	-91.393	0.533	-0.151
-214.538	-38.948	-0.183	-0.096
-213.523	151.487	-0.041	0.056
-212.509	800.000	0.136	-0.428
-211.494	-55.542	0.104	-0.046
-210.479	-53.812	0.374	-0.169
-209.465	-180.018	0.209	0.004
-208.450	-200.000	0.001	0.024
-207.436	-26.956	0.343	0.199
-206.421	364.168	0.021	0.042
-205.406	-195.284	0.125	-0.001
-204.392	-134.159	-0.144	-0.018
-203.377	-135.798	-0.141	-0.016
-202.363	-44.971	-0.038	-0.019
-201.348	-9.410	0.145	-0.096
-200.333	-107.330	-0.274	-0.060
-199.319	143.237	0.163	0.215
-198.304	422.504	0.192	0.410
-197.290	129.255	0.171	0.217
-196.275	800.000	-0.049	0.180
-195.260	-88.997	0.272	0.080
-194.246	461.588	0.061	-0.136
-193.231	28.506	-0.223	0.187
-192.217	-41.874	0.269	-0.137
-191.202	72.686	-0.096	-0.099
-190.187	66.932	-0.117	-0.118
-189.173	-200.000	-0.054	0.329
-188.158	-92.452	0.050	0.014
-187.144	109.563	0.129	0.153
-186.129	1.593	0.147	-0.105
-185.114	327.418	-0.143	-0.272
-184.100	545.098	-0.108	0.255
-183.085	-200.000	-0.013	0.195
-182.071	-65.908	-0.286	0.113
-181.056	800.000	-0.024	-0.088
-180.042	-48.886	-0.252	0.120
-179.027	-200.000	-0.064	-0.629
-178.012	-200.000	-0.043	-0.209
-176.998	-2.159	-0.187	-0.130
-175.983	-57.192	0.185	0.081
-174.969	-76.244	-0.296	-0.104
-173.954	-122.663	0.239	-0.038
-172.939	252.794	-0.039	0.066
-171.925	-11.825	0.059	0.039
-170.910	-179.642	0.322	0.007
-169.896	263.246	-0.143	-0.246
-168.881	33.327	-0.060	0.052
-167.866	197.516	-0.082	0.125
-166.852	-145.205	-0.179	-0.016
-165.837	156.076	-0.056	-0.077
-164.823	-8.744	0.190	0.126
-163.808	-200.000	0.012	0.293
-162.793	75.907	0.095	0.100
-161.779	800.000	-0.022	0.075
-160.764	-200.000	-0.010	-0.188
-159.750	-200.000	0.006	0.044
-158.735	-34.401	-0.006	0.004
-157.720	-35.678	0.172	-0.092
-156.706	-16.469	0.334	-0.210
-155.691	800.000	-0.079	-0.218
-154.677	-200.000	-0.006	-0.067
-153.662	-43.890	-0.019	0.009
-152.647	139.784	0.055	0.071
-151.633	-74.071	-0.145	0.052
-150.618	-200.000	0.008	-0.083
-149.604	-28.030	-0.276	-0.158
-148.589	608.714	-0.113	0.280
-147.574	-200.000	-0.036	-0.195
-146.560	-109.343	0.184	0.039
-145.545	81.428	0.138	0.147
-144.531	-181.425	0.311	0.006
-143.516	-200.000	0.023	-0.113
-142.502	-200.000	-0.029	0.386
-141.487	148.627	0.072	0.097
-140.472	534.550	0.042	-0.099
-139.458	107.853	-0.092	0.108
-138.443	800.000	-0.059	0.175
-137.429	10.144	-0.174	-0.131
-136.414	95.816	-0.247	-0.280
-135.399	493.837	-0.123	0.280
-134.385	357.113	0.095	-0.187
-133.370	-42.421	-0.359	0.181
-132.356	-200.000	-0.024	0.110
-131.341	78.288	0.069	0.073
-130.326	145.072	-0.152	0.201
-129.312	131.227	-0.229	0.291
-128.297	-130.549	-0.072	0.010
-127.283	-151.152	0.354	0.026
-126.268	-200.000	-0.027	0.157
-125.253	-200.000	0.002	-0.035
-124.239	-103.873	0.101	0.023
-123.224	250.365	-0.243	0.409
-122.210	22.359	-0.095	-0.077
-121.195	197.579	0.100	0.151
