DTS Sentinel unit serial number:	SN413079Multiplexer serial number:	ORYXHardware model number:	OX4-SRSoftware version number:	ORYX F/W v4.00 Oryx Data Collector v3.7.2.0data status	okinstallation	princeton_trtdifferential loss correction	single-endedforward channel	channel 3reverse channel	N/Adate	2019/09/12time	21:28:34forward acquisition time	60.00reverse acquisition time	0.00gamma	496.2192k internal	0.2326k external	0.2326temperature offset calibration	1.0126default loss term (dB/km)	0.3790temperature slope calibration	1.0000multiplexer offset coefficient	1.0000multiplexer slope coefficient	1.0000fibre end	0.00T internal ref (°C)	30.45T ext. ref 1 (°C)	3.64T ext. ref 2 (°C)	25.09length (m)	temperature (°C)	Stokes	anti-Stokes-747.200	800.000	0.042	0.137
-746.185	682.009	-0.160	0.420
-745.171	-200.000	0.026	0.255
-744.156	-74.762	-0.292	0.106
-743.142	737.346	-0.083	-0.224
-742.127	23.935	0.070	-0.059
-741.112	455.295	0.124	0.277
-740.098	136.727	-0.090	0.119
-739.083	-200.000	-0.056	0.278
-738.069	144.987	0.186	0.250
-737.054	800.000	-0.035	0.111
-736.039	-57.168	-0.192	0.085
-735.025	349.011	0.021	-0.041
-734.010	47.093	0.098	-0.092
-732.996	348.854	0.034	-0.067
-731.981	-91.624	-0.210	-0.060
-730.966	24.249	-0.099	0.083
-729.952	-200.000	0.050	-0.327
-728.937	-150.343	-0.453	-0.035
-727.923	800.000	0.049	-0.141
-726.908	-42.770	-0.188	-0.096
-725.894	-112.579	0.264	0.053
-724.879	48.140	-0.282	0.266
-723.864	-54.895	-0.104	0.047
-722.850	27.703	0.146	-0.124
-721.835	99.387	-0.200	-0.233
-720.821	800.000	-0.064	0.220
-719.806	-12.734	-0.179	0.117
-718.791	-140.714	0.257	0.027
-717.777	-34.365	-0.084	-0.047
-716.762	158.632	-0.027	-0.038
-715.748	12.650	-0.154	-0.120
-714.733	-123.161	-0.258	0.042
-713.718	-126.548	-0.211	0.032
-712.704	-200.000	0.027	0.212
-711.689	89.339	-0.254	-0.285
-710.675	-200.000	-0.002	0.034
-709.660	53.438	0.072	0.070
-708.645	239.308	-0.164	-0.274
-707.631	569.640	-0.085	-0.209
-706.616	269.503	-0.028	-0.049
-705.602	-10.458	-0.229	-0.153
-704.587	800.000	-0.073	-0.207
-703.572	-200.000	-0.038	-0.193
-702.558	800.000	0.050	0.147
-701.543	230.999	0.170	-0.280
-700.529	499.444	-0.061	0.141
-699.514	756.472	0.077	-0.209
-698.499	-200.000	-0.069	0.433
-697.485	800.000	-0.028	-0.079
-696.470	-200.000	-0.030	-0.272
-695.456	6.429	0.187	0.140
-694.441	-200.000	0.076	0.384
-693.426	-62.062	-0.068	0.029
-692.412	-200.000	0.004	-0.245
-691.397	202.511	0.242	0.376
-690.383	208.953	0.074	-0.116
-689.368	-6.956	0.088	0.060
-688.354	-147.533	-0.048	-0.004
-687.339	-115.447	0.381	0.072
-686.324	-192.880	0.159	0.001
-685.310	800.000	0.029	0.119
-684.295	-116.949	0.093	0.017
-683.281	66.676	-0.155	0.159
-682.266	-167.630	-0.246	-0.010
-681.251	-200.000	0.018	-0.267
-680.237	-133.865	0.160	-0.020
-679.222	800.000	-0.103	-0.319
-678.208	-59.150	-0.181	-0.078
-677.193	-42.445	0.528	0.271
-676.178	-134.962	-0.180	0.022
-675.164	100.491	-0.049	-0.057
-674.149	-73.146	-0.392	0.144
-673.135	-147.413	-0.050	0.004
-672.120	-200.000	-0.029	-0.260
-671.105	-200.000	-0.002	-0.143
-670.091	-128.609	0.179	-0.026
-669.076	600.727	-0.064	-0.161
-668.062	-34.822	0.125	0.069
-667.047	-123.709	0.467	-0.074
-666.032	-200.000	0.003	-0.113
-665.018	800.000	-0.060	-0.167
-664.003	-200.000	-0.029	-0.186
-662.989	-159.171	-0.086	0.005
-661.974	248.565	0.119	-0.203
-660.959	-76.374	-0.304	0.108
-659.945	348.916	-0.104	-0.207
-658.930	34.096	0.269	-0.236
-657.916	4.778	-0.240	-0.178
-656.901	338.812	0.208	0.406
-655.886	-89.083	0.084	-0.025
-654.872	-11.832	-0.210	0.139
-653.857	1.166	-0.249	0.180
-652.843	-133.018	-0.089	0.011
-651.828	-200.000	-0.044	-0.261
-650.814	-144.273	-0.135	-0.013
-649.799	-183.296	0.331	-0.006
-648.784	488.544	-0.021	-0.048
-647.770	-167.546	-0.099	0.004
-646.755	136.201	-0.185	-0.243
-645.741	800.000	0.136	-0.521
-644.726	-99.435	0.434	0.110
-643.711	-100.480	-0.215	0.053
-642.697	-77.269	-0.214	-0.075
-641.682	41.048	-0.212	-0.193
-640.668	-101.538	-0.159	-0.039
-639.653	260.984	-0.078	-0.135
-638.638	-132.933	0.073	-0.009
-637.624	-139.392	-0.141	0.015
-636.609	-47.392	0.057	-0.028
-635.595	800.000	0.121	0.468
-634.580	286.067	-0.164	-0.296
-633.565	28.600	-0.114	0.097
-632.551	-26.604	-0.268	-0.157
-631.536	-81.224	0.105	-0.035
-630.522	790.330	0.081	-0.224
-629.507	-27.712	-0.071	0.041
-628.492	-200.000	-0.013	-0.419
-627.478	-200.000	-0.020	0.089
-626.463	-113.805	-0.190	0.037
-625.449	-106.167	-0.214	0.048
-624.434	-77.805	0.261	-0.091
-623.419	-200.000	0.055	-0.279
-622.405	142.022	-0.097	-0.129
-621.390	484.850	-0.086	-0.195
-620.376	755.888	0.094	-0.256
-619.361	-96.904	0.349	0.092
-618.346	-51.951	0.286	-0.134
-617.332	30.427	-0.166	0.142
-616.317	305.439	-0.125	0.234
-615.303	42.008	-0.135	0.123
-614.288	-121.649	-0.165	-0.027
-613.273	6.069	-0.272	-0.202
-612.259	169.007	0.039	-0.056
-611.244	-72.126	0.075	-0.028
-610.230	-132.159	0.093	0.012
-609.215	-200.000	-0.008	0.347
-608.201	-91.973	-0.278	0.079
-607.186	-76.833	-0.167	-0.059
-606.171	-27.760	0.130	0.076
-605.157	225.060	-0.077	-0.125
-604.142	12.458	0.177	-0.137
-603.128	-92.449	-0.082	0.023
-602.113	6.240	-0.251	0.187
-601.098	28.240	0.283	0.240
-600.084	-200.000	0.013	0.326
-599.069	11.669	0.288	0.222
-598.055	-200.000	0.015	-0.084
-597.040	94.754	0.105	-0.120
-596.025	133.599	0.069	0.090
-595.011	30.903	-0.062	0.053
-593.996	800.000	0.064	0.264
-592.982	166.536	-0.115	0.163
-591.967	302.571	-0.148	0.274
-590.952	-165.523	-0.437	0.019
-589.938	14.778	0.226	-0.177
-588.923	-200.000	0.018	-0.230
-587.909	800.000	-0.041	0.166
-586.894	357.322	0.137	-0.273
-585.879	-200.000	-0.004	-0.167
-584.865	139.147	-0.226	0.298
-583.850	55.283	-0.190	0.184
-582.836	-143.108	0.465	-0.045
-581.821	-110.186	0.165	-0.034
-580.806	-83.862	0.224	-0.071
-579.792	753.344	-0.070	0.191
-578.777	615.270	-0.140	0.352
-577.763	800.000	0.048	0.171
-576.748	-117.780	0.285	-0.051
-575.733	322.831	0.140	-0.267
-574.719	339.066	0.149	0.290
-573.704	-145.279	0.401	-0.036
-572.690	-79.978	-0.217	0.073
-571.675	-17.943	-0.241	-0.151
-570.661	0.743	-0.216	-0.155
-569.646	24.340	-0.223	-0.185
-568.631	-200.000	0.000	-0.087
-567.617	-52.684	-0.413	-0.191
-566.602	-172.743	0.278	0.009
-565.588	78.455	-0.127	0.135
-564.573	-200.000	-0.029	-0.144
-563.558	129.213	0.293	-0.375
-562.544	-161.914	-0.445	-0.023
-561.529	-200.000	-0.052	0.386
-560.515	225.693	0.072	-0.117
-559.500	-115.432	-0.331	0.062
-558.485	-8.204	-0.221	-0.149
-557.471	-119.762	-0.182	0.031
-556.456	-77.380	-0.187	-0.065
-555.442	-200.000	0.037	0.219
-554.427	800.000	0.052	0.146
-553.412	-61.983	-0.309	0.129
-552.398	55.123	0.030	0.029
-551.383	-120.302	0.078	-0.013
-550.369	50.856	-0.070	-0.067
-549.354	-135.019	0.393	-0.048
-548.339	594.133	-0.162	0.400
-547.325	279.499	0.059	-0.106
-546.310	307.279	0.048	-0.089
-545.296	-133.097	-0.268	-0.034
-544.281	-200.000	-0.024	-0.217
-543.266	145.507	-0.125	0.168
-542.252	-200.000	0.003	0.327
-541.237	-60.968	0.201	0.085
-540.223	282.430	-0.061	-0.109
-539.208	47.117	0.055	0.051
-538.193	62.155	-0.241	0.241
-537.179	-143.407	0.057	0.005
-536.164	-200.000	-0.029	-0.134
-535.150	-71.477	0.532	-0.199
-534.135	308.791	-0.184	0.343
-533.121	77.690	0.061	-0.065
-532.106	53.113	-0.074	0.071
-531.091	-39.761	-0.097	-0.051
-530.077	-82.095	0.292	-0.095
-529.062	305.133	-0.072	-0.134
-528.048	-139.911	0.105	-0.011
-527.033	142.860	-0.405	0.539
-526.018	-60.896	0.167	-0.070
-525.004	-131.444	0.486	0.064
-523.989	-45.349	0.406	0.202
-522.975	800.000	-0.040	-0.145
-521.960	-144.545	-0.286	-0.026
-520.945	368.191	-0.083	-0.168
-519.931	316.380	0.027	-0.051
-518.916	36.868	-0.077	0.068
-517.902	196.115	0.122	0.185
-516.887	-35.694	0.479	-0.260
-515.872	800.000	-0.115	-0.450
-514.858	-200.000	-0.005	0.226
-513.843	800.000	0.081	-0.225
-512.829	174.778	0.358	0.518
-511.814	-200.000	-0.055	0.718
-510.799	-147.947	-0.279	0.023
-509.785	-61.413	0.177	-0.074
-508.770	-63.506	0.105	0.043
-507.756	-34.835	0.283	0.154
-506.741	37.758	0.230	0.205
-505.726	7.378	0.179	0.134
-504.712	-32.438	-0.138	0.077
-503.697	800.000	-0.031	0.117
-502.683	18.607	0.060	-0.048
-501.668	45.217	0.093	0.086
-500.653	-14.325	-0.104	-0.067
-499.639	-200.000	0.000	-0.016
-498.624	-50.208	0.241	-0.114
-497.610	535.451	0.054	-0.127
-496.595	81.801	-0.053	0.057
-495.581	72.379	-0.308	-0.321
-494.566	-91.902	-0.455	0.129
-493.551	87.034	-0.042	-0.047
-492.537	694.114	-0.034	-0.089
-491.522	-91.988	0.178	-0.050
-490.508	-41.623	-0.056	-0.029
-489.493	239.181	-0.195	-0.323
-488.478	113.437	-0.246	-0.298
-487.464	-200.000	-0.009	0.258
-486.449	157.189	-0.236	-0.326
-485.435	240.722	0.054	-0.090
-484.420	-200.000	-0.019	-0.107
-483.405	82.448	-0.150	0.163
-482.391	-151.601	-0.021	0.002
-481.376	31.658	0.128	0.110
-480.362	219.552	-0.247	0.395
-479.347	800.000	-0.024	0.089
-478.332	-59.280	-0.036	-0.015
-477.318	-11.103	0.295	0.195
-476.303	-93.075	-0.186	-0.052
-475.289	481.693	0.057	-0.128
-474.274	243.561	-0.089	-0.149
-473.259	-200.000	0.000	-0.016
-472.245	354.579	-0.065	-0.129
-471.230	43.948	-0.269	0.246
-470.216	-79.401	0.146	0.049
-469.201	-200.000	0.033	0.257
-468.186	-59.609	0.228	0.098
-467.172	-200.000	0.027	0.156
-466.157	-126.866	-0.292	0.043
-465.143	458.474	0.122	-0.272
-464.128	-29.332	-0.395	0.226
-463.113	-53.547	-0.236	0.108
-462.099	768.503	0.123	0.333
-461.084	-200.000	0.025	0.126
-460.070	-71.427	-0.290	-0.108
-459.055	123.367	0.244	-0.305
-458.040	800.000	0.072	0.272
-457.026	-200.000	0.040	0.404
-456.011	-32.653	-0.256	0.142
-454.997	286.698	0.097	0.175
-453.982	173.286	0.177	-0.255
-452.968	184.662	0.117	-0.174
-451.953	800.000	-0.077	-0.240
-450.938	191.629	0.237	-0.357
-449.924	-146.341	0.283	-0.025
-448.909	67.549	0.210	-0.214
-447.895	-200.000	0.002	0.124
-446.880	-76.309	-0.126	0.044
-445.865	564.743	0.082	0.197
-444.851	-109.907	-0.366	-0.077
-443.836	368.165	0.129	0.260
-442.822	194.711	0.176	0.266
-441.807	29.878	0.182	-0.155
-440.792	139.492	-0.080	-0.105
-439.778	158.357	0.266	-0.368
-438.763	-200.000	0.015	-0.166
-437.749	-200.000	-0.034	-0.335
-436.734	66.546	0.149	0.151
-435.719	78.883	0.090	0.096
-434.705	800.000	-0.094	0.292
-433.690	49.789	-0.220	0.207
-432.676	-112.738	0.141	0.028
-431.661	-200.000	0.039	0.340
-430.646	-23.515	0.065	0.039
-429.632	415.902	0.026	-0.055
-428.617	-66.659	0.089	-0.035
-427.603	-105.689	0.424	-0.096
-426.588	-142.518	-0.548	-0.054
-425.573	-131.283	-0.205	0.027
-424.559	-105.182	0.338	-0.077
-423.544	-200.000	0.045	0.366
-422.530	10.275	-0.230	0.175
-421.515	-99.846	-0.258	0.064
-420.500	-102.818	-0.145	-0.034
-419.486	102.931	0.154	-0.180
-418.471	92.491	0.120	-0.135
-417.457	0.107	-0.058	0.041
-416.442	-21.978	0.190	0.115
-415.428	-200.000	0.050	-0.384
-414.413	-200.000	-0.006	-0.169
-413.398	-85.041	-0.090	0.028
-412.384	-155.440	0.078	0.005
-411.369	-84.738	0.154	0.048
-410.355	104.392	0.176	-0.206
-409.340	-200.000	-0.010	-0.059
-408.325	-118.253	0.257	0.045
-407.311	-180.082	0.227	-0.005
-406.296	-200.000	0.026	0.180
-405.282	124.009	-0.061	-0.077
-404.267	-200.000	-0.032	-0.171
-403.252	9.111	-0.270	0.203
-402.238	800.000	0.120	0.393
-401.223	-74.223	0.300	0.108
-400.209	-200.000	-0.064	-0.321
-399.194	27.219	-0.064	-0.053
-398.179	-103.405	0.226	0.053
-397.165	-28.572	-0.010	0.006
-396.150	-200.000	-0.021	0.351
-395.136	-55.667	0.078	-0.035
-394.121	-138.073	0.317	0.035
-393.106	11.268	0.120	0.092
-392.092	-200.000	-0.060	-0.268
-391.077	800.000	0.030	-0.107
-390.063	161.781	-0.116	-0.162
-389.048	2.922	0.224	-0.162
-388.033	800.000	-0.023	0.089
-387.019	-200.000	0.017	0.167
-386.004	-79.603	-0.269	0.090
-384.990	-59.648	0.198	0.084
-383.975	-200.000	-0.003	-0.328
-382.960	57.299	-0.046	0.045
-381.946	-149.559	0.239	0.019
-380.931	-106.938	-0.091	-0.020
-379.917	-200.000	-0.029	0.369
-378.902	3.396	-0.029	-0.021
-377.888	201.703	-0.092	-0.142
-376.873	-145.736	0.071	0.006
-375.858	-200.000	-0.073	0.319
-374.844	-45.360	-0.166	-0.082
-373.829	729.294	-0.058	-0.153
-372.815	-153.772	0.197	0.013
-371.800	-112.353	-0.205	0.041
-370.785	800.000	-0.017	-0.051
-369.771	-151.913	0.238	0.017
-368.756	-200.000	0.029	0.413
-367.742	399.616	-0.065	0.135
-366.727	88.300	-0.338	0.373
-365.712	-176.693	-0.153	-0.004
-364.698	-8.481	0.329	0.220
-363.683	-18.025	0.098	0.061
-362.669	-18.338	0.222	0.138
-361.654	213.759	-0.296	-0.465
-360.639	405.429	-0.214	-0.448
-359.625	-165.941	0.243	0.010
-358.610	-200.000	-0.012	0.310
-357.596	-155.789	-0.190	-0.012
-356.581	-108.312	-0.242	0.052
-355.566	-200.000	0.039	0.270
-354.552	-114.528	0.116	-0.022
-353.537	214.125	0.109	-0.172
-352.523	-200.000	0.009	-0.081
-351.508	83.185	-0.211	-0.228
-350.493	-86.202	0.174	-0.053
-349.479	-10.468	-0.080	-0.052
-348.464	-200.000	0.024	-0.150
-347.450	58.521	-0.121	-0.118
-346.435	-35.311	0.031	0.017
-345.420	-200.000	0.020	0.324
-344.406	460.356	-0.103	-0.229
-343.391	4.332	0.150	0.109
-342.377	778.840	0.107	-0.292
-341.362	615.838	-0.109	0.272
-340.348	-200.000	-0.352	0.001
-339.333	-178.990	-0.074	-0.002
-338.318	143.992	-0.224	-0.296
-337.304	53.522	0.129	0.123
-336.289	191.700	0.117	0.175
-335.275	-200.000	0.026	-0.286
-334.260	54.763	-0.190	0.182
-333.245	130.709	0.064	0.081
-332.231	377.819	0.101	0.206
-331.216	800.000	0.086	0.243
-330.202	-43.291	-0.159	0.080
-329.187	-121.452	-0.195	-0.032
-328.172	-88.315	0.430	-0.128
-327.158	-142.308	-0.205	-0.020
-326.143	-138.800	0.309	-0.033
-325.129	-16.443	0.067	-0.042
-324.114	800.000	-0.049	-0.193
-323.099	680.284	-0.048	0.124
-322.085	-164.593	-0.225	-0.010
-321.070	12.893	-0.032	-0.025
-320.056	-200.000	-0.042	-0.304
-319.041	38.782	0.146	0.129
-318.026	-119.847	0.137	0.023
-317.012	-1.781	0.119	-0.083
-315.997	-46.059	-0.187	-0.091
-314.983	2.365	0.038	-0.027
-313.968	34.465	-0.173	-0.150
-312.953	-86.196	-0.188	-0.058
-311.939	-104.573	0.112	0.026
-310.924	-138.923	-0.370	0.040
-309.910	800.000	-0.078	0.310
-308.895	-24.670	-0.064	-0.038
-307.880	154.832	0.053	0.073
-306.866	682.670	0.012	0.032
-305.851	-200.000	0.051	-0.271
-304.837	314.362	-0.072	-0.134
-303.822	253.006	-0.142	-0.240
-302.807	-34.647	-0.424	-0.230
-301.793	-9.021	-0.211	-0.140
-300.778	-14.100	0.114	0.073
-299.764	81.822	-0.163	-0.175
-298.749	772.893	0.043	0.118
-297.735	-23.350	-0.125	-0.075
-296.720	107.901	0.237	-0.280
-295.705	358.819	-0.036	0.072
-294.691	-51.523	-0.104	-0.048
-293.676	217.618	0.087	-0.137
-292.662	77.578	-0.086	0.091
-291.647	-200.000	-0.007	0.051
-290.632	800.000	0.040	-0.128
-289.618	133.965	0.053	0.067
-288.603	-200.000	0.037	0.230
-287.589	72.451	0.032	-0.033
-286.574	-200.000	-0.009	-0.342
-285.559	-61.334	-0.135	0.056
-284.545	125.753	-0.182	0.228
-283.530	-97.874	0.040	0.010
-282.516	-89.010	0.471	0.138
-281.501	154.012	-0.177	0.240
-280.486	23.201	-0.089	-0.072
-279.472	-200.000	-0.035	-0.178
-278.457	-200.000	-0.008	0.063
-277.443	-111.512	0.167	-0.034
-276.428	-138.883	0.247	-0.027
-275.413	-96.627	-0.316	-0.082
-274.399	-40.854	0.161	0.083
-273.384	37.596	0.439	0.386
-272.370	-178.820	-0.238	-0.005
-271.355	-36.935	0.140	-0.074
-270.340	-200.000	-0.048	-0.432
-269.326	105.230	-0.253	-0.296
-268.311	61.805	-0.107	0.105
-267.297	800.000	0.073	0.255
-266.282	-106.127	0.046	0.010
-265.267	50.818	0.099	0.093
-264.253	800.000	-0.068	0.266
-263.238	176.834	0.166	0.239
-262.224	800.000	-0.099	-0.333
-261.209	-200.000	-0.005	-0.050
-260.195	173.827	-0.061	-0.088
-259.180	-200.000	-0.053	0.359
-258.165	32.221	0.110	0.094
-257.151	59.569	0.121	0.118
-256.136	587.892	-0.032	-0.078
-255.122	-144.507	0.218	0.020
-254.107	-64.629	0.213	0.086
-253.092	197.763	-0.059	0.088
-252.078	177.034	0.055	-0.079
-251.063	-189.007	0.295	0.004
-250.049	-200.000	0.001	0.155
-249.034	-87.767	-0.211	0.063
-248.019	503.471	-0.068	0.155
-247.005	800.000	-0.061	0.235
-245.990	768.998	-0.053	0.142
-244.976	289.824	0.167	0.299
-243.961	-107.851	0.090	-0.019
-242.946	-200.000	-0.021	-0.478
-241.932	71.368	-0.042	-0.043
-240.917	375.628	0.164	-0.330
-239.903	800.000	-0.046	0.165
-238.888	328.758	0.093	0.178
-237.873	-200.000	-0.012	-0.222
-236.859	73.189	0.270	-0.279
-235.844	11.360	0.215	-0.163
-234.830	72.650	-0.336	0.347
-233.815	800.000	0.123	-0.381
-232.800	800.000	0.009	0.029
-231.786	-45.847	0.409	-0.199
-230.771	-125.258	-0.139	-0.021
-229.757	-200.000	-0.012	0.168
-228.742	427.371	0.099	-0.211
-227.727	318.296	-0.160	-0.299
-226.713	26.653	-0.149	-0.123
-225.698	-200.000	-0.036	0.193
-224.684	-24.896	-0.154	-0.091
-223.669	6.567	0.099	0.073
-222.655	134.657	0.173	0.222
-221.640	-200.000	0.012	-0.128
-220.625	719.032	0.087	-0.229
-219.611	-200.000	-0.006	0.263
-218.596	3.520	0.194	-0.139
-217.582	-200.000	0.001	-0.213
-216.567	518.434	-0.032	-0.074
-215.552	-200.000	-0.010	-0.357
-214.538	-109.776	0.106	-0.022
-213.523	-200.000	-0.035	0.245
-212.509	-19.122	-0.080	0.049
-211.494	-200.000	0.025	0.227
-210.479	65.750	0.283	-0.283
-209.465	-200.000	0.012	-0.127
-208.450	-49.639	-0.248	-0.116
-207.436	-63.973	0.267	0.108
-206.421	-74.479	-0.242	-0.086
-205.406	-141.191	0.172	0.017
-204.392	3.706	0.136	0.098
-203.377	800.000	-0.061	0.181
-202.363	800.000	0.040	0.162
-201.348	-200.000	0.003	0.043
-200.333	405.878	0.085	-0.177
-199.319	-119.033	-0.221	0.038
-198.304	64.188	0.159	0.158
-197.290	-200.000	0.008	-0.243
-196.275	-200.000	0.000	-0.256
-195.260	-6.622	-0.273	0.184
-194.246	444.082	-0.149	0.322
-193.231	-51.232	0.045	-0.021
-192.217	-127.939	-0.121	-0.017
-191.202	-18.447	0.223	0.137
-190.187	38.181	0.140	0.123
-189.173	625.104	-0.056	-0.139
-188.158	293.244	0.060	0.109
-187.144	-200.000	-0.021	-0.135
-186.129	41.267	0.290	0.259
-185.114	800.000	0.040	-0.137
-184.100	300.387	0.103	-0.188
-183.085	4.325	0.242	-0.175
-182.071	-200.000	0.036	-0.282
-181.056	187.610	-0.176	0.259
-180.042	-200.000	0.032	0.150
-179.027	-75.504	0.168	-0.059
-178.012	-200.000	0.014	-0.129
-176.998	-200.000	-0.008	-0.081
-175.983	-68.326	-0.127	0.049
-174.969	168.115	0.096	-0.135
-173.954	232.462	-0.103	0.167
-172.939	-200.000	-0.031	-0.136
-171.925	54.432	-0.146	0.139
-170.910	-132.021	-0.407	0.052
-169.896	-1.989	-0.135	-0.093
-168.881	234.815	-0.115	-0.186
-167.866	-133.564	0.034	-0.004
-166.852	-47.564	0.105	0.050
-165.837	800.000	0.038	-0.142
-164.823	-66.762	-0.237	0.093
-163.808	-200.000	0.031	0.278
-162.793	800.000	0.053	-0.182
-161.779	-200.000	0.020	-0.187
-160.764	800.000	-0.078	-0.253
-159.750	-200.000	-0.011	0.108
-158.735	210.257	0.192	-0.298
-157.720	-102.726	-0.203	-0.048
-156.706	12.769	-0.339	-0.258
-155.691	-9.592	-0.097	0.064
-154.677	42.911	-0.080	0.072
-153.662	663.167	-0.054	-0.138
-152.647	66.976	0.126	0.126
-151.633	-172.747	0.088	-0.003
-150.618	-1.739	0.268	0.186
-149.604	800.000	0.013	-0.046
-148.589	356.203	-0.268	-0.526
-147.574	202.078	-0.075	0.114
-146.560	-154.853	-0.120	0.008
-145.545	670.749	-0.044	0.111
-144.531	-170.039	-0.401	0.014
-143.516	5.977	0.211	-0.154
-142.502	-85.441	0.198	-0.061
-141.487	129.680	-0.078	0.099
-140.472	-200.000	0.048	-0.383
-139.458	-106.807	0.224	0.049
-138.443	800.000	-0.027	0.082
-137.429	276.337	-0.143	-0.250
-136.414	-121.767	-0.228	0.037
-135.399	181.792	-0.090	0.131
-134.385	-112.580	-0.344	0.068
-133.370	554.096	-0.097	0.231
-132.356	-200.000	0.031	0.276
-131.341	-164.902	-0.408	-0.018
-130.326	-200.000	0.003	-0.248
-129.312	25.398	-0.124	0.102
-128.297	800.000	0.079	0.240
-127.283	-69.370	-0.363	0.137
-126.268	-200.000	-0.015	-0.320
-125.253	16.890	-0.107	0.083
-124.239	-142.070	-0.227	0.022
-123.224	-90.366	0.136	-0.039
-122.210	800.000	0.039	0.121
