DTS Sentinel unit serial number:	SN413079Multiplexer serial number:	ORYXHardware model number:	OX4-SRSoftware version number:	ORYX F/W v4.00 Oryx Data Collector v3.7.2.0data status	okinstallation	princeton_trtdifferential loss correction	single-endedforward channel	channel 3reverse channel	N/Adate	2019/09/19time	06:32:35forward acquisition time	60.00reverse acquisition time	0.00gamma	496.2192k internal	0.2349k external	0.2349temperature offset calibration	0.9986default loss term (dB/km)	0.3790temperature slope calibration	1.0000multiplexer offset coefficient	1.0000multiplexer slope coefficient	1.0000fibre end	0.00T internal ref (°C)	19.06T ext. ref 1 (°C)	0.57T ext. ref 2 (°C)	12.81length (m)	temperature (°C)	Stokes	anti-Stokes-747.200	-200.000	0.017	-0.387
-746.185	-200.000	-0.035	0.325
-745.171	289.604	0.221	0.401
-744.156	-200.000	-0.007	0.275
-743.142	-31.268	0.171	-0.096
-742.127	257.605	-0.070	-0.120
-741.112	-200.000	-0.023	-0.206
-740.098	-200.000	-0.016	0.236
-739.083	-31.108	-0.016	-0.009
-738.069	-83.883	-0.143	-0.045
-737.054	337.396	-0.102	0.198
-736.039	-140.063	-0.361	-0.038
-735.025	-200.000	-0.002	0.505
-734.010	-184.704	-0.151	0.002
-732.996	-200.000	0.067	-0.329
-731.981	-200.000	-0.041	-0.339
-730.966	-175.272	-0.083	-0.002
-729.952	-116.490	0.308	0.057
-728.937	-58.998	0.116	-0.050
-727.923	800.000	0.025	-0.081
-726.908	341.854	-0.146	0.285
-725.894	-143.699	-0.115	0.011
-724.879	-200.000	0.020	0.305
-723.864	-200.000	-0.047	-0.222
-722.850	116.571	-0.130	-0.159
-721.835	-200.000	-0.021	-0.382
-720.821	-88.116	0.095	0.029
-719.806	-47.314	-0.125	-0.061
-718.791	-200.000	0.007	0.045
-717.777	-160.796	-0.195	0.010
-716.762	621.215	-0.251	-0.629
-715.748	109.870	0.116	-0.138
-714.733	-43.738	-0.159	0.080
-713.718	-79.604	-0.446	-0.150
-712.704	417.344	-0.173	-0.369
-711.689	800.000	0.003	0.011
-710.675	291.041	-0.035	0.063
-709.660	-12.588	0.041	0.027
-708.645	27.677	0.225	-0.189
-707.631	-14.168	-0.354	-0.228
-706.616	58.710	0.182	0.178
-705.602	396.443	-0.011	0.024
-704.587	-200.000	0.015	-0.218
-703.572	-190.179	0.157	-0.002
-702.558	-84.285	0.152	-0.048
-701.543	800.000	-0.013	0.041
-700.529	-200.000	-0.060	0.496
-699.514	81.030	-0.233	0.251
-698.499	104.134	-0.292	-0.343
-697.485	37.200	-0.166	0.147
-696.470	-200.000	0.010	-0.175
-695.456	226.914	-0.069	-0.112
-694.441	-200.000	0.014	-0.115
-693.426	253.195	0.057	-0.098
-692.412	33.716	0.151	-0.131
-691.397	449.195	0.039	-0.085
-690.383	-200.000	0.035	0.264
-689.368	-118.728	-0.245	-0.043
-688.354	155.368	0.060	0.083
-687.339	-200.000	-0.029	0.139
-686.324	-181.021	-0.346	0.007
-685.310	106.168	0.117	-0.138
-684.295	385.964	0.093	-0.192
-683.281	-58.677	-0.090	0.039
-682.266	20.023	-0.017	-0.014
-681.251	5.078	0.069	0.051
-680.237	-200.000	0.005	-0.181
-679.222	-9.247	0.145	0.097
-678.208	-136.030	0.196	-0.023
-677.193	-200.000	-0.009	0.210
-676.178	-22.232	-0.271	0.163
-675.164	113.505	-0.012	-0.015
-674.149	-79.178	-0.156	-0.053
-673.135	235.130	-0.137	0.225
-672.120	-181.621	-0.096	-0.002
-671.105	-125.886	0.086	-0.013
-670.091	156.229	-0.161	-0.221
-669.076	234.251	0.104	0.171
-668.062	-53.082	-0.144	0.066
-667.047	-131.662	0.045	-0.006
-666.032	800.000	-0.039	-0.147
-665.018	800.000	0.058	0.216
-664.003	-200.000	-0.012	0.096
-662.989	-194.790	-0.167	-0.001
-661.974	521.688	-0.113	-0.265
-660.959	61.708	-0.197	-0.195
-659.945	-48.802	0.054	0.026
-658.930	-99.150	-0.008	-0.002
-657.916	155.305	0.060	-0.082
-656.901	62.479	-0.151	-0.150
-655.886	-56.203	-0.354	0.157
-654.872	-200.000	-0.054	0.313
-653.857	26.498	-0.098	0.082
-652.843	59.965	0.096	-0.094
-651.828	54.696	-0.137	-0.132
-650.814	-200.000	0.006	0.182
-649.799	-40.603	0.480	0.248
-648.784	219.471	-0.081	-0.129
-647.770	-33.592	-0.433	-0.238
-646.755	302.984	-0.075	0.138
-645.741	-69.284	-0.031	0.012
-644.726	-93.279	-0.155	-0.043
-643.711	136.828	0.214	-0.278
-642.697	-63.018	-0.237	0.097
-641.682	171.813	-0.156	-0.222
-640.668	800.000	-0.115	0.368
-639.653	-55.921	-0.156	-0.069
-638.638	152.828	0.092	0.124
-637.624	-105.615	-0.124	0.028
-636.609	-200.000	-0.001	0.025
-635.595	252.503	-0.028	0.047
-634.580	-41.175	0.068	0.035
-633.565	-89.480	0.288	-0.084
-632.551	-122.268	0.276	-0.045
-631.536	264.528	-0.053	0.091
-630.522	-200.000	0.031	0.178
-629.507	-5.807	-0.430	0.293
-628.492	-34.000	0.309	-0.169
-627.478	96.395	-0.097	0.110
-626.463	-200.000	0.003	0.212
-625.449	-200.000	0.003	-0.279
-624.434	69.991	-0.180	-0.185
-623.419	-32.945	-0.158	0.087
-622.405	67.002	0.172	0.174
-621.390	800.000	-0.027	0.097
-620.376	7.796	0.172	-0.128
-619.361	-23.571	0.150	-0.089
-618.346	286.855	0.202	-0.363
-617.332	393.632	0.113	0.234
-616.317	-200.000	-0.016	0.144
-615.303	-50.940	0.301	-0.140
-614.288	-120.393	-0.420	0.071
-613.273	-200.000	0.030	-0.342
-612.259	800.000	-0.011	0.047
-611.244	-54.436	0.180	0.081
-610.230	275.025	-0.034	0.061
-609.215	-200.000	0.000	0.166
-608.201	-40.490	0.150	0.077
-607.186	800.000	0.102	-0.381
-606.171	-200.000	-0.116	-0.533
-605.157	-200.000	-0.056	0.336
-604.142	-133.468	-0.374	-0.047
-603.128	-200.000	-0.012	-0.103
-602.113	179.143	-0.109	-0.158
-601.098	-132.854	0.158	0.020
-600.084	311.896	-0.088	-0.164
-599.069	-101.099	0.244	0.059
-598.055	20.058	-0.106	0.085
-597.040	-124.902	-0.386	0.059
-596.025	-200.000	0.027	0.317
-595.011	-44.768	0.410	0.203
-593.996	800.000	0.065	-0.273
-592.982	-200.000	0.007	0.100
-591.967	800.000	0.059	-0.249
-590.952	-99.968	0.157	0.039
-589.938	-43.772	0.121	0.061
-588.923	566.130	-0.055	0.134
-587.909	-113.842	-0.535	0.103
-586.894	-96.686	-0.176	0.046
-585.879	-48.849	0.174	-0.083
-584.865	-134.142	-0.178	0.022
-583.850	13.694	-0.147	-0.113
-582.836	800.000	0.044	0.136
-581.821	-139.833	0.130	0.014
-580.806	148.133	0.047	-0.063
-579.792	329.673	-0.204	-0.390
-578.777	59.601	-0.104	0.102
-577.763	215.318	0.186	-0.293
-576.748	800.000	-0.156	0.524
-575.733	-200.000	0.007	0.293
-574.719	517.874	0.045	0.105
-573.704	-101.987	0.124	0.030
-572.690	-115.454	-0.242	0.045
-571.675	293.798	-0.276	0.500
-570.661	13.200	-0.201	0.155
-569.646	-200.000	0.066	0.409
-568.631	35.333	-0.154	0.134
-567.617	-96.092	-0.157	0.041
-566.602	375.274	0.166	-0.336
-565.588	-200.000	0.000	-0.082
-564.573	-137.718	0.508	-0.057
-563.558	-150.138	0.141	0.011
-562.544	-63.303	0.150	-0.061
-561.529	800.000	-0.062	0.182
-560.515	-71.031	-0.258	0.096
-559.500	-69.471	0.174	-0.066
-558.485	424.013	-0.042	-0.089
-557.471	554.781	-0.181	-0.431
-556.456	220.563	-0.052	0.083
-555.442	800.000	0.039	0.139
-554.427	-92.060	-0.085	0.024
-553.412	431.214	-0.163	0.351
-552.398	74.779	0.219	-0.228
-551.383	-3.260	0.282	0.195
-550.369	117.008	0.095	-0.116
-549.354	115.552	-0.083	0.101
-548.339	100.268	-0.343	-0.395
-547.325	31.636	-0.063	0.053
-546.310	-200.000	0.012	0.081
-545.296	-68.435	-0.074	-0.028
-544.281	263.392	0.141	0.243
-543.266	800.000	0.080	-0.312
-542.252	690.313	-0.066	-0.170
-541.237	679.017	0.165	-0.426
-540.223	410.222	-0.098	0.207
-539.208	-26.551	0.255	-0.148
-538.193	800.000	-0.059	-0.240
-537.179	101.888	-0.222	0.257
-536.164	-6.417	0.077	0.052
-535.150	800.000	0.051	0.195
-534.135	-103.262	-0.168	-0.039
-533.121	-86.282	-0.025	0.008
-532.106	-200.000	-0.032	-0.176
-531.091	-200.000	-0.040	-0.294
-530.077	567.973	-0.104	0.249
-529.062	-153.037	0.238	-0.017
-528.048	130.857	-0.252	-0.320
-527.033	52.026	-0.097	0.092
-526.018	-200.000	-0.040	0.189
-525.004	16.396	-0.259	0.202
-523.989	139.669	-0.084	0.109
-522.975	-45.574	-0.295	0.145
-521.960	-17.141	0.073	0.046
-520.945	-133.302	0.028	0.003
-519.931	139.360	0.106	-0.139
-518.916	800.000	0.014	-0.052
-517.902	-32.538	-0.081	0.045
-516.887	498.993	0.083	0.190
-515.872	241.195	0.053	0.087
-514.858	365.984	-0.104	-0.207
-513.843	147.391	-0.251	-0.335
-512.829	-124.473	-0.281	-0.043
-511.814	62.184	0.070	0.069
-510.799	-74.337	0.153	-0.055
-509.785	-62.413	0.332	-0.137
-508.770	-78.118	0.085	0.029
-507.756	-103.603	0.373	0.087
-506.741	505.582	-0.039	0.090
-505.726	-81.012	-0.322	0.106
-504.712	221.910	-0.061	-0.097
-503.697	-140.714	0.105	0.011
-502.683	327.243	-0.087	-0.165
-501.668	45.911	0.221	0.202
-500.653	-200.000	0.007	0.045
-499.639	-13.179	-0.250	0.161
-498.624	294.801	-0.107	0.194
-497.610	-28.379	-0.175	-0.100
-496.595	-86.893	-0.229	0.069
-495.581	245.290	-0.170	-0.283
-494.566	67.058	0.097	-0.097
-493.551	800.000	0.069	0.189
-492.537	-79.638	0.119	-0.040
-491.522	-81.088	0.114	-0.037
-490.508	80.737	0.092	-0.098
-489.493	-86.283	0.256	-0.078
-488.478	-20.852	-0.059	-0.036
-487.464	-18.346	-0.088	0.054
-486.449	-0.583	0.334	0.234
-485.435	55.502	-0.236	0.226
-484.420	-6.157	-0.160	-0.108
-483.405	303.789	-0.222	-0.407
-482.391	-63.937	0.575	0.232
-481.376	-174.391	0.170	0.005
-480.362	-118.965	-0.094	0.016
-479.347	800.000	-0.118	0.382
-478.332	73.644	-0.222	-0.230
-477.318	122.512	-0.159	0.197
-476.303	-123.055	0.186	-0.029
-475.289	800.000	0.095	-0.347
-474.274	217.228	0.204	-0.321
-473.259	-18.584	0.228	-0.140
-472.245	800.000	0.074	0.285
-471.230	-23.949	-0.189	-0.112
-470.216	-108.040	-0.148	0.032
-469.201	521.789	-0.128	-0.297
-468.186	15.874	0.079	-0.062
-467.172	16.747	0.177	0.138
-466.157	132.968	-0.121	-0.154
-465.143	-200.000	0.016	0.129
-464.128	182.729	0.070	-0.103
-463.113	-179.051	0.190	-0.004
-462.099	-140.591	0.388	-0.040
-461.084	800.000	-0.029	-0.098
-460.070	800.000	0.076	-0.271
-459.055	414.561	0.110	0.231
-458.040	129.620	0.124	0.156
-457.026	-88.331	0.247	0.073
-456.011	800.000	-0.064	0.254
-454.997	-200.000	-0.109	0.476
-453.982	45.912	0.116	0.106
-452.968	212.269	-0.135	0.211
-451.953	-23.575	-0.374	0.222
-450.938	-200.000	0.019	0.220
-449.924	663.103	0.055	-0.141
-448.909	-200.000	-0.044	-0.199
-447.895	163.730	0.093	-0.129
-446.880	-135.666	-0.268	-0.031
-445.865	-150.498	-0.430	0.033
-444.851	-200.000	0.024	0.336
-443.836	800.000	-0.097	0.420
-442.822	-148.829	-0.464	0.037
-441.807	800.000	0.019	0.060
-440.792	144.341	0.178	-0.234
-439.778	-200.000	-0.012	-0.191
-438.763	171.960	-0.108	-0.153
-437.749	-193.419	-0.203	-0.002
-436.734	-68.557	-0.174	0.067
-435.719	800.000	0.058	-0.245
-434.705	-200.000	-0.010	0.071
-433.690	-16.458	-0.127	0.079
-432.676	660.270	0.164	0.416
-431.661	-173.575	0.217	0.006
-430.646	-45.213	0.329	-0.161
-429.632	99.095	0.269	0.307
-428.617	506.592	0.119	-0.272
-427.603	203.309	0.113	0.172
-426.588	-90.085	-0.210	0.060
-425.573	800.000	-0.042	0.162
-424.559	-136.362	0.414	-0.048
-423.544	-77.354	-0.212	0.073
-422.530	-3.178	0.126	0.087
-421.515	-70.395	0.242	0.090
-420.500	303.546	-0.131	-0.239
-419.486	481.948	-0.090	0.202
-418.471	32.668	0.054	0.046
-417.457	-42.694	-0.268	0.134
-416.442	-48.392	0.364	0.173
-415.428	-11.667	-0.386	0.250
-414.413	-68.706	0.165	0.063
-413.398	324.761	-0.267	0.503
-412.384	-34.381	0.211	-0.114
-411.369	-114.683	-0.198	0.037
-410.355	-41.034	-0.344	-0.175
-409.340	-44.954	0.213	0.105
-408.325	25.464	0.029	-0.024
-407.311	112.529	-0.085	0.102
-406.296	-172.359	-0.258	0.008
-405.282	-146.880	0.146	-0.012
-404.267	44.806	0.215	-0.195
-403.252	-49.412	-0.193	-0.091
-402.238	-63.714	0.149	0.060
-401.223	-200.000	-0.058	0.257
-400.209	109.104	0.099	0.116
-399.194	-157.923	-0.064	0.004
-398.179	254.589	0.091	-0.154
-397.165	181.542	0.213	-0.308
-396.150	-108.912	0.296	-0.062
-395.136	-200.000	-0.028	0.249
-394.121	-200.000	-0.022	-0.200
-393.106	346.319	-0.073	0.141
-392.092	295.907	0.154	-0.278
-391.077	-123.608	-0.232	-0.036
-390.063	-39.813	-0.160	0.082
-389.048	580.503	0.117	-0.282
-388.033	424.712	-0.050	-0.106
-387.019	-37.956	0.302	-0.158
-386.004	-7.748	0.231	0.154
-384.990	800.000	-0.046	-0.137
-383.975	309.564	0.086	0.158
-382.960	-59.689	-0.390	0.165
-381.946	-200.000	0.013	-0.140
-380.931	111.881	-0.091	0.108
-379.917	467.735	0.183	-0.404
-378.902	-13.560	-0.202	-0.129
-377.888	85.373	0.028	0.030
-376.873	-101.344	-0.108	-0.026
-375.858	111.829	-0.252	-0.300
-374.844	389.875	-0.057	-0.117
-373.829	-73.221	-0.155	0.056
-372.815	11.328	0.219	0.165
-371.800	220.123	0.050	-0.079
-370.785	-177.429	0.131	0.003
-369.771	-200.000	-0.009	0.265
-368.756	282.379	0.049	0.087
-367.742	800.000	-0.101	-0.274
-366.727	58.465	0.146	-0.141
-365.712	23.681	-0.034	0.027
-364.698	-64.688	0.153	-0.061
-363.683	-141.009	0.117	-0.012
-362.669	-46.341	0.240	-0.116
-361.654	-200.000	0.040	-0.282
-360.639	457.754	-0.115	-0.252
-359.625	-200.000	-0.053	0.336
-358.610	-200.000	-0.009	0.114
-357.596	13.308	-0.088	0.067
-356.581	-102.526	-0.252	0.059
-355.566	-200.000	0.038	-0.465
-354.552	138.980	-0.213	-0.275
-353.537	122.726	-0.275	-0.338
-352.523	587.061	0.109	0.263
-351.508	78.036	-0.175	-0.184
-350.493	-128.465	0.082	0.011
-349.479	465.323	0.130	0.286
-348.464	178.201	0.059	0.084
-347.450	-200.000	0.026	0.280
-346.435	800.000	0.122	0.358
-345.420	-117.382	-0.185	0.033
-344.406	218.884	-0.150	-0.236
-343.391	-70.457	0.110	-0.041
-342.377	-200.000	-0.001	-0.267
-341.362	-200.000	0.081	-0.369
-340.348	-200.000	-0.018	0.249
-339.333	-28.225	-0.125	0.071
-338.318	-8.654	-0.100	-0.066
-337.304	800.000	-0.039	0.154
-336.289	134.482	0.144	0.184
-335.275	173.547	0.220	0.312
-334.260	463.948	0.042	-0.092
-333.245	800.000	-0.092	-0.378
-332.231	26.712	0.033	-0.027
-331.216	-200.000	-0.024	-0.179
-330.202	564.394	0.098	-0.232
-329.187	-135.339	-0.075	-0.009
-328.172	133.860	-0.173	-0.220
-327.158	800.000	-0.040	-0.144
-326.143	-175.279	0.388	-0.010
-325.129	126.450	-0.169	-0.210
-324.114	-3.431	0.017	-0.012
-323.099	-200.000	0.020	-0.102
-322.085	-149.624	0.102	0.008
-321.070	444.763	0.070	0.151
-320.056	-154.991	0.160	-0.010
-319.041	-163.306	-0.172	-0.008
-318.026	16.216	0.189	0.146
-317.012	215.069	0.045	0.070
-315.997	-167.749	0.335	-0.013
-314.983	13.764	-0.211	0.161
-313.968	46.577	-0.218	0.199
-312.953	-44.123	-0.152	0.075
-311.939	118.863	0.271	-0.329
-310.924	-200.000	0.006	-0.145
-309.910	800.000	-0.036	0.109
-308.895	-200.000	-0.378	-0.001
-307.880	-110.212	0.259	0.053
-306.866	431.323	0.050	0.106
-305.851	-200.000	-0.006	-0.096
-304.837	-124.361	0.147	-0.022
-303.822	-148.477	0.375	0.030
-302.807	-105.238	0.057	-0.013
-301.793	-73.382	-0.154	0.055
-300.778	372.367	0.059	0.118
-299.764	-16.140	-0.243	-0.152
-298.749	495.102	0.013	-0.028
-297.735	-174.292	0.239	-0.007
-296.720	114.486	-0.256	0.306
-295.705	-200.000	-0.045	0.250
-294.691	-24.174	-0.373	0.219
-293.676	-144.047	0.346	-0.032
-292.662	732.132	0.131	0.343
-291.647	-8.684	0.327	-0.215
-290.632	-25.255	-0.247	-0.144
-289.618	-200.000	0.022	0.126
-288.603	-139.367	0.178	-0.019
-287.589	-40.260	-0.128	0.065
-286.574	-76.599	0.087	0.030
-285.559	-14.479	-0.375	-0.237
-284.545	253.170	0.167	-0.279
-283.530	-113.947	0.102	-0.019
-282.516	-55.140	0.106	-0.047
-281.501	800.000	0.080	-0.285
-280.486	35.017	-0.292	0.251
-279.472	-59.432	-0.092	-0.039
-278.457	-144.889	0.285	-0.026
-277.443	-69.043	-0.261	-0.098
-276.428	-94.341	0.346	0.093
-275.413	-148.237	-0.228	0.018
-274.399	-51.384	0.199	0.091
-273.384	74.230	0.056	-0.057
-272.370	432.073	0.155	-0.330
-271.355	410.514	-0.123	0.255
-270.340	288.077	-0.007	0.012
-269.326	-54.456	-0.463	-0.206
-268.311	60.960	0.197	-0.191
-267.297	-73.798	-0.078	0.028
-266.282	39.487	0.144	0.126
-265.267	298.344	0.144	0.260
-264.253	-76.606	-0.050	-0.017
-263.238	-162.016	0.235	0.012
-262.224	-63.515	0.223	0.090
-261.209	177.718	0.095	0.135
-260.195	-99.956	-0.208	-0.051
-259.180	-37.908	-0.125	0.065
-258.165	551.687	-0.041	0.096
-257.151	555.165	-0.092	-0.216
-256.136	-151.413	0.166	-0.012
-255.122	-135.032	0.233	-0.028
-254.107	-165.439	-0.182	0.008
-253.092	-192.341	0.172	-0.002
-252.078	47.819	0.204	0.186
-251.063	217.023	0.068	0.106
-250.049	-127.864	0.158	-0.022
-249.034	-123.938	-0.395	-0.061
-248.019	800.000	0.041	-0.173
-247.005	604.246	-0.188	-0.458
-245.990	800.000	0.083	0.258
-244.976	800.000	-0.110	0.328
-243.961	800.000	0.086	0.259
-242.946	56.554	-0.144	-0.137
-241.932	-35.707	-0.302	0.160
-240.917	-200.000	0.022	0.097
-239.903	224.944	-0.077	-0.121
-238.888	68.790	0.442	0.444
-237.873	-200.000	0.002	0.101
-236.859	-149.914	-0.176	-0.013
-235.844	-70.845	0.181	0.067
-234.830	-113.840	-0.396	-0.075
-233.815	800.000	0.076	-0.252
-232.800	81.220	0.168	-0.178
-231.786	-165.630	-0.170	0.007
-230.771	5.493	0.199	-0.143
-229.757	-200.000	-0.022	-0.195
-228.742	214.833	0.098	-0.152
-227.727	624.630	-0.156	-0.385
-226.713	800.000	-0.046	-0.165
-225.698	75.237	-0.180	0.186
-224.684	218.862	0.047	-0.074
-223.669	-200.000	-0.007	0.173
-222.655	118.280	-0.144	-0.174
-221.640	653.557	0.035	0.088
-220.625	-174.391	0.438	0.012
-219.611	-138.381	-0.339	0.037
-218.596	74.140	-0.176	-0.181
-217.582	-29.036	0.115	0.065
-216.567	113.986	-0.024	-0.028
-215.552	241.844	-0.092	0.151
-214.538	175.288	0.188	0.267
-213.523	452.871	-0.145	-0.314
-212.509	-128.366	0.241	-0.033
-211.494	-200.000	0.012	-0.082
-210.479	800.000	0.042	0.173
-209.465	91.656	-0.185	0.203
-208.450	-77.750	-0.363	0.123
-207.436	-7.803	-0.070	-0.046
-206.421	-105.378	-0.318	0.071
-205.406	151.663	-0.048	-0.064
-204.392	-77.024	-0.208	0.071
-203.377	800.000	0.025	-0.103
-202.363	51.799	0.186	0.173
-201.348	-2.028	0.248	-0.170
-200.333	-92.980	0.131	-0.036
-199.319	800.000	0.078	0.273
-198.304	-20.093	0.328	-0.198
-197.290	511.893	-0.069	-0.158
-196.275	21.562	0.261	0.208
-195.260	-200.000	0.043	-0.185
-194.246	123.383	0.210	-0.257
-193.231	42.737	-0.114	-0.101
-192.217	800.000	0.022	0.088
-191.202	-200.000	-0.017	-0.285
-190.187	800.000	-0.039	-0.115
-189.173	254.734	0.027	0.045
-188.158	21.106	0.204	0.162
-187.144	-120.928	0.220	0.036
-186.129	-200.000	-0.088	-0.520
-185.114	56.614	0.181	0.172
-184.100	-99.410	-0.151	-0.037
-183.085	193.288	-0.198	-0.292
-182.071	126.081	-0.150	-0.185
-181.056	21.118	-0.125	-0.099
-180.042	44.348	0.049	0.044
-179.027	429.725	0.153	-0.323
-178.012	-88.619	0.140	0.041
-176.998	184.998	0.191	0.277
-175.983	-28.876	-0.035	0.020
-174.969	-200.000	-0.032	0.188
-173.954	-180.916	0.276	-0.005
-172.939	-200.000	0.032	0.201
-171.925	-73.603	0.315	0.112
-170.910	800.000	-0.046	0.149
-169.896	-84.965	0.083	-0.025
-168.881	310.352	0.104	0.190
-167.866	-200.000	-0.024	-0.281
-166.852	328.644	-0.182	-0.342
-165.837	27.384	0.213	-0.175
-164.823	598.531	0.073	0.176
-163.808	-200.000	-0.001	0.216
-162.793	-88.278	0.103	0.030
-161.779	-108.922	-0.162	-0.034
-160.764	-200.000	-0.018	0.210
-159.750	800.000	-0.093	0.386
-158.735	-106.413	-0.092	0.020
-157.720	-54.470	-0.257	0.114
-156.706	-200.000	-0.017	-0.073
-155.691	-200.000	0.022	-0.173
-154.677	800.000	-0.059	0.233
-153.662	-90.713	-0.350	-0.099
-152.647	800.000	0.007	-0.026
-151.633	800.000	-0.138	-0.558
-150.618	800.000	-0.060	-0.218
-149.604	-76.432	-0.213	0.073
-148.589	-200.000	-0.018	-0.259
-147.574	-168.971	-0.137	-0.005
-146.560	19.008	0.092	0.072
-145.545	-200.000	-0.020	0.140
-144.531	-119.807	0.328	0.055
-143.516	-64.803	0.310	0.122
-142.502	635.070	-0.038	-0.095
-141.487	800.000	0.049	-0.164
-140.472	335.527	-0.158	-0.299
-139.458	68.700	0.321	-0.321
-138.443	27.465	-0.197	-0.161
-137.429	-29.108	-0.083	0.046
-136.414	246.417	0.055	0.090
-135.399	176.510	0.203	0.288
-134.385	51.463	-0.158	0.146
-133.370	-53.384	-0.074	-0.033
-132.356	-17.643	-0.108	0.066
-131.341	-134.644	0.053	-0.006
-130.326	397.039	0.026	-0.052
-129.312	42.014	0.192	0.170
-128.297	212.950	0.031	-0.048
-127.283	222.256	0.247	0.388
-126.268	800.000	-0.068	-0.230
-125.253	800.000	-0.124	0.399
-124.239	79.396	0.294	0.308
-123.224	282.963	-0.067	0.118
-122.210	246.491	0.125	-0.206
