DTS Sentinel unit serial number:	SN413079Multiplexer serial number:	ORYXHardware model number:	OX4-SRSoftware version number:	ORYX F/W v4.00 Oryx Data Collector v3.7.2.0data status	okinstallation	princeton_trtdifferential loss correction	single-endedforward channel	channel 3reverse channel	N/Adate	2019/09/15time	23:08:35forward acquisition time	60.00reverse acquisition time	0.00gamma	496.2192k internal	0.2333k external	0.2333temperature offset calibration	0.9946default loss term (dB/km)	0.3790temperature slope calibration	1.0000multiplexer offset coefficient	1.0000multiplexer slope coefficient	1.0000fibre end	0.00T internal ref (°C)	28.44T ext. ref 1 (°C)	9.02T ext. ref 2 (°C)	22.20length (m)	temperature (°C)	Stokes	anti-Stokes-747.200	142.166	-0.190	0.253
-746.185	-200.000	0.016	0.132
-745.171	-200.000	0.004	-0.098
-744.156	-200.000	0.068	0.320
-743.142	117.373	-0.083	-0.102
-742.127	783.446	0.108	0.298
-741.112	-93.443	-0.171	-0.048
-740.098	260.207	0.067	0.116
-739.083	-92.095	-0.238	0.068
-738.069	210.359	-0.093	-0.146
-737.054	358.955	-0.110	0.220
-736.039	-25.039	-0.061	0.036
-735.025	-84.713	-0.402	-0.127
-734.010	63.626	-0.098	-0.099
-732.996	59.868	-0.085	-0.084
-731.981	29.653	-0.053	-0.046
-730.966	61.252	-0.145	0.145
-729.952	-90.815	0.149	-0.043
-728.937	-68.387	-0.082	-0.032
-727.923	100.197	-0.147	-0.171
-726.908	-22.104	-0.315	0.192
-725.894	-73.874	0.259	0.094
-724.879	291.266	-0.209	-0.382
-723.864	-200.000	-0.025	-0.151
-722.850	-200.000	-0.053	-0.341
-721.835	249.426	0.209	0.356
-720.821	179.318	0.077	0.113
-719.806	73.919	0.272	0.286
-718.791	-43.148	-0.141	0.072
-717.777	800.000	-0.034	-0.109
-716.762	130.236	-0.065	0.083
-715.748	17.062	0.321	0.256
-714.733	131.244	-0.137	-0.177
-713.718	-200.000	0.048	0.257
-712.704	354.483	-0.114	-0.228
-711.689	-66.706	-0.477	-0.190
-710.675	-191.359	0.137	0.001
-709.660	71.781	-0.064	-0.067
-708.645	-18.893	-0.023	-0.014
-707.631	34.117	-0.211	0.184
-706.616	137.283	-0.109	0.143
-705.602	-59.811	-0.042	0.018
-704.587	1.425	-0.217	-0.156
-703.572	76.561	0.246	-0.262
-702.558	33.669	-0.083	-0.073
-701.543	-200.000	-0.052	0.249
-700.529	-200.000	0.026	-0.164
-699.514	-166.503	0.160	-0.007
-698.499	307.703	-0.139	0.260
-697.485	-60.990	-0.069	0.029
-696.470	101.334	-0.168	-0.196
-695.456	-1.160	0.189	0.134
-694.441	189.103	-0.211	-0.317
-693.426	115.914	0.146	-0.179
-692.412	-51.652	0.128	0.060
-691.397	-65.920	0.056	-0.023
-690.383	-69.412	0.145	0.056
-689.368	-200.000	-0.025	0.314
-688.354	475.136	-0.152	-0.343
-687.339	-200.000	-0.034	-0.155
-686.324	-15.655	-0.116	0.074
-685.310	-200.000	0.026	-0.355
-684.295	38.053	-0.057	-0.051
-683.281	262.080	-0.159	-0.276
-682.266	22.626	0.137	0.113
-681.251	-200.000	0.044	-0.261
-680.237	-76.507	-0.263	0.093
-679.222	-62.177	0.074	0.031
-678.208	-200.000	-0.096	-0.439
-677.193	-133.253	0.317	0.040
-676.178	-48.868	-0.559	-0.269
-675.164	-18.844	0.219	-0.137
-674.149	-9.008	-0.206	0.138
-673.135	-200.000	-0.041	0.201
-672.120	-200.000	0.018	-0.175
-671.105	146.347	-0.075	0.101
-670.091	-94.501	-0.145	0.040
-669.076	-16.418	0.199	-0.127
-668.062	-51.778	-0.271	0.127
-667.047	29.355	-0.220	-0.187
-666.032	148.550	-0.106	0.144
-665.018	-200.000	-0.031	0.259
-664.003	243.967	-0.148	0.248
-662.989	221.907	-0.132	0.214
-661.974	800.000	-0.118	-0.349
-660.959	230.484	-0.153	-0.251
-659.945	-92.970	-0.351	-0.098
-658.930	6.155	0.042	-0.031
-657.916	50.717	0.290	-0.275
-656.901	488.464	0.166	-0.381
-655.886	-78.732	0.058	0.020
-654.872	-23.157	-0.281	0.170
-653.857	227.255	0.132	0.215
-652.843	-200.000	-0.048	-0.383
-651.828	67.253	-0.037	0.038
-650.814	-28.550	0.325	-0.188
-649.799	-200.000	-0.048	0.263
-648.784	52.111	0.140	0.134
-647.770	7.914	0.130	-0.098
-646.755	212.067	-0.256	0.405
-645.741	184.568	-0.132	0.195
-644.726	800.000	0.022	0.066
-643.711	-152.679	-0.109	-0.008
-642.697	-10.343	0.128	-0.085
-641.682	-126.974	-0.195	-0.029
-640.668	-8.950	0.090	-0.061
-639.653	99.726	-0.145	-0.168
-638.638	800.000	-0.049	-0.153
-637.624	215.503	-0.108	-0.172
-636.609	-93.845	0.066	0.018
-635.595	109.966	-0.054	0.065
-634.580	-63.199	0.131	0.054
-633.565	-64.862	-0.196	-0.079
-632.551	-128.889	-0.138	0.019
-631.536	-152.331	0.268	0.019
-630.522	-200.000	-0.034	-0.213
-629.507	167.070	-0.128	0.182
-628.492	-127.027	-0.025	0.004
-627.478	-200.000	-0.001	-0.111
-626.463	-166.164	0.251	0.011
-625.449	-27.669	-0.274	-0.159
-624.434	-81.922	-0.339	0.111
-623.419	-106.576	-0.423	-0.094
-622.405	-200.000	0.030	0.147
-621.390	-26.909	-0.186	0.109
-620.376	380.921	-0.090	0.185
-619.361	68.862	-0.294	0.302
-618.346	-87.345	0.088	0.027
-617.332	27.790	-0.234	-0.197
-616.317	-142.526	-0.170	0.017
-615.303	-163.261	-0.163	-0.008
-614.288	-16.240	-0.133	-0.085
-613.273	170.357	0.045	0.064
-612.259	11.639	-0.407	-0.313
-611.244	-200.000	0.004	-0.135
-610.230	-1.320	0.091	-0.064
-609.215	-48.230	-0.216	-0.104
-608.201	-90.293	-0.060	0.017
-607.186	6.309	0.131	-0.098
-606.171	-200.000	0.007	0.127
-605.157	463.826	-0.060	0.135
-604.142	-200.000	0.008	0.279
-603.128	236.326	-0.018	0.030
-602.113	-80.361	0.186	0.062
-601.098	-200.000	-0.042	-0.236
-600.084	105.797	0.134	0.158
-599.069	34.963	0.058	-0.050
-598.055	-126.055	0.079	-0.012
-597.040	800.000	-0.012	0.042
-596.025	-82.581	-0.066	-0.022
-595.011	-200.000	-0.003	-0.019
-593.996	-200.000	0.000	0.014
-592.982	607.784	0.026	0.065
-591.967	1.764	-0.112	0.081
-590.952	389.667	-0.155	-0.322
-589.938	317.659	-0.140	-0.265
-588.923	-23.383	-0.177	-0.106
-587.909	42.378	-0.276	-0.250
-586.894	302.612	-0.105	0.194
-585.879	800.000	0.057	0.186
-584.865	800.000	0.107	0.339
-583.850	88.413	-0.136	0.151
-582.836	-153.466	-0.114	0.008
-581.821	-42.711	-0.155	0.079
-580.806	-9.787	0.075	-0.050
-579.792	176.925	-0.085	0.123
-578.777	133.483	0.180	-0.233
-577.763	177.647	-0.111	-0.162
-576.748	-33.639	-0.210	-0.116
-575.733	-153.596	0.252	-0.017
-574.719	111.738	0.122	0.147
-573.704	-200.000	-0.010	-0.602
-572.690	-131.314	0.052	-0.007
-571.675	-107.306	0.125	-0.027
-570.661	-146.642	0.192	0.017
-569.646	-0.477	-0.144	-0.102
-568.631	-200.000	0.001	0.434
-567.617	-60.028	-0.065	0.028
-566.602	220.456	0.021	-0.034
-565.588	17.540	0.269	0.213
-564.573	402.157	0.041	0.087
-563.558	35.311	0.245	0.215
-562.544	304.571	-0.019	0.035
-561.529	70.959	-0.045	0.047
-560.515	800.000	-0.052	0.220
-559.500	-153.068	-0.191	-0.013
-558.485	-50.058	0.362	-0.171
-557.471	-200.000	0.024	0.131
-556.456	800.000	-0.014	-0.063
-555.442	800.000	-0.112	0.398
-554.427	401.228	0.005	-0.012
-553.412	-200.000	-0.007	-0.225
-552.398	22.556	0.070	-0.057
-551.383	-86.092	-0.357	-0.110
-550.369	-127.412	0.290	-0.042
-549.354	-200.000	0.046	0.390
-548.339	-200.000	-0.004	0.138
-547.325	282.896	0.257	0.459
-546.310	-44.013	0.064	-0.032
-545.296	-21.949	-0.299	0.181
-544.281	-60.559	-0.226	-0.096
-543.266	-200.000	0.041	0.243
-542.252	-78.357	0.144	-0.049
-541.237	-125.752	0.211	0.032
-540.223	-51.874	0.105	-0.049
-539.208	-200.000	-0.031	-0.181
-538.193	800.000	0.082	-0.239
-537.179	-69.779	0.386	0.147
-536.164	-200.000	-0.091	0.508
-535.150	-85.143	-0.128	0.040
-534.135	13.287	-0.255	-0.197
-533.121	32.271	0.231	-0.199
-532.106	27.016	-0.077	-0.065
-531.091	-137.698	-0.112	0.013
-530.077	320.666	0.093	0.177
-529.062	800.000	0.087	-0.263
-528.048	311.032	-0.082	0.152
-527.033	-59.585	0.132	0.056
-526.018	-200.000	0.010	0.193
-525.004	-57.770	0.044	0.019
-523.989	-149.927	-0.502	0.039
-522.975	-92.589	-0.153	0.043
-521.960	165.215	0.174	0.245
-520.945	-49.721	0.247	-0.117
-519.931	-108.750	-0.227	-0.048
-518.916	-200.000	0.023	0.163
-517.902	-200.000	-0.056	-0.333
-516.887	-95.106	-0.384	-0.103
-515.872	-31.010	0.199	0.112
-514.858	477.420	0.032	0.073
-513.843	-200.000	-0.015	0.070
-512.829	-93.099	-0.052	0.014
-511.814	18.480	0.129	-0.103
-510.799	-200.000	-0.036	0.166
-509.785	800.000	0.097	-0.267
-508.770	230.431	0.167	-0.272
-507.756	313.841	0.120	-0.224
-506.741	361.534	-0.094	0.188
-505.726	210.769	0.109	0.170
-504.712	55.417	0.201	0.194
-503.697	-155.392	0.366	0.024
-502.683	102.572	-0.077	-0.090
-501.668	-64.157	-0.121	0.049
-500.653	-166.569	0.138	0.006
-499.639	-120.718	-0.176	0.030
-498.624	800.000	0.072	-0.298
-497.610	89.208	-0.069	-0.076
-496.595	-66.384	0.498	-0.197
-495.581	-155.223	-0.221	-0.014
-494.566	-142.681	0.380	-0.037
-493.551	99.354	0.085	-0.098
-492.537	-200.000	0.058	-0.622
-491.522	119.483	0.263	0.324
-490.508	114.145	-0.091	-0.111
-489.493	9.755	-0.104	0.078
-488.478	-200.000	-0.025	0.115
-487.464	800.000	-0.081	0.320
-486.449	12.634	-0.256	-0.197
-485.435	-21.808	-0.139	-0.084
-484.420	-200.000	-0.057	-0.292
-483.405	121.518	0.105	0.130
-482.391	800.000	0.075	0.291
-481.376	800.000	-0.078	-0.273
-480.362	800.000	0.059	0.218
-479.347	130.942	0.281	0.359
-478.332	-151.683	0.156	-0.011
-477.318	608.600	-0.054	0.133
-476.303	-77.418	0.153	0.053
-475.289	-93.265	-0.254	-0.070
-474.274	-200.000	0.005	0.420
-473.259	23.978	-0.375	-0.307
-472.245	375.099	0.037	-0.075
-471.230	-94.127	0.209	-0.057
-470.216	-71.412	0.234	-0.087
-469.201	-153.636	-0.038	0.003
-468.186	-4.281	-0.332	-0.229
-467.172	-93.685	0.286	-0.078
-466.157	404.392	-0.067	-0.140
-465.143	-200.000	-0.000	-0.068
-464.128	137.275	-0.137	0.179
-463.113	706.996	-0.125	-0.328
-462.099	800.000	-0.134	-0.484
-461.084	-45.554	0.284	0.140
-460.070	-52.574	0.072	0.033
-459.055	330.525	-0.100	-0.191
-458.040	800.000	-0.027	0.093
-457.026	-142.811	0.257	-0.025
-456.011	-79.495	-0.048	-0.016
-454.997	163.318	-0.190	0.266
-453.982	-190.628	0.191	0.002
-452.968	-147.318	-0.196	-0.017
-451.953	800.000	-0.064	-0.179
-450.938	104.799	-0.236	0.277
-449.924	-129.705	-0.404	0.055
-448.909	544.185	0.067	0.160
-447.895	-200.000	-0.052	-0.301
-446.880	73.551	-0.101	-0.105
-445.865	-200.000	-0.042	0.349
-444.851	149.693	0.034	0.046
-443.836	-57.833	-0.122	0.053
-442.822	16.860	-0.299	-0.235
-441.807	25.265	-0.250	0.207
-440.792	66.680	0.172	-0.174
-439.778	-200.000	0.012	-0.120
-438.763	24.162	-0.233	-0.191
-437.749	800.000	0.057	0.202
-436.734	28.799	0.080	-0.067
-435.719	82.899	0.173	-0.187
-434.705	-200.000	0.007	-0.065
-433.690	-200.000	-0.053	0.281
-432.676	386.405	0.024	0.050
-431.661	800.000	0.055	0.154
-430.646	-112.043	-0.081	-0.016
-429.632	628.514	0.145	-0.363
-428.617	684.964	0.099	-0.256
-427.603	-53.716	-0.065	0.029
-426.588	79.611	0.242	0.258
-425.573	48.710	0.156	-0.145
-424.559	800.000	0.029	-0.080
-423.544	-121.957	-0.320	-0.052
-422.530	-200.000	0.005	-0.362
-421.515	14.943	0.267	-0.208
-420.500	22.414	0.102	0.083
-419.486	-200.000	0.020	0.166
-418.471	-57.362	0.195	-0.085
-417.457	-161.815	-0.393	0.020
-416.442	157.617	-0.045	0.062
-415.428	-63.229	-0.147	0.060
-414.413	-66.823	-0.159	-0.063
-413.398	50.972	-0.163	-0.153
-412.384	800.000	0.079	0.242
-411.369	192.540	-0.178	0.267
-410.355	800.000	-0.044	-0.166
-409.340	-200.000	0.002	-0.121
-408.325	726.912	-0.039	0.104
-407.311	-200.000	0.051	0.237
-406.296	800.000	0.097	-0.343
-405.282	-17.902	0.207	-0.129
-404.267	-200.000	0.014	-0.274
-403.252	800.000	0.068	-0.214
-402.238	628.541	0.122	0.306
-401.223	800.000	0.028	-0.114
-400.209	80.661	-0.110	0.118
-399.194	-53.220	-0.227	0.103
-398.179	-126.239	0.034	0.005
-397.165	-48.952	-0.170	-0.081
-396.150	-200.000	0.007	-0.371
-395.136	376.439	0.072	-0.146
-394.121	53.132	0.207	-0.197
-393.106	-200.000	0.010	0.093
-392.092	-80.285	-0.205	-0.068
-391.077	-172.662	-0.430	-0.013
-390.063	-126.655	-0.191	-0.028
-389.048	-59.943	0.134	-0.057
-388.033	537.238	-0.072	0.169
-387.019	-9.465	-0.230	0.152
-386.004	-200.000	0.480	-0.001
-384.990	113.196	0.277	-0.333
-383.975	-200.000	0.013	-0.131
-382.960	-200.000	-0.039	-0.266
-381.946	16.180	0.160	-0.125
-380.931	26.973	-0.218	0.182
-379.917	365.049	0.122	-0.244
-378.902	-24.561	0.031	0.018
-377.888	12.149	-0.182	0.139
-376.873	798.633	0.072	-0.197
-375.858	-180.277	-0.083	-0.002
-374.844	-200.000	-0.052	0.375
-373.829	-200.000	0.020	0.242
-372.815	-127.141	-0.184	-0.027
-371.800	-42.212	0.141	-0.071
-370.785	-47.861	0.177	-0.085
-369.771	-175.441	0.085	0.002
-368.756	-200.000	-0.022	0.194
-367.742	-34.293	0.402	-0.219
-366.727	719.867	0.075	0.199
-365.712	-136.778	-0.098	0.011
-364.698	800.000	-0.170	-0.552
-363.683	27.639	-0.092	0.077
-362.669	-129.885	0.048	-0.007
-361.654	800.000	0.080	-0.275
-360.639	-200.000	0.024	-0.162
-359.625	-136.506	-0.330	0.038
-358.610	212.639	-0.239	-0.374
-357.596	-58.005	0.311	-0.134
-356.581	-200.000	0.011	0.131
-355.566	-200.000	-0.017	-0.237
-354.552	389.295	0.030	0.061
-353.537	84.856	-0.155	0.168
-352.523	-200.000	-0.012	0.188
-351.508	-65.520	0.351	-0.139
-350.493	-200.000	-0.006	-0.292
-349.479	-42.079	0.261	-0.132
-348.464	-4.934	0.093	0.063
-347.450	322.720	0.083	0.156
-346.435	42.166	-0.163	-0.147
-345.420	-38.355	-0.034	0.018
-344.406	-200.000	0.018	0.254
-343.391	294.455	0.038	0.068
-342.377	-6.411	-0.112	0.076
-341.362	-200.000	-0.054	-0.388
-340.348	202.661	0.219	-0.334
-339.333	-200.000	-0.006	0.060
-338.318	-14.536	-0.136	0.087
-337.304	-200.000	-0.046	-0.304
-336.289	-135.428	-0.248	-0.029
-335.275	-106.201	0.072	0.016
-334.260	367.920	0.207	-0.413
-333.245	-200.000	-0.006	-0.262
-332.231	-76.149	0.229	0.080
-331.216	-47.863	-0.089	0.043
-330.202	437.916	0.110	-0.238
-329.187	346.363	0.111	0.216
-328.172	-39.166	-0.210	-0.109
-327.158	473.680	0.062	-0.137
-326.143	92.410	-0.107	0.120
-325.129	1.669	-0.163	0.116
-324.114	-128.667	-0.299	0.042
-323.099	95.189	-0.342	0.385
-322.085	245.199	-0.037	0.061
-321.070	217.728	-0.097	-0.153
-320.056	-117.155	0.137	0.025
-319.041	-16.904	0.337	-0.211
-318.026	31.834	-0.195	-0.166
-317.012	-126.685	-0.318	-0.047
-315.997	85.844	0.305	-0.331
-314.983	-200.000	-0.009	0.317
-313.968	-45.348	-0.358	0.176
-312.953	291.079	0.142	0.255
-311.939	800.000	0.107	0.318
-310.924	162.123	-0.196	-0.272
-309.910	134.086	0.175	0.224
-308.895	534.465	0.036	0.085
-307.880	355.733	0.049	0.096
-306.866	155.074	-0.166	-0.225
-305.851	-7.322	0.356	-0.239
-304.837	800.000	-0.024	-0.100
-303.822	800.000	-0.068	-0.241
-302.807	800.000	0.111	-0.434
-301.793	800.000	-0.048	0.190
-300.778	119.468	-0.146	0.179
-299.764	31.351	-0.091	0.077
-298.749	33.763	-0.147	-0.126
-297.735	-200.000	0.039	-0.391
-296.720	-154.994	0.116	-0.008
-295.705	-200.000	0.006	0.221
-294.691	530.696	0.068	0.159
-293.676	51.230	0.271	-0.255
-292.662	426.841	0.048	0.103
-291.647	800.000	0.052	-0.166
-290.632	667.664	-0.128	0.326
-289.618	58.953	-0.212	-0.206
-288.603	-158.566	0.293	0.017
-287.589	-4.945	0.097	0.066
-286.574	144.217	-0.190	0.251
-285.559	87.480	0.121	0.133
-284.545	530.690	0.236	-0.551
-283.530	58.098	0.034	-0.033
-282.516	32.906	0.074	0.064
-281.501	-200.000	-0.036	-0.244
-280.486	-150.641	0.148	0.011
-279.472	-96.137	-0.255	-0.067
-278.457	-33.562	0.100	0.054
-277.443	-78.188	0.107	-0.036
-276.428	-200.000	0.009	-0.269
-275.413	-62.486	0.156	-0.064
-274.399	639.611	-0.046	0.115
-273.384	8.037	0.245	0.181
-272.370	-0.013	0.202	0.142
-271.355	4.263	-0.297	-0.215
-270.340	-45.579	-0.291	-0.142
-269.326	201.348	-0.169	0.256
-268.311	67.898	0.297	-0.300
-267.297	-200.000	0.045	0.490
-266.282	-65.301	-0.169	0.067
-265.267	-187.576	0.354	-0.005
-264.253	-200.000	-0.006	-0.037
-263.238	-200.000	0.048	0.399
-262.224	132.657	-0.044	0.056
-261.209	282.331	0.117	-0.207
-260.195	-200.000	0.013	0.354
-259.180	-91.286	-0.155	-0.044
-258.165	544.916	0.026	0.060
-257.151	-200.000	-0.020	-0.372
-256.136	-118.000	-0.316	-0.056
-255.122	8.516	0.115	-0.086
-254.107	62.517	0.118	0.117
-253.092	-200.000	-0.042	-0.232
-252.078	-99.361	0.147	0.037
-251.063	-200.000	-0.029	-0.315
-250.049	-19.872	-0.231	0.141
-249.034	606.033	0.160	0.392
-248.019	-200.000	-0.042	0.229
-247.005	35.569	0.275	0.238
-245.990	-200.000	0.039	0.486
-244.976	-113.016	0.392	0.076
-243.961	-69.621	-0.146	-0.055
-242.946	86.801	-0.076	-0.082
-241.932	433.400	-0.049	-0.106
-240.917	-6.395	-0.337	-0.226
-239.903	-84.288	0.371	-0.116
-238.888	15.805	0.126	0.098
-237.873	47.297	-0.030	0.027
-236.859	65.216	0.102	-0.102
-235.844	800.000	-0.075	0.301
-234.830	161.400	0.123	0.170
-233.815	-200.000	-0.029	-0.216
-232.800	-137.825	0.159	-0.018
-231.786	800.000	0.088	0.326
-230.771	112.270	0.091	-0.108
-229.757	-112.104	0.245	0.049
-228.742	-200.000	-0.013	-0.354
-227.727	800.000	0.029	-0.111
-226.713	73.882	-0.210	-0.217
-225.698	428.322	-0.076	0.162
-224.684	129.537	-0.202	0.255
-223.669	-97.518	0.236	0.060
-222.655	17.879	-0.169	-0.132
-221.640	73.156	-0.077	-0.080
-220.625	132.717	-0.081	0.103
-219.611	-90.013	-0.295	0.085
-218.596	800.000	-0.031	0.088
-217.582	209.512	0.133	-0.205
-216.567	-102.922	-0.035	-0.008
-215.552	47.774	0.168	0.155
-214.538	-18.032	0.283	0.174
-213.523	84.746	-0.042	0.046
-212.509	-158.510	0.205	0.012
-211.494	800.000	0.083	0.249
-210.479	800.000	0.082	-0.261
-209.465	-200.000	-0.013	-0.241
-208.450	-200.000	0.007	-0.107
-207.436	172.466	0.100	-0.141
-206.421	800.000	0.084	0.283
-205.406	-60.994	-0.203	0.084
-204.392	-72.579	-0.257	0.093
-203.377	-79.476	0.102	-0.034
-202.363	85.547	0.317	0.343
-201.348	-36.642	0.221	0.117
-200.333	-57.114	0.115	0.050
-199.319	-200.000	0.083	0.405
-198.304	57.005	0.344	-0.330
-197.290	-153.202	0.326	-0.022
-196.275	-117.430	0.254	0.045
-195.260	35.867	-0.163	0.141
-194.246	64.101	0.222	0.220
-193.231	-200.000	0.016	0.068
-192.217	-157.360	-0.253	-0.015
-191.202	344.062	-0.186	0.359
-190.187	86.599	-0.023	-0.025
-189.173	-77.578	-0.299	-0.102
-188.158	25.175	-0.129	-0.105
-187.144	800.000	0.100	0.285
-186.129	22.785	-0.536	0.432
-185.114	-200.000	0.007	0.200
-184.100	20.310	0.338	-0.269
-183.085	531.373	0.082	-0.191
-182.071	800.000	-0.021	0.079
-181.056	385.853	-0.093	0.188
-180.042	-190.610	0.200	-0.002
-179.027	-31.317	0.225	-0.125
-178.012	-188.045	0.144	-0.002
-176.998	209.511	0.113	0.174
-175.983	33.934	-0.081	-0.070
-174.969	50.786	-0.197	-0.183
-173.954	-76.763	-0.288	0.099
-172.939	97.219	0.110	-0.125
-171.925	-200.000	-0.004	0.224
-170.910	33.975	0.259	-0.222
-169.896	-97.751	-0.198	0.050
-168.881	-200.000	0.012	0.212
-167.866	800.000	0.053	-0.178
-166.852	549.005	-0.160	-0.376
-165.837	93.679	0.073	-0.081
-164.823	-71.254	0.088	0.033
-163.808	-200.000	-0.007	0.089
-162.793	143.348	-0.196	0.256
-161.779	-124.841	-0.246	-0.037
-160.764	-125.294	0.058	0.009
-159.750	-200.000	0.042	0.263
-158.735	608.638	0.096	-0.234
-157.720	-200.000	0.006	0.194
-156.706	-164.632	0.255	-0.011
-155.691	11.356	0.219	0.165
-154.677	694.933	0.083	0.214
-153.662	363.917	-0.174	0.344
-152.647	-52.430	-0.153	0.070
-151.633	800.000	0.069	0.265
-150.618	313.374	-0.043	0.080
-149.604	-136.096	0.385	-0.044
-148.589	328.808	0.105	0.198
-147.574	-200.000	0.025	0.272
-146.560	-200.000	-0.014	0.298
-145.545	148.816	0.206	0.274
-144.531	130.704	-0.069	-0.087
-143.516	800.000	-0.079	-0.218
-142.502	-73.922	0.120	0.043
-141.487	173.484	0.085	-0.120
-140.472	800.000	0.073	-0.223
-139.458	-80.298	0.126	-0.041
-138.443	14.019	-0.049	0.037
-137.429	63.187	-0.023	0.023
-136.414	-200.000	-0.044	-0.208
-135.399	-200.000	-0.025	0.242
-134.385	-65.555	-0.064	0.025
-133.370	-88.676	0.269	0.078
-132.356	-87.542	-0.300	-0.089
-131.341	-200.000	-0.003	-0.146
-130.326	-28.340	-0.205	0.116
-129.312	-200.000	0.155	-0.000
-128.297	-200.000	-0.013	-0.108
-127.283	-0.451	-0.270	0.188
-126.268	-109.209	-0.148	-0.031
-125.253	197.070	-0.124	0.186
-124.239	18.574	0.119	-0.093
-123.224	65.003	-0.418	-0.414
-122.210	-125.469	0.226	-0.034
-121.195	-200.000	-0.030	0.286
