DTS Sentinel unit serial number:	SN413079Multiplexer serial number:	ORYXHardware model number:	OX4-SRSoftware version number:	ORYX F/W v4.00 Oryx Data Collector v3.7.2.0data status	okinstallation	princeton_trtdifferential loss correction	single-endedforward channel	channel 3reverse channel	N/Adate	2019/09/13time	17:00:35forward acquisition time	60.00reverse acquisition time	0.00gamma	496.2192k internal	0.2301k external	0.2301temperature offset calibration	1.0130default loss term (dB/km)	0.3790temperature slope calibration	1.0000multiplexer offset coefficient	1.0000multiplexer slope coefficient	1.0000fibre end	0.00T internal ref (°C)	34.92T ext. ref 1 (°C)	4.84T ext. ref 2 (°C)	33.13length (m)	temperature (°C)	Stokes	anti-Stokes-747.200	-23.530	0.084	0.052
-746.185	323.017	-0.097	0.189
-745.171	38.691	0.143	0.130
-744.156	-200.000	0.026	0.170
-743.142	-117.606	-0.249	0.046
-742.127	34.535	0.218	0.194
-741.112	54.365	0.054	0.053
-740.098	125.394	0.010	-0.013
-739.083	67.255	-0.033	-0.034
-738.069	-2.234	-0.228	0.163
-737.054	-200.000	-0.029	0.313
-736.039	-62.673	-0.165	0.070
-735.025	-97.639	-0.323	0.085
-734.010	800.000	0.106	0.300
-732.996	800.000	-0.051	-0.171
-731.981	800.000	0.036	0.134
-730.966	-15.527	-0.109	0.071
-729.952	800.000	0.122	-0.360
-728.937	-200.000	0.008	-0.048
-727.923	650.606	0.057	0.150
-726.908	-5.280	-0.221	-0.155
-725.894	540.626	0.056	0.136
-724.879	-71.197	0.237	0.091
-723.864	-123.071	-0.105	0.017
-722.850	-125.730	-0.341	-0.053
-721.835	77.902	-0.161	-0.174
-720.821	-90.969	-0.233	0.068
-719.806	793.935	0.049	0.138
-718.791	25.981	0.184	0.156
-717.777	-52.256	0.263	-0.124
-716.762	1.115	0.282	-0.206
-715.748	800.000	0.049	-0.172
-714.733	-163.229	-0.176	0.009
-713.718	-50.730	0.248	-0.119
-712.704	-158.511	0.323	-0.019
-711.689	172.752	-0.157	-0.230
-710.675	-155.075	0.218	-0.015
-709.660	800.000	0.030	-0.096
-708.645	206.752	-0.065	-0.103
-707.631	39.980	-0.182	0.166
-706.616	800.000	-0.063	0.189
-705.602	-200.000	-0.007	0.093
-704.587	97.573	-0.278	-0.325
-703.572	-29.111	-0.150	-0.088
-702.558	8.471	0.234	0.179
-701.543	-200.000	-0.038	-0.265
-700.529	619.606	0.068	-0.173
-699.514	800.000	-0.075	0.232
-698.499	178.075	-0.067	-0.099
-697.485	128.279	-0.094	0.121
-696.470	-76.466	-0.270	-0.097
-695.456	191.046	-0.141	-0.215
-694.441	43.051	-0.129	0.119
-693.426	36.931	0.089	-0.080
-692.412	-118.650	0.104	0.019
-691.397	75.055	-0.221	0.237
-690.383	44.418	0.318	-0.297
-689.368	-137.549	-0.146	-0.017
-688.354	-200.000	0.016	-0.163
-687.339	-200.000	0.019	0.552
-686.324	181.483	-0.018	-0.026
-685.310	55.662	-0.111	0.109
-684.295	-130.911	0.216	-0.029
-683.281	364.563	-0.035	0.071
-682.266	88.822	0.138	0.157
-681.251	800.000	-0.190	-0.733
-680.237	147.186	0.016	0.022
-679.222	197.726	-0.201	0.312
-678.208	800.000	-0.063	-0.224
-677.193	-122.597	-0.281	-0.046
-676.178	33.646	-0.320	0.283
-675.164	-143.980	-0.207	0.020
-674.149	-0.387	0.123	0.089
-673.135	-37.070	-0.154	0.084
-672.120	-200.000	-0.022	-0.166
-671.105	190.573	-0.154	-0.235
-670.091	191.011	-0.051	-0.078
-669.076	210.994	0.101	-0.161
-668.062	-163.215	0.405	0.020
-667.047	635.079	-0.086	-0.221
-666.032	-105.886	0.242	0.056
-665.018	-35.861	0.226	0.124
-664.003	-73.630	-0.156	-0.058
-662.989	800.000	-0.105	-0.298
-661.974	143.572	0.187	0.254
-660.959	-68.227	-0.576	-0.228
-659.945	329.674	0.175	-0.342
-658.930	-136.745	-0.289	0.034
-657.916	518.715	0.099	-0.236
-656.901	-200.000	-0.010	0.104
-655.886	151.971	-0.217	0.300
-654.872	-36.626	0.149	-0.081
-653.857	698.253	-0.110	-0.294
-652.843	-169.201	0.095	0.004
-651.828	-22.125	0.247	0.152
-650.814	-57.138	-0.011	0.005
-649.799	-200.000	0.022	0.195
-648.784	-29.079	-0.194	0.113
-647.770	800.000	-0.044	-0.169
-646.755	42.134	-0.394	-0.363
-645.741	9.162	-0.211	-0.162
-644.726	-141.790	-0.063	0.006
-643.711	-5.409	0.326	-0.228
-642.697	167.862	-0.261	-0.377
-641.682	-52.564	0.280	0.132
-640.668	-200.000	-0.027	0.362
-639.653	-200.000	-0.002	0.193
-638.638	-56.513	0.169	0.076
-637.624	800.000	-0.012	-0.051
-636.609	-200.000	-0.027	0.121
-635.595	-200.000	0.009	0.229
-634.580	92.393	0.138	-0.158
-633.565	147.155	-0.125	-0.171
-632.551	-68.766	0.305	-0.120
-631.536	241.546	0.045	0.076
-630.522	-200.000	-0.003	0.076
-629.507	-87.420	-0.125	0.038
-628.492	-123.960	-0.105	-0.017
-627.478	800.000	0.016	0.062
-626.463	-200.000	-0.034	-0.295
-625.449	-180.468	-0.275	0.006
-624.434	-200.000	-0.002	-0.139
-623.419	-172.046	-0.226	-0.007
-622.405	-200.000	-0.125	-0.598
-621.390	800.000	-0.063	-0.231
-620.376	-112.308	0.284	0.058
-619.361	25.106	0.079	0.066
-618.346	86.048	-0.070	-0.078
-617.332	174.974	-0.279	-0.410
-616.317	-192.031	-0.078	0.001
-615.303	49.879	-0.120	-0.115
-614.288	-200.000	-0.028	-0.268
-613.273	96.622	-0.236	0.274
-612.259	-157.934	-0.181	-0.011
-611.244	800.000	-0.039	0.123
-610.230	800.000	-0.046	-0.202
-609.215	695.804	0.101	-0.270
-608.201	-200.000	0.001	-0.412
-607.186	-200.000	0.038	0.216
-606.171	-29.565	-0.144	0.084
-605.157	800.000	0.066	0.277
-604.142	335.816	0.100	0.197
-603.128	800.000	0.019	-0.062
-602.113	228.355	-0.020	-0.033
-601.098	3.294	-0.282	-0.208
-600.084	-200.000	0.015	-0.132
-599.069	140.080	0.184	-0.246
-598.055	110.005	0.140	0.170
-597.040	800.000	0.051	0.206
-596.025	800.000	0.054	0.230
-595.011	-71.222	-0.080	-0.030
-593.996	-163.172	0.238	0.012
-592.982	3.853	-0.295	-0.219
-591.967	5.747	-0.123	-0.092
-590.952	800.000	-0.061	-0.237
-589.938	-139.267	-0.312	0.034
-588.923	28.263	0.082	-0.070
-587.909	-57.034	0.344	-0.154
-586.894	-150.322	0.049	-0.004
-585.879	-136.614	0.110	-0.013
-584.865	121.664	-0.118	0.149
-583.850	-200.000	0.016	0.317
-582.836	-167.785	0.230	0.009
-581.821	800.000	-0.027	0.114
-580.806	-200.000	-0.002	-0.191
-579.792	358.623	-0.171	0.346
-578.777	129.364	0.181	0.234
-577.763	-200.000	-0.035	-0.418
-576.748	-61.381	-0.170	-0.072
-575.733	281.929	-0.067	-0.122
-574.719	33.297	-0.040	0.035
-573.704	76.882	0.034	0.037
-572.690	109.750	0.103	-0.125
-571.675	299.128	-0.018	-0.034
-570.661	129.448	-0.100	-0.129
-569.646	456.444	-0.053	-0.118
-568.631	-200.000	0.019	-0.140
-567.617	-112.110	-0.336	0.068
-566.602	20.094	0.130	0.106
-565.588	-103.952	0.132	0.031
-564.573	-19.410	-0.463	-0.291
-563.558	81.869	-0.136	0.149
-562.544	-200.000	-0.000	0.109
-561.529	-75.005	-0.167	-0.061
-560.515	35.701	-0.344	0.306
-559.500	-200.000	0.014	0.118
-558.485	474.813	0.182	-0.415
-557.471	-154.125	-0.487	-0.033
-556.456	-7.563	-0.237	0.162
-555.442	-42.753	0.060	-0.031
-554.427	46.210	0.113	0.106
-553.412	199.915	-0.090	-0.140
-552.398	-71.573	-0.512	-0.194
-551.383	43.492	0.095	-0.088
-550.369	219.084	-0.218	0.353
-549.354	426.849	-0.112	0.244
-548.339	-62.642	-0.162	-0.068
-547.325	-122.686	-0.079	0.013
-546.310	11.395	0.143	0.111
-545.296	519.000	0.109	-0.258
-544.281	-200.000	-0.039	-0.194
-543.266	558.120	-0.111	0.271
-542.252	128.800	0.141	0.181
-541.237	174.703	0.131	-0.192
-540.223	746.656	-0.056	0.152
-539.208	-13.329	0.153	0.100
-538.193	-11.698	-0.146	-0.097
-537.179	91.482	0.091	0.103
-536.164	-83.012	-0.101	0.033
-535.150	49.201	0.355	0.337
-534.135	-165.091	0.030	0.001
-533.121	479.296	0.075	-0.172
-532.106	263.430	0.065	0.114
-531.091	-200.000	-0.045	-0.242
-530.077	-200.000	-0.049	-0.286
-529.062	800.000	0.051	0.163
-528.048	800.000	-0.069	0.202
-527.033	-90.683	0.465	0.136
-526.018	-20.807	0.238	-0.148
-525.004	151.918	0.079	0.108
-523.989	-200.000	0.058	0.461
-522.975	71.895	0.189	-0.198
-521.960	-7.999	0.139	0.095
-520.945	95.412	0.061	0.070
-519.931	68.827	-0.165	-0.171
-518.916	-112.792	-0.157	-0.031
-517.902	800.000	-0.107	-0.341
-516.887	-110.554	0.151	0.032
-515.872	-85.252	-0.222	0.070
-514.858	800.000	-0.012	0.045
-513.843	49.227	0.241	0.229
-512.829	107.114	-0.151	0.181
-511.814	163.396	-0.123	-0.174
-510.799	385.000	-0.051	-0.107
-509.785	81.544	-0.054	-0.059
-508.770	-200.000	-0.026	0.177
-507.756	-65.731	0.063	0.025
-506.741	-66.535	0.166	-0.066
-505.726	800.000	-0.088	0.252
-504.712	-103.188	-0.415	-0.099
-503.697	-16.032	-0.300	-0.193
-502.683	186.197	0.139	-0.208
-501.668	239.307	-0.028	-0.046
-500.653	-200.000	-0.001	0.335
-499.639	-85.739	0.197	-0.062
-498.624	800.000	-0.041	0.159
-497.610	-4.531	0.321	0.224
-496.595	-22.639	0.141	-0.086
-495.581	93.455	0.171	0.195
-494.566	182.632	-0.170	0.254
-493.551	-147.765	0.170	0.014
-492.537	95.631	0.188	0.217
-491.522	144.114	-0.097	-0.130
-490.508	74.308	0.067	0.071
-489.493	-200.000	0.005	0.269
-488.478	-79.210	-0.332	0.114
-487.464	800.000	-0.093	-0.304
-486.449	-109.637	-0.063	-0.013
-485.435	-7.945	0.129	0.088
-484.420	-200.000	-0.057	0.264
-483.405	31.571	-0.241	0.210
-482.391	-200.000	0.020	-0.165
-481.376	614.001	-0.032	-0.080
-480.362	-125.123	0.251	-0.039
-479.347	-8.451	-0.127	-0.086
-478.332	475.960	-0.093	-0.212
-477.318	-200.000	-0.017	-0.098
-476.303	800.000	-0.089	-0.257
-475.289	-25.804	-0.177	-0.105
-474.274	82.003	-0.247	-0.270
-473.259	-101.092	-0.285	-0.071
-472.245	-96.756	-0.105	-0.028
-471.230	153.749	-0.154	-0.213
-470.216	57.762	-0.190	-0.187
-469.201	800.000	0.053	-0.183
-468.186	-0.445	-0.226	0.162
-467.172	378.794	-0.087	0.179
-466.157	-200.000	-0.025	0.296
-465.143	-82.433	-0.353	-0.116
-464.128	52.453	-0.039	0.038
-463.113	-51.684	0.074	-0.035
-462.099	282.293	0.039	-0.070
-461.084	800.000	-0.049	-0.153
-460.070	-69.679	-0.473	-0.182
-459.055	501.258	-0.140	-0.327
-458.040	-7.392	-0.140	0.096
-457.026	-128.988	0.120	0.017
-456.011	-152.102	-0.142	0.010
-454.997	-83.074	0.128	-0.042
-453.982	-200.000	-0.004	0.031
-452.968	-181.587	0.273	0.005
-451.953	89.262	-0.257	0.289
-450.938	602.179	0.097	-0.243
-449.924	76.446	-0.189	-0.202
-448.909	-162.540	0.624	0.031
-447.895	191.912	-0.200	-0.304
-446.880	-83.003	0.166	-0.054
-445.865	-82.303	0.157	0.052
-444.851	-155.364	0.345	-0.023
-443.836	534.717	0.060	-0.143
-442.822	800.000	0.075	0.317
-441.807	800.000	0.021	-0.062
-440.792	-152.062	-0.537	-0.039
-439.778	143.600	-0.116	-0.155
-438.763	-144.943	0.392	-0.036
-437.749	-93.595	-0.467	-0.130
-436.734	-200.000	-0.009	0.078
-435.719	-200.000	0.029	0.480
-434.705	-107.580	0.216	-0.048
-433.690	-35.644	0.033	0.018
-432.676	-35.200	-0.201	0.110
-431.661	-168.907	0.366	0.014
-430.646	376.823	0.104	-0.215
-429.632	26.304	-0.279	0.235
-428.617	-95.558	-0.192	0.052
-427.603	35.305	-0.127	-0.112
-426.588	170.129	0.044	-0.063
-425.573	-66.748	-0.211	0.084
-424.559	-66.014	0.087	0.035
-423.544	-200.000	-0.003	-0.364
-422.530	88.157	-0.048	0.053
-421.515	-200.000	-0.007	-0.053
-420.500	302.186	-0.038	0.071
-419.486	-75.850	-0.284	0.101
-418.471	345.986	-0.122	0.242
-417.457	800.000	-0.043	0.183
-416.442	114.886	0.227	0.279
-415.428	57.051	0.045	0.044
-414.413	-127.700	-0.250	-0.036
-413.398	-27.888	0.246	-0.143
-412.384	162.824	0.059	-0.083
-411.369	-73.434	0.169	0.062
-410.355	97.559	0.200	0.231
-409.340	289.585	0.121	-0.222
-408.325	-68.696	0.029	0.011
-407.311	-70.851	-0.143	0.054
-406.296	-89.707	0.142	-0.042
-405.282	795.883	0.048	0.134
-404.267	20.958	-0.082	-0.067
-403.252	566.342	0.202	0.493
-402.238	163.043	-0.154	0.218
-401.223	3.059	0.144	0.106
-400.209	-200.000	-0.001	0.276
-399.194	52.897	-0.055	0.052
-398.179	-58.612	-0.347	0.151
-397.165	22.180	0.315	0.259
-396.150	800.000	0.093	-0.341
-395.136	-80.401	-0.153	0.051
-394.121	59.791	-0.086	0.085
-393.106	-61.069	-0.105	0.045
-392.092	13.482	-0.135	-0.105
-391.077	-200.000	0.025	0.183
-390.063	-188.882	0.158	0.002
-389.048	47.812	-0.088	-0.083
-388.033	-167.658	-0.201	0.008
-387.019	-200.000	0.056	-0.253
-386.004	-74.612	0.418	0.151
-384.990	314.187	0.186	-0.351
-383.975	-1.324	0.361	-0.256
-382.960	-83.162	-0.072	0.023
-381.946	-118.967	0.337	0.059
-380.931	69.637	-0.176	0.182
-379.917	800.000	0.034	0.127
-378.902	-200.000	-0.018	-0.307
-377.888	-57.683	-0.303	-0.133
-376.873	-70.768	0.150	-0.057
-375.858	-82.450	0.273	0.089
-374.844	-200.000	-0.019	-0.408
-373.829	800.000	0.085	0.265
-372.815	-151.231	0.160	0.012
-371.800	-16.097	-0.151	0.097
-370.785	-80.799	-0.064	0.021
-369.771	311.949	-0.263	0.495
-368.756	-63.691	0.316	0.130
-367.742	-166.349	-0.102	-0.004
-366.727	-78.391	0.424	-0.146
-365.712	800.000	0.080	-0.320
-364.698	-200.000	0.066	-0.358
-363.683	140.089	-0.150	-0.199
-362.669	175.222	0.037	0.053
-361.654	-114.549	-0.274	0.053
-360.639	-37.531	0.166	0.089
-359.625	367.758	0.117	-0.238
-358.610	-70.551	-0.172	0.066
-357.596	193.809	0.113	-0.172
-356.581	550.492	-0.061	-0.147
-355.566	291.372	0.137	0.251
-354.552	-200.000	-0.036	-0.178
-353.537	-130.610	-0.430	0.058
-352.523	-151.548	0.178	0.013
-351.508	-200.000	0.042	-0.318
-350.493	-9.039	0.167	0.112
-349.479	110.359	0.183	0.220
-348.464	800.000	0.019	-0.070
-347.450	35.720	-0.159	-0.140
-346.435	485.364	0.097	-0.222
-345.420	800.000	0.017	-0.070
-344.406	-112.084	-0.119	0.024
-343.391	485.577	-0.078	-0.178
-342.377	-200.000	0.007	-0.136
-341.362	50.170	-0.069	-0.065
-340.348	-33.510	-0.146	0.081
-339.333	123.730	-0.046	-0.058
-338.318	-102.522	0.433	-0.104
-337.304	-97.346	-0.202	0.053
-336.289	-20.950	0.083	-0.051
-335.275	-200.000	0.031	-0.250
-334.260	1.718	0.107	-0.077
-333.245	-200.000	0.005	0.105
-332.231	-200.000	-0.006	-0.382
-331.216	189.576	-0.209	0.314
-330.202	113.914	-0.176	-0.214
-329.187	800.000	-0.061	-0.249
-328.172	61.640	0.166	-0.166
-327.158	290.559	0.175	0.319
-326.143	-77.039	-0.055	-0.019
-325.129	-200.000	0.003	0.145
-324.114	-50.581	0.137	0.065
-323.099	-103.229	0.251	-0.060
-322.085	-200.000	0.004	0.388
-321.070	438.133	-0.057	0.124
-320.056	331.400	0.117	0.226
-319.041	652.314	-0.042	0.108
-318.026	-200.000	-0.038	0.276
-317.012	33.116	0.223	-0.194
-315.997	171.897	0.087	0.126
-314.983	-87.337	0.148	0.045
-313.968	-200.000	-0.046	-0.230
-312.953	-200.000	0.007	0.356
-311.939	556.158	-0.262	0.632
-310.924	370.418	0.088	0.180
-309.910	164.615	-0.110	-0.155
-308.895	606.296	0.144	0.360
-307.880	-200.000	-0.056	-0.287
-306.866	-7.535	-0.155	-0.105
-305.851	-200.000	0.004	-0.207
-304.837	-200.000	0.032	-0.293
-303.822	21.929	-0.266	0.217
-302.807	108.433	0.193	-0.230
-301.793	14.722	-0.183	0.143
-300.778	-63.484	0.133	0.055
-299.764	800.000	0.090	0.292
-298.749	-143.324	-0.275	-0.026
-297.735	-74.667	0.407	-0.147
-296.720	77.782	-0.304	-0.324
-295.705	-28.646	-0.295	0.170
-294.691	-64.233	0.298	0.122
-293.676	800.000	0.081	0.243
-292.662	-200.000	-0.077	-0.000
-291.647	-200.000	0.012	-0.127
-290.632	10.655	0.373	-0.285
-289.618	0.016	0.317	0.226
-288.603	471.071	0.083	-0.188
-287.589	547.990	-0.134	0.320
-286.574	643.482	0.111	-0.283
-285.559	-178.765	0.131	0.003
-284.545	-200.000	-0.040	0.238
-283.530	-200.000	-0.000	0.104
-282.516	-87.551	-0.215	-0.065
-281.501	-94.405	0.273	0.075
-280.486	-33.498	0.259	0.143
-279.472	-78.243	-0.330	-0.114
-278.457	-154.709	0.313	0.021
-277.443	-30.563	-0.367	0.208
-276.428	-200.000	-0.047	-0.221
-275.413	189.869	0.047	-0.071
-274.399	-200.000	0.002	0.169
-273.384	-200.000	0.026	-0.121
-272.370	-154.345	-0.212	-0.014
-271.355	148.343	-0.168	-0.227
-270.340	-142.288	0.300	0.030
-269.326	20.824	-0.174	-0.141
-268.311	-60.239	0.272	-0.116
-267.297	800.000	0.068	0.253
-266.282	-200.000	0.015	-0.205
-265.267	-115.319	0.420	0.079
-264.253	800.000	0.081	-0.278
-263.238	-89.999	0.062	-0.018
-262.224	-197.295	-0.235	0.001
-261.209	-200.000	0.004	0.048
-260.195	-200.000	0.008	0.100
-259.180	-45.761	0.172	-0.085
-258.165	-10.014	-0.071	0.047
-257.151	-200.000	0.004	0.139
-256.136	54.001	-0.132	-0.127
-255.122	-121.834	0.220	-0.036
-254.107	404.083	0.159	0.335
-253.092	-107.848	0.313	0.068
-252.078	-200.000	0.008	0.374
-251.063	-25.565	0.303	0.179
-250.049	428.472	-0.043	0.093
-249.034	194.684	-0.125	-0.189
-248.019	-53.587	-0.186	-0.085
-247.005	-200.000	-0.007	0.137
-245.990	134.522	0.095	0.123
-244.976	-93.097	0.265	-0.074
-243.961	-130.954	-0.107	-0.014
-242.946	361.618	0.246	-0.493
-241.932	320.585	-0.057	0.108
-240.917	-174.652	0.239	-0.007
-239.903	800.000	0.070	-0.247
-238.888	-200.000	0.043	-0.219
-237.873	112.773	0.302	-0.366
-236.859	-99.784	0.081	-0.020
-235.844	800.000	0.049	-0.200
-234.830	456.682	-0.092	0.205
-233.815	12.617	0.156	0.120
-232.800	-17.755	0.067	-0.042
-231.786	-101.325	-0.362	0.088
-230.771	-20.129	-0.076	-0.047
-229.757	749.780	0.077	0.209
-228.742	-29.932	-0.111	0.063
-227.727	16.859	0.048	0.038
-226.713	-6.140	-0.135	-0.092
-225.698	273.712	0.070	-0.124
-224.684	199.235	-0.031	0.048
-223.669	130.780	0.246	-0.315
-222.655	-60.071	-0.199	0.085
-221.640	357.116	-0.080	-0.159
-220.625	-55.863	-0.176	0.078
-219.611	66.201	0.078	0.079
-218.596	-72.524	0.182	-0.067
-217.582	-120.706	-0.299	0.050
-216.567	-109.806	-0.168	-0.035
-215.552	446.673	0.099	0.217
-214.538	27.173	-0.250	-0.210
-213.523	-200.000	0.015	-0.258
-212.509	90.459	-0.214	0.239
-211.494	12.050	-0.060	-0.046
-210.479	800.000	0.172	-0.490
-209.465	800.000	0.090	0.384
-208.450	348.344	-0.054	-0.106
-207.436	163.338	-0.082	0.115
-206.421	4.588	-0.089	0.066
-205.406	-200.000	0.099	0.460
-204.392	-200.000	-0.049	0.402
-203.377	9.419	-0.211	0.159
-202.363	189.591	0.088	0.132
-201.348	-200.000	0.000	-0.005
-200.333	-155.939	-0.375	0.024
-199.319	-65.655	-0.210	-0.084
-198.304	-200.000	0.029	0.000
-197.290	136.623	-0.103	0.134
-196.275	800.000	0.017	-0.065
-195.260	-4.047	0.184	0.127
-194.246	-149.910	0.118	-0.009
-193.231	19.549	-0.150	-0.121
-192.217	355.827	0.059	0.116
-191.202	302.033	0.143	-0.263
-190.187	-147.132	0.260	0.022
-189.173	-200.000	0.012	0.143
-188.158	383.522	-0.083	-0.170
-187.144	-200.000	0.023	-0.173
-186.129	360.613	0.106	-0.212
-185.114	-86.283	0.233	-0.072
-184.100	-57.784	-0.165	-0.072
-183.085	-12.932	0.080	-0.052
-182.071	286.892	-0.032	0.058
-181.056	111.649	-0.057	0.068
-180.042	592.077	0.139	0.343
-179.027	-200.000	0.060	0.389
-178.012	800.000	-0.132	-0.481
-176.998	800.000	0.033	-0.108
-175.983	46.869	0.223	-0.206
-174.969	-20.319	0.497	0.305
-173.954	488.797	0.140	0.320
-172.939	138.327	0.137	0.179
-171.925	89.935	-0.162	0.181
-170.910	800.000	-0.031	0.126
-169.896	-200.000	-0.004	0.106
-168.881	423.672	-0.112	-0.240
-167.866	-200.000	0.015	0.146
-166.852	54.194	0.061	-0.058
-165.837	-200.000	-0.034	0.173
-164.823	-172.100	0.355	0.011
-163.808	-2.583	0.289	0.202
-162.793	-171.244	-0.155	0.005
-161.779	-0.440	0.085	-0.060
-160.764	800.000	0.036	-0.114
-159.750	265.484	0.214	0.371
-158.735	-200.000	-0.064	0.279
-157.720	-47.742	0.256	0.123
-156.706	680.225	-0.068	-0.175
-155.691	-200.000	0.008	-0.245
-154.677	-30.284	-0.090	0.051
-153.662	800.000	-0.054	-0.163
-152.647	114.063	0.124	-0.151
-151.633	800.000	-0.095	0.338
-150.618	52.438	-0.019	0.018
-149.604	-113.248	-0.193	0.038
-148.589	-200.000	0.017	-0.249
-147.574	800.000	-0.036	0.111
-146.560	323.643	0.027	0.052
-145.545	5.529	0.264	-0.194
-144.531	39.635	0.360	0.321
-143.516	800.000	0.047	0.168
-142.502	-123.298	0.234	-0.037
-141.487	288.746	0.049	-0.089
-140.472	-69.328	-0.204	0.078
-139.458	239.650	-0.142	-0.235
-138.443	-71.700	0.273	0.101
-137.429	239.025	-0.071	0.118
-136.414	-150.856	0.512	0.039
-135.399	167.682	0.121	-0.171
-134.385	-127.637	0.160	-0.023
-133.370	148.311	0.174	-0.233
-132.356	-200.000	-0.027	-0.196
-131.341	252.583	0.013	0.023
-130.326	78.420	0.335	0.356
-129.312	-64.104	0.392	-0.159
-128.297	-200.000	0.024	-0.323
-127.283	153.999	-0.092	-0.125
-126.268	-149.854	-0.217	0.017
-125.253	669.800	0.074	-0.190
-124.239	-200.000	0.271	-0.001
-123.224	-39.705	-0.287	-0.149
-122.210	263.269	-0.050	0.087
-121.195	-158.365	-0.197	-0.011
