DTS Sentinel unit serial number:	SN413079Multiplexer serial number:	ORYXHardware model number:	OX4-SRSoftware version number:	ORYX F/W v4.00 Oryx Data Collector v3.7.2.0data status	okinstallation	princeton_trtdifferential loss correction	single-endedforward channel	channel 3reverse channel	N/Adate	2019/09/11time	07:30:11forward acquisition time	60.00reverse acquisition time	0.00gamma	496.2192k internal	0.2325k external	0.2325temperature offset calibration	0.9892default loss term (dB/km)	0.3790temperature slope calibration	1.0000multiplexer offset coefficient	1.0000multiplexer slope coefficient	1.0000fibre end	0.00T internal ref (°C)	31.06T ext. ref 1 (°C)	-0.09T ext. ref 2 (°C)	27.51length (m)	temperature (°C)	Stokes	anti-Stokes-747.200	37.639	0.177	-0.158
-746.185	268.148	-0.117	0.206
-745.171	-177.852	-0.224	0.005
-744.156	-1.451	0.179	-0.128
-743.142	103.182	-0.167	0.198
-742.127	800.000	0.098	0.282
-741.112	159.301	-0.145	-0.203
-740.098	-49.914	-0.225	0.108
-739.083	-85.354	0.258	-0.081
-738.069	-60.922	0.313	0.134
-737.054	542.613	0.023	0.055
-736.039	-98.221	-0.440	0.114
-735.025	-200.000	-0.011	0.378
-734.010	-34.038	-0.048	-0.027
-732.996	16.066	0.242	0.192
-731.981	191.274	0.081	-0.123
-730.966	-160.341	-0.329	-0.018
-729.952	800.000	0.161	0.455
-728.937	-28.974	-0.064	0.037
-727.923	-200.000	-0.013	0.111
-726.908	-8.037	-0.215	-0.146
-725.894	81.013	0.068	-0.074
-724.879	-84.195	-0.198	0.063
-723.864	-29.171	0.333	-0.193
-722.850	184.455	-0.274	0.409
-721.835	-200.000	-0.012	-0.251
-720.821	-200.000	-0.020	0.149
-719.806	-159.747	-0.305	-0.017
-718.791	611.894	-0.056	0.142
-717.777	164.859	0.204	-0.291
-716.762	-200.000	-0.024	-0.190
-715.748	126.881	0.111	-0.142
-714.733	800.000	-0.143	-0.473
-713.718	177.378	0.144	-0.211
-712.704	-121.593	0.060	-0.010
-711.689	800.000	-0.084	-0.254
-710.675	200.596	-0.120	-0.186
-709.660	312.933	-0.083	0.157
-708.645	800.000	0.070	-0.264
-707.631	-144.184	-0.121	0.011
-706.616	177.873	0.122	-0.179
-705.602	-200.000	0.002	0.149
-704.587	72.112	0.148	0.155
-703.572	-95.602	-0.374	-0.101
-702.558	-200.000	0.017	-0.214
-701.543	442.531	0.118	0.260
-700.529	-200.000	0.044	-0.206
-699.514	-185.583	0.585	-0.009
-698.499	-134.610	-0.230	-0.028
-697.485	-43.832	-0.312	0.158
-696.470	200.512	0.103	-0.159
-695.456	-200.000	0.074	0.371
-694.441	291.559	-0.068	-0.125
-693.426	445.378	0.108	-0.239
-692.412	102.232	0.245	-0.288
-691.397	-200.000	-0.012	-0.190
-690.383	-96.323	-0.287	-0.077
-689.368	800.000	0.105	0.291
-688.354	1.065	0.168	0.121
-687.339	-200.000	-0.009	0.162
-686.324	800.000	0.088	-0.286
-685.310	50.832	-0.142	0.135
-684.295	-176.721	0.159	0.004
-683.281	-6.848	-0.132	0.090
-682.266	358.291	0.056	-0.113
-681.251	-11.592	-0.284	-0.188
-680.237	-200.000	-0.066	-0.578
-679.222	-134.473	0.059	0.007
-678.208	-71.534	0.234	0.088
-677.193	56.472	-0.106	0.104
-676.178	182.970	-0.277	-0.411
-675.164	538.211	-0.102	0.245
-674.149	165.539	0.169	-0.241
-673.135	-62.718	-0.300	-0.125
-672.120	-200.000	-0.014	0.136
-671.105	800.000	0.026	-0.083
-670.091	800.000	-0.049	-0.187
-669.076	-165.195	-0.284	-0.013
-668.062	-85.132	-0.213	0.067
-667.047	22.678	0.369	-0.304
-666.032	800.000	-0.124	-0.409
-665.018	-127.985	-0.232	0.033
-664.003	-26.654	0.250	-0.147
-662.989	91.075	-0.128	-0.145
-661.974	77.862	-0.174	0.186
-660.959	-19.350	0.217	0.136
-659.945	-51.950	0.382	-0.178
-658.930	-158.367	-0.027	0.002
-657.916	-200.000	0.014	-0.203
-656.901	-200.000	0.033	0.241
-655.886	-200.000	-0.001	0.094
-654.872	49.513	-0.152	-0.144
-653.857	-162.391	-0.120	-0.006
-652.843	145.006	-0.171	-0.230
-651.828	-200.000	0.012	-0.179
-650.814	800.000	0.080	0.311
-649.799	-124.112	0.105	0.017
-648.784	-200.000	-0.045	0.255
-647.770	84.288	-0.146	-0.160
-646.755	89.596	0.165	-0.185
-645.741	800.000	0.037	0.104
-644.726	-200.000	-0.032	-0.234
-643.711	800.000	0.085	-0.265
-642.697	-4.601	-0.252	0.175
-641.682	154.575	-0.120	-0.165
-640.668	142.190	-0.204	0.272
-639.653	5.306	0.441	-0.327
-638.638	-165.777	-0.191	0.008
-637.624	-157.549	0.036	-0.002
-636.609	800.000	0.087	0.246
-635.595	-82.627	-0.232	-0.076
-634.580	4.934	0.159	0.118
-633.565	-200.000	0.174	0.000
-632.551	-110.806	-0.180	-0.037
-631.536	356.333	0.105	0.209
-630.522	146.479	0.116	-0.157
-629.507	-32.093	-0.349	0.196
-628.492	-6.951	0.014	0.010
-627.478	-20.113	-0.360	-0.223
-626.463	-200.000	-0.018	-0.215
-625.449	16.821	0.134	0.107
-624.434	-124.893	0.091	0.014
-623.419	-132.142	0.297	0.039
-622.405	-44.016	-0.408	-0.206
-621.390	-200.000	0.085	-0.505
-620.376	800.000	-0.094	-0.275
-619.361	-92.451	0.317	-0.090
-618.346	-8.656	0.108	-0.073
-617.332	5.846	-0.087	-0.065
-616.317	-119.243	0.256	0.045
-615.303	-98.634	-0.276	-0.071
-614.288	-200.000	-0.366	-0.002
-613.273	55.532	-0.152	0.147
-612.259	-64.083	-0.285	0.117
-611.244	48.308	0.197	-0.185
-610.230	27.100	-0.174	0.147
-609.215	-96.932	-0.367	0.097
-608.201	-38.091	0.163	-0.087
-607.186	438.485	-0.047	0.103
-606.171	50.198	-0.204	-0.194
-605.157	14.368	-0.155	0.122
-604.142	-182.382	0.210	-0.004
-603.128	121.254	0.175	-0.219
-602.113	-117.528	0.186	0.034
-601.098	-15.476	-0.136	0.087
-600.084	-200.000	-0.024	-0.254
-599.069	-84.839	-0.141	-0.045
-598.055	800.000	0.112	-0.325
-597.040	-57.639	0.460	0.202
-596.025	-87.696	-0.222	0.067
-595.011	501.955	0.106	-0.246
-593.996	650.338	0.050	-0.128
-592.982	-28.197	-0.038	-0.022
-591.967	-200.000	-0.008	0.245
-590.952	-86.911	0.138	0.042
-589.938	-112.780	-0.302	-0.060
-588.923	86.356	0.236	0.261
-587.909	-48.260	0.618	-0.299
-586.894	-45.272	-0.222	-0.110
-585.879	-200.000	-0.056	-0.402
-584.865	364.429	0.175	-0.354
-583.850	215.368	-0.229	0.364
-582.836	-101.713	-0.205	-0.050
-581.821	656.847	-0.058	0.149
-580.806	-134.599	0.149	0.018
-579.792	593.779	-0.120	-0.298
-578.777	-62.791	-0.347	0.144
-577.763	800.000	-0.049	0.183
-576.748	-161.768	0.330	-0.017
-575.733	330.905	-0.062	0.119
-574.719	53.379	0.119	-0.114
-573.704	-78.088	0.255	0.088
-572.690	353.182	-0.050	0.099
-571.675	345.709	-0.171	-0.337
-570.661	-47.347	0.259	0.127
-569.646	-200.000	-0.038	0.270
-568.631	-7.088	0.066	0.045
-567.617	-80.581	0.323	-0.108
-566.602	41.773	-0.305	-0.277
-565.588	-200.000	0.031	-0.186
-564.573	-32.140	-0.377	-0.211
-563.558	199.701	0.069	-0.107
-562.544	-200.000	-0.009	0.119
-561.529	100.771	0.086	-0.100
-560.515	-3.759	-0.186	0.129
-559.500	522.431	0.108	0.254
-558.485	800.000	-0.033	0.126
-557.471	345.160	-0.137	0.270
-556.456	7.701	-0.365	-0.274
-555.442	-160.583	0.332	0.018
-554.427	-200.000	0.010	-0.188
-553.412	-50.207	-0.379	-0.180
-552.398	176.890	0.211	-0.307
-551.383	-106.699	0.139	-0.031
-550.369	31.087	-0.169	-0.145
-549.354	144.435	-0.077	0.103
-548.339	224.209	0.146	0.237
-547.325	-200.000	-0.049	0.372
-546.310	204.635	-0.226	0.352
-545.296	276.547	0.087	0.155
-544.281	-200.000	-0.061	-0.291
-543.266	558.232	-0.053	-0.129
-542.252	-35.200	0.328	-0.179
-541.237	70.258	0.217	0.224
-540.223	27.393	0.167	0.140
-539.208	146.044	-0.205	0.276
-538.193	-124.743	-0.138	0.021
-537.179	-121.137	0.066	-0.011
-536.164	-133.919	-0.241	0.030
-535.150	-163.407	-0.236	0.011
-534.135	72.500	-0.069	-0.072
-533.121	-1.332	-0.172	-0.121
-532.106	-200.000	0.008	0.050
-531.091	-133.947	0.080	0.010
-530.077	-163.097	-0.315	-0.015
-529.062	16.407	-0.127	0.100
-528.048	44.337	0.084	-0.077
-527.033	-60.207	0.264	-0.113
-526.018	-170.523	0.070	0.002
-525.004	-200.000	0.016	0.120
-523.989	800.000	0.102	-0.317
-522.975	800.000	-0.080	0.237
-521.960	45.253	-0.171	0.158
-520.945	-86.470	0.058	0.018
-519.931	283.161	0.181	-0.324
-518.916	-77.939	0.116	0.040
-517.902	17.789	0.053	-0.042
-516.887	-35.954	0.137	0.074
-515.872	73.820	0.317	0.332
-514.858	-109.004	0.213	0.045
-513.843	-154.771	-0.321	0.021
-512.829	-200.000	-0.064	-0.331
-511.814	-10.564	0.173	0.115
-510.799	-29.709	-0.251	-0.143
-509.785	-32.373	0.303	0.169
-508.770	88.474	0.233	0.259
-507.756	-200.000	-0.036	0.302
-506.741	-163.217	0.174	-0.008
-505.726	57.521	-0.062	0.060
-504.712	122.207	-0.088	-0.110
-503.697	-67.248	-0.278	-0.109
-502.683	145.704	-0.123	-0.165
-501.668	-200.000	-0.042	-0.402
-500.653	172.284	-0.129	0.185
-499.639	-146.392	-0.366	0.032
-498.624	-42.312	0.163	0.083
-497.610	800.000	-0.102	-0.296
-496.595	-90.581	0.415	-0.120
-495.581	10.658	-0.214	-0.163
-494.566	709.041	0.065	0.173
-493.551	-100.040	0.077	-0.019
-492.537	-200.000	-0.013	0.146
-491.522	107.571	-0.281	0.334
-490.508	-182.649	0.300	0.005
-489.493	-85.783	0.154	-0.048
-488.478	108.451	-0.085	-0.101
-487.464	800.000	0.058	-0.162
-486.449	242.626	0.036	-0.061
-485.435	63.740	-0.103	0.103
-484.420	-105.130	0.253	-0.058
-483.405	-200.000	-0.012	-0.097
-482.391	267.230	0.215	0.376
-481.376	-77.581	0.251	0.087
-480.362	-200.000	0.005	0.133
-479.347	-125.266	-0.341	0.052
-478.332	-3.364	-0.232	0.162
-477.318	204.669	-0.043	0.067
-476.303	-94.357	-0.209	-0.057
-475.289	800.000	-0.092	-0.267
-474.274	-112.595	0.270	-0.054
-473.259	107.234	-0.044	0.052
-472.245	-19.698	-0.048	0.030
-471.230	274.629	0.105	-0.186
-470.216	-200.000	0.006	0.120
-469.201	-83.077	-0.239	0.077
-468.186	-82.560	0.278	-0.090
-467.172	-87.682	0.358	0.108
-466.157	-112.423	-0.273	0.054
-465.143	657.899	0.119	-0.306
-464.128	540.229	0.055	-0.131
-463.113	90.128	-0.340	0.379
-462.099	201.604	-0.127	0.195
-461.084	-200.000	0.039	0.194
-460.070	-32.754	0.036	-0.020
-459.055	-200.000	0.005	-0.182
-458.040	-25.069	-0.208	-0.123
-457.026	452.862	0.088	-0.194
-456.011	-200.000	-0.019	-0.115
-454.997	767.597	-0.063	-0.172
-453.982	800.000	-0.041	-0.132
-452.968	-200.000	0.033	-0.224
-451.953	-15.402	-0.357	-0.227
-450.938	-112.758	-0.360	-0.071
-449.924	-200.000	-0.014	-0.079
-448.909	9.060	0.122	-0.092
-447.895	32.787	-0.185	0.159
-446.880	-112.836	-0.103	0.020
-445.865	-182.179	-0.093	0.002
-444.851	286.773	0.138	-0.249
-443.836	-138.247	-0.090	-0.010
-442.822	-84.277	0.156	-0.049
-441.807	-200.000	-0.043	0.387
-440.792	84.379	0.052	0.057
-439.778	632.706	-0.057	0.143
-438.763	505.093	-0.148	0.342
-437.749	18.982	-0.188	-0.150
-436.734	-50.234	-0.105	-0.049
-435.719	-71.702	-0.168	0.062
-434.705	-200.000	0.024	0.279
-433.690	692.953	-0.059	-0.155
-432.676	158.199	0.156	-0.216
-431.661	-40.724	-0.285	-0.147
-430.646	-200.000	0.020	-0.228
-429.632	-200.000	-0.007	-0.166
-428.617	169.335	0.144	-0.204
-427.603	734.879	0.050	-0.132
-426.588	101.303	0.039	-0.046
-425.573	800.000	0.122	-0.360
-424.559	-200.000	-0.036	-0.159
-423.544	709.777	-0.106	-0.280
-422.530	-200.000	-0.118	0.000
-421.515	-41.021	0.063	-0.032
-420.500	-200.000	-0.026	0.143
-419.486	11.032	-0.188	-0.143
-418.471	36.324	0.280	0.246
-417.457	-120.560	-0.267	-0.045
-416.442	72.376	0.166	-0.172
-415.428	10.730	-0.077	-0.058
-414.413	800.000	-0.023	-0.080
-413.398	-5.636	0.254	0.174
-412.384	-200.000	0.013	0.221
-411.369	-93.848	0.218	-0.060
-410.355	-109.824	-0.329	-0.069
-409.340	14.051	0.191	-0.148
-408.325	232.455	-0.191	0.313
-407.311	28.310	0.381	0.321
-406.296	800.000	0.127	0.374
-405.282	256.299	-0.144	-0.246
-404.267	266.541	0.175	0.304
-403.252	501.280	-0.044	-0.102
-402.238	-200.000	-0.027	-0.329
-401.223	-104.256	0.321	-0.074
-400.209	-200.000	0.040	-0.342
-399.194	188.378	-0.160	0.238
-398.179	211.582	-0.181	-0.283
-397.165	52.272	-0.054	0.051
-396.150	191.288	0.070	-0.105
-395.136	800.000	-0.084	-0.294
-394.121	-73.503	0.284	0.103
-393.106	265.966	-0.074	-0.129
-392.092	800.000	0.061	-0.181
-391.077	614.730	-0.012	0.029
-390.063	-200.000	0.022	0.250
-389.048	-63.304	0.062	-0.025
-388.033	-102.240	0.214	-0.051
-387.019	800.000	-0.097	0.301
-386.004	-200.000	-0.012	0.304
-384.990	800.000	0.070	0.193
-383.975	381.757	-0.100	-0.203
-382.960	-200.000	-0.027	-0.298
-381.946	-71.995	-0.147	-0.054
-380.931	-111.477	0.444	-0.090
-379.917	-104.871	0.290	0.066
-378.902	-87.833	0.167	-0.050
-377.888	4.332	0.113	0.083
-376.873	-200.000	0.019	0.200
-375.858	131.279	-0.190	-0.243
-374.844	91.836	-0.151	-0.169
-373.829	-43.673	-0.211	0.106
-372.815	-24.852	-0.226	0.134
-371.800	-135.497	0.187	0.022
-370.785	23.394	0.346	0.283
-369.771	-38.829	-0.012	-0.006
-368.756	-173.881	0.044	0.001
-367.742	102.864	0.148	0.172
-366.727	-174.188	-0.109	-0.003
-365.712	-200.000	-0.034	0.267
-364.698	34.725	0.043	-0.037
-363.683	43.690	0.086	-0.078
-362.669	-200.000	0.065	-0.346
-361.654	577.827	-0.106	0.259
-360.639	120.928	-0.127	0.157
-359.625	-138.528	0.149	0.016
-358.610	-165.897	0.163	0.007
-357.596	60.157	-0.203	0.199
-356.581	372.552	0.034	-0.069
-355.566	53.528	0.112	-0.107
-354.552	220.028	-0.131	0.208
-353.537	-109.144	0.343	-0.072
-352.523	-200.000	-0.038	0.284
-351.508	-200.000	0.019	0.232
-350.493	-143.598	-0.211	0.020
-349.479	-65.555	-0.338	-0.135
-348.464	-67.311	-0.169	-0.066
-347.450	21.631	0.090	0.073
-346.435	-200.000	0.021	-0.219
-345.420	-105.108	0.073	-0.017
-344.406	-200.000	-0.023	-0.209
-343.391	800.000	0.048	-0.174
-342.377	-200.000	0.017	0.214
-341.362	-61.001	-0.171	0.072
-340.348	-200.000	0.009	0.044
-339.333	21.939	0.367	-0.298
-338.318	702.289	-0.085	0.223
-337.304	-47.707	-0.089	0.043
-336.289	95.592	-0.205	0.232
-335.275	-26.320	0.360	-0.210
-334.260	-200.000	0.030	0.181
-333.245	-73.354	-0.049	-0.018
-332.231	137.422	-0.033	-0.043
-331.216	-200.000	-0.023	-0.149
-330.202	64.611	0.117	0.117
-329.187	147.739	-0.187	0.250
-328.172	539.670	0.117	0.277
-327.158	71.868	0.095	-0.098
-326.143	94.351	0.097	0.109
-325.129	-35.580	-0.080	-0.043
-324.114	-180.733	0.236	-0.005
-323.099	-117.028	0.045	-0.008
-322.085	-126.951	-0.396	-0.058
-321.070	-111.668	-0.424	0.085
-320.056	701.096	-0.056	0.146
-319.041	-200.000	0.039	-0.216
-318.026	-73.592	0.187	0.068
-317.012	382.119	0.087	0.177
-315.997	800.000	-0.087	-0.264
-314.983	4.739	0.128	-0.093
-313.968	-26.504	0.113	-0.065
-312.953	8.088	0.177	-0.132
-311.939	-1.474	-0.086	-0.060
-310.924	800.000	0.027	0.105
-309.910	2.426	0.393	0.282
-308.895	-200.000	0.018	-0.131
-307.880	13.297	-0.154	0.118
-306.866	237.790	-0.100	-0.164
-305.851	-38.135	-0.183	0.096
-304.837	-109.447	0.155	-0.032
-303.822	-200.000	0.020	-0.113
-302.807	103.867	0.089	0.103
-301.793	405.732	-0.135	-0.283
-300.778	-19.026	-0.165	-0.102
-299.764	800.000	0.040	0.118
-298.749	111.219	-0.083	-0.099
-297.735	-10.932	-0.191	0.125
-296.720	24.829	-0.057	-0.047
-295.705	-108.120	-0.223	0.048
-294.691	551.237	-0.218	-0.520
-293.676	-123.002	-0.187	0.030
-292.662	147.202	-0.301	0.402
-291.647	552.825	0.021	-0.049
-290.632	-200.000	-0.077	0.403
-289.618	-81.501	0.120	0.039
-288.603	94.944	0.243	0.274
-287.589	800.000	-0.032	0.089
-286.574	27.215	0.104	-0.086
-285.559	32.926	0.163	-0.140
-284.545	3.821	0.080	-0.058
-283.530	-114.778	-0.171	0.032
-282.516	627.109	0.128	0.321
-281.501	-128.771	0.120	-0.017
-280.486	-130.535	0.156	0.021
-279.472	-200.000	0.038	0.319
-278.457	352.637	0.080	-0.158
-277.443	125.082	0.217	-0.271
-276.428	-107.156	-0.348	-0.076
-275.413	69.589	-0.139	-0.141
-274.399	-200.000	0.001	-0.108
-273.384	-157.461	-0.244	0.014
-272.370	-126.164	0.221	0.033
-271.355	-200.000	0.004	0.046
-270.340	6.742	0.275	0.203
-269.326	184.101	-0.183	0.269
-268.311	3.303	-0.107	0.077
-267.297	-59.836	0.058	-0.025
-266.282	-103.419	0.276	-0.064
-265.267	-79.947	0.188	0.063
-264.253	-56.530	0.325	0.143
-263.238	-150.263	-0.107	-0.008
-262.224	-88.265	-0.054	-0.016
-261.209	-0.215	0.022	0.015
-260.195	399.160	0.034	0.070
-259.180	-27.295	-0.198	0.114
-258.165	11.509	0.188	-0.143
-257.151	158.977	-0.063	-0.087
-256.136	-37.726	-0.104	0.055
-255.122	489.436	-0.035	-0.079
-254.107	-105.636	0.250	-0.056
-253.092	53.453	-0.067	-0.063
-252.078	246.909	-0.226	0.377
-251.063	-100.586	-0.075	-0.018
-250.049	-200.000	-0.030	0.211
-249.034	-200.000	0.025	0.159
-248.019	-107.191	-0.114	0.025
-247.005	117.822	0.111	-0.135
-245.990	-130.423	-0.160	-0.021
-244.976	-118.587	0.215	0.038
-243.961	69.627	-0.110	0.112
-242.946	-200.000	0.001	0.016
-241.932	-200.000	-0.010	-0.322
-240.917	-170.161	-0.158	-0.006
-239.903	51.384	-0.127	-0.119
-238.888	-34.476	-0.242	0.131
-237.873	-44.404	0.029	0.014
-236.859	66.838	-0.139	0.140
-235.844	17.051	0.185	-0.145
-234.830	194.106	-0.095	-0.142
-233.815	-90.010	0.181	0.052
-232.800	800.000	-0.072	0.305
-231.786	-51.454	-0.280	0.130
-230.771	123.536	0.210	0.261
-229.757	-35.526	-0.114	-0.061
-228.742	576.195	0.100	-0.242
-227.727	-60.802	-0.049	-0.021
-226.713	141.707	-0.065	-0.085
-225.698	-200.000	0.056	-0.246
-224.684	340.019	-0.066	-0.128
-223.669	71.939	0.196	0.201
-222.655	417.842	-0.010	0.021
-221.640	-54.510	0.122	0.054
-220.625	393.720	0.081	0.168
-219.611	67.790	-0.104	0.105
-218.596	-124.317	-0.033	0.005
-217.582	-45.954	0.274	0.134
-216.567	-6.289	0.103	0.070
-215.552	69.371	0.299	-0.305
-214.538	-65.049	0.313	-0.125
-213.523	80.971	-0.068	0.072
-212.509	-87.510	-0.069	0.021
-211.494	-113.566	-0.358	-0.069
-210.479	-83.883	0.297	-0.093
-209.465	430.906	0.049	0.104
-208.450	-200.000	0.024	-0.241
-207.436	345.471	0.179	0.348
-206.421	-68.099	0.086	-0.033
-205.406	-200.000	-0.001	0.027
-204.392	135.146	0.127	-0.163
-203.377	214.637	0.161	0.252
-202.363	46.611	0.035	-0.032
-201.348	-60.214	0.220	0.093
-200.333	-126.196	0.279	-0.041
-199.319	-127.738	0.031	0.004
-198.304	800.000	0.048	0.176
-197.290	-147.745	-0.153	-0.013
-196.275	800.000	-0.070	-0.233
-195.260	111.014	0.111	0.132
-194.246	6.736	0.156	-0.115
-193.231	95.173	0.064	-0.072
-192.217	-71.080	-0.125	0.047
-191.202	154.584	-0.190	0.258
-190.187	63.500	-0.094	-0.094
-189.173	-194.059	0.318	0.003
-188.158	-108.812	-0.200	0.042
-187.144	-79.969	-0.292	0.097
-186.129	195.953	-0.081	-0.122
-185.114	17.919	-0.166	-0.131
-184.100	230.675	0.056	-0.090
-183.085	-7.353	-0.322	0.215
-182.071	181.206	0.105	0.152
-181.056	-4.073	-0.242	-0.166
-180.042	185.138	0.151	0.222
-179.027	-147.188	0.184	0.015
-178.012	-54.633	0.324	0.145
-176.998	-125.825	-0.192	0.029
-175.983	-200.000	0.003	-0.143
-174.969	-4.328	0.067	0.046
-173.954	800.000	0.057	0.171
-172.939	703.125	0.104	0.270
-171.925	235.762	0.027	-0.044
-170.910	225.676	-0.091	-0.146
-169.896	-155.207	0.455	-0.029
-168.881	-200.000	-0.012	-0.241
-167.866	87.005	0.283	-0.308
-166.852	-200.000	0.012	0.150
-165.837	-200.000	-0.000	-0.044
-164.823	-200.000	0.032	0.275
-163.808	34.091	-0.068	0.058
-162.793	800.000	-0.087	0.297
-161.779	-35.161	-0.112	-0.060
-160.764	142.403	-0.177	0.232
-159.750	583.912	0.095	-0.230
-158.735	-200.000	-0.007	0.152
-157.720	-200.000	-0.024	-0.242
-156.706	450.517	-0.057	0.125
-155.691	169.858	-0.186	0.262
-154.677	-164.857	0.173	-0.008
-153.662	186.656	0.118	-0.173
-152.647	124.254	-0.174	0.216
-151.633	-56.776	-0.198	-0.086
-150.618	-56.728	-0.275	0.120
-149.604	144.740	0.162	-0.213
-148.589	147.506	-0.090	-0.120
-147.574	607.945	0.073	0.179
-146.560	-150.786	0.118	-0.009
-145.545	-55.610	-0.425	-0.188
-144.531	800.000	0.047	0.202
-143.516	-143.482	0.278	-0.026
-142.502	-38.708	-0.324	-0.168
-141.487	-112.807	0.138	-0.027
-140.472	-200.000	-0.018	0.242
-139.458	420.992	0.020	0.042
-138.443	75.089	0.056	0.059
-137.429	258.849	-0.181	0.307
-136.414	-37.610	0.006	-0.003
-135.399	795.702	-0.074	0.200
-134.385	20.882	0.248	-0.198
-133.370	343.210	0.067	-0.129
-132.356	-38.145	-0.164	0.086
-131.341	-120.654	0.372	-0.062
-130.326	-56.641	0.239	0.104
-129.312	-33.828	0.230	-0.125
-128.297	800.000	0.029	-0.119
-127.283	-164.688	0.308	-0.014
-126.268	-37.260	-0.175	0.092
-125.253	-200.000	0.104	0.498
-124.239	124.702	-0.043	-0.053
-123.224	-200.000	-0.034	-0.173
-122.210	800.000	0.063	0.213
-121.195	800.000	0.082	0.297
