DTS Sentinel unit serial number:	SN413079Multiplexer serial number:	ORYXHardware model number:	OX4-SRSoftware version number:	ORYX F/W v4.00 Oryx Data Collector v3.7.2.0data status	okinstallation	princeton_trtdifferential loss correction	single-endedforward channel	channel 3reverse channel	N/Adate	2019/09/13time	09:16:35forward acquisition time	60.00reverse acquisition time	0.00gamma	496.2192k internal	0.2326k external	0.2326temperature offset calibration	1.0137default loss term (dB/km)	0.3790temperature slope calibration	1.0000multiplexer offset coefficient	1.0000multiplexer slope coefficient	1.0000fibre end	0.00T internal ref (°C)	29.05T ext. ref 1 (°C)	4.39T ext. ref 2 (°C)	26.36length (m)	temperature (°C)	Stokes	anti-Stokes-747.200	800.000	0.077	0.270
-746.185	-83.657	-0.202	0.065
-745.171	32.513	0.113	0.099
-744.156	446.664	0.132	0.294
-743.142	-200.000	0.042	0.393
-742.127	74.738	-0.124	0.132
-741.112	204.484	-0.053	-0.084
-740.098	800.000	-0.046	0.140
-739.083	-71.433	-0.145	-0.055
-738.069	800.000	-0.059	-0.234
-737.054	222.316	0.131	0.212
-736.039	-142.315	-0.168	0.017
-735.025	-129.721	0.151	0.021
-734.010	310.628	-0.090	0.170
-732.996	316.059	0.089	0.169
-731.981	650.888	-0.105	0.272
-730.966	166.565	-0.107	0.152
-729.952	800.000	-0.061	-0.183
-728.937	249.781	-0.054	-0.093
-727.923	800.000	-0.063	0.185
-726.908	-200.000	0.021	0.148
-725.894	759.972	-0.108	-0.294
-724.879	295.678	0.158	-0.291
-723.864	370.428	-0.097	-0.198
-722.850	-108.140	-0.095	-0.021
-721.835	111.783	0.059	-0.072
-720.821	-72.432	-0.250	-0.093
-719.806	-200.000	0.002	-0.089
-718.791	-63.620	-0.061	-0.025
-717.777	-200.000	0.000	0.005
-716.762	800.000	-0.048	0.190
-715.748	4.211	-0.068	0.050
-714.733	-200.000	-0.074	-0.342
-713.718	12.191	0.259	-0.201
-712.704	-139.523	-0.171	-0.018
-711.689	-143.675	0.144	0.014
-710.675	-54.838	0.311	0.142
-709.660	-200.000	0.006	0.317
-708.645	-152.055	-0.131	0.010
-707.631	-11.711	-0.140	0.093
-706.616	150.542	-0.027	0.037
-705.602	106.978	0.321	-0.384
-704.587	800.000	-0.017	-0.062
-703.572	69.131	0.040	0.041
-702.558	226.268	0.086	0.140
-701.543	-48.802	0.418	-0.202
-700.529	-200.000	0.007	-0.161
-699.514	-200.000	-0.007	-0.222
-698.499	9.956	-0.274	0.209
-697.485	666.848	0.104	-0.270
-696.470	35.803	-0.127	0.113
-695.456	-200.000	0.043	0.000
-694.441	-89.349	0.217	0.064
-693.426	-162.319	-0.213	0.011
-692.412	-49.853	-0.090	-0.043
-691.397	-123.278	0.453	0.073
-690.383	42.817	-0.172	-0.158
-689.368	800.000	0.051	-0.217
-688.354	326.589	-0.090	0.173
-687.339	-106.827	0.119	-0.027
-686.324	22.506	0.085	0.070
-685.310	-200.000	-0.053	-0.246
-684.295	800.000	-0.061	-0.184
-683.281	-200.000	0.018	-0.157
-682.266	800.000	-0.117	0.345
-681.251	-79.932	0.200	-0.068
-680.237	170.505	0.036	0.052
-679.222	108.924	-0.188	0.226
-678.208	-200.000	0.002	-0.216
-677.193	-86.079	0.247	0.077
-676.178	-200.000	-0.041	-0.281
-675.164	-13.638	-0.243	-0.158
-674.149	-114.697	0.198	0.038
-673.135	800.000	-0.024	0.086
-672.120	-160.065	-0.192	0.011
-671.105	-30.994	-0.127	-0.072
-670.091	-200.000	0.046	-0.206
-669.076	-200.000	-0.025	-0.143
-668.062	-14.228	-0.156	-0.101
-667.047	-131.532	-0.177	-0.023
-666.032	800.000	0.026	0.083
-665.018	-176.578	-0.161	0.004
-664.003	161.659	0.213	-0.299
-662.989	667.232	-0.103	0.267
-661.974	-89.226	-0.226	0.067
-660.959	34.798	-0.305	-0.268
-659.945	-200.000	0.062	0.320
-658.930	10.978	0.137	0.105
-657.916	-31.741	0.049	-0.028
-656.901	37.273	-0.173	0.154
-655.886	-34.594	-0.088	0.048
-654.872	99.838	-0.133	-0.155
-653.857	172.897	0.294	0.425
-652.843	77.606	0.172	-0.184
-651.828	-200.000	-0.007	-0.103
-650.814	230.631	0.103	-0.170
-649.799	-32.713	-0.127	0.071
-648.784	355.516	0.072	0.143
-647.770	-72.627	0.192	0.071
-646.755	-141.639	0.026	0.003
-645.741	-200.000	0.021	-0.158
-644.726	34.450	0.207	0.182
-643.711	-200.000	0.013	0.096
-642.697	-124.463	0.136	0.021
-641.682	-200.000	0.005	0.136
-640.668	-91.462	0.304	0.087
-639.653	-200.000	0.083	-0.578
-638.638	63.947	-0.154	-0.156
-637.624	-117.956	-0.415	0.075
-636.609	-200.000	-0.042	0.186
-635.595	-200.000	0.094	-0.481
-634.580	4.619	-0.247	-0.182
-633.565	169.054	-0.196	-0.280
-632.551	4.914	-0.199	0.147
-631.536	-50.638	-0.098	0.046
-630.522	345.838	0.114	0.226
-629.507	149.593	-0.113	0.153
-628.492	-151.018	-0.243	0.018
-627.478	-114.663	0.117	-0.023
-626.463	186.370	-0.139	-0.207
-625.449	534.256	0.115	-0.273
-624.434	78.499	-0.322	-0.346
-623.419	31.034	0.350	-0.302
-622.405	-147.070	-0.171	-0.015
-621.390	18.761	-0.069	0.055
-620.376	-10.815	-0.190	-0.126
-619.361	800.000	0.041	-0.140
-618.346	-19.438	-0.408	0.254
-617.332	527.296	0.095	0.225
-616.317	-22.216	0.165	0.100
-615.303	-90.010	0.242	-0.071
-614.288	111.130	0.171	0.207
-613.273	-141.249	-0.283	-0.029
-612.259	-200.000	-0.033	-0.271
-611.244	-2.925	-0.347	-0.243
-610.230	284.975	-0.087	-0.157
-609.215	22.245	-0.037	-0.030
-608.201	90.553	-0.047	-0.053
-607.186	77.670	0.074	-0.079
-606.171	-62.999	-0.203	-0.084
-605.157	-106.921	-0.360	-0.080
-604.142	378.371	-0.085	-0.174
-603.128	-145.012	-0.170	0.016
-602.113	-38.089	-0.350	0.186
-601.098	800.000	0.071	-0.259
-600.084	585.174	0.090	0.221
-599.069	14.526	0.121	-0.095
-598.055	-187.554	0.310	-0.004
-597.040	800.000	-0.073	-0.202
-596.025	119.815	0.083	0.104
-595.011	-149.107	0.348	0.028
-593.996	113.006	-0.217	0.264
-592.982	-57.928	-0.163	0.072
-591.967	-200.000	0.029	0.215
-590.952	-31.354	0.217	-0.123
-589.938	254.704	-0.240	-0.412
-588.923	800.000	0.106	0.327
-587.909	-69.915	0.022	-0.009
-586.894	67.986	0.069	0.071
-585.879	-200.000	0.013	0.134
-584.865	-187.926	-0.386	0.005
-583.850	-74.917	0.123	0.044
-582.836	-73.160	0.117	0.043
-581.821	-200.000	-0.051	0.268
-580.806	-164.337	-0.165	-0.008
-579.792	339.078	-0.185	0.361
-578.777	-114.800	-0.180	0.035
-577.763	25.962	-0.131	-0.109
-576.748	-180.882	-0.291	0.006
-575.733	-107.064	0.305	-0.067
-574.719	126.255	-0.081	0.103
-573.704	-124.189	-0.369	-0.058
-572.690	73.712	0.179	-0.187
-571.675	-200.000	-0.012	-0.167
-570.661	-57.473	-0.314	-0.138
-569.646	-55.788	-0.104	0.047
-568.631	-31.592	0.085	0.048
-567.617	-42.415	0.098	0.050
-566.602	-200.000	0.008	-0.170
-565.588	-200.000	-0.068	-0.373
-564.573	146.770	0.185	-0.249
-563.558	194.386	-0.050	-0.076
-562.544	-200.000	0.009	-0.044
-561.529	-200.000	-0.027	0.574
-560.515	475.478	0.218	0.493
-559.500	-187.002	0.074	-0.001
-558.485	-51.737	0.187	0.087
-557.471	-64.446	-0.240	0.098
-556.456	-132.660	-0.343	0.044
-555.442	195.683	-0.035	0.054
-554.427	27.517	0.231	-0.195
-553.412	800.000	-0.070	-0.234
-552.398	-104.574	0.267	-0.062
-551.383	56.920	-0.161	-0.157
-550.369	-200.000	0.016	-0.088
-549.354	272.809	0.070	0.124
-548.339	216.779	0.164	-0.261
-547.325	-17.888	0.156	-0.098
-546.310	800.000	0.070	-0.233
-545.296	449.538	0.054	0.120
-544.281	261.196	0.060	0.104
-543.266	-125.266	0.031	0.005
-542.252	-200.000	-0.069	0.432
-541.237	-95.514	0.140	0.038
-540.223	-82.964	0.520	0.168
-539.208	-69.496	0.438	0.168
-538.193	-91.004	0.045	0.013
-537.179	63.134	-0.096	0.096
-536.164	377.236	-0.045	0.093
-535.150	-65.824	0.192	0.077
-534.135	800.000	-0.061	-0.179
-533.121	-20.220	0.317	0.195
-532.106	-128.095	-0.186	0.027
-531.091	-44.135	0.011	-0.006
-530.077	410.686	0.090	-0.190
-529.062	-96.418	0.177	-0.047
-528.048	-122.850	-0.114	0.018
-527.033	331.262	0.031	-0.060
-526.018	473.312	0.087	0.197
-525.004	92.856	-0.115	-0.130
-523.989	17.742	-0.279	-0.222
-522.975	-76.799	0.134	-0.047
-521.960	312.547	0.055	-0.104
-520.945	-118.392	0.215	0.038
-519.931	281.597	0.118	0.211
-518.916	-34.532	0.113	-0.062
-517.902	63.261	0.214	-0.214
-516.887	-200.000	0.019	-0.387
-515.872	149.851	0.071	0.097
-514.858	30.022	-0.111	-0.095
-513.843	17.831	0.345	-0.275
-512.829	-73.402	0.017	-0.006
-511.814	108.746	-0.275	-0.328
-510.799	-200.000	-0.032	-0.284
-509.785	80.001	0.304	0.327
-508.770	-72.896	-0.116	-0.043
-507.756	9.338	0.105	-0.079
-506.741	-115.007	0.174	-0.033
-505.726	-24.045	-0.154	-0.092
-504.712	253.589	-0.172	-0.294
-503.697	-27.258	-0.306	-0.178
-502.683	-43.963	0.143	0.072
-501.668	327.958	0.107	-0.206
-500.653	484.429	-0.118	0.268
-499.639	-126.254	-0.207	0.031
-498.624	-200.000	0.054	0.357
-497.610	232.830	-0.172	0.282
-496.595	-200.000	0.073	-0.330
-495.581	-41.764	-0.095	-0.049
-494.566	-162.966	-0.128	-0.006
-493.551	800.000	-0.013	-0.058
-492.537	-51.556	0.221	-0.103
-491.522	-200.000	0.023	0.158
-490.508	-200.000	-0.082	-0.582
-489.493	427.985	-0.196	0.422
-488.478	-177.467	0.315	-0.008
-487.464	-57.846	-0.184	0.080
-486.449	19.262	0.101	0.081
-485.435	618.953	-0.051	0.127
-484.420	96.813	0.216	-0.247
-483.405	245.894	-0.181	-0.304
-482.391	312.708	0.041	-0.076
-481.376	-200.000	-0.006	0.033
-480.362	53.317	0.129	-0.124
-479.347	10.080	0.046	0.035
-478.332	64.047	0.156	-0.156
-477.318	34.362	0.139	-0.121
-476.303	800.000	-0.098	-0.273
-475.289	-181.928	-0.244	-0.005
-474.274	-140.958	-0.223	0.023
-473.259	-200.000	-0.001	-0.049
-472.245	-92.536	-0.143	0.040
-471.230	-200.000	0.009	0.087
-470.216	-200.000	0.045	0.204
-469.201	800.000	0.023	0.066
-468.186	-155.585	0.099	-0.006
-467.172	-169.924	0.046	-0.002
-466.157	800.000	0.139	-0.499
-465.143	-82.772	-0.294	0.095
-464.128	3.098	0.282	0.205
-463.113	-90.409	-0.112	-0.032
-462.099	220.814	0.044	-0.070
-461.084	-200.000	0.005	0.302
-460.070	-105.801	-0.430	-0.097
-459.055	259.395	-0.171	-0.294
-458.040	-22.006	-0.135	-0.082
-457.026	-0.332	0.089	-0.063
-456.011	-76.376	0.211	0.074
-454.997	42.322	0.074	-0.067
-453.982	800.000	-0.076	-0.285
-452.968	672.376	0.121	0.312
-451.953	-200.000	0.032	0.448
-450.938	-150.952	-0.233	-0.018
-449.924	-200.000	0.011	0.173
-448.909	-86.112	-0.125	-0.038
-447.895	380.645	0.166	-0.340
-446.880	-106.731	-0.205	-0.045
-445.865	-89.255	-0.330	0.097
-444.851	-106.296	-0.573	-0.128
-443.836	-34.852	-0.201	-0.109
-442.822	-200.000	-0.005	0.248
-441.807	465.100	-0.139	-0.310
-440.792	294.368	0.156	-0.285
-439.778	-200.000	-0.031	0.204
-438.763	238.229	0.132	0.219
-437.749	-50.257	0.162	0.076
-436.734	73.827	0.080	-0.084
-435.719	340.763	-0.099	-0.193
-434.705	288.438	-0.123	0.221
-433.690	-156.030	0.157	-0.010
-432.676	83.222	-0.017	0.018
-431.661	361.188	-0.196	0.392
-430.646	-128.600	-0.274	-0.039
-429.632	-110.600	-0.087	-0.018
-428.617	-200.000	-0.004	0.248
-427.603	800.000	0.051	0.166
-426.588	-200.000	-0.042	0.266
-425.573	181.607	0.147	0.216
-424.559	25.743	-0.202	-0.168
-423.544	-80.382	-0.281	-0.094
-422.530	-200.000	-0.020	0.139
-421.515	28.272	-0.099	0.083
-420.500	-200.000	0.058	0.257
-419.486	245.575	-0.115	-0.193
-418.471	332.680	0.087	-0.167
-417.457	698.529	0.149	0.390
-416.442	23.814	-0.069	-0.057
-415.428	-162.641	0.436	-0.021
-414.413	151.086	0.141	-0.191
-413.398	-148.979	0.015	0.001
-412.384	-28.929	0.239	0.137
-411.369	800.000	0.089	-0.274
-410.355	-44.425	-0.435	0.217
-409.340	208.299	0.112	0.175
-408.325	390.864	0.117	0.241
-407.311	-64.940	-0.152	0.061
-406.296	69.735	-0.239	-0.245
-405.282	-42.186	-0.530	-0.270
-404.267	466.792	0.106	0.237
-403.252	14.974	-0.345	-0.269
-402.238	-50.408	-0.093	0.044
-401.223	800.000	0.037	0.134
-400.209	174.896	-0.163	-0.235
-399.194	-74.715	0.278	-0.099
-398.179	532.157	0.065	-0.154
-397.165	-155.650	0.316	0.020
-396.150	-70.300	-0.159	-0.060
-395.136	-92.660	0.377	-0.105
-394.121	800.000	-0.015	0.051
-393.106	183.947	-0.181	-0.266
-392.092	-200.000	-0.004	-0.195
-391.077	-142.637	-0.267	-0.026
-390.063	-73.827	0.017	-0.006
-389.048	-43.980	0.352	-0.176
-388.033	182.961	0.109	-0.160
-387.019	-200.000	-0.047	-0.249
-386.004	-3.805	0.259	0.179
-384.990	14.130	0.139	0.107
-383.975	-109.669	0.292	-0.061
-382.960	334.831	0.016	0.031
-381.946	227.936	0.259	-0.420
-380.931	-0.151	-0.126	0.089
-379.917	686.215	-0.104	0.270
-378.902	17.131	-0.268	0.211
-377.888	-19.384	-0.157	-0.097
-376.873	58.190	-0.258	0.252
-375.858	44.884	-0.164	-0.151
-374.844	-154.440	-0.223	0.015
-373.829	521.913	0.031	-0.073
-372.815	26.868	-0.594	0.495
-371.800	800.000	0.053	0.225
-370.785	-200.000	0.006	0.138
-369.771	31.808	0.092	0.078
-368.756	176.961	-0.220	0.318
-367.742	50.500	0.091	-0.085
-366.727	-200.000	-0.021	0.233
-365.712	-150.223	-0.313	-0.024
-364.698	18.559	0.121	-0.096
-363.683	106.752	0.056	-0.066
-362.669	-200.000	-0.007	-0.256
-361.654	-200.000	0.025	-0.195
-360.639	121.089	-0.198	-0.244
-359.625	-8.431	-0.115	0.076
-358.610	-200.000	-0.013	0.239
-357.596	-135.910	0.320	0.037
-356.581	-93.427	-0.256	0.071
-355.566	-200.000	0.018	0.085
-354.552	-200.000	-0.029	0.351
-353.537	-0.345	0.120	0.085
-352.523	77.117	0.286	-0.302
-351.508	800.000	-0.098	0.313
-350.493	214.554	0.086	0.136
-349.479	-200.000	0.011	-0.200
-348.464	300.275	0.094	0.171
-347.450	-122.375	0.256	-0.041
-346.435	63.228	-0.078	0.078
-345.420	-23.170	-0.197	-0.118
-344.406	-111.216	-0.328	0.067
-343.391	-18.090	-0.197	-0.123
-342.377	157.680	-0.085	-0.117
-341.362	-200.000	-0.013	0.122
-340.348	290.639	-0.058	-0.104
-339.333	-200.000	-0.011	0.094
-338.318	440.650	0.068	-0.149
-337.304	800.000	0.049	-0.184
-336.289	136.333	0.201	-0.260
-335.275	-200.000	-0.022	-0.201
-334.260	-200.000	0.011	-0.102
-333.245	90.334	0.251	0.278
-332.231	797.809	-0.055	0.150
-331.216	800.000	0.042	0.177
-330.202	43.986	-0.190	-0.172
-329.187	-200.000	-0.035	0.182
-328.172	20.771	0.283	-0.228
-327.158	800.000	0.138	0.468
-326.143	-29.974	0.083	0.047
-325.129	-92.496	0.056	0.016
-324.114	-200.000	0.020	-0.126
-323.099	800.000	0.086	0.287
-322.085	145.370	-0.142	-0.189
-321.070	-125.900	-0.015	0.002
-320.056	338.976	-0.104	-0.200
-319.041	-37.693	-0.137	0.072
-318.026	-79.694	-0.112	-0.038
-317.012	-131.342	-0.324	-0.043
-315.997	800.000	-0.081	0.284
-314.983	199.608	0.258	0.392
-313.968	-90.354	-0.174	-0.050
-312.953	209.002	0.006	0.009
-311.939	-134.367	0.455	0.055
-310.924	152.355	-0.096	-0.130
-309.910	-55.798	0.161	0.071
-308.895	-50.652	-0.365	0.170
-307.880	252.826	0.143	-0.242
-306.866	-74.646	0.371	-0.132
-305.851	-21.772	0.099	0.059
-304.837	-68.225	0.277	0.107
-303.822	800.000	0.067	0.187
-302.807	-21.108	0.146	0.089
-301.793	-97.204	0.199	0.052
-300.778	209.640	0.025	0.038
-299.764	82.843	0.035	-0.038
-298.749	-126.391	0.189	-0.028
-297.735	800.000	-0.090	-0.286
-296.720	-96.926	0.384	0.100
-295.705	66.891	0.135	0.136
-294.691	29.670	0.194	-0.164
-293.676	-9.499	-0.200	0.132
-292.662	-200.000	-0.018	0.172
-291.647	12.011	-0.215	-0.164
-290.632	-94.690	0.087	0.024
-289.618	-200.000	0.016	-0.380
-288.603	-27.722	0.292	0.168
-287.589	-105.921	-0.213	0.048
-286.574	-200.000	-0.050	0.225
-285.559	148.890	-0.150	0.200
-284.545	68.462	0.094	0.095
-283.530	-57.664	-0.078	-0.034
-282.516	213.359	-0.080	0.125
-281.501	-131.786	-0.187	-0.024
-280.486	-133.980	-0.204	-0.025
-279.472	175.558	0.068	0.098
-278.457	208.803	0.106	0.165
-277.443	-132.655	-0.087	0.011
-276.428	-174.578	-0.156	0.004
-275.413	-114.282	0.121	-0.023
-274.399	-108.164	0.401	-0.086
-273.384	800.000	0.106	0.330
-272.370	800.000	0.075	0.320
-271.355	2.547	0.143	0.103
-270.340	-200.000	-0.056	0.365
-269.326	1.595	0.367	0.262
-268.311	-115.629	-0.135	-0.025
-267.297	132.368	-0.174	0.222
-266.282	-11.193	0.275	-0.179
-265.267	264.126	0.048	0.083
-264.253	-200.000	-0.020	-0.137
-263.238	-61.283	0.174	0.072
-262.224	-48.281	-0.359	0.172
-261.209	-200.000	-0.014	0.121
-260.195	9.175	-0.288	-0.215
-259.180	-200.000	-0.008	0.257
-258.165	-72.934	0.274	0.100
-257.151	-69.884	0.322	0.121
-256.136	-85.843	0.104	0.032
-255.122	-116.903	0.463	0.084
-254.107	246.504	-0.160	0.266
-253.092	34.808	-0.054	0.047
-252.078	-88.649	-0.059	0.017
-251.063	264.942	-0.201	-0.347
-250.049	271.816	-0.074	0.129
-249.034	800.000	0.035	-0.112
-248.019	376.582	0.040	-0.082
-247.005	-23.999	-0.159	0.094
-245.990	-200.000	0.026	-0.148
-244.976	367.388	-0.053	0.106
-243.961	-43.525	-0.091	-0.045
-242.946	-14.049	0.246	-0.157
-241.932	800.000	0.082	-0.312
-240.917	388.584	0.044	0.089
-239.903	402.042	-0.143	0.298
-238.888	-85.652	0.327	-0.101
-237.873	505.007	0.140	-0.320
-236.859	619.695	0.082	-0.204
-235.844	-200.000	-0.024	0.125
-234.830	72.173	0.072	-0.074
-233.815	50.097	0.234	0.218
-232.800	-200.000	0.014	0.236
-231.786	800.000	0.075	-0.282
-230.771	189.099	0.204	-0.302
-229.757	55.615	0.289	-0.277
-228.742	-200.000	-0.052	0.493
-227.727	-200.000	0.003	-0.213
-226.713	800.000	-0.031	0.124
-225.698	23.166	-0.277	-0.225
-224.684	-93.610	-0.051	0.014
-223.669	800.000	0.030	-0.122
-222.655	-103.831	0.225	-0.052
-221.640	-149.236	-0.261	0.021
-220.625	71.033	-0.016	0.016
-219.611	143.325	0.213	0.280
-218.596	175.544	0.103	0.148
-217.582	426.822	0.044	0.094
-216.567	-200.000	-0.012	-0.241
-215.552	-184.024	-0.016	0.000
-214.538	103.815	-0.100	0.116
-213.523	220.768	0.137	-0.217
-212.509	-15.431	-0.102	0.064
-211.494	-200.000	0.036	0.239
-210.479	110.839	0.072	0.085
-209.465	81.612	0.039	0.041
-208.450	48.534	-0.049	-0.045
-207.436	-164.135	0.175	0.008
-206.421	259.214	0.270	0.460
-205.406	342.521	-0.047	0.092
-204.392	-96.670	-0.302	-0.079
-203.377	-7.565	0.097	0.064
-202.363	-200.000	0.034	0.189
-201.348	-103.494	0.274	-0.064
-200.333	-200.000	0.028	-0.274
-199.319	255.599	-0.062	-0.105
-198.304	-80.575	0.243	-0.080
-197.290	800.000	0.030	0.104
-196.275	164.867	0.126	0.176
-195.260	62.300	0.134	0.132
-194.246	-90.497	0.156	-0.045
-193.231	142.950	0.124	-0.163
-192.217	-125.111	0.288	-0.044
-191.202	61.196	0.107	0.105
-190.187	-117.888	0.100	-0.018
-189.173	800.000	-0.060	-0.185
-188.158	-72.433	-0.210	-0.077
-187.144	232.373	0.117	0.189
-186.129	216.382	0.025	-0.039
-185.114	-106.260	0.365	0.081
-184.100	23.083	-0.089	-0.072
-183.085	-119.114	-0.312	-0.054
-182.071	-102.854	0.095	0.022
-181.056	176.950	-0.067	0.096
-180.042	-200.000	-0.000	0.162
-179.027	-200.000	-0.039	-0.269
-178.012	-82.247	-0.067	0.022
-176.998	-200.000	-0.015	-0.537
-175.983	-102.372	-0.291	-0.069
-174.969	-200.000	0.027	0.183
-173.954	8.708	-0.100	0.074
-172.939	224.195	0.081	-0.129
-171.925	-200.000	0.024	0.171
-170.910	20.447	-0.075	-0.060
-169.896	91.455	-0.136	-0.151
-168.881	-13.421	-0.120	-0.077
-167.866	57.657	-0.040	-0.038
-166.852	96.230	-0.248	0.280
-165.837	272.388	0.045	-0.079
-164.823	-58.923	-0.491	0.209
-163.808	-200.000	-0.040	-0.315
-162.793	800.000	0.161	-0.439
-161.779	800.000	0.049	-0.171
-160.764	-200.000	-0.008	0.035
-159.750	164.679	-0.034	-0.048
-158.735	544.506	0.112	0.264
-157.720	159.712	0.105	0.144
-156.706	82.718	-0.068	0.073
-155.691	-94.086	-0.341	-0.092
-154.677	800.000	0.059	-0.163
-153.662	363.938	0.101	-0.200
-152.647	-144.837	-0.354	0.032
-151.633	-42.867	0.179	0.089
-150.618	-200.000	0.031	0.189
-149.604	-176.015	0.205	0.005
-148.589	-200.000	-0.012	-0.115
-147.574	-134.572	-0.349	0.042
-146.560	-51.862	-0.336	0.154
-145.545	-159.347	0.591	-0.033
-144.531	227.295	-0.115	0.183
-143.516	-1.508	-0.270	-0.188
-142.502	-200.000	0.008	-0.193
-141.487	-134.360	-0.222	-0.027
-140.472	-200.000	-0.015	0.329
-139.458	10.304	0.104	-0.078
-138.443	298.759	-0.072	0.131
-137.429	800.000	-0.073	0.205
-136.414	-121.360	-0.120	-0.020
-135.399	358.417	-0.203	0.400
-134.385	-88.903	0.210	-0.061
-133.370	93.053	0.120	0.133
-132.356	-72.125	-0.292	0.107
-131.341	-200.000	0.037	0.216
-130.326	-58.393	0.295	0.126
-129.312	-200.000	-0.037	-0.286
-128.297	-125.822	0.173	-0.026
-127.283	72.716	0.120	-0.123
-126.268	775.665	0.054	-0.145
-125.253	-85.799	-0.413	-0.126
-124.239	-84.379	-0.267	0.083
-123.224	-0.174	0.131	-0.092
-122.210	227.573	0.024	0.039
-121.195	185.150	-0.162	0.236
