DTS Sentinel unit serial number:	SN413079Multiplexer serial number:	ORYXHardware model number:	OX4-SRSoftware version number:	ORYX F/W v4.00 Oryx Data Collector v3.7.2.0data status	okinstallation	princeton_trtdifferential loss correction	single-endedforward channel	channel 3reverse channel	N/Adate	2019/09/12time	13:30:11forward acquisition time	60.00reverse acquisition time	0.00gamma	496.2192k internal	0.2292k external	0.2292temperature offset calibration	1.0044default loss term (dB/km)	0.3790temperature slope calibration	1.0000multiplexer offset coefficient	1.0000multiplexer slope coefficient	1.0000fibre end	0.00T internal ref (°C)	41.09T ext. ref 1 (°C)	2.14T ext. ref 2 (°C)	36.25length (m)	temperature (°C)	Stokes	anti-Stokes-747.200	422.310	0.176	-0.388
-746.185	800.000	-0.095	0.356
-745.171	338.902	-0.111	0.221
-744.156	-200.000	0.040	0.286
-743.142	-200.000	0.034	0.165
-742.127	28.889	-0.228	0.198
-741.112	13.063	0.102	-0.081
-740.098	800.000	-0.103	0.377
-739.083	15.888	-0.200	0.161
-738.069	97.209	0.179	0.211
-737.054	-200.000	0.023	0.182
-736.039	-48.928	-0.333	-0.164
-735.025	190.701	0.161	-0.247
-734.010	54.195	0.145	0.142
-732.996	-21.507	-0.354	0.221
-731.981	-2.796	-0.080	0.057
-730.966	733.427	0.099	0.271
-729.952	532.502	-0.129	-0.313
-728.937	505.767	-0.061	0.144
-727.923	-200.000	-0.012	-0.262
-726.908	800.000	-0.065	0.254
-725.894	-97.041	0.169	0.045
-724.879	-200.000	0.016	-0.168
-723.864	-200.000	0.006	0.054
-722.850	-200.000	-0.235	0.001
-721.835	198.823	-0.102	-0.160
-720.821	800.000	0.043	-0.132
-719.806	727.080	-0.085	-0.233
-718.791	-200.000	-0.018	0.422
-717.777	-26.843	-0.142	0.085
-716.762	309.617	-0.092	-0.176
-715.748	-200.000	-0.011	0.103
-714.733	50.880	0.234	-0.227
-713.718	60.714	-0.321	0.325
-712.704	-145.330	-0.212	0.020
-711.689	38.020	-0.222	-0.202
-710.675	-68.605	-0.290	-0.115
-709.660	-106.353	0.390	0.089
-708.645	652.786	0.026	-0.068
-707.631	-35.024	-0.187	-0.104
-706.616	-152.120	-0.254	0.019
-705.602	-51.962	0.078	-0.037
-704.587	-128.862	-0.346	-0.050
-703.572	281.549	0.111	-0.204
-702.558	-183.964	0.302	-0.005
-701.543	800.000	-0.109	-0.323
-700.529	-136.785	0.057	0.007
-699.514	-178.497	-0.106	-0.003
-698.499	800.000	-0.043	0.136
-697.485	100.610	-0.053	-0.063
-696.470	-126.935	-0.399	-0.060
-695.456	159.652	-0.077	0.110
-694.441	46.672	0.157	-0.149
-693.426	-95.383	0.073	0.020
-692.412	415.424	0.067	-0.146
-691.397	-68.154	-0.207	0.082
-690.383	302.497	-0.157	0.298
-689.368	37.883	0.056	0.051
-688.354	199.081	0.145	0.227
-687.339	800.000	-0.039	-0.143
-686.324	-122.670	-0.075	-0.012
-685.310	-128.443	0.054	0.008
-684.295	-200.000	0.011	-0.117
-683.281	-200.000	0.001	-0.211
-682.266	-200.000	-0.009	0.315
-681.251	-180.051	-0.124	0.003
-680.237	800.000	-0.075	-0.255
-679.222	121.259	0.166	0.211
-678.208	182.340	0.076	-0.114
-677.193	99.302	0.249	-0.294
-676.178	124.393	0.155	0.200
-675.164	-200.000	-0.032	0.215
-674.149	-200.000	0.023	0.415
-673.135	-200.000	-0.003	0.024
-672.120	220.690	-0.055	-0.091
-671.105	320.622	0.127	0.246
-670.091	-200.000	0.047	0.449
-669.076	15.593	-0.200	-0.160
-668.062	453.961	-0.068	-0.153
-667.047	-200.000	0.038	-0.186
-666.032	-200.000	-0.011	0.063
-665.018	-76.574	-0.217	0.078
-664.003	800.000	-0.043	-0.172
-662.989	800.000	0.029	0.115
-661.974	-1.845	0.120	-0.086
-660.959	-63.941	0.267	-0.111
-659.945	-30.910	-0.085	0.049
-658.930	-200.000	0.016	-0.091
-657.916	483.359	0.018	0.042
-656.901	114.777	0.211	-0.263
-655.886	107.954	-0.186	0.226
-654.872	-1.205	0.036	-0.026
-653.857	39.645	0.249	0.228
-652.843	-141.122	-0.228	0.024
-651.828	-124.947	0.029	0.005
-650.814	175.290	0.077	0.114
-649.799	-36.884	0.204	0.112
-648.784	30.173	-0.135	-0.118
-647.770	-200.000	-0.032	-0.263
-646.755	33.190	0.142	0.126
-645.741	86.183	0.023	-0.025
-644.726	164.674	-0.206	-0.297
-643.711	225.763	-0.076	-0.125
-642.697	-200.000	0.039	0.358
-641.682	7.680	0.268	0.205
-640.668	-121.187	0.325	-0.055
-639.653	-70.360	0.186	0.072
-638.638	587.130	0.066	0.165
-637.624	-50.661	-0.126	-0.060
-636.609	682.541	0.065	0.173
-635.595	106.250	-0.257	-0.311
-634.580	-42.431	-0.231	-0.120
-633.565	170.255	-0.127	-0.185
-632.551	139.834	-0.228	-0.306
-631.536	-45.526	-0.220	-0.111
-630.522	-200.000	-0.033	0.335
-629.507	-71.877	0.096	0.036
-628.492	-200.000	-0.052	0.303
-627.478	188.267	0.020	-0.030
-626.463	-37.663	-0.025	0.013
-625.449	-118.716	-0.071	0.013
-624.434	-84.335	0.282	-0.091
-623.419	-74.173	-0.369	-0.136
-622.405	800.000	0.104	-0.384
-621.390	24.191	-0.209	-0.176
-620.376	-200.000	-0.003	-0.172
-619.361	-200.000	0.001	0.327
-618.346	308.902	-0.163	0.311
-617.332	-195.711	-0.202	-0.001
-616.317	273.140	0.044	0.080
-615.303	7.307	-0.197	-0.150
-614.288	-13.993	-0.117	-0.077
-613.273	-157.138	-0.141	-0.009
-612.259	-108.265	-0.284	0.063
-611.244	176.789	-0.272	-0.402
-610.230	-200.000	-0.015	0.195
-609.215	679.318	-0.050	-0.133
-608.201	-92.091	-0.071	-0.020
-607.186	-52.856	-0.203	-0.095
-606.171	-50.391	0.170	0.082
-605.157	411.205	0.086	0.187
-604.142	-165.947	-0.300	0.013
-603.128	-97.251	-0.321	0.085
-602.113	143.289	0.085	0.116
-601.098	556.957	-0.069	0.170
-600.084	162.205	-0.005	-0.007
-599.069	426.791	-0.037	0.081
-598.055	-200.000	-0.067	0.446
-597.040	113.901	-0.182	-0.225
-596.025	0.168	0.168	-0.122
-595.011	800.000	-0.045	-0.135
-593.996	-136.557	-0.291	0.034
-592.982	30.014	-0.159	0.138
-591.967	-24.207	0.108	0.066
-590.952	341.348	0.071	0.142
-589.938	-0.869	0.358	-0.258
-588.923	800.000	-0.118	-0.392
-587.909	-70.065	0.374	-0.145
-586.894	-47.180	-0.179	0.089
-585.879	800.000	-0.026	0.086
-584.865	78.934	0.171	0.186
-583.850	-75.991	0.021	0.008
-582.836	-7.928	-0.203	-0.139
-581.821	-200.000	0.183	-0.001
-580.806	14.665	-0.217	-0.173
-579.792	800.000	0.134	-0.408
-578.777	74.731	-0.184	-0.197
-577.763	266.770	-0.182	-0.324
-576.748	800.000	0.077	0.225
-575.733	550.970	0.096	0.233
-574.719	-21.242	-0.142	0.088
-573.704	58.159	-0.253	-0.252
-572.690	96.576	0.178	-0.207
-571.675	451.767	-0.153	0.343
-570.661	-167.862	-0.111	0.004
-569.646	51.515	0.180	-0.174
-568.631	211.794	-0.132	-0.211
-567.617	-188.505	0.095	0.001
-566.602	-200.000	0.038	0.271
-565.588	-60.024	0.246	0.107
-564.573	-118.360	0.422	0.076
-563.558	800.000	0.061	0.245
-562.544	-117.234	-0.234	-0.043
-561.529	-86.434	-0.368	0.115
-560.515	-200.000	-0.021	0.110
-559.500	59.197	-0.245	-0.245
-558.485	229.137	-0.050	0.083
-557.471	119.430	0.237	-0.298
-556.456	210.432	-0.048	-0.076
-555.442	720.765	0.036	0.097
-554.427	-200.000	0.037	0.333
-553.412	-200.000	0.019	0.385
-552.398	-200.000	0.000	-0.319
-551.383	-129.888	0.188	-0.026
-550.369	175.530	-0.086	-0.126
-549.354	-37.403	0.221	-0.120
-548.339	-90.332	0.317	-0.093
-547.325	-200.000	0.011	-0.210
-546.310	-24.338	-0.112	0.068
-545.296	-39.316	-0.332	0.177
-544.281	-146.014	0.162	-0.015
-543.266	214.520	0.170	-0.274
-542.252	-200.000	-0.007	0.328
-541.237	-168.803	0.117	0.004
-540.223	114.071	-0.301	0.372
-539.208	343.544	0.134	0.267
-538.193	800.000	0.053	0.175
-537.179	800.000	-0.055	-0.160
-536.164	800.000	0.011	-0.039
-535.150	-98.366	0.423	0.110
-534.135	-200.000	-0.089	-0.586
-533.121	-200.000	-0.006	-0.070
-532.106	-148.636	0.136	-0.011
-531.091	256.715	-0.054	-0.095
-530.077	70.498	-0.248	-0.261
-529.062	-83.928	0.205	0.066
-528.048	-68.989	0.098	-0.038
-527.033	-79.608	0.236	-0.081
-526.018	80.258	-0.217	-0.238
-525.004	-136.011	0.261	0.031
-523.989	-73.991	-0.316	-0.116
-522.975	-80.241	0.124	-0.042
-521.960	-108.533	0.546	-0.119
-520.945	-53.762	-0.197	-0.091
-519.931	106.231	-0.285	-0.342
-518.916	604.262	-0.101	-0.255
-517.902	115.651	-0.123	-0.152
-516.887	800.000	-0.039	0.116
-515.872	62.693	-0.156	0.158
-514.858	-156.293	0.028	-0.002
-513.843	384.157	-0.138	-0.289
-512.829	-165.452	0.224	0.010
-511.814	-21.901	0.112	0.069
-510.799	159.703	-0.199	-0.281
-509.785	337.099	-0.038	-0.075
-508.770	-39.134	-0.326	0.174
-507.756	379.216	-0.088	0.182
-506.741	318.678	-0.038	0.072
-505.726	-101.213	0.096	0.024
-504.712	-122.886	-0.185	-0.030
-503.697	249.022	0.141	0.243
-502.683	235.310	-0.104	0.175
-501.668	159.658	0.086	0.121
-500.653	606.951	0.003	0.007
-499.639	-124.886	0.284	-0.044
-498.624	-52.801	0.080	-0.037
-497.610	538.389	0.128	0.310
-496.595	-200.000	0.033	0.211
-495.581	344.769	-0.124	-0.247
-494.566	166.147	-0.264	-0.380
-493.551	68.583	0.178	0.185
-492.537	-200.000	-0.006	0.150
-491.522	-107.502	0.186	-0.041
-490.508	-200.000	0.029	0.302
-489.493	-154.347	-0.100	0.007
-488.478	-59.471	0.223	-0.097
-487.464	-85.865	0.133	-0.042
-486.449	-88.892	0.116	-0.035
-485.435	800.000	0.082	0.255
-484.420	20.425	-0.259	0.212
-483.405	153.214	0.185	-0.256
-482.391	-18.324	0.127	0.081
-481.376	597.816	-0.048	0.120
-480.362	-200.000	0.040	0.186
-479.347	138.373	0.149	-0.199
-478.332	-94.264	-0.199	0.055
-477.318	-200.000	0.058	0.359
-476.303	-13.909	0.093	0.061
-475.289	544.538	0.182	0.441
-474.274	80.379	-0.136	0.148
-473.259	-200.000	0.035	0.348
-472.245	800.000	0.039	-0.121
-471.230	10.644	0.108	-0.084
-470.216	-28.385	-0.297	0.174
-469.201	-169.337	0.100	-0.004
-468.186	87.893	-0.248	0.278
-467.172	451.129	-0.098	0.218
-466.157	-200.000	-0.019	-0.178
-465.143	-200.000	-0.043	0.326
-464.128	-79.701	0.096	0.033
-463.113	-24.549	-0.073	-0.044
-462.099	-200.000	-0.018	-0.129
-461.084	-178.128	0.229	-0.005
-460.070	-132.921	-0.121	-0.016
-459.055	83.102	-0.162	-0.179
-458.040	69.220	-0.335	-0.349
-457.026	800.000	-0.024	0.104
-456.011	800.000	0.092	-0.262
-454.997	800.000	0.050	0.193
-453.982	-78.975	-0.350	0.121
-452.968	800.000	-0.010	0.029
-451.953	-200.000	-0.022	-0.117
-450.938	800.000	0.034	0.097
-449.924	5.737	0.317	-0.237
-448.909	-96.906	-0.242	0.064
-447.895	-200.000	-0.001	-0.195
-446.880	-200.000	0.023	0.115
-445.865	31.937	0.028	-0.024
-444.851	242.964	0.100	0.170
-443.836	-51.614	0.175	-0.083
-442.822	-200.000	-0.022	-0.298
-441.807	46.592	0.049	-0.046
-440.792	-5.005	-0.404	0.281
-439.778	64.411	0.131	-0.133
-438.763	166.256	0.071	0.102
-437.749	-200.000	0.012	0.250
-436.734	800.000	-0.083	0.237
-435.719	-108.898	-0.232	0.050
-434.705	544.543	-0.114	-0.275
-433.690	56.155	-0.081	0.080
-432.676	-164.798	-0.147	0.007
-431.661	-133.290	-0.089	-0.011
-430.646	800.000	-0.032	-0.110
-429.632	-98.658	-0.182	-0.047
-428.617	586.441	-0.069	0.171
-427.603	705.921	-0.102	0.272
-426.588	-200.000	-0.028	0.197
-425.573	402.122	-0.014	-0.030
-424.559	38.008	-0.086	-0.078
-423.544	81.160	0.139	0.152
-422.530	97.654	-0.129	-0.150
-421.515	-200.000	0.034	-0.256
-420.500	164.551	0.079	-0.113
-419.486	-99.485	-0.167	0.042
-418.471	-76.238	-0.233	0.083
-417.457	-151.529	0.057	-0.004
-416.442	73.818	0.136	0.144
-415.428	-122.267	0.436	0.072
-414.413	-200.000	0.030	0.203
-413.398	-62.068	-0.110	-0.047
-412.384	-200.000	-0.025	-0.230
-411.369	-70.536	-0.185	0.071
-410.355	150.307	-0.098	0.135
-409.340	182.695	0.078	0.116
-408.325	-173.427	0.199	-0.006
-407.311	-113.546	-0.168	-0.033
-406.296	-37.754	-0.114	0.062
-405.282	-84.356	-0.103	0.033
-404.267	673.753	0.120	-0.314
-403.252	-89.317	-0.203	0.061
-402.238	128.672	-0.058	0.075
-401.223	-200.000	-0.012	-0.072
-400.209	-9.917	-0.158	-0.106
-399.194	-16.532	0.399	-0.255
-398.179	-157.401	0.078	-0.005
-397.165	-133.417	-0.163	-0.021
-396.150	79.400	0.096	0.104
-395.136	-31.758	-0.030	0.017
-394.121	-200.000	-0.061	0.354
-393.106	-47.209	-0.095	-0.047
-392.092	-200.000	-0.080	0.403
-391.077	-200.000	0.441	0.002
-390.063	535.696	0.128	0.308
-389.048	-126.216	-0.143	-0.022
-388.033	-118.417	0.291	-0.052
-387.019	-200.000	0.002	-0.185
-386.004	111.634	-0.154	0.187
-384.990	55.661	-0.155	-0.152
-383.975	-143.324	0.199	0.019
-382.960	-94.744	0.268	0.073
-381.946	457.298	0.112	-0.252
-380.931	315.381	0.112	-0.213
-379.917	-200.000	0.007	-0.202
-378.902	-194.983	-0.458	-0.004
-377.888	261.126	0.159	0.278
-376.873	-151.490	-0.252	0.019
-375.858	-131.741	-0.031	-0.004
-374.844	-87.554	0.073	0.022
-373.829	-145.808	0.411	0.037
-372.815	176.081	0.198	0.290
-371.800	-37.833	0.186	-0.100
-370.785	1.414	-0.113	-0.082
-369.771	11.414	0.477	-0.369
-368.756	-200.000	0.005	-0.204
-367.742	-178.596	-0.274	0.006
-366.727	-200.000	-0.011	0.359
-365.712	-168.423	0.326	-0.013
-364.698	-22.757	0.037	-0.023
-363.683	-148.278	0.359	-0.030
-362.669	-48.407	0.145	0.070
-361.654	184.949	-0.110	0.165
-360.639	-200.000	-0.040	0.483
-359.625	-95.933	0.109	-0.029
-358.610	247.520	0.164	-0.280
-357.596	-200.000	0.141	-0.000
-356.581	21.447	0.016	0.013
-355.566	206.482	-0.131	-0.206
-354.552	800.000	0.061	-0.264
-353.537	-13.147	0.315	0.206
-352.523	-200.000	0.031	-0.254
-351.508	335.407	-0.102	-0.200
-350.493	169.825	0.132	0.189
-349.479	-151.380	0.134	-0.010
-348.464	-200.000	-0.019	0.113
-347.450	-91.497	-0.086	0.025
-346.435	137.329	-0.247	0.325
-345.420	-113.977	-0.084	0.016
-344.406	409.283	-0.074	-0.158
-343.391	53.880	-0.167	0.162
-342.377	-200.000	0.028	0.187
-341.362	187.551	-0.113	0.170
-340.348	575.441	0.043	0.105
-339.333	24.479	0.171	0.143
-338.318	-200.000	-0.053	0.278
-337.304	-108.572	0.355	-0.077
-336.289	-200.000	0.011	-0.059
-335.275	252.137	0.070	-0.121
-334.260	79.544	0.059	0.063
-333.245	-27.667	0.225	-0.131
-332.231	-147.904	0.189	-0.016
-331.216	-27.165	0.218	-0.128
-330.202	-85.105	0.346	-0.109
-329.187	3.931	-0.132	-0.097
-328.172	-38.159	0.089	-0.047
-327.158	12.391	-0.258	-0.200
-326.143	800.000	0.040	0.156
-325.129	-200.000	-0.047	-0.207
-324.114	219.991	-0.214	0.345
-323.099	17.432	0.289	0.231
-322.085	51.821	0.089	-0.086
-321.070	675.154	-0.075	-0.197
-320.056	596.516	-0.148	-0.370
-319.041	425.575	-0.169	-0.365
-318.026	-180.179	0.266	0.006
-317.012	740.200	0.094	-0.255
-315.997	7.271	0.145	-0.109
-314.983	-53.494	0.210	-0.097
-313.968	-130.191	0.135	-0.019
-312.953	-90.590	0.187	-0.055
-311.939	-59.672	0.157	0.068
-310.924	-126.353	-0.179	0.027
-309.910	207.759	0.134	0.210
-308.895	72.789	0.119	-0.125
-307.880	-172.297	0.124	-0.004
-306.866	-87.673	-0.123	-0.037
-305.851	-38.924	0.208	0.110
-304.837	-92.774	0.100	-0.028
-303.822	414.390	0.068	0.145
-302.807	700.428	-0.008	0.020
-301.793	389.916	-0.169	-0.353
-300.778	800.000	0.071	-0.266
-299.764	-20.994	0.313	0.193
-298.749	74.245	0.225	0.237
-297.735	212.316	-0.090	0.142
-296.720	384.078	0.071	-0.148
-295.705	271.781	-0.144	-0.256
-294.691	-102.241	-0.164	0.040
-293.676	-13.830	-0.203	-0.132
-292.662	358.361	0.129	0.259
-291.647	4.791	-0.214	-0.158
-290.632	-200.000	-0.001	0.262
-289.618	-112.411	0.150	-0.030
-288.603	-200.000	-0.087	0.411
-287.589	-31.261	0.176	-0.100
-286.574	-63.420	-0.078	0.032
-285.559	-38.898	0.059	-0.031
-284.545	-3.796	-0.158	0.110
-283.530	-72.943	-0.002	-0.001
-282.516	-82.824	0.071	-0.023
-281.501	-200.000	-0.008	-0.151
-280.486	-34.346	-0.166	-0.092
-279.472	-52.118	-0.462	-0.215
-278.457	50.332	0.104	-0.099
-277.443	-109.359	0.215	-0.046
-276.428	642.334	-0.115	-0.295
-275.413	-101.338	0.044	0.011
-274.399	114.868	0.059	0.072
-273.384	112.809	0.067	0.081
-272.370	800.000	-0.065	0.210
-271.355	800.000	0.095	0.328
-270.340	-200.000	-0.029	-0.171
-269.326	-200.000	0.025	-0.194
-268.311	-200.000	-0.005	-0.186
-267.297	207.642	0.141	0.221
-266.282	-81.387	0.028	0.009
-265.267	800.000	0.036	0.142
-264.253	-200.000	0.042	-0.227
-263.238	-97.993	-0.254	-0.066
-262.224	0.450	-0.100	0.072
-261.209	800.000	-0.055	-0.217
-260.195	145.922	0.116	-0.156
-259.180	284.570	-0.052	-0.094
-258.165	-3.672	0.256	0.179
-257.151	41.961	0.167	-0.152
-256.136	139.246	0.325	0.429
-255.122	-200.000	-0.010	0.124
-254.107	-68.250	-0.162	0.063
-253.092	-84.942	0.155	-0.049
-252.078	-200.000	0.052	-0.256
-251.063	-200.000	0.012	-0.517
-250.049	-70.242	0.246	-0.094
-249.034	573.360	-0.052	0.128
-248.019	-161.642	-0.338	-0.017
-247.005	-46.542	-0.067	0.033
-245.990	57.318	-0.079	-0.078
-244.976	-90.485	-0.131	-0.038
-243.961	-74.509	0.173	0.063
-242.946	-200.000	0.057	-0.349
-241.932	-98.378	-0.327	-0.084
-240.917	-172.587	-0.155	0.005
-239.903	-89.043	0.244	0.072
-238.888	800.000	0.032	0.094
-237.873	-44.295	-0.106	0.053
-236.859	800.000	-0.086	-0.306
-235.844	-0.300	-0.160	-0.114
-234.830	-74.721	-0.330	-0.119
-233.815	800.000	-0.076	-0.298
-232.800	263.489	0.091	0.158
-231.786	172.184	0.132	0.190
-230.771	-86.601	-0.140	-0.043
-229.757	7.996	-0.214	-0.161
-228.742	9.826	0.131	-0.100
-227.727	-47.189	0.332	0.162
-226.713	-11.329	-0.362	0.239
-225.698	-200.000	-0.024	0.227
-224.684	-0.072	-0.044	0.031
-223.669	525.574	0.006	-0.013
-222.655	-106.372	0.063	0.014
-221.640	-7.089	0.100	-0.068
-220.625	800.000	0.099	-0.313
-219.611	-144.234	-0.168	-0.016
-218.596	67.211	-0.288	-0.294
-217.582	-200.000	-0.062	-0.292
-216.567	-33.732	0.150	0.083
-215.552	800.000	0.094	0.312
-214.538	16.976	-0.375	-0.298
-213.523	154.028	-0.088	-0.121
-212.509	-163.477	0.150	0.007
-211.494	459.562	-0.080	0.179
-210.479	123.670	0.160	0.201
-209.465	-200.000	-0.019	0.129
-208.450	-200.000	0.005	0.235
-207.436	285.629	0.268	-0.484
-206.421	-104.759	0.204	0.047
-205.406	672.761	0.021	0.054
-204.392	-91.943	-0.083	-0.024
-203.377	308.273	0.263	-0.492
-202.363	-200.000	0.055	-0.334
-201.348	-62.792	-0.192	0.080
-200.333	-84.093	0.103	0.033
-199.319	-195.385	0.119	0.001
-198.304	-200.000	0.000	0.073
-197.290	160.242	-0.183	0.256
-196.275	-200.000	-0.012	0.105
-195.260	-38.268	-0.190	-0.101
-194.246	-200.000	0.046	0.635
-193.231	800.000	0.042	0.167
-192.217	-29.241	0.052	-0.030
-191.202	-80.680	-0.309	-0.103
-190.187	-36.484	0.323	0.174
-189.173	-11.206	0.217	-0.144
-188.158	800.000	0.028	0.106
-187.144	403.971	-0.110	0.231
-186.129	169.787	-0.173	0.247
-185.114	226.882	-0.057	0.092
-184.100	88.970	-0.087	0.097
-183.085	-200.000	0.032	-0.307
-182.071	-70.129	0.174	-0.066
-181.056	800.000	-0.057	0.210
-180.042	-200.000	0.014	0.109
-179.027	-149.195	0.104	-0.008
-178.012	-6.089	-0.344	-0.236
-176.998	-200.000	0.026	0.197
-175.983	227.102	-0.108	0.175
-174.969	-49.214	-0.270	0.129
-173.954	-68.007	0.083	-0.032
-172.939	-104.393	-0.258	-0.060
-171.925	-19.221	-0.233	-0.145
-170.910	449.008	-0.061	0.136
-169.896	-200.000	-0.007	0.064
-168.881	-58.721	0.206	0.089
-167.866	-91.845	-0.211	-0.060
-166.852	613.247	0.173	0.434
-165.837	-173.696	0.297	-0.009
-164.823	-142.477	0.084	0.008
-163.808	-74.192	-0.477	0.173
-162.793	800.000	0.032	-0.094
-161.779	-200.000	0.010	0.070
-160.764	45.842	0.084	-0.078
-159.750	135.639	0.011	0.014
-158.735	-42.766	0.074	0.038
-157.720	384.054	-0.118	-0.243
-156.706	-91.019	0.186	0.053
-155.691	-184.534	0.054	-0.001
-154.677	-111.194	-0.096	0.020
-153.662	800.000	-0.020	0.086
-152.647	800.000	0.078	-0.243
-151.633	-6.093	0.126	0.086
-150.618	285.480	0.027	-0.050
-149.604	-171.049	-0.070	0.002
-148.589	154.294	0.188	0.258
-147.574	110.437	-0.184	0.222
-146.560	288.422	-0.120	0.218
-145.545	103.486	0.118	-0.138
-144.531	-74.229	0.080	-0.029
-143.516	-102.150	0.240	0.058
-142.502	-86.780	0.226	-0.069
-141.487	-161.064	0.382	-0.020
-140.472	84.610	-0.170	0.186
-139.458	211.008	0.247	0.388
-138.443	-77.942	-0.299	-0.103
-137.429	258.082	-0.141	0.242
-136.414	-200.000	0.008	-0.208
-135.399	-200.000	-0.037	0.284
-134.385	3.525	-0.204	-0.148
-133.370	142.544	0.120	-0.160
-132.356	45.534	0.197	-0.182
-131.341	-31.187	-0.192	-0.108
-130.326	-149.098	0.065	0.005
-129.312	-70.718	0.266	-0.100
-128.297	-164.006	-0.176	-0.008
-127.283	-136.477	0.318	0.037
-126.268	-148.964	0.098	-0.008
-125.253	-200.000	-0.010	0.230
-124.239	-121.659	0.293	-0.048
-123.224	-78.955	-0.024	0.008
-122.210	-200.000	-0.003	-0.174
