DTS Sentinel unit serial number:	SN413079Multiplexer serial number:	ORYXHardware model number:	OX4-SRSoftware version number:	ORYX F/W v4.00 Oryx Data Collector v3.7.2.0data status	okinstallation	princeton_trtdifferential loss correction	single-endedforward channel	channel 3reverse channel	N/Adate	2019/09/18time	07:04:35forward acquisition time	60.00reverse acquisition time	0.00gamma	496.2192k internal	0.2343k external	0.2343temperature offset calibration	0.9951default loss term (dB/km)	0.3790temperature slope calibration	1.0000multiplexer offset coefficient	1.0000multiplexer slope coefficient	1.0000fibre end	0.00T internal ref (°C)	23.19T ext. ref 1 (°C)	0.19T ext. ref 2 (°C)	17.21length (m)	temperature (°C)	Stokes	anti-Stokes-747.200	31.675	-0.240	-0.207
-746.185	800.000	-0.059	-0.169
-745.171	-19.996	0.094	-0.058
-744.156	109.359	-0.158	0.189
-743.142	20.535	-0.091	-0.074
-742.127	-35.768	-0.115	0.062
-741.112	32.658	-0.400	-0.346
-740.098	-200.000	-0.065	-0.362
-739.083	-82.901	-0.094	-0.030
-738.069	26.649	-0.163	-0.137
-737.054	-195.169	0.183	-0.001
-736.039	-120.696	-0.387	0.065
-735.025	288.793	-0.165	0.299
-734.010	-58.121	-0.274	-0.120
-732.996	800.000	0.087	-0.334
-731.981	-37.700	0.169	-0.090
-730.966	-200.000	-0.011	0.156
-729.952	-66.640	0.088	0.035
-728.937	23.386	-0.064	-0.053
-727.923	377.233	-0.309	-0.632
-726.908	-105.822	0.254	0.057
-725.894	-103.489	-0.101	-0.024
-724.879	13.718	0.144	0.112
-723.864	132.237	-0.161	0.208
-722.850	-163.586	0.371	-0.018
-721.835	38.030	-0.153	0.136
-720.821	-200.000	-0.054	-0.362
-719.806	192.004	0.099	0.149
-718.791	-200.000	0.027	-0.163
-717.777	-200.000	-0.032	-0.244
-716.762	52.806	0.126	-0.121
-715.748	286.588	0.104	0.188
-714.733	-79.562	-0.111	0.037
-713.718	178.387	-0.148	-0.217
-712.704	434.044	-0.034	-0.074
-711.689	-200.000	0.039	0.201
-710.675	20.779	-0.259	-0.210
-709.660	45.846	-0.257	0.238
-708.645	-34.166	0.228	0.125
-707.631	87.318	-0.063	-0.070
-706.616	-200.000	0.000	0.216
-705.602	-61.199	0.374	0.157
-704.587	-200.000	-0.061	0.293
-703.572	-159.582	0.014	0.001
-702.558	-155.856	0.172	0.011
-701.543	22.269	-0.095	-0.077
-700.529	-10.256	-0.287	-0.191
-699.514	-200.000	0.021	0.191
-698.499	-142.565	0.214	-0.021
-697.485	271.287	-0.227	0.400
-696.470	28.369	-0.178	-0.151
-695.456	-4.403	-0.194	0.134
-694.441	-99.200	-0.247	0.062
-693.426	800.000	-0.063	-0.229
-692.412	-200.000	0.014	-0.145
-691.397	-49.559	0.205	-0.097
-690.383	-116.685	-0.087	0.016
-689.368	-57.071	0.142	-0.062
-688.354	109.465	-0.072	0.086
-687.339	770.962	-0.085	0.230
-686.324	-5.250	-0.262	-0.180
-685.310	106.074	0.076	0.089
-684.295	-93.429	-0.224	0.062
-683.281	-78.827	-0.320	-0.109
-682.266	-36.880	0.155	0.083
-681.251	137.330	0.120	0.156
-680.237	-29.117	-0.335	0.192
-679.222	-200.000	-0.005	0.172
-678.208	-123.086	0.146	0.023
-677.193	-200.000	0.001	-0.288
-676.178	-131.498	-0.359	0.047
-675.164	-127.839	0.377	0.054
-674.149	-26.297	-0.193	-0.113
-673.135	-60.895	0.209	-0.088
-672.120	-49.383	-0.597	0.284
-671.105	487.984	0.113	0.258
-670.091	155.895	-0.115	-0.158
-669.076	21.813	0.195	-0.159
-668.062	-137.714	-0.385	-0.043
-667.047	9.779	-0.165	-0.125
-666.032	800.000	-0.033	0.120
-665.018	-200.000	-0.034	0.272
-664.003	-128.305	0.277	-0.039
-662.989	-67.628	0.198	-0.077
-661.974	289.501	-0.088	0.160
-660.959	-5.065	-0.249	-0.171
-659.945	-136.726	0.084	-0.010
-658.930	174.254	0.100	0.145
-657.916	57.578	-0.100	0.098
-656.901	-100.737	0.111	-0.027
-655.886	-158.256	0.128	-0.007
-654.872	-200.000	0.167	0.001
-653.857	472.227	-0.047	-0.105
-652.843	-200.000	-0.069	-0.438
-651.828	9.229	-0.219	-0.165
-650.814	-107.185	-0.227	-0.050
-649.799	-7.943	0.117	-0.079
-648.784	-200.000	0.004	0.052
-647.770	198.359	0.114	0.174
-646.755	397.857	0.136	0.283
-645.741	-122.263	0.214	0.035
-644.726	-137.576	-0.009	-0.001
-643.711	-163.835	0.214	-0.010
-642.697	87.818	-0.023	-0.025
-641.682	-53.668	-0.300	0.137
-640.668	-40.111	0.300	-0.156
-639.653	112.273	-0.103	0.125
-638.638	0.525	0.164	-0.117
-637.624	179.130	0.114	-0.166
-636.609	63.692	0.240	0.240
-635.595	-95.394	0.096	0.026
-634.580	208.848	-0.031	0.049
-633.565	141.646	0.071	-0.093
-632.551	554.824	0.057	0.136
-631.536	-41.160	-0.398	-0.205
-630.522	-118.138	-0.120	0.021
-629.507	800.000	0.053	0.148
-628.492	371.229	-0.209	0.422
-627.478	-200.000	0.028	-0.202
-626.463	-4.001	0.093	-0.064
-625.449	355.182	-0.060	0.119
-624.434	12.674	-0.072	0.056
-623.419	147.506	0.155	-0.208
-622.405	-111.886	-0.110	0.022
-621.390	800.000	-0.012	0.039
-620.376	207.868	0.189	-0.294
-619.361	-39.994	-0.162	0.084
-618.346	-39.884	-0.352	0.183
-617.332	-50.429	-0.362	-0.170
-616.317	-30.431	0.160	-0.090
-615.303	19.513	-0.022	0.018
-614.288	-111.978	0.148	0.030
-613.273	-86.416	0.609	-0.186
-612.259	58.990	-0.343	-0.336
-611.244	93.865	-0.109	-0.123
-610.230	-114.376	0.381	0.073
-609.215	574.481	-0.031	-0.076
-608.201	-72.710	0.291	0.107
-607.186	-14.946	0.137	0.088
-606.171	441.364	0.050	0.110
-605.157	-50.825	-0.345	-0.162
-604.142	-170.801	0.216	-0.007
-603.128	-200.000	0.026	0.202
-602.113	-200.000	-0.002	0.101
-601.098	741.386	-0.016	0.043
-600.084	-200.000	0.029	0.185
-599.069	-101.033	0.204	-0.050
-598.055	-200.000	-0.028	0.144
-597.040	-200.000	0.013	0.113
-596.025	-87.722	-0.378	0.113
-595.011	-29.008	0.024	-0.014
-593.996	-131.666	-0.127	0.017
-592.982	-200.000	0.051	-0.419
-591.967	-30.049	0.054	-0.031
-590.952	125.601	-0.031	-0.038
-589.938	-138.378	0.194	-0.021
-588.923	-83.471	-0.454	0.145
-587.909	-200.000	-0.026	-0.208
-586.894	183.427	-0.284	-0.417
-585.879	-167.059	-0.255	-0.010
-584.865	-105.921	-0.049	-0.011
-583.850	-200.000	0.006	-0.040
-582.836	-200.000	0.042	0.198
-581.821	800.000	-0.064	-0.217
-580.806	-152.723	-0.208	-0.015
-579.792	-97.237	0.081	0.021
-578.777	405.289	-0.115	-0.241
-577.763	-200.000	0.028	-0.348
-576.748	78.822	-0.108	-0.115
-575.733	-200.000	-0.032	0.177
-574.719	-200.000	-0.072	-0.368
-573.704	142.509	0.398	-0.525
-572.690	-9.322	-0.253	0.168
-571.675	13.581	0.098	-0.076
-570.661	800.000	-0.160	-0.582
-569.646	-200.000	0.060	-0.369
-568.631	-175.053	-0.221	-0.006
-567.617	302.630	0.078	-0.143
-566.602	-51.414	0.297	0.138
-565.588	-70.537	0.265	-0.100
-564.573	-188.767	-0.203	0.002
-563.558	-21.077	-0.252	0.154
-562.544	40.983	0.209	-0.187
-561.529	-138.963	0.066	-0.007
-560.515	-71.635	-0.340	-0.126
-559.500	39.839	-0.051	-0.045
-558.485	-148.270	0.421	-0.034
-557.471	-41.488	0.158	-0.081
-556.456	155.813	-0.082	0.113
-555.442	-200.000	-0.050	-0.376
-554.427	-200.000	0.072	0.398
-553.412	-66.639	0.286	0.113
-552.398	267.205	0.183	-0.319
-551.383	125.300	-0.154	0.193
-550.369	-63.241	-0.058	0.024
-549.354	31.353	-0.115	0.098
-548.339	316.272	-0.152	-0.286
-547.325	-83.574	0.543	0.172
-546.310	5.805	-0.225	0.166
-545.296	800.000	-0.047	-0.152
-544.281	311.212	0.114	0.213
-543.266	143.377	0.058	-0.076
-542.252	737.529	-0.177	-0.472
-541.237	98.676	-0.241	0.276
-540.223	-90.250	0.454	0.131
-539.208	13.718	0.260	-0.201
-538.193	94.289	0.267	-0.301
-537.179	106.468	-0.121	-0.143
-536.164	125.857	-0.213	0.267
-535.150	433.718	0.132	-0.285
-534.135	107.944	0.007	0.009
-533.121	114.602	-0.065	0.078
-532.106	-64.205	0.210	-0.085
-531.091	458.289	0.090	0.199
-530.077	153.611	-0.025	-0.034
-529.062	-115.264	0.185	-0.035
-528.048	-200.000	0.012	0.138
-527.033	296.378	0.091	0.165
-526.018	-18.919	0.469	0.289
-525.004	-56.996	-0.123	0.054
-523.989	-76.986	0.095	0.033
-522.975	161.504	-0.272	0.377
-521.960	800.000	-0.048	-0.191
-520.945	23.248	0.380	0.310
-519.931	-68.057	0.087	-0.034
-518.916	800.000	-0.097	-0.275
-517.902	-49.562	-0.297	-0.140
-516.887	-153.631	0.135	0.009
-515.872	786.416	-0.130	-0.354
-514.858	-200.000	0.003	-0.157
-513.843	456.545	0.144	0.317
-512.829	-200.000	0.034	-0.151
-511.814	800.000	0.046	-0.175
-510.799	-98.944	0.099	0.025
-509.785	301.494	-0.228	0.419
-508.770	-35.747	-0.288	0.155
-507.756	-200.000	-0.045	-0.359
-506.741	-200.000	-0.050	-0.250
-505.726	57.007	-0.124	0.120
-504.712	-200.000	-0.037	0.212
-503.697	-136.539	-0.160	-0.018
-502.683	398.517	-0.014	-0.029
-501.668	-40.910	-0.371	0.190
-500.653	170.569	0.231	0.327
-499.639	634.715	-0.165	-0.416
-498.624	194.314	0.309	-0.464
-497.610	160.376	0.041	-0.057
-496.595	-31.968	0.275	-0.152
-495.581	69.567	0.078	0.079
-494.566	-200.000	0.035	-0.201
-493.551	45.648	0.217	0.199
-492.537	-200.000	-0.061	-0.277
-491.522	-194.661	0.101	-0.001
-490.508	800.000	0.029	0.106
-489.493	1.686	-0.338	0.241
-488.478	-200.000	-0.028	-0.279
-487.464	-48.757	-0.158	-0.075
-486.449	-200.000	-0.037	-0.217
-485.435	-104.642	-0.082	0.019
-484.420	-6.554	-0.062	-0.042
-483.405	-200.000	-0.014	-0.213
-482.391	128.330	0.133	-0.168
-481.376	-200.000	0.016	-0.323
-480.362	-200.000	0.007	0.168
-479.347	-200.000	0.052	0.272
-478.332	-85.470	-0.297	-0.092
-477.318	175.148	-0.145	-0.208
-476.303	17.048	-0.093	-0.073
-475.289	800.000	0.057	-0.159
-474.274	165.441	0.081	0.114
-473.259	222.974	-0.119	0.190
-472.245	217.538	0.041	-0.065
-471.230	84.165	-0.058	0.063
-470.216	487.401	-0.080	-0.181
-469.201	800.000	-0.033	0.106
-468.186	800.000	0.100	0.416
-467.172	135.404	0.299	0.385
-466.157	-13.170	-0.224	-0.144
-465.143	-110.165	0.259	0.053
-464.128	91.846	0.192	0.214
-463.113	800.000	0.102	0.281
-462.099	478.207	-0.149	-0.333
-461.084	209.372	0.044	0.068
-460.070	384.837	-0.135	-0.276
-459.055	68.058	-0.171	0.173
-458.040	6.946	0.141	0.104
-457.026	-18.751	0.123	-0.076
-456.011	106.857	-0.124	0.146
-454.997	-17.870	-0.400	-0.248
-453.982	329.111	0.187	-0.357
-452.968	-200.000	0.025	0.180
-451.953	44.553	0.088	-0.080
-450.938	-152.848	-0.137	0.010
-449.924	285.755	-0.131	0.234
-448.909	40.196	0.199	-0.177
-447.895	-119.188	-0.240	0.041
-446.880	6.424	0.129	-0.095
-445.865	-88.525	0.108	-0.032
-444.851	-200.000	-0.061	0.335
-443.836	-27.162	0.232	-0.134
-442.822	-84.594	-0.295	-0.092
-441.807	-111.457	0.249	-0.050
-440.792	-167.993	-0.247	-0.010
-439.778	-44.577	0.211	0.104
-438.763	-200.000	0.026	-0.183
-437.749	5.994	-0.256	0.187
-436.734	-74.727	0.106	-0.038
-435.719	-13.355	0.269	-0.173
-434.705	162.994	-0.299	-0.416
-433.690	89.010	0.076	-0.083
-432.676	-151.596	-0.247	0.018
-431.661	-200.000	0.023	-0.134
-430.646	-57.791	0.220	-0.095
-429.632	-109.243	-0.134	0.028
-428.617	-200.000	0.083	-0.391
-427.603	370.166	0.162	0.325
-426.588	-200.000	-0.010	0.141
-425.573	-171.543	0.207	-0.007
-424.559	80.138	0.112	0.120
-423.544	122.156	0.211	0.260
-422.530	12.262	0.324	0.247
-421.515	-19.336	-0.203	-0.124
-420.500	-58.654	0.305	0.131
-419.486	286.422	-0.158	0.282
-418.471	27.407	0.147	0.122
-417.457	88.330	-0.101	0.111
-416.442	423.155	-0.164	0.349
-415.428	42.297	0.093	-0.083
-414.413	236.023	-0.087	-0.142
-413.398	0.092	-0.301	-0.212
-412.384	-200.000	-0.018	0.210
-411.369	-111.062	-0.139	-0.028
-410.355	-41.741	0.011	-0.006
-409.340	800.000	-0.111	-0.314
-408.325	12.047	0.091	-0.069
-407.311	-99.086	-0.174	-0.043
-406.296	209.315	0.069	0.107
-405.282	-41.575	0.097	0.049
-404.267	-94.551	0.279	-0.075
-403.252	400.512	0.095	-0.196
-402.238	-200.000	0.002	0.131
-401.223	84.217	-0.211	0.228
-400.209	-200.000	-0.023	0.125
-399.194	-52.634	-0.270	0.123
-398.179	353.673	0.135	0.265
-397.165	-64.397	-0.192	-0.077
-396.150	-120.016	0.147	-0.025
-395.136	24.040	-0.329	-0.268
-394.121	-178.539	-0.147	0.003
-393.106	-200.000	-0.023	-0.132
-392.092	-135.253	-0.433	-0.051
-391.077	345.165	-0.103	0.200
-390.063	337.239	0.061	0.118
-389.048	-48.924	-0.380	-0.180
-388.033	800.000	0.052	0.173
-387.019	48.276	-0.091	0.084
-386.004	79.732	0.163	0.173
-384.990	-200.000	-0.073	-0.381
-383.975	-105.384	0.319	-0.072
-382.960	-10.906	-0.106	-0.069
-381.946	-53.729	0.317	-0.143
-380.931	41.008	0.233	0.208
-379.917	-86.955	0.120	0.036
-378.902	-120.225	0.347	0.058
-377.888	554.715	-0.111	0.264
-376.873	-140.507	-0.443	0.045
-375.858	27.159	-0.021	0.017
-374.844	800.000	0.123	-0.413
-373.829	-56.622	-0.026	0.011
-372.815	86.661	0.084	0.091
-371.800	-125.900	-0.112	-0.017
-370.785	118.534	0.126	0.153
-369.771	550.067	-0.091	-0.215
-368.756	-37.699	0.205	0.108
-367.742	-20.592	0.069	-0.042
-366.727	50.028	-0.108	0.101
-365.712	-9.561	0.490	0.323
-364.698	44.696	0.151	-0.137
-363.683	800.000	-0.082	-0.334
-362.669	-55.124	0.095	0.042
-361.654	800.000	0.026	-0.091
-360.639	504.607	-0.088	0.202
-359.625	800.000	0.036	0.148
-358.610	-200.000	-0.369	0.000
-357.596	250.121	0.129	0.217
-356.581	-116.875	-0.173	0.031
-355.566	67.527	0.110	0.111
-354.552	107.386	-0.097	-0.114
-353.537	323.015	-0.051	0.095
-352.523	-71.180	-0.181	-0.067
-351.508	-200.000	-0.009	-0.241
-350.493	800.000	0.044	-0.171
-349.479	-36.967	0.260	0.137
-348.464	25.731	-0.075	0.062
-347.450	-200.000	-0.005	-0.145
-346.435	-200.000	-0.030	0.376
-345.420	14.559	0.269	0.207
-344.406	75.134	-0.148	-0.154
-343.391	-102.103	-0.256	-0.061
-342.377	251.266	-0.117	0.195
-341.362	-169.800	0.111	0.004
-340.348	258.043	-0.152	0.257
-339.333	-167.066	0.047	0.002
-338.318	268.428	-0.095	-0.164
-337.304	-200.000	0.010	-0.235
-336.289	-181.705	0.201	-0.004
-335.275	-141.540	0.082	0.008
-334.260	-100.140	0.156	0.038
-333.245	-124.283	-0.282	0.043
-332.231	-125.884	0.246	0.037
-331.216	88.884	0.132	-0.145
-330.202	427.463	0.050	0.107
-329.187	-75.734	0.087	0.030
-328.172	115.053	-0.084	-0.101
-327.158	-82.052	0.235	0.075
-326.143	-69.002	0.127	-0.048
-325.129	-140.577	0.203	0.021
-324.114	94.372	0.103	0.115
-323.099	-68.344	-0.127	0.049
-322.085	-53.947	-0.192	-0.086
-321.070	-33.052	-0.218	0.119
-320.056	94.897	-0.102	0.114
-319.041	-78.746	-0.102	-0.034
-318.026	-200.000	-0.048	0.521
-317.012	-200.000	-0.007	0.254
-315.997	-103.698	0.107	-0.025
-314.983	187.862	0.148	-0.217
-313.968	88.879	-0.191	-0.209
-312.953	72.532	-0.135	0.139
-311.939	21.289	-0.038	-0.030
-310.924	-33.012	-0.191	0.104
-309.910	91.905	0.200	-0.222
-308.895	-107.633	-0.261	-0.056
-307.880	-200.000	-0.039	0.255
-306.866	-0.493	-0.268	0.187
-305.851	68.961	0.228	0.231
-304.837	800.000	0.082	-0.288
-303.822	260.563	0.076	0.129
-302.807	-200.000	0.026	0.309
-301.793	53.318	0.129	-0.122
-300.778	-133.986	-0.222	0.027
-299.764	-55.181	-0.385	0.170
-298.749	259.653	-0.122	-0.207
-297.735	286.043	-0.132	0.234
-296.720	-200.000	0.117	0.511
-295.705	-200.000	0.012	0.299
-294.691	33.961	0.095	-0.082
-293.676	553.139	0.108	-0.255
-292.662	345.672	-0.125	-0.242
-291.647	38.712	0.091	-0.079
-290.632	21.608	0.279	0.224
-289.618	662.924	0.125	0.318
-288.603	-200.000	0.024	-0.162
-287.589	-200.000	0.050	0.265
-286.574	-5.142	-0.121	0.082
-285.559	-167.958	0.305	0.012
-284.545	800.000	-0.085	-0.286
-283.530	-167.950	-0.298	0.011
-282.516	-200.000	0.020	0.228
-281.501	-61.478	0.114	0.047
-280.486	-20.056	0.076	0.046
-279.472	-132.987	0.169	-0.021
-278.457	30.327	0.125	0.105
-277.443	222.634	0.277	-0.438
-276.428	-81.123	0.367	0.119
-275.413	-21.748	-0.269	-0.161
-274.399	4.833	0.295	-0.213
-273.384	-200.000	0.004	0.054
-272.370	-200.000	-0.028	-0.148
-271.355	-200.000	-0.017	-0.145
-270.340	800.000	-0.051	-0.160
-269.326	380.648	-0.082	0.165
-268.311	267.091	-0.078	0.134
-267.297	50.405	-0.194	-0.180
-266.282	-144.725	-0.363	-0.033
-265.267	507.688	0.206	0.469
-264.253	491.680	0.062	0.139
-263.238	2.436	-0.006	0.004
-262.224	-200.000	-0.104	0.463
-261.209	-31.811	0.130	0.072
-260.195	-200.000	0.034	-0.319
-259.180	-200.000	0.024	0.182
-258.165	84.250	0.165	0.177
-257.151	-200.000	0.014	-0.231
-256.136	57.054	-0.202	0.194
-255.122	-49.601	-0.229	-0.107
-254.107	-200.000	0.019	0.470
-253.092	800.000	0.109	0.383
-252.078	793.772	0.040	-0.108
-251.063	25.662	-0.199	0.163
-250.049	-100.058	0.225	0.055
-249.034	160.928	0.050	-0.069
-248.019	-132.087	-0.043	-0.006
-247.005	-42.055	-0.049	-0.025
-245.990	-127.261	-0.052	0.008
-244.976	-76.696	-0.176	-0.061
-243.961	-200.000	0.043	0.268
-242.946	-43.529	-0.324	-0.161
-241.932	-200.000	-0.064	-0.471
-240.917	-146.419	-0.205	0.018
-239.903	113.678	0.032	0.039
-238.888	36.291	-0.192	0.166
-237.873	800.000	0.060	-0.245
-236.859	365.806	0.066	-0.131
-235.844	-200.000	0.024	-0.146
-234.830	800.000	0.040	0.119
-233.815	-26.899	-0.159	-0.091
-232.800	-200.000	0.005	0.298
-231.786	-116.978	0.375	0.067
-230.771	-200.000	0.002	0.227
-229.757	794.572	-0.040	0.107
-228.742	61.371	0.063	-0.062
-227.727	-200.000	-0.007	-0.244
-226.713	-108.991	-0.286	-0.060
-225.698	198.508	-0.212	-0.319
-224.684	-81.801	0.187	-0.060
-223.669	426.981	-0.069	0.146
-222.655	193.553	0.210	-0.311
-221.640	-187.971	0.226	-0.003
-220.625	-193.679	0.102	-0.001
-219.611	356.390	-0.127	-0.249
-218.596	234.927	-0.138	0.223
-217.582	98.059	-0.293	0.330
-216.567	-35.021	0.150	0.080
-215.552	410.106	-0.053	0.109
-214.538	-200.000	-0.010	0.260
-213.523	87.935	0.177	0.192
-212.509	-170.957	0.061	-0.002
-211.494	110.108	-0.233	-0.274
-210.479	-44.668	-0.368	-0.180
-209.465	694.391	0.183	0.470
-208.450	24.495	-0.169	-0.137
-207.436	-61.589	-0.086	0.036
-206.421	285.415	0.058	-0.102
-205.406	-200.000	-0.038	-0.189
-204.392	-200.000	0.148	-0.000
-203.377	-152.242	0.275	-0.019
-202.363	208.486	-0.102	-0.156
-201.348	-200.000	-0.003	-0.152
-200.333	173.717	-0.016	0.023
-199.319	800.000	0.059	-0.208
-198.304	-200.000	-0.119	-0.625
-197.290	-200.000	-0.019	-0.470
-196.275	-150.993	0.161	0.012
-195.260	-128.301	0.257	0.036
-194.246	410.664	0.093	0.193
-193.231	559.812	0.046	0.110
-192.217	278.334	0.147	0.257
-191.202	516.984	-0.073	0.168
-190.187	94.937	0.030	-0.034
-189.173	179.000	0.045	-0.065
-188.158	63.825	-0.105	-0.103
-187.144	-85.366	-0.241	-0.074
-186.129	-200.000	-0.013	0.288
-185.114	142.980	-0.097	0.127
-184.100	126.105	-0.112	-0.139
-183.085	-95.395	-0.274	0.072
-182.071	174.824	0.089	0.126
-181.056	449.396	0.090	-0.195
-180.042	-70.763	0.370	0.137
-179.027	588.084	0.067	-0.163
-178.012	285.220	-0.121	0.213
-176.998	-200.000	0.037	0.411
-175.983	783.611	-0.039	0.105
-174.969	219.358	0.097	0.151
-173.954	75.023	-0.385	-0.397
-172.939	102.000	0.056	0.064
-171.925	-0.640	-0.118	0.082
-170.910	2.529	-0.127	0.090
-169.896	13.293	-0.166	0.126
-168.881	218.067	-0.091	0.142
-167.866	-200.000	-0.006	-0.269
-166.852	-14.124	-0.233	-0.147
-165.837	-109.808	-0.041	0.008
-164.823	51.994	0.038	-0.035
-163.808	-135.912	0.133	-0.015
-162.793	3.235	-0.188	0.134
-161.779	-98.756	0.244	-0.061
-160.764	800.000	-0.060	-0.200
-159.750	800.000	-0.061	-0.258
-158.735	-200.000	-0.010	-0.161
-157.720	759.172	0.112	0.296
-156.706	-62.032	-0.132	0.054
-155.691	-81.069	-0.323	-0.105
-154.677	-119.105	0.154	-0.026
-153.662	-200.000	-0.036	0.238
-152.647	-154.571	0.449	0.029
-151.633	274.268	0.018	-0.030
-150.618	-140.658	0.095	0.010
-149.604	32.729	-0.095	-0.080
-148.589	59.442	-0.132	-0.127
-147.574	165.135	-0.129	-0.178
-146.560	-62.441	-0.158	0.064
-145.545	-148.228	-0.080	-0.006
-144.531	-200.000	0.007	-0.058
-143.516	-136.881	-0.078	-0.009
-142.502	417.899	0.086	-0.180
-141.487	-11.401	-0.046	0.030
-140.472	-109.822	0.032	0.007
-139.458	-200.000	0.018	0.244
-138.443	-29.394	0.272	0.152
-137.429	171.060	0.336	-0.471
-136.414	369.634	-0.168	0.332
-135.399	-39.410	-0.145	0.075
-134.385	168.764	0.076	-0.106
-133.370	-168.548	0.182	-0.007
-132.356	-200.000	0.007	0.273
-131.341	-142.359	-0.175	-0.017
-130.326	-104.387	0.152	0.034
-129.312	144.344	-0.045	-0.058
-128.297	378.940	0.092	0.185
-127.283	-174.661	0.066	0.002
-126.268	465.110	-0.207	0.452
-125.253	-90.705	-0.038	-0.011
-124.239	-200.000	-0.033	0.149
-123.224	126.762	0.155	-0.192
-122.210	125.266	0.087	-0.107
-121.195	356.721	0.197	0.385
