DTS Sentinel unit serial number:	SN413079Multiplexer serial number:	ORYXHardware model number:	OX4-SRSoftware version number:	ORYX F/W v4.00 Oryx Data Collector v3.7.2.0data status	okinstallation	princeton_trtdifferential loss correction	single-endedforward channel	channel 3reverse channel	N/Adate	2019/09/18time	09:12:35forward acquisition time	60.00reverse acquisition time	0.00gamma	496.2192k internal	0.2339k external	0.2339temperature offset calibration	0.9948default loss term (dB/km)	0.3790temperature slope calibration	1.0000multiplexer offset coefficient	1.0000multiplexer slope coefficient	1.0000fibre end	0.00T internal ref (°C)	25.58T ext. ref 1 (°C)	0.25T ext. ref 2 (°C)	22.92length (m)	temperature (°C)	Stokes	anti-Stokes-747.200	-124.320	0.347	-0.054
-746.185	800.000	-0.106	-0.322
-745.171	244.860	-0.100	0.169
-744.156	13.324	-0.233	-0.181
-743.142	800.000	-0.033	-0.095
-742.127	-96.291	0.127	-0.034
-741.112	-200.000	0.012	0.061
-740.098	62.823	0.179	0.179
-739.083	-129.464	-0.070	0.010
-738.069	-103.470	0.260	0.061
-737.054	-31.122	0.339	-0.192
-736.039	8.516	-0.248	-0.187
-735.025	-200.000	0.013	0.310
-734.010	-98.840	-0.362	-0.092
-732.996	-11.628	-0.101	0.067
-731.981	-200.000	-0.087	0.429
-730.966	33.029	-0.144	0.125
-729.952	191.570	-0.071	-0.108
-728.937	4.791	0.186	-0.137
-727.923	800.000	0.056	-0.202
-726.908	-200.000	0.022	-0.111
-725.894	-117.206	-0.319	0.058
-724.879	-85.940	0.061	-0.019
-723.864	491.161	0.048	-0.110
-722.850	-53.138	0.482	-0.222
-721.835	30.665	-0.127	-0.109
-720.821	-187.479	0.361	0.005
-719.806	242.504	0.099	-0.166
-718.791	252.851	-0.044	-0.075
-717.777	27.151	-0.123	-0.103
-716.762	25.270	0.138	-0.115
-715.748	776.131	-0.058	0.158
-714.733	-117.270	0.202	-0.037
-713.718	-200.000	0.001	-0.337
-712.704	3.003	-0.270	0.196
-711.689	140.414	0.081	0.107
-710.675	159.779	0.260	-0.362
-709.660	-200.000	-0.018	-0.213
-708.645	-118.880	0.195	0.034
-707.631	8.222	0.030	-0.023
-706.616	388.953	-0.242	-0.501
-705.602	-200.000	0.061	-0.337
-704.587	4.426	-0.127	-0.093
-703.572	-179.960	0.161	-0.003
-702.558	-200.000	0.001	-0.197
-701.543	-58.969	0.063	0.027
-700.529	-129.445	-0.189	0.026
-699.514	-200.000	-0.002	0.169
-698.499	497.228	-0.048	-0.109
-697.485	-169.895	0.410	-0.015
-696.470	-18.329	-0.202	-0.126
-695.456	-65.151	-0.362	-0.146
-694.441	-153.621	-0.335	0.023
-693.426	-170.172	-0.244	-0.009
-692.412	800.000	-0.099	-0.292
-691.397	-71.518	-0.066	0.025
-690.383	-200.000	0.059	0.273
-689.368	-189.818	0.285	0.003
-688.354	67.746	-0.060	-0.062
-687.339	-65.603	-0.106	0.043
-686.324	-185.477	0.093	0.001
-685.310	-125.045	0.171	0.026
-684.295	18.908	-0.262	-0.210
-683.281	113.666	-0.222	0.270
-682.266	-200.000	0.010	-0.110
-681.251	800.000	-0.047	0.135
-680.237	-54.330	0.205	-0.093
-679.222	122.712	-0.170	0.213
-678.208	800.000	0.027	0.080
-677.193	212.927	-0.085	-0.134
-676.178	-44.670	-0.052	-0.026
-675.164	-158.344	-0.138	-0.008
-674.149	-117.368	-0.099	-0.018
-673.135	-84.462	-0.376	0.119
-672.120	-200.000	-0.026	0.299
-671.105	800.000	-0.006	0.017
-670.091	-161.260	0.482	0.025
-669.076	-71.353	-0.502	-0.188
-668.062	381.505	0.030	-0.061
-667.047	179.501	-0.161	0.235
-666.032	-76.547	0.383	-0.134
-665.018	-137.568	-0.374	-0.042
-664.003	191.978	-0.090	0.136
-662.989	-70.157	0.141	-0.054
-661.974	-35.686	0.328	0.178
-660.959	-21.217	-0.135	-0.082
-659.945	-16.705	0.312	0.197
-658.930	-35.621	-0.348	0.188
-657.916	0.983	0.269	-0.193
-656.901	218.952	-0.087	-0.139
-655.886	355.735	-0.106	0.211
-654.872	135.819	0.086	0.112
-653.857	-200.000	-0.006	-0.070
-652.843	800.000	-0.046	-0.169
-651.828	135.409	0.194	-0.253
-650.814	-39.766	0.141	-0.074
-649.799	-78.082	-0.382	-0.131
-648.784	293.219	-0.086	0.156
-647.770	-24.452	0.059	0.035
-646.755	126.573	0.257	-0.325
-645.741	-61.197	0.135	0.057
-644.726	800.000	-0.070	-0.253
-643.711	-159.548	-0.140	-0.008
-642.697	-22.615	0.099	-0.060
-641.682	-40.963	0.260	0.134
-640.668	-24.352	0.375	0.223
-639.653	97.318	-0.170	-0.195
-638.638	-39.805	0.169	0.088
-637.624	-200.000	-0.049	-0.247
-636.609	-30.795	0.175	0.099
-635.595	-82.629	-0.148	0.048
-634.580	198.141	-0.076	-0.116
-633.565	49.001	0.122	0.114
-632.551	267.260	0.166	-0.290
-631.536	-19.879	0.226	-0.140
-630.522	309.657	-0.081	-0.152
-629.507	-88.938	-0.187	-0.055
-628.492	211.075	0.165	0.260
-627.478	800.000	-0.068	0.262
-626.463	-8.750	-0.431	0.289
-625.449	-196.678	0.142	-0.001
-624.434	124.503	-0.128	-0.160
-623.419	-65.447	-0.285	-0.114
-622.405	170.118	0.037	-0.052
-621.390	297.430	0.049	-0.090
-620.376	-200.000	0.039	0.195
-619.361	18.077	0.240	-0.191
-618.346	-61.722	-0.058	0.024
-617.332	155.847	-0.121	0.166
-616.317	800.000	0.022	-0.064
-615.303	271.167	-0.056	0.098
-614.288	38.816	-0.053	-0.047
-613.273	800.000	0.107	0.299
-612.259	-85.136	-0.055	-0.017
-611.244	-158.924	-0.150	-0.009
-610.230	800.000	0.036	-0.147
-609.215	659.733	-0.096	0.246
-608.201	78.601	-0.161	-0.172
-607.186	299.019	0.073	0.133
-606.171	-63.433	0.281	0.115
-605.157	537.214	0.167	0.396
-604.142	-19.830	-0.108	0.066
-603.128	-60.122	-0.182	-0.077
-602.113	145.990	-0.089	-0.120
-601.098	56.355	0.252	0.244
-600.084	-200.000	0.011	0.182
-599.069	331.171	0.182	-0.350
-598.055	32.240	0.294	0.253
-597.040	16.840	-0.068	-0.054
-596.025	-200.000	-0.013	-0.359
-595.011	-105.238	-0.174	-0.040
-593.996	-137.292	0.313	-0.036
-592.982	800.000	0.041	0.152
-591.967	275.618	0.072	-0.128
-590.952	32.186	0.144	0.124
-589.938	-190.309	-0.179	-0.002
-588.923	-35.609	0.214	0.116
-587.909	46.013	-0.306	-0.283
-586.894	-200.000	-0.007	-0.332
-585.879	-200.000	0.012	0.246
-584.865	527.815	-0.096	0.226
-583.850	280.928	0.122	0.218
-582.836	26.232	-0.084	-0.070
-581.821	-200.000	0.012	0.141
-580.806	400.255	0.008	-0.016
-579.792	800.000	-0.038	0.155
-578.777	48.554	0.135	0.126
-577.763	-200.000	0.001	0.023
-576.748	221.373	-0.117	-0.187
-575.733	-22.934	0.257	0.155
-574.719	800.000	0.045	-0.190
-573.704	83.415	0.075	-0.082
-572.690	48.578	-0.098	-0.091
-571.675	348.811	0.014	0.027
-570.661	800.000	0.065	-0.280
-569.646	275.128	0.022	0.039
-568.631	-2.935	-0.172	-0.120
-567.617	-200.000	0.005	-0.201
-566.602	-127.926	-0.205	0.029
-565.588	-200.000	-0.007	-0.250
-564.573	-200.000	-0.047	-0.251
-563.558	-95.910	0.118	-0.031
-562.544	16.662	0.062	-0.049
-561.529	41.843	-0.302	-0.273
-560.515	63.629	0.214	-0.214
-559.500	-14.424	0.047	0.030
-558.485	205.694	-0.136	-0.211
-557.471	-95.296	0.134	-0.036
-556.456	5.650	0.065	0.048
-555.442	-200.000	-0.004	-0.140
-554.427	2.754	0.296	-0.214
-553.412	58.750	0.109	0.107
-552.398	-92.995	0.104	-0.029
-551.383	459.933	-0.195	0.432
-550.369	27.480	0.211	0.176
-549.354	221.010	-0.099	0.157
-548.339	800.000	-0.166	-0.458
-547.325	296.290	-0.214	-0.391
-546.310	47.210	-0.280	-0.259
-545.296	159.491	-0.102	-0.141
-544.281	-43.412	-0.356	-0.179
-543.266	456.627	-0.043	-0.096
-542.252	-200.000	0.019	-0.206
-541.237	-51.859	-0.358	-0.166
-540.223	543.220	-0.125	0.296
-539.208	-1.859	0.364	0.255
-538.193	-200.000	0.019	0.152
-537.179	223.215	-0.187	0.301
-536.164	800.000	0.071	0.243
-535.150	-58.849	-0.171	-0.073
-534.135	-200.000	0.050	-0.305
-533.121	800.000	-0.123	-0.381
-532.106	-98.234	-0.291	-0.074
-531.091	178.351	0.109	0.158
-530.077	-161.454	0.178	0.009
-529.062	-200.000	-0.061	0.355
-528.048	257.574	0.086	0.147
-527.033	-25.287	0.088	-0.052
-526.018	88.052	0.181	-0.200
-525.004	79.155	-0.161	0.172
-523.989	-116.953	-0.475	-0.086
-522.975	207.861	-0.046	0.071
-521.960	207.875	0.142	0.220
-520.945	-10.255	-0.168	0.111
-519.931	-159.926	-0.152	0.008
-518.916	-17.521	-0.158	-0.099
-517.902	-44.051	-0.146	-0.073
-516.887	-176.611	-0.109	0.003
-515.872	-177.948	-0.140	-0.003
-514.858	-19.422	-0.107	0.066
-513.843	45.805	0.135	-0.124
-512.829	-26.089	0.091	-0.053
-511.814	234.308	-0.220	-0.360
-510.799	-200.000	0.049	0.239
-509.785	17.991	-0.127	0.100
-508.770	-4.039	-0.140	-0.097
-507.756	800.000	0.143	-0.422
-506.741	-104.922	-0.279	-0.064
-505.726	-95.782	-0.211	0.056
-504.712	619.064	0.045	0.113
-503.697	-57.416	0.443	0.193
-502.683	-200.000	0.041	-0.183
-501.668	12.937	-0.037	-0.028
-500.653	-113.324	0.287	0.056
-499.639	531.700	0.030	0.071
-498.624	800.000	0.058	0.166
-497.610	-200.000	0.003	-0.137
-496.595	35.899	0.075	-0.065
-495.581	800.000	0.030	0.108
-494.566	-44.946	0.340	-0.168
-493.551	-181.164	-0.311	-0.006
-492.537	-99.989	-0.271	-0.067
-491.522	86.777	0.129	0.142
-490.508	555.618	0.048	0.114
-489.493	750.274	-0.092	-0.248
-488.478	-9.289	0.235	-0.156
-487.464	194.713	0.133	-0.200
-486.449	-47.021	-0.207	-0.100
-485.435	-18.571	0.077	0.048
-484.420	-172.879	0.235	0.007
-483.405	230.073	0.175	0.285
-482.391	112.341	-0.050	-0.060
-481.376	-200.000	-0.245	0.001
-480.362	383.303	0.145	-0.296
-479.347	-200.000	-0.428	0.001
-478.332	-124.603	-0.149	0.023
-477.318	800.000	0.090	0.369
-476.303	70.090	0.114	0.117
-475.289	128.763	-0.054	-0.068
-474.274	425.631	-0.143	-0.305
-473.259	-6.323	-0.410	-0.277
-472.245	-200.000	0.078	0.477
-471.230	-74.155	-0.205	-0.074
-470.216	-141.362	-0.129	0.013
-469.201	-51.531	0.277	-0.128
-468.186	-143.916	-0.266	-0.025
-467.172	126.554	0.130	-0.163
-466.157	-92.861	-0.124	-0.034
-465.143	-52.131	-0.236	-0.109
-464.128	-126.651	-0.275	0.040
-463.113	-18.625	-0.213	0.132
-462.099	155.389	0.080	-0.109
-461.084	-138.342	0.250	0.027
-460.070	800.000	0.058	0.195
-459.055	-48.985	0.079	0.037
-458.040	134.028	-0.157	-0.201
-457.026	800.000	-0.029	-0.102
-456.011	-200.000	0.005	-0.146
-454.997	-200.000	0.039	-0.295
-453.982	-42.638	-0.151	0.076
-452.968	-159.714	-0.150	-0.008
-451.953	-165.518	0.312	0.013
-450.938	575.215	0.185	0.449
-449.924	-119.020	-0.451	-0.078
-448.909	-200.000	-0.021	-0.121
-447.895	236.423	-0.146	0.239
-446.880	-150.972	-0.217	-0.016
-445.865	2.989	-0.276	-0.198
-444.851	116.240	0.149	0.181
-443.836	-200.000	-0.008	0.082
-442.822	-200.000	0.013	0.238
-441.807	3.382	0.066	-0.048
-440.792	16.495	-0.070	0.055
-439.778	105.210	0.225	0.264
-438.763	-200.000	-0.006	0.094
-437.749	-200.000	0.035	0.294
-436.734	191.423	-0.076	0.113
-435.719	116.677	0.116	-0.141
-434.705	-161.873	-0.081	-0.004
-433.690	-69.983	-0.063	0.024
-432.676	89.546	0.124	0.137
-431.661	-32.846	-0.205	0.113
-430.646	-20.475	-0.274	-0.167
-429.632	-200.000	0.044	-0.300
-428.617	-54.049	0.089	-0.040
-427.603	347.902	0.177	0.346
-426.588	21.370	-0.141	-0.113
-425.573	-8.813	-0.385	-0.255
-424.559	13.097	0.134	0.103
-423.544	94.532	0.068	0.077
-422.530	111.901	-0.198	0.237
-421.515	434.236	0.244	-0.525
-420.500	-200.000	0.006	-0.314
-419.486	-200.000	0.006	0.097
-418.471	-53.236	0.310	0.141
-417.457	-71.613	0.285	-0.106
-416.442	139.201	0.141	0.183
-415.428	-81.146	0.273	0.089
-414.413	-200.000	-0.014	0.096
-413.398	-94.282	0.243	0.066
-412.384	39.794	0.270	0.240
-411.369	-115.607	-0.247	0.046
-410.355	12.692	-0.050	-0.038
-409.340	60.366	-0.197	0.193
-408.325	253.898	0.016	-0.026
-407.311	-33.889	0.274	0.150
-406.296	-24.323	-0.117	0.069
-405.282	-2.005	-0.196	-0.137
-404.267	800.000	0.088	0.243
-403.252	132.078	-0.139	-0.177
-402.238	277.289	0.141	-0.248
-401.223	-150.529	-0.376	0.028
-400.209	-57.083	0.391	0.171
-399.194	-33.280	-0.159	-0.087
-398.179	29.049	0.284	0.238
-397.165	-123.465	0.159	-0.025
-396.150	79.971	0.125	-0.133
-395.136	560.360	-0.086	-0.206
-394.121	121.049	0.083	0.103
-393.106	11.567	0.233	-0.177
-392.092	-200.000	0.016	0.179
-391.077	-200.000	-0.005	0.557
-390.063	367.872	0.031	-0.062
-389.048	-123.504	-0.156	0.025
-388.033	40.041	-0.101	0.089
-387.019	-127.563	0.289	-0.041
-386.004	22.727	-0.130	-0.105
-384.990	-165.124	0.206	0.009
-383.975	-2.944	0.096	-0.066
-382.960	-90.243	-0.070	0.020
-381.946	-142.180	-0.201	0.020
-380.931	-94.574	-0.094	0.025
-379.917	-200.000	-0.004	0.173
-378.902	173.756	-0.239	-0.341
-377.888	800.000	-0.106	0.323
-376.873	800.000	0.031	0.095
-375.858	150.553	0.186	0.250
-374.844	800.000	0.072	-0.288
-373.829	-138.721	-0.189	0.020
-372.815	217.708	-0.069	0.109
-371.800	-102.360	0.201	-0.048
-370.785	800.000	0.027	0.090
-369.771	-18.460	-0.244	-0.150
-368.756	73.853	0.167	0.173
-367.742	-41.370	-0.336	-0.171
-366.727	-193.103	0.155	-0.001
-365.712	336.104	0.074	-0.143
-364.698	144.412	-0.219	-0.289
-363.683	141.447	-0.165	-0.216
-362.669	-200.000	-0.008	-0.132
-361.654	-74.046	-0.230	-0.082
-360.639	62.487	0.014	0.013
-359.625	-67.502	-0.096	0.037
-358.610	-192.623	0.247	-0.002
-357.596	800.000	-0.071	-0.289
-356.581	-180.723	-0.230	-0.005
-355.566	-200.000	0.011	0.155
-354.552	-149.489	-0.106	0.008
-353.537	-200.000	0.001	-0.061
-352.523	-200.000	0.062	-0.319
-351.508	-200.000	0.009	0.145
-350.493	-200.000	-0.039	0.551
-349.479	-74.179	0.174	-0.062
-348.464	22.601	-0.022	0.018
-347.450	-181.733	0.231	0.004
-346.435	88.989	0.094	0.103
-345.420	194.382	-0.119	0.178
-344.406	-76.322	-0.257	-0.089
-343.391	-13.599	0.333	0.213
-342.377	153.396	0.081	-0.109
-341.362	-200.000	-0.078	-0.351
-340.348	-51.025	-0.365	-0.169
-339.333	226.480	0.106	0.170
-338.318	-184.386	0.200	0.003
-337.304	-200.000	0.046	0.401
-336.289	510.610	0.067	-0.153
-335.275	800.000	-0.019	-0.051
-334.260	434.988	0.026	-0.055
-333.245	158.763	0.209	0.286
-332.231	-58.112	-0.081	-0.035
-331.216	800.000	0.052	-0.193
-330.202	-114.969	0.350	-0.066
-329.187	800.000	-0.026	0.102
-328.172	359.712	0.078	-0.153
-327.158	-13.293	0.079	0.051
-326.143	-161.674	-0.124	-0.006
-325.129	3.624	-0.050	0.036
-324.114	-200.000	0.020	-0.140
-323.099	-133.358	-0.074	0.009
-322.085	-100.984	-0.114	-0.027
-321.070	-74.581	0.296	-0.105
-320.056	-200.000	0.044	0.191
-319.041	-45.160	0.119	0.058
-318.026	-200.000	-0.011	-0.128
-317.012	-62.970	0.183	-0.075
-315.997	38.980	0.319	-0.281
-314.983	116.398	-0.054	-0.066
-313.968	55.448	0.196	0.187
-312.953	95.003	-0.038	-0.043
-311.939	-34.286	0.194	-0.105
-310.924	18.737	0.348	-0.275
-309.910	134.405	0.241	0.308
-308.895	248.442	-0.061	0.102
-307.880	490.701	0.232	0.524
-306.866	-123.283	-0.432	-0.068
-305.851	800.000	0.057	-0.190
-304.837	-69.562	-0.156	-0.059
-303.822	-118.300	-0.155	0.027
-302.807	-24.082	-0.069	-0.041
-301.793	134.753	-0.351	0.450
-300.778	274.889	-0.024	-0.042
-299.764	-45.308	0.106	0.052
-298.749	-106.375	-0.200	0.044
-297.735	-164.979	-0.169	-0.007
-296.720	275.082	0.059	-0.104
-295.705	-29.519	0.371	0.209
-294.691	-91.180	-0.413	-0.117
-293.676	516.203	0.042	-0.097
-292.662	-95.354	0.253	-0.067
-291.647	-183.120	-0.254	0.004
-290.632	174.282	-0.096	-0.137
-289.618	372.631	0.065	0.130
-288.603	2.808	-0.185	0.132
-287.589	-107.998	-0.301	0.064
-286.574	-76.502	-0.240	-0.083
-285.559	707.894	0.137	0.357
-284.545	641.034	-0.103	-0.258
-283.530	-96.440	0.298	-0.078
-282.516	-200.000	-0.020	0.148
-281.501	-46.940	-0.378	-0.182
-280.486	-200.000	-0.009	-0.041
-279.472	-68.014	-0.548	-0.211
-278.457	-158.053	-0.202	0.012
-277.443	-55.033	-0.266	0.118
-276.428	540.659	0.056	-0.132
-275.413	-116.720	-0.234	0.042
-274.399	495.861	0.048	-0.109
-273.384	449.084	-0.136	-0.296
-272.370	-109.463	0.151	0.031
-271.355	-43.499	-0.087	0.043
-270.340	-158.882	0.113	0.006
-269.326	388.788	-0.104	0.212
-268.311	-20.656	0.112	-0.067
-267.297	-200.000	-0.008	0.133
-266.282	-126.852	0.202	0.029
-265.267	-129.424	0.083	-0.011
-264.253	741.611	-0.174	-0.460
-263.238	800.000	-0.085	-0.236
-262.224	-65.661	0.139	-0.055
-261.209	75.008	0.241	0.250
-260.195	8.757	-0.146	0.108
-259.180	473.362	0.142	-0.316
-258.165	-200.000	0.034	0.421
-257.151	-101.524	0.243	-0.058
-256.136	-22.278	0.129	0.077
-255.122	563.738	-0.091	0.216
-254.107	-108.313	-0.151	0.032
-253.092	800.000	0.070	0.223
-252.078	-142.734	0.259	0.025
-251.063	-200.000	0.066	0.328
-250.049	-23.023	0.528	0.313
-249.034	-3.387	0.554	-0.380
-248.019	-154.163	0.369	0.025
-247.005	407.243	-0.180	0.374
-245.990	-113.733	-0.350	0.067
-244.976	-88.994	0.254	-0.074
-243.961	800.000	-0.027	0.074
-242.946	-200.000	-0.031	-0.175
-241.932	80.288	0.065	-0.069
-240.917	-161.138	0.257	0.013
-239.903	723.799	-0.102	-0.266
-238.888	-200.000	-0.035	0.286
-237.873	-130.456	0.120	0.016
-236.859	-90.088	0.136	0.039
-235.844	270.719	0.201	0.348
-234.830	66.749	-0.065	-0.065
-233.815	-119.816	0.208	-0.035
-232.800	-200.000	0.103	-0.473
-231.786	431.638	0.064	-0.135
-230.771	3.791	-0.064	0.046
-229.757	-200.000	0.030	0.151
-228.742	-162.457	-0.134	0.007
-227.727	230.627	-0.069	-0.111
-226.713	-200.000	0.068	0.298
-225.698	-200.000	0.010	0.376
-224.684	189.996	-0.090	0.132
-223.669	-167.939	-0.075	-0.003
-222.655	-117.391	0.406	-0.072
-221.640	157.675	0.088	-0.120
-220.625	101.820	-0.055	0.063
-219.611	755.644	0.109	0.290
-218.596	-200.000	0.081	-0.385
-217.582	16.979	0.215	0.167
-216.567	-166.791	0.136	-0.006
-215.552	-177.797	-0.134	-0.003
-214.538	-200.000	0.014	-0.130
-213.523	111.734	-0.055	-0.066
-212.509	800.000	-0.022	0.072
-211.494	800.000	-0.059	-0.176
-210.479	-135.787	0.302	-0.035
-209.465	-61.167	-0.159	-0.066
-208.450	355.730	-0.115	0.226
-207.436	-200.000	-0.020	-0.287
-206.421	-142.143	-0.389	-0.038
-205.406	284.817	0.120	0.213
-204.392	-88.419	-0.269	0.079
-203.377	-60.554	-0.232	0.097
-202.363	-146.759	-0.291	-0.025
-201.348	425.426	0.053	0.112
-200.333	121.694	0.059	-0.072
-199.319	-200.000	0.053	0.431
-198.304	165.340	0.363	-0.503
-197.290	-89.674	-0.167	0.048
-196.275	42.499	0.095	0.084
-195.260	-200.000	-0.012	-0.191
-194.246	-33.581	0.080	-0.044
-193.231	45.408	-0.089	-0.081
-192.217	14.065	-0.162	-0.124
-191.202	-161.961	0.062	0.003
-190.187	-92.831	-0.199	-0.055
-189.173	-130.684	0.050	0.007
-188.158	205.313	0.076	0.116
-187.144	105.056	-0.172	0.199
-186.129	125.614	-0.207	-0.257
-185.114	-200.000	-0.011	-0.323
-184.100	-200.000	-0.006	-0.034
-183.085	800.000	-0.080	0.297
-182.071	-200.000	-0.001	0.187
-181.056	154.703	-0.200	0.269
-180.042	261.306	-0.109	0.186
-179.027	32.673	0.227	0.193
-178.012	438.838	0.176	0.377
-176.998	86.281	-0.250	0.270
-175.983	17.312	-0.169	-0.131
-174.969	102.995	-0.055	-0.063
-173.954	800.000	-0.018	0.054
-172.939	-25.926	0.036	-0.021
-171.925	-88.022	0.255	0.075
-170.910	-150.763	0.204	-0.015
-169.896	281.992	0.034	-0.059
-168.881	297.712	0.048	-0.087
-167.866	-98.677	0.321	-0.080
-166.852	126.299	0.196	-0.243
-165.837	-200.000	-0.030	-0.204
-164.823	99.362	0.100	-0.114
-163.808	22.529	0.091	-0.073
-162.793	-200.000	-0.025	-0.335
-161.779	-173.798	0.225	-0.007
-160.764	96.559	0.050	-0.057
-159.750	-200.000	0.068	0.330
-158.735	-28.869	0.111	-0.063
-157.720	152.365	-0.174	0.233
-156.706	296.124	-0.115	0.206
-155.691	-25.601	-0.106	0.062
-154.677	-27.150	0.236	0.135
-153.662	800.000	-0.029	-0.083
-152.647	488.345	0.083	-0.185
-151.633	302.297	-0.085	-0.153
-150.618	687.669	-0.107	0.274
-149.604	196.804	0.175	0.262
-148.589	-57.089	-0.090	0.039
-147.574	-64.236	-0.185	-0.074
-146.560	202.561	-0.023	0.034
-145.545	-200.000	-0.054	-0.313
-144.531	-136.837	-0.529	-0.060
-143.516	-15.000	0.141	-0.088
-142.502	-14.472	0.321	0.202
-141.487	-39.046	-0.065	-0.033
-140.472	-49.537	0.226	-0.106
-139.458	-200.000	0.050	0.381
-138.443	-23.203	0.194	0.114
-137.429	-200.000	-0.083	-0.366
-136.414	-18.567	-0.177	0.108
-135.399	-200.000	-0.003	-0.135
-134.385	800.000	0.191	0.565
-133.370	6.666	-0.150	0.110
-132.356	249.654	-0.113	0.187
-131.341	-10.275	0.114	-0.074
-130.326	28.819	-0.262	-0.217
-129.312	-132.997	-0.110	0.014
-128.297	156.584	0.066	-0.089
-127.283	-151.557	-0.293	0.021
-126.268	-63.826	0.138	0.055
-125.253	-145.926	0.091	-0.008
-124.239	300.400	-0.160	-0.289
-123.224	128.437	0.192	-0.239
-122.210	-17.978	-0.296	0.181
