DTS Sentinel unit serial number:	SN413079Multiplexer serial number:	ORYXHardware model number:	OX4-SRSoftware version number:	ORYX F/W v4.00 Oryx Data Collector v3.7.2.0data status	okinstallation	princeton_trtdifferential loss correction	single-endedforward channel	channel 3reverse channel	N/Adate	2019/09/19time	01:40:35forward acquisition time	60.00reverse acquisition time	0.00gamma	496.2192k internal	0.2348k external	0.2348temperature offset calibration	0.9991default loss term (dB/km)	0.3790temperature slope calibration	1.0000multiplexer offset coefficient	1.0000multiplexer slope coefficient	1.0000fibre end	0.00T internal ref (°C)	21.45T ext. ref 1 (°C)	0.69T ext. ref 2 (°C)	14.91length (m)	temperature (°C)	Stokes	anti-Stokes-747.200	-33.439	0.168	-0.093
-746.185	30.430	-0.136	0.116
-745.171	310.915	-0.018	0.035
-744.156	-6.378	-0.192	-0.131
-743.142	-57.222	0.350	0.154
-742.127	71.689	-0.159	0.165
-741.112	-60.721	-0.175	0.074
-740.098	51.724	-0.123	-0.117
-739.083	34.713	-0.205	-0.179
-738.069	-200.000	-0.057	0.541
-737.054	-99.621	0.357	0.090
-736.039	-37.246	-0.208	-0.111
-735.025	332.128	-0.119	0.230
-734.010	-28.164	-0.326	0.188
-732.996	800.000	-0.059	-0.224
-731.981	800.000	-0.058	-0.212
-730.966	-89.918	0.410	0.120
-729.952	413.275	-0.079	-0.168
-728.937	-139.208	-0.206	0.022
-727.923	-91.263	-0.074	-0.021
-726.908	-200.000	-0.053	0.258
-725.894	800.000	0.064	-0.182
-724.879	-128.989	-0.212	0.030
-723.864	188.211	-0.146	0.218
-722.850	279.733	0.135	-0.242
-721.835	315.726	0.048	0.091
-720.821	-1.382	0.026	-0.019
-719.806	-94.106	0.118	0.032
-718.791	-3.294	0.264	-0.184
-717.777	-28.161	0.115	-0.067
-716.762	293.766	0.152	-0.278
-715.748	-25.703	-0.204	-0.120
-714.733	119.882	0.177	0.219
-713.718	-26.247	-0.171	0.100
-712.704	800.000	-0.046	0.189
-711.689	800.000	0.006	-0.022
-710.675	-69.049	-0.200	0.077
-709.660	161.881	0.069	0.097
-708.645	-74.349	-0.271	-0.098
-707.631	21.162	-0.151	-0.122
-706.616	-51.525	-0.186	0.087
-705.602	499.042	-0.122	-0.281
-704.587	-200.000	0.020	-0.420
-703.572	24.494	-0.213	-0.176
-702.558	-63.314	0.236	0.097
-701.543	737.448	0.070	0.188
-700.529	-56.396	-0.464	0.205
-699.514	-10.051	-0.078	0.052
-698.499	161.047	-0.017	-0.024
-697.485	-73.851	0.105	-0.038
-696.470	17.399	0.101	-0.080
-695.456	239.581	0.204	-0.339
-694.441	34.646	-0.165	0.144
-693.426	-30.102	-0.121	0.069
-692.412	130.214	-0.200	0.255
-691.397	-42.293	0.137	0.070
-690.383	-103.602	0.349	-0.082
-689.368	279.326	0.164	0.292
-688.354	-200.000	-0.005	-0.084
-687.339	-200.000	0.001	-0.416
-686.324	800.000	-0.080	-0.234
-685.310	222.174	-0.154	-0.246
-684.295	-22.788	0.249	0.150
-683.281	149.203	-0.162	-0.219
-682.266	-111.048	0.294	-0.060
-681.251	-200.000	0.013	-0.483
-680.237	395.361	-0.176	0.367
-679.222	143.109	-0.139	0.185
-678.208	-152.377	-0.136	0.010
-677.193	-200.000	0.010	-0.224
-676.178	-200.000	0.023	0.399
-675.164	580.108	-0.078	-0.191
-674.149	800.000	-0.042	0.127
-673.135	95.052	-0.453	0.514
-672.120	800.000	-0.019	0.070
-671.105	-138.784	-0.064	-0.007
-670.091	-200.000	0.055	0.364
-669.076	800.000	-0.079	0.330
-668.062	41.953	0.087	-0.079
-667.047	-169.201	-0.221	-0.008
-666.032	380.051	0.037	0.076
-665.018	-200.000	-0.009	-0.428
-664.003	232.340	-0.248	-0.405
-662.989	167.653	0.173	0.245
-661.974	-69.314	0.075	0.029
-660.959	90.526	-0.122	0.136
-659.945	-200.000	0.019	-0.139
-658.930	127.592	0.158	0.200
-657.916	-123.429	-0.165	-0.026
-656.901	-51.839	0.163	-0.075
-655.886	116.107	0.065	-0.080
-654.872	125.290	-0.213	-0.268
-653.857	-200.000	0.067	0.358
-652.843	-49.072	0.123	0.058
-651.828	-200.000	0.049	0.286
-650.814	-120.236	-0.199	-0.034
-649.799	800.000	0.122	-0.408
-648.784	145.932	-0.084	-0.112
-647.770	-200.000	0.032	-0.228
-646.755	-75.338	-0.231	0.082
-645.741	130.489	-0.154	0.196
-644.726	-91.078	-0.099	0.028
-643.711	-23.773	0.230	0.137
-642.697	-200.000	0.013	0.311
-641.682	72.357	0.072	0.075
-640.668	-92.753	0.319	-0.089
-639.653	-143.357	-0.091	-0.009
-638.638	-0.334	-0.074	-0.052
-637.624	103.494	0.099	0.116
-636.609	49.828	-0.120	-0.113
-635.595	-200.000	0.017	-0.111
-634.580	800.000	0.048	-0.147
-633.565	67.227	0.208	-0.211
-632.551	-54.919	-0.169	0.076
-631.536	-200.000	-0.008	-0.390
-630.522	-200.000	-0.018	-0.184
-629.507	547.928	0.081	0.194
-628.492	-63.281	0.167	-0.068
-627.478	55.733	0.212	-0.205
-626.463	-48.678	-0.140	0.067
-625.449	-173.315	0.143	-0.004
-624.434	-100.697	-0.103	-0.025
-623.419	800.000	-0.141	-0.507
-622.405	-37.394	0.086	-0.046
-621.390	-200.000	0.004	0.081
-620.376	9.206	-0.049	0.037
-619.361	388.516	0.117	-0.240
-618.346	-200.000	0.001	0.080
-617.332	-56.804	-0.293	0.129
-616.317	-200.000	0.005	-0.031
-615.303	-52.610	-0.147	0.067
-614.288	20.502	-0.165	0.133
-613.273	-63.518	0.334	-0.136
-612.259	-102.895	-0.072	0.017
-611.244	28.569	-0.177	-0.149
-610.230	403.868	0.109	-0.227
-609.215	-200.000	0.001	-0.075
-608.201	-139.066	0.081	-0.009
-607.186	76.119	-0.085	-0.090
-606.171	55.821	0.114	0.110
-605.157	-116.894	-0.264	-0.048
-604.142	-200.000	0.002	-0.220
-603.128	800.000	-0.019	0.058
-602.113	-200.000	0.002	0.055
-601.098	82.109	-0.063	-0.068
-600.084	218.341	0.019	0.030
-599.069	-45.653	-0.475	-0.233
-598.055	73.026	0.163	-0.169
-597.040	-200.000	-0.078	0.409
-596.025	19.122	0.091	-0.073
-595.011	-200.000	-0.038	-0.181
-593.996	54.219	-0.230	-0.220
-592.982	13.866	0.213	-0.165
-591.967	-3.336	0.143	0.099
-590.952	-5.406	-0.195	-0.133
-589.938	84.999	0.212	-0.231
-588.923	-80.101	0.151	0.050
-587.909	425.698	0.122	0.262
-586.894	-200.000	-0.031	-0.361
-585.879	-56.104	-0.221	-0.098
-584.865	-69.342	0.235	-0.090
-583.850	800.000	-0.047	0.168
-582.836	-44.160	-0.074	0.037
-581.821	-200.000	0.006	-0.137
-580.806	745.712	0.107	0.285
-579.792	-200.000	0.043	0.212
-578.777	-110.110	-0.370	0.077
-577.763	-89.828	0.443	0.129
-576.748	-170.774	-0.351	0.012
-575.733	-200.000	-0.006	-0.199
-574.719	-36.179	-0.310	-0.166
-573.704	-117.740	-0.266	-0.047
-572.690	371.027	0.062	0.125
-571.675	-8.351	0.206	0.137
-570.661	-98.595	0.226	0.057
-569.646	800.000	-0.070	-0.214
-568.631	-38.623	-0.274	0.144
-567.617	-7.588	0.221	0.149
-566.602	-53.792	-0.386	-0.175
-565.588	-1.638	-0.362	-0.253
-564.573	-41.539	0.084	-0.043
-563.558	-9.925	0.259	0.171
-562.544	-169.275	-0.199	-0.007
-561.529	-74.842	0.187	0.067
-560.515	-200.000	-0.034	-0.151
-559.500	-3.181	0.286	-0.198
-558.485	72.670	-0.164	-0.170
-557.471	-200.000	-0.009	-0.078
-556.456	-101.727	0.131	-0.032
-555.442	-174.844	-0.128	0.004
-554.427	-31.003	0.216	-0.121
-553.412	13.835	-0.159	-0.122
-552.398	-200.000	-0.001	-0.506
-551.383	-200.000	-0.053	-0.253
-550.369	-133.709	-0.338	0.042
-549.354	57.071	-0.224	0.217
-548.339	-153.433	0.440	-0.030
-547.325	-110.529	-0.174	0.036
-546.310	-23.093	-0.259	-0.155
-545.296	55.459	-0.132	0.127
-544.281	-106.676	-0.154	-0.034
-543.266	-22.387	0.072	0.043
-542.252	-22.485	-0.072	0.043
-541.237	-69.543	-0.215	-0.082
-540.223	-200.000	0.030	0.250
-539.208	-140.731	-0.174	0.018
-538.193	433.798	0.079	0.170
-537.179	-4.152	-0.202	0.138
-536.164	25.861	-0.175	-0.145
-535.150	-113.241	-0.381	0.074
-534.135	12.456	0.322	0.246
-533.121	234.853	0.216	-0.353
-532.106	52.589	-0.054	0.051
-531.091	-46.707	0.283	-0.137
-530.077	-200.000	-0.049	-0.270
-529.062	-56.506	0.180	-0.079
-528.048	-147.084	-0.437	0.037
-527.033	-200.000	-0.001	0.046
-526.018	145.915	-0.071	-0.094
-525.004	250.489	0.165	0.278
-523.989	183.117	-0.103	0.151
-522.975	353.145	-0.043	-0.085
-521.960	-98.576	-0.216	-0.055
-520.945	-4.891	-0.136	0.093
-519.931	-84.826	0.164	0.051
-518.916	-37.815	-0.242	0.128
-517.902	-200.000	0.069	-0.406
-516.887	309.259	-0.112	-0.207
-515.872	-200.000	-0.027	0.308
-514.858	-150.859	-0.196	-0.015
-513.843	-34.300	-0.270	-0.147
-512.829	-101.928	0.171	0.041
-511.814	-145.888	0.129	-0.011
-510.799	-38.831	-0.050	-0.026
-509.785	-36.468	0.071	-0.038
-508.770	-97.812	0.106	0.027
-507.756	-83.311	-0.107	-0.034
-506.741	593.943	-0.071	0.174
-505.726	243.006	0.036	0.059
-504.712	-93.399	-0.029	-0.008
-503.697	86.438	0.079	-0.086
-502.683	-121.901	-0.422	-0.069
-501.668	800.000	0.024	0.097
-500.653	800.000	-0.054	-0.192
-499.639	270.670	-0.165	0.286
-498.624	26.685	-0.106	0.088
-497.610	-103.308	0.120	0.028
-496.595	-100.416	-0.364	-0.089
-495.581	-68.101	-0.030	-0.012
-494.566	-200.000	0.010	-0.047
-493.551	103.092	0.152	0.176
-492.537	22.465	0.035	-0.028
-491.522	80.744	0.340	0.363
-490.508	136.825	0.109	-0.140
-489.493	182.070	0.174	-0.253
-488.478	590.027	0.165	-0.402
-487.464	170.935	-0.044	0.062
-486.449	187.646	-0.149	0.220
-485.435	51.745	0.141	0.132
-484.420	800.000	0.067	0.183
-483.405	-200.000	0.005	0.172
-482.391	-200.000	-0.005	-0.081
-481.376	200.212	-0.090	-0.137
-480.362	-14.000	0.074	-0.047
-479.347	-112.865	-0.257	-0.050
-478.332	-87.046	0.444	0.134
-477.318	75.971	-0.156	0.164
-476.303	-68.938	-0.093	-0.036
-475.289	175.518	-0.009	0.013
-474.274	350.698	-0.264	0.517
-473.259	800.000	-0.051	-0.194
-472.245	102.494	0.220	0.255
-471.230	800.000	-0.084	0.335
-470.216	714.705	-0.010	0.026
-469.201	-47.988	-0.241	-0.115
-468.186	41.910	-0.291	-0.261
-467.172	-58.678	-0.279	-0.120
-466.157	-38.227	0.145	-0.076
-465.143	-120.957	-0.125	0.021
-464.128	-74.384	-0.146	0.052
-463.113	89.103	-0.142	0.156
-462.099	-97.964	-0.233	-0.059
-461.084	180.049	0.197	0.286
-460.070	161.275	0.165	0.229
-459.055	217.269	0.100	-0.158
-458.040	179.696	0.072	-0.104
-457.026	47.897	-0.114	-0.105
-456.011	2.806	-0.326	0.234
-454.997	128.124	-0.144	0.181
-453.982	-101.285	0.114	0.027
-452.968	-52.571	0.566	-0.258
-451.953	539.593	0.065	-0.153
-450.938	100.393	0.140	-0.161
-449.924	223.498	-0.066	0.105
-448.909	757.747	0.095	-0.253
-447.895	-38.754	0.162	0.085
-446.880	29.742	-0.211	-0.177
-445.865	-112.425	-0.334	0.066
-444.851	70.084	0.111	-0.113
-443.836	-11.278	0.092	0.060
-442.822	92.759	0.159	-0.178
-441.807	-31.757	-0.294	-0.163
-440.792	-19.581	0.126	0.077
-439.778	-94.065	-0.158	0.043
-438.763	344.628	0.032	0.062
-437.749	-49.335	-0.178	0.084
-436.734	14.116	0.038	0.029
-435.719	-123.733	0.079	-0.012
-434.705	-85.054	-0.382	0.118
-433.690	-109.578	-0.132	-0.028
-432.676	-71.381	0.073	-0.027
-431.661	1.686	0.230	-0.164
-430.646	-85.644	-0.293	-0.090
-429.632	-72.450	0.327	-0.119
-428.617	50.382	-0.390	-0.364
-427.603	-63.819	0.115	-0.047
-426.588	637.909	-0.058	-0.147
-425.573	107.291	0.182	-0.214
-424.559	-200.000	-0.051	-0.235
-423.544	-16.667	0.148	0.093
-422.530	7.099	0.083	-0.061
-421.515	-65.641	-0.333	0.132
-420.500	-200.000	-0.048	0.428
-419.486	-200.000	0.031	-0.341
-418.471	-200.000	-0.013	-0.406
-417.457	-109.017	-0.369	-0.078
-416.442	800.000	0.087	-0.257
-415.428	-190.286	0.314	-0.003
-414.413	-63.874	-0.143	0.058
-413.398	-200.000	0.048	0.220
-412.384	52.131	0.272	0.256
-411.369	-77.243	-0.188	-0.065
-410.355	368.914	-0.028	0.056
-409.340	287.843	-0.152	0.271
-408.325	-31.276	0.419	-0.233
-407.311	-200.000	-0.046	-0.347
-406.296	186.165	0.136	-0.199
-405.282	-155.424	-0.144	0.009
-404.267	705.013	0.064	-0.165
-403.252	-200.000	0.014	-0.187
-402.238	-200.000	-0.010	0.091
-401.223	-16.508	0.244	0.152
-400.209	-57.500	0.136	-0.059
-399.194	800.000	-0.089	0.301
-398.179	-80.113	0.087	-0.029
-397.165	-111.366	0.088	0.018
-396.150	45.063	-0.130	-0.118
-395.136	121.196	0.071	0.087
-394.121	-173.484	-0.205	-0.006
-393.106	-67.352	0.176	0.068
-392.092	16.814	-0.057	0.044
-391.077	-4.228	-0.184	0.125
-390.063	800.000	0.059	-0.232
-389.048	-42.661	-0.148	0.074
-388.033	-96.427	0.141	-0.037
-387.019	-95.140	-0.044	-0.012
-386.004	-1.156	0.080	-0.056
-384.990	-182.683	-0.166	0.003
-383.975	57.256	0.169	0.163
-382.960	-47.272	0.295	-0.141
-381.946	148.870	-0.073	-0.097
-380.931	-6.350	0.319	-0.214
-379.917	-200.000	-0.008	-0.046
-378.902	-200.000	-0.002	-0.053
-377.888	800.000	0.034	0.117
-376.873	-41.542	0.171	0.087
-375.858	72.956	-0.089	0.092
-374.844	-105.709	0.149	-0.033
-373.829	87.841	0.084	0.092
-372.815	-8.184	0.162	-0.107
-371.800	-70.918	-0.215	0.080
-370.785	-54.722	-0.397	-0.176
-369.771	62.145	-0.144	-0.141
-368.756	4.087	0.386	-0.278
-367.742	-200.000	0.005	0.260
-366.727	242.685	-0.251	-0.413
-365.712	800.000	0.056	0.183
-364.698	8.611	-0.261	0.194
-363.683	-196.624	-0.154	0.001
-362.669	-143.809	-0.142	0.013
-361.654	166.201	-0.104	0.145
-360.639	-200.000	0.005	0.281
-359.625	393.017	0.039	0.079
-358.610	-200.000	-0.047	-0.244
-357.596	92.763	0.131	-0.146
-356.581	-135.276	-0.153	-0.018
-355.566	800.000	0.005	0.013
-354.552	-66.157	-0.045	0.018
-353.537	185.612	0.112	0.163
-352.523	-108.633	-0.265	0.056
-351.508	-200.000	0.001	-0.027
-350.493	309.784	0.078	-0.144
-349.479	-31.330	-0.323	-0.179
-348.464	-14.012	-0.352	-0.223
-347.450	112.747	-0.185	-0.220
-346.435	-56.605	0.164	-0.072
-345.420	-100.255	0.181	0.044
-344.406	-200.000	-0.005	-0.223
-343.391	610.155	-0.085	-0.209
-342.377	800.000	-0.032	-0.120
-341.362	164.470	0.100	0.139
-340.348	189.039	-0.074	0.109
-339.333	-28.219	0.217	0.123
-338.318	60.675	0.310	0.303
-337.304	40.305	-0.118	0.104
-336.289	203.087	0.018	-0.028
-335.275	-200.000	-0.048	-0.270
-334.260	-200.000	0.052	-0.475
-333.245	-91.452	0.138	0.039
-332.231	-80.894	0.138	-0.045
-331.216	421.257	-0.159	0.335
-330.202	-107.714	-0.079	-0.017
-329.187	180.542	-0.260	0.375
-328.172	281.547	-0.172	0.304
-327.158	260.625	0.137	0.233
-326.143	-66.164	-0.191	0.075
-325.129	215.498	0.107	0.167
-324.114	-200.000	0.021	-0.130
-323.099	76.130	0.061	-0.063
-322.085	1.319	0.115	-0.081
-321.070	-25.664	-0.149	-0.087
-320.056	606.884	0.178	0.436
-319.041	145.983	0.305	-0.402
-318.026	178.697	-0.089	0.128
-317.012	246.762	-0.013	0.021
-315.997	-26.826	0.340	-0.195
-314.983	-99.941	0.136	-0.033
-313.968	-4.830	0.041	-0.028
-312.953	-82.465	0.153	-0.049
-311.939	173.622	-0.077	0.109
-310.924	-94.811	0.333	0.089
-309.910	198.400	0.024	-0.036
-308.895	-93.735	-0.381	-0.103
-307.880	-21.916	0.147	0.088
-306.866	5.893	0.187	-0.136
-305.851	-200.000	-0.025	-0.396
-304.837	-200.000	0.045	0.223
-303.822	-114.739	0.431	0.081
-302.807	-125.644	0.361	-0.054
-301.793	22.147	-0.158	0.127
-300.778	46.118	-0.084	0.077
-299.764	-123.824	-0.242	-0.038
-298.749	-95.345	-0.203	0.054
-297.735	48.106	0.087	0.080
-296.720	-59.382	0.142	0.060
-295.705	-200.000	0.015	-0.155
-294.691	592.106	0.088	-0.214
-293.676	378.587	0.081	-0.162
-292.662	-20.361	0.085	-0.051
-291.647	-68.235	-0.293	0.112
-290.632	800.000	0.078	-0.327
-289.618	-200.000	0.022	-0.153
-288.603	-17.308	-0.082	-0.051
-287.589	630.353	0.107	0.265
-286.574	724.642	-0.087	0.226
-285.559	-55.023	-0.260	-0.115
-284.545	287.337	0.218	0.386
-283.530	123.262	-0.099	0.122
-282.516	-97.719	0.311	0.079
-281.501	-200.000	0.080	0.455
-280.486	8.100	-0.179	0.132
-279.472	67.094	-0.036	0.036
-278.457	76.426	0.176	0.183
-277.443	-155.399	-0.107	-0.007
-276.428	-200.000	-0.001	0.237
-275.413	-55.119	0.071	0.031
-274.399	340.926	-0.044	0.084
-273.384	-139.921	-0.246	0.026
-272.370	31.282	-0.073	0.061
-271.355	-200.000	0.040	0.213
-270.340	-138.293	-0.173	0.019
-269.326	34.118	-0.110	0.094
-268.311	-113.499	0.468	0.090
-267.297	230.692	0.098	-0.157
-266.282	-200.000	-0.037	0.240
-265.267	370.684	-0.101	0.201
-264.253	7.348	-0.114	-0.083
-263.238	-200.000	0.035	-0.382
-262.224	124.332	0.190	0.234
-261.209	-200.000	0.010	0.456
-260.195	-42.933	-0.231	-0.115
-259.180	-96.939	0.393	0.101
-258.165	179.024	0.148	0.212
-257.151	800.000	0.162	0.614
-256.136	-200.000	0.068	0.349
-255.122	800.000	0.098	0.367
-254.107	-116.003	-0.053	0.010
-253.092	-67.683	0.050	-0.019
-252.078	61.394	-0.265	0.258
-251.063	550.372	-0.108	-0.254
-250.049	95.430	0.191	-0.214
-249.034	-21.239	0.113	0.068
-248.019	35.136	0.138	-0.119
-247.005	5.799	-0.109	0.079
-245.990	256.012	-0.132	0.222
-244.976	-103.739	-0.246	-0.056
-243.961	-104.051	0.394	0.090
-242.946	376.566	0.022	0.045
-241.932	-40.893	0.107	0.054
-240.917	-151.763	-0.152	-0.011
-239.903	9.223	-0.227	0.168
-238.888	724.085	-0.153	-0.399
-237.873	-20.219	0.094	0.057
-236.859	108.364	0.290	0.339
-235.844	-68.139	0.241	0.092
-234.830	481.314	-0.044	-0.097
-233.815	-33.705	0.267	0.144
-232.800	-189.618	-0.223	-0.003
-231.786	800.000	-0.071	-0.226
-230.771	-22.176	0.305	0.182
-229.757	-98.371	0.436	-0.109
-228.742	43.918	0.118	-0.106
-227.727	-50.079	-0.072	-0.033
-226.713	-172.561	0.091	0.003
-225.698	-4.114	-0.155	-0.105
-224.684	34.343	-0.157	-0.134
-223.669	239.793	0.096	-0.156
-222.655	800.000	0.074	-0.220
-221.640	207.064	-0.139	0.212
-220.625	9.963	0.095	0.070
-219.611	84.450	0.143	-0.153
-218.596	800.000	0.099	-0.303
-217.582	-200.000	0.031	0.157
-216.567	-200.000	-0.007	-0.222
-215.552	38.044	-0.115	-0.100
-214.538	146.072	0.171	-0.224
-213.523	474.521	-0.096	0.212
-212.509	800.000	-0.065	-0.241
-211.494	32.029	-0.107	0.090
-210.479	-200.000	-0.011	0.122
-209.465	-33.923	-0.142	-0.076
-208.450	800.000	0.015	-0.041
-207.436	-42.449	-0.124	0.062
-206.421	-7.460	0.261	0.173
-205.406	312.972	0.107	-0.196
-204.392	-82.076	-0.010	0.003
-203.377	-200.000	-0.012	0.074
-202.363	-184.174	0.274	-0.004
-201.348	108.380	0.185	0.216
-200.333	94.168	0.163	-0.181
-199.319	-200.000	0.086	0.444
-198.304	-78.626	0.190	-0.063
-197.290	100.421	-0.121	-0.138
-196.275	106.060	0.141	-0.163
-195.260	-200.000	-0.001	0.482
-194.246	560.941	0.195	0.461
-193.231	-85.340	0.237	0.072
-192.217	800.000	0.037	-0.157
-191.202	99.071	0.062	0.070
-190.187	-85.722	-0.199	-0.060
-189.173	800.000	0.086	-0.312
-188.158	-200.000	0.000	-0.323
-187.144	-40.279	-0.239	-0.122
-186.129	-30.088	-0.041	-0.023
-185.114	-20.219	0.337	-0.203
-184.100	63.606	0.327	0.321
-183.085	-171.111	0.090	-0.003
-182.071	-36.818	0.162	-0.085
-181.056	529.552	0.016	-0.037
-180.042	800.000	0.115	0.349
-179.027	-199.122	-0.136	0.001
-178.012	-166.793	0.133	0.005
-176.998	-120.427	-0.333	0.055
-175.983	800.000	0.068	0.283
-174.969	-141.811	-0.082	-0.008
-173.954	61.007	0.374	0.363
-172.939	-104.547	0.284	0.064
-171.925	-3.452	0.225	-0.153
-170.910	-44.186	-0.157	0.077
-169.896	25.393	-0.070	0.057
-168.881	143.502	-0.074	0.096
-167.866	111.716	-0.122	0.144
-166.852	-0.883	0.124	0.086
-165.837	-63.576	0.288	0.115
-164.823	-62.219	0.127	0.052
-163.808	119.397	-0.051	-0.062
-162.793	-159.769	0.107	0.006
-161.779	-98.113	0.136	-0.034
-160.764	-122.760	-0.151	0.024
-159.750	82.228	0.193	0.204
-158.735	27.094	0.085	-0.070
-157.720	-1.618	-0.212	0.146
-156.706	107.801	-0.266	0.309
-155.691	43.760	-0.178	-0.159
-154.677	-200.000	0.054	0.332
-153.662	-135.389	-0.533	-0.062
-152.647	800.000	-0.078	-0.239
-151.633	-59.439	-0.364	0.153
-150.618	-62.542	0.036	-0.014
-149.604	19.652	0.295	0.231
-148.589	-200.000	-0.001	0.245
-147.574	73.445	-0.169	0.173
-146.560	-76.813	0.059	0.020
-145.545	-147.547	-0.150	0.012
-144.531	407.547	-0.144	-0.298
-143.516	136.205	-0.128	0.163
-142.502	144.722	0.188	0.245
-141.487	35.341	0.072	0.062
-140.472	-200.000	-0.045	-0.231
-139.458	410.564	0.081	0.168
-138.443	455.666	0.139	0.302
-137.429	82.046	0.083	0.087
-136.414	-200.000	-0.018	0.179
-135.399	-139.472	0.068	0.007
-134.385	-24.638	0.293	0.170
-133.370	-52.978	0.173	-0.078
-132.356	-74.374	-0.082	-0.029
-131.341	137.804	0.094	0.121
-130.326	-52.105	-0.014	0.006
-129.312	-88.823	-0.200	0.058
-128.297	-4.296	0.144	-0.097
-127.283	-57.872	-0.219	0.094
-126.268	-4.817	0.095	-0.064
-125.253	-200.000	0.002	0.029
-124.239	800.000	0.024	0.098
-123.224	-18.019	0.141	-0.086
-122.210	-200.000	0.071	0.458
-121.195	-86.026	0.084	-0.025
-120.180	362.267	-0.182	0.356
