DTS Sentinel unit serial number:	SN413079Multiplexer serial number:	ORYXHardware model number:	OX4-SRSoftware version number:	ORYX F/W v4.00 Oryx Data Collector v3.7.2.0data status	okinstallation	princeton_trtdifferential loss correction	single-endedforward channel	channel 3reverse channel	N/Adate	2019/09/17time	08:04:35forward acquisition time	60.00reverse acquisition time	0.00gamma	496.2192k internal	0.2334k external	0.2334temperature offset calibration	0.9941default loss term (dB/km)	0.3790temperature slope calibration	1.0000multiplexer offset coefficient	1.0000multiplexer slope coefficient	1.0000fibre end	0.00T internal ref (°C)	27.28T ext. ref 1 (°C)	0.12T ext. ref 2 (°C)	22.38length (m)	temperature (°C)	Stokes	anti-Stokes-747.200	125.864	-0.098	-0.124
-746.185	44.945	0.225	0.209
-745.171	-200.000	0.010	0.216
-744.156	-95.416	-0.065	-0.018
-743.142	-104.018	0.073	0.017
-742.127	-200.000	-0.081	0.370
-741.112	-130.557	-0.198	0.027
-740.098	-200.000	0.043	0.248
-739.083	-64.306	0.063	-0.026
-738.069	-119.779	-0.174	0.030
-737.054	-163.463	0.168	0.008
-736.039	218.237	-0.076	0.123
-735.025	-200.000	0.028	0.370
-734.010	399.300	-0.176	0.371
-732.996	-159.667	-0.237	-0.013
-731.981	-146.605	-0.124	0.011
-730.966	-21.456	0.154	-0.094
-729.952	-115.638	-0.279	-0.053
-728.937	28.962	0.371	-0.316
-727.923	-129.741	-0.220	0.030
-726.908	69.217	0.099	-0.102
-725.894	-82.140	-0.287	0.094
-724.879	-42.990	-0.139	0.071
-723.864	-45.157	-0.088	0.044
-722.850	800.000	0.055	0.206
-721.835	-161.047	-0.197	0.010
-720.821	-122.827	-0.343	-0.056
-719.806	44.382	-0.146	0.135
-718.791	0.628	-0.319	-0.229
-717.777	-200.000	-0.009	-0.344
-716.762	-23.332	0.111	0.067
-715.748	-29.781	0.275	0.158
-714.733	-200.000	-0.026	-0.140
-713.718	84.117	-0.260	0.286
-712.704	-83.135	0.242	-0.078
-711.689	-157.304	-0.145	-0.009
-710.675	251.245	0.084	0.144
-709.660	-200.000	0.003	0.081
-708.645	56.048	-0.269	-0.262
-707.631	-156.820	0.209	-0.013
-706.616	53.379	0.345	0.332
-705.602	-70.141	0.129	0.049
-704.587	800.000	-0.010	0.039
-703.572	27.936	-0.198	0.168
-702.558	141.056	0.034	0.045
-701.543	-13.873	-0.111	0.072
-700.529	13.810	-0.222	-0.174
-699.514	-17.659	-0.109	0.069
-698.499	-187.353	-0.254	0.003
-697.485	-115.222	-0.113	0.021
-696.470	109.431	0.013	-0.016
-695.456	418.458	-0.131	-0.281
-694.441	-34.868	-0.033	-0.018
-693.426	-200.000	-0.068	0.329
-692.412	151.991	0.048	-0.065
-691.397	-68.282	-0.334	0.130
-690.383	760.644	0.048	0.131
-689.368	-146.395	0.401	-0.035
-688.354	800.000	-0.062	-0.217
-687.339	800.000	0.065	-0.268
-686.324	172.449	0.137	-0.197
-685.310	-97.375	-0.217	-0.057
-684.295	34.690	0.037	-0.033
-683.281	62.501	-0.059	-0.059
-682.266	-200.000	0.012	0.237
-681.251	-200.000	-0.007	-0.214
-680.237	122.315	0.092	0.116
-679.222	42.802	0.195	0.179
-678.208	382.646	-0.070	-0.145
-677.193	-52.774	0.163	0.075
-676.178	-159.952	0.217	0.012
-675.164	8.998	0.055	-0.041
-674.149	-200.000	-0.021	-0.148
-673.135	-200.000	0.030	0.206
-672.120	477.837	-0.092	-0.209
-671.105	-200.000	-0.104	-0.518
-670.091	78.496	-0.091	-0.097
-669.076	38.911	-0.089	0.080
-668.062	359.074	-0.067	0.134
-667.047	-200.000	-0.030	0.133
-666.032	800.000	-0.104	0.327
-665.018	-152.243	-0.105	-0.008
-664.003	-55.042	-0.506	0.229
-662.989	-187.151	0.240	-0.003
-661.974	-89.629	-0.154	-0.045
-660.959	-59.725	-0.172	-0.074
-659.945	-169.932	-0.257	0.009
-658.930	-113.899	0.425	0.083
-657.916	321.421	-0.090	0.172
-656.901	170.881	-0.197	-0.282
-655.886	-96.316	0.226	-0.060
-654.872	-195.689	-0.352	-0.003
-653.857	96.849	-0.341	-0.392
-652.843	85.321	-0.050	0.055
-651.828	81.528	0.369	0.400
-650.814	65.087	0.216	-0.218
-649.799	89.799	0.241	-0.269
-648.784	88.811	0.168	0.187
-647.770	230.386	0.042	-0.068
-646.755	-200.000	0.019	0.124
-645.741	-39.515	-0.106	0.055
-644.726	-132.381	0.157	0.020
-643.711	800.000	0.033	-0.139
-642.697	-72.316	0.170	-0.063
-641.682	357.763	0.131	-0.262
-640.668	72.318	0.081	-0.084
-639.653	-33.306	0.225	0.125
-638.638	-95.641	0.162	0.043
-637.624	14.835	0.165	-0.129
-636.609	-62.512	0.396	-0.165
-635.595	-37.016	0.167	-0.090
-634.580	800.000	0.026	0.086
-633.565	-200.000	-0.010	0.109
-632.551	-200.000	0.040	0.391
-631.536	89.525	-0.089	0.099
-630.522	-137.022	-0.163	0.019
-629.507	242.701	-0.075	-0.125
-628.492	-106.969	-0.101	-0.022
-627.478	-183.501	0.036	0.001
-626.463	-57.354	-0.369	-0.162
-625.449	-67.424	0.278	0.109
-624.434	413.534	-0.025	-0.053
-623.419	-200.000	0.019	0.118
-622.405	-200.000	0.005	-0.331
-621.390	-85.976	0.335	0.104
-620.376	800.000	-0.090	0.391
-619.361	387.793	-0.039	-0.081
-618.346	-133.677	0.564	-0.071
-617.332	290.553	-0.161	0.292
-616.317	255.571	-0.092	0.158
-615.303	18.718	-0.092	0.073
-614.288	355.380	-0.090	0.179
-613.273	-200.000	0.030	0.200
-612.259	344.017	-0.121	-0.237
-611.244	-140.474	0.237	0.025
-610.230	-200.000	-0.048	0.309
-609.215	63.488	-0.168	0.168
-608.201	-10.835	0.168	0.111
-607.186	-137.558	0.011	0.001
-606.171	609.852	-0.147	0.366
-605.157	800.000	0.041	-0.135
-604.142	-102.800	-0.150	-0.036
-603.128	-200.000	-0.028	0.135
-602.113	800.000	-0.033	-0.099
-601.098	30.046	-0.188	-0.160
-600.084	-10.727	0.159	0.105
-599.069	611.562	0.027	0.067
-598.055	800.000	-0.065	0.277
-597.040	-55.314	0.144	0.065
-596.025	-22.995	-0.176	-0.106
-595.011	-200.000	0.033	0.211
-593.996	297.004	0.051	-0.093
-592.982	224.233	0.129	0.209
-591.967	-7.547	-0.098	0.066
-590.952	4.425	-0.024	0.018
-589.938	-93.309	0.316	-0.088
-588.923	44.361	-0.098	-0.090
-587.909	-8.120	-0.149	-0.100
-586.894	-48.413	-0.169	-0.081
-585.879	800.000	-0.035	-0.100
-584.865	-53.395	0.291	-0.133
-583.850	-39.998	-0.134	-0.070
-582.836	417.272	0.072	0.154
-581.821	61.219	0.222	-0.221
-580.806	800.000	-0.115	0.370
-579.792	-200.000	0.069	-0.473
-578.777	-190.959	0.281	-0.003
-577.763	-31.824	-0.267	-0.150
-576.748	119.641	0.044	-0.055
-575.733	-181.937	0.233	0.004
-574.719	800.000	0.091	-0.262
-573.704	30.987	-0.151	-0.129
-572.690	-48.224	-0.077	0.037
-571.675	800.000	-0.042	0.175
-570.661	-97.494	0.150	-0.039
-569.646	49.500	0.187	0.176
-568.631	-83.535	-0.174	0.056
-567.617	228.451	-0.044	0.072
-566.602	12.926	0.089	0.069
-565.588	-80.095	-0.257	0.086
-564.573	-200.000	-0.012	0.176
-563.558	10.517	0.110	0.083
-562.544	-200.000	-0.007	-0.188
-561.529	800.000	-0.178	0.491
-560.515	231.906	-0.142	-0.232
-559.500	13.304	-0.278	-0.215
-558.485	148.124	0.092	-0.123
-557.471	-8.974	-0.284	-0.190
-556.456	8.569	0.177	-0.133
-555.442	290.571	0.031	0.055
-554.427	164.161	0.067	0.094
-553.412	-47.557	0.209	-0.101
-552.398	-43.988	0.375	0.188
-551.383	-200.000	-0.035	-0.222
-550.369	800.000	-0.061	0.231
-549.354	-57.963	0.140	0.061
-548.339	-133.225	0.139	-0.017
-547.325	-200.000	-0.017	0.087
-546.310	-200.000	0.009	0.065
-545.296	800.000	0.054	0.209
-544.281	780.619	0.036	0.097
-543.266	129.412	-0.132	-0.168
-542.252	109.477	0.115	0.138
-541.237	-107.231	-0.360	-0.079
-540.223	118.043	0.326	-0.400
-539.208	428.033	-0.312	-0.671
-538.193	800.000	0.093	0.295
-537.179	159.707	0.068	0.094
-536.164	-44.149	-0.383	-0.192
-535.150	-83.180	0.194	-0.062
-534.135	-200.000	-0.001	0.218
-533.121	-142.844	0.260	-0.025
-532.106	23.853	-0.252	-0.207
-531.091	-114.603	0.018	0.004
-530.077	514.328	0.106	0.247
-529.062	-128.491	-0.149	-0.021
-528.048	152.188	0.133	-0.182
-527.033	-129.995	-0.302	0.041
-526.018	6.341	0.103	-0.076
-525.004	82.088	-0.062	-0.067
-523.989	-200.000	-0.065	-0.401
-522.975	212.951	0.225	-0.354
-521.960	262.060	-0.186	-0.322
-520.945	-200.000	0.063	-0.296
-519.931	161.594	0.125	-0.174
-518.916	198.853	0.159	-0.242
-517.902	-137.490	-0.448	0.050
-516.887	-52.481	0.241	-0.111
-515.872	476.426	0.017	-0.039
-514.858	-200.000	-0.083	0.449
-513.843	-200.000	-0.020	-0.169
-512.829	-189.145	0.260	0.003
-511.814	-200.000	0.001	0.157
-510.799	367.944	-0.114	0.230
-509.785	68.281	0.149	0.152
-508.770	-166.818	-0.408	0.017
-507.756	171.337	0.152	-0.218
-506.741	225.177	0.087	-0.140
-505.726	-200.000	-0.009	-0.072
-504.712	-200.000	0.011	0.244
-503.697	243.481	-0.132	0.220
-502.683	13.941	-0.156	-0.121
-501.668	-40.448	-0.066	-0.034
-500.653	-31.111	0.090	0.051
-499.639	65.753	-0.113	0.114
-498.624	-70.446	0.139	-0.052
-497.610	587.653	0.165	0.404
-496.595	-28.067	-0.068	-0.039
-495.581	-96.822	-0.275	0.072
-494.566	-76.264	-0.172	0.060
-493.551	162.538	-0.079	0.111
-492.537	-200.000	0.000	-0.345
-491.522	138.370	-0.150	-0.197
-490.508	234.694	-0.082	0.135
-489.493	-102.775	-0.120	-0.028
-488.478	-1.352	0.061	-0.043
-487.464	-200.000	-0.000	0.130
-486.449	-178.114	-0.203	-0.005
-485.435	-61.563	0.328	0.137
-484.420	-12.217	0.329	0.215
-483.405	800.000	0.095	0.324
-482.391	100.748	-0.225	-0.260
-481.376	52.066	-0.233	-0.221
-480.362	189.931	0.110	0.165
-479.347	-75.361	-0.102	-0.036
-478.332	1.577	0.291	0.208
-477.318	800.000	0.056	0.197
-476.303	-82.722	0.251	-0.081
-475.289	-200.000	-0.078	0.425
-474.274	-200.000	0.018	0.467
-473.259	800.000	0.037	-0.148
-472.245	-86.907	-0.171	0.052
-471.230	-200.000	-0.000	0.135
-470.216	-123.484	0.197	0.031
-469.201	-20.392	0.404	-0.247
-468.186	199.680	-0.070	-0.106
-467.172	9.639	-0.262	0.198
-466.157	-96.635	0.173	-0.045
-465.143	3.794	0.283	0.205
-464.128	279.685	0.124	0.220
-463.113	-195.169	0.142	0.001
-462.099	-200.000	-0.068	0.354
-461.084	117.296	-0.170	0.208
-460.070	800.000	0.052	0.144
-459.055	-132.802	-0.050	0.006
-458.040	529.901	0.091	-0.214
-457.026	-200.000	0.006	-0.152
-456.011	79.366	-0.204	-0.218
-454.997	92.231	0.239	-0.267
-453.982	39.111	0.108	0.096
-452.968	40.598	0.069	0.062
-451.953	-57.524	-0.114	-0.050
-450.938	-200.000	-0.023	0.109
-449.924	-69.032	0.246	-0.094
-448.909	-104.992	0.155	0.035
-447.895	800.000	-0.073	0.301
-446.880	800.000	-0.009	0.033
-445.865	-84.946	-0.224	-0.070
-444.851	389.505	-0.204	-0.420
-443.836	-138.578	-0.232	-0.025
-442.822	-200.000	0.024	-0.161
-441.807	234.372	-0.120	0.196
-440.792	-17.694	0.278	0.173
-439.778	-73.612	-0.109	0.039
-438.763	-95.165	0.357	0.096
-437.749	11.844	-0.289	0.221
-436.734	-31.055	0.322	0.181
-435.719	-175.772	0.318	-0.008
-434.705	30.793	-0.198	-0.168
-433.690	-200.000	0.012	-0.052
-432.676	-74.344	0.115	0.041
-431.661	-200.000	-0.019	-0.104
-430.646	-73.059	-0.097	-0.035
-429.632	800.000	0.020	0.088
-428.617	-200.000	-0.006	-0.262
-427.603	-200.000	0.001	-0.233
-426.588	219.900	0.136	-0.216
-425.573	312.617	-0.158	-0.294
-424.559	-43.318	0.092	0.046
-423.544	1.202	-0.157	-0.112
-422.530	-117.949	0.227	-0.040
-421.515	4.421	0.200	-0.145
-420.500	-83.174	-0.146	0.047
-419.486	548.228	0.093	0.220
-418.471	185.433	0.110	-0.162
-417.457	540.684	-0.087	-0.207
-416.442	-190.031	0.550	0.006
-415.428	-200.000	0.003	-0.046
-414.413	120.548	0.206	-0.254
-413.398	215.772	0.060	0.095
-412.384	-188.641	-0.325	-0.004
-411.369	-200.000	-0.050	-0.258
-410.355	-14.998	-0.286	0.182
-409.340	-15.557	0.094	-0.060
-408.325	77.018	0.121	-0.128
-407.311	116.613	0.166	-0.202
-406.296	134.826	-0.238	-0.306
-405.282	-200.000	0.035	-0.250
-404.267	455.089	0.091	0.201
-403.252	800.000	-0.059	0.163
-402.238	193.431	0.164	0.246
-401.223	800.000	-0.085	0.329
-400.209	-200.000	0.033	-0.242
-399.194	278.669	-0.156	-0.276
-398.179	288.101	-0.078	-0.140
-397.165	-164.752	0.282	0.013
-396.150	-84.970	0.209	-0.065
-395.136	21.923	-0.246	-0.199
-394.121	-74.634	-0.226	-0.081
-393.106	800.000	-0.052	0.200
-392.092	800.000	-0.030	0.086
-391.077	215.403	-0.034	0.053
-390.063	-200.000	0.018	-0.308
-389.048	-54.920	0.344	-0.154
-388.033	104.413	-0.242	-0.282
-387.019	175.958	0.003	-0.004
-386.004	150.852	-0.282	-0.380
-384.990	-200.000	-0.039	0.263
-383.975	339.882	-0.154	0.298
-382.960	172.463	-0.050	0.071
-381.946	-102.405	0.344	0.082
-380.931	135.919	-0.086	-0.110
-379.917	-112.868	-0.211	0.041
-378.902	146.647	-0.089	-0.118
-377.888	6.360	-0.176	-0.129
-376.873	-200.000	-0.017	0.093
-375.858	50.843	-0.423	-0.397
-374.844	40.015	-0.225	0.201
-373.829	-200.000	0.022	-0.102
-372.815	-126.628	-0.294	0.043
-371.800	21.466	-0.183	0.147
-370.785	440.999	-0.053	0.116
-369.771	800.000	-0.030	0.106
-368.756	366.275	-0.133	0.267
-367.742	-103.655	-0.099	-0.023
-366.727	148.887	-0.212	-0.284
-365.712	-102.083	-0.209	-0.050
-364.698	-1.544	0.161	0.113
-363.683	-141.648	0.035	0.003
-362.669	-94.355	-0.060	-0.016
-361.654	153.370	-0.250	0.339
-360.639	125.221	0.082	0.102
-359.625	542.453	0.121	0.285
-358.610	-200.000	-0.007	-0.153
-357.596	-200.000	0.012	0.276
-356.581	477.811	0.051	-0.113
-355.566	-128.038	0.276	0.039
-354.552	-145.634	0.172	0.015
-353.537	800.000	0.108	0.464
-352.523	-143.780	0.333	-0.031
-351.508	-139.862	-0.261	0.027
-350.493	-79.398	-0.249	-0.083
-349.479	-55.076	0.093	0.042
-348.464	36.382	0.189	-0.165
-347.450	-182.626	-0.048	-0.001
-346.435	39.492	0.123	0.109
-345.420	32.440	0.214	-0.183
-344.406	201.397	0.131	0.200
-343.391	-140.620	-0.142	0.015
-342.377	-147.201	0.195	0.016
-341.362	132.794	0.133	0.170
-340.348	-104.891	0.082	-0.019
-339.333	427.727	0.070	-0.150
-338.318	800.000	0.066	-0.267
-337.304	-173.213	-0.055	0.002
-336.289	18.429	-0.093	-0.073
-335.275	-200.000	0.002	-0.240
-334.260	681.398	-0.018	-0.045
-333.245	507.332	-0.199	-0.457
-332.231	-152.587	0.212	0.015
-331.216	115.252	0.154	-0.186
-330.202	99.872	0.044	-0.051
-329.187	-200.000	-0.032	0.339
-328.172	-200.000	-0.035	0.208
-327.158	716.567	0.118	-0.309
-326.143	87.461	-0.192	0.210
-325.129	-73.949	-0.118	-0.042
-324.114	-200.000	0.023	0.158
-323.099	-200.000	0.027	0.121
-322.085	169.901	-0.175	-0.248
-321.070	342.671	0.082	-0.159
-320.056	-200.000	-0.013	0.404
-319.041	49.718	0.158	-0.147
-318.026	-82.432	0.313	-0.101
-317.012	-163.561	0.462	-0.022
-315.997	60.570	-0.016	-0.015
-314.983	-200.000	0.002	0.179
-313.968	81.072	-0.064	-0.068
-312.953	-200.000	-0.042	-0.595
-311.939	311.747	0.090	-0.166
-310.924	-115.158	-0.352	-0.066
-309.910	-101.580	-0.504	-0.121
-308.895	99.447	-0.142	-0.163
-307.880	-200.000	-0.000	0.094
-306.866	-181.142	-0.273	0.005
-305.851	800.000	-0.088	0.376
-304.837	-43.431	-0.310	0.155
-303.822	-200.000	-0.039	0.228
-302.807	-164.407	-0.487	0.022
-301.793	-200.000	-0.002	-0.116
-300.778	-200.000	0.007	0.279
-299.764	29.945	0.120	0.101
-298.749	-116.961	-0.294	0.053
-297.735	-106.337	-0.070	-0.015
-296.720	-115.852	-0.041	0.008
-295.705	24.968	0.165	-0.135
-294.691	-142.189	0.125	0.012
-293.676	142.513	0.086	-0.113
-292.662	-200.000	-0.092	-0.444
-291.647	-8.757	-0.111	0.074
-290.632	-115.776	0.123	0.023
-289.618	-36.705	-0.206	-0.109
-288.603	389.495	0.127	0.260
-287.589	-200.000	-0.007	0.033
-286.574	-200.000	-0.008	-0.169
-285.559	-200.000	0.021	0.093
-284.545	528.890	-0.030	-0.070
-283.530	-107.773	0.164	0.035
-282.516	800.000	-0.035	-0.130
-281.501	-42.171	-0.112	0.057
-280.486	-39.129	0.166	0.086
-279.472	76.372	0.241	-0.252
-278.457	-200.000	-0.029	-0.130
-277.443	-4.303	-0.154	-0.105
-276.428	-79.595	0.068	-0.023
-275.413	-80.419	-0.241	-0.079
-274.399	-200.000	-0.015	-0.105
-273.384	-52.277	0.344	0.158
-272.370	-200.000	0.015	0.240
-271.355	-126.563	-0.171	0.025
-270.340	-83.927	-0.433	0.136
-269.326	800.000	0.018	-0.061
-268.311	11.398	-0.068	0.051
-267.297	-24.001	0.283	0.167
-266.282	-162.388	0.257	-0.013
-265.267	42.241	-0.148	0.133
-264.253	78.741	-0.139	0.147
-263.238	-93.468	0.063	0.017
-262.224	50.223	-0.087	0.081
-261.209	-200.000	0.000	0.077
-260.195	14.605	0.441	0.340
-259.180	222.755	0.078	0.124
-258.165	800.000	0.039	-0.112
-257.151	242.991	-0.114	0.188
-256.136	-28.193	-0.209	0.119
-255.122	-141.598	-0.241	-0.024
-254.107	336.027	-0.043	-0.082
-253.092	-10.591	0.203	-0.132
-252.078	-62.810	-0.413	-0.169
-251.063	659.379	0.149	-0.379
-250.049	-105.865	-0.161	-0.036
-249.034	-200.000	-0.040	0.187
-248.019	111.876	-0.124	-0.148
-247.005	57.657	0.072	-0.069
-245.990	-78.762	-0.211	-0.071
-244.976	104.063	0.078	0.090
-243.961	-200.000	0.009	0.212
-242.946	-47.340	-0.154	0.074
-241.932	99.896	-0.117	-0.134
-240.917	-156.773	0.215	-0.013
-239.903	-7.034	-0.193	0.129
-238.888	55.674	0.176	-0.168
-237.873	-200.000	-0.016	0.242
-236.859	-27.683	0.045	0.026
-235.844	800.000	0.097	0.292
-234.830	7.946	-0.193	-0.143
-233.815	295.854	-0.165	0.298
-232.800	33.166	-0.154	-0.132
-231.786	-200.000	-0.004	-0.100
-230.771	75.239	0.043	0.044
-229.757	-96.016	-0.236	0.062
-228.742	749.788	-0.132	-0.350
-227.727	50.747	0.191	0.178
-226.713	-83.233	-0.129	-0.041
-225.698	-162.145	-0.091	0.004
-224.684	800.000	0.056	0.235
-223.669	78.640	0.107	0.113
-222.655	93.684	0.098	0.109
-221.640	135.497	0.103	-0.132
-220.625	222.325	0.145	-0.230
-219.611	800.000	0.036	-0.127
-218.596	-200.000	0.047	-0.287
-217.582	-128.999	-0.140	-0.019
-216.567	528.891	-0.045	-0.105
-215.552	-200.000	0.054	0.282
-214.538	309.333	0.197	-0.363
-213.523	-75.033	0.071	-0.025
-212.509	-200.000	-0.022	0.142
-211.494	632.083	0.080	-0.200
-210.479	12.235	-0.085	-0.064
-209.465	167.778	-0.092	0.128
-208.450	800.000	-0.119	-0.412
-207.436	-35.259	0.230	0.123
-206.421	768.431	0.048	0.129
-205.406	-145.720	0.052	-0.005
-204.392	-29.188	0.386	0.218
-203.377	-200.000	-0.015	0.391
-202.363	-128.635	-0.211	0.029
-201.348	24.184	0.206	-0.167
-200.333	800.000	0.116	0.335
-199.319	-131.216	0.214	0.028
-198.304	800.000	-0.047	0.155
-197.290	-109.079	-0.390	0.082
-196.275	-32.105	-0.364	-0.200
-195.260	-93.679	0.300	-0.082
-194.246	246.293	-0.071	0.117
-193.231	-58.271	0.217	-0.093
-192.217	-141.173	-0.062	0.006
-191.202	-54.198	0.065	0.029
-190.187	800.000	-0.022	0.067
-189.173	62.700	0.217	-0.214
-188.158	800.000	0.094	0.281
-187.144	116.230	-0.047	-0.057
-186.129	-136.972	-0.184	0.021
-185.114	312.078	-0.044	-0.081
-184.100	-27.498	-0.064	-0.037
-183.085	-83.393	-0.299	-0.094
-182.071	558.369	-0.135	0.321
-181.056	-200.000	-0.058	0.290
-180.042	-200.000	-0.042	0.247
-179.027	-95.812	-0.316	0.083
-178.012	-41.314	0.174	-0.088
-176.998	-200.000	0.079	-0.345
-175.983	-78.285	0.021	0.007
-174.969	-146.861	-0.310	0.026
-173.954	35.821	0.054	-0.047
-172.939	304.761	-0.140	0.255
-171.925	183.318	0.088	-0.128
-170.910	-11.886	0.248	-0.160
-169.896	5.513	-0.041	0.030
-168.881	-70.782	-0.137	0.051
-167.866	724.731	-0.065	-0.172
-166.852	106.599	0.176	0.205
-165.837	117.341	-0.180	0.218
-164.823	-200.000	-0.011	-0.481
-163.808	273.327	-0.221	-0.384
-162.793	99.511	-0.150	0.171
-161.779	-4.399	0.255	0.174
-160.764	94.711	-0.083	0.093
-159.750	45.300	0.107	-0.097
-158.735	43.022	-0.232	-0.208
-157.720	-200.000	0.018	0.101
-156.706	705.246	-0.059	-0.152
-155.691	23.627	0.053	-0.043
-154.677	192.944	0.089	0.133
-153.662	-176.455	0.205	-0.005
-152.647	-83.022	0.157	-0.050
-151.633	-40.983	0.124	0.063
-150.618	-19.562	0.068	-0.042
-149.604	45.860	0.145	-0.132
-148.589	-106.313	-0.142	-0.031
-147.574	-200.000	-0.024	0.165
-146.560	-111.056	0.164	0.033
-145.545	-96.658	-0.096	-0.025
-144.531	-142.037	0.274	-0.027
-143.516	-28.441	-0.093	-0.053
-142.502	12.415	-0.101	0.076
-141.487	-116.641	-0.478	-0.086
-140.472	-36.519	-0.379	0.200
-139.458	49.857	-0.075	0.070
-138.443	-1.260	-0.278	0.193
-137.429	-200.000	0.028	-0.238
-136.414	-200.000	-0.004	-0.206
-135.399	39.782	0.101	0.089
-134.385	-200.000	-0.072	-0.618
-133.370	170.826	0.044	-0.062
-132.356	40.823	0.306	-0.271
-131.341	-200.000	0.072	0.464
-130.326	-200.000	-0.053	-0.229
-129.312	-91.295	-0.289	-0.081
-128.297	-120.737	-0.348	-0.058
-127.283	219.152	-0.019	0.029
-126.268	-200.000	0.156	-0.001
-125.253	800.000	-0.114	-0.344
-124.239	-129.874	0.071	0.010
-123.224	800.000	0.049	-0.151
-122.210	-40.519	-0.104	0.053
