DTS Sentinel unit serial number:	SN413079Multiplexer serial number:	ORYXHardware model number:	OX4-SRSoftware version number:	ORYX F/W v4.00 Oryx Data Collector v3.7.2.0data status	okinstallation	princeton_trtdifferential loss correction	single-endedforward channel	channel 3reverse channel	N/Adate	2019/09/11time	04:02:11forward acquisition time	60.00reverse acquisition time	0.00gamma	496.2192k internal	0.2330k external	0.2330temperature offset calibration	0.9915default loss term (dB/km)	0.3790temperature slope calibration	1.0000multiplexer offset coefficient	1.0000multiplexer slope coefficient	1.0000fibre end	0.00T internal ref (°C)	29.56T ext. ref 1 (°C)	-0.30T ext. ref 2 (°C)	23.71length (m)	temperature (°C)	Stokes	anti-Stokes-747.200	438.481	0.070	-0.155
-746.185	280.647	-0.134	0.242
-745.171	-73.835	0.135	-0.049
-744.156	-99.976	-0.081	0.020
-743.142	-44.590	0.111	-0.056
-742.127	-133.523	0.162	0.020
-741.112	800.000	0.123	0.363
-740.098	172.804	-0.233	0.337
-739.083	-5.230	0.076	-0.053
-738.069	-92.635	-0.231	0.065
-737.054	153.064	0.057	0.078
-736.039	123.979	-0.251	0.317
-735.025	-31.715	-0.124	-0.070
-734.010	26.691	-0.230	-0.193
-732.996	-110.284	-0.433	0.091
-731.981	632.667	0.044	-0.112
-730.966	-85.128	0.375	0.118
-729.952	-61.605	-0.198	-0.084
-728.937	800.000	-0.039	0.110
-727.923	-159.701	-0.271	0.015
-726.908	283.906	-0.084	0.152
-725.894	-69.813	-0.110	0.042
-724.879	81.982	-0.275	-0.299
-723.864	-95.238	-0.200	0.054
-722.850	800.000	0.091	0.318
-721.835	101.042	-0.252	0.295
-720.821	-200.000	0.024	-0.181
-719.806	800.000	0.061	-0.195
-718.791	333.952	-0.139	-0.270
-717.777	-93.179	-0.035	-0.010
-716.762	-130.753	0.273	-0.037
-715.748	46.958	-0.216	0.202
-714.733	334.282	0.151	0.294
-713.718	115.649	-0.156	-0.191
-712.704	71.531	0.021	-0.022
-711.689	-95.247	-0.273	0.074
-710.675	-200.000	0.012	-0.206
-709.660	-40.899	0.092	0.048
-708.645	-200.000	0.039	0.261
-707.631	-107.730	-0.207	-0.045
-706.616	149.349	0.240	0.327
-705.602	-200.000	0.040	-0.282
-704.587	213.790	-0.292	-0.464
-703.572	-200.000	-0.004	-0.205
-702.558	-200.000	0.008	-0.056
-701.543	71.205	-0.244	0.254
-700.529	800.000	-0.139	-0.405
-699.514	-91.392	-0.206	0.059
-698.499	-39.617	-0.264	0.139
-697.485	800.000	-0.028	0.112
-696.470	800.000	-0.063	-0.176
-695.456	-200.000	0.003	-0.102
-694.441	-200.000	0.037	-0.178
-693.426	74.467	-0.294	0.311
-692.412	-60.230	-0.049	0.021
-691.397	-40.469	0.109	0.057
-690.383	200.089	0.035	0.054
-689.368	-73.929	-0.211	0.077
-688.354	419.984	0.107	0.229
-687.339	800.000	-0.058	0.212
-686.324	81.690	-0.266	0.289
-685.310	99.943	0.273	0.318
-684.295	-17.521	0.201	0.127
-683.281	-119.804	0.133	-0.023
-682.266	2.781	-0.165	-0.121
-681.251	-16.507	0.134	0.085
-680.237	100.909	0.136	0.159
-679.222	-131.226	0.328	-0.044
-678.208	48.701	-0.077	0.072
-677.193	-80.746	-0.182	0.061
-676.178	-178.995	-0.306	0.007
-675.164	800.000	0.087	-0.264
-674.149	-49.520	-0.306	0.146
-673.135	-161.377	0.133	-0.007
-672.120	-200.000	-0.079	-0.349
-671.105	324.691	-0.155	-0.296
-670.091	-97.790	0.171	-0.044
-669.076	111.194	-0.061	0.073
-668.062	800.000	-0.065	0.219
-667.047	800.000	-0.144	0.558
-666.032	-200.000	0.099	-0.576
-665.018	328.111	-0.189	-0.364
-664.003	123.204	-0.114	-0.143
-662.989	158.027	0.079	0.110
-661.974	-200.000	-0.072	0.479
-660.959	-200.000	0.030	0.213
-659.945	-21.234	-0.270	-0.166
-658.930	-133.177	0.161	0.020
-657.916	322.533	0.081	-0.156
-656.901	-18.212	-0.149	-0.093
-655.886	405.762	0.160	-0.338
-654.872	-45.094	-0.152	0.076
-653.857	29.884	-0.393	0.336
-652.843	-43.919	0.167	-0.084
-651.828	-143.964	-0.370	-0.035
-650.814	-200.000	-0.052	-0.236
-649.799	-27.975	-0.177	-0.103
-648.784	-200.000	-0.008	-0.414
-647.770	1.230	0.069	0.050
-646.755	-112.158	-0.194	-0.039
-645.741	519.131	0.155	0.363
-644.726	-200.000	0.005	0.036
-643.711	223.090	0.132	-0.214
-642.697	-62.968	-0.095	0.039
-641.682	-200.000	-0.034	-0.312
-640.668	129.622	-0.127	-0.163
-639.653	800.000	-0.040	-0.116
-638.638	-59.199	0.099	0.043
-637.624	-200.000	-0.023	0.109
-636.609	22.638	-0.151	-0.124
-635.595	800.000	-0.069	0.304
-634.580	95.904	0.130	-0.148
-633.565	800.000	0.081	-0.271
-632.551	105.430	0.140	0.166
-631.536	-109.091	-0.113	-0.024
-630.522	-14.384	-0.192	0.124
-629.507	-10.734	-0.328	-0.217
-628.492	4.676	-0.119	-0.087
-627.478	-9.727	0.109	-0.073
-626.463	-200.000	0.011	0.109
-625.449	79.392	-0.163	0.175
-624.434	-200.000	0.007	0.197
-623.419	800.000	-0.064	0.197
-622.405	19.827	0.126	-0.101
-621.390	-173.973	-0.274	-0.008
-620.376	54.889	-0.133	-0.129
-619.361	-9.425	0.188	0.126
-618.346	19.224	0.144	-0.115
-617.332	-200.000	-0.012	0.107
-616.317	-10.176	0.040	-0.027
-615.303	-78.166	0.325	-0.112
-614.288	107.475	0.086	-0.102
-613.273	715.949	-0.045	-0.120
-612.259	-41.768	-0.080	-0.041
-611.244	800.000	-0.100	-0.349
-610.230	-1.062	0.095	0.068
-609.215	20.871	0.143	-0.116
-608.201	-85.179	0.144	0.045
-607.186	-200.000	-0.017	-0.356
-606.171	-79.409	0.287	0.097
-605.157	-146.888	-0.192	-0.017
-604.142	-183.701	-0.040	-0.001
-603.128	800.000	-0.076	0.211
-602.113	437.399	0.090	-0.197
-601.098	-200.000	-0.036	-0.244
-600.084	-156.353	0.117	0.007
-599.069	-42.485	0.118	0.060
-598.055	157.982	0.179	-0.249
-597.040	-200.000	-0.023	0.127
-596.025	-132.536	0.297	-0.038
-595.011	800.000	-0.059	-0.207
-593.996	355.395	0.077	0.153
-592.982	-101.038	0.212	0.052
-591.967	-200.000	0.000	-0.231
-590.952	-200.000	0.064	-0.321
-589.938	-143.813	0.310	0.029
-588.923	-200.000	0.027	0.346
-587.909	-37.924	-0.105	0.056
-586.894	-105.076	0.214	-0.049
-585.879	-5.122	-0.215	0.148
-584.865	48.711	0.021	-0.020
-583.850	-119.893	-0.107	-0.018
-582.836	159.192	0.152	0.212
-581.821	-177.561	0.168	-0.004
-580.806	663.877	-0.100	0.257
-579.792	-55.713	0.028	0.013
-578.777	-200.000	0.004	-0.122
-577.763	490.871	-0.005	-0.011
-576.748	-118.335	-0.191	-0.034
-575.733	-122.497	-0.266	0.043
-574.719	224.658	0.100	0.162
-573.704	399.264	0.098	-0.205
-572.690	48.708	-0.337	-0.316
-571.675	355.378	0.163	0.324
-570.661	-46.452	0.288	-0.141
-569.646	800.000	-0.081	-0.354
-568.631	117.101	-0.122	0.150
-567.617	-81.652	-0.226	-0.074
-566.602	-200.000	0.026	0.165
-565.588	-80.069	0.147	-0.049
-564.573	800.000	-0.065	0.204
-563.558	-200.000	0.003	-0.037
-562.544	138.564	-0.180	-0.237
-561.529	275.516	-0.120	0.213
-560.515	-200.000	-0.066	0.329
-559.500	-55.221	0.225	-0.101
-558.485	-200.000	-0.034	-0.179
-557.471	-200.000	-0.056	0.337
-556.456	177.069	0.136	0.198
-555.442	38.410	0.163	0.146
-554.427	-159.970	-0.276	0.015
-553.412	-200.000	0.046	-0.460
-552.398	-200.000	-0.047	-0.259
-551.383	159.521	0.132	-0.184
-550.369	800.000	-0.063	-0.258
-549.354	27.075	0.091	-0.077
-548.339	75.546	-0.126	-0.132
-547.325	152.227	-0.220	0.300
-546.310	32.921	0.101	-0.087
-545.296	800.000	-0.087	0.299
-544.281	-99.687	-0.288	0.072
-543.266	70.700	-0.108	-0.112
-542.252	208.396	0.212	0.331
-541.237	-157.391	-0.351	0.021
-540.223	-69.736	0.155	0.059
-539.208	550.310	0.088	-0.210
-538.193	-36.885	0.159	0.085
-537.179	199.243	-0.110	-0.168
-536.164	-60.814	0.140	0.059
-535.150	-69.422	-0.247	0.095
-534.135	-47.200	-0.359	0.174
-533.121	200.397	-0.148	-0.227
-532.106	212.634	-0.137	-0.216
-531.091	-55.880	-0.182	0.081
-530.077	-75.563	0.146	-0.052
-529.062	-25.363	0.174	-0.103
-528.048	-115.236	0.204	-0.038
-527.033	643.210	-0.195	0.495
-526.018	-77.984	0.014	0.005
-525.004	800.000	-0.016	-0.048
-523.989	-194.854	-0.275	-0.002
-522.975	11.304	0.115	0.088
-521.960	27.471	0.128	-0.108
-520.945	-123.566	0.271	0.043
-519.931	800.000	-0.103	-0.308
-518.916	800.000	-0.053	-0.192
-517.902	-200.000	0.006	-0.035
-516.887	-121.242	0.152	-0.025
-515.872	-134.187	-0.224	-0.028
-514.858	545.611	-0.157	0.375
-513.843	-200.000	0.052	0.258
-512.829	135.722	-0.352	0.457
-511.814	110.979	-0.046	0.056
-510.799	-200.000	-0.014	-0.235
-509.785	689.296	0.094	0.245
-508.770	-42.002	-0.268	0.137
-507.756	-57.137	-0.097	0.043
-506.741	-33.090	-0.140	-0.077
-505.726	-200.000	0.025	0.196
-504.712	51.648	-0.128	0.121
-503.697	241.920	0.108	-0.180
-502.683	-91.159	0.190	0.054
-501.668	-59.125	0.336	-0.144
-500.653	-109.209	0.237	-0.050
-499.639	115.309	-0.036	0.044
-498.624	296.642	0.104	0.189
-497.610	-157.845	-0.444	0.026
-496.595	800.000	-0.088	0.295
-495.581	-99.136	0.395	-0.100
-494.566	-73.402	-0.198	-0.072
-493.551	263.042	0.092	0.160
-492.537	-200.000	-0.003	-0.111
-491.522	39.081	-0.003	0.003
-490.508	-1.416	-0.217	-0.153
-489.493	525.685	0.029	0.067
-488.478	269.780	0.276	0.484
-487.464	800.000	-0.011	0.036
-486.449	96.137	0.391	-0.445
-485.435	-26.831	0.045	0.026
-484.420	800.000	0.018	-0.069
-483.405	800.000	0.037	0.122
-482.391	800.000	-0.076	0.267
-481.376	-151.081	-0.304	0.023
-480.362	302.642	0.107	-0.197
-479.347	-200.000	-0.035	-0.196
-478.332	66.013	0.091	-0.092
-477.318	494.201	-0.015	0.035
-476.303	-83.846	0.063	-0.020
-475.289	-200.000	0.058	-0.276
-474.274	-200.000	-0.032	0.158
-473.259	-99.177	0.111	0.028
-472.245	-25.799	-0.187	0.110
-471.230	-79.133	-0.245	-0.083
-470.216	14.781	-0.243	-0.189
-469.201	12.714	-0.232	-0.178
-468.186	-25.386	0.035	-0.021
-467.172	-200.000	0.013	-0.071
-466.157	800.000	-0.049	0.159
-465.143	-30.724	0.117	-0.066
-464.128	43.215	0.401	0.364
-463.113	192.941	-0.140	0.210
-462.099	514.916	-0.084	-0.195
-461.084	-200.000	-0.089	0.436
-460.070	-33.413	-0.227	0.125
-459.055	-200.000	-0.037	0.358
-458.040	-2.317	-0.109	-0.076
-457.026	-69.543	-0.488	-0.186
-456.011	-200.000	-0.003	0.089
-454.997	800.000	-0.026	0.087
-453.982	-21.775	0.279	0.169
-452.968	68.782	0.161	0.165
-451.953	-64.434	0.076	-0.031
-450.938	-71.494	0.305	-0.113
-449.924	-124.674	-0.202	-0.031
-448.909	42.275	-0.030	-0.028
-447.895	-105.654	-0.221	-0.050
-446.880	-129.901	0.285	-0.039
-445.865	601.034	-0.081	0.200
-444.851	-35.290	0.181	-0.098
-443.836	-199.166	-0.151	0.001
-442.822	661.144	-0.123	-0.316
-441.807	40.357	-0.310	0.278
-440.792	701.062	0.037	-0.097
-439.778	-165.408	-0.288	-0.013
-438.763	-200.000	0.012	0.124
-437.749	-47.379	0.333	0.161
-436.734	-200.000	0.029	0.168
-435.719	-48.674	-0.294	-0.140
-434.705	-53.096	0.137	-0.063
-433.690	222.326	-0.070	-0.112
-432.676	214.520	-0.061	-0.096
-431.661	105.259	-0.097	-0.114
-430.646	20.985	-0.158	-0.127
-429.632	-153.218	0.407	-0.028
-428.617	-130.614	0.376	0.050
-427.603	-200.000	0.009	0.072
-426.588	-71.724	0.270	0.100
-425.573	142.603	0.185	0.245
-424.559	-200.000	-0.040	-0.196
-423.544	-200.000	-0.002	-0.315
-422.530	-43.008	0.161	0.081
-421.515	-117.294	0.399	-0.072
-420.500	-74.640	0.318	-0.114
-419.486	-108.924	0.214	0.045
-418.471	88.524	0.120	0.133
-417.457	123.003	0.150	0.186
-416.442	-74.956	0.137	0.049
-415.428	384.566	-0.113	0.231
-414.413	-144.515	-0.146	0.013
-413.398	800.000	0.053	-0.160
-412.384	800.000	-0.080	-0.341
-411.369	-200.000	0.041	-0.638
-410.355	-12.998	-0.205	0.132
-409.340	-200.000	-0.027	-0.151
-408.325	-170.739	0.283	-0.010
-407.311	67.441	-0.111	-0.113
-406.296	-117.952	0.033	-0.006
-405.282	-116.883	0.129	-0.024
-404.267	-111.610	0.268	0.054
-403.252	781.237	-0.129	-0.351
-402.238	-28.676	0.152	0.087
-401.223	387.854	-0.083	0.170
-400.209	-134.441	0.257	0.031
-399.194	-200.000	0.011	-0.216
-398.179	-109.197	-0.245	0.052
-397.165	-200.000	-0.036	0.348
-396.150	-124.659	0.082	0.013
-395.136	-200.000	-0.008	0.268
-394.121	-200.000	-0.019	0.090
-393.106	800.000	0.070	-0.197
-392.092	-94.929	-0.181	-0.049
-391.077	-49.232	-0.225	-0.107
-390.063	492.753	0.023	-0.052
-389.048	8.596	-0.205	-0.153
-388.033	-151.287	-0.323	-0.024
-387.019	-200.000	-0.036	-0.484
-386.004	-200.000	0.005	-0.038
-384.990	492.735	-0.089	0.202
-383.975	-68.464	0.194	-0.075
-382.960	346.143	-0.036	0.070
-381.946	-200.000	0.020	-0.108
-380.931	302.080	0.082	0.150
-379.917	281.298	-0.059	0.105
-378.902	-200.000	0.014	0.260
-377.888	800.000	0.038	-0.142
-376.873	190.245	-0.037	-0.055
-375.858	-91.926	0.304	-0.086
-374.844	-200.000	0.000	0.009
-373.829	800.000	-0.050	0.196
-372.815	-200.000	0.005	-0.278
-371.800	-48.751	-0.142	-0.067
-370.785	-42.267	0.199	-0.101
-369.771	-138.037	-0.351	-0.039
-368.756	-200.000	-0.025	0.137
-367.742	42.152	0.056	0.050
-366.727	-105.199	-0.055	-0.012
-365.712	-100.498	0.079	-0.019
-364.698	-121.584	0.085	0.014
-363.683	82.696	-0.225	0.243
-362.669	-13.612	-0.291	-0.187
-361.654	-43.742	0.140	0.070
-360.639	12.531	0.160	0.123
-359.625	-86.713	-0.217	-0.066
-358.610	800.000	0.093	-0.397
-357.596	201.510	-0.035	-0.053
-356.581	13.025	0.137	-0.105
-355.566	199.875	-0.080	0.122
-354.552	-200.000	0.051	0.340
-353.537	-60.156	0.459	0.194
-352.523	-67.426	0.267	0.104
-351.508	-49.197	-0.338	-0.160
-350.493	-122.643	0.171	0.028
-349.479	126.413	0.230	-0.288
-348.464	139.046	0.159	-0.208
-347.450	58.314	-0.104	-0.101
-346.435	-26.168	-0.044	-0.026
-345.420	-200.000	-0.024	0.212
-344.406	-168.595	-0.211	-0.008
-343.391	-200.000	-0.009	-0.065
-342.377	396.267	-0.061	-0.127
-341.362	48.417	-0.148	-0.137
-340.348	-29.762	0.037	0.021
-339.333	33.512	-0.165	-0.142
-338.318	-200.000	-0.065	0.369
-337.304	-115.278	0.141	-0.026
-336.289	-157.689	-0.311	-0.018
-335.275	-76.179	-0.305	-0.107
-334.260	800.000	-0.082	0.283
-333.245	-126.620	0.449	-0.066
-332.231	-7.446	0.318	0.213
-331.216	-200.000	0.026	0.201
-330.202	-200.000	-0.079	-0.398
-329.187	-93.835	0.171	-0.047
-328.172	800.000	0.099	-0.277
-327.158	800.000	0.154	0.451
-326.143	-16.009	0.176	-0.111
-325.129	-121.754	0.372	-0.061
-324.114	-192.901	0.206	0.002
-323.099	13.079	-0.117	0.090
-322.085	-200.000	0.046	0.252
-321.070	-123.694	-0.063	-0.010
-320.056	800.000	0.088	0.256
-319.041	800.000	0.092	0.361
-318.026	-143.787	-0.264	-0.025
-317.012	-200.000	0.018	-0.296
-315.997	-111.024	-0.136	-0.028
-314.983	-98.118	0.171	0.044
-313.968	-200.000	-0.008	-0.240
-312.953	36.966	0.161	0.141
-311.939	-29.968	-0.202	0.114
-310.924	-200.000	0.019	-0.187
-309.910	61.487	-0.204	-0.201
-308.895	224.454	-0.157	0.252
-307.880	-200.000	0.012	0.101
-306.866	130.100	0.008	0.010
-305.851	23.530	0.164	0.134
-304.837	-96.994	-0.640	-0.166
-303.822	202.714	-0.226	0.345
-302.807	127.550	-0.133	0.168
-301.793	72.009	0.098	-0.101
-300.778	800.000	-0.058	0.161
-299.764	-170.365	0.293	-0.010
-298.749	-121.637	-0.171	-0.028
-297.735	-200.000	-0.003	0.155
-296.720	-200.000	-0.019	-0.273
-295.705	-200.000	-0.006	-0.117
-294.691	661.791	0.091	-0.232
-293.676	-60.766	-0.309	-0.130
-292.662	-1.436	0.203	-0.142
-291.647	656.902	-0.107	-0.271
-290.632	398.100	0.127	-0.263
-289.618	18.449	0.054	0.043
-288.603	62.714	-0.048	-0.048
-287.589	290.415	-0.035	-0.062
-286.574	339.995	-0.093	-0.179
-285.559	147.100	0.043	0.057
-284.545	466.485	-0.118	-0.261
-283.530	-123.149	0.283	-0.045
-282.516	-64.721	0.153	0.061
-281.501	-69.888	0.245	0.092
-280.486	114.938	-0.039	-0.047
-279.472	-59.142	-0.154	0.066
-278.457	-52.010	0.111	0.051
-277.443	-166.629	0.283	0.012
-276.428	-16.143	-0.473	0.297
-275.413	55.206	0.065	0.062
-274.399	800.000	0.093	-0.332
-273.384	-96.951	0.072	0.019
-272.370	429.131	0.095	-0.203
-271.355	6.330	0.139	-0.102
-270.340	-102.062	-0.038	0.009
-269.326	301.482	-0.195	-0.355
-268.311	-158.272	0.248	-0.014
-267.297	-88.783	-0.098	-0.029
-266.282	143.261	-0.099	-0.130
-265.267	-31.535	0.188	-0.105
-264.253	-109.999	-0.086	-0.018
-263.238	206.413	-0.029	-0.045
-262.224	-10.427	-0.161	-0.106
-261.209	-5.969	0.125	-0.084
-260.195	-3.675	-0.040	0.028
-259.180	106.073	0.150	-0.176
-258.165	-144.606	0.239	0.022
-257.151	-53.714	-0.138	0.062
-256.136	193.620	0.221	0.330
-255.122	-122.378	0.204	-0.033
-254.107	-109.018	0.157	-0.033
-253.092	406.483	-0.074	0.154
-252.078	-107.464	0.183	-0.040
-251.063	-97.349	-0.299	-0.077
-250.049	157.359	0.123	0.168
-249.034	153.814	0.233	-0.315
-248.019	-200.000	-0.026	-0.305
-247.005	504.784	0.108	0.247
-245.990	411.737	-0.163	-0.341
-244.976	800.000	0.057	-0.192
-243.961	67.716	-0.113	0.114
-242.946	414.284	-0.179	0.376
-241.932	-5.676	-0.226	0.153
-240.917	-147.670	-0.278	0.023
-239.903	23.328	0.390	0.316
-238.888	-200.000	0.029	0.263
-237.873	347.262	-0.119	0.231
-236.859	176.046	-0.076	0.109
-235.844	-29.406	0.292	-0.165
-234.830	132.037	0.017	-0.021
-233.815	-11.927	0.199	0.128
-232.800	-73.160	0.196	0.071
-231.786	-24.348	-0.175	0.103
-230.771	42.338	0.347	-0.312
-229.757	-74.878	-0.462	0.164
-228.742	-28.736	-0.217	0.123
-227.727	256.889	-0.100	0.169
-226.713	-13.042	-0.145	0.093
-225.698	-200.000	-0.000	0.008
-224.684	-111.653	0.047	0.009
-223.669	-200.000	0.003	0.199
-222.655	442.196	0.135	-0.292
-221.640	178.680	0.201	0.290
-220.625	-200.000	0.014	-0.083
-219.611	800.000	0.051	0.172
-218.596	-162.509	-0.090	0.004
-217.582	30.630	0.262	0.221
-216.567	88.999	-0.209	0.229
-215.552	-175.642	0.141	-0.004
-214.538	-106.378	0.187	0.041
-213.523	-112.177	-0.171	-0.034
-212.509	101.893	-0.249	-0.287
-211.494	47.308	0.159	-0.146
-210.479	-1.841	-0.248	0.172
-209.465	43.103	0.089	0.080
-208.450	-200.000	-0.014	0.377
-207.436	477.726	-0.093	0.208
-206.421	-155.483	-0.088	-0.006
-205.406	-200.000	-0.011	0.106
-204.392	800.000	-0.011	-0.046
-203.377	-14.615	0.202	0.128
-202.363	-143.661	0.185	-0.017
-201.348	-122.209	-0.307	0.050
-200.333	-106.944	0.036	0.008
-199.319	800.000	0.079	0.280
-198.304	46.098	0.271	0.247
-197.290	-60.636	-0.245	0.102
-196.275	800.000	-0.058	-0.206
-195.260	8.700	-0.196	-0.146
-194.246	800.000	0.089	-0.284
-193.231	0.109	-0.319	-0.224
-192.217	37.794	0.062	0.055
-191.202	-45.205	-0.087	-0.042
-190.187	159.023	0.129	-0.177
-189.173	-11.518	-0.240	-0.156
-188.158	4.686	-0.149	-0.108
-187.144	155.718	0.041	0.056
-186.129	-15.889	0.265	0.166
-185.114	123.600	-0.283	0.349
-184.100	-85.741	-0.228	0.070
-183.085	223.081	0.133	-0.211
-182.071	-55.482	-0.174	0.077
-181.056	800.000	-0.038	0.153
-180.042	121.671	0.276	0.339
-179.027	-200.000	-0.030	-0.246
-178.012	-200.000	-0.029	-0.241
-176.998	25.314	-0.249	-0.204
-175.983	-44.620	-0.130	0.064
-174.969	-135.455	0.180	-0.021
-173.954	28.909	-0.079	0.066
-172.939	765.578	0.073	-0.194
-171.925	-16.488	-0.138	0.086
-170.910	-28.831	0.306	-0.173
-169.896	120.119	-0.067	-0.082
-168.881	16.834	0.069	-0.054
-167.866	228.660	-0.104	0.166
-166.852	800.000	-0.107	0.313
-165.837	-121.475	-0.046	-0.008
-164.823	625.251	0.139	-0.346
-163.808	28.977	-0.127	0.106
-162.793	138.570	-0.172	0.222
-161.779	-15.625	0.257	-0.162
-160.764	-200.000	-0.036	-0.198
-159.750	-118.877	-0.178	0.031
-158.735	468.729	0.131	0.290
-157.720	-52.540	-0.300	-0.136
-156.706	-200.000	-0.008	0.146
-155.691	-56.619	0.206	0.090
-154.677	18.149	0.127	-0.100
-153.662	-57.537	0.079	-0.034
-152.647	-76.100	-0.106	-0.037
-151.633	-200.000	0.024	0.387
-150.618	-9.807	0.392	0.257
-149.604	684.017	-0.029	0.074
-148.589	-200.000	0.044	-0.210
-147.574	3.046	0.150	0.107
-146.560	800.000	-0.088	-0.254
-145.545	699.170	0.159	0.410
-144.531	86.000	-0.069	-0.075
-143.516	49.893	-0.226	0.209
-142.502	73.444	-0.098	-0.101
-141.487	-41.081	0.161	0.082
-140.472	-75.200	-0.282	0.099
-139.458	287.732	0.129	0.229
-138.443	-40.943	-0.086	-0.044
-137.429	-164.394	-0.246	-0.011
-136.414	-168.124	-0.269	-0.010
-135.399	151.881	-0.139	0.187
-134.385	-81.625	0.160	0.052
-133.370	-160.464	-0.097	-0.005
-132.356	148.733	0.192	-0.255
-131.341	-64.153	-0.063	-0.025
-130.326	58.419	-0.080	0.077
-129.312	-166.003	0.309	0.013
-128.297	-150.935	-0.455	0.034
-127.283	599.782	0.017	0.042
-126.268	312.277	-0.008	0.014
-125.253	703.319	0.051	-0.133
-124.239	-110.609	-0.240	-0.049
-123.224	30.846	0.119	0.101
-122.210	9.969	0.128	0.095
