DTS Sentinel unit serial number:	SN413079Multiplexer serial number:	ORYXHardware model number:	OX4-SRSoftware version number:	ORYX F/W v4.00 Oryx Data Collector v3.7.2.0data status	okinstallation	princeton_trtdifferential loss correction	single-endedforward channel	channel 3reverse channel	N/Adate	2019/09/13time	04:00:35forward acquisition time	60.00reverse acquisition time	0.00gamma	496.2192k internal	0.2336k external	0.2336temperature offset calibration	1.0139default loss term (dB/km)	0.3790temperature slope calibration	1.0000multiplexer offset coefficient	1.0000multiplexer slope coefficient	1.0000fibre end	0.00T internal ref (°C)	27.00T ext. ref 1 (°C)	4.07T ext. ref 2 (°C)	21.30length (m)	temperature (°C)	Stokes	anti-Stokes-747.200	476.723	0.201	-0.456
-746.185	-91.754	-0.020	-0.006
-745.171	-200.000	-0.027	0.203
-744.156	149.249	-0.084	0.114
-743.142	-16.533	-0.175	0.112
-742.127	-102.058	0.146	0.035
-741.112	480.861	-0.087	0.199
-740.098	-62.349	0.164	0.068
-739.083	51.700	0.181	-0.173
-738.069	236.524	-0.064	0.106
-737.054	-157.506	-0.120	-0.007
-736.039	-200.000	-0.000	-0.191
-735.025	-123.768	0.503	-0.080
-734.010	800.000	-0.078	-0.242
-732.996	-28.365	-0.093	-0.054
-731.981	-200.000	-0.010	-0.305
-730.966	-84.254	0.181	-0.058
-729.952	-200.000	-0.010	0.104
-728.937	-131.819	-0.065	0.008
-727.923	98.699	-0.229	-0.265
-726.908	9.263	-0.192	-0.146
-725.894	-200.000	0.056	0.292
-724.879	-64.316	-0.482	-0.197
-723.864	-200.000	-0.030	0.276
-722.850	-200.000	0.011	-0.207
-721.835	158.244	-0.160	0.223
-720.821	2.951	0.337	-0.246
-719.806	117.842	0.088	-0.108
-718.791	-13.698	-0.249	0.162
-717.777	-200.000	0.189	0.000
-716.762	-41.668	-0.088	0.046
-715.748	-35.412	-0.138	-0.075
-714.733	800.000	0.031	-0.135
-713.718	-200.000	-0.001	0.206
-712.704	-108.073	0.164	-0.036
-711.689	-85.562	-0.161	0.050
-710.675	70.155	0.219	0.226
-709.660	-120.746	0.103	-0.017
-708.645	800.000	0.096	-0.356
-707.631	597.911	-0.112	-0.278
-706.616	-121.933	0.371	0.061
-705.602	-66.742	-0.238	-0.094
-704.587	-58.679	0.145	0.063
-703.572	746.209	-0.049	-0.131
-702.558	354.241	0.034	-0.067
-701.543	800.000	0.152	-0.445
-700.529	271.297	-0.189	-0.334
-699.514	76.370	-0.091	-0.096
-698.499	800.000	-0.038	-0.131
-697.485	26.093	-0.261	-0.219
-696.470	157.615	0.107	-0.149
-695.456	800.000	-0.125	-0.354
-694.441	-78.641	0.224	0.077
-693.426	-105.030	0.127	0.029
-692.412	800.000	-0.078	0.333
-691.397	800.000	-0.041	-0.128
-690.383	-123.377	0.313	-0.050
-689.368	7.852	-0.107	0.081
-688.354	-200.000	-0.022	0.257
-687.339	-33.293	-0.242	0.134
-686.324	227.695	-0.192	0.312
-685.310	5.772	0.287	-0.212
-684.295	467.922	0.056	-0.126
-683.281	12.023	-0.205	-0.158
-682.266	224.284	-0.167	-0.270
-681.251	231.331	0.063	0.104
-680.237	86.499	0.110	0.121
-679.222	-200.000	0.010	-0.171
-678.208	-200.000	-0.019	0.239
-677.193	-18.981	0.156	-0.097
-676.178	105.835	-0.232	-0.274
-675.164	-142.615	0.106	-0.010
-674.149	378.472	-0.184	0.378
-673.135	-61.908	0.114	0.048
-672.120	18.766	-0.085	-0.068
-671.105	-200.000	0.039	-0.243
-670.091	62.415	0.018	-0.018
-669.076	800.000	0.072	-0.314
-668.062	557.232	-0.037	-0.089
-667.047	-47.859	0.251	-0.122
-666.032	800.000	0.124	-0.345
-665.018	-107.204	-0.174	-0.038
-664.003	-169.844	-0.259	-0.009
-662.989	190.908	0.122	-0.183
-661.974	-4.482	0.284	0.196
-660.959	-46.942	0.179	-0.088
-659.945	-123.595	0.037	-0.006
-658.930	-71.182	-0.128	-0.048
-657.916	-200.000	-0.002	-0.201
-656.901	-139.716	-0.184	0.020
-655.886	-52.467	-0.270	-0.125
-654.872	-49.343	0.139	0.066
-653.857	800.000	-0.092	0.386
-652.843	1.056	0.063	-0.045
-651.828	15.090	-0.378	-0.296
-650.814	-110.832	-0.456	-0.094
-649.799	381.670	0.047	0.097
-648.784	-200.000	-0.031	-0.314
-647.770	-17.843	-0.144	0.090
-646.755	-200.000	0.029	-0.149
-645.741	800.000	0.023	0.075
-644.726	-200.000	-0.046	-0.378
-643.711	-68.179	-0.347	0.135
-642.697	800.000	-0.040	-0.132
-641.682	-144.499	-0.410	-0.038
-640.668	-2.169	-0.162	-0.114
-639.653	-68.483	-0.143	0.056
-638.638	-200.000	0.023	-0.112
-637.624	800.000	0.036	0.105
-636.609	520.283	0.059	0.139
-635.595	-200.000	0.034	-0.208
-634.580	-52.639	0.065	-0.030
-633.565	-89.411	0.098	0.029
-632.551	37.374	-0.070	0.062
-631.536	458.630	0.019	-0.042
-630.522	-137.035	0.375	0.043
-629.507	401.797	-0.095	0.199
-628.492	481.752	-0.083	0.188
-627.478	-60.780	-0.111	0.047
-626.463	-83.799	0.142	0.045
-625.449	165.661	-0.200	-0.282
-624.434	157.835	0.063	0.087
-623.419	123.543	-0.028	-0.036
-622.405	-91.656	0.338	-0.096
-621.390	-5.830	0.093	-0.063
-620.376	-200.000	0.013	-0.126
-619.361	800.000	0.097	-0.303
-618.346	-200.000	0.003	-0.052
-617.332	-200.000	0.004	0.022
-616.317	-110.481	-0.270	0.056
-615.303	-27.604	0.285	-0.166
-614.288	-99.493	-0.087	0.022
-613.273	151.647	-0.046	0.063
-612.259	-200.000	-0.032	0.158
-611.244	222.218	-0.167	-0.269
-610.230	43.187	0.150	0.136
-609.215	762.001	0.115	-0.311
-608.201	-35.897	0.165	0.089
-607.186	-200.000	0.012	-0.250
-606.171	-128.921	0.266	-0.037
-605.157	154.031	-0.118	0.162
-604.142	350.277	-0.105	-0.207
-603.128	8.421	0.098	-0.073
-602.113	89.753	-0.122	0.136
-601.098	800.000	0.025	-0.110
-600.084	26.094	0.089	-0.074
-599.069	-111.367	-0.393	0.080
-598.055	115.187	0.094	-0.114
-597.040	800.000	-0.072	-0.224
-596.025	-130.946	0.359	-0.048
-595.011	18.723	-0.176	0.141
-593.996	-167.188	-0.316	-0.013
-592.982	800.000	0.088	-0.308
-591.967	-96.484	0.133	-0.035
-590.952	800.000	-0.087	-0.288
-589.938	139.408	-0.169	-0.222
-588.923	2.857	0.164	0.119
-587.909	155.337	-0.151	0.207
-586.894	-200.000	0.019	0.158
-585.879	6.632	0.156	0.116
-584.865	-144.320	0.270	-0.025
-583.850	-175.216	-0.431	-0.012
-582.836	-200.000	-0.018	-0.122
-581.821	-21.768	0.079	-0.048
-580.806	-88.372	0.394	0.117
-579.792	312.722	0.068	0.128
-578.777	178.061	0.039	0.057
-577.763	408.765	-0.146	0.307
-576.748	-121.489	0.203	0.034
-575.733	321.431	0.177	0.336
-574.719	-31.614	-0.116	0.065
-573.704	800.000	0.051	-0.185
-572.690	-41.160	-0.192	0.099
-571.675	-111.226	-0.074	0.015
-570.661	-51.139	0.206	-0.096
-569.646	45.553	0.063	-0.058
-568.631	-159.779	0.216	0.012
-567.617	-200.000	0.031	0.157
-566.602	-28.947	-0.123	0.070
-565.588	312.790	-0.141	0.265
-564.573	-200.000	-0.006	-0.152
-563.558	214.432	0.168	0.266
-562.544	800.000	0.038	0.133
-561.529	110.445	-0.119	0.143
-560.515	206.674	-0.101	-0.157
-559.500	-200.000	0.031	-0.193
-558.485	-83.797	-0.162	0.051
-557.471	-105.430	0.495	0.112
-556.456	99.664	-0.078	-0.090
-555.442	34.309	-0.069	-0.060
-554.427	-89.495	0.373	-0.109
-553.412	-200.000	-0.123	-0.538
-552.398	-48.345	-0.217	-0.104
-551.383	-79.476	0.361	-0.121
-550.369	-29.600	-0.190	0.108
-549.354	31.416	0.404	0.346
-548.339	-45.731	0.347	0.171
-547.325	-90.531	0.136	0.039
-546.310	568.316	-0.028	0.069
-545.296	-200.000	-0.008	-0.345
-544.281	-200.000	-0.123	0.538
-543.266	102.797	-0.037	-0.043
-542.252	-59.445	-0.317	0.136
-541.237	-66.746	-0.186	0.073
-540.223	115.822	-0.120	-0.147
-539.208	-200.000	-0.024	0.152
-538.193	45.581	-0.063	0.058
-537.179	-200.000	-0.011	-0.076
-536.164	176.578	0.250	-0.362
-535.150	-95.378	-0.170	0.046
-534.135	-25.955	0.188	-0.110
-533.121	8.341	0.273	0.204
-532.106	121.562	-0.149	0.185
-531.091	417.337	-0.132	-0.280
-530.077	456.865	-0.021	-0.046
-529.062	65.397	-0.032	0.032
-528.048	588.349	-0.055	0.136
-527.033	-127.980	-0.118	0.017
-526.018	-48.851	0.201	-0.096
-525.004	-200.000	0.015	0.068
-523.989	800.000	-0.051	0.199
-522.975	-110.025	-0.164	-0.034
-521.960	-200.000	-0.005	0.212
-520.945	3.403	0.151	-0.110
-519.931	-200.000	0.026	-0.526
-518.916	800.000	-0.044	-0.170
-517.902	-102.092	-0.147	0.035
-516.887	-200.000	0.006	-0.351
-515.872	-200.000	-0.092	-0.402
-514.858	-130.390	0.114	0.015
-513.843	42.538	0.056	0.051
-512.829	800.000	-0.118	-0.329
-511.814	203.436	-0.045	0.069
-510.799	189.404	-0.017	0.025
-509.785	800.000	-0.089	0.321
-508.770	55.836	0.246	-0.237
-507.756	75.047	-0.180	-0.189
-506.741	119.206	0.047	-0.057
-505.726	96.997	0.197	-0.225
-504.712	-104.648	0.283	-0.065
-503.697	-200.000	-0.030	0.147
-502.683	186.233	-0.230	-0.340
-501.668	3.996	-0.057	-0.042
-500.653	800.000	0.048	0.163
-499.639	800.000	0.036	-0.122
-498.624	800.000	-0.047	0.133
-497.610	-16.355	0.175	0.111
-496.595	224.455	-0.095	-0.153
-495.581	-115.993	-0.315	-0.058
-494.566	241.598	-0.085	-0.142
-493.551	-36.496	-0.092	-0.049
-492.537	57.293	0.115	0.112
-491.522	-138.198	-0.255	0.028
-490.508	74.311	0.121	-0.127
-489.493	145.484	-0.053	-0.071
-488.478	34.681	-0.285	-0.248
-487.464	-200.000	0.026	-0.165
-486.449	-31.459	0.118	0.066
-485.435	-0.635	0.496	-0.350
-484.420	-45.557	0.175	-0.086
-483.405	-21.196	-0.214	0.130
-482.391	88.033	0.125	-0.138
-481.376	-48.776	0.207	-0.099
-480.362	800.000	0.057	0.233
-479.347	62.340	0.133	-0.132
-478.332	800.000	-0.071	-0.235
-477.318	201.180	0.106	-0.161
-476.303	17.114	-0.229	0.180
-475.289	-64.231	-0.251	0.102
-474.274	-153.827	-0.282	-0.019
-473.259	-200.000	0.030	-0.285
-472.245	2.277	-0.091	0.065
-471.230	343.523	-0.104	0.202
-470.216	124.047	0.399	-0.498
-469.201	-179.390	-0.265	0.006
-468.186	34.668	-0.240	-0.208
-467.172	-138.226	-0.250	-0.028
-466.157	-28.194	-0.283	0.162
-465.143	134.320	-0.040	0.052
-464.128	10.581	0.138	-0.104
-463.113	-55.972	-0.214	0.095
-462.099	-10.951	0.222	-0.146
-461.084	169.231	0.202	-0.286
-460.070	-84.047	-0.282	0.089
-459.055	25.970	0.218	-0.180
-458.040	44.405	-0.053	0.048
-457.026	-200.000	0.011	0.150
-456.011	-164.322	0.245	-0.011
-454.997	-200.000	0.014	-0.146
-453.982	-76.964	-0.067	-0.023
-452.968	677.740	0.101	-0.260
-451.953	-200.000	0.006	-0.029
-450.938	800.000	0.073	0.226
-449.924	-114.762	-0.526	-0.100
-448.909	-146.686	0.471	-0.040
-447.895	800.000	-0.060	-0.200
-446.880	800.000	-0.111	0.309
-445.865	-153.834	-0.317	-0.022
-444.851	425.516	0.055	-0.118
-443.836	-24.658	-0.312	-0.184
-442.822	-34.229	0.269	-0.146
-441.807	142.184	-0.057	-0.075
-440.792	775.745	-0.097	-0.263
-439.778	-200.000	0.005	-0.120
-438.763	-200.000	-0.002	0.188
-437.749	800.000	-0.098	0.408
-436.734	-43.205	0.560	-0.281
-435.719	800.000	0.127	0.359
-434.705	-118.670	0.178	-0.031
-433.690	-178.944	-0.058	0.001
-432.676	189.623	0.172	-0.256
-431.661	-115.365	-0.447	0.084
-430.646	-89.148	-0.193	0.057
-429.632	63.870	0.093	0.093
-428.617	800.000	0.062	0.269
-427.603	111.047	-0.288	-0.343
-426.588	118.295	0.095	0.116
-425.573	318.939	-0.073	-0.137
-424.559	508.943	-0.096	-0.222
-423.544	-59.552	0.271	-0.115
-422.530	-200.000	0.014	0.060
-421.515	-107.593	-0.247	0.054
-420.500	-132.811	-0.208	-0.026
-419.486	136.434	-0.068	0.087
-418.471	222.761	-0.040	-0.064
-417.457	-119.615	-0.137	-0.023
-416.442	293.617	0.030	0.054
-415.428	-10.605	0.151	-0.099
-414.413	282.899	0.080	-0.142
-413.398	265.322	-0.104	-0.179
-412.384	85.736	-0.061	-0.066
-411.369	72.317	0.159	0.164
-410.355	-200.000	0.055	0.329
-409.340	-61.929	0.367	0.152
-408.325	371.228	0.129	-0.260
-407.311	398.208	0.065	0.135
-406.296	-11.471	0.191	-0.124
-405.282	-200.000	0.020	0.101
-404.267	424.464	0.061	0.131
-403.252	-200.000	-0.050	-0.281
-402.238	19.948	0.338	-0.270
-401.223	667.089	-0.167	-0.427
-400.209	800.000	0.081	0.349
-399.194	-115.585	-0.241	-0.045
-398.179	143.868	0.081	-0.107
-397.165	-99.432	-0.313	-0.078
-396.150	1.085	0.179	-0.128
-395.136	636.144	0.069	0.173
-394.121	-102.239	-0.332	0.079
-393.106	342.261	-0.063	-0.121
-392.092	-30.962	-0.420	-0.235
-391.077	-51.293	0.353	-0.163
-390.063	300.075	0.188	0.343
-389.048	-94.621	-0.340	0.091
-388.033	104.147	0.202	0.235
-387.019	-40.535	-0.186	-0.096
-386.004	69.918	-0.222	0.227
-384.990	9.308	0.241	-0.180
-383.975	-147.042	-0.249	0.021
-382.960	-129.310	-0.374	0.052
-381.946	392.489	0.140	-0.288
-380.931	-54.004	-0.263	0.118
-379.917	-200.000	-0.033	-0.239
-378.902	800.000	0.071	0.271
-377.888	-200.000	-0.034	0.190
-376.873	452.276	-0.057	0.125
-375.858	649.664	-0.065	-0.165
-374.844	514.520	-0.172	-0.398
-373.829	-139.992	-0.452	0.047
-372.815	275.984	-0.188	0.330
-371.800	192.217	0.097	0.145
-370.785	444.404	-0.097	0.211
-369.771	19.904	-0.155	-0.123
-368.756	-186.816	-0.238	-0.003
-367.742	-200.000	-0.022	-0.227
-366.727	-68.543	0.225	0.086
-365.712	-63.500	-0.146	-0.059
-364.698	146.973	0.047	-0.062
-363.683	-200.000	0.082	0.472
-362.669	-117.132	0.178	-0.032
-361.654	-81.774	0.034	-0.011
-360.639	-200.000	0.033	-0.199
-359.625	-70.929	-0.193	0.072
-358.610	350.437	-0.092	0.181
-357.596	371.389	0.095	0.192
-356.581	-200.000	-0.014	-0.267
-355.566	12.664	-0.025	-0.019
-354.552	-20.502	-0.400	0.243
-353.537	-102.299	0.101	0.024
-352.523	-200.000	-0.003	0.244
-351.508	-47.808	0.123	0.059
-350.493	84.281	0.053	0.058
-349.479	-34.047	-0.034	0.019
-348.464	-200.000	0.074	-0.375
-347.450	100.814	0.145	0.167
-346.435	375.693	0.212	0.428
-345.420	343.303	-0.101	0.196
-344.406	-183.388	-0.300	0.005
-343.391	153.673	0.141	-0.192
-342.377	91.815	-0.056	0.063
-341.362	-200.000	0.027	-0.152
-340.348	-65.806	-0.035	0.014
-339.333	40.659	-0.109	0.097
-338.318	800.000	-0.104	-0.296
-337.304	193.122	-0.070	-0.105
-336.289	-81.914	0.361	0.117
-335.275	-7.343	-0.319	0.214
-334.260	106.813	0.127	0.149
-333.245	-125.584	0.502	0.075
-332.231	227.262	-0.024	-0.039
-331.216	18.900	0.142	-0.113
-330.202	563.644	0.010	-0.024
-329.187	108.067	-0.069	-0.081
-328.172	54.156	0.237	0.225
-327.158	-105.597	0.433	0.097
-326.143	-110.362	-0.288	0.059
-325.129	436.771	0.037	0.079
-324.114	19.205	-0.182	-0.144
-323.099	-200.000	-0.020	0.098
-322.085	148.955	0.132	0.176
-321.070	800.000	-0.053	0.181
-320.056	-35.945	0.305	-0.163
-319.041	-161.476	0.239	0.012
-318.026	-16.683	0.291	0.182
-317.012	-6.617	0.059	-0.040
-315.997	67.464	0.149	0.150
-314.983	113.511	0.125	0.150
-313.968	20.380	-0.213	-0.170
-312.953	-55.651	0.307	0.136
-311.939	170.120	0.173	0.244
-310.924	-126.743	-0.414	0.060
-309.910	1.382	0.226	0.161
-308.895	-166.340	0.110	-0.005
-307.880	-67.781	-0.031	-0.012
-306.866	223.847	0.143	-0.229
-305.851	-200.000	-0.004	0.178
-304.837	-125.326	0.300	-0.045
-303.822	-200.000	0.004	0.089
-302.807	-14.115	0.019	0.012
-301.793	76.676	0.156	-0.164
-300.778	-200.000	-0.073	-0.337
-299.764	800.000	-0.057	0.155
-298.749	-32.338	-0.287	0.158
-297.735	-25.513	-0.195	0.114
-296.720	124.039	-0.153	0.190
-295.705	800.000	-0.083	-0.320
-294.691	453.156	0.137	0.299
-293.676	355.038	0.158	-0.310
-292.662	-89.707	-0.188	0.054
-291.647	222.060	0.078	-0.124
-290.632	-51.249	-0.223	-0.103
-289.618	92.343	0.052	-0.058
-288.603	-37.896	0.203	-0.107
-287.589	657.828	-0.077	0.195
-286.574	-200.000	0.017	-0.176
-285.559	-50.570	0.269	0.125
-284.545	800.000	-0.039	0.139
-283.530	-89.395	0.150	0.043
-282.516	-76.304	0.181	0.063
-281.501	40.066	0.140	-0.124
-280.486	206.131	0.092	0.141
-279.472	25.002	0.187	0.153
-278.457	109.465	0.180	0.212
-277.443	-82.352	-0.198	-0.063
-276.428	274.348	-0.170	0.296
-275.413	-129.773	0.291	0.039
-274.399	535.505	0.088	0.205
-273.384	141.339	0.196	0.256
-272.370	8.247	-0.110	0.081
-271.355	-4.632	0.114	-0.078
-270.340	-200.000	0.011	0.195
-269.326	512.393	-0.116	0.267
-268.311	137.930	0.012	0.015
-267.297	67.338	0.242	0.243
-266.282	800.000	0.081	-0.253
-265.267	92.516	0.218	-0.243
-264.253	468.775	0.074	0.163
-263.238	-53.592	0.080	0.036
-262.224	95.940	-0.184	-0.207
-261.209	-200.000	-0.032	0.257
-260.195	-82.171	-0.329	-0.106
-259.180	4.242	0.121	0.088
-258.165	-88.252	0.276	0.081
-257.151	-200.000	0.034	0.231
-256.136	-200.000	0.021	0.172
-255.122	20.047	-0.120	-0.095
-254.107	-166.973	0.243	0.010
-253.092	-97.436	0.207	-0.053
-252.078	-37.422	-0.350	0.184
-251.063	-200.000	-0.006	0.157
-250.049	174.367	0.062	-0.089
-249.034	58.745	-0.034	0.033
-248.019	108.799	-0.153	-0.180
-247.005	-61.835	-0.289	-0.119
-245.990	-200.000	0.004	0.257
-244.976	248.870	0.073	-0.122
-243.961	-51.965	0.250	0.115
-242.946	-20.071	0.124	-0.075
-241.932	196.420	-0.122	-0.182
-240.917	230.752	0.082	-0.132
-239.903	-8.150	0.131	-0.087
-238.888	-119.788	0.100	-0.017
-237.873	-120.267	0.266	0.045
-236.859	57.784	0.051	-0.049
-235.844	138.879	-0.138	0.178
-234.830	800.000	0.092	0.314
-233.815	69.378	-0.080	0.081
-232.800	-138.041	0.046	-0.005
-231.786	-118.842	0.338	-0.059
-230.771	-200.000	-0.012	-0.315
-229.757	25.069	0.047	0.038
-228.742	61.178	-0.323	-0.315
-227.727	91.383	-0.201	-0.222
-226.713	89.644	-0.130	-0.143
-225.698	641.280	-0.033	0.082
-224.684	-200.000	0.029	0.445
-223.669	-0.929	0.289	0.201
-222.655	76.739	-0.185	0.193
-221.640	151.263	-0.130	-0.174
-220.625	-200.000	-0.032	0.333
-219.611	-51.244	0.093	0.043
-218.596	352.172	-0.075	0.146
-217.582	23.550	-0.072	-0.058
-216.567	511.807	-0.179	-0.410
-215.552	800.000	-0.040	0.120
-214.538	-20.572	-0.294	-0.178
-213.523	-98.421	-0.314	-0.079
-212.509	369.897	0.013	0.026
-211.494	282.817	-0.053	-0.093
-210.479	294.691	-0.152	0.273
-209.465	-97.141	0.061	-0.016
-208.450	148.705	-0.038	-0.050
-207.436	96.321	0.059	-0.067
-206.421	-200.000	0.032	0.307
-205.406	-6.169	-0.033	-0.022
-204.392	-46.172	-0.280	0.136
-203.377	-85.650	-0.378	-0.116
-202.363	-101.005	-0.113	0.027
-201.348	-200.000	0.003	-0.116
-200.333	-129.890	0.251	-0.034
-199.319	800.000	-0.130	0.379
-198.304	-125.970	-0.202	-0.030
-197.290	245.654	-0.063	-0.105
-196.275	74.806	0.309	0.319
-195.260	-13.531	-0.046	0.029
-194.246	-83.259	0.213	0.067
-193.231	25.475	-0.064	-0.053
-192.217	800.000	-0.041	0.132
-191.202	56.627	-0.221	-0.211
-190.187	-200.000	-0.069	-0.323
-189.173	-91.757	-0.216	0.060
-188.158	378.844	-0.137	0.276
-187.144	-167.625	0.231	-0.009
-186.129	-160.722	-0.366	0.019
-185.114	800.000	-0.104	-0.346
-184.100	800.000	-0.036	-0.129
-183.085	800.000	0.083	-0.329
-182.071	14.519	0.299	-0.229
-181.056	-200.000	-0.003	0.523
-180.042	-200.000	0.033	0.154
-179.027	-112.106	0.171	0.034
-178.012	38.699	0.193	-0.169
-176.998	-200.000	0.023	0.211
-175.983	-22.252	0.023	-0.014
-174.969	-122.746	0.161	0.026
-173.954	-92.161	-0.358	-0.099
-172.939	-200.000	0.011	-0.253
-171.925	-104.892	0.083	-0.019
-170.910	-200.000	-0.072	0.337
-169.896	-59.876	0.277	0.116
-168.881	-0.177	-0.106	-0.074
-167.866	19.799	0.277	0.219
-166.852	-122.551	-0.134	-0.021
-165.837	306.803	-0.195	0.356
-164.823	-15.496	0.107	0.067
-163.808	76.122	0.219	-0.227
-162.793	-137.609	0.136	0.015
-161.779	800.000	-0.073	-0.198
-160.764	15.876	-0.158	0.122
-159.750	-200.000	0.020	0.088
-158.735	259.154	-0.107	0.181
-157.720	-166.256	0.400	0.017
-156.706	-152.916	-0.282	-0.020
-155.691	-144.649	-0.359	-0.033
-154.677	800.000	0.050	0.193
-153.662	-200.000	0.018	0.152
-152.647	426.868	0.093	0.196
-151.633	-200.000	0.060	0.268
-150.618	2.004	0.233	0.165
-149.604	-2.720	-0.238	-0.163
-148.589	800.000	0.149	-0.523
-147.574	135.577	0.109	-0.139
-146.560	-200.000	0.027	-0.138
-145.545	156.615	0.038	0.052
-144.531	52.888	0.197	-0.184
-143.516	774.992	-0.023	0.061
-142.502	-78.762	0.022	0.007
-141.487	28.256	-0.297	0.246
-140.472	800.000	-0.089	0.349
-139.458	-138.982	0.099	0.011
-138.443	83.674	0.117	-0.125
-137.429	800.000	0.120	0.368
-136.414	-116.264	0.264	-0.048
-135.399	-200.000	0.030	0.197
-134.385	-64.810	0.048	0.019
-133.370	-84.118	0.255	-0.079
-132.356	111.687	-0.018	0.021
-131.341	57.858	0.230	0.220
-130.326	-200.000	0.017	-0.245
-129.312	-200.000	-0.062	-0.367
-128.297	312.595	0.075	0.138
-127.283	-141.002	-0.248	-0.025
-126.268	800.000	0.034	0.127
-125.253	153.312	0.142	0.190
-124.239	16.146	0.262	0.202
-123.224	-112.530	-0.247	-0.048
-122.210	-59.070	0.218	0.092
-121.195	243.701	-0.128	0.210
-120.180	47.992	-0.051	0.047
