DTS Sentinel unit serial number:	SN413079Multiplexer serial number:	ORYXHardware model number:	OX4-SRSoftware version number:	ORYX F/W v4.00 Oryx Data Collector v3.7.2.0data status	okinstallation	princeton_trtdifferential loss correction	single-endedforward channel	channel 3reverse channel	N/Adate	2019/09/17time	19:48:35forward acquisition time	60.00reverse acquisition time	0.00gamma	496.2192k internal	0.2318k external	0.2318temperature offset calibration	0.9954default loss term (dB/km)	0.3790temperature slope calibration	1.0000multiplexer offset coefficient	1.0000multiplexer slope coefficient	1.0000fibre end	0.00T internal ref (°C)	34.52T ext. ref 1 (°C)	0.24T ext. ref 2 (°C)	23.88length (m)	temperature (°C)	Stokes	anti-Stokes-747.200	-12.357	0.190	0.126
-746.185	-39.668	0.233	0.123
-745.171	-32.387	-0.146	-0.082
-744.156	-57.522	-0.198	0.088
-743.142	22.334	0.059	-0.049
-742.127	-74.596	0.267	0.097
-741.112	-32.858	0.107	0.060
-740.098	-200.000	-0.027	0.299
-739.083	800.000	-0.077	0.267
-738.069	-200.000	0.014	0.102
-737.054	-152.091	-0.160	0.012
-736.039	315.048	-0.122	-0.233
-735.025	800.000	-0.057	0.238
-734.010	53.398	-0.084	-0.082
-732.996	-199.382	-0.361	-0.002
-731.981	-122.780	-0.129	0.021
-730.966	420.039	-0.078	-0.170
-729.952	800.000	-0.070	-0.236
-728.937	800.000	-0.199	-0.597
-727.923	408.291	0.100	-0.213
-726.908	-114.692	-0.437	0.085
-725.894	108.855	0.203	0.246
-724.879	-200.000	-0.018	-0.110
-723.864	71.934	0.220	0.232
-722.850	800.000	-0.066	-0.196
-721.835	153.953	-0.076	-0.105
-720.821	186.322	0.133	0.200
-719.806	-200.000	0.036	-0.326
-718.791	128.046	-0.197	-0.254
-717.777	116.473	-0.125	0.155
-716.762	388.880	-0.146	-0.305
-715.748	61.039	0.304	-0.305
-714.733	22.587	-0.169	-0.140
-713.718	540.686	-0.087	-0.210
-712.704	-200.000	0.078	0.447
-711.689	-22.348	-0.184	-0.113
-710.675	-140.929	0.219	0.023
-709.660	723.142	-0.088	-0.237
-708.645	-106.055	0.133	-0.030
-707.631	93.128	-0.074	-0.084
-706.616	400.706	0.067	-0.141
-705.602	568.467	-0.038	-0.094
-704.587	279.175	-0.102	-0.184
-703.572	130.084	0.083	-0.107
-702.558	42.447	-0.300	0.276
-701.543	67.985	0.296	-0.306
-700.529	-160.444	0.151	0.008
-699.514	-117.311	0.213	-0.039
-698.499	800.000	-0.045	-0.140
-697.485	-124.403	0.209	0.033
-696.470	117.819	0.249	-0.309
-695.456	-200.000	0.011	0.295
-694.441	68.100	-0.236	-0.244
-693.426	47.855	0.196	-0.185
-692.412	-109.368	0.180	0.039
-691.397	35.964	0.215	0.191
-690.383	367.486	-0.123	-0.251
-689.368	-168.693	0.281	0.011
-688.354	68.824	-0.302	-0.313
-687.339	-133.366	0.314	-0.040
-686.324	-200.000	-0.029	-0.234
-685.310	-200.000	0.035	0.164
-684.295	-56.383	0.124	-0.056
-683.281	172.670	0.249	-0.363
-682.266	-37.705	0.118	-0.064
-681.251	619.809	-0.030	-0.075
-680.237	-78.363	0.277	0.096
-679.222	-200.000	-0.038	0.238
-678.208	-160.775	0.258	0.014
-677.193	242.960	0.003	-0.005
-676.178	-200.000	0.023	-0.322
-675.164	-34.896	-0.241	-0.133
-674.149	-75.108	-0.238	-0.086
-673.135	-200.000	0.017	0.091
-672.120	67.225	0.153	-0.157
-671.105	-79.470	-0.272	0.093
-670.091	-24.921	-0.082	0.049
-669.076	-52.986	-0.319	-0.148
-668.062	42.333	0.100	0.092
-667.047	-200.000	0.039	0.237
-666.032	-113.078	-0.191	-0.038
-665.018	-111.264	-0.090	0.019
-664.003	112.730	-0.248	-0.303
-662.989	-200.000	0.003	-0.153
-661.974	-91.909	0.183	-0.052
-660.959	800.000	0.062	-0.222
-659.945	-200.000	0.003	-0.057
-658.930	-158.797	0.202	0.012
-657.916	-50.792	0.122	-0.058
-656.901	184.011	-0.221	-0.329
-655.886	-200.000	-0.026	-0.167
-654.872	182.363	-0.083	0.123
-653.857	-135.109	-0.162	0.020
-652.843	143.262	0.124	0.167
-651.828	-104.719	0.256	-0.060
-650.814	69.008	0.074	0.077
-649.799	800.000	-0.100	0.370
-648.784	-27.102	-0.410	-0.241
-647.770	-200.000	-0.022	-0.164
-646.755	-78.147	0.188	-0.065
-645.741	-67.238	0.198	-0.079
-644.726	-92.535	-0.080	0.023
-643.711	-87.235	-0.177	0.054
-642.697	5.828	0.216	0.161
-641.682	-200.000	0.019	0.136
-640.668	-55.983	-0.033	-0.015
-639.653	-2.627	-0.196	0.138
-638.638	14.564	0.143	-0.112
-637.624	77.253	-0.122	-0.131
-636.609	-71.193	0.065	-0.025
-635.595	-75.515	0.334	0.120
-634.580	-200.000	-0.030	0.332
-633.565	177.126	0.087	0.127
-632.551	-200.000	0.002	-0.100
-631.536	-154.372	0.145	-0.010
-630.522	-199.954	-0.103	0.001
-629.507	-200.000	0.011	-0.270
-628.492	-16.131	0.033	0.021
-627.478	-146.130	0.077	0.007
-626.463	174.375	-0.105	0.153
-625.449	115.988	-0.116	-0.143
-624.434	9.133	0.199	-0.151
-623.419	25.699	-0.190	0.159
-622.405	524.393	0.160	0.380
-621.390	-166.095	0.174	0.007
-620.376	253.445	-0.172	0.295
-619.361	86.832	-0.086	0.096
-618.346	31.011	0.208	0.180
-617.332	-76.681	-0.414	-0.146
-616.317	188.902	-0.071	-0.108
-615.303	63.250	0.081	0.082
-614.288	407.181	0.207	-0.440
-613.273	-109.762	0.250	0.053
-612.259	-172.953	-0.112	0.003
-611.244	665.470	-0.043	-0.111
-610.230	-166.050	0.420	0.018
-609.215	-200.000	-0.001	0.158
-608.201	18.971	0.168	0.135
-607.186	-95.950	0.231	-0.062
-606.171	137.208	-0.168	-0.221
-605.157	24.014	0.104	0.086
-604.142	113.974	0.046	0.056
-603.128	-15.269	-0.158	0.102
-602.113	327.389	-0.063	-0.122
-601.098	800.000	-0.057	-0.209
-600.084	107.475	0.111	0.132
-599.069	33.620	-0.129	0.113
-598.055	-28.455	0.244	-0.141
-597.040	-26.444	0.190	-0.112
-596.025	-50.557	-0.097	-0.046
-595.011	33.542	-0.219	-0.191
-593.996	-122.291	0.187	0.031
-592.982	-66.129	0.410	-0.164
-591.967	-200.000	0.008	0.051
-590.952	-200.000	0.010	-0.108
-589.938	-200.000	-0.001	-0.114
-588.923	-200.000	0.015	-0.282
-587.909	-56.098	-0.217	-0.097
-586.894	168.485	0.128	0.183
-585.879	-200.000	-0.016	0.090
-584.865	74.107	0.304	0.321
-583.850	244.673	-0.217	-0.367
-582.836	378.831	-0.157	-0.323
-581.821	781.738	-0.018	0.050
-580.806	-200.000	-0.021	0.330
-579.792	-124.700	0.223	0.035
-578.777	487.459	-0.047	0.109
-577.763	442.351	-0.102	-0.225
-576.748	586.553	0.109	-0.271
-575.733	800.000	0.063	-0.190
-574.719	-200.000	0.069	0.398
-573.704	-200.000	0.031	0.215
-572.690	403.190	0.147	-0.311
-571.675	-56.566	0.131	0.059
-570.661	-200.000	0.015	-0.083
-569.646	12.895	-0.163	-0.127
-568.631	296.605	-0.059	0.108
-567.617	-29.070	0.125	-0.072
-566.602	-3.563	-0.237	-0.166
-565.588	-200.000	-0.026	-0.120
-564.573	-183.987	-0.282	0.005
-563.558	-119.938	-0.191	0.033
-562.544	-115.292	0.169	-0.032
-561.529	-115.691	-0.249	-0.047
-560.515	-127.361	-0.230	0.034
-559.500	-78.469	0.138	-0.047
-558.485	-200.000	-0.016	-0.071
-557.471	-200.000	0.002	0.101
-556.456	126.262	-0.118	-0.150
-555.442	-94.069	-0.416	-0.115
-554.427	369.785	-0.026	0.053
-553.412	-200.000	0.038	-0.180
-552.398	205.713	0.163	0.255
-551.383	-200.000	0.054	0.439
-550.369	-105.911	0.292	-0.066
-549.354	-200.000	0.035	-0.263
-548.339	800.000	-0.120	0.397
-547.325	800.000	-0.022	0.072
-546.310	236.073	0.041	-0.068
-545.296	-166.566	0.456	0.019
-544.281	228.934	-0.037	-0.060
-543.266	-129.278	-0.105	-0.015
-542.252	-26.115	-0.231	0.136
-541.237	-200.000	-0.004	0.165
-540.223	800.000	0.062	-0.223
-539.208	178.740	0.037	-0.054
-538.193	-20.340	-0.043	0.027
-537.179	800.000	0.051	-0.175
-536.164	50.117	0.258	-0.245
-535.150	-200.000	0.036	0.232
-534.135	-200.000	-0.010	-0.290
-533.121	-200.000	0.013	-0.183
-532.106	800.000	-0.062	-0.205
-531.091	-25.812	0.274	0.162
-530.077	-200.000	-0.022	0.281
-529.062	276.667	-0.071	0.127
-528.048	-200.000	0.016	0.072
-527.033	37.773	-0.213	0.190
-526.018	-44.676	-0.195	-0.098
-525.004	-77.050	0.121	-0.043
-523.989	-145.570	0.480	-0.043
-522.975	-107.714	-0.295	0.065
-521.960	10.684	-0.276	-0.212
-520.945	-200.000	-0.038	0.274
-519.931	-51.751	-0.109	0.051
-518.916	-87.392	0.329	0.100
-517.902	-124.164	0.229	0.036
-516.887	800.000	-0.034	0.100
-515.872	16.485	0.161	0.127
-514.858	-53.615	-0.157	0.072
-513.843	197.114	-0.104	0.159
-512.829	-118.022	0.188	0.034
-511.814	382.590	0.036	0.075
-510.799	-111.633	-0.269	-0.055
-509.785	269.454	0.017	-0.031
-508.770	27.191	-0.083	0.070
-507.756	-151.585	0.148	0.011
-506.741	-26.705	0.072	-0.043
-505.726	380.764	0.065	-0.134
-504.712	-130.852	0.532	-0.071
-503.697	95.507	0.035	-0.040
-502.683	-200.000	0.080	-0.371
-501.668	800.000	-0.044	-0.193
-500.653	-132.384	0.100	0.013
-499.639	581.560	-0.097	0.238
-498.624	-43.793	0.197	0.099
-497.610	-17.150	0.172	-0.109
-496.595	-115.555	-0.139	0.026
-495.581	-34.347	-0.253	-0.139
-494.566	-38.228	-0.246	-0.131
-493.551	-129.120	-0.134	0.019
-492.537	-145.646	-0.221	0.020
-491.522	38.229	0.190	0.169
-490.508	103.837	-0.165	0.194
-489.493	266.205	-0.117	0.204
-488.478	53.677	0.105	-0.101
-487.464	-169.090	-0.294	-0.011
-486.449	91.281	0.161	0.181
-485.435	800.000	0.046	0.193
-484.420	136.967	0.114	-0.150
-483.405	-135.494	-0.213	-0.025
-482.391	-200.000	0.007	0.089
-481.376	-152.552	-0.162	0.012
-480.362	216.298	-0.076	0.120
-479.347	-200.000	0.040	0.197
-478.332	71.988	0.113	0.118
-477.318	-25.008	0.158	0.094
-476.303	93.334	-0.135	-0.153
-475.289	49.796	0.207	-0.195
-474.274	97.219	-0.173	0.199
-473.259	800.000	0.012	-0.035
-472.245	-168.088	-0.188	-0.007
-471.230	800.000	-0.075	-0.237
-470.216	130.028	0.157	0.202
-469.201	201.524	-0.079	-0.121
-468.186	-200.000	0.046	-0.204
-467.172	319.918	0.123	0.234
-466.157	163.282	-0.122	0.172
-465.143	-54.921	0.191	0.086
-464.128	800.000	0.024	0.091
-463.113	-115.775	0.128	0.024
-462.099	420.112	0.029	0.061
-461.084	-133.422	-0.308	-0.039
-460.070	-102.781	0.318	0.076
-459.055	243.111	0.080	-0.135
-458.040	104.914	0.241	-0.285
-457.026	-200.000	0.035	0.158
-456.011	-130.306	0.363	-0.049
-454.997	-34.691	-0.266	0.145
-453.982	-133.278	-0.336	0.042
-452.968	-48.035	0.133	-0.064
-451.953	667.509	0.120	-0.309
-450.938	-120.835	0.170	-0.029
-449.924	-105.858	0.321	-0.072
-448.909	-200.000	0.011	0.187
-447.895	529.053	0.096	-0.228
-446.880	-35.769	-0.391	-0.212
-445.865	-200.000	0.020	0.224
-444.851	551.885	0.123	0.296
-443.836	89.257	0.171	-0.191
-442.822	189.302	-0.072	-0.108
-441.807	-139.086	-0.080	0.009
-440.792	73.051	-0.181	0.189
-439.778	368.228	-0.085	-0.172
-438.763	-31.700	-0.074	-0.041
-437.749	-37.623	0.220	-0.117
-436.734	255.529	-0.061	0.104
-435.719	43.590	-0.181	0.165
-434.705	-66.555	-0.213	0.085
-433.690	-30.221	-0.284	0.161
-432.676	-156.242	-0.140	0.009
-431.661	184.564	-0.248	0.368
-430.646	-200.000	0.004	0.109
-429.632	-200.000	-0.020	0.205
-428.617	-72.861	-0.050	-0.018
-427.603	800.000	-0.063	0.274
-426.588	-200.000	0.033	-0.167
-425.573	-200.000	-0.011	0.115
-424.559	-12.818	-0.159	-0.104
-423.544	-66.841	-0.308	0.122
-422.530	-109.322	0.051	0.011
-421.515	126.819	0.011	0.014
-420.500	631.641	-0.085	-0.215
-419.486	59.570	-0.154	0.151
-418.471	-200.000	-0.035	0.186
-417.457	-200.000	-0.018	0.155
-416.442	100.721	-0.233	-0.271
-415.428	-75.632	-0.206	0.073
-414.413	141.276	-0.255	-0.337
-413.398	800.000	0.106	-0.445
-412.384	-63.766	-0.198	-0.081
-411.369	-93.543	0.077	0.021
-410.355	-118.064	-0.313	0.056
-409.340	800.000	-0.088	0.264
-408.325	94.767	0.306	0.347
-407.311	386.353	0.025	0.052
-406.296	800.000	0.069	-0.235
-405.282	-99.472	-0.261	0.066
-404.267	-125.285	-0.198	0.030
-403.252	20.490	0.217	-0.176
-402.238	-133.654	-0.300	0.037
-401.223	-103.831	-0.248	-0.058
-400.209	-105.146	-0.234	0.053
-399.194	800.000	-0.047	0.155
-398.179	92.844	-0.080	-0.090
-397.165	457.741	0.045	-0.099
-396.150	-172.563	0.320	-0.010
-395.136	26.433	-0.191	-0.160
-394.121	74.716	-0.226	-0.237
-393.106	31.940	0.118	0.101
-392.092	-200.000	-0.029	-0.382
-391.077	800.000	-0.098	-0.423
-390.063	-190.098	0.241	0.003
-389.048	785.242	-0.125	0.343
-388.033	54.927	-0.225	-0.217
-387.019	154.878	0.143	0.196
-386.004	52.160	-0.177	-0.168
-384.990	-30.576	0.305	0.172
-383.975	-5.791	0.338	0.231
-382.960	-200.000	-0.004	-0.136
-381.946	-200.000	0.003	0.094
-380.931	-163.432	0.255	0.012
-379.917	25.763	-0.158	0.132
-378.902	-41.077	0.173	0.089
-377.888	96.695	-0.103	-0.118
-376.873	61.444	-0.114	0.113
-375.858	-26.800	-0.187	0.109
-374.844	-120.328	0.400	-0.068
-373.829	304.935	0.073	0.136
-372.815	-75.434	0.345	-0.123
-371.800	-13.860	-0.054	0.035
-370.785	73.429	0.135	0.141
-369.771	50.029	-0.182	-0.171
-368.756	-115.683	-0.071	-0.013
-367.742	-62.255	-0.337	0.140
-366.727	-100.497	0.096	0.024
-365.712	-161.745	0.468	0.024
-364.698	-200.000	-0.044	-0.356
-363.683	-200.000	0.041	-0.235
-362.669	9.471	0.106	-0.080
-361.654	-200.000	0.001	0.117
-360.639	800.000	-0.014	-0.040
-359.625	183.835	-0.124	-0.183
-358.610	-143.519	0.204	-0.019
-357.596	118.962	0.101	0.125
-356.581	216.281	-0.183	-0.289
-355.566	444.580	0.074	-0.163
-354.552	800.000	-0.029	-0.111
-353.537	27.651	-0.110	0.092
-352.523	353.324	-0.192	-0.380
-351.508	123.420	-0.156	0.195
-350.493	-200.000	0.014	0.191
-349.479	-95.112	-0.163	0.044
-348.464	-92.002	0.203	-0.057
-347.450	111.104	-0.276	0.331
-346.435	361.411	-0.155	-0.310
-345.420	46.666	0.302	-0.279
-344.406	72.412	-0.169	0.176
-343.391	-13.866	0.246	0.158
-342.377	629.879	-0.139	0.349
-341.362	-200.000	-0.030	0.280
-340.348	-18.408	0.200	-0.124
-339.333	-200.000	-0.009	-0.072
-338.318	-191.004	-0.179	0.002
-337.304	134.673	0.175	-0.227
-336.289	-35.157	-0.078	-0.042
-335.275	107.319	0.341	-0.404
-334.260	-30.170	-0.145	0.082
-333.245	-12.423	-0.123	0.080
-332.231	-180.768	0.465	-0.009
-331.216	-45.326	0.244	-0.121
-330.202	-74.972	-0.274	-0.098
-329.187	-200.000	0.008	-0.184
-328.172	437.785	0.155	-0.337
-327.158	-101.660	-0.297	-0.072
-326.143	-14.039	0.300	-0.193
-325.129	73.574	0.198	-0.206
-324.114	363.550	0.107	0.214
-323.099	95.936	-0.058	0.067
-322.085	537.435	0.042	0.099
-321.070	122.513	-0.275	0.342
-320.056	-200.000	0.021	-0.244
-319.041	80.365	-0.112	0.120
-318.026	-117.448	-0.211	0.038
-317.012	-161.205	0.132	0.007
-315.997	22.614	-0.279	-0.228
-314.983	423.295	0.029	0.062
-313.968	-180.268	0.110	-0.002
-312.953	20.879	0.220	-0.178
-311.939	189.716	0.032	0.048
-310.924	-200.000	0.051	0.392
-309.910	-34.871	0.106	-0.057
-308.895	-58.785	0.119	-0.051
-307.880	-200.000	0.026	-0.179
-306.866	-102.164	-0.079	0.019
-305.851	-52.139	-0.305	0.141
-304.837	-200.000	-0.015	-0.125
-303.822	-200.000	-0.043	-0.211
-302.807	-59.457	0.118	-0.050
-301.793	-92.586	-0.260	0.073
-300.778	239.888	0.144	-0.239
-299.764	-36.586	0.044	0.023
-298.749	-55.020	0.054	0.024
-297.735	-85.827	0.116	-0.036
-296.720	15.089	0.113	0.088
-295.705	518.415	0.077	0.179
-294.691	-120.694	-0.513	0.086
-293.676	228.051	-0.138	-0.224
-292.662	-109.708	0.438	0.092
-291.647	-5.290	-0.206	-0.141
-290.632	-200.000	-0.005	-0.150
-289.618	26.780	0.059	-0.049
-288.603	56.240	0.299	-0.289
-287.589	-200.000	0.005	-0.341
-286.574	-21.010	0.366	0.223
-285.559	79.466	-0.150	0.160
-284.545	67.353	-0.167	0.170
-283.530	11.745	0.130	0.099
-282.516	196.672	-0.305	0.461
-281.501	0.303	-0.154	0.109
-280.486	-166.877	0.371	0.015
-279.472	-62.300	-0.159	-0.066
-278.457	-118.772	-0.367	0.064
-277.443	-61.092	-0.367	0.154
-276.428	81.424	-0.046	0.049
-275.413	138.280	-0.049	-0.064
-274.399	-88.345	-0.234	0.069
-273.384	69.975	0.048	-0.049
-272.370	-53.052	-0.355	0.162
-271.355	-200.000	0.034	-0.240
-270.340	800.000	0.037	-0.106
-269.326	86.638	-0.127	-0.139
-268.311	-13.218	-0.090	-0.058
-267.297	-148.432	-0.296	-0.024
-266.282	-200.000	-0.038	-0.211
-265.267	84.765	-0.017	0.018
-264.253	800.000	0.081	0.280
-263.238	297.534	0.106	0.193
-262.224	-159.425	0.254	-0.014
-261.209	-43.881	-0.131	0.065
-260.195	-85.587	0.456	-0.141
-259.180	-200.000	0.017	0.253
-258.165	-119.796	0.158	0.027
-257.151	202.926	0.225	0.345
-256.136	-135.508	0.070	-0.008
-255.122	89.525	0.133	-0.147
-254.107	128.413	-0.275	0.348
-253.092	-200.000	0.058	0.347
-252.078	689.933	-0.074	-0.193
-251.063	-64.330	-0.105	-0.042
-250.049	800.000	0.102	-0.320
-249.034	150.774	0.071	-0.096
-248.019	800.000	-0.078	-0.285
-247.005	-113.739	0.275	0.053
-245.990	-97.366	0.216	0.056
-244.976	-56.799	-0.178	-0.078
-243.961	-53.230	-0.023	0.011
-242.946	-200.000	0.017	0.103
-241.932	162.591	-0.263	0.366
-240.917	-75.517	-0.260	0.092
-239.903	-196.869	0.295	-0.002
-238.888	52.809	-0.064	0.061
-237.873	119.266	-0.143	-0.176
-236.859	-200.000	-0.004	-0.063
-235.844	-90.511	-0.117	-0.034
-234.830	-145.912	-0.357	-0.031
-233.815	82.111	-0.175	0.189
-232.800	-100.028	-0.135	-0.033
-231.786	-96.189	0.281	0.074
-230.771	236.169	-0.128	-0.210
-229.757	36.235	-0.094	0.082
-228.742	-71.912	-0.177	0.065
-227.727	-89.831	-0.080	0.023
-226.713	68.366	0.065	-0.066
-225.698	198.504	0.150	0.227
-224.684	-40.411	0.158	0.081
-223.669	-170.549	0.280	0.010
-222.655	244.116	-0.091	-0.151
-221.640	304.714	-0.089	-0.163
-220.625	-111.267	-0.179	0.036
-219.611	800.000	0.055	-0.210
-218.596	304.958	0.141	-0.259
-217.582	-200.000	0.003	0.034
-216.567	-155.948	0.192	-0.012
-215.552	800.000	0.099	0.366
-214.538	800.000	-0.021	-0.071
-213.523	800.000	-0.047	-0.165
-212.509	-154.804	-0.103	0.007
-211.494	-200.000	0.013	0.331
-210.479	-54.715	0.271	-0.121
-209.465	-200.000	-0.000	-0.095
-208.450	-200.000	0.019	0.089
-207.436	34.762	-0.119	-0.103
-206.421	-149.985	-0.301	-0.023
-205.406	-200.000	0.056	-0.295
-204.392	79.593	-0.236	-0.251
-203.377	105.040	-0.003	-0.004
-202.363	-200.000	0.007	-0.087
-201.348	-97.009	0.204	0.053
-200.333	550.560	0.155	0.368
-199.319	64.125	-0.052	-0.052
-198.304	62.557	0.162	0.160
-197.290	763.298	-0.083	0.224
-196.275	-200.000	-0.004	0.180
-195.260	667.275	-0.066	-0.168
-194.246	-34.138	-0.141	-0.077
-193.231	-21.152	0.020	-0.012
-192.217	146.122	-0.174	0.231
-191.202	-21.707	0.352	0.212
-190.187	800.000	0.032	0.096
-189.173	402.829	-0.090	0.187
-188.158	628.622	0.080	0.200
-187.144	256.562	0.282	-0.479
-186.129	800.000	-0.039	-0.159
-185.114	-200.000	0.095	-0.417
-184.100	-200.000	0.072	0.317
-183.085	-73.694	-0.224	-0.081
-182.071	68.410	-0.059	0.060
-181.056	-120.858	0.269	0.045
-180.042	-99.349	-0.158	-0.040
-179.027	-110.077	0.422	-0.087
-178.012	135.886	-0.142	0.183
-176.998	-38.773	-0.138	0.072
-175.983	-35.276	-0.189	-0.102
-174.969	-31.065	0.182	-0.101
-173.954	-62.942	-0.153	-0.062
-172.939	-145.676	0.479	0.042
-171.925	-66.750	0.249	-0.098
-170.910	-200.000	-0.018	0.180
-169.896	734.103	-0.049	0.130
-168.881	160.214	0.126	0.174
-167.866	-92.734	0.329	-0.091
-166.852	-50.944	0.151	0.070
-165.837	138.179	-0.145	0.188
-164.823	43.639	-0.139	0.126
-163.808	800.000	0.027	0.097
-162.793	119.370	-0.194	-0.237
-161.779	413.269	0.141	-0.297
-160.764	178.595	-0.080	-0.116
-159.750	-200.000	-0.010	-0.241
-158.735	116.773	-0.162	0.196
-157.720	-66.370	0.415	-0.163
-156.706	-200.000	-0.002	0.087
-155.691	-151.734	-0.130	0.009
-154.677	-138.430	-0.117	0.013
-153.662	-123.645	0.342	0.054
-152.647	-127.473	-0.063	-0.009
-151.633	4.783	-0.088	0.064
-150.618	800.000	-0.032	-0.103
-149.604	628.330	-0.048	-0.119
-148.589	-55.712	0.259	-0.115
-147.574	-52.815	-0.217	-0.099
-146.560	37.934	0.195	0.171
-145.545	800.000	-0.110	-0.341
-144.531	33.736	0.366	0.315
-143.516	-59.498	0.344	-0.146
-142.502	209.261	-0.093	-0.144
-141.487	-106.514	0.369	0.081
-140.472	157.087	0.117	-0.160
-139.458	134.187	0.163	0.209
-138.443	64.997	0.161	0.160
-137.429	-45.513	0.110	0.054
-136.414	47.281	0.222	-0.204
-135.399	-13.780	0.359	-0.229
-134.385	-187.440	-0.044	-0.001
-133.370	800.000	-0.097	0.326
-132.356	800.000	0.027	-0.096
-131.341	-3.186	-0.123	-0.085
-130.326	-157.861	-0.079	0.005
-129.312	55.942	-0.050	-0.048
-128.297	32.596	-0.083	-0.070
-127.283	274.130	-0.206	-0.360
-126.268	-11.886	0.297	0.192
-125.253	-200.000	0.011	0.081
-124.239	-50.559	-0.227	0.106
-123.224	-176.827	0.329	0.008
-122.210	-63.668	-0.154	0.062
