DTS Sentinel unit serial number:	SN413079Multiplexer serial number:	ORYXHardware model number:	OX4-SRSoftware version number:	ORYX F/W v4.00 Oryx Data Collector v3.7.2.0data status	okinstallation	princeton_trtdifferential loss correction	single-endedforward channel	channel 3reverse channel	N/Adate	2019/09/15time	12:08:34forward acquisition time	60.00reverse acquisition time	0.00gamma	496.2192k internal	0.2305k external	0.2305temperature offset calibration	0.9969default loss term (dB/km)	0.3790temperature slope calibration	1.0000multiplexer offset coefficient	1.0000multiplexer slope coefficient	1.0000fibre end	0.00T internal ref (°C)	34.53T ext. ref 1 (°C)	5.03T ext. ref 2 (°C)	30.87length (m)	temperature (°C)	Stokes	anti-Stokes-747.200	58.589	-0.154	0.154
-746.185	273.159	-0.133	0.240
-745.171	316.798	0.020	0.039
-744.156	306.482	-0.084	0.158
-743.142	-200.000	0.061	-0.383
-742.127	22.996	-0.336	0.281
-741.112	-200.000	-0.002	-0.109
-740.098	800.000	0.152	0.483
-739.083	800.000	0.096	-0.273
-738.069	110.771	-0.344	0.421
-737.054	-194.402	-0.185	-0.002
-736.039	-99.880	-0.520	0.132
-735.025	89.491	-0.164	-0.186
-734.010	221.947	-0.146	0.238
-732.996	101.767	0.166	-0.198
-731.981	126.293	-0.156	-0.201
-730.966	-7.641	0.329	-0.226
-729.952	-65.785	-0.030	-0.012
-728.937	535.974	-0.169	0.408
-727.923	-73.126	0.342	0.128
-726.908	177.144	-0.224	0.332
-725.894	-200.000	-0.000	-0.233
-724.879	-200.000	-0.039	-0.480
-723.864	-200.000	-0.004	-0.027
-722.850	-131.729	0.155	-0.021
-721.835	-200.000	0.000	0.131
-720.821	80.325	0.283	-0.310
-719.806	-125.335	-0.201	-0.031
-718.791	-61.596	-0.103	-0.044
-717.777	800.000	-0.039	0.120
-716.762	-40.500	-0.335	0.177
-715.748	512.166	-0.095	0.225
-714.733	293.482	0.214	0.398
-713.718	-200.000	-0.024	-0.252
-712.704	-200.000	-0.025	-0.228
-711.689	748.894	-0.120	0.330
-710.675	-26.277	0.480	0.287
-709.660	33.209	-0.142	0.125
-708.645	-17.200	0.239	0.153
-707.631	330.399	0.044	-0.086
-706.616	228.272	-0.010	-0.016
-705.602	-160.024	-0.056	-0.003
-704.587	-85.697	-0.336	0.106
-703.572	-200.000	0.003	-0.136
-702.558	392.040	-0.096	-0.203
-701.543	-73.150	0.142	-0.053
-700.529	-89.728	0.113	0.033
-699.514	314.525	-0.061	0.116
-698.499	158.461	-0.128	-0.180
-697.485	-121.515	-0.322	0.054
-696.470	115.987	-0.169	0.210
-695.456	629.187	0.035	0.090
-694.441	93.901	-0.130	-0.150
-693.426	194.573	-0.046	-0.071
-692.412	121.783	0.150	-0.190
-691.397	-200.000	0.008	-0.041
-690.383	308.144	-0.063	-0.120
-689.368	-55.062	0.104	-0.047
-688.354	-83.069	-0.258	-0.084
-687.339	-49.092	-0.033	-0.016
-686.324	-200.000	0.037	-0.240
-685.310	469.991	0.040	-0.090
-684.295	-48.975	-0.125	-0.061
-683.281	-92.690	-0.141	0.040
-682.266	14.744	-0.218	-0.173
-681.251	133.694	-0.111	0.146
-680.237	60.985	-0.243	0.245
-679.222	156.388	0.138	0.193
-678.208	80.490	0.240	0.262
-677.193	185.442	0.069	-0.103
-676.178	359.568	0.125	0.253
-675.164	800.000	0.068	-0.215
-674.149	-60.926	0.083	-0.036
-673.135	-200.000	0.039	-0.199
-672.120	-200.000	0.006	0.065
-671.105	-10.223	-0.402	0.271
-670.091	-70.872	-0.353	-0.135
-669.076	282.692	-0.179	-0.326
-668.062	214.934	0.043	0.070
-667.047	34.005	0.091	-0.081
-666.032	116.138	-0.181	-0.225
-665.018	-200.000	-0.032	-0.341
-664.003	-80.846	-0.278	-0.094
-662.989	-79.216	-0.195	-0.067
-661.974	467.463	-0.112	0.254
-660.959	148.810	0.171	0.234
-659.945	1.651	-0.271	0.198
-658.930	-132.946	0.027	-0.004
-657.916	16.441	0.146	-0.117
-656.901	800.000	0.081	-0.231
-655.886	120.754	-0.081	-0.102
-654.872	518.726	0.074	0.175
-653.857	-145.809	0.089	-0.008
-652.843	-65.000	-0.262	0.107
-651.828	17.946	0.241	-0.195
-650.814	800.000	-0.086	-0.263
-649.799	800.000	0.032	-0.120
-648.784	38.281	0.149	-0.135
-647.770	16.319	0.068	-0.054
-646.755	-80.171	-0.165	0.056
-645.741	71.606	0.160	-0.169
-644.726	682.591	-0.072	0.189
-643.711	-36.446	0.124	0.068
-642.697	-39.383	0.216	-0.115
-641.682	-0.516	-0.176	0.127
-640.668	3.166	-0.007	-0.005
-639.653	53.938	0.155	0.151
-638.638	471.126	0.174	-0.397
-637.624	-26.888	0.139	0.082
-636.609	-102.306	-0.340	-0.083
-635.595	-25.169	-0.213	-0.128
-634.580	78.499	0.156	-0.169
-633.565	675.948	-0.036	0.094
-632.551	197.096	0.047	0.072
-631.536	-200.000	-0.071	-0.436
-630.522	373.856	-0.031	-0.065
-629.507	-52.247	0.074	-0.035
-628.492	-118.006	-0.123	0.022
-627.478	-156.788	-0.240	-0.015
-626.463	-14.135	-0.041	0.027
-625.449	-200.000	-0.015	-0.106
-624.434	138.787	0.043	0.057
-623.419	-200.000	0.046	-0.236
-622.405	147.366	-0.022	0.030
-621.390	800.000	0.075	-0.314
-620.376	800.000	0.025	-0.077
-619.361	-112.200	-0.368	-0.075
-618.346	-6.259	-0.154	0.107
-617.332	-135.215	-0.171	-0.021
-616.317	-102.169	0.299	0.073
-615.303	10.672	0.007	0.005
-614.288	-33.982	-0.404	-0.225
-613.273	-200.000	-0.036	0.207
-612.259	9.267	-0.063	-0.048
-611.244	-40.590	-0.144	-0.076
-610.230	-39.350	-0.410	0.218
-609.215	-135.867	-0.167	-0.020
-608.201	100.218	-0.150	-0.176
-607.186	138.673	0.235	-0.312
-606.171	79.374	-0.289	-0.314
-605.157	185.978	0.124	0.187
-604.142	212.217	-0.085	0.135
-603.128	-61.806	-0.075	0.032
-602.113	541.372	-0.058	-0.141
-601.098	-200.000	-0.023	-0.212
-600.084	-174.744	0.245	0.007
-599.069	-200.000	-0.001	-0.367
-598.055	-200.000	-0.018	-0.202
-597.040	2.173	-0.102	-0.074
-596.025	795.845	0.031	-0.085
-595.011	114.731	0.069	-0.085
-593.996	-62.468	-0.306	0.129
-592.982	117.800	-0.056	-0.070
-591.967	81.138	0.135	-0.148
-590.952	-200.000	-0.025	0.307
-589.938	800.000	0.065	0.247
-588.923	-200.000	-0.034	0.246
-587.909	506.226	-0.133	-0.312
-586.894	-49.320	-0.185	0.090
-585.879	-200.000	-0.012	0.247
-584.865	-146.334	0.226	-0.020
-583.850	-160.304	-0.198	-0.011
-582.836	-4.336	0.110	-0.077
-581.821	202.182	0.026	0.040
-580.806	26.619	-0.165	-0.140
-579.792	189.973	-0.163	-0.248
-578.777	-128.665	-0.071	-0.010
-577.763	-200.000	0.001	-0.114
-576.748	169.167	-0.167	0.241
-575.733	-116.158	0.144	0.027
-574.719	241.218	-0.115	-0.195
-573.704	57.616	0.043	-0.043
-572.690	-160.097	-0.251	-0.014
-571.675	800.000	0.035	0.129
-570.661	557.620	0.078	-0.191
-569.646	-200.000	0.002	-0.041
-568.631	226.657	0.258	0.424
-567.617	-200.000	-0.038	0.422
-566.602	-94.362	0.187	0.052
-565.588	-51.004	0.214	-0.101
-564.573	-200.000	-0.022	0.127
-563.558	63.624	-0.075	0.076
-562.544	166.938	-0.093	0.133
-561.529	-63.457	-0.285	0.119
-560.515	338.428	-0.070	-0.138
-559.500	-142.169	-0.216	-0.022
-558.485	783.820	0.135	0.373
-557.471	-127.829	-0.204	-0.030
-556.456	-136.250	0.051	0.006
-555.442	187.644	-0.165	-0.249
-554.427	-30.548	0.154	0.088
-553.412	340.684	0.068	-0.134
-552.398	293.964	-0.069	-0.127
-551.383	478.336	-0.101	-0.231
-550.369	338.878	-0.150	0.296
-549.354	175.473	-0.091	0.134
-548.339	-200.000	-0.060	0.268
-547.325	50.381	-0.075	-0.072
-546.310	-190.023	0.155	0.002
-545.296	-200.000	-0.023	-0.117
-544.281	-24.798	0.070	-0.042
-543.266	-64.808	-0.234	0.096
-542.252	585.887	-0.108	0.267
-541.237	800.000	0.048	0.196
-540.223	225.814	0.174	-0.285
-539.208	-52.851	-0.252	0.117
-538.193	78.298	0.268	0.289
-537.179	66.299	-0.163	-0.167
-536.164	-200.000	0.009	0.459
-535.150	-63.202	-0.209	-0.087
-534.135	15.422	-0.355	0.281
-533.121	-144.078	-0.147	-0.014
-532.106	267.919	0.007	-0.012
-531.091	114.815	0.136	-0.167
-530.077	-166.143	-0.444	-0.019
-529.062	-200.000	0.010	0.100
-528.048	-200.000	0.030	0.224
-527.033	19.044	0.176	-0.142
-526.018	-200.000	-0.002	-0.022
-525.004	118.739	0.138	0.173
-523.989	-200.000	0.039	0.247
-522.975	-163.723	-0.241	0.011
-521.960	-163.607	0.286	0.014
-520.945	-200.000	0.029	0.343
-519.931	-30.586	-0.307	0.175
-518.916	35.370	-0.254	0.225
-517.902	119.359	-0.274	-0.342
-516.887	-61.710	-0.191	-0.081
-515.872	-200.000	-0.005	0.042
-514.858	-200.000	-0.044	0.313
-513.843	-122.652	0.403	0.066
-512.829	394.563	-0.085	-0.178
-511.814	-87.544	-0.202	-0.062
-510.799	188.704	-0.089	-0.135
-509.785	769.213	0.105	-0.289
-508.770	-200.000	0.023	-0.185
-507.756	-200.000	0.017	-0.132
-506.741	800.000	0.093	-0.341
-505.726	800.000	-0.064	0.203
-504.712	-93.261	0.158	-0.044
-503.697	-130.283	0.037	-0.005
-502.683	-151.671	0.155	-0.012
-501.668	53.003	-0.186	-0.180
-500.653	564.737	-0.058	-0.142
-499.639	-104.619	-0.198	0.046
-498.624	-66.692	0.157	-0.063
-497.610	-50.836	-0.222	-0.105
-496.595	46.458	-0.269	0.251
-495.581	3.376	0.101	-0.074
-494.566	800.000	-0.035	-0.152
-493.551	94.524	-0.039	0.045
-492.537	202.251	0.089	-0.138
-491.522	15.573	0.154	-0.122
-490.508	-63.123	0.413	0.172
-489.493	800.000	0.049	0.206
-488.478	800.000	0.125	-0.507
-487.464	800.000	0.089	-0.369
-486.449	251.895	0.042	0.072
-485.435	45.169	0.076	-0.070
-484.420	350.976	-0.055	0.109
-483.405	-200.000	0.054	0.277
-482.391	-150.108	0.199	-0.016
-481.376	235.128	-0.085	0.142
-480.362	-105.885	0.118	0.027
-479.347	800.000	-0.084	-0.333
-478.332	-22.633	0.217	-0.132
-477.318	-58.476	0.020	-0.009
-476.303	26.691	0.114	0.096
-475.289	70.875	0.119	-0.124
-474.274	-200.000	-0.022	-0.249
-473.259	-200.000	-0.019	-0.118
-472.245	-13.976	-0.086	-0.056
-471.230	-200.000	-0.043	0.376
-470.216	164.193	-0.193	0.275
-469.201	42.801	0.057	0.052
-468.186	420.430	-0.085	0.184
-467.172	575.866	0.083	0.204
-466.157	-139.567	0.110	-0.012
-465.143	-200.000	-0.054	-0.282
-464.128	800.000	0.086	-0.273
-463.113	-165.290	0.066	0.003
-462.099	-74.340	0.190	-0.069
-461.084	272.137	-0.190	-0.337
-460.070	-200.000	0.011	-0.087
-459.055	153.140	-0.123	-0.170
-458.040	461.090	0.068	-0.153
-457.026	-65.112	0.161	-0.065
-456.011	614.363	0.072	-0.181
-454.997	-200.000	0.013	-0.122
-453.982	-90.053	-0.241	-0.071
-452.968	-63.402	-0.237	-0.098
-451.953	-50.953	0.142	-0.067
-450.938	-200.000	0.032	-0.189
-449.924	317.041	-0.141	0.268
-448.909	-11.729	-0.025	-0.017
-447.895	-35.369	-0.252	-0.138
-446.880	742.400	0.040	0.107
-445.865	-200.000	-0.044	0.269
-444.851	-69.957	0.036	0.014
-443.836	160.432	0.263	-0.370
-442.822	-12.742	0.249	-0.163
-441.807	-39.903	0.184	-0.097
-440.792	-28.683	0.132	0.077
-439.778	552.387	0.081	0.195
-438.763	63.962	0.318	0.321
-437.749	-200.000	-0.003	0.035
-436.734	-200.000	0.014	0.101
-435.719	-96.561	-0.306	0.081
-434.705	-158.636	-0.351	0.020
-433.690	-123.312	-0.263	0.042
-432.676	800.000	-0.048	-0.135
-431.661	800.000	-0.049	0.198
-430.646	-200.000	-0.001	0.207
-429.632	-142.354	-0.362	0.036
-428.617	453.174	-0.181	-0.402
-427.603	-200.000	-0.029	0.212
-426.588	220.482	0.027	0.043
-425.573	-66.772	-0.446	-0.178
-424.559	-200.000	0.058	-0.366
-423.544	-36.545	-0.214	0.116
-422.530	140.406	0.083	0.110
-421.515	800.000	0.180	0.628
-420.500	-55.302	-0.192	-0.087
-419.486	-200.000	-0.000	-0.085
-418.471	800.000	0.077	-0.256
-417.457	-32.700	0.285	-0.159
-416.442	800.000	0.119	0.330
-415.428	10.360	0.227	0.174
-414.413	-20.690	-0.225	-0.139
-413.398	-113.751	-0.098	-0.019
-412.384	66.013	-0.030	-0.030
-411.369	-115.562	-0.272	-0.051
-410.355	38.470	0.069	0.062
-409.340	55.599	0.082	0.080
-408.325	8.591	-0.153	0.115
-407.311	-200.000	0.015	-0.210
-406.296	97.615	-0.150	0.173
-405.282	800.000	0.061	0.206
-404.267	-200.000	-0.058	0.275
-403.252	800.000	-0.046	-0.192
-402.238	-130.849	0.167	0.023
-401.223	115.408	-0.062	0.076
-400.209	-187.789	-0.510	-0.007
-399.194	138.542	-0.124	-0.164
-398.179	-149.073	0.207	0.017
-397.165	-160.386	0.302	-0.016
-396.150	-104.661	-0.256	0.059
-395.136	-82.192	-0.414	0.135
-394.121	800.000	0.022	-0.095
-393.106	-167.201	0.260	0.011
-392.092	216.457	0.208	-0.332
-391.077	-23.956	0.191	-0.114
-390.063	361.900	0.148	0.298
-389.048	-200.000	0.012	0.106
-388.033	31.804	0.198	-0.171
-387.019	800.000	-0.094	0.300
-386.004	7.756	0.091	0.069
-384.990	-74.654	0.249	0.090
-383.975	329.356	-0.059	0.114
-382.960	-200.000	-0.022	-0.115
-381.946	62.203	-0.050	0.050
-380.931	166.634	-0.231	0.329
-379.917	800.000	-0.126	0.495
-378.902	60.640	-0.221	0.220
-377.888	481.661	-0.106	-0.241
-376.873	-77.038	0.216	-0.075
-375.858	-5.658	0.028	0.020
-374.844	-38.633	-0.370	-0.196
-373.829	130.280	0.078	0.100
-372.815	-200.000	-0.098	-0.488
-371.800	-200.000	0.036	0.213
-370.785	-200.000	-0.020	0.297
-369.771	109.602	-0.271	-0.326
-368.756	-101.475	0.026	-0.006
-367.742	800.000	0.047	-0.197
-366.727	173.618	0.044	0.063
-365.712	-81.840	-0.138	-0.045
-364.698	-12.655	0.222	0.145
-363.683	209.836	-0.086	0.135
-362.669	83.118	-0.260	-0.284
-361.654	150.600	-0.258	-0.352
-360.639	-12.064	0.100	-0.066
-359.625	-101.188	-0.222	-0.054
-358.610	-200.000	-0.004	0.313
-357.596	-164.954	-0.235	0.010
-356.581	54.069	-0.004	-0.004
-355.566	12.897	-0.281	0.218
-354.552	-200.000	0.003	-0.066
-353.537	-121.017	0.301	0.051
-352.523	800.000	-0.044	-0.123
-351.508	-12.522	-0.281	-0.184
-350.493	107.887	0.185	-0.220
-349.479	449.275	-0.139	-0.307
-348.464	-153.010	-0.187	0.013
-347.450	-200.000	-0.005	0.139
-346.435	800.000	0.022	0.062
-345.420	-200.000	-0.031	-0.190
-344.406	95.008	0.148	0.168
-343.391	-46.568	-0.317	-0.156
-342.377	187.673	0.191	-0.286
-341.362	1.554	0.213	-0.154
-340.348	-200.000	-0.004	0.221
-339.333	-200.000	0.069	0.501
-338.318	-78.783	0.215	0.073
-337.304	800.000	-0.095	0.321
-336.289	22.097	0.219	0.179
-335.275	800.000	0.074	0.256
-334.260	-200.000	0.011	0.091
-333.245	-76.997	-0.034	-0.012
-332.231	-28.604	0.248	0.143
-331.216	14.152	-0.160	0.125
-330.202	-200.000	0.036	0.256
-329.187	-124.058	0.235	0.037
-328.172	8.848	0.061	-0.046
-327.158	14.703	-0.129	-0.101
-326.143	-200.000	0.000	0.144
-325.129	57.122	-0.136	0.133
-324.114	-39.764	-0.129	0.068
-323.099	79.519	-0.219	-0.236
-322.085	-31.194	0.362	-0.204
-321.070	120.044	0.137	-0.170
-320.056	564.974	-0.097	0.234
-319.041	-125.277	-0.294	0.045
-318.026	800.000	0.151	-0.492
-317.012	-200.000	-0.022	-0.157
-315.997	414.115	0.100	-0.214
-314.983	65.635	-0.167	0.169
-313.968	343.982	-0.081	0.158
-312.953	41.644	0.113	-0.103
-311.939	-200.000	-0.003	-0.179
-310.924	16.850	-0.101	-0.080
-309.910	120.868	0.142	-0.176
-308.895	-192.216	0.190	-0.002
-307.880	153.829	0.102	0.140
-306.866	-69.691	0.126	0.048
-305.851	207.398	0.081	-0.127
-304.837	307.693	-0.093	-0.174
-303.822	800.000	0.059	-0.249
-302.807	152.932	0.136	-0.186
-301.793	22.688	0.152	-0.125
-300.778	-54.047	-0.200	0.091
-299.764	-138.330	0.192	-0.021
-298.749	-32.992	0.124	0.069
-297.735	-39.706	0.113	0.059
-296.720	28.161	0.237	-0.200
-295.705	-62.470	-0.161	0.067
-294.691	87.813	-0.152	-0.168
-293.676	-69.847	0.177	0.067
-292.662	-68.670	0.268	-0.104
-291.647	-168.975	0.207	0.008
-290.632	759.545	0.149	0.405
-289.618	127.965	0.131	0.166
-288.603	-135.968	0.124	-0.015
-287.589	-5.405	0.166	-0.114
-286.574	31.922	-0.124	-0.107
-285.559	30.457	0.143	-0.122
-284.545	800.000	0.091	0.396
-283.530	161.008	0.069	-0.096
-282.516	8.257	0.326	0.245
-281.501	115.341	0.189	0.230
-280.486	800.000	0.040	-0.158
-279.472	6.574	0.162	-0.121
-278.457	-11.235	-0.131	0.086
-277.443	376.661	-0.057	0.116
-276.428	23.003	0.169	0.138
-275.413	123.481	-0.255	-0.319
-274.399	270.238	0.088	-0.154
-273.384	800.000	-0.073	0.277
-272.370	376.637	0.040	-0.082
-271.355	-123.414	-0.388	0.062
-270.340	268.671	0.211	-0.370
-269.326	118.632	-0.036	-0.045
-268.311	800.000	0.044	-0.174
-267.297	80.428	0.077	-0.083
-266.282	-102.469	0.057	-0.014
-265.267	800.000	-0.092	0.282
-264.253	-127.368	0.207	0.030
-263.238	-50.121	-0.155	0.073
-262.224	146.949	0.044	0.059
-261.209	800.000	-0.044	0.148
-260.195	-77.938	0.146	-0.050
-259.180	-73.972	0.148	-0.054
-258.165	-49.706	0.207	-0.098
-257.151	-17.730	-0.372	0.233
-256.136	65.603	-0.182	-0.184
-255.122	-5.774	0.226	-0.154
-254.107	-48.128	0.210	-0.101
-253.092	-67.260	-0.060	0.024
-252.078	800.000	-0.023	0.083
-251.063	519.241	0.177	0.413
-250.049	101.670	-0.046	0.053
-249.034	-36.236	0.189	0.102
-248.019	13.792	0.326	0.253
-247.005	-22.989	0.213	0.128
-245.990	188.452	0.056	-0.084
-244.976	-52.989	-0.393	0.181
-243.961	455.821	-0.086	-0.191
-242.946	-200.000	-0.088	-0.395
-241.932	1.173	-0.123	0.088
-240.917	78.365	-0.286	-0.305
-239.903	-103.925	-0.175	-0.041
-238.888	-61.882	0.248	-0.103
-237.873	-57.016	0.125	0.055
-236.859	333.773	0.103	0.198
-235.844	-200.000	0.009	0.123
-234.830	154.360	-0.065	0.089
-233.815	-139.513	0.187	0.020
-232.800	-54.260	0.135	0.061
-231.786	118.229	0.278	0.342
-230.771	-200.000	-0.002	0.440
-229.757	147.724	-0.222	0.298
-228.742	-48.536	0.319	-0.153
-227.727	800.000	-0.031	0.123
-226.713	-200.000	-0.004	0.170
-225.698	59.143	0.128	0.126
-224.684	-151.116	-0.056	0.004
-223.669	171.694	0.114	-0.164
-222.655	38.560	0.047	0.042
-221.640	-2.605	-0.126	-0.088
-220.625	-125.588	-0.154	0.023
-219.611	7.023	-0.075	-0.055
-218.596	254.676	-0.063	0.107
-217.582	-97.859	0.186	-0.048
-216.567	218.614	0.038	0.061
-215.552	-48.101	0.442	-0.213
-214.538	-200.000	-0.018	0.288
-213.523	-128.699	0.052	-0.007
-212.509	-33.911	-0.178	0.098
-211.494	-200.000	-0.025	0.136
-210.479	-93.516	0.339	-0.094
-209.465	-121.274	-0.184	0.031
-208.450	800.000	0.073	-0.260
-207.436	-98.674	0.364	0.093
-206.421	673.110	0.099	0.256
-205.406	-200.000	-0.026	-0.144
-204.392	47.100	0.341	0.316
-203.377	-156.653	-0.204	0.013
-202.363	529.574	0.087	-0.205
-201.348	81.612	-0.188	-0.202
-200.333	206.718	0.236	-0.367
-199.319	-200.000	0.021	0.132
-198.304	800.000	-0.103	-0.319
-197.290	242.950	-0.099	-0.166
-196.275	800.000	-0.008	-0.027
-195.260	-178.107	0.376	0.009
-194.246	-200.000	0.014	0.093
-193.231	-194.038	-0.112	-0.001
-192.217	-12.603	-0.389	-0.253
-191.202	506.888	-0.070	-0.163
-190.187	12.650	-0.105	-0.081
-189.173	78.657	0.236	-0.252
-188.158	217.017	0.188	0.298
-187.144	256.200	0.097	-0.166
-186.129	109.739	0.155	-0.185
-185.114	22.731	0.094	0.077
-184.100	-107.802	0.096	0.021
-183.085	-200.000	-0.061	0.338
-182.071	736.764	0.253	0.674
-181.056	-200.000	0.003	0.046
-180.042	-200.000	0.036	-0.252
-179.027	-200.000	0.019	-0.253
-178.012	72.133	-0.075	0.078
-176.998	-37.860	0.088	-0.046
-175.983	10.227	-0.251	0.190
-174.969	111.711	0.212	-0.254
-173.954	49.593	0.105	-0.099
-172.939	-27.133	-0.203	-0.118
-171.925	160.051	-0.087	0.120
-170.910	-200.000	0.061	0.291
-169.896	131.803	-0.180	-0.230
-168.881	18.085	-0.118	0.093
-167.866	228.788	0.107	-0.174
-166.852	-131.650	0.410	0.054
-165.837	42.590	0.115	-0.105
-164.823	-200.000	-0.040	0.177
-163.808	-154.348	0.213	0.014
-162.793	4.968	0.147	0.107
-161.779	56.236	-0.168	-0.162
-160.764	199.665	0.146	-0.222
-159.750	-200.000	-0.002	0.087
-158.735	-133.153	-0.185	0.023
-157.720	153.856	-0.096	0.130
-156.706	322.893	0.176	0.333
-155.691	225.026	0.010	-0.016
-154.677	-36.560	-0.208	0.111
-153.662	144.412	0.047	0.062
-152.647	800.000	-0.101	0.328
-151.633	-143.616	0.225	0.021
-150.618	-119.700	0.120	-0.021
-149.604	-200.000	-0.011	0.123
-148.589	-200.000	-0.017	0.266
-147.574	133.933	-0.056	-0.072
-146.560	18.883	0.290	-0.231
-145.545	800.000	-0.023	0.097
-144.531	800.000	-0.068	-0.243
-143.516	-163.952	0.118	-0.005
-142.502	-98.821	-0.187	-0.047
-141.487	652.345	0.133	0.339
-140.472	-41.277	-0.245	0.126
-139.458	416.195	-0.100	-0.212
-138.443	6.228	0.245	0.181
-137.429	800.000	0.074	-0.213
-136.414	-200.000	-0.010	0.225
-135.399	-58.323	-0.535	0.231
-134.385	-114.413	-0.045	0.009
-133.370	5.257	-0.315	0.231
-132.356	-200.000	0.007	0.059
-131.341	-24.634	0.273	-0.161
-130.326	-200.000	-0.015	0.117
-129.312	-133.111	0.480	-0.060
-128.297	-200.000	-0.009	0.139
-127.283	69.068	-0.415	0.424
-126.268	-8.348	0.240	0.161
-125.253	-129.339	-0.136	-0.019
-124.239	49.897	-0.033	-0.031
-123.224	-169.375	0.113	-0.004
-122.210	622.001	-0.106	-0.264
-121.195	-12.453	0.090	0.059
