DTS Sentinel unit serial number:	SN413079Multiplexer serial number:	ORYXHardware model number:	OX4-SRSoftware version number:	ORYX F/W v4.00 Oryx Data Collector v3.7.2.0data status	okinstallation	princeton_trtdifferential loss correction	single-endedforward channel	channel 3reverse channel	N/Adate	2019/09/11time	08:26:10forward acquisition time	60.00reverse acquisition time	0.00gamma	496.2192k internal	0.2315k external	0.2315temperature offset calibration	0.9942default loss term (dB/km)	0.3790temperature slope calibration	1.0000multiplexer offset coefficient	1.0000multiplexer slope coefficient	1.0000fibre end	0.00T internal ref (°C)	32.94T ext. ref 1 (°C)	0.09T ext. ref 2 (°C)	30.58length (m)	temperature (°C)	Stokes	anti-Stokes-747.200	188.626	-0.081	0.122
-746.185	-31.764	0.346	0.196
-745.171	-5.697	-0.247	-0.172
-744.156	800.000	-0.043	0.124
-743.142	-181.578	0.399	-0.008
-742.127	96.030	-0.198	0.229
-741.112	-52.260	-0.045	0.021
-740.098	-4.357	-0.534	0.374
-739.083	68.049	0.124	0.128
-738.069	353.518	0.054	-0.108
-737.054	-200.000	-0.247	0.001
-736.039	-0.730	-0.134	0.096
-735.025	689.400	-0.077	0.203
-734.010	-200.000	-0.011	-0.111
-732.996	-76.705	-0.262	-0.093
-731.981	-77.175	-0.544	-0.192
-730.966	-109.618	-0.215	0.046
-729.952	-200.000	0.062	-0.373
-728.937	-60.844	0.138	0.059
-727.923	-133.653	0.086	0.011
-726.908	554.886	-0.123	0.299
-725.894	59.087	-0.211	0.211
-724.879	-200.000	0.038	-0.243
-723.864	-81.712	-0.203	-0.067
-722.850	800.000	-0.082	0.242
-721.835	-97.213	-0.258	-0.068
-720.821	53.774	-0.212	-0.206
-719.806	-200.000	-0.023	0.394
-718.791	374.762	0.122	-0.251
-717.777	39.903	-0.103	-0.093
-716.762	45.174	0.047	0.044
-715.748	-101.274	0.291	-0.072
-714.733	-117.916	-0.075	0.014
-713.718	-45.839	-0.272	0.136
-712.704	61.321	-0.240	-0.242
-711.689	-160.523	0.314	0.017
-710.675	145.273	-0.110	0.149
-709.660	-24.203	-0.281	-0.170
-708.645	-92.071	0.167	-0.048
-707.631	-68.594	0.072	0.028
-706.616	-200.000	0.037	-0.210
-705.602	11.661	-0.180	0.140
-704.587	-123.462	-0.080	0.013
-703.572	-42.016	-0.233	-0.121
-702.558	800.000	0.070	-0.218
-701.543	117.762	0.140	0.174
-700.529	100.651	-0.072	-0.085
-699.514	-89.879	-0.072	-0.021
-698.499	-177.420	-0.155	0.004
-697.485	285.838	-0.045	-0.083
-696.470	800.000	-0.072	0.313
-695.456	156.202	0.105	-0.147
-694.441	3.933	-0.164	-0.121
-693.426	155.510	0.107	-0.149
-692.412	-134.439	-0.128	-0.016
-691.397	800.000	0.061	-0.217
-690.383	-200.000	0.018	-0.332
-689.368	-35.263	-0.114	-0.063
-688.354	2.453	0.381	-0.279
-687.339	110.629	-0.116	-0.141
-686.324	-118.888	-0.423	0.075
-685.310	286.449	-0.139	-0.253
-684.295	800.000	0.120	0.388
-683.281	-7.609	-0.041	0.028
-682.266	-1.618	-0.222	-0.158
-681.251	487.575	-0.081	0.186
-680.237	-54.761	-0.284	0.130
-679.222	-140.000	0.232	0.025
-678.208	520.695	-0.011	-0.025
-677.193	-200.000	-0.067	-0.572
-676.178	152.062	0.111	-0.153
-675.164	19.965	-0.161	0.131
-674.149	61.037	-0.370	0.371
-673.135	-129.705	-0.286	-0.040
-672.120	321.329	0.036	-0.069
-671.105	-136.967	0.197	-0.023
-670.091	-169.384	-0.288	-0.011
-669.076	71.719	-0.184	-0.193
-668.062	105.795	-0.154	0.184
-667.047	-140.087	-0.136	0.014
-666.032	133.755	-0.243	-0.317
-665.018	36.482	0.147	0.131
-664.003	539.644	0.052	-0.125
-662.989	278.886	-0.017	-0.031
-661.974	168.496	0.124	-0.179
-660.959	-96.993	0.284	-0.075
-659.945	-128.220	0.157	0.023
-658.930	89.066	-0.057	0.064
-657.916	204.538	-0.161	-0.253
-656.901	-200.000	0.072	0.478
-655.886	-200.000	0.089	0.474
-654.872	92.158	-0.114	0.130
-653.857	0.582	0.264	-0.191
-652.843	165.528	-0.159	-0.227
-651.828	-128.833	0.294	-0.042
-650.814	-200.000	-0.091	-0.442
-649.799	800.000	-0.084	0.269
-648.784	373.919	0.144	-0.296
-647.770	149.017	0.132	0.180
-646.755	-200.000	-0.014	-0.103
-645.741	100.949	-0.188	-0.221
-644.726	-40.488	-0.114	0.060
-643.711	800.000	-0.068	-0.294
-642.697	800.000	0.055	-0.214
-641.682	-200.000	-0.049	-0.276
-640.668	-200.000	0.003	-0.179
-639.653	-127.449	-0.060	0.009
-638.638	66.101	-0.208	0.213
-637.624	-200.000	-0.037	0.212
-636.609	60.723	0.258	-0.258
-635.595	-173.191	-0.374	-0.012
-634.580	-18.908	-0.248	-0.156
-633.565	75.041	-0.182	0.194
-632.551	800.000	-0.031	-0.135
-631.536	256.325	-0.302	0.523
-630.522	-16.061	-0.230	0.147
-629.507	-200.000	0.033	-0.175
-628.492	39.013	0.315	-0.284
-627.478	-200.000	0.010	-0.162
-626.463	113.741	0.184	-0.226
-625.449	335.809	0.207	-0.405
-624.434	62.526	-0.111	0.112
-623.419	83.620	-0.062	0.068
-622.405	-163.255	0.174	-0.008
-621.390	-153.084	0.266	-0.019
-620.376	178.370	-0.253	-0.373
-619.361	-23.056	-0.182	-0.111
-618.346	570.605	-0.081	0.198
-617.332	479.057	-0.106	0.242
-616.317	-141.178	0.194	-0.020
-615.303	-92.126	0.246	0.070
-614.288	800.000	0.010	0.042
-613.273	244.148	-0.041	0.069
-612.259	-200.000	0.040	0.329
-611.244	800.000	0.083	0.273
-610.230	-133.266	-0.201	-0.026
-609.215	800.000	0.128	0.436
-608.201	7.874	0.272	0.205
-607.186	31.181	0.213	-0.184
-606.171	-94.572	-0.105	-0.029
-605.157	6.680	-0.097	-0.073
-604.142	800.000	0.053	0.165
-603.128	800.000	0.042	-0.125
-602.113	-89.477	0.085	0.025
-601.098	114.582	-0.103	0.126
-600.084	291.986	0.171	-0.315
-599.069	62.102	0.046	-0.046
-598.055	800.000	-0.071	0.233
-597.040	-200.000	0.012	0.103
-596.025	-153.348	-0.278	-0.020
-595.011	333.285	-0.099	-0.193
-593.996	-119.476	0.300	0.052
-592.982	-200.000	-0.021	-0.191
-591.967	-111.229	-0.026	-0.005
-590.952	7.456	0.239	0.180
-589.938	-86.924	-0.323	0.099
-588.923	-25.018	-0.181	0.108
-587.909	-2.944	-0.090	-0.063
-586.894	620.261	0.101	-0.256
-585.879	124.901	-0.166	0.210
-584.865	800.000	0.046	0.201
-583.850	145.212	-0.140	-0.189
-582.836	-25.634	0.173	-0.103
-581.821	800.000	0.034	0.128
-580.806	-11.173	0.095	0.063
-579.792	-48.549	0.252	0.122
-578.777	800.000	0.025	0.092
-577.763	175.609	0.098	0.143
-576.748	-200.000	0.032	-0.224
-575.733	108.007	0.235	0.282
-574.719	233.243	-0.293	0.485
-573.704	-200.000	0.040	0.400
-572.690	-121.957	-0.184	-0.031
-571.675	-12.784	-0.161	-0.106
-570.661	-37.649	-0.068	-0.037
-569.646	16.258	0.239	-0.190
-568.631	95.022	-0.170	0.194
-567.617	211.341	0.216	-0.341
-566.602	3.724	-0.025	0.018
-565.588	-200.000	0.006	0.256
-564.573	-200.000	0.018	-0.158
-563.558	-65.094	-0.243	0.099
-562.544	-118.978	0.039	-0.007
-561.529	239.150	-0.142	-0.238
-560.515	-200.000	0.033	0.239
-559.500	12.391	0.407	-0.316
-558.485	-200.000	0.035	-0.174
-557.471	225.875	-0.016	-0.026
-556.456	-200.000	-0.028	0.161
-555.442	-45.063	-0.222	0.111
-554.427	-52.091	-0.077	0.036
-553.412	-63.210	0.147	-0.061
-552.398	-200.000	-0.003	-0.115
-551.383	-200.000	0.003	0.079
-550.369	-25.045	-0.267	0.159
-549.354	222.054	0.206	-0.334
-548.339	-58.298	-0.147	-0.064
-547.325	-200.000	0.043	0.221
-546.310	96.756	0.136	-0.157
-545.296	283.585	-0.186	0.335
-544.281	229.083	0.056	0.092
-543.266	-200.000	0.001	0.073
-542.252	-44.100	0.132	-0.067
-541.237	-200.000	-0.024	-0.114
-540.223	464.039	-0.042	0.094
-539.208	257.339	-0.030	-0.052
-538.193	-34.752	0.262	-0.144
-537.179	-200.000	-0.001	0.109
-536.164	86.709	-0.179	-0.198
-535.150	92.990	0.092	-0.105
-534.135	-200.000	0.001	0.011
-533.121	-89.650	0.525	-0.155
-532.106	357.674	-0.028	0.057
-531.091	94.038	-0.107	-0.122
-530.077	-48.450	-0.253	0.123
-529.062	417.669	-0.045	-0.096
-528.048	-31.053	-0.247	-0.140
-527.033	-200.000	0.000	0.184
-526.018	11.907	-0.056	-0.043
-525.004	-118.443	0.217	0.039
-523.989	-34.153	0.256	-0.141
-522.975	-200.000	0.014	-0.064
-521.960	-60.572	-0.205	-0.087
-520.945	195.233	0.196	0.299
-519.931	-1.093	-0.165	0.117
-518.916	-52.186	-0.110	-0.051
-517.902	384.838	0.083	0.171
-516.887	210.606	-0.206	0.325
-515.872	-83.330	0.308	0.099
-514.858	-116.898	0.481	0.088
-513.843	19.775	0.277	0.224
-512.829	-81.759	0.126	-0.042
-511.814	230.076	-0.079	-0.130
-510.799	-32.212	0.110	0.062
-509.785	-72.055	0.092	0.034
-508.770	711.525	-0.075	-0.200
-507.756	-11.042	0.188	-0.124
-506.741	-82.684	-0.121	0.039
-505.726	174.196	0.158	0.229
-504.712	36.590	0.292	0.259
-503.697	-70.638	-0.235	0.089
-502.683	-148.997	-0.234	-0.019
-501.668	378.336	0.089	0.184
-500.653	146.311	0.117	0.158
-499.639	230.672	0.068	-0.112
-498.624	-67.622	0.050	0.020
-497.610	152.145	-0.169	-0.232
-496.595	-200.000	-0.011	-0.342
-495.581	-126.558	0.191	0.028
-494.566	-200.000	0.017	0.102
-493.551	187.174	-0.122	0.182
-492.537	18.305	0.237	-0.190
-491.522	82.588	-0.277	0.302
-490.508	-94.584	0.061	-0.017
-489.493	-119.702	-0.271	0.047
-488.478	209.440	0.089	-0.139
-487.464	800.000	-0.077	-0.243
-486.449	524.346	-0.052	-0.122
-485.435	-109.534	0.147	-0.031
-484.420	-102.371	-0.124	0.030
-483.405	517.576	-0.042	-0.098
-482.391	-141.033	-0.033	-0.003
-481.376	-200.000	0.028	0.133
-480.362	312.188	-0.087	-0.163
-479.347	-16.099	-0.112	-0.072
-478.332	-59.017	-0.111	-0.048
-477.318	-109.519	0.485	0.103
-476.303	-134.740	-0.265	-0.032
-475.289	-119.808	0.101	0.018
-474.274	-94.911	-0.394	0.107
-473.259	-200.000	-0.024	0.169
-472.245	174.166	0.066	-0.096
-471.230	119.362	-0.110	0.136
-470.216	-40.796	-0.479	0.249
-469.201	-51.080	0.259	0.122
-468.186	-19.304	0.269	0.167
-467.172	-117.241	-0.067	0.012
-466.157	-200.000	0.015	-0.117
-465.143	-81.970	0.239	-0.078
-464.128	90.046	0.066	0.073
-463.113	-120.464	0.061	0.010
-462.099	-131.199	-0.347	-0.046
-461.084	56.728	0.070	-0.068
-460.070	360.462	0.088	0.177
-459.055	323.657	0.136	0.260
-458.040	256.510	-0.076	0.131
-457.026	-79.106	0.088	-0.030
-456.011	-58.473	0.152	-0.066
-454.997	173.308	0.188	0.271
-453.982	-131.315	-0.267	0.036
-452.968	-200.000	-0.021	-0.338
-451.953	-200.000	-0.120	-0.571
-450.938	-4.030	-0.027	0.019
-449.924	-200.000	0.070	-0.436
-448.909	-87.074	-0.247	-0.075
-447.895	-176.892	-0.220	-0.006
-446.880	800.000	-0.045	-0.185
-445.865	-55.316	-0.261	0.117
-444.851	-120.720	0.096	0.016
-443.836	-200.000	-0.003	0.296
-442.822	-116.127	0.083	-0.015
-441.807	-60.626	-0.130	-0.055
-440.792	-200.000	0.046	0.365
-439.778	-21.836	0.445	0.271
-438.763	68.895	0.039	-0.040
-437.749	-42.586	0.269	-0.137
-436.734	378.048	-0.165	-0.339
-435.719	-120.590	0.142	-0.024
-434.705	473.395	-0.045	-0.102
-433.690	-159.244	0.159	0.009
-432.676	46.522	-0.276	0.256
-431.661	266.712	0.157	-0.274
-430.646	-89.337	-0.228	0.067
-429.632	69.452	0.098	0.101
-428.617	-131.827	-0.174	0.023
-427.603	268.870	0.160	0.281
-426.588	800.000	-0.055	0.218
-425.573	-200.000	0.034	0.282
-424.559	229.078	-0.056	-0.092
-423.544	-200.000	0.031	-0.252
-422.530	800.000	0.022	-0.081
-421.515	-123.623	0.267	0.042
-420.500	-200.000	-0.023	0.151
-419.486	800.000	-0.088	-0.320
-418.471	420.568	0.087	0.186
-417.457	800.000	0.059	0.221
-416.442	18.128	0.229	0.183
-415.428	-200.000	-0.039	-0.202
-414.413	384.450	0.149	-0.307
-413.398	-117.928	0.201	0.036
-412.384	78.092	-0.127	-0.136
-411.369	776.898	-0.029	-0.079
-410.355	-85.561	-0.344	-0.107
-409.340	225.519	0.183	0.297
-408.325	-19.300	-0.188	0.117
-407.311	-27.069	-0.249	-0.145
-406.296	-184.151	0.224	0.004
-405.282	-153.212	-0.406	0.028
-404.267	-200.000	-0.075	-0.359
-403.252	46.054	-0.146	0.135
-402.238	192.308	0.100	-0.151
-401.223	201.098	-0.102	-0.157
-400.209	536.908	0.057	-0.135
-399.194	-46.800	-0.203	0.099
-398.179	77.413	0.160	-0.170
-397.165	-28.993	0.136	-0.078
-396.150	-58.253	-0.190	-0.083
-395.136	800.000	0.069	-0.200
-394.121	-88.057	-0.256	-0.077
-393.106	121.914	0.106	-0.133
-392.092	-84.905	0.329	0.103
-391.077	140.091	-0.057	-0.076
-390.063	-66.173	0.205	-0.082
-389.048	478.450	0.097	0.220
-388.033	-112.540	0.203	-0.040
-387.019	-200.000	-0.075	0.335
-386.004	263.101	0.136	-0.235
-384.990	-60.222	-0.135	-0.058
-383.975	-62.612	0.042	-0.017
-382.960	-131.986	0.211	-0.028
-381.946	-200.000	-0.030	-0.390
-380.931	800.000	0.045	-0.180
-379.917	-48.220	-0.114	-0.055
-378.902	-42.651	-0.249	0.127
-377.888	-101.544	0.188	0.046
-376.873	219.388	0.140	0.224
-375.858	-84.205	-0.366	-0.116
-374.844	-19.751	-0.197	0.122
-373.829	-108.131	0.211	-0.046
-372.815	51.499	-0.073	-0.069
-371.800	-177.831	-0.303	0.007
-370.785	-60.102	0.169	0.072
-369.771	-74.219	-0.096	-0.035
-368.756	410.031	-0.127	-0.268
-367.742	-200.000	0.011	-0.065
-366.727	-200.000	-0.002	-0.378
-365.712	-200.000	0.021	-0.184
-364.698	-180.615	-0.445	-0.009
-363.683	-26.627	-0.028	-0.017
-362.669	-100.038	0.119	0.030
-361.654	-193.435	0.187	-0.002
-360.639	112.024	-0.045	0.054
-359.625	-200.000	0.041	0.234
-358.610	-200.000	0.037	-0.235
-357.596	800.000	0.035	0.117
-356.581	800.000	0.027	-0.076
-355.566	-101.417	-0.378	-0.092
-354.552	157.949	-0.159	-0.220
-353.537	-179.797	-0.435	0.009
-352.523	-9.513	-0.205	0.136
-351.508	5.719	0.312	0.230
-350.493	-107.797	0.238	0.052
-349.479	800.000	-0.070	-0.239
-348.464	-200.000	-0.045	-0.291
-347.450	-174.137	0.066	-0.002
-346.435	800.000	-0.135	0.372
-345.420	-20.478	-0.162	0.099
-344.406	-85.749	0.214	-0.066
-343.391	-200.000	-0.043	0.316
-342.377	714.036	-0.079	-0.210
-341.362	4.208	0.263	-0.192
-340.348	-19.677	-0.199	0.123
-339.333	718.338	-0.129	-0.342
-338.318	17.098	-0.227	-0.180
-337.304	-200.000	-0.062	-0.313
-336.289	-154.816	0.276	-0.018
-335.275	-47.087	-0.217	0.106
-334.260	-156.393	-0.503	0.031
-333.245	800.000	0.142	-0.437
-332.231	-200.000	-0.008	0.058
-331.216	800.000	-0.019	0.054
-330.202	-200.000	0.002	-0.235
-329.187	-80.031	-0.182	-0.061
-328.172	-200.000	0.006	0.098
-327.158	-118.438	0.319	0.056
-326.143	-200.000	0.051	-0.360
-325.129	-34.291	0.168	-0.092
-324.114	-19.748	-0.129	-0.080
-323.099	249.293	-0.187	0.315
-322.085	-56.326	-0.196	0.087
-321.070	74.753	-0.144	-0.151
-320.056	270.129	-0.084	0.147
-319.041	78.408	0.185	-0.197
-318.026	65.312	-0.184	0.186
-317.012	33.204	0.243	0.210
-315.997	-200.000	-0.052	-0.275
-314.983	79.571	-0.176	-0.189
-313.968	114.596	-0.090	-0.109
-312.953	-200.000	-0.023	0.160
-311.939	244.749	-0.102	-0.172
-310.924	-200.000	0.013	-0.337
-309.910	800.000	0.048	0.197
-308.895	800.000	0.087	0.252
-307.880	28.434	0.127	0.107
-306.866	204.883	0.138	0.213
-305.851	800.000	0.062	0.211
-304.837	-128.327	-0.063	-0.009
-303.822	46.103	0.332	0.306
-302.807	252.729	0.137	0.232
-301.793	29.792	-0.099	0.084
-300.778	-200.000	-0.007	-0.057
-299.764	800.000	0.029	-0.094
-298.749	50.136	0.174	0.164
-297.735	-109.469	0.160	-0.034
-296.720	-200.000	-0.005	-0.032
-295.705	-80.631	0.194	-0.064
-294.691	-200.000	0.022	0.330
-293.676	-111.055	0.219	-0.045
-292.662	-133.512	0.115	0.014
-291.647	228.224	0.101	-0.164
-290.632	286.954	-0.116	-0.209
-289.618	-24.567	0.039	0.023
-288.603	-21.894	-0.300	0.182
-287.589	27.362	0.061	-0.051
-286.574	72.917	0.212	0.221
-285.559	106.773	0.201	-0.237
-284.545	1.208	0.289	0.207
-283.530	-76.595	-0.246	-0.086
-282.516	-134.285	0.301	0.037
-281.501	167.043	-0.134	0.189
-280.486	103.903	0.079	-0.093
-279.472	59.210	0.101	0.099
-278.457	-21.390	0.169	0.103
-277.443	381.725	0.133	-0.272
-276.428	-75.128	0.161	0.057
-275.413	-200.000	-0.009	0.079
-274.399	-93.447	0.184	-0.051
-273.384	155.164	-0.084	0.115
-272.370	-5.476	-0.062	0.042
-271.355	212.570	-0.094	-0.147
-270.340	107.378	-0.050	-0.059
-269.326	-86.789	0.086	0.026
-268.311	-200.000	-0.011	-0.287
-267.297	69.614	-0.234	0.240
-266.282	-200.000	0.005	-0.169
-265.267	-74.432	0.192	-0.069
-264.253	-72.924	-0.213	0.078
-263.238	800.000	-0.144	0.457
-262.224	169.677	0.097	0.139
-261.209	-77.942	-0.179	0.061
-260.195	65.710	-0.254	0.256
-259.180	76.972	-0.196	0.207
-258.165	-200.000	0.002	-0.116
-257.151	-137.586	0.222	0.025
-256.136	65.355	-0.196	-0.197
-255.122	91.107	-0.199	-0.222
-254.107	-124.376	-0.076	-0.012
-253.092	-75.946	-0.300	0.106
-252.078	631.189	-0.071	-0.178
-251.063	800.000	-0.044	-0.132
-250.049	-54.395	-0.110	0.050
-249.034	-200.000	-0.022	0.282
-248.019	-150.986	0.202	0.015
-247.005	283.307	0.170	-0.303
-245.990	-57.741	-0.225	0.098
-244.976	45.340	-0.159	-0.145
-243.961	201.245	0.135	0.206
-242.946	50.535	0.143	0.134
-241.932	135.890	0.019	-0.024
-240.917	172.227	-0.261	0.373
-239.903	38.893	0.260	-0.231
-238.888	-200.000	-0.018	-0.297
-237.873	538.998	-0.025	-0.060
-236.859	-59.529	-0.174	-0.074
-235.844	227.464	-0.130	0.210
-234.830	-76.700	-0.228	-0.079
-233.815	180.032	0.125	-0.183
-232.800	-17.207	-0.346	0.217
-231.786	192.327	0.115	0.172
-230.771	-200.000	0.022	-0.268
-229.757	83.744	0.097	-0.105
-228.742	94.621	0.081	-0.091
-227.727	-113.219	-0.310	0.061
-226.713	30.381	-0.294	0.249
-225.698	800.000	0.035	-0.122
-224.684	65.556	0.092	-0.092
-223.669	-126.263	0.254	-0.038
-222.655	-200.000	-0.013	-0.246
-221.640	2.476	-0.158	0.114
-220.625	-200.000	0.032	-0.288
-219.611	148.735	-0.155	0.208
-218.596	-144.418	0.110	-0.010
-217.582	-8.076	0.234	-0.157
-216.567	800.000	-0.089	0.257
-215.552	119.523	0.079	-0.097
-214.538	113.687	-0.037	0.044
-213.523	800.000	0.030	0.097
-212.509	498.111	0.108	0.246
-211.494	-94.068	0.266	-0.072
-210.479	-49.270	0.149	0.071
-209.465	-71.004	-0.362	0.135
-208.450	40.698	0.246	0.220
-207.436	-182.504	-0.155	0.003
-206.421	800.000	-0.070	-0.195
-205.406	91.569	0.189	-0.210
-204.392	75.018	-0.154	-0.161
-203.377	189.998	0.203	-0.303
-202.363	776.364	-0.080	-0.216
-201.348	-35.888	-0.237	0.127
-200.333	-186.743	0.123	-0.002
-199.319	800.000	-0.062	0.191
-198.304	800.000	0.086	0.317
-197.290	63.086	0.237	-0.235
-196.275	269.400	-0.210	0.365
-195.260	15.286	0.148	0.115
-194.246	-181.126	0.132	-0.003
-193.231	166.197	0.211	0.296
-192.217	22.117	0.207	0.167
-191.202	62.844	-0.049	-0.049
-190.187	61.403	-0.076	0.075
-189.173	-101.479	-0.046	-0.011
-188.158	-137.656	0.150	-0.017
-187.144	-114.063	-0.144	-0.028
-186.129	84.239	0.085	0.092
-185.114	-200.000	0.021	0.195
-184.100	800.000	0.032	-0.138
-183.085	800.000	0.051	-0.211
-182.071	125.683	0.281	0.351
-181.056	800.000	-0.012	-0.040
-180.042	-88.437	0.222	-0.066
-179.027	-119.503	-0.009	0.001
-178.012	150.860	-0.025	-0.033
-176.998	-33.176	-0.114	-0.062
-175.983	-14.588	0.124	-0.079
-174.969	341.459	-0.232	-0.449
-173.954	800.000	0.075	0.245
-172.939	-73.722	0.229	-0.083
-171.925	136.248	-0.228	0.295
-170.910	800.000	0.048	0.207
-169.896	-140.524	0.437	-0.045
-168.881	21.362	-0.318	-0.256
-167.866	754.056	-0.147	0.394
-166.852	28.153	-0.248	0.208
-165.837	32.961	0.024	-0.020
-164.823	-130.420	-0.224	0.030
-163.808	87.021	-0.028	-0.031
-162.793	212.363	-0.104	0.162
-161.779	-30.156	0.387	0.218
-160.764	-150.436	0.443	0.034
-159.750	193.737	-0.102	0.153
-158.735	-99.232	-0.225	-0.056
-157.720	25.708	-0.166	-0.137
-156.706	126.610	0.219	-0.275
-155.691	800.000	-0.129	-0.461
-154.677	-200.000	0.048	0.222
-153.662	-200.000	-0.016	-0.392
-152.647	56.017	0.013	0.012
-151.633	-41.684	0.180	0.092
-150.618	-200.000	-0.005	0.057
-149.604	-200.000	-0.022	0.168
-148.589	7.232	-0.215	-0.159
-147.574	-200.000	0.057	-0.369
-146.560	800.000	0.119	-0.414
-145.545	-101.770	0.188	-0.045
-144.531	-86.870	0.434	-0.131
-143.516	-88.297	-0.137	0.041
-142.502	800.000	-0.073	0.230
-141.487	-112.743	0.215	-0.042
-140.472	128.213	-0.225	-0.283
-139.458	800.000	-0.071	-0.251
-138.443	-200.000	0.023	-0.166
-137.429	252.054	0.021	-0.036
-136.414	-7.665	-0.212	0.142
-135.399	-157.234	-0.182	0.011
-134.385	160.056	-0.055	-0.076
-133.370	113.115	0.009	-0.011
-132.356	-200.000	0.015	-0.068
-131.341	-171.040	-0.077	0.003
-130.326	239.866	-0.045	0.075
-129.312	-155.150	-0.070	0.005
-128.297	-4.314	0.316	-0.216
-127.283	52.329	-0.174	-0.164
-126.268	800.000	-0.131	-0.397
-125.253	800.000	-0.082	0.269
-124.239	316.367	0.028	-0.052
-123.224	-200.000	-0.018	0.117
-122.210	-200.000	0.025	-0.237
