DTS Sentinel unit serial number:	SN413079Multiplexer serial number:	ORYXHardware model number:	OX4-SRSoftware version number:	ORYX F/W v4.00 Oryx Data Collector v3.7.2.0data status	okinstallation	princeton_trtdifferential loss correction	single-endedforward channel	channel 3reverse channel	N/Adate	2019/09/14time	10:20:34forward acquisition time	60.00reverse acquisition time	0.00gamma	496.2192k internal	0.2307k external	0.2307temperature offset calibration	1.0055default loss term (dB/km)	0.3790temperature slope calibration	1.0000multiplexer offset coefficient	1.0000multiplexer slope coefficient	1.0000fibre end	0.00T internal ref (°C)	34.25T ext. ref 1 (°C)	4.13T ext. ref 2 (°C)	32.90length (m)	temperature (°C)	Stokes	anti-Stokes-747.200	261.032	-0.240	0.423
-746.185	166.781	0.345	0.497
-745.171	-101.628	0.277	-0.068
-744.156	-200.000	0.007	0.048
-743.142	224.183	0.083	0.136
-742.127	63.172	0.179	-0.183
-741.112	727.523	-0.042	-0.114
-740.098	-158.654	0.254	0.015
-739.083	800.000	0.086	0.331
-738.069	-78.289	-0.280	0.098
-737.054	-200.000	0.020	-0.294
-736.039	-174.626	-0.564	0.016
-735.025	-128.103	0.173	-0.025
-734.010	148.289	0.274	0.376
-732.996	599.993	0.118	-0.297
-731.981	-200.000	-0.038	-0.459
-730.966	-200.000	0.024	-0.150
-729.952	-27.394	-0.263	0.156
-728.937	-124.192	-0.297	-0.047
-727.923	-16.364	-0.293	0.189
-726.908	-6.219	-0.176	0.122
-725.894	48.187	-0.020	-0.019
-724.879	92.364	0.192	0.220
-723.864	-2.177	0.219	0.156
-722.850	71.456	-0.066	0.069
-721.835	800.000	-0.059	0.180
-720.821	53.595	-0.168	-0.164
-719.806	-130.101	-0.461	0.064
-718.791	800.000	0.056	-0.171
-717.777	-200.000	-0.002	0.147
-716.762	87.546	0.279	-0.314
-715.748	-200.000	-0.059	-0.443
-714.733	57.359	0.094	-0.094
-713.718	-200.000	0.008	-0.141
-712.704	-157.748	0.256	0.015
-711.689	-196.706	-0.550	-0.004
-710.675	-80.660	0.129	0.043
-709.660	-47.449	0.263	-0.130
-708.645	-200.000	-0.001	-0.059
-707.631	471.133	0.028	0.065
-706.616	-200.000	0.022	0.131
-705.602	-200.000	-0.039	0.185
-704.587	-83.745	-0.232	0.075
-703.572	97.870	-0.125	0.146
-702.558	800.000	0.048	0.187
-701.543	182.612	0.134	0.200
-700.529	381.322	-0.130	-0.271
-699.514	96.926	0.093	-0.108
-698.499	-108.679	0.183	0.040
-697.485	-200.000	-0.038	-0.521
-696.470	160.905	-0.198	0.281
-695.456	30.162	-0.148	-0.128
-694.441	-200.000	-0.001	0.150
-693.426	2.428	-0.290	0.213
-692.412	-64.085	-0.105	-0.044
-691.397	-82.516	0.417	-0.137
-690.383	-107.740	0.289	-0.064
-689.368	-22.090	0.132	-0.081
-688.354	-117.530	-0.152	-0.028
-687.339	235.600	-0.162	0.272
-686.324	304.396	0.165	0.311
-685.310	330.472	-0.112	0.218
-684.295	153.256	-0.240	-0.333
-683.281	305.791	0.151	-0.284
-682.266	-82.684	-0.280	-0.092
-681.251	485.634	-0.049	-0.113
-680.237	1.386	0.145	-0.106
-679.222	-117.290	0.533	-0.098
-678.208	-12.796	-0.094	0.062
-677.193	-177.409	-0.143	-0.004
-676.178	-200.000	0.032	0.297
-675.164	-24.863	-0.242	-0.146
-674.149	-126.201	0.059	-0.009
-673.135	-200.000	-0.032	-0.186
-672.120	467.688	0.010	0.023
-671.105	800.000	-0.014	-0.056
-670.091	84.956	0.100	0.111
-669.076	-38.240	0.055	0.030
-668.062	-200.000	0.041	0.192
-667.047	137.197	0.024	-0.031
-666.032	-105.281	0.432	-0.100
-665.018	-152.675	0.152	0.011
-664.003	113.631	-0.098	0.120
-662.989	-200.000	0.037	0.237
-661.974	172.208	0.137	-0.200
-660.959	51.733	0.158	-0.153
-659.945	-126.999	0.276	0.041
-658.930	-170.423	-0.468	0.017
-657.916	-63.191	0.190	-0.079
-656.901	-63.228	0.281	-0.117
-655.886	129.486	0.062	0.080
-654.872	-167.551	0.283	-0.011
-653.857	74.109	-0.234	-0.249
-652.843	52.071	0.233	0.225
-651.828	373.334	0.191	0.395
-650.814	800.000	-0.060	-0.219
-649.799	624.241	0.052	0.133
-648.784	623.926	-0.022	0.056
-647.770	30.370	-0.103	0.089
-646.755	-25.436	-0.112	-0.067
-645.741	-126.861	0.066	0.010
-644.726	59.838	-0.208	-0.208
-643.711	800.000	0.044	0.125
-642.697	-49.162	-0.159	-0.077
-641.682	-52.833	-0.144	-0.067
-640.668	289.147	-0.050	0.093
-639.653	-173.781	-0.141	-0.004
-638.638	75.773	-0.021	-0.023
-637.624	-174.502	0.303	0.009
-636.609	17.551	-0.094	-0.076
-635.595	253.829	-0.132	0.229
-634.580	-1.803	0.074	-0.053
-633.565	-132.867	0.024	0.003
-632.551	800.000	-0.020	-0.074
-631.536	-200.000	-0.022	0.274
-630.522	-0.838	0.150	-0.107
-629.507	-117.914	-0.138	0.025
-628.492	-143.434	0.124	0.012
-627.478	-129.719	-0.262	-0.037
-626.463	-2.663	-0.198	-0.140
-625.449	-200.000	0.007	-0.200
-624.434	800.000	-0.171	-0.621
-623.419	15.793	-0.052	-0.041
-622.405	72.378	-0.296	-0.312
-621.390	118.275	-0.027	-0.034
-620.376	63.272	-0.227	-0.230
-619.361	-37.479	-0.090	-0.048
-618.346	312.768	0.071	-0.135
-617.332	800.000	0.063	-0.248
-616.317	-86.719	0.442	0.137
-615.303	-26.956	-0.114	-0.067
-614.288	380.493	-0.058	0.120
-613.273	263.953	0.009	0.016
-612.259	-200.000	0.011	0.319
-611.244	-200.000	-0.008	0.134
-610.230	-39.403	0.116	-0.062
-609.215	21.655	-0.040	-0.033
-608.201	-110.974	-0.046	0.009
-607.186	-153.566	0.222	-0.016
-606.171	800.000	0.026	-0.105
-605.157	198.509	-0.139	-0.215
-604.142	24.234	0.184	-0.154
-603.128	85.275	-0.121	-0.134
-602.113	4.069	0.126	0.093
-601.098	78.876	0.134	0.145
-600.084	255.734	-0.062	0.107
-599.069	-96.172	-0.168	0.045
-598.055	89.061	-0.102	-0.114
-597.040	-15.882	-0.163	0.105
-596.025	74.130	0.038	-0.041
-595.011	-135.239	0.207	0.025
-593.996	-31.261	-0.079	0.045
-592.982	-130.490	-0.151	0.021
-591.967	-147.134	-0.177	0.015
-590.952	-200.000	-0.032	0.315
-589.938	64.198	0.152	0.155
-588.923	-158.031	0.163	0.010
-587.909	-76.574	0.032	0.011
-586.894	-78.230	-0.266	0.092
-585.879	171.286	-0.193	-0.280
-584.865	41.791	-0.110	-0.101
-583.850	-200.000	-0.007	0.052
-582.836	-123.957	0.317	-0.050
-581.821	-56.865	0.135	-0.060
-580.806	-15.194	0.231	0.149
-579.792	135.393	-0.104	0.137
-578.777	-164.049	-0.074	0.003
-577.763	-200.000	-0.004	-0.019
-576.748	-200.000	0.041	-0.254
-575.733	793.897	-0.154	-0.427
-574.719	21.727	0.277	-0.228
-573.704	-39.551	0.301	0.159
-572.690	-5.059	-0.130	-0.090
-571.675	221.781	0.038	-0.062
-570.661	393.854	0.113	-0.238
-569.646	445.694	-0.050	-0.110
-568.631	-116.946	-0.190	-0.035
-567.617	-113.231	0.150	0.030
-566.602	-123.337	-0.285	-0.046
-565.588	-200.000	-0.021	0.126
-564.573	-130.211	-0.185	0.025
-563.558	109.816	0.057	-0.069
-562.544	-200.000	0.028	-0.180
-561.529	-200.000	-0.078	-0.430
-560.515	77.847	0.109	-0.117
-559.500	-200.000	-0.032	0.217
-558.485	-200.000	-0.010	0.186
-557.471	175.850	0.185	0.270
-556.456	-62.899	-0.313	0.131
-555.442	90.803	-0.040	-0.045
-554.427	800.000	0.043	-0.165
-553.412	800.000	-0.058	0.167
-552.398	270.108	0.076	0.135
-551.383	-118.310	0.260	-0.047
-550.369	-13.295	-0.231	-0.151
-549.354	132.349	-0.097	-0.126
-548.339	-123.542	0.213	0.034
-547.325	186.615	-0.099	-0.149
-546.310	211.113	0.080	-0.127
-545.296	391.426	0.024	-0.051
-544.281	-45.588	-0.207	0.103
-543.266	-200.000	-0.075	0.630
-542.252	491.949	0.091	0.211
-541.237	-28.224	-0.079	-0.046
-540.223	800.000	-0.047	0.153
-539.208	40.677	0.053	0.048
-538.193	-54.780	-0.338	-0.154
-537.179	-25.177	-0.220	-0.131
-536.164	-2.327	-0.433	-0.307
-535.150	-200.000	-0.006	-0.137
-534.135	303.571	0.098	-0.183
-533.121	16.868	0.290	0.232
-532.106	-44.538	-0.236	0.119
-531.091	800.000	-0.044	0.150
-530.077	-21.890	-0.104	-0.064
-529.062	-103.922	-0.038	0.009
-528.048	-140.617	0.341	0.036
-527.033	-173.146	-0.201	0.006
-526.018	-22.397	0.132	0.081
-525.004	245.495	0.054	-0.092
-523.989	-64.613	0.192	-0.079
-522.975	-74.366	0.268	-0.097
-521.960	192.265	0.109	0.165
-520.945	531.057	0.028	0.068
-519.931	-59.229	-0.370	-0.161
-518.916	-73.959	0.204	0.075
-517.902	-106.499	0.029	0.007
-516.887	-8.754	-0.186	-0.126
-515.872	9.227	0.081	-0.062
-514.858	-17.806	0.092	0.058
-513.843	42.102	-0.184	0.169
-512.829	488.644	0.038	-0.088
-511.814	104.836	-0.141	-0.167
-510.799	120.610	-0.099	0.124
-509.785	274.909	-0.188	0.337
-508.770	49.616	-0.183	-0.173
-507.756	-42.710	-0.399	-0.204
-506.741	412.984	-0.103	-0.220
-505.726	-200.000	0.056	-0.338
-504.712	-61.000	-0.134	0.057
-503.697	800.000	-0.041	0.136
-502.683	-155.106	0.151	-0.010
-501.668	223.474	-0.067	-0.108
-500.653	800.000	0.044	0.165
-499.639	-15.790	0.453	-0.291
-498.624	-45.130	-0.114	-0.057
-497.610	-92.721	-0.151	-0.043
-496.595	88.032	-0.228	-0.255
-495.581	179.498	-0.109	0.160
-494.566	-16.043	-0.158	0.101
-493.551	-96.856	-0.046	-0.012
-492.537	-200.000	-0.008	0.081
-491.522	-71.923	0.158	0.059
-490.508	-21.749	-0.173	-0.106
-489.493	56.831	-0.067	0.066
-488.478	491.666	0.235	-0.542
-487.464	404.086	-0.056	-0.119
-486.449	-200.000	-0.001	-0.190
-485.435	296.196	0.142	-0.262
-484.420	482.022	-0.086	0.197
-483.405	21.625	0.107	0.088
-482.391	150.996	-0.191	0.261
-481.376	612.851	0.077	0.194
-480.362	-32.172	-0.072	0.041
-479.347	800.000	-0.063	-0.228
-478.332	-84.835	-0.312	-0.099
-477.318	201.661	-0.166	-0.257
-476.303	-183.686	0.216	-0.004
-475.289	-200.000	-0.047	0.302
-474.274	-200.000	-0.002	0.163
-473.259	-54.070	0.303	0.139
-472.245	-96.198	-0.307	-0.082
-471.230	505.686	0.016	-0.036
-470.216	-184.198	0.098	-0.002
-469.201	-127.583	-0.222	0.032
-468.186	591.493	0.083	-0.206
-467.172	592.215	-0.060	-0.149
-466.157	-200.000	-0.021	-0.271
-465.143	435.766	-0.097	-0.213
-464.128	231.331	-0.062	0.102
-463.113	-67.724	-0.366	-0.144
-462.099	-153.052	-0.229	-0.016
-461.084	127.236	-0.194	-0.248
-460.070	-129.082	0.217	0.031
-459.055	255.358	0.187	0.323
-458.040	510.540	0.015	0.034
-457.026	800.000	0.077	-0.262
-456.011	800.000	0.040	0.147
-454.997	-200.000	-0.016	-0.341
-453.982	275.707	-0.124	0.221
-452.968	-27.501	-0.050	-0.029
-451.953	-164.734	-0.098	0.004
-450.938	120.420	0.114	0.143
-449.924	-22.375	0.154	-0.094
-448.909	-58.434	-0.168	0.073
-447.895	800.000	0.103	0.420
-446.880	-80.348	0.339	-0.114
-445.865	800.000	0.164	-0.464
-444.851	-28.377	-0.220	0.128
-443.836	-176.732	-0.087	0.002
-442.822	129.056	0.149	-0.191
-441.807	-82.857	0.074	0.024
-440.792	-117.608	-0.184	0.033
-439.778	-200.000	0.006	0.034
-438.763	66.599	0.147	-0.150
-437.749	-75.402	0.182	-0.065
-436.734	-26.038	0.316	0.187
-435.719	-200.000	0.044	0.257
-434.705	58.716	-0.065	0.064
-433.690	-200.000	-0.025	0.225
-432.676	-200.000	0.007	-0.263
-431.661	-72.277	0.182	-0.068
-430.646	-200.000	0.002	0.162
-429.632	-18.169	-0.314	0.198
-428.617	-89.653	-0.271	-0.080
-427.603	570.293	0.188	-0.460
-426.588	-200.000	-0.011	0.099
-425.573	-105.095	0.218	-0.050
-424.559	30.205	-0.200	-0.171
-423.544	-35.983	-0.298	-0.162
-422.530	715.659	0.070	0.185
-421.515	-200.000	-0.033	-0.167
-420.500	-143.264	0.325	0.031
-419.486	-200.000	-0.033	0.148
-418.471	-200.000	-0.027	0.230
-417.457	-116.973	0.054	0.010
-416.442	-186.003	-0.217	-0.003
-415.428	-89.113	0.115	-0.034
-414.413	749.130	-0.077	-0.208
-413.398	-76.752	-0.084	0.030
-412.384	38.323	0.156	-0.139
-411.369	-63.221	0.053	-0.022
-410.355	121.296	0.106	-0.133
-409.340	-82.320	0.307	-0.100
-408.325	74.138	0.362	-0.381
-407.311	-47.820	-0.144	-0.070
-406.296	122.691	-0.367	0.461
-405.282	-97.890	0.453	0.117
-404.267	-42.359	0.143	-0.073
-403.252	222.925	-0.176	0.285
-402.238	57.499	0.190	-0.186
-401.223	49.950	-0.304	-0.288
-400.209	27.495	0.199	0.168
-399.194	-200.000	0.033	0.144
-398.179	148.601	0.094	0.127
-397.165	-200.000	-0.018	0.418
-396.150	-200.000	-0.014	-0.182
-395.136	800.000	-0.089	-0.315
-394.121	275.607	-0.112	-0.199
-393.106	-33.136	-0.256	-0.142
-392.092	-182.343	0.189	-0.004
-391.077	-41.808	0.086	-0.044
-390.063	-122.053	0.252	0.041
-389.048	-200.000	0.004	0.152
-388.033	-200.000	0.039	0.199
-387.019	-57.583	-0.334	0.147
-386.004	-200.000	0.017	0.278
-384.990	800.000	0.065	0.247
-383.975	-111.097	0.322	-0.066
-382.960	-57.332	0.256	-0.113
-381.946	800.000	-0.039	0.139
-380.931	-24.773	-0.060	0.036
-379.917	-146.382	0.305	0.027
-378.902	16.494	-0.207	0.164
-377.888	51.713	-0.022	0.021
-376.873	22.739	0.096	0.079
-375.858	-200.000	-0.005	-0.066
-374.844	800.000	0.120	0.404
-373.829	-44.862	0.454	0.227
-372.815	32.172	0.103	-0.089
-371.800	129.617	-0.050	0.064
-370.785	800.000	-0.058	0.218
-369.771	-46.792	0.104	-0.051
-368.756	800.000	-0.044	0.132
-367.742	-48.966	-0.229	-0.110
-366.727	63.056	-0.344	0.345
-365.712	10.535	0.170	0.130
-364.698	216.948	0.061	-0.098
-363.683	-29.911	0.369	-0.211
-362.669	108.763	0.031	-0.038
-361.654	150.146	-0.110	0.149
-360.639	-200.000	0.022	-0.148
-359.625	790.963	0.024	-0.065
-358.610	-5.241	0.134	-0.093
-357.596	-200.000	-0.034	0.198
-356.581	79.106	0.343	-0.369
-355.566	-55.444	-0.078	0.035
-354.552	-59.712	-0.230	0.099
-353.537	104.514	-0.209	0.246
-352.523	412.615	0.040	0.085
-351.508	250.048	-0.193	0.328
-350.493	800.000	0.018	0.063
-349.479	-200.000	-0.009	-0.070
-348.464	-200.000	0.018	-0.156
-347.450	-81.804	0.260	-0.085
-346.435	-110.791	0.109	0.023
-345.420	10.684	0.218	0.167
-344.406	54.820	-0.170	0.164
-343.391	-35.991	-0.186	-0.101
-342.377	800.000	0.009	-0.038
-341.362	12.191	-0.311	0.240
-340.348	16.480	0.199	-0.157
-339.333	-107.682	-0.240	-0.052
-338.318	-200.000	0.004	0.126
-337.304	-32.614	-0.280	0.156
-336.289	404.739	0.042	-0.088
-335.275	-121.991	-0.173	-0.028
-334.260	8.242	0.172	0.129
-333.245	800.000	-0.010	-0.037
-332.231	-200.000	0.077	0.401
-331.216	-200.000	0.020	0.411
-330.202	-46.675	0.122	-0.060
-329.187	-159.102	0.353	-0.020
-328.172	-120.860	0.231	0.039
-327.158	-143.604	0.194	-0.018
-326.143	245.050	-0.199	0.335
-325.129	-200.000	-0.003	0.113
-324.114	-103.072	0.180	-0.043
-323.099	445.113	-0.136	-0.298
-322.085	800.000	0.058	-0.166
-321.070	-49.474	0.266	-0.127
-320.056	-106.686	-0.236	-0.052
-319.041	-100.550	-0.204	-0.051
-318.026	213.499	0.082	0.130
-317.012	-157.914	0.484	-0.029
-315.997	-24.754	0.409	-0.243
-314.983	-200.000	0.058	-0.435
-313.968	57.357	-0.280	-0.274
-312.953	800.000	-0.036	0.108
-311.939	-200.000	-0.024	-0.159
-310.924	-88.701	0.187	0.056
-309.910	618.944	0.051	0.129
-308.895	359.879	-0.106	0.212
-307.880	496.673	-0.036	-0.082
-306.866	-200.000	-0.014	0.064
-305.851	-104.044	-0.216	-0.050
-304.837	800.000	-0.120	-0.422
-303.822	0.951	-0.198	0.142
-302.807	747.949	-0.048	0.130
-301.793	-42.245	-0.141	-0.072
-300.778	-200.000	0.042	0.730
-299.764	-44.873	-0.152	0.075
-298.749	-101.742	0.057	-0.014
-297.735	683.635	-0.132	0.344
-296.720	-200.000	0.000	0.081
-295.705	-200.000	0.016	-0.109
-294.691	254.634	0.226	-0.386
-293.676	-3.789	0.169	-0.117
-292.662	-169.008	0.257	-0.010
-291.647	405.941	0.046	0.097
-290.632	34.852	-0.134	0.117
-289.618	187.970	0.130	-0.194
-288.603	-200.000	-0.024	-0.251
-287.589	-151.151	0.063	-0.005
-286.574	-139.705	-0.215	-0.023
-285.559	734.169	0.109	-0.292
-284.545	-129.272	-0.236	-0.033
-283.530	86.433	0.183	-0.202
-282.516	-200.000	0.020	0.111
-281.501	800.000	0.083	0.256
-280.486	-61.422	-0.534	0.224
-279.472	591.237	-0.073	-0.180
-278.457	8.913	0.077	-0.058
-277.443	-97.822	-0.142	0.037
-276.428	-200.000	-0.020	0.348
-275.413	800.000	-0.055	0.154
-274.399	168.302	-0.168	-0.239
-273.384	-115.882	-0.311	-0.058
-272.370	-134.292	-0.345	-0.042
-271.355	-74.098	0.043	-0.016
-270.340	47.861	0.104	0.097
-269.326	94.246	0.197	-0.223
-268.311	-200.000	0.012	0.164
-267.297	-63.371	-0.145	-0.060
-266.282	13.553	-0.030	0.023
-265.267	800.000	0.028	0.091
-264.253	-31.198	0.068	-0.038
-263.238	-200.000	0.008	0.114
-262.224	75.996	-0.159	-0.168
-261.209	540.986	0.142	-0.336
-260.195	800.000	-0.065	-0.181
-259.180	225.113	0.074	-0.120
-258.165	70.162	-0.050	0.052
-257.151	-162.107	0.175	0.009
-256.136	800.000	-0.060	-0.253
-255.122	-130.523	0.223	-0.030
-254.107	44.075	0.198	0.181
-253.092	800.000	0.038	0.121
-252.078	-157.367	-0.104	0.006
-251.063	-75.889	-0.187	-0.066
-250.049	15.181	-0.159	-0.125
-249.034	537.257	0.048	-0.114
-248.019	-37.058	-0.166	-0.088
-247.005	800.000	-0.039	0.127
-245.990	-62.654	-0.135	0.056
-244.976	800.000	-0.041	0.160
-243.961	235.895	0.174	0.286
-242.946	-142.606	0.302	0.030
-241.932	-131.718	0.183	0.024
-240.917	-147.764	0.155	-0.013
-239.903	-68.158	0.628	-0.244
-238.888	-87.987	-0.311	-0.093
-237.873	174.632	-0.052	0.075
-236.859	284.958	0.121	0.218
-235.844	-15.191	0.059	0.038
-234.830	-183.953	0.177	-0.003
-233.815	-96.496	0.187	-0.049
-232.800	211.581	0.163	-0.255
-231.786	-135.907	0.262	-0.031
-230.771	-87.784	-0.412	0.124
-229.757	-200.000	0.035	0.390
-228.742	-5.848	-0.074	-0.051
-227.727	-25.810	-0.331	0.194
-226.713	16.307	-0.127	0.100
-225.698	-200.000	-0.008	-0.064
-224.684	9.609	-0.203	0.153
-223.669	-69.065	-0.549	0.211
-222.655	-22.807	0.228	0.137
-221.640	24.380	-0.125	-0.103
-220.625	-48.888	-0.109	-0.052
-219.611	341.977	-0.057	0.111
-218.596	-200.000	-0.062	-0.272
-217.582	-102.046	0.176	0.042
-216.567	646.368	-0.073	0.186
-215.552	-101.275	0.258	0.063
-214.538	605.911	-0.115	-0.285
-213.523	449.958	0.100	0.220
-212.509	-33.653	-0.159	-0.087
-211.494	-4.899	0.015	0.010
-210.479	256.329	0.030	-0.052
-209.465	78.343	0.078	0.083
-208.450	-10.292	0.299	0.198
-207.436	58.877	0.145	0.142
-206.421	-110.456	0.183	-0.038
-205.406	-106.588	0.360	-0.080
-204.392	800.000	0.092	0.307
-203.377	-200.000	0.015	0.214
-202.363	-104.521	0.279	0.064
-201.348	17.935	-0.206	0.164
-200.333	63.191	0.073	0.073
-199.319	800.000	0.102	-0.373
-198.304	79.907	0.100	-0.107
-197.290	-14.521	0.221	0.142
-196.275	-21.814	0.173	-0.105
-195.260	230.317	0.054	0.089
-194.246	-37.921	-0.144	-0.076
-193.231	763.460	-0.155	-0.420
-192.217	-88.153	0.265	0.079
-191.202	301.278	0.047	0.087
-190.187	800.000	0.065	0.258
-189.173	-82.942	-0.312	-0.100
-188.158	-128.934	-0.306	-0.043
-187.144	-61.005	0.093	0.039
-186.129	-200.000	0.009	-0.126
-185.114	243.555	-0.171	0.286
-184.100	-198.851	0.216	0.001
-183.085	-2.216	-0.142	0.099
-182.071	-41.362	0.160	-0.082
-181.056	-64.590	-0.187	0.076
-180.042	277.130	0.003	0.006
-179.027	383.154	-0.106	0.218
-178.012	-200.000	-0.106	0.505
-176.998	4.383	0.089	-0.065
-175.983	-184.341	0.046	-0.001
-174.969	630.846	-0.102	-0.257
-173.954	163.470	0.104	0.146
-172.939	124.990	0.187	-0.234
-171.925	59.243	0.151	0.148
-170.910	505.351	0.064	0.148
-169.896	-83.477	-0.119	0.038
-168.881	-200.000	-0.046	-0.358
-167.866	-127.554	-0.429	-0.062
-166.852	27.204	0.087	-0.073
-165.837	-139.851	-0.031	0.003
-164.823	-139.068	0.476	0.051
-163.808	60.795	-0.247	0.243
-162.793	-62.584	0.226	0.093
-161.779	-116.714	0.264	-0.048
-160.764	11.748	0.172	-0.131
-159.750	800.000	-0.089	0.330
-158.735	197.722	0.149	-0.227
-157.720	796.613	-0.097	0.266
-156.706	-132.311	0.127	-0.016
-155.691	608.902	0.081	0.201
-154.677	102.102	0.059	0.069
-153.662	-23.179	-0.210	-0.125
-152.647	-0.766	-0.127	-0.089
-151.633	198.727	0.121	-0.184
-150.618	148.770	0.145	-0.194
-149.604	-54.606	-0.403	-0.181
-148.589	800.000	-0.098	-0.319
-147.574	35.317	-0.168	-0.146
-146.560	-126.885	0.109	-0.016
-145.545	-62.037	0.047	-0.020
-144.531	18.537	0.073	-0.058
-143.516	-167.393	0.353	-0.014
-142.502	-85.742	0.120	0.037
-141.487	-57.987	0.310	-0.134
-140.472	-121.316	0.147	-0.024
-139.458	135.093	0.041	0.053
-138.443	490.549	0.117	-0.266
-137.429	800.000	-0.011	0.037
-136.414	-23.425	0.312	0.186
-135.399	-143.715	-0.221	-0.021
-134.385	681.607	0.101	0.261
-133.370	-73.976	0.305	-0.110
-132.356	-99.199	-0.081	0.020
-131.341	-137.757	0.105	0.012
-130.326	67.051	0.264	-0.267
-129.312	-200.000	0.043	-0.264
-128.297	218.630	0.051	0.080
-127.283	-200.000	-0.017	0.122
-126.268	287.752	0.008	0.015
-125.253	-145.391	-0.071	-0.006
-124.239	49.091	0.222	-0.207
-123.224	-24.902	-0.183	0.108
-122.210	-105.660	0.377	0.085
-121.195	182.601	-0.187	-0.274
