DTS Sentinel unit serial number:	SN413079Multiplexer serial number:	ORYXHardware model number:	OX4-SRSoftware version number:	ORYX F/W v4.00 Oryx Data Collector v3.7.2.0data status	okinstallation	princeton_trtdifferential loss correction	single-endedforward channel	channel 3reverse channel	N/Adate	2019/09/12time	12:10:11forward acquisition time	60.00reverse acquisition time	0.00gamma	496.2192k internal	0.2292k external	0.2292temperature offset calibration	1.0044default loss term (dB/km)	0.3790temperature slope calibration	1.0000multiplexer offset coefficient	1.0000multiplexer slope coefficient	1.0000fibre end	0.00T internal ref (°C)	40.56T ext. ref 1 (°C)	2.03T ext. ref 2 (°C)	36.19length (m)	temperature (°C)	Stokes	anti-Stokes-747.200	-26.191	-0.179	0.107
-746.185	768.595	-0.133	0.369
-745.171	-15.970	-0.381	0.248
-744.156	-200.000	-0.046	0.248
-743.142	-200.000	0.038	-0.322
-742.127	-200.000	0.003	0.032
-741.112	-119.002	-0.328	-0.059
-740.098	800.000	-0.083	0.271
-739.083	800.000	0.024	-0.104
-738.069	26.260	-0.324	0.277
-737.054	800.000	0.022	0.075
-736.039	-125.663	0.176	0.027
-735.025	247.889	-0.181	0.313
-734.010	-31.682	-0.216	-0.124
-732.996	-166.182	-0.095	-0.004
-731.981	545.103	-0.100	-0.244
-730.966	-4.533	0.043	0.031
-729.952	110.124	0.169	-0.207
-728.937	400.939	0.121	0.259
-727.923	-160.920	-0.223	-0.012
-726.908	-134.212	0.187	0.024
-725.894	-106.956	-0.005	-0.001
-724.879	800.000	-0.072	0.256
-723.864	-181.684	-0.187	0.004
-722.850	-137.871	0.206	-0.024
-721.835	-158.617	-0.564	-0.033
-720.821	-26.232	0.272	0.164
-719.806	427.653	0.142	-0.314
-718.791	-160.273	0.207	0.011
-717.777	-56.185	0.426	0.194
-716.762	27.488	-0.262	-0.225
-715.748	-51.769	-0.164	-0.078
-714.733	-200.000	-0.056	-0.339
-713.718	7.445	-0.087	0.066
-712.704	26.991	0.225	0.193
-711.689	-200.000	0.027	0.231
-710.675	223.965	-0.082	0.135
-709.660	800.000	-0.014	0.054
-708.645	58.319	-0.223	-0.224
-707.631	211.373	0.050	0.080
-706.616	363.500	0.055	-0.113
-705.602	89.860	0.108	0.124
-704.587	-187.947	-0.417	0.006
-703.572	-44.829	-0.436	0.222
-702.558	35.267	-0.064	0.057
-701.543	800.000	-0.042	0.172
-700.529	-54.449	0.217	0.101
-699.514	3.987	-0.266	-0.199
-698.499	-31.215	0.317	-0.182
-697.485	-200.000	-0.032	0.243
-696.470	76.859	-0.136	-0.147
-695.456	-107.740	0.188	0.042
-694.441	-21.651	-0.204	-0.127
-693.426	101.990	-0.053	0.063
-692.412	-200.000	-0.010	-0.319
-691.397	-51.848	-0.050	-0.024
-690.383	-200.000	-0.082	-0.425
-689.368	77.407	0.116	-0.126
-688.354	-200.000	-0.001	-0.182
-687.339	102.887	0.137	-0.164
-686.324	-60.422	-0.301	-0.131
-685.310	-46.345	-0.251	0.126
-684.295	302.667	0.092	0.175
-683.281	-37.153	-0.280	0.153
-682.266	13.446	0.258	-0.204
-681.251	-112.389	-0.046	-0.009
-680.237	-167.981	-0.322	-0.013
-679.222	-29.065	-0.237	-0.139
-678.208	-72.811	0.243	-0.091
-677.193	-200.000	-0.010	0.076
-676.178	-161.452	-0.073	-0.004
-675.164	-124.056	-0.424	0.068
-674.149	800.000	0.082	-0.361
-673.135	-26.342	-0.299	-0.179
-672.120	-72.907	-0.100	-0.038
-671.105	-82.403	-0.164	-0.054
-670.091	-59.270	-0.418	0.184
-669.076	800.000	0.025	-0.073
-668.062	18.531	-0.029	0.024
-667.047	28.715	0.087	-0.075
-666.032	358.561	-0.152	-0.309
-665.018	-105.917	0.046	0.011
-664.003	800.000	0.072	0.216
-662.989	-94.610	-0.510	0.142
-661.974	247.279	0.141	-0.243
-660.959	-132.306	0.323	0.043
-659.945	-101.465	0.270	0.067
-658.930	316.633	-0.086	0.165
-657.916	57.620	-0.103	0.102
-656.901	131.631	0.134	0.176
-655.886	282.305	0.091	0.166
-654.872	81.784	0.134	-0.148
-653.857	-73.980	0.255	-0.094
-652.843	-200.000	-0.052	0.333
-651.828	-200.000	-0.061	0.451
-650.814	653.621	0.035	-0.091
-649.799	-96.990	0.074	-0.020
-648.784	501.549	0.102	-0.241
-647.770	-77.047	0.195	-0.069
-646.755	81.055	-0.179	-0.197
-645.741	101.155	-0.042	0.050
-644.726	-200.000	0.025	-0.117
-643.711	-10.673	-0.174	-0.118
-642.697	451.051	0.093	-0.208
-641.682	-56.999	-0.140	0.063
-640.668	1.854	-0.086	-0.063
-639.653	-200.000	0.007	-0.199
-638.638	194.841	-0.168	0.259
-637.624	-1.641	0.123	0.088
-636.609	800.000	0.064	0.224
-635.595	-116.321	0.104	0.020
-634.580	76.460	-0.202	0.219
-633.565	62.663	-0.137	-0.140
-632.551	-48.114	0.293	-0.144
-631.536	-97.192	0.104	0.028
-630.522	27.776	0.056	-0.048
-629.507	179.922	0.022	0.033
-628.492	-69.322	-0.213	0.083
-627.478	-131.126	-0.066	0.009
-626.463	800.000	0.055	-0.193
-625.449	215.970	-0.213	-0.345
-624.434	800.000	0.099	0.347
-623.419	-52.273	-0.207	-0.098
-622.405	73.095	0.202	0.215
-621.390	42.246	-0.208	-0.193
-620.376	800.000	-0.040	0.166
-619.361	-200.000	-0.021	0.152
-618.346	-200.000	-0.095	0.455
-617.332	-200.000	0.013	0.190
-616.317	-200.000	0.025	-0.155
-615.303	-189.605	0.306	0.004
-614.288	-136.023	0.171	-0.020
-613.273	-200.000	0.003	0.023
-612.259	-73.387	-0.204	-0.076
-611.244	-200.000	-0.013	-0.154
-610.230	29.777	-0.178	-0.154
-609.215	-200.000	0.024	-0.164
-608.201	-127.878	0.148	-0.022
-607.186	-147.691	0.252	0.022
-606.171	-38.907	-0.097	-0.052
-605.157	160.441	-0.141	-0.200
-604.142	-200.000	-0.071	-0.569
-603.128	19.131	-0.244	0.199
-602.113	445.599	-0.054	0.121
-601.098	-150.736	-0.274	0.021
-600.084	333.651	0.047	0.093
-599.069	665.918	-0.150	0.395
-598.055	800.000	0.053	-0.175
-597.040	180.971	-0.079	0.119
-596.025	800.000	-0.033	0.097
-595.011	359.689	0.152	0.310
-593.996	554.367	-0.126	0.309
-592.982	-73.100	-0.192	-0.072
-591.967	-200.000	0.018	0.150
-590.952	-17.968	-0.187	0.120
-589.938	800.000	-0.067	-0.219
-588.923	-200.000	-0.044	-0.207
-587.909	-200.000	0.025	-0.183
-586.894	-200.000	-0.050	-0.298
-585.879	279.487	0.090	-0.164
-584.865	73.915	-0.253	0.270
-583.850	-58.266	-0.259	0.114
-582.836	-86.194	-0.087	-0.027
-581.821	86.596	-0.122	0.137
-580.806	40.329	-0.491	-0.449
-579.792	-200.000	0.032	0.188
-578.777	-123.566	0.175	-0.028
-577.763	51.505	0.038	0.036
-576.748	800.000	-0.087	0.351
-575.733	381.801	-0.120	0.251
-574.719	116.070	-0.068	0.084
-573.704	-135.794	0.131	0.016
-572.690	19.397	-0.202	0.165
-571.675	-90.373	0.354	0.104
-570.661	-200.000	0.041	-0.203
-569.646	-99.105	0.207	0.053
-568.631	-145.457	-0.347	0.032
-567.617	-200.000	-0.059	0.351
-566.602	-200.000	0.062	0.325
-565.588	-21.081	-0.136	0.085
-564.573	147.077	-0.200	0.274
-563.558	68.754	0.118	-0.124
-562.544	-64.434	0.179	0.074
-561.529	-200.000	-0.010	0.044
-560.515	-41.307	0.180	-0.094
-559.500	292.052	0.138	0.256
-558.485	-130.606	0.093	-0.013
-557.471	90.034	0.161	0.183
-556.456	119.476	0.169	0.213
-555.442	289.499	-0.125	-0.230
-554.427	-200.000	-0.072	0.362
-553.412	-59.162	-0.348	-0.153
-552.398	-66.319	0.174	0.070
-551.383	-139.086	-0.272	0.030
-550.369	-97.160	-0.196	-0.052
-549.354	139.565	0.190	-0.255
-548.339	30.317	-0.210	0.183
-547.325	-110.129	-0.124	-0.026
-546.310	-200.000	-0.011	0.074
-545.296	179.604	-0.086	0.128
-544.281	-200.000	-0.012	-0.065
-543.266	800.000	0.031	-0.115
-542.252	-200.000	-0.068	-0.320
-541.237	26.265	-0.107	0.091
-540.223	224.151	0.161	0.264
-539.208	-26.463	0.335	0.199
-538.193	229.517	-0.105	-0.174
-537.179	-18.983	-0.053	-0.034
-536.164	800.000	0.061	0.231
-535.150	135.891	0.059	0.078
-534.135	-0.951	0.292	0.210
-533.121	800.000	-0.079	-0.285
-532.106	-57.139	-0.410	-0.183
-531.091	48.918	0.121	-0.115
-530.077	-200.000	-0.009	-0.213
-529.062	22.365	0.097	0.081
-528.048	83.972	-0.203	0.225
-527.033	554.681	-0.042	0.102
-526.018	-128.600	0.291	-0.042
-525.004	-58.474	0.456	0.201
-523.989	-63.521	-0.067	0.028
-522.975	228.787	-0.177	-0.293
-521.960	-200.000	0.018	-0.267
-520.945	800.000	0.124	0.364
-519.931	32.792	0.125	0.110
-518.916	-85.630	-0.196	-0.062
-517.902	-200.000	0.016	0.286
-516.887	800.000	-0.023	0.075
-515.872	26.137	-0.079	0.067
-514.858	131.508	-0.210	-0.274
-513.843	82.983	0.136	-0.150
-512.829	-153.769	0.221	0.015
-511.814	800.000	-0.042	0.133
-510.799	800.000	-0.065	0.199
-509.785	134.458	-0.183	0.241
-508.770	-175.270	-0.080	-0.002
-507.756	26.543	0.241	-0.204
-506.741	-40.222	0.235	0.124
-505.726	329.010	-0.181	0.353
-504.712	-102.756	-0.225	-0.054
-503.697	800.000	-0.036	0.138
-502.683	-102.434	-0.081	0.020
-501.668	-105.569	-0.228	-0.052
-500.653	-74.633	0.111	0.040
-499.639	204.185	0.296	0.465
-498.624	-200.000	-0.046	-0.211
-497.610	800.000	-0.029	-0.105
-496.595	609.398	-0.076	0.192
-495.581	-89.957	-0.149	-0.044
-494.566	-9.350	-0.180	0.122
-493.551	-144.834	0.091	-0.008
-492.537	1.443	0.208	-0.152
-491.522	26.468	-0.089	-0.075
-490.508	-39.720	0.276	0.146
-489.493	-131.612	-0.223	0.030
-488.478	43.984	0.144	-0.134
-487.464	137.012	0.187	-0.248
-486.449	800.000	-0.037	-0.115
-485.435	-200.000	-0.003	-0.288
-484.420	-1.269	-0.177	-0.126
-483.405	177.823	0.111	-0.164
-482.391	575.338	-0.083	-0.206
-481.376	462.947	-0.077	-0.173
-480.362	-38.593	-0.376	0.201
-479.347	-81.698	-0.049	-0.016
-478.332	800.000	0.053	0.153
-477.318	-86.943	-0.332	-0.103
-476.303	117.358	-0.124	0.154
-475.289	4.057	0.293	-0.217
-474.274	-199.272	-0.385	0.002
-473.259	766.782	0.142	0.392
-472.245	-200.000	0.014	0.400
-471.230	-200.000	0.031	0.262
-470.216	-25.282	-0.036	0.022
-469.201	131.110	0.111	-0.144
-468.186	-200.000	-0.013	0.138
-467.172	-200.000	-0.062	0.318
-466.157	800.000	0.043	-0.128
-465.143	453.579	-0.079	0.178
-464.128	800.000	0.066	-0.275
-463.113	-101.718	0.233	0.057
-462.099	321.431	0.107	-0.207
-461.084	271.386	0.082	0.146
-460.070	113.135	-0.430	0.528
-459.055	800.000	0.087	0.262
-458.040	146.197	-0.039	0.053
-457.026	-118.461	0.118	-0.021
-456.011	38.827	-0.343	0.310
-454.997	82.917	0.086	0.095
-453.982	297.745	0.034	0.063
-452.968	21.300	0.189	0.155
-451.953	800.000	0.096	-0.279
-450.938	227.290	0.175	-0.288
-449.924	-108.191	0.052	0.011
-448.909	-2.687	0.278	-0.197
-447.895	57.169	-0.131	-0.130
-446.880	272.982	-0.172	0.307
-445.865	-117.450	-0.058	-0.011
-444.851	41.207	-0.127	-0.116
-443.836	-200.000	0.015	-0.229
-442.822	730.710	0.043	-0.117
-441.807	800.000	0.124	-0.376
-440.792	487.389	-0.151	-0.349
-439.778	124.342	0.354	-0.450
-438.763	800.000	-0.128	-0.362
-437.749	591.247	0.044	-0.109
-436.734	-78.842	0.334	0.115
-435.719	576.261	0.092	-0.227
-434.705	-81.555	0.201	-0.067
-433.690	-200.000	-0.001	0.106
-432.676	-112.669	0.172	-0.035
-431.661	134.377	0.116	0.152
-430.646	-21.064	-0.393	-0.243
-429.632	215.017	0.135	-0.216
-428.617	1.904	0.087	0.063
-427.603	-36.011	-0.077	-0.042
-426.588	-200.000	-0.014	-0.276
-425.573	-155.685	0.199	0.013
-424.559	185.557	-0.333	0.499
-423.544	-189.117	0.209	-0.003
-422.530	-82.455	0.259	-0.085
-421.515	-55.702	-0.232	0.105
-420.500	-82.984	0.368	-0.120
-419.486	-200.000	0.008	0.360
-418.471	27.868	-0.141	-0.121
-417.457	-200.000	-0.003	0.067
-416.442	143.400	0.172	-0.231
-415.428	-200.000	0.039	-0.289
-414.413	-60.660	0.132	-0.057
-413.398	-200.000	-0.028	0.274
-412.384	53.331	0.223	0.216
-411.369	800.000	-0.029	-0.106
-410.355	37.183	-0.053	0.048
-409.340	150.149	0.066	-0.091
-408.325	-100.791	-0.240	0.060
-407.311	-78.980	0.307	0.106
-406.296	800.000	0.141	0.426
-405.282	-53.337	0.248	-0.115
-404.267	-143.195	0.241	-0.023
-403.252	-165.522	0.243	-0.011
-402.238	-106.709	0.161	-0.036
-401.223	140.221	0.089	-0.119
-400.209	-109.845	-0.060	0.013
-399.194	28.258	-0.184	0.157
-398.179	549.514	0.080	-0.194
-397.165	800.000	-0.054	-0.153
-396.150	258.262	-0.038	-0.067
-395.136	-141.400	-0.182	0.019
-394.121	321.383	0.097	0.187
-393.106	-143.937	-0.075	0.007
-392.092	-200.000	-0.008	0.143
-391.077	-63.841	0.218	-0.090
-390.063	-31.061	0.105	-0.060
-389.048	67.066	0.054	-0.056
-388.033	5.666	0.185	-0.138
-387.019	-196.138	-0.252	0.002
-386.004	-133.857	-0.264	-0.033
-384.990	-175.123	-0.323	-0.009
-383.975	61.129	-0.203	0.203
-382.960	35.623	0.059	-0.053
-381.946	-108.190	-0.217	-0.047
-380.931	66.919	0.312	0.321
-379.917	-174.382	-0.223	-0.006
-378.902	-200.000	-0.007	0.419
-377.888	-200.000	0.013	0.355
-376.873	-91.937	-0.544	-0.156
-375.858	59.741	-0.154	-0.154
-374.844	-49.522	0.113	-0.054
-373.829	-200.000	0.048	0.320
-372.815	-113.249	-0.065	-0.013
-371.800	-111.936	0.179	0.036
-370.785	-200.000	-0.016	-0.197
-369.771	-200.000	-0.026	0.591
-368.756	40.643	-0.102	0.093
-367.742	-154.155	0.271	-0.018
-366.727	23.501	-0.232	-0.192
-365.712	-56.570	0.026	0.011
-364.698	318.599	0.099	-0.190
-363.683	-200.000	0.012	-0.169
-362.669	95.897	0.266	-0.307
-361.654	800.000	-0.101	-0.360
-360.639	24.933	0.322	-0.269
-359.625	-78.486	0.012	0.004
-358.610	-4.782	-0.249	0.173
-357.596	-200.000	-0.034	-0.192
-356.581	800.000	-0.092	-0.290
-355.566	-200.000	-0.027	-0.387
-354.552	224.959	0.231	0.376
-353.537	343.936	-0.061	-0.120
-352.523	744.713	-0.076	-0.207
-351.508	52.208	-0.034	0.033
-350.493	-10.044	-0.181	0.121
-349.479	-200.000	-0.048	-0.255
-348.464	269.626	0.141	-0.250
-347.450	113.678	0.162	-0.199
-346.435	326.015	0.142	0.274
-345.420	47.494	-0.079	-0.075
-344.406	-193.172	0.167	-0.001
-343.391	800.000	0.055	0.184
-342.377	250.557	-0.056	0.096
-341.362	195.212	-0.044	-0.067
-340.348	-21.137	0.300	-0.185
-339.333	67.217	0.367	-0.377
-338.318	-200.000	0.005	0.063
-337.304	390.497	0.109	-0.228
-336.289	70.313	0.173	-0.180
-335.275	181.181	-0.186	-0.275
-334.260	156.560	-0.031	-0.043
-333.245	-60.443	0.153	0.066
-332.231	-43.544	0.190	0.096
-331.216	-38.120	0.299	0.160
-330.202	-7.020	0.250	0.171
-329.187	-150.717	0.174	-0.013
-328.172	-200.000	-0.045	0.363
-327.158	18.032	0.251	-0.202
-326.143	-200.000	-0.017	-0.127
-325.129	800.000	-0.102	0.325
-324.114	-200.000	-0.063	0.342
-323.099	16.604	-0.105	0.084
-322.085	-70.921	0.248	0.094
-321.070	-200.000	0.028	-0.193
-320.056	-200.000	-0.012	-0.150
-319.041	-0.778	0.094	-0.067
-318.026	216.428	0.186	-0.297
-317.012	-200.000	-0.026	-0.166
-315.997	508.626	-0.143	-0.333
-314.983	-5.276	-0.247	-0.171
-313.968	-80.324	-0.187	-0.063
-312.953	-200.000	-0.084	-0.397
-311.939	-39.171	0.117	-0.062
-310.924	154.203	-0.051	0.070
-309.910	-200.000	0.038	0.449
-308.895	57.087	-0.095	0.093
-307.880	-108.447	-0.454	0.098
-306.866	533.644	-0.083	0.198
-305.851	-200.000	-0.015	-0.125
-304.837	95.487	0.173	0.199
-303.822	324.919	-0.121	-0.233
-302.807	-119.732	0.337	0.058
-301.793	800.000	0.058	0.241
-300.778	-160.353	-0.199	-0.011
-299.764	-160.004	0.178	0.010
-298.749	221.795	0.106	0.171
-297.735	-47.782	0.068	0.033
-296.720	60.559	-0.237	0.237
-295.705	517.304	-0.106	0.250
-294.691	61.315	-0.149	-0.149
-293.676	-84.656	0.445	0.141
-292.662	-200.000	0.010	0.081
-291.647	-200.000	0.050	-0.532
-290.632	-14.518	-0.208	-0.134
-289.618	559.167	-0.038	0.093
-288.603	-117.916	0.158	0.029
-287.589	486.615	0.036	0.082
-286.574	-34.124	0.183	0.101
-285.559	-32.147	-0.128	-0.072
-284.545	13.131	0.163	-0.127
-283.530	800.000	0.091	-0.283
-282.516	-92.468	0.218	0.062
-281.501	800.000	0.135	-0.387
-280.486	-200.000	-0.014	0.307
-279.472	-149.803	0.286	0.023
-278.457	-53.625	-0.182	-0.084
-277.443	-8.497	0.034	0.023
-276.428	-100.894	0.048	-0.012
-275.413	58.852	-0.117	0.116
-274.399	-28.116	-0.150	0.087
-273.384	-15.540	-0.179	0.115
-272.370	-67.561	0.285	0.112
-271.355	-188.318	-0.176	-0.002
-270.340	-119.627	-0.168	-0.029
-269.326	73.965	-0.075	0.079
-268.311	-200.000	0.004	0.105
-267.297	-97.118	0.274	-0.072
-266.282	-200.000	0.005	-0.305
-265.267	-101.063	0.121	-0.030
-264.253	-200.000	0.040	-0.312
-263.238	-149.107	-0.171	0.014
-262.224	800.000	-0.135	-0.396
-261.209	-200.000	0.007	0.115
-260.195	97.715	0.201	0.232
-259.180	79.611	-0.105	-0.114
-258.165	-156.715	-0.103	0.006
-257.151	-20.630	0.228	-0.141
-256.136	83.745	-0.177	0.194
-255.122	-70.180	0.144	-0.055
-254.107	292.057	0.096	0.175
-253.092	-200.000	0.046	0.304
-252.078	-200.000	0.015	-0.173
-251.063	-68.600	0.232	-0.090
-250.049	800.000	-0.021	-0.091
-249.034	7.120	-0.305	0.228
-248.019	800.000	-0.089	0.355
-247.005	502.741	-0.103	0.239
-245.990	800.000	0.128	0.386
-244.976	-52.802	0.087	0.040
-243.961	583.146	0.075	0.185
-242.946	113.777	-0.118	0.144
-241.932	-106.337	-0.210	0.047
-240.917	-102.475	-0.361	-0.087
-239.903	43.776	0.167	0.154
-238.888	180.647	0.034	-0.051
-237.873	-110.590	-0.381	0.079
-236.859	34.693	0.253	0.222
-235.844	17.281	-0.082	-0.065
-234.830	-20.682	-0.301	-0.185
-233.815	800.000	-0.075	-0.247
-232.800	-106.499	0.415	0.093
-231.786	800.000	0.065	-0.207
-230.771	-200.000	-0.125	0.553
-229.757	112.960	-0.115	-0.140
-228.742	-28.233	-0.336	-0.195
-227.727	96.771	0.190	-0.218
-226.713	-14.636	0.122	0.078
-225.698	-200.000	0.045	0.336
-224.684	23.237	-0.397	-0.327
-223.669	-124.431	0.324	0.051
-222.655	800.000	-0.040	-0.125
-221.640	490.943	-0.012	-0.027
-220.625	800.000	0.054	0.150
-219.611	-86.542	0.084	-0.026
-218.596	162.769	0.144	-0.203
-217.582	-21.988	-0.233	0.142
-216.567	-64.448	0.175	0.071
-215.552	-200.000	0.115	-0.625
-214.538	-79.578	0.287	-0.097
-213.523	-15.697	0.394	-0.252
-212.509	25.142	0.206	0.172
-211.494	-152.574	-0.220	0.016
-210.479	415.077	0.079	-0.168
-209.465	800.000	-0.011	-0.047
-208.450	6.798	-0.132	-0.098
-207.436	-54.581	-0.131	0.059
-206.421	-200.000	0.043	-0.350
-205.406	-200.000	-0.151	-0.000
-204.392	-69.609	0.107	0.041
-203.377	16.099	0.327	0.258
-202.363	-185.281	-0.134	-0.002
-201.348	800.000	-0.027	-0.113
-200.333	-33.428	-0.099	0.055
-199.319	69.026	-0.357	-0.368
-198.304	667.827	0.146	-0.379
-197.290	800.000	-0.041	0.136
-196.275	-140.129	0.238	-0.025
-195.260	257.288	0.148	0.255
-194.246	182.062	-0.186	0.274
-193.231	165.945	-0.138	0.196
-192.217	-85.757	-0.099	-0.031
-191.202	45.085	0.137	-0.126
-190.187	-49.546	-0.140	-0.067
-189.173	-13.742	0.092	0.060
-188.158	88.537	-0.166	-0.185
-187.144	-200.000	-0.013	-0.092
-186.129	-38.973	-0.181	0.095
-185.114	-128.874	-0.035	0.005
-184.100	88.024	-0.207	0.230
-183.085	800.000	0.042	-0.123
-182.071	-31.678	-0.147	0.083
-181.056	489.190	-0.059	-0.136
-180.042	-158.018	0.141	0.008
-179.027	163.386	-0.067	-0.095
-178.012	-200.000	-0.047	0.312
-176.998	-38.242	-0.088	0.047
-175.983	-200.000	0.037	0.173
-174.969	800.000	-0.039	-0.126
-173.954	-30.195	-0.097	0.055
-172.939	160.205	0.089	-0.124
-171.925	-37.305	-0.120	-0.064
-170.910	-38.368	0.223	0.118
-169.896	800.000	0.018	0.054
-168.881	-94.537	-0.182	-0.050
-167.866	-23.990	0.249	0.149
-166.852	-144.783	0.105	-0.010
-165.837	270.782	-0.012	-0.021
-164.823	-48.597	-0.101	-0.048
-163.808	-200.000	0.003	0.201
-162.793	-99.236	-0.131	-0.033
-161.779	142.197	-0.236	-0.313
-160.764	-98.224	-0.111	-0.028
-159.750	312.157	-0.147	-0.276
-158.735	-12.133	0.166	-0.109
-157.720	487.664	-0.227	-0.517
-156.706	1.477	-0.105	-0.076
-155.691	800.000	0.038	-0.125
-154.677	380.005	0.182	0.372
-153.662	-1.837	0.189	0.133
-152.647	-31.277	0.133	-0.075
-151.633	-10.404	-0.177	0.117
-150.618	449.467	0.029	0.065
-149.604	-46.662	0.454	-0.222
-148.589	-200.000	0.022	0.110
-147.574	-200.000	0.016	-0.146
-146.560	15.201	-0.293	-0.229
-145.545	15.650	-0.072	0.057
-144.531	138.682	-0.049	0.064
-143.516	2.741	-0.243	0.176
-142.502	-72.267	0.248	-0.092
-141.487	-166.167	-0.290	0.012
-140.472	120.510	-0.063	-0.079
-139.458	77.595	0.137	0.146
-138.443	282.247	-0.059	-0.106
-137.429	800.000	-0.029	0.121
-136.414	88.620	-0.178	-0.198
-135.399	-121.450	-0.208	-0.035
-134.385	800.000	0.066	0.270
-133.370	-101.366	-0.370	0.090
-132.356	482.007	-0.060	0.137
-131.341	-200.000	-0.040	-0.379
-130.326	287.040	-0.092	0.166
-129.312	585.205	-0.101	0.248
-128.297	460.911	-0.079	-0.175
-127.283	-21.368	0.091	-0.055
-126.268	-123.631	0.085	0.014
-125.253	-119.935	-0.211	-0.036
-124.239	-0.810	-0.190	-0.134
-123.224	-200.000	0.001	-0.025
-122.210	230.726	0.084	-0.137
