DTS Sentinel unit serial number:	SN413079Multiplexer serial number:	ORYXHardware model number:	OX4-SRSoftware version number:	ORYX F/W v4.00 Oryx Data Collector v3.7.2.0data status	okinstallation	princeton_trtdifferential loss correction	single-endedforward channel	channel 3reverse channel	N/Adate	2019/09/13time	09:04:35forward acquisition time	60.00reverse acquisition time	0.00gamma	496.2192k internal	0.2327k external	0.2327temperature offset calibration	1.0139default loss term (dB/km)	0.3790temperature slope calibration	1.0000multiplexer offset coefficient	1.0000multiplexer slope coefficient	1.0000fibre end	0.00T internal ref (°C)	28.56T ext. ref 1 (°C)	4.38T ext. ref 2 (°C)	26.00length (m)	temperature (°C)	Stokes	anti-Stokes-747.200	84.197	-0.103	0.113
-746.185	-101.778	-0.224	0.055
-745.171	174.502	0.089	-0.130
-744.156	-116.788	-0.428	-0.079
-743.142	42.031	0.209	0.191
-742.127	72.729	-0.096	0.101
-741.112	80.888	-0.216	-0.235
-740.098	73.533	-0.118	-0.124
-739.083	-49.128	-0.301	-0.145
-738.069	-195.081	0.026	0.000
-737.054	4.755	-0.122	0.090
-736.039	800.000	0.074	0.228
-735.025	183.010	0.242	0.360
-734.010	0.173	-0.290	-0.208
-732.996	-200.000	-0.037	-0.383
-731.981	800.000	-0.044	-0.133
-730.966	-200.000	0.107	0.520
-729.952	154.268	-0.208	-0.287
-728.937	-7.735	0.177	-0.120
-727.923	800.000	0.040	-0.158
-726.908	800.000	-0.055	-0.227
-725.894	-59.142	0.293	0.127
-724.879	-154.011	-0.121	0.008
-723.864	-1.708	-0.136	-0.097
-722.850	30.999	-0.183	0.158
-721.835	-46.024	-0.235	0.117
-720.821	52.299	0.176	0.170
-719.806	-105.748	-0.083	-0.019
-718.791	-40.830	0.042	-0.022
-717.777	-32.879	0.112	-0.063
-716.762	-72.522	-0.395	-0.147
-715.748	106.021	0.161	-0.192
-714.733	131.788	-0.096	0.125
-713.718	468.928	0.144	0.326
-712.704	324.863	0.251	-0.482
-711.689	313.930	-0.039	0.074
-710.675	136.854	0.094	0.124
-709.660	74.090	0.091	0.096
-708.645	-77.171	0.235	0.082
-707.631	-174.942	-0.067	-0.002
-706.616	241.218	-0.214	0.359
-705.602	-50.187	-0.136	-0.065
-704.587	-200.000	-0.031	-0.245
-703.572	-81.272	0.113	-0.038
-702.558	-14.493	-0.226	-0.147
-701.543	19.720	-0.263	-0.213
-700.529	-39.804	0.139	0.073
-699.514	800.000	-0.113	-0.325
-698.499	324.863	0.233	-0.449
-697.485	-40.120	-0.196	0.103
-696.470	146.557	-0.144	0.194
-695.456	-133.908	-0.088	-0.011
-694.441	-80.405	0.276	0.093
-693.426	418.840	0.019	0.040
-692.412	446.699	-0.055	-0.121
-691.397	307.707	0.094	0.177
-690.383	-142.102	-0.135	-0.013
-689.368	-44.266	0.251	-0.127
-688.354	-90.040	-0.309	0.091
-687.339	104.324	-0.043	0.051
-686.324	-9.129	-0.044	0.030
-685.310	1.606	0.098	-0.071
-684.295	8.727	0.077	-0.058
-683.281	-102.915	-0.224	-0.054
-682.266	-200.000	0.001	-0.427
-681.251	-23.612	0.020	0.012
-680.237	9.510	-0.248	0.189
-679.222	-200.000	-0.029	-0.162
-678.208	206.382	0.116	0.181
-677.193	22.742	0.032	0.026
-676.178	-8.526	-0.250	-0.169
-675.164	18.698	-0.119	0.096
-674.149	-200.000	0.027	0.171
-673.135	178.448	-0.101	-0.148
-672.120	217.593	-0.183	-0.294
-671.105	-115.279	0.203	0.039
-670.091	148.181	-0.114	0.155
-669.076	-101.199	0.062	-0.015
-668.062	42.025	-0.155	-0.141
-667.047	648.092	-0.073	0.188
-666.032	676.296	-0.049	-0.127
-665.018	-187.996	0.122	-0.002
-664.003	-165.667	-0.266	-0.012
-662.989	-200.000	-0.003	-0.311
-661.974	800.000	-0.052	-0.179
-660.959	210.787	-0.065	0.102
-659.945	-113.242	-0.195	0.039
-658.930	-94.297	0.313	-0.086
-657.916	800.000	-0.035	-0.118
-656.901	-200.000	-0.010	-0.506
-655.886	130.257	0.125	-0.161
-654.872	-135.466	-0.049	0.006
-653.857	-64.319	0.169	-0.069
-652.843	800.000	-0.025	-0.070
-651.828	-1.122	-0.170	0.121
-650.814	-75.642	0.222	-0.079
-649.799	-82.025	0.108	0.035
-648.784	153.140	-0.081	0.112
-647.770	800.000	-0.169	0.497
-646.755	213.083	-0.045	0.071
-645.741	-44.491	-0.363	0.182
-644.726	170.869	-0.233	-0.335
-643.711	-20.187	0.172	-0.107
-642.697	7.296	0.331	-0.248
-641.682	800.000	-0.097	-0.342
-640.668	2.974	0.210	-0.153
-639.653	-67.651	-0.103	0.041
-638.638	-156.852	-0.237	-0.015
-637.624	210.996	-0.084	-0.132
-636.609	800.000	0.091	0.284
-635.595	122.170	-0.193	-0.242
-634.580	800.000	-0.075	-0.303
-633.565	165.711	-0.126	-0.179
-632.551	-61.370	-0.251	-0.106
-631.536	242.090	0.042	-0.070
-630.522	486.062	-0.010	-0.023
-629.507	23.751	-0.325	-0.269
-628.492	-103.237	-0.374	-0.089
-627.478	-63.930	0.272	0.112
-626.463	-109.346	-0.295	0.063
-625.449	186.037	-0.115	0.172
-624.434	-200.000	0.009	-0.121
-623.419	103.937	0.128	-0.151
-622.405	-200.000	0.104	0.000
-621.390	-38.366	0.110	-0.058
-620.376	-46.775	-0.159	-0.078
-619.361	-200.000	0.037	0.310
-618.346	96.814	0.150	-0.172
-617.332	-168.182	-0.454	0.018
-616.317	-108.010	0.255	-0.055
-615.303	-200.000	-0.010	-0.144
-614.288	800.000	0.055	-0.185
-613.273	-71.056	-0.122	0.046
-612.259	43.181	-0.259	0.237
-611.244	-73.705	-0.259	-0.095
-610.230	766.708	-0.069	-0.188
-609.215	21.316	0.288	-0.234
-608.201	86.849	-0.227	-0.251
-607.186	84.402	0.126	-0.138
-606.171	-90.326	0.279	0.081
-605.157	-200.000	0.006	0.041
-604.142	800.000	-0.029	0.098
-603.128	120.932	-0.155	0.194
-602.113	-200.000	0.005	-0.188
-601.098	-33.740	-0.301	-0.166
-600.084	-200.000	-0.026	-0.223
-599.069	800.000	0.062	-0.239
-598.055	97.298	0.439	-0.505
-597.040	-81.356	0.085	-0.028
-596.025	6.409	0.107	-0.080
-595.011	-52.779	-0.063	0.029
-593.996	-15.494	0.080	-0.051
-592.982	-147.107	-0.303	-0.026
-591.967	-135.607	0.330	-0.039
-590.952	-117.301	0.259	-0.047
-589.938	-200.000	0.002	0.250
-588.923	-200.000	0.024	0.344
-587.909	-58.793	-0.058	0.025
-586.894	-37.602	-0.060	-0.032
-585.879	-35.005	-0.324	-0.177
-584.865	-5.256	-0.080	0.055
-583.850	751.333	-0.113	-0.306
-582.836	-65.733	-0.087	0.035
-581.821	212.711	-0.180	-0.284
-580.806	-108.863	-0.181	0.039
-579.792	132.900	-0.138	-0.179
-578.777	-74.542	-0.156	0.056
-577.763	255.838	0.053	-0.092
-576.748	211.009	0.206	-0.324
-575.733	-35.783	0.216	-0.117
-574.719	-49.786	-0.361	0.172
-573.704	4.875	-0.380	0.280
-572.690	47.065	-0.153	-0.143
-571.675	-200.000	0.052	0.284
-570.661	800.000	0.094	0.297
-569.646	-200.000	0.030	-0.342
-568.631	-200.000	-0.022	-0.240
-567.617	-200.000	-0.043	-0.207
-566.602	246.458	0.063	-0.106
-565.588	-74.213	0.147	-0.053
-564.573	-109.266	-0.173	-0.037
-563.558	39.551	-0.259	0.233
-562.544	272.044	0.161	-0.284
-561.529	716.809	0.053	0.142
-560.515	-200.000	-0.018	-0.098
-559.500	-69.921	-0.107	0.041
-558.485	-56.457	-0.205	0.091
-557.471	253.382	0.125	0.214
-556.456	-106.216	-0.123	-0.028
-555.442	28.497	0.154	-0.130
-554.427	495.723	-0.130	-0.299
-553.412	-111.127	-0.230	0.047
-552.398	-50.282	-0.235	0.111
-551.383	114.983	-0.079	0.097
-550.369	-200.000	-0.019	0.251
-549.354	38.795	0.159	0.142
-548.339	-71.284	-0.084	-0.032
-547.325	-60.550	0.153	-0.065
-546.310	800.000	-0.071	-0.294
-545.296	-107.558	0.366	0.080
-544.281	440.083	-0.090	-0.197
-543.266	-26.499	-0.104	-0.061
-542.252	77.485	-0.137	-0.146
-541.237	206.144	0.067	0.105
-540.223	-200.000	0.011	-0.269
-539.208	-183.218	-0.267	-0.005
-538.193	-53.533	-0.144	-0.066
-537.179	14.514	-0.163	0.127
-536.164	198.317	-0.165	-0.252
-535.150	-200.000	0.018	0.149
-534.135	252.872	-0.133	0.227
-533.121	-6.224	0.126	0.086
-532.106	66.121	0.182	-0.185
-531.091	-150.414	-0.229	-0.018
-530.077	-89.713	-0.323	0.095
-529.062	-123.796	0.238	0.038
-528.048	61.404	0.192	-0.191
-527.033	546.066	-0.069	-0.165
-526.018	67.478	-0.055	-0.056
-525.004	-200.000	0.013	0.057
-523.989	-200.000	-0.029	0.187
-522.975	8.285	0.129	-0.097
-521.960	-53.518	0.110	0.050
-520.945	800.000	0.070	0.261
-519.931	800.000	-0.022	-0.088
-518.916	435.914	-0.032	-0.070
-517.902	13.287	0.123	0.096
-516.887	76.406	-0.096	0.101
-515.872	-167.668	-0.187	-0.007
-514.858	555.719	-0.035	0.083
-513.843	78.686	0.100	-0.107
-512.829	15.511	-0.261	0.205
-511.814	-200.000	0.011	0.335
-510.799	800.000	0.020	-0.080
-509.785	-200.000	-0.024	0.239
-508.770	385.759	-0.091	-0.188
-507.756	-102.701	-0.160	0.038
-506.741	122.418	0.100	-0.125
-505.726	800.000	-0.038	-0.122
-504.712	176.307	-0.112	-0.163
-503.697	-200.000	-0.018	0.249
-502.683	194.333	-0.047	-0.071
-501.668	-119.534	-0.275	0.048
-500.653	800.000	-0.107	-0.404
-499.639	29.022	0.097	0.082
-498.624	757.656	0.174	0.471
-497.610	-6.476	0.032	0.022
-496.595	473.918	-0.165	-0.373
-495.581	-200.000	-0.335	0.000
-494.566	-68.841	-0.248	0.096
-493.551	-92.744	0.431	-0.121
-492.537	-131.854	-0.089	-0.012
-491.522	236.437	0.131	-0.216
-490.508	448.148	-0.089	0.196
-489.493	47.399	0.139	0.130
-488.478	-72.790	-0.344	0.126
-487.464	154.734	0.082	0.113
-486.449	136.922	0.151	0.197
-485.435	-34.154	-0.210	0.115
-484.420	-200.000	0.015	-0.110
-483.405	379.944	-0.053	0.109
-482.391	-200.000	-0.033	-0.242
-481.376	325.168	-0.036	0.069
-480.362	800.000	-0.119	0.479
-479.347	-59.558	-0.190	0.081
-478.332	211.865	0.045	0.070
-477.318	-55.026	0.205	0.092
-476.303	399.697	0.055	-0.114
-475.289	-51.748	-0.284	-0.132
-474.274	-128.935	0.189	-0.027
-473.259	127.578	-0.120	0.153
-472.245	-200.000	-0.068	0.314
-471.230	-200.000	-0.040	-0.236
-470.216	2.936	0.010	-0.007
-469.201	-200.000	-0.197	-0.000
-468.186	275.547	-0.080	-0.141
-467.172	-78.696	0.238	-0.081
-466.157	-46.370	-0.043	0.021
-465.143	46.449	-0.203	-0.188
-464.128	34.876	0.163	0.143
-463.113	82.920	-0.119	0.129
-462.099	38.886	0.177	-0.157
-461.084	36.956	0.089	-0.079
-460.070	-200.000	-0.011	-0.062
-459.055	-79.858	0.351	-0.118
-458.040	79.280	-0.052	0.055
-457.026	-166.357	-0.403	-0.017
-456.011	800.000	0.064	0.187
-454.997	-67.153	-0.182	-0.071
-453.982	-151.756	0.431	-0.032
-452.968	-200.000	-0.017	-0.174
-451.953	-200.000	0.029	-0.130
-450.938	72.010	0.168	-0.175
-449.924	-80.150	0.299	-0.100
-448.909	-118.748	-0.261	-0.046
-447.895	-103.149	-0.412	-0.097
-446.880	-81.121	-0.079	0.026
-445.865	-98.148	-0.184	-0.047
-444.851	-16.554	0.203	0.128
-443.836	633.057	-0.023	-0.059
-442.822	-200.000	-0.005	-0.265
-441.807	9.036	-0.293	0.220
-440.792	800.000	0.096	0.399
-439.778	10.092	0.040	0.031
-438.763	-200.000	-0.014	0.344
-437.749	-19.656	-0.173	-0.107
-436.734	-10.143	-0.298	0.197
-435.719	-161.929	-0.031	0.002
-434.705	194.736	0.156	-0.235
-433.690	-30.760	0.307	-0.173
-432.676	-200.000	-0.004	-0.317
-431.661	-62.614	0.329	0.136
-430.646	-138.169	-0.225	0.025
-429.632	96.555	0.076	-0.087
-428.617	-200.000	0.044	-0.225
-427.603	25.866	0.120	-0.100
-426.588	-200.000	0.011	-0.123
-425.573	7.449	0.053	-0.039
-424.559	-77.820	0.103	-0.035
-423.544	354.719	0.054	-0.106
-422.530	-200.000	-0.010	-0.190
-421.515	-200.000	-0.016	0.280
-420.500	145.273	0.182	-0.242
-419.486	116.444	0.049	-0.060
-418.471	-116.159	0.181	-0.034
-417.457	-200.000	0.011	0.142
-416.442	-200.000	0.007	0.072
-415.428	60.364	-0.140	0.138
-414.413	-200.000	-0.012	0.134
-413.398	326.496	0.175	-0.334
-412.384	-14.981	0.214	-0.136
-411.369	800.000	-0.031	0.104
-410.355	578.212	0.086	-0.208
-409.340	-60.990	0.176	0.074
-408.325	800.000	-0.047	-0.189
-407.311	39.679	0.224	0.200
-406.296	-123.618	0.223	-0.035
-405.282	336.687	-0.018	-0.035
-404.267	-200.000	0.040	0.179
-403.252	69.194	0.082	0.084
-402.238	213.861	0.053	0.083
-401.223	35.370	0.070	-0.061
-400.209	-200.000	0.001	0.283
-399.194	356.117	-0.088	-0.175
-398.179	800.000	-0.074	-0.214
-397.165	800.000	0.124	0.374
-396.150	-200.000	0.058	0.294
-395.136	14.361	0.243	0.189
-394.121	43.269	0.168	-0.152
-393.106	-67.198	-0.181	0.071
-392.092	22.171	0.528	0.429
-391.077	18.573	0.102	0.081
-390.063	-200.000	0.016	-0.163
-389.048	365.453	-0.020	0.039
-388.033	-200.000	-0.031	0.320
-387.019	101.821	0.087	-0.101
-386.004	226.335	0.073	-0.117
-384.990	148.175	0.143	0.192
-383.975	-62.176	-0.134	0.056
-382.960	135.513	-0.141	0.182
-381.946	-63.177	0.042	0.017
-380.931	-55.681	-0.394	0.175
-379.917	-91.237	0.137	0.039
-378.902	558.088	-0.098	-0.236
-377.888	-39.935	0.181	0.094
-376.873	3.212	0.111	0.080
-375.858	-75.362	-0.225	-0.080
-374.844	-6.351	-0.325	0.220
-373.829	-101.999	0.258	-0.062
-372.815	-39.598	0.429	-0.223
-371.800	26.547	0.356	0.296
-370.785	-113.890	-0.307	0.059
-369.771	-140.281	0.177	-0.018
-368.756	163.941	-0.125	0.174
-367.742	414.648	-0.050	-0.106
-366.727	145.127	0.062	-0.082
-365.712	-79.408	-0.222	-0.075
-364.698	-112.146	0.232	0.046
-363.683	60.555	0.116	0.114
-362.669	-96.206	-0.261	-0.069
-361.654	114.999	-0.132	0.160
-360.639	800.000	0.036	0.108
-359.625	96.461	-0.148	-0.169
-358.610	800.000	-0.027	-0.077
-357.596	-120.421	0.108	-0.018
-356.581	695.094	0.065	-0.170
-355.566	-13.921	-0.230	0.148
-354.552	463.791	-0.055	-0.121
-353.537	788.402	-0.043	0.117
-352.523	393.699	-0.047	0.098
-351.508	650.172	-0.146	0.372
-350.493	-147.232	0.310	-0.026
-349.479	-121.594	-0.134	-0.022
-348.464	-76.669	0.277	-0.096
-347.450	-200.000	-0.025	-0.185
-346.435	118.567	-0.155	-0.191
-345.420	-57.829	-0.256	0.111
-344.406	-123.920	-0.374	-0.058
-343.391	-200.000	-0.034	0.314
-342.377	387.036	-0.144	0.295
-341.362	-63.785	0.326	0.132
-340.348	-200.000	0.016	-0.203
-339.333	-3.983	-0.145	-0.100
-338.318	-200.000	-0.011	-0.241
-337.304	-104.183	0.236	-0.054
-336.289	-134.193	0.176	0.022
-335.275	45.194	0.081	-0.075
-334.260	-135.226	0.160	-0.019
-333.245	-79.900	0.215	0.072
-332.231	-200.000	0.042	0.191
-331.216	-19.648	-0.153	-0.094
-330.202	-66.456	-0.283	-0.112
-329.187	482.425	-0.059	0.134
-328.172	800.000	0.071	-0.195
-327.158	185.022	0.162	-0.239
-326.143	658.687	-0.046	0.118
-325.129	-200.000	0.043	-0.227
-324.114	101.440	0.099	-0.115
-323.099	-72.017	0.434	-0.160
-322.085	571.760	0.088	0.212
-321.070	-200.000	0.049	-0.253
-320.056	800.000	0.042	0.169
-319.041	-90.078	-0.141	-0.041
-318.026	-200.000	0.027	0.177
-317.012	-108.210	0.139	-0.030
-315.997	-200.000	0.067	0.481
-314.983	189.803	-0.075	0.112
-313.968	59.153	-0.300	-0.293
-312.953	-27.452	0.234	-0.135
-311.939	122.231	0.149	-0.184
-310.924	800.000	-0.016	0.059
-309.910	-101.530	-0.129	0.031
-308.895	533.586	-0.011	-0.026
-307.880	414.169	-0.069	-0.145
-306.866	-15.686	0.180	0.114
-305.851	17.950	0.083	-0.066
-304.837	-200.000	0.023	-0.261
-303.822	37.926	0.247	-0.217
-302.807	-200.000	-0.011	-0.054
-301.793	49.374	0.149	-0.139
-300.778	307.730	-0.189	-0.350
-299.764	-156.942	-0.114	-0.007
-298.749	23.296	0.258	0.210
-297.735	-162.337	0.315	-0.016
-296.720	-53.789	-0.177	0.080
-295.705	800.000	-0.108	-0.378
-294.691	800.000	0.111	0.348
-293.676	166.484	-0.107	0.151
-292.662	-104.567	0.183	0.042
-291.647	764.420	0.008	-0.021
-290.632	496.620	-0.086	-0.195
-289.618	800.000	0.140	-0.392
-288.603	-200.000	0.032	0.302
-287.589	-187.776	-0.484	0.006
-286.574	800.000	0.054	0.217
-285.559	-34.449	-0.179	0.097
-284.545	28.388	-0.047	0.039
-283.530	-103.964	0.344	0.079
-282.516	-123.708	0.289	-0.045
-281.501	99.073	-0.158	-0.181
-280.486	-200.000	-0.015	0.273
-279.472	-154.853	-0.244	0.016
-278.457	574.938	0.101	0.245
-277.443	-109.232	-0.135	0.028
-276.428	-104.590	0.305	-0.070
-275.413	170.798	-0.009	0.013
-274.399	800.000	-0.040	0.151
-273.384	-51.529	0.096	0.044
-272.370	57.449	-0.220	0.213
-271.355	-34.865	-0.238	-0.129
-270.340	66.298	0.068	0.069
-269.326	339.893	0.073	-0.141
-268.311	64.531	-0.332	-0.331
-267.297	264.158	0.187	0.322
-266.282	380.115	0.040	0.082
-265.267	-97.422	0.283	0.073
-264.253	800.000	-0.116	0.396
-263.238	21.690	0.189	0.152
-262.224	-196.231	-0.284	0.002
-261.209	-56.855	0.244	-0.107
-260.195	-71.053	-0.084	0.031
-259.180	5.114	-0.248	0.181
-258.165	-30.532	0.064	-0.036
-257.151	381.390	-0.074	0.150
-256.136	15.125	-0.095	0.074
-255.122	-200.000	0.032	0.157
-254.107	637.964	0.143	0.359
-253.092	-59.945	-0.287	-0.122
-252.078	800.000	0.069	-0.223
-251.063	-200.000	-0.026	0.395
-250.049	-113.385	0.121	-0.023
-249.034	599.088	0.125	0.307
-248.019	-89.716	0.252	0.073
-247.005	163.340	0.097	-0.135
-245.990	243.913	-0.117	-0.194
-244.976	-121.368	0.110	0.018
-243.961	287.346	-0.067	0.121
-242.946	-63.766	-0.369	-0.149
-241.932	-200.000	0.033	0.271
-240.917	-200.000	-0.020	-0.100
-239.903	-200.000	0.009	-0.135
-238.888	107.126	0.180	0.211
-237.873	-125.025	0.288	-0.044
-236.859	-93.396	0.263	0.072
-235.844	55.342	-0.181	-0.173
-234.830	-23.327	0.109	-0.065
-233.815	-200.000	-0.045	0.197
-232.800	-21.293	0.049	0.029
-231.786	-111.684	0.391	0.078
-230.771	316.354	-0.206	0.384
-229.757	273.072	0.052	0.091
-228.742	-85.876	-0.171	-0.052
-227.727	-106.803	-0.121	0.026
-226.713	-164.750	0.589	-0.026
-225.698	538.848	0.067	-0.157
-224.684	-73.967	0.324	0.116
-223.669	-0.985	0.247	0.173
-222.655	-200.000	-0.004	0.139
-221.640	-125.952	0.414	0.062
-220.625	153.030	-0.062	-0.084
-219.611	294.937	0.036	-0.066
-218.596	-200.000	-0.029	0.144
-217.582	278.634	-0.100	-0.177
-216.567	-136.037	-0.251	0.029
-215.552	-200.000	-0.009	0.182
-214.538	800.000	-0.023	-0.062
-213.523	-200.000	-0.065	0.440
-212.509	-26.218	0.247	-0.143
-211.494	-200.000	-0.013	-0.081
-210.479	-92.100	0.202	0.056
-209.465	-51.388	0.292	-0.135
-208.450	694.738	-0.088	-0.228
-207.436	94.852	-0.154	0.173
-206.421	-57.251	-0.062	0.027
-205.406	325.456	0.100	-0.189
-204.392	186.991	0.145	0.213
-203.377	-68.340	0.158	0.061
-202.363	-106.460	-0.153	-0.034
-201.348	-82.678	-0.225	-0.072
-200.333	-90.341	0.308	0.088
-199.319	178.781	-0.186	-0.268
-198.304	-112.976	-0.537	0.105
-197.290	-75.010	0.264	-0.093
-196.275	-200.000	0.227	0.000
-195.260	-183.666	0.027	0.000
-194.246	-135.564	-0.154	-0.018
-193.231	800.000	-0.017	0.052
-192.217	-200.000	0.051	-0.235
-191.202	-94.936	0.396	0.106
-190.187	69.624	-0.110	-0.112
-189.173	-200.000	0.021	-0.338
-188.158	-200.000	-0.005	-0.051
-187.144	15.364	-0.119	0.092
-186.129	-88.609	-0.097	0.028
-185.114	236.004	-0.119	0.193
-184.100	-123.823	-0.139	0.022
-183.085	-47.517	-0.269	0.129
-182.071	-200.000	-0.032	0.226
-181.056	-23.440	-0.382	-0.226
-180.042	-200.000	0.051	-0.306
-179.027	-200.000	-0.025	0.290
-178.012	12.669	0.110	0.084
-176.998	-51.931	0.318	0.146
-175.983	-192.186	0.226	0.002
-174.969	110.946	0.040	0.048
-173.954	231.185	-0.070	0.114
-172.939	-200.000	0.054	0.248
-171.925	622.379	0.104	0.259
-170.910	800.000	0.037	0.136
-169.896	-125.150	-0.169	0.026
-168.881	52.146	-0.055	0.051
-167.866	-93.613	-0.077	-0.021
-166.852	-64.455	0.234	-0.094
-165.837	35.828	-0.261	0.226
-164.823	-81.136	0.188	0.061
-163.808	271.161	0.193	-0.335
-162.793	48.195	0.163	-0.150
-161.779	-57.873	0.153	-0.066
-160.764	62.866	0.191	-0.188
-159.750	800.000	-0.051	0.171
-158.735	-129.813	0.183	0.025
-157.720	213.580	0.104	0.162
-156.706	-40.182	-0.332	-0.170
-155.691	375.866	0.019	0.039
-154.677	18.910	0.189	-0.149
-153.662	546.210	-0.102	0.241
-152.647	-200.000	-0.033	-0.159
-151.633	124.385	-0.046	-0.057
-150.618	66.229	-0.270	-0.270
-149.604	-200.000	-0.068	-0.415
-148.589	218.890	-0.090	-0.141
-147.574	-200.000	0.007	-0.093
-146.560	-29.308	-0.053	0.030
-145.545	157.831	0.057	-0.077
-144.531	-79.745	0.060	-0.020
-143.516	800.000	-0.139	-0.494
-142.502	28.404	-0.084	0.070
-141.487	-200.000	0.008	-0.099
-140.472	110.281	0.130	0.154
-139.458	102.699	0.090	0.104
-138.443	-104.541	-0.135	0.031
-137.429	-18.075	0.057	0.035
-136.414	231.617	-0.259	-0.418
-135.399	-42.524	0.209	-0.105
-134.385	145.788	0.034	0.044
-133.370	-38.209	0.133	0.069
-132.356	800.000	-0.056	-0.192
-131.341	-95.218	0.255	0.068
-130.326	70.127	0.141	0.143
-129.312	66.884	-0.141	-0.141
-128.297	-200.000	0.055	-0.467
-127.283	800.000	-0.108	-0.380
-126.268	-134.731	0.150	-0.018
-125.253	-104.392	-0.287	0.065
-124.239	68.379	-0.167	-0.168
-123.224	575.531	0.172	-0.414
-122.210	-129.896	-0.298	0.040
