DTS Sentinel unit serial number:	SN413079Multiplexer serial number:	ORYXHardware model number:	OX4-SRSoftware version number:	ORYX F/W v4.00 Oryx Data Collector v3.7.2.0data status	okinstallation	princeton_trtdifferential loss correction	single-endedforward channel	channel 3reverse channel	N/Adate	2019/09/19time	10:48:34forward acquisition time	60.00reverse acquisition time	0.00gamma	496.2192k internal	0.2342k external	0.2342temperature offset calibration	0.9984default loss term (dB/km)	0.3790temperature slope calibration	1.0000multiplexer offset coefficient	1.0000multiplexer slope coefficient	1.0000fibre end	0.00T internal ref (°C)	24.69T ext. ref 1 (°C)	0.73T ext. ref 2 (°C)	20.10length (m)	temperature (°C)	Stokes	anti-Stokes-747.200	-200.000	-0.006	-0.139
-746.185	159.001	0.052	0.073
-745.171	-47.265	0.186	-0.091
-744.156	-94.109	0.178	-0.049
-743.142	-200.000	0.016	0.239
-742.127	-87.274	-0.119	0.036
-741.112	65.262	0.029	0.030
-740.098	129.945	-0.219	0.281
-739.083	-178.790	0.331	0.008
-738.069	-140.221	-0.238	0.025
-737.054	61.900	0.167	0.167
-736.039	138.808	-0.098	-0.129
-735.025	90.277	-0.035	0.039
-734.010	175.936	-0.255	-0.371
-732.996	-24.584	0.320	-0.191
-731.981	-39.125	-0.093	-0.049
-730.966	-174.294	-0.215	0.006
-729.952	139.038	0.108	-0.142
-728.937	-14.434	0.144	0.093
-727.923	-200.000	-0.044	-0.237
-726.908	-137.330	-0.171	-0.019
-725.894	-78.816	0.122	0.042
-724.879	-200.000	-0.197	-0.001
-723.864	-160.170	0.380	-0.021
-722.850	-118.007	0.128	-0.023
-721.835	-15.453	0.015	0.009
-720.821	7.625	-0.154	-0.115
-719.806	-200.000	0.040	-0.279
-718.791	-95.205	-0.431	-0.116
-717.777	-20.106	-0.172	-0.106
-716.762	-200.000	-0.026	0.255
-715.748	96.626	-0.082	0.094
-714.733	-200.000	-0.014	0.260
-713.718	-26.520	0.179	-0.105
-712.704	221.743	-0.151	0.242
-711.689	-61.988	-0.136	-0.057
-710.675	-152.467	-0.198	0.014
-709.660	282.561	0.151	0.271
-708.645	-125.452	0.083	-0.013
-707.631	-200.000	-0.069	0.372
-706.616	-61.369	-0.055	0.023
-705.602	-39.900	0.257	0.134
-704.587	-21.294	0.184	-0.112
-703.572	-110.562	0.155	0.032
-702.558	-141.421	-0.359	-0.036
-701.543	626.922	-0.086	0.217
-700.529	-176.179	-0.125	-0.003
-699.514	197.007	0.066	0.101
-698.499	-200.000	0.056	0.300
-697.485	800.000	-0.034	0.097
-696.470	-200.000	-0.039	-0.246
-695.456	-65.416	-0.118	-0.047
-694.441	3.135	-0.344	-0.250
-693.426	275.605	0.167	-0.296
-692.412	724.396	-0.130	-0.346
-691.397	-200.000	-0.017	-0.276
-690.383	30.128	0.295	0.251
-689.368	-200.000	0.039	0.207
-688.354	-137.362	0.068	0.008
-687.339	-70.165	-0.619	-0.235
-686.324	39.339	-0.133	0.119
-685.310	-200.000	0.062	-0.307
-684.295	-46.735	-0.322	0.157
-683.281	186.862	-0.128	-0.190
-682.266	-4.571	0.232	0.160
-681.251	-59.308	-0.460	0.198
-680.237	-122.780	-0.252	0.041
-679.222	-119.168	-0.243	0.042
-678.208	-36.274	0.225	-0.121
-677.193	360.109	-0.162	0.323
-676.178	49.948	0.294	-0.277
-675.164	-200.000	0.003	-0.056
-674.149	-47.054	0.139	-0.068
-673.135	-42.314	-0.157	-0.080
-672.120	186.717	0.104	-0.155
-671.105	183.403	0.139	-0.206
-670.091	-50.252	0.264	0.125
-669.076	45.627	-0.137	0.126
-668.062	-24.815	-0.033	-0.020
-667.047	800.000	0.014	0.040
-666.032	800.000	-0.107	0.415
-665.018	800.000	-0.059	0.192
-664.003	-14.589	-0.045	0.029
-662.989	-200.000	-0.033	0.228
-661.974	779.065	0.107	-0.291
-660.959	23.029	-0.344	0.282
-659.945	36.044	0.139	-0.122
-658.930	58.162	-0.184	-0.180
-657.916	-200.000	-0.015	-0.202
-656.901	-200.000	-0.019	0.305
-655.886	-93.771	0.367	0.101
-654.872	-128.305	-0.155	0.022
-653.857	-83.744	0.304	0.097
-652.843	108.244	0.101	-0.120
-651.828	302.659	0.142	0.262
-650.814	-87.816	0.339	0.102
-649.799	351.349	0.108	0.214
-648.784	-168.228	-0.246	-0.010
-647.770	150.730	0.219	0.297
-646.755	42.011	-0.198	0.180
-645.741	-200.000	-0.041	-0.199
-644.726	143.740	-0.058	0.078
-643.711	-124.917	-0.216	0.033
-642.697	-25.461	0.133	-0.078
-641.682	800.000	-0.089	0.360
-640.668	-81.153	-0.242	-0.080
-639.653	31.198	0.077	0.066
-638.638	-200.000	-0.060	-0.390
-637.624	-56.568	-0.272	0.120
-636.609	7.240	-0.379	-0.282
-635.595	45.166	0.120	0.111
-634.580	1.484	0.248	-0.178
-633.565	-200.000	-0.012	-0.297
-632.551	235.547	0.110	-0.181
-631.536	49.738	-0.373	-0.351
-630.522	800.000	-0.018	-0.060
-629.507	760.536	-0.097	-0.263
-628.492	378.568	0.052	0.106
-627.478	-38.892	0.168	0.088
-626.463	-200.000	-0.019	0.666
-625.449	-119.572	-0.162	0.028
-624.434	-200.000	0.006	0.133
-623.419	-45.719	-0.330	0.163
-622.405	-200.000	0.018	0.106
-621.390	110.399	-0.050	0.060
-620.376	225.528	-0.009	0.015
-619.361	-200.000	-0.026	-0.230
-618.346	-161.477	0.202	0.010
-617.332	-200.000	0.064	0.318
-616.317	-66.411	0.119	-0.047
-615.303	-200.000	-0.004	-0.278
-614.288	310.121	0.118	-0.220
-613.273	-200.000	0.039	-0.177
-612.259	264.637	0.217	0.376
-611.244	-200.000	-0.456	-0.001
-610.230	135.196	-0.153	-0.198
-609.215	-90.214	0.266	0.077
-608.201	557.758	0.058	-0.140
-607.186	255.107	-0.083	0.142
-606.171	-200.000	0.012	0.134
-605.157	0.606	0.315	0.224
-604.142	45.051	0.255	-0.234
-603.128	-200.000	-0.029	-0.171
-602.113	326.925	-0.056	0.108
-601.098	-37.561	-0.032	0.017
-600.084	64.222	-0.056	-0.057
-599.069	-81.774	0.083	0.027
-598.055	-200.000	-0.000	-0.123
-597.040	-200.000	0.017	0.248
-596.025	800.000	0.069	-0.263
-595.011	155.204	-0.409	-0.561
-593.996	-200.000	0.052	0.311
-592.982	-185.786	0.328	0.005
-591.967	635.307	0.107	0.270
-590.952	431.667	-0.061	-0.132
-589.938	30.839	-0.158	-0.135
-588.923	-124.272	0.268	-0.042
-587.909	-153.677	0.251	0.017
-586.894	86.704	-0.100	-0.110
-585.879	62.957	0.198	-0.197
-584.865	-117.814	-0.246	-0.044
-583.850	-200.000	0.038	-0.244
-582.836	242.261	0.049	0.082
-581.821	112.595	-0.158	-0.190
-580.806	-88.365	-0.046	0.014
-579.792	10.345	0.147	0.111
-578.777	358.632	-0.102	0.203
-577.763	321.748	-0.063	0.120
-576.748	-200.000	0.089	0.415
-575.733	-200.000	-0.034	-0.217
-574.719	410.518	-0.073	-0.153
-573.704	800.000	0.084	-0.242
-572.690	-52.576	0.291	-0.134
-571.675	-117.492	0.107	-0.019
-570.661	-5.949	0.196	-0.133
-569.646	447.904	-0.074	0.163
-568.631	800.000	0.031	-0.105
-567.617	-185.606	0.126	0.002
-566.602	-200.000	0.016	-0.091
-565.588	-116.941	-0.239	-0.043
-564.573	54.579	0.135	0.129
-563.558	503.593	-0.175	-0.403
-562.544	231.371	0.138	-0.225
-561.529	-200.000	0.037	-0.315
-560.515	-108.557	-0.202	-0.043
-559.500	-200.000	0.022	0.113
-558.485	-200.000	0.003	0.252
-557.471	388.429	0.049	0.101
-556.456	169.299	-0.100	-0.142
-555.442	-140.742	-0.410	-0.042
-554.427	-51.849	0.208	0.096
-553.412	222.320	0.090	0.144
-552.398	-200.000	-0.007	-0.106
-551.383	-20.413	0.177	-0.108
-550.369	75.845	0.086	-0.091
-549.354	177.963	0.110	-0.159
-548.339	-112.744	-0.186	0.037
-547.325	-92.502	-0.085	0.024
-546.310	-6.829	0.245	-0.166
-545.296	-112.652	-0.152	-0.030
-544.281	85.205	-0.061	0.067
-543.266	1.018	-0.251	-0.179
-542.252	-200.000	-0.007	-0.194
-541.237	800.000	-0.090	-0.279
-540.223	800.000	0.028	0.100
-539.208	87.933	-0.071	0.078
-538.193	72.057	0.258	0.267
-537.179	-200.000	-0.012	-0.070
-536.164	-86.825	0.432	0.131
-535.150	-174.054	-0.142	0.004
-534.135	-200.000	-0.004	0.024
-533.121	800.000	0.055	0.173
-532.106	-200.000	-0.024	-0.110
-531.091	193.716	-0.144	0.216
-530.077	-200.000	0.029	0.164
-529.062	598.082	0.009	0.021
-528.048	189.253	-0.011	0.016
-527.033	-66.786	-0.091	-0.036
-526.018	-200.000	-0.083	-0.381
-525.004	43.081	-0.062	-0.056
-523.989	-75.152	-0.211	-0.075
-522.975	-78.310	0.427	-0.146
-521.960	-200.000	-0.002	-0.043
-520.945	-64.501	-0.322	0.130
-519.931	33.346	-0.141	0.122
-518.916	-82.437	0.066	0.021
-517.902	-89.723	-0.081	0.024
-516.887	483.227	-0.105	0.236
-515.872	31.724	0.269	0.230
-514.858	800.000	0.086	-0.346
-513.843	-73.450	-0.364	-0.132
-512.829	800.000	-0.015	-0.053
-511.814	-200.000	0.004	-0.148
-510.799	158.644	0.207	0.286
-509.785	-200.000	0.073	-0.342
-508.770	55.882	0.107	0.103
-507.756	213.392	-0.223	0.350
-506.741	-75.068	0.364	0.129
-505.726	59.508	-0.236	-0.231
-504.712	-144.847	0.220	0.020
-503.697	-64.933	-0.150	0.060
-502.683	340.958	-0.113	-0.218
-501.668	-137.646	-0.032	0.004
-500.653	-200.000	-0.008	0.091
-499.639	-200.000	-0.023	-0.155
-498.624	800.000	-0.050	-0.164
-497.610	514.990	0.202	-0.469
-496.595	-185.280	0.147	-0.002
-495.581	109.418	-0.115	0.137
-494.566	56.694	-0.032	0.031
-493.551	68.257	0.107	0.109
-492.537	-200.000	-0.014	-0.148
-491.522	-200.000	-0.033	-0.241
-490.508	376.656	0.055	0.111
-489.493	-200.000	-0.038	0.298
-488.478	531.224	-0.156	-0.367
-487.464	-113.181	-0.133	0.026
-486.449	-200.000	-0.038	0.167
-485.435	800.000	-0.117	0.358
-484.420	800.000	-0.107	-0.328
-483.405	-10.078	-0.303	0.199
-482.391	48.797	0.102	0.095
-481.376	-88.563	0.199	0.059
-480.362	-160.898	0.292	0.015
-479.347	-200.000	-0.044	-0.293
-478.332	40.485	-0.292	-0.260
-477.318	435.479	0.084	0.180
-476.303	153.162	-0.171	0.231
-475.289	800.000	-0.054	-0.190
-474.274	25.361	0.026	-0.021
-473.259	800.000	-0.073	-0.199
-472.245	-200.000	0.011	-0.083
-471.230	-126.331	0.140	0.021
-470.216	-73.797	0.204	0.074
-469.201	106.100	-0.285	0.335
-468.186	215.266	-0.170	-0.267
-467.172	-72.311	-0.236	0.086
-466.157	98.582	-0.112	-0.128
-465.143	-200.000	-0.018	0.389
-464.128	-51.064	-0.330	0.153
-463.113	-80.577	-0.203	0.067
-462.099	429.802	0.160	-0.344
-461.084	-39.105	0.197	-0.103
-460.070	-61.058	-0.251	-0.105
-459.055	600.739	-0.044	-0.108
-458.040	92.730	-0.117	-0.131
-457.026	-160.285	0.172	-0.009
-456.011	-200.000	-0.004	0.152
-454.997	181.416	0.149	-0.217
-453.982	93.090	-0.261	0.293
-452.968	-59.518	0.144	0.061
-451.953	800.000	0.007	0.026
-450.938	511.794	-0.219	-0.505
-449.924	345.547	0.054	0.105
-448.909	-0.366	0.237	0.167
-447.895	439.839	-0.142	0.308
-446.880	-64.981	-0.307	-0.123
-445.865	-200.000	0.020	-0.231
-444.851	800.000	-0.044	0.190
-443.836	146.770	0.140	-0.186
-442.822	-200.000	0.008	-0.232
-441.807	-66.763	-0.066	0.026
-440.792	-200.000	-0.010	-0.052
-439.778	-47.273	0.287	-0.138
-438.763	83.325	0.170	-0.184
-437.749	628.372	0.194	0.486
-436.734	800.000	-0.106	0.354
-435.719	21.749	0.092	-0.074
-434.705	489.504	0.131	-0.297
-433.690	375.386	0.036	0.072
-432.676	-8.360	0.046	0.031
-431.661	-56.832	0.087	-0.038
-430.646	-96.959	-0.049	0.013
-429.632	-105.849	0.285	0.064
-428.617	170.151	0.224	-0.318
-427.603	800.000	0.043	0.173
-426.588	-200.000	-0.074	0.544
-425.573	-36.305	-0.096	0.051
-424.559	372.457	-0.074	0.149
-423.544	290.232	-0.087	0.156
-422.530	-200.000	0.013	0.125
-421.515	-81.390	-0.322	-0.105
-420.500	-156.990	0.299	0.018
-419.486	105.264	0.284	-0.332
-418.471	340.323	0.131	-0.253
-417.457	170.079	0.093	-0.131
-416.442	272.278	-0.161	-0.282
-415.428	168.493	-0.180	-0.253
-414.413	-88.998	-0.308	-0.090
-413.398	-200.000	0.006	-0.385
-412.384	-106.918	-0.118	0.026
-411.369	259.432	0.157	0.269
-410.355	-200.000	-0.021	-0.147
-409.340	67.767	-0.037	0.037
-408.325	-99.844	0.098	-0.024
-407.311	52.669	0.173	-0.163
-406.296	-69.300	-0.105	-0.040
-405.282	-65.667	-0.105	0.041
-404.267	612.687	-0.097	-0.240
-403.252	41.589	-0.078	-0.070
-402.238	-150.559	0.332	-0.025
-401.223	204.717	0.130	0.200
-400.209	-37.293	0.201	0.106
-399.194	-138.048	0.214	0.024
-398.179	221.160	-0.115	-0.182
-397.165	800.000	-0.094	0.318
-396.150	-34.749	-0.265	0.143
-395.136	-7.144	-0.285	0.191
-394.121	800.000	0.055	0.159
-393.106	41.343	0.015	-0.013
-392.092	-29.620	0.266	-0.150
-391.077	79.797	-0.022	-0.023
-390.063	-200.000	0.058	-0.431
-389.048	-27.132	-0.207	0.119
-388.033	800.000	-0.072	-0.254
-387.019	496.254	-0.131	-0.298
-386.004	-68.179	0.412	-0.159
-384.990	-200.000	0.002	-0.049
-383.975	-94.518	0.391	-0.105
-382.960	94.661	0.160	-0.179
-381.946	24.056	0.137	0.112
-380.931	-87.093	0.282	-0.085
-379.917	-140.637	0.194	0.020
-378.902	-200.000	-0.025	0.164
-377.888	211.913	-0.070	-0.109
-376.873	-200.000	-0.046	-0.222
-375.858	-11.445	0.069	-0.045
-374.844	800.000	-0.093	0.321
-373.829	800.000	-0.057	0.167
-372.815	800.000	0.089	-0.289
-371.800	-133.855	-0.319	-0.039
-370.785	225.733	-0.164	-0.263
-369.771	-200.000	-0.052	0.427
-368.756	-43.048	-0.204	0.102
-367.742	64.425	-0.096	0.095
-366.727	800.000	0.056	0.190
-365.712	141.004	-0.082	-0.107
-364.698	-18.914	-0.091	-0.056
-363.683	-192.557	-0.065	-0.001
-362.669	-200.000	-0.038	0.180
-361.654	-200.000	0.052	0.238
-360.639	-52.952	-0.310	0.141
-359.625	-139.555	-0.130	-0.014
-358.610	-23.317	0.116	-0.069
-357.596	-102.382	-0.175	0.041
-356.581	-200.000	-0.035	0.301
-355.566	327.573	0.066	0.125
-354.552	-169.804	0.304	0.011
-353.537	353.132	-0.111	0.218
-352.523	-200.000	-0.019	0.134
-351.508	9.754	0.199	0.149
-350.493	-92.737	-0.293	-0.081
-349.479	43.524	0.093	-0.084
-348.464	423.670	0.196	0.417
-347.450	-105.150	-0.066	0.015
-346.435	-200.000	-0.005	0.273
-345.420	708.744	0.059	-0.154
-344.406	-73.959	0.254	0.091
-343.391	-49.522	0.050	-0.023
-342.377	-200.000	-0.034	0.155
-341.362	6.640	0.040	-0.030
-340.348	-200.000	0.030	0.172
-339.333	800.000	0.070	0.211
-338.318	-200.000	-0.029	-0.201
-337.304	57.181	0.281	0.270
-336.289	-127.324	-0.130	0.019
-335.275	-193.997	0.073	-0.001
-334.260	173.209	0.289	0.410
-333.245	-3.927	0.344	0.235
-332.231	-200.000	-0.045	0.322
-331.216	93.879	-0.040	0.044
-330.202	114.447	-0.143	0.171
-329.187	-148.725	-0.154	-0.012
-328.172	-30.231	0.320	0.179
-327.158	800.000	-0.044	-0.130
-326.143	182.346	0.123	0.179
-325.129	18.995	-0.210	0.166
-324.114	64.055	-0.067	-0.066
-323.099	620.925	-0.096	0.237
-322.085	800.000	-0.030	0.086
-321.070	479.110	-0.150	-0.335
-320.056	-32.145	-0.193	-0.106
-319.041	762.897	-0.134	0.358
-318.026	-200.000	-0.016	0.125
-317.012	313.788	-0.112	0.208
-315.997	277.884	-0.153	0.268
-314.983	53.238	0.122	0.115
-313.968	246.832	0.026	-0.043
-312.953	-139.825	-0.294	0.031
-311.939	-134.240	0.483	-0.059
-310.924	-7.613	0.066	0.044
-309.910	158.335	0.175	-0.239
-308.895	56.152	-0.246	0.235
-307.880	-161.894	0.163	0.008
-306.866	-113.124	-0.326	0.063
-305.851	-38.267	-0.494	0.258
-304.837	306.287	0.034	-0.063
-303.822	161.100	0.145	-0.200
-302.807	65.308	-0.122	-0.121
-301.793	-200.000	-0.027	-0.332
-300.778	-200.000	-0.003	0.014
-299.764	21.059	0.090	-0.072
-298.749	-34.954	0.425	0.228
-297.735	800.000	-0.019	-0.066
-296.720	57.042	0.141	-0.135
-295.705	257.103	0.117	0.198
-294.691	-84.728	0.306	-0.095
-293.676	-200.000	-0.011	0.066
-292.662	55.339	-0.249	0.237
-291.647	-108.626	0.079	-0.017
-290.632	168.489	-0.169	-0.237
-289.618	-136.529	-0.161	0.018
-288.603	43.839	-0.020	0.018
-287.589	527.210	0.113	0.262
-286.574	-167.997	-0.146	0.006
-285.559	-165.278	-0.120	-0.005
-284.545	-44.169	0.076	0.038
-283.530	-10.548	-0.162	0.106
-282.516	-136.364	-0.206	0.024
-281.501	-3.029	0.109	-0.075
-280.486	-200.000	0.172	-0.000
-279.472	-50.760	-0.065	0.030
-278.457	-200.000	0.005	-0.051
-277.443	-2.904	-0.105	-0.072
-276.428	-44.289	0.213	-0.105
-275.413	-200.000	-0.005	0.098
-274.399	157.099	-0.214	-0.291
-273.384	-110.540	0.112	-0.023
-272.370	-54.317	-0.224	-0.100
-271.355	-125.854	-0.244	-0.036
-270.340	69.967	0.241	0.245
-269.326	-200.000	0.014	0.063
-268.311	-132.799	-0.230	-0.029
-267.297	-200.000	0.287	0.001
-266.282	-70.267	0.225	-0.084
-265.267	-37.048	0.225	-0.118
-264.253	-124.656	-0.232	0.035
-263.238	-200.000	-0.013	-0.208
-262.224	264.728	-0.180	0.308
-261.209	800.000	-0.117	0.333
-260.195	-200.000	0.006	-0.305
-259.180	-47.318	-0.137	-0.066
-258.165	-200.000	0.060	-0.411
-257.151	28.583	-0.132	-0.110
-256.136	-137.131	-0.082	0.009
-255.122	-30.112	0.171	-0.095
-254.107	56.994	0.255	0.244
-253.092	-34.939	-0.303	-0.163
-252.078	800.000	-0.070	-0.216
-251.063	-35.008	-0.182	-0.098
-250.049	-38.465	-0.149	0.077
-249.034	800.000	-0.111	-0.399
-248.019	244.766	0.133	0.220
-247.005	-42.937	0.176	0.088
-245.990	492.472	0.097	-0.219
-244.976	-81.296	-0.302	0.098
-243.961	800.000	-0.048	0.132
-242.946	113.166	0.091	0.108
-241.932	-84.911	0.202	-0.062
-240.917	-17.027	-0.276	-0.171
-239.903	-145.268	0.117	-0.010
-238.888	496.972	-0.069	-0.156
-237.873	50.293	0.204	-0.190
-236.859	8.418	0.228	-0.169
-235.844	-4.505	0.389	0.264
-234.830	100.632	-0.108	-0.123
-233.815	-59.687	-0.088	0.037
-232.800	-200.000	-0.003	0.088
-231.786	-59.959	-0.190	0.080
-230.771	-12.235	-0.066	-0.043
-229.757	-111.115	0.315	-0.063
-228.742	158.050	-0.215	-0.292
-227.727	-102.117	-0.247	0.058
-226.713	27.017	0.424	0.349
-225.698	-94.743	0.154	0.041
-224.684	321.758	0.142	0.265
-223.669	-200.000	0.032	-0.266
-222.655	-200.000	0.045	-0.262
-221.640	-165.240	-0.157	0.007
-220.625	-156.865	-0.164	0.010
-219.611	-200.000	-0.032	-0.225
-218.596	92.930	0.197	0.218
-217.582	-84.711	0.124	-0.038
-216.567	-117.969	0.226	-0.040
-215.552	-98.428	0.649	0.163
-214.538	-200.000	-0.104	0.000
-213.523	-103.280	0.241	0.056
-212.509	-112.351	-0.150	-0.029
-211.494	800.000	-0.028	-0.100
-210.479	-200.000	-0.012	0.083
-209.465	-103.330	-0.158	-0.036
-208.450	-120.775	0.104	-0.017
-207.436	-6.875	0.185	0.123
-206.421	-200.000	0.004	0.377
-205.406	-200.000	0.019	0.129
-204.392	496.345	0.098	0.221
-203.377	800.000	0.057	-0.223
-202.363	800.000	0.085	-0.291
-201.348	121.000	0.116	0.141
-200.333	45.511	-0.240	-0.217
-199.319	44.988	0.276	0.249
-198.304	800.000	0.070	0.296
-197.290	800.000	-0.046	-0.190
-196.275	-54.516	-0.250	-0.111
-195.260	33.530	-0.230	-0.196
-194.246	-200.000	0.045	-0.289
-193.231	-13.317	-0.125	-0.079
-192.217	800.000	0.053	0.226
-191.202	-182.322	-0.285	-0.005
-190.187	70.576	0.064	0.065
-189.173	-156.820	-0.344	0.021
-188.158	-142.869	0.338	-0.032
-187.144	800.000	0.103	-0.288
-186.129	-163.773	-0.333	-0.015
-185.114	23.213	0.145	-0.116
-184.100	124.979	-0.136	-0.168
-183.085	-42.695	0.230	0.114
-182.071	187.237	0.030	0.044
-181.056	13.102	-0.057	0.044
-180.042	-75.821	-0.022	0.008
-179.027	3.077	-0.302	0.215
-178.012	-78.892	0.102	-0.034
-176.998	800.000	0.083	-0.281
-175.983	269.829	-0.109	-0.187
-174.969	256.108	0.027	0.045
-173.954	-200.000	-0.187	0.000
-172.939	732.898	0.038	0.101
-171.925	-200.000	-0.054	0.304
-170.910	437.985	-0.033	0.070
-169.896	-139.864	0.422	-0.044
-168.881	208.195	-0.105	0.160
-167.866	151.047	-0.088	-0.117
-166.852	-90.824	0.022	-0.006
-165.837	13.994	-0.065	-0.049
-164.823	-200.000	-0.020	0.347
-163.808	-6.381	-0.214	0.143
-162.793	-83.182	0.471	-0.148
-161.779	-56.957	0.235	-0.102
-160.764	344.117	-0.086	-0.164
-159.750	67.325	0.246	0.246
-158.735	-200.000	0.021	0.119
-157.720	-200.000	-0.019	0.128
-156.706	460.699	-0.102	0.223
-155.691	159.269	0.031	-0.042
-154.677	-5.230	-0.244	-0.164
-153.662	103.553	0.133	0.152
-152.647	302.218	-0.094	0.170
-151.633	-200.000	-0.003	0.067
-150.618	-128.726	0.129	-0.018
-149.604	48.640	0.163	-0.149
-148.589	236.937	-0.161	0.261
-147.574	53.711	0.059	0.055
-146.560	-43.947	0.218	0.107
-145.545	65.604	0.130	0.129
-144.531	800.000	0.087	0.275
-143.516	-200.000	-0.063	-0.364
-142.502	-200.000	-0.060	0.375
-141.487	-118.546	0.249	-0.043
-140.472	224.437	-0.030	-0.048
-139.458	-7.736	0.130	0.086
-138.443	-200.000	0.094	-0.484
-137.429	800.000	-0.053	0.202
-136.414	-200.000	-0.038	0.254
-135.399	-121.480	-0.244	-0.040
-134.385	39.720	0.134	-0.117
-133.370	250.705	0.108	-0.180
-132.356	-200.000	-0.010	0.160
-131.341	279.796	0.060	0.105
-130.326	395.566	-0.010	0.021
-129.312	12.728	0.041	0.031
-128.297	413.216	0.056	-0.117
-127.283	-146.178	-0.166	-0.014
-126.268	-200.000	-0.001	-0.168
-125.253	800.000	0.051	-0.156
-124.239	-134.527	0.308	-0.037
-123.224	17.851	-0.056	-0.044
-122.210	-116.813	-0.404	-0.072
