DTS Sentinel unit serial number:	SN413079Multiplexer serial number:	ORYXHardware model number:	OX4-SRSoftware version number:	ORYX F/W v4.00 Oryx Data Collector v3.7.2.0data status	okinstallation	princeton_trtdifferential loss correction	single-endedforward channel	channel 3reverse channel	N/Adate	2019/09/19time	02:36:35forward acquisition time	60.00reverse acquisition time	0.00gamma	496.2192k internal	0.2348k external	0.2348temperature offset calibration	0.9991default loss term (dB/km)	0.3790temperature slope calibration	1.0000multiplexer offset coefficient	1.0000multiplexer slope coefficient	1.0000fibre end	0.00T internal ref (°C)	21.00T ext. ref 1 (°C)	0.67T ext. ref 2 (°C)	14.72length (m)	temperature (°C)	Stokes	anti-Stokes-747.200	800.000	-0.072	0.234
-746.185	31.163	0.268	0.230
-745.171	-117.226	-0.357	0.065
-744.156	800.000	0.075	0.269
-743.142	-20.018	0.323	0.199
-742.127	-87.675	-0.343	-0.103
-741.112	-72.325	0.158	0.059
-740.098	-200.000	-0.040	0.308
-739.083	-157.044	0.141	0.009
-738.069	223.054	-0.127	0.205
-737.054	-49.996	-0.149	-0.070
-736.039	49.391	-0.301	-0.283
-735.025	-91.555	0.210	-0.060
-734.010	211.441	-0.134	-0.210
-732.996	241.660	0.196	-0.328
-731.981	406.286	0.140	-0.294
-730.966	136.997	-0.160	-0.209
-729.952	-38.150	-0.471	-0.249
-728.937	-200.000	0.021	-0.284
-727.923	94.993	-0.157	0.178
-726.908	240.417	0.132	0.220
-725.894	-100.457	0.189	-0.047
-724.879	121.237	0.217	-0.269
-723.864	-67.149	-0.350	-0.138
-722.850	484.937	0.085	-0.194
-721.835	-200.000	0.016	0.084
-720.821	7.612	0.247	0.184
-719.806	-83.537	-0.148	0.047
-718.791	123.436	-0.151	-0.189
-717.777	97.047	0.103	0.117
-716.762	222.804	-0.163	0.261
-715.748	458.798	-0.142	-0.316
-714.733	800.000	-0.090	0.263
-713.718	340.014	-0.153	-0.297
-712.704	-65.322	-0.212	-0.085
-711.689	-200.000	-0.008	0.068
-710.675	-168.441	0.447	-0.017
-709.660	434.293	0.064	0.139
-708.645	-133.941	0.323	0.040
-707.631	203.002	0.065	0.100
-706.616	-101.673	0.214	0.052
-705.602	96.139	-0.123	-0.140
-704.587	-13.384	0.282	-0.183
-703.572	-200.000	-0.020	-0.125
-702.558	800.000	-0.118	-0.440
-701.543	-68.347	0.212	0.082
-700.529	-14.948	0.090	0.058
-699.514	-200.000	-0.020	-0.228
-698.499	-200.000	-0.009	0.040
-697.485	93.711	-0.092	0.103
-696.470	415.231	0.059	-0.124
-695.456	176.868	0.100	0.145
-694.441	800.000	0.077	-0.292
-693.426	247.688	-0.069	-0.117
-692.412	11.949	-0.147	0.113
-691.397	540.869	-0.079	-0.188
-690.383	-200.000	0.070	-0.334
-689.368	-84.638	0.098	0.031
-688.354	-37.878	0.070	0.037
-687.339	-20.882	-0.113	-0.069
-686.324	72.141	0.349	-0.362
-685.310	-200.000	0.053	-0.375
-684.295	161.899	0.052	-0.073
-683.281	-200.000	0.072	0.322
-682.266	586.786	0.167	0.409
-681.251	-12.583	0.023	-0.015
-680.237	-12.449	-0.164	-0.107
-679.222	-200.000	0.032	-0.188
-678.208	150.572	-0.045	0.061
-677.193	6.191	0.043	0.032
-676.178	-93.971	-0.213	-0.058
-675.164	-68.529	0.053	0.021
-674.149	6.907	0.161	0.120
-673.135	-9.585	0.074	-0.049
-672.120	-200.000	0.002	-0.177
-671.105	800.000	-0.018	0.049
-670.091	364.767	-0.125	-0.251
-669.076	-34.392	0.157	0.085
-668.062	-200.000	-0.023	0.210
-667.047	-56.114	-0.091	-0.040
-666.032	72.986	-0.138	-0.143
-665.018	-149.592	-0.152	0.012
-664.003	35.399	-0.191	-0.167
-662.989	-25.973	-0.174	-0.102
-661.974	28.435	0.346	0.291
-660.959	678.340	-0.035	-0.090
-659.945	-130.967	-0.251	0.033
-658.930	-160.919	-0.064	-0.003
-657.916	-200.000	-0.030	0.160
-656.901	720.633	0.068	0.180
-655.886	234.379	-0.243	-0.399
-654.872	29.219	-0.115	-0.097
-653.857	63.292	0.166	-0.166
-652.843	624.681	0.109	0.273
-651.828	277.923	0.071	0.126
-650.814	-118.407	0.328	-0.058
-649.799	-129.189	-0.307	0.043
-648.784	-101.365	0.256	-0.062
-647.770	-200.000	-0.004	0.035
-646.755	-175.390	0.106	0.003
-645.741	103.563	-0.084	-0.098
-644.726	-67.352	-0.299	-0.117
-643.711	-105.151	0.210	0.048
-642.697	251.729	0.101	-0.171
-641.682	-173.426	-0.134	-0.004
-640.668	-200.000	0.051	0.226
-639.653	-74.922	0.044	0.016
-638.638	698.670	-0.049	-0.127
-637.624	135.061	-0.045	-0.059
-636.609	-200.000	0.019	0.174
-635.595	63.254	-0.168	-0.168
-634.580	-43.907	-0.130	0.065
-633.565	800.000	-0.067	0.282
-632.551	225.847	0.202	0.325
-631.536	-107.872	-0.244	-0.053
-630.522	61.171	-0.144	0.143
-629.507	-200.000	-0.118	-0.584
-628.492	800.000	0.046	0.190
-627.478	56.744	-0.101	0.098
-626.463	-200.000	-0.046	-0.427
-625.449	109.715	-0.045	-0.054
-624.434	800.000	0.032	-0.103
-623.419	15.973	-0.328	0.257
-622.405	-200.000	0.003	0.115
-621.390	703.165	-0.029	-0.077
-620.376	-57.894	-0.283	-0.123
-619.361	38.122	-0.386	-0.341
-618.346	-110.052	0.227	0.047
-617.332	-81.475	-0.119	-0.039
-616.317	260.235	-0.051	0.087
-615.303	-137.535	-0.575	-0.065
-614.288	92.329	-0.242	-0.271
-613.273	-60.165	0.411	-0.174
-612.259	-10.004	-0.300	0.198
-611.244	34.610	-0.214	-0.186
-610.230	540.328	0.191	-0.451
-609.215	321.665	0.135	-0.256
-608.201	7.000	-0.184	-0.136
-607.186	-120.952	0.161	-0.027
-606.171	-200.000	0.040	-0.222
-605.157	142.469	-0.176	-0.233
-604.142	-128.834	0.327	0.046
-603.128	62.363	0.134	-0.133
-602.113	-56.259	0.321	0.142
-601.098	294.950	-0.132	0.239
-600.084	-176.604	0.235	0.006
-599.069	427.826	-0.098	-0.210
-598.055	85.109	-0.150	-0.163
-597.040	-105.053	-0.431	-0.098
-596.025	-200.000	0.043	0.513
-595.011	269.386	0.012	0.021
-593.996	-28.213	-0.131	-0.075
-592.982	145.218	-0.163	-0.217
-591.967	-85.059	0.220	0.068
-590.952	161.723	0.164	0.228
-589.938	-200.000	0.047	-0.262
-588.923	38.798	0.334	-0.296
-587.909	800.000	0.030	0.093
-586.894	-32.080	-0.068	-0.038
-585.879	9.852	0.158	-0.119
-584.865	-48.338	-0.169	0.081
-583.850	800.000	0.028	0.104
-582.836	236.358	0.061	0.100
-581.821	-17.827	0.170	-0.106
-580.806	-67.307	0.018	0.007
-579.792	204.725	-0.080	-0.123
-578.777	-135.397	0.132	0.016
-577.763	-55.754	0.184	-0.081
-576.748	-60.357	0.145	-0.061
-575.733	173.944	0.323	0.463
-574.719	-173.865	-0.259	-0.008
-573.704	-200.000	0.303	-0.001
-572.690	62.160	0.121	-0.120
-571.675	582.521	0.162	-0.393
-570.661	-96.682	0.242	-0.063
-569.646	176.289	-0.080	-0.115
-568.631	-7.738	-0.309	0.207
-567.617	4.522	0.194	-0.141
-566.602	-89.058	-0.295	0.087
-565.588	195.021	0.064	0.097
-564.573	-52.138	-0.172	0.079
-563.558	157.882	0.090	0.124
-562.544	800.000	-0.132	0.382
-561.529	-200.000	0.057	-0.402
-560.515	-56.181	-0.168	-0.074
-559.500	-58.096	0.081	-0.035
-558.485	800.000	0.072	0.272
-557.471	-25.179	-0.197	0.116
-556.456	57.567	-0.277	0.268
-555.442	-2.301	-0.262	0.182
-554.427	44.668	-0.292	0.266
-553.412	22.611	0.054	0.044
-552.398	319.418	-0.113	0.213
-551.383	269.434	0.044	0.077
-550.369	-76.152	0.409	-0.143
-549.354	800.000	0.075	-0.302
-548.339	541.004	-0.026	0.062
-547.325	-48.300	0.278	-0.133
-546.310	65.479	0.168	-0.169
-545.296	53.969	-0.107	-0.102
-544.281	-95.418	-0.345	-0.092
-543.266	123.316	0.186	0.231
-542.252	-37.693	0.226	-0.119
-541.237	-200.000	-0.002	0.117
-540.223	-184.591	-0.137	0.002
-539.208	79.608	0.107	0.114
-538.193	305.810	-0.112	-0.206
-537.179	-61.632	-0.175	0.073
-536.164	-94.708	-0.241	-0.065
-535.150	-200.000	-0.001	-0.042
-534.135	121.176	-0.154	-0.189
-533.121	130.705	0.078	0.099
-532.106	359.110	-0.225	-0.445
-531.091	33.030	0.083	-0.071
-530.077	642.932	-0.129	-0.325
-529.062	800.000	0.057	-0.166
-528.048	52.436	0.100	0.094
-527.033	-200.000	0.005	-0.039
-526.018	-200.000	0.057	0.337
-525.004	-200.000	-0.005	0.090
-523.989	-200.000	0.053	0.367
-522.975	181.177	-0.166	0.242
-521.960	-64.220	0.373	0.150
-520.945	-65.238	0.151	-0.060
-519.931	-200.000	-0.011	0.357
-518.916	-141.639	-0.014	-0.001
-517.902	-152.500	0.138	-0.010
-516.887	-3.927	-0.421	-0.289
-515.872	413.417	-0.028	-0.059
-514.858	-85.720	-0.286	-0.088
-513.843	-75.384	0.246	0.087
-512.829	191.369	-0.243	-0.361
-511.814	-80.969	-0.176	-0.058
-510.799	-200.000	-0.006	0.046
-509.785	-3.263	0.093	0.064
-508.770	800.000	0.109	0.375
-507.756	-3.374	0.174	0.120
-506.741	192.008	-0.118	-0.175
-505.726	-65.249	-0.195	-0.078
-504.712	-133.965	-0.228	0.028
-503.697	20.572	-0.153	-0.123
-502.683	-74.522	-0.128	0.046
-501.668	800.000	-0.065	-0.225
-500.653	-28.681	-0.070	0.040
-499.639	17.935	0.336	0.265
-498.624	800.000	-0.024	0.071
-497.610	75.219	-0.149	0.155
-496.595	-64.853	0.237	0.095
-495.581	52.796	-0.141	0.134
-494.566	182.336	0.235	-0.343
-493.551	269.598	0.109	-0.190
-492.537	29.076	0.348	0.292
-491.522	-155.801	-0.232	0.015
-490.508	-90.872	0.277	-0.079
-489.493	99.909	-0.143	-0.164
-488.478	-14.597	0.110	-0.070
-487.464	-7.801	-0.364	-0.243
-486.449	31.268	0.184	0.156
-485.435	-21.672	-0.070	0.042
-484.420	-200.000	0.001	0.169
-483.405	27.227	0.149	0.124
-482.391	-151.343	-0.059	-0.004
-481.376	-103.458	0.192	-0.045
-480.362	-200.000	-0.003	-0.211
-479.347	-129.716	-0.284	-0.039
-478.332	-18.122	-0.126	0.078
-477.318	800.000	-0.039	0.140
-476.303	-3.792	-0.130	0.089
-475.289	28.981	0.208	-0.175
-474.274	800.000	0.030	-0.101
-473.259	31.117	-0.190	-0.161
-472.245	-42.414	-0.295	0.149
-471.230	-65.911	-0.396	-0.157
-470.216	76.358	0.098	-0.102
-469.201	-24.554	0.090	0.053
-468.186	309.951	-0.241	0.445
-467.172	-21.254	0.465	0.281
-466.157	800.000	-0.036	0.143
-465.143	733.651	0.096	0.254
-464.128	263.315	0.065	-0.111
-463.113	238.959	0.110	-0.180
-462.099	-81.171	-0.122	-0.040
-461.084	101.499	0.090	-0.104
-460.070	458.212	0.047	-0.103
-459.055	31.076	0.094	0.079
-458.040	-200.000	-0.006	0.202
-457.026	27.803	0.115	-0.096
-456.011	-200.000	0.003	-0.267
-454.997	-119.381	0.209	-0.036
-453.982	-5.379	0.374	0.254
-452.968	529.701	0.107	0.249
-451.953	276.364	-0.083	0.145
-450.938	281.397	0.107	-0.190
-449.924	-55.098	0.382	0.170
-448.909	-4.094	0.145	0.099
-447.895	-35.316	0.031	0.017
-446.880	-10.468	-0.201	0.132
-445.865	-136.746	0.049	-0.006
-444.851	64.384	-0.046	0.046
-443.836	12.218	-0.306	0.233
-442.822	800.000	0.080	0.287
-441.807	285.601	0.093	0.166
-440.792	-200.000	0.004	0.396
-439.778	220.520	-0.103	0.162
-438.763	-109.385	0.161	-0.034
-437.749	-200.000	0.054	-0.296
-436.734	-200.000	-0.009	-0.074
-435.719	-80.136	0.077	0.025
-434.705	800.000	0.042	-0.157
-433.690	-200.000	0.005	0.231
-432.676	-174.172	0.316	-0.009
-431.661	3.461	-0.095	-0.068
-430.646	-153.764	0.134	-0.009
-429.632	719.058	-0.018	0.046
-428.617	-18.406	-0.222	0.137
-427.603	800.000	-0.083	0.297
-426.588	800.000	0.052	0.204
-425.573	15.032	-0.129	0.100
-424.559	-200.000	0.050	0.243
-423.544	-78.105	0.248	-0.084
-422.530	-17.861	0.275	-0.170
-421.515	-136.568	-0.294	0.034
-420.500	82.833	-0.237	0.254
-419.486	177.772	-0.200	-0.287
-418.471	-200.000	0.019	-0.109
-417.457	-89.590	-0.015	0.004
-416.442	800.000	-0.059	0.212
-415.428	-2.007	-0.125	0.086
-414.413	-81.938	-0.288	0.093
-413.398	800.000	-0.098	-0.315
-412.384	111.351	0.180	0.214
-411.369	-26.056	0.167	0.097
-410.355	-200.000	0.024	-0.243
-409.340	25.439	0.290	-0.238
-408.325	-149.889	-0.056	-0.004
-407.311	800.000	-0.038	0.119
-406.296	62.265	-0.172	0.169
-405.282	15.820	0.274	0.212
-404.267	6.107	0.161	0.118
-403.252	-200.000	0.039	-0.255
-402.238	578.655	0.139	-0.335
-401.223	-24.138	-0.099	-0.058
-400.209	-190.867	0.369	0.004
-399.194	603.005	0.039	-0.096
-398.179	487.998	-0.227	0.511
-397.165	-200.000	-0.041	0.189
-396.150	-200.000	-0.038	0.372
-395.136	800.000	0.128	-0.398
-394.121	-67.997	0.355	-0.137
-393.106	-200.000	-0.012	-0.106
-392.092	-200.000	-0.021	-0.161
-391.077	-200.000	-0.016	-0.330
-390.063	-0.532	0.264	-0.185
-389.048	247.888	0.183	-0.305
-388.033	344.555	-0.107	0.207
-387.019	114.593	0.151	0.181
-386.004	-161.715	0.168	0.008
-384.990	9.833	-0.115	-0.086
-383.975	97.708	-0.086	-0.097
-382.960	135.947	-0.139	-0.178
-381.946	-200.000	0.009	0.121
-380.931	218.135	0.200	0.314
-379.917	134.373	-0.025	-0.032
-378.902	-68.613	-0.252	0.096
-377.888	-85.779	-0.081	-0.025
-376.873	303.197	-0.258	-0.471
-375.858	-190.373	-0.237	-0.003
-374.844	-63.985	0.170	-0.068
-373.829	-200.000	0.114	-0.613
-372.815	-27.038	0.064	0.037
-371.800	56.003	0.201	0.192
-370.785	-200.000	-0.035	0.318
-369.771	-200.000	0.053	0.346
-368.756	36.962	0.073	-0.064
-367.742	-112.972	0.394	0.077
-366.727	-89.629	-0.152	0.044
-365.712	220.209	-0.095	-0.149
-364.698	-68.390	-0.162	0.062
-363.683	-133.913	0.137	-0.017
-362.669	-200.000	-0.035	-0.243
-361.654	39.152	-0.290	-0.256
-360.639	-81.555	0.256	-0.083
-359.625	-120.379	-0.427	0.072
-358.610	-64.376	0.026	0.011
-357.596	5.555	-0.055	0.040
-356.581	-131.819	-0.338	0.044
-355.566	-173.706	-0.072	-0.002
-354.552	-200.000	-0.020	0.205
-353.537	404.618	-0.155	-0.321
-352.523	-78.096	0.404	-0.137
-351.508	257.976	-0.085	-0.144
-350.493	11.804	-0.141	0.106
-349.479	-168.088	-0.024	-0.001
-348.464	-48.196	-0.107	0.051
-347.450	227.101	0.116	0.185
-346.435	653.697	-0.145	0.366
-345.420	47.894	0.176	-0.161
-344.406	800.000	0.041	0.150
-343.391	507.570	0.106	0.242
-342.377	-200.000	-0.007	0.124
-341.362	74.634	-0.275	-0.284
-340.348	-200.000	0.048	-0.478
-339.333	800.000	-0.116	0.389
-338.318	175.449	-0.258	-0.368
-337.304	383.922	0.127	0.257
-336.289	-200.000	0.026	-0.198
-335.275	-31.154	0.164	0.091
-334.260	61.448	0.027	0.026
-333.245	86.696	0.254	0.276
-332.231	111.622	-0.208	0.247
-331.216	-142.991	-0.087	0.008
-330.202	-67.280	0.157	0.061
-329.187	800.000	-0.054	-0.148
-328.172	566.200	-0.124	0.295
-327.158	-87.586	0.096	-0.029
-326.143	-33.922	0.165	-0.089
-325.129	-200.000	0.026	-0.301
-324.114	800.000	-0.072	-0.219
-323.099	33.142	-0.176	-0.150
-322.085	-157.323	-0.246	0.015
-321.070	-118.359	-0.239	-0.042
-320.056	-200.000	0.010	-0.066
-319.041	-200.000	-0.009	-0.204
-318.026	-122.786	-0.173	0.028
-317.012	-67.804	0.153	0.059
-315.997	-112.023	-0.252	0.050
-314.983	55.137	0.069	0.066
-313.968	72.867	0.184	-0.188
-312.953	169.149	-0.025	-0.035
-311.939	232.773	-0.124	0.200
-310.924	-77.235	0.110	0.038
-309.910	-32.396	0.072	0.039
-308.895	800.000	-0.041	0.143
-307.880	-46.018	-0.184	-0.089
-306.866	-102.784	0.194	-0.045
-305.851	116.259	-0.256	-0.307
-304.837	208.967	0.088	0.136
-303.822	180.983	0.182	-0.262
-302.807	-110.298	0.093	0.019
-301.793	37.516	-0.117	-0.102
-300.778	44.747	0.227	-0.205
-299.764	271.039	-0.152	0.263
-298.749	800.000	-0.095	0.268
-297.735	-8.351	0.145	-0.096
-296.720	-85.891	-0.149	-0.045
-295.705	66.158	-0.161	0.161
-294.691	-200.000	0.075	0.336
-293.676	-82.487	0.225	0.072
-292.662	-48.702	0.419	0.198
-291.647	-33.621	-0.079	-0.043
-290.632	370.651	0.067	-0.134
-289.618	800.000	0.045	0.171
-288.603	-50.161	-0.082	-0.038
-287.589	-200.000	-0.016	-0.171
-286.574	-200.000	-0.005	-0.161
-285.559	-200.000	0.009	-0.057
-284.545	-171.329	0.432	0.014
-283.530	91.730	-0.151	-0.166
-282.516	-100.920	-0.032	-0.008
-281.501	-141.284	-0.170	0.017
-280.486	-200.000	0.005	-0.197
-279.472	800.000	-0.042	0.119
-278.457	89.414	-0.127	0.139
-277.443	-101.694	-0.151	0.036
-276.428	157.041	0.064	-0.087
-275.413	-21.834	-0.254	0.151
-274.399	-71.137	0.150	0.055
-273.384	31.325	-0.387	-0.326
-272.370	528.878	0.197	-0.455
-271.355	-68.218	-0.129	0.049
-270.340	187.055	0.112	-0.164
-269.326	191.518	0.102	0.150
-268.311	201.248	-0.147	-0.223
-267.297	-67.490	-0.381	0.146
-266.282	-97.002	-0.328	-0.084
-265.267	-146.576	-0.250	-0.021
-264.253	99.904	0.214	0.243
-263.238	-200.000	0.023	0.455
-262.224	800.000	0.139	-0.502
-261.209	70.365	0.238	-0.241
-260.195	130.262	-0.061	0.076
-259.180	-114.373	0.557	0.105
-258.165	178.709	0.141	0.202
-257.151	-200.000	0.076	0.359
-256.136	-77.618	-0.072	0.025
-255.122	-200.000	-0.016	0.187
-254.107	-200.000	0.040	0.224
-253.092	-200.000	0.000	-0.095
-252.078	338.197	0.167	-0.318
-251.063	-42.457	-0.278	0.139
-250.049	-200.000	-0.013	-0.107
-249.034	243.587	-0.111	-0.183
-248.019	-130.695	-0.261	-0.034
-247.005	-88.369	0.089	-0.026
-245.990	-200.000	-0.013	-0.068
-244.976	113.669	0.104	-0.124
-243.961	4.185	0.171	0.122
-242.946	199.285	-0.196	-0.294
-241.932	-17.004	-0.165	-0.102
-240.917	800.000	0.030	0.121
-239.903	112.474	0.219	0.259
-238.888	-77.519	0.140	0.048
-237.873	144.760	-0.025	-0.033
-236.859	94.240	-0.132	-0.146
-235.844	800.000	-0.045	-0.171
-234.830	-187.392	-0.264	0.003
-233.815	73.581	-0.147	0.150
-232.800	62.762	-0.136	-0.133
-231.786	800.000	-0.098	0.267
-230.771	-131.658	0.150	-0.019
-229.757	104.530	0.122	-0.140
-228.742	50.101	0.131	0.121
-227.727	-200.000	-0.033	-0.192
-226.713	176.904	0.116	0.165
-225.698	-200.000	0.063	-0.274
-224.684	224.369	0.101	0.159
-223.669	-2.842	-0.138	-0.094
-222.655	29.826	-0.251	-0.209
-221.640	66.973	0.082	0.082
-220.625	-75.439	-0.192	0.067
-219.611	47.038	0.205	0.186
-218.596	63.093	-0.209	-0.205
-217.582	-97.584	0.313	-0.079
-216.567	53.900	0.192	-0.180
-215.552	205.813	-0.139	0.211
-214.538	800.000	0.065	-0.274
-213.523	-92.263	0.395	-0.109
-212.509	90.757	0.078	-0.086
-211.494	116.841	-0.116	-0.139
-210.479	89.498	-0.052	-0.057
-209.465	-65.957	0.307	-0.120
-208.450	-200.000	0.008	-0.185
-207.436	193.978	-0.165	0.244
-206.421	-104.042	0.244	-0.056
-205.406	520.094	0.159	-0.365
-204.392	-38.150	0.298	0.155
-203.377	-173.910	-0.127	0.004
-202.363	-200.000	-0.073	0.407
-201.348	34.985	0.191	-0.164
-200.333	-152.477	0.179	-0.013
-199.319	-64.143	0.211	-0.084
-198.304	8.331	-0.319	-0.235
-197.290	-200.000	0.009	-0.045
-196.275	242.074	-0.102	0.166
-195.260	286.011	-0.135	-0.238
-194.246	670.360	0.166	0.420
-193.231	-200.000	0.039	-0.250
-192.217	-200.000	-0.002	-0.104
-191.202	45.300	-0.199	0.179
-190.187	-200.000	0.034	0.239
-189.173	-56.116	-0.125	-0.054
-188.158	800.000	0.029	-0.102
-187.144	240.086	0.165	0.269
-186.129	31.676	-0.168	-0.141
-185.114	-200.000	-0.014	0.142
-184.100	-10.137	-0.200	-0.130
-183.085	-36.510	0.366	0.192
-182.071	19.523	0.143	-0.113
-181.056	-200.000	0.024	-0.274
-180.042	35.441	0.118	-0.101
-179.027	139.228	-0.088	0.113
-178.012	14.913	0.084	-0.065
-176.998	-200.000	0.021	0.427
-175.983	-200.000	0.007	0.161
-174.969	800.000	0.013	0.038
-173.954	-200.000	-0.054	0.395
-172.939	-152.128	0.064	0.005
-171.925	-53.710	0.218	-0.097
-170.910	183.806	-0.077	-0.111
-169.896	-152.396	0.153	0.011
-168.881	-117.503	0.051	0.009
-167.866	-200.000	-0.009	-0.119
-166.852	678.717	0.111	0.283
-165.837	-200.000	-0.028	0.328
-164.823	0.036	-0.147	-0.102
-163.808	420.628	-0.038	0.079
-162.793	800.000	0.022	0.060
-161.779	800.000	0.056	0.171
-160.764	-200.000	0.010	-0.072
-159.750	161.697	0.203	0.278
-158.735	-200.000	-0.069	0.325
-157.720	153.443	0.091	-0.121
-156.706	-70.632	0.217	0.080
-155.691	128.391	0.096	0.119
-154.677	-121.482	-0.313	0.051
-153.662	-200.000	-0.035	-0.197
-152.647	-82.625	-0.217	-0.069
-151.633	-2.233	-0.107	0.073
-150.618	-0.182	0.143	0.100
-149.604	504.056	-0.157	-0.353
-148.589	-19.432	-0.204	0.123
-147.574	-23.348	-0.103	-0.061
-146.560	-80.478	0.276	-0.090
-145.545	0.979	-0.343	-0.240
-144.531	380.124	-0.066	-0.132
-143.516	-102.649	0.370	0.086
-142.502	-200.000	-0.055	0.381
-141.487	42.023	-0.167	-0.148
-140.472	-200.000	-0.089	0.424
-139.458	148.461	0.068	-0.090
-138.443	420.649	-0.083	0.174
-137.429	7.638	-0.092	0.067
-136.414	522.629	0.118	0.271
-135.399	69.360	0.115	-0.115
-134.385	-200.000	-0.028	0.227
-133.370	6.930	-0.016	-0.012
-132.356	210.166	-0.184	0.281
-131.341	93.565	0.156	-0.173
-130.326	-200.000	0.040	-0.187
-129.312	9.255	-0.155	0.114
-128.297	18.144	-0.174	0.135
-127.283	-200.000	-0.005	0.339
-126.268	-121.696	-0.095	-0.015
-125.253	800.000	-0.084	0.234
-124.239	73.146	-0.186	0.190
-123.224	-100.070	0.218	-0.053
-122.210	-200.000	0.123	0.000
-121.195	700.602	0.096	0.248
-120.180	20.300	-0.113	-0.089
