DTS Sentinel unit serial number:	SN413079Multiplexer serial number:	ORYXHardware model number:	OX4-SRSoftware version number:	ORYX F/W v4.00 Oryx Data Collector v3.7.2.0data status	okinstallation	princeton_trtdifferential loss correction	single-endedforward channel	channel 3reverse channel	N/Adate	2019/09/19time	11:08:34forward acquisition time	60.00reverse acquisition time	0.00gamma	496.2192k internal	0.2342k external	0.2342temperature offset calibration	0.9983default loss term (dB/km)	0.3790temperature slope calibration	1.0000multiplexer offset coefficient	1.0000multiplexer slope coefficient	1.0000fibre end	0.00T internal ref (°C)	25.02T ext. ref 1 (°C)	0.77T ext. ref 2 (°C)	20.62length (m)	temperature (°C)	Stokes	anti-Stokes-747.200	-120.089	0.047	-0.008
-746.185	-6.931	0.151	-0.103
-745.171	17.412	-0.164	0.130
-744.156	105.012	-0.201	0.237
-743.142	34.000	-0.021	-0.018
-742.127	74.572	-0.067	0.071
-741.112	800.000	0.119	0.419
-740.098	103.326	0.063	0.074
-739.083	-200.000	-0.009	0.579
-738.069	128.133	0.213	-0.271
-737.054	-60.276	-0.123	0.052
-736.039	-55.612	-0.312	0.140
-735.025	23.376	-0.060	-0.050
-734.010	265.062	-0.198	-0.346
-732.996	-20.654	-0.097	-0.060
-731.981	-91.055	-0.280	0.080
-730.966	-57.379	0.223	-0.098
-729.952	519.443	-0.110	0.258
-728.937	274.119	0.151	-0.267
-727.923	-4.761	-0.347	-0.240
-726.908	617.239	0.062	-0.155
-725.894	300.630	0.065	0.120
-724.879	124.876	0.150	-0.189
-723.864	-112.257	-0.101	-0.020
-722.850	-73.553	-0.296	0.108
-721.835	133.832	0.216	0.280
-720.821	-64.314	-0.114	-0.046
-719.806	394.772	0.069	0.143
-718.791	131.728	-0.121	-0.155
-717.777	-200.000	0.005	0.108
-716.762	-152.323	-0.259	0.019
-715.748	251.063	-0.126	0.214
-714.733	27.497	0.104	0.087
-713.718	-22.546	0.111	-0.067
-712.704	92.910	-0.137	0.155
-711.689	-200.000	0.024	0.108
-710.675	-91.215	-0.145	0.041
-709.660	-75.029	-0.231	-0.083
-708.645	45.924	-0.074	0.069
-707.631	-62.109	-0.134	-0.056
-706.616	470.360	-0.084	-0.189
-705.602	-200.000	-0.013	-0.354
-704.587	16.637	0.078	-0.062
-703.572	-27.973	-0.263	0.153
-702.558	344.489	-0.125	0.245
-701.543	-200.000	-0.017	-0.154
-700.529	-200.000	-0.030	-0.686
-699.514	-62.382	-0.278	-0.116
-698.499	-130.856	-0.256	-0.034
-697.485	-55.350	-0.232	0.104
-696.470	603.681	0.082	0.204
-695.456	78.930	-0.065	-0.069
-694.441	-87.360	0.144	-0.044
-693.426	186.581	-0.138	-0.206
-692.412	35.072	0.023	-0.020
-691.397	-59.246	0.374	0.161
-690.383	55.430	0.055	0.053
-689.368	-45.047	0.058	-0.029
-688.354	-30.694	-0.192	-0.109
-687.339	-179.635	-0.326	0.007
-686.324	72.995	0.192	-0.200
-685.310	259.685	-0.065	0.112
-684.295	113.885	0.093	0.113
-683.281	290.425	0.099	-0.181
-682.266	60.932	-0.070	-0.069
-681.251	-200.000	0.062	-0.336
-680.237	-200.000	0.006	0.268
-679.222	-88.266	-0.262	-0.078
-678.208	-200.000	-0.012	-0.089
-677.193	48.278	0.072	0.068
-676.178	259.519	-0.124	0.214
-675.164	-200.000	0.008	0.056
-674.149	-64.111	-0.134	-0.055
-673.135	-158.722	-0.296	-0.017
-672.120	-200.000	-0.060	-0.508
-671.105	800.000	-0.092	-0.269
-670.091	-198.193	-0.554	0.003
-669.076	517.140	0.144	-0.337
-668.062	-135.969	0.107	-0.013
-667.047	-82.765	-0.258	0.083
-666.032	-75.987	-0.215	-0.076
-665.018	-60.328	0.090	-0.038
-664.003	-134.639	-0.177	0.021
-662.989	-107.287	-0.411	-0.090
-661.974	-71.439	0.215	0.080
-660.959	178.567	-0.057	0.084
-659.945	-83.025	-0.263	0.085
-658.930	80.318	-0.111	-0.119
-657.916	-67.489	-0.197	-0.077
-656.901	-158.553	-0.200	0.012
-655.886	-200.000	0.009	-0.166
-654.872	16.076	-0.392	-0.308
-653.857	60.086	0.174	-0.172
-652.843	800.000	-0.068	-0.228
-651.828	-70.419	0.220	-0.083
-650.814	-20.178	-0.249	-0.153
-649.799	-11.512	-0.234	-0.154
-648.784	44.544	0.225	0.206
-647.770	73.587	-0.065	-0.068
-646.755	125.546	-0.141	0.177
-645.741	-138.469	0.625	0.069
-644.726	197.860	-0.198	0.302
-643.711	-132.731	0.293	-0.037
-642.697	-32.744	0.149	0.082
-641.682	129.187	-0.127	-0.162
-640.668	-200.000	-0.043	0.304
-639.653	-88.716	0.241	0.072
-638.638	188.622	-0.090	0.134
-637.624	211.701	-0.027	-0.042
-636.609	321.376	-0.105	-0.199
-635.595	-200.000	0.101	-0.454
-634.580	-40.820	0.099	-0.051
-633.565	-75.658	-0.083	0.029
-632.551	-200.000	-0.030	-0.148
-631.536	-137.560	0.417	-0.047
-630.522	-49.689	0.119	-0.056
-629.507	-142.167	-0.337	0.033
-628.492	-200.000	-0.038	0.165
-627.478	132.798	0.120	-0.155
-626.463	-200.000	-0.013	-0.165
-625.449	800.000	0.056	-0.230
-624.434	-57.321	-0.252	-0.110
-623.419	138.513	-0.045	0.059
-622.405	109.493	-0.096	-0.115
-621.390	-115.174	-0.179	-0.034
-620.376	29.327	0.040	-0.034
-619.361	-147.503	-0.260	0.022
-618.346	-75.124	0.129	-0.046
-617.332	-200.000	0.032	-0.168
-616.317	-131.505	0.349	0.046
-615.303	-200.000	-0.319	-0.001
-614.288	-163.356	-0.180	0.009
-613.273	-83.741	0.088	-0.028
-612.259	22.444	0.082	-0.067
-611.244	2.190	0.058	-0.042
-610.230	800.000	0.151	-0.457
-609.215	45.889	0.245	0.226
-608.201	-94.361	-0.267	-0.073
-607.186	52.774	-0.057	0.055
-606.171	-112.984	0.194	-0.038
-605.157	-84.131	0.151	0.048
-604.142	-200.000	0.010	-0.559
-603.128	800.000	-0.117	0.372
-602.113	-52.574	0.097	-0.045
-601.098	-7.744	0.335	0.226
-600.084	-51.313	-0.387	0.181
-599.069	-154.845	-0.036	0.002
-598.055	-48.360	0.185	-0.089
-597.040	800.000	0.062	0.217
-596.025	-79.170	-0.202	-0.068
-595.011	-91.723	-0.222	0.063
-593.996	800.000	-0.052	0.210
-592.982	-79.543	0.311	-0.105
-591.967	131.910	0.057	-0.073
-590.952	800.000	-0.063	-0.187
-589.938	-9.397	-0.256	-0.170
-588.923	273.611	-0.030	-0.053
-587.909	-200.000	-0.011	-0.305
-586.894	374.003	-0.187	0.380
-585.879	-200.000	0.061	0.284
-584.865	401.783	-0.056	0.117
-583.850	739.409	-0.082	0.219
-582.836	219.076	-0.184	0.292
-581.821	-132.440	-0.254	0.033
-580.806	421.995	0.061	0.131
-579.792	-54.338	-0.279	-0.126
-578.777	800.000	0.020	0.080
-577.763	-118.830	0.163	0.029
-576.748	800.000	-0.141	0.416
-575.733	-154.716	-0.216	-0.014
-574.719	-118.948	0.169	0.029
-573.704	-93.214	0.196	0.054
-572.690	396.783	0.129	-0.268
-571.675	-74.449	-0.089	0.032
-570.661	800.000	0.042	-0.141
-569.646	-40.991	-0.416	0.214
-568.631	-130.616	0.294	-0.039
-567.617	-29.596	0.111	0.063
-566.602	400.334	0.096	0.201
-565.588	-72.156	-0.286	0.105
-564.573	96.755	0.179	-0.204
-563.558	800.000	0.035	0.108
-562.544	-35.212	-0.124	0.067
-561.529	38.342	-0.205	0.182
-560.515	-102.106	-0.030	-0.007
-559.500	-65.176	-0.091	0.037
-558.485	26.847	0.125	0.104
-557.471	800.000	0.068	-0.192
-556.456	106.000	-0.056	-0.066
-555.442	-200.000	-0.000	-0.163
-554.427	-200.000	0.014	0.117
-553.412	149.409	0.309	-0.417
-552.398	-200.000	-0.014	0.081
-551.383	-4.593	0.454	-0.312
-550.369	401.341	-0.215	-0.449
-549.354	-27.612	0.078	0.045
-548.339	-200.000	-0.009	-0.142
-547.325	-95.206	-0.454	-0.122
-546.310	666.430	-0.035	0.091
-545.296	-200.000	-0.034	-0.228
-544.281	-200.000	-0.010	0.252
-543.266	317.820	-0.071	0.134
-542.252	800.000	-0.056	-0.178
-541.237	-200.000	-0.059	-0.374
-540.223	-27.336	0.094	-0.054
-539.208	800.000	0.171	0.473
-538.193	465.141	0.029	0.065
-537.179	345.925	0.025	-0.048
-536.164	-12.314	-0.095	-0.062
-535.150	800.000	-0.034	-0.108
-534.135	23.330	0.222	0.181
-533.121	-158.158	0.199	-0.012
-532.106	-180.059	-0.177	-0.004
-531.091	-200.000	0.035	-0.161
-530.077	-100.836	-0.049	-0.012
-529.062	328.526	-0.164	-0.313
-528.048	-137.293	0.313	-0.035
-527.033	170.213	0.291	-0.413
-526.018	521.172	-0.063	0.146
-525.004	-99.121	0.196	-0.049
-523.989	-34.886	0.289	0.157
-522.975	119.904	-0.168	-0.207
-521.960	-27.369	-0.227	0.131
-520.945	-200.000	-0.022	-0.107
-519.931	-91.372	0.360	0.102
-518.916	10.330	0.218	0.165
-517.902	800.000	-0.018	0.072
-516.887	-5.583	-0.150	0.102
-515.872	-197.972	-0.171	0.001
-514.858	-193.596	-0.126	-0.001
-513.843	-141.970	0.164	-0.016
-512.829	51.000	0.157	-0.148
-511.814	266.347	-0.099	0.172
-510.799	110.050	-0.105	0.125
-509.785	0.850	-0.174	0.124
-508.770	-43.235	0.241	-0.121
-507.756	-200.000	0.013	-0.127
-506.741	-37.524	0.192	-0.101
-505.726	-22.494	-0.209	-0.126
-504.712	-200.000	-0.009	-0.066
-503.697	27.195	-0.083	0.069
-502.683	-200.000	-0.007	-0.247
-501.668	-200.000	-0.011	-0.252
-500.653	-95.144	0.400	0.107
-499.639	-117.149	0.052	-0.009
-498.624	800.000	-0.029	0.115
-497.610	800.000	0.189	0.521
-496.595	323.148	0.064	-0.121
-495.581	-200.000	-0.054	-0.435
-494.566	-116.930	-0.524	-0.095
-493.551	800.000	-0.062	-0.198
-492.537	-48.377	-0.158	-0.076
-491.522	-200.000	0.016	0.088
-490.508	-28.596	-0.141	0.081
-489.493	800.000	0.111	-0.349
-488.478	-187.827	0.209	-0.003
-487.464	-200.000	0.035	-0.231
-486.449	-30.620	-0.233	-0.131
-485.435	-13.669	0.030	-0.019
-484.420	-200.000	0.028	-0.142
-483.405	-69.784	-0.080	-0.030
-482.391	105.362	0.057	0.067
-481.376	460.443	-0.116	0.256
-480.362	-59.897	0.157	-0.067
-479.347	55.101	-0.132	0.127
-478.332	223.734	0.152	0.243
-477.318	166.469	0.162	-0.228
-476.303	-200.000	-0.000	0.281
-475.289	212.992	-0.107	-0.167
-474.274	150.454	-0.090	0.121
-473.259	800.000	0.037	0.106
-472.245	800.000	-0.063	0.212
-471.230	-16.111	-0.131	0.082
-470.216	-19.337	0.150	0.092
-469.201	-104.915	0.219	0.050
-468.186	0.768	-0.313	-0.222
-467.172	800.000	-0.088	0.250
-466.157	-200.000	0.017	0.241
-465.143	79.469	0.107	-0.114
-464.128	405.948	-0.106	0.221
-463.113	13.979	-0.166	-0.128
-462.099	131.023	0.233	0.296
-461.084	-115.554	-0.262	0.049
-460.070	-200.000	0.057	0.248
-459.055	-200.000	0.029	-0.217
-458.040	290.293	0.153	0.275
-457.026	80.856	0.215	-0.230
-456.011	-157.185	-0.098	0.006
-454.997	-161.595	0.076	-0.004
-453.982	323.211	-0.177	-0.334
-452.968	36.302	-0.183	0.160
-451.953	-27.071	-0.265	-0.153
-450.938	-200.000	0.039	0.209
-449.924	-75.041	0.157	-0.056
-448.909	42.730	-0.229	0.206
-447.895	165.322	0.012	0.017
-446.880	506.555	-0.090	0.206
-445.865	262.063	-0.071	0.122
-444.851	101.686	-0.046	0.053
-443.836	285.239	-0.055	0.098
-442.822	-130.063	-0.526	0.071
-441.807	204.789	0.052	-0.079
-440.792	141.220	0.060	0.079
-439.778	108.051	0.073	0.086
-438.763	-99.675	-0.214	0.053
-437.749	37.630	-0.034	0.030
-436.734	121.151	-0.211	-0.261
-435.719	215.004	-0.123	-0.193
-434.705	275.806	-0.234	-0.412
-433.690	-183.002	0.338	-0.006
-432.676	-179.047	-0.395	-0.009
-431.661	81.547	-0.178	-0.191
-430.646	-159.083	0.225	0.013
-429.632	131.872	-0.239	0.305
-428.617	-26.096	-0.278	-0.162
-427.603	16.811	0.061	-0.048
-426.588	-86.131	-0.195	0.060
-425.573	-200.000	0.029	0.382
-424.559	-200.000	-0.026	0.307
-423.544	-200.000	0.005	0.041
-422.530	-200.000	0.054	0.260
-421.515	269.098	0.168	-0.292
-420.500	-4.222	-0.279	-0.191
-419.486	-185.415	0.184	0.003
-418.471	800.000	-0.102	0.307
-417.457	4.791	0.216	-0.157
-416.442	87.697	0.106	-0.116
-415.428	16.308	-0.040	0.031
-414.413	-83.913	-0.212	-0.067
-413.398	163.423	-0.080	-0.111
-412.384	-30.093	-0.188	0.106
-411.369	-97.245	-0.145	-0.037
-410.355	800.000	0.098	0.399
-409.340	591.295	-0.019	-0.046
-408.325	-73.128	0.061	-0.022
-407.311	800.000	0.060	0.235
-406.296	-133.131	-0.328	0.041
-405.282	-200.000	0.038	-0.251
-404.267	377.615	0.141	-0.285
-403.252	37.373	0.128	-0.113
-402.238	57.075	-0.139	-0.134
-401.223	-19.520	0.126	-0.077
-400.209	200.033	-0.170	0.257
-399.194	-14.069	-0.087	0.056
-398.179	-138.472	0.087	0.009
-397.165	107.189	0.084	-0.099
-396.150	25.646	0.142	-0.117
-395.136	-169.251	-0.373	0.014
-394.121	232.228	0.110	-0.178
-393.106	-52.337	-0.304	0.139
-392.092	-192.518	-0.309	-0.003
-391.077	100.932	0.092	-0.106
-390.063	-39.408	-0.157	0.082
-389.048	-5.974	0.026	-0.017
-388.033	691.539	-0.070	0.182
-387.019	-99.293	-0.134	0.033
-386.004	-168.319	0.404	0.015
-384.990	214.664	0.075	-0.118
-383.975	58.648	-0.163	-0.158
-382.960	104.110	0.092	-0.106
-381.946	-200.000	0.025	-0.230
-380.931	190.221	-0.119	-0.177
-379.917	-200.000	0.029	-0.131
-378.902	-200.000	-0.018	0.177
-377.888	-200.000	-0.035	0.273
-376.873	-31.905	0.392	-0.217
-375.858	-82.391	-0.190	-0.061
-374.844	226.868	0.034	-0.055
-373.829	4.550	0.307	-0.223
-372.815	-186.034	0.202	0.003
-371.800	-200.000	0.026	-0.121
-370.785	206.684	-0.103	0.159
-369.771	19.540	0.103	-0.082
-368.756	-200.000	0.057	-0.364
-367.742	-145.912	0.193	0.017
-366.727	-200.000	0.011	-0.076
-365.712	-113.807	-0.136	-0.026
-364.698	-169.504	-0.172	0.006
-363.683	-96.178	0.262	0.069
-362.669	-136.421	0.292	0.033
-361.654	62.321	0.230	0.227
-360.639	-200.000	0.056	0.296
-359.625	67.021	0.082	0.082
-358.610	-42.747	0.170	0.085
-357.596	124.673	0.283	0.352
-356.581	-118.180	0.464	-0.082
-355.566	-71.751	-0.268	-0.098
-354.552	92.310	0.096	-0.107
-353.537	263.193	0.114	-0.195
-352.523	800.000	-0.075	0.268
-351.508	3.578	-0.073	0.053
-350.493	-85.287	0.101	-0.031
-349.479	-200.000	-0.014	0.071
-348.464	261.045	-0.118	-0.202
-347.450	296.578	-0.205	0.370
-346.435	2.185	0.025	-0.018
-345.420	-200.000	-0.003	-0.386
-344.406	-82.571	0.226	0.072
-343.391	36.902	-0.250	-0.218
-342.377	364.144	0.046	0.092
-341.362	173.046	0.143	0.204
-340.348	800.000	-0.033	0.100
-339.333	163.148	0.269	0.372
-338.318	-21.629	0.174	0.105
-337.304	7.906	-0.145	0.107
-336.289	197.210	-0.032	-0.048
-335.275	-200.000	-0.022	0.106
-334.260	-124.795	-0.143	0.022
-333.245	-109.827	0.222	-0.046
-332.231	-200.000	-0.060	0.310
-331.216	595.592	-0.088	-0.215
-330.202	72.794	-0.075	-0.077
-329.187	96.704	-0.055	0.062
-328.172	149.956	-0.098	-0.131
-327.158	-200.000	-0.020	0.340
-326.143	800.000	-0.089	0.251
-325.129	-153.444	0.260	0.018
-324.114	-172.735	0.287	0.009
-323.099	-200.000	0.002	0.301
-322.085	36.906	0.205	-0.179
-321.070	-25.292	-0.059	-0.034
-320.056	800.000	0.067	0.270
-319.041	-51.965	0.292	0.134
-318.026	-54.061	0.268	-0.120
-317.012	-99.958	-0.361	-0.089
-315.997	217.023	0.150	0.235
-314.983	81.301	0.263	-0.280
-313.968	47.101	0.089	-0.082
-312.953	-98.048	-0.335	-0.085
-311.939	-152.498	0.513	-0.036
-310.924	-99.956	-0.148	-0.037
-309.910	78.721	-0.140	0.147
-308.895	-133.159	0.308	-0.038
-307.880	-66.524	-0.114	0.045
-306.866	-29.776	-0.257	-0.145
-305.851	549.218	-0.098	0.230
-304.837	-200.000	0.013	0.560
-303.822	-80.354	-0.134	-0.044
-302.807	800.000	0.089	-0.251
-301.793	104.640	0.147	0.170
-300.778	800.000	0.069	-0.196
-299.764	-74.310	-0.272	0.097
-298.749	65.380	0.208	-0.207
-297.735	-200.000	0.061	0.361
-296.720	441.647	-0.069	-0.149
-295.705	-73.036	0.274	0.099
-294.691	-0.625	0.048	-0.034
-293.676	90.359	-0.349	0.384
-292.662	-200.000	0.042	0.201
-291.647	-69.099	0.301	-0.114
-290.632	-170.334	0.104	-0.004
-289.618	-2.899	-0.293	-0.202
-288.603	-188.400	0.338	-0.004
-287.589	207.131	0.252	0.387
-286.574	-134.130	0.264	-0.032
-285.559	431.631	0.109	-0.233
-284.545	-200.000	0.018	-0.094
-283.530	-200.000	-0.005	0.135
-282.516	42.451	0.104	-0.093
-281.501	63.880	0.070	-0.069
-280.486	-3.913	-0.141	-0.096
-279.472	-200.000	-0.005	-0.029
-278.457	-87.039	0.204	0.061
-277.443	-200.000	0.032	0.190
-276.428	134.316	-0.149	0.190
-275.413	92.956	-0.220	0.245
-274.399	61.357	-0.046	-0.045
-273.384	28.935	-0.065	0.054
-272.370	800.000	-0.022	-0.074
-271.355	-106.560	0.284	0.062
-270.340	106.762	-0.197	0.230
-269.326	-200.000	-0.044	-0.444
-268.311	160.968	0.124	-0.170
-267.297	37.907	-0.277	0.242
-266.282	800.000	-0.081	0.267
-265.267	-8.922	0.293	-0.193
-264.253	800.000	0.056	0.191
-263.238	800.000	-0.127	0.417
-262.224	-88.123	-0.195	0.057
-261.209	54.933	-0.148	0.141
-260.195	-98.743	0.367	0.092
-259.180	403.582	0.054	-0.113
-258.165	-96.145	0.133	0.035
-257.151	-88.373	-0.177	0.052
-256.136	442.497	0.022	-0.047
-255.122	-55.080	-0.009	0.004
-254.107	384.354	0.080	0.161
-253.092	-200.000	0.061	0.288
-252.078	537.644	0.129	-0.300
-251.063	800.000	-0.065	-0.269
-250.049	-26.051	-0.334	-0.193
-249.034	-76.569	-0.141	-0.049
-248.019	-87.173	0.252	0.075
-247.005	-188.737	-0.433	-0.005
-245.990	-25.053	0.327	-0.190
-244.976	158.318	0.174	-0.237
-243.961	61.585	-0.138	-0.135
-242.946	-88.843	0.119	0.035
-241.932	-200.000	0.034	-0.324
-240.917	-184.752	-0.140	0.002
-239.903	59.696	0.013	-0.012
-238.888	-12.843	-0.154	-0.099
-237.873	723.127	-0.105	0.274
-236.859	-44.867	0.135	-0.066
-235.844	800.000	0.084	-0.350
-234.830	-100.259	0.224	-0.055
-233.815	800.000	-0.100	-0.315
-232.800	-59.069	0.148	-0.063
-231.786	-104.282	0.206	0.047
-230.771	158.010	0.063	0.086
-229.757	-200.000	0.017	0.309
-228.742	246.604	-0.055	-0.091
-227.727	229.369	0.019	0.030
-226.713	-104.387	-0.523	-0.119
-225.698	-92.658	0.113	0.031
-224.684	-103.372	0.136	0.031
-223.669	800.000	-0.030	0.090
-222.655	-115.576	-0.095	0.017
-221.640	353.087	-0.030	0.058
-220.625	-45.425	-0.216	-0.105
-219.611	-43.263	-0.129	-0.064
-218.596	800.000	0.079	0.238
-217.582	-74.783	0.095	-0.034
-216.567	77.637	-0.213	-0.223
-215.552	-15.049	-0.251	-0.158
-214.538	800.000	-0.041	-0.167
-213.523	-170.627	0.044	-0.002
-212.509	-200.000	0.052	-0.261
-211.494	800.000	0.101	-0.420
-210.479	-200.000	-0.009	0.069
-209.465	477.690	-0.048	-0.106
-208.450	20.979	0.143	0.114
-207.436	170.064	0.082	-0.115
-206.421	-91.723	-0.114	0.032
-205.406	-75.525	-0.169	-0.059
-204.392	-10.415	0.126	-0.082
-203.377	800.000	0.066	-0.237
-202.363	447.753	-0.131	0.283
-201.348	-65.141	-0.213	0.084
-200.333	21.783	-0.028	-0.023
-199.319	72.402	-0.255	-0.260
-198.304	-16.854	0.170	0.105
-197.290	-115.923	-0.177	0.032
-196.275	549.031	-0.033	-0.078
-195.260	800.000	-0.053	0.199
-194.246	257.313	-0.204	-0.344
-193.231	-200.000	0.031	-0.213
-192.217	-200.000	0.005	0.291
-191.202	-45.749	-0.195	0.094
-190.187	29.959	0.053	-0.045
-189.173	-200.000	-0.003	-0.169
-188.158	-90.209	-0.052	0.015
-187.144	-26.004	-0.114	-0.066
-186.129	-191.733	-0.187	-0.002
-185.114	-53.425	0.354	0.159
-184.100	-31.596	-0.164	-0.090
-183.085	143.530	-0.160	-0.209
-182.071	153.094	-0.196	-0.263
-181.056	431.875	-0.076	-0.162
-180.042	800.000	-0.081	0.281
-179.027	-15.566	0.376	0.235
-178.012	-200.000	0.012	0.151
-176.998	26.296	0.170	-0.139
-175.983	-164.230	0.348	0.016
-174.969	-124.391	-0.190	-0.029
-173.954	251.487	0.005	0.008
-172.939	-121.447	-0.136	0.022
-171.925	-105.847	0.262	-0.058
-170.910	-22.021	0.097	0.058
-169.896	84.900	-0.207	-0.223
-168.881	-140.435	0.362	-0.037
-167.866	-200.000	0.027	-0.127
-166.852	-74.152	-0.311	0.110
-165.837	587.026	0.048	0.115
-164.823	-27.929	-0.113	-0.064
-163.808	-92.857	-0.181	-0.049
-162.793	-200.000	-0.022	0.119
-161.779	237.862	-0.058	0.095
-160.764	674.748	-0.061	0.156
-159.750	165.120	0.121	0.168
-158.735	-88.684	0.286	0.083
-157.720	209.148	0.063	-0.096
-156.706	-150.612	0.214	0.016
-155.691	800.000	-0.071	0.206
-154.677	165.119	-0.060	0.083
-153.662	38.671	-0.050	-0.043
-152.647	-39.911	-0.042	-0.021
-151.633	320.145	0.065	0.121
-150.618	-200.000	-0.027	-0.179
-149.604	-17.378	0.304	0.188
-148.589	89.177	0.089	-0.097
-147.574	800.000	-0.036	0.127
-146.560	514.106	-0.085	-0.195
-145.545	-123.738	-0.219	0.034
-144.531	800.000	0.032	-0.130
-143.516	-48.976	-0.140	-0.066
-142.502	-61.164	0.118	0.049
-141.487	-192.089	-0.224	-0.002
-140.472	-147.515	-0.251	0.021
-139.458	393.196	-0.061	0.124
-138.443	93.056	0.042	0.047
-137.429	-45.819	0.132	0.064
-136.414	-159.639	-0.529	-0.029
-135.399	139.953	0.111	-0.143
-134.385	34.305	-0.255	-0.217
-133.370	-80.482	-0.230	0.075
-132.356	800.000	-0.073	0.233
-131.341	106.479	-0.104	-0.120
-130.326	-94.059	0.123	-0.033
-129.312	-111.217	-0.330	-0.066
-128.297	-200.000	0.004	0.064
-127.283	16.298	-0.149	0.115
-126.268	-200.000	-0.001	0.011
-125.253	800.000	-0.034	0.109
-124.239	-200.000	-0.093	-0.510
-123.224	-89.735	-0.246	0.071
-122.210	729.157	0.078	0.205
