DTS Sentinel unit serial number:	SN413079Multiplexer serial number:	ORYXHardware model number:	OX4-SRSoftware version number:	ORYX F/W v4.00 Oryx Data Collector v3.7.2.0data status	okinstallation	princeton_trtdifferential loss correction	single-endedforward channel	channel 3reverse channel	N/Adate	2019/09/12time	19:47:04forward acquisition time	15.00reverse acquisition time	0.00gamma	496.2192k internal	0.2322k external	0.2322temperature offset calibration	1.0116default loss term (dB/km)	0.3790temperature slope calibration	1.0000multiplexer offset coefficient	1.0000multiplexer slope coefficient	1.0000fibre end	0.00T internal ref (°C)	32.00T ext. ref 1 (°C)	3.43T ext. ref 2 (°C)	26.51length (m)	temperature (°C)	Stokes	anti-Stokes-747.200	114.534	0.340	0.418
-746.185	87.281	0.319	0.356
-745.171	800.000	-0.373	-1.050
-744.156	-85.753	0.148	-0.047
-743.142	-7.719	-0.378	-0.258
-742.127	93.326	-0.205	-0.235
-741.112	-200.000	0.072	-0.708
-740.098	-200.000	-0.130	0.837
-739.083	-50.612	-0.125	0.060
-738.069	-9.334	-0.339	0.229
-737.054	-176.053	-0.774	0.021
-736.039	-1.712	-0.846	-0.602
-735.025	-8.659	0.653	0.443
-734.010	-45.299	0.200	-0.100
-732.996	-143.446	-1.057	0.102
-731.981	-200.000	-0.183	1.065
-730.966	63.324	0.541	-0.548
-729.952	-200.000	-0.096	-0.473
-728.937	-200.000	0.042	-0.791
-727.923	112.541	0.464	-0.566
-726.908	-102.677	-0.220	0.053
-725.894	800.000	-0.228	0.755
-724.879	-50.112	0.262	-0.125
-723.864	221.110	-0.614	-0.995
-722.850	24.303	0.539	0.450
-721.835	-125.931	0.096	0.015
-720.821	-10.123	-0.800	-0.536
-719.806	800.000	-0.138	-0.449
-718.791	-200.000	0.048	0.459
-717.777	195.598	0.583	-0.894
-716.762	-155.879	1.134	0.073
-715.748	-65.571	-0.258	0.104
-714.733	593.727	-0.023	-0.058
-713.718	26.695	0.302	-0.256
-712.704	-3.179	-0.338	0.238
-711.689	-86.051	0.368	-0.115
-710.675	-0.462	0.754	-0.540
-709.660	36.946	0.623	0.556
-708.645	456.232	0.102	0.229
-707.631	176.444	-0.233	0.341
-706.616	-77.189	1.212	0.426
-705.602	-123.833	0.599	-0.095
-704.587	-200.000	0.006	0.174
-703.572	-120.190	-0.267	-0.046
-702.558	800.000	0.058	0.189
-701.543	-44.492	-0.565	0.285
-700.529	800.000	0.371	1.121
-699.514	-200.000	0.055	0.401
-698.499	64.973	0.480	-0.489
-697.485	21.667	0.331	0.272
-696.470	347.632	0.236	0.468
-695.456	23.562	0.264	-0.219
-694.441	800.000	-0.474	1.345
-693.426	547.561	-0.111	0.267
-692.412	-109.132	0.614	-0.132
-691.397	0.195	0.208	-0.150
-690.383	598.164	0.343	0.857
-689.368	199.303	-0.253	0.390
-688.354	-200.000	-0.033	0.315
-687.339	800.000	-0.119	0.355
-686.324	183.434	0.458	0.682
-685.310	706.508	0.184	0.491
-684.295	376.845	0.583	-1.201
-683.281	412.867	-0.260	-0.558
-682.266	-81.125	0.988	-0.329
-681.251	-200.000	0.072	0.687
-680.237	-26.718	-0.196	-0.115
-679.222	84.403	0.289	0.318
-678.208	119.110	-0.176	0.219
-677.193	-190.848	-0.264	0.003
-676.178	-115.168	-0.779	-0.149
-675.164	-111.669	0.582	0.119
-674.149	-96.777	0.827	-0.219
-673.135	204.228	-0.304	-0.475
-672.120	-113.764	-0.134	0.026
-671.105	342.557	0.448	-0.884
-670.091	-200.000	-0.050	-0.713
-669.076	25.605	-0.445	0.373
-668.062	800.000	-0.047	-0.209
-667.047	-6.808	0.597	-0.409
-666.032	-79.379	-0.552	-0.188
-665.018	-61.180	0.535	-0.227
-664.003	-65.800	0.299	0.121
-662.989	20.776	0.314	0.256
-661.974	-172.927	0.619	0.019
-660.959	800.000	-0.118	0.394
-659.945	800.000	-0.036	0.135
-658.930	-110.093	0.780	0.164
-657.916	-141.681	0.968	0.098
-656.901	140.190	-0.274	-0.363
-655.886	498.013	-0.102	0.237
-654.872	-29.145	0.276	-0.160
-653.857	-78.021	0.321	0.111
-652.843	-60.873	0.301	-0.128
-651.828	-153.125	0.702	0.050
-650.814	88.719	0.118	-0.132
-649.799	-145.918	0.853	0.076
-648.784	166.107	0.048	0.068
-647.770	269.413	0.137	-0.242
-646.755	-136.526	0.330	0.039
-645.741	800.000	-0.138	0.507
-644.726	-190.793	0.337	0.004
-643.711	-110.369	0.431	0.090
-642.697	-70.739	-0.377	0.143
-641.682	-200.000	-0.041	-0.269
-640.668	529.681	0.338	-0.803
-639.653	-92.875	-1.129	0.317
-638.638	-128.133	0.449	-0.065
-637.624	5.403	-0.236	-0.175
-636.609	800.000	-0.198	0.870
-635.595	-108.742	-0.976	0.210
-634.580	124.311	0.438	-0.554
-633.565	-200.000	0.227	-1.093
-632.551	2.040	0.267	-0.194
-631.536	356.711	0.290	0.582
-630.522	-136.792	0.531	0.062
-629.507	117.811	0.681	0.844
-628.492	-112.535	0.695	0.140
-627.478	-90.088	0.107	-0.031
-626.463	-40.556	0.287	0.150
-625.449	800.000	0.116	0.457
-624.434	203.347	-0.580	-0.903
-623.419	-111.002	1.069	0.221
-622.405	-200.000	-0.067	0.645
-621.390	-111.694	0.450	0.092
-620.376	71.625	-0.256	-0.267
-619.361	800.000	0.068	0.293
-618.346	-100.560	-0.112	0.028
-617.332	-200.000	-0.092	-0.835
-616.317	-13.410	-0.283	0.184
-615.303	800.000	0.263	0.739
-614.288	-37.488	0.133	-0.071
-613.273	-94.976	0.358	-0.097
-612.259	-200.000	0.037	-0.735
-611.244	-53.480	0.155	-0.071
-610.230	-28.927	-0.380	-0.220
-609.215	-200.000	0.036	0.435
-608.201	-200.000	-0.047	-0.367
-607.186	-42.981	0.839	-0.428
-606.171	-200.000	0.099	-0.494
-605.157	-48.636	-0.197	-0.095
-604.142	-128.057	0.266	0.038
-603.128	-72.084	0.753	0.281
-602.113	800.000	-0.199	0.706
-601.098	271.584	0.137	0.243
-600.084	73.363	0.491	0.516
-599.069	25.667	-0.260	0.217
-598.055	-187.525	-0.410	0.005
-597.040	-200.000	-0.145	-0.683
-596.025	487.014	0.185	-0.424
-595.011	-32.392	-0.257	-0.144
-593.996	-177.983	0.229	0.005
-592.982	8.520	-0.966	0.730
-591.967	499.621	-0.253	-0.585
-590.952	-4.877	-0.348	0.241
-589.938	194.434	0.544	0.829
-588.923	273.533	-0.428	0.760
-587.909	25.129	0.075	0.063
-586.894	284.884	-0.437	-0.790
-585.879	-57.308	-1.104	-0.487
-584.865	-31.303	-0.124	-0.070
-583.850	-200.000	-0.088	-0.632
-582.836	89.860	0.833	-0.934
-581.821	-200.000	-0.097	-0.488
-580.806	487.167	-0.254	-0.582
-579.792	-81.590	-0.183	0.060
-578.777	39.266	-0.304	0.273
-577.763	-166.988	-0.318	-0.013
-576.748	-67.942	-0.458	-0.179
-575.733	27.858	0.187	0.158
-574.719	3.364	-0.169	-0.123
-573.704	-190.692	0.405	-0.004
-572.690	-142.149	1.032	0.103
-571.675	71.328	0.548	0.570
-570.661	244.896	0.245	-0.414
-569.646	787.033	0.012	-0.032
-568.631	327.612	-0.165	0.317
-567.617	320.960	-0.401	-0.765
-566.602	-200.000	0.104	-0.710
-565.588	66.894	-0.219	0.224
-564.573	50.518	0.355	-0.337
-563.558	77.288	0.266	-0.283
-562.544	322.144	0.143	-0.273
-561.529	20.650	0.177	0.144
-560.515	-64.010	0.245	-0.101
-559.500	-114.990	-0.323	-0.062
-558.485	55.596	0.080	0.078
-557.471	-200.000	-0.024	0.185
-556.456	431.016	-0.450	0.977
-555.442	15.005	0.347	0.272
-554.427	-200.000	0.076	-0.340
-553.412	329.657	0.171	0.330
-552.398	-200.000	0.029	-0.183
-551.383	795.345	0.168	-0.465
-550.369	-200.000	-0.158	0.902
-549.354	121.215	0.166	0.207
-548.339	-80.017	-0.241	0.081
-547.325	237.014	0.559	0.928
-546.310	-134.526	0.633	0.078
-545.296	800.000	0.248	-0.821
-544.281	-93.041	-0.771	-0.215
-543.266	-200.000	0.077	-0.563
-542.252	-77.411	-0.778	0.271
-541.237	47.173	0.346	0.323
-540.223	-200.000	-0.122	-0.877
-539.208	-153.405	-0.801	-0.056
-538.193	245.440	-0.209	-0.352
-537.179	-171.786	-1.158	-0.038
-536.164	-118.278	-1.035	0.184
-535.150	-70.535	-0.645	-0.245
-534.135	121.121	0.461	-0.575
-533.121	302.746	0.127	0.235
-532.106	-181.481	0.307	-0.006
-531.091	-12.085	0.093	0.061
-530.077	-200.000	-0.104	-0.511
-529.062	87.456	0.301	-0.333
-528.048	800.000	-0.092	0.374
-527.033	111.173	-0.575	-0.694
-526.018	800.000	0.140	-0.413
-525.004	37.245	-0.584	-0.518
-523.989	580.721	0.110	-0.270
-522.975	96.337	0.471	0.539
-521.960	-23.281	0.498	0.300
-520.945	16.010	-0.191	0.151
-519.931	-22.119	-0.557	0.338
-518.916	446.513	0.176	-0.388
-517.902	68.230	-0.419	-0.429
-516.887	39.951	0.215	-0.194
-515.872	53.274	0.581	0.557
-514.858	-200.000	-0.053	0.259
-513.843	-56.509	0.612	-0.272
-512.829	46.198	0.099	-0.092
-511.814	-189.969	0.517	0.006
-510.799	39.344	-0.388	-0.347
-509.785	233.943	-0.339	-0.559
-508.770	9.536	0.392	0.298
-507.756	-115.718	-0.179	-0.034
-506.741	-67.632	-0.181	-0.071
-505.726	-120.296	-0.420	-0.072
-504.712	194.788	0.270	0.410
-503.697	3.246	-0.328	-0.239
-502.683	88.919	0.337	0.375
-501.668	58.115	0.101	-0.099
-500.653	-31.276	-0.587	-0.331
-499.639	-70.650	0.615	0.233
-498.624	-200.000	-0.222	1.025
-497.610	-75.759	0.236	0.084
-496.595	-119.805	-0.242	0.042
-495.581	663.609	-0.315	-0.814
-494.566	295.744	-0.126	0.230
-493.551	-56.953	-0.305	-0.135
-492.537	-200.000	-0.056	0.323
-491.522	-130.924	-0.397	-0.053
-490.508	800.000	0.113	0.494
-489.493	323.844	0.223	0.426
-488.478	-138.971	-0.404	-0.044
-487.464	68.550	-0.320	-0.329
-486.449	98.784	0.481	-0.555
-485.435	32.187	-0.476	0.411
-484.420	480.167	-0.278	0.631
-483.405	22.911	-0.242	0.198
-482.391	556.594	-0.085	-0.204
-481.376	-107.022	-0.504	-0.111
-480.362	800.000	-0.248	0.779
-479.347	-64.851	0.482	-0.195
-478.332	-109.208	-0.834	-0.177
-477.318	800.000	0.239	0.684
-476.303	-46.159	0.352	-0.173
-475.289	49.749	0.323	0.304
-474.274	-138.264	-0.212	-0.023
-473.259	45.977	0.321	0.297
-472.245	-9.833	0.502	0.334
-471.230	-125.029	0.519	-0.080
-470.216	-67.516	0.351	0.138
-469.201	800.000	-0.123	-0.426
-468.186	-200.000	0.044	0.297
-467.172	154.470	-0.465	0.638
-466.157	545.041	0.465	-1.110
-465.143	299.466	-0.084	0.155
-464.128	-17.772	-0.825	0.517
-463.113	-200.000	-0.070	-0.600
-462.099	248.322	-0.305	0.516
-461.084	-65.999	-0.510	0.203
-460.070	61.475	0.614	-0.610
-459.055	82.940	-0.036	0.039
-458.040	110.684	0.268	-0.322
-457.026	800.000	0.077	-0.329
-456.011	38.477	0.341	0.304
-454.997	-200.000	0.066	-0.745
-453.982	-48.885	-0.486	0.233
-452.968	-37.942	0.447	0.237
-451.953	-158.197	0.355	-0.021
-450.938	55.064	0.406	0.391
-449.924	-117.020	0.383	-0.070
-448.909	-128.923	0.388	0.054
-447.895	-200.000	-0.017	0.210
-446.880	46.580	-0.872	-0.808
-445.865	437.357	-0.180	-0.392
-444.851	-80.691	0.689	0.229
-443.836	120.474	0.315	0.391
-442.822	-21.550	0.268	0.163
-441.807	800.000	-0.178	-0.693
-440.792	-48.785	-0.752	-0.360
-439.778	287.467	0.318	0.574
-438.763	52.902	0.940	-0.898
-437.749	-64.196	0.613	0.249
-436.734	-200.000	0.100	0.442
-435.719	-97.193	0.236	-0.062
-434.705	-52.525	0.448	0.207
-433.690	76.409	0.266	0.281
-432.676	800.000	0.082	0.253
-431.661	60.658	0.551	0.545
-430.646	-200.000	-0.023	-0.643
-429.632	-200.000	-0.440	0.001
-428.617	-29.158	0.342	0.196
-427.603	203.771	-0.235	-0.363
-426.588	-34.558	-0.545	0.298
-425.573	562.738	-0.176	0.424
-424.559	366.316	0.099	0.199
-423.544	-70.182	0.826	0.313
-422.530	-200.000	-0.079	-0.516
-421.515	-200.000	0.166	0.935
-420.500	182.835	0.326	0.480
-419.486	-29.400	0.777	0.443
-418.471	-200.000	0.127	-0.619
-417.457	-121.297	-0.759	-0.126
-416.442	-169.248	-0.530	0.020
-415.428	627.425	-0.168	-0.422
-414.413	-89.987	-0.112	0.033
-413.398	68.053	0.705	-0.719
-412.384	-36.919	0.243	0.130
-411.369	-151.276	-1.313	-0.098
-410.355	39.520	-0.392	0.351
-409.340	-200.000	-0.054	0.420
-408.325	800.000	0.156	-0.589
-407.311	128.274	-0.333	0.422
-406.296	-117.039	-0.399	0.073
-405.282	-84.912	-0.617	0.193
-404.267	-200.000	0.082	0.586
-403.252	-64.865	0.367	0.148
-402.238	-30.609	0.198	0.112
-401.223	-178.019	1.063	-0.025
-400.209	-81.561	0.283	0.093
-399.194	-102.923	-0.392	-0.093
-398.179	-200.000	-0.062	0.538
-397.165	645.747	-0.083	0.212
-396.150	36.942	0.089	-0.079
-395.136	77.279	-0.538	0.570
-394.121	-200.000	-0.029	0.745
-393.106	123.094	-0.096	0.119
-392.092	-128.887	0.708	-0.099
-391.077	-20.962	0.635	-0.387
-390.063	-200.000	-0.020	-0.264
-389.048	-18.309	0.747	0.465
-388.033	48.265	-0.185	0.172
-387.019	483.498	-0.201	-0.456
-386.004	-18.003	-0.455	0.284
-384.990	800.000	0.131	0.440
-383.975	-23.825	-0.788	-0.470
-382.960	-24.826	-0.918	0.543
-381.946	80.161	0.537	-0.575
-380.931	-193.334	0.574	-0.005
-379.917	145.152	-0.515	-0.686
-378.902	-200.000	0.002	-0.128
-377.888	358.553	0.594	1.182
-376.873	-82.145	-0.409	-0.133
-375.858	59.003	0.548	-0.536
-374.844	-33.814	-0.648	-0.356
-373.829	-200.000	-0.189	-1.278
-372.815	800.000	-0.209	0.596
-371.800	308.090	0.254	0.472
-370.785	96.127	0.361	-0.410
-369.771	92.069	-0.809	-0.907
-368.756	22.318	0.161	-0.131
-367.742	72.831	0.806	0.837
-366.727	-59.884	-0.507	-0.216
-365.712	800.000	0.263	-1.066
-364.698	-31.291	-0.240	-0.135
-363.683	142.637	-0.224	-0.296
-362.669	-45.685	-0.618	-0.304
-361.654	-200.000	-0.024	0.453
-360.639	69.473	-0.449	-0.460
-359.625	-3.056	0.155	0.108
-358.610	127.083	0.038	0.048
-357.596	-1.052	-0.475	0.334
-356.581	65.812	-0.156	-0.157
-355.566	-100.493	1.067	0.263
-354.552	-66.478	0.491	-0.194
-353.537	174.005	-0.499	0.718
-352.523	254.677	0.105	0.178
-351.508	-200.000	0.043	0.425
-350.493	-200.000	-0.028	-0.149
-349.479	-170.668	0.237	-0.008
-348.464	-46.724	0.128	0.062
-347.450	-122.016	-1.399	-0.229
-346.435	-128.930	0.948	-0.132
-345.420	-11.490	0.614	-0.402
-344.406	725.142	-0.136	-0.361
-343.391	-64.423	0.511	0.207
-342.377	725.070	0.090	0.240
-341.362	18.539	-0.322	0.256
-340.348	22.463	-0.178	0.145
-339.333	-200.000	-0.043	0.215
-338.318	-10.959	0.441	-0.289
-337.304	-128.778	-0.589	-0.082
-336.289	13.611	0.657	-0.507
-335.275	108.193	-0.145	-0.172
-334.260	-200.000	0.054	-0.250
-333.245	210.306	-0.101	0.157
-332.231	12.814	0.414	-0.318
-331.216	-173.272	0.236	0.007
-330.202	334.276	0.320	-0.615
-329.187	5.508	0.119	0.088
-328.172	124.572	0.357	0.446
-327.158	-10.264	-0.609	-0.402
-326.143	-8.199	-0.258	0.172
-325.129	-196.968	0.413	-0.003
-324.114	-200.000	-0.073	-0.385
-323.099	-120.837	0.643	0.108
-322.085	-88.573	-0.543	-0.161
-321.070	61.082	-0.159	-0.157
-320.056	55.823	0.106	0.102
-319.041	90.121	-0.045	0.050
-318.026	-77.708	0.408	0.140
-317.012	415.306	0.473	1.001
-315.997	-14.287	-0.171	0.110
-314.983	25.936	0.281	-0.233
-313.968	-200.000	-0.066	-0.455
-312.953	434.464	0.130	-0.282
-311.939	200.682	0.173	0.263
-310.924	-32.865	0.264	0.146
-309.910	485.423	0.079	-0.180
-308.895	-200.000	-0.075	-0.739
-307.880	73.618	-0.621	0.646
-306.866	-54.409	0.664	0.299
-305.851	-200.000	-0.180	0.891
-304.837	-200.000	-0.107	1.068
-303.822	-79.836	-0.736	0.246
-302.807	-112.487	-1.064	-0.211
-301.793	-90.919	0.309	0.088
-300.778	276.160	-0.104	0.184
-299.764	86.889	-0.520	0.571
-298.749	564.325	0.360	-0.865
-297.735	195.837	-0.229	0.345
-296.720	35.840	0.523	-0.457
-295.705	34.954	-0.220	-0.191
-294.691	-51.129	0.569	0.265
-293.676	70.135	-0.425	0.435
-292.662	-15.340	0.272	-0.173
-291.647	77.374	0.264	0.279
-290.632	800.000	-0.100	-0.326
-289.618	-56.329	0.477	-0.210
-288.603	72.612	-0.439	-0.455
-287.589	-48.068	0.626	-0.300
-286.574	215.558	0.412	-0.649
-285.559	-200.000	-0.019	-0.286
-284.545	287.934	0.214	-0.384
-283.530	9.227	-0.450	-0.337
-282.516	48.823	0.303	-0.282
-281.501	800.000	-0.135	-0.482
-280.486	800.000	-0.117	0.400
-279.472	-88.366	0.638	-0.189
-278.457	-152.000	-0.639	0.046
-277.443	-52.022	0.406	0.187
-276.428	800.000	-0.197	0.656
-275.413	-150.893	-0.470	0.035
-274.399	225.658	-0.727	-1.168
-273.384	192.639	0.244	-0.365
-272.370	-146.209	-0.494	-0.043
-271.355	183.659	0.053	-0.077
-270.340	-200.000	0.005	-0.094
-269.326	-48.308	-0.441	-0.211
-268.311	-39.626	0.246	0.127
-267.297	800.000	0.113	-0.396
-266.282	-200.000	-0.176	-0.922
-265.267	-47.528	-0.431	0.208
-264.253	262.953	-0.285	-0.491
-263.238	438.373	-0.203	-0.439
-262.224	289.324	-0.292	0.525
-261.209	66.641	0.655	0.661
-260.195	13.559	0.425	0.327
-259.180	-88.480	-0.310	-0.092
-258.165	-193.005	-1.231	0.011
-257.151	26.795	0.168	0.139
-256.136	800.000	-0.219	-0.769
-255.122	-200.000	-0.021	-0.523
-254.107	14.975	0.307	-0.238
-253.092	82.777	0.810	0.872
-252.078	173.025	0.313	0.446
-251.063	250.358	0.446	-0.751
-250.049	-200.000	-0.130	0.914
-249.034	-12.193	-0.141	-0.091
-248.019	-24.625	-0.281	0.166
-247.005	-196.472	-0.335	0.002
-245.990	-90.200	0.449	0.129
-244.976	-151.974	0.535	-0.039
-243.961	-103.129	0.450	-0.106
-242.946	-90.254	-0.259	0.075
-241.932	254.428	-0.221	0.374
-240.917	-142.785	1.045	0.101
-239.903	-148.524	-0.455	0.037
-238.888	-117.334	0.350	-0.063
-237.873	800.000	-0.052	-0.182
-236.859	181.296	0.097	0.141
-235.844	-200.000	0.070	-0.337
-234.830	45.141	0.427	-0.390
-233.815	667.051	0.081	0.207
-232.800	800.000	-0.191	-0.607
-231.786	64.654	0.053	0.053
-230.771	132.686	0.455	0.581
-229.757	96.571	0.648	-0.734
-228.742	-20.483	-0.266	-0.162
-227.727	86.056	-0.148	0.161
-226.713	800.000	-0.128	0.395
-225.698	-97.888	0.537	0.137
-224.684	-23.275	-1.026	-0.611
-223.669	-188.058	0.641	0.008
-222.655	385.042	0.133	-0.272
-221.640	-93.286	-0.549	-0.151
-220.625	454.579	-0.324	-0.712
-219.611	800.000	-0.089	0.264
-218.596	34.606	-0.453	-0.392
-217.582	-28.036	-0.706	0.404
-216.567	800.000	0.215	0.643
-215.552	800.000	-0.005	0.020
-214.538	-37.982	0.672	-0.353
-213.523	395.940	0.477	-0.985
-212.509	-200.000	-0.030	0.724
-211.494	490.037	-0.449	1.016
-210.479	-113.098	0.509	-0.099
-209.465	-3.207	0.600	0.414
-208.450	52.678	-0.461	-0.436
-207.436	-200.000	0.108	0.599
-206.421	-30.057	0.158	-0.089
-205.406	-45.961	-0.403	-0.197
-204.392	-119.117	-0.686	-0.119
-203.377	607.211	0.057	-0.139
-202.363	355.584	-0.208	-0.409
-201.348	-200.000	-0.014	0.664
-200.333	188.767	-0.579	0.857
-199.319	-53.899	0.518	-0.234
-198.304	207.059	-0.283	0.436
-197.290	40.134	-0.263	0.234
-196.275	-200.000	-0.055	-0.540
-195.260	-53.600	-0.841	0.380
-194.246	-200.000	-0.134	0.687
-193.231	73.162	-0.161	-0.166
-192.217	-94.949	-0.715	-0.191
-191.202	87.737	-0.478	0.523
-190.187	113.309	0.241	-0.290
-189.173	-84.531	-0.548	0.171
-188.158	-105.348	1.206	-0.271
-187.144	85.754	-0.222	-0.241
-186.129	-134.934	-0.638	0.076
-185.114	83.388	0.194	-0.208
-184.100	-43.009	-0.311	0.156
-183.085	-16.645	-0.143	-0.090
-182.071	-91.263	-0.681	-0.193
-181.056	-200.000	-0.065	0.517
-180.042	-14.708	-0.160	-0.102
-179.027	482.976	0.096	-0.215
-178.012	746.046	0.075	0.200
-176.998	250.833	-0.121	0.203
-175.983	448.832	0.076	0.165
-174.969	22.189	-0.256	-0.207
-173.954	599.410	0.166	0.407
-172.939	-200.000	0.154	-0.880
-171.925	-78.101	-0.877	0.298
-170.910	800.000	0.270	0.913
-169.896	-34.055	-0.658	0.357
-168.881	-7.619	-0.165	-0.110
-167.866	-90.864	-0.324	0.092
-166.852	143.463	0.268	-0.353
-165.837	52.519	0.652	-0.615
-164.823	-200.000	-0.047	0.784
-163.808	-200.000	0.102	0.459
-162.793	9.102	0.565	0.421
-161.779	29.618	0.061	-0.051
-160.764	-7.599	-0.449	0.300
-159.750	67.493	-0.276	-0.278
-158.735	23.237	0.241	0.196
-157.720	-89.585	0.770	0.223
-156.706	-129.053	-0.577	0.080
-155.691	-49.654	0.171	0.080
-154.677	188.998	-0.305	0.452
-153.662	377.397	-0.268	0.541
-152.647	176.935	0.101	0.146
-151.633	18.396	-0.484	-0.382
-150.618	-1.224	0.482	0.336
-149.604	147.023	-0.567	0.753
-148.589	18.621	-0.521	0.411
-147.574	25.084	0.214	0.175
-146.560	-77.306	-0.303	0.104
-145.545	-88.773	-1.081	0.317
-144.531	74.185	0.539	0.558
-143.516	-23.734	0.544	-0.322
-142.502	612.406	0.329	0.813
-141.487	-200.000	-0.027	-0.967
-140.472	156.385	0.065	0.088
-139.458	800.000	0.148	0.618
-138.443	-57.748	-0.845	0.365
-137.429	63.211	-0.607	0.600
-136.414	800.000	0.281	0.782
-135.399	800.000	-0.064	-0.219
-134.385	5.186	0.631	-0.459
-133.370	-144.961	-0.297	-0.027
-132.356	314.130	-0.322	0.597
-131.341	-200.000	-0.004	-0.149
-130.326	17.073	0.545	-0.426
-129.312	272.342	-0.199	0.346
-128.297	557.104	0.333	-0.791
-127.283	-94.325	-0.566	-0.153
-126.268	-105.690	0.541	-0.121
-125.253	285.031	-0.127	0.225
-124.239	800.000	0.065	0.272
-123.224	359.715	-0.145	-0.286
-122.210	-143.731	0.626	0.058
-121.195	800.000	0.402	-1.420
-120.180	-38.456	0.289	-0.151
-119.166	-200.000	0.044	0.619
