DTS Sentinel unit serial number:	SN413079Multiplexer serial number:	ORYXHardware model number:	OX4-SRSoftware version number:	ORYX F/W v4.00 Oryx Data Collector v3.7.2.0data status	okinstallation	princeton_trtdifferential loss correction	single-endedforward channel	channel 3reverse channel	N/Adate	2019/09/16time	14:32:35forward acquisition time	60.00reverse acquisition time	0.00gamma	496.2192k internal	0.2293k external	0.2293temperature offset calibration	0.9942default loss term (dB/km)	0.3790temperature slope calibration	1.0000multiplexer offset coefficient	1.0000multiplexer slope coefficient	1.0000fibre end	0.00T internal ref (°C)	41.87T ext. ref 1 (°C)	14.26T ext. ref 2 (°C)	36.28length (m)	temperature (°C)	Stokes	anti-Stokes-747.200	-79.818	-0.208	0.071
-746.185	314.823	0.065	-0.126
-745.171	46.648	-0.048	-0.045
-744.156	361.673	0.139	-0.285
-743.142	-200.000	0.031	-0.180
-742.127	29.606	0.123	0.107
-741.112	-95.620	0.362	0.099
-740.098	280.060	-0.151	0.276
-739.083	73.237	-0.025	0.027
-738.069	-23.296	-0.127	0.078
-737.054	-200.000	-0.031	-0.340
-736.039	-154.687	-0.305	-0.021
-735.025	-173.844	0.098	-0.003
-734.010	49.078	-0.120	-0.115
-732.996	255.645	-0.147	-0.258
-731.981	51.568	0.038	0.037
-730.966	157.407	-0.107	-0.151
-729.952	-3.283	-0.188	0.134
-728.937	138.448	-0.108	-0.145
-727.923	-200.000	-0.029	-0.304
-726.908	800.000	-0.066	-0.236
-725.894	-200.000	0.029	-0.339
-724.879	-71.486	-0.144	0.055
-723.864	40.853	-0.072	-0.067
-722.850	-169.898	-0.425	-0.016
-721.835	-40.599	-0.157	-0.083
-720.821	-90.851	-0.427	0.126
-719.806	-200.000	0.001	0.135
-718.791	-1.329	-0.146	-0.106
-717.777	-168.339	-0.125	0.005
-716.762	707.951	-0.080	-0.215
-715.748	-112.927	0.519	0.105
-714.733	-81.795	-0.128	-0.043
-713.718	336.212	-0.120	-0.238
-712.704	-200.000	0.035	-0.221
-711.689	22.138	-0.157	-0.131
-710.675	-19.477	0.181	0.114
-709.660	46.531	0.035	0.033
-708.645	179.622	-0.177	-0.266
-707.631	354.179	0.212	-0.431
-706.616	800.000	-0.027	0.097
-705.602	20.278	-0.183	0.151
-704.587	-200.000	-0.016	-0.308
-703.572	-155.102	-0.321	-0.021
-702.558	-200.000	-0.077	-0.471
-701.543	762.711	-0.077	-0.213
-700.529	-62.057	0.192	-0.082
-699.514	800.000	0.110	0.391
-698.499	454.545	0.174	0.395
-697.485	322.578	0.029	-0.057
-696.470	152.076	0.124	0.172
-695.456	60.420	0.104	-0.105
-694.441	-33.172	0.225	0.128
-693.426	640.316	-0.107	0.278
-692.412	-14.237	0.098	-0.064
-691.397	-200.000	-0.004	0.145
-690.383	-46.704	-0.121	0.060
-689.368	-105.815	0.147	-0.034
-688.354	56.554	-0.108	0.107
-687.339	278.582	0.164	-0.299
-686.324	-200.000	0.017	-0.090
-685.310	205.848	-0.122	-0.194
-684.295	800.000	0.037	0.138
-683.281	-200.000	0.001	0.010
-682.266	32.977	-0.131	-0.115
-681.251	800.000	-0.092	0.301
-680.237	-36.884	-0.134	0.074
-679.222	19.561	-0.107	0.088
-678.208	460.985	-0.158	-0.360
-677.193	800.000	-0.096	-0.363
-676.178	-20.665	-0.113	-0.071
-675.164	-200.000	0.047	0.327
-674.149	2.526	0.328	0.243
-673.135	103.016	-0.114	0.137
-672.120	-141.510	-0.081	-0.008
-671.105	377.948	-0.087	0.182
-670.091	-43.687	0.089	-0.046
-669.076	-200.000	-0.037	-0.210
-668.062	247.594	-0.065	0.112
-667.047	-200.000	-0.014	0.187
-666.032	-200.000	0.066	0.342
-665.018	-142.046	0.471	0.048
-664.003	-103.786	0.170	-0.040
-662.989	-152.680	-0.237	0.017
-661.974	-200.000	0.012	-0.372
-660.959	159.468	0.049	-0.069
-659.945	-200.000	0.014	-0.074
-658.930	-16.540	-0.103	-0.067
-657.916	-200.000	0.013	0.231
-656.901	800.000	0.133	-0.426
-655.886	-158.219	-0.316	-0.019
-654.872	148.109	0.140	-0.193
-653.857	-89.830	0.174	0.052
-652.843	376.632	0.043	0.090
-651.828	-24.890	-0.373	-0.226
-650.814	257.050	-0.066	-0.116
-649.799	298.937	0.035	-0.065
-648.784	-200.000	0.003	-0.117
-647.770	-37.596	0.380	0.207
-646.755	-18.787	0.273	0.173
-645.741	800.000	0.126	0.357
-644.726	-23.762	0.163	0.100
-643.711	121.493	-0.171	-0.217
-642.697	800.000	-0.042	-0.159
-641.682	-95.135	-0.369	0.101
-640.668	9.429	0.096	0.074
-639.653	539.024	0.053	-0.128
-638.638	105.069	-0.067	-0.080
-637.624	-39.564	0.325	0.174
-636.609	84.438	0.221	0.247
-635.595	117.341	-0.037	-0.046
-634.580	-200.000	-0.020	0.262
-633.565	296.657	-0.134	-0.251
-632.551	600.556	-0.094	-0.238
-631.536	-200.000	-0.008	-0.097
-630.522	21.329	0.211	-0.175
-629.507	8.461	0.136	0.104
-628.492	554.716	0.033	0.081
-627.478	-65.859	0.098	-0.040
-626.463	136.488	-0.091	-0.121
-625.449	-78.394	0.100	-0.035
-624.434	67.798	-0.132	0.137
-623.419	-53.332	-0.284	-0.132
-622.405	546.378	-0.117	0.284
-621.390	85.681	-0.050	-0.056
-620.376	-200.000	0.021	-0.167
-619.361	476.876	-0.048	-0.111
-618.346	659.208	-0.074	0.194
-617.332	-28.685	0.198	0.116
-616.317	-78.371	-0.190	0.066
-615.303	608.215	-0.107	0.271
-614.288	800.000	-0.029	-0.114
-613.273	800.000	-0.053	0.188
-612.259	-200.000	-0.090	-0.000
-611.244	624.163	0.141	0.363
-610.230	-200.000	-0.036	-0.164
-609.215	616.233	0.131	0.334
-608.201	424.351	-0.065	-0.141
-607.186	-200.000	-0.011	-0.297
-606.171	387.504	-0.052	-0.109
-605.157	-77.875	0.114	0.040
-604.142	313.260	0.052	-0.100
-603.128	198.516	-0.190	-0.296
-602.113	-142.623	-0.317	-0.032
-601.098	153.370	0.115	0.160
-600.084	800.000	-0.040	-0.150
-599.069	-135.136	0.098	-0.012
-598.055	-93.458	-0.218	-0.062
-597.040	-113.607	0.185	0.037
-596.025	800.000	0.146	-0.450
-595.011	800.000	-0.086	-0.280
-593.996	-152.077	-0.196	-0.015
-592.982	-86.072	0.090	-0.028
-591.967	-28.940	0.222	-0.129
-590.952	147.785	-0.066	-0.090
-589.938	118.024	-0.071	0.089
-588.923	-55.227	0.114	0.052
-587.909	-28.245	-0.146	-0.086
-586.894	-41.753	0.116	0.060
-585.879	800.000	-0.055	-0.184
-584.865	157.036	-0.092	0.129
-583.850	-200.000	0.016	-0.077
-582.836	555.623	-0.140	-0.342
-581.821	800.000	0.142	0.405
-580.806	-89.472	0.127	0.038
-579.792	-61.153	-0.203	-0.087
-578.777	-200.000	0.061	0.386
-577.763	155.382	0.024	-0.033
-576.748	-43.127	0.134	-0.069
-575.733	-54.186	-0.071	0.033
-574.719	-38.190	0.197	0.106
-573.704	163.812	-0.115	0.164
-572.690	7.946	-0.237	0.180
-571.675	-200.000	-0.044	-0.258
-570.661	-128.504	-0.115	-0.017
-569.646	651.954	-0.120	-0.312
-568.631	7.126	0.113	0.085
-567.617	-147.012	0.346	0.030
-566.602	-200.000	-0.004	-0.227
-565.588	-74.969	-0.162	-0.059
-564.573	-118.311	-0.241	0.044
-563.558	-200.000	-0.033	0.152
-562.544	-200.000	0.031	0.189
-561.529	214.128	0.104	0.167
-560.515	365.452	-0.157	-0.320
-559.500	-200.000	0.015	-0.147
-558.485	255.108	-0.133	0.231
-557.471	-65.145	0.175	0.071
-556.456	250.026	-0.078	0.134
-555.442	-187.576	0.189	0.003
-554.427	-76.313	0.252	0.090
-553.412	23.787	0.288	-0.241
-552.398	116.673	0.201	0.250
-551.383	517.807	-0.086	0.203
-550.369	105.443	-0.033	-0.039
-549.354	89.725	0.139	-0.157
-548.339	117.315	0.076	0.095
-547.325	45.516	-0.038	-0.035
-546.310	-110.018	-0.203	-0.043
-545.296	-200.000	0.031	-0.278
-544.281	-57.675	-0.323	0.144
-543.266	-120.354	-0.332	-0.057
-542.252	-22.788	0.149	0.091
-541.237	-57.474	-0.295	0.131
-540.223	-63.806	-0.240	0.100
-539.208	-200.000	-0.017	0.103
-538.193	-71.467	-0.236	-0.090
-537.179	800.000	0.070	0.235
-536.164	457.870	-0.044	-0.099
-535.150	-112.200	0.175	-0.036
-534.135	800.000	0.098	0.296
-533.121	-181.504	-0.508	-0.010
-532.106	29.339	0.059	0.051
-531.091	271.624	-0.104	0.187
-530.077	27.925	0.273	-0.233
-529.062	-117.042	0.128	0.024
-528.048	-200.000	-0.034	0.172
-527.033	4.028	-0.206	-0.153
-526.018	-19.555	-0.267	0.168
-525.004	404.419	0.127	-0.272
-523.989	800.000	-0.033	0.094
-522.975	279.837	0.006	0.011
-521.960	196.117	0.158	-0.245
-520.945	-127.317	-0.122	-0.018
-519.931	39.232	0.090	-0.081
-518.916	-72.267	-0.205	-0.077
-517.902	-161.275	-0.301	-0.016
-516.887	175.320	-0.167	0.245
-515.872	64.416	0.118	0.120
-514.858	23.374	-0.097	-0.081
-513.843	134.556	0.228	0.299
-512.829	128.286	-0.085	-0.109
-511.814	-200.000	0.004	-0.021
-510.799	184.502	0.138	-0.208
-509.785	300.080	0.062	-0.116
-508.770	-173.749	-0.166	-0.005
-507.756	-144.331	0.250	0.024
-506.741	-200.000	0.000	-0.235
-505.726	-79.190	-0.192	0.066
-504.712	298.706	0.053	-0.100
-503.697	153.230	-0.030	0.042
-502.683	360.625	-0.072	-0.146
-501.668	-175.436	0.129	0.004
-500.653	5.360	-0.083	0.062
-499.639	-2.566	-0.231	0.164
-498.624	152.885	-0.161	0.224
-497.610	800.000	-0.023	0.067
-496.595	54.435	-0.152	0.148
-495.581	800.000	-0.028	0.115
-494.566	159.399	0.130	0.183
-493.551	237.716	-0.281	0.472
-492.537	451.736	0.061	0.137
-491.522	-200.000	0.016	0.160
-490.508	-119.216	-0.170	0.030
-489.493	100.455	0.193	0.227
-488.478	334.236	-0.163	0.319
-487.464	-59.264	0.110	0.048
-486.449	-12.773	0.059	-0.039
-485.435	800.000	-0.062	-0.244
-484.420	-200.000	0.039	-0.209
-483.405	-200.000	-0.016	-0.296
-482.391	796.937	-0.025	-0.070
-481.376	-146.070	0.018	-0.002
-480.362	800.000	-0.026	0.093
-479.347	800.000	-0.042	-0.125
-478.332	800.000	0.082	-0.251
-477.318	305.454	-0.168	-0.316
-476.303	-200.000	-0.004	0.130
-475.289	-200.000	0.001	-0.177
-474.274	-119.678	0.213	-0.037
-473.259	330.739	0.035	0.069
-472.245	-71.329	0.289	-0.110
-471.230	285.761	0.261	-0.477
-470.216	-200.000	-0.011	-0.273
-469.201	-196.276	0.234	0.002
-468.186	440.913	0.039	0.087
-467.172	-88.182	0.310	-0.094
-466.157	-158.371	-0.419	0.025
-465.143	72.403	0.203	-0.214
-464.128	-23.265	0.234	-0.143
-463.113	500.538	-0.092	-0.214
-462.099	74.100	0.173	-0.184
-461.084	6.005	0.117	0.088
-460.070	-17.687	0.290	0.185
-459.055	-155.420	0.091	0.006
-458.040	3.762	0.073	-0.054
-457.026	-200.000	-0.007	-0.242
-456.011	800.000	-0.025	-0.098
-454.997	145.710	0.227	0.308
-453.982	800.000	0.085	0.373
-452.968	-188.816	-0.228	0.003
-451.953	38.554	-0.247	0.223
-450.938	51.578	0.077	-0.074
-449.924	426.366	-0.042	0.091
-448.909	-200.000	-0.009	-0.235
-447.895	130.333	-0.099	-0.129
-446.880	90.165	-0.086	-0.097
-445.865	346.291	-0.126	-0.251
-444.851	-26.329	-0.113	0.067
-443.836	134.012	0.106	-0.138
-442.822	-124.792	0.180	-0.028
-441.807	-145.863	-0.252	-0.023
-440.792	-14.683	-0.390	-0.253
-439.778	-35.234	0.417	-0.229
-438.763	-19.855	-0.280	0.175
-437.749	72.683	0.061	-0.064
-436.734	79.565	0.079	0.086
-435.719	-41.724	0.271	0.140
-434.705	-10.727	0.086	-0.057
-433.690	53.854	0.031	0.030
-432.676	221.514	0.095	0.154
-431.661	-100.399	0.030	0.007
-430.646	-91.373	-0.263	0.076
-429.632	66.340	0.153	-0.158
-428.617	107.631	0.128	0.154
-427.603	-200.000	0.003	0.442
-426.588	-8.768	0.207	0.141
-425.573	184.353	0.281	-0.420
-424.559	-140.001	0.430	0.046
-423.544	-171.495	0.288	0.010
-422.530	91.413	-0.140	-0.158
-421.515	744.758	-0.128	-0.349
-420.500	244.896	-0.125	-0.213
-419.486	659.148	-0.075	0.195
-418.471	-200.000	-0.019	-0.122
-417.457	559.725	-0.079	-0.193
-416.442	-200.000	-0.015	0.225
-415.428	58.277	-0.301	-0.298
-414.413	126.011	-0.231	-0.295
-413.398	-200.000	0.007	0.115
-412.384	296.682	-0.026	-0.049
-411.369	228.372	0.078	-0.128
-410.355	-200.000	0.047	-0.280
-409.340	800.000	-0.012	0.036
-408.325	-65.549	0.422	0.171
-407.311	261.062	0.112	-0.196
-406.296	375.521	-0.070	-0.145
-405.282	800.000	-0.098	0.375
-404.267	-200.000	-0.049	-0.290
-403.252	42.514	0.202	0.186
-402.238	-139.348	-0.350	-0.038
-401.223	58.858	0.219	-0.217
-400.209	800.000	-0.044	0.195
-399.194	-200.000	0.024	0.140
-398.179	-105.475	-0.249	0.057
-397.165	322.936	-0.042	-0.081
-396.150	94.209	-0.180	0.207
-395.136	104.783	0.121	-0.144
-394.121	112.528	0.074	0.091
-393.106	25.319	0.229	-0.192
-392.092	800.000	0.078	0.221
-391.077	77.284	0.154	0.165
-390.063	-88.739	-0.136	-0.041
-389.048	418.996	0.174	-0.376
-388.033	-200.000	-0.018	-0.132
-387.019	-0.384	-0.204	-0.146
-386.004	-95.495	0.045	-0.012
-384.990	-200.000	-0.007	-0.092
-383.975	-138.269	0.106	0.012
-382.960	165.727	-0.197	-0.281
-381.946	800.000	-0.117	-0.396
-380.931	-120.891	0.312	-0.053
-379.917	-102.508	0.250	-0.060
-378.902	800.000	-0.008	-0.025
-377.888	-154.255	-0.251	-0.017
-376.873	800.000	-0.062	-0.207
-375.858	-200.000	-0.047	-0.248
-374.844	800.000	0.045	0.168
-373.829	72.821	0.093	-0.098
-372.815	-140.957	0.570	-0.059
-371.800	-94.079	-0.183	-0.051
-370.785	333.346	-0.088	0.172
-369.771	-43.691	0.200	-0.102
-368.756	32.280	-0.368	0.320
-367.742	-14.332	0.294	0.191
-366.727	-28.567	0.102	0.059
-365.712	59.524	0.094	0.094
-364.698	-85.093	0.281	-0.089
-363.683	-110.306	-0.155	-0.032
-362.669	237.194	0.180	0.300
-361.654	-6.475	0.142	-0.097
-360.639	-200.000	-0.020	-0.172
-359.625	94.163	-0.139	-0.159
-358.610	-43.295	-0.143	-0.073
-357.596	-92.257	0.168	-0.048
-356.581	-200.000	0.023	-0.307
-355.566	12.501	0.148	-0.115
-354.552	156.265	0.142	0.198
-353.537	-139.074	-0.277	0.030
-352.523	-158.531	0.094	-0.005
-351.508	23.309	-0.015	0.012
-350.493	800.000	0.019	0.057
-349.479	-79.397	-0.223	-0.076
-348.464	-187.174	-0.088	0.001
-347.450	269.357	-0.106	0.188
-346.435	61.369	0.331	0.331
-345.420	-200.000	-0.065	-0.365
-344.406	-91.102	-0.125	0.036
-343.391	59.578	-0.155	-0.154
-342.377	79.259	-0.191	0.206
-341.362	-72.905	-0.223	-0.083
-340.348	367.426	-0.065	0.132
-339.333	-161.512	-0.263	-0.014
-338.318	12.106	0.188	-0.146
-337.304	-156.589	0.434	0.027
-336.289	26.965	-0.180	-0.152
-335.275	25.892	0.063	-0.053
-334.260	-11.398	0.086	-0.057
-333.245	800.000	0.083	0.280
-332.231	516.175	0.087	-0.204
-331.216	-79.193	-0.253	0.086
-330.202	1.337	-0.198	-0.143
-329.187	253.260	-0.111	-0.190
-328.172	-200.000	0.006	0.259
-327.158	-9.035	-0.243	0.164
-326.143	289.493	0.052	-0.094
-325.129	198.003	-0.062	0.095
-324.114	800.000	0.064	-0.266
-323.099	-63.952	-0.229	0.094
-322.085	-94.749	0.077	-0.021
-321.070	-111.873	0.236	0.048
-320.056	91.884	-0.074	-0.084
-319.041	94.261	0.055	-0.063
-318.026	411.397	-0.199	0.425
-317.012	-11.005	-0.229	0.152
-315.997	120.648	0.147	0.184
-314.983	-9.641	0.232	0.156
-313.968	36.664	-0.123	-0.110
-312.953	629.647	-0.072	-0.183
-311.939	-60.455	-0.234	-0.100
-310.924	451.171	-0.079	0.175
-309.910	-54.217	-0.004	-0.002
-308.895	800.000	0.042	-0.132
-307.880	-139.828	0.345	0.037
-306.866	-30.352	-0.117	0.067
-305.851	-200.000	0.003	0.025
-304.837	-9.683	0.031	-0.020
-303.822	-152.269	0.198	0.014
-302.807	79.688	0.067	-0.072
-301.793	-90.072	0.169	-0.049
-300.778	-29.822	-0.320	-0.183
-299.764	112.135	-0.069	0.084
-298.749	800.000	-0.026	-0.106
-297.735	-200.000	-0.017	0.191
-296.720	-200.000	0.051	-0.317
-295.705	1.259	-0.241	0.174
-294.691	-90.285	-0.214	-0.063
-293.676	800.000	0.028	0.077
-292.662	175.430	0.182	-0.266
-291.647	38.445	-0.407	0.364
-290.632	-200.000	0.005	0.031
-289.618	-64.006	-0.438	0.180
-288.603	-38.919	-0.126	-0.067
-287.589	-69.193	-0.260	-0.100
-286.574	-153.866	0.011	0.001
-285.559	-200.000	-0.006	0.077
-284.545	334.215	-0.060	0.116
-283.530	-83.278	-0.237	-0.076
-282.516	787.542	0.063	0.173
-281.501	-136.801	0.451	-0.052
-280.486	800.000	-0.019	0.073
-279.472	356.837	0.076	-0.153
-278.457	-100.276	0.204	0.051
-277.443	-39.570	-0.284	0.149
-276.428	94.301	-0.170	-0.194
-275.413	-33.908	-0.241	0.133
-274.399	-200.000	-0.026	-0.213
-273.384	292.453	0.221	0.405
-272.370	136.302	-0.091	-0.119
-271.355	-200.000	-0.016	0.083
-270.340	89.710	0.148	-0.166
-269.326	-55.879	-0.177	-0.079
-268.311	-113.444	0.149	-0.029
-267.297	-200.000	-0.007	0.196
-266.282	-114.536	-0.242	0.047
-265.267	-29.429	-0.109	-0.062
-264.253	-98.774	-0.106	0.027
-263.238	-140.335	0.204	0.021
-262.224	590.292	0.042	-0.105
-261.209	-40.114	-0.119	-0.062
-260.195	-33.271	0.286	0.159
-259.180	103.539	0.058	0.069
-258.165	112.791	-0.033	0.040
-257.151	237.943	0.048	-0.080
-256.136	53.491	-0.131	0.126
-255.122	494.348	0.071	0.164
-254.107	145.908	0.121	0.163
-253.092	-161.447	0.252	-0.013
-252.078	-200.000	0.077	0.534
-251.063	-169.383	-0.144	-0.005
-250.049	255.151	0.309	0.532
-249.034	-26.928	0.201	0.118
-248.019	-107.293	0.232	0.051
-247.005	721.337	0.061	0.164
-245.990	442.626	-0.010	0.021
-244.976	453.087	-0.061	0.136
-243.961	93.278	-0.052	-0.059
-242.946	800.000	0.057	-0.158
-241.932	-98.536	-0.187	0.048
-240.917	-69.734	0.135	0.052
-239.903	-129.455	-0.074	-0.010
-238.888	-25.135	0.271	-0.161
-237.873	170.499	0.123	-0.176
-236.859	-79.702	-0.146	-0.049
-235.844	28.955	-0.097	-0.083
-234.830	800.000	-0.065	-0.218
-233.815	-200.000	-0.001	-0.196
-232.800	83.630	0.209	0.229
-231.786	800.000	0.038	-0.115
-230.771	-119.627	-0.261	0.045
-229.757	-66.666	0.118	0.047
-228.742	-163.681	0.104	0.005
-227.727	151.035	0.173	-0.236
-226.713	-200.000	-0.018	-0.150
-225.698	-36.723	-0.225	0.121
-224.684	800.000	0.070	-0.239
-223.669	-111.166	0.248	-0.051
-222.655	194.155	0.065	0.098
-221.640	-200.000	-0.021	0.219
-220.625	-200.000	0.010	0.050
-219.611	-157.708	0.507	-0.030
-218.596	602.018	-0.019	0.046
-217.582	-200.000	0.013	-0.325
-216.567	800.000	0.041	0.142
-215.552	180.652	-0.150	0.220
-214.538	88.069	-0.192	-0.213
-213.523	800.000	-0.093	-0.337
-212.509	-200.000	0.004	-0.292
-211.494	42.053	0.198	-0.180
-210.479	35.634	-0.082	-0.072
-209.465	281.120	-0.060	-0.108
-208.450	53.056	0.224	0.215
-207.436	218.563	0.144	-0.230
-206.421	297.561	-0.196	0.360
-205.406	137.476	-0.185	0.243
-204.392	-114.223	-0.239	-0.046
-203.377	55.544	-0.084	0.081
-202.363	268.679	-0.051	0.089
-201.348	-200.000	0.007	0.290
-200.333	116.720	0.223	0.274
-199.319	75.210	0.419	0.442
-198.304	800.000	0.034	0.098
-197.290	-156.969	-0.327	0.020
-196.275	237.995	-0.053	-0.089
-195.260	-200.000	-0.061	-0.293
-194.246	65.887	0.106	0.108
-193.231	-133.690	0.215	-0.027
-192.217	135.881	-0.249	-0.324
-191.202	-114.211	-0.133	-0.026
-190.187	-38.799	-0.153	0.081
-189.173	-162.730	0.260	-0.013
-188.158	-63.493	-0.180	-0.074
-187.144	-200.000	0.013	0.120
-186.129	-66.289	-0.083	0.033
-185.114	-200.000	-0.056	0.338
-184.100	51.373	0.288	0.274
-183.085	-200.000	0.000	-0.217
-182.071	-170.594	0.063	-0.002
-181.056	110.887	0.140	-0.169
-180.042	800.000	0.144	0.465
-179.027	180.619	-0.144	0.211
-178.012	35.340	0.129	-0.113
-176.998	-49.926	0.132	-0.063
-175.983	-101.911	0.166	-0.040
-174.969	-166.314	-0.341	0.014
-173.954	603.827	-0.087	0.216
-172.939	-72.923	-0.087	-0.032
-171.925	383.721	0.136	0.281
-170.910	98.369	0.175	0.201
-169.896	-45.452	-0.114	0.056
-168.881	-49.599	-0.109	0.052
-167.866	396.006	-0.028	-0.058
-166.852	22.579	-0.147	-0.120
-165.837	72.784	-0.071	-0.074
-164.823	-68.675	0.199	-0.077
-163.808	-200.000	-0.094	-0.427
-162.793	-53.476	-0.091	0.042
-161.779	800.000	-0.049	0.212
-160.764	-77.221	-0.130	0.045
-159.750	122.011	0.079	-0.099
-158.735	-86.859	-0.152	-0.046
-157.720	-200.000	0.024	0.250
-156.706	96.264	-0.145	0.165
-155.691	-26.857	-0.130	0.076
-154.677	-168.556	-0.245	0.009
-153.662	-200.000	-0.006	0.178
-152.647	-196.385	0.435	0.003
-151.633	-200.000	0.002	-0.114
-150.618	-5.607	0.185	-0.127
-149.604	-100.566	-0.063	0.016
-148.589	-200.000	-0.023	0.273
-147.574	-153.991	-0.105	0.007
-146.560	77.068	-0.137	-0.145
-145.545	12.147	0.210	-0.162
-144.531	800.000	-0.044	0.141
-143.516	800.000	0.072	-0.308
-142.502	-83.952	0.233	0.074
-141.487	-37.692	-0.044	-0.023
-140.472	30.541	0.174	0.149
-139.458	-83.113	-0.089	0.029
-138.443	153.117	-0.109	0.149
-137.429	-200.000	-0.012	-0.075
-136.414	-127.546	0.051	-0.007
-135.399	48.989	0.378	0.355
-134.385	-11.459	0.004	0.003
-133.370	-129.159	-0.079	0.011
-132.356	-125.137	0.163	0.025
-131.341	62.678	0.049	-0.049
-130.326	286.856	-0.158	-0.284
-129.312	-179.091	0.266	0.006
-128.297	800.000	0.103	0.344
-127.283	-200.000	0.030	0.436
-126.268	-200.000	-0.004	0.105
-125.253	380.537	-0.098	0.200
-124.239	-122.672	0.140	0.023
-123.224	-200.000	0.016	-0.239
-122.210	144.884	-0.149	0.199
