DTS Sentinel unit serial number:	SN413079Multiplexer serial number:	ORYXHardware model number:	OX4-SRSoftware version number:	ORYX F/W v4.00 Oryx Data Collector v3.7.2.0data status	okinstallation	princeton_trtdifferential loss correction	single-endedforward channel	channel 3reverse channel	N/Adate	2019/09/13time	01:32:35forward acquisition time	60.00reverse acquisition time	0.00gamma	496.2192k internal	0.2333k external	0.2333temperature offset calibration	1.0122default loss term (dB/km)	0.3790temperature slope calibration	1.0000multiplexer offset coefficient	1.0000multiplexer slope coefficient	1.0000fibre end	0.00T internal ref (°C)	27.80T ext. ref 1 (°C)	3.75T ext. ref 2 (°C)	22.46length (m)	temperature (°C)	Stokes	anti-Stokes-747.200	-97.341	0.213	-0.056
-746.185	-80.892	0.118	-0.039
-745.171	31.790	-0.134	0.116
-744.156	-132.478	-0.195	0.025
-743.142	302.946	0.078	-0.146
-742.127	-15.522	-0.277	0.178
-741.112	-37.018	0.307	-0.165
-740.098	739.768	-0.105	-0.282
-739.083	800.000	0.054	-0.191
-738.069	115.765	-0.125	0.154
-737.054	12.013	0.346	-0.267
-736.039	-121.637	-0.193	0.032
-735.025	3.842	-0.103	-0.076
-734.010	-157.867	-0.532	-0.032
-732.996	-94.476	-0.438	-0.120
-731.981	800.000	-0.011	-0.038
-730.966	-13.904	-0.111	-0.072
-729.952	93.529	-0.119	-0.136
-728.937	-200.000	-0.197	-0.000
-727.923	10.340	-0.370	-0.283
-726.908	-36.696	0.163	-0.088
-725.894	42.794	-0.072	0.066
-724.879	5.969	0.116	0.086
-723.864	-159.669	-0.078	-0.004
-722.850	-6.954	-0.202	-0.138
-721.835	-200.000	0.003	0.156
-720.821	-111.503	0.233	0.048
-719.806	-200.000	0.028	0.333
-718.791	722.437	0.006	-0.015
-717.777	800.000	0.042	0.148
-716.762	-148.490	-0.204	0.017
-715.748	-76.716	-0.207	0.073
-714.733	-7.793	-0.417	0.283
-713.718	-123.411	-0.404	0.065
-712.704	389.898	0.143	0.298
-711.689	262.623	0.023	-0.040
-710.675	-159.125	0.149	-0.008
-709.660	-33.827	0.174	-0.096
-708.645	-128.659	-0.339	0.048
-707.631	-200.000	0.045	0.434
-706.616	-110.899	0.212	0.044
-705.602	-48.557	0.202	-0.098
-704.587	22.660	0.136	-0.112
-703.572	-200.000	0.016	-0.081
-702.558	800.000	0.032	-0.096
-701.543	613.738	0.032	0.079
-700.529	257.937	-0.114	-0.197
-699.514	128.573	0.167	-0.214
-698.499	490.970	0.169	0.388
-697.485	152.871	-0.048	-0.065
-696.470	378.914	0.041	-0.084
-695.456	-9.104	0.142	0.095
-694.441	-92.565	-0.264	0.074
-693.426	195.526	0.188	-0.286
-692.412	-55.143	-0.316	-0.143
-691.397	42.947	-0.103	-0.095
-690.383	82.245	-0.250	-0.272
-689.368	128.061	-0.031	-0.039
-688.354	-11.248	-0.249	-0.165
-687.339	30.122	-0.084	-0.072
-686.324	31.115	-0.058	0.050
-685.310	583.692	-0.047	-0.117
-684.295	-200.000	0.016	0.078
-683.281	-79.741	-0.029	0.010
-682.266	-200.000	0.008	-0.201
-681.251	732.831	-0.168	-0.451
-680.237	-200.000	-0.046	-0.289
-679.222	245.102	-0.184	-0.311
-678.208	-83.225	-0.055	-0.018
-677.193	-114.724	0.278	-0.053
-676.178	-58.048	-0.475	0.208
-675.164	-91.001	-0.193	-0.056
-674.149	-43.788	-0.101	-0.051
-673.135	-180.085	0.393	-0.008
-672.120	800.000	-0.132	0.367
-671.105	269.206	-0.034	0.059
-670.091	-116.995	0.154	0.028
-669.076	-200.000	-0.037	0.162
-668.062	-200.000	-0.018	0.131
-667.047	75.770	0.146	0.155
-666.032	209.867	-0.053	0.083
-665.018	-177.628	0.306	-0.007
-664.003	-45.061	0.187	-0.093
-662.989	800.000	0.019	-0.058
-661.974	-25.000	-0.253	-0.150
-660.959	17.007	-0.081	-0.064
-659.945	356.424	-0.079	0.159
-658.930	800.000	-0.063	-0.250
-657.916	-121.664	-0.323	0.054
-656.901	-200.000	0.030	-0.281
-655.886	62.576	0.287	-0.288
-654.872	-200.000	0.031	-0.481
-653.857	800.000	0.099	-0.319
-652.843	-200.000	0.029	-0.151
-651.828	-200.000	-0.018	0.293
-650.814	19.587	-0.127	-0.102
-649.799	-29.500	-0.377	-0.216
-648.784	72.038	0.276	-0.288
-647.770	-191.786	-0.211	-0.002
-646.755	-8.891	0.139	0.093
-645.741	87.775	0.080	0.089
-644.726	-115.863	-0.122	0.023
-643.711	-152.139	0.078	-0.006
-642.697	49.026	0.324	-0.305
-641.682	176.487	-0.024	-0.034
-640.668	714.434	-0.083	-0.221
-639.653	-144.211	-0.276	-0.026
-638.638	12.613	0.117	0.091
-637.624	193.348	-0.040	-0.061
-636.609	-200.000	-0.054	0.320
-635.595	-137.946	-0.398	0.044
-634.580	93.913	0.277	0.315
-633.565	142.553	0.167	-0.222
-632.551	-200.000	-0.075	0.337
-631.536	-200.000	-0.087	-0.410
-630.522	204.524	0.036	-0.056
-629.507	-77.933	-0.131	0.045
-628.492	-92.886	-0.066	0.018
-627.478	-37.308	-0.093	-0.050
-626.463	-200.000	0.038	0.233
-625.449	-162.372	-0.337	-0.017
-624.434	-26.457	-0.472	-0.277
-623.419	467.878	-0.068	0.153
-622.405	23.024	-0.033	0.027
-621.390	194.508	-0.055	-0.083
-620.376	191.046	0.147	-0.221
-619.361	-54.314	0.057	0.026
-618.346	800.000	0.078	0.308
-617.332	-107.123	0.061	-0.014
-616.317	800.000	0.135	-0.374
-615.303	-73.710	0.123	0.045
-614.288	-83.831	0.072	0.023
-613.273	800.000	0.022	0.074
-612.259	119.643	0.043	-0.054
-611.244	56.150	0.095	-0.092
-610.230	800.000	-0.070	-0.232
-609.215	-11.658	0.158	-0.104
-608.201	-89.781	0.293	0.086
-607.186	800.000	-0.085	0.323
-606.171	-30.618	0.150	0.085
-605.157	344.733	-0.063	0.124
-604.142	800.000	-0.012	0.050
-603.128	88.376	-0.071	-0.078
-602.113	-58.423	-0.171	0.074
-601.098	-9.657	-0.099	-0.066
-600.084	348.458	0.102	-0.201
-599.069	55.037	-0.248	-0.240
-598.055	-200.000	0.062	0.278
-597.040	-44.840	-0.390	0.194
-596.025	800.000	0.066	-0.188
-595.011	24.172	0.136	0.112
-593.996	291.393	0.029	-0.053
-592.982	-38.828	-0.092	0.049
-591.967	45.610	-0.121	-0.111
-590.952	-200.000	-0.025	-0.215
-589.938	49.764	0.072	-0.068
-588.923	67.564	0.205	0.210
-587.909	-149.507	-0.137	-0.011
-586.894	-63.139	-0.069	-0.028
-585.879	800.000	-0.062	0.179
-584.865	-200.000	-0.004	-0.042
-583.850	343.089	0.141	0.275
-582.836	45.933	0.115	0.106
-581.821	-98.980	-0.133	0.034
-580.806	354.440	-0.169	-0.336
-579.792	800.000	0.044	-0.174
-578.777	-200.000	-0.061	0.522
-577.763	-62.740	0.184	-0.076
-576.748	800.000	-0.062	-0.220
-575.733	-116.332	0.371	-0.069
-574.719	236.798	-0.159	0.264
-573.704	-47.206	0.206	-0.100
-572.690	-40.616	0.192	0.099
-571.675	-55.048	-0.151	0.068
-570.661	-200.000	0.016	-0.178
-569.646	20.201	-0.175	-0.141
-568.631	-64.111	-0.155	0.063
-567.617	25.492	-0.103	-0.085
-566.602	800.000	0.072	-0.223
-565.588	327.932	-0.031	0.059
-564.573	-200.000	0.002	-0.013
-563.558	-92.308	0.433	0.122
-562.544	-71.281	0.131	-0.049
-561.529	46.441	0.322	-0.298
-560.515	800.000	0.063	0.182
-559.500	-45.309	-0.310	0.153
-558.485	-200.000	-0.017	-0.209
-557.471	-112.026	0.182	0.037
-556.456	42.352	0.073	0.066
-555.442	-87.882	-0.080	0.024
-554.427	-80.258	-0.172	-0.058
-553.412	339.598	0.046	0.090
-552.398	697.172	0.107	-0.281
-551.383	44.927	-0.202	0.186
-550.369	448.841	0.069	-0.151
-549.354	-85.454	0.246	0.077
-548.339	11.633	-0.172	0.131
-547.325	-200.000	-0.000	0.223
-546.310	-122.972	-0.102	-0.016
-545.296	-62.307	-0.277	-0.115
-544.281	-141.703	-0.121	0.012
-543.266	29.405	0.119	0.101
-542.252	-139.031	-0.070	0.008
-541.237	800.000	0.051	-0.162
-540.223	11.689	-0.081	-0.062
-539.208	191.775	0.084	-0.126
-538.193	-162.170	-0.466	-0.023
-537.179	-200.000	-0.040	-0.226
-536.164	800.000	0.121	-0.366
-535.150	128.116	0.121	-0.154
-534.135	15.551	-0.281	0.220
-533.121	-49.640	0.264	0.125
-532.106	559.243	-0.082	0.198
-531.091	-200.000	-0.009	-0.143
-530.077	-126.861	0.099	0.015
-529.062	-200.000	-0.025	0.202
-528.048	163.412	-0.106	-0.148
-527.033	-200.000	-0.003	-0.283
-526.018	800.000	-0.088	-0.306
-525.004	25.482	0.107	-0.089
-523.989	800.000	-0.085	0.299
-522.975	-200.000	0.003	0.175
-521.960	765.508	-0.039	0.107
-520.945	284.385	-0.127	0.228
-519.931	800.000	-0.049	0.186
-518.916	-89.398	-0.190	0.056
-517.902	-31.432	0.116	-0.065
-516.887	448.502	0.033	0.072
-515.872	101.113	0.313	-0.363
-514.858	-103.956	0.371	-0.086
-513.843	-0.736	-0.293	-0.207
-512.829	-41.126	-0.129	0.066
-511.814	800.000	-0.081	-0.323
-510.799	-100.256	0.373	0.092
-509.785	96.708	-0.214	0.244
-508.770	-51.956	-0.227	-0.105
-507.756	-200.000	0.010	0.073
-506.741	492.057	0.096	-0.219
-505.726	-65.652	-0.468	-0.187
-504.712	-38.750	-0.294	-0.155
-503.697	800.000	0.089	0.330
-502.683	351.197	-0.154	-0.303
-501.668	-106.869	-0.266	-0.059
-500.653	-8.306	0.044	-0.029
-499.639	179.114	0.219	0.320
-498.624	142.825	-0.150	-0.198
-497.610	-105.780	-0.229	0.052
-496.595	21.176	-0.264	-0.213
-495.581	-200.000	-0.008	-0.100
-494.566	122.023	-0.129	-0.160
-493.551	-63.177	-0.139	-0.057
-492.537	-176.525	0.143	0.004
-491.522	-200.000	-0.037	-0.484
-490.508	800.000	0.087	-0.366
-489.493	-39.074	0.149	0.078
-488.478	-64.592	-0.083	-0.033
-487.464	538.599	0.079	-0.188
-486.449	800.000	-0.049	0.213
-485.435	-200.000	0.016	0.200
-484.420	800.000	0.030	0.094
-483.405	-18.586	0.067	0.042
-482.391	-13.592	-0.227	-0.146
-481.376	-77.373	0.189	0.065
-480.362	800.000	0.103	0.391
-479.347	-1.042	0.122	0.086
-478.332	-200.000	-0.001	-0.412
-477.318	-200.000	-0.029	0.186
-476.303	-121.415	0.307	-0.051
-475.289	300.754	-0.165	-0.302
-474.274	-200.000	0.056	-0.410
-473.259	-200.000	-0.018	0.089
-472.245	324.749	0.121	0.230
-471.230	-200.000	0.008	-0.084
-470.216	-143.699	-0.092	-0.009
-469.201	-116.681	0.047	-0.009
-468.186	326.793	0.061	-0.115
-467.172	-77.695	-0.141	-0.049
-466.157	-113.505	-0.145	0.028
-465.143	222.516	0.096	-0.153
-464.128	561.653	0.110	0.264
-463.113	466.200	-0.116	0.259
-462.099	-200.000	-0.064	-0.364
-461.084	-45.889	0.229	-0.112
-460.070	800.000	0.034	-0.112
-459.055	-5.486	-0.178	-0.121
-458.040	-200.000	0.006	-0.080
-457.026	-200.000	-0.020	-0.187
-456.011	78.024	-0.064	0.068
-454.997	-200.000	0.051	0.381
-453.982	193.167	-0.123	0.185
-452.968	-81.997	-0.148	0.048
-451.953	113.529	0.082	-0.099
-450.938	-200.000	-0.005	0.173
-449.924	-65.439	0.313	0.125
-448.909	4.226	0.417	0.304
-447.895	72.458	0.053	-0.055
-446.880	6.411	0.092	0.068
-445.865	-200.000	-0.004	-0.192
-444.851	-200.000	-0.012	0.113
-443.836	144.706	-0.038	0.051
-442.822	-113.178	-0.054	0.011
-441.807	-78.793	-0.162	-0.055
-440.792	218.447	0.122	0.194
-439.778	51.866	-0.256	0.242
-438.763	800.000	-0.046	0.168
-437.749	21.412	-0.183	0.147
-436.734	-30.107	-0.232	-0.131
-435.719	150.303	0.054	-0.072
-434.705	-100.388	0.433	-0.107
-433.690	-75.085	0.131	-0.047
-432.676	-33.301	0.211	0.116
-431.661	136.893	-0.289	-0.375
-430.646	323.841	-0.130	0.247
-429.632	-88.434	-0.177	-0.052
-428.617	800.000	0.074	0.212
-427.603	-14.723	0.158	0.101
-426.588	-151.690	-0.152	0.011
-425.573	800.000	-0.079	-0.272
-424.559	-56.081	-0.197	-0.087
-423.544	77.969	-0.081	0.086
-422.530	-88.090	-0.164	0.049
-421.515	8.667	-0.285	-0.213
-420.500	-72.848	0.198	-0.072
-419.486	-19.098	-0.216	0.133
-418.471	-78.123	0.074	0.025
-417.457	-200.000	0.008	-0.102
-416.442	-173.457	0.396	0.012
-415.428	-200.000	-0.011	0.253
-414.413	-200.000	-0.004	-0.204
-413.398	-22.680	0.191	-0.114
-412.384	-53.751	0.140	0.063
-411.369	38.882	0.096	0.085
-410.355	-200.000	0.001	-0.059
-409.340	594.002	0.147	-0.360
-408.325	-114.269	-0.303	-0.058
-407.311	-62.039	0.048	-0.020
-406.296	146.198	-0.044	-0.058
-405.282	-48.304	-0.182	-0.087
-404.267	30.844	0.033	0.028
-403.252	-44.889	0.236	-0.116
-402.238	756.072	-0.087	0.232
-401.223	800.000	0.122	-0.425
-400.209	-111.342	0.590	0.119
-399.194	-168.378	0.219	-0.008
-398.179	-35.147	-0.196	0.106
-397.165	-80.320	-0.159	-0.053
-396.150	-68.390	0.365	0.141
-395.136	-37.956	0.353	0.186
-394.121	-85.708	-0.243	-0.075
-393.106	-126.976	0.471	0.069
-392.092	-183.163	0.152	0.003
-391.077	-200.000	0.014	-0.127
-390.063	-98.063	0.322	0.082
-389.048	296.208	-0.144	0.262
-388.033	800.000	-0.016	-0.058
-387.019	800.000	-0.009	0.029
-386.004	100.437	0.182	-0.210
-384.990	267.727	0.081	0.140
-383.975	-200.000	0.079	0.390
-382.960	0.366	-0.141	0.099
-381.946	-81.296	0.302	0.099
-380.931	175.843	0.114	0.163
-379.917	-30.287	-0.063	-0.036
-378.902	-62.229	0.068	0.028
-377.888	187.207	-0.118	-0.174
-376.873	346.656	0.059	0.116
-375.858	67.969	0.048	-0.049
-374.844	-200.000	0.000	0.089
-373.829	-88.340	-0.386	0.114
-372.815	-0.791	-0.043	-0.030
-371.800	800.000	0.077	0.303
-370.785	-34.218	0.054	-0.029
-369.771	99.309	-0.103	0.119
-368.756	74.779	-0.156	0.163
-367.742	185.461	0.079	-0.116
-366.727	-200.000	-0.006	-0.035
-365.712	-3.176	-0.167	-0.115
-364.698	103.351	-0.056	-0.065
-363.683	447.086	0.059	0.128
-362.669	-108.248	0.146	0.031
-361.654	601.803	-0.179	-0.439
-360.639	-141.536	0.227	0.023
-359.625	-200.000	0.008	-0.354
-358.610	-64.294	0.119	0.048
-357.596	-200.000	0.050	-0.564
-356.581	-1.320	-0.394	0.275
-355.566	22.741	0.229	-0.186
-354.552	800.000	-0.122	0.404
-353.537	-200.000	0.015	0.210
-352.523	-25.506	-0.091	0.053
-351.508	-93.708	0.103	0.028
-350.493	143.739	-0.269	0.354
-349.479	-167.258	0.233	0.009
-348.464	-14.541	-0.209	0.133
-347.450	50.217	0.117	-0.110
-346.435	-164.180	-0.157	-0.007
-345.420	-46.139	0.357	0.174
-344.406	-80.844	0.083	0.027
-343.391	-193.893	-0.108	-0.001
-342.377	-200.000	-0.242	0.001
-341.362	-200.000	-0.006	-0.118
-340.348	-90.946	0.263	-0.075
-339.333	-200.000	0.000	-0.132
-338.318	-44.882	-0.305	-0.150
-337.304	389.229	-0.114	-0.233
-336.289	231.402	0.094	0.152
-335.275	139.461	0.155	0.202
-334.260	-139.536	0.325	0.034
-333.245	70.519	-0.325	-0.333
-332.231	275.038	-0.166	0.291
-331.216	192.451	0.060	-0.089
-330.202	-106.178	-0.125	-0.028
-329.187	-200.000	-0.007	-0.155
-328.172	-163.070	-0.099	0.005
-327.158	700.641	0.080	0.207
-326.143	-89.195	-0.188	-0.055
-325.129	-0.169	-0.021	0.015
-324.114	-22.391	0.244	0.146
-323.099	800.000	0.054	0.170
-322.085	-113.185	0.352	0.068
-321.070	-106.904	0.203	0.044
-320.056	191.048	-0.177	-0.263
-319.041	-200.000	0.041	-0.183
-318.026	662.303	0.091	0.231
-317.012	-83.051	-0.211	-0.067
-315.997	432.453	-0.089	0.191
-314.983	800.000	-0.022	0.077
-313.968	11.959	0.152	0.116
-312.953	-157.539	-0.050	-0.003
-311.939	800.000	0.082	-0.253
-310.924	-141.499	0.384	0.038
-309.910	-200.000	-0.021	-0.120
-308.895	-111.718	0.135	0.027
-307.880	159.637	-0.059	0.081
-306.866	-72.498	-0.302	-0.110
-305.851	-178.025	0.099	0.002
-304.837	-200.000	-0.023	0.213
-303.822	-7.133	-0.353	0.237
-302.807	-83.695	0.104	0.033
-301.793	-86.014	0.122	0.037
-300.778	146.502	-0.071	0.094
-299.764	58.850	-0.092	0.089
-298.749	263.237	-0.081	0.139
-297.735	424.158	-0.092	0.196
-296.720	654.045	0.094	0.239
-295.705	-200.000	0.055	0.373
-294.691	777.008	0.021	-0.058
-293.676	27.528	0.514	-0.427
-292.662	-173.024	-0.239	-0.007
-291.647	-87.242	0.276	0.083
-290.632	800.000	-0.133	-0.549
-289.618	800.000	0.086	0.252
-288.603	24.213	-0.307	0.250
-287.589	390.839	-0.043	0.089
-286.574	22.734	0.340	-0.275
-285.559	800.000	-0.052	-0.198
-284.545	-3.894	0.107	-0.073
-283.530	-64.713	-0.184	-0.073
-282.516	-196.778	0.067	0.000
-281.501	-200.000	0.003	0.153
-280.486	-15.939	0.031	-0.019
-279.472	-54.455	-0.168	-0.075
-278.457	-25.146	0.178	-0.104
-277.443	800.000	-0.024	-0.072
-276.428	194.063	-0.150	-0.224
-275.413	-50.901	-0.218	-0.101
-274.399	800.000	0.113	0.314
-273.384	-200.000	-0.004	0.191
-272.370	612.532	-0.062	0.153
-271.355	228.863	0.071	-0.114
-270.340	800.000	-0.114	-0.316
-269.326	113.570	-0.158	0.189
-268.311	-62.743	0.077	-0.031
-267.297	-15.103	-0.092	-0.058
-266.282	21.559	0.150	-0.120
-265.267	-18.038	-0.271	-0.167
-264.253	226.045	0.066	-0.105
-263.238	31.736	0.051	-0.043
-262.224	-98.916	-0.183	-0.046
-261.209	388.640	0.156	-0.319
-260.195	-78.080	0.089	0.030
-259.180	-108.227	0.366	0.078
-258.165	-200.000	0.028	0.157
-257.151	-38.261	-0.258	0.135
-256.136	800.000	0.077	-0.216
-255.122	-159.035	-0.156	0.009
-254.107	-200.000	0.017	-0.203
-253.092	60.735	0.117	0.114
-252.078	13.368	-0.124	-0.095
-251.063	-59.335	-0.202	0.086
-250.049	-200.000	-0.208	0.000
-249.034	39.157	-0.153	0.135
-248.019	223.026	-0.195	-0.310
-247.005	-125.083	-0.173	0.026
-245.990	-153.332	-0.436	-0.030
-244.976	-200.000	-0.024	0.325
-243.961	800.000	0.019	-0.058
-242.946	46.161	0.246	-0.225
-241.932	21.405	0.262	0.210
-240.917	-200.000	0.059	-0.386
-239.903	-120.567	0.119	0.020
-238.888	300.862	0.126	0.229
-237.873	-83.565	0.117	0.037
-236.859	11.571	0.195	0.148
-235.844	-133.803	0.169	-0.021
-234.830	164.601	0.071	0.098
-233.815	-184.876	-0.266	-0.004
-232.800	32.285	-0.277	-0.236
-231.786	-91.869	0.173	0.048
-230.771	361.212	-0.094	-0.186
-229.757	-109.768	0.291	-0.060
-228.742	-83.682	0.233	0.073
-227.727	-17.076	-0.102	-0.063
-226.713	-111.142	-0.075	-0.015
-225.698	-3.757	0.044	0.030
-224.684	48.700	-0.138	0.127
-223.669	578.911	-0.056	-0.135
-222.655	233.506	-0.083	-0.134
-221.640	-128.053	-0.181	-0.026
-220.625	-200.000	0.006	-0.128
-219.611	-42.631	0.231	0.116
-218.596	-50.056	0.151	0.071
-217.582	-51.427	0.147	-0.067
-216.567	-200.000	0.025	0.130
-215.552	-200.000	-0.021	0.358
-214.538	800.000	0.070	0.283
-213.523	-67.911	0.268	-0.103
-212.509	134.277	-0.091	-0.116
-211.494	-86.256	0.535	-0.162
-210.479	231.931	0.168	0.271
-209.465	-11.669	0.119	0.077
-208.450	-200.000	0.006	0.233
-207.436	118.783	0.107	0.131
-206.421	508.559	0.096	-0.219
-205.406	-148.225	-0.329	-0.027
-204.392	-57.776	-0.142	0.061
-203.377	-200.000	0.004	-0.195
-202.363	467.977	-0.093	0.206
-201.348	119.451	0.126	0.153
-200.333	-200.000	-0.022	0.202
-199.319	-90.410	-0.386	0.110
-198.304	-200.000	-0.031	-0.219
-197.290	220.413	-0.109	0.172
-196.275	-93.864	0.048	0.013
-195.260	575.001	0.059	-0.141
-194.246	704.310	0.105	-0.273
-193.231	-119.878	0.254	-0.043
-192.217	-200.000	-0.027	-0.290
-191.202	48.104	-0.044	0.040
-190.187	68.078	-0.217	0.218
-189.173	-118.470	-0.351	0.061
-188.158	-165.558	0.295	-0.013
-187.144	-99.803	-0.335	-0.082
-186.129	-57.615	-0.209	0.090
-185.114	95.178	0.154	0.173
-184.100	-1.568	0.045	-0.031
-183.085	225.498	-0.224	0.357
-182.071	-123.659	-0.221	0.034
-181.056	136.317	0.097	0.124
-180.042	-6.267	0.156	0.105
-179.027	276.997	-0.147	0.258
-178.012	-200.000	-0.048	-0.216
-176.998	-200.000	0.008	-0.061
-175.983	121.527	-0.082	0.100
-174.969	105.957	0.117	0.136
-173.954	-125.767	-0.166	-0.025
-172.939	91.195	0.290	-0.320
-171.925	-200.000	-0.021	0.251
-170.910	800.000	-0.131	0.422
-169.896	-167.495	-0.463	0.018
-168.881	52.279	0.262	0.246
-167.866	-200.000	-0.066	-0.455
-166.852	-49.751	0.047	0.022
-165.837	-127.842	0.145	-0.021
-164.823	-67.781	-0.192	0.074
-163.808	62.897	-0.098	0.097
-162.793	-126.479	0.315	-0.046
-161.779	800.000	0.045	-0.137
-160.764	25.250	0.046	-0.037
-159.750	-200.000	0.000	0.074
-158.735	32.055	0.430	0.364
-157.720	217.739	-0.075	0.118
-156.706	800.000	0.091	0.320
-155.691	103.301	-0.221	-0.255
-154.677	-58.286	0.290	-0.124
-153.662	-61.743	-0.374	-0.154
-152.647	-180.442	0.138	0.003
-151.633	-93.160	0.156	0.043
-150.618	-187.593	-0.330	0.004
-149.604	-30.115	-0.139	-0.078
-148.589	-110.781	-0.245	0.050
-147.574	209.988	-0.101	-0.155
-146.560	800.000	0.044	-0.136
-145.545	-200.000	-0.042	-0.306
-144.531	0.234	0.205	0.144
-143.516	235.538	-0.262	-0.425
-142.502	42.651	-0.145	-0.129
-141.487	-52.824	-0.245	-0.111
-140.472	-103.866	-0.154	0.035
-139.458	-32.667	-0.033	0.018
-138.443	800.000	-0.041	-0.130
-137.429	3.600	-0.221	-0.158
-136.414	169.751	0.206	0.289
-135.399	-80.979	0.114	-0.037
-134.385	-144.683	-0.126	-0.011
-133.370	-200.000	-0.006	0.358
-132.356	-101.233	0.357	-0.086
-131.341	-72.444	0.184	-0.067
-130.326	-200.000	0.032	0.163
-129.312	353.380	-0.166	0.324
-128.297	-200.000	-0.073	0.335
-127.283	-200.000	0.049	-0.381
-126.268	-200.000	-0.019	-0.120
-125.253	-180.794	-0.210	-0.004
-124.239	88.073	-0.219	-0.238
-123.224	13.087	0.183	-0.139
-122.210	-92.009	-0.219	0.061
