DTS Sentinel unit serial number:	SN413079Multiplexer serial number:	ORYXHardware model number:	OX4-SRSoftware version number:	ORYX F/W v4.00 Oryx Data Collector v3.7.2.0data status	okinstallation	princeton_trtdifferential loss correction	single-endedforward channel	channel 3reverse channel	N/Adate	2019/09/11time	06:18:11forward acquisition time	60.00reverse acquisition time	0.00gamma	496.2192k internal	0.2331k external	0.2331temperature offset calibration	0.9907default loss term (dB/km)	0.3790temperature slope calibration	1.0000multiplexer offset coefficient	1.0000multiplexer slope coefficient	1.0000fibre end	0.00T internal ref (°C)	29.50T ext. ref 1 (°C)	-0.19T ext. ref 2 (°C)	23.95length (m)	temperature (°C)	Stokes	anti-Stokes-747.200	149.044	0.170	-0.232
-746.185	-11.400	-0.184	0.122
-745.171	197.209	-0.112	-0.172
-744.156	-136.080	-0.340	0.040
-743.142	47.636	0.375	-0.352
-742.127	-195.347	0.049	0.000
-741.112	-103.054	0.117	-0.028
-740.098	27.618	0.331	0.280
-739.083	58.157	-0.173	-0.171
-738.069	16.374	-0.252	0.200
-737.054	-103.001	-0.074	0.018
-736.039	-26.021	-0.347	0.205
-735.025	656.472	0.076	-0.196
-734.010	-43.211	-0.088	-0.045
-732.996	-17.907	-0.155	-0.098
-731.981	153.445	-0.115	-0.159
-730.966	-171.257	0.178	-0.006
-729.952	-133.539	0.162	0.020
-728.937	800.000	0.023	-0.095
-727.923	87.323	0.194	-0.216
-726.908	-11.667	-0.149	-0.099
-725.894	91.702	-0.144	0.163
-724.879	-158.981	-0.313	-0.018
-723.864	90.974	-0.191	0.215
-722.850	-101.563	0.230	-0.056
-721.835	-24.405	0.569	0.341
-720.821	93.609	-0.421	-0.479
-719.806	-134.054	0.205	-0.025
-718.791	347.994	-0.181	-0.358
-717.777	-3.132	0.111	0.078
-716.762	-30.846	-0.029	0.016
-715.748	-139.797	-0.129	0.014
-714.733	-55.276	0.093	0.042
-713.718	1.738	-0.181	-0.131
-712.704	800.000	-0.030	-0.116
-711.689	-130.017	0.362	-0.050
-710.675	-200.000	0.021	0.267
-709.660	-11.842	0.136	-0.090
-708.645	312.743	-0.074	-0.140
-707.631	-78.457	-0.120	-0.041
-706.616	-109.432	-0.188	0.040
-705.602	800.000	0.075	0.228
-704.587	239.146	-0.110	-0.183
-703.572	-88.645	-0.424	0.127
-702.558	-58.202	-0.062	-0.027
-701.543	800.000	0.044	-0.152
-700.529	-200.000	0.040	-0.182
-699.514	209.827	-0.064	-0.101
-698.499	-63.068	-0.264	-0.109
-697.485	-200.000	-0.022	0.178
-696.470	-68.675	-0.207	0.080
-695.456	107.641	-0.147	0.176
-694.441	-200.000	0.054	-0.278
-693.426	231.421	0.133	-0.218
-692.412	160.253	-0.174	0.243
-691.397	305.391	-0.123	0.229
-690.383	-70.759	-0.627	0.238
-689.368	800.000	0.037	0.102
-688.354	22.743	-0.142	0.117
-687.339	-200.000	-0.013	-0.127
-686.324	73.706	-0.079	0.083
-685.310	-64.295	-0.209	-0.086
-684.295	42.877	-0.331	-0.303
-683.281	-148.467	-0.194	-0.016
-682.266	-161.731	-0.503	0.026
-681.251	-152.257	0.167	0.012
-680.237	54.177	0.350	-0.338
-679.222	-200.000	-0.001	-0.091
-678.208	-69.712	-0.387	-0.149
-677.193	110.408	0.084	0.101
-676.178	-96.494	-0.212	0.056
-675.164	-49.380	-0.246	-0.118
-674.149	-97.725	0.216	-0.056
-673.135	-78.206	0.256	-0.088
-672.120	-88.710	-0.389	-0.116
-671.105	-122.912	0.168	0.027
-670.091	450.560	-0.131	-0.290
-669.076	-200.000	0.019	0.091
-668.062	-20.652	0.078	0.048
-667.047	13.609	0.065	0.051
-666.032	800.000	0.066	-0.201
-665.018	88.680	0.072	0.081
-664.003	358.106	0.123	-0.247
-662.989	-102.587	0.203	0.049
-661.974	-200.000	0.031	0.169
-660.959	64.554	0.083	-0.083
-659.945	-31.801	0.336	0.189
-658.930	-10.444	-0.302	-0.201
-657.916	800.000	0.028	-0.114
-656.901	-117.941	-0.119	-0.021
-655.886	521.648	0.172	-0.405
-654.872	-128.965	0.211	-0.030
-653.857	153.868	-0.153	-0.211
-652.843	-60.032	0.111	0.048
-651.828	-200.000	-0.013	0.156
-650.814	800.000	0.075	-0.246
-649.799	-200.000	0.043	-0.320
-648.784	-185.531	-0.471	0.007
-647.770	-17.057	0.071	-0.045
-646.755	-63.773	-0.160	-0.066
-645.741	146.563	0.275	-0.370
-644.726	-200.000	0.066	-0.318
-643.711	-89.753	0.460	0.135
-642.697	-200.000	-0.002	0.134
-641.682	117.738	-0.086	0.106
-640.668	452.274	-0.164	-0.364
-639.653	-200.000	-0.012	-0.278
-638.638	800.000	-0.042	-0.130
-637.624	531.701	0.107	0.255
-636.609	157.498	0.130	-0.181
-635.595	214.619	-0.135	-0.214
-634.580	-134.898	-0.392	0.048
-633.565	17.467	-0.178	-0.142
-632.551	-109.157	-0.269	0.057
-631.536	-200.000	-0.005	-0.107
-630.522	156.131	0.014	-0.020
-629.507	-103.713	-0.326	-0.077
-628.492	800.000	0.071	0.309
-627.478	-112.425	0.210	-0.042
-626.463	-148.047	0.053	0.004
-625.449	-200.000	-0.062	0.356
-624.434	-135.819	0.181	-0.021
-623.419	19.300	0.176	-0.142
-622.405	-102.510	0.416	0.100
-621.390	545.988	-0.075	0.180
-620.376	-84.187	0.191	-0.061
-619.361	247.452	0.097	0.163
-618.346	119.849	0.177	-0.220
-617.332	-6.320	-0.172	-0.117
-616.317	-200.000	-0.001	0.027
-615.303	440.692	-0.137	-0.300
-614.288	-110.560	-0.284	-0.059
-613.273	-70.293	0.141	-0.053
-612.259	552.498	0.019	-0.045
-611.244	-131.480	-0.232	-0.031
-610.230	-21.854	0.140	0.085
-609.215	-140.459	0.257	-0.027
-608.201	160.774	0.129	0.180
-607.186	53.646	-0.157	0.151
-606.171	196.444	0.171	0.261
-605.157	-102.611	-0.070	-0.017
-604.142	299.971	-0.136	0.250
-603.128	295.863	0.172	0.315
-602.113	-200.000	0.052	-0.251
-601.098	800.000	-0.093	-0.258
-600.084	463.973	-0.064	-0.144
-599.069	-200.000	0.074	-0.450
-598.055	45.442	0.280	0.259
-597.040	-75.725	-0.403	-0.143
-596.025	-96.879	0.069	0.018
-595.011	181.785	0.045	0.066
-593.996	171.356	-0.157	-0.225
-592.982	-30.057	0.126	0.072
-591.967	-52.138	-0.264	0.123
-590.952	89.044	0.178	0.199
-589.938	-200.000	-0.001	0.067
-588.923	-111.424	0.032	0.006
-587.909	76.781	0.049	-0.052
-586.894	32.958	-0.145	0.125
-585.879	-5.318	-0.093	-0.064
-584.865	-128.190	-0.233	-0.033
-583.850	-123.141	-0.229	0.037
-582.836	-65.387	-0.266	-0.107
-581.821	-200.000	-0.010	0.098
-580.806	-96.998	0.277	0.072
-579.792	-32.918	0.148	-0.082
-578.777	-149.545	0.127	-0.010
-577.763	29.991	-0.117	0.100
-576.748	-30.649	0.191	0.108
-575.733	69.177	-0.245	0.251
-574.719	-150.160	-0.493	0.038
-573.704	341.597	-0.073	0.142
-572.690	550.780	-0.099	-0.238
-571.675	-123.028	0.172	0.028
-570.661	14.053	0.027	-0.021
-569.646	219.476	0.031	0.049
-568.631	-1.129	-0.084	0.059
-567.617	800.000	0.117	-0.480
-566.602	154.386	-0.255	-0.351
-565.588	-120.703	0.123	0.021
-564.573	-22.419	0.239	0.144
-563.558	-92.380	-0.037	0.010
-562.544	-200.000	-0.009	-0.098
-561.529	355.868	-0.032	0.063
-560.515	800.000	0.065	-0.213
-559.500	512.858	0.089	-0.208
-558.485	196.544	-0.179	0.272
-557.471	184.843	-0.068	0.100
-556.456	-200.000	-0.008	0.074
-555.442	-200.000	0.113	0.514
-554.427	-12.228	-0.182	0.119
-553.412	-200.000	0.006	-0.191
-552.398	141.431	0.185	0.244
-551.383	800.000	-0.035	-0.112
-550.369	-200.000	0.040	0.271
-549.354	513.574	0.099	-0.231
-548.339	72.722	0.234	-0.244
-547.325	170.168	0.107	0.153
-546.310	139.858	0.130	0.172
-545.296	67.480	-0.126	-0.129
-544.281	89.570	-0.238	0.265
-543.266	62.717	-0.152	-0.152
-542.252	143.379	0.246	-0.326
-541.237	-184.873	-0.107	0.002
-540.223	-49.425	-0.392	-0.186
-539.208	-56.550	-0.264	-0.117
-538.193	41.513	0.139	0.125
-537.179	18.351	-0.279	0.222
-536.164	-200.000	-0.006	0.057
-535.150	130.983	-0.191	0.244
-534.135	-10.909	-0.149	0.098
-533.121	2.871	0.118	-0.085
-532.106	-141.746	-0.174	-0.017
-531.091	-200.000	-0.037	0.332
-530.077	-126.089	-0.131	-0.020
-529.062	96.876	0.166	-0.190
-528.048	-81.374	-0.271	0.089
-527.033	26.556	0.161	0.134
-526.018	324.401	0.041	0.079
-525.004	800.000	0.107	-0.329
-523.989	-64.505	-0.155	-0.063
-522.975	352.655	-0.022	-0.043
-521.960	169.258	0.201	0.286
-520.945	4.005	-0.223	0.162
-519.931	-74.797	0.234	0.084
-518.916	-200.000	-0.019	0.092
-517.902	-120.522	0.267	0.045
-516.887	455.079	-0.040	-0.088
-515.872	-200.000	0.016	-0.094
-514.858	-38.701	-0.202	0.106
-513.843	117.250	-0.218	0.267
-512.829	119.200	-0.120	-0.148
-511.814	-36.149	0.178	-0.096
-510.799	571.853	0.092	-0.224
-509.785	-200.000	0.026	-0.234
-508.770	-41.405	0.421	-0.216
-507.756	800.000	0.073	-0.295
-506.741	497.554	-0.066	0.151
-505.726	161.486	0.055	-0.077
-504.712	800.000	0.011	0.043
-503.697	255.797	-0.120	-0.205
-502.683	342.461	0.158	-0.308
-501.668	225.637	-0.060	-0.097
-500.653	-130.807	-0.069	0.009
-499.639	800.000	-0.058	0.230
-498.624	-0.888	0.125	0.088
-497.610	78.322	0.212	-0.225
-496.595	-74.652	0.157	-0.056
-495.581	-51.443	0.038	0.018
-494.566	44.797	-0.237	0.218
-493.551	138.882	0.177	0.232
-492.537	-129.255	-0.207	-0.029
-491.522	-106.164	-0.293	0.066
-490.508	-76.332	0.138	0.048
-489.493	-64.298	-0.272	0.110
-488.478	-200.000	0.024	0.251
-487.464	410.553	0.044	0.094
-486.449	800.000	0.039	0.136
-485.435	-120.785	-0.288	0.048
-484.420	-104.413	-0.030	-0.007
-483.405	-90.372	0.238	-0.069
-482.391	670.007	-0.096	0.247
-481.376	-200.000	0.018	-0.104
-480.362	-131.672	0.369	0.048
-479.347	213.115	-0.049	0.077
-478.332	-56.350	-0.134	-0.059
-477.318	-13.554	-0.097	0.063
-476.303	-174.334	0.204	-0.006
-475.289	-84.277	-0.169	-0.053
-474.274	-195.588	-0.315	0.002
-473.259	98.656	-0.162	-0.186
-472.245	-95.043	-0.262	0.071
-471.230	208.055	0.112	0.175
-470.216	212.734	-0.228	0.358
-469.201	167.866	0.181	0.257
-468.186	-71.616	0.214	-0.080
-467.172	50.399	0.053	-0.050
-466.157	-182.189	0.140	-0.003
-465.143	-23.192	-0.094	-0.057
-464.128	-141.113	-0.090	-0.009
-463.113	-148.913	-0.165	-0.013
-462.099	-133.449	0.074	-0.009
-461.084	-142.669	-0.201	-0.020
-460.070	-56.172	0.163	0.072
-459.055	-129.087	0.052	-0.007
-458.040	-60.114	0.194	-0.082
-457.026	-200.000	-0.015	0.157
-456.011	-91.189	-0.169	0.048
-454.997	417.167	-0.074	0.157
-453.982	167.286	-0.101	-0.143
-452.968	-134.899	-0.129	0.016
-451.953	-92.287	0.060	-0.017
-450.938	-118.941	-0.272	0.048
-449.924	800.000	0.079	0.222
-448.909	84.885	0.125	0.136
-447.895	0.425	-0.194	0.138
-446.880	-200.000	0.060	-0.288
-445.865	-200.000	-0.003	0.124
-444.851	-39.618	0.145	-0.076
-443.836	-69.542	0.089	-0.034
-442.822	-200.000	-0.007	0.097
-441.807	-50.073	-0.284	-0.134
-440.792	-67.015	0.292	-0.114
-439.778	53.471	0.196	0.187
-438.763	-200.000	-0.027	-0.194
-437.749	767.719	0.133	-0.359
-436.734	-124.529	-0.241	-0.037
-435.719	34.616	-0.247	-0.215
-434.705	243.173	-0.201	0.335
-433.690	-32.922	0.325	0.179
-432.676	706.113	-0.081	0.211
-431.661	800.000	-0.047	-0.130
-430.646	-200.000	-0.015	-0.177
-429.632	-83.646	0.145	0.046
-428.617	-130.607	0.231	-0.031
-427.603	800.000	-0.094	0.396
-426.588	-52.064	-0.410	0.189
-425.573	579.092	0.061	0.149
-424.559	-2.217	-0.112	-0.078
-423.544	104.652	0.030	0.035
-422.530	256.327	0.033	-0.057
-421.515	25.049	-0.173	-0.143
-420.500	211.301	0.255	-0.399
-419.486	286.793	-0.079	-0.142
-418.471	-108.497	0.103	0.022
-417.457	-117.680	-0.189	0.034
-416.442	40.200	0.187	0.167
-415.428	-200.000	-0.002	0.312
-414.413	244.211	0.068	0.114
-413.398	67.506	-0.089	-0.090
-412.384	-73.516	0.110	-0.040
-411.369	71.874	0.024	-0.025
-410.355	-11.349	-0.157	-0.103
-409.340	-200.000	-0.005	0.154
-408.325	-42.089	-0.030	0.015
-407.311	617.535	-0.047	-0.117
-406.296	-0.748	-0.016	0.011
-405.282	132.426	0.306	-0.392
-404.267	-200.000	-0.015	-0.522
-403.252	-200.000	0.004	-0.282
-402.238	800.000	-0.036	0.121
-401.223	-11.814	-0.301	-0.196
-400.209	-78.025	-0.302	0.103
-399.194	330.806	0.010	0.019
-398.179	-200.000	0.003	0.159
-397.165	800.000	-0.028	-0.119
-396.150	119.007	0.091	-0.111
-395.136	54.331	-0.123	0.118
-394.121	-200.000	0.040	0.265
-393.106	-200.000	-0.080	0.000
-392.092	76.231	-0.081	-0.085
-391.077	-43.615	0.382	-0.191
-390.063	-53.240	-0.153	0.070
-389.048	-82.427	0.109	0.035
-388.033	800.000	0.066	-0.190
-387.019	253.797	0.072	-0.122
-386.004	11.437	0.133	-0.101
-384.990	40.602	-0.210	-0.188
-383.975	800.000	-0.085	-0.363
-382.960	336.976	-0.079	-0.152
-381.946	127.257	-0.142	-0.179
-380.931	149.614	-0.046	-0.061
-379.917	800.000	0.044	-0.177
-378.902	561.165	0.060	-0.144
-377.888	50.849	-0.144	0.135
-376.873	167.968	0.179	0.252
-375.858	-200.000	-0.010	-0.196
-374.844	800.000	0.047	-0.138
-373.829	-200.000	0.344	-0.002
-372.815	-200.000	-0.007	0.074
-371.800	-200.000	0.002	-0.034
-370.785	800.000	0.079	0.323
-369.771	6.416	-0.251	0.185
-368.756	-181.732	0.175	0.003
-367.742	800.000	-0.064	0.185
-366.727	-200.000	-0.011	0.125
-365.712	-47.845	0.232	-0.111
-364.698	-3.173	-0.220	0.152
-363.683	43.360	0.193	-0.174
-362.669	-143.319	0.328	0.031
-361.654	-44.266	-0.068	-0.034
-360.639	180.133	0.188	0.273
-359.625	269.270	-0.170	0.295
-358.610	211.637	0.053	0.082
-357.596	-87.041	-0.336	0.102
-356.581	-168.528	0.429	-0.016
-355.566	84.448	-0.107	-0.116
-354.552	-97.327	-0.111	0.029
-353.537	-93.321	-0.271	0.075
-352.523	-66.112	-0.215	-0.085
-351.508	-69.805	-0.241	-0.091
-350.493	-200.000	-0.028	0.218
-349.479	486.799	-0.095	0.215
-348.464	-88.754	-0.259	-0.076
-347.450	209.129	-0.064	-0.100
-346.435	-20.128	-0.121	0.074
-345.420	-200.000	-0.025	0.356
-344.406	22.358	-0.079	-0.064
-343.391	-69.401	-0.079	-0.030
-342.377	800.000	0.017	0.049
-341.362	800.000	0.039	-0.108
-340.348	85.299	-0.095	-0.103
-339.333	-76.777	0.365	0.127
-338.318	-36.477	0.278	-0.148
-337.304	-200.000	0.012	-0.342
-336.289	-170.413	-0.310	0.011
-335.275	-149.812	0.427	-0.033
-334.260	141.458	-0.147	0.193
-333.245	285.251	0.213	0.379
-332.231	-3.566	0.244	-0.168
-331.216	391.744	-0.037	-0.075
-330.202	-122.202	0.295	0.048
-329.187	33.173	-0.300	0.258
-328.172	-83.943	-0.209	-0.066
-327.158	20.439	-0.106	-0.085
-326.143	-35.527	-0.426	0.229
-325.129	-110.648	-0.118	0.024
-324.114	800.000	0.150	0.452
-323.099	-69.388	0.165	0.063
-322.085	346.508	-0.015	-0.028
-321.070	-143.621	-0.135	0.013
-320.056	121.581	0.072	0.089
-319.041	42.513	0.103	-0.093
-318.026	-200.000	-0.027	-0.125
-317.012	-59.032	-0.008	0.003
-315.997	800.000	0.001	0.005
-314.983	298.779	0.222	-0.404
-313.968	22.287	-0.124	0.100
-312.953	218.709	-0.090	0.143
-311.939	-16.366	-0.153	-0.096
-310.924	-200.000	-0.012	-0.185
-309.910	9.731	-0.151	-0.113
-308.895	136.282	0.085	-0.110
-307.880	-188.783	-0.202	0.002
-306.866	800.000	-0.072	0.270
-305.851	109.204	-0.249	-0.295
-304.837	-46.062	-0.267	0.130
-303.822	-84.327	0.168	0.053
-302.807	-200.000	0.062	0.614
-301.793	-200.000	0.079	-0.360
-300.778	29.518	0.109	-0.092
-299.764	-200.000	-0.019	0.175
-298.749	-200.000	-0.051	0.350
-297.735	-165.303	-0.250	0.011
-296.720	123.187	-0.301	0.373
-295.705	-98.132	0.215	0.055
-294.691	-152.390	0.176	-0.013
-293.676	286.600	0.021	-0.037
-292.662	800.000	-0.131	-0.450
-291.647	800.000	-0.072	-0.304
-290.632	85.515	0.169	-0.183
-289.618	-200.000	0.009	0.187
-288.603	-200.000	-0.031	-0.241
-287.589	-200.000	0.041	-0.315
-286.574	229.309	-0.020	-0.033
-285.559	-1.230	0.118	0.082
-284.545	354.470	0.098	-0.193
-283.530	-165.411	0.194	-0.008
-282.516	800.000	-0.005	-0.019
-281.501	324.977	-0.133	-0.251
-280.486	36.753	-0.149	0.130
-279.472	280.446	-0.116	-0.205
-278.457	277.637	0.167	-0.293
-277.443	48.720	0.363	0.336
-276.428	-175.747	0.377	0.010
-275.413	1.378	0.270	0.192
-274.399	182.719	-0.296	0.431
-273.384	204.504	-0.160	0.245
-272.370	-200.000	-0.033	-0.215
-271.355	-200.000	0.047	-0.315
-270.340	213.117	0.018	-0.029
-269.326	-49.406	-0.183	0.086
-268.311	33.823	0.236	-0.203
-267.297	-200.000	0.030	-0.156
-266.282	-105.548	-0.120	0.027
-265.267	-76.850	0.389	0.134
-264.253	800.000	0.029	0.083
-263.238	-161.702	-0.072	-0.004
-262.224	108.258	-0.157	-0.185
-261.209	-78.414	-0.140	-0.047
-260.195	68.162	0.199	0.201
-259.180	130.727	0.118	0.149
-258.165	800.000	0.092	0.339
-257.151	599.500	0.040	-0.099
-256.136	162.117	0.175	0.242
-255.122	136.382	0.022	0.029
-254.107	-35.878	-0.169	0.090
-253.092	65.735	-0.169	0.169
-252.078	-113.394	0.089	0.017
-251.063	-30.260	0.102	-0.057
-250.049	25.561	-0.102	-0.083
-249.034	-93.120	-0.223	-0.061
-248.019	-57.442	-0.020	-0.009
-247.005	800.000	-0.052	0.177
-245.990	800.000	0.064	0.188
-244.976	-10.467	0.373	0.244
-243.961	767.569	0.132	-0.354
-242.946	200.225	-0.117	0.177
-241.932	-77.190	-0.113	0.039
-240.917	800.000	0.150	0.444
-239.903	643.866	-0.059	0.149
-238.888	9.626	-0.160	-0.120
-237.873	352.123	0.057	-0.112
-236.859	-161.878	-0.076	0.004
-235.844	6.771	0.082	-0.060
-234.830	-87.662	0.146	0.044
-233.815	-67.805	0.161	0.062
-232.800	15.726	-0.174	-0.135
-231.786	48.176	0.136	0.126
-230.771	-71.057	-0.103	-0.038
-229.757	-137.574	0.158	0.018
-228.742	-49.427	-0.198	0.093
-227.727	54.110	0.267	-0.253
-226.713	98.290	-0.083	0.095
-225.698	-96.154	-0.263	-0.069
-224.684	341.934	-0.032	0.061
-223.669	-61.362	0.222	0.092
-222.655	-200.000	-0.003	-0.147
-221.640	-139.027	0.101	0.011
-220.625	-78.109	0.214	0.073
-219.611	113.131	0.186	-0.222
-218.596	176.496	-0.092	0.131
-217.582	86.897	0.289	-0.315
-216.567	-200.000	-0.089	-0.527
-215.552	-91.162	0.249	-0.070
-214.538	800.000	-0.074	0.269
-213.523	-200.000	0.001	-0.050
-212.509	-200.000	0.004	0.024
-211.494	-111.242	-0.092	-0.019
-210.479	-39.813	0.142	-0.073
-209.465	-200.000	0.024	0.270
-208.450	3.648	0.337	-0.243
-207.436	1.665	0.113	0.080
-206.421	12.203	-0.022	0.017
-205.406	595.078	0.043	-0.105
-204.392	-73.912	0.144	0.051
-203.377	-67.903	0.156	-0.060
-202.363	-200.000	-0.008	-0.053
-201.348	365.282	0.080	-0.160
-200.333	-175.143	0.328	0.009
-199.319	-62.730	-0.192	-0.078
-198.304	-74.254	0.083	-0.030
-197.290	376.953	-0.098	0.197
-196.275	124.772	0.165	0.205
-195.260	800.000	-0.093	0.344
-194.246	-200.000	0.046	-0.198
-193.231	183.779	0.024	0.036
-192.217	189.427	-0.096	-0.142
-191.202	-29.024	0.028	0.016
-190.187	11.734	0.046	-0.035
-189.173	32.789	0.202	0.172
-188.158	-109.982	-0.169	0.035
-187.144	-47.066	-0.179	0.086
-186.129	30.955	0.071	0.060
-185.114	75.481	-0.033	0.035
-184.100	382.400	-0.054	0.109
-183.085	170.307	-0.092	0.130
-182.071	21.109	0.193	-0.154
-181.056	-200.000	-0.004	-0.020
-180.042	25.511	0.278	-0.228
-179.027	-154.156	-0.088	-0.006
-178.012	-200.000	0.004	0.329
-176.998	-46.049	0.107	0.052
-175.983	106.435	0.059	-0.069
-174.969	-97.463	0.190	-0.049
-173.954	-95.547	0.181	0.048
-172.939	-79.074	-0.079	0.026
-171.925	-200.000	-0.005	0.102
-170.910	800.000	-0.038	0.136
-169.896	277.780	-0.125	-0.219
-168.881	-62.973	0.095	0.039
-167.866	-170.045	-0.074	-0.003
-166.852	139.626	0.081	0.105
-165.837	-53.294	-0.225	-0.102
-164.823	76.089	0.072	-0.075
-163.808	141.145	-0.073	-0.095
-162.793	9.672	-0.178	-0.132
-161.779	86.746	0.218	-0.237
-160.764	-176.892	0.373	0.009
-159.750	265.896	0.074	-0.128
-158.735	-200.000	-0.007	0.218
-157.720	-200.000	-0.199	0.000
-156.706	-115.294	-0.076	0.014
-155.691	-118.334	0.072	0.013
-154.677	17.388	0.331	-0.258
-153.662	789.834	0.139	-0.376
-152.647	-61.036	-0.187	-0.078
-151.633	20.568	-0.151	0.120
-150.618	153.936	-0.072	-0.097
-149.604	-98.175	0.314	0.079
-148.589	146.594	0.098	0.129
-147.574	752.258	0.086	-0.228
-146.560	-200.000	-0.029	-0.284
-145.545	306.598	-0.147	-0.270
-144.531	-80.597	-0.211	-0.069
-143.516	800.000	0.066	0.203
-142.502	-42.650	0.462	0.231
-141.487	-132.600	0.133	0.017
-140.472	-152.523	0.161	-0.011
-139.458	-48.417	-0.145	-0.068
-138.443	-5.294	-0.213	0.144
-137.429	-8.230	0.264	0.175
-136.414	800.000	0.146	-0.570
-135.399	536.356	-0.121	0.281
-134.385	118.201	-0.076	0.092
-133.370	-74.723	-0.072	-0.025
-132.356	733.591	0.088	0.232
-131.341	-131.286	0.158	-0.021
-130.326	750.102	0.033	-0.089
-129.312	58.677	0.118	0.114
-128.297	260.439	-0.159	0.269
-127.283	35.663	-0.124	0.107
-126.268	-91.118	0.403	-0.114
-125.253	-84.601	-0.169	0.052
-124.239	284.215	-0.044	-0.078
-123.224	375.379	-0.046	-0.092
-122.210	129.657	-0.196	0.246
-121.195	354.124	-0.050	0.097
