DTS Sentinel unit serial number:	SN413079Multiplexer serial number:	ORYXHardware model number:	OX4-SRSoftware version number:	ORYX F/W v4.00 Oryx Data Collector v3.7.2.0data status	okinstallation	princeton_trtdifferential loss correction	single-endedforward channel	channel 3reverse channel	N/Adate	2019/09/15time	02:52:35forward acquisition time	60.00reverse acquisition time	0.00gamma	496.2192k internal	0.2322k external	0.2322temperature offset calibration	0.9968default loss term (dB/km)	0.3790temperature slope calibration	1.0000multiplexer offset coefficient	1.0000multiplexer slope coefficient	1.0000fibre end	0.00T internal ref (°C)	31.31T ext. ref 1 (°C)	4.56T ext. ref 2 (°C)	25.67length (m)	temperature (°C)	Stokes	anti-Stokes-747.200	-75.023	-0.072	-0.026
-746.185	-2.865	0.225	0.159
-745.171	-120.504	-0.327	-0.056
-744.156	-113.992	0.230	-0.045
-743.142	-200.000	-0.052	0.253
-742.127	245.247	-0.078	0.132
-741.112	-119.117	0.298	0.053
-740.098	-200.000	-0.010	0.060
-739.083	-39.819	-0.287	0.152
-738.069	-81.984	0.353	0.116
-737.054	-200.000	-0.029	-0.127
-736.039	-62.215	0.328	-0.138
-735.025	-55.890	-0.487	-0.220
-734.010	237.345	-0.276	-0.461
-732.996	27.895	0.247	-0.210
-731.981	-25.363	-0.153	-0.092
-730.966	800.000	0.104	-0.297
-729.952	800.000	-0.161	-0.493
-728.937	-138.839	-0.062	-0.007
-727.923	-77.659	-0.297	0.104
-726.908	64.377	0.036	0.037
-725.894	-44.283	0.176	0.089
-724.879	800.000	0.071	0.305
-723.864	-64.531	-0.328	-0.134
-722.850	-200.000	0.007	-0.257
-721.835	-200.000	0.015	0.108
-720.821	453.502	0.055	0.123
-719.806	48.778	0.296	0.280
-718.791	-200.000	0.028	-0.154
-717.777	122.636	-0.270	0.341
-716.762	-87.960	-0.383	0.116
-715.748	535.926	0.053	0.126
-714.733	82.085	0.065	-0.072
-713.718	-33.669	0.192	-0.107
-712.704	-200.000	-0.008	0.069
-711.689	800.000	0.038	-0.136
-710.675	23.774	-0.169	0.140
-709.660	-200.000	-0.057	0.286
-708.645	800.000	-0.090	0.314
-707.631	-200.000	0.002	-0.127
-706.616	-70.723	-0.087	-0.033
-705.602	-146.068	-0.334	-0.030
-704.587	-60.592	0.105	-0.045
-703.572	9.391	-0.263	-0.200
-702.558	53.211	0.157	0.151
-701.543	-37.406	0.293	-0.158
-700.529	-200.000	0.018	-0.111
-699.514	-60.638	0.157	0.067
-698.499	402.130	0.142	0.301
-697.485	-200.000	0.022	-0.180
-696.470	-136.760	0.306	-0.036
-695.456	314.965	0.085	0.162
-694.441	15.287	-0.198	-0.156
-693.426	-54.530	0.317	-0.145
-692.412	-53.825	-0.241	0.111
-691.397	-200.000	-0.017	0.290
-690.383	-200.000	0.039	-0.316
-689.368	385.608	-0.044	-0.092
-688.354	-6.016	-0.108	-0.075
-687.339	408.005	0.014	-0.029
-686.324	-96.191	0.258	-0.069
-685.310	105.593	0.414	0.494
-684.295	-200.000	0.022	0.412
-683.281	30.541	-0.275	-0.237
-682.266	-126.437	-0.183	-0.027
-681.251	-53.240	-0.183	0.084
-680.237	800.000	-0.064	-0.209
-679.222	-130.504	-0.102	-0.014
-678.208	-54.920	-0.349	0.159
-677.193	-47.312	0.174	-0.085
-676.178	-8.213	-0.239	-0.162
-675.164	-200.000	-0.018	0.144
-674.149	-166.390	0.142	0.006
-673.135	-133.602	0.236	-0.030
-672.120	55.288	0.263	-0.256
-671.105	800.000	0.013	0.045
-670.091	24.233	-0.264	-0.220
-669.076	133.265	-0.094	-0.123
-668.062	445.308	0.029	-0.065
-667.047	800.000	0.051	-0.159
-666.032	-200.000	0.004	0.237
-665.018	-200.000	0.041	-0.627
-664.003	-64.951	-0.173	-0.070
-662.989	36.100	-0.083	0.073
-661.974	-168.457	-0.222	-0.009
-660.959	-200.000	-0.003	-0.066
-659.945	-59.662	-0.361	0.156
-658.930	104.388	0.198	0.235
-657.916	167.211	0.055	-0.079
-656.901	242.120	-0.084	0.142
-655.886	-56.009	-0.354	-0.159
-654.872	4.052	-0.223	0.165
-653.857	-109.045	-0.334	-0.072
-652.843	-200.000	0.005	0.077
-651.828	-82.254	-0.332	0.109
-650.814	749.157	-0.056	-0.153
-649.799	800.000	-0.108	0.321
-648.784	315.018	-0.132	0.251
-647.770	-20.682	0.156	0.096
-646.755	-61.568	0.175	0.074
-645.741	-70.718	-0.134	0.051
-644.726	-63.460	0.148	0.061
-643.711	532.771	-0.169	-0.403
-642.697	92.573	0.179	0.204
-641.682	-6.926	0.141	-0.096
-640.668	27.555	-0.104	0.088
-639.653	800.000	0.119	-0.334
-638.638	-67.502	-0.274	-0.108
-637.624	-200.000	-0.028	-0.336
-636.609	-46.841	0.205	-0.101
-635.595	451.312	-0.151	-0.336
-634.580	-200.000	-0.008	-0.101
-633.565	-171.622	-0.131	0.004
-632.551	-72.733	-0.370	0.137
-631.536	-200.000	-0.016	-0.098
-630.522	275.148	-0.118	-0.210
-629.507	-3.573	-0.164	-0.115
-628.492	800.000	-0.040	0.114
-627.478	92.499	-0.149	-0.169
-626.463	179.150	-0.172	-0.254
-625.449	313.123	-0.167	-0.315
-624.434	150.792	-0.089	0.122
-623.419	-101.764	-0.311	-0.076
-622.405	-145.964	0.392	0.035
-621.390	-101.337	-0.198	-0.049
-620.376	56.641	0.052	-0.051
-619.361	44.953	-0.325	-0.301
-618.346	-200.000	0.021	-0.272
-617.332	800.000	0.097	-0.359
-616.317	17.144	-0.268	0.213
-615.303	-172.581	0.167	-0.005
-614.288	-119.869	-0.413	-0.071
-613.273	800.000	0.028	0.093
-612.259	-183.690	0.038	-0.001
-611.244	-200.000	-0.017	0.206
-610.230	256.685	0.088	0.152
-609.215	203.189	-0.164	-0.254
-608.201	800.000	-0.061	0.199
-607.186	-200.000	0.025	-0.290
-606.171	183.334	0.201	0.299
-605.157	-140.827	-0.300	-0.031
-604.142	-125.156	0.360	-0.055
-603.128	201.942	-0.179	0.276
-602.113	-63.053	0.178	-0.074
-601.098	241.243	-0.130	-0.218
-600.084	-27.612	0.189	0.110
-599.069	7.939	-0.157	-0.118
-598.055	9.878	-0.207	0.158
-597.040	-73.899	0.154	0.056
-596.025	-200.000	0.052	0.249
-595.011	-8.641	-0.018	0.012
-593.996	-106.701	-0.162	-0.036
-592.982	-119.750	0.216	-0.037
-591.967	-103.365	-0.483	0.114
-590.952	85.691	0.175	-0.193
-589.938	-200.000	0.008	-0.230
-588.923	-65.729	-0.145	0.058
-587.909	102.916	-0.183	-0.215
-586.894	-153.838	-0.337	0.023
-585.879	179.669	0.071	-0.104
-584.865	-16.817	0.278	0.176
-583.850	-40.258	0.253	0.132
-582.836	800.000	0.072	0.268
-581.821	171.338	-0.115	0.165
-580.806	5.859	-0.019	-0.014
-579.792	-187.719	-0.544	-0.007
-578.777	-66.684	-0.165	-0.065
-577.763	-102.123	-0.337	-0.081
-576.748	-74.491	0.060	-0.022
-575.733	-200.000	0.051	0.435
-574.719	513.774	0.050	0.118
-573.704	-152.961	0.175	-0.012
-572.690	464.869	0.180	-0.404
-571.675	-97.764	0.140	0.036
-570.661	178.326	0.061	0.089
-569.646	-65.981	-0.302	0.121
-568.631	18.719	-0.063	-0.050
-567.617	800.000	0.072	-0.280
-566.602	-68.576	0.221	-0.086
-565.588	-200.000	0.062	-0.290
-564.573	800.000	0.052	0.219
-563.558	800.000	0.062	0.197
-562.544	151.581	-0.340	-0.465
-561.529	94.995	0.099	0.113
-560.515	454.139	0.099	0.220
-559.500	800.000	-0.031	0.087
-558.485	-200.000	0.050	-0.449
-557.471	-162.167	0.282	-0.014
-556.456	-151.913	0.124	0.009
-555.442	796.046	0.108	-0.299
-554.427	317.653	-0.115	-0.218
-553.412	296.904	-0.076	-0.140
-552.398	-52.829	-0.145	-0.067
-551.383	-200.000	-0.005	0.216
-550.369	-180.461	0.010	0.000
-549.354	-36.317	0.057	0.031
-548.339	5.621	-0.169	0.126
-547.325	-200.000	-0.001	0.192
-546.310	-119.078	-0.156	-0.027
-545.296	234.851	0.178	-0.294
-544.281	-124.268	0.062	0.010
-543.266	257.579	0.089	-0.153
-542.252	184.088	0.099	0.147
-541.237	-92.429	-0.332	0.094
-540.223	-200.000	0.080	0.369
-539.208	800.000	0.065	0.216
-538.193	53.334	-0.158	-0.151
-537.179	-200.000	-0.016	-0.087
-536.164	800.000	-0.030	-0.084
-535.150	-95.397	0.171	-0.046
-534.135	-23.751	0.225	0.135
-533.121	344.585	-0.110	0.216
-532.106	-87.364	-0.032	-0.010
-531.091	-31.445	0.187	0.106
-530.077	109.180	-0.169	0.203
-529.062	-116.937	0.185	0.034
-528.048	-166.063	0.266	0.011
-527.033	800.000	-0.083	-0.291
-526.018	-81.764	0.178	0.058
-525.004	800.000	-0.027	0.111
-523.989	-200.000	0.042	0.414
-522.975	138.579	-0.050	0.066
-521.960	-200.000	0.014	0.069
-520.945	660.558	0.153	-0.394
-519.931	270.513	-0.101	-0.177
-518.916	-128.694	0.074	-0.010
-517.902	-69.627	0.271	0.104
-516.887	112.554	0.044	0.053
-515.872	-135.113	0.051	-0.006
-514.858	-58.719	-0.115	0.050
-513.843	14.161	0.059	0.046
-512.829	-200.000	0.036	-0.183
-511.814	-12.593	0.194	0.127
-510.799	800.000	-0.057	-0.175
-509.785	323.583	0.059	0.113
-508.770	147.740	0.090	0.121
-507.756	26.362	0.139	0.116
-506.741	-11.524	0.034	-0.022
-505.726	-200.000	0.006	0.113
-504.712	21.823	-0.047	0.038
-503.697	36.520	0.202	0.178
-502.683	80.515	-0.058	0.063
-501.668	123.388	0.086	0.108
-500.653	-200.000	0.003	0.054
-499.639	49.124	0.138	-0.130
-498.624	-179.293	-0.098	0.002
-497.610	217.213	-0.194	-0.310
-496.595	-200.000	-0.030	-0.192
-495.581	-125.002	0.171	-0.026
-494.566	266.319	0.179	0.312
-493.551	-113.445	0.160	0.031
-492.537	35.480	-0.220	0.193
-491.522	-42.438	0.188	0.096
-490.508	199.000	0.154	-0.236
-489.493	194.793	0.101	0.153
-488.478	517.576	-0.126	-0.295
-487.464	-125.397	0.453	-0.069
-486.449	41.850	0.171	0.155
-485.435	604.478	0.043	-0.107
-484.420	31.282	0.123	0.106
-483.405	-7.336	-0.131	-0.088
-482.391	-49.864	0.332	-0.158
-481.376	33.973	0.077	0.067
-480.362	23.147	-0.149	-0.123
-479.347	-200.000	0.032	0.311
-478.332	-200.000	0.011	0.379
-477.318	-28.714	0.037	0.021
-476.303	246.767	-0.164	-0.277
-475.289	-200.000	-0.016	-0.286
-474.274	-14.189	-0.245	-0.158
-473.259	-64.938	-0.367	0.148
-472.245	800.000	0.052	-0.167
-471.230	210.898	0.064	0.100
-470.216	301.817	0.184	0.340
-469.201	638.776	-0.070	-0.177
-468.186	800.000	0.023	0.098
-467.172	-101.191	-0.213	-0.052
-466.157	-120.683	0.442	-0.075
-465.143	177.520	-0.080	-0.117
-464.128	-29.180	-0.074	0.042
-463.113	623.203	-0.021	-0.052
-462.099	-200.000	-0.021	0.246
-461.084	-48.562	0.085	0.041
-460.070	86.072	0.148	0.163
-459.055	-200.000	0.006	0.233
-458.040	67.103	-0.102	-0.104
-457.026	-112.837	-0.259	0.051
-456.011	40.231	0.213	-0.191
-454.997	104.296	-0.254	-0.298
-453.982	216.896	0.167	0.265
-452.968	77.930	-0.160	0.170
-451.953	800.000	-0.097	0.380
-450.938	20.170	0.386	0.311
-449.924	33.214	-0.114	0.099
-448.909	284.897	-0.134	0.242
-447.895	800.000	-0.125	0.487
-446.880	-73.555	0.143	0.052
-445.865	-200.000	0.007	0.267
-444.851	-59.357	0.199	-0.085
-443.836	482.246	-0.065	-0.148
-442.822	635.527	0.160	0.405
-441.807	-156.267	0.133	-0.008
-440.792	244.843	0.092	-0.155
-439.778	94.644	-0.281	-0.319
-438.763	133.079	0.221	-0.285
-437.749	278.396	-0.121	-0.215
-436.734	229.810	-0.098	0.159
-435.719	-200.000	0.001	0.063
-434.705	18.252	-0.223	0.177
-433.690	777.643	-0.081	-0.220
-432.676	-200.000	-0.054	0.313
-431.661	800.000	-0.065	0.255
-430.646	-70.045	0.176	0.067
-429.632	-200.000	-0.008	0.252
-428.617	24.281	-0.047	-0.038
-427.603	287.762	0.106	-0.192
-426.588	-200.000	-0.030	-0.208
-425.573	189.286	0.244	0.364
-424.559	-49.909	-0.286	-0.135
-423.544	137.831	0.036	0.048
-422.530	137.334	0.007	0.009
-421.515	-6.230	0.088	0.060
-420.500	-102.872	0.134	0.032
-419.486	800.000	0.032	-0.119
-418.471	28.611	0.084	0.071
-417.457	-33.371	-0.102	-0.056
-416.442	-117.816	-0.286	-0.051
-415.428	312.373	0.124	-0.232
-414.413	67.452	0.092	0.094
-413.398	-110.252	-0.123	0.026
-412.384	800.000	0.019	0.073
-411.369	22.140	-0.193	0.157
-410.355	-91.159	-0.167	0.048
-409.340	800.000	0.161	0.558
-408.325	124.327	-0.146	-0.183
-407.311	-164.217	-0.131	0.006
-406.296	581.620	-0.030	-0.073
-405.282	85.115	0.099	-0.108
-404.267	91.789	-0.046	0.052
-403.252	34.032	0.267	-0.231
-402.238	8.359	-0.205	-0.154
-401.223	-82.727	-0.192	0.062
-400.209	-11.221	0.446	0.293
-399.194	14.698	-0.087	0.068
-398.179	-200.000	0.000	0.237
-397.165	190.367	0.097	0.146
-396.150	-44.716	-0.413	-0.205
-395.136	-200.000	-0.057	0.269
-394.121	234.452	0.073	-0.120
-393.106	158.372	0.096	-0.132
-392.092	-200.000	0.050	-0.229
-391.077	-200.000	-0.012	-0.371
-390.063	-48.242	0.138	-0.066
-389.048	143.929	-0.087	0.115
-388.033	800.000	-0.083	0.232
-387.019	-103.781	0.348	-0.081
-386.004	-137.028	0.250	0.029
-384.990	-121.211	0.123	0.021
-383.975	800.000	0.045	-0.184
-382.960	213.397	-0.052	-0.082
-381.946	800.000	-0.094	0.292
-380.931	30.507	-0.087	-0.074
-379.917	-67.366	-0.325	-0.127
-378.902	-200.000	-0.009	0.197
-377.888	202.635	0.022	0.033
-376.873	29.341	-0.184	0.156
-375.858	-74.946	0.277	-0.099
-374.844	-61.621	-0.139	0.058
-373.829	97.630	-0.175	0.200
-372.815	-199.964	0.102	-0.001
-371.800	159.099	0.111	-0.154
-370.785	-70.412	-0.077	-0.029
-369.771	-78.395	0.146	-0.050
-368.756	261.025	0.229	-0.395
-367.742	-200.000	-0.002	0.049
-366.727	-200.000	-0.006	-0.181
-365.712	91.339	-0.362	0.405
-364.698	128.567	0.190	0.240
-363.683	-115.026	-0.252	0.048
-362.669	-80.221	0.238	0.079
-361.654	-200.000	-0.047	-0.371
-360.639	-87.284	-0.260	-0.079
-359.625	-89.064	0.151	0.044
-358.610	76.360	0.248	-0.261
-357.596	-163.482	0.227	0.011
-356.581	221.525	0.302	-0.482
-355.566	-200.000	-0.050	-0.222
-354.552	79.973	0.127	0.136
-353.537	-65.993	-0.385	0.153
-352.523	-28.296	0.281	-0.161
-351.508	472.721	0.081	0.182
-350.493	96.703	-0.098	-0.112
-349.479	-200.000	-0.047	-0.211
-348.464	49.376	0.119	-0.111
-347.450	154.136	-0.136	-0.185
-346.435	-200.000	0.066	-0.427
-345.420	33.390	-0.052	0.045
-344.406	-14.652	-0.285	0.182
-343.391	407.328	0.083	0.175
-342.377	-200.000	-0.074	0.338
-341.362	92.834	0.109	0.122
-340.348	800.000	-0.070	0.242
-339.333	317.058	0.041	-0.076
-338.318	21.444	0.223	-0.181
-337.304	15.369	-0.143	-0.112
-336.289	-158.505	0.140	-0.008
-335.275	-200.000	-0.008	0.270
-334.260	-123.394	0.177	-0.028
-333.245	-40.834	0.163	-0.084
-332.231	-133.551	-0.182	-0.023
-331.216	233.301	0.032	-0.052
-330.202	770.132	0.063	-0.169
-329.187	140.626	0.115	-0.152
-328.172	404.827	0.032	-0.066
-327.158	-51.793	0.213	-0.099
-326.143	-120.798	0.213	0.036
-325.129	150.246	-0.029	-0.039
-324.114	800.000	0.036	0.130
-323.099	-172.782	0.371	-0.012
-322.085	800.000	0.012	-0.050
-321.070	389.703	-0.057	0.118
-320.056	-40.466	-0.321	0.166
-319.041	-200.000	-0.010	-0.173
-318.026	-200.000	-0.028	0.230
-317.012	-137.264	-0.024	-0.003
-315.997	171.263	-0.109	-0.155
-314.983	-49.236	-0.038	0.018
-313.968	-141.671	0.041	0.004
-312.953	-150.848	-0.286	0.022
-311.939	240.625	-0.223	-0.369
-310.924	-134.368	0.389	0.047
-309.910	-200.000	0.011	-0.164
-308.895	-200.000	0.013	-0.246
-307.880	-200.000	-0.002	-0.148
-306.866	-17.878	0.156	0.097
-305.851	800.000	-0.042	-0.183
-304.837	-65.300	0.152	0.061
-303.822	299.611	0.186	-0.340
-302.807	-154.084	0.120	0.008
-301.793	800.000	-0.075	0.327
-300.778	800.000	0.054	-0.224
-299.764	800.000	0.009	-0.033
-298.749	-81.442	-0.227	-0.074
-297.735	30.051	0.153	0.130
-296.720	800.000	0.034	0.137
-295.705	393.913	0.034	0.071
-294.691	800.000	-0.150	-0.413
-293.676	2.026	-0.111	0.080
-292.662	241.832	-0.116	-0.193
-291.647	-200.000	0.019	0.321
-290.632	-134.309	-0.248	-0.030
-289.618	-200.000	-0.046	-0.226
-288.603	-26.866	-0.169	-0.098
-287.589	-200.000	0.001	0.082
-286.574	-168.908	-0.130	-0.005
-285.559	800.000	-0.047	-0.138
-284.545	-68.994	-0.368	-0.141
-283.530	-200.000	-0.005	0.162
-282.516	43.960	-0.185	0.168
-281.501	-177.945	0.104	0.002
-280.486	-81.075	-0.150	0.049
-279.472	-118.510	-0.087	-0.015
-278.457	225.851	0.121	-0.194
-277.443	-200.000	-0.020	-0.192
-276.428	434.719	-0.096	0.207
-275.413	-122.586	-0.080	0.013
-274.399	-121.169	0.420	-0.070
-273.384	-45.065	-0.236	-0.116
-272.370	368.738	-0.057	-0.114
-271.355	43.191	-0.099	0.090
-270.340	-200.000	0.007	0.089
-269.326	-200.000	-0.082	-0.408
-268.311	474.437	0.174	0.389
-267.297	800.000	-0.019	0.075
-266.282	-42.936	0.112	-0.056
-265.267	-79.903	-0.240	-0.080
-264.253	5.346	0.169	-0.123
-263.238	197.390	0.079	0.120
-262.224	-94.589	-0.191	-0.052
-261.209	-164.085	-0.283	0.013
-260.195	4.703	0.249	0.181
-259.180	-113.906	0.278	-0.053
-258.165	152.886	0.116	-0.157
-257.151	-200.000	0.023	-0.168
-256.136	-38.482	0.116	0.061
-255.122	441.921	0.076	-0.166
-254.107	-67.132	0.252	-0.098
-253.092	-58.383	-0.118	-0.051
-252.078	785.857	0.103	0.280
-251.063	-3.033	0.136	0.094
-250.049	556.964	0.092	0.219
-249.034	495.682	0.182	-0.414
-248.019	-118.668	-0.139	0.024
-247.005	312.676	0.253	0.471
-245.990	-8.913	-0.154	0.102
-244.976	129.321	0.151	0.191
-243.961	800.000	0.068	0.266
-242.946	-200.000	-0.045	0.208
-241.932	303.772	0.077	0.142
-240.917	-161.124	0.242	0.013
-239.903	239.082	-0.090	0.147
-238.888	-176.627	-0.213	-0.005
-237.873	543.253	0.057	0.135
-236.859	64.525	0.120	0.120
-235.844	-200.000	0.161	0.000
-234.830	289.691	0.087	-0.157
-233.815	654.920	-0.009	0.024
-232.800	180.130	0.062	-0.090
-231.786	-59.929	0.430	0.182
-230.771	195.119	-0.097	0.145
-229.757	186.673	0.129	-0.191
-228.742	-200.000	-0.014	0.256
-227.727	49.420	-0.104	-0.097
-226.713	800.000	-0.079	-0.335
-225.698	-59.012	-0.196	-0.084
-224.684	-46.959	0.136	-0.066
-223.669	-15.368	0.107	-0.068
-222.655	-103.952	-0.285	0.066
-221.640	-35.802	-0.120	0.064
-220.625	800.000	-0.073	0.250
-219.611	-100.424	0.326	0.080
-218.596	-61.014	0.187	0.078
-217.582	-27.072	-0.112	-0.065
-216.567	-72.962	0.226	-0.082
-215.552	-89.383	-0.140	-0.041
-214.538	-200.000	0.007	-0.461
-213.523	-41.027	0.162	0.083
-212.509	-94.144	-0.221	-0.060
-211.494	-200.000	-0.002	0.068
-210.479	497.015	-0.078	0.177
-209.465	132.560	-0.092	0.118
-208.450	289.845	0.024	0.044
-207.436	75.726	0.112	0.117
-206.421	800.000	-0.113	-0.407
-205.406	60.391	-0.171	0.167
-204.392	2.227	0.147	-0.105
-203.377	-200.000	-0.057	-0.321
-202.363	-83.791	-0.168	0.053
-201.348	176.142	-0.131	0.188
-200.333	7.317	0.233	0.172
-199.319	-140.939	-0.287	0.029
-198.304	-166.256	-0.364	-0.015
-197.290	800.000	0.035	0.109
-196.275	230.604	0.139	0.225
-195.260	-158.939	-0.056	0.003
-194.246	-133.315	-0.028	-0.003
-193.231	9.202	0.081	0.061
-192.217	-54.591	-0.184	-0.083
-191.202	-169.837	0.282	-0.010
-190.187	-138.400	-0.324	-0.035
-189.173	-80.342	0.147	0.048
-188.158	-43.988	-0.324	-0.161
-187.144	-37.810	0.319	-0.168
-186.129	-22.271	0.186	0.112
-185.114	133.946	-0.056	0.072
-184.100	467.856	0.052	-0.116
-183.085	800.000	0.085	0.284
-182.071	-90.153	-0.079	-0.023
-181.056	38.874	-0.158	0.140
-180.042	-124.512	-0.320	0.049
-179.027	-3.765	-0.153	-0.105
-178.012	458.041	0.163	0.358
-176.998	4.921	-0.357	-0.259
-175.983	-64.138	-0.072	-0.029
-174.969	-102.931	-0.289	-0.068
-173.954	-200.000	0.091	0.000
-172.939	-48.860	0.021	0.010
-171.925	446.602	-0.131	-0.284
-170.910	-200.000	-0.008	0.059
-169.896	-139.847	-0.443	0.046
-168.881	88.746	-0.136	-0.149
-167.866	-96.001	0.133	0.035
-166.852	-52.252	0.372	-0.170
-165.837	626.621	-0.147	0.367
-164.823	479.680	-0.078	0.175
-163.808	496.930	0.039	-0.090
-162.793	-114.457	-0.106	-0.020
-161.779	-22.002	0.234	-0.141
-160.764	-70.698	0.302	0.113
-159.750	-200.000	-0.007	-0.426
-158.735	354.540	-0.126	0.246
-157.720	17.502	-0.204	-0.160
-156.706	-143.835	-0.144	0.013
-155.691	-18.668	0.173	-0.106
-154.677	-200.000	-0.015	0.291
-153.662	88.541	-0.094	-0.103
-152.647	68.919	0.164	-0.167
-151.633	800.000	0.055	0.214
-150.618	14.958	0.083	0.064
-149.604	442.762	-0.112	-0.242
-148.589	-31.356	0.126	-0.070
-147.574	-47.854	0.204	0.098
-146.560	147.721	0.201	0.267
-145.545	-55.517	0.155	0.069
-144.531	-60.479	-0.238	0.100
-143.516	-137.963	0.149	-0.016
-142.502	800.000	0.050	0.197
-141.487	304.386	0.110	-0.202
-140.472	-200.000	0.019	-0.308
-139.458	62.536	-0.234	-0.230
-138.443	-42.314	-0.111	-0.056
-137.429	106.447	0.140	-0.164
-136.414	-43.734	0.183	0.091
-135.399	-150.171	0.199	0.015
-134.385	-45.227	-0.254	-0.125
-133.370	284.459	-0.133	-0.237
-132.356	-46.855	-0.144	-0.070
-131.341	483.231	0.122	0.274
-130.326	-79.072	0.332	0.111
-129.312	11.741	0.143	0.108
-128.297	172.195	0.169	0.240
-127.283	-200.000	-0.029	0.276
-126.268	400.291	0.044	-0.091
-125.253	0.031	0.153	-0.108
-124.239	800.000	-0.068	-0.229
-123.224	-200.000	-0.051	0.298
-122.210	-8.191	-0.278	-0.185
-121.195	-140.313	0.057	0.006
