DTS Sentinel unit serial number:	SN413079Multiplexer serial number:	ORYXHardware model number:	OX4-SRSoftware version number:	ORYX F/W v4.00 Oryx Data Collector v3.7.2.0data status	okinstallation	princeton_trtdifferential loss correction	single-endedforward channel	channel 3reverse channel	N/Adate	2019/09/19time	11:20:35forward acquisition time	60.00reverse acquisition time	0.00gamma	496.2192k internal	0.2341k external	0.2341temperature offset calibration	0.9984default loss term (dB/km)	0.3790temperature slope calibration	1.0000multiplexer offset coefficient	1.0000multiplexer slope coefficient	1.0000fibre end	0.00T internal ref (°C)	25.20T ext. ref 1 (°C)	0.78T ext. ref 2 (°C)	20.85length (m)	temperature (°C)	Stokes	anti-Stokes-747.200	-171.995	0.472	-0.015
-746.185	96.833	-0.132	-0.152
-745.171	-200.000	0.209	0.001
-744.156	-60.735	-0.155	0.066
-743.142	490.139	-0.078	0.180
-742.127	-85.870	-0.363	-0.113
-741.112	-51.955	0.138	0.064
-740.098	290.647	0.084	0.153
-739.083	-7.291	0.294	0.200
-738.069	-67.412	0.141	-0.055
-737.054	-44.071	-0.351	0.176
-736.039	31.815	-0.199	-0.171
-735.025	78.067	-0.232	0.248
-734.010	87.347	0.156	0.172
-732.996	-4.018	0.191	0.133
-731.981	5.422	0.284	-0.210
-730.966	-200.000	0.003	0.014
-729.952	182.938	-0.165	0.244
-728.937	800.000	-0.123	0.382
-727.923	0.255	0.178	0.127
-726.908	-108.949	-0.284	-0.061
-725.894	0.992	0.142	-0.102
-724.879	708.765	-0.109	-0.288
-723.864	-77.125	0.213	0.074
-722.850	-200.000	0.018	0.192
-721.835	800.000	0.098	-0.310
-720.821	-29.225	-0.055	-0.032
-719.806	-102.523	-0.217	0.052
-718.791	70.966	0.018	0.019
-717.777	284.330	-0.031	-0.055
-716.762	-48.396	-0.238	-0.115
-715.748	800.000	-0.033	-0.128
-714.733	16.824	0.140	-0.111
-713.718	-200.000	0.017	0.179
-712.704	800.000	0.066	0.205
-711.689	10.527	0.271	0.206
-710.675	684.388	-0.076	0.198
-709.660	-200.000	-0.028	-0.235
-708.645	-95.066	0.124	0.034
-707.631	-200.000	-0.027	-0.213
-706.616	315.968	0.155	-0.293
-705.602	-156.648	0.228	0.014
-704.587	165.792	-0.239	0.338
-703.572	-119.327	0.067	0.012
-702.558	-200.000	-0.009	0.275
-701.543	460.898	-0.184	0.410
-700.529	-8.452	0.085	0.057
-699.514	94.630	0.191	-0.217
-698.499	302.447	-0.128	-0.236
-697.485	-133.078	0.204	-0.026
-696.470	-200.000	-0.023	0.255
-695.456	47.272	0.149	0.139
-694.441	-108.957	-0.232	0.050
-693.426	-200.000	-0.063	0.285
-692.412	718.915	0.015	0.040
-691.397	-200.000	-0.038	0.166
-690.383	322.062	0.073	0.139
-689.368	75.549	0.144	0.152
-688.354	-200.000	0.015	-0.110
-687.339	22.378	0.044	-0.036
-686.324	-106.477	0.250	-0.056
-685.310	164.515	-0.220	-0.310
-684.295	91.852	0.123	0.139
-683.281	291.347	-0.185	-0.336
-682.266	800.000	-0.145	-0.509
-681.251	160.914	0.112	-0.157
-680.237	272.832	-0.039	0.069
-679.222	222.624	0.115	0.185
-678.208	800.000	-0.078	-0.330
-677.193	-68.709	-0.280	-0.108
-676.178	19.866	0.254	0.205
-675.164	-132.976	-0.372	-0.047
-674.149	-78.383	-0.261	-0.089
-673.135	61.086	0.315	-0.312
-672.120	544.431	-0.038	-0.091
-671.105	-200.000	0.020	-0.197
-670.091	-84.048	0.349	-0.111
-669.076	-5.634	0.359	0.246
-668.062	-54.771	-0.145	-0.065
-667.047	-124.570	0.279	-0.043
-666.032	-70.133	0.076	0.029
-665.018	800.000	-0.147	0.422
-664.003	-117.606	0.218	-0.039
-662.989	425.121	-0.078	-0.167
-661.974	-200.000	0.064	0.565
-660.959	-200.000	-0.044	-0.264
-659.945	257.778	-0.053	-0.091
-658.930	221.710	-0.079	0.128
-657.916	800.000	0.031	-0.088
-656.901	80.204	0.196	-0.211
-655.886	277.449	0.046	-0.083
-654.872	131.358	-0.201	0.258
-653.857	431.281	0.051	-0.111
-652.843	0.257	0.311	-0.221
-651.828	-75.523	0.081	0.029
-650.814	-200.000	-0.037	0.197
-649.799	616.753	-0.066	0.164
-648.784	-170.442	0.374	-0.013
-647.770	794.879	-0.067	0.183
-646.755	800.000	-0.139	-0.418
-645.741	36.380	-0.094	-0.082
-644.726	-20.374	0.131	-0.080
-643.711	-83.619	-0.496	-0.158
-642.697	21.965	-0.132	0.108
-641.682	-32.347	0.197	0.110
-640.668	-200.000	0.005	0.359
-639.653	-125.871	0.245	-0.037
-638.638	-200.000	-0.013	-0.297
-637.624	-107.476	0.180	0.039
-636.609	33.589	0.036	0.031
-635.595	177.821	0.169	-0.245
-634.580	284.415	-0.176	-0.315
-633.565	-164.396	-0.237	0.011
-632.551	180.017	-0.103	0.151
-631.536	-43.844	-0.269	0.135
-630.522	346.598	-0.088	-0.173
-629.507	-200.000	0.036	-0.259
-628.492	173.548	-0.024	-0.034
-627.478	71.468	0.199	0.206
-626.463	800.000	-0.107	-0.323
-625.449	-7.454	-0.346	-0.234
-624.434	-200.000	0.014	-0.120
-623.419	-114.193	0.079	0.015
-622.405	-34.269	0.122	-0.067
-621.390	225.061	-0.104	-0.168
-620.376	36.412	0.073	-0.064
-619.361	119.593	-0.141	-0.174
-618.346	292.592	-0.087	-0.158
-617.332	800.000	-0.111	0.338
-616.317	-56.028	0.284	-0.126
-615.303	-200.000	0.051	0.278
-614.288	-200.000	-0.057	0.615
-613.273	-43.436	0.214	-0.108
-612.259	291.120	-0.082	0.148
-611.244	388.932	-0.074	0.153
-610.230	800.000	-0.039	0.109
-609.215	65.416	-0.154	0.155
-608.201	-48.562	-0.033	0.016
-607.186	-183.620	0.206	0.004
-606.171	-115.545	-0.382	0.072
-605.157	171.442	0.189	-0.271
-604.142	-55.279	-0.332	-0.149
-603.128	-40.406	-0.398	0.206
-602.113	-33.121	0.061	-0.034
-601.098	71.389	0.220	0.227
-600.084	-69.105	0.171	0.066
-599.069	95.992	-0.220	-0.250
-598.055	-115.556	-0.410	-0.077
-597.040	-200.000	0.047	-0.268
-596.025	171.762	0.140	0.201
-595.011	-101.148	0.131	-0.032
-593.996	-33.419	-0.232	-0.128
-592.982	-200.000	0.109	0.533
-591.967	261.948	0.048	0.082
-590.952	-150.940	-0.429	-0.032
-589.938	800.000	-0.076	-0.241
-588.923	-124.531	0.221	0.034
-587.909	800.000	-0.119	0.400
-586.894	-143.866	-0.216	0.020
-585.879	127.124	0.175	-0.221
-584.865	-38.686	-0.158	0.083
-583.850	296.595	0.074	0.135
-582.836	-200.000	0.011	0.111
-581.821	64.086	-0.079	-0.079
-580.806	83.133	-0.075	-0.082
-579.792	-68.851	-0.364	-0.140
-578.777	6.482	-0.182	0.135
-577.763	800.000	-0.038	-0.142
-576.748	141.529	-0.240	-0.316
-575.733	-93.025	0.131	-0.036
-574.719	-129.761	0.383	-0.052
-573.704	-18.057	-0.052	0.032
-572.690	415.348	-0.118	-0.251
-571.675	274.727	0.062	-0.110
-570.661	48.267	0.064	0.059
-569.646	107.674	0.080	0.095
-568.631	13.298	0.107	0.083
-567.617	-80.157	-0.082	0.027
-566.602	-147.418	0.256	-0.022
-565.588	138.189	-0.058	0.076
-564.573	-200.000	0.038	0.328
-563.558	-121.559	0.237	0.039
-562.544	800.000	-0.064	-0.211
-561.529	800.000	-0.099	0.283
-560.515	-200.000	0.008	0.379
-559.500	-15.836	0.030	0.019
-558.485	656.708	-0.091	0.233
-557.471	621.409	0.124	0.310
-556.456	-54.298	0.122	0.055
-555.442	522.463	-0.168	-0.392
-554.427	-200.000	0.008	-0.159
-553.412	365.181	-0.143	-0.287
-552.398	-200.000	0.033	-0.329
-551.383	-49.207	-0.246	-0.117
-550.369	-106.637	0.240	-0.053
-549.354	-24.475	-0.024	0.014
-548.339	-185.547	0.174	0.003
-547.325	-1.483	-0.064	0.045
-546.310	-75.078	0.055	-0.019
-545.296	-87.746	0.386	0.116
-544.281	-86.430	0.125	-0.038
-543.266	-200.000	-0.006	-0.193
-542.252	-19.132	0.220	0.136
-541.237	59.050	-0.068	-0.067
-540.223	52.546	-0.220	0.209
-539.208	136.124	-0.109	-0.142
-538.193	-58.255	0.417	0.180
-537.179	98.557	-0.185	-0.212
-536.164	141.148	0.046	0.061
-535.150	-11.631	-0.113	0.074
-534.135	288.525	-0.085	-0.153
-533.121	736.370	0.033	-0.089
-532.106	-200.000	0.031	-0.273
-531.091	800.000	-0.022	0.096
-530.077	30.091	-0.409	-0.346
-529.062	800.000	-0.053	-0.227
-528.048	-91.732	-0.140	-0.040
-527.033	-182.894	-0.158	0.003
-526.018	-200.000	-0.002	-0.246
-525.004	112.789	-0.013	0.016
-523.989	800.000	0.058	-0.187
-522.975	-55.569	-0.167	0.074
-521.960	800.000	-0.129	0.360
-520.945	53.340	0.154	0.147
-519.931	-37.251	0.216	0.115
-518.916	-125.124	-0.315	-0.048
-517.902	-200.000	-0.045	-0.436
-516.887	49.929	-0.326	0.306
-515.872	-124.157	-0.284	-0.044
-514.858	800.000	-0.051	0.163
-513.843	800.000	0.137	-0.406
-512.829	548.279	0.024	-0.057
-511.814	-171.218	0.247	0.008
-510.799	-120.722	0.179	-0.030
-509.785	-200.000	0.054	0.465
-508.770	383.309	0.126	-0.257
-507.756	800.000	-0.022	-0.070
-506.741	800.000	0.064	0.203
-505.726	237.529	0.038	-0.062
-504.712	-146.127	0.122	-0.011
-503.697	800.000	-0.067	0.237
-502.683	17.411	0.060	-0.048
-501.668	217.346	-0.115	-0.182
-500.653	120.908	-0.121	-0.149
-499.639	-200.000	-0.031	-0.249
-498.624	460.063	-0.070	-0.154
-497.610	-83.998	-0.191	-0.060
-496.595	322.672	0.133	-0.251
-495.581	0.016	-0.170	-0.120
-494.566	44.495	-0.044	0.040
-493.551	-37.664	-0.168	-0.089
-492.537	278.611	-0.104	0.184
-491.522	528.271	-0.040	-0.094
-490.508	800.000	-0.020	0.057
-489.493	-30.652	0.203	-0.114
-488.478	-67.394	-0.348	-0.136
-487.464	800.000	-0.128	0.404
-486.449	637.995	0.065	0.165
-485.435	-17.497	0.160	-0.100
-484.420	-67.943	0.109	-0.042
-483.405	-70.969	0.426	-0.159
-482.391	639.808	0.055	-0.140
-481.376	59.712	-0.064	0.062
-480.362	-145.885	0.106	0.009
-479.347	-200.000	0.047	0.358
-478.332	-26.476	0.268	0.156
-477.318	-11.802	-0.095	-0.062
-476.303	454.329	-0.083	0.182
-475.289	66.112	0.179	0.181
-474.274	223.417	0.243	0.388
-473.259	108.967	-0.026	0.031
-472.245	-119.035	-0.385	-0.067
-471.230	38.999	0.288	-0.255
-470.216	-96.053	-0.324	0.086
-469.201	249.412	0.188	0.317
-468.186	63.949	0.040	-0.040
-467.172	-193.251	-0.131	0.001
-466.157	-141.280	0.169	0.017
-465.143	800.000	0.049	-0.194
-464.128	800.000	-0.009	0.032
-463.113	170.766	0.070	0.099
-462.099	-36.915	0.041	0.022
-461.084	-200.000	-0.019	0.451
-460.070	-169.874	-0.606	0.022
-459.055	757.737	-0.058	-0.155
-458.040	-200.000	0.023	0.328
-457.026	-200.000	-0.008	-0.155
-456.011	-200.000	0.096	-0.535
-454.997	465.823	0.030	-0.067
-453.982	-9.525	-0.198	-0.131
-452.968	543.482	0.147	0.348
-451.953	-121.988	0.177	-0.029
-450.938	91.127	0.143	-0.159
-449.924	74.705	-0.158	0.165
-448.909	800.000	-0.044	-0.124
-447.895	-18.356	0.321	-0.199
-446.880	252.918	-0.180	0.305
-445.865	-127.289	-0.389	-0.056
-444.851	-74.196	0.103	0.037
-443.836	176.981	-0.096	-0.138
-442.822	253.930	0.020	0.034
-441.807	237.662	0.127	-0.209
-440.792	-41.826	-0.083	-0.042
-439.778	-151.357	-0.191	0.014
-438.763	800.000	-0.087	0.255
-437.749	-200.000	-0.005	-0.080
-436.734	-116.225	-0.288	0.053
-435.719	112.911	-0.041	0.049
-434.705	115.814	0.173	0.209
-433.690	-132.147	0.321	0.041
-432.676	-51.656	0.078	-0.036
-431.661	333.260	-0.170	-0.326
-430.646	800.000	-0.097	-0.303
-429.632	-200.000	-0.003	-0.271
-428.617	-130.768	0.280	0.037
-427.603	-57.117	0.298	0.130
-426.588	57.199	-0.061	0.059
-425.573	691.772	0.034	0.089
-424.559	220.336	-0.178	0.282
-423.544	23.739	0.202	-0.165
-422.530	800.000	0.072	0.216
-421.515	800.000	-0.090	0.252
-420.500	175.457	0.036	0.052
-419.486	-200.000	-0.035	0.404
-418.471	-24.496	0.294	-0.173
-417.457	-26.215	0.150	-0.087
-416.442	-149.194	0.165	0.013
-415.428	2.694	-0.315	0.226
-414.413	-150.265	-0.155	0.012
-413.398	181.941	0.196	-0.286
-412.384	800.000	-0.084	0.304
-411.369	256.206	0.116	0.197
-410.355	48.510	-0.149	-0.138
-409.340	-47.595	0.119	-0.057
-408.325	-49.811	0.284	0.133
-407.311	-0.816	-0.092	0.064
-406.296	744.472	0.066	-0.176
-405.282	13.340	0.316	0.242
-404.267	122.520	-0.073	-0.090
-403.252	-67.105	-0.168	0.066
-402.238	-156.861	-0.332	0.020
-401.223	111.792	-0.150	-0.179
-400.209	-74.530	-0.302	-0.107
-399.194	-200.000	0.005	0.321
-398.179	196.030	-0.143	-0.215
-397.165	601.672	0.089	-0.218
-396.150	-152.642	-0.292	0.021
-395.136	48.495	0.198	0.183
-394.121	-20.944	-0.174	-0.106
-393.106	551.500	-0.179	-0.423
-392.092	220.422	0.095	0.150
-391.077	149.537	0.202	0.271
-390.063	576.963	0.041	0.098
-389.048	-52.293	0.294	-0.135
-388.033	-152.872	-0.343	0.024
-387.019	102.047	-0.404	0.466
-386.004	-200.000	0.004	-0.018
-384.990	204.158	-0.031	0.047
-383.975	204.923	0.110	0.168
-382.960	-200.000	-0.020	-0.112
-381.946	11.201	0.106	-0.080
-380.931	722.037	-0.132	0.347
-379.917	-134.444	0.292	0.035
-378.902	364.487	-0.181	0.360
-377.888	800.000	-0.081	-0.229
-376.873	96.135	0.029	0.033
-375.858	-116.951	-0.571	-0.103
-374.844	794.561	0.102	-0.278
-373.829	800.000	-0.054	0.182
-372.815	-32.024	0.114	0.063
-371.800	133.674	-0.149	0.190
-370.785	-98.140	0.375	-0.095
-369.771	-106.267	-0.121	0.027
-368.756	73.670	0.117	0.121
-367.742	223.861	-0.137	-0.218
-366.727	-166.396	-0.125	-0.005
-365.712	-75.734	-0.102	-0.036
-364.698	-139.749	-0.052	0.005
-363.683	54.220	0.187	-0.177
-362.669	-113.285	0.305	0.059
-361.654	800.000	0.062	-0.199
-360.639	-50.141	0.125	-0.058
-359.625	-200.000	-0.002	0.295
-358.610	-52.456	0.410	0.187
-357.596	553.695	0.090	0.214
-356.581	800.000	-0.107	-0.417
-355.566	-200.000	0.046	-0.281
-354.552	18.226	-0.301	-0.237
-353.537	-69.261	-0.360	-0.137
-352.523	800.000	-0.021	0.071
-351.508	6.364	0.246	0.180
-350.493	580.766	-0.026	-0.063
-349.479	163.599	0.315	0.438
-348.464	81.127	0.123	0.131
-347.450	476.556	-0.107	-0.238
-346.435	112.521	-0.062	-0.074
-345.420	800.000	-0.065	0.246
-344.406	464.541	0.098	-0.215
-343.391	-200.000	0.007	-0.185
-342.377	33.969	0.053	-0.045
-341.362	50.230	0.093	-0.087
-340.348	13.761	-0.186	-0.142
-339.333	25.874	-0.116	-0.095
-338.318	-22.973	0.222	-0.132
-337.304	-164.031	0.267	-0.012
-336.289	-200.000	-0.015	0.278
-335.275	-86.892	-0.280	0.084
-334.260	94.918	0.107	0.120
-333.245	-150.769	-0.056	-0.004
-332.231	99.388	-0.075	-0.086
-331.216	13.689	-0.150	0.115
-330.202	-200.000	0.083	0.417
-329.187	20.027	-0.077	-0.061
-328.172	800.000	0.056	-0.154
-327.158	-83.694	0.413	-0.130
-326.143	800.000	0.046	-0.189
-325.129	-108.245	0.517	-0.110
-324.114	-144.389	0.175	0.016
-323.099	-159.636	-0.342	0.019
-322.085	60.397	-0.189	-0.184
-321.070	-200.000	0.020	-0.349
-320.056	171.875	0.137	-0.195
-319.041	-35.232	-0.226	-0.121
-318.026	38.204	-0.261	-0.229
-317.012	4.869	0.265	-0.192
-315.997	307.539	0.089	-0.164
-314.983	674.212	-0.090	-0.231
-313.968	422.839	0.166	-0.352
-312.953	311.032	0.153	-0.283
-311.939	6.969	0.166	0.122
-310.924	135.038	-0.145	-0.186
-309.910	-85.897	-0.208	-0.063
-308.895	667.261	-0.042	0.106
-307.880	169.180	-0.233	0.328
-306.866	-131.226	-0.255	-0.033
-305.851	-200.000	0.028	-0.389
-304.837	-200.000	0.037	-0.283
-303.822	800.000	0.025	0.096
-302.807	-100.133	-0.242	-0.059
-301.793	-70.064	0.091	-0.034
-300.778	-200.000	-0.019	0.155
-299.764	157.992	0.086	0.117
-298.749	-134.967	0.060	-0.007
-297.735	142.997	0.265	0.347
-296.720	-142.065	0.072	-0.007
-295.705	800.000	-0.035	-0.123
-294.691	800.000	-0.026	0.096
-293.676	105.081	0.163	0.189
-292.662	-200.000	-0.019	-0.111
-291.647	8.975	-0.217	-0.161
-290.632	-133.233	-0.229	0.028
-289.618	-111.768	-0.128	-0.026
-288.603	800.000	-0.093	-0.283
-287.589	800.000	-0.108	0.299
-286.574	-200.000	0.051	0.366
-285.559	-200.000	-0.016	0.190
-284.545	26.849	0.105	0.087
-283.530	800.000	0.062	0.258
-282.516	-200.000	0.067	0.474
-281.501	-27.022	-0.203	-0.117
-280.486	369.552	-0.076	0.151
-279.472	-30.957	-0.137	0.076
-278.457	-171.838	0.363	0.012
-277.443	-200.000	0.025	0.117
-276.428	-2.829	0.278	-0.191
-275.413	800.000	0.038	0.145
-274.399	99.248	0.190	0.216
-273.384	-26.285	-0.115	0.066
-272.370	463.042	0.069	0.152
-271.355	-200.000	0.022	-0.221
-270.340	322.836	0.124	0.232
-269.326	800.000	0.058	-0.243
-268.311	136.254	0.206	0.265
-267.297	-200.000	-0.017	0.117
-266.282	429.127	-0.041	-0.087
-265.267	-200.000	-0.002	0.169
-264.253	191.970	0.203	-0.301
-263.238	5.619	0.286	-0.208
-262.224	70.093	-0.177	0.179
-261.209	526.152	-0.128	0.296
-260.195	-5.130	-0.180	0.121
-259.180	78.352	0.209	0.219
-258.165	-200.000	0.053	-0.475
-257.151	-119.716	0.165	0.028
-256.136	-19.110	0.303	-0.185
-255.122	102.018	0.114	0.131
-254.107	-88.555	0.103	-0.030
-253.092	322.946	-0.051	0.095
-252.078	-200.000	0.026	-0.199
-251.063	-200.000	-0.011	-0.176
-250.049	-200.000	0.036	0.165
-249.034	-200.000	-0.004	0.121
-248.019	-84.343	-0.327	-0.102
-247.005	800.000	-0.037	-0.134
-245.990	-200.000	0.025	0.199
-244.976	-50.431	-0.218	0.101
-243.961	-130.579	0.192	0.025
-242.946	800.000	0.049	-0.156
-241.932	667.439	0.077	0.197
-240.917	431.838	0.226	-0.482
-239.903	800.000	-0.077	0.322
-238.888	-152.743	-0.030	-0.002
-237.873	317.965	0.086	0.160
-236.859	-61.661	-0.143	0.059
-235.844	-143.700	-0.205	0.019
-234.830	116.224	0.106	0.128
-233.815	63.451	-0.194	0.191
-232.800	-2.877	-0.245	-0.168
-231.786	-121.428	-0.116	-0.019
-230.771	236.985	-0.078	-0.126
-229.757	395.071	-0.139	-0.285
-228.742	46.014	0.158	-0.144
-227.727	-110.800	0.138	0.028
-226.713	119.978	0.092	0.112
-225.698	-47.887	0.222	0.106
-224.684	-182.180	-0.121	-0.002
-223.669	39.437	-0.114	0.100
-222.655	800.000	-0.050	-0.145
-221.640	-200.000	0.009	0.249
-220.625	-33.796	0.380	0.206
-219.611	211.500	0.076	-0.118
-218.596	-130.686	-0.118	0.016
-217.582	-200.000	0.058	0.272
-216.567	-192.544	0.162	-0.001
-215.552	213.139	-0.084	0.130
-214.538	800.000	-0.032	0.126
-213.523	736.064	0.113	0.297
-212.509	566.578	0.035	-0.083
-211.494	353.960	0.081	-0.158
-210.479	-26.741	-0.220	0.126
-209.465	429.253	-0.042	0.088
-208.450	-68.442	0.204	-0.078
-207.436	-200.000	0.019	-0.114
-206.421	336.602	-0.133	0.254
-205.406	-200.000	0.033	0.238
-204.392	241.174	-0.167	0.273
-203.377	169.049	-0.143	0.201
-202.363	11.823	-0.135	-0.102
-201.348	67.543	0.140	0.140
-200.333	-19.513	0.320	0.194
-199.319	-79.258	-0.279	0.093
-198.304	-200.000	0.027	-0.158
-197.290	653.046	0.025	-0.062
-196.275	800.000	-0.054	0.161
-195.260	800.000	-0.092	-0.345
-194.246	-75.779	0.049	0.017
-193.231	800.000	-0.015	0.064
-192.217	68.881	0.109	0.109
-191.202	-54.347	0.170	0.076
-190.187	-80.479	-0.165	0.054
-189.173	-48.916	-0.339	0.159
-188.158	800.000	0.068	-0.253
-187.144	-72.510	0.195	0.071
-186.129	-162.575	0.200	-0.010
-185.114	-200.000	0.114	-0.525
-184.100	174.116	0.143	-0.203
-183.085	15.795	-0.194	-0.150
-182.071	213.246	-0.018	-0.028
-181.056	-24.424	-0.090	-0.052
-180.042	-43.002	0.131	-0.065
-179.027	800.000	-0.193	-0.627
-178.012	267.067	0.143	0.244
-176.998	-52.692	0.231	-0.104
-175.983	17.466	-0.232	-0.181
-174.969	-120.999	-0.140	0.023
-173.954	-49.921	0.120	0.056
-172.939	-92.872	0.391	0.107
-171.925	-92.937	0.394	-0.108
-170.910	106.928	0.124	-0.144
-169.896	-64.305	0.124	0.049
-168.881	-143.964	-0.189	-0.017
-167.866	-200.000	-0.015	-0.180
-166.852	-152.468	-0.331	0.023
-165.837	743.893	0.111	0.292
-164.823	312.645	0.056	-0.102
-163.808	405.034	0.124	0.257
-162.793	-200.000	-0.006	0.081
-161.779	260.339	-0.016	0.027
-160.764	-27.065	0.092	0.053
-159.750	415.478	0.129	0.270
-158.735	636.048	0.075	-0.186
-157.720	-200.000	-0.023	-0.137
-156.706	-86.263	0.301	-0.091
-155.691	-108.272	0.249	-0.053
-154.677	319.135	0.123	-0.228
-153.662	-126.011	-0.181	-0.027
-152.647	-21.136	0.072	-0.043
-151.633	-148.797	-0.358	0.028
-150.618	197.796	0.151	0.226
-149.604	-63.173	-0.270	-0.109
-148.589	115.803	-0.121	0.145
-147.574	-146.313	-0.360	-0.031
-146.560	800.000	-0.150	-0.487
-145.545	377.645	0.042	-0.083
-144.531	478.621	-0.156	0.345
-143.516	249.560	-0.151	-0.251
-142.502	-44.271	0.187	0.092
-141.487	-74.732	-0.057	0.020
-140.472	-19.023	0.021	0.013
-139.458	557.911	0.024	-0.056
-138.443	-119.175	0.214	0.036
-137.429	-62.834	0.277	-0.112
-136.414	-31.366	0.256	0.141
-135.399	-176.373	0.105	-0.003
-134.385	-84.626	0.259	0.080
-133.370	61.772	-0.202	0.197
-132.356	-124.004	0.283	-0.044
-131.341	-68.988	0.254	0.096
-130.326	-200.000	0.342	0.001
-129.312	-106.688	-0.346	-0.075
-128.297	248.446	0.120	-0.199
-127.283	-200.000	0.002	-0.098
-126.268	-115.684	0.139	0.025
-125.253	-200.000	-0.015	0.228
-124.239	800.000	-0.054	-0.209
-123.224	129.437	-0.214	0.268
-122.210	-200.000	0.080	0.549
-121.195	-149.808	0.436	-0.033
