DTS Sentinel unit serial number:	SN413079Multiplexer serial number:	ORYXHardware model number:	OX4-SRSoftware version number:	ORYX F/W v4.00 Oryx Data Collector v3.7.2.0data status	okinstallation	princeton_trtdifferential loss correction	single-endedforward channel	channel 3reverse channel	N/Adate	2019/09/17time	05:48:34forward acquisition time	60.00reverse acquisition time	0.00gamma	496.2192k internal	0.2327k external	0.2327temperature offset calibration	0.9942default loss term (dB/km)	0.3790temperature slope calibration	1.0000multiplexer offset coefficient	1.0000multiplexer slope coefficient	1.0000fibre end	0.00T internal ref (°C)	29.00T ext. ref 1 (°C)	0.14T ext. ref 2 (°C)	22.77length (m)	temperature (°C)	Stokes	anti-Stokes-747.200	24.858	-0.251	0.209
-746.185	-200.000	0.036	0.439
-745.171	76.617	0.205	0.219
-744.156	-129.263	-0.110	0.015
-743.142	144.676	-0.188	-0.254
-742.127	-23.187	-0.089	0.054
-741.112	37.087	0.126	0.112
-740.098	-200.000	-0.046	0.340
-739.083	-110.378	-0.137	-0.029
-738.069	104.178	-0.255	0.302
-737.054	-67.680	-0.224	0.088
-736.039	-26.183	-0.238	-0.141
-735.025	-83.477	0.555	-0.179
-734.010	200.774	-0.146	-0.226
-732.996	65.811	-0.298	-0.305
-731.981	-71.120	0.544	0.206
-730.966	-80.949	-0.300	-0.100
-729.952	-98.501	0.223	-0.058
-728.937	-200.000	-0.016	-0.137
-727.923	-200.000	-0.019	0.095
-726.908	69.245	-0.206	0.213
-725.894	648.808	-0.060	-0.155
-724.879	36.341	-0.330	-0.293
-723.864	79.671	-0.117	-0.127
-722.850	-115.282	-0.088	-0.017
-721.835	778.810	-0.028	0.077
-720.821	127.694	-0.321	-0.410
-719.806	800.000	-0.089	0.283
-718.791	-66.989	0.096	0.038
-717.777	794.001	0.152	-0.420
-716.762	26.707	-0.063	-0.053
-715.748	800.000	-0.092	0.314
-714.733	5.042	0.234	-0.174
-713.718	-159.277	-0.320	-0.018
-712.704	-44.453	-0.173	0.087
-711.689	800.000	-0.034	0.145
-710.675	88.135	-0.040	0.045
-709.660	-76.403	0.014	-0.005
-708.645	-134.269	-0.324	-0.040
-707.631	-200.000	-0.012	-0.246
-706.616	-114.707	0.261	-0.050
-705.602	800.000	0.156	-0.442
-704.587	2.622	0.039	-0.028
-703.572	-62.428	-0.013	-0.006
-702.558	-27.279	0.293	0.172
-701.543	101.142	0.105	-0.123
-700.529	1.907	0.253	-0.184
-699.514	86.381	-0.192	0.212
-698.499	149.419	0.107	0.146
-697.485	632.655	0.007	-0.018
-696.470	-30.916	-0.151	-0.086
-695.456	155.424	-0.103	-0.143
-694.441	-22.337	0.286	-0.175
-693.426	-3.153	-0.131	-0.092
-692.412	-3.566	0.013	0.009
-691.397	-200.000	-0.026	0.150
-690.383	281.020	0.082	0.148
-689.368	76.596	-0.143	-0.152
-688.354	150.857	-0.094	-0.129
-687.339	327.156	-0.176	0.339
-686.324	-171.605	-0.274	-0.009
-685.310	-159.659	-0.262	-0.015
-684.295	221.000	-0.061	-0.099
-683.281	-15.544	-0.034	-0.022
-682.266	1.595	-0.251	-0.182
-681.251	800.000	-0.055	-0.179
-680.237	-139.054	0.345	0.038
-679.222	-200.000	0.026	0.191
-678.208	253.748	-0.098	0.169
-677.193	-103.915	-0.303	-0.071
-676.178	227.410	-0.212	-0.346
-675.164	-3.358	-0.299	-0.209
-674.149	-200.000	-0.004	-0.121
-673.135	368.966	0.014	0.028
-672.120	-118.874	-0.118	0.021
-671.105	414.594	0.059	-0.127
-670.091	401.582	0.102	-0.215
-669.076	-39.213	0.136	0.072
-668.062	-200.000	-0.668	0.003
-667.047	800.000	0.043	0.156
-666.032	-78.672	-0.261	-0.090
-665.018	277.883	0.073	-0.131
-664.003	800.000	0.156	-0.493
-662.989	18.977	-0.188	0.152
-661.974	-119.747	0.172	0.030
-660.959	22.299	0.173	-0.142
-659.945	800.000	0.018	-0.079
-658.930	19.682	0.116	-0.094
-657.916	-110.802	-0.182	0.038
-656.901	51.158	-0.314	0.299
-655.886	140.740	-0.069	-0.092
-654.872	120.112	0.152	-0.190
-653.857	51.545	0.093	0.089
-652.843	-50.567	-0.243	-0.115
-651.828	40.404	-0.085	-0.077
-650.814	-200.000	0.006	-0.132
-649.799	800.000	-0.087	0.281
-648.784	-200.000	-0.000	-0.203
-647.770	-200.000	-0.014	-0.185
-646.755	116.890	-0.212	-0.261
-645.741	99.037	-0.073	-0.085
-644.726	-86.717	0.119	0.037
-643.711	-167.482	-0.267	-0.011
-642.697	-82.044	-0.129	0.042
-641.682	61.431	-0.252	0.252
-640.668	-142.939	0.268	0.026
-639.653	-75.240	-0.188	-0.068
-638.638	178.913	-0.168	-0.247
-637.624	100.978	0.140	-0.163
-636.609	-130.953	0.178	-0.024
-635.595	705.952	-0.028	-0.075
-634.580	800.000	-0.065	-0.193
-633.565	-9.213	-0.011	-0.007
-632.551	-200.000	0.181	0.001
-631.536	-200.000	-0.375	0.001
-630.522	800.000	0.057	0.218
-629.507	716.165	0.111	-0.296
-628.492	666.054	0.104	-0.270
-627.478	181.328	-0.300	-0.443
-626.463	-69.319	-0.337	-0.130
-625.449	229.636	0.160	-0.262
-624.434	-200.000	-0.006	-0.039
-623.419	14.617	0.077	-0.061
-622.405	-200.000	-0.035	-0.264
-621.390	-34.702	-0.031	0.017
-620.376	-112.557	0.027	0.005
-619.361	337.632	0.231	0.450
-618.346	-200.000	0.001	-0.332
-617.332	-34.631	-0.248	-0.136
-616.317	264.603	-0.015	-0.027
-615.303	174.454	-0.226	-0.328
-614.288	800.000	-0.089	-0.299
-613.273	46.142	-0.059	0.055
-612.259	-135.124	-0.295	0.036
-611.244	59.196	0.172	-0.170
-610.230	-33.989	-0.169	0.093
-609.215	-200.000	-0.070	0.545
-608.201	800.000	0.062	0.215
-607.186	320.153	0.118	0.224
-606.171	-58.691	0.118	0.051
-605.157	800.000	0.143	0.442
-604.142	328.789	-0.055	-0.106
-603.128	-96.125	-0.280	0.075
-602.113	-83.600	0.103	0.033
-601.098	521.130	-0.120	-0.282
-600.084	-0.763	-0.179	-0.127
-599.069	14.068	-0.086	-0.067
-598.055	-5.328	-0.396	0.273
-597.040	-200.000	-0.017	0.124
-596.025	301.528	-0.107	0.198
-595.011	142.454	-0.167	-0.223
-593.996	-200.000	0.030	0.230
-592.982	-137.980	0.193	0.022
-591.967	-40.099	-0.351	-0.183
-590.952	496.752	0.104	-0.240
-589.938	79.597	0.364	-0.392
-588.923	-58.609	-0.110	-0.048
-587.909	107.325	-0.318	-0.379
-586.894	-80.999	-0.317	0.105
-585.879	150.231	-0.200	-0.272
-584.865	-120.402	-0.300	-0.051
-583.850	800.000	-0.022	0.066
-582.836	402.258	0.065	-0.137
-581.821	31.684	0.305	-0.263
-580.806	72.077	0.075	0.078
-579.792	7.127	0.077	0.057
-578.777	-4.345	0.046	-0.032
-577.763	-74.652	-0.104	-0.037
-576.748	-200.000	-0.004	-0.305
-575.733	-61.111	0.154	0.065
-574.719	-9.297	0.270	0.180
-573.704	-200.000	-0.043	0.383
-572.690	25.307	0.243	0.203
-571.675	-5.727	-0.024	0.016
-570.661	-168.204	0.297	0.012
-569.646	96.193	-0.139	-0.159
-568.631	-132.835	-0.107	-0.014
-567.617	-94.474	-0.389	0.106
-566.602	-155.665	0.207	0.013
-565.588	-49.578	0.163	-0.078
-564.573	-36.031	-0.349	-0.189
-563.558	-1.352	0.162	0.114
-562.544	199.914	0.036	-0.056
-561.529	800.000	-0.057	-0.211
-560.515	-98.803	0.233	0.059
-559.500	-200.000	-0.016	-0.349
-558.485	245.846	0.052	0.088
-557.471	390.051	0.122	0.254
-556.456	184.646	0.243	-0.360
-555.442	-47.787	-0.195	-0.095
-554.427	270.370	0.142	-0.249
-553.412	4.422	-0.152	-0.112
-552.398	215.670	0.111	-0.176
-551.383	11.676	-0.028	-0.021
-550.369	-127.653	-0.300	-0.044
-549.354	800.000	-0.033	0.142
-548.339	56.109	-0.190	-0.185
-547.325	19.199	0.042	-0.034
-546.310	-9.581	-0.076	0.051
-545.296	800.000	0.016	-0.065
-544.281	-200.000	-0.057	-0.258
-543.266	-200.000	-0.008	0.092
-542.252	-200.000	0.030	-0.290
-541.237	-200.000	0.010	-0.190
-540.223	800.000	-0.071	-0.288
-539.208	-77.607	-0.225	-0.078
-538.193	-97.876	0.176	0.045
-537.179	-92.503	0.160	0.045
-536.164	-109.998	-0.130	-0.027
-535.150	-200.000	0.003	0.202
-534.135	-44.005	-0.209	0.105
-533.121	-66.613	0.280	0.111
-532.106	-200.000	0.039	0.549
-531.091	-72.380	0.301	-0.111
-530.077	-31.955	-0.175	-0.098
-529.062	-200.000	0.005	-0.323
-528.048	-7.622	0.330	-0.223
-527.033	564.870	-0.079	0.191
-526.018	-200.000	0.047	0.289
-525.004	40.346	-0.245	-0.220
-523.989	-166.675	-0.198	-0.008
-522.975	-200.000	0.045	-0.242
-521.960	800.000	-0.054	-0.168
-520.945	459.464	-0.084	-0.188
-519.931	35.981	-0.232	-0.204
-518.916	-14.614	-0.020	0.013
-517.902	-22.945	-0.041	-0.025
-516.887	5.672	-0.257	-0.190
-515.872	-44.420	0.278	-0.139
-514.858	83.941	0.125	0.136
-513.843	253.881	0.130	-0.221
-512.829	301.948	-0.250	-0.462
-511.814	800.000	-0.057	0.212
-510.799	-5.975	0.201	-0.137
-509.785	-200.000	-0.006	0.188
-508.770	-97.313	-0.092	0.024
-507.756	215.302	0.054	-0.086
-506.741	-200.000	-0.014	-0.101
-505.726	17.733	0.329	-0.262
-504.712	51.474	0.178	-0.169
-503.697	510.799	-0.082	-0.190
-502.683	60.022	0.153	0.151
-501.668	-138.710	-0.134	-0.015
-500.653	-52.696	0.165	-0.076
-499.639	-168.033	0.406	0.016
-498.624	237.309	0.095	0.158
-497.610	133.003	-0.165	0.213
-496.595	67.253	-0.253	-0.258
-495.581	-116.050	0.392	0.073
-494.566	-99.785	-0.379	-0.095
-493.551	-200.000	0.015	-0.200
-492.537	376.331	-0.014	0.028
-491.522	-58.670	0.164	0.071
-490.508	139.015	-0.191	0.251
-489.493	-200.000	0.007	-0.144
-488.478	329.683	-0.056	-0.108
-487.464	-172.879	0.500	0.016
-486.449	-13.544	0.090	-0.058
-485.435	-49.949	-0.443	-0.210
-484.420	311.197	-0.165	-0.310
-483.405	-179.160	-0.042	-0.001
-482.391	279.051	-0.034	-0.060
-481.376	-82.973	-0.086	0.028
-480.362	-200.000	0.020	0.311
-479.347	-61.101	-0.122	0.051
-478.332	153.715	-0.192	0.263
-477.318	336.883	0.027	0.052
-476.303	-32.368	0.130	0.072
-475.289	49.142	0.290	0.272
-474.274	-68.753	-0.224	0.087
-473.259	-40.746	0.189	-0.098
-472.245	299.409	0.143	0.263
-471.230	293.515	-0.069	-0.125
-470.216	286.881	0.128	-0.232
-469.201	-200.000	0.013	-0.081
-468.186	-17.520	0.146	-0.092
-467.172	182.549	0.058	0.085
-466.157	800.000	-0.031	0.114
-465.143	30.677	0.137	-0.117
-464.128	-136.457	-0.550	0.064
-463.113	-48.086	0.148	-0.071
-462.099	-21.249	0.033	0.020
-461.084	800.000	0.152	0.454
-460.070	800.000	0.100	0.327
-459.055	-84.480	-0.295	0.093
-458.040	-200.000	-0.071	0.335
-457.026	29.782	0.098	0.083
-456.011	89.514	0.092	-0.103
-454.997	54.925	0.084	0.081
-453.982	-200.000	0.008	0.141
-452.968	362.308	0.155	-0.309
-451.953	431.020	-0.091	-0.197
-450.938	-200.000	0.000	0.166
-449.924	-200.000	0.009	-0.099
-448.909	97.411	-0.088	-0.100
-447.895	72.293	0.041	0.042
-446.880	423.720	0.031	0.066
-445.865	-16.588	0.177	0.112
-444.851	-200.000	0.042	0.212
-443.836	-200.000	0.271	-0.001
-442.822	-95.857	-0.135	-0.036
-441.807	-200.000	0.022	0.362
-440.792	-200.000	-0.068	-0.343
-439.778	-126.467	0.101	-0.015
-438.763	30.855	-0.174	-0.148
-437.749	-126.867	0.202	0.030
-436.734	-16.533	0.167	-0.105
-435.719	-66.571	0.361	-0.143
-434.705	29.388	-0.095	-0.081
-433.690	-56.513	-0.176	0.078
-432.676	173.825	0.043	0.061
-431.661	-147.029	0.026	0.002
-430.646	-115.607	0.288	0.054
-429.632	-157.357	-0.175	0.011
-428.617	-200.000	0.005	-0.226
-427.603	-39.298	0.021	0.011
-426.588	471.744	0.055	0.124
-425.573	-97.688	-0.152	-0.039
-424.559	502.317	-0.072	-0.166
-423.544	389.755	0.084	0.174
-422.530	32.967	-0.194	0.167
-421.515	17.653	0.186	0.148
-420.500	-94.723	-0.063	-0.017
-419.486	5.573	0.316	0.232
-418.471	-106.990	-0.091	0.020
-417.457	-200.000	-0.013	-0.150
-416.442	48.633	-0.070	0.065
-415.428	547.451	-0.043	-0.102
-414.413	123.722	0.219	-0.273
-413.398	150.969	-0.266	-0.360
-412.384	-142.498	0.318	-0.031
-411.369	-200.000	0.004	-0.031
-410.355	211.340	-0.152	-0.237
-409.340	-157.869	-0.151	-0.009
-408.325	294.243	-0.186	0.338
-407.311	-53.530	0.073	-0.033
-406.296	100.885	-0.219	-0.254
-405.282	183.495	-0.272	0.399
-404.267	-200.000	-0.025	-0.170
-403.252	164.961	0.166	-0.233
-402.238	138.597	-0.179	0.234
-401.223	213.388	0.119	-0.187
-400.209	15.415	0.091	-0.071
-399.194	-200.000	0.014	-0.177
-398.179	121.625	-0.175	-0.217
-397.165	800.000	-0.113	-0.311
-396.150	-38.814	0.115	-0.060
-395.136	-83.707	-0.225	0.071
-394.121	43.622	-0.206	0.188
-393.106	800.000	0.054	-0.218
-392.092	436.535	0.029	0.064
-391.077	-200.000	-0.002	0.577
-390.063	800.000	-0.038	-0.127
-389.048	-129.413	0.382	-0.053
-388.033	-200.000	-0.022	0.541
-387.019	-200.000	0.001	0.038
-386.004	-139.167	0.171	0.018
-384.990	-200.000	-0.068	-0.000
-383.975	800.000	-0.060	0.251
-382.960	-200.000	-0.032	0.284
-381.946	-200.000	0.014	-0.269
-380.931	172.347	-0.118	0.168
-379.917	-143.516	0.452	0.043
-378.902	-78.308	-0.246	0.084
-377.888	-87.156	-0.063	-0.019
-376.873	-117.848	0.239	0.043
-375.858	-84.197	0.355	0.112
-374.844	83.341	-0.078	-0.085
-373.829	-148.773	0.150	0.012
-372.815	241.023	-0.281	-0.466
-371.800	-87.721	0.204	-0.061
-370.785	-45.842	0.025	-0.012
-369.771	-131.428	0.080	0.010
-368.756	-200.000	-0.034	0.432
-367.742	-90.341	0.155	0.045
-366.727	607.110	-0.040	-0.098
-365.712	16.287	-0.186	0.145
-364.698	34.014	-0.212	-0.183
-363.683	31.868	-0.062	-0.053
-362.669	-59.687	-0.241	0.102
-361.654	-86.885	-0.345	-0.104
-360.639	710.252	-0.034	-0.090
-359.625	725.053	-0.068	0.180
-358.610	800.000	0.088	0.261
-357.596	-92.274	0.035	0.010
-356.581	-54.465	-0.297	-0.134
-355.566	800.000	0.027	0.106
-354.552	-82.459	-0.038	-0.012
-353.537	263.885	-0.116	-0.201
-352.523	354.449	-0.158	0.312
-351.508	698.971	0.102	0.267
-350.493	103.017	0.231	0.269
-349.479	229.023	0.147	-0.238
-348.464	-54.983	0.261	-0.117
-347.450	-200.000	-0.059	0.294
-346.435	165.459	-0.043	0.060
-345.420	800.000	0.132	0.463
-344.406	104.140	-0.114	0.133
-343.391	315.684	-0.172	0.321
-342.377	800.000	-0.113	0.311
-341.362	105.605	0.160	-0.188
-340.348	-92.048	-0.061	0.017
-339.333	800.000	-0.083	0.286
-338.318	-85.656	-0.078	-0.024
-337.304	23.941	0.280	-0.229
-336.289	509.366	-0.072	-0.165
-335.275	800.000	0.070	0.284
-334.260	-200.000	-0.008	-0.094
-333.245	-72.208	0.104	0.038
-332.231	-20.544	0.210	0.128
-331.216	800.000	0.014	-0.054
-330.202	800.000	0.097	-0.301
-329.187	714.985	0.057	-0.149
-328.172	697.346	-0.095	0.249
-327.158	-200.000	0.046	0.263
-326.143	358.174	0.120	0.237
-325.129	199.310	-0.162	-0.246
-324.114	800.000	-0.028	0.104
-323.099	-118.582	0.160	0.028
-322.085	23.646	-0.376	-0.307
-321.070	108.128	0.229	-0.270
-320.056	-112.858	-0.194	0.038
-319.041	-200.000	0.012	0.072
-318.026	800.000	-0.043	0.166
-317.012	-200.000	0.064	0.414
-315.997	-136.073	0.295	-0.034
-314.983	-200.000	0.002	-0.099
-313.968	502.065	0.134	-0.306
-312.953	120.247	-0.102	-0.126
-311.939	128.188	0.032	-0.040
-310.924	-80.661	0.043	0.014
-309.910	370.699	-0.100	0.201
-308.895	-200.000	0.018	-0.079
-307.880	-145.259	0.162	0.015
-306.866	800.000	-0.030	0.083
-305.851	-200.000	0.046	-0.265
-304.837	-200.000	0.001	-0.295
-303.822	21.248	-0.036	-0.029
-302.807	-77.680	0.495	-0.170
-301.793	19.367	0.083	0.066
-300.778	800.000	-0.077	0.326
-299.764	-25.001	0.237	0.139
-298.749	-141.410	0.403	0.040
-297.735	14.939	-0.158	0.122
-296.720	-104.583	0.391	-0.089
-295.705	-200.000	0.010	0.152
-294.691	82.471	-0.306	0.329
-293.676	-118.710	-0.220	-0.038
-292.662	-200.000	0.006	-0.326
-291.647	-81.931	0.121	-0.039
-290.632	10.210	0.042	0.031
-289.618	-200.000	0.028	-0.210
-288.603	-38.559	-0.138	-0.072
-287.589	274.649	0.092	0.162
-286.574	6.758	-0.445	0.328
-285.559	-40.604	-0.239	0.123
-284.545	228.057	-0.137	0.220
-283.530	-29.257	0.189	0.107
-282.516	645.772	0.093	0.235
-281.501	439.767	-0.055	-0.120
-280.486	38.754	0.145	0.128
-279.472	722.798	0.037	-0.099
-278.457	116.126	-0.070	0.085
-277.443	800.000	-0.083	0.315
-276.428	-123.858	0.337	0.053
-275.413	-200.000	0.063	0.348
-274.399	-66.297	0.176	-0.069
-273.384	800.000	-0.104	-0.301
-272.370	-118.508	0.164	0.029
-271.355	-200.000	0.021	0.178
-270.340	800.000	0.078	0.312
-269.326	114.518	-0.127	-0.153
-268.311	218.118	-0.159	-0.250
-267.297	800.000	-0.065	0.270
-266.282	-81.601	0.095	-0.031
-265.267	267.417	0.156	0.269
-264.253	-200.000	0.027	0.155
-263.238	-29.019	0.136	-0.077
-262.224	70.659	-0.203	0.208
-261.209	-119.210	-0.027	0.005
-260.195	-105.582	-0.281	-0.063
-259.180	-200.000	-0.037	-0.282
-258.165	-28.624	-0.228	-0.130
-257.151	-63.894	0.273	0.110
-256.136	-38.822	0.041	-0.021
-255.122	57.337	0.156	-0.151
-254.107	-200.000	-0.019	0.215
-253.092	521.394	-0.057	-0.132
-252.078	-46.716	0.258	0.125
-251.063	-48.625	0.157	-0.074
-250.049	-64.220	0.039	-0.016
-249.034	44.510	0.086	-0.078
-248.019	-138.214	-0.197	0.022
-247.005	-200.000	-0.021	0.255
-245.990	-200.000	0.064	0.345
-244.976	12.174	-0.159	0.121
-243.961	800.000	-0.040	-0.138
-242.946	55.793	0.383	0.367
-241.932	-2.438	-0.327	0.226
-240.917	-200.000	0.047	0.358
-239.903	16.913	-0.149	0.117
-238.888	144.383	0.188	0.248
-237.873	17.686	0.161	-0.126
-236.859	-29.722	0.079	-0.044
-235.844	800.000	0.033	0.108
-234.830	-200.000	0.002	0.269
-233.815	-155.248	0.178	-0.011
-232.800	31.681	0.027	0.023
-231.786	66.017	0.083	-0.084
-230.771	-200.000	-0.006	-0.255
-229.757	-102.640	-0.067	-0.016
-228.742	-200.000	-0.054	-0.377
-227.727	-183.250	-0.157	-0.003
-226.713	175.764	0.205	-0.293
-225.698	193.887	-0.202	-0.302
-224.684	176.966	-0.185	-0.266
-223.669	-35.494	-0.143	0.076
-222.655	115.165	0.031	0.038
-221.640	-63.696	-0.206	-0.084
-220.625	-3.313	0.256	0.176
-219.611	243.364	0.147	-0.243
-218.596	624.318	-0.084	0.210
-217.582	-200.000	0.047	-0.240
-216.567	5.558	0.108	-0.078
-215.552	-134.056	-0.462	-0.056
-214.538	-167.809	0.271	-0.011
-213.523	533.336	-0.115	-0.268
-212.509	800.000	-0.085	0.313
-211.494	40.925	-0.075	-0.066
-210.479	-200.000	0.015	0.125
-209.465	-200.000	-0.060	-0.386
-208.450	-138.581	0.084	-0.009
-207.436	414.678	-0.096	0.202
-206.421	-200.000	0.038	-0.193
-205.406	96.440	-0.194	0.219
-204.392	48.937	-0.064	-0.059
-203.377	-107.017	-0.130	-0.028
-202.363	-18.838	0.137	0.084
-201.348	-13.565	-0.198	0.127
-200.333	-200.000	-0.006	-0.130
-199.319	-51.680	0.126	0.058
-198.304	358.249	-0.048	0.095
-197.290	-143.063	0.152	0.014
-196.275	-200.000	-0.023	-0.132
-195.260	-58.723	0.281	-0.120
-194.246	-183.380	-0.320	-0.006
-193.231	13.828	-0.121	0.093
-192.217	-200.000	-0.004	0.338
-191.202	70.839	0.071	-0.073
-190.187	-9.462	0.181	0.119
-189.173	-136.199	-0.213	-0.025
-188.158	-12.432	0.052	-0.033
-187.144	-69.566	-0.107	0.040
-186.129	35.841	0.341	0.296
-185.114	115.121	0.176	0.211
-184.100	-166.592	-0.416	-0.017
-183.085	-84.829	0.157	0.049
-182.071	-72.224	0.298	0.109
-181.056	-35.836	-0.173	0.092
-180.042	-15.773	0.149	-0.094
-179.027	-138.232	0.203	0.022
-178.012	296.872	-0.059	-0.106
-176.998	-71.616	-0.488	0.180
-175.983	14.115	0.203	-0.156
-174.969	-46.352	0.188	-0.091
-173.954	-21.038	-0.071	-0.043
-172.939	22.403	0.075	-0.060
-171.925	-95.666	0.191	-0.050
-170.910	800.000	-0.131	-0.428
-169.896	-102.447	0.159	-0.038
-168.881	-200.000	0.004	0.238
-167.866	203.123	0.006	0.008
-166.852	701.237	-0.100	0.259
-165.837	297.172	0.039	0.071
-164.823	38.029	0.241	0.211
-163.808	208.913	-0.121	0.186
-162.793	75.961	0.023	0.024
-161.779	-47.139	0.029	0.014
-160.764	9.777	0.152	-0.114
-159.750	92.918	-0.227	0.253
-158.735	-132.165	-0.234	-0.030
-157.720	800.000	-0.031	0.123
-156.706	-103.975	0.214	-0.049
-155.691	-121.315	0.506	-0.083
-154.677	151.813	-0.329	0.442
-153.662	317.303	-0.059	-0.109
-152.647	2.161	-0.112	-0.079
-151.633	-39.375	0.190	-0.098
-150.618	-113.276	0.197	0.038
-149.604	158.801	-0.130	0.177
-148.589	113.241	-0.120	0.143
-147.574	-47.448	-0.132	-0.063
-146.560	92.213	0.237	0.263
-145.545	487.410	0.094	0.212
-144.531	-51.877	0.150	0.069
-143.516	-180.183	0.392	0.008
-142.502	-20.224	0.268	-0.162
-141.487	231.445	-0.037	-0.059
-140.472	12.197	0.168	-0.128
-139.458	-5.450	-0.138	-0.094
-138.443	209.115	0.064	0.099
-137.429	-91.977	-0.172	-0.048
-136.414	-0.906	-0.160	0.112
-135.399	15.837	0.341	-0.264
-134.385	2.465	-0.178	-0.127
-133.370	722.327	-0.163	-0.428
-132.356	-44.902	0.165	-0.081
-131.341	31.398	-0.197	0.166
-130.326	251.508	0.044	-0.074
-129.312	49.862	-0.249	-0.231
-128.297	-45.955	0.275	0.133
-127.283	83.523	0.125	0.134
-126.268	489.096	0.146	0.328
-125.253	-86.966	-0.280	-0.084
-124.239	-139.389	-0.144	0.015
-123.224	189.530	0.244	0.360
-122.210	800.000	0.076	-0.255
-121.195	-88.767	-0.253	0.074
