DTS Sentinel unit serial number:	SN413079Multiplexer serial number:	ORYXHardware model number:	OX4-SRSoftware version number:	ORYX F/W v4.00 Oryx Data Collector v3.7.2.0data status	okinstallation	princeton_trtdifferential loss correction	single-endedforward channel	channel 3reverse channel	N/Adate	2019/09/16time	00:24:34forward acquisition time	60.00reverse acquisition time	0.00gamma	496.2192k internal	0.2337k external	0.2337temperature offset calibration	0.9945default loss term (dB/km)	0.3790temperature slope calibration	1.0000multiplexer offset coefficient	1.0000multiplexer slope coefficient	1.0000fibre end	0.00T internal ref (°C)	27.62T ext. ref 1 (°C)	9.53T ext. ref 2 (°C)	21.59length (m)	temperature (°C)	Stokes	anti-Stokes-747.200	-9.934	0.158	-0.105
-746.185	377.307	-0.072	-0.149
-745.171	621.856	0.088	0.222
-744.156	-25.939	-0.326	0.193
-743.142	478.504	-0.049	0.112
-742.127	-12.463	-0.334	0.219
-741.112	-43.936	0.026	0.013
-740.098	800.000	0.099	0.279
-739.083	67.600	0.188	0.193
-738.069	-70.019	-0.219	-0.084
-737.054	800.000	-0.136	-0.395
-736.039	-96.559	-0.231	-0.061
-735.025	-74.614	0.163	-0.059
-734.010	-98.493	-0.132	-0.034
-732.996	151.396	-0.084	-0.115
-731.981	-37.758	-0.149	-0.080
-730.966	39.463	-0.297	-0.267
-729.952	18.518	0.161	-0.129
-728.937	-200.000	0.062	-0.348
-727.923	27.597	-0.291	0.245
-726.908	148.995	0.135	0.183
-725.894	559.151	-0.115	0.279
-724.879	-31.883	-0.234	0.132
-723.864	800.000	0.054	0.216
-722.850	98.706	-0.076	0.088
-721.835	129.501	0.132	0.169
-720.821	160.772	0.366	0.513
-719.806	-167.678	-0.022	-0.001
-718.791	-200.000	0.025	0.243
-717.777	17.124	0.070	-0.055
-716.762	-200.000	0.043	-0.566
-715.748	50.163	-0.085	0.080
-714.733	-71.457	-0.152	0.057
-713.718	-200.000	0.022	-0.182
-712.704	-52.185	-0.397	-0.184
-711.689	208.879	-0.252	-0.396
-710.675	14.521	0.266	0.208
-709.660	56.201	0.086	-0.084
-708.645	-2.248	0.175	0.123
-707.631	-200.000	-0.014	0.189
-706.616	147.647	0.123	-0.165
-705.602	461.178	0.095	0.213
-704.587	-151.152	-0.047	0.004
-703.572	800.000	0.083	-0.260
-702.558	-200.000	0.048	0.264
-701.543	-200.000	0.012	-0.065
-700.529	100.366	-0.040	-0.046
-699.514	-66.174	-0.128	-0.051
-698.499	-200.000	-0.021	-0.216
-697.485	-117.333	-0.116	0.021
-696.470	24.241	-0.096	0.079
-695.456	-137.872	0.367	-0.041
-694.441	-43.293	0.104	-0.053
-693.426	446.827	0.040	0.089
-692.412	-20.276	0.115	0.071
-691.397	32.316	-0.127	0.109
-690.383	551.761	0.157	0.378
-689.368	800.000	0.077	-0.262
-688.354	800.000	-0.122	-0.480
-687.339	800.000	0.080	-0.226
-686.324	-200.000	-0.066	-0.298
-685.310	-16.190	0.251	-0.160
-684.295	-58.732	0.384	0.166
-683.281	51.782	-0.155	0.148
-682.266	128.375	0.200	0.255
-681.251	-45.388	0.052	0.026
-680.237	17.314	-0.230	0.183
-679.222	800.000	-0.100	0.339
-678.208	-3.654	-0.207	0.144
-677.193	183.664	0.065	-0.096
-676.178	800.000	0.055	-0.213
-675.164	-62.177	-0.298	-0.124
-674.149	-144.467	-0.261	0.024
-673.135	146.728	0.093	0.126
-672.120	225.546	-0.073	-0.118
-671.105	466.653	0.067	-0.150
-670.091	-200.000	-0.003	0.200
-669.076	112.408	-0.231	0.280
-668.062	-85.664	-0.231	0.072
-667.047	-200.000	0.008	0.093
-666.032	29.449	0.183	-0.156
-665.018	-86.597	0.131	0.040
-664.003	165.738	-0.152	0.215
-662.989	165.841	0.150	0.213
-661.974	35.505	-0.170	-0.149
-660.959	59.842	0.259	-0.256
-659.945	800.000	0.058	-0.231
-658.930	-171.929	0.219	0.007
-657.916	-200.000	0.010	-0.199
-656.901	800.000	0.064	-0.200
-655.886	-200.000	-0.062	0.278
-654.872	112.401	0.130	-0.157
-653.857	-200.000	-0.037	0.180
-652.843	107.245	-0.135	-0.160
-651.828	-71.146	-0.177	0.066
-650.814	413.396	0.084	-0.179
-649.799	3.387	0.250	-0.182
-648.784	-131.557	0.101	0.013
-647.770	35.388	-0.157	-0.137
-646.755	390.833	0.046	-0.095
-645.741	-181.298	-0.338	-0.007
-644.726	-200.000	0.041	0.269
-643.711	-38.072	0.077	0.041
-642.697	526.974	0.074	-0.175
-641.682	-40.366	0.067	0.035
-640.668	-18.939	-0.167	-0.104
-639.653	-200.000	0.036	0.156
-638.638	-87.283	-0.412	0.125
-637.624	91.526	0.225	0.252
-636.609	486.298	0.064	-0.146
-635.595	-200.000	-0.035	-0.227
-634.580	471.783	0.116	0.261
-633.565	16.715	-0.143	0.113
-632.551	17.637	0.156	-0.124
-631.536	-114.231	-0.431	-0.083
-630.522	-123.964	-0.345	-0.054
-629.507	-71.120	-0.456	0.171
-628.492	-1.898	0.165	0.116
-627.478	-200.000	0.032	-0.201
-626.463	-200.000	0.035	0.321
-625.449	6.994	0.134	-0.100
-624.434	451.272	0.147	0.325
-623.419	169.263	0.352	0.502
-622.405	125.173	-0.085	0.107
-621.390	379.886	-0.113	0.231
-620.376	388.977	-0.210	0.434
-619.361	800.000	-0.016	-0.048
-618.346	-118.970	-0.332	0.058
-617.332	-107.702	-0.107	-0.023
-616.317	-135.000	-0.244	-0.029
-615.303	20.845	-0.227	-0.183
-614.288	-200.000	-0.009	-0.065
-613.273	-110.153	-0.236	0.049
-612.259	800.000	-0.063	-0.178
-611.244	-86.627	-0.189	-0.058
-610.230	22.930	0.311	0.255
-609.215	-200.000	0.021	-0.103
-608.201	46.249	-0.136	-0.126
-607.186	-132.154	-0.294	-0.038
-606.171	263.787	0.186	0.323
-605.157	-24.702	0.158	-0.094
-604.142	-122.459	0.068	-0.011
-603.128	89.298	-0.047	0.052
-602.113	-200.000	-0.025	-0.276
-601.098	-37.824	0.232	-0.123
-600.084	-200.000	-0.057	-0.376
-599.069	-142.525	0.070	-0.007
-598.055	800.000	-0.079	0.318
-597.040	197.230	0.292	0.444
-596.025	-200.000	0.028	-0.186
-595.011	-76.997	0.292	0.102
-593.996	34.100	-0.195	0.170
-592.982	368.499	-0.178	0.359
-591.967	-200.000	-0.010	0.179
-590.952	254.056	0.113	0.193
-589.938	-123.452	-0.232	0.037
-588.923	248.489	-0.240	0.406
-587.909	138.216	0.132	-0.172
-586.894	197.485	0.122	-0.186
-585.879	-90.093	0.244	0.071
-584.865	376.204	0.047	-0.095
-583.850	184.775	0.040	-0.058
-582.836	-7.280	-0.116	-0.078
-581.821	118.201	0.159	-0.196
-580.806	-72.351	-0.262	0.097
-579.792	-121.422	0.092	-0.015
-578.777	314.065	0.159	-0.298
-577.763	58.710	-0.084	0.082
-576.748	-67.324	-0.295	0.116
-575.733	-169.130	0.196	0.007
-574.719	-96.434	0.152	-0.040
-573.704	-27.474	0.070	-0.041
-572.690	4.442	0.146	-0.107
-571.675	-200.000	0.042	0.196
-570.661	-200.000	-0.014	0.238
-569.646	160.366	-0.114	0.159
-568.631	-127.834	0.094	-0.013
-567.617	153.092	0.150	0.205
-566.602	-138.084	-0.104	-0.012
-565.588	800.000	0.027	-0.093
-564.573	180.986	-0.114	0.166
-563.558	170.830	0.066	-0.095
-562.544	-200.000	-0.052	0.368
-561.529	800.000	-0.125	0.425
-560.515	-183.934	0.477	-0.008
-559.500	-200.000	-0.023	0.495
-558.485	123.006	-0.135	0.168
-557.471	55.729	0.144	0.139
-556.456	193.048	0.124	0.187
-555.442	-127.269	0.370	-0.054
-554.427	-200.000	-0.001	-0.102
-553.412	-33.015	-0.265	0.146
-552.398	-71.313	-0.199	0.074
-551.383	800.000	0.061	0.225
-550.369	16.446	0.030	0.024
-549.354	71.721	0.146	-0.151
-548.339	-118.524	0.082	0.014
-547.325	-46.309	0.096	0.047
-546.310	260.241	-0.218	-0.375
-545.296	800.000	-0.151	-0.439
-544.281	-104.929	0.295	-0.067
-543.266	-200.000	-0.020	0.117
-542.252	-200.000	0.015	-0.218
-541.237	-157.295	-0.310	-0.019
-540.223	9.636	-0.142	0.107
-539.208	255.512	0.153	-0.260
-538.193	164.429	0.149	-0.210
-537.179	-91.086	-0.276	-0.079
-536.164	-97.256	-0.277	0.072
-535.150	-113.679	0.228	-0.044
-534.135	-200.000	-0.083	-0.383
-533.121	-195.408	0.342	-0.003
-532.106	800.000	-0.034	0.095
-531.091	-68.041	-0.366	-0.142
-530.077	-117.061	0.297	0.054
-529.062	-85.247	-0.083	-0.026
-528.048	11.691	0.424	-0.324
-527.033	167.933	-0.124	0.175
-526.018	-61.487	-0.269	-0.112
-525.004	-51.410	-0.144	0.067
-523.989	119.623	-0.061	-0.076
-522.975	-200.000	-0.007	0.266
-521.960	166.495	0.097	0.136
-520.945	-155.932	-0.117	-0.007
-519.931	-200.000	0.014	-0.075
-518.916	-124.761	-0.128	0.020
-517.902	-170.704	0.181	-0.006
-516.887	-36.050	0.204	0.110
-515.872	800.000	0.076	0.248
-514.858	-200.000	-0.001	0.113
-513.843	33.978	0.228	0.197
-512.829	800.000	0.104	-0.287
-511.814	77.587	0.168	0.178
-510.799	264.568	-0.156	0.270
-509.785	-58.394	-0.146	0.063
-508.770	-200.000	0.015	0.084
-507.756	403.118	0.011	-0.024
-506.741	-91.114	0.318	-0.091
-505.726	-155.198	0.117	0.008
-504.712	111.744	0.073	0.088
-503.697	230.763	0.053	0.086
-502.683	67.029	-0.221	-0.224
-501.668	4.997	0.250	-0.183
-500.653	87.609	-0.126	0.138
-499.639	800.000	0.055	0.199
-498.624	-4.976	-0.355	-0.243
-497.610	-200.000	-0.019	-0.174
-496.595	-41.339	0.408	0.209
-495.581	8.943	0.258	0.194
-494.566	-78.566	-0.270	-0.092
-493.551	-44.206	0.216	0.108
-492.537	34.947	0.132	-0.114
-491.522	-132.030	-0.122	0.016
-490.508	239.095	0.104	-0.171
-489.493	-114.342	-0.270	0.052
-488.478	-87.608	-0.117	0.035
-487.464	174.609	-0.103	0.147
-486.449	-200.000	-0.012	-0.312
-485.435	151.821	-0.174	0.236
-484.420	-200.000	0.019	0.232
-483.405	-24.186	0.184	-0.109
-482.391	-143.992	0.232	-0.022
-481.376	178.116	0.236	0.343
-480.362	-196.357	0.153	0.001
-479.347	244.597	-0.143	-0.239
-478.332	-37.554	0.124	0.066
-477.318	290.519	-0.051	-0.092
-476.303	-72.938	0.130	-0.048
-475.289	800.000	0.012	0.037
-474.274	41.724	-0.047	-0.042
-473.259	-136.244	-0.142	-0.016
-472.245	-60.948	0.141	-0.059
-471.230	-115.854	0.355	-0.066
-470.216	-125.107	-0.184	0.028
-469.201	-7.532	0.177	0.119
-468.186	-58.567	0.114	0.049
-467.172	-142.906	0.092	-0.009
-466.157	-200.000	0.037	-0.514
-465.143	39.355	-0.073	-0.065
-464.128	170.665	-0.031	-0.044
-463.113	35.007	-0.197	0.171
-462.099	48.634	-0.319	-0.297
-461.084	650.246	0.045	-0.114
-460.070	3.214	0.224	-0.162
-459.055	-200.000	0.087	-0.421
-458.040	353.755	0.070	-0.138
-457.026	-118.997	-0.158	-0.027
-456.011	-55.884	-0.236	-0.105
-454.997	79.585	0.049	-0.052
-453.982	19.169	-0.225	-0.179
-452.968	213.555	-0.059	0.092
-451.953	81.103	0.448	-0.480
-450.938	-48.631	-0.264	0.126
-449.924	-139.492	0.214	-0.023
-448.909	178.654	-0.189	0.274
-447.895	266.567	0.170	0.294
-446.880	561.181	-0.126	-0.302
-445.865	9.118	0.242	-0.181
-444.851	-152.564	-0.274	0.019
-443.836	-200.000	0.009	-0.044
-442.822	-200.000	0.009	-0.313
-441.807	52.330	0.461	-0.436
-440.792	800.000	0.037	-0.129
-439.778	800.000	0.174	-0.610
-438.763	305.528	-0.051	0.094
-437.749	-38.891	0.358	0.187
-436.734	434.314	0.073	0.157
-435.719	-97.509	-0.114	0.029
-434.705	-41.243	-0.258	-0.132
-433.690	214.712	0.192	0.301
-432.676	-200.000	0.132	0.001
-431.661	63.745	-0.202	0.201
-430.646	-147.112	-0.054	-0.005
-429.632	42.517	0.246	0.222
-428.617	73.439	-0.112	-0.116
-427.603	349.457	0.209	0.409
-426.588	-125.645	0.211	0.032
-425.573	-162.590	0.243	-0.012
-424.559	106.198	-0.087	0.102
-423.544	-50.883	0.105	-0.049
-422.530	90.300	-0.183	-0.203
-421.515	426.271	0.033	0.070
-420.500	218.984	0.157	-0.249
-419.486	242.629	-0.064	0.106
-418.471	-115.713	0.244	0.045
-417.457	-55.709	0.153	-0.068
-416.442	-33.553	-0.244	0.133
-415.428	161.897	-0.110	0.153
-414.413	800.000	-0.024	-0.096
-413.398	-93.090	-0.257	0.071
-412.384	269.832	0.091	-0.158
-411.369	-86.789	-0.169	-0.051
-410.355	-200.000	-0.008	0.096
-409.340	0.192	0.096	0.068
-408.325	-19.508	-0.191	0.117
-407.311	140.091	0.040	0.052
-406.296	800.000	-0.027	-0.082
-405.282	-172.428	0.127	0.004
-404.267	-119.306	-0.472	-0.081
-403.252	-69.364	0.100	-0.038
-402.238	-200.000	-0.050	-0.252
-401.223	-22.393	0.166	-0.100
-400.209	-200.000	0.015	0.095
-399.194	13.891	0.216	-0.167
-398.179	-53.348	0.346	-0.157
-397.165	-200.000	0.004	0.153
-396.150	-168.220	-0.178	-0.007
-395.136	800.000	-0.116	-0.321
-394.121	-90.116	-0.122	0.035
-393.106	-55.126	-0.108	-0.048
-392.092	410.581	0.094	-0.198
-391.077	154.444	-0.159	-0.216
-390.063	110.443	-0.180	0.214
-389.048	-200.000	-0.024	0.338
-388.033	-41.903	-0.279	-0.142
-387.019	169.317	-0.134	0.190
-386.004	277.989	-0.045	0.079
-384.990	87.475	-0.051	0.055
-383.975	-155.031	0.276	-0.018
-382.960	800.000	-0.037	-0.133
-381.946	-148.659	0.120	0.010
-380.931	91.170	0.177	-0.196
-379.917	-37.064	-0.371	0.196
-378.902	-21.917	0.075	0.045
-377.888	-148.108	-0.172	0.014
-376.873	-137.081	0.186	0.021
-375.858	196.764	0.036	0.054
-374.844	-145.985	0.146	0.013
-373.829	-200.000	0.066	-0.327
-372.815	265.976	-0.052	-0.090
-371.800	38.460	-0.063	-0.056
-370.785	38.757	0.481	-0.425
-369.771	2.316	0.072	-0.052
-368.756	429.513	-0.143	0.306
-367.742	-21.185	0.107	0.065
-366.727	-46.227	0.047	-0.023
-365.712	-15.167	-0.311	-0.197
-364.698	-152.401	0.092	-0.007
-363.683	-107.482	0.291	-0.063
-362.669	-119.181	-0.176	-0.030
-361.654	-97.668	0.050	-0.013
-360.639	275.834	-0.083	-0.145
-359.625	-200.000	0.008	-0.370
-358.610	-49.112	-0.242	0.114
-357.596	800.000	0.135	-0.485
-356.581	-200.000	0.006	0.266
-355.566	200.939	0.035	0.053
-354.552	280.192	-0.172	0.304
-353.537	-42.043	-0.092	-0.047
-352.523	-200.000	-0.053	0.346
-351.508	-91.318	-0.078	0.022
-350.493	800.000	0.048	0.138
-349.479	-144.897	0.126	-0.011
-348.464	-127.478	-0.307	0.044
-347.450	-193.546	0.209	-0.002
-346.435	26.803	0.243	0.202
-345.420	41.484	0.196	0.175
-344.406	477.426	0.055	-0.123
-343.391	800.000	-0.156	-0.504
-342.377	34.418	0.158	-0.136
-341.362	-141.717	-0.252	-0.025
-340.348	206.448	-0.146	-0.225
-339.333	29.095	0.256	0.215
-338.318	89.552	-0.107	0.118
-337.304	-200.000	-0.089	0.396
-336.289	-150.028	0.164	0.013
-335.275	-104.340	-0.184	-0.042
-334.260	-36.931	0.277	-0.147
-333.245	64.469	-0.205	-0.204
-332.231	775.004	-0.087	-0.234
-331.216	-93.283	0.087	-0.024
-330.202	58.376	0.196	0.190
-329.187	610.271	-0.081	0.200
-328.172	-89.489	-0.401	-0.116
-327.158	-200.000	0.002	-0.094
-326.143	-123.576	0.166	-0.026
-325.129	-200.000	0.023	-0.154
-324.114	-200.000	0.032	0.202
-323.099	163.160	0.035	-0.049
-322.085	800.000	-0.015	-0.062
-321.070	-142.577	-0.054	-0.005
-320.056	135.582	0.221	0.284
-319.041	18.284	-0.245	0.193
-318.026	-67.008	-0.054	0.021
-317.012	-200.000	-0.047	-0.215
-315.997	-200.000	-0.010	0.106
-314.983	454.604	0.145	-0.318
-313.968	65.362	0.128	0.128
-312.953	491.682	-0.213	0.482
-311.939	50.918	0.115	0.108
-310.924	-200.000	-0.016	-0.115
-309.910	472.298	0.052	0.114
-308.895	-200.000	0.004	0.131
-307.880	-200.000	-0.020	0.290
-306.866	338.487	0.091	0.175
-305.851	176.901	0.087	-0.125
-304.837	800.000	0.100	-0.354
-303.822	-100.126	0.171	0.042
-302.807	-89.176	0.224	-0.065
-301.793	800.000	-0.016	-0.062
-300.778	32.543	-0.029	0.024
-299.764	-106.684	0.158	0.035
-298.749	-88.702	0.305	-0.090
-297.735	152.576	-0.177	-0.239
-296.720	105.591	0.224	-0.261
-295.705	54.359	-0.158	0.150
-294.691	-48.998	0.201	0.095
-293.676	595.848	-0.084	-0.205
-292.662	-200.000	0.032	0.326
-291.647	-11.969	-0.066	0.042
-290.632	800.000	0.023	0.077
-289.618	306.751	0.066	-0.121
-288.603	-140.239	0.148	0.015
-287.589	250.960	-0.091	0.153
-286.574	-59.304	-0.149	-0.063
-285.559	69.023	-0.199	-0.201
-284.545	179.589	0.115	-0.165
-283.530	-4.808	-0.456	-0.310
-282.516	800.000	-0.039	-0.139
-281.501	-116.078	-0.301	-0.055
-280.486	-85.836	-0.166	-0.051
-279.472	50.591	-0.115	0.108
-278.457	-200.000	0.001	0.147
-277.443	-90.453	0.116	0.033
-276.428	800.000	0.092	0.272
-275.413	-65.697	0.288	-0.114
-274.399	13.685	-0.188	0.144
-273.384	641.387	0.053	-0.134
-272.370	-200.000	-0.023	-0.145
-271.355	333.678	-0.186	-0.354
-270.340	-200.000	-0.027	-0.178
-269.326	-169.817	0.222	0.008
-268.311	-138.097	-0.065	0.007
-267.297	-145.272	-0.145	0.013
-266.282	208.410	0.147	0.226
-265.267	-40.707	0.117	-0.060
-264.253	47.285	0.085	0.078
-263.238	-200.000	-0.058	0.324
-262.224	-200.000	-0.007	0.100
-261.209	-200.000	0.021	-0.326
-260.195	12.395	0.416	0.316
-259.180	-96.352	-0.102	-0.027
-258.165	35.264	0.212	0.183
-257.151	-185.548	-0.238	-0.004
-256.136	40.676	0.267	-0.237
-255.122	376.361	0.125	-0.251
-254.107	-37.184	-0.231	-0.122
-253.092	89.154	0.162	-0.178
-252.078	-200.000	0.032	0.342
-251.063	76.650	0.066	0.069
-250.049	800.000	-0.037	-0.118
-249.034	54.354	-0.335	-0.318
-248.019	-29.248	0.193	0.109
-247.005	-19.086	-0.219	-0.134
-245.990	-200.000	0.022	-0.120
-244.976	-158.072	-0.575	0.033
-243.961	-122.045	-0.449	0.073
-242.946	-118.991	-0.108	0.019
-241.932	43.469	-0.048	-0.043
-240.917	-11.750	-0.457	0.295
-239.903	-80.736	-0.116	-0.038
-238.888	56.256	-0.072	0.069
-237.873	-41.871	0.160	0.081
-236.859	-200.000	0.024	0.103
-235.844	-46.514	0.221	-0.107
-234.830	106.311	-0.240	-0.280
-233.815	-109.007	0.118	0.025
-232.800	-200.000	0.033	-0.418
-231.786	800.000	0.011	0.040
-230.771	800.000	0.036	0.153
-229.757	-59.579	-0.251	0.106
-228.742	-200.000	-0.018	0.188
-227.727	-200.000	0.013	0.077
-226.713	-200.000	0.039	-0.203
-225.698	-166.274	0.139	0.006
-224.684	-70.210	-0.246	-0.092
-223.669	611.438	-0.224	-0.550
-222.655	451.380	0.050	0.109
-221.640	-200.000	0.001	0.238
-220.625	-143.655	-0.118	-0.011
-219.611	800.000	0.020	-0.074
-218.596	-31.930	0.071	0.039
-217.582	-157.267	0.306	-0.018
-216.567	-147.210	0.276	0.023
-215.552	122.835	0.127	-0.156
-214.538	102.478	-0.101	-0.116
-213.523	-141.754	0.374	0.037
-212.509	800.000	-0.148	0.416
-211.494	205.929	-0.071	0.108
-210.479	-200.000	-0.024	0.258
-209.465	33.411	0.016	-0.013
-208.450	-131.515	0.213	0.028
-207.436	-59.666	-0.215	0.091
-206.421	-0.174	-0.244	0.171
-205.406	7.168	-0.194	0.143
-204.392	135.165	-0.149	0.190
-203.377	-141.399	-0.341	-0.034
-202.363	591.804	0.080	0.194
-201.348	-107.169	-0.203	-0.044
-200.333	-65.564	0.197	-0.078
-199.319	389.548	0.071	0.144
-198.304	-200.000	-0.008	-0.039
-197.290	-58.323	0.344	0.147
-196.275	248.728	-0.188	-0.312
-195.260	-200.000	-0.055	0.291
-194.246	379.147	-0.207	-0.416
-193.231	-4.626	-0.133	-0.090
-192.217	-200.000	0.012	-0.107
-191.202	-200.000	0.035	0.197
-190.187	-148.041	0.404	0.033
-189.173	-66.438	0.138	0.054
-188.158	381.608	-0.097	0.195
-187.144	-169.414	0.091	-0.003
-186.129	-155.047	0.258	-0.017
-185.114	-200.000	-0.018	-0.242
-184.100	-87.923	0.293	0.086
-183.085	184.738	-0.113	-0.165
-182.071	800.000	-0.037	0.142
-181.056	-179.173	0.291	0.006
-180.042	-110.962	-0.222	-0.045
-179.027	-134.047	0.107	-0.013
-178.012	800.000	-0.020	0.082
-176.998	119.803	-0.231	-0.281
-175.983	-200.000	0.017	-0.098
-174.969	800.000	0.032	-0.135
-173.954	-153.142	0.095	0.007
-172.939	-6.757	0.267	0.178
-171.925	199.151	-0.083	0.125
-170.910	181.291	0.172	0.248
-169.896	-200.000	-0.014	-0.096
-168.881	38.568	-0.022	0.019
-167.866	800.000	0.052	-0.208
-166.852	727.169	-0.026	0.068
-165.837	-31.087	-0.141	0.078
-164.823	-107.671	-0.200	0.043
-163.808	-142.364	0.120	0.012
-162.793	800.000	-0.002	0.009
-161.779	-200.000	0.004	0.055
-160.764	120.988	0.047	-0.057
-159.750	-200.000	-0.019	0.209
-158.735	261.309	-0.160	-0.272
-157.720	-200.000	-0.028	-0.164
-156.706	-184.323	-0.267	0.004
-155.691	-42.986	-0.236	0.117
-154.677	800.000	-0.055	-0.157
-153.662	83.686	-0.299	-0.320
-152.647	-200.000	-0.006	0.193
-151.633	-200.000	-0.001	-0.074
-150.618	-82.123	-0.303	0.097
-149.604	21.937	-0.291	0.233
-148.589	-200.000	0.015	-0.088
-147.574	17.964	-0.270	0.211
-146.560	-157.993	-0.100	0.006
-145.545	249.719	-0.171	0.285
-144.531	-157.946	-0.128	0.007
-143.516	108.781	0.051	0.059
-142.502	233.514	0.151	0.244
-141.487	-200.000	0.002	-0.082
-140.472	-78.231	0.151	-0.051
-139.458	-88.053	-0.037	0.011
-138.443	168.914	0.117	0.163
-137.429	-107.406	0.248	-0.053
-136.414	60.445	-0.098	-0.095
-135.399	-200.000	0.013	0.127
-134.385	168.226	0.037	-0.052
-133.370	391.814	0.050	-0.102
-132.356	-13.360	0.268	-0.171
-131.341	-109.472	-0.182	0.038
-130.326	181.823	0.080	0.116
-129.312	-79.392	0.121	0.040
-128.297	-117.983	-0.334	-0.059
-127.283	-200.000	-0.024	0.259
-126.268	640.041	0.044	0.109
-125.253	-60.730	-0.118	0.049
-124.239	-63.692	-0.257	0.103
-123.224	-48.574	-0.188	0.089
-122.210	800.000	0.015	-0.064
-121.195	-78.591	-0.227	-0.076
