DTS Sentinel unit serial number:	SN413079Multiplexer serial number:	ORYXHardware model number:	OX4-SRSoftware version number:	ORYX F/W v4.00 Oryx Data Collector v3.7.2.0data status	okinstallation	princeton_trtdifferential loss correction	single-endedforward channel	channel 3reverse channel	N/Adate	2019/09/11time	04:26:10forward acquisition time	60.00reverse acquisition time	0.00gamma	496.2192k internal	0.2330k external	0.2330temperature offset calibration	0.9908default loss term (dB/km)	0.3790temperature slope calibration	1.0000multiplexer offset coefficient	1.0000multiplexer slope coefficient	1.0000fibre end	0.00T internal ref (°C)	29.56T ext. ref 1 (°C)	-0.31T ext. ref 2 (°C)	23.42length (m)	temperature (°C)	Stokes	anti-Stokes-747.200	148.311	-0.114	0.155
-746.185	187.959	0.167	-0.251
-745.171	800.000	-0.095	-0.395
-744.156	-200.000	0.020	0.214
-743.142	-167.514	-0.438	-0.018
-742.127	-200.000	0.004	0.090
-741.112	-96.996	0.334	0.088
-740.098	-200.000	-0.009	-0.056
-739.083	-32.970	-0.215	-0.120
-738.069	-19.934	-0.123	0.077
-737.054	443.257	0.107	0.235
-736.039	-117.541	-0.133	0.024
-735.025	800.000	0.069	0.266
-734.010	-40.560	-0.174	0.091
-732.996	43.244	-0.089	-0.082
-731.981	-200.000	-0.053	-0.326
-730.966	110.604	-0.041	-0.050
-729.952	51.272	-0.224	-0.214
-728.937	-150.122	0.501	-0.039
-727.923	-200.000	0.039	-0.370
-726.908	60.457	-0.140	-0.139
-725.894	-10.537	-0.097	-0.064
-724.879	-108.381	-0.342	-0.074
-723.864	308.247	0.054	-0.101
-722.850	-169.424	-0.122	0.004
-721.835	-57.874	-0.318	-0.140
-720.821	-200.000	-0.021	0.371
-719.806	306.681	0.067	-0.125
-718.791	72.561	-0.052	-0.055
-717.777	110.433	0.264	0.319
-716.762	26.112	0.294	-0.247
-715.748	51.353	-0.308	-0.294
-714.733	-53.397	-0.392	-0.181
-713.718	-149.561	0.238	0.019
-712.704	176.713	-0.205	0.300
-711.689	-59.166	-0.073	0.032
-710.675	-14.515	-0.127	0.082
-709.660	-121.134	-0.239	-0.040
-708.645	148.794	0.112	-0.153
-707.631	-27.974	-0.044	0.026
-706.616	-76.626	0.204	-0.072
-705.602	-200.000	0.020	-0.169
-704.587	-107.036	-0.108	0.024
-703.572	190.757	-0.093	-0.140
-702.558	87.846	-0.053	0.059
-701.543	135.336	0.105	0.138
-700.529	-109.638	0.238	-0.050
-699.514	-2.079	0.063	-0.044
-698.499	706.926	-0.069	-0.183
-697.485	797.365	-0.100	-0.278
-696.470	-90.945	0.150	0.043
-695.456	-200.000	-0.024	-0.148
-694.441	230.127	0.052	-0.085
-693.426	-200.000	0.006	0.084
-692.412	-143.336	0.372	0.036
-691.397	484.856	0.166	-0.381
-690.383	501.426	-0.046	0.107
-689.368	246.129	0.099	0.167
-688.354	-153.739	0.414	-0.029
-687.339	-200.000	-0.032	0.282
-686.324	55.912	0.039	-0.038
-685.310	106.092	-0.137	0.163
-684.295	472.056	-0.021	-0.048
-683.281	-65.701	-0.252	0.101
-682.266	-200.000	0.034	0.171
-681.251	227.648	0.119	0.195
-680.237	-70.408	-0.314	-0.120
-679.222	-200.000	0.039	-0.284
-678.208	313.530	-0.027	-0.051
-677.193	8.448	0.211	-0.160
-676.178	-200.000	0.046	-0.245
-675.164	624.369	-0.065	0.166
-674.149	178.235	-0.122	-0.179
-673.135	-81.231	-0.223	-0.074
-672.120	-115.220	-0.253	0.048
-671.105	-200.000	0.040	-0.261
-670.091	-54.698	0.051	-0.023
-669.076	-161.160	-0.188	0.010
-668.062	-68.215	0.332	0.130
-667.047	-75.584	0.268	0.096
-666.032	39.598	0.307	-0.277
-665.018	800.000	0.034	0.103
-664.003	380.389	-0.058	-0.120
-662.989	-200.000	-0.034	-0.191
-661.974	-71.201	0.026	0.010
-660.959	-109.899	-0.106	-0.022
-659.945	-200.000	-0.040	-0.222
-658.930	82.754	-0.302	0.329
-657.916	-200.000	0.017	-0.452
-656.901	-155.336	0.155	0.010
-655.886	166.834	-0.153	0.218
-654.872	101.999	0.233	-0.273
-653.857	8.670	-0.193	-0.146
-652.843	-200.000	-0.005	-0.209
-651.828	371.338	0.014	0.028
-650.814	-200.000	0.047	0.372
-649.799	-67.278	-0.202	0.080
-648.784	23.723	-0.236	0.195
-647.770	-189.222	0.234	-0.003
-646.755	-94.601	0.354	-0.097
-645.741	-76.588	0.205	0.072
-644.726	-200.000	-0.019	-0.299
-643.711	504.992	-0.103	-0.239
-642.697	312.169	-0.035	0.065
-641.682	256.259	0.083	0.143
-640.668	800.000	-0.065	-0.194
-639.653	-145.750	-0.116	-0.010
-638.638	-127.745	0.496	0.072
-637.624	297.779	-0.106	-0.196
-636.609	-133.145	-0.263	0.033
-635.595	-200.000	0.005	-0.042
-634.580	-19.888	0.067	0.041
-633.565	632.096	0.096	0.243
-632.551	163.818	-0.272	-0.384
-631.536	-136.960	0.259	-0.030
-630.522	-140.995	-0.232	-0.024
-629.507	-81.149	-0.102	-0.034
-628.492	19.852	0.215	-0.173
-627.478	-200.000	0.001	0.042
-626.463	-200.000	-0.040	0.238
-625.449	-153.332	-0.230	0.016
-624.434	26.984	0.099	0.083
-623.419	239.567	-0.087	0.144
-622.405	800.000	0.042	0.136
-621.390	559.124	-0.032	-0.077
-620.376	-92.149	-0.274	0.077
-619.361	-200.000	0.034	0.295
-618.346	25.373	0.074	0.061
-617.332	-200.000	-0.017	-0.177
-616.317	800.000	-0.088	-0.284
-615.303	-200.000	-0.049	0.337
-614.288	-200.000	0.040	0.201
-613.273	-144.046	-0.052	-0.005
-612.259	24.464	-0.110	-0.091
-611.244	-91.907	0.274	-0.078
-610.230	-134.576	-0.099	-0.012
-609.215	-130.904	-0.247	0.033
-608.201	-200.000	-0.096	0.483
-607.186	-48.804	-0.095	-0.045
-606.171	-200.000	0.038	-0.231
-605.157	276.331	0.103	-0.183
-604.142	334.529	-0.086	0.167
-603.128	800.000	-0.084	-0.369
-602.113	153.764	-0.004	-0.006
-601.098	365.710	0.139	0.280
-600.084	44.670	0.143	-0.132
-599.069	-49.539	-0.141	0.067
-598.055	-200.000	-0.043	-0.378
-597.040	-123.954	-0.109	0.017
-596.025	-200.000	0.059	0.323
-595.011	800.000	0.068	0.293
-593.996	-84.358	0.318	0.101
-592.982	-200.000	0.025	-0.237
-591.967	-94.215	0.208	-0.057
-590.952	-200.000	-0.061	-0.279
-589.938	-102.332	0.118	-0.028
-588.923	-91.121	-0.314	-0.090
-587.909	161.661	-0.145	-0.202
-586.894	176.304	-0.118	-0.171
-585.879	-103.876	0.101	0.024
-584.865	106.519	-0.147	-0.174
-583.850	434.939	-0.018	-0.038
-582.836	-73.113	-0.174	-0.064
-581.821	-62.651	-0.406	-0.168
-580.806	-82.683	-0.178	-0.058
-579.792	37.729	0.250	0.222
-578.777	-176.541	0.214	0.006
-577.763	-59.356	0.209	0.090
-576.748	-107.166	0.111	0.025
-575.733	333.118	-0.091	-0.176
-574.719	-115.855	0.067	-0.013
-573.704	464.264	0.044	-0.098
-572.690	-138.494	0.304	0.033
-571.675	240.087	-0.133	-0.222
-570.661	800.000	0.060	-0.170
-569.646	-44.604	0.223	-0.111
-568.631	-7.455	-0.157	-0.106
-567.617	800.000	-0.025	-0.105
-566.602	-65.174	-0.361	-0.145
-565.588	40.379	-0.107	0.096
-564.573	-35.150	-0.092	0.050
-563.558	-200.000	0.024	0.175
-562.544	54.027	-0.325	0.313
-561.529	-128.700	0.105	-0.015
-560.515	-135.822	-0.248	0.029
-559.500	-19.376	0.120	-0.074
-558.485	114.737	0.084	0.102
-557.471	-89.597	-0.249	-0.073
-556.456	-22.016	0.360	0.219
-555.442	-200.000	0.003	-0.076
-554.427	60.071	0.171	0.169
-553.412	-36.389	0.226	0.122
-552.398	-2.667	-0.183	-0.128
-551.383	-200.000	-0.005	-0.040
-550.369	146.867	0.021	-0.029
-549.354	-111.402	0.284	0.058
-548.339	-48.967	-0.311	0.149
-547.325	-22.888	-0.056	0.034
-546.310	61.097	0.150	0.149
-545.296	35.236	-0.273	-0.239
-544.281	-190.324	-0.064	-0.001
-543.266	-10.131	-0.180	-0.119
-542.252	800.000	0.062	-0.213
-541.237	212.297	-0.212	-0.333
-540.223	-85.480	0.182	-0.057
-539.208	131.038	0.073	-0.094
-538.193	-200.000	0.022	0.202
-537.179	-92.440	-0.230	0.065
-536.164	800.000	-0.007	0.031
-535.150	-109.125	-0.342	0.073
-534.135	-114.804	-0.288	-0.055
-533.121	-118.533	0.142	-0.025
-532.106	68.051	0.039	0.040
-531.091	280.004	-0.087	-0.156
-530.077	96.058	-0.329	-0.375
-529.062	-200.000	-0.016	0.127
-528.048	800.000	-0.068	-0.197
-527.033	-200.000	0.009	-0.190
-526.018	-126.320	0.368	0.055
-525.004	-200.000	-0.014	-0.296
-523.989	129.806	0.023	-0.030
-522.975	189.261	-0.208	-0.311
-521.960	99.826	-0.188	-0.218
-520.945	-69.547	0.154	-0.059
-519.931	-41.690	0.297	-0.152
-518.916	-79.903	-0.256	-0.086
-517.902	-200.000	0.042	-0.204
-516.887	-18.474	0.160	0.100
-515.872	-200.000	0.014	0.106
-514.858	679.094	-0.162	-0.420
-513.843	-147.824	-0.384	-0.032
-512.829	327.432	-0.091	-0.174
-511.814	-120.670	0.071	0.012
-510.799	-200.000	0.042	-0.341
-509.785	-176.053	0.167	-0.004
-508.770	-112.667	0.214	-0.043
-507.756	-200.000	0.016	0.143
-506.741	-182.029	0.178	-0.003
-505.726	63.110	-0.123	-0.123
-504.712	-200.000	0.047	-0.209
-503.697	-12.669	0.079	0.052
-502.683	-131.500	-0.261	0.034
-501.668	64.518	0.167	0.168
-500.653	97.791	-0.379	0.435
-499.639	800.000	0.096	-0.353
-498.624	117.269	-0.092	0.113
-497.610	71.322	0.188	0.194
-496.595	-122.679	-0.149	-0.024
-495.581	117.429	0.197	0.242
-494.566	164.141	-0.237	-0.333
-493.551	206.658	-0.212	-0.329
-492.537	319.281	-0.115	-0.218
-491.522	0.321	-0.056	-0.040
-490.508	-0.986	0.172	0.122
-489.493	-4.039	-0.306	-0.212
-488.478	-104.588	0.257	-0.059
-487.464	410.329	-0.107	0.225
-486.449	-161.556	0.276	0.014
-485.435	0.432	-0.303	0.216
-484.420	-184.575	0.181	-0.003
-483.405	25.702	0.292	-0.242
-482.391	54.488	-0.107	-0.103
-481.376	-125.343	0.437	0.066
-480.362	-100.311	0.106	-0.026
-479.347	241.193	-0.094	0.157
-478.332	800.000	0.060	-0.240
-477.318	-79.543	-0.044	-0.015
-476.303	-200.000	0.029	-0.225
-475.289	-200.000	0.024	-0.176
-474.274	-63.161	0.111	0.045
-473.259	800.000	0.089	0.272
-472.245	131.547	-0.089	-0.114
-471.230	-119.610	-0.140	-0.024
-470.216	-123.263	-0.162	0.026
-469.201	235.442	0.160	-0.263
-468.186	510.562	0.136	0.316
-467.172	211.710	-0.158	0.248
-466.157	-75.977	0.205	-0.072
-465.143	800.000	0.071	-0.223
-464.128	-145.909	-0.314	0.028
-463.113	-14.142	-0.168	-0.108
-462.099	193.775	0.281	-0.423
-461.084	800.000	0.193	0.542
-460.070	226.669	0.066	0.106
-459.055	206.892	0.083	-0.129
-458.040	10.580	0.108	0.082
-457.026	-200.000	-0.040	0.269
-456.011	-130.458	-0.352	0.047
-454.997	-119.957	-0.138	0.024
-453.982	-114.228	0.200	-0.038
-452.968	43.381	-0.149	0.136
-451.953	0.696	-0.189	0.134
-450.938	-200.000	0.072	0.339
-449.924	166.191	-0.162	0.228
-448.909	-84.256	0.110	-0.035
-447.895	111.304	-0.115	0.138
-446.880	-128.137	0.162	0.023
-445.865	-3.261	-0.122	0.085
-444.851	301.574	0.084	0.155
-443.836	-109.158	-0.273	-0.058
-442.822	-55.985	0.276	0.123
-441.807	563.922	0.114	0.275
-440.792	-200.000	-0.069	-0.324
-439.778	-160.883	-0.415	-0.022
-438.763	36.605	-0.110	0.097
-437.749	-200.000	0.002	-0.036
-436.734	102.534	0.080	-0.093
-435.719	-25.713	-0.084	0.049
-434.705	-200.000	0.051	0.249
-433.690	800.000	0.104	0.419
-432.676	-168.189	0.134	-0.005
-431.661	-31.618	0.474	-0.265
-430.646	-63.177	0.407	0.167
-429.632	501.933	0.080	-0.183
-428.617	278.134	-0.134	-0.237
-427.603	-104.151	0.173	-0.040
-426.588	800.000	-0.096	0.349
-425.573	-53.103	0.117	-0.053
-424.559	-120.615	-0.259	0.044
-423.544	30.444	0.224	0.190
-422.530	-105.619	0.217	0.049
-421.515	131.351	0.027	-0.035
-420.500	800.000	0.014	0.062
-419.486	-200.000	0.035	-0.224
-418.471	164.683	0.249	-0.349
-417.457	484.197	0.131	0.296
-416.442	-56.276	0.043	0.019
-415.428	-85.096	0.276	0.086
-414.413	98.187	-0.097	-0.111
-413.398	-60.546	-0.088	-0.037
-412.384	-57.800	0.184	0.080
-411.369	-200.000	-0.003	0.070
-410.355	-153.982	0.116	-0.008
-409.340	-151.150	-0.405	-0.030
-408.325	-200.000	-0.094	0.430
-407.311	74.845	0.107	-0.112
-406.296	97.582	-0.213	-0.243
-405.282	-61.784	0.242	0.101
-404.267	800.000	0.090	0.306
-403.252	-96.170	-0.306	0.081
-402.238	134.657	-0.242	-0.312
-401.223	-200.000	0.026	-0.160
-400.209	-129.305	-0.297	-0.041
-399.194	800.000	-0.044	-0.121
-398.179	-26.992	0.087	0.050
-397.165	48.851	-0.149	0.138
-396.150	-200.000	-0.100	-0.501
-395.136	-36.218	-0.159	0.085
-394.121	-200.000	-0.008	0.238
-393.106	152.881	0.100	0.136
-392.092	3.083	-0.149	-0.108
-391.077	-16.449	0.252	0.159
-390.063	800.000	-0.088	0.264
-389.048	2.825	0.196	0.142
-388.033	-13.125	0.049	0.032
-387.019	302.029	-0.079	0.145
-386.004	205.813	0.317	0.489
-384.990	800.000	0.075	-0.249
-383.975	-103.840	-0.234	-0.054
-382.960	96.702	-0.053	-0.061
-381.946	-30.378	0.240	-0.135
-380.931	204.197	-0.065	0.100
-379.917	134.365	0.238	-0.306
-378.902	30.790	0.316	0.269
-377.888	-200.000	0.006	0.383
-376.873	135.665	0.089	-0.115
-375.858	800.000	0.041	-0.175
-374.844	63.103	-0.274	0.273
-373.829	522.771	0.061	-0.142
-372.815	210.143	0.337	0.525
-371.800	-25.501	-0.260	0.152
-370.785	-100.869	0.302	0.074
-369.771	-91.485	-0.203	0.058
-368.756	-111.718	0.324	0.065
-367.742	207.594	0.107	0.166
-366.727	-200.000	0.020	0.113
-365.712	800.000	-0.071	-0.211
-364.698	334.219	-0.169	-0.324
-363.683	-103.495	-0.240	-0.056
-362.669	-41.818	0.196	0.100
-361.654	-200.000	-0.048	0.359
-360.639	422.160	0.086	0.182
-359.625	-9.381	0.280	0.185
-358.610	800.000	-0.040	-0.140
-357.596	800.000	0.082	-0.251
-356.581	-200.000	0.050	-0.487
-355.566	-200.000	-0.174	-0.001
-354.552	-71.684	0.262	0.097
-353.537	-98.878	0.104	0.026
-352.523	31.442	-0.297	-0.253
-351.508	366.443	-0.084	-0.169
-350.493	-89.024	0.140	-0.041
-349.479	-88.023	-0.090	0.027
-348.464	91.111	0.044	-0.049
-347.450	-165.351	-0.142	-0.006
-346.435	109.187	-0.178	0.212
-345.420	91.788	0.120	-0.134
-344.406	62.222	-0.110	0.108
-343.391	-200.000	-0.049	0.234
-342.377	78.056	0.231	0.244
-341.362	-200.000	-0.016	-0.105
-340.348	-77.305	-0.055	-0.019
-339.333	-43.570	0.310	-0.155
-338.318	-133.332	-0.101	-0.013
-337.304	297.535	-0.124	-0.225
-336.289	-87.577	0.336	0.101
-335.275	-173.207	-0.219	-0.007
-334.260	-135.188	-0.364	0.043
-333.245	800.000	-0.081	0.255
-332.231	800.000	-0.130	0.416
-331.216	176.248	0.099	0.143
-330.202	-35.289	-0.178	0.096
-329.187	-200.000	-0.076	0.371
-328.172	97.032	-0.041	0.047
-327.158	800.000	-0.094	0.293
-326.143	-60.543	0.437	0.184
-325.129	-87.687	0.142	0.042
-324.114	-124.977	-0.165	-0.025
-323.099	-200.000	0.055	0.332
-322.085	-124.506	0.202	-0.031
-321.070	800.000	0.060	-0.258
-320.056	-200.000	-0.058	0.517
-319.041	-166.858	0.159	-0.006
-318.026	-51.257	0.232	-0.108
-317.012	1.159	-0.110	0.078
-315.997	44.089	-0.113	0.102
-314.983	800.000	0.045	0.131
-313.968	-200.000	-0.005	-0.073
-312.953	-200.000	0.026	-0.235
-311.939	-137.082	0.165	-0.019
-310.924	-114.962	0.074	0.014
-309.910	8.559	-0.206	-0.154
-308.895	-106.238	0.176	-0.039
-307.880	650.630	-0.137	0.347
-306.866	70.822	0.026	-0.026
-305.851	-3.436	-0.357	0.246
-304.837	83.666	-0.243	0.262
-303.822	140.398	0.109	-0.142
-302.807	57.144	-0.286	0.276
-301.793	-82.939	-0.400	-0.128
-300.778	-95.206	-0.284	-0.076
-299.764	-200.000	0.002	-0.086
-298.749	800.000	0.099	-0.391
-297.735	800.000	0.025	-0.106
-296.720	-200.000	0.013	0.234
-295.705	28.242	0.266	0.222
-294.691	120.618	-0.122	0.150
-293.676	765.681	-0.091	-0.244
-292.662	95.363	-0.267	-0.301
-291.647	173.157	0.065	0.092
-290.632	191.943	-0.165	-0.246
-289.618	-106.045	0.098	-0.022
-288.603	800.000	0.084	-0.273
-287.589	-9.014	-0.267	-0.177
-286.574	-158.291	0.221	-0.013
-285.559	212.407	-0.098	0.152
-284.545	37.672	-0.135	0.119
-283.530	800.000	-0.037	0.147
-282.516	-5.609	-0.098	-0.066
-281.501	-115.627	-0.188	-0.035
-280.486	8.012	0.184	0.136
-279.472	106.106	-0.011	-0.013
-278.457	445.167	0.048	0.104
-277.443	719.915	0.049	-0.128
-276.428	-81.118	-0.136	0.044
-275.413	100.158	0.090	-0.104
-274.399	398.742	0.019	-0.039
-273.384	134.210	0.017	-0.022
-272.370	-29.401	0.105	-0.060
-271.355	-80.120	-0.194	-0.064
-270.340	86.676	-0.190	0.207
-269.326	4.687	-0.370	-0.269
-268.311	-81.251	-0.202	-0.066
-267.297	-26.639	0.218	-0.126
-266.282	-66.431	-0.051	0.020
-265.267	-200.000	0.004	0.227
-264.253	-185.256	0.342	0.005
-263.238	-108.867	-0.365	0.077
-262.224	-135.252	0.313	0.037
-261.209	800.000	0.022	-0.080
-260.195	26.389	-0.154	-0.127
-259.180	-56.257	-0.217	-0.095
-258.165	85.758	0.063	-0.068
-257.151	-77.531	-0.079	-0.027
-256.136	-161.502	-0.177	-0.009
-255.122	765.762	-0.097	-0.261
-254.107	-71.857	-0.305	-0.112
-253.092	-129.981	-0.200	0.027
-252.078	303.464	0.015	0.027
-251.063	33.331	0.482	0.413
-250.049	26.846	-0.120	0.099
-249.034	-200.000	0.003	0.040
-248.019	-200.000	-0.001	-0.255
-247.005	-14.830	0.193	-0.122
-245.990	-18.814	0.201	0.124
-244.976	-89.394	0.296	0.086
-243.961	-200.000	0.007	-0.187
-242.946	800.000	0.026	0.084
-241.932	80.174	0.263	0.279
-240.917	115.971	0.238	0.287
-239.903	-25.082	-0.045	-0.027
-238.888	-113.781	0.080	0.015
-237.873	-200.000	0.040	-0.362
-236.859	511.643	-0.020	0.046
-235.844	800.000	0.090	0.254
-234.830	-104.629	0.169	0.038
-233.815	34.283	0.089	-0.077
-232.800	71.147	0.110	-0.113
-231.786	41.699	-0.150	0.134
-230.771	92.166	-0.151	-0.167
-229.757	-17.532	0.199	-0.123
-228.742	585.098	-0.057	0.138
-227.727	-118.479	-0.171	0.030
-226.713	-200.000	-0.027	0.248
-225.698	800.000	0.159	-0.527
-224.684	267.814	-0.092	-0.159
-223.669	664.325	-0.167	-0.425
-222.655	577.547	-0.049	0.119
-221.640	-134.631	0.472	-0.057
-220.625	-89.322	0.077	-0.022
-219.611	188.903	-0.107	-0.158
-218.596	-200.000	0.012	0.173
-217.582	-147.302	0.070	-0.006
-216.567	-44.967	0.398	0.195
-215.552	160.786	-0.116	-0.159
-214.538	120.330	-0.104	0.127
-213.523	178.212	0.135	0.194
-212.509	121.896	-0.036	0.044
-211.494	-200.000	0.015	0.160
-210.479	-120.283	-0.309	-0.052
-209.465	-155.004	0.194	-0.013
-208.450	490.733	-0.116	-0.261
-207.436	-60.218	0.183	-0.077
-206.421	131.777	-0.285	-0.362
-205.406	13.080	0.153	0.117
-204.392	800.000	0.084	0.250
-203.377	-125.108	0.152	0.023
-202.363	387.296	-0.125	0.255
-201.348	-95.103	0.135	-0.036
-200.333	-30.875	0.212	-0.118
-199.319	542.057	0.085	0.199
-198.304	-200.000	0.054	-0.459
-197.290	-117.113	0.269	-0.048
-196.275	-67.211	-0.211	-0.082
-195.260	-34.594	0.085	-0.046
-194.246	-179.424	0.121	-0.003
-193.231	-1.956	0.042	-0.029
-192.217	-112.603	0.191	0.037
-191.202	204.881	-0.093	-0.142
-190.187	62.479	0.297	-0.292
-189.173	-200.000	-0.050	-0.362
-188.158	119.683	0.219	0.267
-187.144	-200.000	0.025	0.146
-186.129	201.082	-0.132	0.201
-185.114	291.013	-0.093	-0.167
-184.100	800.000	-0.085	-0.266
-183.085	160.789	0.042	-0.057
-182.071	-106.302	-0.196	-0.043
-181.056	-163.030	0.200	0.010
-180.042	-86.607	0.178	0.054
-179.027	476.967	0.124	0.277
-178.012	-200.000	-0.037	0.302
-176.998	590.413	-0.134	0.325
-175.983	-125.159	0.085	-0.013
-174.969	-61.836	-0.133	0.055
-173.954	-200.000	0.016	0.228
-172.939	800.000	0.065	-0.194
-171.925	15.944	-0.072	0.056
-170.910	800.000	0.064	0.230
-169.896	424.495	0.114	-0.242
-168.881	-60.585	-0.242	-0.101
-167.866	-88.122	0.081	0.024
-166.852	-135.653	-0.346	-0.040
-165.837	-99.136	-0.283	0.070
-164.823	-61.354	-0.187	0.077
-163.808	272.551	0.100	0.174
-162.793	-74.049	0.112	-0.040
-161.779	-38.250	0.186	-0.097
-160.764	735.075	-0.091	0.241
-159.750	-200.000	0.032	0.153
-158.735	176.617	-0.050	-0.072
-157.720	428.917	0.110	-0.234
-156.706	-91.948	0.133	-0.037
-155.691	-190.688	-0.146	0.002
-154.677	-200.000	0.036	-0.214
-153.662	-121.102	-0.368	0.061
-152.647	110.479	0.205	-0.243
-151.633	-200.000	0.010	0.157
-150.618	208.591	0.031	0.047
-149.604	-11.760	-0.112	-0.073
-148.589	14.808	0.223	0.172
-147.574	-52.203	0.238	-0.109
-146.560	-43.943	0.135	0.067
-145.545	-200.000	-0.013	0.460
-144.531	42.719	-0.140	-0.126
-143.516	-21.777	-0.304	0.182
-142.502	152.399	0.064	0.085
-141.487	-53.554	0.296	0.133
-140.472	-104.889	-0.243	0.055
-139.458	-103.074	0.142	0.033
-138.443	105.121	-0.253	0.294
-137.429	-37.722	0.155	0.081
-136.414	22.222	0.125	-0.100
-135.399	-200.000	0.092	-0.551
-134.385	506.891	0.151	-0.344
-133.370	417.955	-0.126	-0.266
-132.356	224.122	0.021	0.034
-131.341	-200.000	-0.028	0.313
-130.326	-57.342	-0.011	-0.005
-129.312	800.000	-0.023	0.080
-128.297	338.283	-0.135	0.259
-127.283	-86.755	0.182	0.055
-126.268	-63.007	0.125	0.051
-125.253	-77.252	-0.215	0.074
-124.239	-96.465	0.114	-0.030
-123.224	-121.350	-0.236	-0.039
-122.210	422.814	-0.007	0.015
