DTS Sentinel unit serial number:	SN413079Multiplexer serial number:	ORYXHardware model number:	OX4-SRSoftware version number:	ORYX F/W v4.00 Oryx Data Collector v3.7.2.0data status	okinstallation	princeton_trtdifferential loss correction	single-endedforward channel	channel 3reverse channel	N/Adate	2019/09/16time	04:00:34forward acquisition time	60.00reverse acquisition time	0.00gamma	496.2192k internal	0.2335k external	0.2335temperature offset calibration	0.9955default loss term (dB/km)	0.3790temperature slope calibration	1.0000multiplexer offset coefficient	1.0000multiplexer slope coefficient	1.0000fibre end	0.00T internal ref (°C)	27.47T ext. ref 1 (°C)	10.71T ext. ref 2 (°C)	21.46length (m)	temperature (°C)	Stokes	anti-Stokes-747.200	125.495	0.194	-0.245
-746.185	800.000	-0.139	0.457
-745.171	-116.128	0.213	0.040
-744.156	303.507	-0.123	0.230
-743.142	0.667	0.225	-0.162
-742.127	35.172	-0.195	0.172
-741.112	-110.600	0.491	-0.102
-740.098	-70.986	-0.193	0.073
-739.083	147.929	-0.144	-0.194
-738.069	-200.000	0.038	0.234
-737.054	-96.797	-0.327	0.086
-736.039	-60.507	0.062	-0.026
-735.025	75.154	0.214	0.227
-734.010	36.658	0.073	0.065
-732.996	33.909	-0.334	-0.292
-731.981	-53.181	-0.021	-0.010
-730.966	728.058	-0.155	0.416
-729.952	-200.000	-0.026	-0.273
-728.937	186.455	0.185	-0.277
-727.923	800.000	-0.054	-0.156
-726.908	-200.000	0.070	-0.350
-725.894	-59.372	-0.224	-0.097
-724.879	332.594	-0.128	-0.248
-723.864	226.673	0.118	-0.192
-722.850	-38.205	0.182	0.097
-721.835	-68.742	-0.398	-0.154
-720.821	-74.815	-0.006	-0.002
-719.806	-200.000	0.042	0.291
-718.791	-28.200	-0.134	-0.078
-717.777	38.750	0.230	-0.206
-716.762	-200.000	-0.031	-0.297
-715.748	-153.412	0.306	0.021
-714.733	53.641	-0.092	-0.089
-713.718	-118.486	-0.349	0.062
-712.704	77.824	0.222	-0.237
-711.689	623.044	-0.162	0.410
-710.675	-200.000	-0.292	-0.000
-709.660	-200.000	-0.015	0.489
-708.645	-154.098	0.368	0.025
-707.631	-200.000	0.000	-0.102
-706.616	387.377	0.072	-0.149
-705.602	-7.216	-0.108	0.074
-704.587	-200.000	0.003	-0.071
-703.572	133.937	-0.175	-0.228
-702.558	800.000	-0.124	-0.357
-701.543	-20.460	-0.271	-0.167
-700.529	292.014	-0.117	-0.213
-699.514	80.614	0.079	0.086
-698.499	800.000	0.042	0.156
-697.485	-15.769	0.247	0.158
-696.470	9.316	0.244	0.185
-695.456	-12.588	-0.269	0.176
-694.441	800.000	0.012	-0.051
-693.426	-85.697	-0.121	0.038
-692.412	800.000	0.015	-0.046
-691.397	-64.785	-0.105	-0.043
-690.383	-200.000	-0.065	0.287
-689.368	800.000	-0.113	-0.455
-688.354	-83.050	0.191	-0.062
-687.339	270.232	-0.112	0.198
-686.324	-200.000	0.033	0.364
-685.310	12.685	-0.268	-0.208
-684.295	84.771	-0.156	-0.172
-683.281	540.262	-0.057	-0.136
-682.266	-62.139	-0.040	-0.017
-681.251	-170.821	0.573	0.020
-680.237	655.558	-0.145	0.373
-679.222	126.916	0.158	-0.201
-678.208	112.250	0.310	-0.376
-677.193	-200.000	-0.026	-0.321
-676.178	191.610	0.106	-0.159
-675.164	20.211	-0.082	0.066
-674.149	-54.777	0.381	-0.172
-673.135	151.519	0.291	0.397
-672.120	-154.869	0.152	0.010
-671.105	100.497	0.141	0.164
-670.091	-200.000	-0.003	0.167
-669.076	-190.309	0.070	-0.001
-668.062	800.000	0.094	0.296
-667.047	-109.962	0.147	0.031
-666.032	228.968	-0.095	0.155
-665.018	-194.797	-0.130	0.001
-664.003	800.000	-0.081	-0.252
-662.989	-89.507	-0.011	-0.003
-661.974	-15.575	0.294	-0.188
-660.959	450.367	0.115	-0.254
-659.945	-200.000	-0.076	-0.398
-658.930	169.098	-0.113	-0.162
-657.916	-179.574	-0.109	0.002
-656.901	107.209	-0.152	-0.181
-655.886	-12.227	-0.274	-0.180
-654.872	650.512	-0.129	0.331
-653.857	109.766	-0.197	-0.236
-652.843	-109.809	-0.178	0.037
-651.828	-81.169	0.120	0.040
-650.814	15.762	0.114	0.089
-649.799	-1.493	-0.379	-0.268
-648.784	-200.000	-0.032	-0.211
-647.770	-200.000	0.016	0.183
-646.755	-93.295	-0.453	0.126
-645.741	549.949	-0.014	0.034
-644.726	-46.497	-0.206	0.101
-643.711	-200.000	-0.054	0.318
-642.697	-3.995	0.202	-0.140
-641.682	-33.663	0.257	-0.142
-640.668	-153.207	-0.336	0.024
-639.653	34.263	-0.267	0.233
-638.638	800.000	0.045	-0.170
-637.624	501.364	-0.212	-0.490
-636.609	-200.000	-0.002	-0.450
-635.595	-200.000	-0.059	-0.345
-634.580	-64.816	-0.145	-0.059
-633.565	-171.465	0.490	-0.016
-632.551	-200.000	0.000	-0.083
-631.536	-200.000	0.002	-0.038
-630.522	-32.540	-0.131	-0.073
-629.507	-120.750	-0.255	0.043
-628.492	-94.374	0.288	-0.079
-627.478	68.458	-0.159	0.163
-626.463	-32.993	0.057	0.031
-625.449	-75.373	-0.364	0.130
-624.434	2.683	-0.234	-0.169
-623.419	15.078	-0.081	-0.063
-622.405	-200.000	-0.005	0.245
-621.390	-200.000	-0.080	-0.463
-620.376	-130.759	0.452	-0.061
-619.361	-110.497	-0.175	0.036
-618.346	-139.145	-0.327	0.035
-617.332	37.601	0.168	0.149
-616.317	-72.592	0.571	0.211
-615.303	-173.406	0.113	0.003
-614.288	298.862	0.060	-0.111
-613.273	-200.000	0.005	-0.199
-612.259	41.970	-0.102	-0.093
-611.244	-104.822	-0.239	-0.055
-610.230	-65.064	0.207	0.084
-609.215	800.000	-0.093	0.314
-608.201	-161.691	-0.229	0.012
-607.186	64.463	0.209	-0.210
-606.171	-139.606	-0.173	-0.018
-605.157	122.278	0.061	0.076
-604.142	-164.265	-0.235	0.011
-603.128	54.951	0.325	0.314
-602.113	133.515	0.072	0.093
-601.098	176.520	-0.151	-0.219
-600.084	-45.505	-0.059	-0.029
-599.069	-200.000	-0.048	0.213
-598.055	-200.000	0.050	0.284
-597.040	325.326	-0.122	-0.233
-596.025	-17.881	0.176	-0.110
-595.011	135.872	-0.033	0.042
-593.996	-21.836	0.192	0.117
-592.982	122.517	-0.172	-0.215
-591.967	-43.765	0.269	0.135
-590.952	73.347	0.191	-0.199
-589.938	-98.024	-0.166	0.043
-588.923	-15.290	-0.266	-0.170
-587.909	-200.000	-0.010	0.168
-586.894	-88.064	-0.249	0.075
-585.879	10.068	-0.227	0.172
-584.865	91.310	-0.181	0.203
-583.850	800.000	-0.090	-0.301
-582.836	198.441	0.150	-0.229
-581.821	800.000	0.031	0.091
-580.806	-40.494	-0.486	0.252
-579.792	580.927	-0.048	0.116
-578.777	210.628	0.130	-0.204
-577.763	-200.000	-0.016	-0.332
-576.748	-133.536	0.152	-0.019
-575.733	244.716	-0.075	0.126
-574.719	283.698	0.147	-0.264
-573.704	-200.000	0.002	-0.201
-572.690	47.983	-0.037	-0.035
-571.675	154.137	0.225	0.308
-570.661	-200.000	-0.032	0.183
-569.646	-43.925	-0.161	-0.081
-568.631	-34.742	-0.031	0.017
-567.617	-47.719	-0.358	-0.173
-566.602	132.878	-0.204	-0.263
-565.588	34.256	0.302	-0.263
-564.573	379.287	0.064	-0.131
-563.558	337.498	-0.075	-0.145
-562.544	-89.924	0.277	-0.081
-561.529	-35.606	0.097	0.053
-560.515	-55.778	-0.324	0.144
-559.500	-16.183	0.088	0.056
-558.485	-120.228	-0.089	-0.015
-557.471	-86.994	-0.540	0.164
-556.456	-105.813	-0.057	0.013
-555.442	-148.468	0.233	-0.019
-554.427	-200.000	0.003	-0.042
-553.412	36.398	-0.250	-0.220
-552.398	2.131	-0.156	0.112
-551.383	408.809	-0.097	-0.205
-550.369	-82.567	0.228	0.074
-549.354	17.324	0.050	0.040
-548.339	-102.351	0.174	-0.042
-547.325	800.000	0.070	0.228
-546.310	-33.236	-0.117	0.065
-545.296	26.759	0.169	-0.142
-544.281	800.000	0.066	-0.190
-543.266	159.582	-0.130	-0.181
-542.252	-144.623	0.089	-0.008
-541.237	-200.000	0.019	0.249
-540.223	460.677	-0.153	-0.339
-539.208	439.798	-0.024	-0.052
-538.193	316.019	0.199	0.374
-537.179	-200.000	-0.032	0.195
-536.164	28.226	0.185	-0.155
-535.150	128.488	-0.161	-0.205
-534.135	257.393	0.089	0.152
-533.121	-88.814	0.222	0.066
-532.106	478.458	-0.070	0.159
-531.091	-200.000	0.028	-0.190
-530.077	-200.000	0.042	-0.190
-529.062	255.039	0.068	-0.116
-528.048	-193.082	0.301	0.003
-527.033	-112.013	-0.029	0.006
-526.018	-144.085	0.103	0.010
-525.004	-200.000	-0.039	0.247
-523.989	-50.946	-0.318	-0.149
-522.975	597.530	-0.107	-0.263
-521.960	89.446	0.183	-0.204
-520.945	-200.000	0.010	0.367
-519.931	-26.483	-0.265	-0.155
-518.916	-200.000	0.035	-0.389
-517.902	436.815	0.150	0.325
-516.887	99.410	0.039	-0.045
-515.872	-140.868	-0.263	-0.027
-514.858	800.000	-0.083	0.298
-513.843	-200.000	-0.037	0.239
-512.829	-49.279	0.255	-0.121
-511.814	-200.000	0.048	0.291
-510.799	239.998	-0.112	-0.186
-509.785	-89.966	-0.389	-0.113
-508.770	31.161	-0.173	-0.148
-507.756	536.679	0.077	0.182
-506.741	-96.160	0.237	-0.063
-505.726	-143.418	-0.260	-0.025
-504.712	-66.558	0.273	0.108
-503.697	-82.630	0.123	-0.040
-502.683	-200.000	-0.002	-0.148
-501.668	-200.000	0.015	-0.111
-500.653	110.068	-0.255	-0.304
-499.639	-32.633	0.082	0.046
-498.624	-92.445	-0.361	0.101
-497.610	-135.572	-0.133	-0.016
-496.595	-100.629	0.131	0.032
-495.581	33.728	0.168	0.145
-494.566	48.435	-0.315	-0.294
-493.551	-2.295	-0.048	-0.034
-492.537	800.000	0.019	-0.052
-491.522	-40.645	0.145	0.075
-490.508	800.000	-0.018	0.054
-489.493	198.297	-0.075	0.113
-488.478	-170.072	0.039	-0.001
-487.464	-64.235	0.217	0.088
-486.449	-200.000	0.008	-0.152
-485.435	249.442	0.023	-0.039
-484.420	-200.000	-0.000	-0.074
-483.405	139.061	-0.079	-0.104
-482.391	-108.513	0.186	0.040
-481.376	239.736	-0.083	-0.138
-480.362	363.193	-0.101	-0.202
-479.347	260.827	-0.071	0.122
-478.332	289.774	-0.073	0.131
-477.318	-200.000	0.039	0.271
-476.303	168.233	-0.198	0.280
-475.289	-169.175	0.149	0.005
-474.274	-20.916	-0.374	0.228
-473.259	187.867	0.253	-0.376
-472.245	-36.806	-0.186	0.099
-471.230	800.000	0.095	-0.310
-470.216	-200.000	0.020	-0.223
-469.201	296.250	-0.156	-0.285
-468.186	-200.000	0.005	0.111
-467.172	-200.000	0.042	-0.200
-466.157	401.874	0.072	0.150
-465.143	-56.642	-0.309	0.136
-464.128	67.040	0.065	-0.066
-463.113	41.524	0.053	-0.048
-462.099	-51.898	0.080	0.037
-461.084	342.037	-0.057	0.110
-460.070	-132.078	-0.129	-0.017
-459.055	611.885	0.029	0.071
-458.040	-43.340	-0.123	-0.062
-457.026	-22.216	-0.274	-0.165
-456.011	94.614	-0.079	-0.089
-454.997	800.000	0.136	0.414
-453.982	-52.464	0.196	0.090
-452.968	660.587	0.059	-0.151
-451.953	-24.961	-0.163	-0.096
-450.938	729.290	-0.113	0.301
-449.924	41.968	0.173	-0.156
-448.909	65.762	-0.027	0.027
-447.895	800.000	-0.065	-0.232
-446.880	14.753	-0.142	0.111
-445.865	-113.879	-0.150	-0.029
-444.851	-129.304	-0.185	0.026
-443.836	-104.891	-0.022	0.005
-442.822	81.935	0.392	0.422
-441.807	-57.343	0.188	0.082
-440.792	-118.148	-0.162	-0.029
-439.778	800.000	-0.041	0.135
-438.763	-130.415	0.195	-0.026
-437.749	597.929	-0.052	-0.128
-436.734	398.426	-0.110	-0.228
-435.719	303.160	-0.037	-0.069
-434.705	-10.885	-0.377	0.247
-433.690	-65.872	0.167	-0.066
-432.676	5.093	-0.220	0.161
-431.661	-22.883	0.096	-0.057
-430.646	100.907	-0.213	0.246
-429.632	96.459	-0.220	0.250
-428.617	627.019	-0.077	-0.193
-427.603	-47.319	-0.096	-0.047
-426.588	-98.200	-0.248	-0.063
-425.573	640.237	0.077	-0.194
-424.559	18.241	-0.104	-0.082
-423.544	121.760	-0.090	0.112
-422.530	800.000	0.079	0.216
-421.515	602.939	0.065	-0.160
-420.500	-127.167	-0.092	-0.013
-419.486	800.000	0.057	0.227
-418.471	41.858	0.137	0.124
-417.457	800.000	0.033	-0.132
-416.442	131.342	-0.227	-0.289
-415.428	2.706	-0.209	0.151
-414.413	-200.000	-0.062	0.356
-413.398	-5.656	-0.303	0.206
-412.384	212.381	-0.170	-0.266
-411.369	-100.561	-0.410	0.101
-410.355	601.190	-0.057	-0.141
-409.340	-200.000	0.031	0.270
-408.325	-200.000	0.051	-0.285
-407.311	-24.943	0.121	-0.071
-406.296	194.865	0.195	0.294
-405.282	-134.539	0.281	0.034
-404.267	102.646	-0.124	0.144
-403.252	-200.000	-0.015	-0.401
-402.238	72.164	-0.176	0.181
-401.223	-200.000	0.013	0.313
-400.209	-24.254	-0.191	-0.113
-399.194	-2.466	-0.131	-0.091
-398.179	201.735	-0.209	-0.319
-397.165	-200.000	0.081	-0.467
-396.150	-80.901	0.268	0.088
-395.136	477.170	-0.094	-0.210
-394.121	800.000	0.014	0.047
-393.106	-200.000	0.026	0.118
-392.092	130.612	0.229	0.291
-391.077	-53.724	0.242	-0.109
-390.063	-200.000	0.026	0.153
-389.048	800.000	0.048	0.146
-388.033	800.000	0.106	0.318
-387.019	800.000	0.112	0.413
-386.004	309.037	0.175	0.323
-384.990	-109.218	0.047	0.010
-383.975	-44.828	0.210	0.104
-382.960	587.430	-0.157	0.383
-381.946	-62.465	0.254	-0.105
-380.931	-200.000	-0.021	-0.263
-379.917	-200.000	0.002	0.127
-378.902	43.422	0.223	0.202
-377.888	617.641	-0.097	-0.242
-376.873	190.168	0.122	-0.182
-375.858	63.064	0.384	0.381
-374.844	-200.000	-0.009	-0.208
-373.829	2.964	-0.306	0.220
-372.815	-74.504	0.063	0.022
-371.800	-79.995	0.112	0.037
-370.785	-0.223	0.204	-0.144
-369.771	240.288	0.133	-0.219
-368.756	-41.215	-0.057	0.029
-367.742	61.614	0.092	-0.090
-366.727	-200.000	0.006	-0.185
-365.712	-148.326	0.377	0.031
-364.698	-80.217	-0.142	-0.047
-363.683	-200.000	0.060	-0.477
-362.669	-118.078	-0.311	0.055
-361.654	583.836	0.110	-0.267
-360.639	420.510	0.138	0.293
-359.625	800.000	-0.032	0.111
-358.610	10.907	-0.117	-0.089
-357.596	-200.000	-0.048	0.220
-356.581	-85.459	0.410	-0.126
-355.566	-90.705	-0.333	-0.095
-354.552	-200.000	-0.006	0.199
-353.537	-135.470	0.206	-0.024
-352.523	798.325	-0.090	0.246
-351.508	97.080	0.030	0.034
-350.493	-200.000	0.033	-0.241
-349.479	18.695	0.137	0.109
-348.464	800.000	0.096	-0.275
-347.450	-200.000	-0.005	0.155
-346.435	-29.278	0.086	0.049
-345.420	38.327	0.119	0.105
-344.406	-4.068	0.151	-0.103
-343.391	-83.113	-0.279	0.089
-342.377	-200.000	-0.035	0.177
-341.362	-163.086	0.168	-0.008
-340.348	20.847	0.147	-0.117
-339.333	-200.000	0.011	0.565
-338.318	-200.000	-0.005	0.034
-337.304	-45.904	0.125	0.061
-336.289	-200.000	-0.018	0.174
-335.275	800.000	-0.019	0.082
-334.260	-200.000	-0.078	0.547
-333.245	-178.503	0.220	0.005
-332.231	97.864	0.029	-0.033
-331.216	127.621	-0.190	0.238
-330.202	-200.000	-0.003	0.137
-329.187	54.909	-0.172	-0.164
-328.172	518.551	0.098	0.227
-327.158	-200.000	-0.009	0.327
-326.143	113.435	0.130	-0.155
-325.129	-116.948	0.321	0.058
-324.114	40.984	0.147	0.131
-323.099	469.963	0.097	-0.216
-322.085	-147.202	0.286	-0.024
-321.070	10.846	0.178	-0.134
-320.056	218.474	0.044	0.070
-319.041	800.000	0.061	-0.192
-318.026	-76.982	0.101	-0.035
-317.012	160.707	-0.070	0.097
-315.997	-39.465	-0.267	0.138
-314.983	661.177	0.030	-0.076
-313.968	-45.751	0.215	0.105
-312.953	32.211	-0.225	-0.192
-311.939	243.516	0.126	0.209
-310.924	-62.992	0.191	0.078
-309.910	-43.476	-0.393	-0.196
-308.895	169.139	0.117	-0.164
-307.880	311.612	0.095	0.176
-306.866	-53.503	0.119	-0.054
-305.851	-200.000	0.007	-0.247
-304.837	146.997	-0.208	-0.276
-303.822	-56.080	-0.062	-0.027
-302.807	155.990	0.119	-0.161
-301.793	354.553	-0.150	0.295
-300.778	-142.407	0.296	0.029
-299.764	-200.000	-0.040	-0.234
-298.749	-200.000	0.011	-0.122
-297.735	92.426	0.049	-0.055
-296.720	-102.980	-0.169	-0.040
-295.705	45.820	0.247	0.225
-294.691	-113.388	0.222	-0.043
-293.676	31.971	0.186	-0.158
-292.662	-168.176	0.101	0.004
-291.647	-81.896	-0.224	-0.072
-290.632	-71.899	0.055	-0.020
-289.618	320.229	-0.149	-0.279
-288.603	82.223	0.242	-0.259
-287.589	472.671	-0.088	0.197
-286.574	800.000	-0.133	-0.388
-285.559	-71.166	0.124	0.046
-284.545	57.482	-0.082	-0.079
-283.530	800.000	-0.080	-0.250
-282.516	443.874	-0.143	-0.310
-281.501	90.414	0.131	0.145
-280.486	800.000	0.034	-0.102
-279.472	36.122	0.263	0.229
-278.457	-80.366	-0.271	-0.089
-277.443	34.348	-0.182	0.156
-276.428	51.439	-0.037	0.035
-275.413	800.000	-0.082	0.262
-274.399	182.651	0.166	0.241
-273.384	780.372	0.049	-0.132
-272.370	-200.000	-0.016	0.215
-271.355	17.707	-0.175	0.138
-270.340	-98.031	0.325	0.082
-269.326	-28.809	-0.250	0.142
-268.311	317.738	-0.042	0.078
-267.297	-136.109	-0.290	-0.034
-266.282	-142.921	-0.171	-0.016
-265.267	-169.346	0.167	0.006
-264.253	800.000	-0.054	-0.204
-263.238	263.845	0.118	0.202
-262.224	678.859	0.152	0.389
-261.209	10.437	-0.499	0.375
-260.195	-54.206	0.088	0.040
-259.180	50.402	-0.062	0.058
-258.165	-64.530	0.153	-0.061
-257.151	172.637	-0.338	-0.480
-256.136	-10.718	0.088	-0.058
-255.122	385.571	-0.120	0.245
-254.107	191.391	-0.077	-0.114
-253.092	-61.958	0.204	-0.084
-252.078	391.124	0.083	-0.170
-251.063	-8.267	0.201	-0.133
-250.049	-56.200	-0.144	-0.063
-249.034	103.675	-0.236	-0.273
-248.019	191.513	0.044	0.065
-247.005	185.198	0.107	-0.157
-245.990	-128.366	0.368	-0.052
-244.976	29.125	0.216	-0.180
-243.961	124.443	0.099	-0.123
-242.946	-200.000	0.053	0.448
-241.932	591.395	0.046	0.113
-240.917	65.696	0.133	0.133
-239.903	-0.731	0.070	-0.049
-238.888	603.084	0.129	0.317
-237.873	-200.000	-0.066	0.389
-236.859	-113.191	0.027	0.005
-235.844	-200.000	0.024	-0.119
-234.830	-200.000	0.130	0.563
-233.815	-200.000	-0.016	0.506
-232.800	-175.034	-0.174	-0.005
-231.786	74.075	-0.187	-0.193
-230.771	379.585	0.136	-0.274
-229.757	-165.925	0.021	-0.001
-228.742	214.499	-0.073	-0.113
-227.727	20.799	0.213	0.170
-226.713	204.306	-0.095	-0.145
-225.698	170.570	-0.177	0.250
-224.684	198.380	-0.206	0.310
-223.669	-116.229	-0.145	0.026
-222.655	174.078	0.033	-0.047
-221.640	-75.383	0.240	0.084
-220.625	313.737	-0.120	-0.221
-219.611	693.519	0.052	-0.135
-218.596	15.188	0.196	-0.151
-217.582	-187.018	-0.382	0.005
-216.567	-200.000	-0.072	0.477
-215.552	117.783	0.229	0.277
-214.538	-5.678	0.286	0.193
-213.523	-85.107	0.010	-0.003
-212.509	-200.000	-0.007	-0.141
-211.494	-200.000	0.485	0.000
-210.479	454.263	-0.101	-0.221
-209.465	-200.000	0.063	0.344
-208.450	283.327	-0.071	-0.126
-207.436	2.513	-0.109	-0.078
-206.421	-200.000	-0.027	-0.142
-205.406	800.000	-0.033	-0.138
-204.392	-79.673	0.323	0.107
-203.377	519.127	0.005	0.012
-202.363	-114.966	0.685	-0.128
-201.348	142.479	0.086	-0.113
-200.333	22.162	0.279	0.224
-199.319	-65.111	-0.290	-0.115
-198.304	264.597	0.161	-0.276
-197.290	299.808	0.135	0.245
-196.275	-42.596	0.071	-0.036
-195.260	21.568	0.185	-0.148
-194.246	84.588	0.158	0.170
-193.231	7.384	0.096	0.070
-192.217	-54.934	0.159	-0.070
-191.202	-200.000	-0.011	0.092
-190.187	800.000	-0.053	0.177
-189.173	196.010	-0.136	-0.203
-188.158	-200.000	0.030	-0.441
-187.144	800.000	-0.038	-0.147
-186.129	-131.768	0.395	0.051
-185.114	-76.673	-0.106	-0.036
-184.100	800.000	-0.016	-0.055
-183.085	614.389	-0.185	-0.455
-182.071	-143.201	0.138	0.013
-181.056	-53.553	-0.145	-0.065
-180.042	230.701	0.117	-0.189
-179.027	-79.539	0.108	-0.036
-178.012	-76.130	-0.208	0.072
-176.998	-97.833	-0.132	0.034
-175.983	-30.380	-0.200	-0.111
-174.969	-7.206	-0.215	0.143
-173.954	800.000	-0.021	0.080
-172.939	50.016	-0.303	-0.281
-171.925	-200.000	-0.015	0.169
-170.910	-200.000	0.017	0.217
-169.896	63.292	0.096	0.095
-168.881	1.087	0.303	0.214
-167.866	369.781	-0.096	0.190
-166.852	88.121	0.034	0.038
-165.837	-200.000	-0.042	0.207
-164.823	-143.921	0.242	-0.022
-163.808	-124.455	-0.279	-0.043
-162.793	-89.452	0.188	-0.054
-161.779	353.963	-0.070	-0.138
-160.764	-31.777	-0.069	-0.038
-159.750	82.153	0.118	-0.126
-158.735	-200.000	-0.029	-0.314
-157.720	23.921	0.045	0.036
-156.706	-85.492	0.181	0.055
-155.691	380.960	0.080	-0.161
-154.677	252.879	-0.005	0.008
-153.662	-65.303	-0.244	0.096
-152.647	-124.478	-0.105	-0.016
-151.633	35.789	0.138	-0.119
-150.618	121.753	0.034	-0.042
-149.604	305.438	0.074	-0.134
-148.589	-148.918	-0.174	-0.014
-147.574	800.000	0.079	-0.238
-146.560	-82.056	0.242	0.078
-145.545	32.381	-0.054	0.046
-144.531	549.843	0.057	-0.135
-143.516	-200.000	-0.015	-0.231
-142.502	46.349	-0.205	-0.187
-141.487	-64.311	0.244	0.098
-140.472	460.360	-0.080	-0.175
-139.458	176.704	0.252	-0.360
-138.443	800.000	-0.155	0.440
-137.429	-200.000	-0.028	0.350
-136.414	37.264	-0.104	0.090
-135.399	162.890	-0.166	0.228
-134.385	-62.611	-0.060	0.024
-133.370	-111.866	-0.186	0.037
-132.356	-113.530	0.262	-0.050
-131.341	490.046	-0.125	-0.281
-130.326	-14.311	0.234	-0.148
-129.312	345.303	0.074	0.142
-128.297	-96.621	0.384	0.099
-127.283	-84.146	-0.356	0.111
-126.268	360.275	-0.079	0.155
-125.253	43.419	-0.049	-0.044
-124.239	-27.965	-0.311	-0.176
-123.224	93.158	0.214	-0.237
-122.210	-200.000	-0.014	-0.183
-121.195	-200.000	0.006	-0.084
