DTS Sentinel unit serial number:	SN413079Multiplexer serial number:	ORYXHardware model number:	OX4-SRSoftware version number:	ORYX F/W v4.00 Oryx Data Collector v3.7.2.0data status	okinstallation	princeton_trtdifferential loss correction	single-endedforward channel	channel 3reverse channel	N/Adate	2019/09/19time	10:12:35forward acquisition time	60.00reverse acquisition time	0.00gamma	496.2192k internal	0.2343k external	0.2343temperature offset calibration	0.9977default loss term (dB/km)	0.3790temperature slope calibration	1.0000multiplexer offset coefficient	1.0000multiplexer slope coefficient	1.0000fibre end	0.00T internal ref (°C)	24.02T ext. ref 1 (°C)	0.69T ext. ref 2 (°C)	19.85length (m)	temperature (°C)	Stokes	anti-Stokes-747.200	5.612	0.098	-0.073
-746.185	-200.000	0.008	0.081
-745.171	163.554	-0.157	0.221
-744.156	800.000	-0.054	0.154
-743.142	-35.363	0.284	0.155
-742.127	160.171	-0.284	0.397
-741.112	-200.000	-0.063	0.330
-740.098	800.000	-0.028	0.086
-739.083	800.000	0.089	0.322
-738.069	-200.000	0.029	0.290
-737.054	105.382	0.122	0.144
-736.039	-79.598	-0.144	0.049
-735.025	-200.000	0.023	0.268
-734.010	489.511	0.094	-0.216
-732.996	-60.647	-0.264	-0.112
-731.981	-200.000	-0.014	-0.065
-730.966	85.706	-0.267	-0.293
-729.952	-72.895	-0.197	-0.073
-728.937	279.244	0.150	-0.268
-727.923	222.265	0.268	0.432
-726.908	410.865	0.182	-0.386
-725.894	-137.933	0.078	0.009
-724.879	452.435	0.094	0.208
-723.864	21.489	0.177	0.144
-722.850	380.598	0.048	-0.099
-721.835	354.049	-0.116	0.230
-720.821	-69.828	0.072	-0.027
-719.806	-74.244	-0.199	-0.072
-718.791	-2.093	0.197	0.138
-717.777	178.502	0.204	0.298
-716.762	-50.681	-0.092	0.043
-715.748	-38.520	0.036	0.019
-714.733	-79.225	0.214	-0.073
-713.718	-105.623	0.165	0.037
-712.704	606.449	-0.072	0.179
-711.689	51.170	0.110	0.104
-710.675	-29.126	0.257	-0.148
-709.660	-200.000	0.026	0.164
-708.645	-35.489	0.214	-0.116
-707.631	19.629	0.221	0.178
-706.616	1.182	-0.160	0.115
-705.602	-19.140	0.224	0.139
-704.587	-105.339	0.295	-0.067
-703.572	362.133	-0.024	-0.049
-702.558	-26.347	0.081	-0.047
-701.543	800.000	-0.049	0.159
-700.529	17.945	-0.162	-0.129
-699.514	35.770	0.170	-0.149
-698.499	421.935	-0.151	0.323
-697.485	232.457	0.081	-0.133
-696.470	80.278	-0.053	-0.057
-695.456	25.750	0.075	-0.063
-694.441	103.443	-0.283	0.331
-693.426	-55.441	-0.049	-0.022
-692.412	20.160	-0.204	-0.164
-691.397	33.314	0.206	-0.179
-690.383	-106.116	0.223	0.050
-689.368	-71.398	0.266	-0.100
-688.354	800.000	-0.020	0.087
-687.339	77.164	0.086	0.092
-686.324	-74.889	0.106	0.038
-685.310	496.863	-0.035	0.081
-684.295	-200.000	0.057	-0.558
-683.281	-200.000	0.020	0.158
-682.266	-17.877	0.310	-0.194
-681.251	-44.978	-0.058	0.029
-680.237	-3.989	-0.153	-0.106
-679.222	-157.258	0.309	-0.019
-678.208	800.000	0.077	0.228
-677.193	-118.866	-0.297	0.052
-676.178	-32.460	-0.029	-0.016
-675.164	297.133	0.176	0.322
-674.149	-135.064	0.231	-0.028
-673.135	-200.000	0.000	0.096
-672.120	-200.000	-0.001	0.277
-671.105	-112.021	0.109	-0.022
-670.091	177.168	-0.049	0.071
-669.076	-2.919	-0.058	0.040
-668.062	5.710	-0.390	-0.288
-667.047	-166.116	0.238	-0.010
-666.032	222.721	0.075	-0.121
-665.018	-87.409	0.101	-0.030
-664.003	-200.000	0.017	0.134
-662.989	-46.211	-0.050	-0.025
-661.974	-80.296	0.312	-0.104
-660.959	800.000	0.062	-0.174
-659.945	-26.099	0.214	-0.125
-658.930	-77.991	0.214	0.074
-657.916	445.766	0.040	-0.088
-656.901	-97.519	-0.242	-0.063
-655.886	-110.384	0.347	-0.072
-654.872	-108.298	0.048	-0.010
-653.857	73.095	0.286	-0.298
-652.843	-44.446	-0.317	0.158
-651.828	-124.382	0.127	-0.020
-650.814	-71.551	-0.172	0.064
-649.799	185.101	0.095	-0.141
-648.784	-36.254	-0.189	-0.102
-647.770	591.531	0.171	0.420
-646.755	-200.000	-0.065	-0.411
-645.741	0.469	0.087	0.062
-644.726	287.109	0.132	-0.238
-643.711	-31.687	0.179	-0.100
-642.697	-48.370	-0.156	-0.075
-641.682	-146.269	-0.197	-0.017
-640.668	800.000	0.089	0.283
-639.653	-126.645	0.280	0.041
-638.638	-85.996	-0.185	-0.057
-637.624	-200.000	-0.024	-0.286
-636.609	800.000	-0.048	0.148
-635.595	388.821	0.137	0.282
-634.580	167.380	0.121	0.172
-633.565	-100.180	0.574	-0.142
-632.551	127.310	0.064	-0.081
-631.536	-67.193	0.107	0.042
-630.522	62.223	0.137	-0.136
-629.507	-200.000	-0.002	0.015
-628.492	800.000	0.015	0.048
-627.478	-200.000	0.058	-0.284
-626.463	583.518	0.105	0.256
-625.449	-79.655	0.189	0.063
-624.434	-102.694	0.263	0.063
-623.419	32.206	0.031	0.026
-622.405	-200.000	0.020	-0.415
-621.390	-20.686	0.172	-0.105
-620.376	-200.000	-0.001	-0.184
-619.361	-200.000	-0.026	-0.216
-618.346	-104.272	0.317	-0.073
-617.332	800.000	0.047	0.167
-616.317	-4.694	-0.266	0.183
-615.303	349.543	0.060	-0.117
-614.288	-112.413	0.147	0.029
-613.273	-200.000	0.002	-0.216
-612.259	-200.000	-0.031	0.201
-611.244	37.975	-0.147	-0.130
-610.230	171.991	-0.152	-0.217
-609.215	-200.000	-0.003	-0.406
-608.201	-122.132	-0.081	0.013
-607.186	-50.546	0.247	-0.116
-606.171	-200.000	-0.007	-0.222
-605.157	80.415	-0.082	-0.088
-604.142	800.000	0.055	-0.212
-603.128	117.611	0.215	0.264
-602.113	-145.940	-0.108	0.009
-601.098	-38.274	0.326	0.172
-600.084	71.209	-0.109	-0.113
-599.069	482.800	0.093	-0.211
-598.055	57.698	-0.302	0.294
-597.040	65.421	0.021	0.021
-596.025	746.207	-0.101	-0.270
-595.011	148.429	-0.103	-0.138
-593.996	-171.093	0.070	-0.002
-592.982	71.851	0.114	0.118
-591.967	-200.000	-0.030	-0.137
-590.952	642.514	-0.144	0.365
-589.938	-89.089	-0.194	-0.057
-588.923	181.449	0.239	-0.350
-587.909	-54.302	-0.216	0.098
-586.894	-200.000	0.060	-0.292
-585.879	-200.000	-0.059	-0.327
-584.865	114.660	0.101	-0.122
-583.850	345.106	0.054	-0.106
-582.836	187.760	0.043	-0.064
-581.821	32.691	-0.244	0.210
-580.806	318.874	0.067	0.126
-579.792	-82.766	0.080	-0.026
-578.777	800.000	0.062	0.218
-577.763	-14.985	0.170	-0.109
-576.748	800.000	0.010	-0.036
-575.733	-88.065	-0.169	-0.050
-574.719	368.461	-0.041	0.083
-573.704	14.906	0.295	-0.230
-572.690	-200.000	0.048	-0.326
-571.675	476.391	-0.104	0.234
-570.661	-99.712	-0.108	-0.027
-569.646	-130.871	-0.233	-0.031
-568.631	602.601	0.088	-0.218
-567.617	-200.000	-0.025	-0.251
-566.602	800.000	0.125	-0.428
-565.588	-25.935	0.028	-0.016
-564.573	55.581	-0.134	0.129
-563.558	800.000	0.077	-0.246
-562.544	800.000	0.107	0.294
-561.529	-164.870	-0.160	0.007
-560.515	39.657	-0.159	-0.141
-559.500	356.158	-0.140	0.276
-558.485	800.000	0.046	-0.127
-557.471	-200.000	0.057	0.470
-556.456	-142.236	0.160	-0.016
-555.442	-200.000	0.038	-0.213
-554.427	-40.882	-0.252	-0.130
-553.412	-60.925	0.142	0.060
-552.398	-167.637	-0.114	-0.004
-551.383	-200.000	-0.032	-0.230
-550.369	88.127	-0.157	0.173
-549.354	-80.970	0.264	-0.087
-548.339	-200.000	-0.007	0.125
-547.325	-144.287	0.242	0.022
-546.310	2.886	0.144	0.104
-545.296	462.709	0.110	-0.245
-544.281	-109.936	-0.302	-0.063
-543.266	-200.000	-0.073	0.389
-542.252	-19.900	0.087	-0.053
-541.237	243.355	0.173	-0.289
-540.223	641.147	0.054	-0.135
-539.208	800.000	-0.159	-0.452
-538.193	-114.379	0.138	0.026
-537.179	24.790	-0.171	-0.141
-536.164	-119.164	0.049	0.009
-535.150	-92.438	0.245	0.069
-534.135	800.000	0.122	0.511
-533.121	800.000	0.035	0.150
-532.106	-195.548	0.218	0.002
-531.091	326.662	0.085	-0.161
-530.077	-32.678	-0.144	0.080
-529.062	371.972	-0.111	-0.224
-528.048	-200.000	-0.023	-0.195
-527.033	454.081	-0.146	0.320
-526.018	-65.566	-0.077	0.031
-525.004	-24.520	0.237	-0.140
-523.989	-13.564	-0.305	0.196
-522.975	-200.000	-0.002	-0.063
-521.960	-45.158	-0.234	0.116
-520.945	-14.050	0.201	-0.129
-519.931	401.222	-0.035	-0.073
-518.916	-30.978	0.279	-0.156
-517.902	-120.761	0.125	0.021
-516.887	203.808	0.096	-0.148
-515.872	28.462	0.176	0.148
-514.858	-103.036	-0.293	-0.069
-513.843	59.689	-0.318	-0.312
-512.829	494.056	-0.113	0.258
-511.814	-167.437	-0.236	-0.009
-510.799	-200.000	0.017	0.280
-509.785	-200.000	0.014	0.203
-508.770	-65.052	-0.306	-0.123
-507.756	-26.772	-0.090	0.052
-506.741	117.926	0.132	-0.162
-505.726	-42.385	0.144	-0.073
-504.712	-200.000	0.049	-0.240
-503.697	-23.277	-0.244	-0.145
-502.683	233.259	0.025	0.041
-501.668	-88.234	-0.400	-0.119
-500.653	-200.000	0.030	-0.383
-499.639	-148.706	0.091	0.007
-498.624	-178.346	0.339	0.008
-497.610	223.464	0.103	-0.165
-496.595	-43.467	0.175	0.088
-495.581	-200.000	-0.026	-0.150
-494.566	170.032	-0.191	-0.271
-493.551	-99.045	0.150	0.038
-492.537	-46.899	-0.140	-0.068
-491.522	731.670	-0.100	0.264
-490.508	-22.906	0.324	0.194
-489.493	800.000	-0.039	0.148
-488.478	800.000	-0.058	0.167
-487.464	259.932	-0.120	-0.205
-486.449	196.949	0.105	0.158
-485.435	-200.000	-0.114	0.533
-484.420	181.472	-0.171	0.250
-483.405	-200.000	-0.022	0.234
-482.391	-127.245	0.322	-0.047
-481.376	-89.327	-0.183	0.054
-480.362	-14.637	-0.113	0.072
-479.347	490.719	-0.129	0.292
-478.332	721.418	-0.054	0.143
-477.318	-135.122	0.277	-0.033
-476.303	800.000	0.027	0.074
-475.289	14.180	-0.121	0.094
-474.274	-16.878	0.163	0.102
-473.259	82.244	0.087	-0.093
-472.245	800.000	-0.135	0.494
-471.230	-63.431	-0.258	-0.105
-470.216	-12.768	-0.243	-0.157
-469.201	-178.166	0.249	-0.006
-468.186	-200.000	0.012	-0.320
-467.172	-133.887	-0.281	-0.035
-466.157	-153.824	0.345	0.023
-465.143	-1.757	-0.103	0.072
-464.128	800.000	-0.068	-0.187
-463.113	187.957	-0.033	-0.049
-462.099	220.218	-0.077	0.121
-461.084	475.290	-0.070	-0.156
-460.070	270.094	-0.148	-0.258
-459.055	288.025	0.171	0.306
-458.040	800.000	0.052	0.148
-457.026	-93.378	-0.445	-0.122
-456.011	-113.673	0.109	0.021
-454.997	77.549	-0.107	-0.113
-453.982	-200.000	-0.010	-0.147
-452.968	-106.173	-0.236	0.052
-451.953	-131.627	-0.177	-0.023
-450.938	155.503	-0.105	0.143
-449.924	-200.000	-0.014	0.331
-448.909	21.574	0.268	-0.216
-447.895	-162.019	-0.292	-0.015
-446.880	187.638	-0.213	0.315
-445.865	18.755	0.297	0.235
-444.851	800.000	0.052	-0.223
-443.836	284.855	-0.115	-0.205
-442.822	800.000	-0.012	-0.050
-441.807	800.000	-0.064	0.225
-440.792	62.023	0.153	0.151
-439.778	-68.537	-0.072	-0.028
-438.763	87.985	0.290	-0.318
-437.749	224.758	0.107	-0.171
-436.734	-151.974	-0.192	-0.014
-435.719	-110.392	-0.188	-0.039
-434.705	-200.000	0.032	-0.178
-433.690	25.158	-0.177	0.145
-432.676	800.000	-0.023	-0.095
-431.661	-147.260	-0.171	-0.014
-430.646	-120.039	-0.067	0.011
-429.632	-19.121	0.029	-0.018
-428.617	15.355	0.151	0.117
-427.603	-133.144	-0.081	0.010
-426.588	-125.523	0.214	-0.032
-425.573	-200.000	0.065	0.336
-424.559	-13.335	0.096	-0.061
-423.544	78.370	0.045	0.048
-422.530	-180.878	-0.287	0.006
-421.515	207.272	-0.076	-0.116
-420.500	-112.855	-0.273	0.054
-419.486	-113.491	0.221	-0.043
-418.471	-142.974	-0.256	-0.025
-417.457	66.825	0.071	0.071
-416.442	96.280	0.126	-0.142
-415.428	132.552	0.205	-0.261
-414.413	595.318	0.168	-0.412
-413.398	427.639	0.120	0.257
-412.384	800.000	-0.061	-0.173
-411.369	-73.839	0.182	-0.065
-410.355	-175.984	0.573	-0.015
-409.340	170.775	-0.083	0.118
-408.325	-200.000	-0.004	-0.024
-407.311	-39.247	0.200	-0.104
-406.296	318.039	-0.124	-0.232
-405.282	-103.871	0.109	0.025
-404.267	404.882	0.047	-0.097
-403.252	365.343	0.148	-0.294
-402.238	-200.000	0.029	0.323
-401.223	-72.232	-0.159	0.058
-400.209	-29.769	0.111	-0.062
-399.194	207.705	0.056	0.087
-398.179	348.305	0.097	-0.188
-397.165	5.117	0.277	-0.201
-396.150	119.292	0.062	0.076
-395.136	-22.837	0.068	0.040
-394.121	-147.692	0.452	0.037
-393.106	139.467	-0.129	-0.168
-392.092	258.699	-0.052	0.089
-391.077	-100.732	-0.308	-0.075
-390.063	-200.000	0.006	-0.076
-389.048	-62.045	0.206	-0.085
-388.033	63.260	0.063	-0.063
-387.019	-200.000	-0.005	0.045
-386.004	-80.122	0.432	0.143
-384.990	171.583	-0.023	-0.033
-383.975	54.365	-0.201	0.191
-382.960	-39.868	0.134	0.069
-381.946	63.189	-0.138	-0.136
-380.931	96.923	-0.168	0.190
-379.917	-35.227	-0.090	0.048
-378.902	-117.643	0.158	0.028
-377.888	-148.815	-0.094	0.008
-376.873	417.546	-0.231	-0.488
-375.858	-200.000	0.043	-0.240
-374.844	800.000	0.084	0.291
-373.829	226.724	-0.210	0.336
-372.815	-200.000	-0.004	-0.073
-371.800	-28.490	-0.169	0.096
-370.785	-160.577	0.183	0.010
-369.771	800.000	0.079	0.258
-368.756	-200.000	-0.006	0.212
-367.742	-200.000	0.079	-0.000
-366.727	-26.608	-0.222	-0.128
-365.712	62.711	0.290	-0.286
-364.698	-161.667	0.147	-0.007
-363.683	-200.000	-0.024	-0.148
-362.669	-28.375	-0.058	-0.033
-361.654	197.406	0.154	-0.231
-360.639	800.000	-0.051	0.159
-359.625	170.233	-0.141	-0.199
-358.610	-155.325	-0.176	0.011
-357.596	14.260	0.436	0.335
-356.581	-102.089	-0.409	0.097
-355.566	386.633	0.086	0.175
-354.552	617.757	-0.125	0.310
-353.537	-130.325	-0.370	-0.050
-352.523	78.299	0.135	0.142
-351.508	-200.000	0.060	0.330
-350.493	800.000	0.047	0.201
-349.479	2.501	-0.158	-0.113
-348.464	-200.000	0.003	0.122
-347.450	99.346	0.143	-0.163
-346.435	10.939	-0.094	0.071
-345.420	-18.972	0.286	0.175
-344.406	-69.621	0.343	-0.129
-343.391	522.664	-0.014	-0.033
-342.377	256.589	-0.036	0.061
-341.362	-107.878	0.381	-0.082
-340.348	624.520	0.062	0.153
-339.333	800.000	0.058	-0.230
-338.318	-138.795	-0.182	0.020
-337.304	11.896	-0.209	0.159
-336.289	-24.205	-0.208	-0.122
-335.275	-167.997	-0.241	0.009
-334.260	542.008	0.046	-0.108
-333.245	361.442	-0.068	-0.134
-332.231	382.064	0.135	-0.273
-331.216	-2.696	0.136	0.093
-330.202	325.108	-0.243	0.458
-329.187	-200.000	0.051	0.294
-328.172	137.088	0.178	0.230
-327.158	157.199	0.157	0.214
-326.143	800.000	0.070	-0.282
-325.129	-69.455	0.271	0.102
-324.114	-118.414	0.062	-0.011
-323.099	289.695	-0.054	0.096
-322.085	544.124	0.105	-0.247
-321.070	402.469	0.062	0.128
-320.056	77.267	-0.072	-0.076
-319.041	-200.000	0.026	-0.265
-318.026	800.000	0.024	0.072
-317.012	-76.583	-0.297	0.103
-315.997	-200.000	0.117	0.588
-314.983	-200.000	0.077	0.480
-313.968	88.539	0.147	0.161
-312.953	97.008	0.083	0.094
-311.939	-22.780	-0.096	-0.057
-310.924	-18.388	-0.255	0.157
-309.910	-42.747	0.261	0.131
-308.895	106.536	0.162	0.189
-307.880	800.000	0.088	-0.292
-306.866	-38.706	0.099	-0.051
-305.851	-63.549	-0.334	-0.135
-304.837	286.350	0.147	-0.261
-303.822	-200.000	0.006	-0.035
-302.807	60.796	-0.055	-0.054
-301.793	107.688	0.131	-0.154
-300.778	-200.000	0.075	-0.368
-299.764	189.334	0.142	-0.210
-298.749	8.184	-0.046	-0.034
-297.735	-93.077	-0.093	-0.025
-296.720	11.479	0.052	0.039
-295.705	-4.236	-0.079	0.054
-294.691	459.743	-0.076	-0.167
-293.676	48.365	-0.039	-0.036
-292.662	-80.322	-0.178	-0.059
-291.647	-15.382	-0.163	0.103
-290.632	-26.290	-0.016	0.009
-289.618	244.884	-0.051	0.084
-288.603	517.359	0.066	0.151
-287.589	201.956	0.172	-0.261
-286.574	-42.977	-0.286	-0.143
-285.559	-200.000	-0.042	-0.279
-284.545	-54.805	-0.131	-0.058
-283.530	220.966	-0.093	0.146
-282.516	-64.724	0.207	-0.083
-281.501	-200.000	-0.008	0.097
-280.486	-8.162	0.264	-0.175
-279.472	-91.266	0.274	-0.077
-278.457	-200.000	-0.017	0.163
-277.443	145.320	-0.072	-0.095
-276.428	-105.620	0.297	0.066
-275.413	-200.000	-0.021	0.115
-274.399	-98.909	-0.468	-0.117
-273.384	800.000	-0.019	-0.081
-272.370	-46.935	-0.354	0.170
-271.355	-51.771	0.188	-0.086
-270.340	72.480	-0.102	-0.104
-269.326	-200.000	-0.026	-0.200
-268.311	103.108	0.054	0.062
-267.297	-200.000	-0.011	-0.139
-266.282	-109.958	-0.296	-0.061
-265.267	58.743	-0.232	0.224
-264.253	135.912	-0.121	-0.155
-263.238	-200.000	-0.033	-0.449
-262.224	36.443	-0.141	-0.123
-261.209	-200.000	0.038	0.279
-260.195	-64.736	0.135	-0.054
-259.180	756.468	0.071	0.188
-258.165	800.000	0.077	0.280
-257.151	116.553	-0.266	-0.320
-256.136	119.656	0.164	-0.199
-255.122	141.718	-0.055	0.071
-254.107	57.700	0.039	-0.037
-253.092	-83.440	-0.413	-0.130
-252.078	-40.520	-0.189	0.096
-251.063	-37.865	0.283	0.148
-250.049	-70.048	-0.202	0.076
-249.034	279.742	0.089	0.156
-248.019	-200.000	-0.022	0.265
-247.005	-0.325	0.244	-0.170
-245.990	-85.600	-0.361	0.110
-244.976	44.454	0.125	0.113
-243.961	352.381	-0.102	0.198
-242.946	800.000	0.060	0.252
-241.932	578.967	-0.179	0.430
-240.917	421.487	0.121	-0.255
-239.903	-14.117	-0.161	-0.102
-238.888	-171.385	-0.023	-0.001
-237.873	-200.000	-0.024	-0.316
-236.859	-51.805	-0.502	0.230
-235.844	692.175	-0.099	-0.254
-234.830	95.616	-0.151	0.169
-233.815	-200.000	0.020	0.210
-232.800	800.000	-0.120	0.325
-231.786	-66.782	-0.349	-0.135
-230.771	114.685	-0.219	-0.261
-229.757	-122.428	0.233	0.037
-228.742	128.275	0.071	0.089
-227.727	-60.348	-0.029	-0.012
-226.713	-200.000	-0.020	0.089
-225.698	-200.000	0.007	0.132
-224.684	111.359	-0.239	0.283
-223.669	498.909	0.098	0.221
-222.655	-110.661	0.278	-0.056
-221.640	800.000	0.048	-0.188
-220.625	800.000	-0.058	0.192
-219.611	68.602	0.072	0.073
-218.596	-200.000	0.017	0.358
-217.582	-179.206	-0.283	0.006
-216.567	-200.000	-0.016	-0.452
-215.552	-39.148	0.114	-0.059
-214.538	800.000	-0.111	0.353
-213.523	154.383	-0.065	0.087
-212.509	133.896	-0.058	0.073
-211.494	800.000	0.085	0.293
-210.479	-32.520	-0.203	0.111
-209.465	6.829	0.363	-0.265
-208.450	105.762	0.091	0.106
-207.436	135.247	-0.311	0.396
-206.421	74.080	-0.240	0.247
-205.406	59.546	0.318	-0.307
-204.392	-96.205	0.155	-0.040
-203.377	86.062	-0.193	-0.208
-202.363	-72.923	-0.413	-0.149
-201.348	302.834	0.118	-0.214
-200.333	-119.071	0.148	0.025
-199.319	368.186	0.138	0.274
-198.304	800.000	0.065	0.244
-197.290	800.000	0.062	0.204
-196.275	252.551	0.086	-0.144
-195.260	800.000	-0.061	0.212
-194.246	9.503	0.221	-0.164
-193.231	-2.547	-0.074	-0.051
-192.217	-200.000	-0.013	0.302
-191.202	-64.227	-0.500	0.200
-190.187	617.138	0.019	0.048
-189.173	800.000	-0.053	-0.176
-188.158	318.282	0.144	-0.267
-187.144	-109.100	-0.305	0.064
-186.129	-200.000	0.007	0.208
-185.114	-28.808	-0.260	-0.146
-184.100	-200.000	-0.017	0.262
-183.085	107.860	0.262	0.306
-182.071	163.718	-0.055	-0.076
-181.056	800.000	0.071	-0.193
-180.042	-155.868	0.273	0.017
-179.027	424.358	0.039	-0.082
-178.012	183.577	0.219	-0.317
-176.998	541.457	0.072	-0.168
-175.983	-124.412	-0.139	-0.021
-174.969	591.921	-0.092	0.222
-173.954	-83.144	-0.132	0.042
-172.939	-86.219	0.257	0.078
-171.925	15.436	0.050	0.038
-170.910	-200.000	0.020	0.153
-169.896	-103.054	0.375	0.087
-168.881	-200.000	-0.007	-0.164
-167.866	-100.349	0.154	-0.037
-166.852	18.694	0.068	-0.053
-165.837	51.852	-0.298	0.277
-164.823	-112.820	-0.264	0.051
-163.808	-200.000	-0.018	0.190
-162.793	-134.836	-0.623	-0.074
-161.779	239.096	0.108	-0.175
-160.764	-148.915	0.195	0.015
-159.750	-24.753	0.106	-0.062
-158.735	128.732	0.149	0.186
-157.720	84.900	0.263	0.282
-156.706	800.000	0.043	0.173
-155.691	73.884	-0.199	-0.204
-154.677	-151.603	0.268	0.019
-153.662	-125.048	-0.215	0.032
-152.647	291.710	-0.102	-0.182
-151.633	50.691	-0.199	0.184
-150.618	-82.687	0.355	0.112
-149.604	71.996	-0.182	0.185
-148.589	191.326	0.082	-0.121
-147.574	-200.000	-0.017	0.109
-146.560	132.618	0.169	-0.213
-145.545	138.912	0.138	-0.177
-144.531	681.179	-0.100	0.256
-143.516	89.923	0.084	-0.091
-142.502	118.441	-0.138	-0.167
-141.487	800.000	-0.031	-0.113
-140.472	800.000	0.127	0.364
-139.458	110.083	0.266	0.313
-138.443	800.000	0.078	-0.227
-137.429	7.233	0.440	-0.321
-136.414	-200.000	0.006	0.095
-135.399	-200.000	-0.037	-0.181
-134.385	-112.443	0.110	0.021
-133.370	-200.000	-0.023	-0.337
-132.356	-118.063	-0.058	0.010
-131.341	200.487	0.165	-0.247
-130.326	800.000	0.035	-0.110
-129.312	-59.372	0.249	0.105
-128.297	-0.800	0.357	-0.247
-127.283	200.416	-0.153	0.229
-126.268	800.000	0.044	-0.122
-125.253	596.699	-0.084	0.204
-124.239	249.924	0.084	0.139
-123.224	25.123	-0.323	0.262
-122.210	-58.771	-0.031	0.013
-121.195	-117.595	0.250	-0.044
