DTS Sentinel unit serial number:	SN413079Multiplexer serial number:	ORYXHardware model number:	OX4-SRSoftware version number:	ORYX F/W v4.00 Oryx Data Collector v3.7.2.0data status	okinstallation	princeton_trtdifferential loss correction	single-endedforward channel	channel 3reverse channel	N/Adate	2019/09/13time	01:04:35forward acquisition time	60.00reverse acquisition time	0.00gamma	496.2192k internal	0.2332k external	0.2332temperature offset calibration	1.0120default loss term (dB/km)	0.3790temperature slope calibration	1.0000multiplexer offset coefficient	1.0000multiplexer slope coefficient	1.0000fibre end	0.00T internal ref (°C)	28.02T ext. ref 1 (°C)	3.67T ext. ref 2 (°C)	22.56length (m)	temperature (°C)	Stokes	anti-Stokes-747.200	154.440	-0.170	0.235
-746.185	-181.406	-0.190	-0.004
-745.171	151.040	-0.053	0.073
-744.156	-75.640	-0.132	-0.047
-743.142	106.557	0.358	0.427
-742.127	-91.166	-0.217	0.063
-741.112	-80.538	-0.066	-0.022
-740.098	-185.434	-0.539	0.008
-739.083	550.862	-0.161	0.388
-738.069	44.319	-0.118	0.109
-737.054	800.000	0.095	0.312
-736.039	21.066	-0.221	-0.180
-735.025	6.620	0.314	0.234
-734.010	-26.208	-0.206	0.122
-732.996	59.016	-0.116	-0.114
-731.981	228.103	-0.125	0.205
-730.966	53.488	0.052	0.050
-729.952	800.000	-0.058	-0.221
-728.937	116.251	-0.098	0.120
-727.923	-72.135	0.066	0.025
-726.908	478.592	0.062	0.141
-725.894	488.922	-0.120	-0.276
-724.879	63.369	-0.138	0.139
-723.864	101.738	-0.400	-0.469
-722.850	-200.000	0.017	-0.248
-721.835	800.000	-0.106	-0.301
-720.821	-198.418	-0.194	0.001
-719.806	125.386	0.182	0.231
-718.791	-145.194	-0.302	-0.028
-717.777	800.000	0.019	-0.054
-716.762	-80.926	0.126	0.042
-715.748	36.179	0.211	-0.187
-714.733	800.000	-0.059	0.250
-713.718	16.373	0.205	-0.163
-712.704	800.000	-0.077	0.241
-711.689	800.000	-0.070	-0.231
-710.675	175.331	-0.056	-0.081
-709.660	-24.890	-0.099	0.059
-708.645	800.000	0.028	0.120
-707.631	22.623	-0.302	-0.248
-706.616	386.426	0.083	0.173
-705.602	-65.893	0.365	-0.147
-704.587	-90.926	-0.223	-0.064
-703.572	-19.010	0.168	0.105
-702.558	371.579	-0.072	-0.147
-701.543	173.385	-0.102	0.148
-700.529	-11.446	0.170	-0.112
-699.514	-103.888	-0.452	-0.106
-698.499	52.429	0.233	-0.224
-697.485	50.079	-0.135	-0.128
-696.470	226.313	-0.087	-0.143
-695.456	-200.000	-0.009	0.073
-694.441	-106.656	-0.183	0.041
-693.426	237.590	0.152	-0.253
-692.412	183.035	0.163	-0.242
-691.397	79.918	0.112	0.121
-690.383	1.622	-0.139	-0.100
-689.368	-126.116	0.228	0.034
-688.354	-199.044	0.205	-0.001
-687.339	800.000	0.074	-0.294
-686.324	88.203	-0.157	-0.175
-685.310	-147.352	-0.074	-0.006
-684.295	800.000	-0.064	-0.220
-683.281	405.673	-0.099	-0.210
-682.266	-87.263	0.092	-0.028
-681.251	-115.711	-0.114	0.021
-680.237	-1.829	0.030	-0.021
-679.222	128.840	-0.142	-0.182
-678.208	-116.597	-0.244	-0.045
-677.193	66.460	-0.061	0.063
-676.178	2.747	-0.241	0.176
-675.164	-26.367	-0.127	0.075
-674.149	-128.592	-0.327	0.046
-673.135	405.146	-0.061	-0.128
-672.120	31.739	-0.192	-0.166
-671.105	-52.521	-0.064	-0.030
-670.091	-80.645	-0.163	0.054
-669.076	554.190	0.018	0.043
-668.062	-200.000	0.001	-0.232
-667.047	-106.630	-0.373	-0.083
-666.032	-200.000	0.045	-0.248
-665.018	497.502	-0.083	-0.193
-664.003	800.000	-0.084	-0.325
-662.989	-5.927	0.214	-0.147
-661.974	-200.000	0.007	-0.069
-660.959	-200.000	-0.022	-0.278
-659.945	-51.541	-0.333	-0.156
-658.930	-200.000	-0.031	-0.271
-657.916	64.931	-0.356	-0.361
-656.901	-157.674	-0.209	-0.013
-655.886	-74.007	-0.071	-0.026
-654.872	241.935	0.024	0.040
-653.857	-29.954	-0.210	0.120
-652.843	-103.772	0.103	-0.024
-651.828	-25.500	0.373	0.221
-650.814	596.103	-0.022	0.055
-649.799	-49.409	-0.202	0.097
-648.784	-66.657	-0.169	-0.067
-647.770	-40.199	-0.253	-0.132
-646.755	-6.001	0.164	0.112
-645.741	800.000	0.054	0.214
-644.726	-200.000	0.009	0.088
-643.711	-26.076	0.310	-0.182
-642.697	-1.260	-0.274	-0.194
-641.682	-200.000	0.038	0.229
-640.668	676.863	-0.078	0.202
-639.653	446.990	-0.135	-0.298
-638.638	108.440	-0.034	-0.040
-637.624	-200.000	-0.035	-0.198
-636.609	-200.000	0.015	-0.104
-635.595	-63.192	0.054	-0.022
-634.580	114.545	0.210	0.256
-633.565	120.226	-0.086	-0.107
-632.551	1.770	-0.156	0.113
-631.536	-40.972	-0.130	-0.067
-630.522	-136.834	0.247	0.028
-629.507	-200.000	0.222	-0.001
-628.492	-23.013	-0.027	0.016
-627.478	-59.988	0.040	0.017
-626.463	800.000	-0.028	-0.108
-625.449	-41.200	0.409	-0.211
-624.434	68.931	0.150	-0.155
-623.419	207.875	0.121	-0.190
-622.405	-7.169	-0.136	0.093
-621.390	-121.107	-0.268	-0.045
-620.376	178.335	-0.145	-0.212
-619.361	-12.315	0.448	0.293
-618.346	-117.809	-0.167	-0.030
-617.332	121.314	-0.121	0.151
-616.317	-150.965	0.559	-0.042
-615.303	-184.517	0.151	0.002
-614.288	-94.786	-0.220	0.060
-613.273	-141.461	0.244	-0.025
-612.259	56.762	-0.098	0.095
-611.244	-150.683	0.178	-0.014
-610.230	800.000	-0.057	-0.216
-609.215	-14.915	0.019	0.012
-608.201	-156.956	-0.201	0.012
-607.186	-200.000	-0.002	0.030
-606.171	-91.421	0.272	-0.078
-605.157	91.159	0.227	0.255
-604.142	800.000	-0.072	-0.241
-603.128	-200.000	-0.010	0.120
-602.113	53.254	0.236	-0.227
-601.098	-98.925	-0.167	-0.042
-600.084	156.151	0.081	0.112
-599.069	-13.362	-0.147	0.095
-598.055	-171.236	0.237	0.008
-597.040	476.438	-0.017	0.039
-596.025	41.193	-0.383	0.346
-595.011	143.593	0.146	0.195
-593.996	-155.949	-0.078	-0.005
-592.982	-73.390	-0.355	0.130
-591.967	800.000	-0.139	-0.557
-590.952	-178.923	-0.128	-0.003
-589.938	158.411	-0.205	-0.284
-588.923	-200.000	-0.029	-0.338
-587.909	191.277	-0.038	-0.056
-586.894	-133.290	-0.120	-0.015
-585.879	-61.456	0.341	0.143
-584.865	112.795	-0.026	-0.031
-583.850	-100.533	0.232	-0.057
-582.836	28.926	0.142	0.120
-581.821	-200.000	-0.008	-0.418
-580.806	-55.041	0.229	-0.103
-579.792	24.474	-0.107	-0.089
-578.777	-102.746	-0.299	0.071
-577.763	-37.705	-0.104	0.055
-576.748	-65.523	0.392	0.157
-575.733	69.469	0.224	0.230
-574.719	9.884	-0.101	0.077
-573.704	423.772	0.051	0.110
-572.690	-27.216	0.092	0.054
-571.675	-195.845	0.329	0.002
-570.661	81.077	0.124	0.133
-569.646	510.824	-0.084	-0.196
-568.631	270.367	-0.082	-0.143
-567.617	276.130	0.057	-0.101
-566.602	-200.000	0.019	0.346
-565.588	-87.295	-0.095	0.029
-564.573	-200.000	-0.046	-0.250
-563.558	-107.210	-0.220	-0.048
-562.544	-78.229	-0.138	0.047
-561.529	-126.743	-0.258	0.038
-560.515	-127.819	-0.318	0.046
-559.500	72.463	-0.190	-0.197
-558.485	-90.936	-0.206	-0.059
-557.471	800.000	0.080	-0.319
-556.456	-95.622	-0.321	0.086
-555.442	-10.036	0.153	0.102
-554.427	-114.589	-0.411	0.079
-553.412	4.118	0.123	0.090
-552.398	2.446	-0.076	0.055
-551.383	800.000	-0.081	-0.258
-550.369	332.309	-0.011	0.022
-549.354	23.371	0.268	0.220
-548.339	-44.989	-0.173	0.086
-547.325	143.915	-0.019	-0.025
-546.310	-42.209	-0.249	0.127
-545.296	226.478	0.130	0.210
-544.281	135.036	-0.164	0.213
-543.266	-123.284	-0.341	-0.054
-542.252	535.278	0.090	0.214
-541.237	177.302	0.053	0.077
-540.223	166.513	-0.194	-0.275
-539.208	104.741	0.072	-0.085
-538.193	90.352	-0.020	-0.022
-537.179	-60.944	-0.367	-0.155
-536.164	-160.652	-0.382	-0.020
-535.150	-200.000	0.022	-0.222
-534.135	103.220	-0.141	-0.165
-533.121	756.106	0.042	-0.113
-532.106	-200.000	0.038	0.168
-531.091	101.031	0.082	-0.095
-530.077	-23.336	-0.135	-0.081
-529.062	11.635	-0.312	0.239
-528.048	96.697	-0.143	0.164
-527.033	-93.860	0.174	0.048
-526.018	-149.033	-0.044	-0.003
-525.004	93.882	0.237	-0.268
-523.989	-111.941	-0.183	-0.037
-522.975	323.402	0.183	0.348
-521.960	-180.629	0.258	0.005
-520.945	-136.967	-0.108	0.012
-519.931	-200.000	0.032	-0.200
-518.916	-95.249	-0.210	0.056
-517.902	364.942	0.010	0.021
-516.887	8.776	0.222	0.167
-515.872	-10.313	0.134	-0.089
-514.858	94.713	-0.163	-0.185
-513.843	95.115	0.161	0.183
-512.829	-154.791	0.166	0.011
-511.814	-15.004	-0.151	-0.096
-510.799	-53.305	0.048	0.022
-509.785	11.099	-0.201	-0.153
-508.770	-139.668	-0.150	0.016
-507.756	266.460	-0.150	-0.261
-506.741	265.239	0.101	0.176
-505.726	-51.140	-0.174	-0.081
-504.712	407.349	-0.114	0.241
-503.697	-17.498	-0.070	-0.044
-502.683	-100.968	0.077	0.019
-501.668	-200.000	-0.029	-0.304
-500.653	-44.400	-0.130	0.065
-499.639	-108.470	0.351	0.075
-498.624	194.829	-0.123	0.186
-497.610	110.790	-0.175	0.210
-496.595	9.802	-0.242	0.183
-495.581	-149.553	0.486	-0.038
-494.566	-47.336	0.186	-0.090
-493.551	90.974	-0.196	-0.219
-492.537	-156.031	-0.297	-0.019
-491.522	123.034	0.217	-0.271
-490.508	-24.251	0.075	-0.044
-489.493	48.883	-0.449	0.420
-488.478	553.190	0.073	-0.175
-487.464	7.352	-0.315	-0.234
-486.449	-117.710	-0.188	-0.034
-485.435	-76.291	0.117	0.041
-484.420	236.686	0.195	-0.321
-483.405	-200.000	-0.001	0.016
-482.391	96.069	0.201	-0.229
-481.376	-200.000	0.052	-0.256
-480.362	-93.349	-0.095	0.026
-479.347	-1.994	-0.299	-0.209
-478.332	581.072	-0.042	-0.102
-477.318	-200.000	-0.047	0.330
-476.303	352.836	-0.181	0.357
-475.289	-109.566	0.310	0.065
-474.274	800.000	-0.066	-0.200
-473.259	-61.731	-0.211	-0.088
-472.245	-53.801	0.131	-0.059
-471.230	48.421	0.112	-0.105
-470.216	163.483	0.177	-0.248
-469.201	-200.000	0.002	-0.368
-468.186	-200.000	0.005	-0.063
-467.172	-200.000	0.025	-0.126
-466.157	-79.354	-0.139	-0.047
-465.143	800.000	0.151	-0.463
-464.128	266.223	-0.140	-0.244
-463.113	609.402	-0.106	0.263
-462.099	-20.607	-0.173	0.105
-461.084	-141.943	-0.168	0.017
-460.070	-18.646	-0.288	0.179
-459.055	14.822	-0.209	-0.163
-458.040	-200.000	0.054	0.241
-457.026	172.906	-0.052	-0.074
-456.011	-74.899	0.463	-0.165
-454.997	18.134	0.135	-0.107
-453.982	-200.000	0.000	-0.152
-452.968	-200.000	-0.031	0.164
-451.953	0.078	-0.214	-0.152
-450.938	-135.886	-0.320	0.038
-449.924	-124.321	0.279	-0.043
-448.909	181.303	0.092	-0.135
-447.895	-200.000	-0.012	0.073
-446.880	-77.820	0.061	0.021
-445.865	-22.771	0.228	-0.137
-444.851	22.098	0.088	0.071
-443.836	174.403	0.208	0.299
-442.822	90.965	0.042	-0.047
-441.807	224.876	-0.079	0.128
-440.792	130.257	0.027	-0.035
-439.778	179.718	0.109	0.159
-438.763	-42.797	-0.328	0.166
-437.749	-93.039	-0.199	0.055
-436.734	-116.121	0.389	0.072
-435.719	58.063	-0.156	0.151
-434.705	-65.761	-0.295	0.118
-433.690	-200.000	0.007	-0.262
-432.676	-70.573	0.182	-0.068
-431.661	223.885	0.175	-0.281
-430.646	37.304	0.183	-0.161
-429.632	-160.800	0.080	-0.004
-428.617	-141.424	0.296	-0.030
-427.603	-51.390	-0.367	0.170
-426.588	113.845	0.134	-0.162
-425.573	-59.710	0.065	-0.028
-424.559	-200.000	-0.325	-0.001
-423.544	61.495	0.089	-0.088
-422.530	-200.000	0.024	-0.198
-421.515	205.632	0.036	-0.056
-420.500	265.024	0.163	0.282
-419.486	154.771	0.138	0.189
-418.471	2.132	0.103	0.074
-417.457	-81.758	0.409	0.133
-416.442	100.558	-0.063	0.073
-415.428	-200.000	-0.027	-0.143
-414.413	288.772	-0.139	-0.251
-413.398	89.117	-0.058	-0.064
-412.384	-74.724	-0.150	0.054
-411.369	-47.122	0.085	-0.041
-410.355	79.615	0.227	-0.242
-409.340	-1.203	-0.120	-0.084
-408.325	23.103	-0.231	-0.189
-407.311	-79.673	-0.287	0.096
-406.296	185.961	-0.133	-0.196
-405.282	282.817	-0.097	-0.172
-404.267	-200.000	-0.025	-0.174
-403.252	231.249	0.204	-0.332
-402.238	-200.000	-0.003	-0.231
-401.223	176.480	0.170	-0.245
-400.209	-200.000	0.010	-0.107
-399.194	-107.611	-0.098	0.021
-398.179	800.000	0.051	0.146
-397.165	635.038	-0.085	-0.213
-396.150	156.183	0.078	-0.106
-395.136	25.286	-0.359	-0.296
-394.121	49.418	-0.158	-0.147
-393.106	50.284	0.321	-0.301
-392.092	55.537	-0.138	-0.132
-391.077	-150.834	0.254	0.019
-390.063	-200.000	0.033	0.246
-389.048	-172.617	-0.399	0.012
-388.033	-66.730	0.121	0.048
-387.019	307.281	0.223	0.412
-386.004	-38.182	-0.166	-0.087
-384.990	18.567	-0.145	-0.115
-383.975	78.567	-0.056	-0.059
-382.960	144.756	0.063	-0.083
-381.946	505.898	-0.113	-0.259
-380.931	34.957	-0.162	0.141
-379.917	-128.505	-0.216	0.030
-378.902	34.976	-0.187	0.162
-377.888	-99.877	0.263	-0.065
-376.873	175.699	-0.070	-0.101
-375.858	359.872	-0.115	-0.228
-374.844	481.342	0.025	-0.057
-373.829	-42.243	0.034	0.017
-372.815	143.061	0.195	-0.257
-371.800	-200.000	0.023	-0.148
-370.785	-200.000	-0.004	-0.141
-369.771	-134.313	0.266	-0.032
-368.756	-63.926	-0.439	0.178
-367.742	-38.862	-0.106	0.055
-366.727	-200.000	0.024	0.299
-365.712	-101.513	0.117	0.028
-364.698	800.000	-0.099	0.299
-363.683	68.483	0.254	0.258
-362.669	84.032	0.118	0.128
-361.654	-136.933	0.120	-0.014
-360.639	-45.586	0.212	-0.104
-359.625	-200.000	0.028	-0.254
-358.610	-110.186	0.338	0.070
-357.596	800.000	0.022	-0.063
-356.581	27.231	-0.248	0.207
-355.566	-9.851	0.105	0.069
-354.552	-97.830	-0.319	-0.082
-353.537	-135.540	0.052	-0.006
-352.523	-60.552	0.169	0.071
-351.508	800.000	0.059	0.229
-350.493	-71.464	0.295	-0.109
-349.479	-123.572	0.352	-0.055
-348.464	180.958	-0.169	0.247
-347.450	-200.000	0.017	0.334
-346.435	646.193	0.057	0.145
-345.420	-44.024	0.185	0.092
-344.406	-200.000	0.050	-0.272
-343.391	-151.559	0.080	0.006
-342.377	-200.000	-0.006	0.168
-341.362	107.826	-0.102	0.121
-340.348	-3.644	0.130	0.090
-339.333	9.400	0.285	0.214
-338.318	-200.000	-0.029	-0.171
-337.304	305.798	0.087	0.161
-336.289	131.021	-0.222	0.282
-335.275	-94.450	-0.007	0.002
-334.260	141.499	0.110	0.144
-333.245	468.306	0.005	0.011
-332.231	0.974	0.258	0.183
-331.216	-79.984	0.168	-0.056
-330.202	-81.516	-0.032	-0.010
-329.187	-81.195	-0.337	0.110
-328.172	800.000	0.029	-0.081
-327.158	152.020	0.023	-0.031
-326.143	-82.844	-0.262	0.084
-325.129	696.830	0.110	-0.285
-324.114	-4.675	-0.141	-0.096
-323.099	9.042	-0.191	-0.143
-322.085	10.372	-0.091	-0.068
-321.070	-73.183	0.101	-0.037
-320.056	-200.000	-0.009	0.056
-319.041	-136.803	-0.242	-0.028
-318.026	736.931	0.091	0.242
-317.012	18.164	0.199	-0.157
-315.997	-68.136	-0.255	-0.098
-314.983	76.783	-0.253	0.265
-313.968	-11.764	-0.102	0.066
-312.953	-106.590	-0.254	-0.056
-311.939	56.315	0.223	0.215
-310.924	25.786	-0.348	-0.287
-309.910	-90.296	0.105	-0.030
-308.895	-172.873	0.201	-0.006
-307.880	800.000	-0.157	0.497
-306.866	224.407	0.127	0.203
-305.851	127.029	0.261	-0.328
-304.837	186.569	0.080	-0.118
-303.822	-55.269	0.277	0.123
-302.807	-199.267	-0.326	-0.002
-301.793	42.625	0.126	0.113
-300.778	-181.795	0.082	-0.002
-299.764	111.032	0.051	-0.060
-298.749	-200.000	-0.020	0.130
-297.735	-128.476	-0.473	-0.066
-296.720	-19.786	0.183	0.112
-295.705	15.454	-0.076	0.059
-294.691	129.940	-0.064	0.081
-293.676	800.000	-0.037	0.113
-292.662	800.000	0.026	-0.073
-291.647	22.099	0.153	-0.123
-290.632	-200.000	-0.006	0.062
-289.618	-174.550	0.346	0.010
-288.603	-85.123	0.120	-0.037
-287.589	-165.679	0.312	0.013
-286.574	800.000	-0.101	0.341
-285.559	125.986	0.154	-0.192
-284.545	-29.981	-0.188	0.106
-283.530	-86.027	-0.285	0.087
-282.516	-100.340	-0.286	-0.070
-281.501	-7.372	0.156	0.104
-280.486	152.461	0.094	0.127
-279.472	-138.636	0.360	-0.039
-278.457	-74.178	0.147	0.053
-277.443	-29.265	0.172	0.097
-276.428	-16.927	-0.310	0.194
-275.413	-51.389	-0.123	-0.057
-274.399	-159.815	0.144	-0.008
-273.384	-166.547	-0.281	0.012
-272.370	800.000	0.159	0.437
-271.355	-37.055	-0.051	0.027
-270.340	-50.593	0.019	-0.009
-269.326	-200.000	0.022	-0.180
-268.311	-191.610	-0.143	0.001
-267.297	335.875	-0.095	-0.182
-266.282	-74.612	0.175	-0.062
-265.267	-133.306	-0.144	0.018
-264.253	800.000	-0.040	0.109
-263.238	-200.000	0.035	0.404
-262.224	41.499	0.190	-0.170
-261.209	479.560	-0.137	0.306
-260.195	10.445	-0.084	0.063
-259.180	160.411	0.178	0.245
-258.165	772.450	-0.057	0.153
-257.151	2.398	-0.260	-0.185
-256.136	564.904	-0.010	0.023
-255.122	2.881	-0.092	-0.066
-254.107	-33.196	-0.143	-0.078
-253.092	-103.291	-0.296	0.069
-252.078	17.524	0.221	-0.174
-251.063	257.101	-0.075	0.127
-250.049	-91.237	0.125	-0.035
-249.034	-145.676	0.237	0.021
-248.019	-127.074	0.167	-0.024
-247.005	-200.000	-0.017	0.115
-245.990	-200.000	0.040	-0.357
-244.976	-200.000	0.092	-0.485
-243.961	230.096	0.040	0.064
-242.946	274.037	-0.090	-0.157
-241.932	321.937	0.180	0.337
-240.917	467.985	0.043	0.094
-239.903	390.827	0.043	-0.088
-238.888	353.500	0.108	0.212
-237.873	118.616	0.210	-0.256
-236.859	25.991	0.144	-0.119
-235.844	243.728	0.026	0.043
-234.830	173.800	-0.270	0.385
-233.815	-73.958	-0.292	0.105
-232.800	569.256	0.057	-0.138
-231.786	-132.855	0.360	-0.045
-230.771	800.000	-0.019	0.071
-229.757	-109.314	0.300	0.063
-228.742	800.000	0.020	0.061
-227.727	-85.451	-0.146	-0.045
-226.713	-24.225	-0.169	-0.099
-225.698	32.969	-0.173	0.148
-224.684	-14.637	-0.219	0.139
-223.669	332.330	0.100	-0.191
-222.655	-82.902	0.195	0.062
-221.640	182.427	0.150	-0.218
-220.625	170.068	0.238	0.335
-219.611	-55.221	-0.362	-0.160
-218.596	-175.444	0.034	-0.001
-217.582	-33.960	0.128	-0.069
-216.567	337.014	0.114	-0.218
-215.552	23.252	0.018	0.014
-214.538	-126.402	-0.291	-0.043
-213.523	16.292	0.184	0.143
-212.509	-88.221	0.221	-0.065
-211.494	218.146	0.182	0.286
-210.479	-155.180	0.436	0.028
-209.465	115.095	-0.093	0.112
-208.450	-200.000	-0.015	0.254
-207.436	1.122	0.188	-0.133
-206.421	-107.131	-0.288	-0.063
-205.406	-14.123	-0.124	-0.079
-204.392	800.000	0.075	-0.219
-203.377	161.486	0.160	0.220
-202.363	-131.658	-0.392	0.051
-201.348	800.000	-0.105	0.435
-200.333	520.164	0.052	0.120
-199.319	56.158	-0.100	0.096
-198.304	431.902	0.028	-0.060
-197.290	-11.594	-0.254	0.165
-196.275	-200.000	-0.034	0.185
-195.260	7.599	-0.201	0.148
-194.246	800.000	0.108	0.412
-193.231	-143.857	0.132	-0.012
-192.217	-75.931	0.158	0.055
-191.202	273.037	-0.146	0.254
-190.187	-200.000	0.026	0.148
-189.173	101.159	0.113	0.129
-188.158	497.797	0.078	-0.178
-187.144	-166.189	0.433	-0.018
-186.129	800.000	0.078	0.250
-185.114	-200.000	0.039	-0.171
-184.100	-200.000	0.019	-0.087
-183.085	-1.590	0.041	-0.029
-182.071	17.622	0.021	-0.017
-181.056	800.000	0.033	-0.102
-180.042	110.110	-0.306	-0.362
-179.027	440.896	0.171	0.368
-178.012	-200.000	0.014	-0.257
-176.998	-28.759	0.214	-0.121
-175.983	-90.100	-0.230	0.066
-174.969	800.000	0.012	0.033
-173.954	-24.581	-0.127	0.074
-172.939	-153.072	0.237	0.016
-171.925	-100.280	-0.180	-0.044
-170.910	-104.727	-0.191	0.043
-169.896	-100.812	0.231	0.056
-168.881	-23.615	0.158	-0.093
-167.866	-60.072	0.182	0.076
-166.852	99.009	-0.111	0.126
-165.837	22.823	0.241	0.195
-164.823	3.261	0.256	0.183
-163.808	-146.114	0.148	-0.013
-162.793	234.824	-0.123	0.199
-161.779	122.487	-0.046	0.057
-160.764	420.607	0.101	-0.212
-159.750	114.963	0.014	0.016
-158.735	-86.768	0.025	-0.008
-157.720	-200.000	-0.006	-0.156
-156.706	-65.983	-0.248	-0.097
-155.691	-71.686	-0.181	0.067
-154.677	-200.000	0.033	0.166
-153.662	727.965	0.061	0.159
-152.647	-57.116	0.199	-0.086
-151.633	800.000	-0.106	-0.356
-150.618	-88.058	0.166	-0.049
-149.604	-35.857	0.246	0.131
-148.589	66.113	-0.314	0.313
-147.574	800.000	0.042	-0.123
-146.560	-6.205	0.221	-0.148
-145.545	268.689	0.067	-0.116
-144.531	70.089	0.182	0.185
-143.516	-82.341	0.168	-0.054
-142.502	412.613	0.057	-0.118
-141.487	-200.000	-0.042	-0.195
-140.472	155.013	-0.156	-0.211
-139.458	-105.614	0.158	-0.035
-138.443	125.452	0.067	0.083
-137.429	-200.000	-0.054	0.275
-136.414	202.993	-0.082	0.125
-135.399	-127.807	-0.193	-0.027
-134.385	18.050	0.115	0.090
-133.370	-83.954	0.159	0.050
-132.356	25.421	0.280	-0.229
-131.341	-27.757	0.397	0.226
-130.326	304.345	-0.292	0.532
-129.312	-200.000	0.020	-0.095
-128.297	-45.948	-0.248	0.120
-127.283	-144.164	-0.067	-0.006
-126.268	-36.571	-0.132	-0.070
-125.253	-200.000	0.034	0.437
-124.239	94.143	0.080	0.089
-123.224	149.764	-0.115	0.153
-122.210	800.000	0.049	0.165
-121.195	-200.000	0.023	0.353
-120.180	-80.298	0.101	-0.033
