DTS Sentinel unit serial number:	SN413079Multiplexer serial number:	ORYXHardware model number:	OX4-SRSoftware version number:	ORYX F/W v4.00 Oryx Data Collector v3.7.2.0data status	okinstallation	princeton_trtdifferential loss correction	single-endedforward channel	channel 3reverse channel	N/Adate	2019/09/15time	15:28:35forward acquisition time	60.00reverse acquisition time	0.00gamma	496.2192k internal	0.2291k external	0.2291temperature offset calibration	0.9941default loss term (dB/km)	0.3790temperature slope calibration	1.0000multiplexer offset coefficient	1.0000multiplexer slope coefficient	1.0000fibre end	0.00T internal ref (°C)	41.16T ext. ref 1 (°C)	5.10T ext. ref 2 (°C)	38.49length (m)	temperature (°C)	Stokes	anti-Stokes-747.200	219.306	-0.134	0.220
-746.185	-64.315	0.111	-0.046
-745.171	30.893	0.103	0.090
-744.156	-200.000	0.057	0.448
-743.142	129.943	0.329	0.431
-742.127	135.534	-0.032	0.042
-741.112	-197.362	-0.195	0.001
-740.098	-58.526	0.174	-0.078
-739.083	800.000	0.175	0.505
-738.069	-200.000	-0.051	0.272
-737.054	51.202	0.041	-0.040
-736.039	218.998	-0.074	-0.121
-735.025	-40.441	-0.164	0.087
-734.010	-177.256	-0.296	-0.008
-732.996	-82.096	-0.134	0.045
-731.981	81.242	-0.043	0.047
-730.966	-200.000	0.022	-0.262
-729.952	154.882	0.138	0.195
-728.937	-81.188	-0.165	0.056
-727.923	19.727	0.255	-0.210
-726.908	250.543	-0.133	0.231
-725.894	-178.193	0.323	0.008
-724.879	784.274	0.056	-0.157
-723.864	93.260	-0.072	-0.084
-722.850	-6.931	0.384	-0.267
-721.835	175.832	-0.132	-0.197
-720.821	2.566	-0.041	0.031
-719.806	383.263	-0.117	0.246
-718.791	-19.268	0.165	0.105
-717.777	41.987	-0.154	-0.143
-716.762	-132.567	-0.431	0.057
-715.748	399.154	-0.043	0.092
-714.733	-200.000	-0.009	-0.110
-713.718	-79.421	-0.081	-0.028
-712.704	205.838	0.267	-0.425
-711.689	-110.099	-0.113	-0.024
-710.675	45.987	0.202	0.191
-709.660	-200.000	-0.019	-0.101
-708.645	14.971	-0.191	0.153
-707.631	-113.328	-0.143	0.029
-706.616	800.000	-0.103	-0.306
-705.602	622.166	0.085	-0.218
-704.587	172.955	0.055	-0.081
-703.572	511.180	0.071	-0.168
-702.558	119.957	-0.265	-0.337
-701.543	221.453	0.160	0.263
-700.529	-200.000	-0.019	0.090
-699.514	-21.999	0.109	0.068
-698.499	428.403	-0.055	-0.122
-697.485	65.361	-0.090	-0.093
-696.470	-200.000	-0.124	0.000
-695.456	-11.603	-0.073	0.049
-694.441	-200.000	-0.018	-0.142
-693.426	-114.100	-0.212	-0.042
-692.412	-178.348	0.146	-0.003
-691.397	257.052	-0.086	-0.151
-690.383	63.990	0.119	0.122
-689.368	-50.667	-0.055	-0.026
-688.354	-38.629	-0.143	0.077
-687.339	-34.157	0.134	-0.075
-686.324	800.000	0.028	-0.100
-685.310	216.111	0.174	-0.283
-684.295	-200.000	-0.009	-0.168
-683.281	-111.082	-0.360	0.075
-682.266	233.533	-0.166	-0.279
-681.251	-23.311	-0.336	0.206
-680.237	75.907	0.158	-0.170
-679.222	128.367	0.167	-0.217
-678.208	-200.000	0.046	0.332
-677.193	-96.651	0.444	0.119
-676.178	-200.000	0.021	0.202
-675.164	-200.000	0.038	-0.287
-674.149	-121.278	-0.194	0.033
-673.135	-41.662	-0.121	0.063
-672.120	134.766	0.211	0.280
-671.105	412.739	-0.033	0.071
-670.091	255.814	0.034	0.060
-669.076	-98.633	-0.245	-0.064
-668.062	462.587	0.073	0.167
-667.047	-200.000	-0.042	-0.234
-666.032	-112.645	-0.048	-0.010
-665.018	-200.000	-0.024	0.396
-664.003	-200.000	0.019	-0.144
-662.989	-200.000	0.016	0.075
-661.974	58.000	-0.276	0.276
-660.959	-5.827	-0.107	0.075
-659.945	800.000	0.050	0.188
-658.930	-200.000	-0.003	0.366
-657.916	800.000	-0.072	-0.261
-656.901	31.985	0.147	-0.129
-655.886	242.447	-0.015	0.026
-654.872	-55.117	-0.280	-0.128
-653.857	800.000	-0.005	0.015
-652.843	800.000	0.058	-0.202
-651.828	-32.940	0.141	-0.080
-650.814	45.830	0.214	-0.202
-649.799	-200.000	0.031	-0.217
-648.784	263.910	-0.208	-0.369
-647.770	141.994	-0.196	-0.265
-646.755	366.337	-0.225	-0.462
-645.741	800.000	-0.076	-0.283
-644.726	-106.156	-0.091	-0.021
-643.711	166.086	-0.133	-0.192
-642.697	308.540	-0.089	0.170
-641.682	-181.533	0.160	0.003
-640.668	-107.166	-0.192	-0.043
-639.653	800.000	-0.016	0.067
-638.638	-28.196	-0.347	-0.205
-637.624	-29.094	0.263	-0.154
-636.609	-59.460	0.078	-0.034
-635.595	-142.378	-0.302	0.030
-634.580	29.127	0.158	0.137
-633.565	217.318	0.129	-0.209
-632.551	-55.418	0.127	-0.058
-631.536	-123.451	-0.478	0.078
-630.522	-72.751	-0.202	0.076
-629.507	-200.000	-0.038	0.171
-628.492	-200.000	0.033	0.158
-627.478	698.822	-0.083	-0.222
-626.463	-126.178	-0.135	0.021
-625.449	-120.509	0.257	-0.044
-624.434	577.530	0.057	0.142
-623.419	257.397	-0.062	-0.108
-622.405	-191.807	-0.423	-0.004
-621.390	-200.000	-0.059	-0.413
-620.376	353.986	0.128	-0.259
-619.361	125.215	0.202	-0.259
-618.346	274.100	-0.140	-0.252
-617.332	510.552	-0.063	-0.149
-616.317	-158.168	-0.148	-0.009
-615.303	-29.691	-0.259	0.150
-614.288	-19.266	-0.109	0.069
-613.273	401.050	-0.076	-0.162
-612.259	-200.000	0.022	0.185
-611.244	-98.244	0.337	-0.088
-610.230	440.070	-0.084	-0.187
-609.215	377.624	0.066	0.138
-608.201	-48.691	0.187	0.091
-607.186	-200.000	0.014	0.145
-606.171	-21.274	0.119	0.074
-605.157	-90.736	0.341	-0.100
-604.142	122.864	0.369	-0.471
-603.128	646.933	-0.144	-0.375
-602.113	-24.676	-0.089	-0.054
-601.098	-101.580	0.295	0.073
-600.084	-77.096	0.295	0.105
-599.069	-54.904	-0.218	0.100
-598.055	-97.802	-0.069	0.018
-597.040	-81.978	-0.275	0.091
-596.025	-9.241	-0.257	-0.175
-595.011	209.825	-0.105	0.167
-593.996	119.460	0.092	-0.115
-592.982	96.869	0.175	0.204
-591.967	-108.437	0.251	0.055
-590.952	-200.000	-0.006	-0.071
-589.938	61.128	-0.244	-0.247
-588.923	-104.368	0.355	-0.084
-587.909	87.741	0.034	-0.039
-586.894	-25.299	-0.296	-0.178
-585.879	-23.900	-0.212	0.129
-584.865	-162.302	-0.277	-0.014
-583.850	-200.000	0.019	0.362
-582.836	-200.000	-0.051	-0.280
-581.821	104.064	0.201	0.240
-580.806	451.433	-0.200	-0.449
-579.792	-128.410	0.072	0.010
-578.777	-110.426	-0.225	-0.048
-577.763	629.623	-0.089	-0.229
-576.748	-200.000	0.003	0.239
-575.733	106.343	0.065	0.079
-574.719	-23.008	-0.194	0.119
-573.704	293.112	0.086	-0.159
-572.690	-15.362	0.112	0.073
-571.675	-32.036	-0.529	-0.301
-570.661	-200.000	-0.008	-0.165
-569.646	537.328	-0.017	-0.040
-568.631	-97.078	-0.412	0.110
-567.617	-36.794	0.066	-0.036
-566.602	-56.064	0.140	0.063
-565.588	-40.185	-0.146	-0.078
-564.573	3.725	-0.017	-0.012
-563.558	92.562	0.143	-0.164
-562.544	-21.763	0.191	-0.118
-561.529	-150.025	-0.069	-0.005
-560.515	-24.921	-0.251	-0.152
-559.500	800.000	0.054	0.237
-558.485	121.688	0.267	-0.338
-557.471	382.508	-0.089	-0.185
-556.456	-142.146	0.089	0.009
-555.442	67.340	0.247	-0.256
-554.427	-127.366	-0.099	-0.015
-553.412	-43.985	0.049	-0.025
-552.398	-200.000	-0.030	0.314
-551.383	-128.586	-0.171	-0.025
-550.369	479.204	0.108	-0.248
-549.354	-105.338	-0.045	0.010
-548.339	151.075	0.092	0.127
-547.325	-103.350	-0.102	-0.024
-546.310	43.343	-0.027	0.025
-545.296	-128.554	-0.297	0.043
-544.281	110.859	0.107	-0.131
-543.266	-200.000	-0.004	0.033
-542.252	283.521	-0.074	-0.136
-541.237	-200.000	0.413	-0.002
-540.223	268.175	0.051	-0.091
-539.208	44.164	-0.057	-0.053
-538.193	-164.498	-0.367	0.017
-537.179	19.549	-0.127	-0.103
-536.164	177.656	0.216	0.319
-535.150	-131.419	-0.182	0.024
-534.135	32.507	-0.177	0.155
-533.121	90.373	0.062	-0.070
-532.106	-87.269	-0.071	0.022
-531.091	126.922	0.193	-0.248
-530.077	-22.485	-0.327	-0.201
-529.062	135.048	-0.075	-0.098
-528.048	-46.984	-0.279	-0.138
-527.033	-200.000	0.057	-0.313
-526.018	189.577	0.109	-0.167
-525.004	14.978	0.239	-0.190
-523.989	800.000	0.075	0.219
-522.975	-200.000	0.021	-0.311
-521.960	122.185	-0.153	0.194
-520.945	-94.621	-0.220	-0.061
-519.931	800.000	-0.037	0.145
-518.916	-88.762	-0.153	-0.046
-517.902	-162.947	0.245	0.012
-516.887	5.621	0.240	-0.180
-515.872	-67.858	0.322	0.128
-514.858	-23.328	-0.313	0.191
-513.843	-52.565	-0.287	-0.134
-512.829	800.000	0.047	-0.204
-511.814	83.998	-0.095	0.105
-510.799	330.415	0.024	0.048
-509.785	-81.874	0.162	0.054
-508.770	-67.995	-0.309	0.122
-507.756	-97.100	-0.122	0.032
-506.741	-65.020	0.108	0.044
-505.726	-88.160	-0.368	0.112
-504.712	-200.000	-0.035	0.461
-503.697	-75.120	-0.123	-0.045
-502.683	14.313	0.212	0.168
-501.668	-75.109	0.133	-0.048
-500.653	106.629	-0.151	0.181
-499.639	31.315	0.160	-0.139
-498.624	800.000	-0.045	0.197
-497.610	-45.394	0.239	0.120
-496.595	-99.176	-0.350	0.090
-495.581	93.200	-0.063	-0.072
-494.566	-200.000	0.036	0.188
-493.551	89.172	0.136	0.154
-492.537	527.980	0.020	0.048
-491.522	-92.047	0.154	0.044
-490.508	43.089	-0.110	0.102
-489.493	19.665	0.121	0.099
-488.478	-136.229	0.266	0.032
-487.464	84.922	0.174	-0.193
-486.449	-30.281	-0.015	-0.009
-485.435	-200.000	-0.009	-0.326
-484.420	34.956	-0.255	0.226
-483.405	-130.350	-0.342	0.047
-482.391	800.000	-0.073	-0.299
-481.376	-89.710	-0.238	-0.071
-480.362	-200.000	0.028	0.135
-479.347	-22.838	0.101	-0.062
-478.332	-76.926	0.297	-0.105
-477.318	455.903	-0.088	-0.198
-476.303	-16.059	-0.064	0.041
-475.289	-13.038	-0.152	0.100
-474.274	680.792	0.058	0.153
-473.259	-158.689	0.215	0.013
-472.245	-200.000	0.032	-0.267
-471.230	311.698	0.094	-0.179
-470.216	-125.261	0.092	-0.014
-469.201	-35.592	0.179	-0.098
-468.186	613.162	-0.125	-0.318
-467.172	16.084	-0.165	0.132
-466.157	-78.801	0.023	-0.008
-465.143	-47.227	-0.270	0.133
-464.128	-79.873	-0.184	-0.063
-463.113	36.714	0.198	-0.178
-462.099	-45.978	-0.151	0.075
-461.084	-53.412	0.200	0.093
-460.070	599.882	-0.111	0.279
-459.055	-200.000	0.026	0.167
-458.040	-200.000	0.028	-0.165
-457.026	-153.170	-0.277	-0.020
-456.011	-200.000	-0.027	0.147
-454.997	-96.690	0.264	0.070
-453.982	33.616	-0.213	0.188
-452.968	-55.271	0.083	0.038
-451.953	-101.210	0.381	-0.094
-450.938	-200.000	-0.040	0.220
-449.924	-20.644	0.184	0.114
-448.909	-164.203	-0.110	-0.005
-447.895	-200.000	0.019	0.405
-446.880	-200.000	-0.016	0.096
-445.865	-83.409	0.192	0.062
-444.851	800.000	-0.051	0.210
-443.836	-200.000	0.004	-0.048
-442.822	-165.277	-0.248	-0.011
-441.807	35.621	-0.096	0.085
-440.792	160.861	-0.037	0.052
-439.778	800.000	0.141	0.465
-438.763	-153.658	-0.399	0.028
-437.749	-51.849	0.196	0.092
-436.734	101.240	0.170	0.200
-435.719	-129.500	-0.100	-0.014
-434.705	-82.911	0.164	-0.054
-433.690	-200.000	-0.003	0.217
-432.676	1.626	0.288	0.210
-431.661	-128.961	-0.111	-0.016
-430.646	195.312	-0.240	-0.369
-429.632	-22.889	-0.259	-0.158
-428.617	-200.000	0.073	-0.432
-427.603	-0.891	0.092	0.066
-426.588	-46.822	0.215	-0.106
-425.573	800.000	0.026	-0.085
-424.559	-200.000	0.059	-0.333
-423.544	-79.256	-0.360	-0.123
-422.530	-200.000	-0.004	0.043
-421.515	-68.257	0.087	0.034
-420.500	800.000	0.044	0.144
-419.486	-54.578	0.215	0.098
-418.471	800.000	0.018	0.067
-417.457	541.815	0.157	0.377
-416.442	115.975	-0.111	-0.138
-415.428	-89.742	0.130	0.038
-414.413	-200.000	0.020	0.274
-413.398	331.604	0.042	-0.083
-412.384	800.000	0.028	-0.111
-411.369	800.000	0.133	0.462
-410.355	607.311	-0.076	0.193
-409.340	-9.585	-0.394	0.265
-408.325	800.000	0.095	0.269
-407.311	-200.000	-0.018	0.129
-406.296	41.865	-0.144	-0.132
-405.282	494.475	-0.102	-0.236
-404.267	-151.747	-0.229	-0.017
-403.252	298.420	-0.189	-0.351
-402.238	800.000	0.113	0.326
-401.223	800.000	-0.069	0.192
-400.209	619.399	0.101	0.256
-399.194	-77.703	-0.094	-0.033
-398.179	389.142	0.036	-0.076
-397.165	22.679	0.061	-0.051
-396.150	135.001	-0.065	-0.085
-395.136	-200.000	-0.053	-0.292
-394.121	258.493	0.111	0.193
-393.106	320.592	-0.178	0.341
-392.092	-31.767	0.176	0.100
-391.077	-110.059	-0.090	-0.019
-390.063	338.137	0.290	0.569
-389.048	-42.074	-0.097	0.050
-388.033	32.477	0.114	-0.099
-387.019	2.087	-0.160	-0.117
-386.004	-200.000	-0.015	0.248
-384.990	-35.143	0.254	-0.140
-383.975	-200.000	0.005	0.170
-382.960	-13.839	-0.310	0.203
-381.946	383.910	-0.052	0.107
-380.931	-17.381	-0.057	0.036
-379.917	70.729	-0.146	-0.152
-378.902	800.000	-0.055	-0.234
-377.888	-200.000	-0.040	0.333
-376.873	800.000	0.078	0.290
-375.858	-106.354	0.408	0.092
-374.844	480.173	-0.118	0.270
-373.829	310.235	-0.199	0.375
-372.815	-200.000	-0.005	0.071
-371.800	-200.000	0.005	-0.137
-370.785	289.980	0.008	-0.015
-369.771	-41.669	0.380	-0.197
-368.756	126.601	0.087	-0.112
-367.742	-1.871	0.133	-0.094
-366.727	329.759	-0.107	-0.208
-365.712	-187.492	-0.104	0.001
-364.698	-145.637	-0.127	0.011
-363.683	-127.767	-0.235	-0.034
-362.669	-35.405	-0.264	0.145
-361.654	-139.862	0.273	0.029
-360.639	-54.142	0.163	-0.075
-359.625	-56.554	0.026	-0.012
-358.610	-57.062	0.079	-0.035
-357.596	-28.900	0.178	0.103
-356.581	371.482	-0.034	-0.069
-355.566	-200.000	-0.020	0.196
-354.552	164.528	-0.078	-0.111
-353.537	-70.197	-0.032	0.012
-352.523	279.378	0.123	0.221
-351.508	-121.515	-0.374	-0.063
-350.493	273.072	0.071	-0.126
-349.479	-176.713	0.153	-0.004
-348.464	-134.881	0.078	-0.010
-347.450	-106.016	-0.145	-0.033
-346.435	-200.000	-0.065	0.411
-345.420	-200.000	0.078	0.419
-344.406	367.349	0.090	0.183
-343.391	172.213	0.069	-0.101
-342.377	800.000	0.078	-0.245
-341.362	-200.000	0.076	-0.404
-340.348	145.149	0.142	-0.192
-339.333	800.000	0.024	-0.095
-338.318	-53.081	0.039	0.018
-337.304	-93.749	0.376	-0.104
-336.289	-200.000	-0.347	-0.000
-335.275	-41.011	0.153	-0.079
-334.260	-145.214	0.439	0.040
-333.245	-52.627	0.125	-0.058
-332.231	-200.000	-0.049	-0.221
-331.216	-164.446	-0.072	0.003
-330.202	-92.227	0.338	0.096
-329.187	-53.507	0.307	-0.141
-328.172	800.000	0.069	-0.292
-327.158	-91.234	-0.317	0.091
-326.143	154.631	-0.153	0.211
-325.129	-200.000	-0.005	-0.046
-324.114	48.222	0.102	0.096
-323.099	-200.000	0.024	-0.230
-322.085	-80.154	0.040	0.014
-321.070	-200.000	-0.036	0.161
-320.056	154.326	0.069	-0.095
-319.041	315.054	0.082	0.156
-318.026	13.246	0.172	-0.134
-317.012	242.332	-0.131	0.221
-315.997	-121.436	0.321	0.054
-314.983	-62.138	0.142	0.060
-313.968	-178.799	0.190	0.004
-312.953	-83.630	-0.103	0.033
-311.939	-200.000	-0.018	0.132
-310.924	-200.000	0.010	-0.091
-309.910	735.151	-0.014	-0.039
-308.895	-54.332	-0.385	-0.176
-307.880	127.063	-0.113	0.144
-306.866	-108.809	-0.188	-0.040
-305.851	753.230	0.032	-0.088
-304.837	101.991	-0.208	0.244
-303.822	237.228	0.067	-0.111
-302.807	24.299	0.077	0.064
-301.793	-56.691	-0.084	-0.037
-300.778	-109.590	0.311	-0.066
-299.764	244.420	0.061	0.103
-298.749	-160.339	0.215	0.012
-297.735	-72.752	0.244	-0.090
-296.720	-200.000	-0.013	0.137
-295.705	-200.000	0.032	0.201
-294.691	-29.664	0.101	-0.058
-293.676	181.074	-0.096	-0.142
-292.662	-106.750	0.044	0.010
-291.647	-200.000	0.016	-0.336
-290.632	607.617	0.080	-0.202
-289.618	-200.000	-0.022	-0.179
-288.603	-200.000	0.020	-0.141
-287.589	-66.849	-0.104	-0.041
-286.574	-107.020	-0.172	-0.038
-285.559	9.644	-0.372	-0.284
-284.545	37.174	0.267	0.238
-283.530	-95.734	-0.100	0.027
-282.516	382.877	-0.151	-0.313
-281.501	-200.000	-0.025	-0.209
-280.486	-200.000	0.014	-0.089
-279.472	-92.201	-0.079	0.022
-278.457	-32.320	-0.273	0.153
-277.443	-0.323	0.184	-0.132
-276.428	34.700	0.111	-0.098
-275.413	-105.305	-0.173	0.040
-274.399	-66.398	-0.305	-0.122
-273.384	800.000	0.112	-0.476
-272.370	-99.560	0.253	-0.064
-271.355	-105.624	0.157	0.036
-270.340	-98.937	0.213	-0.054
-269.326	54.300	0.122	0.118
-268.311	-200.000	0.008	-0.165
-267.297	-90.242	0.036	-0.011
-266.282	-64.745	-0.113	0.046
-265.267	148.081	0.266	0.360
-264.253	-74.117	-0.231	-0.084
-263.238	-117.636	-0.278	0.050
-262.224	47.326	0.081	0.076
-261.209	-200.000	0.004	0.186
-260.195	-118.889	-0.321	0.057
-259.180	-142.611	-0.020	-0.002
-258.165	-200.000	-0.049	-0.414
-257.151	14.492	-0.119	-0.093
-256.136	234.891	-0.157	0.261
-255.122	-68.493	-0.079	0.031
-254.107	-100.428	0.176	0.044
-253.092	60.581	0.165	0.164
-252.078	307.378	0.050	0.094
-251.063	396.251	0.255	0.534
-250.049	-36.521	0.298	0.161
-249.034	-163.835	-0.080	0.004
-248.019	-200.000	-0.037	-0.288
-247.005	800.000	-0.014	0.041
-245.990	-200.000	0.030	0.267
-244.976	239.714	0.091	-0.152
-243.961	345.460	-0.107	0.210
-242.946	195.156	0.170	0.259
-241.932	372.552	-0.113	0.230
-240.917	499.805	0.101	-0.233
-239.903	-73.938	-0.341	0.124
-238.888	198.213	0.099	0.152
-237.873	84.277	0.238	0.261
-236.859	-200.000	0.048	0.251
-235.844	257.440	-0.216	0.373
-234.830	-19.062	0.307	-0.191
-233.815	800.000	0.091	0.313
-232.800	157.046	-0.084	-0.117
-231.786	-77.358	0.305	-0.106
-230.771	-88.114	-0.057	-0.017
-229.757	19.825	0.227	-0.184
-228.742	80.042	0.243	0.263
-227.727	44.020	0.183	-0.168
-226.713	-12.884	-0.232	0.151
-225.698	800.000	-0.061	-0.192
-224.684	99.226	0.048	0.055
-223.669	6.793	-0.196	-0.147
-222.655	251.311	-0.214	-0.365
-221.640	-48.713	0.112	0.054
-220.625	-152.951	0.154	-0.011
-219.611	-119.032	0.179	0.032
-218.596	-101.492	-0.297	0.072
-217.582	54.472	0.075	-0.072
-216.567	-51.534	0.288	0.135
-215.552	-72.040	-0.482	0.180
-214.538	-81.949	-0.254	0.083
-213.523	710.483	-0.068	0.180
-212.509	699.758	-0.080	-0.211
-211.494	-56.311	-0.240	0.107
-210.479	566.312	0.069	0.167
-209.465	-8.068	0.320	0.217
-208.450	619.539	0.033	0.083
-207.436	-160.930	0.328	-0.017
-206.421	-56.987	0.162	0.072
-205.406	743.612	-0.187	-0.505
-204.392	800.000	-0.084	-0.257
-203.377	4.126	-0.077	0.056
-202.363	-75.565	-0.108	-0.039
-201.348	478.355	0.028	0.064
-200.333	230.731	0.113	0.185
-199.319	-103.835	-0.110	-0.026
-198.304	-103.475	0.346	-0.082
-197.290	-200.000	-0.009	0.087
-196.275	79.093	-0.273	0.294
-195.260	-200.000	0.322	0.000
-194.246	-200.000	0.050	0.405
-193.231	800.000	0.072	0.221
-192.217	-46.141	0.261	0.129
-191.202	-200.000	-0.010	0.095
-190.187	-200.000	-0.017	0.147
-189.173	-180.524	-0.240	0.005
-188.158	50.540	-0.251	-0.238
-187.144	14.460	-0.025	0.019
-186.129	-200.000	-0.006	-0.035
-185.114	344.575	0.136	-0.267
-184.100	266.986	0.067	0.118
-183.085	184.212	0.019	0.029
-182.071	9.067	0.280	-0.212
-181.056	-128.003	0.246	-0.035
-180.042	183.874	-0.166	-0.247
-179.027	800.000	0.123	0.378
-178.012	800.000	0.043	-0.181
-176.998	184.790	-0.203	-0.302
-175.983	376.224	0.152	-0.310
-174.969	-90.088	-0.281	0.082
-173.954	-94.817	-0.158	0.043
-172.939	386.513	0.133	-0.274
-171.925	-200.000	0.044	0.337
-170.910	198.545	-0.056	-0.086
-169.896	-91.589	-0.438	0.125
-168.881	-53.751	-0.218	0.100
-167.866	617.901	-0.089	-0.224
-166.852	-114.943	0.296	-0.056
-165.837	-63.549	-0.073	0.030
-164.823	-200.000	0.187	-0.000
-163.808	800.000	0.039	0.150
-162.793	800.000	0.049	0.171
-161.779	-52.708	0.295	0.136
-160.764	-200.000	-0.206	0.001
-159.750	-68.455	0.277	-0.107
-158.735	-200.000	-0.007	0.032
-157.720	-200.000	0.005	-0.415
-156.706	-73.568	-0.008	-0.003
-155.691	-119.653	0.391	-0.068
-154.677	96.684	0.106	0.121
-153.662	-33.561	0.234	0.129
-152.647	800.000	-0.044	-0.150
-151.633	-109.620	0.276	0.058
-150.618	-135.281	-0.199	0.024
-149.604	-78.518	-0.295	0.101
-148.589	138.601	-0.044	0.058
-147.574	-50.325	-0.215	0.102
-146.560	-94.899	0.372	0.101
-145.545	800.000	0.034	-0.104
-144.531	-200.000	0.010	0.217
-143.516	-141.983	-0.617	-0.062
-142.502	800.000	-0.063	-0.245
-141.487	-200.000	-0.050	0.245
-140.472	129.931	-0.097	0.124
-139.458	-50.197	-0.274	-0.129
-138.443	-172.475	-0.185	-0.006
-137.429	-37.249	0.359	0.192
-136.414	53.483	0.405	-0.388
-135.399	91.884	0.100	-0.113
-134.385	-200.000	-0.017	0.099
-133.370	35.919	-0.059	0.052
-132.356	-92.663	0.262	-0.074
-131.341	23.822	-0.053	-0.044
-130.326	800.000	0.088	-0.345
-129.312	-10.641	0.069	-0.046
-128.297	705.116	0.080	-0.212
-127.283	-109.948	-0.301	0.063
-126.268	-79.191	-0.301	-0.102
-125.253	-18.253	0.102	0.064
-124.239	-65.569	0.208	0.083
-123.224	-65.902	-0.171	0.068
-122.210	-200.000	0.006	-0.255
