DTS Sentinel unit serial number:	SN413079Multiplexer serial number:	ORYXHardware model number:	OX4-SRSoftware version number:	ORYX F/W v4.00 Oryx Data Collector v3.7.2.0data status	okinstallation	princeton_trtdifferential loss correction	single-endedforward channel	channel 3reverse channel	N/Adate	2019/09/13time	11:48:34forward acquisition time	60.00reverse acquisition time	0.00gamma	496.2192k internal	0.2311k external	0.2311temperature offset calibration	1.0146default loss term (dB/km)	0.3790temperature slope calibration	1.0000multiplexer offset coefficient	1.0000multiplexer slope coefficient	1.0000fibre end	0.00T internal ref (°C)	33.27T ext. ref 1 (°C)	4.55T ext. ref 2 (°C)	30.39length (m)	temperature (°C)	Stokes	anti-Stokes-747.200	27.859	-0.160	-0.137
-746.185	-93.036	0.341	0.096
-745.171	77.050	-0.098	-0.106
-744.156	38.377	-0.157	-0.142
-743.142	168.732	-0.112	0.163
-742.127	47.578	0.067	-0.064
-741.112	211.646	-0.186	-0.298
-740.098	175.694	-0.102	0.150
-739.083	-127.910	0.107	-0.016
-738.069	-4.313	0.158	-0.111
-737.054	800.000	0.014	0.040
-736.039	96.147	-0.146	-0.169
-735.025	-175.179	0.302	-0.008
-734.010	123.275	-0.093	0.118
-732.996	-22.010	-0.294	0.181
-731.981	6.392	-0.058	0.043
-730.966	23.057	0.232	-0.193
-729.952	-200.000	0.019	0.195
-728.937	-1.466	0.120	0.086
-727.923	800.000	-0.072	-0.231
-726.908	-20.397	-0.294	-0.183
-725.894	-105.061	0.156	-0.036
-724.879	270.847	0.059	0.105
-723.864	163.149	-0.274	-0.391
-722.850	114.900	-0.063	0.078
-721.835	-108.622	0.216	-0.047
-720.821	800.000	-0.064	-0.218
-719.806	-200.000	-0.027	-0.122
-718.791	-48.092	-0.170	-0.083
-717.777	2.047	-0.236	0.173
-716.762	-79.310	-0.293	-0.101
-715.748	-162.839	-0.179	-0.009
-714.733	8.247	-0.017	-0.013
-713.718	-117.882	-0.318	0.058
-712.704	85.927	-0.175	0.196
-711.689	-200.000	0.172	-0.000
-710.675	-1.644	-0.351	-0.251
-709.660	122.889	0.081	0.103
-708.645	32.569	-0.245	0.215
-707.631	78.729	-0.069	0.075
-706.616	-27.528	-0.066	-0.039
-705.602	-62.450	0.151	-0.063
-704.587	-80.981	-0.104	0.035
-703.572	650.854	-0.036	0.093
-702.558	213.957	-0.155	0.248
-701.543	-50.455	0.151	0.072
-700.529	-75.945	0.245	0.088
-699.514	-200.000	-0.018	0.210
-698.499	800.000	0.044	-0.186
-697.485	10.957	-0.273	0.211
-696.470	-134.222	-0.142	0.018
-695.456	97.301	0.176	0.205
-694.441	800.000	0.104	-0.407
-693.426	-200.000	-0.028	0.238
-692.412	44.286	-0.053	-0.050
-691.397	5.045	0.121	-0.091
-690.383	-200.000	-0.016	0.110
-689.368	-200.000	0.020	0.254
-688.354	-57.281	-0.011	0.005
-687.339	-125.839	0.266	-0.041
-686.324	-76.585	0.208	-0.074
-685.310	-200.000	-0.020	0.104
-684.295	-76.778	0.091	-0.032
-683.281	-44.048	-0.323	0.164
-682.266	-16.657	0.201	0.129
-681.251	283.180	0.170	0.309
-680.237	49.768	-0.098	-0.094
-679.222	-3.744	-0.055	0.039
-678.208	106.640	-0.129	0.154
-677.193	-127.082	-0.148	-0.022
-676.178	112.862	-0.184	-0.225
-675.164	675.940	0.089	-0.235
-674.149	-92.069	-0.290	0.083
-673.135	-7.665	-0.118	-0.080
-672.120	-92.876	0.486	0.137
-671.105	800.000	0.078	-0.268
-670.091	609.981	0.097	0.245
-669.076	-89.501	-0.225	-0.067
-668.062	-200.000	-0.001	-0.174
-667.047	-200.000	-0.026	-0.128
-666.032	-126.080	0.059	0.009
-665.018	-7.451	0.179	-0.122
-664.003	-200.000	-0.037	0.207
-662.989	86.230	0.091	0.102
-661.974	26.613	0.286	0.242
-660.959	-56.162	0.336	0.151
-659.945	112.515	-0.116	-0.142
-658.930	-54.897	0.142	-0.065
-657.916	16.143	0.120	-0.096
-656.901	800.000	0.158	0.656
-655.886	-150.335	-0.162	-0.013
-654.872	123.474	0.051	-0.064
-653.857	153.598	0.018	-0.025
-652.843	800.000	-0.031	-0.093
-651.828	-124.728	0.135	0.021
-650.814	40.039	0.090	0.082
-649.799	-120.186	-0.286	0.050
-648.784	800.000	-0.117	-0.376
-647.770	-200.000	0.012	-0.336
-646.755	560.469	-0.146	0.356
-645.741	48.749	-0.096	0.091
-644.726	800.000	-0.053	-0.207
-643.711	98.061	-0.253	-0.295
-642.697	-200.000	-0.026	0.209
-641.682	-67.480	-0.044	0.017
-640.668	-79.958	0.240	-0.082
-639.653	554.372	-0.086	-0.208
-638.638	19.541	-0.086	0.070
-637.624	-200.000	0.091	0.415
-636.609	-121.684	-0.221	-0.037
-635.595	18.139	0.105	0.085
-634.580	440.679	0.172	-0.379
-633.565	78.805	-0.158	0.171
-632.551	800.000	0.042	-0.148
-631.536	715.363	-0.087	-0.233
-630.522	11.612	0.242	-0.187
-629.507	55.420	-0.102	-0.100
-628.492	1.568	0.438	0.319
-627.478	-70.300	0.249	0.096
-626.463	-154.664	0.313	-0.021
-625.449	800.000	0.043	-0.158
-624.434	-200.000	0.019	0.203
-623.419	182.212	0.185	-0.275
-622.405	-200.000	-0.004	-0.101
-621.390	-147.253	0.077	0.007
-620.376	-200.000	0.007	0.127
-619.361	-200.000	0.027	0.300
-618.346	162.199	-0.222	-0.315
-617.332	-200.000	0.017	0.290
-616.317	-200.000	0.012	0.127
-615.303	288.581	0.067	-0.122
-614.288	554.068	0.054	-0.132
-613.273	333.339	-0.077	-0.150
-612.259	-178.648	-0.138	-0.003
-611.244	-200.000	-0.068	-0.431
-610.230	55.672	-0.249	-0.243
-609.215	-23.109	0.156	-0.095
-608.201	-89.405	0.229	-0.068
-607.186	-28.873	-0.521	-0.303
-606.171	473.784	-0.051	-0.117
-605.157	-110.456	-0.171	0.036
-604.142	800.000	0.064	0.200
-603.128	-16.478	-0.325	-0.208
-602.113	-43.622	0.297	-0.151
-601.098	92.148	0.209	0.238
-600.084	800.000	0.038	-0.157
-599.069	-10.290	0.331	-0.222
-598.055	800.000	0.141	0.443
-597.040	28.831	-0.187	0.160
-596.025	800.000	0.054	-0.207
-595.011	-36.410	-0.300	0.163
-593.996	76.962	-0.034	0.036
-592.982	41.871	0.182	-0.167
-591.967	290.732	0.098	0.179
-590.952	-131.944	0.165	0.022
-589.938	-123.434	-0.207	0.033
-588.923	-143.030	0.244	0.024
-587.909	-24.621	-0.214	-0.128
-586.894	-175.124	-0.243	0.007
-585.879	-131.702	0.151	-0.020
-584.865	543.227	0.103	-0.248
-583.850	-79.056	0.323	-0.111
-582.836	-23.239	-0.295	-0.179
-581.821	-150.763	0.123	0.009
-580.806	-200.000	0.011	0.353
-579.792	-28.668	0.025	-0.015
-578.777	-140.135	-0.329	-0.035
-577.763	304.090	0.276	0.517
-576.748	-29.301	0.081	-0.047
-575.733	49.581	0.177	-0.168
-574.719	70.539	-0.228	-0.238
-573.704	122.837	-0.170	0.214
-572.690	800.000	0.080	0.239
-571.675	112.279	-0.132	0.161
-570.661	-125.071	-0.128	0.020
-569.646	250.310	0.027	-0.046
-568.631	-200.000	-0.011	0.084
-567.617	-200.000	-0.050	-0.300
-566.602	211.790	0.204	-0.324
-565.588	-200.000	0.016	-0.213
-564.573	44.741	0.129	-0.120
-563.558	-122.666	-0.072	0.012
-562.544	-78.197	-0.291	-0.101
-561.529	-164.406	0.202	-0.009
-560.515	-36.914	0.211	-0.114
-559.500	-54.795	-0.329	-0.150
-558.485	708.947	0.070	0.187
-557.471	110.288	-0.098	0.119
-556.456	800.000	-0.061	-0.244
-555.442	-200.000	0.028	-0.259
-554.427	-20.613	0.164	0.101
-553.412	81.818	0.248	-0.270
-552.398	-38.181	-0.163	0.087
-551.383	425.305	-0.118	0.255
-550.369	-114.479	-0.192	0.037
-549.354	16.863	-0.543	0.433
-548.339	654.680	-0.019	0.050
-547.325	-70.083	0.164	-0.063
-546.310	-64.399	-0.148	-0.061
-545.296	800.000	-0.053	0.158
-544.281	353.823	-0.047	0.094
-543.266	359.043	-0.132	-0.265
-542.252	465.712	-0.110	-0.249
-541.237	300.292	-0.157	0.291
-540.223	36.039	-0.134	-0.118
-539.208	-24.801	-0.156	-0.093
-538.193	-200.000	-0.070	-0.469
-537.179	-200.000	0.011	0.054
-536.164	-162.657	-0.081	-0.004
-535.150	-91.626	-0.138	-0.040
-534.135	126.730	-0.230	0.294
-533.121	82.708	-0.215	0.236
-532.106	-2.872	-0.056	-0.039
-531.091	54.116	0.067	-0.064
-530.077	397.042	-0.112	-0.236
-529.062	-200.000	0.007	-0.392
-528.048	-200.000	0.010	-0.201
-527.033	163.431	-0.069	-0.098
-526.018	-200.000	-0.012	-0.060
-525.004	748.815	-0.038	0.104
-523.989	-116.930	-0.177	-0.033
-522.975	-200.000	0.017	-0.236
-521.960	145.614	0.135	-0.182
-520.945	12.072	-0.437	-0.339
-519.931	-59.566	-0.042	0.018
-518.916	-72.861	0.168	0.062
-517.902	21.426	0.249	0.204
-516.887	-100.822	-0.208	-0.051
-515.872	-67.391	-0.131	-0.052
-514.858	308.254	-0.056	-0.106
-513.843	-104.044	0.315	0.074
-512.829	150.324	-0.074	-0.102
-511.814	-200.000	0.018	0.283
-510.799	-73.382	0.172	-0.063
-509.785	144.421	-0.024	0.033
-508.770	-200.000	-0.067	0.392
-507.756	0.772	0.075	-0.054
-506.741	238.416	0.020	-0.033
-505.726	343.609	-0.005	0.011
-504.712	76.842	-0.117	0.125
-503.697	28.218	0.153	0.130
-502.683	-114.038	-0.359	-0.070
-501.668	486.346	0.089	0.204
-500.653	-200.000	-0.036	-0.248
-499.639	800.000	0.013	0.039
-498.624	14.609	-0.074	0.058
-497.610	-162.767	-0.299	-0.015
-496.595	800.000	0.083	0.234
-495.581	-27.200	-0.105	-0.061
-494.566	-0.631	-0.064	0.046
-493.551	374.283	-0.118	0.242
-492.537	-100.234	-0.406	0.101
-491.522	-106.839	-0.226	-0.050
-490.508	-20.482	0.167	0.103
-489.493	-162.503	0.362	-0.018
-488.478	-186.132	0.127	-0.002
-487.464	-125.034	-0.217	-0.034
-486.449	412.310	0.063	0.135
-485.435	25.371	-0.390	0.326
-484.420	-200.000	-0.043	0.271
-483.405	340.117	-0.086	0.168
-482.391	-63.170	0.100	0.041
-481.376	800.000	-0.082	-0.340
-480.362	132.640	-0.239	-0.310
-479.347	-127.389	0.147	-0.022
-478.332	-150.555	0.154	-0.012
-477.318	-57.275	0.246	-0.109
-476.303	-130.776	-0.423	0.057
-475.289	-66.441	0.157	-0.063
-474.274	325.092	-0.041	0.078
-473.259	-32.393	-0.117	-0.065
-472.245	-54.206	0.126	0.057
-471.230	-138.394	0.129	-0.014
-470.216	-69.051	-0.129	-0.050
-469.201	22.461	-0.092	0.075
-468.186	406.826	0.203	0.431
-467.172	138.704	0.050	-0.065
-466.157	-129.506	0.058	-0.008
-465.143	-200.000	0.003	-0.016
-464.128	-36.482	-0.378	-0.204
-463.113	32.964	-0.153	0.133
-462.099	-97.693	-0.193	-0.050
-461.084	-29.561	0.323	0.185
-460.070	113.733	0.158	0.192
-459.055	47.197	-0.132	-0.123
-458.040	-60.750	0.097	-0.041
-457.026	-49.190	-0.335	0.161
-456.011	-200.000	0.007	0.328
-454.997	83.861	0.108	0.118
-453.982	-101.856	0.302	-0.073
-452.968	-62.840	-0.040	-0.017
-451.953	285.576	0.056	0.102
-450.938	114.115	-0.016	-0.019
-449.924	620.963	-0.084	0.212
-448.909	430.569	-0.090	0.195
-447.895	-124.839	0.300	-0.047
-446.880	-200.000	0.045	-0.217
-445.865	308.902	0.024	-0.044
-444.851	25.453	0.192	-0.160
-443.836	141.166	-0.142	0.189
-442.822	-38.666	0.176	0.093
-441.807	413.555	0.079	-0.168
-440.792	-200.000	-0.121	-0.670
-439.778	-160.194	-0.211	0.011
-438.763	-55.671	-0.068	-0.031
-437.749	800.000	0.045	-0.166
-436.734	218.032	-0.180	-0.288
-435.719	-94.892	-0.121	0.033
-434.705	105.152	-0.252	-0.298
-433.690	800.000	0.060	-0.194
-432.676	-123.058	0.210	0.034
-431.661	-13.633	-0.488	-0.317
-430.646	-200.000	-0.011	0.197
-429.632	-107.156	0.328	0.073
-428.617	-200.000	0.012	0.060
-427.603	319.742	0.024	-0.047
-426.588	-64.991	-0.149	-0.060
-425.573	-30.327	-0.056	-0.032
-424.559	-73.345	-0.323	-0.119
-423.544	-200.000	0.040	0.279
-422.530	-79.411	-0.310	0.105
-421.515	-49.474	0.015	-0.007
-420.500	-27.887	-0.108	0.063
-419.486	-200.000	-0.007	0.160
-418.471	-28.437	0.224	0.130
-417.457	-3.567	-0.193	-0.134
-416.442	-44.621	0.208	-0.104
-415.428	800.000	-0.141	0.477
-414.413	-200.000	0.005	0.254
-413.398	11.265	0.249	-0.191
-412.384	800.000	-0.141	0.422
-411.369	81.037	-0.059	0.064
-410.355	800.000	0.088	-0.294
-409.340	278.927	0.159	0.284
-408.325	-63.658	-0.041	-0.017
-407.311	-137.390	-0.119	0.014
-406.296	162.674	0.205	0.288
-405.282	61.292	-0.048	-0.048
-404.267	43.355	-0.105	-0.096
-403.252	166.909	0.202	0.287
-402.238	233.621	0.135	0.223
-401.223	-87.115	-0.214	-0.065
-400.209	-30.819	-0.281	-0.159
-399.194	100.995	0.104	0.121
-398.179	74.605	-0.182	0.192
-397.165	-114.237	-0.229	0.044
-396.150	-102.962	0.219	-0.052
-395.136	-110.322	-0.314	0.065
-394.121	263.907	-0.085	0.148
-393.106	800.000	-0.085	-0.301
-392.092	-144.818	-0.097	-0.009
-391.077	-48.380	-0.222	-0.107
-390.063	-149.814	-0.049	-0.004
-389.048	-115.211	-0.282	-0.053
-388.033	55.038	-0.160	0.154
-387.019	-59.004	0.140	0.061
-386.004	-108.608	0.049	0.011
-384.990	-108.018	0.120	0.026
-383.975	-45.514	0.173	0.086
-382.960	-51.593	0.275	-0.129
-381.946	-165.912	0.279	0.012
-380.931	-28.490	0.066	0.038
-379.917	-102.734	-0.207	-0.049
-378.902	-43.415	-0.219	0.111
-377.888	28.949	0.126	-0.107
-376.873	-200.000	0.060	-0.417
-375.858	-200.000	0.002	0.020
-374.844	33.708	0.086	0.075
-373.829	103.920	-0.066	-0.077
-372.815	-104.017	-0.364	-0.085
-371.800	-114.898	0.146	-0.028
-370.785	-126.768	-0.145	0.021
-369.771	14.922	-0.277	-0.217
-368.756	130.909	0.163	-0.209
-367.742	-25.140	-0.406	0.241
-366.727	-92.330	-0.046	0.013
-365.712	-111.344	-0.097	-0.020
-364.698	-116.797	0.134	0.025
-363.683	-30.355	0.157	0.089
-362.669	-84.988	0.120	-0.038
-361.654	-135.675	-0.199	0.024
-360.639	267.078	-0.109	0.191
-359.625	66.891	0.141	0.144
-358.610	76.547	0.197	0.208
-357.596	20.337	0.180	-0.145
-356.581	800.000	0.009	-0.033
-355.566	800.000	0.020	-0.058
-354.552	-143.245	0.123	-0.012
-353.537	442.968	0.003	0.006
-352.523	-80.128	-0.084	-0.028
-351.508	-16.577	0.058	-0.037
-350.493	461.413	-0.024	-0.053
-349.479	800.000	-0.048	0.139
-348.464	50.890	-0.152	-0.144
-347.450	27.719	0.181	-0.152
-346.435	-143.146	0.463	0.045
-345.420	137.448	0.069	0.090
-344.406	-116.059	-0.087	0.016
-343.391	-200.000	-0.050	0.324
-342.377	-73.726	-0.178	0.065
-341.362	-200.000	-0.003	-0.132
-340.348	204.346	0.159	0.246
-339.333	30.797	0.077	-0.066
-338.318	-135.548	-0.230	0.027
-337.304	-200.000	-0.028	0.203
-336.289	-200.000	0.067	0.319
-335.275	199.025	0.187	0.286
-334.260	6.629	-0.097	-0.072
-333.245	-200.000	-0.026	0.182
-332.231	-135.513	0.441	0.052
-331.216	-200.000	-0.008	-0.196
-330.202	800.000	0.087	-0.266
-329.187	294.196	0.112	-0.205
-328.172	147.388	-0.173	-0.233
-327.158	-200.000	0.036	0.163
-326.143	-65.246	-0.120	-0.048
-325.129	168.770	0.302	0.430
-324.114	-134.316	0.452	-0.055
-323.099	-200.000	-0.037	-0.203
-322.085	-200.000	-0.007	0.269
-321.070	552.194	0.024	-0.056
-320.056	-29.778	-0.174	0.099
-319.041	-22.347	0.114	0.069
-318.026	711.741	0.169	0.447
-317.012	-22.064	-0.315	0.191
-315.997	-200.000	-0.001	0.016
-314.983	-106.383	0.226	-0.050
-313.968	-177.603	0.216	0.005
-312.953	158.345	-0.074	-0.102
-311.939	320.824	0.106	-0.201
-310.924	27.180	0.121	-0.101
-309.910	-167.739	-0.265	-0.010
-308.895	362.300	-0.056	0.112
-307.880	485.459	0.036	-0.083
-306.866	-127.662	0.146	0.021
-305.851	-92.645	-0.123	0.034
-304.837	-200.000	-0.014	0.060
-303.822	680.363	0.195	-0.506
-302.807	345.451	-0.125	-0.244
-301.793	68.936	-0.243	-0.249
-300.778	-9.122	-0.263	0.176
-299.764	-61.726	-0.299	-0.125
-298.749	109.154	-0.297	-0.355
-297.735	-200.000	-0.010	-0.188
-296.720	-200.000	0.004	-0.111
-295.705	-78.512	0.306	-0.104
-294.691	170.229	0.070	-0.100
-293.676	-200.000	0.025	0.335
-292.662	800.000	0.064	0.221
-291.647	221.136	-0.132	0.211
-290.632	258.872	-0.060	-0.102
-289.618	800.000	0.069	0.212
-288.603	-200.000	-0.042	-0.229
-287.589	-200.000	0.033	0.163
-286.574	800.000	0.027	0.114
-285.559	11.508	0.195	-0.149
-284.545	800.000	0.101	-0.316
-283.530	-140.925	-0.224	0.023
-282.516	229.225	-0.135	0.220
-281.501	-200.000	-0.002	-0.135
-280.486	55.575	0.088	0.085
-279.472	-103.363	-0.501	-0.118
-278.457	-200.000	0.006	0.153
-277.443	800.000	0.026	0.075
-276.428	-200.000	-0.021	-0.124
-275.413	-192.428	0.105	-0.001
-274.399	34.680	0.104	0.091
-273.384	-22.707	0.254	0.153
-272.370	10.051	0.163	-0.124
-271.355	77.487	0.387	0.410
-270.340	-12.802	0.246	-0.160
-269.326	-33.146	-0.021	0.011
-268.311	-66.588	0.158	0.062
-267.297	-69.996	0.204	0.077
-266.282	433.059	0.088	-0.190
-265.267	800.000	0.020	-0.074
-264.253	383.131	-0.120	0.247
-263.238	800.000	-0.071	-0.261
-262.224	-34.278	0.207	0.113
-261.209	-50.987	-0.319	0.149
-260.195	-200.000	-0.005	0.624
-259.180	87.144	0.090	0.100
-258.165	212.985	0.065	0.102
-257.151	-200.000	-0.004	-0.127
-256.136	800.000	0.012	0.034
-255.122	25.005	-0.306	0.253
-254.107	-88.735	0.222	-0.066
-253.092	-5.950	0.203	0.138
-252.078	104.428	-0.256	0.300
-251.063	-200.000	-0.001	0.157
-250.049	3.340	0.077	-0.056
-249.034	366.441	0.072	-0.145
-248.019	-94.759	0.476	0.129
-247.005	656.754	0.056	-0.143
-245.990	387.710	0.098	0.202
-244.976	522.697	0.061	-0.143
-243.961	30.663	0.205	-0.175
-242.946	-30.190	0.426	-0.241
-241.932	-99.944	0.356	0.088
-240.917	97.470	0.122	-0.139
-239.903	24.761	-0.136	0.113
-238.888	-152.112	0.327	0.024
-237.873	-134.712	-0.112	-0.014
-236.859	-140.758	-0.522	-0.054
-235.844	-63.627	0.302	-0.123
-234.830	-200.000	-0.048	-0.454
-233.815	-44.741	0.259	-0.129
-232.800	-200.000	0.012	-0.227
-231.786	-97.174	0.431	0.112
-230.771	-200.000	-0.012	-0.459
-229.757	-70.913	-0.132	0.050
-228.742	800.000	-0.024	-0.084
-227.727	800.000	0.079	-0.253
-226.713	-123.562	0.240	-0.038
-225.698	-151.796	0.113	0.008
-224.684	800.000	-0.059	0.243
-223.669	-200.000	-0.042	0.262
-222.655	397.449	0.209	0.435
-221.640	-80.006	-0.230	0.077
-220.625	250.168	0.079	-0.134
-219.611	100.465	-0.122	-0.140
-218.596	-200.000	-0.026	0.140
-217.582	800.000	0.083	-0.231
-216.567	608.973	-0.133	0.329
-215.552	-200.000	0.041	0.254
-214.538	518.757	-0.073	-0.170
-213.523	-200.000	0.010	0.166
-212.509	119.566	0.179	-0.220
-211.494	-200.000	0.042	0.183
-210.479	-61.844	-0.105	0.044
-209.465	-200.000	0.002	-0.071
-208.450	-125.982	0.076	0.011
-207.436	800.000	-0.075	-0.323
-206.421	54.492	-0.065	-0.062
-205.406	-188.254	-0.273	-0.003
-204.392	-161.289	0.206	-0.011
-203.377	224.718	0.198	0.318
-202.363	-200.000	0.038	0.187
-201.348	800.000	0.026	-0.112
-200.333	26.319	-0.162	-0.135
-199.319	-2.508	0.161	-0.112
-198.304	206.326	0.097	-0.149
-197.290	-29.559	0.036	0.021
-196.275	-87.776	-0.299	-0.090
-195.260	-91.710	-0.401	-0.113
-194.246	-23.101	0.095	-0.057
-193.231	9.787	0.160	-0.121
-192.217	-112.323	-0.289	0.057
-191.202	-198.286	0.176	0.001
-190.187	54.432	0.215	0.205
-189.173	-44.032	0.088	-0.044
-188.158	-44.393	-0.159	-0.079
-187.144	127.941	0.103	0.130
-186.129	32.090	0.069	-0.059
-185.114	-200.000	0.027	0.222
-184.100	-200.000	-0.007	0.113
-183.085	476.343	0.027	-0.060
-182.071	-19.127	-0.186	0.115
-181.056	9.678	-0.147	-0.111
-180.042	576.532	0.143	-0.348
-179.027	-73.957	0.077	-0.028
-178.012	-101.782	0.094	-0.023
-176.998	407.386	0.144	-0.302
-175.983	-70.363	-0.071	-0.027
-174.969	41.667	0.075	0.067
-173.954	-1.610	0.407	0.285
-172.939	-200.000	-0.003	-0.109
-171.925	159.198	-0.110	0.153
-170.910	-200.000	0.061	-0.458
-169.896	14.587	0.209	-0.162
-168.881	800.000	0.028	0.114
-167.866	78.220	0.309	0.328
-166.852	-48.268	0.268	-0.128
-165.837	-21.165	0.280	0.170
-164.823	718.108	-0.128	0.338
-163.808	-200.000	0.019	-0.143
-162.793	-200.000	-0.041	0.336
-161.779	1.744	0.102	-0.073
-160.764	800.000	0.083	0.265
-159.750	-73.745	-0.047	0.017
-158.735	800.000	0.036	-0.123
-157.720	-150.763	0.214	-0.016
-156.706	800.000	0.145	0.503
-155.691	-81.577	-0.116	-0.038
-154.677	-200.000	-0.024	-0.164
-153.662	-114.061	-0.314	-0.060
-152.647	-13.481	-0.198	-0.127
-151.633	-200.000	-0.019	0.167
-150.618	68.805	-0.276	-0.281
-149.604	800.000	-0.088	0.289
-148.589	-29.098	-0.185	0.105
-147.574	368.878	-0.105	0.210
-146.560	519.742	0.153	0.356
-145.545	-48.864	0.136	0.065
-144.531	-136.247	0.196	-0.023
-143.516	-1.285	-0.383	-0.268
-142.502	-177.287	0.283	0.007
-141.487	-200.000	0.043	0.245
-140.472	-200.000	0.038	-0.305
-139.458	-42.041	-0.142	-0.072
-138.443	-128.647	-0.067	0.009
-137.429	1.619	-0.205	-0.146
-136.414	800.000	0.142	-0.463
-135.399	800.000	-0.041	-0.123
-134.385	800.000	0.017	-0.049
-133.370	800.000	0.022	0.071
-132.356	250.542	0.129	0.217
-131.341	59.926	0.136	0.133
-130.326	-13.314	0.371	0.238
-129.312	399.449	-0.088	0.183
-128.297	-200.000	0.016	0.100
-127.283	-116.783	0.239	0.043
-126.268	59.850	0.155	0.151
-125.253	244.239	-0.208	-0.347
-124.239	-104.482	0.326	0.075
-123.224	277.110	-0.034	-0.060
-122.210	-58.835	-0.256	0.110
-121.195	41.766	-0.241	0.216
