DTS Sentinel unit serial number:	SN413079Multiplexer serial number:	ORYXHardware model number:	OX4-SRSoftware version number:	ORYX F/W v4.00 Oryx Data Collector v3.7.2.0data status	okinstallation	princeton_trtdifferential loss correction	single-endedforward channel	channel 3reverse channel	N/Adate	2019/09/12time	08:54:11forward acquisition time	60.00reverse acquisition time	0.00gamma	496.2192k internal	0.2308k external	0.2308temperature offset calibration	1.0033default loss term (dB/km)	0.3790temperature slope calibration	1.0000multiplexer offset coefficient	1.0000multiplexer slope coefficient	1.0000fibre end	0.00T internal ref (°C)	34.06T ext. ref 1 (°C)	1.75T ext. ref 2 (°C)	30.84length (m)	temperature (°C)	Stokes	anti-Stokes-747.200	-153.804	0.186	0.013
-746.185	0.244	-0.172	0.124
-745.171	-117.699	0.133	-0.024
-744.156	-200.000	0.257	-0.001
-743.142	-73.189	0.065	-0.024
-742.127	-116.595	0.195	0.036
-741.112	201.679	-0.032	0.049
-740.098	-31.013	0.050	-0.029
-739.083	-84.014	0.253	0.082
-738.069	384.352	-0.153	0.321
-737.054	-200.000	0.026	-0.143
-736.039	534.629	0.135	0.326
-735.025	-181.479	0.238	-0.005
-734.010	-11.962	-0.115	0.077
-732.996	-78.937	0.289	0.100
-731.981	456.044	0.113	-0.255
-730.966	-200.000	-0.063	-0.367
-729.952	-16.649	-0.297	-0.191
-728.937	58.956	-0.233	0.233
-727.923	65.706	0.258	0.265
-726.908	30.409	-0.121	0.105
-725.894	-63.727	-0.478	0.199
-724.879	800.000	-0.092	0.265
-723.864	-200.000	-0.037	-0.212
-722.850	-200.000	0.043	-0.223
-721.835	-126.559	-0.207	0.031
-720.821	594.315	-0.137	-0.344
-719.806	-200.000	-0.008	-0.155
-718.791	56.338	-0.123	-0.121
-717.777	800.000	-0.051	0.180
-716.762	-97.873	-0.186	-0.049
-715.748	-38.343	0.232	0.125
-714.733	417.068	-0.127	0.276
-713.718	-18.647	-0.113	0.071
-712.704	692.818	0.042	-0.113
-711.689	363.056	-0.143	-0.291
-710.675	6.559	0.146	0.110
-709.660	-200.000	0.022	0.169
-708.645	3.755	0.208	0.154
-707.631	-200.000	-0.001	-0.153
-706.616	-200.000	0.040	-0.326
-705.602	614.120	0.078	0.199
-704.587	-200.000	-0.031	-0.141
-703.572	399.808	0.074	0.157
-702.558	-200.000	-0.014	-0.173
-701.543	247.096	-0.154	0.263
-700.529	-200.000	-0.019	0.109
-699.514	460.017	-0.075	0.169
-698.499	760.145	0.045	-0.124
-697.485	-64.361	-0.196	-0.081
-696.470	-92.145	0.378	-0.108
-695.456	741.960	-0.036	0.099
-694.441	-86.061	-0.307	-0.096
-693.426	447.132	0.036	-0.079
-692.412	-200.000	0.040	-0.270
-691.397	-52.147	0.208	0.098
-690.383	-165.360	0.117	0.005
-689.368	-200.000	0.046	0.216
-688.354	216.528	-0.022	0.036
-687.339	-75.147	-0.302	-0.110
-686.324	-62.173	0.064	-0.027
-685.310	-200.000	-0.069	-0.389
-684.295	-48.503	-0.169	0.083
-683.281	235.847	0.075	0.126
-682.266	149.160	-0.036	0.050
-681.251	-200.000	-0.022	0.397
-680.237	-102.867	0.345	0.083
-679.222	692.514	0.056	0.148
-678.208	158.652	0.135	-0.190
-677.193	101.631	-0.064	-0.076
-676.178	338.944	-0.057	-0.112
-675.164	-128.062	-0.235	0.034
-674.149	26.930	0.196	-0.167
-673.135	-200.000	-0.007	0.452
-672.120	-200.000	-0.036	0.216
-671.105	307.624	-0.093	-0.177
-670.091	-3.828	-0.105	-0.074
-669.076	-121.558	0.167	0.028
-668.062	-137.496	0.054	-0.006
-667.047	29.986	-0.252	-0.217
-666.032	-23.984	-0.132	-0.080
-665.018	-120.599	-0.064	0.011
-664.003	98.246	-0.210	-0.245
-662.989	-66.435	-0.619	0.249
-661.974	103.916	0.059	-0.070
-660.959	-67.601	-0.200	0.080
-659.945	-132.495	-0.370	-0.048
-658.930	173.771	0.073	0.107
-657.916	-47.245	0.144	-0.071
-656.901	-33.717	0.278	-0.155
-655.886	-173.068	-0.215	0.007
-654.872	-112.904	-0.048	0.010
-653.857	375.374	-0.104	-0.214
-652.843	-16.702	0.055	-0.035
-651.828	800.000	-0.067	-0.237
-650.814	-29.889	-0.403	0.233
-649.799	130.432	-0.046	-0.060
-648.784	-32.886	0.311	0.175
-647.770	-200.000	-0.012	0.108
-646.755	-200.000	-0.049	-0.394
-645.741	-127.291	0.203	0.030
-644.726	-144.100	0.121	-0.011
-643.711	-17.399	-0.294	0.187
-642.697	800.000	0.092	0.324
-641.682	53.451	0.079	-0.076
-640.668	-200.000	0.018	0.326
-639.653	-40.720	0.131	-0.069
-638.638	419.147	-0.033	-0.071
-637.624	525.993	0.057	0.135
-636.609	-200.000	-0.043	-0.374
-635.595	-77.138	0.100	0.035
-634.580	0.163	-0.105	-0.076
-633.565	516.912	0.170	-0.403
-632.551	-138.194	0.262	-0.029
-631.536	-98.615	0.289	0.075
-630.522	489.520	0.134	0.309
-629.507	-200.000	-0.052	-0.316
-628.492	800.000	0.047	-0.161
-627.478	81.551	0.027	0.029
-626.463	213.485	0.087	0.139
-625.449	-132.136	0.044	0.006
-624.434	800.000	0.123	-0.505
-623.419	160.964	-0.039	0.056
-622.405	97.046	0.150	0.174
-621.390	-98.460	-0.377	-0.097
-620.376	-200.000	0.035	0.320
-619.361	-55.411	0.113	-0.051
-618.346	-26.558	-0.287	-0.170
-617.332	-200.000	-0.006	-0.042
-616.317	-165.502	0.051	-0.002
-615.303	-79.566	-0.084	-0.029
-614.288	625.163	0.101	-0.257
-613.273	178.745	-0.102	-0.151
-612.259	-200.000	0.011	0.307
-611.244	62.866	0.124	0.126
-610.230	800.000	-0.103	0.354
-609.215	-200.000	0.014	0.097
-608.201	29.390	-0.052	-0.045
-607.186	-200.000	0.011	0.068
-606.171	764.823	-0.094	0.257
-605.157	-186.021	0.217	-0.003
-604.142	-26.839	0.238	0.141
-603.128	-64.973	0.170	0.069
-602.113	-105.023	0.110	-0.026
-601.098	-200.000	-0.008	0.050
-600.084	800.000	-0.082	-0.328
-599.069	-112.325	-0.320	0.065
-598.055	604.525	-0.063	-0.158
-597.040	8.703	-0.076	0.058
-596.025	207.322	-0.011	-0.017
-595.011	-148.129	-0.401	-0.034
-593.996	-174.281	-0.056	-0.002
-592.982	-11.619	0.129	-0.086
-591.967	-173.199	-0.308	-0.010
-590.952	-200.000	0.012	0.104
-589.938	175.538	-0.106	-0.155
-588.923	-200.000	-0.064	-0.507
-587.909	43.465	-0.345	0.318
-586.894	800.000	0.060	0.202
-585.879	56.831	-0.052	-0.051
-584.865	-143.054	0.311	-0.030
-583.850	-200.000	0.091	-0.418
-582.836	117.318	0.059	-0.074
-581.821	157.526	-0.258	0.361
-580.806	-102.152	-0.219	0.053
-579.792	-59.298	-0.363	-0.158
-578.777	-200.000	0.015	-0.162
-577.763	755.389	0.142	0.388
-576.748	-85.016	-0.204	0.064
-575.733	-40.683	0.195	0.102
-574.719	-33.963	-0.262	-0.146
-573.704	68.326	-0.264	-0.273
-572.690	-84.444	-0.301	-0.096
-571.675	-34.584	-0.246	-0.136
-570.661	-32.070	-0.374	0.211
-569.646	-29.113	0.138	-0.080
-568.631	103.430	0.169	-0.201
-567.617	-155.584	-0.324	-0.021
-566.602	800.000	0.043	0.162
-565.588	-93.625	0.208	0.058
-564.573	-200.000	0.032	-0.251
-563.558	76.195	0.127	0.136
-562.544	47.012	-0.067	0.063
-561.529	-200.000	0.026	-0.125
-560.515	6.198	-0.130	0.097
-559.500	-47.791	-0.051	-0.025
-558.485	78.977	-0.194	-0.210
-557.471	13.783	-0.175	-0.137
-556.456	-61.010	0.184	-0.078
-555.442	52.472	-0.111	-0.107
-554.427	-68.891	-0.030	0.012
-553.412	-123.012	0.027	-0.004
-552.398	88.119	-0.131	-0.146
-551.383	-121.021	-0.209	0.035
-550.369	364.229	0.095	0.192
-549.354	-200.000	0.003	-0.037
-548.339	-200.000	-0.010	0.321
-547.325	-200.000	0.021	0.178
-546.310	674.386	0.081	-0.213
-545.296	26.542	-0.277	-0.234
-544.281	242.799	0.124	0.210
-543.266	0.860	0.010	-0.007
-542.252	276.802	0.052	0.094
-541.237	-200.000	0.008	0.278
-540.223	-85.066	-0.173	-0.055
-539.208	-104.200	0.194	0.046
-538.193	433.044	-0.170	0.372
-537.179	800.000	-0.009	-0.037
-536.164	-200.000	-0.074	-0.451
-535.150	50.715	0.190	0.181
-534.135	-88.067	-0.198	-0.060
-533.121	-200.000	0.069	-0.309
-532.106	390.093	0.060	0.126
-531.091	-91.216	0.247	-0.071
-530.077	-163.134	0.174	-0.008
-529.062	800.000	0.074	0.261
-528.048	330.568	0.035	-0.067
-527.033	62.111	-0.239	-0.241
-526.018	132.884	0.207	0.269
-525.004	800.000	-0.072	0.205
-523.989	-12.717	0.107	-0.070
-522.975	800.000	0.031	-0.132
-521.960	-94.217	-0.291	0.080
-520.945	43.602	-0.125	0.115
-519.931	11.307	-0.137	0.106
-518.916	-22.073	-0.269	0.165
-517.902	-17.815	-0.281	0.178
-516.887	223.374	0.088	-0.143
-515.872	-95.803	0.157	-0.042
-514.858	-192.875	0.472	-0.004
-513.843	10.481	-0.214	-0.164
-512.829	-200.000	0.009	-0.172
-511.814	-200.000	-0.050	-0.304
-510.799	-92.722	-0.291	-0.082
-509.785	-112.290	-0.194	0.039
-508.770	800.000	-0.064	0.259
-507.756	-7.268	-0.074	-0.051
-506.741	-200.000	-0.041	0.195
-505.726	-101.878	-0.071	-0.017
-504.712	-46.962	0.334	0.164
-503.697	87.334	0.242	0.270
-502.683	350.924	0.084	-0.168
-501.668	62.366	0.054	0.054
-500.653	141.480	0.210	0.280
-499.639	578.725	-0.092	-0.227
-498.624	-200.000	0.009	0.119
-497.610	412.352	0.112	0.239
-496.595	188.216	-0.270	0.407
-495.581	602.151	0.157	-0.393
-494.566	800.000	-0.097	-0.281
-493.551	-162.698	0.333	-0.016
-492.537	-74.934	-0.232	-0.084
-491.522	8.235	0.232	0.175
-490.508	-19.367	-0.225	0.140
-489.493	-67.963	-0.203	0.080
-488.478	150.224	0.260	-0.354
-487.464	344.622	-0.075	-0.147
-486.449	800.000	0.027	0.093
-485.435	22.072	-0.301	0.247
-484.420	800.000	0.045	0.174
-483.405	-32.302	-0.245	-0.138
-482.391	-44.365	-0.118	0.059
-481.376	-37.956	0.071	0.038
-480.362	-200.000	-0.019	-0.315
-479.347	137.273	-0.267	-0.352
-478.332	111.588	0.171	-0.208
-477.318	800.000	0.033	-0.108
-476.303	-58.551	0.026	0.011
-475.289	-200.000	0.005	0.106
-474.274	-200.000	-0.034	-0.339
-473.259	-200.000	-0.022	-0.146
-472.245	800.000	0.107	0.436
-471.230	186.392	0.122	0.182
-470.216	346.116	-0.029	0.058
-469.201	-200.000	-0.007	0.439
-468.186	27.561	0.130	-0.110
-467.172	-66.053	0.109	-0.044
-466.157	-121.545	0.199	-0.033
-465.143	-94.135	-0.299	-0.082
-464.128	800.000	-0.074	-0.248
-463.113	73.229	0.175	-0.184
-462.099	-37.972	-0.253	0.135
-461.084	230.583	-0.125	-0.205
-460.070	-149.369	0.182	-0.015
-459.055	-105.957	0.534	0.121
-458.040	-79.551	0.064	-0.022
-457.026	12.073	-0.110	-0.085
-456.011	-121.082	-0.106	0.018
-454.997	800.000	-0.065	0.255
-453.982	-98.310	-0.155	-0.040
-452.968	-95.625	-0.082	0.022
-451.953	468.215	0.018	0.040
-450.938	44.746	-0.031	0.028
-449.924	-63.154	-0.354	-0.147
-448.909	-169.755	-0.119	0.004
-447.895	136.128	-0.039	-0.051
-446.880	-200.000	0.015	-0.145
-445.865	33.874	-0.228	-0.199
-444.851	800.000	0.103	-0.434
-443.836	689.411	0.109	0.286
-442.822	85.214	0.078	-0.086
-441.807	-60.457	0.318	-0.136
-440.792	800.000	-0.073	0.203
-439.778	-200.000	0.034	-0.281
-438.763	-78.435	0.654	-0.225
-437.749	88.008	-0.063	-0.070
-436.734	-107.472	-0.209	-0.046
-435.719	-118.868	-0.224	0.040
-434.705	800.000	0.061	0.255
-433.690	13.779	-0.124	0.096
-432.676	713.193	0.060	-0.159
-431.661	-94.853	-0.232	0.063
-430.646	-99.362	0.065	0.016
-429.632	-108.612	-0.171	0.037
-428.617	-200.000	-0.055	-0.299
-427.603	-200.000	-0.004	0.172
-426.588	19.049	-0.167	-0.134
-425.573	-200.000	-0.043	0.202
-424.559	48.678	0.188	-0.177
-423.544	-11.914	0.097	0.064
-422.530	172.100	0.099	-0.143
-421.515	-200.000	0.048	-0.275
-420.500	316.495	0.074	0.141
-419.486	-15.499	0.404	-0.259
-418.471	-28.629	-0.171	0.099
-417.457	-200.000	-0.014	0.232
-416.442	234.904	0.180	-0.297
-415.428	77.265	-0.085	-0.091
-414.413	-66.719	-0.340	-0.135
-413.398	138.321	-0.073	0.096
-412.384	-144.957	0.089	0.008
-411.369	-200.000	0.008	-0.103
-410.355	310.990	0.120	0.226
-409.340	254.124	-0.179	0.308
-408.325	800.000	-0.047	0.154
-407.311	83.434	-0.086	0.095
-406.296	90.873	-0.092	0.104
-405.282	-62.520	0.099	-0.041
-404.267	44.173	-0.224	-0.206
-403.252	-1.235	0.164	-0.116
-402.238	-9.215	-0.052	0.035
-401.223	-200.000	0.028	-0.127
-400.209	-200.000	0.002	-0.234
-399.194	62.572	-0.091	-0.091
-398.179	-54.107	-0.156	0.071
-397.165	-107.240	-0.179	0.039
-396.150	-59.193	0.219	0.095
-395.136	529.416	0.100	-0.238
-394.121	-110.332	0.284	-0.059
-393.106	-200.000	-0.018	-0.307
-392.092	-59.351	-0.172	0.074
-391.077	328.934	-0.050	0.095
-390.063	-200.000	-0.037	0.231
-389.048	438.119	0.098	0.215
-388.033	-200.000	-0.087	-0.000
-387.019	61.623	0.080	0.080
-386.004	277.460	-0.119	0.213
-384.990	405.691	-0.098	0.207
-383.975	-200.000	0.030	-0.187
-382.960	553.260	-0.159	-0.383
-381.946	38.749	0.166	0.149
-380.931	9.071	-0.053	0.040
-379.917	85.420	0.150	-0.165
-378.902	-23.141	-0.158	0.095
-377.888	-39.692	0.238	-0.125
-376.873	-52.006	-0.206	0.096
-375.858	-60.036	-0.235	-0.101
-374.844	-113.584	0.395	0.077
-373.829	-96.653	-0.339	0.089
-372.815	376.315	0.012	-0.024
-371.800	-33.427	0.365	-0.202
-370.785	800.000	0.015	-0.046
-369.771	-200.000	0.002	0.064
-368.756	131.839	0.165	-0.212
-367.742	-43.057	-0.131	-0.067
-366.727	-200.000	-0.013	0.116
-365.712	-195.042	0.275	0.002
-364.698	-200.000	0.073	0.468
-363.683	6.008	-0.185	-0.137
-362.669	-191.438	0.045	-0.000
-361.654	-200.000	-0.018	-0.189
-360.639	14.549	-0.275	-0.215
-359.625	-18.267	-0.139	0.087
-358.610	2.276	-0.083	-0.060
-357.596	-39.811	0.482	0.252
-356.581	-200.000	-0.105	0.000
-355.566	-135.023	-0.251	0.030
-354.552	-200.000	-0.011	0.059
-353.537	-162.520	0.104	-0.005
-352.523	-131.154	0.141	0.019
-351.508	208.415	0.081	-0.126
-350.493	-106.696	-0.231	-0.051
-349.479	233.702	-0.075	0.124
-348.464	-123.218	-0.233	0.037
-347.450	81.706	0.075	0.081
-346.435	-200.000	-0.017	0.210
-345.420	-112.430	-0.203	0.041
-344.406	61.846	-0.031	-0.031
-343.391	-53.786	0.251	0.115
-342.377	22.096	-0.116	0.095
-341.362	463.677	0.102	0.229
-340.348	-200.000	0.005	-0.025
-339.333	-104.231	0.237	-0.055
-338.318	-42.650	-0.156	-0.080
-337.304	94.086	-0.158	0.179
-336.289	-79.038	0.150	0.051
-335.275	-16.393	-0.140	-0.089
-334.260	-200.000	-0.036	-0.291
-333.245	209.238	0.084	0.132
-332.231	-151.479	-0.268	0.020
-331.216	-200.000	-0.004	0.189
-330.202	121.738	-0.295	0.368
-329.187	800.000	0.084	0.265
-328.172	-75.586	0.345	0.123
-327.158	-81.628	0.138	0.045
-326.143	-140.753	-0.282	0.029
-325.129	-151.682	0.455	-0.034
-324.114	-200.000	-0.015	0.099
-323.099	-10.316	0.072	-0.048
-322.085	422.514	-0.114	-0.245
-321.070	-64.861	0.110	-0.044
-320.056	-7.844	0.032	0.021
-319.041	-70.073	-0.110	-0.042
-318.026	58.176	-0.129	0.127
-317.012	800.000	0.064	-0.187
-315.997	-127.571	0.168	0.024
-314.983	70.307	0.186	0.192
-313.968	-75.581	-0.086	-0.031
-312.953	-200.000	0.049	0.227
-311.939	800.000	-0.128	0.448
-310.924	-18.065	-0.077	-0.048
-309.910	-58.121	0.100	-0.044
-308.895	-200.000	0.005	0.229
-307.880	-109.625	-0.367	0.077
-306.866	111.388	0.059	0.072
-305.851	15.679	-0.052	-0.041
-304.837	-200.000	0.008	-0.157
-303.822	-148.630	0.210	0.017
-302.807	-200.000	0.029	-0.277
-301.793	-38.572	0.189	-0.100
-300.778	-130.196	-0.320	-0.044
-299.764	240.933	-0.062	-0.103
-298.749	70.428	-0.224	-0.231
-297.735	165.183	0.319	-0.451
-296.720	190.469	0.094	-0.140
-295.705	16.389	0.099	0.078
-294.691	-17.891	-0.037	0.023
-293.676	88.087	0.196	-0.218
-292.662	-200.000	-0.008	0.280
-291.647	-200.000	-0.059	0.409
-290.632	422.583	0.061	-0.131
-289.618	140.849	0.149	0.197
-288.603	800.000	0.016	-0.068
-287.589	-200.000	0.005	0.089
-286.574	-60.845	0.222	-0.094
-285.559	-87.506	-0.502	-0.152
-284.545	-200.000	-0.055	0.363
-283.530	257.796	0.162	-0.278
-282.516	-175.139	0.310	-0.009
-281.501	39.164	0.114	-0.102
-280.486	-89.181	-0.203	-0.060
-279.472	800.000	0.045	0.153
-278.457	33.803	0.131	0.114
-277.443	-158.208	0.059	-0.003
-276.428	-102.339	0.168	-0.040
-275.413	-104.856	-0.401	0.092
-274.399	-62.715	0.198	0.082
-273.384	-85.262	-0.180	0.056
-272.370	789.436	-0.061	-0.167
-271.355	-200.000	-0.047	-0.210
-270.340	-137.954	-0.046	-0.005
-269.326	800.000	0.068	-0.232
-268.311	800.000	0.053	-0.174
-267.297	-200.000	0.041	0.202
-266.282	118.131	-0.233	0.287
-265.267	-180.300	0.349	-0.007
-264.253	-40.984	-0.327	-0.169
-263.238	-1.513	0.300	-0.211
-262.224	1.607	0.066	0.048
-261.209	-14.139	-0.091	0.058
-260.195	52.386	0.176	-0.168
-259.180	240.224	0.187	0.311
-258.165	-36.018	0.135	0.073
-257.151	96.064	-0.053	0.061
-256.136	45.240	-0.008	0.008
-255.122	-17.519	0.043	-0.027
-254.107	-200.000	-0.001	-0.116
-253.092	-200.000	-0.049	0.340
-252.078	-40.359	-0.040	-0.021
-251.063	-79.878	0.472	-0.158
-250.049	800.000	0.126	-0.454
-249.034	-200.000	0.008	-0.163
-248.019	247.738	-0.192	0.324
-247.005	313.128	-0.032	-0.060
-245.990	-32.424	0.268	0.149
-244.976	-200.000	0.028	-0.412
-243.961	-200.000	-0.022	0.343
-242.946	-137.353	0.283	0.032
-241.932	-43.861	-0.318	0.159
-240.917	56.387	0.234	-0.226
-239.903	-4.833	-0.286	-0.197
-238.888	-200.000	-0.008	0.225
-237.873	-200.000	-0.006	-0.184
-236.859	-87.177	0.171	0.052
-235.844	18.938	0.237	-0.190
-234.830	121.157	-0.198	0.246
-233.815	-14.281	-0.120	0.077
-232.800	-51.259	-0.285	0.133
-231.786	430.070	0.115	-0.247
-230.771	468.904	0.062	-0.138
-229.757	-200.000	-0.015	-0.091
-228.742	130.574	-0.135	0.173
-227.727	397.306	-0.048	0.100
-226.713	-200.000	0.070	0.353
-225.698	-195.745	0.293	0.002
-224.684	-99.421	0.280	0.070
-223.669	-20.878	-0.099	-0.061
-222.655	-92.490	-0.193	-0.054
-221.640	11.252	0.357	0.272
-220.625	81.181	0.031	0.033
-219.611	-200.000	0.037	-0.281
-218.596	371.764	0.122	-0.246
-217.582	-1.192	-0.132	0.093
-216.567	800.000	-0.090	0.322
-215.552	-9.001	0.127	-0.084
-214.538	800.000	0.084	-0.318
-213.523	-200.000	-0.061	0.340
-212.509	114.880	-0.133	-0.162
-211.494	-200.000	-0.034	0.205
-210.479	158.313	-0.033	0.046
-209.465	-140.111	-0.256	-0.027
-208.450	-200.000	-0.029	0.267
-207.436	33.326	-0.158	0.136
-206.421	-143.858	-0.044	-0.004
-205.406	186.302	0.060	0.089
-204.392	-110.166	-0.224	-0.046
-203.377	115.770	0.025	0.030
-202.363	-78.215	-0.167	0.057
-201.348	-200.000	0.011	0.187
-200.333	-48.962	-0.276	0.132
-199.319	-200.000	0.008	-0.168
-198.304	557.366	0.082	0.196
-197.290	-42.703	0.110	0.056
-196.275	-8.119	0.319	-0.214
-195.260	800.000	-0.039	-0.161
-194.246	142.094	0.210	-0.277
-193.231	-63.308	-0.301	-0.123
-192.217	11.916	-0.199	0.152
-191.202	189.018	-0.061	-0.090
-190.187	-200.000	-0.027	-0.287
-189.173	326.028	0.162	0.309
-188.158	800.000	-0.068	-0.231
-187.144	-111.784	0.086	0.017
-186.129	-200.000	0.037	-0.232
-185.114	-200.000	-0.017	0.168
-184.100	-144.179	0.081	-0.008
-183.085	-200.000	-0.035	0.207
-182.071	170.675	-0.073	0.104
-181.056	-200.000	0.064	-0.287
-180.042	-200.000	-0.014	0.127
-179.027	-150.172	-0.185	-0.014
-178.012	158.588	0.097	-0.134
-176.998	42.374	-0.265	0.239
-175.983	-75.551	0.204	0.072
-174.969	-197.364	0.099	0.001
-173.954	800.000	0.098	-0.337
-172.939	-168.499	0.290	0.011
-171.925	14.258	0.438	-0.339
-170.910	-182.553	-0.010	0.000
-169.896	-26.895	0.400	-0.232
-168.881	-75.240	0.290	-0.103
-167.866	800.000	-0.068	0.203
-166.852	-200.000	0.036	0.261
-165.837	-61.275	0.253	0.106
-164.823	42.576	-0.021	0.019
-163.808	-122.464	0.393	-0.064
-162.793	-200.000	-0.071	0.472
-161.779	-200.000	-0.076	0.335
-160.764	-5.761	0.046	-0.031
-159.750	309.843	-0.055	0.102
-158.735	275.709	-0.110	-0.193
-157.720	519.467	0.015	-0.035
-156.706	-170.727	-0.263	-0.009
-155.691	-153.150	0.249	0.017
-154.677	-17.827	-0.236	0.147
-153.662	800.000	-0.063	-0.216
-152.647	800.000	0.060	-0.175
-151.633	176.955	0.082	0.119
-150.618	39.971	-0.070	-0.062
-149.604	-82.367	0.168	0.054
-148.589	177.723	0.133	-0.193
-147.574	-200.000	-0.037	-0.310
-146.560	22.664	0.209	-0.170
-145.545	13.421	-0.134	0.103
-144.531	-60.955	-0.096	0.040
-143.516	108.953	0.132	0.157
-142.502	236.236	-0.162	0.266
-141.487	-136.361	-0.058	0.007
-140.472	6.072	0.058	-0.043
-139.458	-163.460	-0.258	0.012
-138.443	-200.000	0.000	0.100
-137.429	-190.900	0.484	-0.005
-136.414	19.256	0.239	0.190
-135.399	170.432	0.072	0.103
-134.385	-133.197	-0.147	0.018
-133.370	-11.544	-0.187	0.122
-132.356	24.105	0.197	0.161
-131.341	65.772	0.151	-0.152
-130.326	-200.000	-0.046	0.339
-129.312	229.160	-0.105	0.169
-128.297	49.060	-0.202	0.188
-127.283	308.074	0.015	-0.029
-126.268	-161.251	0.196	0.010
-125.253	-98.221	0.268	-0.068
-124.239	-65.273	0.092	0.037
-123.224	-68.999	0.493	0.189
-122.210	-63.077	-0.154	0.063
