DTS Sentinel unit serial number:	SN413079Multiplexer serial number:	ORYXHardware model number:	OX4-SRSoftware version number:	ORYX F/W v4.00 Oryx Data Collector v3.7.2.0data status	okinstallation	princeton_trtdifferential loss correction	single-endedforward channel	channel 3reverse channel	N/Adate	2019/09/12time	13:34:10forward acquisition time	60.00reverse acquisition time	0.00gamma	496.2192k internal	0.2291k external	0.2291temperature offset calibration	1.0043default loss term (dB/km)	0.3790temperature slope calibration	1.0000multiplexer offset coefficient	1.0000multiplexer slope coefficient	1.0000fibre end	0.00T internal ref (°C)	41.06T ext. ref 1 (°C)	2.13T ext. ref 2 (°C)	36.29length (m)	temperature (°C)	Stokes	anti-Stokes-747.200	-14.156	0.229	-0.151
-746.185	-200.000	-0.021	0.170
-745.171	56.930	0.296	-0.296
-744.156	1.235	0.095	-0.070
-743.142	13.966	-0.483	0.385
-742.127	-200.000	-0.044	0.450
-741.112	-200.000	-0.007	-0.033
-740.098	346.367	0.109	0.220
-739.083	580.428	-0.094	0.235
-738.069	-200.000	-0.006	0.151
-737.054	-120.862	0.204	0.035
-736.039	-146.992	-0.425	-0.037
-735.025	800.000	0.056	-0.234
-734.010	125.320	-0.041	0.053
-732.996	-200.000	0.029	-0.177
-731.981	800.000	0.088	-0.263
-730.966	630.421	-0.132	-0.342
-729.952	30.470	-0.144	0.126
-728.937	800.000	0.081	-0.329
-727.923	-174.131	0.134	-0.004
-726.908	-200.000	-0.017	-0.255
-725.894	-114.367	-0.083	0.016
-724.879	245.434	-0.097	0.166
-723.864	182.611	-0.173	0.261
-722.850	-168.178	-0.234	0.009
-721.835	18.612	0.298	-0.244
-720.821	-59.261	-0.159	0.070
-719.806	-90.249	-0.148	0.044
-718.791	-84.656	-0.213	-0.069
-717.777	-130.653	0.127	-0.017
-716.762	784.420	0.061	-0.172
-715.748	-29.311	0.338	-0.198
-714.733	199.952	-0.220	0.346
-713.718	516.238	0.088	0.210
-712.704	-200.000	0.047	-0.249
-711.689	85.766	-0.129	0.145
-710.675	223.728	0.022	-0.036
-709.660	-200.000	-0.041	-0.494
-708.645	800.000	-0.088	0.250
-707.631	800.000	0.040	0.125
-706.616	-55.287	0.386	-0.177
-705.602	45.035	0.215	-0.203
-704.587	800.000	0.040	-0.169
-703.572	106.650	0.217	0.263
-702.558	-200.000	0.029	0.326
-701.543	-22.863	0.033	-0.020
-700.529	-200.000	-0.024	-0.139
-699.514	-148.839	-0.108	0.009
-698.499	-140.088	-0.250	-0.027
-697.485	800.000	-0.093	-0.349
-696.470	-200.000	0.007	-0.228
-695.456	565.494	-0.084	-0.208
-694.441	84.443	-0.171	-0.191
-693.426	-94.417	-0.056	-0.016
-692.412	133.776	-0.162	-0.214
-691.397	-200.000	0.084	0.441
-690.383	-200.000	-0.063	-0.503
-689.368	800.000	-0.036	0.111
-688.354	-200.000	-0.008	-0.044
-687.339	-160.884	-0.036	0.002
-686.324	-200.000	0.004	0.099
-685.310	-200.000	0.017	-0.489
-684.295	-200.000	0.011	-0.159
-683.281	-39.848	-0.251	-0.134
-682.266	69.277	-0.137	-0.144
-681.251	221.305	0.059	0.097
-680.237	328.466	0.065	-0.128
-679.222	-143.978	0.301	0.029
-678.208	83.895	-0.186	0.208
-677.193	649.397	-0.007	0.018
-676.178	-58.307	0.140	-0.062
-675.164	211.347	-0.152	-0.244
-674.149	-25.924	0.299	-0.180
-673.135	800.000	-0.084	0.351
-672.120	81.204	0.113	0.124
-671.105	-176.609	-0.107	-0.003
-670.091	-153.488	-0.387	0.027
-669.076	-56.898	-0.335	-0.151
-668.062	450.189	0.134	-0.301
-667.047	64.484	0.018	-0.019
-666.032	800.000	-0.074	0.268
-665.018	-110.155	-0.518	-0.110
-664.003	-200.000	0.004	-0.223
-662.989	800.000	0.047	0.167
-661.974	-200.000	0.038	0.171
-660.959	800.000	0.081	0.264
-659.945	-20.279	-0.145	-0.091
-658.930	-114.998	0.180	0.035
-657.916	-113.486	-0.242	-0.048
-656.901	800.000	-0.018	-0.065
-655.886	90.485	-0.082	0.093
-654.872	41.771	0.173	0.160
-653.857	800.000	0.113	-0.372
-652.843	-104.770	0.219	-0.051
-651.828	408.025	0.162	0.350
-650.814	-60.579	0.092	-0.040
-649.799	399.856	0.151	-0.323
-648.784	30.797	-0.100	-0.088
-647.770	-37.939	0.167	-0.091
-646.755	800.000	0.031	-0.137
-645.741	-200.000	0.057	-0.297
-644.726	101.936	0.141	-0.168
-643.711	-200.000	0.041	0.225
-642.697	-200.000	-0.030	0.158
-641.682	-200.000	-0.047	0.329
-640.668	115.107	0.124	-0.155
-639.653	242.122	-0.024	0.041
-638.638	117.310	0.105	-0.132
-637.624	189.249	-0.099	-0.152
-636.609	37.082	0.113	0.102
-635.595	-125.806	0.331	-0.051
-634.580	158.842	-0.135	-0.192
-633.565	-76.209	0.125	-0.045
-632.551	-119.191	0.198	-0.035
-631.536	102.955	0.146	-0.174
-630.522	11.680	-0.250	-0.196
-629.507	-11.398	0.077	-0.051
-628.492	271.716	0.165	0.296
-627.478	-200.000	-0.056	0.600
-626.463	800.000	0.101	0.429
-625.449	-37.796	0.129	0.070
-624.434	120.620	0.033	0.042
-623.419	-10.817	-0.153	0.103
-622.405	800.000	-0.025	-0.077
-621.390	26.813	-0.070	-0.060
-620.376	-117.677	-0.361	-0.066
-619.361	-200.000	-0.080	0.408
-618.346	800.000	0.105	0.356
-617.332	-97.635	-0.208	-0.055
-616.317	294.076	0.171	-0.318
-615.303	-12.316	0.201	-0.134
-614.288	88.230	0.105	-0.119
-613.273	-11.934	0.187	-0.125
-612.259	-64.932	0.128	-0.053
-611.244	27.771	-0.156	0.134
-610.230	-8.534	0.247	-0.169
-609.215	140.196	-0.085	0.114
-608.201	337.584	-0.144	-0.286
-607.186	-200.000	-0.022	-0.155
-606.171	-200.000	-0.022	-0.134
-605.157	592.847	0.155	-0.391
-604.142	-139.859	0.092	0.010
-603.128	35.201	0.133	-0.119
-602.113	-143.779	-0.200	-0.019
-601.098	-56.159	-0.307	-0.139
-600.084	-74.926	0.266	-0.097
-599.069	484.715	-0.055	-0.128
-598.055	16.017	-0.175	0.140
-597.040	-21.221	0.337	-0.210
-596.025	-62.020	-0.476	-0.202
-595.011	-121.574	0.287	0.048
-593.996	167.097	-0.176	-0.254
-592.982	295.583	-0.110	-0.204
-591.967	154.490	0.204	0.286
-590.952	68.541	0.122	0.128
-589.938	-68.386	-0.256	-0.101
-588.923	-126.438	0.140	-0.021
-587.909	249.652	-0.038	-0.066
-586.894	-108.165	0.103	-0.023
-585.879	-39.347	0.372	-0.199
-584.865	800.000	-0.022	0.063
-583.850	113.413	0.185	0.229
-582.836	-72.420	-0.162	-0.061
-581.821	-160.370	-0.352	-0.019
-580.806	-157.501	-0.265	-0.016
-579.792	-200.000	0.041	-0.477
-578.777	131.373	-0.235	-0.308
-577.763	163.303	-0.084	0.121
-576.748	-200.000	0.087	-0.514
-575.733	-200.000	0.048	-0.285
-574.719	-170.320	0.206	0.007
-573.704	-17.659	0.224	-0.143
-572.690	286.895	-0.023	-0.043
-571.675	-200.000	0.024	0.141
-570.661	800.000	0.074	-0.272
-569.646	-84.484	-0.160	0.051
-568.631	-23.800	0.126	-0.077
-567.617	549.954	0.145	0.353
-566.602	111.786	-0.083	0.102
-565.588	800.000	-0.030	0.099
-564.573	81.223	0.116	0.128
-563.558	-155.399	0.268	-0.018
-562.544	195.480	-0.041	0.064
-561.529	-47.568	-0.255	0.126
-560.515	-51.804	0.281	-0.133
-559.500	5.778	-0.163	0.122
-558.485	34.907	0.114	0.101
-557.471	-95.151	0.152	-0.042
-556.456	-25.356	-0.096	-0.058
-555.442	-200.000	-0.005	-0.101
-554.427	800.000	-0.033	-0.125
-553.412	306.575	-0.045	0.086
-552.398	-200.000	-0.016	0.302
-551.383	800.000	0.058	0.169
-550.369	-54.856	0.222	0.102
-549.354	-88.992	-0.025	0.008
-548.339	-65.469	0.230	-0.094
-547.325	800.000	-0.050	-0.192
-546.310	-100.116	0.215	0.055
-545.296	800.000	0.046	0.191
-544.281	-139.433	0.105	-0.011
-543.266	177.725	0.200	0.296
-542.252	38.365	-0.203	0.183
-541.237	57.697	0.144	0.143
-540.223	198.322	0.169	-0.263
-539.208	258.955	0.063	-0.110
-538.193	723.609	0.024	-0.066
-537.179	136.421	0.065	0.086
-536.164	250.430	-0.040	0.069
-535.150	232.553	-0.111	-0.186
-534.135	-138.306	-0.360	-0.040
-533.121	-200.000	-0.002	0.085
-532.106	-82.383	-0.117	-0.039
-531.091	-117.385	0.132	0.024
-530.077	800.000	-0.075	0.322
-529.062	328.933	0.067	0.130
-528.048	-20.801	-0.136	-0.085
-527.033	13.632	0.166	0.131
-526.018	109.283	0.172	0.209
-525.004	-186.814	0.167	-0.002
-523.989	-200.000	-0.006	-0.435
-522.975	177.088	-0.088	-0.130
-521.960	-72.710	0.140	-0.052
-520.945	800.000	-0.053	0.235
-519.931	158.876	-0.068	-0.095
-518.916	34.375	0.216	-0.191
-517.902	-87.134	0.301	-0.093
-516.887	-157.330	0.097	-0.006
-515.872	-56.976	-0.290	0.130
-514.858	8.626	-0.076	-0.058
-513.843	82.476	0.066	0.073
-512.829	-200.000	0.031	0.312
-511.814	-200.000	-0.011	-0.076
-510.799	-86.770	-0.166	0.051
-509.785	800.000	0.035	0.149
-508.770	-97.391	-0.237	-0.063
-507.756	-96.079	-0.157	-0.042
-506.741	144.672	-0.075	-0.102
-505.726	135.361	-0.082	0.109
-504.712	48.536	-0.088	-0.084
-503.697	-200.000	-0.025	0.116
-502.683	-20.824	0.086	0.054
-501.668	-200.000	0.062	-0.293
-500.653	-200.000	0.041	-0.323
-499.639	68.501	0.086	0.089
-498.624	-121.893	0.203	0.034
-497.610	14.440	-0.175	0.139
-496.595	361.634	0.036	-0.073
-495.581	800.000	0.032	-0.111
-494.566	-54.741	-0.268	-0.123
-493.551	286.611	0.092	0.168
-492.537	138.342	-0.164	-0.218
-491.522	-200.000	-0.006	-0.065
-490.508	277.164	0.067	0.121
-489.493	800.000	-0.064	-0.280
-488.478	31.831	0.168	0.147
-487.464	45.195	0.154	0.144
-486.449	28.027	0.050	-0.042
-485.435	580.756	-0.068	0.168
-484.420	-84.950	-0.076	-0.024
-483.405	-63.135	0.231	0.097
-482.391	207.499	0.079	0.124
-481.376	400.566	-0.214	-0.456
-480.362	-24.568	0.160	-0.096
-479.347	522.542	-0.096	0.227
-478.332	-74.987	-0.194	-0.070
-477.318	82.540	-0.094	0.103
-476.303	270.681	0.048	0.086
-475.289	800.000	-0.050	-0.215
-474.274	-111.183	-0.114	0.024
-473.259	78.342	-0.076	-0.082
-472.245	427.028	0.077	0.168
-471.230	-147.340	0.306	0.026
-470.216	-200.000	-0.016	0.163
-469.201	-74.691	0.022	0.008
-468.186	-92.514	0.261	-0.074
-467.172	695.609	0.153	-0.408
-466.157	-200.000	-0.068	-0.395
-465.143	-124.654	-0.084	-0.013
-464.128	199.246	0.255	-0.395
-463.113	-200.000	-0.033	-0.293
-462.099	18.716	0.127	-0.103
-461.084	-17.418	0.170	0.109
-460.070	-200.000	-0.017	0.266
-459.055	-60.985	-0.016	-0.007
-458.040	187.397	0.131	-0.198
-457.026	-200.000	-0.065	0.306
-456.011	144.107	0.109	0.147
-454.997	-43.869	-0.354	-0.180
-453.982	446.837	0.093	-0.207
-452.968	-114.122	-0.118	0.023
-451.953	-142.933	0.116	0.011
-450.938	54.202	-0.273	0.266
-449.924	800.000	0.065	-0.218
-448.909	-149.082	-0.320	-0.026
-447.895	-200.000	-0.003	-0.132
-446.880	96.951	-0.189	-0.220
-445.865	-67.831	-0.161	0.064
-444.851	106.406	-0.153	0.184
-443.836	-189.578	-0.228	-0.003
-442.822	39.111	0.154	0.140
-441.807	-124.240	0.185	-0.029
-440.792	-43.676	-0.199	0.101
-439.778	-91.578	0.089	-0.026
-438.763	-24.917	0.124	-0.075
-437.749	12.068	0.127	0.099
-436.734	-174.898	-0.288	-0.008
-435.719	413.861	-0.043	0.092
-434.705	267.069	0.190	0.337
-433.690	110.782	-0.174	0.212
-432.676	-200.000	0.031	-0.160
-431.661	200.817	0.166	0.258
-430.646	-94.994	-0.323	-0.088
-429.632	164.630	0.082	0.117
-428.617	800.000	0.027	0.116
-427.603	-200.000	-0.038	-0.207
-426.588	800.000	0.057	0.221
-425.573	-85.591	-0.137	0.043
-424.559	-1.132	0.131	-0.093
-423.544	-63.924	0.394	0.163
-422.530	5.438	-0.281	0.210
-421.515	800.000	0.086	-0.359
-420.500	-101.968	0.097	-0.024
-419.486	105.761	-0.165	-0.197
-418.471	409.781	-0.107	0.230
-417.457	-14.107	-0.186	-0.121
-416.442	-200.000	0.029	0.167
-415.428	-110.989	0.319	0.066
-414.413	-150.575	-0.193	0.015
-413.398	-71.965	-0.322	0.121
-412.384	800.000	0.043	0.185
-411.369	800.000	0.077	-0.266
-410.355	0.879	-0.082	0.059
-409.340	-55.590	0.459	-0.208
-408.325	-8.528	-0.201	-0.136
-407.311	79.649	0.043	0.047
-406.296	410.059	-0.072	0.154
-405.282	-200.000	-0.021	0.154
-404.267	-19.858	-0.238	-0.148
-403.252	-93.336	0.078	0.022
-402.238	-17.423	0.295	0.188
-401.223	98.366	-0.248	0.288
-400.209	0.032	0.241	-0.174
-399.194	-47.117	0.251	-0.124
-398.179	292.059	-0.088	0.162
-397.165	-147.122	0.201	-0.017
-396.150	271.777	0.115	-0.205
-395.136	95.141	-0.224	0.258
-394.121	-126.949	-0.220	-0.033
-393.106	-200.000	-0.055	0.280
-392.092	-80.548	0.057	0.019
-391.077	-33.540	-0.117	0.065
-390.063	800.000	0.059	0.244
-389.048	-103.725	0.114	0.027
-388.033	-103.308	-0.247	-0.059
-387.019	540.533	-0.030	-0.072
-386.004	-101.979	0.168	0.041
-384.990	-17.670	-0.350	0.222
-383.975	800.000	0.078	-0.278
-382.960	147.494	-0.132	0.180
-381.946	-200.000	-0.037	0.213
-380.931	-200.000	0.050	0.225
-379.917	-32.966	0.277	-0.155
-378.902	-93.300	-0.235	-0.066
-377.888	-200.000	-0.035	0.171
-376.873	-200.000	-0.047	-0.229
-375.858	-200.000	0.026	0.178
-374.844	-93.049	-0.142	0.040
-373.829	71.962	0.112	-0.117
-372.815	425.801	0.063	0.137
-371.800	116.497	-0.230	-0.285
-370.785	-53.078	-0.423	0.196
-369.771	-1.922	-0.205	-0.145
-368.756	-0.161	0.147	0.106
-367.742	10.895	0.058	0.045
-366.727	415.215	0.125	0.268
-365.712	-139.648	0.387	0.042
-364.698	-134.205	-0.228	-0.028
-363.683	-200.000	0.044	0.284
-362.669	-185.432	-0.355	-0.005
-361.654	-131.411	0.074	0.010
-360.639	-200.000	0.030	-0.239
-359.625	53.326	0.186	0.180
-358.610	800.000	-0.148	0.480
-357.596	-200.000	0.015	-0.170
-356.581	319.406	0.131	-0.250
-355.566	-106.317	0.080	-0.018
-354.552	-200.000	-0.072	-0.380
-353.537	800.000	-0.068	-0.298
-352.523	289.036	0.068	-0.124
-351.508	-200.000	0.008	-0.434
-350.493	-97.701	-0.243	-0.064
-349.479	-200.000	-0.081	0.363
-348.464	-24.128	0.176	-0.106
-347.450	57.024	-0.153	0.150
-346.435	123.048	-0.105	0.132
-345.420	-200.000	0.016	-0.157
-344.406	-104.890	-0.357	0.083
-343.391	86.323	-0.241	0.268
-342.377	54.240	0.171	-0.166
-341.362	-96.796	-0.293	0.077
-340.348	734.201	0.044	0.119
-339.333	-194.256	-0.249	0.002
-338.318	-62.236	-0.281	-0.118
-337.304	747.593	0.091	0.248
-336.289	-38.512	-0.141	0.075
-335.275	-200.000	0.002	0.052
-334.260	-200.000	0.010	0.293
-333.245	-2.893	0.171	0.120
-332.231	-106.383	0.255	-0.058
-331.216	-3.974	-0.213	-0.149
-330.202	249.649	-0.128	-0.219
-329.187	-200.000	0.032	0.193
-328.172	308.945	-0.015	-0.029
-327.158	66.612	-0.162	-0.166
-326.143	480.799	-0.066	0.151
-325.129	10.053	-0.089	0.068
-324.114	800.000	-0.032	0.101
-323.099	800.000	-0.057	0.220
-322.085	-82.051	0.227	0.075
-321.070	800.000	0.012	0.053
-320.056	-110.949	0.124	-0.026
-319.041	456.926	-0.026	0.059
-318.026	-26.370	-0.413	0.244
-317.012	-200.000	0.017	0.079
-315.997	84.458	0.231	-0.255
-314.983	292.024	0.077	-0.140
-313.968	800.000	0.059	0.210
-312.953	-156.572	0.200	-0.012
-311.939	-200.000	0.021	0.123
-310.924	800.000	-0.048	-0.163
-309.910	-50.460	-0.183	-0.087
-308.895	101.311	0.188	0.220
-307.880	324.047	0.221	-0.425
-306.866	531.394	0.070	0.166
-305.851	-105.690	0.163	0.037
-304.837	-143.902	0.156	0.015
-303.822	-73.284	0.269	-0.099
-302.807	-9.492	-0.188	0.126
-301.793	800.000	-0.059	0.198
-300.778	-178.639	-0.213	-0.005
-299.764	25.054	0.112	-0.093
-298.749	71.607	-0.078	-0.081
-297.735	-64.688	-0.221	-0.090
-296.720	-105.672	-0.198	0.045
-295.705	85.902	-0.048	0.053
-294.691	322.820	0.175	-0.336
-293.676	224.395	-0.054	0.088
-292.662	264.269	0.126	0.220
-291.647	-98.355	0.026	0.007
-290.632	-108.300	0.110	0.024
-289.618	-96.148	0.068	-0.018
-288.603	-140.313	0.494	-0.052
-287.589	-80.980	0.227	-0.076
-286.574	-200.000	-0.047	0.229
-285.559	119.171	-0.097	0.121
-284.545	-200.000	-0.033	-0.214
-283.530	-16.625	0.183	0.117
-282.516	-126.128	0.179	0.027
-281.501	-151.971	-0.176	0.013
-280.486	118.055	-0.139	-0.172
-279.472	-49.693	-0.145	-0.069
-278.457	-200.000	0.046	0.390
-277.443	-200.000	-0.013	-0.155
-276.428	-31.371	-0.303	-0.172
-275.413	-15.786	-0.161	-0.103
-274.399	-200.000	0.022	-0.103
-273.384	67.672	-0.096	0.098
-272.370	-200.000	0.036	-0.195
-271.355	29.089	0.111	0.095
-270.340	-200.000	0.008	0.365
-269.326	-105.119	0.595	0.137
-268.311	-200.000	0.011	-0.150
-267.297	125.615	-0.133	-0.168
-266.282	79.261	0.252	0.271
-265.267	641.591	0.002	0.005
-264.253	403.896	-0.052	0.111
-263.238	22.909	0.183	-0.151
-262.224	37.423	-0.234	-0.208
-261.209	-200.000	-0.021	0.150
-260.195	-53.267	-0.085	0.039
-259.180	-200.000	-0.006	-0.235
-258.165	-138.588	0.300	0.033
-257.151	-40.109	-0.153	-0.080
-256.136	-200.000	0.000	-0.124
-255.122	14.310	-0.412	-0.323
-254.107	105.396	-0.376	-0.447
-253.092	88.937	0.118	0.131
-252.078	-0.091	0.315	0.225
-251.063	-44.340	0.130	-0.065
-250.049	1.092	0.026	-0.019
-249.034	-13.712	0.132	0.086
-248.019	573.718	-0.132	-0.324
-247.005	-141.010	-0.164	0.017
-245.990	-160.743	-0.406	0.022
-244.976	663.507	-0.071	0.183
-243.961	-79.396	-0.245	0.083
-242.946	-108.159	-0.079	-0.017
-241.932	158.011	0.197	-0.275
-240.917	800.000	0.048	-0.171
-239.903	62.483	-0.143	-0.144
-238.888	-149.787	-0.284	-0.022
-237.873	179.827	0.174	0.255
-236.859	-164.961	-0.149	0.007
-235.844	352.608	0.105	-0.208
-234.830	-81.120	0.121	-0.040
-233.815	-27.647	0.291	0.170
-232.800	233.869	-0.108	0.179
-231.786	-144.799	0.191	0.018
-230.771	629.195	0.109	0.276
-229.757	-200.000	0.035	0.497
-228.742	-200.000	0.017	-0.086
-227.727	185.847	-0.103	-0.154
-226.713	-200.000	-0.028	-0.186
-225.698	-98.814	0.059	-0.015
-224.684	130.338	0.096	0.124
-223.669	30.802	0.061	0.052
-222.655	-145.351	-0.085	0.008
-221.640	800.000	0.137	-0.416
-220.625	-6.535	0.024	-0.016
-219.611	43.852	0.105	0.097
-218.596	800.000	-0.041	-0.139
-217.582	387.297	0.014	-0.030
-216.567	298.610	0.062	-0.115
-215.552	61.751	-0.197	0.196
-214.538	-140.398	-0.105	0.011
-213.523	-134.393	0.206	0.025
-212.509	-43.200	-0.109	0.055
-211.494	9.078	0.173	-0.131
-210.479	-28.094	-0.271	0.157
-209.465	-200.000	-0.019	-0.107
-208.450	-99.122	0.220	-0.056
-207.436	610.716	-0.079	-0.198
-206.421	-190.046	-0.040	-0.000
-205.406	-200.000	0.025	0.266
-204.392	158.467	0.215	0.299
-203.377	-87.665	-0.155	0.047
-202.363	766.375	-0.096	-0.261
-201.348	-103.841	-0.380	-0.089
-200.333	-75.498	-0.290	-0.103
-199.319	67.591	0.045	0.046
-198.304	-118.991	0.188	0.033
-197.290	-29.856	-0.285	-0.163
-196.275	-200.000	-0.049	0.287
-195.260	326.917	0.124	0.238
-194.246	-143.360	0.156	0.015
-193.231	-200.000	-0.003	0.185
-192.217	-175.431	-0.200	0.005
-191.202	116.916	0.125	-0.153
-190.187	268.134	-0.084	0.148
-189.173	-152.392	-0.575	0.041
-188.158	46.305	0.074	-0.068
-187.144	13.786	0.103	-0.081
-186.129	2.826	-0.187	0.136
-185.114	-130.468	-0.524	0.071
-184.100	-53.573	0.211	-0.097
-183.085	-30.830	-0.130	0.073
-182.071	135.780	0.131	-0.171
-181.056	79.960	-0.243	0.261
-180.042	187.373	0.180	0.270
-179.027	82.621	0.099	-0.108
-178.012	116.243	-0.153	-0.188
-176.998	179.750	-0.132	-0.194
-175.983	146.786	-0.266	0.358
-174.969	-72.643	0.275	0.102
-173.954	-29.715	0.312	-0.178
-172.939	319.792	0.116	0.221
-171.925	107.230	-0.239	-0.284
-170.910	-74.305	0.211	-0.076
-169.896	574.991	-0.077	0.189
-168.881	800.000	-0.081	0.326
-167.866	-83.288	-0.098	-0.031
-166.852	59.077	0.251	-0.247
-165.837	-168.535	-0.182	0.007
-164.823	-200.000	0.023	0.147
-163.808	456.065	-0.173	0.384
-162.793	-135.112	0.264	-0.032
-161.779	-172.403	0.047	0.001
-160.764	212.288	-0.111	0.175
-159.750	-52.719	-0.208	-0.096
-158.735	800.000	0.038	-0.112
-157.720	-126.604	0.297	-0.044
-156.706	-124.447	0.288	0.045
-155.691	-95.631	0.163	-0.044
-154.677	-200.000	0.018	-0.439
-153.662	765.239	0.015	-0.042
-152.647	-22.770	0.149	0.090
-151.633	-200.000	0.013	0.175
-150.618	-65.399	0.152	0.061
-149.604	800.000	-0.106	0.439
-148.589	291.952	0.122	0.222
-147.574	-200.000	0.001	-0.099
-146.560	800.000	-0.041	-0.118
-145.545	-187.737	0.553	0.007
-144.531	-200.000	-0.059	-0.444
-143.516	213.373	-0.057	-0.089
-142.502	800.000	0.084	-0.248
-141.487	800.000	0.082	0.230
-140.472	209.228	0.100	-0.157
-139.458	-40.966	0.207	-0.107
-138.443	-82.062	0.554	-0.181
-137.429	-73.765	-0.115	-0.042
-136.414	-200.000	0.031	-0.264
-135.399	506.044	0.184	-0.426
-134.385	390.140	0.055	-0.114
-133.370	-137.170	-0.234	-0.027
-132.356	-200.000	-0.029	0.237
-131.341	-200.000	-0.090	0.486
-130.326	-40.331	0.373	0.194
-129.312	91.587	0.136	0.153
-128.297	88.109	0.289	-0.321
-127.283	800.000	-0.063	-0.214
-126.268	-161.265	-0.095	-0.005
-125.253	-35.318	0.157	0.086
-124.239	655.870	-0.172	0.442
-123.224	77.299	0.051	0.054
-122.210	-102.595	0.260	-0.062
