DTS Sentinel unit serial number:	SN413079Multiplexer serial number:	ORYXHardware model number:	OX4-SRSoftware version number:	ORYX F/W v4.00 Oryx Data Collector v3.7.2.0data status	okinstallation	princeton_trtdifferential loss correction	single-endedforward channel	channel 3reverse channel	N/Adate	2019/09/19time	02:04:35forward acquisition time	60.00reverse acquisition time	0.00gamma	496.2192k internal	0.2348k external	0.2348temperature offset calibration	0.9987default loss term (dB/km)	0.3790temperature slope calibration	1.0000multiplexer offset coefficient	1.0000multiplexer slope coefficient	1.0000fibre end	0.00T internal ref (°C)	21.25T ext. ref 1 (°C)	0.67T ext. ref 2 (°C)	14.90length (m)	temperature (°C)	Stokes	anti-Stokes-747.200	-200.000	0.033	0.328
-746.185	-4.395	-0.465	0.321
-745.171	-200.000	0.045	0.214
-744.156	-200.000	0.118	0.000
-743.142	70.351	-0.143	-0.148
-742.127	786.833	0.061	0.167
-741.112	-85.363	0.235	-0.073
-740.098	79.813	-0.114	-0.123
-739.083	93.767	0.102	-0.115
-738.069	97.703	0.234	-0.269
-737.054	-80.487	0.417	0.139
-736.039	56.977	-0.194	-0.189
-735.025	118.365	-0.157	0.194
-734.010	-80.569	-0.569	-0.189
-732.996	5.498	-0.300	-0.221
-731.981	-171.546	0.348	0.012
-730.966	-47.775	-0.207	0.100
-729.952	-200.000	-0.014	0.091
-728.937	48.941	-0.118	-0.111
-727.923	-66.181	-0.273	-0.109
-726.908	-200.000	0.048	0.217
-725.894	-200.000	-0.040	-0.234
-724.879	412.698	-0.104	-0.222
-723.864	266.825	0.177	-0.309
-722.850	800.000	0.073	-0.247
-721.835	35.707	-0.267	-0.234
-720.821	-200.000	-0.009	0.056
-719.806	-151.937	0.052	-0.004
-718.791	69.432	0.213	-0.219
-717.777	-42.570	-0.399	-0.203
-716.762	-20.445	0.099	0.061
-715.748	456.947	0.049	-0.108
-714.733	0.423	-0.286	0.204
-713.718	-200.000	-0.051	-0.317
-712.704	74.752	0.273	-0.287
-711.689	-21.142	-0.277	0.169
-710.675	118.206	-0.051	-0.063
-709.660	297.844	0.153	0.280
-708.645	-200.000	0.042	-0.224
-707.631	76.659	-0.210	-0.222
-706.616	-185.375	0.081	0.001
-705.602	68.409	0.132	-0.135
-704.587	-83.042	-0.142	0.046
-703.572	-200.000	-0.029	-0.196
-702.558	266.555	0.057	-0.100
-701.543	800.000	0.060	0.171
-700.529	43.478	0.289	-0.263
-699.514	270.583	-0.172	-0.301
-698.499	-200.000	-0.005	0.027
-697.485	-20.711	-0.153	-0.094
-696.470	88.640	0.078	-0.087
-695.456	800.000	0.054	0.158
-694.441	604.958	-0.015	-0.038
-693.426	43.380	0.295	-0.269
-692.412	-22.713	-0.111	-0.067
-691.397	-101.176	0.192	-0.047
-690.383	26.984	0.222	-0.185
-689.368	-30.836	-0.101	0.057
-688.354	-112.187	-0.114	-0.023
-687.339	-126.739	0.198	-0.029
-686.324	108.764	0.091	-0.109
-685.310	265.985	-0.188	-0.328
-684.295	-96.326	0.310	-0.082
-683.281	-8.260	-0.333	-0.223
-682.266	800.000	-0.041	0.132
-681.251	-31.251	-0.162	-0.091
-680.237	418.244	0.132	-0.281
-679.222	794.541	-0.041	-0.113
-678.208	628.824	-0.060	0.150
-677.193	10.097	-0.046	-0.035
-676.178	-43.615	-0.226	-0.114
-675.164	98.200	-0.094	0.108
-674.149	70.763	0.137	0.142
-673.135	-117.352	-0.024	0.004
-672.120	28.147	0.276	-0.232
-671.105	-100.711	-0.407	0.100
-670.091	61.416	-0.158	0.156
-669.076	-200.000	0.013	0.127
-668.062	255.364	-0.076	0.129
-667.047	213.163	-0.103	-0.161
-666.032	800.000	0.101	-0.390
-665.018	127.859	0.314	0.398
-664.003	-127.181	0.157	0.023
-662.989	-60.233	-0.092	-0.039
-661.974	63.184	0.005	0.005
-660.959	-200.000	-0.013	0.294
-659.945	42.389	-0.130	-0.118
-658.930	-61.958	-0.018	0.007
-657.916	-65.478	0.055	0.022
-656.901	54.812	-0.211	-0.203
-655.886	800.000	0.073	-0.260
-654.872	-200.000	0.016	-0.268
-653.857	40.142	-0.148	-0.133
-652.843	800.000	0.042	-0.146
-651.828	23.823	-0.305	-0.250
-650.814	403.739	-0.068	0.143
-649.799	-200.000	-0.003	-0.046
-648.784	264.222	-0.044	0.076
-647.770	307.983	0.046	0.086
-646.755	410.127	0.131	-0.276
-645.741	15.850	0.257	0.201
-644.726	800.000	-0.112	0.489
-643.711	249.674	0.094	0.159
-642.697	800.000	-0.038	0.152
-641.682	800.000	-0.149	-0.420
-640.668	239.329	0.057	-0.094
-639.653	-86.979	0.304	0.092
-638.638	696.632	-0.079	-0.206
-637.624	-11.813	-0.171	0.112
-636.609	141.233	0.081	-0.107
-635.595	-167.002	-0.503	-0.020
-634.580	-200.000	0.002	0.092
-633.565	20.969	0.137	0.111
-632.551	-200.000	-0.044	-0.330
-631.536	800.000	-0.044	-0.150
-630.522	800.000	0.104	-0.402
-629.507	209.040	-0.078	0.122
-628.492	372.961	-0.123	-0.248
-627.478	-154.173	-0.227	-0.015
-626.463	238.724	-0.107	0.176
-625.449	209.210	-0.242	0.377
-624.434	6.373	0.091	0.067
-623.419	-103.364	-0.150	0.035
-622.405	800.000	0.054	-0.161
-621.390	-59.025	0.376	-0.161
-620.376	64.283	0.273	-0.273
-619.361	-200.000	0.010	-0.065
-618.346	76.213	0.268	-0.283
-617.332	-109.490	-0.123	-0.026
-616.317	-77.887	0.076	0.026
-615.303	-56.876	0.222	-0.098
-614.288	1.499	-0.221	0.158
-613.273	325.400	0.046	0.087
-612.259	-89.813	-0.135	-0.039
-611.244	-200.000	0.059	-0.267
-610.230	738.153	-0.118	-0.314
-609.215	-21.371	-0.209	0.127
-608.201	-9.492	0.038	-0.025
-607.186	-35.423	0.183	0.099
-606.171	378.632	0.050	-0.101
-605.157	247.015	0.076	-0.127
-604.142	-2.926	0.124	-0.086
-603.128	150.375	0.167	-0.225
-602.113	103.319	-0.066	0.077
-601.098	-127.691	0.197	0.028
-600.084	800.000	0.132	-0.470
-599.069	46.287	0.195	0.179
-598.055	-193.821	-0.133	0.001
-597.040	-160.517	-0.197	-0.010
-596.025	-59.417	0.348	-0.149
-595.011	123.711	-0.246	-0.307
-593.996	800.000	-0.135	0.413
-592.982	-200.000	-0.060	0.287
-591.967	800.000	0.026	-0.087
-590.952	238.591	0.172	0.284
-589.938	-80.110	-0.457	0.152
-588.923	-39.333	-0.260	-0.136
-587.909	-7.777	-0.225	0.151
-586.894	800.000	-0.059	0.175
-585.879	449.552	0.144	0.316
-584.865	-115.578	0.293	0.055
-583.850	788.019	-0.085	0.230
-582.836	800.000	0.009	-0.027
-581.821	382.217	0.086	-0.176
-580.806	-120.168	-0.265	0.045
-579.792	21.462	-0.148	-0.119
-578.777	-72.743	0.353	-0.129
-577.763	-200.000	-0.010	0.069
-576.748	-52.995	0.135	-0.062
-575.733	476.871	0.049	-0.110
-574.719	-200.000	0.026	-0.234
-573.704	-192.831	0.239	-0.002
-572.690	74.782	0.088	-0.091
-571.675	363.118	-0.114	0.226
-570.661	-40.279	-0.134	0.069
-569.646	263.106	0.255	0.440
-568.631	239.888	-0.175	-0.289
-567.617	-200.000	-0.014	-0.104
-566.602	37.536	0.309	0.272
-565.588	-54.971	0.327	0.146
-564.573	-57.454	0.475	0.207
-563.558	800.000	0.047	0.152
-562.544	83.724	0.080	0.086
-561.529	611.645	0.054	-0.135
-560.515	115.780	0.125	0.152
-559.500	-84.133	-0.127	-0.040
-558.485	126.221	-0.201	-0.253
-557.471	-137.956	-0.285	-0.032
-556.456	129.088	-0.107	0.136
-555.442	160.470	-0.253	0.349
-554.427	-48.268	-0.129	0.062
-553.412	-17.251	0.231	0.144
-552.398	88.952	-0.254	0.280
-551.383	29.434	0.033	0.028
-550.369	-93.984	-0.319	-0.087
-549.354	6.112	0.179	-0.131
-548.339	-8.545	-0.337	0.224
-547.325	215.044	0.102	-0.161
-546.310	-56.229	0.234	-0.103
-545.296	-172.773	-0.151	0.005
-544.281	-111.917	-0.262	-0.052
-543.266	-72.996	-0.084	-0.031
-542.252	138.819	0.034	0.045
-541.237	44.790	0.369	-0.337
-540.223	-200.000	-0.027	-0.331
-539.208	-200.000	-0.040	0.366
-538.193	-200.000	0.028	0.176
-537.179	-38.660	-0.243	-0.127
-536.164	-80.438	-0.176	0.058
-535.150	8.822	-0.063	-0.047
-534.135	25.657	-0.261	0.215
-533.121	-52.518	0.181	-0.083
-532.106	-39.393	-0.110	0.057
-531.091	154.486	-0.070	-0.095
-530.077	226.138	-0.063	0.102
-529.062	658.698	0.053	0.135
-528.048	-132.395	0.259	-0.033
-527.033	-77.094	-0.103	-0.036
-526.018	-57.725	-0.066	-0.029
-525.004	-200.000	-0.009	-0.135
-523.989	-200.000	0.029	0.275
-522.975	-99.707	-0.071	0.018
-521.960	52.616	0.054	-0.051
-520.945	127.440	-0.063	-0.079
-519.931	-155.227	-0.275	-0.018
-518.916	-200.000	-0.032	-0.146
-517.902	368.556	-0.100	-0.200
-516.887	-200.000	0.031	0.191
-515.872	-81.322	-0.054	0.018
-514.858	800.000	0.142	-0.493
-513.843	704.158	-0.029	0.075
-512.829	685.566	-0.117	-0.303
-511.814	800.000	-0.016	0.050
-510.799	-200.000	-0.007	-0.092
-509.785	-99.523	-0.370	-0.092
-508.770	318.420	0.089	-0.166
-507.756	-200.000	0.039	-0.378
-506.741	-70.370	0.114	0.043
-505.726	-25.156	0.153	0.090
-504.712	-200.000	-0.023	0.153
-503.697	-129.549	0.160	0.022
-502.683	-200.000	0.016	-0.096
-501.668	800.000	0.105	0.433
-500.653	-25.136	-0.231	-0.136
-499.639	570.980	-0.237	-0.570
-498.624	294.914	0.151	-0.274
-497.610	-200.000	-0.020	-0.299
-496.595	800.000	-0.039	-0.149
-495.581	800.000	0.042	0.141
-494.566	-17.386	-0.346	0.215
-493.551	-33.858	-0.192	0.105
-492.537	-119.674	-0.191	0.033
-491.522	573.216	-0.112	0.269
-490.508	-55.054	0.167	0.074
-489.493	231.215	-0.060	-0.097
-488.478	702.032	-0.107	-0.280
-487.464	-77.238	-0.143	0.049
-486.449	-200.000	-0.349	0.000
-485.435	287.335	-0.073	0.131
-484.420	56.311	0.084	0.081
-483.405	-80.331	0.421	-0.139
-482.391	279.712	0.073	-0.130
-481.376	222.777	-0.122	-0.194
-480.362	-66.879	-0.194	-0.076
-479.347	49.306	-0.283	-0.263
-478.332	23.408	-0.230	0.187
-477.318	-200.000	0.035	-0.406
-476.303	-200.000	0.007	0.043
-475.289	382.221	0.035	0.072
-474.274	-91.742	0.522	0.147
-473.259	-79.997	-0.209	0.069
-472.245	-54.242	0.171	0.077
-471.230	-77.003	0.032	-0.011
-470.216	225.864	0.089	-0.142
-469.201	800.000	0.036	0.145
-468.186	174.042	-0.101	0.145
-467.172	-199.343	0.132	-0.001
-466.157	-200.000	0.010	0.110
-465.143	-200.000	0.037	-0.315
-464.128	-200.000	0.006	-0.070
-463.113	-200.000	0.046	0.360
-462.099	-200.000	0.045	-0.219
-461.084	91.306	-0.165	0.183
-460.070	-42.736	-0.235	0.118
-459.055	98.633	0.156	-0.177
-458.040	800.000	-0.079	-0.232
-457.026	-200.000	0.022	0.146
-456.011	-50.927	0.090	-0.042
-454.997	-118.276	0.174	0.031
-453.982	-98.105	-0.460	0.117
-452.968	800.000	0.088	0.371
-451.953	124.148	0.081	-0.100
-450.938	222.536	0.170	-0.271
-449.924	800.000	0.044	-0.136
-448.909	24.187	0.177	0.144
-447.895	-68.817	0.054	-0.021
-446.880	-200.000	-0.064	0.387
-445.865	-24.857	-0.206	-0.121
-444.851	3.952	0.276	0.199
-443.836	-200.000	-0.005	0.256
-442.822	-80.479	0.334	0.110
-441.807	800.000	0.112	0.413
-440.792	-44.070	-0.191	0.095
-439.778	-200.000	-0.014	-0.142
-438.763	-68.380	-0.353	-0.135
-437.749	52.289	-0.111	0.105
-436.734	800.000	-0.094	-0.337
-435.719	-94.055	0.375	-0.102
-434.705	298.466	-0.137	-0.249
-433.690	395.140	-0.053	-0.110
-432.676	91.785	0.102	0.114
-431.661	-200.000	-0.026	0.175
-430.646	98.550	0.165	-0.188
-429.632	-200.000	-0.045	0.271
-428.617	214.050	-0.163	0.255
-427.603	512.648	-0.010	0.023
-426.588	-200.000	0.005	-0.203
-425.573	91.919	0.115	0.128
-424.559	606.120	-0.044	-0.108
-423.544	-116.951	0.397	0.072
-422.530	800.000	-0.045	-0.158
-421.515	-200.000	0.025	-0.142
-420.500	-63.743	0.184	0.074
-419.486	663.385	0.085	-0.216
-418.471	800.000	-0.110	-0.447
-417.457	87.134	-0.152	-0.166
-416.442	355.991	-0.031	-0.060
-415.428	427.775	0.113	-0.241
-414.413	800.000	0.066	0.248
-413.398	800.000	-0.182	0.608
-412.384	52.345	-0.205	-0.193
-411.369	800.000	-0.054	-0.193
-410.355	-60.325	0.162	-0.068
-409.340	-23.208	-0.055	0.033
-408.325	-25.404	-0.227	-0.132
-407.311	-104.070	0.288	-0.066
-406.296	-85.362	0.269	-0.083
-405.282	674.101	-0.031	0.080
-404.267	740.781	0.059	0.155
-403.252	-61.742	0.039	-0.016
-402.238	286.539	0.095	-0.168
-401.223	-4.382	0.136	-0.093
-400.209	101.293	-0.066	0.076
-399.194	-38.328	0.171	0.089
-398.179	-109.982	-0.097	-0.020
-397.165	-57.226	0.064	-0.028
-396.150	800.000	0.036	0.144
-395.136	127.223	-0.192	-0.240
-394.121	-134.371	-0.075	0.009
-393.106	-200.000	-0.024	-0.172
-392.092	-200.000	-0.027	0.218
-391.077	-16.346	-0.035	-0.022
-390.063	8.738	0.240	0.179
-389.048	377.000	-0.095	0.191
-388.033	-200.000	-0.052	-0.307
-387.019	95.754	0.176	-0.198
-386.004	-130.428	0.280	-0.037
-384.990	-116.714	0.013	0.002
-383.975	-102.903	-0.321	0.075
-382.960	-200.000	0.001	0.082
-381.946	65.855	0.273	-0.273
-380.931	50.960	0.264	0.246
-379.917	-117.354	0.255	-0.046
-378.902	-91.376	0.174	0.049
-377.888	295.394	0.208	0.375
-376.873	138.487	0.086	0.111
-375.858	-63.118	0.164	0.067
-374.844	-64.523	0.239	-0.096
-373.829	-170.698	0.032	0.001
-372.815	140.188	0.087	0.114
-371.800	361.606	-0.054	-0.107
-370.785	-72.753	-0.264	0.096
-369.771	-46.538	0.309	-0.149
-368.756	-12.746	0.106	0.068
-367.742	-1.868	-0.253	0.175
-366.727	800.000	-0.025	0.092
-365.712	-103.463	0.210	0.049
-364.698	-200.000	0.036	-0.245
-363.683	70.136	-0.072	0.073
-362.669	800.000	-0.212	0.627
-361.654	37.898	0.072	0.063
-360.639	-33.470	0.428	-0.233
-359.625	100.035	-0.190	0.216
-358.610	-79.041	0.077	-0.026
-357.596	194.980	0.161	0.240
-356.581	249.671	-0.088	-0.148
-355.566	800.000	-0.087	-0.325
-354.552	-44.176	0.148	-0.073
-353.537	-121.486	0.234	-0.038
-352.523	17.119	-0.024	0.018
-351.508	82.655	-0.300	0.321
-350.493	464.658	-0.099	0.217
-349.479	-113.881	-0.147	0.028
-348.464	-58.240	-0.166	0.071
-347.450	45.536	0.326	0.296
-346.435	-68.996	-0.005	0.002
-345.420	154.546	0.195	-0.263
-344.406	-200.000	0.024	-0.192
-343.391	128.304	0.161	0.201
-342.377	364.188	-0.055	0.109
-341.362	347.705	0.134	-0.259
-340.348	402.424	0.023	-0.047
-339.333	483.432	-0.166	0.372
-338.318	-200.000	0.027	0.391
-337.304	141.036	0.149	-0.193
-336.289	-200.000	-0.011	-0.246
-335.275	125.732	0.130	-0.162
-334.260	144.722	-0.159	0.208
-333.245	-72.898	-0.321	-0.116
-332.231	-94.772	-0.215	0.057
-331.216	-48.956	0.179	-0.084
-330.202	29.670	-0.087	-0.073
-329.187	-64.402	0.121	0.048
-328.172	4.595	-0.351	0.253
-327.158	-73.089	-0.329	0.119
-326.143	-200.000	-0.001	0.038
-325.129	-200.000	0.041	-0.301
-324.114	72.136	0.160	0.163
-323.099	800.000	0.085	0.244
-322.085	71.294	0.258	-0.264
-321.070	-35.350	0.214	-0.114
-320.056	-135.978	0.110	-0.013
-319.041	36.024	0.245	0.212
-318.026	-53.494	-0.255	-0.115
-317.012	101.243	-0.048	0.055
-315.997	229.600	-0.090	-0.145
-314.983	800.000	0.086	-0.320
-313.968	-200.000	-0.052	-0.326
-312.953	-1.854	-0.016	-0.011
-311.939	81.457	-0.101	-0.107
-310.924	523.506	-0.098	-0.225
-309.910	-76.079	0.199	-0.069
-308.895	-200.000	0.003	-0.141
-307.880	-200.000	-0.057	-0.489
-306.866	67.808	0.159	-0.160
-305.851	765.031	-0.117	0.313
-304.837	5.422	-0.161	-0.117
-303.822	-72.313	-0.296	-0.108
-302.807	-85.591	-0.222	-0.068
-301.793	-5.864	-0.283	-0.190
-300.778	800.000	0.086	-0.291
-299.764	-104.943	-0.186	0.042
-298.749	800.000	-0.053	0.168
-297.735	26.417	0.259	0.212
-296.720	-200.000	-0.020	0.217
-295.705	-148.963	0.260	-0.021
-294.691	-200.000	-0.012	-0.169
-293.676	-200.000	0.002	-0.203
-292.662	800.000	-0.157	-0.445
-291.647	-91.505	-0.115	0.032
-290.632	800.000	-0.048	-0.156
-289.618	92.761	-0.046	-0.051
-288.603	94.169	-0.182	-0.202
-287.589	800.000	-0.078	0.295
-286.574	145.462	-0.147	-0.193
-285.559	37.706	0.275	0.239
-284.545	-43.625	0.132	-0.065
-283.530	-118.296	-0.332	0.058
-282.516	800.000	0.071	-0.245
-281.501	-200.000	-0.047	0.297
-280.486	-36.145	-0.243	0.129
-279.472	800.000	-0.131	-0.397
-278.457	-75.904	0.275	0.096
-277.443	29.970	0.222	-0.186
-276.428	394.352	0.084	-0.173
-275.413	-150.925	-0.159	0.012
-274.399	114.962	-0.136	0.163
-273.384	233.510	-0.226	-0.364
-272.370	-32.030	-0.241	0.132
-271.355	800.000	-0.069	0.270
-270.340	800.000	0.088	0.285
-269.326	800.000	-0.090	0.289
-268.311	363.246	-0.141	-0.278
-267.297	-67.954	-0.138	-0.053
-266.282	-200.000	0.026	-0.184
-265.267	215.376	-0.115	-0.178
-264.253	24.479	0.176	-0.143
-263.238	17.291	-0.278	-0.216
-262.224	-200.000	0.062	-0.303
-261.209	668.133	-0.049	0.124
-260.195	-200.000	0.012	0.226
-259.180	502.821	0.063	0.143
-258.165	-115.159	-0.326	0.061
-257.151	-200.000	-0.059	0.297
-256.136	506.446	-0.104	0.236
-255.122	-59.012	0.425	0.180
-254.107	-200.000	-0.021	-0.371
-253.092	-102.438	-0.277	-0.065
-252.078	-200.000	0.000	-0.003
-251.063	-138.543	-0.244	0.026
-250.049	-121.494	0.203	0.033
-249.034	-60.349	0.212	-0.089
-248.019	211.054	-0.130	0.200
-247.005	-200.000	-0.031	0.174
-245.990	-200.000	0.055	-0.327
-244.976	235.535	0.135	0.218
-243.961	-123.857	0.175	-0.027
-242.946	-51.915	0.247	0.112
-241.932	-23.408	-0.374	0.220
-240.917	516.000	0.096	0.220
-239.903	113.663	0.197	-0.235
-238.888	128.782	-0.289	-0.360
-237.873	-90.946	0.241	0.068
-236.859	-188.111	-0.030	-0.000
-235.844	-200.000	-0.050	0.328
-234.830	-151.563	-0.130	-0.009
-233.815	34.803	0.166	0.142
-232.800	-200.000	-0.030	0.395
-231.786	673.850	0.069	0.175
-230.771	171.837	0.165	0.233
-229.757	-120.035	-0.279	0.047
-228.742	-200.000	0.018	0.159
-227.727	423.392	-0.059	-0.125
-226.713	-94.169	0.271	0.073
-225.698	-70.101	0.205	0.076
-224.684	126.461	0.299	-0.370
-223.669	15.347	0.046	-0.035
-222.655	-106.207	-0.165	-0.036
-221.640	-89.603	0.208	-0.060
-220.625	800.000	0.049	0.204
-219.611	82.392	-0.165	0.175
-218.596	-200.000	0.028	0.139
-217.582	108.053	-0.240	0.280
-216.567	-22.230	0.025	0.015
-215.552	-84.052	0.248	-0.077
-214.538	-70.278	-0.131	0.049
-213.523	174.532	0.118	-0.167
-212.509	-200.000	0.038	0.182
-211.494	800.000	0.086	0.280
-210.479	183.430	-0.248	-0.359
-209.465	-98.083	-0.040	-0.010
-208.450	-39.944	0.165	-0.084
-207.436	-59.573	-0.223	0.094
-206.421	95.753	0.121	-0.135
-205.406	-200.000	0.013	-0.146
-204.392	387.135	-0.180	0.364
-203.377	-200.000	-0.012	0.309
-202.363	36.943	0.031	0.027
-201.348	-200.000	0.035	0.291
-200.333	2.384	-0.077	0.055
-199.319	43.251	0.150	0.134
-198.304	-200.000	-0.023	0.215
-197.290	-87.822	0.371	-0.109
-196.275	800.000	0.107	-0.310
-195.260	255.607	-0.012	0.020
-194.246	-114.655	-0.127	-0.024
-193.231	-133.537	0.110	0.013
-192.217	-129.160	0.047	0.006
-191.202	15.580	-0.152	-0.117
-190.187	800.000	0.087	0.341
-189.173	-200.000	0.016	-0.106
-188.158	-200.000	-0.035	-0.188
-187.144	-32.738	0.171	0.093
-186.129	680.353	0.042	0.108
-185.114	60.190	-0.222	0.215
-184.100	187.470	0.203	0.295
-183.085	-28.801	-0.031	-0.017
-182.071	-167.081	-0.174	0.007
-181.056	73.980	-0.081	0.083
-180.042	-32.657	0.168	0.091
-179.027	-200.000	0.035	0.250
-178.012	362.088	0.074	-0.145
-176.998	-25.465	-0.058	0.033
-175.983	-74.895	0.087	0.030
-174.969	-200.000	0.045	-0.193
-173.954	-24.130	-0.198	0.115
-172.939	-4.323	0.412	0.278
-171.925	112.124	0.229	0.271
-170.910	-41.246	-0.296	-0.149
-169.896	800.000	0.041	-0.176
-168.881	-120.797	-0.202	0.033
-167.866	-200.000	-0.021	-0.372
-166.852	-175.433	-0.109	-0.003
-165.837	342.632	0.116	-0.221
-164.823	-25.262	-0.170	-0.098
-163.808	510.712	-0.085	0.192
-162.793	-200.000	0.021	-0.155
-161.779	-200.000	0.033	0.166
-160.764	86.403	-0.021	0.023
-159.750	-200.000	-0.011	0.122
-158.735	-107.214	-0.441	0.095
-157.720	-61.615	-0.147	0.060
-156.706	137.953	0.179	-0.229
-155.691	-81.966	0.151	0.048
-154.677	800.000	0.036	0.106
-153.662	177.078	0.143	-0.204
-152.647	-112.668	-0.140	-0.027
-151.633	187.808	0.100	-0.145
-150.618	25.197	0.147	0.119
-149.604	72.710	0.239	0.243
-148.589	-125.996	0.360	-0.053
-147.574	327.984	0.155	0.291
-146.560	-66.596	-0.485	0.188
-145.545	-82.887	0.436	-0.137
-144.531	-200.000	0.012	0.195
-143.516	25.105	-0.148	0.119
-142.502	32.956	0.328	0.277
-141.487	-200.000	0.023	0.160
-140.472	-138.847	0.031	0.003
-139.458	-12.559	0.322	-0.205
-138.443	-88.751	-0.461	0.134
-137.429	-57.761	-0.160	0.068
-136.414	364.694	-0.052	0.102
-135.399	-200.000	-0.030	-0.133
-134.385	130.073	-0.102	-0.128
-133.370	195.152	0.079	-0.117
-132.356	17.959	0.112	-0.087
-131.341	-18.023	-0.235	-0.144
-130.326	155.401	0.148	-0.199
-129.312	-80.631	-0.169	0.055
-128.297	-41.694	0.315	0.158
-127.283	31.787	0.197	0.166
-126.268	133.920	-0.169	0.213
-125.253	-200.000	-0.017	-0.248
-124.239	485.807	0.078	-0.174
-123.224	-40.126	0.199	0.101
-122.210	-200.000	0.008	0.056
-121.195	-144.081	-0.089	0.008
-120.180	800.000	-0.043	0.127
