DTS Sentinel unit serial number:	SN413079Multiplexer serial number:	ORYXHardware model number:	OX4-SRSoftware version number:	ORYX F/W v4.00 Oryx Data Collector v3.7.2.0data status	okinstallation	princeton_trtdifferential loss correction	single-endedforward channel	channel 3reverse channel	N/Adate	2019/09/16time	05:44:34forward acquisition time	60.00reverse acquisition time	0.00gamma	496.2192k internal	0.2335k external	0.2335temperature offset calibration	0.9952default loss term (dB/km)	0.3790temperature slope calibration	1.0000multiplexer offset coefficient	1.0000multiplexer slope coefficient	1.0000fibre end	0.00T internal ref (°C)	27.37T ext. ref 1 (°C)	11.19T ext. ref 2 (°C)	22.26length (m)	temperature (°C)	Stokes	anti-Stokes-747.200	-131.250	-0.354	0.047
-746.185	182.983	0.209	0.310
-745.171	-200.000	0.004	0.170
-744.156	800.000	-0.045	-0.126
-743.142	763.398	-0.161	0.439
-742.127	-200.000	0.010	0.071
-741.112	800.000	0.047	0.147
-740.098	-40.275	-0.148	0.077
-739.083	765.025	-0.119	0.324
-738.069	-106.108	0.044	0.010
-737.054	-122.142	-0.267	-0.044
-736.039	-149.809	-0.575	-0.045
-735.025	503.408	0.167	0.388
-734.010	-153.249	-0.175	0.012
-732.996	-82.969	-0.318	0.103
-731.981	-200.000	0.022	0.156
-730.966	-46.600	-0.307	0.151
-729.952	-41.764	-0.092	-0.047
-728.937	-46.662	-0.102	0.050
-727.923	175.742	0.114	0.166
-726.908	304.457	0.119	0.221
-725.894	-159.800	-0.359	0.020
-724.879	379.540	-0.056	-0.115
-723.864	309.330	-0.004	-0.008
-722.850	-129.252	-0.230	0.032
-721.835	175.178	-0.048	0.070
-720.821	800.000	-0.037	0.119
-719.806	123.612	0.135	-0.170
-718.791	-88.501	-0.232	-0.069
-717.777	589.814	0.057	-0.140
-716.762	-150.724	0.048	0.004
-715.748	-128.868	0.230	0.032
-714.733	-16.284	0.315	-0.201
-713.718	-159.910	-0.118	0.006
-712.704	220.672	0.172	-0.276
-711.689	109.665	0.259	-0.312
-710.675	467.895	0.056	0.126
-709.660	-11.332	-0.284	-0.188
-708.645	-149.366	-0.171	-0.014
-707.631	-5.823	0.154	-0.106
-706.616	-200.000	-0.072	-0.395
-705.602	800.000	0.138	-0.442
-704.587	179.813	0.074	-0.108
-703.572	-55.434	0.078	0.035
-702.558	127.478	0.162	0.206
-701.543	-133.346	-0.207	0.026
-700.529	269.395	-0.041	-0.073
-699.514	-83.366	0.227	-0.073
-698.499	-104.165	-0.295	0.069
-697.485	-51.669	0.112	0.052
-696.470	-200.000	0.003	0.050
-695.456	800.000	0.135	-0.392
-694.441	540.413	0.140	-0.335
-693.426	-137.574	0.112	0.013
-692.412	30.314	0.133	0.114
-691.397	-109.509	-0.288	-0.061
-690.383	68.095	-0.046	-0.048
-689.368	-19.877	-0.042	0.026
-688.354	-138.609	-0.054	-0.006
-687.339	-81.617	0.186	0.061
-686.324	800.000	0.039	0.153
-685.310	-35.464	-0.210	0.115
-684.295	17.019	-0.228	-0.181
-683.281	-54.926	0.435	0.197
-682.266	-200.000	-0.027	0.265
-681.251	800.000	0.133	-0.409
-680.237	-139.212	-0.059	-0.006
-679.222	800.000	0.024	0.088
-678.208	43.697	-0.209	-0.191
-677.193	260.842	-0.181	-0.313
-676.178	-127.564	-0.308	0.045
-675.164	800.000	-0.050	-0.184
-674.149	23.621	-0.344	-0.284
-673.135	-30.341	-0.320	-0.182
-672.120	46.886	-0.043	0.040
-671.105	-139.829	-0.486	0.052
-670.091	49.463	-0.153	0.144
-669.076	86.964	-0.104	0.115
-668.062	-200.000	-0.025	0.128
-667.047	116.823	0.105	0.129
-666.032	21.336	0.114	-0.093
-665.018	29.769	0.191	-0.163
-664.003	407.637	-0.022	0.046
-662.989	-14.476	0.330	0.212
-661.974	-200.000	-0.005	0.103
-660.959	122.695	-0.042	-0.053
-659.945	233.156	0.233	0.384
-658.930	-86.359	-0.290	-0.089
-657.916	800.000	-0.035	0.116
-656.901	-18.052	-0.160	-0.100
-655.886	632.169	0.055	-0.140
-654.872	-1.696	-0.191	-0.135
-653.857	-107.116	-0.073	-0.016
-652.843	-126.933	0.076	0.011
-651.828	152.833	0.202	0.277
-650.814	800.000	-0.012	-0.047
-649.799	-38.201	-0.339	-0.180
-648.784	58.151	-0.158	-0.155
-647.770	-71.977	-0.205	-0.076
-646.755	-64.980	0.032	0.013
-645.741	-36.075	-0.275	0.149
-644.726	338.267	0.115	0.224
-643.711	2.634	0.260	-0.188
-642.697	800.000	0.053	0.176
-641.682	92.442	0.016	-0.018
-640.668	29.446	0.221	-0.188
-639.653	-113.678	-0.182	0.036
-638.638	-200.000	0.025	0.425
-637.624	-108.057	0.435	-0.094
-636.609	14.036	-0.452	-0.352
-635.595	-85.069	-0.390	-0.122
-634.580	108.508	-0.231	0.276
-633.565	-151.865	-0.192	-0.014
-632.551	61.578	-0.173	-0.172
-631.536	800.000	-0.052	0.144
-630.522	99.801	0.033	-0.038
-629.507	-58.498	0.135	0.058
-628.492	-11.163	0.192	0.126
-627.478	-41.221	-0.145	0.075
-626.463	-200.000	0.020	0.294
-625.449	-92.760	-0.245	0.069
-624.434	-48.424	0.029	-0.014
-623.419	361.986	-0.083	-0.166
-622.405	230.388	-0.112	0.183
-621.390	50.751	0.248	-0.235
-620.376	32.364	0.222	0.192
-619.361	-62.572	-0.115	0.048
-618.346	212.417	0.184	-0.290
-617.332	-49.993	-0.156	-0.074
-616.317	499.909	0.007	0.015
-615.303	105.120	0.139	-0.164
-614.288	519.849	-0.236	0.553
-613.273	-200.000	0.040	-0.191
-612.259	139.065	0.213	-0.280
-611.244	-38.480	0.190	-0.100
-610.230	-111.121	-0.080	0.016
-609.215	800.000	-0.056	-0.198
-608.201	-61.856	0.076	0.032
-607.186	378.638	0.108	-0.222
-606.171	14.000	0.177	-0.138
-605.157	333.501	0.101	0.196
-604.142	113.079	0.139	0.168
-603.128	149.365	-0.257	-0.347
-602.113	-15.047	0.128	0.082
-601.098	269.266	-0.083	-0.146
-600.084	-67.504	-0.106	-0.042
-599.069	182.289	-0.162	-0.239
-598.055	-103.946	0.124	-0.029
-597.040	-196.704	0.159	-0.001
-596.025	146.181	-0.063	0.085
-595.011	248.307	0.113	0.192
-593.996	740.646	-0.057	0.153
-592.982	166.588	0.157	-0.222
-591.967	-200.000	0.001	-0.150
-590.952	40.849	0.235	-0.212
-589.938	-200.000	-0.000	-0.050
-588.923	-165.373	0.274	0.012
-587.909	-8.499	0.162	-0.109
-586.894	800.000	-0.176	-0.525
-585.879	655.031	0.205	0.525
-584.865	-120.233	0.093	0.016
-583.850	288.636	-0.075	0.135
-582.836	-49.592	0.084	-0.040
-581.821	-50.813	0.085	0.040
-580.806	176.021	-0.044	0.063
-579.792	-125.642	-0.065	-0.010
-578.777	-136.646	-0.121	0.014
-577.763	-17.213	0.251	0.158
-576.748	-200.000	-0.012	0.193
-575.733	631.138	0.063	-0.160
-574.719	56.201	0.212	-0.206
-573.704	800.000	-0.039	-0.133
-572.690	-60.648	-0.076	-0.032
-571.675	149.358	-0.094	-0.126
-570.661	74.668	0.086	0.090
-569.646	800.000	-0.038	-0.119
-568.631	-200.000	-0.046	-0.267
-567.617	-61.870	-0.226	-0.094
-566.602	-200.000	-0.006	-0.064
-565.588	472.171	-0.038	-0.086
-564.573	367.579	0.138	-0.278
-563.558	-200.000	0.021	-0.390
-562.544	-66.792	-0.163	0.064
-561.529	800.000	-0.030	0.111
-560.515	-200.000	-0.002	0.125
-559.500	-111.220	0.154	0.031
-558.485	800.000	0.098	0.304
-557.471	336.861	0.080	-0.155
-556.456	36.539	0.167	-0.147
-555.442	-168.705	-0.296	-0.011
-554.427	339.831	0.089	-0.173
-553.412	-147.436	0.203	-0.017
-552.398	8.476	0.058	0.043
-551.383	-90.233	0.137	0.040
-550.369	-14.187	0.082	0.053
-549.354	298.975	0.051	0.093
-548.339	-51.699	-0.156	0.072
-547.325	92.342	-0.201	-0.225
-546.310	186.227	0.185	-0.274
-545.296	110.251	0.136	0.162
-544.281	82.790	-0.210	0.227
-543.266	-122.143	0.139	0.023
-542.252	-86.321	-0.133	-0.041
-541.237	44.275	0.062	-0.057
-540.223	409.178	-0.134	0.284
-539.208	-78.007	-0.053	0.018
-538.193	358.866	0.071	-0.142
-537.179	-55.199	0.237	-0.106
-536.164	-136.505	-0.344	-0.040
-535.150	46.637	0.142	-0.131
-534.135	-200.000	-0.003	0.328
-533.121	265.979	0.090	0.156
-532.106	-66.549	-0.300	0.119
-531.091	-2.709	0.188	-0.131
-530.077	-122.764	-0.310	-0.050
-529.062	65.950	0.319	-0.323
-528.048	-200.000	-0.059	0.268
-527.033	-200.000	-0.067	-0.357
-526.018	477.834	0.060	0.135
-525.004	172.536	-0.123	-0.176
-523.989	-200.000	-0.038	0.354
-522.975	95.283	-0.218	0.248
-521.960	-191.046	0.428	0.004
-520.945	65.275	0.299	-0.301
-519.931	-30.205	0.260	0.147
-518.916	-64.336	0.239	0.097
-517.902	133.250	0.125	-0.160
-516.887	-22.818	-0.064	-0.038
-515.872	2.631	0.045	0.033
-514.858	101.920	0.026	-0.030
-513.843	-106.452	0.173	0.039
-512.829	-40.627	-0.077	-0.040
-511.814	-152.552	-0.412	0.029
-510.799	525.214	0.066	-0.154
-509.785	-57.783	0.129	-0.056
-508.770	239.975	0.087	0.144
-507.756	-120.386	-0.176	0.030
-506.741	-200.000	0.040	0.367
-505.726	800.000	0.104	0.291
-504.712	800.000	-0.021	-0.084
-503.697	551.692	-0.038	-0.090
-502.683	-200.000	0.016	-0.085
-501.668	31.841	-0.110	0.094
-500.653	-200.000	-0.035	0.156
-499.639	66.833	-0.127	-0.129
-498.624	-6.843	0.235	0.159
-497.610	-59.110	-0.377	0.162
-496.595	-175.043	0.147	-0.004
-495.581	749.296	-0.091	0.243
-494.566	-14.015	0.211	-0.136
-493.551	-186.187	0.101	0.001
-492.537	-200.000	0.048	0.481
-491.522	107.953	-0.090	-0.106
-490.508	-79.560	-0.252	0.084
-489.493	1.008	0.124	-0.089
-488.478	-163.341	-0.454	-0.022
-487.464	100.450	0.093	-0.107
-486.449	-182.264	-0.429	0.008
-485.435	-100.986	0.148	-0.036
-484.420	-200.000	0.052	-0.364
-483.405	-200.000	0.038	0.206
-482.391	106.325	-0.147	0.173
-481.376	-200.000	0.001	0.066
-480.362	-24.408	-0.128	-0.076
-479.347	-200.000	-0.016	-0.140
-478.332	162.619	0.160	0.224
-477.318	261.093	-0.173	0.297
-476.303	-162.279	-0.190	-0.009
-475.289	453.887	0.103	-0.227
-474.274	29.699	0.133	-0.112
-473.259	800.000	-0.111	-0.351
-472.245	258.893	-0.176	0.301
-471.230	-123.092	-0.182	0.029
-470.216	-200.000	0.018	-0.250
-469.201	-104.765	-0.136	-0.031
-468.186	156.774	-0.108	-0.148
-467.172	-200.000	0.008	-0.447
-466.157	-132.559	0.358	0.046
-465.143	743.830	-0.054	-0.145
-464.128	51.987	-0.306	-0.290
-463.113	-200.000	-0.005	-0.329
-462.099	227.498	0.068	-0.110
-461.084	230.294	0.152	0.247
-460.070	-32.572	0.227	-0.126
-459.055	23.383	0.080	-0.065
-458.040	103.599	-0.173	-0.202
-457.026	-102.423	0.178	-0.042
-456.011	-21.271	-0.051	0.031
-454.997	-43.783	-0.276	0.138
-453.982	734.871	0.037	0.099
-452.968	-26.223	-0.095	0.055
-451.953	-200.000	-0.004	0.135
-450.938	800.000	-0.072	0.207
-449.924	-200.000	-0.008	-0.039
-448.909	88.173	-0.308	-0.340
-447.895	800.000	0.049	-0.143
-446.880	-40.574	0.218	0.112
-445.865	-49.700	0.238	-0.112
-444.851	-68.808	-0.289	-0.111
-443.836	-200.000	-0.033	0.193
-442.822	-200.000	-0.005	-0.053
-441.807	-20.298	0.099	0.061
-440.792	-161.907	-0.088	0.004
-439.778	-29.487	0.112	0.064
-438.763	251.964	0.060	0.102
-437.749	-85.939	-0.288	-0.088
-436.734	-36.500	0.130	-0.069
-435.719	245.327	0.111	-0.185
-434.705	-65.340	0.312	0.125
-433.690	143.657	-0.252	0.333
-432.676	33.777	0.131	0.113
-431.661	-70.094	-0.347	0.131
-430.646	225.985	-0.047	-0.075
-429.632	800.000	0.073	0.265
-428.617	3.823	0.191	0.138
-427.603	-200.000	0.016	-0.154
-426.588	800.000	0.013	0.050
-425.573	255.594	-0.051	0.086
-424.559	800.000	-0.075	0.215
-423.544	329.662	-0.086	0.165
-422.530	140.648	-0.059	-0.077
-421.515	-97.430	-0.130	0.034
-420.500	-200.000	0.042	0.190
-419.486	800.000	-0.062	-0.216
-418.471	531.485	-0.136	0.319
-417.457	100.016	0.063	-0.072
-416.442	13.028	-0.161	0.124
-415.428	9.870	0.235	0.177
-414.413	237.570	0.041	-0.067
-413.398	-200.000	0.023	-0.291
-412.384	-200.000	-0.040	-0.271
-411.369	800.000	0.065	0.274
-410.355	-200.000	-0.031	-0.417
-409.340	-44.372	0.308	-0.153
-408.325	192.307	0.153	-0.229
-407.311	10.780	-0.132	-0.100
-406.296	-200.000	0.044	-0.222
-405.282	-17.964	-0.130	0.081
-404.267	-200.000	0.091	0.404
-403.252	31.588	-0.094	-0.080
-402.238	211.811	-0.143	0.223
-401.223	800.000	0.141	0.427
-400.209	666.715	-0.184	0.472
-399.194	-129.916	0.335	-0.046
-398.179	64.030	0.142	-0.142
-397.165	543.644	0.034	0.081
-396.150	800.000	-0.058	-0.248
-395.136	-200.000	-0.031	0.239
-394.121	-60.209	-0.114	0.048
-393.106	289.112	-0.112	0.202
-392.092	453.226	-0.199	-0.436
-391.077	800.000	0.040	-0.143
-390.063	190.812	-0.197	0.294
-389.048	106.763	0.086	0.101
-388.033	39.203	-0.235	-0.208
-387.019	-200.000	0.007	0.209
-386.004	233.204	0.159	0.260
-384.990	329.754	-0.163	-0.311
-383.975	129.496	0.267	-0.338
-382.960	-115.082	-0.091	-0.017
-381.946	-50.166	-0.352	-0.165
-380.931	-200.000	-0.069	0.391
-379.917	800.000	-0.062	0.211
-378.902	68.726	0.185	0.188
-377.888	651.834	0.080	-0.203
-376.873	800.000	0.023	-0.077
-375.858	99.897	0.074	-0.085
-374.844	70.133	-0.156	-0.159
-373.829	-200.000	0.005	-0.084
-372.815	697.196	0.071	0.184
-371.800	-53.119	-0.253	0.115
-370.785	-200.000	-0.088	-0.487
-369.771	354.973	0.096	-0.188
-368.756	14.721	-0.035	0.027
-367.742	-13.339	0.144	-0.093
-366.727	-200.000	-0.009	-0.091
-365.712	800.000	-0.015	-0.061
-364.698	-21.108	-0.150	-0.091
-363.683	795.083	-0.049	0.134
-362.669	-191.419	0.125	-0.001
-361.654	-132.396	-0.055	-0.007
-360.639	800.000	0.060	-0.235
-359.625	31.251	0.242	0.205
-358.610	-91.330	-0.221	-0.062
-357.596	-43.338	-0.154	0.077
-356.581	66.443	0.113	-0.114
-355.566	65.413	0.123	-0.123
-354.552	-125.718	0.126	0.019
-353.537	-84.793	0.157	-0.049
-352.523	800.000	-0.032	-0.093
-351.508	-129.142	0.257	-0.035
-350.493	61.345	-0.145	0.143
-349.479	57.092	-0.143	0.138
-348.464	-95.990	-0.252	0.066
-347.450	218.994	0.159	-0.252
-346.435	-185.933	-0.105	-0.002
-345.420	-14.123	0.164	-0.105
-344.406	207.668	0.074	0.114
-343.391	-200.000	-0.010	0.183
-342.377	-80.545	0.233	-0.077
-341.362	285.693	-0.091	0.162
-340.348	-10.566	-0.100	0.066
-339.333	432.536	-0.012	-0.025
-338.318	-143.288	0.424	-0.040
-337.304	604.001	-0.058	0.143
-336.289	-48.263	0.353	0.168
-335.275	-72.476	-0.372	-0.136
-334.260	-32.770	0.104	-0.057
-333.245	156.198	-0.048	-0.066
-332.231	66.712	-0.167	0.168
-331.216	-200.000	-0.011	0.133
-330.202	194.470	0.024	-0.036
-329.187	232.676	0.177	-0.288
-328.172	800.000	-0.123	-0.518
-327.158	207.992	0.026	0.040
-326.143	-118.910	0.240	-0.042
-325.129	10.981	-0.106	0.080
-324.114	-200.000	-0.005	-0.042
-323.099	-175.363	-0.180	0.005
-322.085	-139.642	-0.088	-0.009
-321.070	-200.000	0.003	0.085
-320.056	-200.000	-0.008	-0.115
-319.041	-153.216	-0.116	0.008
-318.026	15.410	-0.035	-0.027
-317.012	-200.000	0.053	0.276
-315.997	-200.000	0.049	-0.246
-314.983	-200.000	-0.001	-0.089
-313.968	800.000	-0.017	-0.054
-312.953	103.870	0.079	-0.092
-311.939	-200.000	0.026	-0.322
-310.924	250.251	0.101	0.169
-309.910	-200.000	-0.046	0.385
-308.895	-200.000	-0.039	0.303
-307.880	-200.000	0.089	0.388
-306.866	800.000	0.051	0.149
-305.851	112.478	-0.110	-0.131
-304.837	8.139	0.111	0.082
-303.822	-169.182	0.177	0.006
-302.807	67.162	0.173	0.174
-301.793	800.000	0.082	-0.252
-300.778	-11.494	0.245	0.159
-299.764	-142.215	0.148	0.014
-298.749	800.000	-0.068	-0.188
-297.735	14.707	-0.157	0.121
-296.720	-92.600	-0.318	-0.088
-295.705	-52.839	-0.175	0.080
-294.691	-70.312	-0.117	0.044
-293.676	-45.560	0.145	0.071
-292.662	800.000	0.056	-0.241
-291.647	-27.619	-0.139	-0.080
-290.632	-98.458	0.139	0.035
-289.618	7.128	0.121	0.089
-288.603	684.523	0.139	0.357
-287.589	-155.689	0.327	0.021
-286.574	624.824	-0.112	0.278
-285.559	293.906	-0.084	0.152
-284.545	-97.763	0.066	0.017
-283.530	-5.760	0.325	0.220
-282.516	-128.878	-0.215	-0.030
-281.501	62.941	-0.078	-0.077
-280.486	34.655	0.123	0.106
-279.472	-1.117	-0.140	-0.098
-278.457	322.134	-0.152	0.285
-277.443	-131.770	-0.095	0.012
-276.428	-130.978	0.069	0.009
-275.413	-7.308	-0.011	-0.007
-274.399	-148.451	-0.283	-0.023
-273.384	-66.698	-0.333	-0.130
-272.370	32.240	-0.231	0.197
-271.355	800.000	-0.140	0.395
-270.340	800.000	0.025	-0.106
-269.326	97.602	-0.184	-0.209
-268.311	450.179	0.062	0.135
-267.297	331.278	-0.019	-0.036
-266.282	44.931	-0.330	-0.299
-265.267	800.000	0.112	0.370
-264.253	-200.000	0.010	-0.268
-263.238	87.667	-0.040	0.043
-262.224	79.621	-0.087	0.092
-261.209	800.000	-0.091	-0.299
-260.195	-52.021	0.143	-0.065
-259.180	-83.429	-0.311	-0.098
-258.165	-94.327	0.302	0.081
-257.151	-12.136	0.173	-0.112
-256.136	134.253	0.040	0.052
-255.122	-142.553	-0.292	0.028
-254.107	800.000	-0.160	0.525
-253.092	-56.411	0.262	0.115
-252.078	800.000	-0.013	-0.045
-251.063	-131.973	-0.260	0.033
-250.049	800.000	-0.060	-0.211
-249.034	741.420	-0.077	0.203
-248.019	3.937	-0.206	0.148
-247.005	318.530	-0.069	0.129
-245.990	-23.174	-0.159	-0.094
-244.976	-200.000	-0.009	-0.081
-243.961	800.000	-0.024	0.079
-242.946	11.341	0.226	0.171
-241.932	92.791	0.265	-0.295
-240.917	263.583	0.031	-0.054
-239.903	-128.504	0.278	-0.039
-238.888	-109.071	0.061	0.013
-237.873	-28.400	-0.120	-0.068
-236.859	800.000	0.046	0.145
-235.844	800.000	0.054	-0.233
-234.830	379.320	-0.032	0.065
-233.815	760.049	-0.064	0.170
-232.800	800.000	-0.063	-0.188
-231.786	-50.793	-0.153	0.071
-230.771	665.339	0.102	0.259
-229.757	-184.304	0.146	0.002
-228.742	-79.922	0.085	0.028
-227.727	-65.789	0.225	-0.089
-226.713	-141.565	-0.292	0.029
-225.698	-19.873	0.056	-0.034
-224.684	800.000	0.028	-0.080
-223.669	76.441	0.192	0.200
-222.655	-65.775	-0.276	0.109
-221.640	713.758	-0.020	-0.051
-220.625	-87.199	0.299	-0.089
-219.611	-200.000	0.019	-0.328
-218.596	245.125	-0.075	0.123
-217.582	-200.000	-0.008	0.039
-216.567	-200.000	-0.059	-0.377
-215.552	113.681	-0.120	0.143
-214.538	-57.208	0.292	-0.127
-213.523	-45.656	0.103	0.050
-212.509	172.882	0.172	-0.244
-211.494	-97.570	0.263	-0.067
-210.479	671.858	0.020	-0.051
-209.465	-123.658	0.025	0.004
-208.450	224.668	-0.012	0.019
-207.436	-200.000	-0.049	0.259
-206.421	800.000	-0.015	0.051
-205.406	800.000	-0.015	-0.046
-204.392	-113.513	-0.258	0.050
-203.377	-143.529	-0.149	-0.014
-202.363	-200.000	0.074	-0.393
-201.348	-30.002	0.120	0.067
-200.333	-192.037	-0.150	0.001
-199.319	87.983	-0.195	0.212
-198.304	71.746	-0.077	-0.078
-197.290	-33.110	0.214	0.117
-196.275	-200.000	0.003	-0.285
-195.260	-166.291	-0.165	-0.007
-194.246	-147.697	-0.269	0.022
-193.231	-90.086	0.059	0.017
-192.217	-200.000	0.010	-0.081
-191.202	-200.000	0.006	-0.180
-190.187	403.251	-0.077	0.160
-189.173	-115.805	0.322	0.059
-188.158	-54.542	-0.178	0.079
-187.144	126.761	-0.024	0.029
-186.129	-58.758	-0.480	0.204
-185.114	259.210	0.092	-0.155
-184.100	-200.000	0.075	0.390
-183.085	-154.335	0.137	0.009
-182.071	-56.468	-0.255	-0.111
-181.056	-128.274	0.394	-0.055
-180.042	-127.329	0.198	0.028
-179.027	14.637	-0.133	0.102
-178.012	-200.000	0.007	-0.149
-176.998	-28.136	0.548	0.311
-175.983	-109.632	0.126	-0.026
-174.969	37.407	-0.067	0.058
-173.954	-157.134	0.101	0.006
-172.939	-16.341	0.145	0.090
-171.925	218.565	0.109	-0.171
-170.910	-41.330	0.338	-0.171
-169.896	800.000	0.058	0.207
-168.881	-102.337	0.205	0.048
-167.866	-72.523	-0.157	0.057
-166.852	-118.048	0.082	-0.014
-165.837	-126.694	-0.163	-0.024
-164.823	-200.000	-0.047	0.287
-163.808	215.801	0.213	-0.332
-162.793	-23.101	0.267	-0.158
-161.779	-70.796	0.290	0.107
-160.764	-200.000	-0.019	-0.292
-159.750	-73.753	-0.186	0.066
-158.735	371.008	0.070	-0.140
-157.720	800.000	-0.075	0.278
-156.706	16.459	-0.166	-0.128
-155.691	272.627	-0.120	-0.207
-154.677	800.000	-0.103	0.312
-153.662	95.414	-0.198	-0.222
-152.647	339.384	-0.179	0.343
-151.633	-69.127	-0.049	-0.019
-150.618	800.000	-0.030	-0.102
-149.604	-69.214	-0.489	0.184
-148.589	-200.000	-0.009	0.171
-147.574	-200.000	-0.461	-0.001
-146.560	-151.240	0.146	-0.011
-145.545	800.000	-0.078	0.265
-144.531	-200.000	0.090	0.398
-143.516	-98.822	-0.149	0.037
-142.502	-25.604	0.047	-0.027
-141.487	-29.449	0.152	0.085
-140.472	142.419	0.338	0.440
-139.458	132.412	-0.208	0.263
-138.443	-97.717	-0.271	0.069
-137.429	58.160	-0.070	0.068
-136.414	-200.000	-0.005	-0.028
-135.399	113.397	0.103	-0.123
-134.385	-200.000	-0.019	0.094
-133.370	35.571	0.102	0.088
-132.356	-48.398	0.191	-0.090
-131.341	-172.607	-0.017	0.001
-130.326	-200.000	-0.011	-0.069
-129.312	2.688	-0.072	-0.051
-128.297	321.410	-0.143	0.267
-127.283	-80.204	0.106	-0.035
-126.268	-145.561	-0.307	0.027
-125.253	124.632	0.290	0.358
-124.239	800.000	-0.054	-0.221
-123.224	-200.000	0.055	0.237
-122.210	164.963	-0.028	-0.039
