DTS Sentinel unit serial number:	SN413079Multiplexer serial number:	ORYXHardware model number:	OX4-SRSoftware version number:	ORYX F/W v4.00 Oryx Data Collector v3.7.2.0data status	okinstallation	princeton_trtdifferential loss correction	single-endedforward channel	channel 3reverse channel	N/Adate	2019/09/14time	06:00:34forward acquisition time	60.00reverse acquisition time	0.00gamma	496.2192k internal	0.2338k external	0.2338temperature offset calibration	1.0057default loss term (dB/km)	0.3790temperature slope calibration	1.0000multiplexer offset coefficient	1.0000multiplexer slope coefficient	1.0000fibre end	0.00T internal ref (°C)	26.81T ext. ref 1 (°C)	3.40T ext. ref 2 (°C)	21.02length (m)	temperature (°C)	Stokes	anti-Stokes-747.200	-129.878	0.729	-0.100
-746.185	-200.000	-0.030	0.339
-745.171	-200.000	0.020	0.161
-744.156	15.412	0.004	0.003
-743.142	-200.000	-0.043	0.254
-742.127	46.931	-0.279	0.260
-741.112	173.047	-0.077	0.111
-740.098	81.106	-0.274	0.297
-739.083	-109.120	0.170	-0.036
-738.069	-200.000	-0.051	0.356
-737.054	-56.945	0.171	-0.076
-736.039	-102.013	0.111	0.027
-735.025	-54.914	-0.067	-0.030
-734.010	800.000	-0.094	-0.262
-732.996	-92.683	-0.315	-0.088
-731.981	508.306	-0.121	-0.282
-730.966	-200.000	0.001	-0.286
-729.952	-31.313	-0.112	0.063
-728.937	118.363	-0.238	0.295
-727.923	164.109	0.173	-0.245
-726.908	-172.150	-0.157	-0.005
-725.894	-80.232	-0.132	-0.044
-724.879	479.890	0.115	0.261
-723.864	347.905	0.030	-0.058
-722.850	160.518	0.050	0.070
-721.835	74.877	0.167	0.176
-720.821	-115.378	-0.177	0.033
-719.806	-200.000	-0.031	-0.158
-718.791	24.207	-0.136	0.113
-717.777	800.000	-0.062	-0.253
-716.762	337.778	0.052	-0.101
-715.748	-43.496	-0.224	0.113
-714.733	800.000	-0.071	-0.234
-713.718	-140.675	-0.168	0.017
-712.704	-48.234	-0.189	-0.092
-711.689	-2.169	0.121	0.085
-710.675	98.398	0.132	-0.152
-709.660	193.443	-0.138	-0.210
-708.645	-200.000	0.061	-0.496
-707.631	-1.159	-0.042	-0.029
-706.616	86.237	0.174	-0.192
-705.602	666.915	0.108	-0.280
-704.587	70.389	-0.187	-0.194
-703.572	-81.897	-0.222	0.073
-702.558	622.680	0.177	-0.447
-701.543	-140.722	0.201	-0.021
-700.529	190.575	0.110	0.166
-699.514	548.890	-0.070	0.168
-698.499	-153.131	0.082	0.006
-697.485	-75.459	-0.246	-0.088
-696.470	-90.200	0.150	-0.044
-695.456	-16.523	0.254	-0.161
-694.441	138.825	0.133	-0.175
-693.426	54.090	-0.212	-0.204
-692.412	14.146	-0.239	0.186
-691.397	27.115	0.321	-0.270
-690.383	127.335	-0.033	-0.042
-689.368	-200.000	-0.056	-0.366
-688.354	67.948	-0.051	0.052
-687.339	115.599	0.206	0.253
-686.324	-18.168	0.137	-0.086
-685.310	-200.000	0.005	-0.102
-684.295	260.155	0.168	-0.291
-683.281	-4.135	0.177	-0.123
-682.266	66.835	-0.083	-0.085
-681.251	800.000	-0.042	-0.185
-680.237	800.000	0.141	0.435
-679.222	-52.752	0.088	0.041
-678.208	-94.133	0.221	-0.061
-677.193	89.157	0.192	-0.214
-676.178	728.382	0.106	-0.283
-675.164	-84.058	-0.103	-0.033
-674.149	3.093	0.103	0.075
-673.135	-200.000	0.012	-0.152
-672.120	-200.000	-0.012	-0.212
-671.105	-106.028	-0.359	-0.081
-670.091	-160.835	0.131	0.007
-669.076	-139.195	0.275	-0.030
-668.062	-45.702	0.279	-0.138
-667.047	-200.000	0.004	0.134
-666.032	-152.039	-0.419	0.031
-665.018	514.688	0.067	0.156
-664.003	326.835	0.073	-0.139
-662.989	-48.943	0.073	-0.035
-661.974	88.115	-0.190	0.210
-660.959	-200.000	0.000	0.060
-659.945	566.788	-0.125	0.302
-658.930	48.905	-0.125	-0.117
-657.916	25.857	-0.115	0.096
-656.901	-200.000	0.050	-0.311
-655.886	-108.479	-0.354	-0.076
-654.872	-200.000	0.016	0.205
-653.857	-65.289	-0.177	-0.071
-652.843	-162.166	-0.285	-0.014
-651.828	132.838	0.076	0.098
-650.814	-166.947	-0.278	0.011
-649.799	-200.000	-0.069	0.335
-648.784	-149.824	-0.433	0.034
-647.770	-200.000	0.016	0.236
-646.755	-50.308	-0.295	0.140
-645.741	7.959	-0.144	-0.108
-644.726	-117.191	-0.345	0.063
-643.711	95.390	0.250	-0.285
-642.697	487.457	-0.125	0.284
-641.682	292.990	-0.099	-0.180
-640.668	11.461	0.047	-0.036
-639.653	800.000	0.192	-0.539
-638.638	381.858	0.186	-0.383
-637.624	-71.978	-0.025	-0.009
-636.609	-163.169	-0.365	-0.018
-635.595	800.000	0.107	-0.298
-634.580	800.000	0.034	-0.148
-633.565	-31.543	-0.184	0.103
-632.551	-78.458	-0.106	0.036
-631.536	43.693	-0.250	0.229
-630.522	-74.655	-0.121	-0.044
-629.507	-46.699	-0.152	-0.074
-628.492	257.414	0.034	-0.058
-627.478	-96.066	-0.363	-0.096
-626.463	-107.875	-0.113	-0.025
-625.449	301.864	-0.064	0.118
-624.434	-180.736	0.289	0.006
-623.419	-63.780	-0.181	-0.074
-622.405	69.609	0.058	-0.060
-621.390	-200.000	0.011	-0.060
-620.376	-93.651	0.305	-0.084
-619.361	-21.495	-0.137	-0.083
-618.346	48.210	0.282	0.263
-617.332	800.000	0.100	-0.283
-616.317	101.948	-0.079	0.092
-615.303	-162.793	-0.057	0.003
-614.288	-104.798	0.163	0.037
-613.273	-200.000	-0.037	-0.170
-612.259	-4.286	0.263	0.181
-611.244	-82.723	-0.207	0.067
-610.230	-123.602	-0.142	-0.022
-609.215	-200.000	0.007	0.162
-608.201	-28.518	0.104	0.060
-607.186	263.437	-0.028	-0.048
-606.171	11.958	0.183	-0.141
-605.157	-50.743	-0.352	-0.165
-604.142	279.583	0.078	0.138
-603.128	-200.000	0.012	0.081
-602.113	129.840	-0.085	0.108
-601.098	-116.263	0.158	-0.029
-600.084	24.228	0.109	-0.089
-599.069	-42.476	0.112	0.057
-598.055	-200.000	0.002	-0.140
-597.040	-200.000	0.007	-0.051
-596.025	-19.595	-0.253	-0.156
-595.011	-22.120	-0.115	0.069
-593.996	-200.000	-0.076	0.337
-592.982	37.242	-0.227	-0.201
-591.967	-134.914	-0.127	-0.015
-590.952	474.168	0.078	0.175
-589.938	800.000	0.067	0.282
-588.923	457.961	0.185	0.409
-587.909	-62.481	-0.229	0.095
-586.894	375.486	-0.110	0.224
-585.879	800.000	0.108	0.306
-584.865	-0.985	0.147	-0.104
-583.850	88.621	0.066	-0.073
-582.836	-200.000	0.002	-0.235
-581.821	800.000	-0.066	-0.246
-580.806	34.661	-0.029	-0.025
-579.792	-50.610	0.097	-0.046
-578.777	-20.275	-0.168	-0.103
-577.763	407.695	-0.040	-0.085
-576.748	-95.769	0.069	0.019
-575.733	159.231	0.201	-0.278
-574.719	-94.770	0.139	0.037
-573.704	34.928	-0.164	0.143
-572.690	-99.409	0.290	0.073
-571.675	28.634	0.111	-0.093
-570.661	-57.301	0.401	-0.176
-569.646	563.501	0.095	0.230
-568.631	12.625	0.186	-0.143
-567.617	-200.000	-0.105	0.488
-566.602	800.000	-0.133	-0.371
-565.588	398.048	0.108	0.225
-564.573	-120.535	-0.458	-0.077
-563.558	800.000	0.061	0.174
-562.544	-101.188	-0.115	-0.028
-561.529	-200.000	-0.027	-0.275
-560.515	38.830	0.049	-0.043
-559.500	-87.452	0.134	-0.041
-558.485	-96.249	0.167	0.044
-557.471	800.000	-0.066	0.210
-556.456	261.508	-0.103	-0.178
-555.442	-154.094	-0.047	-0.003
-554.427	-52.554	0.269	-0.124
-553.412	7.831	-0.340	0.254
-552.398	-200.000	0.010	0.122
-551.383	23.192	-0.280	-0.229
-550.369	-200.000	0.053	0.340
-549.354	-79.923	0.228	-0.076
-548.339	-59.344	-0.353	-0.151
-547.325	-200.000	0.001	0.087
-546.310	-19.159	0.153	0.095
-545.296	126.474	0.176	-0.222
-544.281	11.655	-0.089	0.068
-543.266	770.061	0.114	-0.310
-542.252	144.381	-0.213	-0.283
-541.237	-39.885	-0.194	-0.101
-540.223	574.646	-0.049	0.120
-539.208	72.586	-0.125	-0.130
-538.193	-48.969	0.099	-0.047
-537.179	187.085	-0.048	0.071
-536.164	-32.151	-0.272	-0.151
-535.150	-183.564	-0.188	0.003
-534.135	-31.653	0.067	-0.037
-533.121	72.493	-0.038	0.040
-532.106	-200.000	-0.004	-0.475
-531.091	-151.934	-0.148	0.011
-530.077	-56.229	0.377	0.167
-529.062	-120.073	-0.057	-0.010
-528.048	-119.288	0.060	0.010
-527.033	54.081	0.238	0.228
-526.018	-99.943	0.177	-0.044
-525.004	626.968	-0.105	-0.264
-523.989	-86.819	0.068	0.021
-522.975	60.810	-0.051	-0.050
-521.960	-108.704	-0.606	0.129
-520.945	800.000	-0.054	-0.191
-519.931	48.176	0.211	-0.197
-518.916	-22.321	0.103	0.062
-517.902	-125.195	-0.121	0.018
-516.887	-200.000	0.026	0.128
-515.872	-30.950	0.200	-0.112
-514.858	197.182	-0.137	-0.208
-513.843	28.705	-0.086	0.072
-512.829	80.532	0.073	-0.079
-511.814	-32.856	-0.102	0.056
-510.799	268.770	0.056	0.097
-509.785	-200.000	-0.013	-0.057
-508.770	-78.958	-0.186	-0.063
-507.756	-200.000	0.026	-0.170
-506.741	800.000	-0.088	0.375
-505.726	-73.054	-0.290	0.106
-504.712	396.111	0.068	0.142
-503.697	-74.312	0.087	-0.031
-502.683	70.889	-0.203	-0.209
-501.668	2.925	0.087	0.063
-500.653	-88.032	-0.092	0.027
-499.639	-200.000	0.023	-0.303
-498.624	706.779	0.127	0.332
-497.610	129.147	0.029	0.037
-496.595	399.070	-0.041	-0.085
-495.581	-110.654	0.165	0.034
-494.566	-200.000	0.028	-0.180
-493.551	530.659	0.120	-0.281
-492.537	-70.955	-0.131	0.049
-491.522	-200.000	0.028	0.208
-490.508	-200.000	0.006	-0.092
-489.493	-118.824	0.169	0.029
-488.478	-200.000	-0.074	-0.418
-487.464	-200.000	0.002	-0.109
-486.449	-57.442	-0.109	-0.047
-485.435	-99.084	-0.295	0.074
-484.420	-159.846	0.293	0.016
-483.405	115.651	-0.153	-0.186
-482.391	678.544	-0.024	0.061
-481.376	138.440	0.107	0.139
-480.362	15.776	0.242	0.189
-479.347	-160.361	-0.575	-0.031
-478.332	800.000	0.060	-0.248
-477.318	30.491	0.062	-0.053
-476.303	-200.000	0.013	-0.132
-475.289	-196.678	0.107	0.001
-474.274	-51.335	-0.160	0.074
-473.259	489.386	-0.165	-0.375
-472.245	-200.000	-0.009	-0.083
-471.230	251.715	-0.026	-0.043
-470.216	800.000	0.006	-0.016
-469.201	-75.635	0.199	0.070
-468.186	-126.942	-0.300	-0.044
-467.172	-200.000	-0.055	-0.296
-466.157	121.546	-0.022	-0.027
-465.143	72.947	0.132	-0.137
-464.128	223.595	-0.150	-0.241
-463.113	278.456	-0.129	-0.229
-462.099	-138.457	0.461	-0.050
-461.084	-200.000	-0.006	0.136
-460.070	-200.000	-0.225	-0.001
-459.055	-73.150	-0.403	0.147
-458.040	-200.000	-0.077	0.449
-457.026	-24.160	0.152	-0.090
-456.011	-128.169	0.333	0.047
-454.997	-136.439	-0.366	0.042
-453.982	-200.000	0.010	0.091
-452.968	-105.362	-0.202	-0.046
-451.953	20.814	-0.063	0.051
-450.938	34.636	-0.225	-0.195
-449.924	35.246	0.091	0.079
-448.909	800.000	-0.059	0.191
-447.895	-95.496	0.288	-0.077
-446.880	-29.767	-0.416	0.235
-445.865	57.501	0.027	-0.027
-444.851	12.060	-0.218	-0.166
-443.836	-200.000	0.015	-0.263
-442.822	340.539	-0.036	-0.070
-441.807	-200.000	0.008	-0.123
-440.792	-200.000	0.029	0.318
-439.778	12.265	-0.229	-0.175
-438.763	75.212	-0.322	-0.337
-437.749	-132.541	-0.224	-0.029
-436.734	92.550	0.164	0.184
-435.719	-200.000	0.018	-0.135
-434.705	-87.912	-0.479	-0.143
-433.690	92.332	0.124	-0.139
-432.676	158.517	-0.067	-0.092
-431.661	17.930	0.226	-0.179
-430.646	208.079	0.035	-0.054
-429.632	767.477	-0.110	-0.298
-428.617	375.467	-0.091	0.184
-427.603	-200.000	0.003	0.350
-426.588	737.286	0.117	-0.312
-425.573	800.000	-0.097	0.407
-424.559	-62.920	0.257	-0.105
-423.544	-148.236	0.275	0.023
-422.530	106.438	0.154	-0.181
-421.515	-200.000	0.014	-0.149
-420.500	68.415	0.261	0.265
-419.486	800.000	0.078	0.227
-418.471	-56.751	0.107	0.047
-417.457	146.248	0.203	-0.271
-416.442	800.000	0.026	-0.084
-415.428	800.000	-0.053	-0.169
-414.413	186.826	0.058	-0.085
-413.398	4.463	-0.146	-0.106
-412.384	17.893	0.166	0.131
-411.369	-200.000	-0.009	-0.063
-410.355	86.962	0.041	0.045
-409.340	381.085	0.076	0.154
-408.325	-47.957	-0.114	-0.054
-407.311	-149.108	0.393	-0.031
-406.296	685.914	-0.112	0.291
-405.282	512.763	0.065	0.151
-404.267	-115.698	0.160	0.030
-403.252	800.000	-0.022	-0.078
-402.238	238.203	0.107	0.175
-401.223	-200.000	0.043	-0.261
-400.209	-128.602	-0.178	0.025
-399.194	132.666	-0.196	0.250
-398.179	-40.216	-0.262	0.135
-397.165	-200.000	0.044	-0.249
-396.150	800.000	0.082	0.292
-395.136	-67.935	-0.143	0.055
-394.121	-73.419	-0.182	0.066
-393.106	-172.703	0.408	-0.013
-392.092	-151.821	-0.262	-0.019
-391.077	27.904	0.361	0.301
-390.063	-147.908	0.125	-0.010
-389.048	-34.152	0.181	-0.098
-388.033	33.620	0.090	-0.078
-387.019	-49.201	-0.239	-0.113
-386.004	-101.883	-0.228	0.055
-384.990	-96.560	0.064	-0.017
-383.975	700.923	0.113	-0.293
-382.960	-200.000	0.012	-0.218
-381.946	95.086	-0.153	0.172
-380.931	15.372	0.108	0.084
-379.917	-120.882	0.294	0.049
-378.902	-200.000	-0.013	0.102
-377.888	58.312	0.314	0.305
-376.873	102.157	0.277	0.320
-375.858	-126.994	0.425	0.062
-374.844	-200.000	-0.048	0.247
-373.829	-99.265	-0.073	-0.018
-372.815	193.147	0.055	0.082
-371.800	-200.000	-0.017	0.384
-370.785	800.000	0.038	-0.113
-369.771	-174.720	0.327	0.009
-368.756	-200.000	-0.087	0.562
-367.742	800.000	0.045	0.158
-366.727	-94.409	0.198	0.053
-365.712	84.748	0.194	0.210
-364.698	-9.103	-0.039	-0.026
-363.683	-110.083	0.195	0.040
-362.669	-200.000	-0.010	0.154
-361.654	-133.405	-0.442	-0.055
-360.639	800.000	0.028	-0.076
-359.625	116.563	0.178	0.216
-358.610	519.976	-0.148	-0.342
-357.596	-165.963	0.315	0.013
-356.581	-200.000	0.052	-0.457
-355.566	-17.461	0.313	-0.195
-354.552	-200.000	0.018	0.255
-353.537	130.621	0.093	-0.118
-352.523	258.544	-0.128	0.218
-351.508	-200.000	0.001	0.123
-350.493	-200.000	-0.026	-0.184
-349.479	160.116	0.071	-0.097
-348.464	-135.204	-0.262	0.031
-347.450	800.000	-0.027	0.079
-346.435	333.228	0.097	-0.184
-345.420	800.000	0.030	0.108
-344.406	-200.000	-0.022	0.102
-343.391	-200.000	0.012	-0.091
-342.377	-174.302	-0.024	0.001
-341.362	-200.000	-0.002	0.215
-340.348	-136.760	-0.088	0.010
-339.333	-200.000	-0.020	-0.240
-338.318	-200.000	-0.030	-0.148
-337.304	61.016	0.148	0.145
-336.289	526.992	0.050	0.117
-335.275	237.157	0.162	0.264
-334.260	-167.763	-0.212	0.008
-333.245	141.802	-0.138	-0.181
-332.231	-32.853	0.066	0.036
-331.216	-127.367	0.246	-0.035
-330.202	6.673	0.100	-0.073
-329.187	43.257	-0.067	0.061
-328.172	-137.957	-0.250	0.028
-327.158	-169.365	-0.109	0.004
-326.143	37.246	-0.068	0.059
-325.129	-111.460	-0.171	-0.034
-324.114	2.555	-0.227	-0.162
-323.099	-54.113	0.054	-0.024
-322.085	-44.927	0.182	-0.090
-321.070	34.946	0.168	0.145
-320.056	-18.058	-0.037	-0.023
-319.041	-100.673	-0.224	0.055
-318.026	-92.709	-0.102	0.028
-317.012	184.652	-0.155	-0.226
-315.997	-200.000	-0.022	0.159
-314.983	-55.582	-0.337	0.149
-313.968	-200.000	-0.046	-0.303
-312.953	113.290	-0.172	-0.206
-311.939	350.696	-0.059	0.114
-310.924	-7.106	-0.199	0.133
-309.910	-200.000	0.042	0.295
-308.895	25.337	-0.110	0.090
-307.880	70.688	0.318	0.325
-306.866	187.857	0.094	0.138
-305.851	800.000	-0.107	-0.462
-304.837	133.793	0.042	0.054
-303.822	-127.196	0.091	-0.013
-302.807	-22.125	0.380	-0.227
-301.793	59.841	-0.207	-0.201
-300.778	719.761	0.101	-0.264
-299.764	36.924	-0.013	0.011
-298.749	423.587	-0.030	-0.064
-297.735	800.000	0.017	-0.049
-296.720	-129.728	0.169	0.023
-295.705	216.201	0.200	0.314
-294.691	134.941	0.149	0.190
-293.676	275.653	-0.133	-0.232
-292.662	38.750	-0.211	-0.185
-291.647	-9.743	0.089	-0.059
-290.632	-200.000	-0.004	-0.062
-289.618	17.282	0.092	0.072
-288.603	-200.000	0.001	0.036
-287.589	-195.569	-0.068	-0.000
-286.574	-179.380	-0.056	-0.001
-285.559	-80.364	-0.170	-0.056
-284.545	-173.530	-0.071	-0.002
-283.530	-200.000	-0.025	0.211
-282.516	-112.556	-0.379	0.074
-281.501	104.976	0.163	-0.189
-280.486	-200.000	0.000	-0.128
-279.472	-69.833	0.286	0.107
-278.457	-148.851	-0.083	0.007
-277.443	25.317	0.138	-0.113
-276.428	800.000	0.090	0.290
-275.413	92.566	0.159	-0.176
-274.399	9.954	-0.123	-0.092
-273.384	478.963	0.153	0.341
-272.370	81.212	0.312	-0.332
-271.355	-183.765	-0.144	-0.002
-270.340	162.953	0.107	-0.148
-269.326	-72.878	0.164	-0.059
-268.311	-13.168	0.118	0.075
-267.297	303.174	-0.061	0.111
-266.282	800.000	-0.025	-0.100
-265.267	-200.000	0.029	-0.233
-264.253	694.699	0.185	0.479
-263.238	614.925	-0.049	0.121
-262.224	298.224	-0.121	0.218
-261.209	251.479	-0.136	0.228
-260.195	-152.923	-0.159	0.011
-259.180	-132.987	0.332	-0.042
-258.165	-200.000	-0.025	0.290
-257.151	-60.047	-0.372	0.156
-256.136	71.318	0.119	0.122
-255.122	47.651	0.150	0.137
-254.107	-114.442	0.145	0.027
-253.092	-87.228	-0.236	-0.071
-252.078	-126.649	0.352	0.051
-251.063	37.312	0.163	-0.142
-250.049	-106.197	0.165	-0.037
-249.034	-177.725	0.170	-0.004
-248.019	690.422	0.060	0.155
-247.005	125.967	-0.051	-0.064
-245.990	40.220	0.284	-0.251
-244.976	-48.890	0.221	-0.104
-243.961	-74.442	-0.160	0.057
-242.946	-181.608	0.150	-0.003
-241.932	800.000	-0.082	0.282
-240.917	75.486	-0.137	0.143
-239.903	-200.000	0.046	-0.219
-238.888	-133.540	0.079	0.010
-237.873	-73.579	-0.035	0.012
-236.859	800.000	-0.018	-0.057
-235.844	-200.000	-0.011	0.294
-234.830	-100.326	-0.126	0.031
-233.815	-39.355	0.180	0.093
-232.800	76.710	-0.380	-0.397
-231.786	-45.040	0.287	-0.140
-230.771	9.597	0.257	-0.192
-229.757	147.647	-0.104	-0.138
-228.742	140.734	0.084	-0.110
-227.727	-90.276	-0.413	-0.118
-226.713	-49.276	-0.274	0.129
-225.698	97.461	-0.202	0.228
-224.684	-97.415	0.132	0.034
-223.669	422.767	-0.015	-0.031
-222.655	-61.774	0.227	0.093
-221.640	412.772	-0.022	-0.046
-220.625	-50.999	0.240	-0.111
-219.611	800.000	-0.096	0.401
-218.596	10.892	-0.302	0.227
-217.582	84.432	0.226	-0.243
-216.567	800.000	-0.018	0.064
-215.552	-96.212	0.348	-0.091
-214.538	338.975	-0.108	0.207
-213.523	36.097	0.061	-0.053
-212.509	655.276	0.122	0.307
-211.494	251.681	0.047	0.078
-210.479	-46.117	0.072	0.035
-209.465	-81.283	0.148	0.048
-208.450	315.297	0.129	0.239
-207.436	194.565	-0.250	0.372
-206.421	-185.209	-0.201	0.003
-205.406	-163.690	0.454	0.021
-204.392	338.824	-0.018	-0.035
-203.377	-79.130	-0.151	0.050
-202.363	-200.000	-0.011	0.187
-201.348	185.044	0.169	-0.246
-200.333	-18.496	-0.190	-0.116
-199.319	61.282	-0.144	-0.141
-198.304	37.358	-0.295	-0.257
-197.290	126.253	-0.169	-0.210
-196.275	-115.757	0.244	0.045
-195.260	33.242	0.149	-0.127
-194.246	-25.500	0.133	0.077
-193.231	-99.712	0.188	-0.046
-192.217	180.827	-0.016	0.023
-191.202	800.000	-0.072	0.228
-190.187	48.537	-0.211	-0.194
-189.173	-104.418	-0.027	-0.006
-188.158	-102.864	0.201	-0.047
-187.144	-89.586	0.158	0.045
-186.129	-155.389	-0.145	-0.009
-185.114	248.230	0.076	0.126
-184.100	-75.513	0.238	-0.083
-183.085	6.668	0.352	-0.257
-182.071	800.000	0.031	0.090
-181.056	800.000	0.078	-0.221
-180.042	568.386	-0.020	0.047
-179.027	88.309	-0.028	-0.030
-178.012	66.788	0.045	0.045
-176.998	-200.000	-0.017	0.156
-175.983	-200.000	-0.044	-0.248
-174.969	-200.000	-0.022	0.176
-173.954	163.505	-0.292	-0.403
-172.939	305.860	0.110	-0.200
-171.925	29.847	0.204	0.170
-170.910	-116.812	-0.266	0.048
-169.896	800.000	0.064	0.235
-168.881	-63.324	-0.199	-0.080
-167.866	-144.117	-0.184	-0.017
-166.852	101.939	0.118	0.135
-165.837	257.635	0.097	0.163
-164.823	-158.314	0.234	-0.013
-163.808	0.215	0.122	-0.086
-162.793	-21.195	0.240	0.144
-161.779	-36.857	-0.180	-0.095
-160.764	-146.415	0.237	0.020
-159.750	477.870	-0.016	-0.037
-158.735	11.059	-0.222	0.167
-157.720	-200.000	-0.002	0.256
-156.706	800.000	-0.132	0.422
-155.691	276.374	-0.069	-0.121
-154.677	101.356	-0.046	0.053
-153.662	-61.402	-0.464	-0.192
-152.647	45.247	-0.165	0.149
-151.633	-42.034	0.055	0.028
-150.618	112.027	0.047	-0.056
-149.604	380.075	-0.074	0.148
-148.589	-65.477	0.327	0.129
-147.574	-88.518	-0.094	-0.027
-146.560	-50.379	0.311	0.144
-145.545	96.103	0.196	-0.220
-144.531	467.032	-0.054	0.119
-143.516	462.208	-0.026	-0.056
-142.502	244.829	0.120	0.197
-141.487	411.585	-0.049	0.103
-140.472	-11.778	0.186	-0.120
-139.458	-137.913	-0.105	-0.011
-138.443	800.000	0.026	0.089
-137.429	-200.000	-0.018	-0.301
-136.414	-200.000	0.017	-0.257
-135.399	45.499	-0.125	-0.113
-134.385	-116.163	-0.376	0.068
-133.370	18.613	0.144	0.113
-132.356	-200.000	0.008	0.428
-131.341	-200.000	0.038	-0.427
-130.326	-69.615	-0.219	0.082
-129.312	11.094	0.075	-0.057
-128.297	-92.746	-0.301	-0.082
-127.283	800.000	-0.053	0.190
-126.268	-153.749	-0.180	0.012
-125.253	269.044	-0.063	-0.108
-124.239	-69.915	-0.160	0.060
-123.224	-129.239	-0.159	0.022
-122.210	101.886	0.076	0.087
-121.195	163.773	-0.244	-0.336
