DTS Sentinel unit serial number:	SN413079Multiplexer serial number:	ORYXHardware model number:	OX4-SRSoftware version number:	ORYX F/W v4.00 Oryx Data Collector v3.7.2.0data status	okinstallation	princeton_trtdifferential loss correction	single-endedforward channel	channel 3reverse channel	N/Adate	2019/09/14time	23:36:35forward acquisition time	60.00reverse acquisition time	0.00gamma	496.2192k internal	0.2319k external	0.2319temperature offset calibration	0.9981default loss term (dB/km)	0.3790temperature slope calibration	1.0000multiplexer offset coefficient	1.0000multiplexer slope coefficient	1.0000fibre end	0.00T internal ref (°C)	32.31T ext. ref 1 (°C)	4.65T ext. ref 2 (°C)	27.32length (m)	temperature (°C)	Stokes	anti-Stokes-747.200	71.973	0.077	-0.081
-746.185	182.776	-0.156	0.232
-745.171	-37.167	0.220	0.119
-744.156	307.023	-0.121	-0.228
-743.142	177.318	0.123	0.181
-742.127	-53.266	-0.324	0.150
-741.112	-200.000	0.018	0.223
-740.098	230.279	-0.132	-0.218
-739.083	-118.160	0.129	0.023
-738.069	53.013	-0.087	0.084
-737.054	-200.000	-0.027	-0.234
-736.039	-99.127	-0.016	0.004
-735.025	37.306	0.117	0.104
-734.010	-82.918	0.127	-0.041
-732.996	21.891	-0.089	-0.073
-731.981	46.321	-0.196	0.184
-730.966	0.775	-0.219	-0.159
-729.952	-49.440	-0.319	0.154
-728.937	-89.627	-0.115	0.034
-727.923	52.798	0.045	0.044
-726.908	-150.914	0.117	0.009
-725.894	-78.896	0.176	-0.060
-724.879	272.264	0.154	-0.274
-723.864	-68.398	0.278	-0.109
-722.850	-200.000	-0.002	-0.039
-721.835	88.751	0.167	-0.188
-720.821	411.358	-0.130	-0.279
-719.806	-162.723	-0.163	-0.008
-718.791	-147.289	-0.137	-0.012
-717.777	800.000	-0.052	-0.191
-716.762	442.345	-0.015	0.034
-715.748	81.179	0.211	0.230
-714.733	206.120	0.092	0.144
-713.718	-61.211	0.200	-0.085
-712.704	-109.014	-0.268	-0.058
-711.689	104.613	0.053	0.063
-710.675	-29.187	0.479	0.277
-709.660	90.270	-0.235	-0.266
-708.645	152.675	0.087	0.120
-707.631	158.972	-0.248	0.349
-706.616	-140.821	-0.226	-0.024
-705.602	-39.529	-0.116	-0.062
-704.587	16.663	-0.214	-0.171
-703.572	49.770	-0.175	0.167
-702.558	-125.402	0.107	0.017
-701.543	-200.000	-0.004	-0.146
-700.529	-127.404	-0.208	0.031
-699.514	76.347	0.093	0.100
-698.499	-11.567	-0.035	-0.023
-697.485	800.000	-0.048	0.183
-696.470	256.611	0.045	0.078
-695.456	-200.000	0.009	-0.100
-694.441	-62.758	-0.134	0.056
-693.426	800.000	-0.043	0.128
-692.412	-200.000	0.053	-0.432
-691.397	117.454	0.224	-0.279
-690.383	-92.998	-0.136	-0.038
-689.368	-89.403	0.237	-0.071
-688.354	7.412	-0.064	0.048
-687.339	800.000	0.012	-0.036
-686.324	800.000	0.092	-0.393
-685.310	50.898	-0.183	0.175
-684.295	-200.000	0.012	-0.110
-683.281	164.613	-0.099	0.141
-682.266	25.628	-0.044	0.037
-681.251	-12.051	-0.168	0.111
-680.237	-146.787	0.101	-0.009
-679.222	51.798	-0.063	-0.060
-678.208	-153.816	-0.310	-0.021
-677.193	-200.000	0.022	0.214
-676.178	631.060	-0.050	0.127
-675.164	203.621	0.235	-0.367
-674.149	-158.116	-0.292	0.017
-673.135	146.510	-0.149	-0.202
-672.120	-75.973	0.284	0.101
-671.105	800.000	0.061	0.193
-670.091	51.012	-0.035	0.033
-669.076	800.000	0.081	0.288
-668.062	-193.860	0.167	-0.001
-667.047	599.873	-0.194	0.485
-666.032	204.926	-0.228	0.358
-665.018	3.929	0.060	-0.044
-664.003	-99.161	0.064	0.016
-662.989	-88.609	0.171	0.051
-661.974	-86.214	0.078	-0.024
-660.959	-110.432	-0.197	0.041
-659.945	401.353	0.194	-0.411
-658.930	-200.000	-0.001	0.165
-657.916	-54.793	-0.162	0.074
-656.901	55.712	0.110	0.108
-655.886	5.067	-0.040	0.030
-654.872	-182.354	0.203	-0.004
-653.857	-86.654	0.339	0.105
-652.843	-95.096	-0.117	-0.032
-651.828	140.098	-0.209	-0.278
-650.814	93.548	-0.169	-0.193
-649.799	800.000	-0.091	0.271
-648.784	-142.377	0.075	-0.007
-647.770	48.688	-0.259	0.245
-646.755	-90.535	0.267	0.078
-645.741	800.000	-0.055	0.186
-644.726	-200.000	0.067	-0.335
-643.711	-73.748	-0.130	-0.048
-642.697	-106.719	0.161	-0.036
-641.682	488.229	-0.065	-0.150
-640.668	-2.731	-0.099	-0.070
-639.653	200.784	-0.025	-0.039
-638.638	-200.000	-0.015	0.100
-637.624	-63.673	-0.174	0.072
-636.609	-144.490	0.077	0.007
-635.595	-200.000	-0.014	-0.154
-634.580	-50.265	0.030	0.014
-633.565	-200.000	0.000	-0.260
-632.551	198.864	-0.261	-0.402
-631.536	-32.342	0.250	0.141
-630.522	110.078	-0.075	0.090
-629.507	-154.753	-0.325	-0.022
-628.492	-200.000	0.026	0.292
-627.478	-200.000	-0.005	-0.076
-626.463	-200.000	-0.048	0.261
-625.449	-200.000	0.013	0.197
-624.434	604.187	-0.052	0.131
-623.419	-200.000	-0.073	0.400
-622.405	16.613	-0.230	0.183
-621.390	173.057	-0.127	-0.184
-620.376	-119.500	-0.203	-0.035
-619.361	-164.449	-0.082	-0.004
-618.346	800.000	-0.057	0.232
-617.332	670.090	-0.025	-0.066
-616.317	115.539	0.206	-0.253
-615.303	577.454	-0.021	0.051
-614.288	800.000	0.012	0.052
-613.273	143.140	0.220	0.294
-612.259	81.593	-0.276	-0.301
-611.244	-141.744	0.424	-0.043
-610.230	-200.000	-0.045	-0.344
-609.215	-200.000	0.032	0.302
-608.201	75.367	0.223	0.237
-607.186	445.867	-0.072	-0.160
-606.171	398.984	-0.052	-0.110
-605.157	-33.253	0.132	-0.074
-604.142	-116.252	0.308	-0.057
-603.128	24.104	0.206	-0.171
-602.113	-23.150	0.044	0.027
-601.098	184.208	-0.114	-0.170
-600.084	800.000	-0.127	0.519
-599.069	-2.082	0.158	-0.111
-598.055	-200.000	-0.063	0.367
-597.040	-88.469	-0.332	-0.100
-596.025	31.632	-0.089	0.077
-595.011	-31.317	0.106	-0.060
-593.996	-61.805	0.098	0.041
-592.982	-189.962	-0.256	-0.003
-591.967	383.358	-0.064	0.132
-590.952	-99.433	0.114	-0.029
-589.938	50.731	-0.206	-0.197
-588.923	-71.341	-0.106	0.040
-587.909	-177.309	0.271	0.007
-586.894	800.000	-0.081	0.309
-585.879	-200.000	-0.037	0.294
-584.865	-10.337	0.144	-0.096
-583.850	-62.471	-0.325	0.136
-582.836	-144.368	-0.190	0.018
-581.821	-200.000	-0.003	-0.201
-580.806	-200.000	0.028	-0.223
-579.792	-77.358	0.164	0.057
-578.777	-19.304	0.258	0.161
-577.763	-88.161	-0.108	0.032
-576.748	-153.330	0.323	-0.023
-575.733	9.283	0.222	-0.169
-574.719	800.000	-0.036	-0.115
-573.704	-110.064	-0.269	-0.057
-572.690	-177.052	-0.297	-0.007
-571.675	-74.374	-0.154	-0.056
-570.661	800.000	-0.094	0.277
-569.646	-200.000	-0.068	-0.396
-568.631	-124.643	0.076	0.012
-567.617	-130.912	0.212	0.029
-566.602	76.029	-0.153	-0.162
-565.588	20.278	-0.189	0.154
-564.573	-200.000	0.041	0.330
-563.558	-160.832	0.219	0.012
-562.544	137.858	0.120	-0.158
-561.529	-16.516	-0.364	0.232
-560.515	-200.000	-0.000	-0.003
-559.500	239.975	0.010	-0.017
-558.485	175.463	0.100	-0.146
-557.471	-19.579	0.068	-0.042
-556.456	-2.230	-0.061	0.043
-555.442	91.575	-0.157	-0.177
-554.427	-200.000	-0.021	-0.098
-553.412	-200.000	-0.008	-0.265
-552.398	2.193	-0.175	-0.127
-551.383	-65.918	-0.045	-0.018
-550.369	800.000	0.146	-0.507
-549.354	800.000	0.052	-0.193
-548.339	-70.252	-0.278	0.106
-547.325	-200.000	-0.013	-0.137
-546.310	96.512	0.086	0.099
-545.296	-200.000	0.013	-0.095
-544.281	75.833	-0.157	-0.167
-543.266	-56.868	0.199	0.088
-542.252	800.000	0.021	-0.079
-541.237	-160.070	0.072	0.004
-540.223	-36.551	-0.569	0.307
-539.208	-20.560	0.223	0.137
-538.193	121.347	0.266	-0.333
-537.179	159.091	0.338	-0.471
-536.164	-200.000	0.011	-0.125
-535.150	72.343	-0.163	-0.171
-534.135	20.284	-0.203	-0.164
-533.121	800.000	-0.071	-0.232
-532.106	-24.428	0.389	0.232
-531.091	800.000	0.082	-0.269
-530.077	7.047	-0.191	0.143
-529.062	563.076	0.166	-0.404
-528.048	87.076	0.077	-0.085
-527.033	44.443	-0.392	-0.361
-526.018	27.982	-0.124	0.105
-525.004	-29.658	0.337	0.193
-523.989	-15.069	-0.143	-0.092
-522.975	-2.465	0.085	0.060
-521.960	134.300	0.238	-0.309
-520.945	71.327	0.127	0.133
-519.931	262.198	-0.082	0.143
-518.916	-52.666	-0.037	0.017
-517.902	-200.000	-0.039	-0.211
-516.887	763.888	0.076	-0.206
-515.872	-9.325	-0.272	-0.182
-514.858	-70.280	-0.334	0.127
-513.843	-89.112	-0.243	0.072
-512.829	-200.000	-0.037	0.284
-511.814	-200.000	-0.063	-0.428
-510.799	800.000	-0.097	-0.336
-509.785	-200.000	0.001	-0.134
-508.770	-123.288	-0.283	-0.045
-507.756	-96.000	0.041	0.011
-506.741	11.791	-0.154	0.119
-505.726	-200.000	0.008	0.136
-504.712	3.072	0.153	0.111
-503.697	138.592	-0.148	0.194
-502.683	-162.193	-0.105	0.005
-501.668	-142.601	0.300	-0.029
-500.653	15.184	0.126	-0.099
-499.639	87.983	-0.084	-0.093
-498.624	181.329	-0.156	0.229
-497.610	-200.000	-0.025	-0.177
-496.595	375.032	-0.096	0.195
-495.581	-137.907	-0.172	0.019
-494.566	514.327	-0.171	-0.399
-493.551	-113.319	0.248	-0.049
-492.537	315.059	0.100	0.189
-491.522	-200.000	-0.020	-0.129
-490.508	228.495	0.098	0.160
-489.493	-200.000	-0.009	0.077
-488.478	54.115	-0.242	-0.233
-487.464	-200.000	0.025	0.155
-486.449	-130.921	0.330	0.044
-485.435	-200.000	0.014	0.185
-484.420	-128.051	-0.152	0.022
-483.405	448.568	0.095	-0.210
-482.391	800.000	0.091	-0.260
-481.376	-200.000	0.018	0.161
-480.362	304.830	0.188	-0.350
-479.347	58.122	0.191	-0.188
-478.332	-59.222	-0.073	0.031
-477.318	800.000	-0.049	-0.158
-476.303	-25.726	-0.164	-0.097
-475.289	181.557	-0.153	-0.226
-474.274	-109.968	-0.148	0.031
-473.259	50.343	0.339	-0.321
-472.245	-140.670	0.211	0.022
-471.230	-16.965	-0.152	-0.096
-470.216	58.166	-0.583	0.572
-469.201	-116.056	-0.051	0.009
-468.186	-200.000	0.005	0.405
-467.172	-112.683	-0.037	-0.007
-466.157	271.057	0.135	0.238
-465.143	800.000	-0.185	0.548
-464.128	-147.299	-0.235	-0.020
-463.113	138.766	-0.222	-0.292
-462.099	291.512	-0.255	0.464
-461.084	-60.964	-0.185	0.078
-460.070	-148.079	-0.033	-0.003
-459.055	-126.697	0.236	-0.035
-458.040	-200.000	0.016	-0.287
-457.026	-37.174	0.109	0.058
-456.011	-63.367	-0.181	-0.075
-454.997	216.197	0.064	-0.102
-453.982	-200.000	-0.004	-0.137
-452.968	-113.314	0.235	-0.046
-451.953	-57.343	0.139	-0.061
-450.938	800.000	-0.082	-0.254
-449.924	76.579	0.014	0.015
-448.909	640.688	-0.071	0.182
-447.895	-6.865	0.016	-0.011
-446.880	37.300	0.079	-0.070
-445.865	88.761	-0.315	-0.351
-444.851	-16.291	0.185	0.118
-443.836	-6.050	-0.241	-0.165
-442.822	319.333	-0.130	-0.246
-441.807	800.000	-0.011	-0.047
-440.792	-200.000	0.030	-0.295
-439.778	35.492	0.118	-0.103
-438.763	-154.055	0.302	0.021
-437.749	574.592	0.072	-0.176
-436.734	43.107	0.230	-0.210
-435.719	800.000	0.069	-0.232
-434.705	144.687	-0.198	-0.265
-433.690	-97.857	0.174	-0.045
-432.676	-79.148	-0.072	0.025
-431.661	197.184	0.042	0.065
-430.646	454.088	-0.125	-0.277
-429.632	-8.663	0.240	-0.161
-428.617	-200.000	0.023	-0.212
-427.603	1.965	0.484	-0.349
-426.588	-10.596	0.148	-0.098
-425.573	-12.690	0.277	0.181
-424.559	449.988	-0.194	0.428
-423.544	-90.300	0.193	-0.056
-422.530	800.000	0.052	-0.168
-421.515	-200.000	0.021	0.413
-420.500	-167.320	-0.378	0.015
-419.486	800.000	-0.096	-0.297
-418.471	-58.138	0.238	0.103
-417.457	690.163	-0.014	-0.038
-416.442	151.820	-0.062	0.085
-415.428	-120.286	-0.256	-0.044
-414.413	-43.461	-0.154	0.078
-413.398	800.000	-0.082	-0.340
-412.384	0.903	-0.146	-0.104
-411.369	130.348	0.131	-0.168
-410.355	46.535	-0.085	0.079
-409.340	161.555	-0.098	-0.137
-408.325	30.265	0.158	0.134
-407.311	-200.000	-0.098	0.446
-406.296	-106.274	-0.187	0.042
-405.282	-50.520	-0.202	-0.095
-404.267	-200.000	-0.040	-0.287
-403.252	-181.513	-0.080	0.002
-402.238	-105.526	0.252	-0.057
-401.223	-82.548	0.171	0.055
-400.209	-126.245	0.247	0.037
-399.194	-58.379	-0.010	-0.005
-398.179	260.232	0.156	-0.269
-397.165	69.515	-0.189	0.194
-396.150	800.000	-0.077	-0.239
-395.136	-151.835	-0.325	0.024
-394.121	183.052	-0.321	0.473
-393.106	-100.540	0.287	-0.071
-392.092	-61.574	-0.141	-0.059
-391.077	192.759	-0.085	-0.129
-390.063	-190.726	-0.132	0.001
-389.048	12.163	0.127	0.097
-388.033	29.506	-0.099	0.084
-387.019	-200.000	-0.038	-0.244
-386.004	6.240	0.065	-0.048
-384.990	800.000	-0.043	-0.133
-383.975	800.000	0.063	-0.201
-382.960	-200.000	0.011	-0.073
-381.946	7.398	-0.138	0.103
-380.931	-200.000	-0.002	-0.392
-379.917	-3.930	0.221	-0.153
-378.902	-200.000	0.018	-0.096
-377.888	123.484	-0.373	0.466
-376.873	10.880	0.055	-0.042
-375.858	-106.508	-0.494	0.110
-374.844	-200.000	0.060	0.409
-373.829	800.000	0.026	0.105
-372.815	282.522	0.229	0.410
-371.800	-159.020	-0.022	-0.001
-370.785	-200.000	-0.012	0.106
-369.771	800.000	-0.055	0.200
-368.756	-94.318	0.068	0.019
-367.742	618.992	0.085	0.213
-366.727	-200.000	-0.003	-0.052
-365.712	89.080	0.150	-0.167
-364.698	800.000	0.127	0.375
-363.683	63.588	0.090	0.090
-362.669	125.753	0.067	0.084
-361.654	-38.938	-0.323	0.170
-360.639	800.000	0.044	0.174
-359.625	-84.318	-0.331	-0.104
-358.610	-200.000	0.015	0.244
-357.596	-0.987	-0.118	-0.083
-356.581	-72.992	0.110	0.040
-355.566	-161.293	0.225	0.012
-354.552	-131.765	-0.503	0.066
-353.537	800.000	0.026	-0.077
-352.523	189.344	-0.177	-0.264
-351.508	-140.318	0.093	-0.010
-350.493	-47.244	0.129	0.063
-349.479	452.514	-0.064	-0.142
-348.464	275.401	-0.115	0.203
-347.450	51.335	-0.230	0.218
-346.435	781.231	-0.035	-0.095
-345.420	291.241	-0.050	-0.091
-344.406	184.828	-0.198	0.292
-343.391	-200.000	-0.024	0.172
-342.377	-118.666	-0.152	-0.027
-341.362	-161.010	0.229	-0.012
-340.348	-13.782	-0.060	0.038
-339.333	705.579	-0.091	0.240
-338.318	-200.000	-0.008	-0.048
-337.304	403.997	-0.068	-0.142
-336.289	99.104	-0.042	0.048
-335.275	-200.000	-0.003	0.164
-334.260	189.777	0.111	0.165
-333.245	44.227	0.181	0.165
-332.231	518.850	-0.085	0.198
-331.216	-145.276	0.174	-0.016
-330.202	176.186	0.005	-0.008
-329.187	-200.000	0.074	-0.357
-328.172	-148.434	0.243	-0.020
-327.158	-200.000	0.019	0.136
-326.143	800.000	0.131	0.377
-325.129	-200.000	-0.034	0.223
-324.114	-127.221	0.087	0.013
-323.099	-200.000	0.037	0.184
-322.085	800.000	0.029	-0.118
-321.070	102.479	-0.049	-0.057
-320.056	-10.315	-0.215	0.142
-319.041	341.378	0.085	-0.165
-318.026	-200.000	0.021	0.268
-317.012	69.036	0.062	0.063
-315.997	-79.905	0.146	-0.049
-314.983	105.993	0.331	-0.390
-313.968	-8.996	-0.247	-0.164
-312.953	800.000	-0.012	0.040
-311.939	35.068	-0.105	0.091
-310.924	-200.000	0.066	-0.311
-309.910	-79.833	-0.089	-0.030
-308.895	-97.416	0.553	-0.143
-307.880	-146.458	0.367	0.032
-306.866	-53.550	0.311	-0.141
-305.851	62.680	0.261	0.260
-304.837	10.205	-0.345	0.261
-303.822	30.945	-0.144	-0.123
-302.807	120.119	0.266	0.328
-301.793	800.000	-0.057	-0.193
-300.778	-80.056	-0.252	0.084
-299.764	199.903	0.184	-0.280
-298.749	-17.470	-0.250	-0.156
-297.735	-8.615	0.141	0.094
-296.720	-92.454	-0.116	-0.032
-295.705	114.453	0.116	-0.141
-294.691	-198.734	0.227	0.001
-293.676	45.257	0.098	-0.090
-292.662	-55.241	-0.254	-0.114
-291.647	800.000	-0.014	0.047
-290.632	235.467	-0.097	-0.159
-289.618	155.288	0.064	-0.087
-288.603	135.995	0.176	-0.228
-287.589	184.111	0.242	0.356
-286.574	213.904	-0.222	-0.348
-285.559	-10.366	-0.039	-0.025
-284.545	-161.240	0.283	-0.015
-283.530	-38.969	-0.095	0.050
-282.516	-200.000	0.053	0.415
-281.501	48.259	-0.136	-0.127
-280.486	-27.571	-0.148	-0.086
-279.472	-200.000	-0.020	-0.253
-278.457	-27.208	0.237	-0.137
-277.443	800.000	-0.036	0.134
-276.428	19.055	0.103	-0.082
-275.413	800.000	-0.075	-0.274
-274.399	-149.141	0.178	-0.014
-273.384	196.217	-0.081	-0.123
-272.370	800.000	0.053	0.229
-271.355	15.311	-0.233	0.181
-270.340	128.626	-0.118	0.150
-269.326	250.566	0.175	-0.295
-268.311	-200.000	0.015	0.184
-267.297	-160.528	0.331	0.018
-266.282	-168.436	0.251	-0.010
-265.267	800.000	0.088	0.321
-264.253	-149.660	-0.153	0.012
-263.238	-78.794	0.036	0.012
-262.224	281.719	0.175	0.311
-261.209	338.537	-0.088	-0.171
-260.195	-139.641	0.121	-0.013
-259.180	800.000	0.086	0.260
-258.165	199.632	0.057	0.087
-257.151	165.458	-0.104	-0.146
-256.136	144.864	0.094	0.124
-255.122	35.915	0.064	0.056
-254.107	800.000	0.063	-0.227
-253.092	-200.000	-0.012	0.111
-252.078	800.000	-0.059	-0.188
-251.063	-80.205	0.260	0.086
-250.049	-26.761	0.262	-0.152
-249.034	87.402	-0.058	-0.064
-248.019	-120.650	-0.227	-0.038
-247.005	134.619	-0.132	0.170
-245.990	-0.101	0.124	-0.088
-244.976	276.923	0.070	-0.124
-243.961	-80.249	0.123	-0.041
-242.946	-151.845	0.089	-0.006
-241.932	102.670	0.100	0.116
-240.917	-76.842	0.478	0.166
-239.903	143.183	-0.258	0.341
-238.888	-7.349	-0.246	-0.165
-237.873	-120.569	0.337	-0.057
-236.859	750.086	0.113	0.303
-235.844	-163.145	0.377	0.018
-234.830	418.667	-0.027	0.057
-233.815	-200.000	0.038	0.351
-232.800	-200.000	0.060	0.290
-231.786	-131.164	0.245	0.032
-230.771	800.000	-0.074	0.289
-229.757	-127.939	-0.305	-0.044
-228.742	-200.000	0.001	0.206
-227.727	-46.215	0.147	-0.072
-226.713	22.781	-0.394	-0.320
-225.698	159.758	0.182	0.251
-224.684	800.000	0.057	0.238
-223.669	446.543	0.166	0.362
-222.655	-21.892	-0.285	-0.172
-221.640	-19.375	-0.159	-0.098
-220.625	-34.208	0.309	0.168
-219.611	800.000	0.020	0.080
-218.596	248.512	-0.237	0.397
-217.582	-70.226	-0.062	-0.023
-216.567	-200.000	-0.007	0.059
-215.552	-200.000	0.013	-0.067
-214.538	-99.793	0.256	-0.063
-213.523	-45.292	-0.189	-0.093
-212.509	-147.487	-0.137	-0.011
-211.494	96.216	-0.216	0.245
-210.479	-97.556	0.177	-0.046
-209.465	-200.000	-0.008	0.033
-208.450	-200.000	-0.045	-0.211
-207.436	-68.580	0.091	0.035
-206.421	800.000	0.026	0.074
-205.406	-114.583	0.087	0.017
-204.392	348.674	-0.078	-0.152
-203.377	-39.454	0.088	0.046
-202.363	-160.859	0.189	-0.010
-201.348	-200.000	-0.014	0.168
-200.333	800.000	0.082	-0.245
-199.319	-9.449	0.146	0.096
-198.304	-33.710	-0.210	0.115
-197.290	-168.857	-0.169	-0.006
-196.275	-200.000	-0.010	-0.321
-195.260	106.129	-0.062	-0.072
-194.246	-200.000	-0.066	0.374
-193.231	-95.574	-0.292	-0.077
-192.217	-99.036	0.212	0.053
-191.202	-48.113	-0.067	-0.032
-190.187	-97.525	-0.212	-0.054
-189.173	199.747	0.136	-0.206
-188.158	-69.931	0.110	0.041
-187.144	-200.000	0.073	0.398
-186.129	-200.000	0.039	-0.324
-185.114	42.214	0.283	0.255
-184.100	-36.473	0.326	0.174
-183.085	-56.027	-0.166	-0.073
-182.071	-33.180	-0.170	0.093
-181.056	154.452	0.205	0.278
-180.042	-75.368	-0.217	-0.077
-179.027	800.000	-0.090	0.262
-178.012	733.659	0.096	0.255
-176.998	-200.000	-0.033	-0.344
-175.983	-78.992	-0.078	0.026
-174.969	-200.000	-0.005	0.055
-173.954	126.432	0.106	-0.132
-172.939	-28.550	0.037	0.021
-171.925	10.877	-0.219	0.166
-170.910	131.885	0.180	-0.230
-169.896	33.218	-0.172	-0.148
-168.881	78.627	0.117	-0.124
-167.866	-109.528	0.121	-0.025
-166.852	-178.824	-0.320	0.007
-165.837	-64.233	-0.079	-0.032
-164.823	-114.758	0.293	0.055
-163.808	-200.000	-0.000	-0.194
-162.793	-54.978	-0.043	0.019
-161.779	-107.618	0.335	-0.072
-160.764	51.094	-0.029	0.028
-159.750	-200.000	-0.018	-0.141
-158.735	800.000	-0.161	0.487
-157.720	-200.000	-0.025	-0.155
-156.706	-139.968	-0.144	-0.015
-155.691	-152.550	0.253	-0.018
-154.677	-200.000	-0.000	0.119
-153.662	-96.320	0.256	0.067
-152.647	192.696	0.139	0.208
-151.633	241.694	-0.112	0.185
-150.618	-86.227	0.051	-0.015
-149.604	-200.000	-0.001	-0.202
-148.589	348.694	-0.280	-0.546
-147.574	-48.320	0.115	0.055
-146.560	-173.761	-0.477	0.014
-145.545	134.243	0.157	0.201
-144.531	-200.000	-0.047	0.247
-143.516	-73.787	0.316	0.113
-142.502	553.962	-0.069	-0.165
-141.487	-4.283	0.160	0.109
-140.472	-101.474	0.121	-0.029
-139.458	13.334	0.186	-0.142
-138.443	-172.989	-0.138	0.004
-137.429	610.723	-0.021	-0.051
-136.414	-85.607	0.190	0.058
-135.399	-21.062	0.363	0.220
-134.385	-200.000	0.035	0.223
-133.370	135.203	-0.086	-0.110
-132.356	172.910	0.078	0.111
-131.341	-84.409	0.264	-0.083
-130.326	16.421	0.124	-0.096
-129.312	-186.793	-0.134	0.002
-128.297	-35.351	-0.223	-0.120
-127.283	-143.049	0.416	0.040
-126.268	41.423	0.147	0.131
-125.253	131.146	0.248	0.314
-124.239	283.305	0.187	0.332
-123.224	-115.408	0.211	0.039
-122.210	228.373	0.110	0.177
