DTS Sentinel unit serial number:	SN413079Multiplexer serial number:	ORYXHardware model number:	OX4-SRSoftware version number:	ORYX F/W v4.00 Oryx Data Collector v3.7.2.0data status	okinstallation	princeton_trtdifferential loss correction	single-endedforward channel	channel 3reverse channel	N/Adate	2019/09/19time	00:56:35forward acquisition time	60.00reverse acquisition time	0.00gamma	496.2192k internal	0.2347k external	0.2347temperature offset calibration	0.9989default loss term (dB/km)	0.3790temperature slope calibration	1.0000multiplexer offset coefficient	1.0000multiplexer slope coefficient	1.0000fibre end	0.00T internal ref (°C)	22.00T ext. ref 1 (°C)	0.71T ext. ref 2 (°C)	15.44length (m)	temperature (°C)	Stokes	anti-Stokes-747.200	800.000	0.040	-0.115
-746.185	193.403	-0.073	0.110
-745.171	57.237	0.051	-0.050
-744.156	-6.402	-0.402	-0.274
-743.142	-16.561	0.117	-0.074
-742.127	-200.000	-0.104	0.682
-741.112	-200.000	-0.049	0.295
-740.098	257.954	-0.077	0.133
-739.083	46.709	0.215	-0.200
-738.069	122.331	-0.008	0.010
-737.054	-200.000	-0.020	0.106
-736.039	296.265	-0.088	0.162
-735.025	641.184	0.201	0.512
-734.010	-157.714	0.129	-0.008
-732.996	-163.275	-0.290	-0.014
-731.981	100.415	0.148	-0.171
-730.966	-200.000	0.006	0.029
-729.952	320.246	0.081	0.154
-728.937	228.817	-0.128	0.208
-727.923	-16.608	-0.109	-0.069
-726.908	800.000	0.027	0.109
-725.894	113.747	0.158	0.191
-724.879	-200.000	-0.008	0.177
-723.864	-200.000	0.001	0.200
-722.850	-200.000	-0.067	0.353
-721.835	-117.741	0.208	-0.037
-720.821	800.000	0.054	-0.186
-719.806	-194.180	-0.355	-0.003
-718.791	-125.604	-0.261	0.040
-717.777	-200.000	0.001	-0.058
-716.762	3.146	-0.222	-0.161
-715.748	14.531	0.182	0.142
-714.733	-75.035	-0.163	-0.058
-713.718	800.000	-0.070	0.301
-712.704	-200.000	0.040	0.221
-711.689	280.889	0.161	0.288
-710.675	-157.137	-0.500	-0.030
-709.660	103.181	-0.163	-0.190
-708.645	3.113	-0.081	-0.059
-707.631	-200.000	0.019	0.151
-706.616	-142.988	0.092	0.009
-705.602	6.516	-0.222	0.164
-704.587	-200.000	-0.054	0.266
-703.572	133.158	0.105	-0.135
-702.558	119.027	-0.157	-0.194
-701.543	146.329	0.183	-0.245
-700.529	115.976	-0.122	-0.149
-699.514	318.921	0.039	-0.073
-698.499	5.795	0.078	-0.057
-697.485	244.092	-0.132	-0.220
-696.470	90.885	0.169	-0.188
-695.456	96.004	-0.245	0.280
-694.441	-34.153	-0.213	-0.117
-693.426	-200.000	0.002	0.017
-692.412	-200.000	-0.020	-0.197
-691.397	19.100	-0.145	-0.116
-690.383	-200.000	0.009	-0.111
-689.368	38.737	0.164	0.146
-688.354	-153.689	0.141	-0.010
-687.339	-170.943	0.285	0.010
-686.324	-200.000	0.050	-0.259
-685.310	-89.521	-0.353	0.103
-684.295	642.488	0.093	0.237
-683.281	-42.453	0.039	0.020
-682.266	-200.000	0.090	-0.437
-681.251	227.392	-0.102	-0.166
-680.237	800.000	0.131	0.527
-679.222	-45.105	-0.271	0.134
-678.208	269.909	-0.027	0.048
-677.193	215.473	0.188	0.297
-676.178	-4.882	0.154	0.106
-675.164	73.933	-0.203	-0.212
-674.149	-78.665	-0.330	0.112
-673.135	71.977	-0.137	0.142
-672.120	-200.000	0.017	-0.166
-671.105	-99.984	0.179	-0.045
-670.091	-174.018	-0.382	-0.011
-669.076	633.882	-0.067	-0.169
-668.062	-70.547	-0.115	0.043
-667.047	22.537	0.236	-0.192
-666.032	-55.293	0.104	0.047
-665.018	252.585	-0.163	-0.276
-664.003	678.967	-0.052	-0.135
-662.989	800.000	-0.037	0.147
-661.974	800.000	-0.072	-0.246
-660.959	138.648	0.191	-0.250
-659.945	-87.576	-0.234	-0.071
-658.930	258.604	0.226	-0.388
-657.916	-3.882	-0.133	0.092
-656.901	-159.250	-0.163	0.009
-655.886	7.360	0.171	-0.127
-654.872	-200.000	-0.043	-0.373
-653.857	-97.387	0.223	-0.058
-652.843	-200.000	0.003	-0.224
-651.828	0.783	0.059	0.042
-650.814	398.397	-0.074	0.153
-649.799	-200.000	0.049	0.223
-648.784	-200.000	0.018	0.125
-647.770	-179.516	0.350	-0.008
-646.755	169.088	0.096	-0.136
-645.741	800.000	-0.042	0.129
-644.726	-82.992	-0.051	-0.016
-643.711	77.621	-0.088	0.093
-642.697	38.922	0.146	-0.130
-641.682	-200.000	0.010	-0.419
-640.668	-19.098	-0.287	0.178
-639.653	131.161	-0.134	-0.171
-638.638	455.126	-0.116	-0.256
-637.624	-200.000	-0.069	-0.402
-636.609	-115.947	-0.209	0.039
-635.595	-67.543	-0.022	-0.009
-634.580	-155.551	0.138	-0.009
-633.565	-17.028	-0.103	0.065
-632.551	-200.000	0.027	-0.209
-631.536	252.521	0.180	0.306
-630.522	422.094	-0.086	0.184
-629.507	-9.556	0.170	-0.113
-628.492	391.186	0.191	-0.395
-627.478	-119.545	-0.315	-0.054
-626.463	-200.000	-0.019	-0.186
-625.449	270.813	-0.016	-0.028
-624.434	-135.044	-0.299	0.036
-623.419	-125.589	-0.123	0.019
-622.405	-114.549	-0.417	-0.080
-621.390	-119.141	-0.385	0.067
-620.376	-33.039	-0.339	0.187
-619.361	-109.463	-0.145	0.031
-618.346	-57.089	0.259	0.114
-617.332	-200.000	0.001	0.209
-616.317	120.389	0.184	-0.228
-615.303	-91.999	-0.114	-0.032
-614.288	-12.670	0.158	-0.103
-613.273	66.731	-0.133	0.135
-612.259	119.457	-0.076	0.094
-611.244	-200.000	0.001	0.097
-610.230	800.000	-0.109	0.319
-609.215	-122.367	-0.067	0.011
-608.201	800.000	0.066	0.220
-607.186	-93.810	0.191	0.052
-606.171	543.655	0.225	-0.533
-605.157	-34.517	-0.202	0.110
-604.142	800.000	0.072	0.223
-603.128	103.187	-0.071	0.082
-602.113	48.508	0.295	-0.275
-601.098	202.405	-0.042	0.064
-600.084	-29.607	-0.050	-0.028
-599.069	-104.751	0.155	-0.036
-598.055	3.000	-0.244	0.176
-597.040	49.581	-0.257	0.240
-596.025	800.000	0.122	0.341
-595.011	596.520	-0.125	-0.308
-593.996	245.505	-0.091	-0.152
-592.982	192.481	0.127	0.190
-591.967	-145.488	0.292	0.026
-590.952	180.300	-0.039	-0.056
-589.938	236.104	-0.084	0.139
-588.923	-200.000	-0.010	-0.205
-587.909	-39.391	-0.097	0.051
-586.894	247.320	0.143	0.239
-585.879	535.684	-0.183	-0.432
-584.865	-110.211	-0.468	-0.097
-583.850	-200.000	0.315	-0.001
-582.836	105.415	-0.161	0.189
-581.821	-62.407	0.262	0.108
-580.806	210.292	0.045	0.069
-579.792	32.603	-0.102	0.087
-578.777	-84.466	-0.263	-0.083
-577.763	800.000	0.070	-0.248
-576.748	52.011	0.146	-0.138
-575.733	-88.226	-0.249	-0.074
-574.719	-200.000	0.027	-0.195
-573.704	784.534	-0.134	-0.364
-572.690	29.325	-0.082	-0.069
-571.675	-50.315	0.059	0.028
-570.661	-131.027	0.331	-0.044
-569.646	-124.374	-0.230	-0.036
-568.631	-186.467	-0.132	0.002
-567.617	-200.000	0.018	-0.180
-566.602	163.874	-0.128	-0.179
-565.588	203.294	0.103	0.158
-564.573	-61.404	0.295	-0.123
-563.558	-85.675	-0.076	-0.024
-562.544	9.103	-0.339	-0.254
-561.529	-26.881	-0.148	0.086
-560.515	800.000	-0.017	-0.073
-559.500	-200.000	0.022	-0.175
-558.485	-108.767	-0.267	-0.057
-557.471	93.765	0.203	0.228
-556.456	800.000	-0.019	0.065
-555.442	-200.000	-0.038	-0.181
-554.427	110.339	-0.066	-0.079
-553.412	800.000	-0.138	0.479
-552.398	-31.746	-0.349	-0.194
-551.383	-156.268	-0.118	-0.007
-550.369	-46.739	0.055	0.027
-549.354	800.000	-0.048	-0.161
-548.339	-60.766	-0.196	-0.082
-547.325	-49.844	-0.083	0.039
-546.310	86.689	0.164	-0.180
-545.296	-27.398	0.041	-0.024
-544.281	-39.784	-0.094	0.049
-543.266	-157.744	-0.291	-0.017
-542.252	-43.982	0.217	0.108
-541.237	-200.000	0.025	-0.126
-540.223	-87.646	0.591	0.177
-539.208	47.525	-0.145	0.134
-538.193	456.132	-0.062	-0.136
-537.179	-33.570	-0.096	-0.053
-536.164	-200.000	-0.006	0.093
-535.150	24.417	-0.058	0.048
-534.135	85.163	-0.067	0.073
-533.121	438.474	0.032	0.070
-532.106	189.331	0.189	0.281
-531.091	-69.415	0.228	-0.087
-530.077	323.361	-0.145	0.274
-529.062	254.975	0.150	-0.255
-528.048	-8.562	0.142	0.095
-527.033	129.145	0.192	0.242
-526.018	-50.487	-0.146	0.068
-525.004	800.000	-0.079	-0.276
-523.989	88.701	0.109	0.120
-522.975	235.831	-0.096	-0.158
-521.960	-135.346	0.180	-0.021
-520.945	-71.393	0.119	-0.044
-519.931	-22.573	-0.283	-0.169
-518.916	-200.000	-0.040	-0.228
-517.902	220.934	-0.232	0.369
-516.887	732.170	-0.071	-0.189
-515.872	-200.000	0.002	-0.321
-514.858	-132.261	0.274	0.035
-513.843	-105.851	0.160	-0.036
-512.829	-13.511	-0.099	0.063
-511.814	610.759	0.044	0.108
-510.799	-1.966	0.329	-0.229
-509.785	-148.595	0.128	0.010
-508.770	40.240	0.087	-0.077
-507.756	800.000	0.070	-0.282
-506.741	0.297	0.165	-0.117
-505.726	-200.000	-0.005	0.165
-504.712	605.393	-0.075	0.185
-503.697	671.882	0.085	0.218
-502.683	-200.000	0.016	-0.307
-501.668	-200.000	0.022	-0.218
-500.653	-106.823	-0.137	-0.030
-499.639	-63.574	-0.144	-0.058
-498.624	-126.481	-0.396	0.058
-497.610	800.000	0.082	0.294
-496.595	-200.000	-0.029	0.165
-495.581	-72.562	-0.095	0.035
-494.566	-200.000	-0.015	0.377
-493.551	734.817	0.063	0.168
-492.537	363.790	0.079	-0.157
-491.522	-158.006	0.279	0.016
-490.508	193.685	-0.008	-0.013
-489.493	281.552	-0.182	-0.322
-488.478	59.964	-0.171	0.167
-487.464	-200.000	0.147	0.001
-486.449	42.053	-0.276	-0.248
-485.435	-95.332	-0.109	-0.029
-484.420	4.855	0.254	-0.184
-483.405	78.848	0.173	-0.184
-482.391	-109.585	-0.138	-0.029
-481.376	-31.665	0.235	0.131
-480.362	143.908	0.067	-0.088
-479.347	44.240	0.167	0.152
-478.332	-99.808	-0.064	-0.016
-477.318	-200.000	0.059	-0.275
-476.303	-200.000	0.197	-0.001
-475.289	800.000	0.043	0.156
-474.274	3.581	-0.105	0.076
-473.259	-50.012	0.019	-0.009
-472.245	517.349	-0.067	0.154
-471.230	-84.819	0.390	-0.121
-470.216	-168.258	0.014	-0.001
-469.201	-124.728	-0.164	-0.025
-468.186	267.424	-0.146	0.253
-467.172	284.590	-0.038	0.068
-466.157	-144.938	-0.081	-0.007
-465.143	37.467	-0.154	-0.135
-464.128	-200.000	0.020	0.183
-463.113	91.438	0.130	-0.144
-462.099	315.114	0.099	0.185
-461.084	122.429	0.107	0.132
-460.070	317.845	-0.082	0.153
-459.055	15.853	0.132	-0.103
-458.040	133.535	-0.059	0.075
-457.026	-124.938	0.335	-0.051
-456.011	-100.933	-0.233	0.056
-454.997	-29.594	-0.184	-0.104
-453.982	428.599	0.050	0.107
-452.968	229.392	0.172	-0.277
-451.953	-200.000	0.193	-0.000
-450.938	237.860	0.155	-0.254
-449.924	-78.745	-0.180	0.061
-448.909	72.931	0.207	0.214
-447.895	800.000	0.025	-0.091
-446.880	-124.587	-0.213	-0.033
-445.865	-56.091	0.187	-0.082
-444.851	181.568	0.184	-0.268
-443.836	570.818	-0.053	0.127
-442.822	78.169	0.043	0.045
-441.807	-200.000	-0.008	-0.061
-440.792	54.763	-0.093	0.088
-439.778	-200.000	0.012	0.081
-438.763	354.418	-0.105	-0.207
-437.749	-200.000	-0.008	0.075
-436.734	49.851	0.022	0.021
-435.719	-124.321	-0.157	-0.024
-434.705	12.627	-0.053	-0.041
-433.690	-45.372	-0.221	0.108
-432.676	11.493	0.211	-0.160
-431.661	800.000	-0.024	-0.102
-430.646	-32.990	-0.415	0.228
-429.632	400.990	-0.070	-0.144
-428.617	-200.000	-0.032	0.183
-427.603	-100.796	0.121	0.029
-426.588	-200.000	0.018	-0.233
-425.573	-195.315	-0.132	-0.001
-424.559	-200.000	0.056	0.293
-423.544	-200.000	-0.004	-0.173
-422.530	792.424	0.041	0.110
-421.515	107.390	-0.147	-0.172
-420.500	-2.135	0.153	-0.106
-419.486	-43.561	0.236	-0.118
-418.471	-200.000	-0.024	0.574
-417.457	453.198	0.164	0.357
-416.442	-200.000	-0.060	0.267
-415.428	-110.721	0.254	0.052
-414.413	114.972	-0.327	0.393
-413.398	800.000	-0.072	-0.237
-412.384	800.000	0.037	-0.134
-411.369	475.738	0.085	-0.189
-410.355	-102.186	0.103	-0.024
-409.340	-55.641	-0.197	0.087
-408.325	-168.807	0.253	-0.009
-407.311	-162.447	-0.050	-0.002
-406.296	-88.007	-0.364	-0.108
-405.282	137.723	0.123	-0.158
-404.267	55.395	-0.079	0.076
-403.252	59.443	0.117	0.113
-402.238	-94.114	-0.200	-0.054
-401.223	-83.563	0.099	-0.031
-400.209	-200.000	0.007	0.112
-399.194	-78.576	0.165	-0.056
-398.179	-97.594	-0.327	0.084
-397.165	324.406	-0.060	-0.113
-396.150	-62.002	-0.122	-0.050
-395.136	-74.557	-0.276	-0.098
-394.121	53.399	-0.090	0.085
-393.106	106.033	-0.205	0.240
-392.092	71.400	-0.028	-0.029
-391.077	-103.420	0.148	-0.034
-390.063	85.452	-0.167	0.180
-389.048	800.000	0.034	-0.105
-388.033	409.029	-0.138	0.288
-387.019	800.000	0.055	0.176
-386.004	800.000	-0.069	0.218
-384.990	-75.564	0.087	-0.030
-383.975	-167.845	0.427	0.017
-382.960	50.559	0.092	-0.086
-381.946	74.258	-0.112	-0.116
-380.931	-28.417	0.284	0.161
-379.917	32.540	-0.236	-0.201
-378.902	800.000	0.054	0.214
-377.888	44.311	-0.161	-0.145
-376.873	86.288	-0.066	0.072
-375.858	549.519	-0.099	-0.233
-374.844	-21.322	-0.115	-0.069
-373.829	7.659	0.197	0.145
-372.815	-119.590	0.128	-0.022
-371.800	41.477	-0.098	-0.087
-370.785	-57.971	0.131	-0.056
-369.771	-27.613	0.243	0.139
-368.756	-7.115	-0.086	-0.057
-367.742	-200.000	-0.006	-0.134
-366.727	31.671	0.178	-0.151
-365.712	-134.699	0.248	-0.030
-364.698	32.997	-0.081	0.069
-363.683	432.298	-0.019	-0.041
-362.669	800.000	0.070	-0.253
-361.654	-57.693	-0.099	0.043
-360.639	528.540	0.041	0.094
-359.625	-25.629	-0.030	-0.017
-358.610	-96.158	-0.054	0.014
-357.596	234.856	0.103	0.167
-356.581	60.548	-0.178	0.173
-355.566	37.428	0.113	0.099
-354.552	-157.884	0.141	0.008
-353.537	391.802	-0.095	0.193
-352.523	518.444	0.168	0.386
-351.508	6.114	-0.171	-0.125
-350.493	428.507	0.057	-0.121
-349.479	-165.967	0.207	0.009
-348.464	800.000	0.048	-0.132
-347.450	263.707	-0.011	-0.019
-346.435	-67.508	0.295	-0.114
-345.420	443.880	0.026	-0.056
-344.406	706.653	-0.079	0.206
-343.391	-2.667	0.146	-0.101
-342.377	54.382	-0.248	-0.235
-341.362	-200.000	0.041	-0.326
-340.348	-98.784	-0.245	0.061
-339.333	125.950	-0.058	-0.072
-338.318	-24.344	0.170	-0.100
-337.304	-97.173	0.062	-0.016
-336.289	-200.000	0.013	-0.311
-335.275	441.992	0.062	-0.134
-334.260	-33.965	-0.122	-0.066
-333.245	-139.275	0.251	-0.027
-332.231	216.695	0.045	-0.071
-331.216	171.935	-0.090	-0.127
-330.202	143.559	-0.110	0.144
-329.187	139.274	0.116	-0.151
-328.172	189.411	-0.215	0.318
-327.158	-97.985	-0.068	0.017
-326.143	-37.364	-0.592	-0.311
-325.129	413.239	-0.148	-0.309
-324.114	800.000	0.036	0.103
-323.099	-200.000	-0.003	0.236
-322.085	95.728	0.207	-0.232
-321.070	-43.274	-0.194	0.097
-320.056	671.232	0.085	0.215
-319.041	800.000	0.061	0.250
-318.026	440.821	0.089	0.191
-317.012	-50.863	-0.171	0.079
-315.997	-86.605	0.173	0.052
-314.983	47.432	0.013	-0.012
-313.968	15.416	0.164	-0.127
-312.953	241.146	0.228	0.374
-311.939	-87.453	0.257	0.076
-310.924	-150.212	0.594	-0.045
-309.910	800.000	0.092	-0.292
-308.895	623.950	0.113	0.280
-307.880	-68.656	-0.045	-0.017
-306.866	-98.934	-0.226	-0.056
-305.851	-200.000	-0.013	-0.212
-304.837	1.259	0.188	-0.133
-303.822	553.644	-0.192	0.453
-302.807	-118.330	0.073	-0.013
-301.793	-193.515	0.185	-0.002
-300.778	-200.000	0.001	-0.182
-299.764	-76.551	-0.124	0.043
-298.749	83.269	0.225	-0.241
-297.735	137.271	-0.126	0.161
-296.720	-4.230	0.169	0.115
-295.705	402.555	-0.031	0.064
-294.691	193.615	-0.186	0.276
-293.676	147.924	-0.103	-0.136
-292.662	800.000	-0.121	0.362
-291.647	-171.016	-0.038	0.001
-290.632	34.297	-0.064	0.054
-289.618	-37.812	0.194	0.101
-288.603	-143.965	-0.218	-0.020
-287.589	800.000	-0.130	0.386
-286.574	-53.546	-0.228	0.102
-285.559	315.942	0.084	-0.156
-284.545	5.493	0.216	-0.156
-283.530	-7.135	-0.151	-0.100
-282.516	-49.059	-0.242	0.114
-281.501	377.271	-0.046	-0.093
-280.486	145.112	-0.085	-0.112
-279.472	-200.000	0.020	-0.094
-278.457	800.000	0.050	0.211
-277.443	-39.053	0.098	0.050
-276.428	-55.858	-0.301	-0.132
-275.413	-51.107	0.256	0.118
-274.399	69.834	-0.172	0.174
-273.384	91.785	0.059	0.065
-272.370	-200.000	-0.000	0.068
-271.355	189.979	-0.113	-0.167
-270.340	-101.428	0.072	0.017
-269.326	-48.603	0.064	0.030
-268.311	800.000	-0.044	0.150
-267.297	550.503	0.074	0.174
-266.282	-200.000	0.067	0.306
-265.267	-109.693	0.422	0.087
-264.253	-200.000	0.009	-0.119
-263.238	348.499	-0.030	0.059
-262.224	-176.437	-0.318	-0.008
-261.209	-200.000	0.022	0.184
-260.195	-114.734	0.391	0.073
-259.180	-96.796	-0.133	-0.034
-258.165	800.000	-0.024	-0.087
-257.151	-63.120	-0.153	-0.062
-256.136	164.109	-0.187	-0.259
-255.122	-18.795	0.400	0.244
-254.107	28.848	0.230	-0.191
-253.092	800.000	0.037	-0.138
-252.078	-174.837	-0.024	-0.001
-251.063	-61.889	0.100	0.041
-250.049	-81.358	0.245	-0.079
-249.034	90.687	0.124	-0.136
-248.019	-7.736	0.299	0.198
-247.005	-200.000	0.039	0.375
-245.990	-45.021	0.077	0.038
-244.976	-78.574	-0.130	0.044
-243.961	-200.000	0.037	-0.174
-242.946	-34.533	-0.090	0.048
-241.932	-116.920	0.090	0.016
-240.917	-200.000	-0.038	0.411
-239.903	-105.679	-0.264	-0.059
-238.888	-47.229	-0.254	-0.121
-237.873	-113.551	0.167	-0.032
-236.859	447.823	-0.101	-0.217
-235.844	-59.217	-0.292	-0.123
-234.830	-200.000	0.018	0.282
-233.815	-175.464	0.142	0.004
-232.800	-111.425	-0.419	-0.084
-231.786	85.235	0.078	-0.084
-230.771	-200.000	-0.045	0.349
-229.757	136.275	0.258	0.330
-228.742	42.567	0.119	-0.106
-227.727	168.140	-0.207	0.289
-226.713	-99.191	0.289	0.072
-225.698	-158.829	0.071	0.004
-224.684	-57.356	-0.230	0.099
-223.669	-63.634	0.122	0.049
-222.655	-60.846	0.205	-0.085
-221.640	-59.294	-0.275	0.116
-220.625	-200.000	0.010	-0.371
-219.611	449.526	0.038	0.082
-218.596	179.043	-0.096	-0.137
-217.582	800.000	-0.045	-0.162
-216.567	-200.000	-0.060	0.296
-215.552	-68.678	0.366	-0.138
-214.538	-100.839	-0.245	0.059
-213.523	137.002	0.166	0.213
-212.509	-144.124	0.176	0.016
-211.494	230.639	0.043	-0.069
-210.479	20.087	0.216	0.170
-209.465	-200.000	0.016	-0.470
-208.450	-106.163	0.332	0.073
-207.436	-200.000	0.006	-0.301
-206.421	287.078	-0.052	0.092
-205.406	-134.027	-0.105	-0.013
-204.392	-68.482	-0.173	0.066
-203.377	800.000	0.037	-0.142
-202.363	-200.000	0.009	-0.044
-201.348	121.376	-0.095	0.115
-200.333	61.888	-0.229	0.224
-199.319	-123.020	-0.286	-0.045
-198.304	-200.000	-0.001	-0.214
-197.290	-200.000	0.041	0.251
-196.275	800.000	-0.018	0.068
-195.260	385.600	0.105	0.212
-194.246	800.000	-0.023	0.082
-193.231	800.000	0.104	0.302
-192.217	7.901	0.075	0.055
-191.202	515.783	-0.039	-0.088
-190.187	203.663	-0.146	0.221
-189.173	-200.000	0.119	0.514
-188.158	180.349	-0.153	-0.220
-187.144	-19.135	0.271	-0.165
-186.129	-200.000	0.010	-0.120
-185.114	3.196	0.316	-0.225
-184.100	-37.564	-0.277	0.144
-183.085	-200.000	0.021	0.157
-182.071	51.310	-0.188	0.174
-181.056	247.838	0.062	-0.102
-180.042	-140.892	-0.169	0.017
-179.027	-200.000	0.022	0.112
-178.012	93.443	0.202	0.224
-176.998	200.688	-0.042	-0.064
-175.983	-50.522	-0.100	0.046
-174.969	725.131	0.033	0.085
-173.954	-200.000	-0.003	0.129
-172.939	-200.000	-0.040	-0.525
-171.925	-200.000	-0.041	-0.265
-170.910	-116.969	-0.089	0.016
-169.896	-200.000	0.080	-0.382
-168.881	-200.000	0.009	0.052
-167.866	-70.450	0.282	-0.104
-166.852	194.266	-0.265	-0.392
-165.837	51.456	-0.066	-0.061
-164.823	-109.652	0.328	-0.067
-163.808	43.808	-0.013	-0.011
-162.793	-200.000	0.003	-0.119
-161.779	-200.000	0.046	-0.350
-160.764	409.136	-0.122	-0.253
-159.750	-200.000	0.065	-0.324
-158.735	7.552	-0.315	-0.230
-157.720	8.729	0.315	0.232
-156.706	62.172	-0.229	-0.223
-155.691	-122.258	0.482	0.077
-154.677	-200.000	-0.034	0.255
-153.662	-22.986	-0.087	0.051
-152.647	-200.000	0.012	-0.121
-151.633	-181.544	0.105	0.002
-150.618	16.682	0.205	0.158
-149.604	-119.252	-0.327	-0.056
-148.589	103.057	0.154	-0.176
-147.574	317.873	0.053	0.098
-146.560	-99.543	0.173	-0.042
-145.545	800.000	0.047	-0.160
-144.531	-84.491	-0.061	-0.019
-143.516	-112.769	0.149	-0.029
-142.502	-200.000	0.012	-0.095
-141.487	200.606	0.197	-0.296
-140.472	800.000	0.118	-0.435
-139.458	19.797	-0.177	-0.139
-138.443	-40.028	-0.231	-0.117
-137.429	35.696	-0.027	0.023
-136.414	-126.254	-0.205	0.030
-135.399	-57.897	-0.160	0.068
-134.385	-25.355	-0.160	-0.092
-133.370	283.955	-0.088	0.154
-132.356	-129.428	-0.331	0.045
-131.341	-200.000	-0.023	-0.101
-130.326	572.286	-0.118	0.281
-129.312	-1.658	0.114	-0.078
-128.297	-200.000	-0.012	0.095
-127.283	251.987	0.168	0.279
-126.268	34.070	0.112	-0.095
-125.253	63.599	0.237	0.232
-124.239	-67.774	-0.304	0.116
-123.224	-200.000	0.006	-0.189
-122.210	-200.000	0.032	0.378
-121.195	800.000	-0.004	-0.016
