DTS Sentinel unit serial number:	SN413079Multiplexer serial number:	ORYXHardware model number:	OX4-SRSoftware version number:	ORYX F/W v4.00 Oryx Data Collector v3.7.2.0data status	okinstallation	princeton_trtdifferential loss correction	single-endedforward channel	channel 3reverse channel	N/Adate	2019/09/10time	20:34:10forward acquisition time	60.00reverse acquisition time	0.00gamma	496.2192k internal	0.2326k external	0.2326temperature offset calibration	0.9919default loss term (dB/km)	0.3790temperature slope calibration	1.0000multiplexer offset coefficient	1.0000multiplexer slope coefficient	1.0000fibre end	0.00T internal ref (°C)	31.95T ext. ref 1 (°C)	-0.32T ext. ref 2 (°C)	25.31length (m)	temperature (°C)	Stokes	anti-Stokes-747.200	356.325	0.198	-0.397
-746.185	-62.006	-0.182	-0.077
-745.171	-129.328	0.192	0.027
-744.156	-102.109	0.168	-0.041
-743.142	-106.465	-0.372	-0.084
-742.127	148.831	-0.272	0.371
-741.112	166.409	0.084	-0.120
-740.098	-34.271	-0.235	-0.130
-739.083	-177.909	0.128	0.003
-738.069	-80.722	0.265	0.089
-737.054	23.547	-0.142	-0.118
-736.039	15.330	-0.093	0.073
-735.025	-36.255	0.263	0.143
-734.010	-180.803	-0.171	0.004
-732.996	-80.327	-0.269	-0.091
-731.981	-4.548	-0.114	-0.080
-730.966	-200.000	0.033	0.157
-729.952	333.183	-0.176	-0.343
-728.937	-76.041	-0.618	-0.220
-727.923	498.309	-0.082	-0.189
-726.908	-65.536	0.526	0.213
-725.894	-200.000	0.041	0.291
-724.879	-66.603	-0.167	-0.067
-723.864	-11.660	-0.210	0.139
-722.850	284.908	0.125	-0.226
-721.835	17.677	0.113	0.091
-720.821	-48.211	-0.160	-0.078
-719.806	800.000	-0.081	-0.240
-718.791	402.064	0.141	-0.299
-717.777	-200.000	0.006	0.146
-716.762	212.144	-0.074	0.117
-715.748	82.393	-0.156	-0.170
-714.733	14.902	-0.192	0.152
-713.718	-33.172	-0.203	-0.113
-712.704	53.576	0.196	0.189
-711.689	-200.000	0.001	-0.096
-710.675	800.000	0.095	0.379
-709.660	85.989	-0.132	0.146
-708.645	64.123	-0.167	-0.169
-707.631	-124.832	0.231	-0.036
-706.616	155.592	-0.086	0.120
-705.602	205.579	0.099	0.155
-704.587	800.000	-0.049	-0.194
-703.572	-128.744	0.299	-0.042
-702.558	198.119	-0.043	-0.067
-701.543	-88.006	0.169	0.051
-700.529	442.859	0.150	0.330
-699.514	-45.790	-0.073	-0.036
-698.499	567.626	-0.055	-0.135
-697.485	800.000	0.079	-0.278
-696.470	800.000	-0.054	-0.181
-695.456	-114.685	-0.193	-0.037
-694.441	-200.000	0.017	0.108
-693.426	342.534	0.129	-0.254
-692.412	-107.366	-0.265	0.059
-691.397	156.267	-0.092	0.127
-690.383	283.239	-0.197	0.356
-689.368	138.833	-0.087	0.115
-688.354	212.223	-0.118	0.187
-687.339	-43.222	0.145	0.074
-686.324	-111.167	-0.270	-0.056
-685.310	135.381	-0.058	-0.076
-684.295	800.000	0.037	-0.151
-683.281	-161.513	-0.265	-0.014
-682.266	-69.536	0.401	-0.155
-681.251	24.422	0.404	-0.336
-680.237	-106.919	-0.233	0.052
-679.222	-200.000	-0.060	-0.318
-678.208	-62.728	0.319	-0.133
-677.193	-200.000	-0.055	-0.309
-676.178	61.572	0.153	0.153
-675.164	32.923	-0.067	-0.058
-674.149	800.000	0.023	-0.082
-673.135	-49.921	0.179	-0.085
-672.120	800.000	-0.042	0.148
-671.105	210.010	-0.098	0.155
-670.091	-30.835	0.219	0.125
-669.076	48.517	0.116	0.109
-668.062	108.604	0.102	0.122
-667.047	-200.000	0.013	0.199
-666.032	15.313	0.289	-0.228
-665.018	-103.793	0.282	0.066
-664.003	-132.742	0.214	0.028
-662.989	-200.000	0.016	-0.180
-661.974	-39.731	0.259	-0.136
-660.959	308.433	-0.151	-0.283
-659.945	-33.138	-0.162	-0.090
-658.930	243.750	-0.146	-0.247
-657.916	197.969	0.051	-0.078
-656.901	83.474	0.087	0.095
-655.886	800.000	0.027	-0.099
-654.872	130.326	0.153	-0.196
-653.857	494.525	-0.120	-0.276
-652.843	-49.716	0.268	-0.128
-651.828	286.182	0.128	-0.233
-650.814	383.914	0.136	0.280
-649.799	14.877	-0.147	-0.116
-648.784	-79.136	-0.085	0.029
-647.770	153.296	0.034	0.047
-646.755	-14.953	-0.160	0.103
-645.741	-45.254	0.031	-0.015
-644.726	724.540	0.128	0.344
-643.711	436.255	0.159	0.347
-642.697	177.365	-0.176	0.258
-641.682	-200.000	-0.056	-0.419
-640.668	309.633	0.171	-0.321
-639.653	800.000	-0.087	-0.260
-638.638	233.063	0.122	0.201
-637.624	148.916	0.086	-0.117
-636.609	251.660	-0.082	0.141
-635.595	-200.000	0.007	-0.122
-634.580	-200.000	0.059	-0.321
-633.565	800.000	0.049	0.191
-632.551	-130.747	-0.317	-0.043
-631.536	206.132	-0.171	-0.267
-630.522	369.107	-0.139	-0.282
-629.507	211.084	0.083	0.132
-628.492	149.456	0.427	0.581
-627.478	-30.325	0.301	0.172
-626.463	150.474	0.149	0.204
-625.449	-200.000	-0.013	0.132
-624.434	-60.567	-0.283	-0.120
-623.419	10.959	0.045	0.034
-622.405	-37.089	0.234	-0.126
-621.390	249.569	0.133	-0.226
-620.376	519.028	0.033	0.079
-619.361	-164.986	-0.223	-0.010
-618.346	105.485	0.234	0.278
-617.332	-31.414	0.176	0.100
-616.317	800.000	0.085	-0.288
-615.303	-200.000	-0.022	-0.146
-614.288	82.508	0.131	0.142
-613.273	-70.229	-0.062	-0.023
-612.259	382.617	-0.113	0.234
-611.244	-82.203	-0.174	-0.057
-610.230	-107.435	-0.272	-0.060
-609.215	-200.000	0.049	-0.476
-608.201	337.007	0.061	0.118
-607.186	218.184	-0.142	-0.227
-606.171	212.090	0.041	0.065
-605.157	16.284	-0.127	0.100
-604.142	-145.925	-0.232	-0.021
-603.128	31.081	0.161	-0.138
-602.113	-165.959	-0.261	-0.011
-601.098	-45.449	-0.145	0.072
-600.084	-200.000	0.007	-0.163
-599.069	-30.738	-0.310	-0.176
-598.055	71.786	-0.199	-0.207
-597.040	800.000	-0.077	0.261
-596.025	-127.782	-0.381	-0.055
-595.011	-200.000	0.044	-0.355
-593.996	69.987	0.153	-0.158
-592.982	-200.000	-0.037	0.284
-591.967	800.000	0.077	0.251
-590.952	-194.300	0.132	-0.001
-589.938	-31.433	-0.147	-0.083
-588.923	-107.515	-0.095	-0.021
-587.909	42.815	-0.137	-0.125
-586.894	7.065	-0.214	-0.160
-585.879	-200.000	-0.017	0.172
-584.865	800.000	0.034	0.117
-583.850	-81.825	0.319	-0.105
-582.836	74.884	-0.104	0.109
-581.821	-151.677	0.163	-0.012
-580.806	-200.000	-0.046	0.296
-579.792	-122.180	-0.211	-0.035
-578.777	87.107	0.068	-0.075
-577.763	800.000	0.064	0.191
-576.748	-3.587	0.223	0.155
-575.733	-200.000	-0.019	-0.093
-574.719	47.220	-0.078	0.073
-573.704	-158.752	-0.404	-0.023
-572.690	-200.000	-0.049	-0.245
-571.675	-96.343	-0.169	-0.045
-570.661	253.637	-0.061	-0.105
-569.646	-113.765	-0.153	0.030
-568.631	800.000	0.061	0.224
-567.617	309.576	-0.103	-0.193
-566.602	-94.226	0.028	0.008
-565.588	232.688	-0.089	-0.147
-564.573	800.000	-0.017	0.066
-563.558	800.000	0.076	0.267
-562.544	441.390	0.103	-0.225
-561.529	-124.750	-0.210	-0.033
-560.515	-200.000	-0.102	0.496
-559.500	-200.000	-0.035	0.162
-558.485	-108.809	0.088	-0.019
-557.471	184.866	0.083	0.123
-556.456	-65.456	-0.205	-0.082
-555.442	45.419	0.129	-0.120
-554.427	84.682	0.148	0.162
-553.412	-76.587	0.125	-0.044
-552.398	-200.000	0.031	0.244
-551.383	34.494	-0.110	0.096
-550.369	90.513	0.067	0.076
-549.354	3.977	0.261	0.191
-548.339	77.911	-0.086	0.091
-547.325	-200.000	-0.035	-0.538
-546.310	73.697	-0.212	0.222
-545.296	-200.000	0.020	0.261
-544.281	354.379	-0.097	0.192
-543.266	-58.151	-0.118	-0.051
-542.252	-107.672	0.094	0.021
-541.237	-29.649	0.223	-0.127
-540.223	-36.252	-0.213	-0.115
-539.208	-28.474	-0.504	0.291
-538.193	-16.519	0.334	0.212
-537.179	-6.633	0.155	0.106
-536.164	350.889	-0.178	-0.352
-535.150	-160.923	-0.064	0.003
-534.135	-123.681	0.168	-0.027
-533.121	1.625	-0.281	0.202
-532.106	-142.507	-0.194	0.019
-531.091	-70.058	-0.347	-0.132
-530.077	59.025	-0.298	0.293
-529.062	800.000	-0.093	0.291
-528.048	319.496	0.153	-0.291
-527.033	-200.000	-0.076	-0.581
-526.018	548.456	0.122	-0.293
-525.004	-200.000	0.049	-0.295
-523.989	-34.759	0.364	-0.199
-522.975	-0.469	-0.290	0.206
-521.960	364.575	-0.043	0.087
-520.945	-86.333	0.273	0.084
-519.931	122.469	0.332	0.415
-518.916	-200.000	-0.028	-0.133
-517.902	-200.000	0.043	-0.213
-516.887	285.169	0.110	0.198
-515.872	-128.155	-0.338	-0.048
-514.858	-200.000	-0.079	0.351
-513.843	-144.903	-0.194	0.018
-512.829	37.876	0.085	0.076
-511.814	1.529	0.191	-0.137
-510.799	220.485	0.345	-0.553
-509.785	554.187	0.135	0.324
-508.770	-200.000	-0.006	-0.096
-507.756	-200.000	-0.029	-0.144
-506.741	-119.102	0.103	-0.018
-505.726	-200.000	-0.024	0.185
-504.712	118.373	-0.038	-0.047
-503.697	-200.000	0.026	0.305
-502.683	516.864	0.097	-0.226
-501.668	-200.000	-0.028	0.228
-500.653	109.794	-0.159	0.191
-499.639	-200.000	-0.031	-0.181
-498.624	-200.000	0.266	-0.001
-497.610	38.115	0.042	0.037
-496.595	800.000	-0.093	-0.283
-495.581	89.992	0.237	-0.264
-494.566	-33.171	-0.103	0.057
-493.551	-46.524	-0.249	-0.122
-492.537	86.358	-0.066	-0.073
-491.522	92.119	-0.165	0.185
-490.508	800.000	0.068	0.196
-489.493	-147.383	0.276	-0.023
-488.478	-74.397	0.181	0.065
-487.464	-137.988	-0.224	0.025
-486.449	-145.220	0.237	0.021
-485.435	-92.454	0.090	-0.025
-484.420	350.079	-0.121	0.239
-483.405	221.067	0.139	-0.223
-482.391	96.753	0.039	0.045
-481.376	800.000	-0.014	0.048
-480.362	800.000	0.035	0.130
-479.347	-200.000	0.036	-0.307
-478.332	-87.139	0.194	0.059
-477.318	-20.885	0.168	0.103
-476.303	5.495	-0.278	0.205
-475.289	126.131	0.051	0.065
-474.274	-172.309	-0.175	0.006
-473.259	-81.200	0.182	0.060
-472.245	-37.926	-0.158	-0.084
-471.230	-98.015	0.224	0.058
-470.216	471.035	0.100	-0.225
-469.201	768.534	0.084	-0.228
-468.186	-69.465	0.170	-0.065
-467.172	33.544	-0.277	0.240
-466.157	800.000	-0.070	0.235
-465.143	4.905	-0.161	0.118
-464.128	44.226	0.079	0.072
-463.113	-132.971	0.084	0.011
-462.099	-115.123	0.257	-0.049
-461.084	339.653	-0.138	0.269
-460.070	-200.000	-0.030	0.209
-459.055	-35.176	-0.260	-0.141
-458.040	-200.000	0.011	0.055
-457.026	314.952	-0.044	0.082
-456.011	-122.022	-0.226	0.037
-454.997	45.244	0.247	0.227
-453.982	-75.184	-0.139	0.049
-452.968	234.277	-0.138	0.226
-451.953	-69.546	-0.512	-0.196
-450.938	221.166	-0.119	-0.190
-449.924	800.000	-0.107	-0.310
-448.909	112.425	-0.017	-0.020
-447.895	381.600	-0.112	-0.230
-446.880	800.000	0.088	-0.246
-445.865	-109.086	-0.109	-0.023
-444.851	34.383	0.187	-0.162
-443.836	-105.071	0.217	-0.049
-442.822	588.378	-0.166	-0.407
-441.807	800.000	0.077	-0.219
-440.792	800.000	0.062	0.181
-439.778	332.329	-0.106	0.203
-438.763	-27.920	0.091	-0.052
-437.749	-104.438	0.182	0.042
-436.734	-92.803	-0.281	-0.078
-435.719	-77.789	-0.681	-0.235
-434.705	183.335	0.210	-0.308
-433.690	-44.925	0.031	0.015
-432.676	2.763	-0.202	0.146
-431.661	63.572	-0.181	-0.181
-430.646	170.733	0.075	-0.107
-429.632	-75.031	0.265	0.095
-428.617	419.403	-0.178	-0.380
-427.603	141.222	-0.080	-0.106
-426.588	-127.548	0.267	-0.039
-425.573	800.000	-0.056	-0.214
-424.559	-16.996	0.083	0.052
-423.544	98.057	0.044	0.051
-422.530	4.311	-0.413	0.301
-421.515	-68.547	0.217	0.084
-420.500	800.000	-0.027	0.111
-419.486	-52.596	0.331	0.152
-418.471	-120.749	-0.369	0.062
-417.457	-57.492	0.203	0.089
-416.442	-200.000	-0.070	0.509
-415.428	22.004	0.189	0.153
-414.413	154.939	-0.078	0.107
-413.398	103.579	0.029	-0.034
-412.384	-46.397	-0.267	0.131
-411.369	-133.938	-0.153	0.019
-410.355	-73.034	-0.175	-0.064
-409.340	800.000	-0.080	-0.330
-408.325	136.870	-0.104	0.135
-407.311	-144.595	-0.240	0.022
-406.296	654.535	-0.105	-0.267
-405.282	-70.690	-0.175	-0.066
-404.267	245.245	0.076	0.127
-403.252	157.285	0.128	0.177
-402.238	-139.478	-0.179	0.019
-401.223	800.000	0.084	0.297
-400.209	-200.000	0.029	0.200
-399.194	-6.220	-0.237	0.161
-398.179	79.051	-0.151	0.161
-397.165	-137.934	0.177	0.020
-396.150	-85.760	-0.219	0.068
-395.136	800.000	-0.130	-0.413
-394.121	619.698	-0.116	-0.290
-393.106	308.831	-0.100	-0.185
-392.092	-28.158	-0.371	0.213
-391.077	198.981	-0.072	-0.109
-390.063	32.867	0.178	-0.153
-389.048	-187.628	-0.266	0.004
-388.033	-183.555	0.102	0.002
-387.019	-50.385	-0.115	0.054
-386.004	203.012	0.166	0.255
-384.990	-112.211	-0.175	0.035
-383.975	-200.000	0.015	-0.240
-382.960	264.650	0.103	-0.178
-381.946	-16.548	0.216	0.136
-380.931	20.801	0.087	-0.070
-379.917	74.417	0.230	0.241
-378.902	445.826	0.010	-0.021
-377.888	800.000	-0.164	-0.514
-376.873	-200.000	0.044	-0.196
-375.858	-71.795	0.145	-0.054
-374.844	-200.000	0.035	0.274
-373.829	25.564	0.025	-0.020
-372.815	1.115	-0.048	0.034
-371.800	800.000	-0.050	0.147
-370.785	473.514	0.100	0.224
-369.771	381.118	0.141	0.288
-368.756	-200.000	0.038	0.353
-367.742	163.891	0.116	0.162
-366.727	-75.344	0.322	0.114
-365.712	392.041	-0.091	-0.188
-364.698	-46.462	-0.301	-0.147
-363.683	-161.512	0.239	-0.012
-362.669	115.001	0.044	-0.054
-361.654	800.000	0.089	-0.368
-360.639	-200.000	0.044	-0.345
-359.625	-86.017	-0.308	0.095
-358.610	755.160	-0.097	0.261
-357.596	-4.258	0.276	-0.190
-356.581	4.609	0.134	0.098
-355.566	-200.000	0.006	0.063
-354.552	-200.000	-0.036	0.245
-353.537	-116.236	0.105	0.019
-352.523	-200.000	-0.027	-0.355
-351.508	-11.442	0.320	0.209
-350.493	-200.000	-0.031	-0.227
-349.479	88.917	-0.212	0.235
-348.464	163.962	0.035	0.049
-347.450	800.000	-0.055	0.225
-346.435	-200.000	-0.006	-0.207
-345.420	-50.982	0.523	-0.244
-344.406	-30.989	-0.171	-0.096
-343.391	178.239	-0.068	-0.099
-342.377	-58.719	0.152	-0.065
-341.362	-200.000	0.103	-0.471
-340.348	149.480	0.158	0.213
-339.333	-72.203	0.134	0.049
-338.318	-68.661	-0.069	-0.026
-337.304	800.000	0.055	-0.198
-336.289	127.478	-0.072	-0.091
-335.275	325.027	-0.131	-0.249
-334.260	188.454	0.191	-0.283
-333.245	-90.635	-0.384	0.110
-332.231	800.000	0.095	0.409
-331.216	-200.000	-0.017	0.157
-330.202	-26.464	-0.198	0.115
-329.187	-111.848	0.257	0.052
-328.172	-50.303	0.128	0.060
-327.158	-34.380	0.295	0.161
-326.143	-74.756	-0.230	0.082
-325.129	12.510	0.234	0.179
-324.114	800.000	-0.078	0.310
-323.099	40.527	-0.052	0.047
-322.085	149.552	-0.164	-0.221
-321.070	-24.510	0.311	-0.184
-320.056	241.826	0.216	-0.358
-319.041	122.362	0.087	-0.108
-318.026	167.181	-0.071	-0.100
-317.012	-91.161	-0.320	0.091
-315.997	132.607	-0.096	0.123
-314.983	-22.418	-0.344	0.207
-313.968	-115.348	0.134	-0.025
-312.953	136.981	-0.124	-0.160
-311.939	-200.000	-0.016	-0.312
-310.924	-200.000	-0.007	-0.249
-309.910	-143.354	-0.187	0.018
-308.895	311.409	-0.144	-0.268
-307.880	800.000	-0.085	0.277
-306.866	800.000	-0.091	-0.261
-305.851	361.357	0.150	0.298
-304.837	-73.106	-0.226	0.082
-303.822	-82.758	-0.254	0.082
-302.807	-200.000	0.058	-0.000
-301.793	-113.802	-0.085	0.016
-300.778	-145.905	-0.357	0.031
-299.764	-17.332	0.195	-0.122
-298.749	125.558	0.190	-0.238
-297.735	356.683	0.136	0.269
-296.720	35.063	-0.157	-0.136
-295.705	-15.018	0.350	-0.222
-294.691	800.000	0.067	0.266
-293.676	-200.000	0.048	0.254
-292.662	511.491	-0.033	0.075
-291.647	-48.165	0.216	-0.103
-290.632	5.059	-0.250	0.183
-289.618	225.334	0.056	0.090
-288.603	-79.043	-0.222	-0.075
-287.589	4.937	-0.102	-0.075
-286.574	-6.843	0.105	0.071
-285.559	-13.184	0.227	-0.146
-284.545	-108.458	-0.071	0.015
-283.530	159.329	0.134	-0.185
-282.516	632.485	-0.111	-0.278
-281.501	507.411	-0.030	0.069
-280.486	-59.056	0.137	0.059
-279.472	8.094	0.473	-0.352
-278.457	-166.541	-0.335	-0.014
-277.443	180.923	0.165	-0.240
-276.428	333.441	0.114	-0.219
-275.413	-156.117	-0.310	0.019
-274.399	-56.625	-0.163	0.071
-273.384	214.338	-0.153	-0.240
-272.370	-37.723	0.302	-0.159
-271.355	199.070	-0.221	0.335
-270.340	763.807	0.103	0.277
-269.326	270.533	-0.041	-0.071
-268.311	-30.437	0.222	-0.125
-267.297	-200.000	0.003	-0.124
-266.282	174.643	0.069	0.099
-265.267	66.437	0.140	-0.140
-264.253	142.927	-0.096	-0.127
-263.238	-200.000	-0.018	-0.553
-262.224	219.532	-0.087	-0.137
-261.209	77.383	0.294	0.310
-260.195	37.401	-0.245	0.215
-259.180	83.462	-0.030	-0.033
-258.165	-200.000	0.014	0.477
-257.151	-111.482	0.197	0.040
-256.136	32.439	0.196	0.168
-255.122	-128.135	0.376	-0.053
-254.107	-56.289	0.205	-0.090
-253.092	-79.947	0.176	-0.058
-252.078	200.275	0.112	0.170
-251.063	-200.000	0.001	-0.115
-250.049	-83.289	0.143	0.045
-249.034	126.806	0.084	0.105
-248.019	25.232	0.228	-0.188
-247.005	-58.288	-0.197	0.085
-245.990	71.641	0.211	-0.217
-244.976	2.375	0.125	-0.089
-243.961	-117.592	0.428	0.076
-242.946	-105.376	0.179	0.040
-241.932	51.491	0.138	0.130
-240.917	-156.214	0.192	0.012
-239.903	-87.079	0.189	0.057
-238.888	-123.155	-0.396	-0.063
-237.873	133.215	0.269	0.343
-236.859	650.815	0.052	0.132
-235.844	-57.407	0.359	0.156
-234.830	-200.000	-0.046	-0.233
-233.815	-180.127	-0.155	0.003
-232.800	1.571	-0.076	-0.054
-231.786	132.945	-0.119	-0.151
-230.771	172.339	0.064	0.090
-229.757	-16.617	-0.160	-0.100
-228.742	377.321	-0.066	-0.134
-227.727	-114.427	-0.132	0.025
-226.713	17.624	0.212	-0.166
-225.698	-168.069	-0.188	0.007
-224.684	-22.114	-0.204	0.122
-223.669	179.750	0.124	0.179
-222.655	-200.000	0.003	0.286
-221.640	-154.575	-0.327	-0.022
-220.625	683.242	0.069	0.178
-219.611	-93.374	0.237	0.065
-218.596	-96.144	0.311	-0.082
-217.582	-200.000	0.015	0.103
-216.567	-56.500	-0.155	0.068
-215.552	-141.811	-0.194	0.019
-214.538	157.361	0.179	0.245
-213.523	5.957	0.087	0.064
-212.509	95.522	0.111	-0.125
-211.494	-200.000	0.003	0.080
-210.479	-200.000	0.020	0.235
-209.465	-73.744	0.231	0.083
-208.450	-200.000	0.014	-0.066
-207.436	131.093	0.049	0.062
-206.421	118.740	-0.171	-0.208
-205.406	585.579	0.131	0.317
-204.392	800.000	-0.056	0.199
-203.377	-37.288	-0.380	0.200
-202.363	-77.452	0.181	-0.062
-201.348	-143.410	-0.351	-0.033
-200.333	-62.047	0.205	-0.085
-199.319	263.359	-0.246	-0.421
-198.304	-200.000	-0.034	-0.313
-197.290	28.396	0.110	-0.092
-196.275	153.840	-0.087	0.117
-195.260	-47.842	-0.202	0.097
-194.246	339.122	-0.122	0.234
-193.231	221.663	0.155	-0.246
-192.217	705.576	0.047	0.123
-191.202	-111.262	0.107	-0.022
-190.187	95.147	0.093	0.105
-189.173	105.163	0.163	-0.190
-188.158	800.000	-0.015	0.045
-187.144	-200.000	-0.011	-0.366
-186.129	349.491	-0.145	-0.283
-185.114	800.000	-0.042	0.149
-184.100	-46.322	-0.141	-0.068
-183.085	-12.966	-0.202	0.130
-182.071	72.333	0.174	0.179
-181.056	-200.000	0.010	0.205
-180.042	251.315	0.105	-0.176
-179.027	800.000	-0.082	-0.238
-178.012	21.411	-0.295	0.237
-176.998	-179.541	-0.063	-0.001
-175.983	12.177	0.241	-0.183
-174.969	-48.052	0.384	-0.183
-173.954	30.284	-0.103	0.087
-172.939	584.030	0.056	-0.136
-171.925	422.348	0.048	-0.102
-170.910	-41.388	-0.239	-0.121
-169.896	302.690	0.100	0.183
-168.881	115.066	0.180	0.216
-167.866	172.937	0.124	0.176
-166.852	-26.366	0.159	-0.092
-165.837	167.507	-0.188	0.263
-164.823	-16.812	0.123	0.077
-163.808	141.675	0.184	0.240
-162.793	-32.675	0.286	-0.157
-161.779	-6.806	-0.180	-0.121
-160.764	800.000	-0.051	-0.184
-159.750	-200.000	0.002	-0.101
-158.735	132.002	-0.197	0.250
-157.720	-200.000	-0.020	-0.152
-156.706	403.148	-0.054	-0.113
-155.691	-153.559	0.415	0.028
-154.677	800.000	-0.019	-0.079
-153.662	-22.523	-0.095	-0.057
-152.647	-21.790	0.162	-0.097
-151.633	-46.314	0.245	0.119
-150.618	-200.000	-0.003	0.181
-149.604	72.835	0.220	0.226
-148.589	54.518	-0.214	-0.204
-147.574	-59.203	-0.127	-0.054
-146.560	111.252	0.151	0.179
-145.545	-200.000	0.010	-0.183
-144.531	293.274	-0.098	-0.177
-143.516	-173.627	0.289	-0.009
-142.502	-165.381	-0.567	-0.025
-141.487	374.091	-0.116	0.232
-140.472	800.000	0.057	0.207
-139.458	317.057	-0.016	0.030
-138.443	-18.342	-0.159	0.098
-137.429	-25.796	0.164	0.095
-136.414	276.805	0.048	-0.084
-135.399	-96.504	0.287	0.075
-134.385	70.370	-0.214	0.218
-133.370	-94.184	-0.366	-0.099
-132.356	82.396	-0.129	0.138
-131.341	-200.000	-0.067	0.392
-130.326	-147.353	-0.300	-0.025
-129.312	800.000	0.062	0.233
-128.297	4.657	-0.150	-0.109
-127.283	603.185	-0.042	0.104
-126.268	66.766	0.175	-0.175
-125.253	800.000	-0.103	0.352
-124.239	-137.828	-0.171	0.019
-123.224	147.464	0.130	0.172
-122.210	5.381	-0.362	-0.263
-121.195	601.923	-0.039	0.095
-120.180	-109.830	0.183	0.038
