DTS Sentinel unit serial number:	SN413079Multiplexer serial number:	ORYXHardware model number:	OX4-SRSoftware version number:	ORYX F/W v4.00 Oryx Data Collector v3.7.2.0data status	okinstallation	princeton_trtdifferential loss correction	single-endedforward channel	channel 3reverse channel	N/Adate	2019/09/13time	13:40:34forward acquisition time	60.00reverse acquisition time	0.00gamma	496.2192k internal	0.2303k external	0.2303temperature offset calibration	1.0145default loss term (dB/km)	0.3790temperature slope calibration	1.0000multiplexer offset coefficient	1.0000multiplexer slope coefficient	1.0000fibre end	0.00T internal ref (°C)	35.12T ext. ref 1 (°C)	4.59T ext. ref 2 (°C)	31.40length (m)	temperature (°C)	Stokes	anti-Stokes-747.200	282.987	-0.151	-0.275
-746.185	-200.000	-0.000	0.226
-745.171	764.601	-0.060	0.165
-744.156	800.000	0.041	0.117
-743.142	-200.000	0.023	-0.129
-742.127	38.490	0.202	-0.183
-741.112	678.246	-0.096	-0.253
-740.098	-42.981	0.070	0.036
-739.083	300.744	-0.049	-0.091
-738.069	-200.000	-0.049	0.228
-737.054	-69.925	0.243	0.094
-736.039	457.256	-0.110	-0.248
-735.025	-200.000	-0.003	-0.085
-734.010	-200.000	0.043	-0.282
-732.996	-148.059	-0.243	0.021
-731.981	294.244	-0.152	-0.284
-730.966	-47.384	0.112	0.056
-729.952	-87.900	-0.472	0.145
-728.937	10.666	-0.162	-0.126
-727.923	-148.910	-0.461	0.038
-726.908	36.972	-0.440	-0.396
-725.894	423.391	0.068	0.148
-724.879	-200.000	-0.033	-0.313
-723.864	-100.930	0.074	0.018
-722.850	-18.565	-0.178	0.113
-721.835	-15.125	0.085	-0.056
-720.821	554.798	0.038	-0.093
-719.806	-200.000	-0.169	0.000
-718.791	-200.000	-0.041	-0.283
-717.777	-139.357	-0.055	0.006
-716.762	29.209	-0.180	0.156
-715.748	-50.172	0.128	-0.062
-714.733	306.115	0.025	-0.048
-713.718	-165.618	-0.331	0.015
-712.704	-200.000	-0.023	-0.107
-711.689	-200.000	-0.001	0.071
-710.675	-97.297	0.239	-0.063
-709.660	-58.761	0.045	0.020
-708.645	-136.447	0.160	0.019
-707.631	-113.516	0.150	-0.030
-706.616	-78.929	0.218	0.075
-705.602	509.482	0.162	-0.383
-704.587	-71.567	-0.212	0.081
-703.572	0.218	0.086	-0.062
-702.558	800.000	-0.045	-0.129
-701.543	-200.000	-0.019	0.252
-700.529	300.833	0.127	0.238
-699.514	-107.365	0.209	0.047
-698.499	98.943	-0.218	-0.256
-697.485	50.232	0.116	-0.112
-696.470	84.245	0.162	0.180
-695.456	-142.819	-0.180	-0.018
-694.441	800.000	-0.098	-0.423
-693.426	800.000	-0.075	0.297
-692.412	800.000	0.072	-0.255
-691.397	-100.644	0.279	0.070
-690.383	-92.191	-0.174	0.050
-689.368	-43.884	-0.294	0.150
-688.354	-142.106	0.257	0.026
-687.339	-153.621	-0.172	-0.012
-686.324	-49.532	0.221	-0.107
-685.310	-170.551	0.165	-0.006
-684.295	84.770	0.089	-0.099
-683.281	-70.671	-0.125	0.048
-682.266	299.207	-0.109	-0.204
-681.251	-0.634	0.201	0.145
-680.237	-60.356	-0.283	-0.122
-679.222	-68.477	-0.416	-0.164
-678.208	800.000	-0.107	0.333
-677.193	2.517	0.099	-0.073
-676.178	311.031	-0.081	-0.154
-675.164	4.872	0.086	0.064
-674.149	-101.344	-0.131	-0.032
-673.135	-159.747	0.237	0.013
-672.120	163.128	-0.040	-0.057
-671.105	-50.280	-0.217	0.104
-670.091	193.377	0.016	-0.025
-669.076	55.817	0.271	0.267
-668.062	-20.407	-0.233	-0.145
-667.047	37.265	0.139	-0.125
-666.032	-200.000	-0.013	-0.169
-665.018	84.131	-0.228	0.253
-664.003	-19.722	0.256	-0.161
-662.989	118.855	-0.197	0.247
-661.974	477.333	0.153	-0.352
-660.959	421.694	-0.105	-0.228
-659.945	800.000	0.094	0.273
-658.930	-200.000	0.019	0.204
-657.916	-200.000	-0.043	0.192
-656.901	28.188	0.083	0.071
-655.886	-4.023	0.073	-0.052
-654.872	-57.900	0.078	0.034
-653.857	-88.485	-0.135	-0.041
-652.843	-36.274	-0.306	-0.167
-651.828	-79.031	-0.419	0.145
-650.814	-200.000	-0.060	-0.274
-649.799	-147.678	-0.224	-0.019
-648.784	87.983	0.261	-0.294
-647.770	273.058	0.148	-0.266
-646.755	113.512	-0.273	-0.336
-645.741	-200.000	-0.037	-0.350
-644.726	794.524	0.115	-0.321
-643.711	-200.000	0.033	0.173
-642.697	-133.033	-0.283	0.036
-641.682	-149.140	0.321	0.026
-640.668	142.059	-0.084	0.114
-639.653	-200.000	0.025	0.224
-638.638	-200.000	0.007	0.237
-637.624	49.545	0.165	-0.157
-636.609	800.000	0.026	-0.080
-635.595	-31.854	-0.318	-0.181
-634.580	800.000	-0.103	-0.415
-633.565	-39.340	-0.145	-0.077
-632.551	201.442	0.144	0.226
-631.536	-200.000	-0.013	0.069
-630.522	-200.000	0.022	0.173
-629.507	-200.000	-0.002	0.144
-628.492	310.935	-0.059	-0.113
-627.478	-47.530	0.091	0.045
-626.463	373.345	0.104	-0.214
-625.449	116.832	0.154	0.191
-624.434	178.184	-0.062	0.091
-623.419	-157.059	0.251	-0.016
-622.405	-60.432	-0.358	-0.154
-621.390	20.822	-0.246	-0.202
-620.376	-200.000	0.058	-0.289
-619.361	-108.455	0.142	0.031
-618.346	-200.000	0.034	-0.372
-617.332	-200.000	0.045	0.278
-616.317	-31.277	0.156	-0.089
-615.303	118.769	0.045	0.057
-614.288	-200.000	0.015	-0.163
-613.273	-142.809	-0.088	0.009
-612.259	83.511	0.176	0.194
-611.244	-200.000	-0.013	-0.106
-610.230	-200.000	-0.054	0.239
-609.215	-59.679	-0.243	0.106
-608.201	387.217	0.076	-0.160
-607.186	-200.000	0.008	0.115
-606.171	-200.000	-0.011	0.274
-605.157	-142.011	-0.061	-0.006
-604.142	-102.215	-0.122	0.030
-603.128	681.476	0.054	0.142
-602.113	-200.000	0.066	0.306
-601.098	-131.692	-0.177	-0.024
-600.084	154.671	0.059	-0.082
-599.069	-162.767	0.107	-0.005
-598.055	299.024	-0.044	0.081
-597.040	-200.000	0.016	0.176
-596.025	-34.715	0.146	0.081
-595.011	-200.000	-0.055	-0.291
-593.996	-35.264	-0.212	0.117
-592.982	-12.457	0.102	-0.067
-591.967	-107.347	-0.065	0.014
-590.952	-200.000	-0.052	0.413
-589.938	203.709	-0.100	-0.156
-588.923	-36.482	0.167	-0.091
-587.909	-107.823	-0.088	0.020
-586.894	-2.665	-0.068	-0.048
-585.879	182.444	-0.050	0.075
-584.865	-80.426	-0.218	0.074
-583.850	-125.910	-0.492	0.075
-582.836	171.076	0.060	0.087
-581.821	-200.000	-0.010	0.143
-580.806	-200.000	-0.024	0.140
-579.792	-84.981	0.100	-0.032
-578.777	9.767	-0.089	-0.068
-577.763	503.723	-0.033	-0.076
-576.748	165.511	-0.151	-0.217
-575.733	-14.535	0.055	-0.036
-574.719	97.146	0.089	-0.103
-573.704	800.000	0.061	-0.194
-572.690	21.016	-0.286	-0.235
-571.675	800.000	-0.048	-0.178
-570.661	-200.000	-0.016	-0.412
-569.646	249.718	0.044	0.075
-568.631	4.501	0.055	0.041
-567.617	0.652	-0.097	0.070
-566.602	-200.000	0.009	-0.161
-565.588	18.286	0.022	-0.017
-564.573	800.000	0.063	0.226
-563.558	421.997	0.046	-0.099
-562.544	800.000	-0.017	0.073
-561.529	-9.370	-0.114	0.077
-560.515	74.989	0.090	0.096
-559.500	-3.197	0.253	-0.179
-558.485	384.890	0.125	-0.261
-557.471	32.505	-0.125	0.109
-556.456	-200.000	-0.008	-0.092
-555.442	-200.000	-0.029	0.199
-554.427	-200.000	0.126	-0.684
-553.412	-36.851	-0.020	0.011
-552.398	800.000	-0.023	-0.099
-551.383	-160.359	-0.113	0.006
-550.369	258.989	0.114	-0.198
-549.354	-85.226	-0.172	-0.054
-548.339	800.000	-0.094	0.412
-547.325	800.000	0.100	-0.294
-546.310	176.895	0.063	-0.093
-545.296	120.245	-0.134	-0.169
-544.281	16.522	0.118	-0.094
-543.266	-131.423	-0.290	-0.039
-542.252	36.784	0.059	0.052
-541.237	48.096	0.145	0.137
-540.223	-40.181	-0.310	0.163
-539.208	-59.738	0.331	-0.143
-538.193	800.000	0.037	-0.140
-537.179	-112.091	0.184	-0.037
-536.164	-118.229	-0.259	-0.047
-535.150	800.000	0.081	-0.250
-534.135	-61.891	0.066	-0.028
-533.121	-200.000	-0.012	-0.258
-532.106	-200.000	-0.011	-0.196
-531.091	101.550	0.136	-0.160
-530.077	800.000	-0.102	-0.311
-529.062	-146.154	0.317	-0.028
-528.048	55.284	-0.118	0.115
-527.033	727.054	-0.026	-0.069
-526.018	-68.139	0.106	0.042
-525.004	-200.000	-0.002	0.179
-523.989	-54.352	0.128	0.058
-522.975	-200.000	-0.005	-0.069
-521.960	-200.000	0.044	0.281
-520.945	-200.000	-0.089	0.426
-519.931	-200.000	-0.010	-0.216
-518.916	269.848	0.061	-0.109
-517.902	-142.032	0.200	0.020
-516.887	-111.016	0.249	0.052
-515.872	535.690	0.023	0.054
-514.858	-132.609	0.459	0.059
-513.843	-62.671	-0.116	0.049
-512.829	689.367	-0.146	-0.386
-511.814	-168.136	0.517	-0.020
-510.799	-53.137	0.328	-0.152
-509.785	-199.252	0.201	0.001
-508.770	-154.625	-0.259	0.017
-507.756	204.419	0.100	-0.156
-506.741	439.729	0.056	0.124
-505.726	79.364	-0.154	0.167
-504.712	53.125	0.189	0.182
-503.697	800.000	-0.031	-0.106
-502.683	-200.000	0.010	0.248
-501.668	-200.000	-0.056	0.416
-500.653	-23.017	-0.156	0.095
-499.639	-200.000	-0.019	0.323
-498.624	18.487	-0.069	-0.056
-497.610	162.775	-0.248	-0.351
-496.595	-200.000	-0.018	-0.086
-495.581	619.400	-0.044	0.110
-494.566	-103.283	-0.101	0.024
-493.551	5.628	-0.112	-0.084
-492.537	-110.021	-0.296	0.063
-491.522	-78.915	0.106	-0.036
-490.508	800.000	-0.059	0.203
-489.493	-200.000	0.047	0.225
-488.478	-200.000	-0.005	0.146
-487.464	-198.447	0.161	0.001
-486.449	10.628	-0.219	0.168
-485.435	1.811	0.059	0.043
-484.420	59.257	0.145	0.144
-483.405	280.618	-0.187	-0.337
-482.391	-163.382	0.298	0.014
-481.376	48.258	0.259	-0.245
-480.362	-200.000	0.041	0.239
-479.347	-85.930	-0.178	0.056
-478.332	-60.742	-0.332	-0.142
-477.318	257.163	0.003	-0.005
-476.303	-140.436	0.173	0.018
-475.289	-33.207	0.213	0.119
-474.274	321.215	-0.116	-0.222
-473.259	-99.215	-0.206	0.053
-472.245	-15.038	0.118	-0.076
-471.230	143.418	0.121	-0.162
-470.216	-40.292	-0.211	-0.110
-469.201	77.622	0.062	0.067
-468.186	-82.343	-0.326	-0.107
-467.172	375.153	0.084	-0.173
-466.157	-200.000	0.071	0.404
-465.143	-144.431	0.180	0.017
-464.128	800.000	0.051	-0.156
-463.113	517.115	0.066	-0.156
-462.099	255.987	-0.164	0.284
-461.084	299.433	0.108	0.200
-460.070	11.435	0.152	0.117
-459.055	573.817	-0.077	0.188
-458.040	202.897	-0.173	0.270
-457.026	-96.757	-0.438	-0.116
-456.011	-84.201	0.086	-0.027
-454.997	21.232	0.092	-0.075
-453.982	574.250	-0.135	0.331
-452.968	-200.000	0.030	0.301
-451.953	-81.012	0.189	-0.063
-450.938	800.000	0.119	0.361
-449.924	800.000	-0.017	0.060
-448.909	-200.000	0.017	0.143
-447.895	91.687	-0.079	0.090
-446.880	-94.329	0.395	0.109
-445.865	-88.055	-0.264	0.080
-444.851	-119.847	-0.274	-0.047
-443.836	-120.815	-0.291	0.049
-442.822	-30.143	0.180	-0.103
-441.807	-22.732	0.138	0.084
-440.792	-55.781	-0.219	0.099
-439.778	-200.000	-0.057	0.270
-438.763	-96.988	-0.222	0.059
-437.749	-200.000	0.022	-0.116
-436.734	-96.860	-0.162	-0.043
-435.719	-200.000	-0.017	-0.157
-434.705	-200.000	-0.036	0.201
-433.690	-121.859	0.178	-0.030
-432.676	25.123	0.255	0.213
-431.661	-200.000	0.032	-0.224
-430.646	522.976	-0.076	-0.179
-429.632	6.659	-0.140	0.105
-428.617	-200.000	-0.001	-0.123
-427.603	52.729	0.190	-0.182
-426.588	135.052	-0.055	-0.072
-425.573	-52.219	0.198	-0.093
-424.559	-87.973	-0.213	0.065
-423.544	25.715	-0.246	-0.206
-422.530	-29.102	-0.216	0.125
-421.515	-117.608	-0.129	0.023
-420.500	800.000	-0.072	0.275
-419.486	-200.000	-0.007	0.149
-418.471	216.047	0.110	-0.176
-417.457	-3.182	0.143	0.100
-416.442	48.346	-0.153	0.144
-415.428	214.572	0.096	-0.153
-414.413	285.457	0.138	-0.250
-413.398	-110.949	-0.046	0.009
-412.384	800.000	-0.138	0.495
-411.369	47.555	0.036	-0.033
-410.355	8.740	0.145	0.110
-409.340	-179.216	-0.024	0.001
-408.325	800.000	-0.045	-0.147
-407.311	189.618	-0.098	0.147
-406.296	22.535	-0.251	-0.206
-405.282	-85.599	0.222	-0.069
-404.267	27.046	-0.221	0.186
-403.252	-200.000	0.013	0.217
-402.238	-54.232	0.171	-0.078
-401.223	234.021	-0.191	-0.317
-400.209	-176.187	-0.319	-0.008
-399.194	-200.000	-0.032	0.525
-398.179	-46.996	-0.252	-0.123
-397.165	-88.348	0.252	-0.076
-396.150	-200.000	0.016	-0.089
-395.136	12.434	0.110	0.085
-394.121	-84.194	0.231	0.074
-393.106	-21.028	-0.256	-0.157
-392.092	-200.000	0.015	-0.227
-391.077	328.087	0.096	0.185
-390.063	89.484	0.115	-0.129
-389.048	-200.000	-0.012	0.167
-388.033	-138.457	0.057	-0.006
-387.019	-200.000	-0.023	0.226
-386.004	-83.653	0.037	-0.012
-384.990	736.531	0.112	0.302
-383.975	-62.396	-0.132	-0.055
-382.960	-106.640	-0.289	-0.065
-381.946	-200.000	0.024	0.118
-380.931	-139.393	0.425	0.046
-379.917	-200.000	0.009	-0.146
-378.902	469.506	0.076	0.172
-377.888	-200.000	0.083	0.386
-376.873	-200.000	-0.028	0.175
-375.858	0.812	0.307	0.221
-374.844	-84.715	-0.203	0.064
-373.829	223.597	0.105	-0.170
-372.815	-98.753	-0.136	-0.035
-371.800	-200.000	0.022	-0.266
-370.785	307.148	-0.084	-0.157
-369.771	-142.016	0.299	-0.030
-368.756	-200.000	-0.027	-0.173
-367.742	793.347	0.024	-0.065
-366.727	143.739	0.139	0.186
-365.712	-14.193	-0.209	-0.135
-364.698	38.045	0.087	0.078
-363.683	280.927	0.060	0.108
-362.669	-2.169	0.018	-0.012
-361.654	63.079	0.218	0.220
-360.639	-55.794	-0.159	0.071
-359.625	279.035	-0.055	-0.099
-358.610	-69.441	-0.085	0.033
-357.596	-82.880	0.136	0.044
-356.581	-7.676	-0.336	0.228
-355.566	88.192	-0.099	0.110
-354.552	-25.551	0.395	0.234
-353.537	100.714	-0.180	-0.210
-352.523	-200.000	-0.058	0.341
-351.508	-23.433	0.233	0.141
-350.493	-200.000	0.010	-0.517
-349.479	-200.000	0.002	0.105
-348.464	-120.076	-0.113	-0.019
-347.450	-124.899	-0.136	-0.021
-346.435	53.769	0.161	0.155
-345.420	248.183	-0.073	0.123
-344.406	71.682	0.222	0.231
-343.391	196.339	-0.147	0.224
-342.377	-153.164	-0.307	-0.022
-341.362	110.635	0.073	-0.088
-340.348	-61.763	0.042	0.018
-339.333	252.294	0.106	0.181
-338.318	-110.964	0.323	-0.067
-337.304	-30.886	-0.228	-0.129
-336.289	800.000	-0.059	-0.216
-335.275	184.018	0.161	0.238
-334.260	185.025	0.040	0.059
-333.245	490.510	0.079	0.182
-332.231	-200.000	0.004	0.072
-331.216	-9.472	-0.100	0.067
-330.202	-37.266	0.123	-0.066
-329.187	26.204	-0.339	0.284
-328.172	91.171	-0.095	0.107
-327.158	-200.000	0.027	-0.227
-326.143	-31.997	-0.253	-0.142
-325.129	-200.000	0.001	-0.202
-324.114	-200.000	0.016	0.152
-323.099	-173.407	0.275	0.008
-322.085	177.525	-0.086	-0.126
-321.070	-132.903	0.194	-0.025
-320.056	517.439	0.139	-0.326
-319.041	355.296	0.038	0.075
-318.026	-141.996	-0.249	0.025
-317.012	20.225	-0.254	-0.206
-315.997	-200.000	0.016	0.082
-314.983	-140.910	-0.337	-0.035
-313.968	27.967	0.222	-0.187
-312.953	-162.691	0.186	-0.009
-311.939	-200.000	0.019	-0.407
-310.924	683.930	-0.074	0.193
-309.910	-100.770	-0.103	-0.025
-308.895	-25.934	-0.316	-0.186
-307.880	-39.444	-0.145	-0.076
-306.866	800.000	-0.111	-0.418
-305.851	-101.818	0.077	-0.019
-304.837	-117.061	-0.212	-0.039
-303.822	-77.629	-0.377	-0.131
-302.807	265.700	-0.123	-0.214
-301.793	-74.480	0.257	0.093
-300.778	-200.000	-0.017	0.111
-299.764	-3.470	-0.077	-0.054
-298.749	525.295	0.029	0.068
-297.735	-200.000	-0.083	0.402
-296.720	-52.602	0.116	0.054
-295.705	-90.620	0.085	0.025
-294.691	-200.000	-0.010	0.125
-293.676	124.107	0.033	-0.041
-292.662	800.000	-0.036	-0.099
-291.647	-42.130	0.357	-0.183
-290.632	13.433	-0.150	-0.116
-289.618	51.013	-0.120	-0.114
-288.603	-200.000	0.085	0.446
-287.589	-102.082	0.312	0.075
-286.574	-200.000	-0.019	0.325
-285.559	-200.000	0.003	0.042
-284.545	392.406	0.003	-0.007
-283.530	324.411	-0.095	0.181
-282.516	-200.000	0.181	0.000
-281.501	-51.937	0.157	-0.073
-280.486	5.145	-0.190	0.140
-279.472	-200.000	-0.005	0.065
-278.457	-148.128	0.079	0.007
-277.443	96.221	0.107	-0.123
-276.428	800.000	-0.056	0.233
-275.413	-42.820	-0.206	-0.105
-274.399	-12.715	-0.196	-0.127
-273.384	-192.009	0.236	-0.002
-272.370	-12.271	0.093	-0.061
-271.355	800.000	0.100	-0.334
-270.340	337.862	-0.074	-0.144
-269.326	229.924	-0.100	0.163
-268.311	460.097	-0.073	0.162
-267.297	230.893	-0.153	0.251
-266.282	-71.773	0.078	0.029
-265.267	-62.962	0.223	-0.092
-264.253	295.387	-0.184	0.337
-263.238	38.264	-0.325	0.289
-262.224	-56.980	0.047	-0.021
-261.209	5.370	0.177	-0.130
-260.195	139.406	-0.159	-0.210
-259.180	-20.958	-0.205	0.126
-258.165	-131.858	0.093	-0.012
-257.151	-117.689	0.143	-0.026
-256.136	725.542	-0.105	-0.280
-255.122	-38.512	0.039	0.021
-254.107	22.334	0.162	0.132
-253.092	-128.366	-0.196	-0.028
-252.078	-129.085	0.219	0.031
-251.063	-131.646	-0.179	0.024
-250.049	-200.000	0.034	-0.174
-249.034	129.400	0.038	0.048
-248.019	-82.863	-0.124	0.040
-247.005	800.000	0.038	0.159
-245.990	223.889	0.098	0.158
-244.976	-80.700	-0.128	0.043
-243.961	316.860	0.056	-0.105
-242.946	-132.839	0.043	0.005
-241.932	-54.922	0.283	-0.127
-240.917	-33.267	0.183	-0.101
-239.903	45.057	0.078	-0.071
-238.888	-37.610	-0.140	-0.075
-237.873	800.000	-0.093	0.271
-236.859	20.676	0.223	0.180
-235.844	-20.787	-0.003	-0.002
-234.830	-200.000	0.064	0.328
-233.815	-134.704	-0.145	-0.018
-232.800	-63.187	0.386	-0.159
-231.786	32.819	0.180	-0.156
-230.771	214.215	-0.010	-0.016
-229.757	-108.283	0.024	0.005
-228.742	-44.403	-0.274	0.137
-227.727	-200.000	-0.028	0.233
-226.713	92.192	-0.089	-0.100
-225.698	94.627	0.162	0.184
-224.684	122.667	0.175	0.218
-223.669	564.090	-0.109	0.263
-222.655	217.893	0.128	0.204
-221.640	33.590	0.155	0.134
-220.625	-33.791	0.199	0.110
-219.611	245.900	0.103	0.173
-218.596	377.539	-0.057	0.116
-217.582	42.017	0.302	0.274
-216.567	-140.261	0.313	0.033
-215.552	202.265	0.159	-0.244
-214.538	-102.944	0.184	-0.044
-213.523	151.914	-0.154	-0.210
-212.509	123.920	0.107	0.135
-211.494	-28.305	0.056	-0.032
-210.479	118.596	-0.077	0.095
-209.465	-143.520	-0.136	0.013
-208.450	47.522	0.204	-0.190
-207.436	129.949	0.082	-0.105
-206.421	28.221	0.318	-0.268
-205.406	312.620	0.055	-0.104
-204.392	-131.205	0.024	-0.003
-203.377	-200.000	-0.015	0.164
-202.363	-27.101	-0.164	-0.095
-201.348	-29.950	0.170	0.097
-200.333	800.000	0.016	-0.063
-199.319	-200.000	0.052	0.232
-198.304	-200.000	0.017	-0.317
-197.290	800.000	0.031	0.085
-196.275	-200.000	0.068	-0.307
-195.260	96.690	0.045	-0.052
-194.246	-200.000	-0.034	0.180
-193.231	587.956	0.060	-0.146
-192.217	-1.787	0.163	-0.114
-191.202	57.973	0.216	-0.211
-190.187	-65.231	0.365	-0.147
-189.173	-200.000	-0.013	-0.330
-188.158	-15.671	-0.104	-0.066
-187.144	-67.083	-0.085	0.033
-186.129	-72.132	0.100	-0.037
-185.114	30.002	-0.054	0.046
-184.100	285.892	0.051	0.092
-183.085	-200.000	0.001	0.158
-182.071	-133.766	-0.152	0.019
-181.056	-115.787	-0.426	-0.079
-180.042	0.265	-0.328	-0.233
-179.027	-11.951	-0.320	-0.209
-178.012	63.337	0.135	0.135
-176.998	800.000	-0.060	-0.178
-175.983	-56.403	0.168	-0.074
-174.969	-53.682	-0.129	-0.059
-173.954	158.015	-0.287	0.396
-172.939	-162.098	0.099	0.005
-171.925	-34.215	-0.080	0.044
-170.910	88.179	-0.138	-0.153
-169.896	-200.000	-0.047	-0.314
-168.881	56.813	-0.158	-0.153
-167.866	-47.299	-0.158	-0.077
-166.852	104.658	0.115	0.135
-165.837	-51.287	-0.176	0.082
-164.823	-112.163	0.254	0.051
-163.808	-123.631	-0.265	-0.042
-162.793	-200.000	-0.016	0.228
-161.779	-19.040	0.326	-0.202
-160.764	189.336	-0.088	-0.131
-159.750	42.014	-0.268	-0.243
-158.735	118.458	0.359	-0.441
-157.720	-179.307	0.265	-0.006
-156.706	20.223	-0.163	0.131
-155.691	-146.838	-0.402	-0.034
-154.677	-200.000	0.062	-0.280
-153.662	-65.282	-0.304	-0.122
-152.647	-71.142	0.120	-0.045
-151.633	-200.000	0.032	-0.271
-150.618	275.740	0.176	-0.310
-149.604	11.411	0.330	-0.252
-148.589	800.000	0.045	0.172
-147.574	-136.798	0.415	0.048
-146.560	-200.000	0.039	-0.258
-145.545	175.134	-0.081	0.117
-144.531	43.055	0.182	0.165
-143.516	433.873	0.082	0.177
-142.502	-200.000	0.041	0.406
-141.487	800.000	0.160	0.601
-140.472	142.514	0.153	0.202
-139.458	292.454	-0.191	0.347
-138.443	-141.810	-0.053	-0.005
-137.429	800.000	-0.086	0.320
-136.414	16.788	-0.192	-0.151
-135.399	128.067	0.124	-0.157
-134.385	69.761	0.139	0.142
-133.370	-151.975	-0.033	-0.002
-132.356	-158.014	-0.131	-0.008
-131.341	-200.000	-0.018	0.453
-130.326	100.903	0.362	0.418
-129.312	357.862	-0.198	-0.393
-128.297	70.795	-0.151	-0.155
-127.283	79.706	-0.055	0.058
-126.268	-83.575	-0.251	0.080
-125.253	83.622	0.310	0.336
-124.239	-200.000	0.014	-0.072
-123.224	-200.000	0.004	-0.100
-122.210	-191.062	0.226	-0.002
