DTS Sentinel unit serial number:	SN413079Multiplexer serial number:	ORYXHardware model number:	OX4-SRSoftware version number:	ORYX F/W v4.00 Oryx Data Collector v3.7.2.0data status	okinstallation	princeton_trtdifferential loss correction	single-endedforward channel	channel 3reverse channel	N/Adate	2019/09/17time	14:52:35forward acquisition time	60.00reverse acquisition time	0.00gamma	496.2192k internal	0.2296k external	0.2296temperature offset calibration	0.9956default loss term (dB/km)	0.3790temperature slope calibration	1.0000multiplexer offset coefficient	1.0000multiplexer slope coefficient	1.0000fibre end	0.00T internal ref (°C)	37.14T ext. ref 1 (°C)	0.40T ext. ref 2 (°C)	34.13length (m)	temperature (°C)	Stokes	anti-Stokes-747.200	2.589	0.265	0.196
-746.185	800.000	0.090	0.283
-745.171	-197.664	0.309	-0.002
-744.156	387.022	-0.148	0.313
-743.142	-62.344	0.210	0.089
-742.127	800.000	-0.061	0.235
-741.112	-200.000	0.050	-0.253
-740.098	96.000	0.161	0.188
-739.083	734.237	0.018	0.050
-738.069	-200.000	-0.032	-0.168
-737.054	254.699	-0.122	-0.213
-736.039	-112.257	-0.193	-0.039
-735.025	-90.201	0.116	0.035
-734.010	-164.706	-0.210	0.010
-732.996	800.000	-0.022	-0.083
-731.981	623.202	0.031	-0.080
-730.966	800.000	0.022	-0.065
-729.952	-73.615	-0.027	-0.010
-728.937	-200.000	0.004	-0.109
-727.923	-9.042	-0.199	-0.136
-726.908	-35.558	-0.202	0.112
-725.894	-105.690	-0.395	-0.091
-724.879	28.857	-0.114	-0.099
-723.864	29.590	-0.144	0.125
-722.850	376.405	-0.184	-0.383
-721.835	-110.239	-0.209	0.045
-720.821	23.396	0.127	0.106
-719.806	5.083	-0.307	-0.230
-718.791	-81.393	-0.323	0.109
-717.777	419.732	-0.097	0.212
-716.762	800.000	0.021	0.074
-715.748	-151.422	0.493	-0.037
-714.733	38.878	-0.216	-0.197
-713.718	2.102	0.072	0.053
-712.704	-26.772	0.092	-0.055
-711.689	-24.808	-0.083	0.050
-710.675	-83.179	0.050	0.016
-709.660	-200.000	0.036	0.328
-708.645	-200.000	0.010	-0.124
-707.631	130.831	0.212	0.277
-706.616	87.614	0.206	0.232
-705.602	-7.193	-0.268	0.185
-704.587	-6.948	-0.161	-0.111
-703.572	-71.880	-0.057	0.022
-702.558	800.000	0.022	0.082
-701.543	-109.476	-0.285	-0.061
-700.529	-116.787	-0.283	-0.053
-699.514	-20.719	0.252	0.158
-698.499	47.174	0.074	-0.070
-697.485	22.019	-0.005	-0.004
-696.470	800.000	-0.116	-0.355
-695.456	-60.815	0.413	0.178
-694.441	800.000	-0.080	-0.302
-693.426	34.012	0.114	-0.101
-692.412	425.927	-0.046	0.102
-691.397	-45.367	-0.343	-0.173
-690.383	20.448	0.148	-0.122
-689.368	-73.383	0.220	-0.082
-688.354	13.449	-0.127	0.100
-687.339	-200.000	-0.022	0.177
-686.324	-85.288	0.165	0.053
-685.310	-101.701	-0.061	0.015
-684.295	400.255	0.120	0.257
-683.281	16.996	-0.276	0.223
-682.266	413.703	-0.078	0.169
-681.251	187.136	-0.076	0.115
-680.237	-178.411	-0.157	-0.004
-679.222	800.000	-0.078	0.256
-678.208	579.088	0.041	0.102
-677.193	270.429	0.170	0.304
-676.178	-121.411	0.199	-0.034
-675.164	19.077	-0.144	0.117
-674.149	-63.575	-0.128	-0.053
-673.135	-74.392	-0.107	-0.039
-672.120	-19.248	0.271	-0.172
-671.105	124.468	-0.069	-0.089
-670.091	64.910	-0.240	0.247
-669.076	-200.000	0.010	-0.070
-668.062	-10.332	0.426	-0.288
-667.047	-80.180	0.286	-0.097
-666.032	800.000	0.053	-0.227
-665.018	-175.060	0.271	-0.008
-664.003	43.570	0.076	0.071
-662.989	-103.199	-0.191	0.046
-661.974	-22.063	-0.047	-0.029
-660.959	-106.838	0.139	-0.031
-659.945	-106.332	-0.081	-0.019
-658.930	-166.416	-0.202	0.009
-657.916	-158.413	0.136	-0.008
-656.901	-45.253	-0.133	0.067
-655.886	-11.700	0.247	-0.165
-654.872	28.961	-0.286	-0.247
-653.857	-200.000	0.022	-0.431
-652.843	-121.241	0.383	-0.065
-651.828	33.008	-0.275	0.243
-650.814	-200.000	0.040	-0.194
-649.799	277.274	-0.213	-0.386
-648.784	-200.000	0.010	-0.077
-647.770	204.236	0.015	-0.023
-646.755	72.803	0.102	0.109
-645.741	-200.000	0.092	0.562
-644.726	67.801	-0.245	-0.255
-643.711	-135.203	-0.312	-0.038
-642.697	48.784	0.140	-0.134
-641.682	-200.000	0.006	0.181
-640.668	-83.958	0.221	-0.072
-639.653	-108.861	-0.220	-0.048
-638.638	323.131	-0.082	-0.159
-637.624	-130.935	-0.292	-0.040
-636.609	-6.158	0.162	0.112
-635.595	43.160	0.281	0.261
-634.580	423.148	0.091	0.200
-633.565	658.130	-0.130	0.339
-632.551	-82.255	-0.253	0.084
-631.536	-11.450	-0.397	0.266
-630.522	413.727	-0.134	-0.291
-629.507	140.603	0.165	0.222
-628.492	584.764	0.055	-0.138
-627.478	-134.980	0.033	-0.004
-626.463	11.010	-0.234	0.182
-625.449	800.000	-0.087	-0.300
-624.434	-131.284	-0.137	-0.019
-623.419	-109.102	-0.153	-0.033
-622.405	35.131	0.107	0.095
-621.390	-70.476	0.256	0.099
-620.376	133.680	-0.025	0.033
-619.361	85.007	-0.224	-0.250
-618.346	3.538	0.350	-0.260
-617.332	-200.000	0.034	-0.157
-616.317	-181.763	-0.145	0.003
-615.303	800.000	-0.102	0.326
-614.288	-74.805	-0.386	-0.141
-613.273	-68.629	-0.045	0.018
-612.259	264.111	-0.100	0.177
-611.244	-180.166	-0.207	0.004
-610.230	4.619	-0.123	-0.092
-609.215	268.340	0.103	0.184
-608.201	195.084	-0.238	-0.368
-607.186	695.170	0.041	-0.109
-606.171	-77.299	-0.184	-0.065
-605.157	739.074	-0.103	0.281
-604.142	-64.207	0.142	-0.059
-603.128	423.290	-0.225	-0.490
-602.113	451.493	0.140	-0.315
-601.098	61.772	0.162	-0.164
-600.084	-200.000	-0.014	-0.138
-599.069	-49.489	0.164	-0.079
-598.055	-52.348	-0.208	0.098
-597.040	800.000	0.069	0.210
-596.025	800.000	-0.089	-0.314
-595.011	-70.060	-0.220	-0.085
-593.996	-123.637	-0.342	0.055
-592.982	-116.371	0.099	0.019
-591.967	505.518	0.056	0.132
-590.952	66.304	-0.137	0.142
-589.938	-148.471	-0.246	0.020
-588.923	-5.104	0.106	0.074
-587.909	-36.811	0.191	-0.104
-586.894	-96.983	0.196	-0.052
-585.879	-200.000	-0.027	-0.216
-584.865	-95.830	0.107	0.029
-583.850	-126.665	-0.210	-0.032
-582.836	-94.850	0.112	0.031
-581.821	-200.000	-0.025	-0.236
-580.806	-64.506	-0.024	0.010
-579.792	-109.219	-0.336	-0.073
-578.777	-162.445	0.357	0.018
-577.763	-58.133	0.218	-0.096
-576.748	-73.106	-0.186	0.069
-575.733	19.407	-0.156	-0.127
-574.719	-43.036	-0.138	-0.071
-573.704	48.300	0.129	0.123
-572.690	-200.000	-0.045	0.294
-571.675	-83.809	-0.490	0.158
-570.661	210.731	-0.163	-0.260
-569.646	-200.000	0.048	-0.327
-568.631	-35.759	0.265	-0.146
-567.617	732.698	-0.059	0.161
-566.602	-200.000	-0.037	-0.296
-565.588	-172.603	-0.236	-0.008
-564.573	-28.238	0.126	0.074
-563.558	57.961	0.174	-0.173
-562.544	-50.507	0.177	0.085
-561.529	256.540	-0.245	0.426
-560.515	-2.523	-0.291	0.207
-559.500	-200.000	0.017	0.150
-558.485	-78.014	0.214	0.075
-557.471	-123.854	-0.136	0.022
-556.456	-200.000	0.020	-0.305
-555.442	202.602	0.109	-0.171
-554.427	536.596	0.040	0.097
-553.412	-46.761	0.347	-0.172
-552.398	-70.870	-0.216	-0.082
-551.383	15.734	-0.193	0.154
-550.369	-162.895	-0.117	0.006
-549.354	-22.390	0.014	-0.009
-548.339	800.000	0.088	0.294
-547.325	-200.000	0.051	0.432
-546.310	319.579	0.117	0.224
-545.296	113.360	0.105	0.129
-544.281	133.356	-0.013	-0.017
-543.266	160.168	0.073	0.103
-542.252	-86.247	0.223	-0.070
-541.237	-69.207	0.177	0.069
-540.223	-200.000	-0.042	0.195
-539.208	-115.383	-0.457	0.087
-538.193	17.488	0.165	-0.133
-537.179	800.000	0.024	-0.078
-536.164	65.362	-0.007	-0.008
-535.150	-37.902	-0.095	-0.051
-534.135	800.000	-0.089	-0.361
-533.121	800.000	0.124	-0.415
-532.106	-136.837	0.159	-0.019
-531.091	-72.952	0.093	0.035
-530.077	-200.000	0.100	0.602
-529.062	-200.000	-0.010	0.061
-528.048	167.809	-0.043	-0.062
-527.033	-200.000	0.027	-0.192
-526.018	-150.603	-0.186	0.014
-525.004	-200.000	-0.048	0.383
-523.989	-27.826	0.253	-0.148
-522.975	0.212	0.162	-0.117
-521.960	-200.000	0.007	-0.035
-520.945	-35.630	-0.322	0.177
-519.931	-200.000	-0.002	-0.238
-518.916	-200.000	0.025	0.184
-517.902	-36.462	-0.218	0.119
-516.887	-200.000	0.016	-0.144
-515.872	476.869	-0.071	-0.164
-514.858	-200.000	-0.032	0.175
-513.843	-50.695	0.144	0.069
-512.829	800.000	-0.035	0.145
-511.814	223.808	-0.113	-0.185
-510.799	-48.866	-0.175	-0.085
-509.785	-200.000	0.011	-0.174
-508.770	-200.000	0.020	-0.166
-507.756	419.088	0.109	0.236
-506.741	17.077	0.088	0.071
-505.726	-42.804	0.236	-0.121
-504.712	-81.790	-0.259	0.086
-503.697	-16.950	0.152	-0.097
-502.683	-200.000	-0.012	-0.121
-501.668	353.859	-0.038	-0.076
-500.653	-44.898	0.111	0.056
-499.639	-123.851	0.187	0.030
-498.624	295.986	0.112	-0.207
-497.610	-200.000	-0.020	-0.578
-496.595	-20.598	0.113	0.070
-495.581	100.535	-0.104	-0.122
-494.566	800.000	0.088	0.292
-493.551	-170.059	0.330	0.012
-492.537	-200.000	0.021	0.282
-491.522	-200.000	-0.054	0.292
-490.508	-200.000	-0.032	0.000
-489.493	131.698	-0.249	0.324
-488.478	-110.993	-0.467	0.097
-487.464	533.000	0.103	-0.246
-486.449	-156.031	0.312	-0.020
-485.435	-18.953	-0.043	0.027
-484.420	-200.000	-0.026	0.179
-483.405	-200.000	0.027	0.192
-482.391	644.124	-0.147	0.379
-481.376	800.000	-0.073	0.253
-480.362	-57.686	0.276	0.122
-479.347	625.440	0.069	-0.176
-478.332	144.968	0.119	-0.161
-477.318	235.218	-0.043	-0.072
-476.303	800.000	0.110	0.329
-475.289	-88.765	-0.187	0.056
-474.274	800.000	-0.034	0.116
-473.259	226.640	0.101	-0.165
-472.245	-200.000	-0.036	-0.170
-471.230	257.613	0.099	0.172
-470.216	12.208	0.280	0.218
-469.201	-200.000	0.014	-0.194
-468.186	-39.414	0.344	-0.182
-467.172	-36.843	-0.126	0.069
-466.157	36.561	-0.203	0.181
-465.143	-200.000	0.001	-0.274
-464.128	-30.714	-0.332	0.190
-463.113	-50.349	0.408	-0.195
-462.099	-44.652	0.157	-0.079
-461.084	800.000	0.079	-0.245
-460.070	800.000	0.069	-0.268
-459.055	22.922	0.111	0.092
-458.040	172.983	0.094	0.137
-457.026	437.704	-0.079	-0.175
-456.011	-84.313	-0.144	-0.046
-454.997	86.583	-0.109	-0.122
-453.982	329.754	-0.171	-0.333
-452.968	-200.000	0.057	-0.312
-451.953	800.000	0.016	-0.050
-450.938	-200.000	0.035	-0.245
-449.924	800.000	0.128	-0.385
-448.909	433.387	0.115	0.251
-447.895	-9.321	0.159	0.107
-446.880	168.771	-0.207	-0.297
-445.865	-200.000	0.014	0.126
-444.851	800.000	0.048	-0.166
-443.836	800.000	-0.098	0.343
-442.822	-77.468	-0.093	0.033
-441.807	104.782	0.107	0.127
-440.792	129.094	-0.182	0.234
-439.778	800.000	0.052	0.166
-438.763	-176.777	-0.144	0.004
-437.749	800.000	0.077	0.259
-436.734	-8.983	0.142	-0.096
-435.719	67.104	-0.117	-0.121
-434.705	244.314	-0.114	0.194
-433.690	-38.159	0.377	0.202
-432.676	-114.398	-0.287	-0.056
-431.661	-56.710	-0.290	0.130
-430.646	18.791	-0.260	0.210
-429.632	-98.792	-0.166	-0.043
-428.617	-22.214	0.178	0.109
-427.603	-200.000	0.013	-0.184
-426.588	-200.000	-0.062	-0.463
-425.573	297.090	0.138	-0.256
-424.559	-66.471	-0.352	0.141
-423.544	-73.107	0.129	0.048
-422.530	59.623	-0.205	-0.204
-421.515	-44.319	0.127	0.064
-420.500	-200.000	0.008	0.171
-419.486	-77.612	-0.358	0.125
-418.471	-62.183	0.357	0.150
-417.457	-200.000	0.046	-0.215
-416.442	192.200	0.060	-0.092
-415.428	-148.782	0.398	0.033
-414.413	800.000	0.033	0.111
-413.398	-200.000	-0.007	0.108
-412.384	34.678	0.065	-0.058
-411.369	-63.450	-0.171	-0.071
-410.355	-118.081	0.078	0.014
-409.340	149.567	0.071	-0.097
-408.325	47.986	-0.256	0.242
-407.311	146.962	0.074	0.100
-406.296	-34.356	0.192	-0.106
-405.282	148.473	-0.100	-0.136
-404.267	-150.531	0.252	0.019
-403.252	-50.371	-0.096	0.046
-402.238	112.529	0.104	-0.127
-401.223	-200.000	0.061	-0.331
-400.209	20.601	-0.092	-0.075
-399.194	-10.854	-0.117	-0.078
-398.179	-36.029	-0.166	-0.091
-397.165	691.104	0.011	0.028
-396.150	113.382	-0.219	0.268
-395.136	145.692	-0.055	-0.075
-394.121	-50.628	0.248	-0.118
-393.106	-200.000	0.004	-0.162
-392.092	-200.000	-0.035	-0.180
-391.077	77.274	-0.085	0.091
-390.063	70.393	0.200	-0.208
-389.048	112.778	0.342	-0.417
-388.033	-143.468	0.123	-0.012
-387.019	-99.151	-0.056	-0.014
-386.004	2.378	-0.113	-0.082
-384.990	-71.917	0.114	-0.043
-383.975	800.000	0.034	-0.102
-382.960	-115.850	-0.419	-0.079
-381.946	365.365	-0.115	-0.233
-380.931	102.142	0.207	-0.243
-379.917	84.640	0.018	0.020
-378.902	-200.000	0.032	0.250
-377.888	-172.207	-0.142	-0.005
-376.873	174.304	0.236	-0.344
-375.858	-17.251	0.228	0.145
-374.844	-200.000	0.042	-0.245
-373.829	-200.000	0.005	-0.125
-372.815	562.899	0.053	-0.128
-371.800	-200.000	-0.013	0.333
-370.785	719.464	0.056	-0.149
-369.771	-109.963	-0.280	-0.059
-368.756	-9.694	0.083	-0.056
-367.742	145.386	0.110	-0.148
-366.727	-200.000	-0.015	-0.078
-365.712	-200.000	0.001	0.079
-364.698	257.916	-0.037	-0.064
-363.683	161.587	-0.138	-0.194
-362.669	800.000	0.105	0.325
-361.654	9.634	0.085	0.065
-360.639	72.845	-0.267	-0.281
-359.625	-3.685	0.207	0.145
-358.610	125.364	0.191	0.242
-357.596	270.103	0.064	0.113
-356.581	-158.723	-0.290	-0.017
-355.566	293.644	0.080	-0.146
-354.552	-152.609	0.206	-0.015
-353.537	1.535	0.179	-0.130
-352.523	-200.000	-0.028	-0.125
-351.508	-200.000	-0.031	0.166
-350.493	681.686	0.110	-0.289
-349.479	-83.123	-0.307	-0.099
-348.464	-72.330	-0.083	-0.031
-347.450	359.056	0.037	-0.074
-346.435	-200.000	0.034	-0.152
-345.420	-98.993	0.166	-0.042
-344.406	-58.264	-0.162	0.071
-343.391	27.163	0.036	-0.031
-342.377	-200.000	0.014	0.063
-341.362	-127.136	-0.198	-0.029
-340.348	196.566	0.068	0.105
-339.333	36.348	-0.102	0.090
-338.318	443.318	0.153	0.337
-337.304	-0.653	0.118	0.084
-336.289	272.971	-0.050	-0.089
-335.275	-64.946	0.064	-0.026
-334.260	75.228	0.109	0.116
-333.245	-200.000	0.008	0.310
-332.231	800.000	-0.103	-0.365
-331.216	97.896	-0.051	-0.059
-330.202	-200.000	-0.015	-0.066
-329.187	-200.000	0.023	-0.283
-328.172	-134.737	0.169	0.021
-327.158	-53.740	-0.300	-0.138
-326.143	-79.538	0.166	0.056
-325.129	367.155	0.023	0.047
-324.114	-120.927	0.199	-0.034
-323.099	29.888	0.102	-0.088
-322.085	48.457	-0.061	-0.058
-321.070	-36.661	-0.049	-0.026
-320.056	109.985	-0.056	0.068
-319.041	-88.302	0.253	-0.076
-318.026	-200.000	-0.008	0.051
-317.012	-125.339	0.230	-0.035
-315.997	-200.000	-0.024	0.391
-314.983	7.973	0.066	0.050
-313.968	13.445	0.220	0.172
-312.953	-12.884	-0.115	-0.075
-311.939	-14.489	-0.085	0.055
-310.924	175.138	-0.122	-0.178
-309.910	160.198	0.302	0.423
-308.895	649.500	0.073	0.187
-307.880	-55.793	-0.029	0.013
-306.866	104.232	-0.098	0.116
-305.851	26.037	0.135	-0.113
-304.837	111.515	-0.074	0.089
-303.822	-41.485	-0.225	-0.116
-302.807	343.231	0.137	0.270
-301.793	-200.000	-0.051	0.287
-300.778	-168.077	-0.148	0.006
-299.764	112.026	0.155	0.188
-298.749	-200.000	0.041	-0.190
-297.735	-126.678	-0.052	-0.008
-296.720	800.000	0.052	0.148
-295.705	245.660	-0.158	-0.267
-294.691	71.712	-0.069	0.072
-293.676	43.581	-0.151	-0.138
-292.662	-2.700	0.158	-0.111
-291.647	-54.199	0.275	-0.125
-290.632	800.000	-0.063	-0.221
-289.618	654.412	-0.140	0.360
-288.603	-8.111	-0.215	-0.145
-287.589	63.022	0.249	0.250
-286.574	-200.000	0.040	0.431
-285.559	44.834	-0.088	-0.081
-284.545	-74.873	0.122	0.044
-283.530	-84.319	-0.497	-0.158
-282.516	138.116	0.093	-0.123
-281.501	-126.867	0.046	0.007
-280.486	81.150	-0.231	0.251
-279.472	-200.000	0.070	0.401
-278.457	122.139	-0.108	0.135
-277.443	118.473	-0.127	0.157
-276.428	-183.723	-0.269	-0.005
-275.413	444.281	0.063	0.139
-274.399	-117.567	0.087	0.016
-273.384	800.000	-0.098	0.287
-272.370	-200.000	-0.032	0.412
-271.355	170.969	0.128	-0.185
-270.340	800.000	-0.059	0.248
-269.326	-200.000	-0.009	-0.145
-268.311	9.750	-0.226	-0.172
-267.297	-26.409	0.486	-0.286
-266.282	-200.000	-0.032	0.235
-265.267	74.829	0.049	0.051
-264.253	569.735	-0.096	-0.235
-263.238	-200.000	0.056	0.254
-262.224	800.000	-0.139	0.480
-261.209	-200.000	-0.041	0.403
-260.195	800.000	0.063	0.257
-259.180	-9.346	0.323	-0.216
-258.165	42.837	-0.235	0.214
-257.151	215.657	0.096	-0.152
-256.136	-20.168	-0.119	-0.073
-255.122	191.587	0.107	-0.161
-254.107	-22.058	-0.091	0.055
-253.092	-154.354	-0.190	0.013
-252.078	3.238	0.254	-0.185
-251.063	29.555	0.223	-0.190
-250.049	-200.000	-0.003	0.209
-249.034	-129.230	0.161	0.022
-248.019	-200.000	-0.025	-0.187
-247.005	-200.000	0.043	-0.265
-245.990	800.000	0.092	-0.295
-244.976	-41.598	-0.239	0.123
-243.961	361.609	0.078	-0.157
-242.946	115.713	0.066	-0.081
-241.932	195.335	0.106	0.161
-240.917	222.436	-0.079	0.127
-239.903	206.859	0.107	0.167
-238.888	126.409	0.084	-0.107
-237.873	763.602	-0.088	-0.239
-236.859	-146.114	-0.447	0.039
-235.844	-90.358	-0.069	0.020
-234.830	800.000	-0.029	0.098
-233.815	-27.176	-0.122	-0.071
-232.800	42.627	0.173	-0.158
-231.786	-200.000	-0.013	0.089
-230.771	249.283	0.170	0.289
-229.757	19.148	0.140	0.112
-228.742	409.969	-0.164	0.349
-227.727	-74.467	0.216	0.078
-226.713	188.340	-0.154	-0.231
-225.698	251.558	-0.133	0.227
-224.684	283.368	-0.102	-0.183
-223.669	-19.962	0.130	-0.080
-222.655	99.990	-0.272	0.316
-221.640	132.554	0.056	-0.072
-220.625	-117.650	0.178	-0.032
-219.611	153.571	-0.020	-0.027
-218.596	-77.474	0.275	0.095
-217.582	-53.614	0.122	-0.056
-216.567	-172.760	-0.161	-0.005
-215.552	-89.069	0.100	0.030
-214.538	800.000	-0.054	0.232
-213.523	-30.261	-0.189	-0.107
-212.509	-127.967	-0.285	0.041
-211.494	5.968	0.244	-0.181
-210.479	-92.387	0.299	-0.084
-209.465	43.176	-0.217	-0.198
-208.450	480.502	0.053	-0.120
-207.436	-165.228	-0.040	-0.002
-206.421	-92.276	-0.064	-0.018
-205.406	18.692	0.298	0.238
-204.392	663.233	0.082	-0.211
-203.377	-96.174	-0.108	0.029
-202.363	800.000	0.038	0.140
-201.348	195.402	0.054	0.081
-200.333	800.000	-0.021	-0.090
-199.319	-200.000	-0.028	0.385
-198.304	-132.737	0.410	0.052
-197.290	449.811	0.046	-0.101
-196.275	-200.000	0.016	0.119
-195.260	24.355	0.316	0.261
-194.246	13.017	0.400	0.310
-193.231	-87.189	-0.383	0.116
-192.217	-17.009	0.120	-0.076
-191.202	-140.205	0.476	-0.050
-190.187	200.594	-0.041	-0.063
-189.173	6.801	-0.268	0.199
-188.158	-109.186	-0.228	0.049
-187.144	-148.799	-0.181	0.015
-186.129	-54.259	-0.375	-0.170
-185.114	-88.236	0.272	0.081
-184.100	715.194	0.070	-0.186
-183.085	83.800	-0.044	0.049
-182.071	-200.000	-0.088	0.416
-181.056	208.667	0.066	0.103
-180.042	-200.000	0.019	-0.388
-179.027	-200.000	0.026	-0.174
-178.012	-85.803	-0.266	0.082
-176.998	288.115	0.091	-0.165
-175.983	-101.170	-0.111	-0.027
-174.969	-50.310	0.175	0.082
-173.954	19.966	-0.087	-0.070
-172.939	20.259	-0.145	-0.117
-171.925	800.000	-0.055	-0.236
-170.910	-200.000	0.017	-0.181
-169.896	-77.683	0.394	0.136
-168.881	136.553	-0.082	0.107
-167.866	-200.000	0.220	-0.001
-166.852	-97.059	-0.174	-0.045
-165.837	36.592	0.156	-0.137
-164.823	-70.774	0.242	-0.091
-163.808	266.851	-0.012	0.020
-162.793	-200.000	-0.048	-0.337
-161.779	96.891	0.128	0.147
-160.764	16.210	-0.244	0.192
-159.750	63.047	-0.077	0.077
-158.735	-112.289	0.385	0.077
-157.720	800.000	0.029	-0.112
-156.706	-200.000	-0.025	-0.473
-155.691	228.923	0.100	0.164
-154.677	-163.417	-0.062	0.003
-153.662	-44.220	-0.235	0.118
-152.647	-200.000	0.028	0.123
-151.633	-52.104	-0.110	-0.051
-150.618	251.164	0.093	-0.158
-149.604	130.457	-0.143	-0.183
-148.589	-48.292	0.267	0.128
-147.574	-39.452	0.228	0.119
-146.560	145.106	-0.133	-0.177
-145.545	173.835	-0.077	-0.111
-144.531	301.367	-0.180	0.331
-143.516	-94.653	0.231	-0.063
-142.502	36.857	0.067	-0.059
-141.487	198.127	-0.061	0.093
-140.472	-22.428	0.154	-0.093
-139.458	35.869	-0.138	0.121
-138.443	-1.451	-0.278	0.196
-137.429	-132.301	-0.320	-0.041
-136.414	-33.092	0.237	-0.131
-135.399	-126.715	-0.139	0.020
-134.385	-36.170	0.209	0.113
-133.370	-155.731	-0.014	-0.001
-132.356	111.908	-0.022	-0.026
-131.341	32.728	0.217	0.188
-130.326	-112.051	-0.125	-0.025
-129.312	131.942	0.121	-0.155
-128.297	455.965	0.157	-0.348
-127.283	42.177	-0.051	-0.046
-126.268	-107.599	0.044	-0.010
-125.253	-108.881	0.349	0.074
-124.239	800.000	0.095	0.405
-123.224	14.848	-0.288	-0.225
-122.210	164.177	-0.142	-0.199
-121.195	-200.000	-0.018	0.285
