DTS Sentinel unit serial number:	SN413079Multiplexer serial number:	ORYXHardware model number:	OX4-SRSoftware version number:	ORYX F/W v4.00 Oryx Data Collector v3.7.2.0data status	okinstallation	princeton_trtdifferential loss correction	single-endedforward channel	channel 3reverse channel	N/Adate	2019/09/15time	12:52:35forward acquisition time	60.00reverse acquisition time	0.00gamma	496.2192k internal	0.2296k external	0.2296temperature offset calibration	0.9966default loss term (dB/km)	0.3790temperature slope calibration	1.0000multiplexer offset coefficient	1.0000multiplexer slope coefficient	1.0000fibre end	0.00T internal ref (°C)	36.09T ext. ref 1 (°C)	5.02T ext. ref 2 (°C)	34.24length (m)	temperature (°C)	Stokes	anti-Stokes-747.200	-200.000	-0.007	0.185
-746.185	-34.567	-0.228	0.128
-745.171	-145.557	-0.171	0.016
-744.156	-200.000	-0.090	0.413
-743.142	240.879	0.085	-0.144
-742.127	251.568	-0.058	-0.101
-741.112	-77.750	-0.177	-0.063
-740.098	330.432	-0.105	0.206
-739.083	-134.715	-0.159	-0.020
-738.069	19.530	-0.054	-0.044
-737.054	268.283	0.053	-0.094
-736.039	-200.000	-0.046	0.346
-735.025	132.263	0.093	-0.123
-734.010	-200.000	0.019	0.131
-732.996	-200.000	0.020	-0.317
-731.981	51.063	-0.085	-0.082
-730.966	800.000	0.050	-0.149
-729.952	25.768	-0.185	-0.157
-728.937	-87.598	-0.228	0.070
-727.923	-5.640	-0.224	0.157
-726.908	-200.000	-0.013	-0.145
-725.894	800.000	0.026	-0.093
-724.879	-101.442	-0.155	-0.038
-723.864	306.766	-0.109	-0.208
-722.850	-157.484	-0.225	0.014
-721.835	-86.198	-0.137	-0.043
-720.821	17.974	0.112	-0.091
-719.806	80.209	0.145	-0.159
-718.791	259.837	-0.045	0.079
-717.777	-135.400	0.042	0.005
-716.762	357.333	-0.134	-0.273
-715.748	-5.685	0.224	0.157
-714.733	190.505	-0.153	-0.234
-713.718	-14.082	-0.100	-0.066
-712.704	-174.508	-0.161	0.005
-711.689	227.677	-0.069	-0.114
-710.675	-160.921	-0.360	-0.019
-709.660	-99.982	0.319	-0.081
-708.645	-87.144	0.335	0.104
-707.631	27.449	0.091	-0.078
-706.616	-124.278	-0.110	0.017
-705.602	22.187	0.157	-0.131
-704.587	61.934	0.128	-0.130
-703.572	-41.105	0.103	0.054
-702.558	95.391	0.018	-0.021
-701.543	-200.000	0.010	0.292
-700.529	-200.000	0.025	-0.140
-699.514	-157.024	-0.269	-0.017
-698.499	800.000	-0.123	-0.425
-697.485	44.553	0.150	0.141
-696.470	89.921	-0.173	-0.198
-695.456	367.318	-0.111	-0.229
-694.441	-43.108	0.297	-0.154
-693.426	68.916	0.281	-0.295
-692.412	800.000	-0.031	0.108
-691.397	-36.980	-0.132	-0.072
-690.383	178.859	0.084	0.125
-689.368	-54.668	0.118	-0.055
-688.354	3.197	0.078	-0.058
-687.339	19.742	0.016	-0.013
-686.324	8.439	-0.116	-0.089
-685.310	-70.930	-0.450	-0.173
-684.295	-167.091	-0.308	-0.013
-683.281	-200.000	-0.087	-0.402
-682.266	-149.683	-0.128	-0.010
-681.251	272.541	-0.092	-0.165
-680.237	-2.143	-0.100	-0.071
-679.222	249.387	0.184	0.317
-678.208	-49.941	-0.053	0.026
-677.193	44.686	0.090	0.085
-676.178	236.763	0.040	-0.068
-675.164	311.825	0.055	0.105
-674.149	90.520	0.117	0.133
-673.135	123.868	-0.196	-0.251
-672.120	-200.000	0.024	-0.176
-671.105	114.489	0.171	0.212
-670.091	800.000	0.047	-0.188
-669.076	-200.000	0.003	-0.065
-668.062	-35.264	-0.364	-0.202
-667.047	-200.000	-0.037	-0.247
-666.032	117.247	0.215	0.270
-665.018	-200.000	0.011	-0.114
-664.003	230.548	-0.190	-0.317
-662.989	-68.823	0.094	-0.037
-661.974	134.222	0.080	-0.106
-660.959	86.568	-0.113	0.127
-659.945	213.938	-0.098	0.157
-658.930	-75.070	0.174	-0.063
-657.916	-101.293	0.044	0.011
-656.901	154.400	-0.128	0.179
-655.886	-151.715	-0.406	0.030
-654.872	562.207	0.042	0.104
-653.857	-200.000	-0.038	-0.192
-652.843	-145.744	0.220	-0.020
-651.828	-7.300	0.274	-0.189
-650.814	5.327	-0.082	-0.061
-649.799	-85.420	0.350	-0.111
-648.784	-89.275	-0.110	0.033
-647.770	611.262	0.059	-0.150
-646.755	235.844	-0.035	-0.059
-645.741	275.687	0.082	-0.148
-644.726	709.180	0.045	-0.120
-643.711	-109.067	0.077	0.017
-642.697	760.474	-0.101	0.280
-641.682	-114.530	-0.154	0.030
-640.668	-200.000	0.005	-0.133
-639.653	25.675	-0.101	-0.086
-638.638	-41.921	-0.214	0.112
-637.624	-117.381	0.403	0.074
-636.609	-37.127	0.078	-0.042
-635.595	-11.119	-0.310	0.208
-634.580	137.007	0.082	0.109
-633.565	-200.000	-0.003	-0.018
-632.551	354.668	0.071	-0.143
-631.536	-200.000	0.002	0.077
-630.522	138.570	0.107	0.143
-629.507	37.325	0.384	-0.346
-628.492	-200.000	0.032	-0.386
-627.478	34.387	-0.181	0.160
-626.463	-136.154	0.199	-0.024
-625.449	17.764	-0.253	0.205
-624.434	-200.000	0.067	0.377
-623.419	625.823	-0.040	0.104
-622.405	162.299	-0.134	-0.190
-621.390	-65.547	0.319	0.130
-620.376	165.408	0.188	-0.271
-619.361	11.373	-0.221	0.172
-618.346	800.000	0.022	0.092
-617.332	542.793	-0.134	-0.324
-616.317	32.826	0.126	-0.111
-615.303	-200.000	-0.001	-0.127
-614.288	800.000	0.150	-0.579
-613.273	-119.225	0.297	0.053
-612.259	800.000	-0.070	-0.233
-611.244	-113.802	-0.327	0.065
-610.230	-95.664	0.241	0.066
-609.215	-200.000	0.019	0.130
-608.201	-62.926	-0.187	0.079
-607.186	152.707	0.070	0.097
-606.171	-82.030	0.385	-0.128
-605.157	179.338	-0.091	-0.136
-604.142	800.000	-0.072	0.284
-603.128	-51.056	0.109	0.052
-602.113	-33.585	0.188	-0.106
-601.098	75.847	0.079	-0.085
-600.084	-25.163	0.107	0.064
-599.069	426.970	0.107	0.235
-598.055	-52.107	-0.268	-0.126
-597.040	-77.410	0.278	0.098
-596.025	800.000	0.107	0.365
-595.011	-6.609	-0.094	-0.065
-593.996	25.135	0.186	0.157
-592.982	-200.000	0.032	-0.248
-591.967	800.000	-0.008	0.034
-590.952	385.407	-0.115	-0.241
-589.938	198.131	-0.145	-0.226
-588.923	-166.673	0.255	-0.011
-587.909	-200.000	-0.066	-0.336
-586.894	503.802	-0.076	0.179
-585.879	-105.325	0.508	0.117
-584.865	-9.195	-0.258	0.175
-583.850	51.609	0.111	-0.107
-582.836	-160.368	0.313	-0.017
-581.821	-200.000	-0.011	-0.109
-580.806	287.166	-0.108	-0.197
-579.792	40.139	0.155	-0.141
-578.777	121.497	-0.157	0.199
-577.763	-50.319	0.103	0.049
-576.748	-23.803	0.150	0.091
-575.733	-150.402	0.093	-0.007
-574.719	-200.000	-0.008	0.093
-573.704	169.652	0.080	0.117
-572.690	511.699	0.159	0.377
-571.675	-132.395	-0.241	0.032
-570.661	256.168	-0.072	0.125
-569.646	-179.121	-0.264	0.006
-568.631	105.891	0.114	0.137
-567.617	244.194	-0.228	-0.388
-566.602	800.000	-0.182	-0.513
-565.588	-57.369	-0.085	-0.038
-564.573	-127.119	0.545	-0.081
-563.558	-200.000	0.020	-0.207
-562.544	-200.000	0.028	0.258
-561.529	151.282	-0.154	-0.213
-560.515	61.835	0.029	0.029
-559.500	276.994	-0.144	0.259
-558.485	-50.110	0.214	-0.103
-557.471	-200.000	0.027	-0.138
-556.456	-200.000	-0.003	0.365
-555.442	3.232	0.274	-0.202
-554.427	21.951	-0.170	0.141
-553.412	-123.817	0.086	-0.014
-552.398	-33.247	0.079	0.045
-551.383	800.000	0.062	0.203
-550.369	-56.563	-0.378	-0.170
-549.354	-101.489	-0.177	0.044
-548.339	741.757	0.010	-0.028
-547.325	132.979	-0.123	0.161
-546.310	222.185	-0.115	0.187
-545.296	138.872	-0.231	0.308
-544.281	229.466	-0.043	-0.072
-543.266	18.788	0.025	0.020
-542.252	800.000	-0.026	-0.106
-541.237	-200.000	0.000	0.077
-540.223	40.256	-0.283	-0.259
-539.208	-100.766	0.224	-0.056
-538.193	220.453	-0.057	0.092
-537.179	-75.150	-0.197	0.071
-536.164	-200.000	0.038	0.232
-535.150	800.000	-0.083	0.232
-534.135	57.816	0.354	0.351
-533.121	-102.483	-0.312	-0.076
-532.106	-200.000	0.023	-0.123
-531.091	-200.000	0.062	-0.563
-530.077	-200.000	-0.048	-0.319
-529.062	284.861	0.073	0.132
-528.048	-109.296	0.180	0.039
-527.033	35.487	0.185	-0.165
-526.018	-14.028	-0.083	-0.054
-525.004	-200.000	0.002	0.108
-523.989	-130.967	-0.244	0.033
-522.975	-32.824	-0.173	0.097
-521.960	645.386	0.084	-0.218
-520.945	341.723	-0.189	0.374
-519.931	34.335	-0.396	-0.350
-518.916	-27.652	-0.181	0.107
-517.902	108.710	-0.209	0.253
-516.887	101.846	-0.092	-0.109
-515.872	-200.000	-0.011	-0.100
-514.858	-110.839	-0.113	0.024
-513.843	-92.086	0.197	-0.056
-512.829	85.510	-0.130	0.145
-511.814	69.559	-0.183	-0.191
-510.799	800.000	0.054	0.182
-509.785	800.000	-0.030	-0.131
-508.770	-131.505	0.233	0.031
-507.756	-200.000	0.020	0.130
-506.741	173.377	-0.265	-0.387
-505.726	-200.000	0.012	0.135
-504.712	61.017	-0.055	0.055
-503.697	-191.101	0.124	0.001
-502.683	-23.110	0.041	0.025
-501.668	543.040	0.055	-0.133
-500.653	-96.576	-0.134	-0.036
-499.639	800.000	0.055	-0.202
-498.624	800.000	-0.052	-0.147
-497.610	74.226	-0.054	-0.057
-496.595	800.000	0.099	-0.348
-495.581	-200.000	0.003	-0.162
-494.566	-7.219	-0.015	-0.010
-493.551	89.704	0.113	-0.128
-492.537	290.141	0.037	-0.068
-491.522	186.571	-0.176	0.265
-490.508	331.325	-0.114	0.223
-489.493	-52.891	0.164	0.076
-488.478	22.062	0.248	0.204
-487.464	-60.011	-0.177	0.076
-486.449	-200.000	0.058	-0.277
-485.435	141.310	0.208	-0.279
-484.420	578.604	-0.091	0.224
-483.405	55.990	0.136	0.133
-482.391	2.162	0.082	0.060
-481.376	-200.000	0.027	0.205
-480.362	-37.802	-0.059	0.032
-479.347	-105.629	-0.206	-0.047
-478.332	15.847	-0.213	0.170
-477.318	-200.000	0.027	0.127
-476.303	-200.000	-0.001	0.196
-475.289	-80.478	-0.402	0.136
-474.274	-106.013	0.183	-0.042
-473.259	-200.000	0.436	-0.002
-472.245	318.354	0.067	-0.127
-471.230	-200.000	-0.036	-0.421
-470.216	-174.178	-0.193	0.006
-469.201	752.707	-0.075	0.204
-468.186	-107.778	0.189	-0.042
-467.172	-94.771	-0.279	-0.076
-466.157	-68.191	-0.144	-0.057
-465.143	-107.655	-0.190	0.042
-464.128	-200.000	-0.041	0.187
-463.113	-107.736	-0.132	0.029
-462.099	774.571	0.090	0.249
-461.084	240.817	0.128	-0.217
-460.070	-200.000	0.016	0.241
-459.055	800.000	-0.012	0.050
-458.040	80.124	-0.164	-0.179
-457.026	797.178	-0.064	-0.178
-456.011	-115.007	-0.221	0.042
-454.997	14.084	-0.286	-0.225
-453.982	522.560	-0.139	0.329
-452.968	-46.236	-0.144	0.072
-451.953	-148.366	-0.323	0.027
-450.938	-23.024	-0.186	-0.113
-449.924	52.493	-0.072	0.069
-448.909	-52.636	-0.165	0.077
-447.895	-29.742	-0.122	0.070
-446.880	-133.638	-0.240	-0.030
-445.865	-27.159	-0.137	0.081
-444.851	-51.445	0.202	0.095
-443.836	61.878	-0.089	0.090
-442.822	-109.096	0.178	-0.038
-441.807	56.202	0.063	0.062
-440.792	133.986	-0.179	0.234
-439.778	-114.366	-0.101	-0.020
-438.763	-71.070	-0.057	0.021
-437.749	211.992	0.075	0.120
-436.734	117.493	-0.116	-0.145
-435.719	-53.129	-0.318	-0.148
-434.705	82.953	0.004	-0.004
-433.690	197.457	0.229	0.353
-432.676	11.114	-0.439	0.339
-431.661	359.505	0.121	0.244
-430.646	49.020	-0.064	0.061
-429.632	77.374	-0.228	-0.244
-428.617	-79.263	0.140	-0.048
-427.603	-59.512	0.108	0.047
-426.588	-29.889	0.245	-0.141
-425.573	-13.226	-0.186	-0.122
-424.559	-82.334	-0.085	-0.028
-423.544	614.424	-0.036	-0.091
-422.530	-132.720	-0.162	0.021
-421.515	89.831	0.084	0.095
-420.500	-42.117	0.532	-0.275
-419.486	13.923	0.078	-0.061
-418.471	573.513	0.034	-0.083
-417.457	800.000	0.051	0.176
-416.442	-200.000	-0.013	-0.138
-415.428	-3.349	0.196	-0.137
-414.413	76.806	-0.090	-0.097
-413.398	-0.447	-0.191	0.137
-412.384	728.174	-0.052	-0.139
-411.369	-16.273	0.320	0.205
-410.355	-172.629	0.041	0.001
-409.340	-139.817	0.180	0.019
-408.325	439.773	0.119	0.261
-407.311	156.434	0.101	-0.141
-406.296	-18.738	0.077	-0.049
-405.282	800.000	-0.057	-0.187
-404.267	800.000	-0.034	-0.146
-403.252	-200.000	-0.041	0.181
-402.238	-33.822	-0.096	0.054
-401.223	-175.793	-0.251	-0.007
-400.209	19.571	0.192	0.156
-399.194	-200.000	-0.012	0.108
-398.179	-200.000	-0.008	-0.245
-397.165	800.000	0.049	0.164
-396.150	800.000	0.080	0.302
-395.136	3.268	0.124	-0.091
-394.121	-101.185	-0.067	0.016
-393.106	229.781	0.157	0.258
-392.092	-200.000	-0.029	0.140
-391.077	-167.081	-0.183	-0.008
-390.063	-200.000	-0.023	0.186
-389.048	-99.966	0.043	0.011
-388.033	539.289	-0.091	0.219
-387.019	-154.542	0.213	-0.014
-386.004	88.342	-0.075	0.084
-384.990	-200.000	0.010	-0.094
-383.975	21.625	-0.056	0.046
-382.960	20.561	0.250	0.204
-381.946	-77.478	0.130	0.045
-380.931	-17.427	-0.032	-0.020
-379.917	36.063	0.137	0.121
-378.902	-1.028	0.142	-0.101
-377.888	-124.446	0.104	0.016
-376.873	403.769	0.085	0.181
-375.858	-162.269	-0.236	0.012
-374.844	-200.000	-0.047	-0.234
-373.829	475.549	-0.053	-0.120
-372.815	-32.991	0.109	-0.061
-371.800	-200.000	0.003	-0.064
-370.785	-193.488	-0.182	-0.002
-369.771	539.606	-0.102	-0.244
-368.756	-4.066	-0.299	-0.209
-367.742	-125.757	0.311	-0.047
-366.727	-200.000	-0.042	-0.291
-365.712	-66.073	0.095	0.038
-364.698	159.317	-0.138	-0.193
-363.683	-200.000	0.046	0.277
-362.669	501.744	-0.048	-0.111
-361.654	-200.000	-0.011	-0.128
-360.639	-6.073	-0.175	0.121
-359.625	-112.036	-0.191	0.039
-358.610	652.238	0.046	-0.117
-357.596	183.222	-0.166	0.247
-356.581	-32.119	-0.034	0.019
-355.566	-27.664	-0.181	0.106
-354.552	800.000	-0.021	-0.089
-353.537	520.276	0.109	0.257
-352.523	268.397	0.210	-0.371
-351.508	-113.397	-0.166	0.033
-350.493	-200.000	-0.005	0.137
-349.479	65.940	-0.148	0.151
-348.464	18.619	-0.062	-0.050
-347.450	-200.000	0.026	0.125
-346.435	-141.189	-0.027	0.003
-345.420	-64.636	0.234	-0.095
-344.406	182.986	-0.067	-0.100
-343.391	133.989	0.133	0.173
-342.377	-13.785	-0.133	-0.087
-341.362	-12.173	0.135	-0.089
-340.348	625.109	-0.050	-0.126
-339.333	167.421	-0.166	0.237
-338.318	140.096	0.020	0.027
-337.304	-112.814	-0.148	-0.030
-336.289	207.613	0.088	-0.138
-335.275	800.000	-0.096	-0.349
-334.260	346.491	-0.033	0.065
-333.245	158.680	-0.084	-0.118
-332.231	22.601	0.046	-0.038
-331.216	800.000	0.017	0.070
-330.202	-78.585	0.026	-0.009
-329.187	-47.328	0.051	-0.025
-328.172	-121.989	0.230	0.038
-327.158	-78.389	-0.261	0.090
-326.143	800.000	-0.046	0.133
-325.129	17.243	-0.068	0.054
-324.114	274.813	0.183	-0.326
-323.099	-3.912	0.427	-0.298
-322.085	-39.848	-0.086	0.045
-321.070	-36.919	-0.242	0.130
-320.056	477.309	0.089	-0.203
-319.041	-200.000	0.024	-0.130
-318.026	-200.000	0.030	-0.212
-317.012	303.266	0.147	-0.274
-315.997	-94.182	0.269	0.074
-314.983	-200.000	0.052	0.442
-313.968	33.492	-0.135	0.117
-312.953	406.356	-0.046	-0.098
-311.939	28.742	-0.178	-0.152
-310.924	13.033	0.344	0.267
-309.910	55.486	-0.185	0.180
-308.895	-4.550	-0.310	-0.215
-307.880	-107.675	0.136	0.030
-306.866	754.386	0.084	0.229
-305.851	-80.508	-0.169	0.057
-304.837	455.094	0.149	0.332
-303.822	157.550	-0.179	-0.250
-302.807	276.533	0.125	0.223
-301.793	-141.843	0.243	0.024
-300.778	142.967	0.159	-0.212
-299.764	-146.414	-0.148	-0.013
-298.749	-159.115	0.194	-0.011
-297.735	-200.000	-0.003	0.127
-296.720	800.000	-0.038	-0.150
-295.705	15.424	0.374	0.295
-294.691	290.199	0.068	-0.124
-293.676	38.776	-0.040	0.036
-292.662	-80.091	-0.187	-0.063
-291.647	286.874	-0.118	-0.214
-290.632	297.115	-0.114	-0.209
-289.618	-3.288	-0.112	-0.078
-288.603	27.823	-0.017	-0.015
-287.589	550.933	-0.149	0.359
-286.574	-200.000	0.007	-0.161
-285.559	-15.399	0.233	-0.150
-284.545	-4.931	-0.138	-0.095
-283.530	558.837	0.040	-0.097
-282.516	-200.000	0.016	0.145
-281.501	448.295	0.262	0.579
-280.486	-181.839	0.285	0.005
-279.472	58.806	-0.196	0.194
-278.457	-200.000	-0.043	0.291
-277.443	800.000	-0.048	-0.164
-276.428	5.612	0.164	-0.122
-275.413	800.000	0.061	0.170
-274.399	-58.932	0.129	-0.056
-273.384	-200.000	0.006	-0.315
-272.370	-200.000	-0.020	-0.147
-271.355	-30.860	0.101	-0.057
-270.340	-122.469	-0.199	0.032
-269.326	-86.823	0.279	0.086
-268.311	169.527	0.146	0.209
-267.297	2.111	-0.044	-0.032
-266.282	-115.288	-0.123	-0.023
-265.267	-50.491	0.286	-0.135
-264.253	10.758	-0.119	0.091
-263.238	-200.000	-0.014	0.081
-262.224	100.065	0.176	-0.204
-261.209	-200.000	0.027	0.180
-260.195	215.346	0.071	-0.113
-259.180	-158.204	-0.083	-0.005
-258.165	253.003	0.024	0.042
-257.151	-152.955	-0.129	0.009
-256.136	-200.000	0.082	0.387
-255.122	-7.232	-0.049	0.033
-254.107	78.852	-0.169	-0.181
-253.092	70.253	-0.080	-0.083
-252.078	-200.000	-0.032	-0.379
-251.063	-89.553	-0.096	0.028
-250.049	-200.000	-0.018	-0.144
-249.034	379.248	-0.089	-0.183
-248.019	-163.832	0.251	-0.012
-247.005	-3.700	0.022	-0.015
-245.990	11.411	-0.048	0.037
-244.976	-153.431	-0.322	-0.022
-243.961	656.097	-0.113	0.291
-242.946	-47.991	0.168	0.082
-241.932	-200.000	0.007	0.059
-240.917	44.624	0.104	0.096
-239.903	-116.273	0.248	-0.046
-238.888	420.573	0.066	-0.143
-237.873	-34.611	-0.424	-0.233
-236.859	14.189	-0.066	-0.051
-235.844	49.036	-0.205	0.193
-234.830	-200.000	-0.036	0.176
-233.815	402.510	-0.059	0.125
-232.800	-109.254	0.135	-0.029
-231.786	-80.563	0.265	-0.089
-230.771	69.888	0.058	0.060
-229.757	-63.026	-0.076	0.032
-228.742	306.208	-0.139	-0.258
-227.727	-160.601	-0.162	-0.009
-226.713	-200.000	-0.006	-0.080
-225.698	436.122	0.229	-0.498
-224.684	-117.795	-0.337	-0.061
-223.669	-121.471	0.153	0.026
-222.655	10.876	0.153	-0.117
-221.640	-134.697	-0.137	-0.017
-220.625	800.000	-0.094	0.264
-219.611	681.030	-0.086	0.224
-218.596	-200.000	0.002	0.020
-217.582	-67.414	0.269	0.106
-216.567	236.964	0.113	0.187
-215.552	-66.330	0.303	0.121
-214.538	800.000	0.043	-0.134
-213.523	33.580	0.084	-0.073
-212.509	-60.079	-0.143	0.061
-211.494	-152.033	0.133	-0.010
-210.479	-84.459	0.226	0.071
-209.465	-46.183	0.083	-0.041
-208.450	-200.000	-0.006	-0.205
-207.436	-60.753	0.260	0.110
-206.421	-200.000	0.000	0.035
-205.406	800.000	-0.041	0.122
-204.392	213.066	-0.135	-0.214
-203.377	82.908	0.091	0.099
-202.363	-119.000	-0.138	0.024
-201.348	-133.223	-0.046	-0.006
-200.333	84.661	0.452	0.495
-199.319	172.538	-0.066	0.095
-198.304	-101.349	0.230	0.056
-197.290	-200.000	0.011	-0.427
-196.275	-200.000	-0.054	-0.246
-195.260	800.000	0.086	-0.350
-194.246	98.466	-0.063	0.073
-193.231	30.060	-0.104	-0.089
-192.217	-179.460	0.171	0.004
-191.202	-2.375	0.272	-0.191
-190.187	-181.525	0.323	0.006
-189.173	-75.012	-0.174	0.062
-188.158	-200.000	0.021	0.132
-187.144	-56.493	0.032	0.014
-186.129	-12.565	0.133	0.086
-185.114	155.674	0.046	0.063
-184.100	-66.445	-0.393	0.156
-183.085	800.000	-0.059	0.176
-182.071	-200.000	0.004	-0.314
-181.056	211.183	0.067	-0.105
-180.042	800.000	-0.102	-0.432
-179.027	-106.981	-0.169	-0.037
-178.012	33.825	0.273	-0.238
-176.998	-200.000	-0.005	-0.090
-175.983	27.660	-0.114	0.096
-174.969	761.462	-0.068	0.185
-173.954	-173.998	0.158	0.005
-172.939	800.000	0.067	-0.293
-171.925	-122.644	-0.188	0.030
-170.910	186.906	0.111	0.166
-169.896	-200.000	-0.004	0.271
-168.881	-200.000	0.020	0.144
-167.866	-62.666	-0.228	0.094
-166.852	175.873	-0.209	-0.303
-165.837	249.177	0.037	0.063
-164.823	-171.003	0.088	-0.003
-163.808	13.448	0.151	-0.117
-162.793	-77.913	0.178	0.061
-161.779	109.096	-0.189	0.226
-160.764	-104.059	-0.285	0.066
-159.750	-102.505	0.185	0.044
-158.735	41.327	-0.108	0.098
-157.720	800.000	-0.031	-0.097
-156.706	83.532	-0.036	0.039
-155.691	-200.000	0.000	0.045
-154.677	73.348	-0.175	-0.183
-153.662	0.349	0.170	-0.121
-152.647	41.839	-0.075	-0.068
-151.633	-200.000	0.001	0.294
-150.618	-105.985	0.196	-0.044
-149.604	195.210	0.177	0.268
-148.589	44.567	0.330	0.302
-147.574	459.966	0.107	-0.238
-146.560	-200.000	-0.009	-0.108
-145.545	573.982	-0.064	-0.157
-144.531	174.950	-0.226	-0.326
-143.516	-2.405	-0.286	0.200
-142.502	-200.000	-0.037	0.255
-141.487	332.821	-0.107	0.207
-140.472	160.474	0.196	0.273
-139.458	-46.422	-0.376	-0.185
-138.443	-100.988	-0.286	0.070
-137.429	-77.634	0.375	-0.130
-136.414	11.522	0.121	0.092
-135.399	-49.996	0.119	-0.056
-134.385	-45.823	0.323	0.159
-133.370	-1.348	0.046	-0.032
-132.356	226.464	0.136	0.220
-131.341	555.379	-0.033	0.080
-130.326	6.577	-0.204	0.152
-129.312	16.389	0.187	0.148
-128.297	-40.574	-0.254	-0.131
-127.283	800.000	0.033	0.118
-126.268	-200.000	-0.027	-0.287
-125.253	-2.466	-0.158	-0.111
-124.239	321.689	0.145	-0.276
-123.224	-25.671	-0.484	0.285
-122.210	-200.000	0.016	0.211
-121.195	-200.000	-0.047	0.399
