DTS Sentinel unit serial number:	SN413079Multiplexer serial number:	ORYXHardware model number:	OX4-SRSoftware version number:	ORYX F/W v4.00 Oryx Data Collector v3.7.2.0data status	okinstallation	princeton_trtdifferential loss correction	single-endedforward channel	channel 3reverse channel	N/Adate	2019/09/19time	09:32:34forward acquisition time	60.00reverse acquisition time	0.00gamma	496.2192k internal	0.2344k external	0.2344temperature offset calibration	0.9965default loss term (dB/km)	0.3790temperature slope calibration	1.0000multiplexer offset coefficient	1.0000multiplexer slope coefficient	1.0000fibre end	0.00T internal ref (°C)	22.87T ext. ref 1 (°C)	0.63T ext. ref 2 (°C)	19.31length (m)	temperature (°C)	Stokes	anti-Stokes-747.200	-34.324	0.156	-0.086
-746.185	-27.270	0.048	-0.028
-745.171	-33.953	-0.080	-0.044
-744.156	65.681	-0.190	0.193
-743.142	-200.000	-0.016	0.161
-742.127	-200.000	0.042	0.369
-741.112	8.416	-0.299	0.225
-740.098	295.027	-0.078	0.143
-739.083	-66.405	0.232	-0.092
-738.069	-200.000	-0.035	0.210
-737.054	-200.000	0.007	-0.155
-736.039	351.761	-0.054	-0.107
-735.025	-193.910	0.573	-0.005
-734.010	-47.199	-0.127	-0.062
-732.996	161.526	-0.112	-0.156
-731.981	311.767	-0.213	0.399
-730.966	416.933	0.106	-0.225
-729.952	262.516	0.124	-0.214
-728.937	45.965	-0.130	0.120
-727.923	41.552	-0.185	-0.167
-726.908	27.382	-0.400	0.336
-725.894	-40.667	0.280	0.145
-724.879	-129.875	-0.253	0.035
-723.864	22.427	-0.051	0.041
-722.850	-6.086	-0.069	0.047
-721.835	-97.880	-0.254	-0.066
-720.821	167.526	-0.291	-0.413
-719.806	530.200	-0.079	-0.186
-718.791	-120.374	-0.379	-0.065
-717.777	22.070	-0.185	-0.151
-716.762	318.623	-0.156	-0.295
-715.748	701.273	0.057	-0.151
-714.733	4.461	0.112	0.082
-713.718	800.000	-0.075	-0.295
-712.704	-200.000	0.025	-0.191
-711.689	190.005	0.063	-0.095
-710.675	-200.000	-0.002	-0.262
-709.660	125.021	-0.194	0.244
-708.645	60.576	0.172	-0.170
-707.631	738.982	-0.128	-0.342
-706.616	379.139	0.160	0.327
-705.602	247.583	-0.190	0.320
-704.587	-43.930	-0.379	0.190
-703.572	116.598	0.136	0.167
-702.558	59.678	0.163	-0.161
-701.543	8.879	0.103	-0.077
-700.529	-200.000	0.002	-0.217
-699.514	-200.000	-0.077	0.571
-698.499	-117.343	0.252	-0.046
-697.485	-97.712	-0.438	0.113
-696.470	218.876	0.097	-0.154
-695.456	-103.167	-0.179	0.042
-694.441	-14.060	-0.130	-0.084
-693.426	800.000	0.086	-0.295
-692.412	-85.573	0.411	-0.128
-691.397	800.000	-0.012	0.043
-690.383	681.260	-0.046	-0.120
-689.368	32.895	-0.155	-0.134
-688.354	322.652	-0.072	-0.137
-687.339	-124.488	-0.236	0.037
-686.324	132.037	-0.168	0.216
-685.310	800.000	-0.085	-0.284
-684.295	-200.000	-0.028	-0.299
-683.281	-153.637	0.093	-0.006
-682.266	208.997	0.041	-0.064
-681.251	364.247	-0.121	0.242
-680.237	-3.242	-0.050	0.035
-679.222	-3.764	0.056	0.039
-678.208	-18.205	0.169	-0.105
-677.193	176.698	-0.134	0.194
-676.178	-21.977	-0.239	0.145
-675.164	-158.594	0.318	-0.018
-674.149	224.831	0.073	0.118
-673.135	72.794	-0.215	0.224
-672.120	754.955	-0.030	-0.082
-671.105	263.992	0.114	-0.198
-670.091	800.000	0.053	-0.154
-669.076	-195.911	0.055	0.000
-668.062	318.160	-0.050	-0.095
-667.047	52.790	-0.179	-0.170
-666.032	445.441	-0.095	-0.208
-665.018	438.375	0.168	0.366
-664.003	112.623	-0.213	0.258
-662.989	278.912	0.082	0.146
-661.974	-150.865	0.399	-0.030
-660.959	-200.000	-0.054	-0.248
-659.945	-200.000	0.037	-0.219
-658.930	-105.489	-0.190	0.043
-657.916	-200.000	0.012	0.135
-656.901	-114.030	0.132	-0.026
-655.886	-61.064	-0.294	0.124
-654.872	800.000	0.084	-0.243
-653.857	800.000	-0.022	-0.084
-652.843	155.938	-0.074	-0.102
-651.828	-88.706	0.306	-0.091
-650.814	800.000	-0.051	0.168
-649.799	800.000	-0.039	-0.153
-648.784	-85.918	-0.112	-0.034
-647.770	-77.248	0.179	0.062
-646.755	-98.538	0.162	0.041
-645.741	33.258	-0.191	0.165
-644.726	195.500	0.149	-0.225
-643.711	10.217	0.161	-0.122
-642.697	-200.000	-0.003	0.103
-641.682	800.000	-0.063	-0.201
-640.668	-200.000	-0.020	0.205
-639.653	-173.935	-0.118	-0.003
-638.638	250.689	-0.235	-0.398
-637.624	-169.272	-0.144	0.005
-636.609	-113.331	-0.360	0.071
-635.595	-200.000	-0.046	0.310
-634.580	496.122	0.116	0.265
-633.565	-72.500	-0.117	0.043
-632.551	7.951	-0.178	-0.133
-631.536	-193.649	0.162	-0.001
-630.522	5.076	0.079	0.058
-629.507	225.604	-0.119	-0.192
-628.492	323.275	-0.115	-0.218
-627.478	7.839	0.004	0.003
-626.463	-200.000	-0.056	0.412
-625.449	-46.809	0.166	-0.081
-624.434	14.507	-0.182	0.142
-623.419	-112.374	-0.141	0.028
-622.405	262.921	-0.212	0.367
-621.390	327.045	0.098	0.188
-620.376	35.150	-0.026	0.023
-619.361	-200.000	-0.025	0.112
-618.346	138.397	-0.073	0.095
-617.332	-48.094	-0.151	0.073
-616.317	172.266	-0.093	0.133
-615.303	-112.188	0.234	0.047
-614.288	116.183	0.091	-0.112
-613.273	-104.964	0.579	-0.132
-612.259	45.018	-0.201	0.184
-611.244	33.263	0.077	-0.066
-610.230	-200.000	0.056	-0.343
-609.215	-74.221	-0.223	0.080
-608.201	-21.273	-0.278	-0.169
-607.186	157.566	-0.147	-0.203
-606.171	729.779	0.066	0.176
-605.157	145.475	-0.064	0.085
-604.142	-200.000	0.007	0.156
-603.128	97.411	-0.136	-0.156
-602.113	-0.337	0.522	-0.369
-601.098	34.590	-0.343	0.298
-600.084	96.774	-0.121	-0.138
-599.069	679.403	0.023	0.060
-598.055	89.175	-0.133	-0.148
-597.040	378.885	0.098	-0.199
-596.025	162.468	-0.137	0.192
-595.011	227.466	0.254	-0.411
-593.996	76.689	0.339	-0.358
-592.982	78.398	-0.082	0.088
-591.967	-122.846	-0.158	0.025
-590.952	-100.182	0.431	0.107
-589.938	-157.630	-0.285	-0.017
-588.923	537.439	0.083	-0.196
-587.909	-12.244	-0.132	-0.086
-586.894	176.538	-0.068	-0.099
-585.879	373.686	0.151	0.306
-584.865	19.468	-0.152	0.122
-583.850	-162.645	0.242	0.012
-582.836	36.318	-0.101	-0.088
-581.821	-200.000	-0.020	0.185
-580.806	-200.000	-0.051	0.263
-579.792	12.045	-0.061	0.047
-578.777	-25.323	0.284	0.167
-577.763	-89.158	0.141	-0.041
-576.748	86.531	-0.061	0.067
-575.733	-111.415	-0.358	0.072
-574.719	-163.561	0.090	0.004
-573.704	728.384	0.093	0.247
-572.690	619.425	-0.109	-0.271
-571.675	197.940	0.055	-0.083
-570.661	270.754	-0.092	0.160
-569.646	101.232	0.152	-0.175
-568.631	-107.549	-0.090	0.020
-567.617	-14.072	0.172	0.110
-566.602	-6.457	0.229	-0.155
-565.588	-58.696	-0.189	0.081
-564.573	-200.000	0.074	-0.373
-563.558	-21.610	-0.272	-0.165
-562.544	32.241	0.254	-0.218
-561.529	119.309	0.009	-0.011
-560.515	800.000	0.111	0.455
-559.500	298.910	0.150	-0.274
-558.485	-200.000	0.025	-0.146
-557.471	800.000	-0.100	-0.431
-556.456	19.983	0.078	-0.062
-555.442	-75.166	0.096	0.034
-554.427	-74.214	-0.441	0.158
-553.412	55.941	-0.148	0.142
-552.398	3.043	-0.143	-0.103
-551.383	1.522	0.344	0.246
-550.369	344.235	-0.077	0.151
-549.354	143.596	0.154	0.203
-548.339	-200.000	0.024	0.341
-547.325	-200.000	-0.036	0.350
-546.310	-121.106	-0.355	0.059
-545.296	359.253	0.012	0.023
-544.281	-111.102	-0.072	-0.015
-543.266	800.000	-0.100	0.277
-542.252	-30.341	-0.263	-0.148
-541.237	-200.000	-0.011	0.167
-540.223	-110.477	-0.073	-0.015
-539.208	1.245	0.192	-0.137
-538.193	120.318	-0.105	0.129
-537.179	-25.379	-0.266	-0.156
-536.164	98.654	-0.200	0.229
-535.150	-59.926	-0.405	0.172
-534.135	162.840	-0.273	-0.381
-533.121	-95.238	0.099	-0.027
-532.106	-200.000	-0.058	-0.357
-531.091	557.376	-0.119	0.285
-530.077	3.016	-0.133	0.096
-529.062	-132.410	-0.250	-0.032
-528.048	-144.429	0.532	-0.049
-527.033	744.682	0.056	-0.149
-526.018	114.184	0.194	-0.234
-525.004	61.304	-0.229	-0.226
-523.989	-4.747	0.187	-0.128
-522.975	637.862	0.025	-0.063
-521.960	-200.000	-0.099	-0.432
-520.945	40.826	0.126	-0.113
-519.931	-131.689	-0.205	0.027
-518.916	-200.000	-0.007	0.092
-517.902	-83.126	-0.069	0.022
-516.887	-149.565	0.144	-0.011
-515.872	-198.269	0.265	-0.002
-514.858	-32.914	0.316	0.174
-513.843	75.300	-0.104	-0.109
-512.829	252.340	0.043	0.073
-511.814	-105.916	0.167	0.037
-510.799	53.221	0.158	-0.150
-509.785	-200.000	0.000	0.046
-508.770	125.155	0.055	-0.069
-507.756	-24.806	-0.290	0.171
-506.741	3.089	0.062	-0.045
-505.726	800.000	-0.026	-0.092
-504.712	-200.000	0.001	0.385
-503.697	79.113	0.204	-0.217
-502.683	17.171	0.225	-0.177
-501.668	800.000	-0.053	-0.147
-500.653	260.194	0.111	0.189
-499.639	-39.545	0.134	-0.070
-498.624	-35.524	0.234	0.126
-497.610	189.970	-0.078	0.117
-496.595	-200.000	-0.164	0.000
-495.581	-84.227	-0.571	0.179
-494.566	142.017	-0.211	0.277
-493.551	-19.791	-0.104	-0.064
-492.537	-200.000	-0.010	0.143
-491.522	-121.932	0.166	0.027
-490.508	-72.377	0.258	0.095
-489.493	800.000	0.095	0.370
-488.478	-200.000	-0.022	-0.114
-487.464	-162.425	-0.361	0.018
-486.449	-21.565	-0.141	-0.085
-485.435	94.664	0.181	-0.204
-484.420	800.000	-0.022	0.087
-483.405	-142.495	-0.426	0.041
-482.391	800.000	0.094	-0.309
-481.376	-200.000	0.008	-0.294
-480.362	-18.716	-0.185	-0.114
-479.347	-122.853	-0.351	0.056
-478.332	-159.692	0.131	-0.007
-477.318	-106.775	0.116	0.025
-476.303	-38.791	0.249	0.130
-475.289	-25.287	-0.037	-0.022
-474.274	47.112	-0.057	0.053
-473.259	18.938	-0.164	0.130
-472.245	134.757	0.125	-0.161
-471.230	47.018	-0.202	-0.186
-470.216	68.087	-0.062	0.063
-469.201	52.886	0.166	0.157
-468.186	14.630	0.247	-0.191
-467.172	211.865	-0.144	-0.224
-466.157	576.392	-0.133	-0.322
-465.143	-200.000	0.020	0.458
-464.128	-63.934	0.234	-0.095
-463.113	-200.000	-0.070	-0.476
-462.099	302.817	-0.040	-0.073
-461.084	28.860	-0.123	-0.103
-460.070	-136.191	-0.261	0.030
-459.055	-62.538	0.074	0.030
-458.040	-1.434	0.102	0.071
-457.026	23.324	-0.173	-0.141
-456.011	146.401	0.172	0.228
-454.997	-119.483	0.168	-0.029
-453.982	-63.924	-0.313	0.127
-452.968	-200.000	0.074	-0.423
-451.953	-13.380	0.249	-0.160
-450.938	91.289	-0.091	0.101
-449.924	-65.737	0.153	0.060
-448.909	112.101	0.186	0.223
-447.895	9.303	-0.409	-0.306
-446.880	-200.000	-0.004	-0.020
-445.865	-145.065	0.133	0.012
-444.851	-200.000	-0.006	-0.252
-443.836	47.156	-0.173	-0.159
-442.822	-145.843	-0.102	-0.009
-441.807	5.057	0.066	0.048
-440.792	69.120	-0.111	-0.112
-439.778	569.275	0.128	0.307
-438.763	0.792	0.228	0.162
-437.749	-49.689	-0.295	-0.139
-436.734	-200.000	-0.054	-0.468
-435.719	800.000	0.031	-0.111
-434.705	0.011	-0.099	0.070
-433.690	-200.000	0.051	0.265
-432.676	251.120	0.065	0.109
-431.661	65.035	0.130	0.130
-430.646	-138.732	-0.567	0.061
-429.632	-127.334	-0.126	-0.018
-428.617	800.000	-0.069	0.266
-427.603	800.000	0.051	0.143
-426.588	122.346	-0.038	-0.047
-425.573	-140.012	-0.510	0.053
-424.559	123.275	0.175	0.216
-423.544	290.639	0.048	0.086
-422.530	132.324	0.058	0.074
-421.515	-200.000	-0.000	0.327
-420.500	401.537	0.161	-0.333
-419.486	108.275	0.077	0.091
-418.471	184.464	0.056	-0.082
-417.457	114.245	0.296	0.356
-416.442	94.851	0.262	0.294
-415.428	201.723	0.121	0.184
-414.413	172.303	0.211	-0.300
-413.398	-200.000	-0.019	-0.112
-412.384	-54.965	-0.148	-0.066
-411.369	44.326	-0.066	0.060
-410.355	158.204	-0.120	0.164
-409.340	180.778	0.090	-0.130
-408.325	800.000	0.051	0.141
-407.311	-88.213	0.255	-0.075
-406.296	51.289	0.165	-0.155
-405.282	120.070	-0.066	0.081
-404.267	63.300	0.144	-0.143
-403.252	149.015	0.164	0.219
-402.238	-200.000	0.042	-0.245
-401.223	189.382	0.099	-0.146
-400.209	-200.000	0.003	0.196
-399.194	311.567	0.086	0.159
-398.179	256.929	-0.143	0.242
-397.165	190.492	0.049	-0.073
-396.150	388.861	0.194	0.397
-395.136	58.077	-0.150	0.145
-394.121	-58.882	-0.082	0.035
-393.106	33.547	-0.086	-0.074
-392.092	800.000	-0.032	-0.104
-391.077	34.654	0.066	-0.057
-390.063	-132.466	-0.193	0.025
-389.048	258.391	-0.035	0.059
-388.033	141.961	0.232	0.303
-387.019	-174.089	-0.233	-0.007
-386.004	-200.000	-0.015	0.066
-384.990	67.187	-0.186	0.187
-383.975	-46.419	0.329	0.159
-382.960	-85.063	-0.324	-0.100
-381.946	800.000	0.059	0.190
-380.931	37.615	0.060	0.052
-379.917	-121.177	-0.468	-0.077
-378.902	-136.070	0.208	0.024
-377.888	-200.000	-0.029	0.246
-376.873	13.299	-0.104	0.079
-375.858	55.127	0.166	0.158
-374.844	-32.310	0.269	0.148
-373.829	272.981	0.071	0.125
-372.815	109.329	-0.221	0.261
-371.800	-19.351	0.044	-0.027
-370.785	575.401	-0.079	-0.191
-369.771	-88.498	0.336	-0.099
-368.756	575.786	-0.104	-0.250
-367.742	296.924	0.074	-0.133
-366.727	199.324	-0.117	0.177
-365.712	146.487	0.045	-0.060
-364.698	-2.099	-0.260	-0.180
-363.683	-39.994	-0.195	0.100
-362.669	800.000	-0.052	-0.157
-361.654	324.782	-0.012	0.022
-360.639	-63.499	-0.057	-0.023
-359.625	-48.330	-0.210	-0.100
-358.610	230.066	0.193	0.310
-357.596	-200.000	0.003	-0.156
-356.581	-29.324	0.389	-0.219
-355.566	-42.250	0.092	0.047
-354.552	-172.031	-0.132	-0.004
-353.537	316.498	-0.102	-0.190
-352.523	-114.694	-0.203	0.038
-351.508	-75.914	-0.106	0.037
-350.493	116.726	0.127	-0.154
-349.479	121.302	-0.183	0.224
-348.464	800.000	-0.041	0.115
-347.450	216.520	0.139	0.217
-346.435	64.250	0.296	0.293
-345.420	332.136	0.075	-0.143
-344.406	-51.952	0.139	0.064
-343.391	28.045	0.086	0.072
-342.377	4.826	-0.129	-0.093
-341.362	257.210	-0.191	-0.324
-340.348	-18.641	-0.494	-0.303
-339.333	-68.698	0.096	0.037
-338.318	84.571	0.066	-0.071
-337.304	-200.000	-0.025	-0.200
-336.289	-143.481	0.265	0.025
-335.275	-76.275	0.145	0.050
-334.260	276.518	-0.205	-0.358
-333.245	-22.078	0.217	0.130
-332.231	149.057	0.172	0.230
-331.216	240.696	0.201	0.330
-330.202	102.452	-0.046	0.053
-329.187	34.513	0.075	0.065
-328.172	-7.250	-0.327	0.219
-327.158	13.038	-0.137	-0.104
-326.143	253.108	0.209	0.351
-325.129	524.239	0.175	0.406
-324.114	298.863	-0.183	-0.332
-323.099	16.317	-0.095	-0.074
-322.085	-6.172	-0.315	0.212
-321.070	-85.564	0.396	-0.121
-320.056	90.874	0.242	-0.267
-319.041	793.228	0.049	-0.132
-318.026	184.715	0.165	0.240
-317.012	591.434	-0.061	0.148
-315.997	-56.081	-0.303	0.133
-314.983	-123.338	0.351	-0.055
-313.968	-200.000	-0.016	-0.322
-312.953	-25.027	-0.056	0.033
-311.939	-200.000	-0.007	-0.170
-310.924	-55.930	-0.128	0.056
-309.910	81.623	0.112	0.119
-308.895	-159.815	-0.326	0.018
-307.880	800.000	-0.096	-0.264
-306.866	-2.118	0.112	-0.077
-305.851	800.000	-0.083	-0.228
-304.837	-83.900	-0.441	-0.138
-303.822	83.979	0.215	-0.231
-302.807	197.665	-0.198	0.298
-301.793	88.651	0.189	0.206
-300.778	800.000	0.081	-0.276
-299.764	-200.000	0.011	-0.139
-298.749	-10.791	-0.139	0.090
-297.735	-61.162	0.363	-0.150
-296.720	-178.863	-0.082	-0.002
-295.705	45.867	-0.077	-0.070
-294.691	-192.309	0.100	-0.001
-293.676	160.411	0.050	-0.068
-292.662	151.029	0.037	0.049
-291.647	-108.465	-0.098	-0.021
-290.632	333.892	-0.172	-0.327
-289.618	-32.541	0.443	-0.243
-288.603	674.106	0.065	-0.165
-287.589	97.837	0.243	0.275
-286.574	-2.840	-0.203	0.140
-285.559	218.248	-0.093	0.145
-284.545	-141.593	-0.113	-0.011
-283.530	115.658	0.096	0.115
-282.516	-200.000	0.083	-0.364
-281.501	-138.725	0.299	-0.032
-280.486	40.928	0.128	0.113
-279.472	-40.153	-0.102	0.052
-278.457	-200.000	-0.015	0.126
-277.443	-200.000	-0.016	-0.270
-276.428	-80.710	-0.297	-0.097
-275.413	155.537	0.100	-0.135
-274.399	62.581	0.174	0.171
-273.384	-200.000	0.026	-0.128
-272.370	228.841	-0.116	0.185
-271.355	-136.040	-0.231	0.027
-270.340	164.182	0.283	-0.392
-269.326	344.933	-0.167	-0.323
-268.311	800.000	0.048	0.186
-267.297	800.000	0.036	0.131
-266.282	-29.860	-0.070	-0.039
-265.267	800.000	-0.083	-0.234
-264.253	37.432	-0.231	0.201
-263.238	511.862	0.095	-0.217
-262.224	-37.089	0.122	0.064
-261.209	-94.927	-0.158	-0.042
-260.195	-133.505	0.329	-0.041
-259.180	-109.894	0.324	0.067
-258.165	478.693	-0.060	0.133
-257.151	-42.805	0.374	-0.187
-256.136	-124.614	-0.173	-0.026
-255.122	88.172	0.203	-0.221
-254.107	800.000	0.097	-0.297
-253.092	-71.541	-0.380	-0.140
-252.078	-200.000	-0.014	-0.206
-251.063	46.870	0.121	-0.110
-250.049	50.048	0.380	-0.352
-249.034	-200.000	-0.015	-0.065
-248.019	307.980	0.184	0.336
-247.005	-142.752	0.094	0.009
-245.990	-14.483	-0.450	0.284
-244.976	-41.618	0.372	0.187
-243.961	-196.000	-0.092	-0.001
-242.946	429.863	-0.078	0.166
-241.932	92.889	0.207	-0.230
-240.917	545.824	0.100	0.234
-239.903	-200.000	0.008	-0.137
-238.888	87.829	-0.208	-0.226
-237.873	-163.215	0.338	-0.016
-236.859	16.099	-0.122	-0.094
-235.844	-34.856	-0.121	0.065
-234.830	-113.935	0.259	0.049
-233.815	-152.137	-0.268	0.019
-232.800	800.000	0.130	-0.393
-231.786	737.078	0.017	-0.044
-230.771	161.326	-0.211	-0.289
-229.757	33.630	0.144	0.123
-228.742	23.551	0.176	-0.142
-227.727	800.000	0.058	0.163
-226.713	508.072	-0.034	-0.078
-225.698	-200.000	-0.003	-0.225
-224.684	-200.000	-0.001	0.276
-223.669	-200.000	-0.038	-0.244
-222.655	-135.982	-0.155	0.018
-221.640	706.742	0.097	0.251
-220.625	-61.207	-0.037	-0.015
-219.611	246.583	0.138	0.228
-218.596	-119.791	-0.271	-0.046
-217.582	387.515	0.079	-0.160
-216.567	-168.882	-0.397	0.015
-215.552	271.734	0.216	0.373
-214.538	800.000	0.045	0.187
-213.523	-138.618	0.132	0.014
-212.509	-14.663	-0.087	-0.055
-211.494	86.514	-0.110	0.119
-210.479	-30.416	-0.074	-0.041
-209.465	133.353	0.042	-0.053
-208.450	391.313	0.089	0.181
-207.436	-100.627	-0.331	0.080
-206.421	100.124	-0.213	0.242
-205.406	62.929	0.394	0.387
-204.392	-11.341	-0.030	0.020
-203.377	298.918	-0.096	0.173
-202.363	800.000	0.017	0.048
-201.348	84.296	-0.110	0.118
-200.333	-200.000	0.007	-0.321
-199.319	232.087	-0.048	0.077
-198.304	-68.166	-0.317	-0.121
-197.290	-42.772	0.125	-0.062
-196.275	327.691	0.212	0.399
-195.260	-117.816	0.212	0.037
-194.246	-52.870	-0.153	0.069
-193.231	-33.408	0.120	0.065
-192.217	800.000	0.043	0.144
-191.202	-160.503	-0.126	0.007
-190.187	51.198	-0.033	-0.031
-189.173	-150.976	-0.056	0.004
-188.158	-86.234	0.328	-0.099
-187.144	19.719	0.037	-0.029
-186.129	99.648	0.115	0.131
-185.114	-6.750	-0.219	-0.146
-184.100	256.503	-0.072	-0.121
-183.085	196.508	-0.153	-0.229
-182.071	800.000	0.043	-0.181
-181.056	44.585	0.222	0.200
-180.042	800.000	0.032	-0.136
-179.027	151.065	-0.094	0.125
-178.012	400.247	0.152	0.312
-176.998	15.486	-0.068	0.052
-175.983	-180.140	0.234	0.005
-174.969	739.662	0.064	-0.169
-173.954	225.242	-0.120	0.190
-172.939	-106.729	0.345	0.075
-171.925	-200.000	0.009	0.154
-170.910	-105.596	0.073	0.016
-169.896	-93.901	0.133	-0.036
-168.881	214.981	-0.082	0.127
-167.866	203.063	0.175	0.264
-166.852	423.633	-0.031	0.066
-165.837	85.641	0.128	0.137
-164.823	-172.604	0.345	0.011
-163.808	416.776	0.058	-0.122
-162.793	121.946	0.147	-0.179
-161.779	-168.654	-0.150	0.006
-160.764	428.339	-0.127	-0.268
-159.750	57.271	-0.185	-0.177
-158.735	-74.288	0.142	-0.050
-157.720	253.649	0.055	0.092
-156.706	67.487	0.122	0.122
-155.691	95.311	-0.241	-0.269
-154.677	65.479	0.140	-0.139
-153.662	-200.000	-0.062	-0.488
-152.647	-27.356	-0.258	0.147
-151.633	800.000	-0.038	-0.107
-150.618	-79.285	0.168	0.056
-149.604	-37.064	0.111	0.058
-148.589	269.328	-0.243	-0.417
-147.574	-66.071	0.147	0.057
-146.560	800.000	0.009	-0.025
-145.545	587.360	0.074	0.179
-144.531	-200.000	-0.025	0.338
-143.516	662.949	-0.061	0.153
-142.502	45.943	-0.111	-0.100
-141.487	-200.000	-0.027	0.243
-140.472	-17.066	0.284	-0.175
-139.458	-50.210	0.027	0.012
-138.443	-121.991	-0.465	0.075
-137.429	296.839	0.084	-0.151
-136.414	-47.578	-0.272	0.129
-135.399	398.426	0.105	0.215
-134.385	108.810	0.064	0.075
-133.370	-200.000	0.032	-0.147
-132.356	-33.508	-0.238	-0.128
-131.341	-57.827	0.366	0.157
-130.326	-137.634	-0.295	0.032
-129.312	308.827	0.139	-0.254
-128.297	-200.000	-0.059	-0.418
-127.283	-100.105	0.453	0.110
-126.268	-200.000	0.047	-0.260
-125.253	124.860	0.090	-0.111
-124.239	332.010	0.123	-0.233
-123.224	285.877	-0.117	0.205
-122.210	-129.250	-0.346	0.047
-121.195	-130.596	0.215	-0.028
-120.180	255.872	-0.068	-0.114
