DTS Sentinel unit serial number:	SN413079Multiplexer serial number:	ORYXHardware model number:	OX4-SRSoftware version number:	ORYX F/W v4.00 Oryx Data Collector v3.7.2.0data status	okinstallation	princeton_trtdifferential loss correction	single-endedforward channel	channel 3reverse channel	N/Adate	2019/09/16time	11:32:34forward acquisition time	60.00reverse acquisition time	0.00gamma	496.2192k internal	0.2297k external	0.2297temperature offset calibration	0.9943default loss term (dB/km)	0.3790temperature slope calibration	1.0000multiplexer offset coefficient	1.0000multiplexer slope coefficient	1.0000fibre end	0.00T internal ref (°C)	37.70T ext. ref 1 (°C)	12.97T ext. ref 2 (°C)	35.69length (m)	temperature (°C)	Stokes	anti-Stokes-747.200	-200.000	0.046	0.306
-746.185	-78.271	-0.101	-0.035
-745.171	800.000	0.051	-0.206
-744.156	-200.000	-0.022	0.142
-743.142	-200.000	0.011	0.359
-742.127	800.000	0.128	0.572
-741.112	-45.536	-0.158	0.080
-740.098	62.249	-0.119	0.121
-739.083	-48.174	-0.054	-0.026
-738.069	244.459	-0.166	0.284
-737.054	-59.671	0.250	-0.110
-736.039	-42.436	0.136	0.071
-735.025	-160.192	-0.359	-0.020
-734.010	-148.948	-0.109	0.009
-732.996	-107.522	0.080	0.018
-731.981	91.204	-0.055	0.063
-730.966	-14.717	0.011	-0.007
-729.952	100.530	-0.146	-0.173
-728.937	232.152	-0.066	-0.110
-727.923	-200.000	-0.046	0.419
-726.908	40.426	0.189	-0.173
-725.894	-200.000	-0.022	-0.121
-724.879	287.686	-0.080	-0.147
-723.864	-18.395	0.091	-0.058
-722.850	-50.924	-0.306	-0.147
-721.835	-200.000	0.019	0.155
-720.821	130.171	-0.043	0.056
-719.806	800.000	-0.031	0.110
-718.791	-21.555	-0.229	0.142
-717.777	800.000	-0.026	0.099
-716.762	108.559	0.215	0.262
-715.748	578.026	0.073	0.183
-714.733	-103.460	-0.139	-0.033
-713.718	-69.829	-0.171	0.067
-712.704	-200.000	0.019	-0.378
-711.689	138.032	0.222	-0.296
-710.675	68.845	-0.139	0.145
-709.660	-200.000	0.053	0.291
-708.645	-110.777	0.159	-0.033
-707.631	394.435	0.118	-0.250
-706.616	243.748	-0.085	-0.146
-705.602	-39.632	-0.068	0.036
-704.587	-65.632	-0.305	0.125
-703.572	96.176	0.117	-0.136
-702.558	11.547	-0.075	0.059
-701.543	-129.883	0.070	0.010
-700.529	16.312	0.248	-0.200
-699.514	268.990	0.115	-0.206
-698.499	233.578	-0.144	-0.241
-697.485	-75.799	-0.166	-0.060
-696.470	47.196	0.242	-0.230
-695.456	-200.000	0.077	-0.349
-694.441	800.000	0.111	-0.421
-693.426	-124.583	0.208	-0.033
-692.412	-200.000	-0.018	-0.175
-691.397	-144.044	0.241	-0.023
-690.383	-65.926	-0.291	-0.119
-689.368	33.970	-0.153	0.135
-688.354	2.697	0.351	-0.259
-687.339	515.896	-0.022	-0.052
-686.324	-3.664	0.142	-0.101
-685.310	-200.000	0.033	-0.152
-684.295	124.994	0.120	-0.154
-683.281	-200.000	0.040	-0.251
-682.266	104.864	-0.212	-0.254
-681.251	-10.638	-0.087	0.059
-680.237	72.575	0.149	-0.158
-679.222	-2.726	-0.284	0.202
-678.208	607.631	-0.036	0.091
-677.193	261.694	-0.231	0.408
-676.178	-106.691	0.329	0.074
-675.164	129.236	-0.166	-0.216
-674.149	-8.097	0.174	0.119
-673.135	3.249	-0.165	0.122
-672.120	-186.663	-0.197	0.003
-671.105	-83.076	0.061	-0.020
-670.091	64.922	-0.353	0.363
-669.076	800.000	-0.046	-0.202
-668.062	267.316	0.074	-0.132
-667.047	16.630	-0.130	0.105
-666.032	-43.309	0.227	0.117
-665.018	-181.958	-0.289	0.006
-664.003	-93.257	0.156	0.044
-662.989	-5.817	-0.137	-0.095
-661.974	-4.433	-0.173	0.122
-660.959	134.921	-0.135	0.178
-659.945	50.235	0.147	-0.142
-658.930	-39.109	0.164	-0.088
-657.916	-55.028	-0.184	0.084
-656.901	311.801	-0.081	-0.155
-655.886	194.881	0.141	0.218
-654.872	152.335	0.035	0.049
-653.857	-138.549	-0.422	0.047
-652.843	-200.000	0.005	-0.142
-651.828	-200.000	-0.014	0.100
-650.814	-128.210	-0.202	0.029
-649.799	-29.979	-0.091	0.053
-648.784	-66.630	-0.229	-0.092
-647.770	800.000	0.037	0.145
-646.755	-179.108	-0.226	0.005
-645.741	-106.566	-0.357	0.081
-644.726	321.236	0.049	0.094
-643.711	153.985	0.136	0.190
-642.697	-98.712	0.236	-0.061
-641.682	-62.556	-0.225	-0.095
-640.668	-88.331	0.251	0.076
-639.653	-200.000	0.030	0.177
-638.638	-200.000	0.032	-0.390
-637.624	-2.586	0.166	0.118
-636.609	-28.124	-0.191	0.112
-635.595	395.609	0.039	-0.082
-634.580	-200.000	0.010	0.151
-633.565	310.830	-0.111	-0.211
-632.551	-60.488	0.472	-0.204
-631.536	-69.676	-0.126	-0.049
-630.522	262.124	0.047	0.083
-629.507	260.587	-0.087	-0.153
-628.492	800.000	0.096	0.316
-627.478	-167.602	-0.099	-0.004
-626.463	-180.270	0.249	0.005
-625.449	-200.000	0.137	-0.000
-624.434	-119.892	-0.250	-0.044
-623.419	-200.000	-0.015	0.111
-622.405	-200.000	-0.016	-0.131
-621.390	-67.228	-0.203	0.081
-620.376	-81.836	-0.132	0.044
-619.361	-155.345	-0.132	-0.009
-618.346	800.000	-0.088	-0.253
-617.332	5.883	0.228	-0.171
-616.317	122.235	-0.249	0.316
-615.303	28.211	0.255	-0.219
-614.288	-200.000	0.005	0.177
-613.273	10.532	0.174	0.135
-612.259	382.812	-0.084	0.177
-611.244	125.387	-0.236	0.303
-610.230	-200.000	-0.052	0.332
-609.215	314.500	-0.149	-0.284
-608.201	-187.412	-0.301	0.004
-607.186	-84.438	0.160	0.051
-606.171	-99.167	-0.417	-0.107
-605.157	-200.000	-0.025	0.214
-604.142	-90.556	-0.076	0.022
-603.128	237.102	0.281	-0.473
-602.113	-46.436	-0.158	-0.079
-601.098	-172.307	-0.146	-0.005
-600.084	-63.761	0.226	-0.094
-599.069	-13.254	0.061	0.040
-598.055	-54.216	0.205	0.095
-597.040	800.000	-0.061	-0.222
-596.025	-200.000	-0.063	-0.329
-595.011	259.841	-0.094	0.165
-593.996	402.386	-0.103	0.219
-592.982	146.175	-0.226	0.308
-591.967	204.308	0.131	-0.206
-590.952	240.331	-0.172	-0.290
-589.938	-136.616	0.091	0.011
-588.923	-96.178	0.083	-0.022
-587.909	-18.487	0.056	-0.036
-586.894	102.504	0.135	0.160
-585.879	34.091	-0.119	0.105
-584.865	224.244	0.064	-0.106
-583.850	207.029	-0.101	-0.160
-582.836	113.442	0.192	0.236
-581.821	457.795	-0.165	-0.372
-580.806	51.892	-0.057	-0.055
-579.792	-200.000	-0.001	0.121
-578.777	-200.000	-0.040	-0.242
-577.763	-24.993	-0.159	0.096
-576.748	-65.509	-0.194	-0.079
-575.733	-88.309	-0.207	-0.063
-574.719	-99.107	-0.317	0.081
-573.704	-65.024	0.185	-0.076
-572.690	-100.909	0.142	0.035
-571.675	184.466	-0.086	-0.130
-570.661	318.101	-0.040	0.077
-569.646	-7.635	0.217	0.149
-568.631	-19.834	0.190	-0.119
-567.617	-95.162	-0.168	-0.046
-566.602	-57.804	-0.320	-0.142
-565.588	358.776	-0.020	-0.040
-564.573	313.090	-0.186	0.354
-563.558	800.000	0.112	-0.418
-562.544	-22.916	0.133	0.081
-561.529	-200.000	-0.007	0.159
-560.515	107.007	0.079	-0.095
-559.500	-120.915	-0.159	-0.027
-558.485	-200.000	-0.003	0.127
-557.471	12.223	-0.233	0.182
-556.456	-107.822	-0.297	-0.066
-555.442	114.304	0.178	-0.219
-554.427	-200.000	0.059	0.353
-553.412	-123.658	-0.199	0.032
-552.398	-200.000	0.019	-0.315
-551.383	109.321	0.046	-0.055
-550.369	800.000	-0.035	0.149
-549.354	17.462	-0.079	-0.063
-548.339	-104.689	0.290	-0.068
-547.325	1.918	0.094	0.069
-546.310	574.265	0.033	0.082
-545.296	126.322	-0.159	0.204
-544.281	800.000	-0.062	-0.196
-543.266	361.121	-0.009	0.019
-542.252	-200.000	0.009	0.124
-541.237	800.000	0.028	-0.086
-540.223	-179.725	0.102	0.002
-539.208	-200.000	-0.004	0.127
-538.193	163.315	0.013	-0.019
-537.179	651.896	0.122	0.318
-536.164	-76.835	0.036	0.013
-535.150	-168.857	-0.159	0.006
-534.135	-130.474	0.192	-0.026
-533.121	-74.645	0.221	0.080
-532.106	800.000	0.037	-0.127
-531.091	800.000	-0.078	-0.336
-530.077	800.000	-0.026	0.081
-529.062	800.000	0.036	-0.129
-528.048	-200.000	-0.011	0.081
-527.033	-113.993	-0.032	-0.006
-526.018	75.460	-0.134	0.143
-525.004	800.000	0.070	0.197
-523.989	134.003	-0.082	0.108
-522.975	412.083	-0.117	-0.251
-521.960	800.000	0.077	0.218
-520.945	336.910	0.087	0.171
-519.931	-94.492	0.165	0.046
-518.916	-49.379	0.135	-0.065
-517.902	163.326	-0.043	0.061
-516.887	-200.000	-0.067	0.363
-515.872	461.895	0.114	-0.257
-514.858	800.000	0.084	-0.246
-513.843	-66.515	0.259	-0.104
-512.829	-86.691	-0.219	0.068
-511.814	210.746	0.081	0.129
-510.799	-25.941	-0.117	-0.070
-509.785	455.466	-0.021	-0.048
-508.770	566.354	0.080	-0.197
-507.756	-90.142	0.171	0.050
-506.741	-122.318	0.174	0.029
-505.726	800.000	-0.063	-0.197
-504.712	85.941	0.230	-0.256
-503.697	-41.042	0.095	0.050
-502.683	54.468	0.099	0.097
-501.668	62.584	-0.056	0.057
-500.653	-162.654	-0.154	0.008
-499.639	-200.000	-0.032	-0.214
-498.624	43.496	0.100	0.093
-497.610	-1.383	0.065	-0.047
-496.595	369.081	0.074	-0.150
-495.581	-200.000	-0.019	0.160
-494.566	176.972	-0.185	0.272
-493.551	-15.373	0.105	0.068
-492.537	-200.000	-0.032	-0.197
-491.522	-130.918	0.362	-0.049
-490.508	-200.000	0.218	-0.001
-489.493	-200.000	0.012	-0.223
-488.478	-200.000	-0.003	0.024
-487.464	261.649	-0.051	-0.089
-486.449	138.053	-0.053	0.070
-485.435	66.333	0.158	-0.162
-484.420	800.000	-0.070	0.205
-483.405	-81.268	-0.415	0.138
-482.391	-39.460	0.263	0.139
-481.376	161.679	0.153	-0.216
-480.362	-54.403	-0.060	0.028
-479.347	-200.000	-0.015	0.120
-478.332	-200.000	0.046	0.340
-477.318	-200.000	0.018	0.127
-476.303	-71.827	-0.014	-0.005
-475.289	-200.000	0.014	-0.380
-474.274	-200.000	0.046	-0.240
-473.259	-122.222	0.469	0.077
-472.245	11.741	-0.077	0.060
-471.230	203.034	0.171	0.266
-470.216	152.913	-0.095	-0.131
-469.201	187.583	-0.070	0.106
-468.186	679.259	-0.092	-0.241
-467.172	-200.000	0.015	-0.388
-466.157	-38.602	-0.256	0.136
-465.143	3.822	-0.401	-0.296
-464.128	-200.000	0.011	0.206
-463.113	-146.679	-0.253	0.022
-462.099	21.720	0.416	0.342
-461.084	-160.906	-0.349	0.019
-460.070	115.392	0.072	0.089
-459.055	800.000	-0.079	0.245
-458.040	92.893	-0.072	-0.082
-457.026	-31.037	-0.144	-0.082
-456.011	-146.569	-0.259	-0.023
-454.997	102.334	0.117	0.138
-453.982	-57.061	0.278	0.124
-452.968	-19.112	-0.139	-0.087
-451.953	458.724	0.091	-0.203
-450.938	-133.918	0.336	0.042
-449.924	-200.000	-0.044	0.266
-448.909	-200.000	-0.017	-0.173
-447.895	4.580	0.226	0.168
-446.880	-25.911	-0.139	0.083
-445.865	-168.291	-0.074	-0.003
-444.851	-97.654	-0.184	-0.048
-443.836	-120.981	-0.447	-0.076
-442.822	-148.616	-0.330	0.027
-441.807	-200.000	-0.034	-0.165
-440.792	-200.000	-0.014	-0.071
-439.778	133.948	-0.160	0.209
-438.763	80.015	0.115	0.125
-437.749	8.430	-0.114	0.086
-436.734	461.051	-0.128	-0.288
-435.719	-47.458	-0.203	-0.099
-434.705	-200.000	0.022	-0.131
-433.690	-150.496	-0.012	-0.001
-432.676	-200.000	0.038	0.295
-431.661	-28.449	0.254	0.148
-430.646	800.000	-0.066	-0.242
-429.632	-200.000	0.034	-0.376
-428.617	199.665	-0.168	0.260
-427.603	-56.348	-0.386	-0.173
-426.588	-55.035	-0.142	0.065
-425.573	359.485	-0.233	0.470
-424.559	44.032	-0.039	-0.036
-423.544	-200.000	0.007	0.065
-422.530	221.420	0.077	0.125
-421.515	-48.351	0.249	-0.121
-420.500	-49.688	0.520	0.250
-419.486	-99.390	-0.346	0.088
-418.471	159.495	-0.083	0.117
-417.457	800.000	-0.101	0.311
-416.442	800.000	-0.082	0.257
-415.428	151.491	0.081	-0.112
-414.413	-200.000	0.055	-0.280
-413.398	800.000	0.028	-0.080
-412.384	254.943	0.190	0.328
-411.369	-200.000	0.001	0.012
-410.355	800.000	-0.033	0.094
-409.340	-69.470	0.133	-0.051
-408.325	800.000	-0.030	-0.117
-407.311	-129.393	0.319	0.045
-406.296	15.969	0.113	-0.090
-405.282	-94.780	-0.317	0.087
-404.267	61.199	-0.304	0.304
-403.252	-95.358	0.220	0.060
-402.238	-171.673	0.090	0.003
-401.223	326.542	0.089	-0.172
-400.209	-6.045	-0.120	-0.083
-399.194	-77.878	0.282	0.098
-398.179	-200.000	-0.048	0.315
-397.165	611.503	0.032	0.081
-396.150	-200.000	-0.028	0.188
-395.136	-44.123	-0.169	0.085
-394.121	5.415	0.067	0.050
-393.106	27.820	-0.138	0.117
-392.092	-73.412	0.116	0.043
-391.077	-49.557	0.154	-0.074
-390.063	-83.176	-0.111	-0.036
-389.048	-200.000	-0.012	-0.150
-388.033	800.000	0.070	0.277
-387.019	262.997	0.071	-0.124
-386.004	800.000	0.070	-0.204
-384.990	-49.855	-0.211	0.101
-383.975	270.369	-0.088	-0.156
-382.960	-86.311	0.080	-0.025
-381.946	-48.453	-0.303	-0.147
-380.931	22.047	0.094	-0.077
-379.917	-200.000	-0.078	-0.394
-378.902	-43.041	0.330	-0.168
-377.888	-200.000	-0.048	-0.301
-376.873	-56.339	0.104	0.047
-375.858	75.865	-0.268	-0.285
-374.844	-200.000	0.014	0.223
-373.829	-117.999	-0.342	0.062
-372.815	-25.607	0.012	-0.007
-371.800	50.103	0.099	-0.094
-370.785	-9.889	0.081	0.054
-369.771	-131.218	-0.077	0.010
-368.756	800.000	-0.065	-0.207
-367.742	-76.677	0.125	0.044
-366.727	-200.000	0.042	-0.301
-365.712	788.531	0.089	0.246
-364.698	-30.789	-0.085	-0.048
-363.683	534.808	0.072	-0.171
-362.669	98.379	0.089	0.104
-361.654	-200.000	-0.006	-0.306
-360.639	-60.446	0.068	0.029
-359.625	-26.237	0.110	0.065
-358.610	800.000	-0.068	-0.268
-357.596	-144.081	0.266	0.025
-356.581	89.042	-0.148	-0.166
-355.566	-48.373	0.195	-0.094
-354.552	-200.000	0.032	-0.172
-353.537	123.343	0.103	0.130
-352.523	-157.725	-0.081	0.005
-351.508	-43.964	0.041	0.021
-350.493	-71.024	0.163	-0.062
-349.479	300.443	0.177	0.329
-348.464	52.377	0.304	0.291
-347.450	-125.705	0.213	-0.032
-346.435	21.828	0.140	-0.115
-345.420	-200.000	-0.047	0.286
-344.406	800.000	-0.046	0.202
-343.391	590.737	0.066	0.163
-342.377	88.280	0.231	0.258
-341.362	95.814	0.205	0.235
-340.348	11.116	0.162	0.124
-339.333	-9.815	-0.234	-0.157
-338.318	-147.049	-0.118	-0.010
-337.304	-12.508	0.312	0.205
-336.289	800.000	-0.053	0.168
-335.275	44.442	-0.063	0.058
-334.260	-80.477	0.328	0.110
-333.245	-86.687	0.046	0.014
-332.231	-200.000	-0.004	0.053
-331.216	-200.000	-0.025	-0.176
-330.202	-19.676	-0.091	0.056
-329.187	21.537	0.051	0.042
-328.172	-131.935	-0.349	-0.046
-327.158	-200.000	0.001	0.052
-326.143	-118.212	0.116	0.021
-325.129	18.901	-0.173	-0.140
-324.114	-139.523	0.200	0.021
-323.099	800.000	0.061	-0.239
-322.085	249.123	-0.064	-0.109
-321.070	-200.000	0.010	-0.078
-320.056	-166.516	0.257	0.011
-319.041	-106.781	0.333	-0.074
-318.026	145.291	0.150	0.202
-317.012	-30.199	-0.136	0.078
-315.997	-190.044	0.334	-0.004
-314.983	-60.979	0.288	0.122
-313.968	40.588	0.236	-0.214
-312.953	-100.653	-0.162	0.040
-311.939	-200.000	0.018	-0.234
-310.924	29.208	-0.071	0.061
-309.910	-127.732	-0.163	-0.024
-308.895	-171.226	0.166	-0.006
-307.880	105.595	0.137	0.163
-306.866	117.647	0.094	0.116
-305.851	43.486	-0.069	-0.063
-304.837	193.334	-0.181	0.274
-303.822	-122.405	0.075	0.012
-302.807	-141.264	-0.200	-0.020
-301.793	-4.267	0.104	0.072
-300.778	-200.000	-0.010	0.047
-299.764	-200.000	-0.076	-0.381
-298.749	800.000	0.093	0.279
-297.735	-200.000	-0.046	0.263
-296.720	-33.000	0.241	0.134
-295.705	-200.000	-0.047	-0.384
-294.691	149.221	0.393	0.534
-293.676	274.047	-0.127	0.225
-292.662	800.000	0.057	-0.171
-291.647	14.961	0.144	0.113
-290.632	-144.340	0.327	-0.031
-289.618	-161.108	0.321	-0.017
-288.603	-200.000	-0.040	-0.204
-287.589	28.603	0.192	-0.163
-286.574	800.000	-0.054	0.153
-285.559	-188.783	-0.209	-0.003
-284.545	653.572	-0.090	0.232
-283.530	-168.917	-0.541	-0.020
-282.516	800.000	0.047	0.141
-281.501	84.720	0.267	0.293
-280.486	-200.000	0.023	-0.133
-279.472	-102.797	-0.409	0.098
-278.457	389.714	0.098	0.204
-277.443	-200.000	0.001	-0.018
-276.428	-119.279	0.167	-0.029
-275.413	-200.000	-0.003	-0.282
-274.399	800.000	-0.032	-0.112
-273.384	193.576	0.111	-0.168
-272.370	-200.000	-0.046	-0.290
-271.355	150.183	-0.112	0.152
-270.340	66.036	-0.190	-0.194
-269.326	-200.000	-0.036	-0.373
-268.311	174.507	-0.162	0.234
-267.297	800.000	-0.006	0.019
-266.282	271.272	0.014	-0.025
-265.267	-48.148	-0.246	0.119
-264.253	800.000	-0.054	-0.198
-263.238	222.374	-0.190	-0.307
-262.224	-86.517	-0.247	0.076
-261.209	61.568	-0.057	-0.057
-260.195	559.573	0.054	-0.131
-259.180	-3.689	-0.451	-0.314
-258.165	-42.314	0.211	0.108
-257.151	-200.000	-0.016	0.269
-256.136	-200.000	0.013	-0.142
-255.122	-200.000	0.008	0.145
-254.107	-53.603	0.126	-0.058
-253.092	-77.445	0.331	0.115
-252.078	-95.296	-0.201	0.054
-251.063	-200.000	-0.022	-0.134
-250.049	167.318	0.233	-0.331
-249.034	-29.520	0.163	-0.093
-248.019	-96.759	-0.151	-0.040
-247.005	-100.514	-0.159	0.039
-245.990	3.686	0.360	0.263
-244.976	66.710	0.226	0.231
-243.961	44.762	-0.035	0.033
-242.946	-31.973	-0.188	-0.106
-241.932	800.000	-0.037	-0.103
-240.917	-2.043	-0.219	0.154
-239.903	197.380	0.143	-0.218
-238.888	-170.181	0.053	0.002
-237.873	-70.086	-0.307	0.117
-236.859	617.434	0.054	0.135
-235.844	4.581	-0.366	0.269
-234.830	-200.000	-0.050	0.317
-233.815	-56.771	-0.248	-0.110
-232.800	-17.204	0.044	-0.027
-231.786	-164.349	-0.275	0.013
-230.771	477.428	-0.052	0.118
-229.757	-7.626	0.096	-0.065
-228.742	-95.361	-0.339	0.091
-227.727	17.980	0.036	-0.029
-226.713	-112.859	0.410	0.081
-225.698	-27.549	-0.175	-0.102
-224.684	53.564	0.132	-0.126
-223.669	6.078	-0.115	-0.085
-222.655	169.649	-0.153	-0.218
-221.640	-92.374	-0.223	0.063
-220.625	-200.000	-0.004	-0.156
-219.611	-200.000	-0.026	-0.297
-218.596	-101.491	-0.026	0.006
-217.582	-63.906	0.411	-0.168
-216.567	-126.544	0.560	0.083
-215.552	74.632	0.240	-0.253
-214.538	21.914	-0.233	-0.190
-213.523	-126.385	-0.141	-0.021
-212.509	-79.300	-0.087	0.029
-211.494	-35.571	0.069	0.038
-210.479	145.601	0.183	-0.245
-209.465	-150.768	0.330	0.025
-208.450	-197.306	0.101	-0.001
-207.436	100.796	0.178	-0.207
-206.421	71.339	-0.244	-0.253
-205.406	800.000	-0.113	-0.430
-204.392	121.572	0.115	0.143
-203.377	-200.000	-0.027	-0.219
-202.363	61.603	-0.151	-0.150
-201.348	56.376	0.196	-0.190
-200.333	11.469	-0.138	0.106
-199.319	-132.263	-0.394	-0.051
-198.304	-90.718	-0.166	-0.048
-197.290	665.698	-0.017	-0.043
-196.275	-200.000	0.008	-0.347
-195.260	-104.371	-0.031	-0.007
-194.246	-90.871	-0.330	-0.095
-193.231	115.898	-0.118	0.144
-192.217	-24.908	-0.087	0.052
-191.202	-105.030	-0.237	-0.054
-190.187	31.404	0.094	0.081
-189.173	800.000	0.075	-0.224
-188.158	574.491	0.075	-0.183
-187.144	-106.704	0.053	0.012
-186.129	-108.604	0.244	0.052
-185.114	-37.936	-0.361	-0.192
-184.100	-88.413	0.386	-0.115
-183.085	350.274	0.143	0.283
-182.071	-174.105	-0.364	0.011
-181.056	-200.000	0.019	0.136
-180.042	-60.867	0.104	-0.044
-179.027	800.000	-0.118	0.341
-178.012	70.253	-0.041	-0.043
-176.998	-200.000	-0.001	0.425
-175.983	53.154	-0.161	-0.154
-174.969	99.885	0.129	-0.149
-173.954	53.182	0.123	0.117
-172.939	-61.924	0.202	-0.084
-171.925	201.470	0.254	0.390
-170.910	239.712	-0.170	0.283
-169.896	30.595	-0.130	-0.111
-168.881	-187.141	0.368	-0.005
-167.866	-200.000	-0.003	0.045
-166.852	-71.468	-0.202	0.075
-165.837	-94.727	-0.319	0.086
-164.823	-200.000	0.011	0.413
-163.808	-200.000	-0.007	0.054
-162.793	-40.820	-0.181	-0.093
-161.779	-200.000	-0.048	-0.266
-160.764	-151.171	-0.248	-0.019
-159.750	-132.423	0.141	0.018
-158.735	424.815	0.058	-0.124
-157.720	654.687	-0.094	0.241
-156.706	-106.292	-0.277	-0.062
-155.691	-90.894	0.248	0.071
-154.677	-11.795	0.251	-0.165
-153.662	-125.211	0.426	0.065
-152.647	216.332	0.191	-0.304
-151.633	-56.870	-0.055	-0.024
-150.618	340.842	0.096	0.186
-149.604	-83.923	0.190	-0.060
-148.589	-200.000	-0.065	0.341
-147.574	238.196	0.141	0.234
-146.560	-200.000	0.042	0.196
-145.545	-200.000	-0.031	-0.299
-144.531	359.619	-0.061	-0.121
-143.516	800.000	-0.068	0.212
-142.502	195.627	0.034	-0.051
-141.487	-65.443	0.248	-0.099
-140.472	-135.200	0.200	0.024
-139.458	800.000	0.036	-0.107
-138.443	81.020	-0.048	-0.052
-137.429	-200.000	0.003	-0.071
-136.414	-200.000	-0.085	0.414
-135.399	480.208	-0.146	0.331
-134.385	-169.828	0.182	-0.007
-133.370	646.156	-0.052	-0.132
-132.356	7.857	0.164	0.122
-131.341	34.133	0.155	0.135
-130.326	-109.159	-0.183	0.039
-129.312	200.355	-0.138	0.211
-128.297	509.045	-0.063	-0.146
-127.283	-142.441	-0.435	0.043
-126.268	171.973	-0.106	-0.151
-125.253	-200.000	-0.032	0.199
-124.239	46.248	0.179	0.165
-123.224	-0.055	0.197	-0.140
-122.210	-130.192	0.226	-0.031
