DTS Sentinel unit serial number:	SN413079Multiplexer serial number:	ORYXHardware model number:	OX4-SRSoftware version number:	ORYX F/W v4.00 Oryx Data Collector v3.7.2.0data status	okinstallation	princeton_trtdifferential loss correction	single-endedforward channel	channel 3reverse channel	N/Adate	2019/09/17time	03:16:35forward acquisition time	60.00reverse acquisition time	0.00gamma	496.2192k internal	0.2323k external	0.2323temperature offset calibration	0.9939default loss term (dB/km)	0.3790temperature slope calibration	1.0000multiplexer offset coefficient	1.0000multiplexer slope coefficient	1.0000fibre end	0.00T internal ref (°C)	30.00T ext. ref 1 (°C)	0.13T ext. ref 2 (°C)	24.92length (m)	temperature (°C)	Stokes	anti-Stokes-747.200	-200.000	-0.007	0.243
-746.185	-46.168	0.126	0.063
-745.171	41.291	-0.025	0.023
-744.156	-97.783	0.122	-0.032
-743.142	-200.000	0.029	0.151
-742.127	168.162	-0.128	0.184
-741.112	-20.026	0.162	-0.101
-740.098	-169.648	-0.360	0.013
-739.083	-84.832	0.301	0.096
-738.069	161.871	-0.069	0.098
-737.054	-148.493	0.214	-0.018
-736.039	153.302	0.097	-0.134
-735.025	270.708	0.107	0.191
-734.010	-41.132	0.255	-0.133
-732.996	-45.964	-0.119	-0.059
-731.981	152.522	-0.217	-0.299
-730.966	-106.583	-0.150	-0.034
-729.952	429.403	0.050	-0.110
-728.937	-200.000	-0.018	-0.405
-727.923	14.890	-0.329	-0.260
-726.908	24.186	0.116	-0.097
-725.894	243.396	-0.028	-0.047
-724.879	162.710	-0.068	0.097
-723.864	48.432	-0.233	0.221
-722.850	86.897	-0.247	0.275
-721.835	800.000	-0.047	0.167
-720.821	191.899	-0.215	0.327
-719.806	8.485	0.080	0.061
-718.791	-117.529	-0.248	0.045
-717.777	-87.098	0.083	-0.026
-716.762	-144.898	-0.343	-0.032
-715.748	255.029	-0.161	0.277
-714.733	506.825	0.194	0.454
-713.718	53.538	-0.098	-0.095
-712.704	800.000	-0.143	-0.577
-711.689	-107.582	0.119	0.026
-710.675	-43.687	-0.457	-0.233
-709.660	353.557	0.069	-0.139
-708.645	-200.000	-0.015	0.118
-707.631	800.000	-0.041	-0.170
-706.616	146.999	-0.159	0.216
-705.602	-99.882	-0.129	0.032
-704.587	-100.119	0.254	-0.064
-703.572	-200.000	-0.024	-0.234
-702.558	800.000	-0.045	-0.155
-701.543	127.726	-0.171	0.219
-700.529	18.026	0.318	0.255
-699.514	-154.245	-0.362	-0.025
-698.499	121.750	0.116	0.146
-697.485	-90.580	0.214	0.062
-696.470	-63.098	-0.234	-0.097
-695.456	357.047	-0.096	-0.193
-694.441	26.827	0.147	0.125
-693.426	-80.917	0.063	0.021
-692.412	-17.486	0.232	0.147
-691.397	-100.444	-0.163	0.041
-690.383	332.508	0.098	-0.191
-689.368	122.896	0.145	-0.183
-688.354	-159.739	0.534	-0.030
-687.339	-116.164	-0.341	0.064
-686.324	-153.155	-0.195	0.014
-685.310	-192.133	-0.136	0.001
-684.295	16.397	-0.143	-0.114
-683.281	800.000	-0.108	-0.433
-682.266	224.633	-0.147	0.239
-681.251	-99.080	0.178	-0.046
-680.237	-11.916	-0.320	0.211
-679.222	-14.121	0.100	-0.065
-678.208	99.705	-0.190	-0.222
-677.193	-21.715	0.156	-0.095
-676.178	188.503	0.054	0.081
-675.164	-93.287	0.285	0.080
-674.149	11.454	-0.160	0.124
-673.135	800.000	0.099	0.292
-672.120	-27.369	-0.347	-0.203
-671.105	206.594	-0.045	0.071
-670.091	-140.432	0.205	-0.022
-669.076	800.000	0.031	-0.134
-668.062	121.739	0.239	-0.301
-667.047	-200.000	-0.006	-0.396
-666.032	19.504	0.153	0.124
-665.018	-200.000	0.018	0.274
-664.003	459.368	0.148	0.332
-662.989	-116.834	0.203	0.037
-661.974	-65.496	-0.392	0.159
-660.959	76.956	-0.287	0.307
-659.945	-34.898	0.055	-0.030
-658.930	19.469	-0.260	-0.211
-657.916	63.258	-0.158	-0.159
-656.901	110.944	-0.046	0.056
-655.886	800.000	0.098	0.348
-654.872	207.719	0.080	-0.125
-653.857	-190.774	0.391	-0.004
-652.843	-89.887	0.159	-0.047
-651.828	-36.787	0.113	0.061
-650.814	-68.461	-0.232	0.091
-649.799	-71.502	0.107	0.040
-648.784	245.964	-0.062	0.105
-647.770	-129.297	-0.109	-0.015
-646.755	164.256	-0.224	-0.318
-645.741	100.605	0.202	-0.236
-644.726	-60.542	-0.128	-0.055
-643.711	800.000	0.100	-0.330
-642.697	800.000	-0.058	-0.212
-641.682	-95.979	-0.083	-0.022
-640.668	616.552	-0.049	-0.123
-639.653	-200.000	-0.006	-0.091
-638.638	-152.705	-0.197	-0.014
-637.624	-200.000	-0.070	-0.316
-636.609	6.187	-0.102	0.076
-635.595	-200.000	0.036	-0.247
-634.580	5.322	0.478	-0.355
-633.565	173.428	0.176	-0.255
-632.551	-63.262	0.098	0.041
-631.536	377.999	-0.178	0.367
-630.522	26.122	-0.327	0.274
-629.507	-200.000	-0.040	-0.217
-628.492	-156.848	-0.048	-0.003
-627.478	-200.000	-0.014	0.080
-626.463	213.481	0.141	-0.223
-625.449	458.294	-0.073	0.163
-624.434	-143.861	0.281	0.027
-623.419	168.133	-0.079	-0.113
-622.405	511.225	-0.112	0.263
-621.390	-194.630	0.152	-0.001
-620.376	-200.000	0.002	-0.026
-619.361	-23.906	-0.070	0.042
-618.346	-67.751	-0.127	-0.050
-617.332	-200.000	-0.013	-0.235
-616.317	-123.688	0.112	-0.018
-615.303	-72.335	-0.207	0.077
-614.288	-200.000	0.002	-0.176
-613.273	-82.422	-0.287	0.094
-612.259	-141.547	-0.203	0.021
-611.244	800.000	0.031	0.112
-610.230	130.970	0.119	-0.154
-609.215	1.337	-0.242	-0.175
-608.201	-200.000	0.040	0.241
-607.186	-43.239	-0.146	-0.074
-606.171	-139.622	0.125	0.013
-605.157	-37.716	-0.253	-0.135
-604.142	-200.000	0.010	-0.183
-603.128	261.001	0.152	0.265
-602.113	-80.057	0.156	0.052
-601.098	-30.564	0.021	0.012
-600.084	-148.261	0.249	-0.021
-599.069	-85.955	-0.309	-0.096
-598.055	-112.315	0.205	-0.041
-597.040	73.913	-0.031	0.033
-596.025	-113.682	0.245	-0.048
-595.011	-17.472	0.147	0.093
-593.996	428.734	-0.046	0.099
-592.982	-200.000	0.018	-0.291
-591.967	156.919	-0.075	-0.103
-590.952	-200.000	0.046	0.344
-589.938	200.837	-0.119	0.184
-588.923	-200.000	0.004	-0.020
-587.909	-68.662	-0.187	0.073
-586.894	-60.548	0.142	-0.060
-585.879	-178.100	0.174	0.004
-584.865	564.024	-0.015	-0.037
-583.850	41.391	0.117	0.106
-582.836	29.530	-0.080	-0.069
-581.821	800.000	0.037	0.129
-580.806	85.310	-0.012	-0.014
-579.792	-155.474	0.140	-0.009
-578.777	28.399	0.183	-0.155
-577.763	16.444	-0.191	-0.151
-576.748	286.403	0.088	-0.159
-575.733	-134.956	-0.375	0.046
-574.719	-28.705	-0.163	-0.094
-573.704	-70.335	-0.166	0.063
-572.690	79.904	-0.161	-0.173
-571.675	-200.000	0.024	0.202
-570.661	-200.000	0.022	0.407
-569.646	-200.000	-0.006	-0.072
-568.631	377.593	-0.186	-0.381
-567.617	-200.000	-0.018	0.222
-566.602	187.633	0.032	0.048
-565.588	34.729	0.273	0.239
-564.573	-200.000	-0.035	0.213
-563.558	36.132	0.158	0.140
-562.544	-135.651	-0.190	-0.023
-561.529	-49.075	-0.214	-0.102
-560.515	800.000	0.053	0.197
-559.500	-200.000	-0.007	-0.047
-558.485	-200.000	0.004	-0.095
-557.471	157.962	0.044	0.062
-556.456	-73.674	-0.207	-0.076
-555.442	-200.000	-0.274	0.001
-554.427	-65.377	-0.098	-0.039
-553.412	-141.803	0.375	0.038
-552.398	35.752	0.160	0.141
-551.383	-97.999	-0.098	0.025
-550.369	11.751	-0.324	0.249
-549.354	-32.991	-0.166	-0.092
-548.339	-200.000	-0.017	-0.110
-547.325	23.316	-0.394	0.324
-546.310	-52.872	0.048	0.022
-545.296	227.362	-0.052	0.085
-544.281	295.227	-0.076	-0.139
-543.266	334.380	-0.190	0.368
-542.252	800.000	0.084	-0.256
-541.237	-200.000	0.003	0.031
-540.223	-200.000	-0.006	0.082
-539.208	-101.517	-0.075	0.018
-538.193	264.502	0.043	-0.075
-537.179	-200.000	0.009	0.075
-536.164	282.265	-0.134	0.240
-535.150	410.958	-0.083	-0.177
-534.135	-74.484	-0.221	-0.080
-533.121	-169.092	0.322	0.012
-532.106	61.436	-0.091	-0.091
-531.091	-200.000	0.101	-0.489
-530.077	93.423	-0.111	-0.125
-529.062	-71.025	-0.493	0.186
-528.048	44.263	-0.136	-0.125
-527.033	-87.860	-0.238	0.072
-526.018	74.361	-0.166	-0.175
-525.004	-40.252	0.171	-0.089
-523.989	192.641	-0.164	-0.249
-522.975	-8.221	0.090	0.061
-521.960	134.657	0.078	-0.102
-520.945	-200.000	0.007	0.070
-519.931	-2.915	-0.143	-0.100
-518.916	24.675	-0.241	-0.200
-517.902	-200.000	0.028	-0.304
-516.887	800.000	-0.064	-0.217
-515.872	202.183	0.080	0.124
-514.858	-67.278	0.098	-0.039
-513.843	-99.453	-0.151	-0.038
-512.829	351.408	0.129	0.255
-511.814	-115.750	-0.149	0.028
-510.799	37.695	-0.457	-0.406
-509.785	-200.000	-0.013	-0.215
-508.770	141.335	0.077	-0.101
-507.756	-92.241	0.189	-0.053
-506.741	-200.000	-0.012	0.081
-505.726	-57.400	0.251	0.110
-504.712	-200.000	0.013	0.102
-503.697	28.688	-0.210	-0.178
-502.683	-200.000	-0.007	0.194
-501.668	-39.441	-0.155	0.081
-500.653	-26.704	0.179	0.105
-499.639	7.769	0.021	-0.016
-498.624	-12.336	0.349	0.228
-497.610	-85.546	0.192	-0.060
-496.595	248.314	0.036	-0.060
-495.581	-48.945	-0.164	0.078
-494.566	111.586	0.109	0.131
-493.551	-200.000	0.027	0.145
-492.537	-15.968	-0.087	0.055
-491.522	-144.066	-0.177	0.017
-490.508	-70.770	0.134	-0.051
-489.493	800.000	-0.033	-0.135
-488.478	-95.186	-0.347	-0.094
-487.464	-85.590	-0.167	0.052
-486.449	548.157	0.058	-0.139
-485.435	-127.842	0.139	0.020
-484.420	-200.000	0.023	0.329
-483.405	-30.757	0.272	-0.154
-482.391	200.810	0.085	0.131
-481.376	-200.000	0.094	0.494
-480.362	63.016	-0.083	0.083
-479.347	-200.000	0.083	-0.377
-478.332	92.833	0.227	0.257
-477.318	190.057	0.127	-0.190
-476.303	-62.840	-0.127	-0.053
-475.289	127.001	-0.175	-0.221
-474.274	-200.000	0.030	0.203
-473.259	161.076	-0.024	-0.034
-472.245	-192.821	-0.325	0.003
-471.230	-200.000	0.039	0.295
-470.216	3.987	-0.384	0.281
-469.201	6.383	0.343	0.254
-468.186	-200.000	0.001	0.133
-467.172	-118.683	0.159	-0.028
-466.157	102.790	0.179	-0.209
-465.143	382.722	-0.195	-0.400
-464.128	645.727	0.047	-0.121
-463.113	800.000	-0.023	-0.088
-462.099	199.719	0.057	0.088
-461.084	119.836	-0.114	-0.141
-460.070	21.426	-0.281	-0.228
-459.055	261.475	0.016	0.028
-458.040	98.067	-0.247	0.284
-457.026	-57.290	-0.076	0.033
-456.011	458.722	0.097	-0.216
-454.997	116.195	0.212	-0.259
-453.982	475.998	0.096	0.217
-452.968	-93.835	0.273	-0.075
-451.953	-60.165	-0.111	0.047
-450.938	264.789	0.149	0.260
-449.924	-82.191	0.188	-0.061
-448.909	-70.971	-0.444	0.167
-447.895	265.762	0.134	-0.233
-446.880	792.950	-0.074	-0.203
-445.865	139.205	0.247	-0.324
-444.851	-200.000	-0.030	-0.477
-443.836	45.974	0.166	0.154
-442.822	-181.005	0.378	-0.008
-441.807	670.664	-0.004	-0.009
-440.792	-57.455	-0.271	-0.119
-439.778	54.004	-0.173	-0.166
-438.763	324.955	-0.049	0.093
-437.749	-168.899	-0.151	-0.006
-436.734	-200.000	-0.024	-0.176
-435.719	12.243	0.381	-0.293
-434.705	701.062	-0.047	0.123
-433.690	588.067	0.114	0.280
-432.676	35.466	-0.072	-0.063
-431.661	1.151	0.342	-0.245
-430.646	-200.000	-0.018	0.256
-429.632	-200.000	-0.004	0.205
-428.617	-125.549	0.131	0.020
-427.603	-62.467	-0.159	0.066
-426.588	-143.007	0.046	-0.004
-425.573	-110.293	-0.122	-0.025
-424.559	557.735	-0.067	0.161
-423.544	-157.233	0.186	0.011
-422.530	290.230	0.231	0.419
-421.515	383.531	-0.009	0.018
-420.500	800.000	0.046	-0.186
-419.486	-200.000	-0.033	-0.147
-418.471	-106.665	0.076	0.017
-417.457	-75.897	0.369	0.130
-416.442	106.479	-0.149	0.176
-415.428	-88.069	-0.153	0.046
-414.413	588.198	0.085	0.208
-413.398	-200.000	0.016	-0.084
-412.384	-200.000	-0.002	0.038
-411.369	22.852	0.023	-0.019
-410.355	-200.000	-0.025	-0.302
-409.340	-26.179	0.226	-0.132
-408.325	8.581	-0.238	0.179
-407.311	-149.104	-0.492	-0.039
-406.296	225.577	0.120	-0.194
-405.282	52.563	0.199	0.189
-404.267	-136.589	0.405	0.047
-403.252	16.867	-0.180	-0.142
-402.238	800.000	-0.036	0.124
-401.223	-200.000	-0.024	-0.239
-400.209	800.000	-0.078	-0.280
-399.194	22.213	-0.019	-0.016
-398.179	-200.000	0.030	-0.230
-397.165	-200.000	0.015	-0.134
-396.150	168.335	-0.050	0.071
-395.136	-66.071	0.230	-0.091
-394.121	-145.409	-0.231	0.021
-393.106	-90.544	0.092	0.027
-392.092	800.000	-0.012	0.035
-391.077	-127.073	0.161	0.024
-390.063	20.154	0.135	-0.109
-389.048	138.328	-0.080	0.104
-388.033	14.050	0.109	-0.085
-387.019	184.959	-0.050	0.074
-386.004	-18.150	0.072	-0.045
-384.990	88.895	-0.153	0.169
-383.975	-200.000	-0.026	-0.291
-382.960	-150.452	0.247	-0.019
-381.946	1.443	-0.211	0.151
-380.931	-200.000	0.007	0.063
-379.917	123.373	-0.014	-0.018
-378.902	-52.009	0.108	-0.050
-377.888	-91.058	0.036	0.010
-376.873	340.475	-0.159	0.308
-375.858	79.687	0.422	0.451
-374.844	82.472	-0.172	0.186
-373.829	-54.189	-0.231	-0.104
-372.815	260.325	-0.032	0.055
-371.800	-74.087	0.254	-0.092
-370.785	51.008	-0.091	0.086
-369.771	218.298	-0.193	-0.307
-368.756	456.168	0.033	-0.072
-367.742	-113.321	0.123	-0.024
-366.727	-200.000	0.016	0.077
-365.712	-129.039	0.147	0.020
-364.698	-97.513	0.213	0.055
-363.683	437.130	0.133	0.288
-362.669	0.352	-0.153	-0.109
-361.654	-105.771	0.224	-0.050
-360.639	73.153	0.079	0.082
-359.625	80.676	0.135	-0.145
-358.610	-16.320	-0.335	-0.212
-357.596	800.000	-0.030	-0.118
-356.581	76.892	-0.036	-0.038
-355.566	12.727	0.005	-0.004
-354.552	71.006	0.061	-0.062
-353.537	58.747	-0.094	-0.092
-352.523	-200.000	0.013	0.256
-351.508	800.000	-0.068	0.266
-350.493	-83.405	0.167	-0.053
-349.479	-200.000	0.030	-0.146
-348.464	-53.970	0.205	-0.093
-347.450	79.597	0.015	-0.016
-346.435	-200.000	0.001	-0.119
-345.420	-113.905	0.350	0.068
-344.406	-73.178	-0.106	0.039
-343.391	42.072	-0.158	0.142
-342.377	598.263	-0.084	-0.207
-341.362	-58.609	0.201	-0.087
-340.348	-200.000	0.029	0.279
-339.333	800.000	0.076	0.213
-338.318	97.392	-0.136	-0.155
-337.304	148.970	-0.176	-0.237
-336.289	572.632	0.063	-0.151
-335.275	-122.175	0.185	0.030
-334.260	226.604	0.195	0.315
-333.245	-116.965	0.446	-0.081
-332.231	-37.948	-0.145	-0.077
-331.216	-151.512	-0.082	0.006
-330.202	-88.719	-0.136	-0.040
-329.187	239.547	-0.116	0.192
-328.172	5.159	-0.409	0.300
-327.158	111.443	-0.026	0.032
-326.143	-200.000	-0.026	0.325
-325.129	-200.000	-0.026	0.247
-324.114	153.799	0.335	-0.456
-323.099	-20.345	0.178	0.109
-322.085	-50.569	-0.167	-0.078
-321.070	-9.560	-0.151	-0.100
-320.056	287.626	-0.110	-0.197
-319.041	26.184	-0.208	-0.173
-318.026	-50.479	0.165	0.077
-317.012	-200.000	-0.053	-0.283
-315.997	70.919	0.167	0.172
-314.983	-200.000	-0.006	-0.036
-313.968	2.785	0.120	-0.086
-312.953	227.325	-0.062	0.100
-311.939	200.746	-0.087	0.133
-310.924	-200.000	-0.014	-0.074
-309.910	-200.000	-0.004	0.107
-308.895	-200.000	-0.006	0.166
-307.880	163.760	0.048	-0.067
-306.866	-31.276	0.171	0.096
-305.851	-124.108	-0.116	0.018
-304.837	-196.483	0.261	0.002
-303.822	-21.787	0.122	-0.074
-302.807	-9.747	0.197	-0.130
-301.793	64.992	-0.161	-0.161
-300.778	-40.210	-0.220	-0.114
-299.764	-55.551	0.157	-0.070
-298.749	-108.807	-0.196	0.042
-297.735	183.171	-0.247	-0.362
-296.720	-157.946	-0.109	-0.006
-295.705	298.058	-0.045	0.083
-294.691	-200.000	0.016	0.102
-293.676	-51.021	0.074	-0.035
-292.662	-75.956	0.305	0.107
-291.647	-50.809	0.121	-0.056
-290.632	60.354	-0.186	0.183
-289.618	-26.241	0.401	0.234
-288.603	351.974	0.084	-0.164
-287.589	0.600	-0.190	-0.135
-286.574	-58.932	-0.202	-0.087
-285.559	-55.066	0.178	-0.080
-284.545	329.245	0.110	0.209
-283.530	-16.844	-0.118	-0.074
-282.516	-200.000	-0.025	0.185
-281.501	-161.390	0.151	-0.008
-280.486	447.004	0.158	0.344
-279.472	800.000	-0.063	0.265
-278.457	68.790	0.070	0.071
-277.443	186.008	-0.142	-0.210
-276.428	-200.000	-0.018	0.388
-275.413	-200.000	-0.038	-0.212
-274.399	248.571	0.169	-0.284
-273.384	-200.000	0.033	0.469
-272.370	-200.000	-0.017	0.333
-271.355	-28.184	-0.096	-0.055
-270.340	295.854	0.097	0.175
-269.326	-22.969	-0.300	-0.179
-268.311	206.797	0.161	0.248
-267.297	-87.443	-0.169	-0.051
-266.282	40.650	0.057	-0.051
-265.267	-200.000	-0.102	0.000
-264.253	78.551	0.085	-0.090
-263.238	40.503	0.121	-0.108
-262.224	-55.620	0.311	-0.138
-261.209	465.930	0.052	-0.116
-260.195	-200.000	-0.033	0.249
-259.180	-200.000	0.018	0.416
-258.165	-137.812	0.147	-0.016
-257.151	-83.265	-0.108	-0.034
-256.136	-56.165	-0.380	-0.168
-255.122	435.602	0.126	-0.271
-254.107	-200.000	0.180	0.000
-253.092	800.000	0.178	-0.511
-252.078	-82.822	0.242	0.077
-251.063	24.604	-0.089	-0.073
-250.049	800.000	0.158	-0.483
-249.034	66.931	-0.096	-0.097
-248.019	430.093	0.081	0.174
-247.005	-195.225	0.261	-0.002
-245.990	22.277	-0.234	0.190
-244.976	-49.256	0.100	-0.047
-243.961	-200.000	0.028	0.198
-242.946	219.203	-0.095	-0.150
-241.932	439.479	0.080	0.174
-240.917	-200.000	-0.001	-0.175
-239.903	628.821	0.054	0.135
-238.888	-129.205	-0.126	0.017
-237.873	-123.033	-0.183	-0.029
-236.859	800.000	-0.079	-0.249
-235.844	-45.343	-0.096	-0.047
-234.830	-15.571	0.269	0.170
-233.815	613.465	0.186	0.460
-232.800	57.596	0.122	0.118
-231.786	-200.000	0.035	0.181
-230.771	-157.033	0.252	0.015
-229.757	90.595	-0.039	-0.043
-228.742	-97.098	0.343	0.089
-227.727	-200.000	0.006	-0.377
-226.713	317.067	-0.227	0.425
-225.698	-200.000	-0.120	-0.615
-224.684	-45.451	0.131	0.064
-223.669	231.842	-0.129	0.209
-222.655	-20.388	-0.403	0.245
-221.640	-119.444	0.181	-0.031
-220.625	-128.770	-0.045	0.006
-219.611	-200.000	-0.007	0.040
-218.596	-97.693	0.082	-0.021
-217.582	63.012	0.197	0.195
-216.567	14.892	0.205	0.158
-215.552	-41.122	0.176	0.090
-214.538	302.098	0.054	-0.099
-213.523	454.587	-0.185	0.405
-212.509	-200.000	-0.015	-0.066
-211.494	-200.000	0.001	-0.191
-210.479	-7.783	-0.032	0.022
-209.465	-52.011	-0.074	-0.034
-208.450	800.000	0.081	-0.248
-207.436	800.000	-0.016	0.051
-206.421	-8.881	-0.213	0.141
-205.406	-193.531	0.311	0.003
-204.392	-130.707	-0.150	-0.020
-203.377	101.118	-0.284	0.327
-202.363	38.888	0.083	0.074
-201.348	0.861	0.165	-0.117
-200.333	21.680	-0.127	0.102
-199.319	17.100	0.241	0.189
-198.304	-149.145	-0.195	-0.015
-197.290	114.580	-0.176	-0.212
-196.275	800.000	-0.029	0.120
-195.260	85.684	-0.229	-0.249
-194.246	-56.135	-0.248	-0.109
-193.231	-200.000	-0.021	-0.196
-192.217	-66.771	0.390	-0.152
-191.202	292.565	-0.101	0.182
-190.187	20.673	-0.045	-0.036
-189.173	-200.000	-0.028	0.304
-188.158	800.000	0.099	-0.387
-187.144	-133.014	0.257	-0.032
-186.129	2.011	-0.108	-0.077
-185.114	800.000	0.010	0.027
-184.100	-200.000	-0.011	-0.176
-183.085	-200.000	0.017	-0.220
-182.071	-168.172	-0.194	-0.007
-181.056	447.557	-0.156	0.339
-180.042	-71.811	0.196	-0.072
-179.027	243.892	0.123	-0.204
-178.012	-200.000	0.155	-0.001
-176.998	800.000	0.070	0.222
-175.983	31.594	-0.255	-0.217
-174.969	-103.682	0.014	-0.003
-173.954	-200.000	0.000	0.048
-172.939	639.007	-0.124	0.311
-171.925	163.895	0.026	-0.036
-170.910	800.000	-0.003	-0.013
-169.896	-200.000	-0.035	-0.236
-168.881	604.518	0.062	0.152
-167.866	-94.610	-0.184	0.049
-166.852	-200.000	0.032	0.157
-165.837	-117.068	0.227	-0.041
-164.823	-200.000	-0.058	0.271
-163.808	179.127	-0.234	0.337
-162.793	18.350	0.056	0.044
-161.779	-11.308	0.285	0.185
-160.764	345.837	0.183	0.355
-159.750	499.294	-0.143	-0.325
-158.735	187.293	-0.135	-0.198
-157.720	-116.702	0.231	0.042
-156.706	-200.000	-0.036	0.197
-155.691	-200.000	0.036	0.370
-154.677	-55.294	-0.420	-0.186
-153.662	44.562	-0.084	0.076
-152.647	-52.042	-0.312	0.143
-151.633	-68.313	0.372	0.142
-150.618	57.049	0.321	-0.309
-149.604	49.942	-0.286	0.266
-148.589	-164.383	-0.112	-0.005
-147.574	-200.000	0.009	-0.357
-146.560	226.798	0.055	-0.089
-145.545	-200.000	-0.040	-0.251
-144.531	-200.000	-0.034	0.213
-143.516	205.462	0.086	0.132
-142.502	800.000	-0.104	0.350
-141.487	-93.971	-0.209	-0.057
-140.472	800.000	-0.159	-0.443
-139.458	-154.064	-0.255	-0.017
-138.443	199.378	0.057	-0.087
-137.429	38.040	0.143	-0.125
-136.414	47.142	-0.272	0.250
-135.399	-26.940	-0.273	0.157
-134.385	226.370	0.025	-0.041
-133.370	-200.000	0.054	-0.291
-132.356	332.872	-0.078	-0.149
-131.341	-200.000	-0.033	-0.182
-130.326	75.828	0.185	0.192
-129.312	9.674	-0.146	0.109
-128.297	-26.120	0.185	0.107
-127.283	-128.356	-0.180	-0.025
-126.268	36.473	-0.111	-0.097
-125.253	-184.112	-0.227	-0.004
-124.239	-45.684	-0.083	0.040
-123.224	800.000	0.013	0.044
-122.210	-10.784	0.184	0.120
-121.195	473.253	-0.164	-0.365
