DTS Sentinel unit serial number:	SN413079Multiplexer serial number:	ORYXHardware model number:	OX4-SRSoftware version number:	ORYX F/W v4.00 Oryx Data Collector v3.7.2.0data status	okinstallation	princeton_trtdifferential loss correction	single-endedforward channel	channel 3reverse channel	N/Adate	2019/09/19time	01:52:35forward acquisition time	60.00reverse acquisition time	0.00gamma	496.2192k internal	0.2348k external	0.2348temperature offset calibration	0.9989default loss term (dB/km)	0.3790temperature slope calibration	1.0000multiplexer offset coefficient	1.0000multiplexer slope coefficient	1.0000fibre end	0.00T internal ref (°C)	21.31T ext. ref 1 (°C)	0.68T ext. ref 2 (°C)	14.81length (m)	temperature (°C)	Stokes	anti-Stokes-747.200	19.573	-0.145	0.116
-746.185	-99.364	-0.046	-0.012
-745.171	124.000	0.141	0.177
-744.156	-4.102	-0.535	0.370
-743.142	108.302	0.118	0.140
-742.127	-200.000	0.082	0.363
-741.112	728.536	-0.082	0.219
-740.098	-200.000	0.037	0.279
-739.083	-105.501	0.314	0.071
-738.069	800.000	0.115	0.316
-737.054	19.710	0.040	-0.032
-736.039	342.478	-0.185	0.361
-735.025	103.745	-0.122	0.143
-734.010	800.000	-0.108	-0.455
-732.996	-172.990	-0.457	-0.014
-731.981	-136.901	0.092	-0.011
-730.966	263.711	0.036	0.062
-729.952	-68.544	-0.244	0.094
-728.937	-200.000	0.060	-0.262
-727.923	-52.980	-0.211	-0.097
-726.908	-200.000	-0.025	0.147
-725.894	-135.688	-0.203	-0.024
-724.879	786.610	-0.126	-0.346
-723.864	-200.000	-0.011	-0.130
-722.850	-200.000	0.033	0.168
-721.835	-94.958	0.053	-0.014
-720.821	531.591	-0.120	-0.283
-719.806	394.250	0.050	0.103
-718.791	2.414	0.152	0.110
-717.777	800.000	-0.016	-0.045
-716.762	800.000	-0.114	-0.335
-715.748	399.629	0.080	-0.167
-714.733	-26.064	-0.080	-0.047
-713.718	800.000	-0.106	-0.455
-712.704	-200.000	0.046	-0.344
-711.689	-79.734	0.147	0.049
-710.675	178.820	0.185	0.269
-709.660	210.389	-0.122	-0.191
-708.645	1.990	0.042	-0.030
-707.631	-99.847	0.034	0.008
-706.616	800.000	0.076	0.216
-705.602	800.000	-0.050	-0.175
-704.587	577.566	-0.015	0.036
-703.572	41.143	0.147	-0.132
-702.558	316.264	-0.094	-0.177
-701.543	-200.000	0.035	0.310
-700.529	-200.000	0.000	-0.030
-699.514	-200.000	-0.042	-0.228
-698.499	75.177	0.102	0.107
-697.485	800.000	0.053	0.226
-696.470	-78.283	-0.212	0.073
-695.456	800.000	-0.034	0.102
-694.441	-54.461	0.515	0.233
-693.426	-200.000	0.006	-0.030
-692.412	-93.470	-0.115	-0.032
-691.397	-8.010	0.041	-0.028
-690.383	-200.000	-0.072	0.392
-689.368	84.473	0.024	-0.026
-688.354	-200.000	0.026	0.225
-687.339	-157.218	0.217	0.013
-686.324	-63.809	-0.142	-0.058
-685.310	266.598	-0.165	0.288
-684.295	52.597	0.285	-0.271
-683.281	9.655	0.081	0.061
-682.266	110.226	0.073	0.088
-681.251	209.637	-0.178	0.279
-680.237	800.000	-0.064	0.192
-679.222	389.011	-0.117	-0.241
-678.208	-120.526	-0.297	-0.050
-677.193	302.759	0.056	0.103
-676.178	-68.813	-0.052	0.020
-675.164	85.466	0.152	0.167
-674.149	-149.894	0.413	-0.032
-673.135	-141.425	0.181	-0.018
-672.120	-47.827	0.377	-0.182
-671.105	-146.823	-0.315	0.027
-670.091	-85.746	-0.319	0.098
-669.076	743.985	-0.078	0.209
-668.062	-8.412	0.276	0.185
-667.047	-139.860	0.077	-0.008
-666.032	-200.000	-0.061	-0.329
-665.018	800.000	0.037	-0.146
-664.003	133.009	0.131	0.169
-662.989	60.795	0.114	-0.113
-661.974	-200.000	-0.022	0.108
-660.959	800.000	0.100	-0.276
-659.945	-103.412	-0.167	-0.039
-658.930	-123.727	0.398	-0.063
-657.916	-200.000	-0.077	-0.411
-656.901	201.179	-0.064	0.098
-655.886	176.769	0.039	0.056
-654.872	396.050	0.072	-0.150
-653.857	172.600	-0.107	0.154
-652.843	-174.097	0.101	-0.003
-651.828	52.363	0.165	0.157
-650.814	-73.696	-0.183	-0.066
-649.799	79.311	-0.174	-0.185
-648.784	-78.836	-0.388	0.132
-647.770	-51.701	0.315	-0.146
-646.755	197.561	0.010	-0.015
-645.741	-157.658	0.165	0.010
-644.726	458.859	-0.106	0.235
-643.711	13.394	0.086	-0.066
-642.697	22.192	0.176	-0.143
-641.682	-2.447	-0.273	-0.190
-640.668	-200.000	0.040	0.483
-639.653	800.000	-0.072	0.263
-638.638	800.000	0.058	0.233
-637.624	37.003	-0.103	-0.091
-636.609	233.817	-0.164	-0.269
-635.595	-61.905	0.101	0.042
-634.580	-200.000	-0.039	-0.377
-633.565	-106.010	-0.048	-0.011
-632.551	77.386	-0.125	-0.132
-631.536	-200.000	-0.002	0.099
-630.522	-200.000	0.013	0.115
-629.507	-37.493	0.240	-0.127
-628.492	107.233	0.076	-0.090
-627.478	101.089	-0.239	-0.277
-626.463	135.243	0.156	-0.201
-625.449	553.032	0.147	-0.352
-624.434	-200.000	-0.029	-0.267
-623.419	800.000	0.080	-0.224
-622.405	-75.091	0.383	0.136
-621.390	-23.501	0.215	-0.128
-620.376	800.000	-0.030	-0.111
-619.361	151.732	-0.053	0.072
-618.346	-163.135	-0.350	-0.017
-617.332	-200.000	0.005	-0.321
-616.317	-19.714	-0.196	0.120
-615.303	70.601	-0.150	-0.154
-614.288	-44.244	0.133	-0.066
-613.273	-153.833	0.362	-0.025
-612.259	-13.801	-0.145	0.093
-611.244	-123.596	-0.420	0.066
-610.230	517.822	-0.021	0.049
-609.215	1.456	-0.194	-0.139
-608.201	800.000	-0.021	-0.059
-607.186	-17.674	-0.193	-0.120
-606.171	-200.000	0.016	-0.204
-605.157	239.563	-0.052	0.086
-604.142	-200.000	-0.016	0.278
-603.128	-49.988	-0.289	0.136
-602.113	6.788	-0.115	-0.085
-601.098	-200.000	-0.027	-0.244
-600.084	-104.869	-0.088	0.020
-599.069	-200.000	0.009	-0.059
-598.055	24.894	-0.069	0.057
-597.040	364.414	-0.071	-0.142
-596.025	150.069	0.198	-0.266
-595.011	-92.485	0.091	-0.026
-593.996	-200.000	-0.022	-0.219
-592.982	768.140	-0.050	0.136
-591.967	37.693	-0.138	-0.122
-590.952	-200.000	-0.001	-0.076
-589.938	628.733	0.014	0.035
-588.923	800.000	-0.045	0.151
-587.909	-28.037	-0.095	-0.055
-586.894	206.066	0.138	-0.213
-585.879	-36.501	-0.161	-0.086
-584.865	-200.000	-0.064	0.339
-583.850	-7.096	-0.236	0.159
-582.836	-134.045	0.267	0.033
-581.821	-74.814	-0.094	0.034
-580.806	-114.338	-0.422	-0.081
-579.792	121.051	0.162	0.200
-578.777	271.133	0.095	0.165
-577.763	-57.852	-0.212	-0.092
-576.748	-39.438	0.142	-0.074
-575.733	36.920	0.168	0.147
-574.719	-190.233	-0.379	-0.004
-573.704	-110.711	-0.162	-0.033
-572.690	298.474	-0.252	-0.461
-571.675	-50.687	-0.167	0.078
-570.661	192.021	0.150	0.225
-569.646	337.153	0.054	-0.103
-568.631	-200.000	0.011	-0.102
-567.617	-43.088	0.130	-0.065
-566.602	58.013	0.199	-0.193
-565.588	384.654	0.150	-0.306
-564.573	-53.661	0.084	-0.038
-563.558	-103.497	0.210	0.049
-562.544	-93.235	0.252	-0.069
-561.529	188.517	-0.072	0.107
-560.515	25.000	-0.275	-0.227
-559.500	-97.397	0.279	-0.072
-558.485	289.348	-0.048	0.087
-557.471	800.000	0.088	-0.280
-556.456	-51.917	0.286	-0.132
-555.442	-200.000	0.017	0.167
-554.427	245.122	-0.145	-0.242
-553.412	-151.295	-0.090	-0.007
-552.398	223.963	-0.110	0.176
-551.383	144.875	-0.205	0.272
-550.369	800.000	-0.028	-0.099
-549.354	-69.080	-0.423	-0.161
-548.339	199.414	0.051	0.077
-547.325	136.486	0.394	0.509
-546.310	800.000	-0.029	-0.098
-545.296	800.000	-0.059	0.250
-544.281	109.763	-0.116	0.138
-543.266	-200.000	-0.045	0.252
-542.252	-200.000	0.026	-0.322
-541.237	88.275	0.166	-0.183
-540.223	767.248	0.039	0.106
-539.208	-200.000	0.013	0.158
-538.193	-45.897	0.204	0.100
-537.179	438.510	0.135	0.292
-536.164	-108.015	-0.089	-0.019
-535.150	-74.999	0.119	-0.042
-534.135	-64.726	-0.174	-0.070
-533.121	18.508	-0.344	-0.273
-532.106	2.382	0.304	-0.218
-531.091	-65.372	0.364	-0.145
-530.077	-172.358	0.051	-0.002
-529.062	-48.005	-0.225	0.108
-528.048	135.200	0.122	-0.158
-527.033	146.823	0.019	0.025
-526.018	-200.000	-0.047	0.217
-525.004	28.616	0.104	-0.087
-523.989	-137.599	0.526	0.059
-522.975	-180.021	-0.150	0.003
-521.960	5.700	-0.403	0.295
-520.945	-25.472	0.051	-0.030
-519.931	800.000	0.047	-0.179
-518.916	-92.444	-0.221	0.062
-517.902	64.736	0.126	0.126
-516.887	-200.000	-0.016	-0.092
-515.872	-36.429	0.134	-0.071
-514.858	-112.983	-0.077	-0.015
-513.843	27.015	-0.210	-0.174
-512.829	-92.447	0.354	0.099
-511.814	-200.000	-0.072	-0.333
-510.799	-200.000	-0.034	-0.176
-509.785	66.796	0.177	0.179
-508.770	-36.799	0.253	0.134
-507.756	800.000	-0.032	-0.118
-506.741	-200.000	-0.002	-0.196
-505.726	-46.902	0.380	0.184
-504.712	-64.923	-0.261	0.104
-503.697	31.014	-0.233	-0.198
-502.683	442.568	-0.122	0.264
-501.668	202.234	-0.173	-0.265
-500.653	-200.000	-0.028	-0.273
-499.639	239.030	-0.100	0.164
-498.624	-57.148	0.146	0.064
-497.610	82.016	-0.063	-0.068
-496.595	-101.082	0.105	0.026
-495.581	-200.000	0.013	0.143
-494.566	99.564	-0.197	0.226
-493.551	79.859	-0.402	0.428
-492.537	60.512	-0.161	-0.158
-491.522	-54.998	0.308	-0.137
-490.508	76.360	-0.124	-0.130
-489.493	-1.346	-0.114	-0.080
-488.478	-156.881	0.210	-0.013
-487.464	-200.000	0.017	-0.147
-486.449	-182.276	0.578	-0.011
-485.435	83.423	-0.340	0.366
-484.420	76.438	0.052	0.055
-483.405	-200.000	-0.051	0.259
-482.391	-200.000	0.041	0.231
-481.376	-200.000	0.001	-0.020
-480.362	-24.158	0.089	-0.052
-479.347	176.686	0.162	0.232
-478.332	272.705	-0.128	-0.224
-477.318	537.561	0.027	0.064
-476.303	-97.316	-0.223	0.057
-475.289	116.928	0.135	-0.163
-474.274	-50.442	-0.163	-0.076
-473.259	5.604	0.190	0.139
-472.245	97.991	-0.193	0.219
-471.230	-77.310	0.092	0.032
-470.216	-103.263	0.229	0.053
-469.201	628.532	-0.081	0.202
-468.186	-10.332	-0.240	0.157
-467.172	-101.259	-0.237	-0.057
-466.157	-85.511	0.353	-0.109
-465.143	-200.000	0.098	-0.597
-464.128	23.270	-0.058	-0.047
-463.113	-39.956	-0.109	0.056
-462.099	39.608	0.113	-0.100
-461.084	215.142	-0.173	-0.272
-460.070	-105.082	0.148	0.033
-459.055	-15.501	-0.215	-0.135
-458.040	800.000	-0.103	0.286
-457.026	123.453	-0.127	0.157
-456.011	-168.455	0.032	0.001
-454.997	231.178	0.138	-0.224
-453.982	-183.218	0.104	0.002
-452.968	-47.507	-0.023	0.011
-451.953	17.511	-0.105	0.082
-450.938	-152.033	-0.161	0.012
-449.924	202.653	0.081	-0.124
-448.909	152.190	0.107	0.144
-447.895	-105.184	-0.216	-0.049
-446.880	-82.670	-0.276	-0.088
-445.865	123.532	-0.064	-0.079
-444.851	636.929	0.149	-0.373
-443.836	200.117	-0.074	-0.113
-442.822	-8.918	-0.148	0.098
-441.807	-200.000	-0.024	-0.205
-440.792	-82.743	-0.154	-0.049
-439.778	-200.000	0.016	0.193
-438.763	-35.778	0.260	-0.139
-437.749	-120.818	0.090	-0.015
-436.734	37.566	-0.132	0.116
-435.719	-138.110	0.587	0.064
-434.705	-200.000	0.030	0.270
-433.690	-9.629	-0.113	0.074
-432.676	800.000	-0.079	-0.271
-431.661	-90.066	-0.098	-0.028
-430.646	474.871	-0.166	-0.370
-429.632	432.890	0.065	-0.140
-428.617	517.291	0.072	-0.167
-427.603	800.000	0.070	-0.226
-426.588	251.749	0.169	-0.284
-425.573	-21.475	-0.190	-0.114
-424.559	800.000	0.056	-0.158
-423.544	61.844	0.423	-0.416
-422.530	800.000	0.005	0.018
-421.515	-117.957	0.179	-0.032
-420.500	4.717	0.209	-0.151
-419.486	800.000	0.027	0.084
-418.471	-42.300	-0.097	0.049
-417.457	-200.000	-0.047	0.337
-416.442	-159.425	0.329	-0.018
-415.428	-37.500	0.168	-0.088
-414.413	-200.000	0.023	0.195
-413.398	-85.110	0.117	-0.036
-412.384	-200.000	-0.008	0.269
-411.369	-93.938	0.144	-0.039
-410.355	-148.747	0.078	-0.006
-409.340	-85.738	-0.194	0.059
-408.325	-200.000	-0.048	0.282
-407.311	-200.000	0.022	-0.107
-406.296	102.484	-0.120	-0.138
-405.282	-16.753	0.086	0.054
-404.267	256.359	-0.110	-0.187
-403.252	-16.044	0.295	-0.185
-402.238	-165.345	0.107	0.005
-401.223	358.180	0.159	-0.313
-400.209	-148.046	0.341	0.028
-399.194	750.172	-0.085	0.226
-398.179	-200.000	-0.017	0.306
-397.165	-124.050	-0.268	0.041
-396.150	-81.728	-0.258	-0.083
-395.136	-200.000	-0.029	0.361
-394.121	146.475	-0.096	0.127
-393.106	-93.166	-0.339	-0.093
-392.092	-179.666	-0.423	-0.009
-391.077	269.074	0.123	-0.213
-390.063	-179.646	0.021	0.000
-389.048	-200.000	0.014	0.106
-388.033	800.000	0.089	0.368
-387.019	-200.000	-0.277	-0.001
-386.004	-1.827	0.215	0.149
-384.990	604.802	-0.052	0.128
-383.975	38.544	-0.170	-0.150
-382.960	214.550	-0.146	0.228
-381.946	104.563	-0.106	0.123
-380.931	43.303	0.208	0.187
-379.917	-70.574	-0.057	-0.021
-378.902	-145.977	0.283	0.025
-377.888	800.000	-0.071	0.198
-376.873	-200.000	-0.038	0.175
-375.858	-55.298	-0.219	0.097
-374.844	-68.107	0.371	0.142
-373.829	800.000	-0.066	-0.197
-372.815	800.000	0.080	-0.234
-371.800	25.334	0.133	-0.109
-370.785	87.945	-0.079	-0.087
-369.771	-200.000	0.045	-0.520
-368.756	-200.000	-0.001	0.051
-367.742	-15.817	0.113	0.071
-366.727	-124.673	0.156	-0.024
-365.712	-59.507	-0.141	0.059
-364.698	367.295	0.083	-0.164
-363.683	286.969	-0.091	-0.162
-362.669	77.717	0.252	-0.264
-361.654	-96.862	-0.143	-0.037
-360.639	-109.736	-0.056	-0.012
-359.625	800.000	0.080	-0.273
-358.610	110.604	0.052	0.061
-357.596	-18.183	0.294	0.181
-356.581	800.000	0.023	0.098
-355.566	-200.000	0.011	0.144
-354.552	64.878	0.193	-0.192
-353.537	-114.942	-0.125	-0.023
-352.523	-11.895	-0.190	-0.123
-351.508	-127.200	0.260	0.037
-350.493	384.465	-0.057	-0.115
-349.479	276.731	-0.075	-0.131
-348.464	-200.000	0.028	0.365
-347.450	103.379	-0.112	0.129
-346.435	143.162	0.200	-0.261
-345.420	-120.556	0.125	-0.021
-344.406	800.000	0.038	-0.164
-343.391	199.679	0.095	-0.143
-342.377	156.705	0.104	0.142
-341.362	-200.000	-0.092	0.454
-340.348	-119.613	-0.296	0.050
-339.333	-84.125	-0.183	-0.057
-338.318	-34.529	-0.098	-0.053
-337.304	329.932	0.057	0.108
-336.289	-200.000	0.069	-0.369
-335.275	41.776	-0.259	-0.231
-334.260	-106.870	0.044	0.010
-333.245	-200.000	-0.059	0.444
-332.231	-84.210	-0.155	0.048
-331.216	-166.445	0.310	-0.013
-330.202	-38.212	0.309	0.161
-329.187	-36.059	-0.151	-0.080
-328.172	-105.927	-0.109	0.024
-327.158	391.652	-0.077	0.156
-326.143	261.158	0.047	0.080
-325.129	-75.247	-0.086	-0.030
-324.114	-80.141	0.426	0.140
-323.099	8.819	0.012	0.009
-322.085	675.582	0.088	0.223
-321.070	597.354	-0.018	-0.043
-320.056	95.770	0.044	-0.050
-319.041	357.645	0.100	0.196
-318.026	-200.000	-0.009	-0.193
-317.012	-200.000	0.067	-0.342
-315.997	297.118	-0.031	-0.055
-314.983	-200.000	-0.033	0.212
-313.968	-200.000	0.022	-0.206
-312.953	22.784	0.058	-0.046
-311.939	-200.000	0.012	-0.092
-310.924	373.735	0.062	0.124
-309.910	309.256	0.057	-0.105
-308.895	-119.555	-0.108	0.018
-307.880	65.477	-0.177	-0.176
-306.866	60.031	0.105	-0.102
-305.851	-30.228	-0.023	-0.013
-304.837	0.842	-0.453	0.319
-303.822	-200.000	0.064	-0.310
-302.807	-174.685	0.287	-0.008
-301.793	170.740	0.046	-0.064
-300.778	800.000	0.026	0.085
-299.764	-198.265	-0.162	0.001
-298.749	-200.000	-0.003	0.319
-297.735	107.512	-0.085	-0.099
-296.720	-109.533	0.141	0.029
-295.705	-200.000	-0.508	0.001
-294.691	-7.559	0.170	-0.113
-293.676	10.745	0.197	-0.148
-292.662	-200.000	-0.020	0.135
-291.647	800.000	0.087	0.261
-290.632	262.479	0.108	0.184
-289.618	294.947	0.129	-0.232
-288.603	-192.678	-0.100	0.001
-287.589	-165.861	-0.313	-0.013
-286.574	-87.829	0.276	0.082
-285.559	-86.325	-0.372	-0.112
-284.545	800.000	-0.011	-0.047
-283.530	-171.391	0.307	-0.010
-282.516	-32.305	-0.218	-0.120
-281.501	211.763	0.144	-0.222
-280.486	-23.203	0.165	0.098
-279.472	31.631	-0.371	-0.313
-278.457	-153.305	0.115	0.008
-277.443	-35.645	-0.138	0.074
-276.428	59.456	-0.041	0.040
-275.413	29.928	-0.108	-0.090
-274.399	-169.334	0.185	0.007
-273.384	-200.000	-0.002	0.012
-272.370	359.693	0.076	0.150
-271.355	-200.000	-0.053	0.286
-270.340	-128.903	0.089	-0.012
-269.326	-36.134	-0.415	-0.220
-268.311	390.160	0.186	-0.378
-267.297	34.368	-0.062	-0.053
-266.282	-200.000	-0.026	0.118
-265.267	-200.000	0.031	-0.242
-264.253	650.774	0.158	-0.398
-263.238	-200.000	0.013	0.085
-262.224	9.882	0.030	-0.022
-261.209	-137.421	0.198	-0.022
-260.195	-127.614	-0.293	-0.042
-259.180	-174.149	0.105	0.003
-258.165	-200.000	-0.028	0.210
-257.151	-33.340	0.182	0.099
-256.136	800.000	-0.087	-0.249
-255.122	267.881	0.129	0.222
-254.107	-83.132	0.195	0.061
-253.092	-62.335	0.102	0.041
-252.078	-93.612	0.114	0.031
-251.063	-69.424	-0.163	-0.061
-250.049	-120.558	0.272	-0.045
-249.034	-200.000	-0.065	0.501
-248.019	-200.000	-0.035	0.340
-247.005	-53.057	-0.303	-0.137
-245.990	10.915	-0.122	-0.092
-244.976	-58.134	-0.138	0.059
-243.961	800.000	-0.015	0.042
-242.946	51.522	-0.227	0.212
-241.932	792.885	0.050	0.136
-240.917	800.000	0.063	-0.205
-239.903	-3.016	0.181	0.124
-238.888	54.884	-0.167	-0.158
-237.873	-8.592	0.063	0.042
-236.859	-102.851	0.349	0.081
-235.844	-200.000	0.037	-0.237
-234.830	-147.357	-0.066	-0.005
-233.815	-200.000	-0.007	-0.032
-232.800	-55.486	0.289	0.127
-231.786	-146.168	-0.267	0.023
-230.771	34.994	0.052	0.045
-229.757	-101.502	0.199	-0.048
-228.742	110.845	0.119	-0.140
-227.727	800.000	-0.062	0.231
-226.713	392.470	-0.068	-0.138
-225.698	-142.300	0.333	-0.032
-224.684	-66.396	-0.324	0.126
-223.669	94.288	0.127	-0.141
-222.655	202.220	-0.103	0.155
-221.640	710.865	0.135	0.351
-220.625	-24.204	0.013	-0.008
-219.611	-42.362	-0.243	-0.122
-218.596	-2.232	-0.129	-0.089
-217.582	-76.764	-0.197	-0.068
-216.567	-131.681	-0.319	-0.041
-215.552	-19.967	-0.084	0.051
-214.538	-122.105	-0.340	0.055
-213.523	800.000	0.085	0.232
-212.509	-77.301	-0.245	-0.083
-211.494	17.866	0.117	-0.091
-210.479	380.997	0.095	-0.191
-209.465	-200.000	-0.078	0.339
-208.450	-200.000	-0.054	0.275
-207.436	255.941	0.128	-0.214
-206.421	-121.265	0.013	-0.002
-205.406	-50.411	-0.360	-0.166
-204.392	320.870	-0.067	0.124
-203.377	-126.198	0.379	-0.056
-202.363	-31.181	-0.192	-0.106
-201.348	-85.922	0.467	0.141
-200.333	101.173	0.175	0.199
-199.319	53.790	0.051	0.048
-198.304	-58.114	-0.144	-0.062
-197.290	116.017	0.151	0.181
-196.275	6.780	-0.129	0.094
-195.260	-85.975	-0.301	0.091
-194.246	-64.791	-0.026	-0.010
-193.231	-161.307	0.176	0.009
-192.217	201.752	0.122	0.183
-191.202	-200.000	0.004	-0.165
-190.187	101.772	0.266	-0.303
-189.173	46.594	-0.171	0.155
-188.158	-45.398	0.171	0.083
-187.144	-79.548	0.148	0.049
-186.129	800.000	0.101	0.300
-185.114	-200.000	-0.037	-0.160
-184.100	176.042	0.281	0.399
-183.085	48.684	0.309	0.283
-182.071	-200.000	-0.003	0.178
-181.056	800.000	-0.067	-0.246
-180.042	624.948	-0.113	0.280
-179.027	-65.238	-0.217	0.086
-178.012	-200.000	-0.023	0.350
-176.998	-84.981	-0.251	0.077
-175.983	-200.000	-0.036	0.394
-174.969	-200.000	-0.060	0.560
-173.954	64.706	0.078	-0.077
-172.939	3.588	-0.211	0.150
-171.925	800.000	-0.093	-0.271
-170.910	242.557	-0.040	0.065
-169.896	-130.482	0.241	0.032
-168.881	260.987	0.124	-0.209
-167.866	-22.357	-0.331	0.196
-166.852	800.000	0.176	0.556
-165.837	-135.526	0.346	-0.040
-164.823	-44.758	-0.085	-0.041
-163.808	400.357	-0.032	-0.065
-162.793	-200.000	0.001	-0.049
-161.779	134.921	0.127	0.161
-160.764	800.000	-0.137	0.373
-159.750	-200.000	-0.004	-0.031
-158.735	-20.486	-0.138	0.083
-157.720	-65.440	-0.120	-0.047
-156.706	-171.144	-0.162	-0.005
-155.691	135.828	0.046	-0.058
-154.677	-95.765	0.200	0.052
-153.662	-200.000	0.027	-0.139
-152.647	800.000	-0.072	0.236
-151.633	-53.696	0.146	-0.065
-150.618	-54.050	0.268	0.119
-149.604	-200.000	-0.001	0.029
-148.589	800.000	0.097	0.280
-147.574	112.236	-0.038	-0.045
-146.560	-55.174	-0.081	-0.035
-145.545	165.585	0.204	0.281
-144.531	-200.000	0.074	0.509
-143.516	-200.000	-0.054	0.409
-142.502	-54.798	-0.075	0.033
-141.487	256.619	-0.154	-0.258
-140.472	290.789	0.031	0.055
-139.458	295.798	-0.119	0.213
-138.443	-0.528	0.276	0.191
-137.429	98.494	-0.085	0.096
-136.414	-65.934	-0.297	0.116
-135.399	27.621	0.395	-0.324
-134.385	-200.000	-0.015	-0.086
-133.370	-99.065	0.176	0.043
-132.356	-127.253	-0.156	0.022
-131.341	142.330	0.164	0.212
-130.326	-200.000	0.021	0.096
-129.312	-200.000	0.018	-0.405
-128.297	-127.808	0.298	0.042
-127.283	-200.000	0.005	-0.132
-126.268	-200.000	0.038	-0.165
-125.253	-92.616	0.123	-0.034
-124.239	259.501	-0.052	-0.088
-123.224	-113.586	-0.180	-0.034
-122.210	-96.158	0.083	-0.022
