DTS Sentinel unit serial number:	SN413079Multiplexer serial number:	ORYXHardware model number:	OX4-SRSoftware version number:	ORYX F/W v4.00 Oryx Data Collector v3.7.2.0data status	okinstallation	princeton_trtdifferential loss correction	single-endedforward channel	channel 3reverse channel	N/Adate	2019/09/13time	10:24:35forward acquisition time	60.00reverse acquisition time	0.00gamma	496.2192k internal	0.2322k external	0.2322temperature offset calibration	1.0140default loss term (dB/km)	0.3790temperature slope calibration	1.0000multiplexer offset coefficient	1.0000multiplexer slope coefficient	1.0000fibre end	0.00T internal ref (°C)	30.98T ext. ref 1 (°C)	4.54T ext. ref 2 (°C)	28.14length (m)	temperature (°C)	Stokes	anti-Stokes-747.200	-58.865	-0.138	0.060
-746.185	-200.000	0.006	-0.057
-745.171	-128.573	0.343	-0.049
-744.156	47.043	-0.321	0.302
-743.142	800.000	-0.055	-0.157
-742.127	141.990	0.138	-0.185
-741.112	89.117	0.205	0.231
-740.098	-200.000	-0.019	0.407
-739.083	85.944	-0.193	-0.215
-738.069	-200.000	0.013	-0.058
-737.054	-200.000	0.061	0.278
-736.039	-200.000	0.061	0.321
-735.025	-200.000	-0.032	0.298
-734.010	-126.191	-0.238	0.036
-732.996	-110.345	-0.237	-0.050
-731.981	-58.109	0.021	0.009
-730.966	-37.370	-0.178	-0.096
-729.952	-147.308	0.162	-0.014
-728.937	-138.895	0.025	0.003
-727.923	-97.448	-0.221	-0.058
-726.908	800.000	0.091	-0.382
-725.894	-20.142	-0.303	-0.188
-724.879	522.540	0.259	-0.614
-723.864	-105.581	-0.104	-0.024
-722.850	-27.027	-0.420	-0.247
-721.835	69.928	0.069	0.072
-720.821	20.701	0.124	0.101
-719.806	-200.000	-0.066	-0.440
-718.791	33.056	-0.271	-0.237
-717.777	-200.000	-0.029	-0.234
-716.762	417.336	0.117	-0.253
-715.748	143.247	0.105	-0.141
-714.733	-14.050	0.096	-0.062
-713.718	637.304	0.044	-0.113
-712.704	-149.255	0.096	-0.008
-711.689	132.454	-0.083	0.108
-710.675	-131.438	0.237	0.032
-709.660	36.076	-0.024	0.021
-708.645	-200.000	0.022	0.471
-707.631	732.003	-0.032	-0.086
-706.616	236.304	-0.127	-0.213
-705.602	-153.338	0.311	0.022
-704.587	-200.000	0.002	-0.318
-703.572	-13.534	-0.041	0.027
-702.558	-104.119	0.233	0.055
-701.543	-21.066	-0.086	0.053
-700.529	108.446	-0.084	0.101
-699.514	227.493	-0.109	-0.180
-698.499	-97.716	0.272	-0.071
-697.485	270.561	-0.125	0.222
-696.470	-52.327	-0.408	0.191
-695.456	-200.000	-0.070	-0.344
-694.441	329.447	-0.150	-0.290
-693.426	-200.000	0.006	-0.064
-692.412	-6.273	-0.120	-0.082
-691.397	-83.254	-0.119	-0.038
-690.383	199.383	0.044	0.068
-689.368	113.820	0.073	-0.089
-688.354	-61.715	-0.327	-0.138
-687.339	73.781	-0.122	-0.129
-686.324	-200.000	0.085	-0.616
-685.310	-52.006	-0.191	-0.090
-684.295	800.000	0.033	-0.145
-683.281	-125.315	-0.375	-0.058
-682.266	-175.362	-0.393	-0.011
-681.251	31.134	-0.171	-0.148
-680.237	546.239	0.037	0.089
-679.222	642.695	-0.072	-0.185
-678.208	5.169	0.178	-0.132
-677.193	287.982	-0.250	-0.457
-676.178	-153.576	0.047	-0.003
-675.164	-110.576	0.152	-0.032
-674.149	800.000	-0.030	-0.114
-673.135	800.000	-0.193	0.541
-672.120	6.163	-0.276	0.206
-671.105	-45.700	0.264	-0.131
-670.091	166.158	0.074	-0.105
-669.076	-200.000	0.042	0.204
-668.062	-30.815	0.089	-0.051
-667.047	-188.753	-0.170	0.002
-666.032	-87.516	0.360	0.110
-665.018	-131.722	0.176	-0.023
-664.003	618.372	-0.199	0.503
-662.989	273.372	0.097	-0.173
-661.974	-64.123	-0.416	-0.171
-660.959	-158.624	-0.248	-0.014
-659.945	-200.000	-0.048	0.330
-658.930	32.630	0.343	-0.299
-657.916	-51.516	-0.395	-0.186
-656.901	664.923	0.114	-0.296
-655.886	-200.000	0.007	-0.067
-654.872	69.522	0.072	-0.075
-653.857	-105.400	-0.167	0.038
-652.843	17.417	-0.266	-0.213
-651.828	800.000	-0.008	-0.024
-650.814	207.468	0.157	0.247
-649.799	127.593	-0.255	-0.326
-648.784	-43.429	-0.036	0.018
-647.770	-200.000	-0.017	-0.201
-646.755	172.920	0.279	-0.405
-645.741	447.725	-0.078	-0.172
-644.726	182.898	-0.216	-0.321
-643.711	-151.998	0.253	-0.019
-642.697	-17.922	0.168	-0.106
-641.682	-200.000	0.036	0.171
-640.668	-200.000	-0.025	0.340
-639.653	-19.760	-0.027	0.017
-638.638	-110.572	0.071	0.015
-637.624	-72.911	0.076	0.028
-636.609	149.198	-0.171	0.232
-635.595	-110.585	0.496	0.103
-634.580	-80.505	-0.194	0.065
-633.565	-200.000	-0.013	0.296
-632.551	466.037	0.061	0.137
-631.536	-55.898	-0.090	0.040
-630.522	-79.692	-0.297	-0.101
-629.507	800.000	-0.063	-0.184
-628.492	-118.332	0.195	-0.035
-627.478	73.755	0.116	0.122
-626.463	88.226	0.182	-0.203
-625.449	22.017	-0.118	-0.097
-624.434	-94.682	-0.508	-0.139
-623.419	800.000	0.129	-0.425
-622.405	74.511	0.186	-0.197
-621.390	-91.958	0.310	-0.088
-620.376	-111.748	-0.253	-0.052
-619.361	17.034	-0.307	0.245
-618.346	-70.740	-0.140	0.053
-617.332	-17.515	-0.416	-0.263
-616.317	-45.666	0.240	0.119
-615.303	280.716	0.053	0.095
-614.288	-200.000	-0.003	-0.206
-613.273	-200.000	0.022	0.184
-612.259	154.035	-0.182	0.251
-611.244	-12.468	-0.503	-0.330
-610.230	-36.558	0.171	-0.092
-609.215	367.777	0.058	0.117
-608.201	457.914	-0.140	0.313
-607.186	-43.483	0.116	-0.059
-606.171	-126.032	-0.077	-0.012
-605.157	13.242	-0.224	0.174
-604.142	-172.416	0.352	-0.011
-603.128	-200.000	-0.088	-0.432
-602.113	54.371	0.097	-0.094
-601.098	269.274	-0.018	-0.032
-600.084	-118.646	0.333	-0.059
-599.069	2.937	0.280	-0.205
-598.055	161.379	0.146	0.205
-597.040	-200.000	0.006	-0.099
-596.025	114.312	0.241	-0.295
-595.011	800.000	0.014	-0.044
-593.996	-132.574	-0.072	-0.009
-592.982	-38.474	0.071	-0.038
-591.967	-15.422	-0.163	0.104
-590.952	-200.000	0.020	-0.180
-589.938	-109.909	0.276	-0.058
-588.923	165.811	-0.138	-0.197
-587.909	115.839	0.133	-0.164
-586.894	-107.992	-0.039	0.008
-585.879	-200.000	-0.003	-0.328
-584.865	-4.054	0.158	-0.110
-583.850	-170.172	0.226	0.008
-582.836	734.458	-0.051	0.138
-581.821	-26.751	0.073	-0.043
-580.806	-104.106	0.188	0.044
-579.792	-58.568	-0.210	0.092
-578.777	96.020	0.118	-0.135
-577.763	-133.636	-0.426	-0.054
-576.748	-126.677	-0.170	0.025
-575.733	3.556	-0.195	0.143
-574.719	-43.078	-0.165	-0.084
-573.704	128.109	0.242	0.308
-572.690	49.909	-0.046	0.044
-571.675	800.000	0.078	0.254
-570.661	72.904	0.222	0.233
-569.646	800.000	-0.088	0.250
-568.631	-200.000	0.021	-0.316
-567.617	-87.013	-0.252	0.077
-566.602	-109.016	-0.290	0.062
-565.588	-88.541	-0.028	0.008
-564.573	-200.000	0.034	0.186
-563.558	119.746	0.161	0.200
-562.544	-200.000	-0.001	0.129
-561.529	-28.185	0.222	-0.129
-560.515	-164.447	0.224	-0.010
-559.500	163.340	-0.093	-0.131
-558.485	-94.219	0.286	-0.078
-557.471	349.489	-0.118	0.233
-556.456	-9.194	0.251	-0.169
-555.442	242.307	-0.194	-0.326
-554.427	423.588	-0.109	-0.236
-553.412	-30.365	-0.364	-0.207
-552.398	72.395	0.068	-0.071
-551.383	-130.675	0.129	0.017
-550.369	-200.000	-0.025	0.126
-549.354	-57.201	0.212	0.094
-548.339	-154.467	-0.226	-0.015
-547.325	-63.351	0.210	0.087
-546.310	-65.280	0.303	-0.122
-545.296	1.654	-0.320	0.231
-544.281	-28.965	-0.091	0.052
-543.266	-16.603	-0.272	-0.173
-542.252	-127.233	-0.263	0.039
-541.237	-27.882	-0.129	-0.075
-540.223	-14.024	-0.164	0.106
-539.208	772.599	-0.071	0.193
-538.193	1.623	0.378	0.273
-537.179	-113.613	0.196	-0.038
-536.164	42.877	-0.162	-0.148
-535.150	214.447	0.221	-0.351
-534.135	541.157	-0.057	-0.136
-533.121	-200.000	0.006	-0.481
-532.106	-57.912	-0.217	0.095
-531.091	240.935	-0.299	-0.499
-530.077	-112.174	0.179	0.036
-529.062	143.334	0.221	0.295
-528.048	800.000	0.101	-0.297
-527.033	107.597	0.148	-0.176
-526.018	101.132	0.178	-0.208
-525.004	175.804	0.074	0.108
-523.989	-4.438	0.114	-0.079
-522.975	800.000	-0.003	0.012
-521.960	402.665	-0.086	0.181
-520.945	-23.910	0.351	0.210
-519.931	647.979	-0.026	-0.067
-518.916	-63.654	0.335	-0.138
-517.902	-26.731	-0.404	-0.237
-516.887	14.814	-0.151	0.118
-515.872	800.000	-0.028	0.101
-514.858	-155.980	-0.343	0.022
-513.843	-41.211	-0.121	0.063
-512.829	-47.971	-0.336	0.163
-511.814	-180.057	-0.266	-0.006
-510.799	-35.141	-0.168	0.092
-509.785	800.000	0.040	0.168
-508.770	191.627	-0.160	0.241
-507.756	77.340	0.145	0.154
-506.741	-152.650	0.262	0.019
-505.726	-78.847	0.327	0.112
-504.712	72.108	-0.173	0.180
-503.697	-43.621	0.322	0.163
-502.683	-200.000	-0.042	0.328
-501.668	-5.040	0.050	0.034
-500.653	-200.000	0.006	0.273
-499.639	336.419	-0.087	0.168
-498.624	145.829	0.071	0.095
-497.610	-63.228	-0.111	-0.046
-496.595	-59.042	-0.161	0.070
-495.581	-200.000	-0.001	-0.248
-494.566	800.000	-0.065	-0.198
-493.551	52.012	-0.189	0.180
-492.537	-51.862	0.282	0.131
-491.522	800.000	0.045	0.188
-490.508	43.465	0.222	0.203
-489.493	-30.311	0.177	0.100
-488.478	-188.254	-0.220	-0.003
-487.464	-130.786	-0.158	0.021
-486.449	-136.992	-0.246	-0.028
-485.435	459.053	0.057	-0.126
-484.420	112.997	0.051	0.062
-483.405	20.999	0.134	0.109
-482.391	-88.345	0.415	-0.124
-481.376	-50.471	0.198	0.093
-480.362	52.409	-0.159	0.152
-479.347	-200.000	-0.040	-0.259
-478.332	232.519	-0.161	-0.265
-477.318	-2.211	0.139	0.097
-476.303	106.956	-0.153	0.181
-475.289	66.290	-0.117	0.118
-474.274	-57.188	0.240	0.106
-473.259	197.898	-0.117	0.179
-472.245	-88.065	-0.065	0.019
-471.230	-144.894	-0.256	0.023
-470.216	-46.602	0.173	-0.085
-469.201	800.000	0.039	-0.129
-468.186	45.444	0.109	-0.101
-467.172	749.857	0.084	0.227
-466.157	800.000	-0.074	-0.239
-465.143	-200.000	-0.031	0.315
-464.128	63.603	-0.163	-0.164
-463.113	45.512	-0.245	-0.226
-462.099	467.502	-0.119	0.268
-461.084	-130.232	0.107	0.015
-460.070	97.580	-0.067	0.077
-459.055	-38.755	0.195	0.103
-458.040	-122.500	0.195	0.032
-457.026	53.720	-0.134	0.129
-456.011	-200.000	0.030	-0.469
-454.997	-200.000	0.023	-0.431
-453.982	141.614	0.257	0.339
-452.968	-188.607	0.242	-0.003
-451.953	-91.752	0.113	0.032
-450.938	800.000	0.029	0.122
-449.924	-187.742	-0.262	0.003
-448.909	-96.271	-0.425	0.113
-447.895	423.283	-0.142	0.304
-446.880	403.249	-0.123	-0.258
-445.865	-146.569	0.327	0.028
-444.851	-148.625	-0.161	-0.013
-443.836	-153.608	0.218	0.015
-442.822	188.096	0.111	0.166
-441.807	-15.105	-0.249	-0.160
-440.792	197.574	0.189	-0.288
-439.778	22.395	-0.156	0.127
-438.763	-60.121	-0.193	0.082
-437.749	116.093	0.096	0.117
-436.734	297.931	0.087	0.160
-435.719	-139.267	-0.066	0.007
-434.705	-28.938	0.229	-0.131
-433.690	-14.567	-0.147	0.095
-432.676	-76.804	-0.259	-0.090
-431.661	800.000	0.022	-0.076
-430.646	-18.362	0.266	0.166
-429.632	120.971	0.094	-0.117
-428.617	-45.802	0.126	0.062
-427.603	21.683	-0.146	-0.118
-426.588	72.961	0.255	0.266
-425.573	316.987	-0.198	0.374
-424.559	744.148	-0.082	-0.220
-423.544	-200.000	-0.034	-0.157
-422.530	187.759	0.175	-0.261
-421.515	169.813	0.053	-0.076
-420.500	-122.512	0.418	0.068
-419.486	-14.183	0.151	-0.097
-418.471	26.885	0.106	0.088
-417.457	-102.778	-0.239	0.057
-416.442	-200.000	0.006	0.061
-415.428	-98.094	-0.095	-0.024
-414.413	-91.096	-0.362	-0.104
-413.398	-200.000	-0.185	-0.000
-412.384	-32.312	-0.060	0.033
-411.369	222.973	0.080	-0.129
-410.355	21.253	-0.269	0.218
-409.340	800.000	-0.055	-0.191
-408.325	77.779	-0.113	-0.120
-407.311	-33.562	-0.173	0.095
-406.296	-8.766	-0.467	0.312
-405.282	29.451	-0.071	-0.060
-404.267	-112.847	0.176	-0.035
-403.252	99.171	0.276	-0.317
-402.238	-200.000	-0.001	-0.275
-401.223	314.883	0.165	0.309
-400.209	321.199	-0.150	-0.285
-399.194	747.059	-0.102	0.274
-398.179	-200.000	-0.079	-0.449
-397.165	18.699	-0.088	0.070
-396.150	110.872	0.052	0.063
-395.136	-92.082	0.126	-0.036
-394.121	133.654	0.128	0.165
-393.106	-73.675	-0.495	-0.180
-392.092	-74.745	-0.419	0.150
-391.077	-52.577	0.104	0.048
-390.063	368.810	-0.057	-0.114
-389.048	531.963	-0.054	0.128
-388.033	561.887	0.022	-0.053
-387.019	800.000	0.084	0.294
-386.004	182.055	-0.115	0.169
-384.990	-55.790	-0.142	0.063
-383.975	374.754	0.199	0.405
-382.960	68.111	0.082	-0.083
-381.946	539.441	0.119	-0.283
-380.931	-200.000	0.030	-0.199
-379.917	-56.841	-0.239	-0.105
-378.902	-23.572	-0.163	0.097
-377.888	-57.807	0.261	-0.114
-376.873	52.777	-0.270	0.257
-375.858	-116.090	-0.120	-0.022
-374.844	256.389	-0.058	-0.100
-373.829	800.000	-0.021	0.079
-372.815	800.000	-0.050	0.191
-371.800	-39.943	-0.217	-0.113
-370.785	-200.000	0.025	-0.252
-369.771	-79.568	-0.225	-0.076
-368.756	9.068	-0.235	0.177
-367.742	290.397	-0.130	0.235
-366.727	-200.000	0.024	0.149
-365.712	-200.000	-0.005	0.358
-364.698	13.439	0.122	0.094
-363.683	-113.681	0.363	-0.070
-362.669	-21.577	-0.139	-0.084
-361.654	240.266	-0.009	-0.014
-360.639	-111.609	-0.128	-0.026
-359.625	-200.000	-0.071	-0.378
-358.610	-110.207	-0.480	0.100
-357.596	391.812	-0.077	-0.158
-356.581	9.602	-0.112	0.084
-355.566	-56.348	-0.255	0.113
-354.552	-9.588	0.212	-0.140
-353.537	239.499	-0.098	0.162
-352.523	-139.039	0.201	0.022
-351.508	800.000	0.067	-0.255
-350.493	44.564	-0.231	0.211
-349.479	112.025	0.112	-0.135
-348.464	412.243	-0.120	0.254
-347.450	63.248	-0.094	0.093
-346.435	158.464	0.136	-0.187
-345.420	-32.377	0.126	0.070
-344.406	-148.916	0.223	-0.018
-343.391	79.182	0.071	0.075
-342.377	375.789	0.079	0.160
-341.362	800.000	-0.065	-0.262
-340.348	224.704	-0.060	-0.096
-339.333	-106.182	-0.024	0.005
-338.318	211.548	0.200	-0.314
-337.304	297.231	-0.079	0.143
-336.289	-79.738	0.350	-0.117
-335.275	129.595	0.148	-0.188
-334.260	-200.000	-0.025	0.241
-333.245	-163.159	-0.214	-0.010
-332.231	-200.000	-0.017	-0.198
-331.216	-23.373	-0.043	0.025
-330.202	33.395	0.121	0.105
-329.187	800.000	-0.138	-0.434
-328.172	-75.733	0.320	0.113
-327.158	1.552	-0.199	0.142
-326.143	-60.035	-0.059	-0.025
-325.129	29.128	-0.063	0.053
-324.114	27.851	-0.037	-0.031
-323.099	-89.863	-0.112	0.033
-322.085	800.000	0.051	-0.220
-321.070	-23.130	-0.323	-0.193
-320.056	-100.432	-0.104	-0.026
-319.041	667.081	-0.086	0.221
-318.026	338.451	0.068	-0.131
-317.012	800.000	0.104	0.293
-315.997	258.977	-0.047	-0.081
-314.983	-200.000	-0.004	-0.041
-313.968	800.000	-0.018	-0.070
-312.953	-167.689	-0.227	-0.009
-311.939	82.086	0.143	0.154
-310.924	562.468	-0.080	0.191
-309.910	316.422	0.138	-0.258
-308.895	221.932	0.043	0.068
-307.880	295.336	-0.167	-0.303
-306.866	-200.000	0.039	0.382
-305.851	17.883	0.270	0.213
-304.837	-200.000	-0.001	-0.511
-303.822	-35.807	0.025	-0.013
-302.807	-200.000	0.080	-0.392
-301.793	-64.645	-0.254	-0.102
-300.778	-200.000	-0.001	0.351
-299.764	-4.201	-0.116	0.080
-298.749	40.527	-0.041	-0.037
-297.735	257.007	-0.074	-0.127
-296.720	-119.902	-0.142	0.024
-295.705	-33.053	0.144	-0.079
-294.691	-200.000	-0.030	0.201
-293.676	-81.437	-0.089	0.029
-292.662	-200.000	0.023	0.176
-291.647	-200.000	-0.018	-0.472
-290.632	800.000	0.071	-0.196
-289.618	80.331	-0.024	0.026
-288.603	57.894	0.222	0.215
-287.589	800.000	-0.051	0.211
-286.574	629.783	0.083	0.207
-285.559	193.910	-0.048	0.072
-284.545	-119.796	-0.144	-0.025
-283.530	-200.000	0.008	-0.157
-282.516	127.462	0.259	0.326
-281.501	-56.528	0.532	-0.234
-280.486	-27.471	0.171	-0.099
-279.472	-106.131	0.185	-0.041
-278.457	-48.997	-0.144	-0.068
-277.443	478.437	0.142	0.318
-276.428	-200.000	-0.055	-0.391
-275.413	174.136	-0.140	-0.201
-274.399	52.032	-0.250	0.237
-273.384	-200.000	-0.018	0.205
-272.370	-163.803	-0.188	0.009
-271.355	-200.000	0.069	-0.426
-270.340	61.342	-0.110	-0.108
-269.326	-200.000	-0.057	-0.288
-268.311	800.000	-0.096	0.279
-267.297	771.120	0.054	-0.145
-266.282	-200.000	-0.018	-0.098
-265.267	-131.749	-0.326	0.042
-264.253	-200.000	0.035	-0.251
-263.238	-166.144	0.254	0.011
-262.224	-184.882	-0.036	0.001
-261.209	-144.020	0.145	0.014
-260.195	66.929	-0.325	-0.328
-259.180	518.824	-0.104	-0.241
-258.165	-200.000	0.001	-0.059
-257.151	-0.881	-0.084	0.059
-256.136	158.984	0.072	0.099
-255.122	246.086	-0.105	-0.175
-254.107	122.646	-0.106	-0.132
-253.092	-200.000	0.011	0.526
-252.078	-200.000	0.003	-0.080
-251.063	-34.589	-0.135	0.073
-250.049	139.090	-0.146	-0.190
-249.034	173.674	0.105	-0.151
-248.019	-99.142	-0.200	-0.050
-247.005	-32.933	0.300	-0.165
-245.990	-170.335	0.418	-0.015
-244.976	800.000	0.083	-0.324
-243.961	-46.598	-0.036	0.017
-242.946	57.847	-0.156	0.151
-241.932	735.158	-0.129	-0.343
-240.917	-39.592	0.148	0.077
-239.903	23.730	-0.181	0.148
-238.888	-81.617	-0.154	0.050
-237.873	-141.732	0.174	0.017
-236.859	198.636	-0.111	-0.168
-235.844	-200.000	0.004	-0.123
-234.830	-13.846	0.160	0.103
-233.815	-71.493	0.165	0.061
-232.800	90.697	-0.120	-0.133
-231.786	93.272	0.120	-0.135
-230.771	-200.000	0.055	0.246
-229.757	-89.834	0.666	0.193
-228.742	-93.153	-0.268	0.074
-227.727	4.490	0.026	-0.019
-226.713	35.753	0.184	-0.160
-225.698	240.446	-0.083	-0.137
-224.684	714.775	-0.050	-0.130
-223.669	76.115	-0.123	-0.129
-222.655	11.962	-0.121	0.092
-221.640	-200.000	-0.009	0.193
-220.625	-200.000	0.008	0.095
-219.611	-157.743	-0.098	0.006
-218.596	172.457	0.175	0.249
-217.582	-38.405	-0.198	-0.104
-216.567	-24.949	0.121	-0.071
-215.552	-200.000	0.048	0.252
-214.538	800.000	0.045	0.150
-213.523	800.000	0.083	0.275
-212.509	167.138	-0.071	0.100
-211.494	48.393	0.045	-0.042
-210.479	-66.513	0.033	0.013
-209.465	-200.000	-0.013	0.261
-208.450	147.645	0.114	0.153
-207.436	-57.286	0.168	-0.073
-206.421	-200.000	-0.001	0.006
-205.406	23.829	0.154	-0.126
-204.392	-200.000	-0.010	0.061
-203.377	165.631	-0.057	0.079
-202.363	-200.000	0.027	-0.270
-201.348	-60.798	0.288	0.121
-200.333	388.057	0.065	0.133
-199.319	86.175	0.079	0.086
-198.304	-11.142	-0.177	0.115
-197.290	-200.000	-0.008	0.049
-196.275	21.509	0.136	0.109
-195.260	-124.809	0.189	-0.029
-194.246	1.422	0.360	-0.256
-193.231	17.337	-0.138	-0.109
-192.217	359.567	-0.034	0.067
-191.202	87.781	0.007	-0.008
-190.187	65.597	0.031	0.031
-189.173	-200.000	0.036	0.394
-188.158	-153.708	-0.114	0.008
-187.144	-49.166	0.303	0.143
-186.129	800.000	0.051	0.174
-185.114	130.708	0.121	0.153
-184.100	-26.281	-0.257	-0.149
-183.085	53.207	0.085	0.081
-182.071	143.136	0.238	-0.313
-181.056	65.013	-0.165	0.165
-180.042	-200.000	0.004	-0.059
-179.027	26.546	0.230	-0.190
-178.012	-200.000	-0.044	0.432
-176.998	-46.653	-0.094	0.045
-175.983	648.870	0.066	0.166
-174.969	161.617	0.071	0.099
-173.954	-200.000	0.052	0.258
-172.939	-48.931	0.232	0.110
-171.925	-142.803	-0.134	0.013
-170.910	170.436	0.043	0.061
-169.896	380.839	-0.036	-0.073
-168.881	-200.000	-0.018	0.200
-167.866	-14.934	0.077	-0.048
-166.852	133.777	0.185	0.236
-165.837	9.690	0.067	0.050
-164.823	532.000	-0.048	-0.111
-163.808	57.531	0.128	-0.124
-162.793	-155.242	0.265	0.017
-161.779	98.942	-0.109	-0.125
-160.764	369.608	-0.179	0.358
-159.750	-107.853	-0.006	-0.001
-158.735	-94.486	0.220	0.059
-157.720	491.867	0.072	-0.163
-156.706	173.899	0.155	0.221
-155.691	98.429	0.239	0.272
-154.677	-200.000	0.022	-0.233
-153.662	-200.000	0.013	-0.147
-152.647	108.208	0.162	-0.190
-151.633	107.317	-0.168	-0.198
-150.618	-200.000	0.057	-0.328
-149.604	15.160	-0.144	-0.111
-148.589	189.666	0.143	0.212
-147.574	182.415	-0.170	0.247
-146.560	125.431	-0.283	0.352
-145.545	23.026	-0.096	-0.078
-144.531	-200.000	0.002	-0.087
-143.516	424.190	0.042	0.088
-142.502	271.766	-0.091	-0.158
-141.487	-168.426	0.063	0.002
-140.472	-95.188	-0.108	0.029
-139.458	163.160	-0.055	-0.076
-138.443	109.039	-0.132	-0.156
-137.429	24.899	-0.056	0.046
-136.414	43.149	0.143	0.128
-135.399	236.324	0.182	0.297
-134.385	259.738	-0.114	0.195
-133.370	800.000	0.033	0.122
-132.356	-183.195	0.195	0.003
-131.341	-71.780	0.190	0.070
-130.326	149.971	-0.035	0.047
-129.312	-34.492	0.098	0.053
-128.297	785.794	0.153	0.413
-127.283	-152.014	-0.177	-0.013
-126.268	-140.230	-0.153	0.016
-125.253	-40.486	0.200	-0.102
-124.239	493.992	-0.044	-0.100
-123.224	287.409	-0.197	0.351
-122.210	36.484	0.259	0.225
-121.195	800.000	-0.049	0.136
