DTS Sentinel unit serial number:	SN413079Multiplexer serial number:	ORYXHardware model number:	OX4-SRSoftware version number:	ORYX F/W v4.00 Oryx Data Collector v3.7.2.0data status	okinstallation	princeton_trtdifferential loss correction	single-endedforward channel	channel 3reverse channel	N/Adate	2019/09/17time	18:20:35forward acquisition time	60.00reverse acquisition time	0.00gamma	496.2192k internal	0.2289k external	0.2289temperature offset calibration	0.9950default loss term (dB/km)	0.3790temperature slope calibration	1.0000multiplexer offset coefficient	1.0000multiplexer slope coefficient	1.0000fibre end	0.00T internal ref (°C)	43.31T ext. ref 1 (°C)	0.31T ext. ref 2 (°C)	36.92length (m)	temperature (°C)	Stokes	anti-Stokes-747.200	4.322	0.371	0.279
-746.185	-120.595	0.318	0.055
-745.171	-200.000	-0.001	-0.118
-744.156	16.705	-0.388	0.315
-743.142	14.712	-0.155	-0.124
-742.127	-76.189	0.248	0.090
-741.112	-200.000	0.023	-0.139
-740.098	800.000	0.066	0.202
-739.083	278.917	-0.039	0.072
-738.069	-200.000	0.020	0.313
-737.054	366.778	0.096	-0.198
-736.039	789.308	-0.090	0.254
-735.025	800.000	0.071	0.271
-734.010	-200.000	0.000	0.013
-732.996	-7.633	-0.079	0.055
-731.981	222.600	-0.106	0.175
-730.966	12.120	-0.124	0.098
-729.952	-4.331	-0.074	-0.052
-728.937	-36.349	-0.262	0.145
-727.923	800.000	-0.081	0.269
-726.908	-200.000	0.035	-0.222
-725.894	-49.606	-0.406	-0.198
-724.879	-89.757	-0.302	-0.091
-723.864	202.315	-0.046	0.072
-722.850	-27.510	0.195	0.116
-721.835	10.543	0.017	-0.013
-720.821	264.877	0.234	-0.417
-719.806	-70.961	-0.350	0.135
-718.791	-36.531	-0.256	0.141
-717.777	-153.118	-0.065	0.005
-716.762	222.272	0.070	-0.115
-715.748	-70.006	0.109	0.042
-714.733	132.303	0.118	-0.156
-713.718	351.228	-0.048	0.098
-712.704	800.000	-0.065	0.220
-711.689	-111.454	0.272	0.057
-710.675	-200.000	-0.003	0.118
-709.660	-69.299	0.134	0.053
-708.645	145.979	-0.073	0.100
-707.631	-22.713	-0.240	0.148
-706.616	47.944	-0.184	-0.176
-705.602	-11.038	-0.203	-0.137
-704.587	-13.863	0.141	-0.093
-703.572	-119.840	0.139	0.024
-702.558	-200.000	-0.027	0.165
-701.543	62.977	-0.031	0.032
-700.529	7.986	0.227	-0.174
-699.514	-200.000	0.021	-0.266
-698.499	-164.775	-0.205	0.009
-697.485	-200.000	0.021	0.247
-696.470	322.408	-0.011	-0.022
-695.456	81.964	-0.052	-0.057
-694.441	-13.453	0.131	0.087
-693.426	545.517	-0.147	-0.360
-692.412	-200.000	-0.044	-0.199
-691.397	800.000	0.090	0.332
-690.383	-200.000	-0.019	0.179
-689.368	412.853	0.058	-0.127
-688.354	-118.968	-0.132	-0.024
-687.339	315.133	-0.118	0.228
-686.324	750.757	0.061	-0.168
-685.310	105.218	-0.207	-0.250
-684.295	-66.020	0.112	0.046
-683.281	-200.000	0.046	0.249
-682.266	156.270	-0.278	-0.393
-681.251	800.000	0.057	-0.229
-680.237	-85.062	-0.210	-0.067
-679.222	800.000	-0.069	0.225
-678.208	128.453	-0.125	-0.162
-677.193	-200.000	0.042	-0.326
-676.178	-119.948	-0.435	-0.076
-675.164	-161.716	-0.147	0.008
-674.149	92.260	-0.147	-0.169
-673.135	-82.791	-0.163	-0.054
-672.120	-114.882	0.297	-0.058
-671.105	718.145	0.020	-0.054
-670.091	-200.000	0.052	0.305
-669.076	135.177	0.110	0.147
-668.062	-69.131	0.187	0.073
-667.047	294.576	0.133	0.249
-666.032	82.207	-0.144	-0.159
-665.018	-36.181	-0.132	-0.073
-664.003	37.693	0.061	-0.055
-662.989	-200.000	0.006	0.086
-661.974	-99.450	0.103	0.026
-660.959	651.117	0.122	-0.320
-659.945	-138.698	-0.375	-0.042
-658.930	-200.000	-0.044	-0.372
-657.916	800.000	-0.068	-0.260
-656.901	166.243	0.157	0.227
-655.886	-110.534	0.383	0.081
-654.872	-15.234	-0.110	-0.072
-653.857	470.524	0.103	0.237
-652.843	-79.518	0.116	-0.040
-651.828	770.723	0.101	-0.282
-650.814	-54.196	0.057	-0.027
-649.799	-59.296	0.334	0.147
-648.784	145.326	0.110	0.150
-647.770	-38.399	0.170	0.092
-646.755	-48.880	0.122	0.060
-645.741	-21.799	-0.133	-0.083
-644.726	-146.767	-0.231	0.020
-643.711	-61.873	0.117	-0.050
-642.697	-75.998	0.074	-0.027
-641.682	172.076	0.044	-0.065
-640.668	241.358	0.042	0.071
-639.653	-108.792	-0.057	-0.012
-638.638	-52.249	-0.335	0.159
-637.624	-139.249	0.322	0.035
-636.609	-200.000	-0.018	-0.162
-635.595	800.000	0.059	-0.166
-634.580	-23.627	0.257	-0.157
-633.565	-61.921	0.016	-0.007
-632.551	-155.782	-0.311	0.020
-631.536	-63.818	-0.344	-0.144
-630.522	-163.719	-0.293	0.014
-629.507	-200.000	0.003	-0.197
-628.492	647.672	-0.108	0.283
-627.478	-176.117	-0.114	0.003
-626.463	-118.563	-0.336	-0.061
-625.449	-89.745	0.050	-0.015
-624.434	96.098	-0.166	0.194
-623.419	-200.000	0.003	0.129
-622.405	-200.000	-0.039	-0.379
-621.390	-200.000	0.008	-0.104
-620.376	-22.719	0.117	0.072
-619.361	-30.766	-0.168	-0.097
-618.346	48.559	-0.063	0.061
-617.332	-200.000	-0.153	-0.000
-616.317	-71.064	-0.162	0.062
-615.303	-97.238	0.145	-0.039
-614.288	17.594	0.214	-0.174
-613.273	57.940	0.155	0.155
-612.259	-200.000	0.015	-0.095
-611.244	-200.000	-0.013	-0.187
-610.230	597.968	-0.029	-0.074
-609.215	800.000	-0.117	-0.385
-608.201	-200.000	0.037	0.171
-607.186	-200.000	0.038	0.203
-606.171	391.709	0.085	-0.180
-605.157	192.104	0.103	0.158
-604.142	67.012	0.120	0.124
-603.128	22.242	0.315	0.262
-602.113	-17.192	0.124	-0.080
-601.098	519.665	-0.112	0.267
-600.084	-109.063	-0.118	-0.026
-599.069	313.070	0.165	0.317
-598.055	-200.000	0.014	-0.074
-597.040	-98.280	-0.302	0.079
-596.025	-200.000	0.010	-0.308
-595.011	-68.546	0.063	0.025
-593.996	-53.911	-0.186	0.086
-592.982	220.585	-0.206	0.337
-591.967	-93.539	-0.292	-0.082
-590.952	-21.861	0.119	0.074
-589.938	800.000	0.079	-0.328
-588.923	-27.011	0.181	-0.108
-587.909	-66.173	0.194	0.079
-586.894	-200.000	-0.002	-0.073
-585.879	-4.137	0.105	0.074
-584.865	250.771	-0.058	0.100
-583.850	139.970	0.115	0.155
-582.836	-35.783	-0.300	0.166
-581.821	-171.901	-0.177	0.006
-580.806	-200.000	-0.011	0.106
-579.792	48.226	0.207	0.197
-578.777	90.734	0.088	-0.101
-577.763	666.571	0.070	0.185
-576.748	-108.248	-0.244	-0.054
-575.733	-200.000	-0.020	-0.265
-574.719	-112.464	-0.003	0.001
-573.704	-200.000	0.009	-0.063
-572.690	729.368	-0.071	-0.192
-571.675	100.724	0.104	-0.123
-570.661	469.045	0.107	0.245
-569.646	-177.308	0.110	0.003
-568.631	71.819	-0.199	-0.211
-567.617	216.379	0.102	0.166
-566.602	-122.187	0.263	-0.044
-565.588	-20.651	-0.161	-0.101
-564.573	25.456	-0.232	-0.197
-563.558	-200.000	0.040	-0.513
-562.544	-200.000	0.022	-0.188
-561.529	-25.767	-0.163	-0.098
-560.515	84.902	-0.180	-0.200
-559.500	-29.078	-0.101	-0.059
-558.485	-200.000	-0.011	-0.048
-557.471	-83.119	-0.157	0.051
-556.456	-64.744	-0.050	0.021
-555.442	-38.266	0.176	0.095
-554.427	28.398	-0.090	0.078
-553.412	-156.020	0.038	-0.002
-552.398	230.483	-0.173	-0.288
-551.383	164.711	-0.047	-0.067
-550.369	-200.000	0.072	-0.394
-549.354	-200.000	0.011	-0.461
-548.339	-169.555	-0.314	-0.012
-547.325	-63.727	0.210	0.087
-546.310	-200.000	0.046	-0.224
-545.296	-200.000	0.046	-0.208
-544.281	-200.000	-0.024	0.163
-543.266	-111.680	-0.110	-0.023
-542.252	-197.950	-0.156	-0.001
-541.237	22.881	-0.190	0.158
-540.223	-200.000	-0.014	-0.157
-539.208	-15.661	0.035	0.023
-538.193	25.073	0.142	-0.120
-537.179	108.034	-0.308	-0.374
-536.164	-20.918	0.108	0.068
-535.150	-4.535	-0.055	0.039
-534.135	-108.656	0.089	-0.019
-533.121	-200.000	-0.012	-0.123
-532.106	800.000	0.138	-0.416
-531.091	-200.000	0.003	-0.127
-530.077	527.978	-0.130	0.312
-529.062	54.280	0.070	-0.068
-528.048	-37.724	0.485	-0.263
-527.033	95.700	0.223	0.258
-526.018	334.458	-0.161	0.316
-525.004	10.357	0.108	-0.084
-523.989	-200.000	0.028	-0.228
-522.975	800.000	-0.024	0.073
-521.960	-50.265	-0.154	0.074
-520.945	203.685	-0.151	-0.237
-519.931	-200.000	0.048	0.218
-518.916	-68.890	-0.177	-0.069
-517.902	-63.745	-0.165	-0.069
-516.887	17.508	0.379	-0.306
-515.872	-147.373	0.168	0.014
-514.858	-61.989	0.127	-0.054
-513.843	35.398	-0.103	-0.092
-512.829	800.000	-0.127	-0.361
-511.814	-200.000	-0.025	-0.112
-510.799	270.910	-0.120	-0.215
-509.785	-200.000	0.039	0.634
-508.770	1.471	0.237	-0.173
-507.756	119.689	-0.103	0.129
-506.741	75.420	-0.178	0.191
-505.726	-72.031	0.076	0.029
-504.712	-200.000	0.039	-0.341
-503.697	800.000	-0.090	-0.257
-502.683	-16.566	0.342	-0.220
-501.668	-68.360	0.184	0.073
-500.653	-22.542	-0.166	0.102
-499.639	-89.748	-0.083	-0.025
-498.624	-89.904	0.201	-0.060
-497.610	257.450	0.139	-0.243
-496.595	105.155	-0.043	-0.051
-495.581	11.403	-0.054	0.042
-494.566	-29.593	-0.214	-0.124
-493.551	115.588	0.132	-0.164
-492.537	-1.763	-0.130	-0.093
-491.522	9.247	0.254	-0.195
-490.508	50.643	-0.154	0.148
-489.493	108.265	-0.144	0.174
-488.478	-31.268	-0.054	0.031
-487.464	20.557	-0.086	-0.070
-486.449	5.245	-0.245	0.184
-485.435	263.873	0.187	0.331
-484.420	-8.540	-0.264	0.180
-483.405	-52.698	0.182	0.085
-482.391	-57.835	0.491	-0.218
-481.376	262.087	0.070	-0.123
-480.362	762.251	0.108	-0.297
-479.347	116.308	0.187	-0.233
-478.332	2.635	-0.127	-0.093
-477.318	90.415	-0.065	0.073
-476.303	112.763	-0.119	-0.146
-475.289	512.155	-0.203	-0.479
-474.274	-170.597	0.150	0.005
-473.259	272.050	0.073	0.131
-472.245	351.089	-0.055	0.109
-471.230	40.636	-0.109	0.099
-470.216	-200.000	-0.029	-0.277
-469.201	-85.474	-0.100	-0.032
-468.186	800.000	-0.142	0.432
-467.172	18.275	-0.079	0.064
-466.157	121.252	-0.205	-0.259
-465.143	247.671	0.194	-0.332
-464.128	378.826	0.208	0.432
-463.113	800.000	-0.041	-0.174
-462.099	74.118	0.228	-0.243
-461.084	307.894	-0.079	-0.149
-460.070	-166.777	0.547	-0.023
-459.055	-200.000	-0.014	0.352
-458.040	395.978	-0.130	-0.274
-457.026	157.434	-0.066	0.092
-456.011	565.457	-0.132	0.325
-454.997	424.835	-0.179	-0.391
-453.982	111.083	-0.105	-0.129
-452.968	532.064	0.096	-0.231
-451.953	800.000	0.076	-0.251
-450.938	44.364	-0.101	-0.094
-449.924	465.018	0.068	-0.154
-448.909	-200.000	0.050	-0.316
-447.895	-18.365	0.315	0.199
-446.880	89.917	-0.239	-0.271
-445.865	-135.164	0.429	-0.052
-444.851	457.236	-0.150	-0.337
-443.836	-200.000	0.033	-0.150
-442.822	0.362	-0.089	0.064
-441.807	-200.000	-0.013	0.317
-440.792	-48.451	0.218	0.106
-439.778	-13.190	-0.143	-0.094
-438.763	-44.617	0.108	0.055
-437.749	-26.260	-0.326	-0.194
-436.734	-28.457	-0.186	-0.109
-435.719	-21.869	-0.188	-0.116
-434.705	790.129	0.131	0.365
-433.690	-200.000	0.021	0.113
-432.676	380.031	-0.086	-0.179
-431.661	258.639	-0.047	0.083
-430.646	469.951	-0.078	-0.178
-429.632	59.947	-0.096	0.096
-428.617	-11.549	-0.170	0.113
-427.603	-109.639	0.331	0.071
-426.588	-61.706	0.259	0.110
-425.573	-200.000	-0.054	0.310
-424.559	58.778	-0.149	-0.148
-423.544	83.476	-0.375	-0.413
-422.530	-57.378	0.279	-0.124
-421.515	5.243	-0.185	-0.138
-420.500	6.598	0.338	0.254
-419.486	133.844	0.172	-0.225
-418.471	-200.000	-0.012	-0.409
-417.457	800.000	0.088	-0.309
-416.442	209.758	-0.303	-0.482
-415.428	413.775	-0.107	-0.230
-414.413	-60.992	0.070	-0.030
-413.398	-200.000	-0.010	0.191
-412.384	-200.000	-0.035	-0.216
-411.369	381.089	-0.164	0.340
-410.355	-200.000	-0.003	0.221
-409.340	-148.471	-0.390	0.032
-408.325	260.919	-0.191	-0.335
-407.311	578.041	0.099	0.245
-406.296	118.046	-0.055	0.069
-405.282	-45.069	0.203	0.102
-404.267	281.533	0.091	0.164
-403.252	13.403	0.109	-0.085
-402.238	-200.000	0.003	-0.028
-401.223	800.000	-0.022	-0.083
-400.209	-128.135	0.126	0.018
-399.194	800.000	0.100	0.334
-398.179	116.485	0.112	-0.139
-397.165	-200.000	-0.043	0.309
-396.150	-200.000	0.043	-0.286
-395.136	-164.031	0.159	-0.007
-394.121	-70.358	0.150	0.058
-393.106	425.828	0.074	-0.162
-392.092	-84.267	-0.285	-0.091
-391.077	-31.605	0.079	-0.045
-390.063	-196.452	-0.160	-0.001
-389.048	800.000	-0.015	0.055
-388.033	-200.000	0.037	0.294
-387.019	-128.085	0.086	-0.013
-386.004	44.209	-0.072	0.066
-384.990	189.093	-0.123	-0.187
-383.975	330.810	-0.154	0.301
-382.960	-19.985	0.144	-0.090
-381.946	271.415	0.186	0.331
-380.931	63.659	0.149	-0.151
-379.917	10.974	0.227	-0.175
-378.902	800.000	0.078	0.221
-377.888	800.000	0.061	0.212
-376.873	750.725	-0.110	-0.301
-375.858	-115.440	-0.237	-0.045
-374.844	-200.000	0.022	0.261
-373.829	-154.555	-0.336	0.023
-372.815	-200.000	0.025	0.308
-371.800	-152.330	-0.088	-0.006
-370.785	125.578	0.021	0.027
-369.771	-147.088	-0.109	-0.009
-368.756	-200.000	-0.010	0.168
-367.742	-52.698	0.020	0.009
-366.727	593.983	0.134	0.334
-365.712	-200.000	-0.013	-0.146
-364.698	-185.791	-0.151	-0.002
-363.683	-69.648	-0.037	0.014
-362.669	-200.000	-0.043	0.223
-361.654	207.993	0.067	0.106
-360.639	800.000	0.028	-0.089
-359.625	800.000	-0.069	0.215
-358.610	-42.259	0.276	0.142
-357.596	-17.163	0.081	0.051
-356.581	-55.564	0.256	-0.116
-355.566	123.559	-0.166	-0.210
-354.552	-200.000	-0.003	0.044
-353.537	-122.459	0.091	0.015
-352.523	319.230	0.163	0.311
-351.508	-9.936	-0.193	0.130
-350.493	337.063	-0.149	-0.291
-349.479	10.848	-0.146	-0.113
-348.464	128.716	-0.126	0.162
-347.450	-200.000	0.009	0.194
-346.435	-200.000	0.018	-0.312
-345.420	-37.235	0.287	-0.155
-344.406	6.678	-0.194	-0.146
-343.391	529.463	-0.060	0.143
-342.377	-73.849	-0.254	0.093
-341.362	166.583	-0.125	-0.179
-340.348	-67.673	0.160	-0.063
-339.333	-200.000	0.281	0.000
-338.318	-1.426	0.245	-0.174
-337.304	-32.538	-0.166	-0.093
-336.289	164.210	0.226	0.321
-335.275	-10.089	-0.164	-0.110
-334.260	-19.496	0.262	0.164
-333.245	-13.057	-0.117	0.077
-332.231	-166.579	-0.160	-0.007
-331.216	800.000	-0.017	0.050
-330.202	-37.006	0.087	-0.047
-329.187	115.373	0.077	0.095
-328.172	79.109	-0.332	-0.359
-327.158	800.000	-0.054	-0.222
-326.143	800.000	-0.007	0.029
-325.129	4.442	-0.150	-0.111
-324.114	-45.485	0.246	0.123
-323.099	42.167	0.167	-0.153
-322.085	-112.269	-0.093	0.019
-321.070	-200.000	0.003	-0.230
-320.056	-105.208	-0.144	0.033
-319.041	800.000	-0.058	0.237
-318.026	41.156	0.158	-0.144
-317.012	-200.000	0.013	-0.083
-315.997	-122.032	-0.266	-0.044
-314.983	249.335	-0.096	0.164
-313.968	-200.000	0.106	0.495
-312.953	-200.000	-0.031	0.306
-311.939	327.184	0.200	0.386
-310.924	-200.000	-0.014	0.413
-309.910	-30.360	0.066	0.038
-308.895	80.537	0.087	-0.094
-307.880	800.000	0.022	0.084
-306.866	359.355	-0.122	0.246
-305.851	-134.384	0.198	0.024
-304.837	220.763	-0.146	0.236
-303.822	-146.549	0.231	0.020
-302.807	490.862	-0.099	0.227
-301.793	-135.605	-0.297	-0.036
-300.778	114.347	0.029	0.036
-299.764	-20.871	-0.193	0.119
-298.749	190.601	0.083	-0.126
-297.735	82.955	-0.226	-0.248
-296.720	-107.401	-0.175	-0.039
-295.705	371.577	-0.112	-0.228
-294.691	-179.177	0.083	0.002
-293.676	54.785	-0.084	0.081
-292.662	782.172	-0.114	0.314
-291.647	86.552	0.021	-0.024
-290.632	-69.606	-0.082	-0.032
-289.618	5.980	-0.011	-0.008
-288.603	-36.174	0.053	0.029
-287.589	694.055	-0.155	0.410
-286.574	-120.003	0.192	0.033
-285.559	-11.496	0.132	0.087
-284.545	-200.000	0.004	0.149
-283.530	363.946	-0.044	-0.089
-282.516	800.000	-0.025	0.096
-281.501	-10.093	-0.206	-0.138
-280.486	52.928	-0.290	-0.279
-279.472	723.451	0.155	0.416
-278.457	13.699	0.063	0.049
-277.443	14.558	-0.193	0.151
-276.428	3.329	-0.102	-0.075
-275.413	-126.883	-0.257	-0.038
-274.399	800.000	0.021	-0.075
-273.384	-9.185	0.197	-0.133
-272.370	528.793	0.199	0.473
-271.355	-5.697	0.037	-0.025
-270.340	800.000	-0.055	0.159
-269.326	750.147	-0.016	0.044
-268.311	183.837	0.153	0.227
-267.297	800.000	0.036	0.128
-266.282	-70.064	-0.091	0.035
-265.267	-60.411	0.273	0.117
-264.253	800.000	-0.030	-0.118
-263.238	-105.790	0.297	-0.068
-262.224	800.000	0.051	0.188
-261.209	-36.644	-0.114	0.062
-260.195	319.859	0.092	-0.175
-259.180	800.000	-0.054	0.170
-258.165	800.000	-0.074	-0.208
-257.151	-63.091	0.456	-0.189
-256.136	-188.708	-0.125	-0.002
-255.122	-64.608	0.234	0.095
-254.107	-6.935	0.235	-0.160
-253.092	436.040	-0.180	0.393
-252.078	513.610	-0.048	0.112
-251.063	20.960	0.256	0.209
-250.049	70.268	0.224	0.232
-249.034	325.988	0.122	0.235
-248.019	-91.810	0.384	0.110
-247.005	-200.000	0.022	0.357
-245.990	-200.000	0.009	-0.113
-244.976	-200.000	-0.001	0.076
-243.961	800.000	-0.119	0.337
-242.946	800.000	-0.073	-0.272
-241.932	-200.000	-0.068	0.400
-240.917	766.806	-0.051	0.138
-239.903	-42.718	0.112	0.057
-238.888	99.552	-0.209	-0.243
-237.873	-41.894	0.370	-0.191
-236.859	-97.369	-0.102	0.027
-235.844	378.225	-0.201	0.414
-234.830	54.725	-0.289	0.281
-233.815	316.115	0.056	0.106
-232.800	-77.359	0.180	-0.063
-231.786	-200.000	0.012	-0.124
-230.771	-200.000	-0.032	-0.147
-229.757	-30.705	0.289	0.164
-228.742	-144.678	0.036	-0.003
-227.727	-200.000	0.025	-0.253
-226.713	-53.323	-0.113	-0.052
-225.698	220.737	-0.107	0.173
-224.684	-45.236	0.256	-0.128
-223.669	110.809	0.083	-0.100
-222.655	244.277	-0.131	0.222
-221.640	226.775	0.064	-0.105
-220.625	-164.567	-0.047	-0.002
-219.611	44.592	0.015	-0.014
-218.596	-200.000	0.056	0.246
-217.582	-109.136	0.080	-0.017
-216.567	136.191	-0.127	0.166
-215.552	800.000	-0.025	0.096
-214.538	52.476	-0.064	0.061
-213.523	-8.171	0.265	0.179
-212.509	-122.372	-0.096	-0.016
-211.494	800.000	-0.107	0.381
-210.479	-101.170	0.128	-0.031
-209.465	185.186	0.140	-0.208
-208.450	-46.856	-0.254	0.125
-207.436	-177.386	0.154	0.004
-206.421	-200.000	-0.010	-0.081
-205.406	254.612	-0.145	0.250
-204.392	34.590	0.207	0.182
-203.377	-70.968	0.227	0.086
-202.363	-200.000	0.054	0.000
-201.348	165.200	0.013	-0.018
-200.333	-16.710	-0.075	0.048
-199.319	38.534	-0.023	-0.021
-198.304	-21.026	0.526	0.323
-197.290	-56.961	0.113	0.050
-196.275	-46.087	0.223	0.110
-195.260	-35.033	0.272	-0.149
-194.246	483.354	0.091	-0.209
-193.231	-19.816	-0.211	0.131
-192.217	-9.143	-0.170	-0.114
-191.202	-17.419	0.061	0.039
-190.187	-200.000	-0.001	-0.056
-189.173	-19.270	0.116	0.072
-188.158	-200.000	-0.055	0.501
-187.144	1.485	0.199	0.143
-186.129	-8.186	-0.310	-0.209
-185.114	-106.080	0.216	0.049
-184.100	-32.982	0.256	-0.142
-183.085	-200.000	-0.047	0.412
-182.071	-55.426	-0.297	-0.134
-181.056	328.426	-0.084	-0.161
-180.042	-39.367	-0.206	-0.108
-179.027	-200.000	0.010	0.047
-178.012	259.680	-0.165	0.286
-176.998	800.000	-0.076	0.255
-175.983	-108.187	0.584	0.127
-174.969	-46.626	-0.307	-0.151
-173.954	-200.000	-0.063	0.319
-172.939	-111.905	-0.103	-0.021
-171.925	-39.916	-0.253	-0.132
-170.910	-200.000	0.004	-0.418
-169.896	15.675	-0.351	-0.276
-168.881	-103.074	-0.245	0.058
-167.866	-40.378	0.288	-0.150
-166.852	46.945	0.157	-0.146
-165.837	800.000	0.087	0.246
-164.823	-57.904	-0.003	0.001
-163.808	119.510	0.185	-0.230
-162.793	257.920	0.054	-0.093
-161.779	-46.489	-0.205	-0.101
-160.764	-49.232	-0.250	-0.120
-159.750	-200.000	0.018	-0.084
-158.735	800.000	0.057	-0.158
-157.720	12.269	-0.199	0.154
-156.706	-101.875	0.280	-0.068
-155.691	9.143	-0.238	-0.180
-154.677	82.186	-0.087	-0.095
-153.662	-200.000	-0.015	-0.191
-152.647	-135.169	-0.183	0.022
-151.633	141.654	0.134	0.178
-150.618	-89.547	-0.114	-0.034
-149.604	-114.427	0.449	-0.087
-148.589	177.144	-0.153	-0.223
-147.574	800.000	-0.075	-0.305
-146.560	-48.732	-0.185	-0.089
-145.545	-78.459	-0.166	-0.057
-144.531	-200.000	-0.028	-0.135
-143.516	-90.400	0.231	0.067
-142.502	118.265	-0.075	-0.093
-141.487	41.760	-0.107	0.097
-140.472	-86.782	-0.047	0.014
-139.458	-156.780	0.228	0.014
-138.443	-103.542	0.102	-0.024
-137.429	-137.676	0.373	-0.042
-136.414	-200.000	0.001	-0.161
-135.399	164.466	-0.121	-0.171
-134.385	-200.000	-0.033	0.259
-133.370	-200.000	-0.055	0.465
-132.356	-200.000	0.072	0.376
-131.341	394.957	0.126	-0.263
-130.326	458.138	0.196	0.436
-129.312	-157.707	0.424	-0.025
-128.297	-180.159	-0.187	0.004
-127.283	61.237	0.171	0.170
-126.268	-200.000	0.022	0.272
-125.253	-43.463	-0.286	0.145
-124.239	-54.799	-0.275	-0.124
-123.224	-200.000	0.007	-0.118
-122.210	-200.000	0.045	-0.271
