DTS Sentinel unit serial number:	SN413079Multiplexer serial number:	ORYXHardware model number:	OX4-SRSoftware version number:	ORYX F/W v4.00 Oryx Data Collector v3.7.2.0data status	okinstallation	princeton_trtdifferential loss correction	single-endedforward channel	channel 3reverse channel	N/Adate	2019/09/13time	00:00:35forward acquisition time	60.00reverse acquisition time	0.00gamma	496.2192k internal	0.2330k external	0.2330temperature offset calibration	1.0128default loss term (dB/km)	0.3790temperature slope calibration	1.0000multiplexer offset coefficient	1.0000multiplexer slope coefficient	1.0000fibre end	0.00T internal ref (°C)	28.67T ext. ref 1 (°C)	3.79T ext. ref 2 (°C)	23.40length (m)	temperature (°C)	Stokes	anti-Stokes-747.200	-194.353	0.239	-0.002
-746.185	299.119	-0.041	-0.075
-745.171	800.000	0.064	-0.182
-744.156	-91.679	-0.244	0.070
-743.142	-200.000	0.045	0.278
-742.127	-200.000	0.043	0.248
-741.112	-200.000	0.015	-0.321
-740.098	-177.266	-0.389	0.010
-739.083	271.556	0.020	0.035
-738.069	-2.028	-0.314	0.222
-737.054	-109.710	0.249	-0.053
-736.039	-107.457	-0.076	0.017
-735.025	39.755	0.210	0.190
-734.010	-200.000	-0.006	-0.088
-732.996	-200.000	-0.012	-0.173
-731.981	98.583	0.060	0.069
-730.966	196.941	0.086	0.133
-729.952	-32.625	-0.189	-0.106
-728.937	-97.196	-0.384	0.101
-727.923	104.188	0.059	0.069
-726.908	-94.868	-0.331	-0.090
-725.894	-129.794	-0.066	-0.009
-724.879	-200.000	-0.006	0.094
-723.864	479.350	-0.062	-0.142
-722.850	-200.000	-0.008	-0.370
-721.835	-200.000	-0.000	-0.208
-720.821	258.042	0.265	-0.460
-719.806	-89.460	0.313	-0.093
-718.791	-67.380	-0.261	0.103
-717.777	800.000	-0.104	-0.392
-716.762	-139.838	0.032	0.003
-715.748	39.904	-0.317	-0.286
-714.733	-32.955	-0.387	0.216
-713.718	266.749	-0.160	0.281
-712.704	4.455	-0.220	-0.163
-711.689	-100.806	-0.341	-0.084
-710.675	-200.000	0.040	0.295
-709.660	-28.194	0.295	-0.172
-708.645	512.121	-0.121	-0.282
-707.631	713.827	0.115	0.308
-706.616	800.000	0.048	-0.160
-705.602	-61.479	0.197	0.083
-704.587	-82.303	-0.146	0.048
-703.572	800.000	0.055	-0.230
-702.558	0.230	0.092	-0.066
-701.543	800.000	0.060	0.239
-700.529	317.017	-0.040	0.076
-699.514	-200.000	0.004	-0.185
-698.499	800.000	0.059	-0.186
-697.485	-154.388	-0.509	-0.034
-696.470	-200.000	-0.043	-0.210
-695.456	-200.000	0.040	-0.362
-694.441	-66.024	-0.069	0.028
-693.426	-190.736	-0.423	-0.005
-692.412	-74.592	-0.222	0.080
-691.397	12.887	0.089	0.069
-690.383	-200.000	-0.015	-0.342
-689.368	-25.634	-0.074	-0.044
-688.354	800.000	-0.035	-0.099
-687.339	-200.000	0.009	-0.062
-686.324	-107.589	-0.383	-0.084
-685.310	146.371	0.150	-0.202
-684.295	-146.168	-0.233	-0.021
-683.281	-200.000	0.090	-0.462
-682.266	-200.000	0.051	-0.360
-681.251	-200.000	-0.033	-0.150
-680.237	108.900	-0.072	0.086
-679.222	-101.797	-0.148	-0.036
-678.208	-200.000	-0.057	0.330
-677.193	-200.000	-0.022	0.228
-676.178	800.000	0.052	-0.187
-675.164	93.476	0.084	-0.096
-674.149	33.162	-0.227	-0.198
-673.135	-200.000	-0.292	-0.000
-672.120	-200.000	-0.201	0.000
-671.105	34.208	-0.145	0.127
-670.091	800.000	0.072	0.311
-669.076	12.234	0.084	0.065
-668.062	13.301	-0.220	0.171
-667.047	287.010	-0.125	0.227
-666.032	48.569	-0.320	-0.301
-665.018	800.000	-0.090	-0.262
-664.003	95.244	0.197	-0.225
-662.989	-127.307	-0.296	-0.043
-661.974	-123.714	-0.282	0.045
-660.959	-39.096	0.288	-0.152
-659.945	-72.170	0.240	0.089
-658.930	800.000	0.063	-0.250
-657.916	241.764	0.082	0.138
-656.901	20.188	-0.181	0.147
-655.886	-64.694	0.190	0.077
-654.872	-105.453	-0.329	-0.075
-653.857	-200.000	-0.017	0.289
-652.843	-200.000	-0.051	-0.359
-651.828	-162.027	-0.208	0.011
-650.814	265.313	-0.092	0.160
-649.799	1.997	-0.135	0.098
-648.784	225.873	0.154	0.250
-647.770	-12.861	0.286	0.187
-646.755	-141.544	0.156	0.016
-645.741	-150.527	-0.235	0.018
-644.726	684.283	-0.036	-0.094
-643.711	531.506	0.119	-0.281
-642.697	-187.383	-0.467	0.006
-641.682	489.143	0.147	-0.337
-640.668	-200.000	0.025	0.138
-639.653	-123.492	0.235	0.038
-638.638	800.000	0.028	-0.098
-637.624	144.583	0.131	-0.176
-636.609	16.486	-0.202	-0.160
-635.595	-23.366	-0.230	-0.139
-634.580	-200.000	-0.030	-0.157
-633.565	28.223	-0.107	-0.091
-632.551	-200.000	0.021	0.358
-631.536	-66.434	-0.061	-0.024
-630.522	-200.000	0.012	-0.225
-629.507	-113.414	-0.136	-0.027
-628.492	92.518	0.152	0.172
-627.478	129.311	-0.239	-0.306
-626.463	-63.729	0.057	-0.024
-625.449	-200.000	-0.001	0.126
-624.434	-12.230	-0.329	0.216
-623.419	13.165	-0.087	-0.068
-622.405	282.934	0.056	-0.101
-621.390	-179.674	-0.156	0.003
-620.376	-39.809	0.249	-0.130
-619.361	-88.856	-0.151	0.045
-618.346	-200.000	-0.048	0.282
-617.332	486.252	-0.100	-0.228
-616.317	11.384	-0.203	0.156
-615.303	71.163	-0.202	-0.210
-614.288	-93.285	0.154	0.043
-613.273	-106.514	-0.380	0.085
-612.259	-7.768	-0.015	-0.010
-611.244	4.624	0.103	-0.075
-610.230	-64.323	-0.282	0.115
-609.215	270.733	-0.132	-0.233
-608.201	174.027	0.077	0.112
-607.186	343.373	-0.173	-0.339
-606.171	535.314	0.047	0.112
-605.157	-200.000	-0.027	-0.382
-604.142	-55.714	0.072	-0.032
-603.128	-200.000	0.036	-0.197
-602.113	130.254	-0.098	-0.125
-601.098	-133.364	-0.152	-0.019
-600.084	-55.419	0.328	-0.147
-599.069	-87.158	-0.218	0.066
-598.055	-200.000	-0.052	-0.330
-597.040	-200.000	0.019	0.143
-596.025	351.191	-0.080	-0.159
-595.011	163.750	0.045	-0.063
-593.996	-142.120	0.202	-0.020
-592.982	-136.615	-0.195	0.023
-591.967	800.000	-0.079	0.320
-590.952	18.612	-0.214	-0.171
-589.938	-62.780	0.233	0.097
-588.923	-200.000	0.014	-0.116
-587.909	20.175	0.077	-0.062
-586.894	-14.072	-0.051	-0.033
-585.879	-200.000	-0.001	-0.114
-584.865	223.936	-0.116	0.187
-583.850	352.289	-0.062	-0.124
-582.836	319.632	-0.207	0.393
-581.821	-19.510	0.381	-0.236
-580.806	27.731	0.169	-0.142
-579.792	-200.000	0.069	0.448
-578.777	49.167	-0.079	-0.074
-577.763	94.972	0.181	-0.207
-576.748	-200.000	0.009	0.168
-575.733	-200.000	0.012	0.091
-574.719	95.821	0.109	0.125
-573.704	138.326	0.103	-0.135
-572.690	-8.616	-0.364	-0.245
-571.675	114.913	-0.096	0.117
-570.661	-170.707	0.138	-0.005
-569.646	-200.000	-0.096	-0.489
-568.631	197.791	0.142	0.217
-567.617	76.916	-0.144	0.153
-566.602	98.196	0.052	-0.060
-565.588	800.000	0.061	-0.241
-564.573	-174.060	-0.126	0.004
-563.558	-22.415	-0.149	-0.090
-562.544	162.812	-0.330	0.463
-561.529	207.003	-0.123	0.192
-560.515	-200.000	-0.051	0.300
-559.500	74.029	0.063	-0.066
-558.485	329.169	0.050	-0.096
-557.471	254.731	0.169	0.289
-556.456	-84.705	-0.150	-0.047
-555.442	-31.737	-0.057	-0.032
-554.427	697.644	-0.009	-0.023
-553.412	-119.383	-0.246	-0.043
-552.398	243.664	-0.118	-0.197
-551.383	-200.000	0.025	0.287
-550.369	-200.000	-0.012	0.132
-549.354	96.488	0.178	-0.204
-548.339	485.799	-0.109	-0.249
-547.325	-36.990	-0.375	-0.201
-546.310	-200.000	-0.030	-0.194
-545.296	800.000	0.020	-0.068
-544.281	-13.645	0.149	0.096
-543.266	12.047	0.090	0.069
-542.252	800.000	0.073	-0.244
-541.237	-105.788	0.276	-0.062
-540.223	-77.867	-0.211	-0.073
-539.208	-200.000	0.024	0.253
-538.193	-160.408	-0.119	0.006
-537.179	483.316	-0.071	0.161
-536.164	633.367	0.027	-0.068
-535.150	-29.982	-0.200	-0.114
-534.135	16.244	0.207	0.163
-533.121	-200.000	-0.039	-0.203
-532.106	-3.904	0.093	0.065
-531.091	-200.000	-0.028	0.156
-530.077	139.930	0.170	0.224
-529.062	800.000	-0.080	0.290
-528.048	-127.872	0.174	0.025
-527.033	91.685	0.261	0.293
-526.018	8.381	-0.243	0.182
-525.004	-200.000	-0.049	0.224
-523.989	-132.763	-0.112	-0.014
-522.975	-193.669	-0.130	-0.001
-521.960	800.000	-0.033	0.126
-520.945	303.764	0.032	-0.059
-519.931	446.732	0.058	-0.126
-518.916	18.362	0.059	0.047
-517.902	-69.470	-0.060	-0.023
-516.887	800.000	-0.043	-0.172
-515.872	-200.000	0.004	-0.140
-514.858	-200.000	-0.019	-0.131
-513.843	-131.743	-0.218	-0.028
-512.829	595.379	-0.071	-0.176
-511.814	95.745	-0.160	0.182
-510.799	196.551	0.072	-0.110
-509.785	391.055	0.033	-0.068
-508.770	-56.988	-0.113	-0.050
-507.756	173.919	-0.046	-0.066
-506.741	26.576	0.145	0.121
-505.726	60.496	-0.184	0.182
-504.712	-41.221	0.138	-0.071
-503.697	204.739	-0.202	-0.312
-502.683	-200.000	-0.050	-0.372
-501.668	91.311	0.028	-0.032
-500.653	-200.000	-0.036	-0.392
-499.639	-144.479	0.268	-0.025
-498.624	-151.646	-0.261	-0.019
-497.610	800.000	0.061	-0.171
-496.595	-193.674	0.009	0.000
-495.581	-12.433	0.133	-0.087
-494.566	-133.411	0.098	-0.012
-493.551	66.258	0.103	0.104
-492.537	-200.000	0.055	0.332
-491.522	-200.000	0.003	0.217
-490.508	493.260	0.058	0.133
-489.493	-200.000	-0.059	-0.498
-488.478	665.314	-0.094	-0.243
-487.464	-132.462	-0.479	-0.062
-486.449	-2.250	0.125	0.087
-485.435	286.384	0.201	-0.361
-484.420	191.216	0.141	-0.211
-483.405	-14.379	-0.304	-0.195
-482.391	800.000	-0.159	-0.442
-481.376	-51.936	0.101	-0.047
-480.362	192.583	0.104	0.156
-479.347	-200.000	0.046	-0.216
-478.332	-12.541	0.247	0.161
-477.318	122.173	-0.135	0.168
-476.303	-2.494	-0.123	-0.086
-475.289	-114.198	0.210	0.040
-474.274	-200.000	-0.009	-0.123
-473.259	-200.000	0.027	-0.288
-472.245	-200.000	0.003	0.039
-471.230	-88.357	-0.154	0.046
-470.216	-44.972	-0.215	-0.107
-469.201	-55.326	0.187	-0.084
-468.186	471.062	-0.050	-0.112
-467.172	-22.505	0.243	-0.147
-466.157	-200.000	-0.002	-0.240
-465.143	570.711	-0.051	-0.124
-464.128	185.320	0.196	0.289
-463.113	-35.144	0.245	0.133
-462.099	-200.000	0.003	0.225
-461.084	-200.000	-0.011	-0.192
-460.070	54.547	0.027	-0.026
-459.055	-86.757	-0.325	0.099
-458.040	-127.881	0.265	0.038
-457.026	111.283	-0.225	-0.271
-456.011	228.662	0.142	0.231
-454.997	52.764	-0.123	0.117
-453.982	-3.118	0.218	-0.151
-452.968	89.783	-0.279	0.310
-451.953	-121.867	0.065	0.011
-450.938	181.718	0.166	0.243
-449.924	325.712	0.107	-0.205
-448.909	800.000	0.067	-0.235
-447.895	242.455	-0.061	-0.101
-446.880	-180.123	-0.339	-0.007
-445.865	-86.461	0.124	-0.038
-444.851	-99.735	0.271	0.068
-443.836	-47.839	-0.233	-0.112
-442.822	-200.000	0.012	0.181
-441.807	687.205	0.019	0.050
-440.792	165.502	0.051	0.072
-439.778	79.078	-0.206	-0.219
-438.763	450.900	-0.087	-0.192
-437.749	-200.000	-0.007	0.130
-436.734	800.000	-0.045	-0.139
-435.719	-200.000	0.007	-0.055
-434.705	125.210	0.126	0.159
-433.690	-200.000	0.013	-0.107
-432.676	-200.000	0.038	-0.169
-431.661	325.693	-0.046	-0.088
-430.646	-53.727	-0.093	-0.042
-429.632	525.781	-0.011	0.025
-428.617	800.000	0.080	0.289
-427.603	-200.000	-0.003	0.012
-426.588	800.000	0.024	-0.080
-425.573	-200.000	0.007	-0.094
-424.559	800.000	0.013	0.038
-423.544	-24.958	-0.424	0.250
-422.530	800.000	-0.109	-0.367
-421.515	800.000	0.071	-0.226
-420.500	-136.202	-0.090	0.011
-419.486	82.927	-0.192	-0.208
-418.471	-28.498	-0.072	-0.041
-417.457	-4.711	-0.130	-0.089
-416.442	-73.058	0.087	0.032
-415.428	269.967	-0.096	0.167
-414.413	338.907	0.120	0.231
-413.398	50.950	-0.064	-0.060
-412.384	-145.729	0.234	0.021
-411.369	-35.001	-0.186	0.101
-410.355	50.204	0.187	0.175
-409.340	-19.470	-0.022	0.014
-408.325	800.000	0.068	0.266
-407.311	131.742	-0.099	0.126
-406.296	-116.286	0.210	0.039
-405.282	-17.006	0.108	0.068
-404.267	159.869	-0.111	-0.154
-403.252	800.000	0.040	0.115
-402.238	-23.959	0.315	0.187
-401.223	125.566	-0.141	0.177
-400.209	297.899	-0.172	0.314
-399.194	-32.164	-0.147	-0.082
-398.179	800.000	0.037	-0.133
-397.165	-21.916	0.285	-0.172
-396.150	-164.737	-0.179	-0.008
-395.136	190.426	-0.143	0.213
-394.121	-168.429	0.078	0.003
-393.106	17.033	0.154	-0.121
-392.092	-165.928	-0.059	0.003
-391.077	-33.676	-0.052	-0.029
-390.063	-200.000	-0.037	0.266
-389.048	42.981	-0.020	-0.018
-388.033	-200.000	-0.011	0.225
-387.019	-101.227	0.121	0.029
-386.004	-200.000	-0.024	0.377
-384.990	-47.560	-0.064	0.031
-383.975	564.753	0.120	-0.289
-382.960	-200.000	-0.054	0.253
-381.946	800.000	0.014	0.047
-380.931	-14.647	0.276	0.176
-379.917	-200.000	-0.015	-0.244
-378.902	-94.613	0.121	-0.033
-377.888	-52.547	0.015	0.007
-376.873	31.912	0.175	0.150
-375.858	131.058	0.189	-0.240
-374.844	-200.000	-0.087	0.392
-373.829	229.557	-0.048	0.078
-372.815	147.774	0.281	0.376
-371.800	746.859	0.086	0.229
-370.785	89.508	-0.268	0.297
-369.771	-161.493	-0.415	-0.021
-368.756	-200.000	0.036	-0.239
-367.742	800.000	0.048	0.152
-366.727	104.812	0.195	-0.229
-365.712	125.258	-0.128	0.160
-364.698	717.003	-0.100	-0.264
-363.683	-66.401	0.270	0.107
-362.669	800.000	-0.087	0.255
-361.654	800.000	-0.042	-0.164
-360.639	694.884	0.055	-0.144
-359.625	-82.887	0.247	0.079
-358.610	131.710	0.270	0.345
-357.596	800.000	-0.075	0.323
-356.581	-51.888	0.217	0.100
-355.566	171.110	-0.120	-0.170
-354.552	800.000	-0.045	0.191
-353.537	68.157	0.085	0.086
-352.523	-8.434	-0.136	0.091
-351.508	20.037	0.249	0.199
-350.493	-149.198	-0.223	-0.018
-349.479	-200.000	0.050	-0.331
-348.464	412.302	0.083	-0.176
-347.450	-156.099	0.253	0.016
-346.435	-154.055	-0.241	-0.016
-345.420	206.118	-0.058	-0.090
-344.406	267.710	-0.123	-0.213
-343.391	462.792	0.085	-0.187
-342.377	21.635	0.053	-0.043
-341.362	-200.000	0.026	-0.251
-340.348	70.936	0.142	0.146
-339.333	-30.722	0.092	0.052
-338.318	-81.992	-0.140	0.045
-337.304	-182.818	0.431	0.008
-336.289	-23.330	-0.086	0.051
-335.275	-101.872	-0.190	0.046
-334.260	256.123	-0.305	0.519
-333.245	800.000	0.065	-0.205
-332.231	-93.964	-0.321	0.087
-331.216	-132.907	0.101	-0.013
-330.202	-99.367	-0.232	-0.058
-329.187	121.081	0.065	0.081
-328.172	-65.400	-0.125	0.050
-327.158	-143.038	-0.087	0.008
-326.143	-76.417	0.130	0.045
-325.129	503.412	0.123	0.282
-324.114	-200.000	0.053	-0.296
-323.099	-19.472	-0.079	-0.049
-322.085	225.745	-0.143	-0.230
-321.070	800.000	0.057	-0.235
-320.056	197.355	0.106	-0.160
-319.041	-98.079	-0.103	0.026
-318.026	-56.671	-0.104	-0.046
-317.012	269.678	0.290	0.504
-315.997	-52.307	0.293	-0.134
-314.983	50.337	0.128	0.119
-313.968	-69.048	0.353	0.135
-312.953	800.000	0.125	0.472
-311.939	12.874	-0.234	0.179
-310.924	800.000	-0.072	0.211
-309.910	305.124	0.136	-0.250
-308.895	220.711	0.044	-0.070
-307.880	-133.461	-0.120	-0.015
-306.866	38.368	0.269	0.237
-305.851	-1.190	-0.114	0.080
-304.837	390.732	0.139	0.286
-303.822	23.399	-0.297	0.242
-302.807	-81.414	0.157	0.051
-301.793	-147.488	-0.049	0.004
-300.778	800.000	0.098	0.345
-299.764	-77.749	-0.689	0.236
-298.749	175.801	0.109	0.157
-297.735	-200.000	-0.046	-0.201
-296.720	-124.273	0.101	-0.016
-295.705	-30.469	0.103	0.058
-294.691	-146.631	0.235	-0.020
-293.676	800.000	-0.067	-0.214
-292.662	32.052	-0.044	-0.038
-291.647	56.436	-0.163	-0.156
-290.632	-200.000	0.038	-0.267
-289.618	-63.582	0.414	0.168
-288.603	99.207	0.025	-0.028
-287.589	-97.940	0.234	-0.060
-286.574	-17.670	0.057	-0.035
-285.559	-200.000	0.019	0.351
-284.545	-61.311	-0.371	0.155
-283.530	-51.490	0.220	-0.102
-282.516	-100.630	0.259	-0.063
-281.501	146.684	0.154	-0.205
-280.486	372.501	0.027	0.055
-279.472	-200.000	-0.030	-0.206
-278.457	800.000	-0.087	-0.262
-277.443	800.000	-0.059	-0.191
-276.428	11.500	-0.154	0.117
-275.413	342.750	0.085	0.165
-274.399	-200.000	-0.007	-0.135
-273.384	73.512	-0.228	-0.236
-272.370	44.337	0.191	-0.173
-271.355	518.198	0.144	-0.333
-270.340	-200.000	0.000	0.186
-269.326	28.890	0.056	-0.047
-268.311	-29.307	-0.031	0.018
-267.297	351.170	0.108	0.212
-266.282	-50.065	0.120	0.056
-265.267	800.000	0.014	-0.052
-264.253	6.154	-0.078	-0.057
-263.238	-200.000	0.035	-0.298
-262.224	-40.532	0.212	-0.109
-261.209	-180.818	-0.403	0.008
-260.195	-200.000	0.018	0.154
-259.180	-200.000	-0.018	0.134
-258.165	143.038	-0.130	0.171
-257.151	74.903	0.109	-0.113
-256.136	-145.293	-0.207	0.019
-255.122	542.382	-0.101	0.239
-254.107	-200.000	0.024	-0.392
-253.092	-52.739	-0.189	-0.086
-252.078	-118.358	0.252	-0.044
-251.063	-200.000	-0.016	0.268
-250.049	-200.000	-0.021	0.156
-249.034	-200.000	0.035	-0.191
-248.019	84.771	-0.265	0.286
-247.005	13.628	0.315	0.241
-245.990	-200.000	0.014	0.123
-244.976	574.892	0.147	0.355
-243.961	-200.000	0.048	0.615
-242.946	800.000	-0.023	0.072
-241.932	23.574	-0.266	-0.216
-240.917	-146.873	0.202	0.017
-239.903	718.266	0.103	-0.270
-238.888	69.040	0.017	-0.018
-237.873	-95.232	-0.362	0.096
-236.859	-135.795	0.190	-0.022
-235.844	-103.585	0.339	0.079
-234.830	-200.000	0.020	0.117
-233.815	-200.000	-0.023	-0.180
-232.800	291.185	0.072	-0.129
-231.786	4.747	0.152	0.110
-230.771	266.222	-0.071	0.122
-229.757	-62.771	-0.077	0.031
-228.742	-200.000	-0.022	0.222
-227.727	28.493	-0.059	-0.049
-226.713	-200.000	0.000	-0.314
-225.698	-30.922	0.217	0.121
-224.684	100.564	0.055	-0.063
-223.669	5.676	-0.153	-0.112
-222.655	-23.102	-0.150	0.089
-221.640	-77.420	0.078	0.027
-220.625	38.808	0.125	-0.110
-219.611	35.362	0.086	0.075
-218.596	333.178	-0.097	-0.185
-217.582	-200.000	0.016	-0.150
-216.567	-200.000	-0.072	-0.366
-215.552	206.027	-0.091	-0.140
-214.538	-200.000	0.017	-0.241
-213.523	-57.821	0.364	-0.157
-212.509	203.814	0.071	0.108
-211.494	-161.828	0.275	0.014
-210.479	-192.272	-0.245	-0.002
-209.465	56.864	0.242	-0.232
-208.450	-177.376	0.412	-0.010
-207.436	800.000	-0.044	0.134
-206.421	75.498	-0.196	-0.204
-205.406	-200.000	0.004	0.085
-204.392	800.000	0.102	0.426
-203.377	-173.496	-0.124	0.004
-202.363	-33.184	-0.128	-0.070
-201.348	51.117	0.135	-0.126
-200.333	384.929	-0.074	0.150
-199.319	65.717	-0.239	0.238
-198.304	-104.863	-0.223	0.050
-197.290	-200.000	-0.082	0.000
-196.275	-200.000	0.037	0.185
-195.260	-61.976	0.090	0.037
-194.246	-29.574	0.088	-0.050
-193.231	193.143	0.084	0.126
-192.217	98.835	0.094	0.106
-191.202	52.200	0.289	-0.272
-190.187	741.181	-0.042	-0.112
-189.173	-79.575	-0.289	0.096
-188.158	-200.000	-0.005	-0.075
-187.144	-200.000	0.041	0.181
-186.129	800.000	-0.068	-0.216
-185.114	-143.300	-0.270	0.025
-184.100	-106.855	0.232	0.051
-183.085	31.285	0.010	-0.008
-182.071	577.449	-0.050	-0.120
-181.056	-73.567	0.223	0.080
-180.042	800.000	0.067	-0.221
-179.027	-200.000	0.040	-0.403
-178.012	143.685	0.055	0.073
-176.998	-200.000	-0.069	-0.370
-175.983	-143.473	-0.348	-0.033
-174.969	615.094	-0.104	0.257
-173.954	183.319	-0.089	-0.129
-172.939	-200.000	-0.009	0.188
-171.925	-75.709	-0.111	0.039
-170.910	772.362	-0.089	0.239
-169.896	172.875	-0.156	0.221
-168.881	-28.268	-0.194	-0.110
-167.866	84.409	-0.180	-0.194
-166.852	-61.708	-0.146	-0.060
-165.837	-148.150	0.228	-0.019
-164.823	-139.592	0.148	0.016
-163.808	-146.887	0.395	0.033
-162.793	-200.000	-0.080	0.446
-161.779	130.566	0.076	0.096
-160.764	266.576	-0.083	-0.144
-159.750	171.939	0.151	0.213
-158.735	-62.149	0.253	-0.104
-157.720	-64.133	-0.142	0.057
-156.706	-18.114	0.160	0.099
-155.691	-126.417	0.066	-0.010
-154.677	-23.826	0.102	-0.060
-153.662	-97.021	0.378	0.097
-152.647	800.000	-0.010	-0.040
-151.633	-200.000	0.000	0.017
-150.618	35.054	-0.324	0.279
-149.604	-200.000	0.046	-0.200
-148.589	-125.184	0.371	-0.056
-147.574	-151.252	0.114	-0.008
-146.560	74.673	-0.250	0.259
-145.545	-51.602	-0.096	0.044
-144.531	5.971	-0.064	-0.047
-143.516	-54.823	-0.143	-0.064
-142.502	800.000	0.040	-0.118
-141.487	92.076	0.160	0.177
-140.472	-53.383	-0.088	-0.040
-139.458	-68.105	-0.232	0.089
-138.443	-200.000	-0.088	0.505
-137.429	-200.000	-0.029	0.209
-136.414	-139.437	-0.135	-0.014
-135.399	9.065	0.206	-0.153
-134.385	-200.000	0.011	0.071
-133.370	525.246	0.082	-0.190
-132.356	71.134	-0.254	-0.259
-131.341	-84.018	-0.405	-0.127
-130.326	-3.460	0.244	0.167
-129.312	-87.376	-0.110	-0.033
-128.297	-55.869	-0.110	-0.048
-127.283	142.052	-0.144	-0.188
-126.268	-200.000	0.003	0.087
-125.253	-200.000	-0.062	-0.392
-124.239	-13.897	0.338	0.215
-123.224	474.603	0.098	-0.217
-122.210	287.680	0.033	-0.058
