DTS Sentinel unit serial number:	SN413079Multiplexer serial number:	ORYXHardware model number:	OX4-SRSoftware version number:	ORYX F/W v4.00 Oryx Data Collector v3.7.2.0data status	okinstallation	princeton_trtdifferential loss correction	single-endedforward channel	channel 3reverse channel	N/Adate	2019/09/18time	07:32:35forward acquisition time	60.00reverse acquisition time	0.00gamma	496.2192k internal	0.2343k external	0.2343temperature offset calibration	0.9949default loss term (dB/km)	0.3790temperature slope calibration	1.0000multiplexer offset coefficient	1.0000multiplexer slope coefficient	1.0000fibre end	0.00T internal ref (°C)	23.19T ext. ref 1 (°C)	0.19T ext. ref 2 (°C)	17.59length (m)	temperature (°C)	Stokes	anti-Stokes-747.200	-21.514	0.024	-0.015
-746.185	149.830	-0.193	-0.261
-745.171	8.464	-0.169	-0.128
-744.156	114.360	-0.415	0.507
-743.142	336.123	0.080	-0.155
-742.127	-200.000	0.006	0.399
-741.112	-64.916	-0.034	0.014
-740.098	-174.287	-0.331	-0.010
-739.083	300.267	-0.160	-0.295
-738.069	134.612	-0.132	0.172
-737.054	800.000	0.124	-0.369
-736.039	701.039	-0.103	0.271
-735.025	189.995	-0.111	0.167
-734.010	20.309	-0.069	0.055
-732.996	188.369	-0.177	-0.265
-731.981	41.402	-0.104	0.094
-730.966	-59.735	-0.268	-0.115
-729.952	-54.740	0.048	-0.022
-728.937	437.513	-0.050	0.110
-727.923	-169.897	-0.212	0.008
-726.908	78.119	0.043	0.046
-725.894	85.961	-0.144	-0.158
-724.879	32.553	0.196	0.169
-723.864	-32.082	-0.090	-0.051
-722.850	161.429	-0.093	-0.131
-721.835	-45.252	0.152	0.076
-720.821	800.000	0.075	-0.222
-719.806	88.004	0.057	0.063
-718.791	22.710	0.237	0.194
-717.777	66.728	0.420	-0.428
-716.762	-1.924	-0.347	0.244
-715.748	-89.704	0.070	-0.021
-714.733	155.189	0.134	-0.184
-713.718	17.235	-0.361	0.286
-712.704	29.395	-0.175	0.149
-711.689	105.885	-0.165	-0.195
-710.675	-79.349	0.220	0.075
-709.660	-172.098	-0.241	0.008
-708.645	262.667	-0.130	0.226
-707.631	149.201	0.141	-0.191
-706.616	-96.486	0.166	0.044
-705.602	785.503	-0.030	-0.081
-704.587	102.080	-0.073	0.086
-703.572	552.978	0.129	0.309
-702.558	-102.426	0.162	0.039
-701.543	-20.962	0.107	0.065
-700.529	-50.368	0.335	0.158
-699.514	-200.000	-0.022	-0.332
-698.499	-86.023	-0.279	-0.086
-697.485	-51.682	-0.353	0.164
-696.470	31.031	0.246	-0.211
-695.456	51.846	0.157	-0.149
-694.441	-200.000	-0.034	0.159
-693.426	86.844	0.215	-0.237
-692.412	-200.000	-0.083	-0.448
-691.397	-200.000	-0.029	-0.544
-690.383	414.304	-0.117	-0.249
-689.368	694.213	0.104	-0.272
-688.354	214.975	0.054	-0.085
-687.339	-71.019	-0.085	-0.032
-686.324	-195.504	-0.167	-0.001
-685.310	240.376	-0.194	-0.323
-684.295	-109.358	0.479	-0.101
-683.281	-147.621	0.323	-0.027
-682.266	-200.000	0.049	0.387
-681.251	800.000	-0.032	-0.140
-680.237	494.183	0.135	0.310
-679.222	-76.915	0.349	-0.122
-678.208	112.171	0.128	0.155
-677.193	800.000	-0.039	-0.119
-676.178	-200.000	-0.041	-0.264
-675.164	-200.000	-0.053	-0.248
-674.149	82.467	0.246	-0.267
-673.135	68.260	0.288	0.295
-672.120	16.228	-0.267	0.210
-671.105	-143.902	0.239	0.022
-670.091	-56.196	0.239	-0.106
-669.076	-37.803	0.134	-0.071
-668.062	2.441	0.059	-0.043
-667.047	-29.183	0.166	-0.095
-666.032	-52.792	0.468	-0.215
-665.018	-101.825	-0.492	0.119
-664.003	252.061	0.101	0.172
-662.989	-200.000	0.043	-0.256
-661.974	-200.000	0.003	-0.330
-660.959	800.000	-0.064	-0.229
-659.945	290.220	-0.133	-0.240
-658.930	-54.091	0.260	0.118
-657.916	-200.000	0.002	0.211
-656.901	138.852	-0.207	-0.271
-655.886	168.359	0.156	0.222
-654.872	-59.141	0.157	-0.068
-653.857	305.262	-0.107	-0.199
-652.843	323.774	0.100	0.191
-651.828	317.840	0.238	-0.449
-650.814	-57.661	0.207	0.090
-649.799	-200.000	0.049	0.327
-648.784	105.195	-0.177	0.208
-647.770	-20.124	0.232	0.143
-646.755	-74.037	-0.226	0.082
-645.741	106.406	-0.058	0.069
-644.726	-145.181	0.258	0.023
-643.711	272.107	-0.165	0.289
-642.697	800.000	0.006	0.016
-641.682	13.349	-0.085	0.065
-640.668	-200.000	-0.026	-0.312
-639.653	-175.819	0.226	0.006
-638.638	19.916	0.276	-0.222
-637.624	-200.000	-0.024	0.185
-636.609	50.942	-0.109	0.103
-635.595	-44.920	0.325	0.162
-634.580	23.793	-0.052	0.043
-633.565	800.000	0.079	0.269
-632.551	192.815	0.063	0.095
-631.536	-183.323	-0.198	-0.003
-630.522	-30.106	0.157	-0.089
-629.507	154.565	-0.015	0.021
-628.492	-62.767	-0.234	0.097
-627.478	208.626	-0.155	-0.241
-626.463	-200.000	0.037	0.204
-625.449	-200.000	0.011	-0.131
-624.434	-200.000	0.038	-0.174
-623.419	104.586	-0.020	0.024
-622.405	7.323	0.241	-0.179
-621.390	27.839	0.133	-0.112
-620.376	-158.651	0.301	0.017
-619.361	800.000	-0.025	0.085
-618.346	138.963	-0.152	-0.199
-617.332	-111.725	-0.247	-0.050
-616.317	800.000	0.045	0.151
-615.303	-116.025	-0.112	-0.021
-614.288	-173.244	-0.296	-0.009
-613.273	-200.000	-0.020	0.154
-612.259	-144.617	0.085	-0.008
-611.244	326.260	-0.173	0.331
-610.230	84.769	-0.091	0.099
-609.215	-17.748	-0.260	0.162
-608.201	-147.813	-0.345	0.029
-607.186	388.248	0.101	-0.209
-606.171	-53.021	0.123	-0.056
-605.157	-57.680	0.112	-0.049
-604.142	-65.359	-0.160	0.064
-603.128	-2.773	-0.137	0.096
-602.113	-34.195	0.415	-0.227
-601.098	169.248	0.100	0.142
-600.084	-93.664	-0.161	-0.044
-599.069	26.579	-0.080	-0.067
-598.055	-200.000	0.020	-0.106
-597.040	-200.000	-0.015	-0.169
-596.025	-122.503	0.305	0.049
-595.011	287.848	-0.089	-0.160
-593.996	-200.000	-0.025	0.194
-592.982	250.182	0.093	-0.156
-591.967	286.644	-0.159	0.286
-590.952	-93.861	0.131	-0.036
-589.938	-20.443	0.335	0.205
-588.923	800.000	0.032	0.105
-587.909	-88.880	-0.229	0.068
-586.894	256.866	-0.195	0.334
-585.879	156.280	-0.072	0.099
-584.865	-200.000	0.053	-0.341
-583.850	800.000	0.048	-0.176
-582.836	-200.000	0.004	0.253
-581.821	-59.079	-0.196	-0.084
-580.806	800.000	-0.022	0.084
-579.792	-68.144	0.203	-0.079
-578.777	-60.964	-0.228	-0.096
-577.763	-42.671	0.133	-0.067
-576.748	800.000	-0.039	0.132
-575.733	-124.564	-0.339	0.052
-574.719	575.135	0.033	0.081
-573.704	116.426	-0.094	0.114
-572.690	-200.000	0.027	0.397
-571.675	-52.325	-0.123	-0.057
-570.661	800.000	-0.013	-0.054
-569.646	-62.315	-0.137	-0.057
-568.631	-25.168	0.120	-0.071
-567.617	28.929	0.240	-0.203
-566.602	-200.000	-0.085	-0.435
-565.588	-120.046	-0.401	0.068
-564.573	35.997	-0.113	0.099
-563.558	-200.000	0.003	-0.031
-562.544	742.856	-0.045	0.119
-561.529	-140.109	-0.295	-0.031
-560.515	253.011	-0.138	-0.234
-559.500	-200.000	-0.041	0.212
-558.485	93.494	0.177	0.200
-557.471	-200.000	0.216	0.000
-556.456	104.108	0.261	0.305
-555.442	356.503	-0.129	0.256
-554.427	261.199	0.119	0.205
-553.412	-69.293	-0.256	0.098
-552.398	-166.579	-0.293	0.012
-551.383	20.184	-0.342	-0.274
-550.369	-200.000	0.034	0.228
-549.354	-37.753	-0.284	-0.150
-548.339	40.027	0.120	-0.107
-547.325	403.589	-0.020	-0.041
-546.310	-200.000	0.005	0.144
-545.296	-95.298	0.018	-0.005
-544.281	-200.000	-0.025	-0.228
-543.266	-100.553	-0.121	0.030
-542.252	-76.417	-0.261	-0.091
-541.237	800.000	0.062	-0.176
-540.223	15.467	0.039	-0.030
-539.208	800.000	0.037	-0.122
-538.193	-75.743	0.197	-0.069
-537.179	409.924	0.033	-0.069
-536.164	-12.142	0.185	-0.120
-535.150	-37.593	-0.093	0.049
-534.135	-70.882	0.176	0.066
-533.121	-31.258	-0.161	0.090
-532.106	-29.132	-0.443	0.252
-531.091	93.095	0.229	0.257
-530.077	234.492	-0.146	0.240
-529.062	800.000	0.054	-0.163
-528.048	-66.791	0.133	0.052
-527.033	-200.000	-0.008	0.270
-526.018	781.190	0.059	0.160
-525.004	-107.639	0.237	0.051
-523.989	121.213	-0.111	-0.137
-522.975	153.299	-0.149	0.202
-521.960	-143.898	-0.172	0.016
-520.945	800.000	0.084	-0.349
-519.931	-2.270	0.324	-0.225
-518.916	-122.002	-0.103	-0.017
-517.902	90.612	-0.129	-0.144
-516.887	-74.605	0.352	0.126
-515.872	-200.000	-0.138	0.620
-514.858	-25.356	0.112	-0.066
-513.843	-16.227	0.161	0.101
-512.829	-12.834	-0.181	0.117
-511.814	-38.941	0.246	-0.129
-510.799	-29.891	-0.069	0.039
-509.785	-200.000	0.008	0.063
-508.770	84.780	0.041	0.045
-507.756	-200.000	-0.116	-0.593
-506.741	66.459	-0.207	0.209
-505.726	-200.000	0.005	-0.095
-504.712	-174.343	0.302	0.009
-503.697	474.062	0.096	0.215
-502.683	-39.952	0.364	-0.189
-501.668	19.446	0.138	-0.110
-500.653	97.590	0.150	-0.171
-499.639	-200.000	-0.003	-0.033
-498.624	61.806	0.151	-0.149
-497.610	724.313	-0.172	-0.454
-496.595	85.136	-0.037	-0.040
-495.581	-54.350	-0.223	0.100
-494.566	-200.000	-0.004	-0.197
-493.551	87.180	0.070	-0.077
-492.537	-200.000	0.044	-0.257
-491.522	-155.805	0.542	-0.034
-490.508	41.678	0.147	-0.132
-489.493	157.005	-0.103	-0.142
-488.478	-90.528	-0.065	0.019
-487.464	-104.694	-0.199	0.045
-486.449	-87.815	-0.251	-0.075
-485.435	800.000	-0.071	-0.233
-484.420	128.392	0.051	-0.065
-483.405	-46.496	-0.177	0.086
-482.391	-81.083	0.373	-0.122
-481.376	146.301	-0.130	0.173
-480.362	94.744	-0.108	0.122
-479.347	590.361	0.132	0.322
-478.332	188.420	0.142	0.210
-477.318	179.007	0.128	-0.186
-476.303	-200.000	0.005	-0.096
-475.289	-29.146	-0.096	0.055
-474.274	-15.522	-0.124	-0.078
-473.259	-57.516	0.125	-0.055
-472.245	227.335	-0.040	0.065
-471.230	-200.000	0.012	0.143
-470.216	-128.202	-0.235	-0.033
-469.201	-121.706	-0.375	-0.061
-468.186	722.187	0.050	0.132
-467.172	-200.000	-0.016	0.095
-466.157	746.101	0.039	0.104
-465.143	52.685	-0.170	0.161
-464.128	-143.779	-0.110	-0.010
-463.113	-200.000	0.017	0.109
-462.099	800.000	0.010	0.041
-461.084	-49.187	-0.018	0.009
-460.070	-200.000	0.042	0.204
-459.055	-200.000	-0.042	-0.363
-458.040	-200.000	-0.001	-0.167
-457.026	206.063	-0.115	0.177
-456.011	-200.000	-0.027	0.122
-454.997	800.000	0.020	-0.084
-453.982	800.000	0.072	0.311
-452.968	-113.041	-0.190	0.037
-451.953	236.838	0.148	0.243
-450.938	12.347	0.106	-0.081
-449.924	-99.501	0.090	-0.023
-448.909	-7.894	-0.504	-0.337
-447.895	-84.712	-0.136	-0.042
-446.880	18.551	0.076	0.060
-445.865	-200.000	0.002	0.015
-444.851	34.489	-0.502	-0.434
-443.836	-200.000	-0.026	-0.116
-442.822	-166.613	-0.114	0.005
-441.807	-11.287	0.293	0.191
-440.792	-166.904	-0.465	-0.019
-439.778	314.952	0.193	-0.359
-438.763	141.934	0.168	-0.221
-437.749	-21.543	0.165	-0.099
-436.734	481.521	0.123	0.276
-435.719	29.200	-0.207	0.174
-434.705	-81.810	-0.113	-0.037
-433.690	98.601	0.229	0.261
-432.676	28.280	0.092	-0.077
-431.661	-38.945	0.219	0.114
-430.646	-71.008	0.171	0.064
-429.632	362.121	-0.056	-0.110
-428.617	78.780	0.066	0.070
-427.603	-79.965	-0.350	-0.116
-426.588	-13.775	0.015	-0.009
-425.573	535.134	0.053	-0.124
-424.559	-89.186	-0.074	-0.022
-423.544	291.506	0.128	-0.231
-422.530	-17.932	0.081	-0.050
-421.515	800.000	-0.067	0.270
-420.500	800.000	0.063	-0.223
-419.486	800.000	-0.067	-0.257
-418.471	53.154	-0.303	-0.287
-417.457	-1.074	0.097	-0.068
-416.442	-48.134	-0.218	-0.104
-415.428	-18.718	0.337	0.208
-414.413	537.364	0.158	0.370
-413.398	-55.189	0.144	0.064
-412.384	35.530	0.135	0.117
-411.369	156.246	0.130	0.177
-410.355	49.322	0.220	-0.205
-409.340	-43.717	-0.270	-0.135
-408.325	290.790	-0.100	-0.180
-407.311	800.000	-0.018	0.066
-406.296	-103.188	-0.387	0.090
-405.282	-116.225	0.140	0.026
-404.267	-200.000	0.012	-0.067
-403.252	71.095	-0.114	0.117
-402.238	-46.405	0.143	0.069
-401.223	62.803	-0.191	-0.189
-400.209	-149.024	0.439	-0.035
-399.194	-200.000	0.014	-0.102
-398.179	-24.262	-0.232	0.137
-397.165	174.392	0.210	0.301
-396.150	165.253	0.064	0.089
-395.136	345.594	0.045	0.088
-394.121	-94.999	-0.440	-0.118
-393.106	-35.819	0.133	-0.071
-392.092	-200.000	0.022	-0.196
-391.077	-200.000	0.052	-0.427
-390.063	-71.384	-0.252	0.093
-389.048	28.897	-0.189	-0.158
-388.033	-200.000	0.007	0.288
-387.019	800.000	0.028	0.108
-386.004	220.343	0.263	-0.416
-384.990	-37.041	-0.229	0.121
-383.975	-63.050	0.022	0.009
-382.960	216.487	-0.248	0.390
-381.946	-107.836	-0.298	-0.064
-380.931	-200.000	-0.053	0.496
-379.917	87.496	-0.150	0.164
-378.902	553.561	-0.124	-0.295
-377.888	-59.680	0.104	-0.044
-376.873	31.111	0.337	-0.285
-375.858	230.507	-0.165	-0.267
-374.844	-19.990	0.029	-0.017
-373.829	-78.430	-0.021	0.007
-372.815	26.286	0.251	0.207
-371.800	116.577	0.124	0.150
-370.785	159.391	-0.143	0.196
-369.771	2.263	0.328	0.234
-368.756	62.727	-0.046	-0.045
-367.742	-141.589	-0.138	0.014
-366.727	800.000	0.089	-0.250
-365.712	429.526	0.087	0.185
-364.698	-200.000	0.042	0.468
-363.683	-200.000	0.027	0.146
-362.669	-98.223	0.160	-0.041
-361.654	-200.000	-0.008	0.255
-360.639	-39.808	-0.236	0.122
-359.625	-17.064	0.072	0.045
-358.610	-200.000	0.025	0.121
-357.596	634.990	-0.039	0.098
-356.581	93.932	-0.233	-0.261
-355.566	-200.000	-0.017	-0.228
-354.552	-6.495	-0.328	-0.220
-353.537	-22.837	0.239	-0.142
-352.523	102.086	-0.212	0.244
-351.508	-98.976	-0.255	-0.064
-350.493	-78.501	0.114	0.039
-349.479	4.317	0.121	0.087
-348.464	134.479	0.116	-0.148
-347.450	614.254	-0.094	-0.232
-346.435	-200.000	-0.009	0.094
-345.420	-136.674	-0.352	0.040
-344.406	-200.000	-0.014	-0.099
-343.391	800.000	0.076	0.293
-342.377	-200.000	0.004	-0.061
-341.362	517.532	0.090	0.207
-340.348	-200.000	-0.028	0.219
-339.333	532.155	0.120	-0.280
-338.318	440.847	0.104	-0.223
-337.304	160.553	-0.134	-0.185
-336.289	-96.653	-0.153	0.040
-335.275	-200.000	-0.075	-0.379
-334.260	-26.840	0.326	0.188
-333.245	-200.000	0.032	0.269
-332.231	-200.000	-0.104	-0.584
-331.216	-71.577	0.159	-0.059
-330.202	80.378	-0.080	0.084
-329.187	-37.090	-0.182	0.096
-328.172	800.000	0.033	-0.099
-327.158	-50.612	-0.095	0.044
-326.143	-78.148	0.107	0.036
-325.129	82.369	0.212	-0.227
-324.114	-133.691	0.332	0.041
-323.099	188.908	0.172	-0.253
-322.085	-107.614	-0.210	-0.045
-321.070	-150.136	0.233	0.018
-320.056	-71.859	-0.180	-0.066
-319.041	161.664	0.065	0.090
-318.026	-16.651	-0.257	0.160
-317.012	-7.231	0.232	0.155
-315.997	-200.000	0.029	0.469
-314.983	207.269	0.043	0.066
-313.968	79.640	0.050	0.053
-312.953	-113.047	0.473	-0.092
-311.939	86.351	-0.223	0.242
-310.924	-36.600	-0.205	0.109
-309.910	154.613	0.280	-0.379
-308.895	43.242	0.184	0.165
-307.880	-81.535	-0.014	0.005
-306.866	324.581	-0.079	-0.149
-305.851	71.929	0.109	-0.111
-304.837	-103.302	-0.271	-0.063
-303.822	-200.000	-0.042	0.203
-302.807	-83.976	0.359	0.112
-301.793	11.528	-0.107	0.081
-300.778	191.965	0.114	-0.169
-299.764	-10.350	0.117	0.076
-298.749	-200.000	0.053	-0.271
-297.735	267.985	0.052	-0.090
-296.720	349.620	0.089	0.174
-295.705	455.753	-0.187	0.408
-294.691	-37.460	-0.060	0.032
-293.676	-200.000	0.007	-0.092
-292.662	-83.252	-0.411	-0.130
-291.647	800.000	-0.062	0.195
-290.632	80.836	-0.317	-0.337
-289.618	-200.000	0.000	-0.090
-288.603	-43.929	0.391	-0.194
-287.589	-74.878	0.422	-0.149
-286.574	-200.000	-0.008	-0.070
-285.559	201.171	-0.022	-0.033
-284.545	17.134	-0.239	0.186
-283.530	-200.000	0.015	-0.232
-282.516	-95.637	-0.138	-0.036
-281.501	-129.521	0.127	-0.017
-280.486	-127.897	-0.228	0.032
-279.472	388.636	-0.083	0.169
-278.457	-58.950	-0.102	-0.043
-277.443	-48.168	-0.031	-0.014
-276.428	-100.154	0.095	-0.023
-275.413	-45.884	0.184	0.089
-274.399	78.061	-0.209	-0.219
-273.384	109.551	0.108	-0.127
-272.370	800.000	-0.087	0.295
-271.355	254.188	0.092	0.154
-270.340	-95.760	-0.359	0.094
-269.326	5.116	-0.236	0.171
-268.311	-161.045	0.653	0.034
-267.297	-200.000	0.030	-0.135
-266.282	-200.000	0.012	-0.087
-265.267	-83.608	-0.385	0.121
-264.253	-105.144	0.054	0.012
-263.238	-77.816	-0.083	0.028
-262.224	67.038	-0.213	0.213
-261.209	-92.777	0.363	0.100
-260.195	-87.471	-0.031	-0.009
-259.180	-158.692	0.067	0.004
-258.165	-160.902	0.167	-0.009
-257.151	-200.000	0.024	0.110
-256.136	396.475	-0.129	0.264
-255.122	-85.776	0.152	-0.046
-254.107	-41.070	-0.126	0.064
-253.092	-36.437	0.029	-0.015
-252.078	-186.800	-0.154	-0.002
-251.063	78.771	0.279	0.293
-250.049	-97.467	0.168	-0.043
-249.034	-105.938	-0.117	0.026
-248.019	-171.477	0.167	0.005
-247.005	-43.043	0.285	-0.142
-245.990	63.445	0.275	-0.271
-244.976	-200.000	0.016	0.155
-243.961	14.948	0.091	-0.070
-242.946	1.072	0.182	-0.128
-241.932	-23.481	0.068	0.040
-240.917	100.400	0.360	-0.410
-239.903	9.512	0.261	-0.194
-238.888	-109.916	0.057	-0.012
-237.873	-200.000	0.058	-0.342
-236.859	54.367	0.172	-0.163
-235.844	164.661	-0.134	0.186
-234.830	59.901	-0.186	0.180
-233.815	-200.000	0.055	0.408
-232.800	800.000	0.062	0.218
-231.786	-152.156	-0.168	0.012
-230.771	-200.000	-0.058	-0.284
-229.757	800.000	-0.013	0.047
-228.742	-77.692	-0.186	-0.063
-227.727	28.462	0.161	-0.133
-226.713	-6.520	0.148	-0.099
-225.698	558.663	-0.148	-0.351
-224.684	396.321	-0.162	-0.333
-223.669	-62.263	0.321	-0.131
-222.655	-106.694	-0.170	-0.037
-221.640	135.660	0.159	0.203
-220.625	-200.000	-0.005	-0.188
-219.611	73.976	0.099	-0.102
-218.596	39.251	0.125	0.110
-217.582	275.727	0.024	-0.042
-216.567	-170.812	-0.156	0.005
-215.552	360.807	0.053	-0.103
-214.538	448.197	0.061	0.132
-213.523	72.919	-0.068	-0.070
-212.509	-82.737	-0.273	-0.086
-211.494	-127.885	0.377	0.053
-210.479	82.482	-0.268	0.286
-209.465	-148.455	-0.256	0.021
-208.450	207.879	-0.142	-0.218
-207.436	0.907	-0.193	0.135
-206.421	-35.361	0.151	-0.080
-205.406	355.822	-0.078	0.152
-204.392	-148.511	0.199	-0.016
-203.377	73.936	0.060	-0.061
-202.363	-94.551	-0.078	0.021
-201.348	133.407	-0.062	-0.078
-200.333	-200.000	0.031	-0.241
-199.319	-134.678	0.175	-0.021
-198.304	-85.753	-0.119	-0.036
-197.290	-64.192	0.398	0.159
-196.275	-108.882	-0.480	0.101
-195.260	121.579	0.200	-0.244
-194.246	12.649	-0.178	0.134
-193.231	47.504	-0.040	0.037
-192.217	-5.104	-0.166	0.112
-191.202	-60.010	0.210	0.088
-190.187	-43.472	0.228	-0.113
-189.173	-39.870	0.113	-0.058
-188.158	774.660	0.172	-0.460
-187.144	-200.000	-0.017	-0.139
-186.129	-200.000	0.025	-0.210
-185.114	316.630	0.131	-0.242
-184.100	186.079	0.093	0.135
-183.085	-200.000	0.011	0.050
-182.071	221.747	0.156	-0.245
-181.056	-109.084	0.201	-0.042
-180.042	-1.708	0.325	-0.224
-179.027	243.284	-0.030	0.049
-178.012	-27.957	-0.182	-0.103
-176.998	38.100	0.223	0.194
-175.983	239.449	0.114	0.186
-174.969	649.189	0.027	-0.067
-173.954	-77.644	-0.115	0.039
-172.939	159.891	0.039	-0.053
-171.925	0.440	-0.102	-0.071
-170.910	-200.000	0.029	0.374
-169.896	17.982	-0.163	-0.127
-168.881	800.000	-0.054	0.232
-167.866	191.106	-0.184	-0.271
-166.852	172.187	0.150	0.212
-165.837	484.939	0.176	0.393
-164.823	-86.711	0.310	-0.093
-163.808	37.327	-0.027	-0.023
-162.793	-85.987	-0.114	0.035
-161.779	-51.837	0.048	0.022
-160.764	-59.893	-0.093	-0.039
-159.750	-83.722	0.062	-0.019
-158.735	-116.094	-0.295	-0.054
-157.720	10.765	-0.212	-0.158
-156.706	-200.000	0.042	-0.200
-155.691	-168.427	-0.196	-0.007
-154.677	-200.000	-0.027	-0.148
-153.662	123.566	-0.239	0.293
-152.647	198.034	-0.091	-0.136
-151.633	-200.000	0.027	0.130
-150.618	-199.763	0.337	-0.002
-149.604	28.370	0.153	-0.126
-148.589	-200.000	0.030	-0.271
-147.574	-115.759	0.132	-0.024
-146.560	-66.088	0.429	0.167
-145.545	258.487	0.198	0.333
-144.531	116.264	-0.318	0.381
-143.516	-200.000	0.001	0.042
-142.502	329.144	0.110	-0.206
-141.487	-3.411	0.244	0.166
-140.472	-24.560	-0.222	0.129
-139.458	-83.850	0.288	0.090
-138.443	152.941	-0.081	0.108
-137.429	-104.134	0.329	-0.075
-136.414	-200.000	-0.014	-0.156
-135.399	-38.126	-0.205	-0.106
-134.385	-169.075	0.248	0.009
-133.370	-200.000	-0.016	0.339
-132.356	85.904	0.120	0.129
-131.341	14.570	-0.058	0.044
-130.326	89.556	-0.077	0.084
-129.312	-200.000	-0.006	-0.081
-128.297	-35.571	-0.174	-0.092
-127.283	-85.932	0.237	0.072
-126.268	800.000	-0.186	-0.606
-125.253	147.983	0.058	0.076
-124.239	84.259	0.117	0.125
-123.224	-200.000	-0.019	0.134
-122.210	13.468	-0.159	0.121
-121.195	450.031	0.101	-0.218
-120.180	-200.000	0.008	0.099
