DTS Sentinel unit serial number:	SN413079Multiplexer serial number:	ORYXHardware model number:	OX4-SRSoftware version number:	ORYX F/W v4.00 Oryx Data Collector v3.7.2.0data status	okinstallation	princeton_trtdifferential loss correction	single-endedforward channel	channel 3reverse channel	N/Adate	2019/09/13time	15:28:35forward acquisition time	60.00reverse acquisition time	0.00gamma	496.2192k internal	0.2305k external	0.2305temperature offset calibration	1.0144default loss term (dB/km)	0.3790temperature slope calibration	1.0000multiplexer offset coefficient	1.0000multiplexer slope coefficient	1.0000fibre end	0.00T internal ref (°C)	35.19T ext. ref 1 (°C)	4.74T ext. ref 2 (°C)	29.51length (m)	temperature (°C)	Stokes	anti-Stokes-747.200	-42.193	0.265	-0.138
-746.185	-200.000	0.016	0.209
-745.171	-75.327	0.201	0.073
-744.156	-99.152	0.199	-0.051
-743.142	103.894	0.201	0.241
-742.127	-83.671	-0.221	-0.072
-741.112	174.458	-0.137	0.201
-740.098	89.821	-0.154	0.175
-739.083	-53.657	0.257	0.119
-738.069	-200.000	0.017	0.299
-737.054	-200.000	-0.048	0.296
-736.039	-88.288	-0.254	0.077
-735.025	30.619	-0.355	0.309
-734.010	-200.000	0.028	0.386
-732.996	-29.145	-0.415	0.242
-731.981	-52.931	-0.167	-0.078
-730.966	-108.371	-0.557	0.122
-729.952	-135.458	-0.240	0.029
-728.937	36.430	0.015	-0.014
-727.923	156.823	-0.213	-0.299
-726.908	-80.333	-0.058	0.020
-725.894	-59.889	-0.174	-0.076
-724.879	12.236	0.171	-0.134
-723.864	515.632	-0.131	-0.310
-722.850	-179.051	-0.188	-0.004
-721.835	800.000	-0.037	0.151
-720.821	-27.679	-0.094	0.056
-719.806	237.174	0.086	-0.144
-718.791	-41.528	-0.069	-0.036
-717.777	800.000	-0.064	-0.229
-716.762	-4.097	-0.127	-0.089
-715.748	-17.981	-0.004	0.002
-714.733	423.313	-0.080	-0.176
-713.718	387.251	-0.128	-0.270
-712.704	-23.006	0.194	0.119
-711.689	-48.721	-0.325	0.159
-710.675	-45.762	-0.212	0.106
-709.660	800.000	-0.081	0.349
-708.645	156.492	0.056	0.079
-707.631	89.650	0.052	-0.059
-706.616	800.000	-0.103	0.351
-705.602	-200.000	0.050	0.471
-704.587	76.906	0.206	-0.222
-703.572	334.880	0.050	-0.099
-702.558	798.062	-0.058	0.162
-701.543	800.000	0.026	0.073
-700.529	158.479	0.079	0.111
-699.514	-187.379	0.232	-0.003
-698.499	-78.805	-0.251	0.087
-697.485	-102.409	-0.156	-0.038
-696.470	-7.326	0.272	-0.187
-695.456	-172.248	0.171	0.006
-694.441	164.034	0.146	0.208
-693.426	800.000	0.072	0.206
-692.412	-69.063	0.058	-0.023
-691.397	-133.435	-0.296	-0.038
-690.383	800.000	-0.128	-0.464
-689.368	800.000	-0.059	-0.203
-688.354	-130.218	0.219	-0.030
-687.339	205.281	-0.084	-0.133
-686.324	29.661	-0.181	0.156
-685.310	-200.000	-0.007	-0.262
-684.295	29.814	-0.289	0.250
-683.281	217.792	-0.123	-0.199
-682.266	-200.000	-0.001	-0.241
-681.251	-93.146	-0.256	-0.072
-680.237	83.960	0.058	-0.064
-679.222	19.253	-0.105	-0.086
-678.208	800.000	-0.102	-0.292
-677.193	232.110	-0.006	-0.010
-676.178	-69.697	0.229	-0.089
-675.164	-200.000	-0.017	-0.192
-674.149	605.924	0.091	-0.230
-673.135	-49.908	-0.229	-0.110
-672.120	10.693	-0.073	0.057
-671.105	-100.321	-0.220	0.055
-670.091	643.739	0.009	-0.023
-669.076	-131.490	-0.275	-0.037
-668.062	196.953	-0.079	-0.122
-667.047	-85.854	0.087	-0.027
-666.032	800.000	0.056	-0.189
-665.018	-59.423	-0.276	-0.120
-664.003	270.500	0.039	0.069
-662.989	800.000	0.068	-0.302
-661.974	8.374	0.207	-0.158
-660.959	152.784	0.142	0.197
-659.945	344.287	0.072	0.143
-658.930	-200.000	0.006	-0.280
-657.916	-17.862	-0.187	0.119
-656.901	5.357	0.210	0.157
-655.886	158.024	0.164	0.230
-654.872	-200.000	-0.008	0.050
-653.857	641.970	0.017	0.043
-652.843	50.929	-0.134	-0.128
-651.828	-156.029	-0.303	0.019
-650.814	80.003	-0.483	0.526
-649.799	-101.207	0.120	-0.030
-648.784	-200.000	0.015	0.073
-647.770	-164.251	0.083	-0.004
-646.755	721.834	-0.049	0.132
-645.741	427.621	-0.104	0.228
-644.726	-170.360	0.144	-0.005
-643.711	302.132	0.084	-0.158
-642.697	-52.709	-0.243	-0.113
-641.682	-200.000	-0.018	-0.109
-640.668	-79.718	-0.256	0.087
-639.653	125.643	-0.141	-0.181
-638.638	-170.267	0.177	0.006
-637.624	-127.859	0.129	0.019
-636.609	-200.000	-0.002	-0.206
-635.595	277.546	0.149	-0.270
-634.580	-200.000	0.038	-0.230
-633.565	800.000	-0.018	0.080
-632.551	800.000	0.055	-0.193
-631.536	800.000	0.097	-0.292
-630.522	91.137	-0.064	0.073
-629.507	-8.655	0.082	0.056
-628.492	382.867	0.079	-0.164
-627.478	99.030	0.156	-0.182
-626.463	96.946	0.081	0.094
-625.449	800.000	-0.016	-0.058
-624.434	-129.795	-0.194	-0.027
-623.419	178.616	-0.039	-0.058
-622.405	800.000	0.059	-0.219
-621.390	713.588	0.094	-0.252
-620.376	-152.000	0.097	-0.007
-619.361	800.000	0.019	-0.083
-618.346	-144.956	0.163	-0.015
-617.332	-4.432	0.192	-0.135
-616.317	-46.291	-0.166	-0.082
-615.303	-200.000	-0.013	-0.119
-614.288	-75.553	-0.105	-0.038
-613.273	-200.000	-0.076	0.495
-612.259	96.153	-0.120	0.139
-611.244	-87.576	0.180	-0.055
-610.230	151.539	-0.109	0.151
-609.215	-37.480	-0.402	0.217
-608.201	-6.484	0.074	0.051
-607.186	-148.567	-0.284	-0.023
-606.171	-200.000	-0.049	-0.482
-605.157	282.199	0.114	-0.207
-604.142	647.656	0.026	-0.066
-603.128	-200.000	-0.011	-0.168
-602.113	-200.000	-0.079	0.362
-601.098	488.846	0.100	-0.231
-600.084	-200.000	-0.009	-0.098
-599.069	-200.000	-0.017	-0.166
-598.055	125.710	0.224	0.287
-597.040	-86.312	-0.408	-0.127
-596.025	163.882	-0.402	-0.573
-595.011	142.276	0.106	0.143
-593.996	221.413	-0.102	0.165
-592.982	226.412	0.005	0.007
-591.967	-77.779	0.375	-0.131
-590.952	20.037	-0.113	-0.092
-589.938	22.291	0.073	-0.060
-588.923	106.592	-0.088	-0.105
-587.909	4.127	-0.190	-0.141
-586.894	-200.000	-0.006	0.141
-585.879	71.936	-0.116	-0.122
-584.865	-54.366	-0.177	0.081
-583.850	-101.014	0.250	-0.062
-582.836	-60.341	-0.461	0.198
-581.821	-39.937	0.154	0.081
-580.806	88.072	0.213	0.239
-579.792	800.000	0.045	-0.183
-578.777	800.000	0.038	-0.155
-577.763	-67.793	-0.186	-0.074
-576.748	158.417	-0.064	0.090
-575.733	-53.531	0.138	-0.064
-574.719	-90.670	0.441	0.129
-573.704	-58.288	-0.240	0.106
-572.690	762.471	-0.044	-0.120
-571.675	63.462	0.178	0.181
-570.661	93.948	0.121	0.139
-569.646	61.182	0.144	-0.145
-568.631	800.000	0.062	-0.186
-567.617	-139.303	-0.178	0.019
-566.602	-8.001	0.154	0.105
-565.588	-82.878	0.217	0.071
-564.573	3.960	-0.141	0.104
-563.558	-4.263	-0.268	0.188
-562.544	82.772	0.128	-0.140
-561.529	800.000	-0.025	-0.082
-560.515	-53.341	-0.277	0.128
-559.500	107.135	-0.249	-0.299
-558.485	-200.000	-0.017	-0.381
-557.471	-200.000	0.015	0.100
-556.456	7.383	-0.058	0.044
-555.442	186.151	0.126	0.189
-554.427	118.762	-0.060	0.074
-553.412	-200.000	-0.040	0.187
-552.398	800.000	0.075	0.235
-551.383	800.000	0.045	0.163
-550.369	773.030	0.105	0.288
-549.354	-36.340	0.389	0.212
-548.339	-200.000	0.010	-0.187
-547.325	-50.942	0.199	-0.094
-546.310	174.258	0.137	-0.200
-545.296	469.622	-0.106	-0.241
-544.281	-200.000	-0.016	0.094
-543.266	-104.084	0.119	-0.028
-542.252	307.804	0.098	-0.184
-541.237	-85.867	-0.320	-0.100
-540.223	275.902	0.037	0.066
-539.208	-101.679	-0.110	0.027
-538.193	-200.000	0.007	-0.457
-537.179	5.083	0.142	0.105
-536.164	34.144	0.072	-0.064
-535.150	-72.972	-0.052	0.019
-534.135	-46.650	-0.088	0.044
-533.121	11.212	0.245	-0.189
-532.106	-79.133	-0.165	-0.057
-531.091	-26.489	-0.330	-0.195
-530.077	5.569	-0.262	-0.195
-529.062	234.616	0.150	-0.249
-528.048	7.099	0.032	-0.024
-527.033	9.319	0.201	0.154
-526.018	-200.000	0.013	-0.130
-525.004	-96.853	0.347	0.092
-523.989	161.225	0.206	0.291
-522.975	-13.961	-0.108	-0.071
-521.960	-27.119	0.295	-0.174
-520.945	-200.000	-0.043	0.207
-519.931	-113.752	-0.174	0.034
-518.916	-81.857	0.029	0.009
-517.902	247.371	-0.108	-0.184
-516.887	-35.349	-0.114	-0.062
-515.872	-200.000	0.025	-0.239
-514.858	-33.119	-0.378	-0.211
-513.843	27.374	0.166	0.141
-512.829	-146.164	0.297	-0.026
-511.814	171.432	0.101	-0.146
-510.799	-15.516	-0.109	0.070
-509.785	241.435	0.101	0.170
-508.770	-36.872	-0.243	-0.132
-507.756	4.002	0.264	-0.194
-506.741	-153.641	0.210	0.015
-505.726	-163.661	-0.350	-0.017
-504.712	161.716	-0.189	0.267
-503.697	279.117	-0.046	-0.082
-502.683	800.000	-0.010	0.032
-501.668	17.939	-0.150	0.121
-500.653	800.000	-0.077	0.216
-499.639	-64.696	-0.189	-0.077
-498.624	-150.568	-0.314	-0.024
-497.610	-56.717	-0.395	0.176
-496.595	-25.836	-0.191	0.113
-495.581	-71.045	-0.393	0.149
-494.566	-70.639	0.168	0.064
-493.551	220.159	-0.154	-0.248
-492.537	800.000	0.041	-0.115
-491.522	31.858	0.281	-0.244
-490.508	-200.000	-0.018	-0.094
-489.493	451.199	0.093	-0.208
-488.478	104.278	0.242	-0.287
-487.464	-118.854	-0.322	0.057
-486.449	314.635	-0.213	-0.404
-485.435	-115.191	0.310	0.059
-484.420	125.412	0.192	-0.244
-483.405	350.982	0.042	0.084
-482.391	225.587	0.028	0.046
-481.376	-131.634	-0.030	-0.004
-480.362	295.424	0.138	-0.254
-479.347	-200.000	0.030	0.229
-478.332	123.008	0.126	-0.159
-477.318	545.961	0.057	0.138
-476.303	-66.196	0.069	0.028
-475.289	-46.033	-0.364	-0.181
-474.274	800.000	-0.039	-0.128
-473.259	5.485	0.154	0.115
-472.245	85.922	0.095	-0.105
-471.230	423.318	-0.133	0.288
-470.216	6.673	0.293	-0.220
-469.201	-200.000	-0.006	-0.219
-468.186	-200.000	-0.037	0.599
-467.172	800.000	0.029	-0.101
-466.157	-70.007	-0.428	-0.164
-465.143	80.490	-0.112	-0.121
-464.128	155.456	0.130	0.180
-463.113	-150.787	-0.334	-0.026
-462.099	127.833	-0.107	-0.137
-461.084	-66.611	-0.122	0.049
-460.070	-48.929	-0.179	-0.086
-459.055	-93.627	0.365	-0.101
-458.040	530.083	-0.080	0.190
-457.026	-200.000	0.028	-0.254
-456.011	-200.000	-0.030	-0.201
-454.997	-172.071	-0.191	-0.006
-453.982	144.110	0.003	0.005
-452.968	-130.273	0.468	0.064
-451.953	-108.045	-0.022	-0.005
-450.938	102.107	-0.274	0.322
-449.924	800.000	0.113	0.420
-448.909	440.614	0.005	0.012
-447.895	192.105	0.147	-0.224
-446.880	201.686	0.227	-0.352
-445.865	-28.204	0.193	0.112
-444.851	-42.233	-0.115	0.059
-443.836	-17.543	-0.097	0.062
-442.822	382.168	0.045	0.092
-441.807	10.589	-0.092	-0.070
-440.792	-200.000	0.011	-0.085
-439.778	108.179	0.063	0.075
-438.763	-114.369	0.119	-0.023
-437.749	406.862	0.255	0.543
-436.734	800.000	0.044	0.137
-435.719	-85.870	0.214	0.067
-434.705	-200.000	-0.022	-0.254
-433.690	162.947	-0.098	-0.139
-432.676	800.000	-0.022	-0.088
-431.661	11.372	0.297	0.229
-430.646	108.118	0.202	0.242
-429.632	72.111	0.079	-0.083
-428.617	800.000	0.015	0.064
-427.603	195.397	-0.080	-0.122
-426.588	735.339	-0.042	0.112
-425.573	800.000	0.113	0.352
-424.559	265.960	0.081	-0.142
-423.544	-120.441	-0.119	0.020
-422.530	800.000	0.039	-0.113
-421.515	-200.000	0.002	0.106
-420.500	-61.661	0.036	0.015
-419.486	-141.222	0.134	-0.014
-418.471	-102.309	0.229	-0.055
-417.457	37.823	-0.238	0.212
-416.442	-168.867	0.271	-0.010
-415.428	-200.000	-0.018	0.105
-414.413	-200.000	0.020	0.181
-413.398	5.066	0.116	0.086
-412.384	183.667	0.120	0.178
-411.369	112.719	0.057	0.069
-410.355	-200.000	0.004	-0.089
-409.340	-34.351	-0.190	-0.105
-408.325	158.722	-0.088	-0.123
-407.311	-1.801	0.228	0.161
-406.296	118.709	0.207	0.257
-405.282	-157.804	0.073	-0.004
-404.267	46.543	0.106	-0.099
-403.252	-190.710	-0.131	-0.001
-402.238	-36.818	0.110	0.059
-401.223	-84.906	0.070	0.022
-400.209	-73.218	0.028	0.010
-399.194	-157.439	0.370	0.022
-398.179	-21.974	0.177	-0.108
-397.165	69.327	0.098	-0.101
-396.150	2.011	-0.278	0.201
-395.136	109.075	0.084	0.101
-394.121	-164.132	0.218	0.010
-393.106	-0.904	0.035	-0.025
-392.092	113.089	0.087	0.106
-391.077	-200.000	-0.051	0.251
-390.063	-16.708	-0.104	0.066
-389.048	-80.059	-0.550	-0.185
-388.033	224.605	-0.046	0.074
-387.019	61.958	-0.066	0.066
-386.004	-122.994	0.242	0.039
-384.990	217.257	-0.140	-0.224
-383.975	-43.243	-0.453	-0.230
-382.960	-129.382	0.198	-0.028
-381.946	193.927	0.149	-0.227
-380.931	-15.420	-0.210	-0.135
-379.917	-189.733	0.206	-0.002
-378.902	-60.408	0.305	0.130
-377.888	-129.514	0.315	-0.044
-376.873	-98.267	0.316	0.081
-375.858	134.114	-0.214	-0.278
-374.844	-200.000	-0.084	-0.545
-373.829	13.863	-0.193	0.151
-372.815	800.000	-0.104	0.307
-371.800	-200.000	0.004	0.027
-370.785	641.335	0.089	-0.227
-369.771	467.876	-0.124	0.280
-368.756	13.468	-0.119	0.093
-367.742	-187.318	0.284	-0.004
-366.727	305.799	0.181	0.337
-365.712	156.261	-0.104	-0.144
-364.698	27.336	-0.083	0.070
-363.683	800.000	0.054	-0.180
-362.669	-32.231	-0.105	0.059
-361.654	430.347	-0.050	0.108
-360.639	-113.842	-0.068	0.013
-359.625	800.000	0.088	0.269
-358.610	-200.000	0.007	0.378
-357.596	-7.059	-0.024	-0.017
-356.581	-200.000	0.009	-0.110
-355.566	-121.396	0.158	0.026
-354.552	118.976	0.210	0.261
-353.537	-14.312	0.206	-0.133
-352.523	800.000	-0.024	-0.093
-351.508	-200.000	0.009	-0.050
-350.493	252.109	0.016	0.027
-349.479	-162.309	-0.244	0.012
-348.464	63.704	-0.186	0.188
-347.450	83.497	0.170	0.186
-346.435	-104.226	-0.317	0.074
-345.420	-133.955	-0.244	-0.030
-344.406	-18.855	0.165	0.103
-343.391	48.787	0.164	-0.154
-342.377	212.512	0.032	0.051
-341.362	100.389	0.164	-0.191
-340.348	-111.091	0.293	0.060
-339.333	-200.000	-0.016	-0.270
-338.318	-160.363	-0.131	-0.007
-337.304	-45.313	-0.094	-0.047
-336.289	800.000	-0.055	-0.194
-335.275	42.644	0.107	-0.097
-334.260	-98.487	-0.309	-0.079
-333.245	-56.694	-0.095	0.042
-332.231	-121.665	0.296	0.049
-331.216	-60.410	0.141	0.060
-330.202	87.429	0.082	0.091
-329.187	-48.838	0.021	-0.010
-328.172	36.211	-0.195	0.172
-327.158	-200.000	0.013	0.323
-326.143	64.877	-0.082	-0.083
-325.129	574.655	-0.066	-0.162
-324.114	-200.000	0.022	-0.121
-323.099	-77.423	-0.113	0.039
-322.085	176.309	-0.167	0.243
-321.070	19.714	-0.123	0.099
-320.056	-124.734	0.452	0.070
-319.041	-186.614	0.261	-0.004
-318.026	-149.039	-0.193	-0.015
-317.012	-119.614	0.135	-0.023
-315.997	355.491	-0.200	0.397
-314.983	-129.951	-0.196	0.027
-313.968	181.794	0.206	0.304
-312.953	-22.260	0.045	-0.028
-311.939	-107.923	0.159	0.035
-310.924	800.000	-0.114	0.315
-309.910	-7.752	-0.266	0.180
-308.895	113.019	0.088	0.107
-307.880	192.349	-0.094	-0.142
-306.866	139.748	0.074	0.097
-305.851	-48.298	0.188	-0.091
-304.837	56.324	0.103	0.101
-303.822	73.009	-0.072	0.076
-302.807	-11.636	0.083	0.054
-301.793	-97.367	-0.227	-0.059
-300.778	-53.297	-0.250	0.115
-299.764	-141.317	0.041	-0.004
-298.749	37.481	0.165	0.146
-297.735	-200.000	0.025	-0.138
-296.720	139.886	-0.113	0.149
-295.705	800.000	-0.060	0.182
-294.691	55.637	-0.121	0.117
-293.676	-200.000	0.006	0.171
-292.662	-13.156	-0.148	0.096
-291.647	-171.730	0.160	-0.005
-290.632	800.000	-0.026	-0.098
-289.618	187.978	0.108	0.161
-288.603	185.833	0.171	0.254
-287.589	800.000	0.091	0.328
-286.574	359.152	-0.090	0.180
-285.559	-138.276	-0.067	0.007
-284.545	246.526	0.176	0.297
-283.530	-17.877	-0.364	0.228
-282.516	-158.224	-0.290	0.017
-281.501	161.919	0.138	-0.193
-280.486	-200.000	-0.038	-0.198
-279.472	294.704	0.083	0.152
-278.457	249.698	-0.079	0.134
-277.443	-70.154	0.152	-0.058
-276.428	96.102	-0.126	-0.144
-275.413	681.474	0.060	-0.155
-274.399	368.309	-0.156	-0.315
-273.384	-151.412	-0.027	-0.002
-272.370	26.551	0.130	0.108
-271.355	-1.712	-0.278	-0.195
-270.340	-53.290	0.141	-0.065
-269.326	404.710	0.054	-0.114
-268.311	-51.019	0.070	0.033
-267.297	376.561	0.111	-0.226
-266.282	-200.000	-0.023	0.150
-265.267	-46.357	-0.140	0.068
-264.253	-36.498	0.216	0.116
-263.238	171.327	0.203	0.291
-262.224	-200.000	0.030	0.384
-261.209	322.431	-0.078	0.148
-260.195	-108.580	0.149	-0.032
-259.180	-85.935	0.369	0.114
-258.165	278.355	-0.169	0.300
-257.151	164.522	0.145	0.204
-256.136	-36.071	-0.243	0.131
-255.122	54.746	0.247	-0.238
-254.107	-172.107	0.382	0.012
-253.092	-200.000	-0.025	-0.401
-252.078	-11.762	0.078	0.051
-251.063	-114.820	0.148	-0.028
-250.049	-122.779	-0.419	0.068
-249.034	12.751	0.081	-0.063
-248.019	-200.000	-0.003	-0.027
-247.005	-110.942	0.093	0.019
-245.990	-200.000	0.009	-0.121
-244.976	210.245	-0.104	-0.163
-243.961	-181.607	-0.292	0.006
-242.946	479.931	-0.158	-0.357
-241.932	-200.000	0.005	-0.149
-240.917	800.000	0.130	-0.359
-239.903	3.837	0.128	-0.093
-238.888	-200.000	0.002	-0.290
-237.873	45.555	-0.128	-0.118
-236.859	591.806	-0.116	-0.286
-235.844	54.170	-0.198	-0.191
-234.830	800.000	0.016	0.049
-233.815	525.673	-0.168	-0.395
-232.800	608.429	-0.023	0.056
-231.786	800.000	-0.037	-0.137
-230.771	30.890	-0.039	0.033
-229.757	-200.000	0.007	0.299
-228.742	216.469	-0.043	-0.067
-227.727	-29.036	0.234	-0.134
-226.713	78.675	-0.228	-0.243
-225.698	-200.000	-0.044	0.387
-224.684	-97.055	-0.128	0.033
-223.669	72.843	-0.196	0.204
-222.655	123.034	0.088	-0.109
-221.640	766.482	-0.084	0.227
-220.625	-126.310	-0.218	0.032
-219.611	-200.000	0.023	0.110
-218.596	294.515	0.131	0.239
-217.582	113.251	-0.107	0.129
-216.567	-200.000	0.039	0.173
-215.552	442.433	0.049	-0.108
-214.538	216.223	-0.021	-0.033
-213.523	77.838	-0.334	-0.355
-212.509	348.671	-0.024	-0.048
-211.494	-200.000	0.000	0.335
-210.479	-200.000	-0.007	-0.227
-209.465	-133.678	0.142	0.018
-208.450	-174.972	0.279	-0.008
-207.436	800.000	0.072	0.241
-206.421	9.932	-0.174	0.132
-205.406	-200.000	0.006	0.105
-204.392	14.345	-0.177	-0.137
-203.377	-117.303	0.075	0.014
-202.363	201.227	-0.124	-0.190
-201.348	-149.758	0.214	0.017
-200.333	415.148	-0.106	-0.224
-199.319	-85.447	-0.234	-0.073
-198.304	-131.292	-0.243	-0.032
-197.290	-113.202	-0.161	-0.032
-196.275	-200.000	0.019	-0.105
-195.260	-200.000	-0.062	-0.433
-194.246	782.400	0.026	0.070
-193.231	296.366	-0.209	0.382
-192.217	340.319	0.130	0.253
-191.202	-111.749	0.296	0.060
-190.187	800.000	-0.072	-0.229
-189.173	28.175	-0.137	-0.116
-188.158	34.220	-0.312	0.271
-187.144	-109.351	0.230	0.049
-186.129	-54.234	-0.269	0.122
-185.114	202.128	0.097	0.148
-184.100	-68.676	0.208	-0.080
-183.085	-90.351	0.048	0.014
-182.071	-73.034	0.278	-0.102
-181.056	-28.658	-0.253	-0.145
-180.042	-10.979	0.098	-0.065
-179.027	136.413	0.064	0.083
-178.012	-149.147	-0.403	-0.032
-176.998	-121.096	-0.101	0.017
-175.983	118.804	-0.084	0.103
-174.969	-59.530	-0.189	-0.081
-173.954	-200.000	-0.029	-0.292
-172.939	140.902	0.033	0.043
-171.925	36.956	0.101	-0.088
-170.910	-86.080	-0.185	-0.057
-169.896	-151.186	-0.301	-0.022
-168.881	-129.540	-0.258	-0.035
-167.866	-200.000	0.005	0.051
-166.852	-39.983	-0.123	0.064
-165.837	118.393	-0.136	0.167
-164.823	-119.935	-0.168	-0.029
-163.808	69.664	0.048	0.049
-162.793	-146.111	0.311	0.027
-161.779	-42.074	0.038	0.019
-160.764	744.934	-0.009	0.025
-159.750	800.000	0.130	0.364
-158.735	-131.277	0.279	-0.037
-157.720	-200.000	0.011	0.195
-156.706	-24.855	0.101	-0.060
-155.691	-87.493	0.113	0.034
-154.677	-80.216	0.250	0.083
-153.662	251.378	-0.020	0.035
-152.647	149.706	0.048	-0.065
-151.633	800.000	0.028	-0.091
-150.618	-127.704	-0.152	-0.022
-149.604	-85.863	-0.155	0.048
-148.589	-112.796	0.047	0.009
-147.574	-16.600	0.075	0.047
-146.560	-36.867	0.241	0.129
-145.545	-200.000	0.007	0.057
-144.531	58.033	0.155	-0.151
-143.516	800.000	0.112	0.350
-142.502	-200.000	0.037	-0.179
-141.487	-103.695	0.120	0.028
-140.472	17.374	0.272	-0.215
-139.458	-14.174	0.232	0.149
-138.443	-29.382	-0.252	0.143
-137.429	-200.000	0.011	-0.129
-136.414	-200.000	0.020	0.267
-135.399	-200.000	-0.003	-0.049
-134.385	-101.454	0.183	-0.044
-133.370	-61.873	-0.162	0.067
-132.356	-132.063	-0.188	-0.024
-131.341	61.117	0.188	0.186
-130.326	202.569	0.243	0.373
-129.312	-200.000	-0.050	0.220
-128.297	800.000	0.049	0.139
-127.283	-200.000	0.023	-0.153
-126.268	45.285	-0.157	-0.144
-125.253	-123.229	0.128	0.020
-124.239	-4.747	0.144	0.099
-123.224	-200.000	0.048	-0.238
-122.210	731.504	0.101	-0.267
-121.195	800.000	0.079	0.218
-120.180	660.265	-0.069	-0.176
