DTS Sentinel unit serial number:	SN413079Multiplexer serial number:	ORYXHardware model number:	OX4-SRSoftware version number:	ORYX F/W v4.00 Oryx Data Collector v3.7.2.0data status	okinstallation	princeton_trtdifferential loss correction	single-endedforward channel	channel 3reverse channel	N/Adate	2019/09/14time	20:24:35forward acquisition time	60.00reverse acquisition time	0.00gamma	496.2192k internal	0.2315k external	0.2315temperature offset calibration	1.0009default loss term (dB/km)	0.3790temperature slope calibration	1.0000multiplexer offset coefficient	1.0000multiplexer slope coefficient	1.0000fibre end	0.00T internal ref (°C)	33.62T ext. ref 1 (°C)	4.85T ext. ref 2 (°C)	28.18length (m)	temperature (°C)	Stokes	anti-Stokes-747.200	-79.014	-0.321	0.111
-746.185	476.740	-0.017	-0.040
-745.171	-123.081	0.135	-0.022
-744.156	-200.000	-0.029	0.285
-743.142	-151.096	0.189	-0.014
-742.127	21.060	-0.025	0.020
-741.112	-141.959	0.176	-0.018
-740.098	57.205	0.041	0.040
-739.083	-200.000	0.030	0.179
-738.069	800.000	0.164	0.593
-737.054	800.000	0.012	-0.038
-736.039	-200.000	-0.026	-0.316
-735.025	-93.444	0.274	0.077
-734.010	153.979	-0.131	0.181
-732.996	538.028	-0.125	-0.302
-731.981	800.000	0.019	-0.082
-730.966	177.648	-0.257	0.379
-729.952	-109.859	-0.221	-0.047
-728.937	-200.000	-0.012	-0.205
-727.923	800.000	-0.085	0.348
-726.908	113.467	-0.238	0.293
-725.894	-200.000	0.052	0.379
-724.879	-104.641	0.317	-0.074
-723.864	-200.000	-0.028	-0.244
-722.850	22.034	0.121	-0.100
-721.835	-200.000	0.033	-0.177
-720.821	-102.608	-0.110	0.027
-719.806	-27.561	-0.198	-0.117
-718.791	-135.783	-0.274	-0.033
-717.777	800.000	-0.092	-0.318
-716.762	218.633	-0.235	-0.379
-715.748	133.496	-0.279	-0.365
-714.733	256.285	0.123	-0.214
-713.718	376.474	0.036	-0.073
-712.704	388.336	-0.113	-0.236
-711.689	40.009	-0.104	-0.095
-710.675	235.720	0.124	0.207
-709.660	114.767	-0.238	-0.294
-708.645	21.481	0.102	-0.084
-707.631	-93.838	-0.366	-0.102
-706.616	51.578	0.046	0.044
-705.602	-126.235	-0.239	-0.036
-704.587	-184.675	-0.184	0.003
-703.572	216.978	0.067	0.108
-702.558	800.000	0.071	0.211
-701.543	168.093	-0.119	-0.171
-700.529	390.150	0.066	0.138
-699.514	-200.000	-0.053	0.456
-698.499	-200.000	0.001	0.020
-697.485	244.738	0.053	-0.089
-696.470	456.272	-0.129	-0.290
-695.456	118.665	0.150	-0.188
-694.441	800.000	0.045	-0.168
-693.426	800.000	0.082	0.270
-692.412	248.353	0.064	0.109
-691.397	-200.000	0.034	0.231
-690.383	-36.478	0.146	0.080
-689.368	295.939	-0.113	-0.210
-688.354	203.562	0.220	-0.344
-687.339	208.508	-0.197	0.311
-686.324	-80.548	0.093	-0.031
-685.310	68.467	-0.099	-0.102
-684.295	-200.000	0.052	-0.257
-683.281	-174.867	-0.141	-0.004
-682.266	-60.653	-0.276	0.118
-681.251	800.000	-0.090	-0.320
-680.237	-151.533	0.553	-0.041
-679.222	800.000	0.085	-0.326
-678.208	-200.000	0.087	-0.423
-677.193	-116.915	0.263	0.049
-676.178	-80.072	-0.201	-0.068
-675.164	300.890	-0.176	0.329
-674.149	60.013	-0.092	0.091
-673.135	123.677	0.137	0.174
-672.120	210.825	-0.239	-0.380
-671.105	-90.206	-0.391	0.115
-670.091	-167.608	-0.103	-0.004
-669.076	-200.000	0.000	-0.196
-668.062	342.802	0.161	-0.318
-667.047	271.859	0.075	-0.133
-666.032	-6.123	-0.325	-0.224
-665.018	44.825	0.247	0.230
-664.003	430.940	-0.037	-0.081
-662.989	-67.370	-0.037	0.015
-661.974	-84.437	0.347	-0.111
-660.959	59.985	0.007	-0.007
-659.945	-89.221	-0.231	-0.069
-658.930	-105.161	-0.230	-0.053
-657.916	800.000	-0.042	0.178
-656.901	697.594	0.097	-0.257
-655.886	36.740	-0.263	-0.235
-654.872	317.010	-0.094	0.179
-653.857	-39.836	-0.331	0.174
-652.843	-200.000	-0.020	-0.125
-651.828	-200.000	0.043	0.216
-650.814	59.054	0.113	-0.112
-649.799	-153.544	-0.179	0.012
-648.784	184.587	-0.010	-0.015
-647.770	800.000	-0.041	0.150
-646.755	-46.745	0.370	0.183
-645.741	494.989	-0.170	0.394
-644.726	-200.000	-0.005	0.348
-643.711	-132.535	-0.125	-0.016
-642.697	56.327	-0.146	0.143
-641.682	-149.551	-0.111	-0.009
-640.668	66.995	0.063	-0.065
-639.653	717.660	0.023	0.063
-638.638	-200.000	-0.018	-0.302
-637.624	-200.000	0.007	0.527
-636.609	-36.390	-0.129	0.070
-635.595	-141.639	0.332	0.034
-634.580	-66.426	-0.147	-0.059
-633.565	800.000	0.076	-0.311
-632.551	-200.000	-0.110	-0.546
-631.536	23.678	-0.317	-0.263
-630.522	-62.990	-0.245	-0.102
-629.507	38.406	-0.231	-0.208
-628.492	-101.649	0.293	-0.072
-627.478	325.368	-0.047	-0.090
-626.463	-64.982	-0.144	-0.059
-625.449	326.883	0.099	0.191
-624.434	78.454	0.174	-0.188
-623.419	800.000	0.061	-0.177
-622.405	-93.601	-0.185	0.052
-621.390	12.114	-0.079	-0.061
-620.376	112.965	-0.063	-0.077
-619.361	520.131	0.094	-0.221
-618.346	-128.923	0.182	-0.026
-617.332	-21.146	0.212	0.131
-616.317	-20.260	-0.077	-0.048
-615.303	137.112	-0.042	0.055
-614.288	-76.553	-0.305	-0.108
-613.273	-92.817	-0.118	0.033
-612.259	362.082	0.131	-0.265
-611.244	30.009	-0.185	0.159
-610.230	-24.344	-0.118	0.071
-609.215	755.803	-0.071	-0.193
-608.201	-3.755	-0.358	0.251
-607.186	-132.934	0.148	-0.019
-606.171	-10.305	-0.115	-0.077
-605.157	-114.904	-0.491	0.094
-604.142	-37.982	0.118	-0.063
-603.128	-5.141	0.322	0.223
-602.113	800.000	-0.038	0.125
-601.098	-65.717	-0.166	0.067
-600.084	298.437	-0.121	0.224
-599.069	-200.000	0.001	0.241
-598.055	800.000	0.037	0.140
-597.040	437.197	-0.092	-0.201
-596.025	-158.018	0.506	0.030
-595.011	118.087	-0.186	0.231
-593.996	-121.607	0.196	0.033
-592.982	63.600	-0.146	0.148
-591.967	23.461	0.094	0.077
-590.952	-134.944	-0.161	-0.020
-589.938	-200.000	0.011	0.053
-588.923	-88.040	0.212	0.064
-587.909	-91.872	0.087	-0.025
-586.894	186.268	-0.113	-0.170
-585.879	-200.000	-0.001	-0.161
-584.865	-200.000	-0.019	-0.147
-583.850	-17.564	0.249	-0.158
-582.836	-200.000	0.043	-0.200
-581.821	308.321	-0.065	0.122
-580.806	584.102	0.083	0.204
-579.792	800.000	0.105	0.337
-578.777	96.932	0.111	0.128
-577.763	65.430	-0.192	0.195
-576.748	32.333	0.132	0.115
-575.733	-70.470	-0.173	0.066
-574.719	43.717	0.162	0.149
-573.704	-87.139	-0.081	-0.025
-572.690	800.000	-0.037	-0.146
-571.675	-6.186	-0.063	0.043
-570.661	-200.000	-0.008	0.341
-569.646	-61.503	0.230	-0.097
-568.631	19.952	0.219	-0.178
-567.617	-200.000	0.027	-0.392
-566.602	-123.709	-0.139	0.022
-565.588	-200.000	-0.051	-0.240
-564.573	30.058	0.202	0.173
-563.558	156.331	0.146	0.203
-562.544	315.105	-0.137	-0.259
-561.529	-36.215	0.121	0.066
-560.515	581.434	-0.059	-0.146
-559.500	-19.446	-0.238	-0.148
-558.485	342.066	0.040	0.078
-557.471	800.000	-0.037	-0.118
-556.456	185.133	-0.135	-0.201
-555.442	-64.980	-0.142	-0.058
-554.427	-200.000	-0.025	0.184
-553.412	-100.084	-0.203	0.051
-552.398	-200.000	0.016	-0.139
-551.383	-93.945	-0.129	0.036
-550.369	158.635	0.219	0.306
-549.354	-197.269	0.187	-0.001
-548.339	-65.837	0.391	0.157
-547.325	-35.120	-0.120	-0.066
-546.310	602.098	-0.015	0.038
-545.296	-56.986	0.088	-0.039
-544.281	402.608	0.075	0.158
-543.266	-117.969	-0.289	-0.052
-542.252	-158.434	0.249	-0.015
-541.237	-43.012	-0.234	-0.119
-540.223	-200.000	-0.032	0.370
-539.208	-35.965	-0.116	-0.063
-538.193	-114.445	0.132	0.025
-537.179	-200.000	-0.053	0.337
-536.164	340.750	-0.207	-0.405
-535.150	800.000	0.140	0.451
-534.135	117.509	-0.144	-0.178
-533.121	-173.883	0.315	0.009
-532.106	33.040	0.189	-0.164
-531.091	-200.000	-0.035	0.165
-530.077	800.000	0.074	0.314
-529.062	261.852	-0.186	0.324
-528.048	-59.362	-0.222	0.096
-527.033	-97.554	0.143	0.037
-526.018	149.246	-0.107	-0.146
-525.004	98.031	-0.176	0.203
-523.989	-200.000	0.049	-0.361
-522.975	246.917	0.200	0.339
-521.960	-47.970	-0.081	-0.039
-520.945	-200.000	0.082	-0.536
-519.931	-20.912	0.135	0.083
-518.916	-48.458	0.352	-0.170
-517.902	47.542	0.060	0.056
-516.887	-136.754	0.063	0.007
-515.872	-97.048	-0.480	-0.126
-514.858	104.345	0.156	0.184
-513.843	-105.049	0.255	-0.059
-512.829	-81.441	0.040	0.013
-511.814	70.510	0.039	-0.040
-510.799	-200.000	-0.015	-0.122
-509.785	-114.309	0.126	-0.024
-508.770	-41.292	-0.213	-0.110
-507.756	28.349	0.083	0.070
-506.741	-111.654	0.047	0.009
-505.726	77.756	-0.192	-0.205
-504.712	-58.066	0.063	-0.028
-503.697	-107.273	-0.221	-0.049
-502.683	-103.581	-0.197	0.046
-501.668	-53.023	-0.231	-0.106
-500.653	-200.000	-0.062	-0.288
-499.639	800.000	0.073	0.229
-498.624	584.068	-0.009	-0.022
-497.610	676.046	-0.079	0.206
-496.595	15.064	0.245	-0.193
-495.581	-49.209	-0.304	0.146
-494.566	10.726	-0.075	-0.058
-493.551	146.895	-0.006	0.009
-492.537	800.000	-0.035	-0.101
-491.522	-41.447	-0.411	-0.212
-490.508	-200.000	0.007	0.059
-489.493	71.299	-0.250	-0.260
-488.478	-39.446	0.140	0.074
-487.464	577.885	-0.072	0.177
-486.449	85.325	0.025	-0.027
-485.435	242.613	0.148	0.249
-484.420	244.254	-0.097	0.163
-483.405	25.069	-0.178	-0.148
-482.391	159.016	-0.260	-0.363
-481.376	152.079	0.086	-0.117
-480.362	-173.274	-0.122	-0.004
-479.347	-47.238	0.105	-0.051
-478.332	170.887	-0.132	-0.189
-477.318	11.742	0.393	0.303
-476.303	800.000	0.027	-0.098
-475.289	-93.595	0.264	-0.073
-474.274	460.422	-0.047	0.105
-473.259	15.475	-0.457	0.360
-472.245	800.000	-0.090	-0.290
-471.230	7.800	0.172	0.129
-470.216	167.648	-0.227	-0.324
-469.201	163.346	0.250	0.352
-468.186	539.520	-0.102	-0.242
-467.172	-72.379	0.258	-0.096
-466.157	-142.907	-0.069	-0.007
-465.143	-18.286	0.270	0.169
-464.128	240.731	-0.136	0.227
-463.113	-200.000	-0.031	0.318
-462.099	92.856	-0.129	0.145
-461.084	323.687	0.168	-0.322
-460.070	31.972	-0.113	0.098
-459.055	61.902	-0.116	-0.116
-458.040	800.000	-0.084	0.274
-457.026	10.741	0.125	-0.095
-456.011	-101.413	0.209	-0.051
-454.997	8.101	-0.153	-0.115
-453.982	-142.008	-0.046	-0.005
-452.968	193.694	0.127	-0.193
-451.953	-89.493	-0.368	0.108
-450.938	34.027	-0.097	0.084
-449.924	800.000	0.031	-0.111
-448.909	14.459	-0.063	-0.050
-447.895	-61.924	0.130	0.054
-446.880	-140.255	-0.078	-0.008
-445.865	-200.000	0.013	0.300
-444.851	-106.938	0.226	0.050
-443.836	-200.000	-0.043	-0.404
-442.822	-51.347	-0.306	-0.144
-441.807	-106.512	0.258	0.058
-440.792	65.296	-0.329	0.333
-439.778	81.825	0.197	0.214
-438.763	-200.000	0.021	-0.175
-437.749	292.002	-0.164	-0.300
-436.734	230.235	0.078	-0.128
-435.719	716.256	0.068	-0.181
-434.705	55.672	-0.039	0.038
-433.690	362.688	-0.065	-0.131
-432.676	-133.294	0.090	-0.011
-431.661	-200.000	0.011	0.139
-430.646	-147.199	0.167	0.014
-429.632	-132.055	0.170	0.022
-428.617	242.355	-0.166	-0.278
-427.603	-200.000	-0.056	-0.342
-426.588	-200.000	0.017	-0.412
-425.573	-38.831	0.183	0.097
-424.559	-135.182	-0.322	-0.039
-423.544	800.000	0.035	0.128
-422.530	26.162	0.123	0.103
-421.515	-200.000	0.009	-0.167
-420.500	432.864	-0.060	-0.130
-419.486	492.275	0.199	-0.457
-418.471	-102.147	0.094	0.023
-417.457	-200.000	-0.008	0.343
-416.442	-131.138	0.279	0.037
-415.428	-136.439	-0.384	0.045
-414.413	193.300	0.076	-0.115
-413.398	329.741	0.118	0.228
-412.384	-20.277	0.174	0.107
-411.369	-200.000	0.045	0.330
-410.355	-200.000	0.448	-0.001
-409.340	36.055	-0.268	0.236
-408.325	-41.888	0.049	0.025
-407.311	506.991	-0.047	0.109
-406.296	-152.316	0.319	-0.023
-405.282	307.011	-0.109	0.203
-404.267	-40.315	-0.101	0.052
-403.252	398.032	0.116	-0.243
-402.238	-0.542	0.370	-0.262
-401.223	-85.941	-0.290	-0.090
-400.209	-200.000	-0.059	0.319
-399.194	-134.033	-0.240	-0.030
-398.179	359.198	-0.122	-0.244
-397.165	-91.337	0.226	0.065
-396.150	-134.468	-0.500	-0.061
-395.136	-87.474	-0.062	-0.019
-394.121	6.098	0.173	0.128
-393.106	-200.000	0.081	0.397
-392.092	45.786	0.195	0.180
-391.077	-115.572	0.259	-0.049
-390.063	34.069	0.196	-0.171
-389.048	-200.000	-0.003	-0.597
-388.033	-200.000	-0.009	-0.054
-387.019	-181.966	0.392	-0.007
-386.004	-200.000	0.032	-0.159
-384.990	23.110	-0.177	-0.145
-383.975	403.528	0.065	-0.137
-382.960	-124.750	-0.065	0.010
-381.946	-166.737	0.148	0.006
-380.931	-19.258	-0.123	-0.076
-379.917	-200.000	-0.050	0.269
-378.902	-200.000	0.008	-0.087
-377.888	800.000	0.067	-0.218
-376.873	-108.156	0.166	-0.036
-375.858	48.230	0.233	0.217
-374.844	426.252	0.152	0.328
-373.829	800.000	0.057	-0.179
-372.815	642.437	0.078	0.199
-371.800	141.784	-0.029	0.039
-370.785	254.566	-0.021	0.035
-369.771	105.882	0.258	0.305
-368.756	-38.831	-0.212	-0.112
-367.742	351.476	0.049	0.097
-366.727	432.473	0.114	0.246
-365.712	321.412	0.198	-0.376
-364.698	270.957	-0.143	-0.251
-363.683	-64.527	0.147	0.060
-362.669	29.234	0.244	-0.207
-361.654	283.125	-0.113	-0.202
-360.639	-80.169	0.100	-0.033
-359.625	-0.569	-0.236	0.167
-358.610	192.897	-0.060	-0.090
-357.596	-200.000	0.009	0.068
-356.581	-103.157	0.235	-0.055
-355.566	800.000	-0.135	-0.382
-354.552	-53.825	-0.076	0.035
-353.537	94.783	0.250	-0.283
-352.523	153.305	0.015	-0.020
-351.508	607.472	-0.057	-0.143
-350.493	-144.923	0.256	0.023
-349.479	549.243	0.111	0.266
-348.464	58.991	0.160	-0.157
-347.450	800.000	0.043	-0.164
-346.435	-132.827	0.243	-0.031
-345.420	64.257	-0.173	0.174
-344.406	-64.419	-0.076	-0.031
-343.391	-73.891	-0.312	-0.113
-342.377	230.069	0.042	0.068
-341.362	80.356	-0.187	0.201
-340.348	33.936	-0.183	-0.159
-339.333	93.799	0.216	-0.245
-338.318	-200.000	-0.001	0.063
-337.304	-8.508	0.067	0.045
-336.289	-92.239	0.353	-0.099
-335.275	-147.001	0.151	0.013
-334.260	112.295	-0.115	0.139
-333.245	800.000	-0.095	-0.360
-332.231	-36.366	0.205	-0.110
-331.216	435.873	-0.131	-0.284
-330.202	-105.624	-0.275	-0.062
-329.187	-8.605	0.120	0.080
-328.172	178.770	-0.115	0.167
-327.158	223.128	-0.080	0.128
-326.143	800.000	0.040	0.114
-325.129	-200.000	-0.050	0.330
-324.114	404.327	0.082	-0.171
-323.099	504.672	-0.037	-0.084
-322.085	173.781	0.124	-0.179
-321.070	66.844	0.091	-0.092
-320.056	-86.998	-0.066	-0.020
-319.041	-111.432	-0.179	-0.036
-318.026	-101.284	0.430	0.105
-317.012	334.642	-0.028	0.053
-315.997	-117.860	0.193	0.035
-314.983	214.413	0.189	-0.298
-313.968	34.104	-0.205	0.178
-312.953	238.065	-0.123	0.204
-311.939	769.756	0.045	0.122
-310.924	-32.043	-0.197	-0.110
-309.910	17.992	0.311	0.247
-308.895	-84.605	-0.196	-0.062
-307.880	17.890	0.115	0.091
-306.866	52.386	0.209	0.199
-305.851	115.453	-0.243	0.296
-304.837	-139.316	0.111	-0.012
-303.822	-200.000	0.007	0.096
-302.807	-96.902	0.413	0.108
-301.793	9.923	-0.144	0.109
-300.778	196.798	0.126	0.192
-299.764	-138.676	-0.112	-0.012
-298.749	-6.985	-0.151	-0.102
-297.735	192.753	0.088	-0.133
-296.720	800.000	-0.038	0.115
-295.705	-43.178	0.276	0.139
-294.691	800.000	-0.039	-0.132
-293.676	305.482	0.085	0.157
-292.662	-154.069	-0.136	-0.009
-291.647	506.709	-0.108	0.249
-290.632	-200.000	-0.026	0.446
-289.618	156.793	0.085	0.117
-288.603	-65.197	-0.262	-0.105
-287.589	-40.734	0.156	-0.080
-286.574	-114.417	-0.044	-0.008
-285.559	-115.666	-0.185	0.035
-284.545	800.000	-0.059	-0.257
-283.530	4.087	-0.269	0.196
-282.516	665.035	0.032	-0.083
-281.501	-47.362	-0.178	-0.086
-280.486	-5.999	0.052	0.036
-279.472	-200.000	0.032	0.185
-278.457	-47.918	-0.190	-0.092
-277.443	12.022	-0.050	0.038
-276.428	-22.579	0.267	0.161
-275.413	83.047	0.142	0.154
-274.399	720.884	0.081	0.214
-273.384	-74.781	0.163	-0.058
-272.370	-200.000	0.087	0.544
-271.355	-66.879	-0.094	-0.037
-270.340	-187.679	-0.183	0.002
-269.326	800.000	-0.055	-0.215
-268.311	-21.578	-0.253	-0.153
-267.297	-200.000	0.022	-0.147
-266.282	-123.314	-0.240	-0.038
-265.267	-137.862	0.132	-0.015
-264.253	-134.219	0.250	-0.031
-263.238	-200.000	0.004	0.147
-262.224	-200.000	-0.025	-0.172
-261.209	-200.000	-0.040	0.289
-260.195	800.000	-0.060	-0.204
-259.180	-147.173	0.156	0.013
-258.165	102.542	0.190	-0.221
-257.151	-106.459	0.122	-0.027
-256.136	-137.627	-0.228	0.026
-255.122	-200.000	-0.031	0.173
-254.107	21.349	-0.077	-0.062
-253.092	-108.168	0.299	-0.064
-252.078	14.980	0.182	0.142
-251.063	542.305	-0.079	-0.187
-250.049	-200.000	0.049	-0.218
-249.034	-200.000	-0.018	-0.174
-248.019	-43.132	0.101	-0.051
-247.005	-9.741	0.270	-0.179
-245.990	-200.000	0.012	0.065
-244.976	207.194	0.114	0.177
-243.961	288.767	0.016	-0.028
-242.946	-119.798	0.278	-0.048
-241.932	800.000	0.050	0.147
-240.917	15.256	-0.040	-0.031
-239.903	739.176	-0.158	-0.420
-238.888	800.000	-0.037	-0.137
-237.873	-200.000	-0.014	0.410
-236.859	-82.438	-0.272	-0.088
-235.844	-39.801	0.136	-0.071
-234.830	10.188	0.188	-0.142
-233.815	63.956	-0.213	0.212
-232.800	336.466	0.094	0.181
-231.786	-67.548	-0.236	0.092
-230.771	-30.691	0.104	0.058
-229.757	-107.534	-0.152	0.033
-228.742	158.425	-0.158	-0.218
-227.727	207.931	-0.099	0.153
-226.713	-141.899	-0.320	-0.032
-225.698	800.000	-0.114	-0.353
-224.684	800.000	-0.066	-0.231
-223.669	37.893	-0.043	-0.038
-222.655	-30.726	0.326	0.183
-221.640	25.002	0.079	-0.065
-220.625	-200.000	-0.044	0.283
-219.611	-150.408	0.156	0.012
-218.596	-200.000	-0.056	-0.262
-217.582	800.000	-0.035	-0.131
-216.567	420.813	0.092	-0.195
-215.552	343.298	0.037	-0.072
-214.538	485.299	-0.033	-0.074
-213.523	-100.600	0.186	-0.046
-212.509	-200.000	-0.049	0.245
-211.494	800.000	-0.079	-0.258
-210.479	-20.606	-0.262	-0.160
-209.465	147.570	0.072	-0.097
-208.450	800.000	0.031	0.101
-207.436	-149.531	-0.242	0.019
-206.421	-155.069	0.386	0.025
-205.406	800.000	0.074	-0.255
-204.392	-60.892	-0.114	0.048
-203.377	-178.044	0.182	-0.004
-202.363	800.000	0.129	-0.362
-201.348	56.708	-0.164	0.158
-200.333	34.992	0.175	-0.152
-199.319	-48.086	-0.141	-0.068
-198.304	-185.505	-0.393	0.006
-197.290	800.000	-0.038	0.109
-196.275	66.136	-0.271	0.272
-195.260	245.857	-0.188	0.314
-194.246	-54.346	-0.194	-0.087
-193.231	-128.155	0.262	0.037
-192.217	389.237	0.145	-0.297
-191.202	-159.953	-0.380	-0.021
-190.187	586.680	-0.213	0.519
-189.173	368.579	0.129	0.259
-188.158	-31.902	-0.363	-0.202
-187.144	126.031	-0.186	0.233
-186.129	-43.917	0.165	-0.082
-185.114	7.962	-0.275	0.205
-184.100	-12.323	0.088	-0.057
-183.085	-85.517	-0.095	-0.029
-182.071	-178.043	-0.252	0.006
-181.056	-72.193	0.376	0.138
-180.042	-4.867	0.174	-0.119
-179.027	182.470	0.142	-0.208
-178.012	-13.610	-0.022	0.014
-176.998	-66.299	0.379	0.150
-175.983	-200.000	-0.015	0.203
-174.969	-42.159	0.443	-0.224
-173.954	121.624	-0.220	-0.272
-172.939	271.843	0.020	0.036
-171.925	134.543	-0.132	0.169
-170.910	106.000	0.054	0.064
-169.896	-8.915	-0.202	0.134
-168.881	-200.000	0.007	0.138
-167.866	82.995	0.147	0.158
-166.852	-146.706	-0.140	-0.012
-165.837	206.022	0.184	0.284
-164.823	349.298	-0.152	-0.297
-163.808	83.237	-0.195	-0.211
-162.793	-70.321	-0.172	-0.065
-161.779	206.801	-0.040	-0.062
-160.764	-200.000	0.024	-0.301
-159.750	800.000	0.011	-0.046
-158.735	800.000	-0.141	0.395
-157.720	-153.582	-0.085	0.006
-156.706	-200.000	0.050	-0.246
-155.691	800.000	-0.090	0.378
-154.677	115.400	-0.067	0.081
-153.662	171.533	0.107	0.152
-152.647	765.717	0.070	0.189
-151.633	800.000	0.042	-0.170
-150.618	13.024	-0.193	0.148
-149.604	-168.221	0.275	0.011
-148.589	-85.045	-0.101	-0.031
-147.574	-147.613	0.102	0.008
-146.560	800.000	0.073	0.250
-145.545	59.210	-0.290	0.283
-144.531	800.000	-0.067	0.235
-143.516	-200.000	0.027	-0.168
-142.502	-200.000	0.012	-0.099
-141.487	113.321	-0.195	0.234
-140.472	140.178	-0.183	-0.239
-139.458	-78.380	-0.240	0.081
-138.443	799.676	0.085	-0.233
-137.429	-52.339	0.160	-0.073
-136.414	-200.000	0.001	0.137
-135.399	-200.000	-0.022	0.276
-134.385	-200.000	-0.069	0.386
-133.370	-200.000	0.016	0.111
-132.356	24.641	0.039	0.032
-131.341	-15.961	0.283	0.178
-130.326	-150.358	-0.154	-0.012
-129.312	647.741	0.097	0.244
-128.297	-200.000	-0.012	-0.340
-127.283	96.948	-0.133	0.151
-126.268	-99.817	-0.216	-0.054
-125.253	-179.588	0.469	-0.010
-124.239	-7.023	-0.269	0.181
-123.224	800.000	0.088	0.305
-122.210	-99.542	0.166	0.041
