DTS Sentinel unit serial number:	SN413079Multiplexer serial number:	ORYXHardware model number:	OX4-SRSoftware version number:	ORYX F/W v4.00 Oryx Data Collector v3.7.2.0data status	okinstallation	princeton_trtdifferential loss correction	single-endedforward channel	channel 3reverse channel	N/Adate	2019/09/18time	04:56:35forward acquisition time	60.00reverse acquisition time	0.00gamma	496.2192k internal	0.2343k external	0.2343temperature offset calibration	0.9949default loss term (dB/km)	0.3790temperature slope calibration	1.0000multiplexer offset coefficient	1.0000multiplexer slope coefficient	1.0000fibre end	0.00T internal ref (°C)	23.50T ext. ref 1 (°C)	0.19T ext. ref 2 (°C)	17.93length (m)	temperature (°C)	Stokes	anti-Stokes-747.200	-200.000	-0.030	0.216
-746.185	15.965	0.068	0.054
-745.171	221.670	-0.096	0.154
-744.156	-200.000	-0.006	-0.082
-743.142	-10.118	-0.063	0.042
-742.127	-83.913	-0.378	0.121
-741.112	566.886	0.068	0.166
-740.098	735.202	-0.037	-0.100
-739.083	-74.385	-0.394	0.143
-738.069	105.054	-0.125	0.148
-737.054	-8.667	-0.058	-0.039
-736.039	-12.745	-0.218	0.142
-735.025	-21.390	0.262	0.160
-734.010	-162.404	0.054	-0.003
-732.996	61.300	-0.125	-0.125
-731.981	398.338	0.037	0.078
-730.966	-53.444	-0.172	-0.079
-729.952	-105.900	-0.106	0.024
-728.937	243.476	0.174	0.292
-727.923	702.307	-0.049	-0.128
-726.908	-177.176	-0.179	0.004
-725.894	81.106	-0.386	-0.417
-724.879	105.283	-0.038	0.045
-723.864	178.406	-0.108	0.157
-722.850	141.703	-0.160	0.212
-721.835	-155.191	0.198	-0.013
-720.821	-4.937	0.046	-0.031
-719.806	-73.366	-0.450	0.165
-718.791	-48.851	-0.288	0.138
-717.777	587.819	0.050	-0.123
-716.762	-120.597	-0.127	0.022
-715.748	-54.906	0.140	0.063
-714.733	-29.438	-0.188	-0.108
-713.718	111.648	0.033	-0.040
-712.704	-142.507	0.062	-0.006
-711.689	-104.179	0.322	-0.075
-710.675	-124.191	-0.130	0.020
-709.660	-106.302	-0.134	-0.030
-708.645	-194.347	-0.203	-0.002
-707.631	-184.554	-0.347	0.006
-706.616	72.627	-0.294	0.307
-705.602	-92.675	-0.241	0.068
-704.587	101.561	-0.254	-0.296
-703.572	-98.676	-0.221	0.056
-702.558	55.871	-0.212	-0.205
-701.543	-200.000	-0.009	0.400
-700.529	-82.391	-0.274	-0.089
-699.514	-200.000	0.046	-0.224
-698.499	-21.497	0.428	-0.261
-697.485	480.680	-0.108	-0.246
-696.470	-200.000	0.039	-0.234
-695.456	-98.890	0.166	-0.042
-694.441	95.082	0.164	-0.187
-693.426	-75.364	0.313	0.112
-692.412	-101.929	0.253	0.061
-691.397	-200.000	-0.008	-0.130
-690.383	56.912	-0.183	0.179
-689.368	-85.567	-0.192	-0.060
-688.354	772.544	-0.045	-0.124
-687.339	-54.183	-0.281	-0.127
-686.324	370.904	0.022	0.044
-685.310	-87.790	-0.182	-0.055
-684.295	-69.282	-0.226	-0.087
-683.281	18.009	0.065	-0.052
-682.266	-25.690	0.136	0.080
-681.251	195.056	-0.081	-0.123
-680.237	5.799	0.356	-0.263
-679.222	-133.451	0.177	-0.022
-678.208	-200.000	-0.006	0.383
-677.193	31.964	-0.144	0.124
-676.178	-200.000	0.026	0.140
-675.164	88.364	0.063	-0.070
-674.149	800.000	-0.024	-0.091
-673.135	-15.490	-0.105	0.067
-672.120	-157.377	0.131	-0.008
-671.105	481.062	0.028	0.063
-670.091	580.539	0.022	0.054
-669.076	-85.750	0.156	-0.048
-668.062	-103.217	-0.096	0.023
-667.047	35.991	-0.038	-0.033
-666.032	48.975	-0.298	0.279
-665.018	391.974	0.071	0.148
-664.003	-60.934	-0.145	0.061
-662.989	-15.860	-0.020	-0.013
-661.974	-45.420	0.347	0.172
-660.959	460.782	0.145	0.323
-659.945	-200.000	-0.042	0.529
-658.930	179.911	-0.103	-0.150
-657.916	423.106	-0.140	0.300
-656.901	800.000	-0.079	-0.343
-655.886	89.203	-0.138	-0.153
-654.872	-200.000	0.015	-0.289
-653.857	-13.038	0.283	0.184
-652.843	-99.070	0.230	0.058
-651.828	-38.116	-0.241	0.128
-650.814	143.133	-0.112	0.149
-649.799	-200.000	-0.022	-0.357
-648.784	69.248	-0.220	0.225
-647.770	120.637	0.110	0.136
-646.755	796.677	0.056	-0.154
-645.741	361.349	0.081	0.162
-644.726	277.374	0.025	-0.044
-643.711	267.383	-0.070	-0.123
-642.697	-18.041	0.081	0.051
-641.682	-126.858	-0.089	0.013
-640.668	75.504	0.148	0.156
-639.653	-142.309	-0.282	0.028
-638.638	-141.611	0.384	-0.039
-637.624	5.248	-0.178	-0.131
-636.609	800.000	-0.025	-0.077
-635.595	90.205	0.151	0.169
-634.580	203.587	-0.137	-0.212
-633.565	-15.536	0.232	0.148
-632.551	800.000	-0.041	-0.149
-631.536	171.238	-0.287	0.410
-630.522	800.000	0.096	0.299
-629.507	149.651	-0.218	-0.295
-628.492	-200.000	0.015	-0.330
-627.478	-200.000	0.005	-0.119
-626.463	5.911	-0.316	0.233
-625.449	-11.954	-0.141	-0.092
-624.434	-127.436	-0.027	0.004
-623.419	800.000	0.058	-0.236
-622.405	210.538	0.075	-0.118
-621.390	52.320	0.119	0.113
-620.376	800.000	-0.072	-0.262
-619.361	165.869	0.090	0.127
-618.346	769.855	0.050	-0.136
-617.332	21.178	0.185	-0.149
-616.317	-200.000	-0.061	-0.325
-615.303	800.000	0.097	0.293
-614.288	-70.300	0.243	0.092
-613.273	470.479	-0.058	-0.131
-612.259	-50.861	0.325	-0.152
-611.244	39.947	0.237	-0.212
-610.230	17.588	-0.315	-0.249
-609.215	800.000	0.069	-0.276
-608.201	231.963	0.085	0.139
-607.186	80.401	0.118	0.126
-606.171	492.454	-0.123	-0.280
-605.157	164.107	-0.150	-0.211
-604.142	800.000	-0.102	-0.413
-603.128	102.406	0.062	-0.072
-602.113	-200.000	-0.004	-0.037
-601.098	-200.000	-0.021	-0.105
-600.084	-200.000	0.009	-0.148
-599.069	104.536	0.080	0.094
-598.055	-200.000	-0.007	-0.297
-597.040	-32.763	0.124	-0.068
-596.025	-200.000	0.011	0.066
-595.011	540.841	-0.070	0.167
-593.996	-200.000	0.004	0.188
-592.982	-142.412	0.448	0.044
-591.967	84.605	-0.232	-0.253
-590.952	325.771	0.058	0.110
-589.938	95.875	-0.294	-0.335
-588.923	-98.700	-0.359	-0.091
-587.909	-200.000	0.061	-0.309
-586.894	-146.916	0.210	0.018
-585.879	-200.000	0.005	-0.050
-584.865	147.431	-0.024	0.032
-583.850	-80.249	0.187	-0.062
-582.836	-89.665	-0.257	0.075
-581.821	-133.887	0.248	-0.031
-580.806	-200.000	0.022	0.118
-579.792	339.726	0.124	-0.240
-578.777	-200.000	0.012	-0.098
-577.763	-9.982	-0.197	-0.131
-576.748	119.038	-0.142	-0.174
-575.733	59.196	0.136	-0.133
-574.719	196.246	-0.136	0.207
-573.704	24.077	0.353	0.290
-572.690	7.125	0.192	0.142
-571.675	-200.000	0.006	0.074
-570.661	302.002	-0.128	-0.236
-569.646	-54.660	-0.155	-0.070
-568.631	-23.943	-0.126	-0.075
-567.617	-123.533	-0.064	0.010
-566.602	-103.776	0.311	0.072
-565.588	246.760	0.019	0.033
-564.573	-7.872	0.141	-0.094
-563.558	-87.991	0.201	0.060
-562.544	73.122	-0.149	0.155
-561.529	-200.000	0.012	0.324
-560.515	-200.000	-0.011	0.132
-559.500	161.534	-0.043	-0.060
-558.485	413.249	-0.116	0.245
-557.471	43.286	-0.034	-0.030
-556.456	-85.442	-0.230	0.071
-555.442	-127.484	-0.398	-0.057
-554.427	278.244	-0.174	-0.308
-553.412	99.996	-0.094	0.108
-552.398	-200.000	0.034	-0.377
-551.383	800.000	-0.111	0.407
-550.369	284.470	0.076	-0.136
-549.354	-138.471	0.238	-0.026
-548.339	587.908	0.132	0.323
-547.325	-200.000	0.004	-0.141
-546.310	-3.287	-0.195	0.135
-545.296	-62.627	0.159	-0.066
-544.281	741.369	-0.160	-0.428
-543.266	45.352	-0.078	-0.072
-542.252	-66.867	0.066	-0.026
-541.237	72.024	-0.117	0.121
-540.223	-137.994	-0.103	-0.011
-539.208	79.916	0.221	0.236
-538.193	495.431	-0.124	0.283
-537.179	488.440	-0.121	0.276
-536.164	71.271	-0.086	-0.088
-535.150	-74.186	0.067	0.024
-534.135	566.545	-0.081	0.196
-533.121	-78.796	-0.060	-0.020
-532.106	352.959	0.060	0.119
-531.091	-65.397	-0.264	0.106
-530.077	-7.452	-0.320	-0.215
-529.062	-116.356	0.170	0.031
-528.048	-200.000	-0.041	0.624
-527.033	-69.736	-0.299	-0.113
-526.018	-155.347	0.106	0.007
-525.004	-99.271	0.144	-0.036
-523.989	191.791	-0.146	0.219
-522.975	-200.000	-0.018	0.151
-521.960	-60.106	0.170	0.072
-520.945	-52.910	0.326	-0.149
-519.931	108.727	0.230	-0.273
-518.916	-128.717	0.540	-0.076
-517.902	115.121	-0.042	0.051
-516.887	800.000	-0.072	-0.237
-515.872	-8.797	0.094	-0.063
-514.858	-165.619	0.094	-0.004
-513.843	-200.000	-0.005	-0.355
-512.829	-178.256	0.148	-0.003
-511.814	800.000	-0.118	-0.440
-510.799	-36.415	0.233	-0.124
-509.785	-88.786	0.193	0.057
-508.770	-45.634	0.201	0.099
-507.756	800.000	-0.086	-0.322
-506.741	-139.357	0.174	-0.019
-505.726	15.640	-0.148	-0.115
-504.712	800.000	0.032	-0.110
-503.697	84.800	0.247	-0.269
-502.683	39.072	-0.269	-0.239
-501.668	267.173	0.085	0.147
-500.653	800.000	-0.049	0.206
-499.639	-200.000	0.014	-0.146
-498.624	181.877	-0.108	0.157
-497.610	-40.194	-0.148	-0.076
-496.595	-75.684	-0.196	0.069
-495.581	-200.000	-0.016	0.169
-494.566	16.055	-0.116	0.091
-493.551	-200.000	-0.021	0.136
-492.537	-200.000	-0.028	-0.253
-491.522	-52.153	-0.146	0.067
-490.508	-118.908	-0.300	-0.052
-489.493	800.000	0.061	0.214
-488.478	-118.476	-0.433	-0.076
-487.464	283.858	0.126	0.224
-486.449	800.000	-0.015	-0.055
-485.435	800.000	0.067	-0.186
-484.420	516.768	0.093	-0.216
-483.405	-61.031	-0.333	-0.139
-482.391	249.937	0.098	0.164
-481.376	-77.431	0.062	-0.021
-480.362	45.701	0.105	0.096
-479.347	114.369	-0.162	0.195
-478.332	195.946	-0.111	0.167
-477.318	237.866	0.111	-0.183
-476.303	-102.638	-0.224	-0.053
-475.289	-114.397	-0.322	-0.061
-474.274	-78.768	0.025	0.009
-473.259	5.886	0.165	0.121
-472.245	-200.000	-0.020	0.096
-471.230	-0.287	0.086	0.061
-470.216	-18.166	0.123	0.076
-469.201	131.615	-0.114	0.145
-468.186	-200.000	0.000	0.182
-467.172	-86.895	0.190	0.057
-466.157	47.897	-0.125	-0.116
-465.143	-77.828	0.222	-0.076
-464.128	-114.445	-0.151	-0.029
-463.113	73.483	0.282	0.293
-462.099	89.989	-0.184	-0.204
-461.084	643.660	0.086	0.218
-460.070	-200.000	0.006	0.041
-459.055	-100.169	-0.250	-0.061
-458.040	93.651	-0.172	0.193
-457.026	161.118	0.047	-0.064
-456.011	642.982	0.087	0.220
-454.997	-18.044	0.177	0.110
-453.982	73.535	0.121	-0.126
-452.968	468.651	0.026	0.058
-451.953	130.523	-0.078	-0.099
-450.938	104.885	-0.138	-0.161
-449.924	-127.012	-0.189	0.027
-448.909	800.000	-0.161	-0.466
-447.895	80.837	0.198	-0.211
-446.880	800.000	0.045	-0.157
-445.865	501.369	0.066	-0.150
-444.851	-145.416	-0.438	0.039
-443.836	132.364	0.183	-0.234
-442.822	-89.673	0.114	0.033
-441.807	-110.366	-0.260	0.054
-440.792	13.178	0.263	-0.202
-439.778	184.461	0.100	-0.147
-438.763	362.523	0.089	0.177
-437.749	-53.083	0.172	-0.078
-436.734	-9.589	0.195	0.129
-435.719	-61.000	0.308	-0.129
-434.705	-135.412	0.229	-0.027
-433.690	27.759	-0.223	0.186
-432.676	159.512	0.194	0.267
-431.661	77.470	0.081	0.085
-430.646	615.462	-0.045	0.111
-429.632	-200.000	0.014	0.187
-428.617	200.898	-0.150	0.229
-427.603	-200.000	-0.022	-0.174
-426.588	439.108	-0.152	-0.329
-425.573	80.236	-0.067	0.071
-424.559	-99.282	0.071	0.018
-423.544	-76.956	-0.223	-0.077
-422.530	800.000	-0.052	0.177
-421.515	-20.768	-0.423	0.257
-420.500	-200.000	-0.033	0.596
-419.486	-160.606	-0.048	-0.003
-418.471	-123.938	0.088	0.014
-417.457	-200.000	0.008	0.211
-416.442	-2.664	0.317	0.219
-415.428	20.772	0.117	-0.094
-414.413	85.725	-0.216	0.235
-413.398	-53.436	-0.241	0.109
-412.384	265.998	0.085	-0.147
-411.369	-170.895	-0.170	0.006
-410.355	360.837	-0.103	-0.204
-409.340	800.000	-0.115	0.470
-408.325	-131.470	0.198	0.026
-407.311	800.000	0.101	0.330
-406.296	372.467	-0.060	-0.121
-405.282	800.000	-0.058	0.250
-404.267	-92.134	-0.203	0.057
-403.252	-200.000	-0.048	-0.314
-402.238	-156.927	-0.137	0.008
-401.223	-112.154	-0.288	-0.057
-400.209	-200.000	-0.000	0.185
-399.194	349.174	-0.114	0.223
-398.179	-200.000	0.056	-0.246
-397.165	-200.000	-0.004	-0.450
-396.150	-123.939	-0.283	0.044
-395.136	250.680	0.193	0.324
-394.121	581.915	-0.230	-0.556
-393.106	784.989	0.098	-0.264
-392.092	592.390	-0.098	0.240
-391.077	-68.637	0.442	0.169
-390.063	-200.000	0.039	-0.237
-389.048	-200.000	0.005	0.214
-388.033	247.936	0.129	0.215
-387.019	150.459	0.079	-0.106
-386.004	-97.585	-0.336	-0.086
-384.990	-200.000	0.019	-0.134
-383.975	145.168	-0.048	0.063
-382.960	-118.051	-0.472	0.083
-381.946	-65.996	-0.082	0.033
-380.931	293.033	0.319	0.574
-379.917	800.000	0.117	-0.361
-378.902	-200.000	-0.011	0.205
-377.888	-73.828	0.082	0.030
-376.873	222.933	0.113	0.180
-375.858	800.000	-0.090	0.376
-374.844	-88.900	0.263	-0.077
-373.829	-59.458	-0.283	0.120
-372.815	800.000	-0.088	0.318
-371.800	91.477	-0.138	-0.154
-370.785	-109.337	0.180	0.038
-369.771	-200.000	0.014	-0.225
-368.756	-3.370	-0.117	-0.081
-367.742	658.728	0.075	-0.190
-366.727	800.000	0.086	-0.252
-365.712	-200.000	0.045	0.285
-364.698	-59.200	0.204	-0.087
-363.683	53.337	-0.157	-0.148
-362.669	-200.000	0.060	-0.269
-361.654	-106.480	-0.048	0.011
-360.639	56.469	-0.043	-0.041
-359.625	99.993	0.250	-0.286
-358.610	-40.192	-0.078	-0.040
-357.596	761.820	-0.115	0.308
-356.581	-41.011	0.331	-0.169
-355.566	800.000	0.176	-0.493
-354.552	-200.000	-0.044	-0.210
-353.537	57.523	-0.088	0.084
-352.523	52.494	0.215	-0.203
-351.508	-200.000	0.059	-0.293
-350.493	-156.898	0.135	-0.008
-349.479	499.778	0.079	0.180
-348.464	210.441	0.034	-0.053
-347.450	78.862	0.136	0.143
-346.435	800.000	0.067	0.210
-345.420	-61.607	-0.192	-0.080
-344.406	12.315	0.168	0.128
-343.391	-200.000	-0.004	0.197
-342.377	-67.384	0.331	0.128
-341.362	87.435	0.059	0.065
-340.348	-94.068	0.466	0.126
-339.333	-98.358	-0.108	-0.027
-338.318	-98.207	0.169	-0.043
-337.304	-200.000	-0.031	-0.141
-336.289	800.000	-0.081	0.235
-335.275	42.013	0.075	0.067
-334.260	-28.501	-0.075	-0.042
-333.245	18.087	0.135	0.106
-332.231	199.659	0.185	-0.280
-331.216	-200.000	0.051	-0.365
-330.202	774.965	0.067	0.179
-329.187	-61.430	0.302	0.125
-328.172	19.084	0.134	0.106
-327.158	-78.255	-0.182	-0.061
-326.143	197.981	0.043	-0.065
-325.129	47.215	0.102	0.093
-324.114	11.584	0.082	0.062
-323.099	5.156	-0.397	0.288
-322.085	-86.318	0.217	-0.066
-321.070	-105.926	0.233	-0.052
-320.056	-80.605	-0.280	-0.092
-319.041	-200.000	-0.000	0.054
-318.026	-200.000	0.018	0.202
-317.012	42.881	0.279	0.251
-315.997	-99.684	0.200	-0.049
-314.983	-6.733	-0.269	0.180
-313.968	91.193	0.067	0.075
-312.953	800.000	-0.005	-0.015
-311.939	-177.734	-0.357	-0.008
-310.924	361.022	-0.081	-0.160
-309.910	-74.325	-0.241	-0.086
-308.895	357.056	-0.088	-0.172
-307.880	-138.745	-0.099	0.011
-306.866	-17.337	0.254	0.157
-305.851	-158.995	-0.208	-0.012
-304.837	-166.932	-0.155	0.006
-303.822	-154.130	-0.080	0.005
-302.807	331.010	0.144	-0.274
-301.793	800.000	0.049	-0.198
-300.778	22.286	0.334	-0.269
-299.764	28.383	0.259	-0.216
-298.749	70.632	-0.176	0.179
-297.735	180.291	-0.096	0.139
-296.720	-130.235	0.243	0.033
-295.705	-38.638	0.406	-0.211
-294.691	-119.460	0.189	0.032
-293.676	93.576	-0.050	0.056
-292.662	-26.069	0.173	-0.100
-291.647	332.042	0.148	-0.281
-290.632	-200.000	0.001	0.210
-289.618	800.000	0.078	0.259
-288.603	800.000	0.024	-0.095
-287.589	-200.000	0.032	-0.373
-286.574	92.543	0.259	-0.288
-285.559	37.150	0.153	-0.133
-284.545	-92.172	-0.259	0.072
-283.530	-90.438	0.110	0.031
-282.516	430.548	0.110	0.235
-281.501	-81.207	0.143	0.046
-280.486	-153.476	0.102	-0.007
-279.472	680.931	-0.060	0.154
-278.457	100.775	-0.136	0.155
-277.443	141.726	0.123	-0.160
-276.428	221.825	0.087	0.138
-275.413	800.000	0.049	-0.199
-274.399	-170.625	-0.279	0.010
-273.384	-72.173	0.048	0.017
-272.370	-41.577	-0.186	0.094
-271.355	800.000	0.138	0.466
-270.340	-23.716	-0.269	-0.159
-269.326	-75.164	-0.205	-0.072
-268.311	327.679	0.060	0.113
-267.297	449.727	-0.099	0.214
-266.282	92.730	-0.193	0.214
-265.267	-48.681	0.282	-0.133
-264.253	800.000	0.038	0.108
-263.238	192.826	-0.109	-0.162
-262.224	-121.396	-0.294	0.048
-261.209	215.057	-0.151	-0.235
-260.195	-2.451	-0.023	-0.016
-259.180	-38.596	-0.329	0.171
-258.165	-16.206	-0.087	-0.054
-257.151	-0.156	-0.181	-0.126
-256.136	7.040	-0.158	-0.116
-255.122	114.905	-0.111	0.133
-254.107	-51.433	0.126	-0.058
-253.092	-39.137	0.146	-0.075
-252.078	124.268	-0.114	-0.140
-251.063	-140.682	0.247	0.025
-250.049	175.906	-0.270	-0.385
-249.034	109.725	-0.374	-0.440
-248.019	800.000	-0.067	-0.216
-247.005	47.954	-0.227	-0.208
-245.990	-85.388	0.690	-0.211
-244.976	-146.145	0.211	0.018
-243.961	93.742	0.203	0.226
-242.946	152.693	-0.132	-0.177
-241.932	130.749	0.075	-0.095
-240.917	800.000	-0.025	0.105
-239.903	39.354	-0.120	-0.105
-238.888	-186.352	0.212	-0.003
-237.873	101.185	-0.136	0.155
-236.859	-51.063	0.087	0.040
-235.844	-30.522	-0.238	0.132
-234.830	798.361	-0.102	0.277
-233.815	-200.000	0.038	0.296
-232.800	503.382	0.146	0.330
-231.786	-140.310	0.069	0.007
-230.771	31.555	0.332	0.280
-229.757	192.960	0.135	-0.201
-228.742	185.889	-0.218	0.318
-227.727	193.458	0.076	-0.113
-226.713	-200.000	-0.016	0.074
-225.698	-64.235	0.247	-0.099
-224.684	-200.000	-0.064	-0.595
-223.669	7.030	-0.168	0.123
-222.655	-102.620	-0.074	-0.017
-221.640	77.399	0.208	-0.217
-220.625	-200.000	-0.019	-0.117
-219.611	-200.000	0.028	-0.158
-218.596	35.621	0.198	-0.170
-217.582	-78.949	-0.314	-0.105
-216.567	-114.788	-0.480	0.090
-215.552	-28.744	0.271	0.153
-214.538	71.067	-0.052	0.053
-213.523	-62.742	-0.208	-0.084
-212.509	-136.762	-0.421	-0.048
-211.494	-200.000	0.054	-0.341
-210.479	800.000	-0.045	0.133
-209.465	170.246	0.205	0.288
-208.450	1.848	0.083	-0.058
-207.436	422.969	-0.007	0.015
-206.421	-127.279	-0.319	-0.046
-205.406	-200.000	-0.065	-0.293
-204.392	121.525	0.059	0.073
-203.377	221.287	0.079	0.124
-202.363	749.642	0.053	0.141
-201.348	-200.000	0.005	-0.065
-200.333	-200.000	-0.056	0.324
-199.319	-18.047	0.158	0.097
-198.304	-87.666	-0.304	0.090
-197.290	-200.000	-0.034	0.284
-196.275	-126.677	-0.211	-0.031
-195.260	34.652	-0.068	0.058
-194.246	-11.571	-0.253	0.163
-193.231	162.972	0.219	0.301
-192.217	0.186	0.267	-0.187
-191.202	-30.647	-0.128	0.071
-190.187	-200.000	0.047	0.270
-189.173	-97.117	0.188	-0.048
-188.158	-200.000	-0.006	0.272
-187.144	-111.796	-0.260	-0.052
-186.129	188.695	0.122	-0.179
-185.114	-154.971	0.574	-0.037
-184.100	372.109	-0.083	-0.165
-183.085	5.736	-0.083	0.060
-182.071	-33.317	-0.112	-0.060
-181.056	-104.652	-0.189	0.043
-180.042	-168.064	-0.540	0.021
-179.027	-72.895	-0.167	0.060
-178.012	194.690	0.025	-0.037
-176.998	2.932	-0.164	0.117
-175.983	173.806	-0.257	0.363
-174.969	9.501	-0.147	0.109
-173.954	244.244	-0.120	0.197
-172.939	55.185	0.177	-0.168
-171.925	53.102	-0.048	0.045
-170.910	24.149	-0.127	0.103
-169.896	761.266	0.053	0.140
-168.881	-31.952	0.239	0.131
-167.866	-80.399	-0.281	-0.092
-166.852	263.661	0.183	0.311
-165.837	294.694	0.157	0.281
-164.823	384.180	-0.038	0.076
-163.808	338.264	-0.061	0.117
-162.793	109.101	0.132	-0.155
-161.779	-104.073	0.323	-0.074
-160.764	17.413	-0.197	-0.153
-159.750	-200.000	-0.013	0.111
-158.735	-121.581	0.078	-0.013
-157.720	-200.000	0.003	0.029
-156.706	-76.057	0.136	0.047
-155.691	43.451	0.136	-0.122
-154.677	66.582	-0.168	-0.167
-153.662	252.690	0.124	0.207
-152.647	-109.639	0.112	0.023
-151.633	-200.000	-0.004	0.269
-150.618	1.437	0.257	-0.181
-149.604	800.000	0.060	0.212
-148.589	-110.867	0.088	0.018
-147.574	-147.282	-0.091	0.008
-146.560	221.858	0.144	0.227
-145.545	334.504	0.055	0.104
-144.531	-200.000	-0.019	0.212
-143.516	-86.676	-0.285	0.085
-142.502	-26.489	-0.247	-0.142
-141.487	800.000	-0.036	0.152
-140.472	-31.395	0.618	0.340
-139.458	29.766	-0.302	0.252
-138.443	-163.287	-0.200	0.009
-137.429	46.205	-0.119	0.108
-136.414	800.000	0.020	0.055
-135.399	800.000	0.092	0.290
-134.385	60.135	-0.145	0.140
-133.370	-94.283	-0.145	-0.039
-132.356	-143.473	0.059	-0.005
-131.341	800.000	-0.109	0.311
-130.326	-64.962	0.152	-0.060
-129.312	47.368	0.082	0.075
-128.297	7.633	-0.191	0.139
-127.283	-103.415	-0.255	0.059
-126.268	-106.980	0.162	-0.035
-125.253	585.089	-0.050	-0.120
-124.239	133.971	-0.138	-0.174
-123.224	-200.000	-0.034	0.245
-122.210	88.765	-0.073	-0.079
-121.195	-200.000	0.037	-0.262
-120.180	120.917	0.066	-0.080
