DTS Sentinel unit serial number:	SN413079Multiplexer serial number:	ORYXHardware model number:	OX4-SRSoftware version number:	ORYX F/W v4.00 Oryx Data Collector v3.7.2.0data status	okinstallation	princeton_trtdifferential loss correction	single-endedforward channel	channel 3reverse channel	N/Adate	2019/09/19time	07:48:35forward acquisition time	60.00reverse acquisition time	0.00gamma	496.2192k internal	0.2346k external	0.2346temperature offset calibration	0.9977default loss term (dB/km)	0.3790temperature slope calibration	1.0000multiplexer offset coefficient	1.0000multiplexer slope coefficient	1.0000fibre end	0.00T internal ref (°C)	19.56T ext. ref 1 (°C)	0.55T ext. ref 2 (°C)	14.79length (m)	temperature (°C)	Stokes	anti-Stokes-747.200	-43.866	0.157	0.079
-746.185	-54.550	0.092	-0.042
-745.171	239.067	0.156	0.260
-744.156	-200.000	0.007	0.110
-743.142	-200.000	0.017	0.076
-742.127	240.826	0.156	0.260
-741.112	-152.531	-0.283	0.020
-740.098	-103.052	-0.387	-0.092
-739.083	73.080	0.035	-0.037
-738.069	800.000	-0.119	0.411
-737.054	-200.000	-0.026	-0.342
-736.039	192.696	-0.148	-0.224
-735.025	-168.022	0.127	0.005
-734.010	129.779	-0.155	0.198
-732.996	800.000	-0.024	-0.069
-731.981	27.060	-0.201	-0.168
-730.966	-22.014	-0.262	-0.159
-729.952	31.924	-0.128	0.110
-728.937	800.000	0.042	0.177
-727.923	800.000	-0.102	-0.399
-726.908	800.000	-0.040	0.156
-725.894	-148.889	-0.289	0.023
-724.879	-100.403	-0.283	0.070
-723.864	233.195	-0.098	0.162
-722.850	161.427	0.363	0.508
-721.835	-110.436	-0.229	0.048
-720.821	29.409	-0.172	-0.146
-719.806	325.427	-0.066	0.126
-718.791	-200.000	-0.368	0.001
-717.777	29.841	-0.201	-0.171
-716.762	-65.303	-0.161	0.065
-715.748	24.735	-0.239	-0.198
-714.733	-47.358	-0.451	0.219
-713.718	-79.042	0.365	0.124
-712.704	68.710	0.122	0.125
-711.689	14.189	-0.159	-0.124
-710.675	-47.312	-0.204	0.099
-709.660	-200.000	-0.015	-0.217
-708.645	-200.000	0.041	0.208
-707.631	800.000	-0.097	-0.345
-706.616	513.770	0.055	-0.128
-705.602	-33.193	-0.093	0.052
-704.587	-97.764	0.038	-0.010
-703.572	-13.735	0.195	-0.126
-702.558	45.129	0.253	-0.233
-701.543	23.408	-0.273	-0.224
-700.529	46.357	0.086	-0.080
-699.514	800.000	-0.083	-0.308
-698.499	64.913	0.185	-0.187
-697.485	146.641	0.138	-0.185
-696.470	166.059	-0.186	-0.263
-695.456	18.244	-0.247	0.197
-694.441	-133.183	-0.172	0.022
-693.426	-73.565	-0.185	0.067
-692.412	364.464	-0.341	-0.685
-691.397	116.106	-0.292	-0.357
-690.383	143.046	0.116	0.154
-689.368	31.453	0.098	-0.084
-688.354	800.000	-0.049	-0.168
-687.339	-38.880	-0.132	0.070
-686.324	-79.001	-0.449	0.153
-685.310	96.807	-0.145	0.165
-684.295	-108.742	0.250	-0.053
-683.281	-175.400	0.144	0.004
-682.266	-200.000	-0.000	-0.073
-681.251	-41.410	-0.220	-0.113
-680.237	131.391	0.088	-0.113
-679.222	-60.007	-0.354	0.151
-678.208	337.419	0.118	0.228
-677.193	77.652	0.081	-0.086
-676.178	-120.825	-0.361	0.061
-675.164	-142.397	0.324	0.032
-674.149	800.000	-0.024	0.090
-673.135	22.741	0.136	-0.111
-672.120	-137.924	-0.171	0.019
-671.105	64.486	-0.167	0.168
-670.091	-200.000	0.006	0.073
-669.076	-69.169	-0.134	-0.051
-668.062	-117.619	-0.161	0.029
-667.047	14.108	-0.117	-0.091
-666.032	-200.000	0.004	-0.181
-665.018	4.141	-0.034	-0.025
-664.003	-34.870	-0.062	0.034
-662.989	-188.920	0.303	-0.004
-661.974	627.963	0.090	0.227
-660.959	152.102	-0.186	-0.253
-659.945	-56.757	0.112	0.049
-658.930	-11.283	0.140	-0.092
-657.916	-88.389	-0.259	0.077
-656.901	-200.000	-0.032	0.162
-655.886	135.342	0.047	0.061
-654.872	-200.000	-0.012	-0.060
-653.857	-2.990	-0.254	0.177
-652.843	-200.000	0.011	-0.171
-651.828	70.704	-0.147	-0.151
-650.814	-200.000	0.017	0.080
-649.799	138.133	-0.138	-0.180
-648.784	-91.508	-0.285	0.081
-647.770	57.138	0.169	-0.164
-646.755	-40.885	-0.199	-0.103
-645.741	-112.233	0.375	0.075
-644.726	800.000	0.058	0.230
-643.711	223.159	0.178	0.285
-642.697	-159.530	-0.259	-0.014
-641.682	-72.273	0.139	0.051
-640.668	62.537	-0.342	-0.340
-639.653	-200.000	-0.018	-0.136
-638.638	20.943	-0.200	0.161
-637.624	-21.208	0.188	0.114
-636.609	137.942	0.124	-0.162
-635.595	-26.288	0.260	0.152
-634.580	-200.000	0.065	0.000
-633.565	-77.995	0.116	-0.040
-632.551	260.724	-0.036	-0.062
-631.536	-168.304	-0.485	0.019
-630.522	-73.712	-0.070	0.025
-629.507	-56.563	-0.268	-0.118
-628.492	-84.200	-0.186	0.059
-627.478	-200.000	-0.015	0.192
-626.463	391.107	0.163	0.337
-625.449	-3.621	-0.149	-0.103
-624.434	410.710	0.113	-0.237
-623.419	652.606	-0.032	0.081
-622.405	800.000	0.115	-0.318
-621.390	-113.033	-0.044	0.009
-620.376	381.429	0.086	-0.176
-619.361	-8.715	-0.182	0.121
-618.346	-77.995	-0.146	0.050
-617.332	163.584	-0.212	0.297
-616.317	88.428	-0.085	0.094
-615.303	41.191	0.051	-0.046
-614.288	-200.000	-0.057	-0.287
-613.273	-200.000	0.002	-0.010
-612.259	800.000	-0.048	0.191
-611.244	288.308	-0.088	-0.159
-610.230	-87.406	0.180	-0.054
-609.215	800.000	-0.114	-0.391
-608.201	-200.000	-0.041	-0.550
-607.186	-200.000	0.008	-0.067
-606.171	58.900	0.210	0.205
-605.157	-100.989	-0.171	-0.042
-604.142	-108.510	-0.341	-0.073
-603.128	65.311	-0.175	-0.176
-602.113	301.007	0.017	-0.032
-601.098	-92.621	-0.251	0.070
-600.084	-39.346	-0.041	-0.022
-599.069	-200.000	0.071	-0.325
-598.055	-200.000	0.020	-0.287
-597.040	-179.788	-0.185	-0.004
-596.025	800.000	-0.057	0.162
-595.011	-0.656	0.266	-0.187
-593.996	-170.771	-0.107	-0.004
-592.982	-148.706	-0.089	0.007
-591.967	-55.260	-0.190	-0.085
-590.952	5.263	-0.149	0.109
-589.938	109.618	0.101	-0.120
-588.923	15.554	-0.055	0.043
-587.909	771.138	-0.061	0.166
-586.894	616.843	0.021	-0.053
-585.879	41.347	0.179	-0.161
-584.865	800.000	0.063	0.216
-583.850	-25.513	0.181	-0.106
-582.836	-136.443	-0.317	0.037
-581.821	498.232	0.186	-0.424
-580.806	-200.000	0.021	0.106
-579.792	800.000	-0.144	-0.419
-578.777	800.000	-0.015	-0.056
-577.763	-107.057	0.375	0.082
-576.748	117.857	-0.198	-0.243
-575.733	369.820	-0.118	0.238
-574.719	-75.275	-0.096	-0.034
-573.704	-200.000	-0.060	0.345
-572.690	10.322	-0.170	0.128
-571.675	-23.744	0.365	-0.217
-570.661	-142.276	0.176	-0.017
-569.646	-200.000	0.013	-0.339
-568.631	578.845	0.035	-0.085
-567.617	-117.654	0.076	0.014
-566.602	-67.275	0.184	-0.072
-565.588	88.602	0.058	-0.064
-564.573	800.000	-0.023	-0.090
-563.558	480.696	-0.061	0.137
-562.544	-74.911	0.251	-0.089
-561.529	-122.432	0.180	-0.029
-560.515	32.443	-0.224	0.192
-559.500	25.292	0.089	-0.074
-558.485	2.865	-0.334	0.241
-557.471	10.281	-0.217	0.164
-556.456	-74.984	0.207	-0.074
-555.442	-200.000	-0.032	-0.364
-554.427	30.818	-0.209	-0.178
-553.412	-168.237	0.179	0.007
-552.398	-200.000	-0.003	-0.272
-551.383	162.460	0.120	0.167
-550.369	-153.232	0.189	0.013
-549.354	-200.000	-0.017	-0.192
-548.339	217.716	-0.127	0.200
-547.325	-14.306	0.124	0.079
-546.310	-83.816	-0.205	-0.065
-545.296	212.008	-0.137	-0.215
-544.281	800.000	0.077	0.323
-543.266	71.171	-0.209	0.215
-542.252	172.561	0.163	-0.233
-541.237	-156.540	-0.329	-0.020
-540.223	-91.302	0.285	-0.081
-539.208	358.455	0.065	0.130
-538.193	43.584	0.052	-0.047
-537.179	-127.240	-0.392	0.057
-536.164	800.000	-0.108	0.314
-535.150	-62.473	-0.129	0.053
-534.135	-83.696	-0.148	-0.047
-533.121	800.000	0.104	-0.375
-532.106	-74.068	-0.181	-0.065
-531.091	-137.594	-0.274	-0.031
-530.077	144.888	0.136	-0.180
-529.062	291.233	0.180	0.324
-528.048	14.643	0.138	-0.107
-527.033	424.765	-0.056	0.119
-526.018	-200.000	-0.021	-0.252
-525.004	-86.036	-0.089	0.027
-523.989	-172.777	-0.189	0.006
-522.975	800.000	-0.038	-0.109
-521.960	800.000	-0.087	-0.335
-520.945	-82.801	-0.035	-0.011
-519.931	28.584	0.178	-0.149
-518.916	-171.136	0.299	-0.010
-517.902	13.083	-0.149	0.115
-516.887	-200.000	0.100	0.000
-515.872	-29.921	-0.233	0.132
-514.858	-141.449	0.097	-0.010
-513.843	-200.000	0.004	-0.053
-512.829	-8.187	-0.086	0.057
-511.814	800.000	0.144	0.447
-510.799	648.257	0.089	0.227
-509.785	-200.000	-0.047	0.205
-508.770	59.510	0.156	0.152
-507.756	-200.000	0.057	0.346
-506.741	1.987	0.285	-0.204
-505.726	-45.985	0.227	0.111
-504.712	-200.000	0.022	0.126
-503.697	170.134	-0.016	0.023
-502.683	-57.905	-0.053	0.023
-501.668	-200.000	0.051	-0.273
-500.653	-6.400	0.219	0.148
-499.639	-200.000	0.032	-0.191
-498.624	-200.000	-0.003	-0.061
-497.610	-200.000	0.076	-0.408
-496.595	800.000	-0.007	0.028
-495.581	-175.753	0.137	-0.004
-494.566	56.540	-0.260	0.250
-493.551	674.681	0.077	0.198
-492.537	-200.000	-0.033	0.371
-491.522	148.894	-0.201	0.268
-490.508	-200.000	0.014	0.201
-489.493	-200.000	0.049	0.270
-488.478	800.000	0.031	0.122
-487.464	-143.559	0.121	-0.011
-486.449	22.097	-0.175	-0.141
-485.435	-185.578	0.155	-0.002
-484.420	68.178	-0.136	0.138
-483.405	-81.643	0.106	0.034
-482.391	-113.040	-0.093	-0.018
-481.376	-86.922	-0.158	-0.048
-480.362	-78.084	-0.106	-0.036
-479.347	-200.000	-0.012	-0.155
-478.332	-95.968	-0.246	0.065
-477.318	-200.000	-0.017	0.173
-476.303	-200.000	-0.002	0.081
-475.289	-200.000	-0.023	-0.132
-474.274	-122.374	-0.248	0.040
-473.259	-98.465	-0.162	-0.041
-472.245	-173.765	-0.200	-0.006
-471.230	-64.021	0.233	0.094
-470.216	-68.642	0.261	0.100
-469.201	-200.000	0.029	0.293
-468.186	-100.173	0.352	-0.087
-467.172	-21.394	0.165	0.100
-466.157	800.000	-0.077	0.282
-465.143	-200.000	0.054	0.272
-464.128	-85.851	-0.238	0.073
-463.113	-120.971	-0.091	0.015
-462.099	103.598	0.248	0.288
-461.084	-82.302	0.168	-0.054
-460.070	-31.597	0.094	-0.052
-459.055	-91.593	-0.106	0.030
-458.040	-61.586	-0.065	0.027
-457.026	-70.887	-0.060	-0.023
-456.011	-85.827	0.139	0.043
-454.997	-200.000	-0.046	-0.320
-453.982	-32.236	0.168	-0.093
-452.968	-61.399	-0.205	-0.085
-451.953	-200.000	-0.023	-0.216
-450.938	-200.000	-0.019	0.139
-449.924	241.809	-0.081	-0.134
-448.909	144.063	0.072	0.096
-447.895	-64.593	0.228	-0.091
-446.880	20.532	-0.376	0.301
-445.865	752.635	-0.063	0.168
-444.851	-18.336	-0.244	-0.151
-443.836	800.000	-0.078	-0.235
-442.822	240.713	0.069	-0.113
-441.807	-200.000	0.010	-0.155
-440.792	76.557	-0.074	-0.077
-439.778	294.734	-0.163	-0.294
-438.763	-25.672	-0.057	0.033
-437.749	800.000	-0.109	0.305
-436.734	-13.835	0.163	0.104
-435.719	-148.990	-0.236	0.019
-434.705	199.342	0.154	0.234
-433.690	-115.835	-0.143	0.026
-432.676	-29.120	0.190	0.107
-431.661	66.429	0.139	0.139
-430.646	12.534	-0.421	0.320
-429.632	16.754	-0.106	0.083
-428.617	800.000	-0.037	-0.116
-427.603	124.071	0.199	-0.247
-426.588	-19.483	-0.365	0.223
-425.573	-200.000	0.009	0.265
-424.559	800.000	-0.036	-0.138
-423.544	-43.043	0.206	0.103
-422.530	-136.689	0.302	-0.034
-421.515	45.375	-0.246	0.224
-420.500	-200.000	0.043	-0.367
-419.486	800.000	-0.029	0.083
-418.471	115.358	0.213	0.257
-417.457	314.840	0.062	0.115
-416.442	-104.478	-0.129	-0.029
-415.428	-36.720	-0.221	-0.117
-414.413	381.627	0.213	-0.431
-413.398	-57.147	-0.163	0.071
-412.384	-50.795	0.088	0.041
-411.369	474.525	-0.117	-0.262
-410.355	96.861	-0.085	-0.096
-409.340	-150.515	-0.164	0.012
-408.325	30.246	-0.168	-0.142
-407.311	800.000	-0.055	-0.157
-406.296	-60.041	-0.138	-0.058
-405.282	154.030	0.096	-0.130
-404.267	-78.219	0.131	0.044
-403.252	-69.042	-0.320	-0.122
-402.238	135.309	0.151	-0.194
-401.223	668.453	-0.077	-0.196
-400.209	-45.355	-0.243	-0.119
-399.194	526.486	0.031	0.073
-398.179	-93.960	0.103	0.028
-397.165	-169.575	0.379	-0.014
-396.150	491.845	0.070	-0.157
-395.136	490.022	0.096	-0.216
-394.121	-200.000	-0.005	-0.152
-393.106	-200.000	0.002	0.036
-392.092	-200.000	-0.016	-0.368
-391.077	-45.319	0.103	-0.050
-390.063	-200.000	0.012	-0.256
-389.048	-200.000	-0.012	0.151
-388.033	800.000	0.076	0.231
-387.019	326.659	-0.100	0.189
-386.004	-76.543	0.039	0.013
-384.990	-8.152	-0.115	0.076
-383.975	-104.618	-0.261	0.059
-382.960	48.154	-0.176	-0.162
-381.946	-97.545	0.245	-0.063
-380.931	800.000	-0.033	0.090
-379.917	-200.000	-0.051	0.371
-378.902	-119.394	-0.045	0.008
-377.888	-200.000	0.016	-0.136
-376.873	-43.796	0.081	0.040
-375.858	-200.000	-0.017	0.150
-374.844	-6.467	0.088	-0.059
-373.829	-95.337	-0.382	0.101
-372.815	750.269	0.090	-0.240
-371.800	-200.000	-0.053	0.295
-370.785	608.833	-0.034	-0.083
-369.771	-200.000	0.055	-0.385
-368.756	-200.000	-0.011	0.050
-367.742	-54.845	0.209	0.093
-366.727	800.000	0.026	-0.098
-365.712	-60.824	0.290	-0.121
-364.698	-200.000	0.005	0.029
-363.683	-81.002	-0.440	-0.144
-362.669	114.758	-0.329	0.395
-361.654	734.401	0.080	0.210
-360.639	-10.117	0.147	-0.096
-359.625	-165.732	-0.170	-0.007
-358.610	-68.361	0.192	-0.073
-357.596	-200.000	0.017	0.222
-356.581	519.297	-0.062	-0.142
-355.566	67.164	-0.138	-0.139
-354.552	-99.052	-0.114	0.028
-353.537	-81.121	-0.173	-0.056
-352.523	-200.000	0.006	0.086
-351.508	-54.571	0.302	0.135
-350.493	-94.358	-0.219	0.059
-349.479	401.595	0.096	-0.198
-348.464	71.768	0.138	-0.141
-347.450	167.294	0.114	0.159
-346.435	800.000	-0.088	-0.253
-345.420	800.000	0.048	-0.193
-344.406	66.539	0.094	0.094
-343.391	296.189	-0.091	0.165
-342.377	-150.340	-0.157	0.012
-341.362	-63.247	-0.527	-0.214
-340.348	-89.527	0.169	0.049
-339.333	-88.184	0.113	0.033
-338.318	89.271	-0.196	-0.215
-337.304	255.390	0.080	-0.135
-336.289	-95.726	-0.132	-0.035
-335.275	33.266	0.276	-0.236
-334.260	406.427	0.042	0.086
-333.245	227.579	0.083	-0.133
-332.231	-200.000	-0.001	0.170
-331.216	-25.223	-0.188	-0.110
-330.202	144.907	0.284	0.374
-329.187	457.541	0.017	-0.038
-328.172	-200.000	0.008	-0.246
-327.158	-200.000	-0.075	-0.324
-326.143	4.773	0.155	0.112
-325.129	800.000	-0.070	0.204
-324.114	56.478	-0.298	-0.285
-323.099	223.681	-0.058	0.092
-322.085	-200.000	0.027	0.146
-321.070	800.000	0.176	0.490
-320.056	631.211	-0.170	0.422
-319.041	-111.563	-0.184	0.037
-318.026	-14.020	-0.288	0.183
-317.012	30.058	0.280	-0.235
-315.997	-162.088	0.179	-0.009
-314.983	-86.106	-0.218	0.066
-313.968	94.695	-0.153	0.171
-312.953	-82.700	0.121	0.038
-311.939	-81.821	-0.071	-0.023
-310.924	125.441	0.306	-0.379
-309.910	162.668	0.127	0.176
-308.895	166.806	0.027	-0.037
-307.880	-39.671	-0.218	0.112
-306.866	-90.594	0.292	-0.083
-305.851	-200.000	0.034	-0.261
-304.837	-200.000	0.023	0.108
-303.822	145.473	0.113	0.149
-302.807	-200.000	0.019	-0.203
-301.793	87.971	0.129	-0.140
-300.778	19.271	0.176	0.139
-299.764	-113.979	-0.139	0.026
-298.749	-200.000	-0.055	0.242
-297.735	143.228	0.224	0.293
-296.720	229.743	-0.081	0.131
-295.705	-123.871	0.189	-0.029
-294.691	-96.189	-0.071	0.019
-293.676	800.000	-0.097	0.378
-292.662	54.247	0.081	0.076
-291.647	-48.808	0.115	-0.054
-290.632	-130.118	0.162	-0.022
-289.618	-78.864	-0.078	0.026
-288.603	800.000	-0.120	0.440
-287.589	149.750	0.075	0.100
-286.574	10.069	-0.132	-0.098
-285.559	217.169	-0.066	-0.103
-284.545	-71.808	-0.049	0.018
-283.530	45.195	0.076	0.069
-282.516	-96.107	0.114	0.030
-281.501	15.168	-0.300	-0.231
-280.486	-83.092	-0.083	-0.026
-279.472	-200.000	-0.041	-0.322
-278.457	-200.000	-0.036	-0.186
-277.443	-41.583	-0.059	0.030
-276.428	-100.668	0.179	-0.043
-275.413	206.534	-0.061	0.093
-274.399	4.283	0.209	0.150
-273.384	-62.991	0.249	-0.101
-272.370	-8.100	0.075	0.049
-271.355	800.000	0.051	-0.200
-270.340	-200.000	0.009	-0.131
-269.326	-200.000	-0.013	-0.114
-268.311	-71.736	0.331	-0.121
-267.297	56.419	-0.118	0.113
-266.282	365.406	-0.085	-0.168
-265.267	800.000	-0.076	-0.225
-264.253	62.586	-0.288	0.283
-263.238	20.078	0.065	-0.051
-262.224	196.160	0.156	-0.233
-261.209	17.391	-0.261	-0.203
-260.195	131.143	0.088	-0.111
-259.180	-200.000	0.033	0.219
-258.165	406.559	0.088	0.182
-257.151	-200.000	-0.025	0.150
-256.136	-142.415	-0.382	0.037
-255.122	-173.329	0.132	0.004
-254.107	-146.680	0.109	-0.009
-253.092	552.744	-0.094	-0.221
-252.078	-36.795	0.145	0.076
-251.063	-200.000	-0.049	-0.230
-250.049	239.599	-0.114	0.186
-249.034	40.410	0.130	-0.114
-248.019	-200.000	0.044	0.307
-247.005	-200.000	-0.055	-0.427
-245.990	-160.564	-0.333	0.017
-244.976	-113.792	0.319	-0.061
-243.961	747.151	0.097	-0.256
-242.946	-154.835	0.244	-0.016
-241.932	140.708	0.201	-0.260
-240.917	-48.882	0.088	-0.042
-239.903	-88.406	0.182	-0.053
-238.888	178.002	0.117	-0.167
-237.873	-200.000	-0.009	0.134
-236.859	800.000	0.057	0.189
-235.844	-109.040	0.297	-0.062
-234.830	294.419	-0.048	0.086
-233.815	-61.841	0.147	0.060
-232.800	-107.892	0.445	0.095
-231.786	26.781	0.151	-0.124
-230.771	-82.034	-0.156	0.050
-229.757	571.758	-0.174	-0.416
-228.742	-132.098	0.348	-0.044
-227.727	7.131	0.149	0.109
-226.713	386.912	-0.088	-0.178
-225.698	-200.000	-0.003	-0.104
-224.684	-95.420	-0.105	-0.028
-223.669	-200.000	0.011	0.503
-222.655	657.900	0.052	0.131
-221.640	-200.000	0.008	-0.333
-220.625	13.658	-0.187	0.142
-219.611	-200.000	0.063	0.290
-218.596	-200.000	0.013	-0.120
-217.582	156.834	0.010	0.013
-216.567	-81.210	-0.150	0.048
-215.552	40.170	-0.087	-0.077
-214.538	800.000	-0.050	-0.190
-213.523	210.189	-0.095	-0.146
-212.509	800.000	0.011	-0.046
-211.494	15.441	0.138	-0.106
-210.479	-95.483	0.264	-0.069
-209.465	16.128	-0.323	0.249
-208.450	-200.000	0.009	-0.104
-207.436	599.862	-0.129	-0.313
-206.421	123.896	0.147	0.180
-205.406	70.531	-0.163	-0.165
-204.392	-54.013	-0.130	0.058
-203.377	800.000	0.158	0.472
-202.363	572.730	0.061	-0.146
-201.348	-167.780	0.147	0.006
-200.333	10.325	0.204	0.152
-199.319	800.000	0.028	-0.112
-198.304	142.260	0.054	-0.070
-197.290	-59.446	-0.192	-0.081
-196.275	376.846	0.137	0.273
-195.260	-52.405	0.228	-0.103
-194.246	-43.859	-0.120	0.059
-193.231	-107.601	0.303	0.065
-192.217	-33.763	0.280	0.151
-191.202	-129.408	-0.368	0.050
-190.187	-200.000	0.032	0.239
-189.173	72.710	0.032	-0.033
-188.158	477.528	0.043	0.095
-187.144	-87.616	0.084	0.025
-186.129	-200.000	0.006	0.078
-185.114	800.000	-0.004	-0.010
-184.100	182.796	-0.190	-0.275
-183.085	108.128	-0.096	0.112
-182.071	-200.000	0.002	0.016
-181.056	293.943	-0.027	-0.049
-180.042	-112.513	0.368	0.072
-179.027	471.264	0.101	-0.223
-178.012	-61.923	0.117	0.048
-176.998	800.000	-0.075	0.290
-175.983	-4.731	-0.054	-0.036
-174.969	-2.080	0.225	0.155
-173.954	-71.814	0.212	-0.077
-172.939	578.491	0.133	0.317
-171.925	-108.837	0.184	-0.038
-170.910	-111.035	-0.085	0.017
-169.896	96.247	0.028	0.032
-168.881	44.283	0.112	-0.100
-167.866	-106.251	-0.192	-0.042
-166.852	118.391	0.152	0.183
-165.837	3.764	-0.125	0.089
-164.823	100.484	0.158	0.179
-163.808	394.001	0.186	0.379
-162.793	-184.045	0.215	-0.004
-161.779	-73.558	-0.296	0.106
-160.764	90.609	-0.206	0.226
-159.750	-123.382	0.237	0.037
-158.735	-200.000	0.001	0.131
-157.720	-200.000	-0.046	0.231
-156.706	261.563	0.135	-0.228
-155.691	-82.892	0.154	0.048
-154.677	221.062	-0.152	0.238
-153.662	24.363	0.182	-0.147
-152.647	-100.190	-0.355	-0.086
-151.633	-123.641	0.074	-0.012
-150.618	-200.000	-0.005	-0.070
-149.604	49.902	0.278	-0.256
-148.589	-200.000	0.008	-0.070
-147.574	-200.000	-0.027	-0.197
-146.560	800.000	0.028	0.080
-145.545	-200.000	0.034	-0.327
-144.531	83.968	-0.059	0.063
-143.516	29.597	-0.119	-0.099
-142.502	130.118	0.133	0.166
-141.487	-2.498	0.362	-0.248
-140.472	-149.373	-0.156	-0.012
-139.458	26.437	0.060	0.049
-138.443	87.204	-0.117	0.126
-137.429	-24.420	-0.151	0.088
-136.414	-80.088	-0.122	0.040
-135.399	-69.485	0.191	0.071
-134.385	50.785	0.207	-0.192
-133.370	-92.347	0.224	-0.062
-132.356	12.038	-0.031	0.023
-131.341	127.837	0.060	0.075
-130.326	12.915	0.262	0.198
-129.312	110.297	-0.230	0.270
-128.297	179.765	-0.018	0.026
-127.283	-92.577	-0.206	0.056
-126.268	-152.177	-0.050	-0.004
-125.253	800.000	0.087	0.311
-124.239	800.000	0.070	0.256
-123.224	260.529	0.247	-0.418
-122.210	269.057	-0.099	-0.170
-121.195	-32.346	-0.314	0.171
