DTS Sentinel unit serial number:	SN413079Multiplexer serial number:	ORYXHardware model number:	OX4-SRSoftware version number:	ORYX F/W v4.00 Oryx Data Collector v3.7.2.0data status	okinstallation	princeton_trtdifferential loss correction	single-endedforward channel	channel 3reverse channel	N/Adate	2019/09/14time	05:04:35forward acquisition time	60.00reverse acquisition time	0.00gamma	496.2192k internal	0.2337k external	0.2337temperature offset calibration	1.0052default loss term (dB/km)	0.3790temperature slope calibration	1.0000multiplexer offset coefficient	1.0000multiplexer slope coefficient	1.0000fibre end	0.00T internal ref (°C)	26.89T ext. ref 1 (°C)	3.39T ext. ref 2 (°C)	21.99length (m)	temperature (°C)	Stokes	anti-Stokes-747.200	-49.965	0.226	0.107
-746.185	-7.161	-0.268	0.182
-745.171	800.000	0.099	0.362
-744.156	61.586	-0.189	0.188
-743.142	800.000	-0.023	0.065
-742.127	22.789	0.204	0.168
-741.112	-200.000	0.042	-0.192
-740.098	800.000	-0.137	0.398
-739.083	69.636	0.514	-0.531
-738.069	-200.000	-0.056	-0.296
-737.054	800.000	0.086	-0.277
-736.039	-44.228	-0.276	0.139
-735.025	551.169	0.102	0.246
-734.010	-20.810	-0.307	-0.189
-732.996	326.964	-0.085	-0.163
-731.981	-16.902	-0.093	-0.059
-730.966	17.548	-0.117	-0.093
-729.952	-16.833	-0.118	-0.075
-728.937	-200.000	0.008	-0.122
-727.923	-120.155	-0.181	0.031
-726.908	-132.943	-0.199	-0.025
-725.894	165.113	-0.102	0.145
-724.879	-200.000	-0.051	-0.233
-723.864	178.747	-0.080	-0.117
-722.850	-200.000	0.057	-0.257
-721.835	-66.784	0.191	-0.076
-720.821	43.662	-0.068	-0.062
-719.806	-70.282	-0.117	-0.045
-718.791	307.160	-0.102	-0.190
-717.777	-48.476	-0.286	-0.138
-716.762	-95.847	-0.387	0.104
-715.748	-97.257	0.192	-0.050
-714.733	278.661	0.207	-0.369
-713.718	-120.606	-0.319	0.054
-712.704	-200.000	0.009	0.131
-711.689	-200.000	0.008	0.145
-710.675	17.831	-0.119	0.095
-709.660	800.000	-0.085	-0.253
-708.645	-90.992	0.206	-0.059
-707.631	-200.000	0.007	-0.244
-706.616	-39.061	-0.195	0.103
-705.602	103.135	-0.037	-0.043
-704.587	800.000	0.125	-0.455
-703.572	28.175	0.051	0.043
-702.558	43.182	0.277	-0.253
-701.543	108.407	-0.155	-0.185
-700.529	19.912	-0.351	0.284
-699.514	4.867	-0.155	0.114
-698.499	-77.211	-0.280	-0.098
-697.485	-200.000	0.010	0.192
-696.470	800.000	0.016	-0.057
-695.456	-200.000	-0.049	0.345
-694.441	-42.818	-0.412	-0.210
-693.426	13.507	0.211	-0.164
-692.412	-146.723	-0.080	0.007
-691.397	-118.993	-0.200	0.035
-690.383	-200.000	-0.021	-0.157
-689.368	-113.679	0.028	-0.006
-688.354	95.913	0.178	0.204
-687.339	453.642	-0.033	0.073
-686.324	-18.247	-0.304	-0.190
-685.310	800.000	0.033	0.123
-684.295	-43.991	-0.192	-0.097
-683.281	39.421	0.231	0.207
-682.266	-116.687	-0.077	0.014
-681.251	245.568	-0.163	-0.275
-680.237	800.000	0.091	-0.351
-679.222	800.000	-0.041	-0.126
-678.208	88.272	0.087	-0.097
-677.193	159.110	0.117	-0.163
-676.178	26.676	0.090	0.075
-675.164	753.004	-0.137	0.371
-674.149	124.658	-0.172	-0.217
-673.135	800.000	0.065	0.187
-672.120	-200.000	0.040	-0.331
-671.105	93.955	-0.099	0.113
-670.091	53.309	0.172	-0.165
-669.076	800.000	-0.086	-0.292
-668.062	-200.000	-0.039	-0.216
-667.047	337.493	-0.173	-0.337
-666.032	800.000	-0.076	0.223
-665.018	-200.000	0.030	-0.149
-664.003	291.696	-0.125	-0.227
-662.989	22.624	-0.302	-0.247
-661.974	196.804	0.062	0.094
-660.959	-160.919	-0.418	-0.022
-659.945	-76.295	-0.166	0.059
-658.930	89.493	-0.026	-0.029
-657.916	-68.692	-0.258	-0.100
-656.901	-124.359	-0.117	0.018
-655.886	-97.260	0.130	0.034
-654.872	-200.000	-0.039	-0.215
-653.857	687.298	-0.044	-0.116
-652.843	21.776	0.182	0.148
-651.828	37.249	-0.291	-0.258
-650.814	234.953	0.110	-0.181
-649.799	383.176	-0.129	-0.265
-648.784	475.805	0.099	0.224
-647.770	-200.000	0.008	-0.092
-646.755	79.401	0.183	-0.197
-645.741	84.168	0.086	-0.094
-644.726	-59.679	-0.305	-0.131
-643.711	50.439	0.145	-0.137
-642.697	-200.000	-0.111	0.000
-641.682	-122.168	-0.133	-0.022
-640.668	3.223	0.197	0.143
-639.653	13.898	0.164	-0.127
-638.638	-5.582	-0.226	0.155
-637.624	-200.000	-0.025	-0.128
-636.609	133.311	-0.235	-0.303
-635.595	-200.000	-0.001	-0.073
-634.580	800.000	0.047	0.183
-633.565	-15.684	-0.176	-0.112
-632.551	-8.464	0.171	0.115
-631.536	-60.280	-0.176	-0.075
-630.522	800.000	-0.068	0.284
-629.507	212.364	-0.149	0.235
-628.492	61.397	-0.215	-0.214
-627.478	-7.081	0.143	0.097
-626.463	661.789	0.083	-0.214
-625.449	800.000	-0.030	-0.100
-624.434	85.631	0.157	-0.172
-623.419	-200.000	0.012	0.108
-622.405	-60.728	0.269	-0.114
-621.390	29.157	0.119	-0.101
-620.376	-97.904	0.080	-0.021
-619.361	-200.000	0.018	0.136
-618.346	393.289	0.067	0.139
-617.332	-188.472	0.399	0.005
-616.317	-200.000	-0.029	-0.377
-615.303	333.457	-0.194	0.375
-614.288	0.843	0.184	0.132
-613.273	-200.000	0.025	0.263
-612.259	152.761	-0.097	0.132
-611.244	-200.000	0.055	0.405
-610.230	36.184	-0.300	-0.264
-609.215	-113.698	0.214	0.042
-608.201	800.000	0.022	0.084
-607.186	800.000	0.056	0.163
-606.171	-160.777	-0.293	-0.015
-605.157	-200.000	0.015	-0.184
-604.142	800.000	-0.077	0.321
-603.128	-200.000	-0.005	0.091
-602.113	-122.441	0.387	-0.063
-601.098	-145.272	-0.239	0.022
-600.084	71.904	0.037	0.038
-599.069	-113.675	0.084	0.016
-598.055	-32.867	-0.230	-0.127
-597.040	332.613	0.080	-0.154
-596.025	-45.727	-0.213	0.105
-595.011	251.966	0.098	0.166
-593.996	-0.455	0.247	-0.175
-592.982	545.963	0.090	-0.215
-591.967	-89.372	0.279	-0.082
-590.952	-153.295	-0.146	-0.010
-589.938	96.114	0.147	-0.168
-588.923	60.260	0.251	0.248
-587.909	-151.775	-0.134	0.010
-586.894	34.690	0.301	-0.262
-585.879	40.441	-0.259	0.232
-584.865	-44.456	-0.369	0.184
-583.850	-200.000	0.052	-0.238
-582.836	257.317	0.094	-0.161
-581.821	-152.597	-0.380	-0.027
-580.806	-101.097	-0.167	-0.041
-579.792	313.064	-0.079	0.147
-578.777	93.457	-0.260	-0.294
-577.763	-43.547	0.089	0.045
-576.748	11.584	-0.256	0.196
-575.733	106.903	-0.265	-0.314
-574.719	-200.000	-0.027	-0.206
-573.704	526.343	-0.136	0.319
-572.690	437.003	-0.031	-0.067
-571.675	244.297	0.125	-0.209
-570.661	-165.308	-0.252	0.011
-569.646	3.611	-0.081	-0.059
-568.631	194.395	-0.072	-0.109
-567.617	-23.989	0.319	-0.190
-566.602	51.722	0.124	-0.118
-565.588	-35.653	0.274	0.148
-564.573	-109.819	0.221	-0.046
-563.558	-26.583	-0.170	-0.099
-562.544	193.518	0.118	-0.178
-561.529	-111.809	-0.253	-0.051
-560.515	69.419	0.189	0.193
-559.500	-7.210	0.085	-0.057
-558.485	-200.000	0.001	-0.151
-557.471	-88.918	0.163	0.048
-556.456	16.035	0.075	0.059
-555.442	800.000	0.070	0.196
-554.427	100.736	0.187	-0.216
-553.412	30.508	0.046	0.039
-552.398	385.722	0.110	0.225
-551.383	800.000	-0.113	-0.367
-550.369	-147.503	-0.103	0.009
-549.354	-59.459	-0.304	0.130
-548.339	-34.624	0.371	0.202
-547.325	-93.164	0.200	0.055
-546.310	-3.140	0.199	-0.138
-545.296	-200.000	-0.006	-0.045
-544.281	800.000	-0.108	0.338
-543.266	-200.000	0.003	-0.145
-542.252	-60.587	0.375	0.158
-541.237	88.894	0.050	-0.056
-540.223	-200.000	0.055	0.396
-539.208	-200.000	-0.007	-0.099
-538.193	512.926	0.052	0.121
-537.179	-16.505	-0.095	-0.060
-536.164	-200.000	0.044	-0.247
-535.150	-164.113	-0.085	0.004
-534.135	800.000	0.162	-0.507
-533.121	-10.364	0.237	-0.156
-532.106	-107.224	-0.359	-0.079
-531.091	-81.506	0.189	-0.062
-530.077	6.044	0.115	0.085
-529.062	-97.674	-0.261	0.067
-528.048	80.421	-0.060	-0.065
-527.033	-200.000	-0.083	-0.485
-526.018	152.075	0.272	-0.369
-525.004	113.463	-0.229	0.277
-523.989	-133.787	-0.204	-0.025
-522.975	60.960	0.076	-0.075
-521.960	-67.037	0.129	-0.051
-520.945	167.149	-0.134	0.190
-519.931	-184.301	-0.186	0.003
-518.916	-109.234	-0.065	-0.014
-517.902	-93.396	-0.244	-0.067
-516.887	800.000	0.095	0.292
-515.872	143.471	-0.379	-0.502
-514.858	-126.461	-0.114	-0.017
-513.843	27.248	-0.223	0.187
-512.829	-87.257	-0.122	0.037
-511.814	-162.367	0.262	-0.013
-510.799	-13.893	0.167	0.107
-509.785	800.000	-0.085	0.304
-508.770	460.819	-0.121	0.268
-507.756	132.134	-0.295	0.377
-506.741	-188.761	-0.067	-0.001
-505.726	684.721	0.110	-0.284
-504.712	558.596	0.015	0.037
-503.697	-60.327	0.191	-0.081
-502.683	-25.357	-0.174	0.102
-501.668	138.910	0.143	0.187
-500.653	142.949	0.111	0.146
-499.639	-13.677	-0.051	0.033
-498.624	-200.000	-0.010	-0.132
-497.610	-70.018	-0.132	-0.050
-496.595	227.472	-0.183	-0.296
-495.581	-66.836	-0.403	0.158
-494.566	-200.000	0.019	0.225
-493.551	214.399	-0.064	0.101
-492.537	-200.000	0.007	0.034
-491.522	125.517	-0.411	-0.516
-490.508	413.023	-0.158	-0.334
-489.493	800.000	0.133	-0.418
-488.478	116.454	0.104	-0.127
-487.464	800.000	0.017	-0.054
-486.449	-165.698	-0.185	-0.008
-485.435	-90.919	0.045	0.013
-484.420	131.771	0.177	0.226
-483.405	-200.000	0.025	-0.183
-482.391	-10.903	0.012	0.008
-481.376	233.738	-0.070	-0.115
-480.362	90.210	0.141	-0.157
-479.347	-179.063	0.389	-0.009
-478.332	-57.381	-0.078	0.034
-477.318	-96.962	-0.229	0.060
-476.303	392.886	0.127	-0.262
-475.289	358.127	-0.071	-0.141
-474.274	87.506	-0.159	0.175
-473.259	-21.526	-0.326	0.197
-472.245	-60.592	0.088	-0.037
-471.230	74.494	0.083	-0.087
-470.216	-200.000	0.004	-0.071
-469.201	113.490	-0.196	-0.237
-468.186	-123.981	0.129	0.020
-467.172	-200.000	0.007	0.074
-466.157	-134.654	-0.064	0.008
-465.143	239.616	0.140	0.232
-464.128	-200.000	-0.042	-0.273
-463.113	-200.000	-0.039	0.340
-462.099	-200.000	-0.006	0.260
-461.084	-121.038	0.509	-0.085
-460.070	24.758	-0.126	0.104
-459.055	800.000	-0.050	0.193
-458.040	63.281	0.375	-0.373
-457.026	-33.727	0.292	0.160
-456.011	-200.000	0.015	-0.187
-454.997	-100.609	-0.205	0.050
-453.982	182.426	0.161	0.236
-452.968	572.874	0.011	0.028
-451.953	91.615	-0.452	0.504
-450.938	24.011	0.166	-0.136
-449.924	-200.000	-0.011	-0.381
-448.909	-200.000	-0.031	0.334
-447.895	800.000	-0.090	0.257
-446.880	-133.660	0.147	0.018
-445.865	-200.000	-0.028	0.344
-444.851	-34.063	-0.229	0.125
-443.836	7.768	0.154	-0.115
-442.822	524.992	0.016	-0.038
-441.807	-133.503	0.329	0.041
-440.792	486.214	0.118	-0.266
-439.778	36.950	0.147	-0.129
-438.763	35.900	0.220	-0.192
-437.749	62.489	0.218	-0.216
-436.734	514.451	-0.181	0.418
-435.719	332.547	-0.190	0.364
-434.705	800.000	0.053	0.159
-433.690	-78.321	-0.060	-0.021
-432.676	-200.000	0.002	0.034
-431.661	-66.855	-0.147	-0.058
-430.646	150.663	0.063	0.085
-429.632	303.968	-0.136	0.249
-428.617	800.000	0.151	0.424
-427.603	-22.298	0.218	-0.131
-426.588	-122.274	-0.062	-0.010
-425.573	107.547	0.019	-0.023
-424.559	31.246	0.252	0.214
-423.544	-49.432	0.106	-0.050
-422.530	-39.772	-0.360	0.187
-421.515	-200.000	0.015	0.231
-420.500	49.088	-0.260	-0.242
-419.486	49.178	-0.096	0.090
-418.471	332.308	-0.100	-0.190
-417.457	-20.591	-0.211	0.129
-416.442	-134.105	-0.320	0.039
-415.428	-200.000	0.028	0.225
-414.413	57.779	-0.159	-0.154
-413.398	-135.484	-0.159	0.019
-412.384	-147.174	-0.182	0.015
-411.369	14.326	0.174	-0.134
-410.355	-135.566	-0.188	-0.022
-409.340	-117.386	0.129	-0.023
-408.325	487.295	-0.047	-0.107
-407.311	-200.000	0.005	-0.030
-406.296	800.000	-0.201	-0.580
-405.282	-36.617	-0.298	-0.159
-404.267	800.000	-0.061	-0.192
-403.252	-125.893	-0.486	-0.073
-402.238	39.446	-0.198	-0.176
-401.223	-90.023	0.227	0.066
-400.209	-46.291	-0.053	-0.026
-399.194	-79.622	-0.166	-0.056
-398.179	-58.557	0.224	0.096
-397.165	-200.000	-0.024	-0.347
-396.150	-15.375	-0.113	0.071
-395.136	-200.000	-0.065	0.425
-394.121	-43.970	-0.243	-0.121
-393.106	-82.212	0.159	0.051
-392.092	-97.577	0.160	-0.041
-391.077	-46.728	-0.156	0.075
-390.063	-37.727	0.078	0.041
-389.048	-145.027	-0.300	0.027
-388.033	145.137	-0.268	0.355
-387.019	152.845	0.114	0.154
-386.004	-200.000	0.025	0.169
-384.990	37.849	-0.040	0.035
-383.975	-93.044	-0.299	0.082
-382.960	-76.614	0.294	-0.102
-381.946	-200.000	0.008	0.260
-380.931	-171.052	0.139	-0.005
-379.917	-1.815	0.138	-0.096
-378.902	326.689	-0.038	0.072
-377.888	-76.973	0.230	0.080
-376.873	13.011	0.148	0.114
-375.858	-57.283	-0.262	-0.114
-374.844	-47.790	0.220	-0.105
-373.829	-200.000	0.011	-0.115
-372.815	265.584	0.138	-0.238
-371.800	7.066	-0.175	-0.129
-370.785	-19.974	0.178	0.109
-369.771	124.594	0.148	-0.185
-368.756	-157.666	-0.403	-0.024
-367.742	51.700	-0.192	0.181
-366.727	800.000	0.056	-0.225
-365.712	-200.000	-0.023	-0.176
-364.698	800.000	-0.090	-0.264
-363.683	-181.034	0.221	0.004
-362.669	-35.981	0.261	-0.139
-361.654	-52.722	0.080	0.037
-360.639	324.804	-0.024	0.045
-359.625	-33.785	-0.401	0.219
-358.610	80.757	0.333	0.355
-357.596	44.234	0.171	0.155
-356.581	124.626	0.155	0.193
-355.566	-88.577	0.363	0.107
-354.552	44.386	-0.163	0.148
-353.537	41.147	-0.044	-0.040
-352.523	25.238	0.078	-0.064
-351.508	328.745	-0.177	-0.335
-350.493	-119.822	0.049	-0.008
-349.479	-200.000	-0.011	-0.065
-348.464	84.443	0.043	-0.046
-347.450	-137.646	0.394	0.044
-346.435	62.701	-0.094	-0.093
-345.420	5.634	0.140	-0.102
-344.406	-82.899	0.033	0.010
-343.391	800.000	-0.078	-0.243
-342.377	170.988	0.139	-0.197
-341.362	88.417	-0.099	-0.109
-340.348	61.927	-0.121	0.119
-339.333	-200.000	-0.046	0.000
-338.318	30.639	0.230	-0.195
-337.304	-167.417	0.410	0.016
-336.289	470.806	-0.088	0.195
-335.275	-200.000	-0.020	0.100
-334.260	-46.476	0.107	-0.052
-333.245	42.416	-0.084	-0.076
-332.231	800.000	0.102	0.280
-331.216	104.545	-0.214	-0.248
-330.202	800.000	0.027	0.076
-329.187	-24.428	-0.191	-0.112
-328.172	336.525	-0.069	-0.133
-327.158	80.264	-0.053	0.056
-326.143	77.118	0.047	-0.049
-325.129	471.226	0.145	-0.323
-324.114	71.773	-0.115	-0.118
-323.099	-39.538	-0.037	-0.019
-322.085	800.000	0.099	-0.288
-321.070	461.638	-0.063	-0.139
-320.056	66.441	0.155	-0.155
-319.041	-164.193	-0.151	-0.007
-318.026	-144.049	0.279	-0.026
-317.012	-117.078	-0.079	-0.014
-315.997	18.383	0.374	-0.295
-314.983	-200.000	-0.027	-0.186
-313.968	-15.101	0.319	-0.201
-312.953	-35.033	0.368	0.198
-311.939	-62.767	-0.416	0.170
-310.924	-29.194	-0.190	-0.108
-309.910	137.426	-0.112	-0.145
-308.895	-5.356	0.059	0.040
-307.880	228.703	-0.184	-0.296
-306.866	-200.000	0.001	-0.244
-305.851	-124.071	-0.118	-0.018
-304.837	-27.083	-0.268	-0.154
-303.822	800.000	-0.046	0.189
-302.807	800.000	0.083	-0.275
-301.793	800.000	0.137	-0.381
-300.778	800.000	0.060	-0.215
-299.764	800.000	0.074	-0.255
-298.749	55.803	0.123	-0.118
-297.735	-49.412	0.158	-0.074
-296.720	-133.382	-0.058	0.007
-295.705	263.768	0.072	0.124
-294.691	-100.277	0.223	0.055
-293.676	-55.710	0.143	-0.063
-292.662	-121.099	0.436	-0.072
-291.647	589.962	-0.075	0.182
-290.632	800.000	0.052	0.186
-289.618	-200.000	0.023	0.120
-288.603	-83.221	0.162	0.051
-287.589	-80.404	0.185	0.061
-286.574	105.101	0.160	0.187
-285.559	800.000	-0.075	0.226
-284.545	-200.000	0.001	-0.062
-283.530	-17.204	-0.065	0.041
-282.516	87.113	-0.052	0.056
-281.501	215.147	0.215	0.336
-280.486	-159.778	-0.239	-0.013
-279.472	800.000	0.013	0.044
-278.457	48.010	0.083	-0.077
-277.443	242.521	-0.204	0.337
-276.428	41.382	-0.157	0.140
-275.413	60.896	-0.109	-0.107
-274.399	-129.953	0.296	0.040
-273.384	416.154	0.152	-0.319
-272.370	269.292	0.128	-0.222
-271.355	21.602	-0.227	0.182
-270.340	248.112	-0.181	0.302
-269.326	658.076	-0.041	0.104
-268.311	-2.918	-0.119	-0.082
-267.297	126.727	0.057	0.071
-266.282	143.934	0.168	0.221
-265.267	298.875	0.027	0.048
-264.253	-200.000	-0.025	0.324
-263.238	800.000	0.098	-0.337
-262.224	-200.000	0.052	0.350
-261.209	800.000	0.117	0.372
-260.195	-101.162	0.134	0.032
-259.180	-21.867	-0.136	0.082
-258.165	614.437	0.081	-0.200
-257.151	-147.512	0.163	-0.014
-256.136	800.000	-0.053	0.204
-255.122	-200.000	-0.022	-0.233
-254.107	-46.023	-0.047	0.023
-253.092	635.532	0.064	-0.161
-252.078	309.075	0.192	0.354
-251.063	-85.846	0.165	0.050
-250.049	346.879	-0.129	0.249
-249.034	-60.211	0.178	0.075
-248.019	-200.000	-0.064	0.341
-247.005	357.765	-0.052	0.103
-245.990	-85.370	0.128	0.039
-244.976	-28.840	0.289	-0.164
-243.961	218.565	-0.138	-0.216
-242.946	203.812	-0.171	-0.261
-241.932	672.477	0.090	0.228
-240.917	-61.041	-0.035	-0.015
-239.903	166.442	0.227	-0.316
-238.888	-30.710	0.236	0.131
-237.873	-61.130	-0.114	0.047
-236.859	121.001	0.247	0.302
-235.844	-200.000	0.012	-0.405
-234.830	366.811	0.097	0.193
-233.815	15.236	-0.141	-0.109
-232.800	103.004	0.008	-0.010
-231.786	280.438	-0.048	-0.085
-230.771	427.441	-0.190	0.403
-229.757	-200.000	0.063	0.379
-228.742	800.000	0.044	0.166
-227.727	698.827	-0.100	0.257
-226.713	-200.000	-0.011	0.155
-225.698	-31.344	0.118	-0.065
-224.684	-167.075	-0.091	0.004
-223.669	-200.000	0.063	-0.404
-222.655	-125.868	-0.091	-0.014
-221.640	-200.000	0.083	-0.378
-220.625	142.037	0.202	-0.264
-219.611	-136.194	-0.154	-0.018
-218.596	-107.263	-0.335	0.073
-217.582	-106.480	0.186	0.041
-216.567	476.254	0.085	0.188
-215.552	2.650	-0.262	0.187
-214.538	-3.616	0.113	0.077
-213.523	584.991	-0.179	-0.433
-212.509	800.000	0.031	-0.117
-211.494	800.000	-0.060	-0.237
-210.479	105.526	-0.292	0.339
-209.465	-199.052	0.347	-0.002
-208.450	207.577	-0.177	0.272
-207.436	630.185	-0.090	0.223
-206.421	800.000	-0.016	0.048
-205.406	33.187	0.175	0.149
-204.392	-200.000	-0.006	-0.160
-203.377	-200.000	0.015	-0.114
-202.363	55.798	0.374	0.357
-201.348	-55.510	-0.184	0.081
-200.333	-200.000	-0.057	0.432
-199.319	232.724	-0.160	0.258
-198.304	-41.502	-0.054	-0.028
-197.290	169.801	0.239	0.336
-196.275	800.000	-0.045	0.133
-195.260	-200.000	-0.054	-0.254
-194.246	-72.973	0.110	0.040
-193.231	754.735	0.113	0.301
-192.217	-131.067	-0.230	-0.030
-191.202	-162.130	0.047	0.002
-190.187	-96.374	-0.105	0.027
-189.173	356.698	0.163	0.320
-188.158	-69.590	-0.285	0.107
-187.144	118.848	0.060	0.073
-186.129	-156.222	0.167	0.010
-185.114	100.607	-0.313	0.357
-184.100	-200.000	0.011	-0.251
-183.085	-200.000	-0.009	-0.356
-182.071	-200.000	-0.004	-0.385
-181.056	-92.767	0.129	-0.035
-180.042	800.000	0.027	-0.096
-179.027	38.337	0.119	-0.104
-178.012	-47.851	-0.227	0.108
-176.998	14.850	0.247	0.190
-175.983	-19.100	0.079	-0.048
-174.969	197.191	-0.119	0.178
-173.954	-61.899	-0.015	0.006
-172.939	114.209	0.162	0.194
-171.925	-140.495	-0.242	-0.025
-170.910	388.405	-0.085	0.173
-169.896	-173.770	0.343	0.010
-168.881	43.984	-0.305	0.274
-167.866	-200.000	-0.027	-0.145
-166.852	-200.000	-0.003	0.191
-165.837	-33.811	-0.233	-0.126
-164.823	23.143	-0.116	0.093
-163.808	595.356	0.054	-0.130
-162.793	800.000	-0.051	-0.204
-161.779	-1.694	-0.275	0.190
-160.764	-200.000	0.030	-0.152
-159.750	638.781	-0.086	-0.215
-158.735	-84.981	-0.113	-0.035
-157.720	36.921	0.203	-0.176
-156.706	-7.645	0.170	-0.113
-155.691	49.103	-0.073	-0.067
-154.677	-200.000	0.013	-0.075
-153.662	-182.433	-0.242	0.004
-152.647	-69.527	0.085	0.032
-151.633	11.289	-0.216	-0.162
-150.618	524.287	0.071	-0.164
-149.604	-191.062	0.255	0.003
-148.589	74.195	-0.141	0.145
-147.574	-183.227	-0.142	0.002
-146.560	22.077	0.080	-0.064
-145.545	296.700	-0.058	0.104
-144.531	-200.000	0.031	0.245
-143.516	290.840	-0.081	0.145
-142.502	-200.000	-0.018	0.239
-141.487	-17.515	-0.195	0.120
-140.472	-200.000	-0.065	-0.289
-139.458	-152.422	0.342	0.024
-138.443	800.000	-0.099	-0.287
-137.429	174.295	-0.023	0.033
-136.414	22.003	0.282	0.225
-135.399	-25.366	0.220	-0.127
-134.385	-90.485	-0.283	-0.080
-133.370	-110.761	-0.193	0.039
-132.356	-135.662	0.263	0.031
-131.341	137.606	-0.051	-0.065
-130.326	-200.000	0.029	0.206
-129.312	-105.358	0.390	0.087
-128.297	-118.209	0.203	0.035
-127.283	800.000	-0.070	0.197
-126.268	-84.273	0.307	0.095
-125.253	-200.000	-0.032	0.170
-124.239	800.000	-0.094	-0.285
-123.224	28.334	-0.285	-0.236
-122.210	429.471	-0.043	0.090
-121.195	-200.000	-0.028	-0.129
