DTS Sentinel unit serial number:	SN413079Multiplexer serial number:	ORYXHardware model number:	OX4-SRSoftware version number:	ORYX F/W v4.00 Oryx Data Collector v3.7.2.0data status	okinstallation	princeton_trtdifferential loss correction	single-endedforward channel	channel 3reverse channel	N/Adate	2019/09/15time	05:40:35forward acquisition time	60.00reverse acquisition time	0.00gamma	496.2192k internal	0.2325k external	0.2325temperature offset calibration	0.9971default loss term (dB/km)	0.3790temperature slope calibration	1.0000multiplexer offset coefficient	1.0000multiplexer slope coefficient	1.0000fibre end	0.00T internal ref (°C)	30.62T ext. ref 1 (°C)	4.77T ext. ref 2 (°C)	25.79length (m)	temperature (°C)	Stokes	anti-Stokes-747.200	-174.798	0.194	0.006
-746.185	-102.774	-0.272	0.065
-745.171	-138.074	-0.388	0.043
-744.156	326.369	-0.081	0.156
-743.142	800.000	-0.046	0.180
-742.127	-47.113	-0.206	0.102
-741.112	-150.290	-0.292	0.023
-740.098	-200.000	-0.009	0.143
-739.083	181.789	0.247	-0.367
-738.069	-147.090	-0.176	-0.015
-737.054	800.000	0.052	-0.172
-736.039	-67.604	-0.062	0.025
-735.025	51.530	0.158	0.151
-734.010	-112.192	-0.169	0.034
-732.996	-200.000	-0.029	-0.345
-731.981	800.000	-0.049	-0.178
-730.966	253.011	-0.161	-0.277
-729.952	34.349	0.069	-0.060
-728.937	800.000	0.027	-0.093
-727.923	133.711	-0.082	-0.107
-726.908	-65.925	0.115	0.046
-725.894	268.065	-0.155	0.274
-724.879	748.600	0.071	-0.192
-723.864	58.608	-0.252	-0.249
-722.850	61.730	0.152	0.153
-721.835	-53.675	-0.298	0.137
-720.821	-66.045	-0.192	-0.077
-719.806	410.992	-0.083	0.177
-718.791	8.034	-0.262	0.198
-717.777	315.569	0.149	-0.284
-716.762	-37.709	-0.113	0.060
-715.748	44.740	-0.103	0.095
-714.733	-6.964	0.039	0.027
-713.718	-90.199	-0.106	-0.031
-712.704	-200.000	0.044	-0.210
-711.689	-120.932	0.161	0.027
-710.675	-140.626	-0.421	0.044
-709.660	145.989	-0.175	0.236
-708.645	-38.076	0.199	-0.106
-707.631	-100.024	0.354	-0.089
-706.616	-200.000	0.019	-0.216
-705.602	-48.261	-0.147	0.071
-704.587	29.738	-0.215	-0.184
-703.572	-33.774	0.259	-0.144
-702.558	-200.000	0.062	0.345
-701.543	-19.663	0.106	-0.066
-700.529	133.664	-0.039	-0.051
-699.514	-200.000	-0.020	0.112
-698.499	112.021	-0.083	-0.101
-697.485	-113.843	-0.194	-0.038
-696.470	494.023	0.192	-0.444
-695.456	-59.680	-0.171	0.074
-694.441	-200.000	0.023	-0.477
-693.426	-200.000	0.025	0.164
-692.412	-41.130	-0.152	0.079
-691.397	-41.490	-0.219	-0.113
-690.383	-64.336	-0.323	-0.133
-689.368	-65.738	-0.143	-0.058
-688.354	800.000	-0.061	-0.213
-687.339	544.487	0.071	-0.171
-686.324	-200.000	0.001	-0.058
-685.310	-200.000	0.071	-0.441
-684.295	160.254	0.053	-0.074
-683.281	-66.925	-0.138	0.055
-682.266	-149.136	-0.199	0.016
-681.251	222.940	0.131	-0.213
-680.237	-200.000	0.002	0.219
-679.222	114.545	-0.241	-0.296
-678.208	-56.495	-0.011	0.005
-677.193	-68.580	0.173	0.068
-676.178	-200.000	-0.069	-0.314
-675.164	-200.000	-0.040	-0.241
-674.149	-43.025	0.151	-0.077
-673.135	-200.000	0.034	0.206
-672.120	648.223	-0.035	0.091
-671.105	613.535	-0.063	0.159
-670.091	-200.000	0.076	0.335
-669.076	-41.769	0.167	0.086
-668.062	-153.047	-0.151	0.011
-667.047	800.000	0.092	-0.290
-666.032	21.817	0.121	0.099
-665.018	-200.000	0.029	-0.221
-664.003	226.464	0.013	-0.022
-662.989	800.000	0.039	-0.111
-661.974	142.485	0.177	-0.236
-660.959	215.663	-0.100	-0.160
-659.945	-18.081	0.174	-0.109
-658.930	800.000	-0.045	0.136
-657.916	-60.573	-0.482	-0.206
-656.901	-42.464	-0.182	-0.093
-655.886	-24.016	0.366	0.220
-654.872	271.662	-0.160	0.283
-653.857	-106.240	-0.177	0.040
-652.843	245.069	-0.140	0.237
-651.828	-85.470	0.196	-0.061
-650.814	-200.000	0.053	-0.310
-649.799	-46.916	-0.182	-0.089
-648.784	-200.000	-0.006	0.195
-647.770	800.000	0.057	-0.186
-646.755	64.526	-0.319	0.324
-645.741	2.619	-0.176	0.128
-644.726	-0.091	-0.291	-0.209
-643.711	10.745	0.145	-0.111
-642.697	-200.000	-0.026	-0.282
-641.682	800.000	-0.150	0.438
-640.668	28.976	-0.189	-0.161
-639.653	82.106	0.062	-0.068
-638.638	-200.000	-0.034	0.172
-637.624	225.764	-0.204	-0.333
-636.609	-168.908	-0.038	0.001
-635.595	-115.801	-0.091	-0.017
-634.580	776.234	-0.121	-0.331
-633.565	208.984	0.053	0.083
-632.551	-200.000	-0.056	0.271
-631.536	94.971	-0.113	-0.129
-630.522	-4.581	0.112	-0.077
-629.507	34.351	-0.093	-0.081
-628.492	800.000	-0.069	-0.301
-627.478	59.822	0.081	-0.080
-626.463	800.000	0.059	0.223
-625.449	105.118	0.206	-0.244
-624.434	-121.051	0.144	-0.024
-623.419	253.504	-0.137	0.234
-622.405	-101.343	0.295	0.072
-621.390	-200.000	-0.014	0.161
-620.376	28.121	0.149	-0.127
-619.361	88.266	0.266	0.297
-618.346	63.522	-0.136	-0.137
-617.332	-81.346	-0.159	-0.053
-616.317	-180.076	-0.197	-0.004
-615.303	-55.782	0.208	-0.093
-614.288	774.586	0.024	0.065
-613.273	-200.000	0.095	-0.435
-612.259	178.630	-0.129	0.190
-611.244	-200.000	0.054	-0.257
-610.230	-83.903	0.185	0.059
-609.215	696.697	-0.093	0.244
-608.201	800.000	0.057	-0.162
-607.186	-71.481	-0.137	0.052
-606.171	800.000	0.048	0.169
-605.157	693.326	-0.066	0.175
-604.142	-77.110	-0.121	-0.042
-603.128	66.741	-0.108	0.111
-602.113	-200.000	-0.008	-0.077
-601.098	-128.141	0.077	0.011
-600.084	-56.345	-0.612	-0.273
-599.069	685.795	-0.147	-0.385
-598.055	800.000	-0.061	0.191
-597.040	8.369	0.164	0.124
-596.025	302.216	-0.100	-0.185
-595.011	268.204	-0.052	-0.092
-593.996	-200.000	-0.026	-0.353
-592.982	-200.000	0.023	-0.192
-591.967	312.415	0.114	0.215
-590.952	-12.211	-0.198	0.130
-589.938	157.122	0.053	-0.074
-588.923	-52.277	0.292	0.136
-587.909	800.000	0.039	-0.112
-586.894	800.000	-0.099	-0.404
-585.879	-18.949	-0.265	-0.166
-584.865	-200.000	-0.040	-0.235
-583.850	-43.735	-0.175	-0.088
-582.836	-200.000	-0.015	0.248
-581.821	400.731	0.074	-0.155
-580.806	-162.412	-0.105	0.005
-579.792	-200.000	0.016	0.085
-578.777	159.549	0.060	-0.083
-577.763	-17.612	0.081	-0.051
-576.748	80.658	0.225	0.243
-575.733	211.697	-0.068	-0.107
-574.719	-30.970	0.141	-0.080
-573.704	-7.608	-0.434	0.294
-572.690	-40.568	-0.328	0.170
-571.675	78.171	-0.395	0.423
-570.661	65.682	0.087	0.088
-569.646	37.080	-0.366	0.324
-568.631	405.945	0.152	0.322
-567.617	572.295	0.032	0.079
-566.602	-124.528	-0.434	0.068
-565.588	-149.399	-0.486	0.039
-564.573	100.087	-0.119	-0.139
-563.558	-100.065	0.104	0.026
-562.544	-83.837	-0.414	0.132
-561.529	127.158	-0.128	-0.162
-560.515	-200.000	0.007	0.277
-559.500	-7.183	-0.253	-0.172
-558.485	58.195	0.200	-0.196
-557.471	117.484	0.134	0.165
-556.456	121.180	0.067	-0.083
-555.442	-160.541	-0.232	0.012
-554.427	187.286	0.184	0.275
-553.412	70.159	0.119	-0.123
-552.398	-119.825	-0.241	0.042
-551.383	-9.439	0.425	0.284
-550.369	800.000	0.148	-0.440
-549.354	-99.593	0.053	0.013
-548.339	115.968	-0.231	-0.283
-547.325	170.513	0.123	0.176
-546.310	624.505	-0.079	0.200
-545.296	221.976	-0.071	0.114
-544.281	-200.000	0.014	0.133
-543.266	-200.000	0.047	0.286
-542.252	1.973	-0.065	0.047
-541.237	-34.525	-0.217	-0.119
-540.223	176.976	-0.175	-0.256
-539.208	512.781	0.028	0.066
-538.193	400.490	0.014	0.030
-537.179	-130.385	-0.158	-0.021
-536.164	329.854	-0.070	-0.134
-535.150	-5.820	-0.116	0.080
-534.135	-150.260	0.349	-0.027
-533.121	-200.000	-0.025	-0.318
-532.106	800.000	-0.059	-0.222
-531.091	800.000	0.097	0.289
-530.077	142.919	0.106	0.142
-529.062	-68.059	0.198	-0.077
-528.048	108.417	-0.133	-0.159
-527.033	348.436	-0.278	-0.549
-526.018	417.352	-0.146	-0.311
-525.004	-139.740	0.079	0.008
-523.989	103.730	0.115	0.135
-522.975	-101.040	-0.144	0.035
-521.960	176.894	-0.117	0.170
-520.945	-10.706	-0.170	0.112
-519.931	-139.682	0.141	0.015
-518.916	-82.070	-0.196	0.064
-517.902	113.688	-0.284	0.345
-516.887	800.000	0.045	0.176
-515.872	13.922	0.159	0.124
-514.858	57.084	-0.179	-0.175
-513.843	-96.002	-0.205	-0.055
-512.829	-200.000	0.023	-0.209
-511.814	800.000	0.077	-0.219
-510.799	-53.048	-0.362	-0.166
-509.785	-200.000	-0.015	0.083
-508.770	157.175	0.133	-0.185
-507.756	-30.943	0.147	-0.083
-506.741	13.730	0.349	0.271
-505.726	800.000	0.090	0.262
-504.712	-67.480	0.203	-0.080
-503.697	34.984	-0.203	0.177
-502.683	-200.000	0.028	0.152
-501.668	7.196	-0.196	-0.146
-500.653	-16.139	0.350	-0.223
-499.639	-120.473	-0.141	0.024
-498.624	-75.416	0.061	-0.022
-497.610	-117.239	0.182	0.033
-496.595	250.085	0.122	-0.207
-495.581	18.677	-0.124	0.099
-494.566	-51.514	0.276	0.129
-493.551	-200.000	-0.004	0.386
-492.537	-129.820	0.366	0.050
-491.522	-200.000	-0.039	-0.193
-490.508	-4.636	0.148	-0.102
-489.493	30.906	-0.113	-0.097
-488.478	-200.000	-0.003	-0.305
-487.464	-142.130	-0.093	0.009
-486.449	259.753	0.137	-0.237
-485.435	800.000	-0.084	-0.294
-484.420	-170.390	-0.262	0.009
-483.405	159.413	0.132	0.184
-482.391	800.000	0.030	-0.120
-481.376	289.011	-0.025	0.046
-480.362	-80.426	0.239	-0.080
-479.347	79.539	-0.155	-0.167
-478.332	800.000	0.042	-0.123
-477.318	-200.000	0.002	-0.072
-476.303	800.000	-0.010	0.030
-475.289	-15.282	0.122	0.078
-474.274	800.000	-0.073	-0.219
-473.259	-180.824	-0.152	-0.003
-472.245	-200.000	0.039	-0.183
-471.230	-120.697	-0.428	-0.072
-470.216	694.649	-0.119	-0.311
-469.201	-56.724	0.281	-0.124
-468.186	259.644	0.140	0.242
-467.172	-129.919	0.147	0.020
-466.157	-200.000	0.052	-0.312
-465.143	297.047	-0.186	-0.340
-464.128	177.430	0.090	0.131
-463.113	113.995	-0.186	-0.226
-462.099	-200.000	0.051	0.261
-461.084	299.187	0.104	-0.191
-460.070	528.313	0.101	0.238
-459.055	-200.000	-0.058	0.296
-458.040	-60.289	0.136	-0.058
-457.026	-200.000	-0.001	0.049
-456.011	-21.319	-0.309	0.188
-454.997	343.362	-0.065	-0.126
-453.982	22.131	0.179	0.146
-452.968	252.709	-0.108	0.184
-451.953	594.251	0.037	-0.091
-450.938	69.618	0.126	-0.129
-449.924	-139.083	0.514	-0.056
-448.909	-200.000	-0.014	-0.076
-447.895	252.304	0.058	-0.099
-446.880	-200.000	0.082	0.406
-445.865	-174.592	0.098	0.003
-444.851	715.209	0.096	-0.254
-443.836	-200.000	-0.015	0.082
-442.822	800.000	-0.046	0.199
-441.807	-200.000	-0.013	-0.103
-440.792	-190.123	-0.070	0.001
-439.778	-200.000	0.040	-0.256
-438.763	-200.000	0.019	-0.182
-437.749	472.441	0.100	-0.225
-436.734	-200.000	0.011	-0.136
-435.719	463.692	-0.241	-0.537
-434.705	-23.087	0.026	0.016
-433.690	-165.908	-0.157	-0.007
-432.676	-167.342	0.195	-0.008
-431.661	-16.565	0.197	0.125
-430.646	6.415	0.357	-0.264
-429.632	800.000	-0.012	0.052
-428.617	100.991	-0.130	0.151
-427.603	-87.097	-0.066	0.020
-426.588	-200.000	0.039	0.278
-425.573	-123.593	0.170	0.027
-424.559	-88.920	0.360	0.106
-423.544	-84.260	0.283	-0.089
-422.530	-54.947	-0.399	-0.179
-421.515	562.833	0.075	0.181
-420.500	128.439	0.127	-0.161
-419.486	-57.326	0.146	-0.064
-418.471	-88.931	0.339	-0.100
-417.457	-143.473	0.197	-0.019
-416.442	561.290	0.107	-0.257
-415.428	-116.926	0.092	0.017
-414.413	247.161	0.264	-0.444
-413.398	-172.306	-0.318	-0.010
-412.384	-121.460	-0.178	0.030
-411.369	-55.747	0.185	0.082
-410.355	-190.000	0.355	-0.004
-409.340	70.464	-0.100	-0.103
-408.325	-200.000	-0.016	-0.333
-407.311	170.644	-0.128	0.183
-406.296	-74.170	-0.192	0.069
-405.282	416.981	-0.025	0.053
-404.267	137.097	0.190	-0.247
-403.252	-200.000	-0.026	-0.235
-402.238	-121.785	-0.269	-0.044
-401.223	-142.600	0.244	-0.024
-400.209	262.638	0.166	-0.286
-399.194	800.000	-0.048	-0.137
-398.179	158.696	-0.127	0.175
-397.165	168.298	-0.109	-0.154
-396.150	95.359	0.219	-0.248
-395.136	544.344	-0.036	0.085
-394.121	519.362	0.088	-0.205
-393.106	-130.316	-0.161	-0.022
-392.092	40.392	0.369	0.331
-391.077	66.895	0.143	0.144
-390.063	135.711	0.061	0.079
-389.048	-71.653	0.126	0.047
-388.033	800.000	0.163	0.516
-387.019	105.717	-0.098	-0.116
-386.004	-108.838	-0.341	-0.073
-384.990	80.846	-0.109	-0.118
-383.975	-200.000	-0.007	-0.208
-382.960	-74.065	-0.038	0.014
-381.946	-21.123	-0.207	0.126
-380.931	216.014	0.107	0.169
-379.917	-45.007	0.259	-0.128
-378.902	707.165	-0.133	0.349
-377.888	800.000	-0.050	0.145
-376.873	-200.000	-0.008	0.083
-375.858	-200.000	-0.005	0.282
-374.844	-200.000	-0.016	-0.339
-373.829	-64.022	0.265	0.108
-372.815	80.036	-0.052	-0.055
-371.800	-45.221	-0.574	0.283
-370.785	800.000	0.077	-0.309
-369.771	-24.502	0.237	-0.141
-368.756	-200.000	-0.034	0.156
-367.742	5.237	0.277	-0.203
-366.727	-200.000	0.051	0.247
-365.712	-200.000	0.016	-0.158
-364.698	800.000	-0.075	0.252
-363.683	800.000	-0.091	-0.342
-362.669	567.270	-0.080	-0.194
-361.654	374.036	-0.145	0.293
-360.639	686.507	-0.083	0.215
-359.625	322.694	0.181	-0.344
-358.610	-131.417	0.250	0.033
-357.596	-200.000	-0.008	-0.079
-356.581	-145.867	0.158	-0.014
-355.566	369.358	-0.036	0.072
-354.552	-200.000	-0.044	0.267
-353.537	-200.000	0.010	0.058
-352.523	289.283	0.019	-0.034
-351.508	-153.614	-0.160	-0.011
-350.493	67.297	-0.088	-0.089
-349.479	-126.026	0.181	-0.027
-348.464	624.750	-0.034	0.086
-347.450	53.272	-0.099	-0.094
-346.435	99.459	0.190	0.218
-345.420	-46.887	0.268	0.130
-344.406	72.226	-0.193	-0.199
-343.391	-16.309	0.100	0.063
-342.377	-80.164	-0.111	-0.037
-341.362	-160.315	0.131	0.007
-340.348	-200.000	0.027	0.168
-339.333	-66.596	-0.115	-0.045
-338.318	43.015	0.182	-0.165
-337.304	800.000	-0.109	-0.366
-336.289	-200.000	0.011	-0.113
-335.275	-45.081	-0.286	-0.141
-334.260	-200.000	0.005	0.053
-333.245	18.741	0.151	-0.120
-332.231	238.570	0.094	-0.155
-331.216	69.257	-0.077	-0.078
-330.202	112.222	0.229	0.275
-329.187	75.707	0.269	0.283
-328.172	800.000	-0.085	0.277
-327.158	-8.332	0.294	0.196
-326.143	-127.897	-0.253	-0.036
-325.129	408.709	0.101	0.212
-324.114	173.242	-0.116	-0.166
-323.099	-200.000	0.047	0.349
-322.085	-200.000	0.060	0.291
-321.070	-87.722	-0.151	0.045
-320.056	27.234	-0.040	0.033
-319.041	-115.727	0.363	0.068
-318.026	501.316	0.051	-0.118
-317.012	32.330	0.098	0.084
-315.997	-78.172	0.321	-0.109
-314.983	69.684	-0.161	0.165
-313.968	-136.225	0.188	-0.022
-312.953	-200.000	-0.017	-0.256
-311.939	-91.964	-0.290	-0.081
-310.924	39.643	-0.186	-0.165
-309.910	698.919	0.060	0.157
-308.895	-112.110	-0.120	-0.024
-307.880	-200.000	0.067	0.355
-306.866	-85.279	-0.325	0.101
-305.851	104.463	0.175	0.204
-304.837	-27.767	-0.149	0.085
-303.822	-200.000	0.004	0.425
-302.807	-200.000	0.011	0.331
-301.793	-44.331	-0.111	-0.055
-300.778	-200.000	0.008	0.094
-299.764	-173.079	-0.300	0.009
-298.749	-65.885	0.151	-0.060
-297.735	221.949	0.108	-0.172
-296.720	-200.000	0.014	-0.080
-295.705	-30.438	0.165	-0.093
-294.691	102.115	-0.156	-0.181
-293.676	-178.030	0.272	-0.006
-292.662	10.604	-0.088	-0.067
-291.647	12.372	-0.194	-0.148
-290.632	-200.000	0.013	-0.085
-289.618	-137.823	-0.262	0.029
-288.603	-200.000	0.071	0.461
-287.589	24.931	0.417	0.343
-286.574	-136.610	-0.511	0.059
-285.559	475.915	0.143	-0.320
-284.545	59.258	-0.207	0.202
-283.530	28.450	-0.077	0.065
-282.516	35.680	-0.062	-0.054
-281.501	-51.050	-0.078	-0.036
-280.486	-82.356	0.221	0.071
-279.472	-162.720	0.317	0.015
-278.457	-200.000	-0.027	-0.167
-277.443	-72.003	0.048	-0.018
-276.428	61.559	-0.223	0.220
-275.413	138.328	-0.143	-0.186
-274.399	353.568	-0.285	0.561
-273.384	280.158	0.164	0.290
-272.370	-57.137	0.025	-0.011
-271.355	-139.627	-0.142	-0.015
-270.340	560.687	-0.068	0.162
-269.326	230.500	0.229	0.372
-268.311	146.140	0.297	0.394
-267.297	485.537	0.162	-0.366
-266.282	-48.621	0.513	0.244
-265.267	215.156	0.143	-0.224
-264.253	-30.591	0.217	-0.122
-263.238	-35.447	-0.221	0.119
-262.224	2.538	0.138	0.099
-261.209	305.522	-0.048	0.089
-260.195	-96.975	0.226	0.059
-259.180	-200.000	-0.031	0.171
-258.165	20.454	-0.100	0.080
-257.151	-124.349	0.217	0.033
-256.136	800.000	-0.069	0.227
-255.122	-200.000	0.115	-0.000
-254.107	445.776	0.070	0.152
-253.092	87.553	0.159	-0.174
-252.078	322.610	0.052	-0.097
-251.063	287.104	0.095	0.171
-250.049	160.849	-0.144	0.199
-249.034	123.545	-0.116	-0.144
-248.019	-150.010	0.094	-0.007
-247.005	644.106	-0.053	-0.133
-245.990	161.211	-0.138	-0.192
-244.976	-8.543	-0.016	-0.011
-243.961	9.007	0.047	-0.035
-242.946	701.439	-0.023	-0.061
-241.932	53.055	0.105	-0.100
-240.917	-165.347	0.346	-0.015
-239.903	-139.005	0.414	-0.044
-238.888	171.219	-0.143	0.203
-237.873	61.614	-0.349	0.343
-236.859	604.298	-0.052	-0.129
-235.844	142.282	0.159	0.209
-234.830	125.532	-0.170	0.212
-233.815	800.000	0.063	0.207
-232.800	12.073	-0.322	0.245
-231.786	-200.000	0.004	-0.415
-230.771	-110.998	-0.124	-0.025
-229.757	-126.089	-0.065	0.010
-228.742	223.147	0.073	-0.117
-227.727	-200.000	-0.014	0.199
-226.713	193.070	0.164	-0.244
-225.698	15.045	-0.152	0.117
-224.684	-79.919	-0.321	0.107
-223.669	-200.000	0.009	-0.162
-222.655	285.808	0.135	0.241
-221.640	311.002	0.087	0.161
-220.625	31.523	0.124	0.105
-219.611	210.981	0.052	-0.080
-218.596	12.320	-0.135	0.103
-217.582	91.227	-0.107	-0.119
-216.567	31.865	-0.045	-0.038
-215.552	-102.920	0.322	0.076
-214.538	-30.391	-0.132	-0.074
-213.523	800.000	0.033	0.132
-212.509	747.087	0.091	-0.241
-211.494	800.000	0.032	0.122
-210.479	-2.358	-0.032	0.022
-209.465	-72.270	-0.172	-0.063
-208.450	-1.989	-0.139	-0.096
-207.436	-200.000	0.019	0.126
-206.421	-152.018	-0.094	0.007
-205.406	94.309	0.174	0.195
-204.392	-170.900	-0.205	0.007
-203.377	599.889	-0.116	-0.285
-202.363	67.397	0.244	-0.246
-201.348	44.856	-0.163	0.148
-200.333	787.621	0.089	0.240
-199.319	110.063	-0.097	0.115
-198.304	-19.548	0.113	0.069
-197.290	-51.602	0.407	-0.187
-196.275	-11.945	-0.176	0.114
-195.260	108.469	0.055	-0.065
-194.246	-3.388	0.194	-0.133
-193.231	-200.000	0.037	-0.226
-192.217	-200.000	0.004	0.091
-191.202	209.955	0.167	-0.259
-190.187	-22.890	0.177	0.106
-189.173	800.000	-0.046	0.132
-188.158	343.692	-0.059	0.114
-187.144	-200.000	0.035	0.503
-186.129	800.000	-0.027	0.103
-185.114	-200.000	0.023	-0.266
-184.100	281.865	0.065	0.115
-183.085	245.786	-0.045	0.075
-182.071	43.653	0.139	-0.125
-181.056	-121.183	-0.429	-0.071
-180.042	-133.915	-0.212	0.026
-179.027	149.461	-0.057	0.076
-178.012	33.882	0.317	0.272
-176.998	-200.000	-0.000	0.018
-175.983	176.111	-0.015	0.021
-174.969	214.225	0.127	-0.199
-173.954	670.723	-0.093	-0.239
-172.939	507.790	0.134	0.306
-171.925	-133.495	0.180	-0.022
-170.910	800.000	-0.032	0.136
-169.896	-200.000	0.071	0.438
-168.881	121.771	0.088	-0.109
-167.866	-200.000	0.015	-0.096
-166.852	800.000	-0.204	-0.599
-165.837	182.649	0.046	-0.067
-164.823	41.029	0.141	-0.125
-163.808	-21.349	0.101	-0.061
-162.793	-17.262	0.192	-0.120
-161.779	268.738	-0.103	-0.179
-160.764	-200.000	0.015	-0.227
-159.750	97.873	0.084	0.095
-158.735	-47.800	-0.215	0.103
-157.720	-141.366	-0.234	0.023
-156.706	31.419	0.164	-0.139
-155.691	-82.876	-0.137	-0.044
-154.677	389.792	-0.183	-0.374
-153.662	13.504	-0.197	-0.151
-152.647	-6.057	-0.225	0.151
-151.633	-24.683	-0.337	0.198
-150.618	348.669	-0.246	0.478
-149.604	71.492	0.257	0.263
-148.589	-116.698	0.192	0.035
-147.574	-89.308	-0.359	0.104
-146.560	80.960	0.229	-0.244
-145.545	167.326	0.147	0.206
-144.531	297.514	-0.070	-0.127
-143.516	-200.000	-0.055	-0.293
-142.502	-5.754	-0.351	0.237
-141.487	-63.279	-0.194	-0.079
-140.472	-32.243	-0.166	-0.091
-139.458	-94.384	0.281	-0.076
-138.443	-134.037	-0.313	0.038
-137.429	29.202	0.288	0.241
-136.414	-141.010	-0.483	-0.049
-135.399	-82.517	0.254	-0.081
-134.385	-76.211	-0.142	-0.049
-133.370	-50.478	0.364	0.169
-132.356	-68.579	-0.160	-0.061
-131.341	800.000	0.071	-0.200
-130.326	-65.174	-0.276	-0.110
-129.312	-200.000	0.056	0.317
-128.297	57.719	0.101	0.097
-127.283	-153.120	0.150	0.010
-126.268	-152.336	-0.180	0.013
-125.253	-48.411	0.021	0.010
-124.239	-79.255	-0.372	0.124
-123.224	50.145	0.017	0.016
-122.210	158.388	-0.150	0.205
-121.195	105.736	0.036	-0.041
