DTS Sentinel unit serial number:	SN413079Multiplexer serial number:	ORYXHardware model number:	OX4-SRSoftware version number:	ORYX F/W v4.00 Oryx Data Collector v3.7.2.0data status	okinstallation	princeton_trtdifferential loss correction	single-endedforward channel	channel 3reverse channel	N/Adate	2019/09/18time	00:52:34forward acquisition time	60.00reverse acquisition time	0.00gamma	496.2192k internal	0.2345k external	0.2345temperature offset calibration	0.9949default loss term (dB/km)	0.3790temperature slope calibration	1.0000multiplexer offset coefficient	1.0000multiplexer slope coefficient	1.0000fibre end	0.00T internal ref (°C)	23.37T ext. ref 1 (°C)	0.16T ext. ref 2 (°C)	17.08length (m)	temperature (°C)	Stokes	anti-Stokes-747.200	-10.564	0.069	-0.045
-746.185	800.000	0.099	0.398
-745.171	-200.000	0.057	-0.275
-744.156	-200.000	0.054	0.336
-743.142	-19.661	-0.267	0.165
-742.127	800.000	-0.036	-0.134
-741.112	271.769	0.096	0.169
-740.098	-200.000	0.026	-0.157
-739.083	-200.000	0.023	0.283
-738.069	574.193	0.044	0.108
-737.054	96.837	-0.142	0.163
-736.039	73.948	-0.085	0.089
-735.025	-150.947	-0.254	0.019
-734.010	-138.349	0.224	0.025
-732.996	800.000	0.121	0.373
-731.981	-29.283	0.045	-0.025
-730.966	-13.894	0.232	-0.150
-729.952	-135.456	-0.282	0.034
-728.937	-200.000	-0.083	-0.379
-727.923	7.510	-0.250	0.187
-726.908	800.000	-0.057	0.182
-725.894	800.000	-0.025	-0.089
-724.879	344.020	0.139	-0.272
-723.864	14.833	-0.189	-0.148
-722.850	-16.250	-0.133	-0.084
-721.835	-200.000	0.061	-0.523
-720.821	-120.399	-0.193	-0.033
-719.806	-48.351	0.081	0.039
-718.791	-113.615	0.204	-0.040
-717.777	-110.650	0.109	-0.023
-716.762	616.998	-0.050	-0.126
-715.748	-157.764	-0.145	0.009
-714.733	-200.000	-0.068	-0.335
-713.718	-200.000	-0.009	-0.099
-712.704	-99.597	-0.092	-0.023
-711.689	-50.925	0.301	0.141
-710.675	130.897	0.095	0.122
-709.660	-192.331	0.425	0.004
-708.645	-34.987	-0.068	0.037
-707.631	46.605	-0.423	-0.392
-706.616	-154.690	0.222	0.015
-705.602	-4.386	0.131	0.090
-704.587	-142.633	0.153	-0.015
-703.572	800.000	-0.094	0.270
-702.558	-51.331	0.421	-0.197
-701.543	94.690	-0.129	-0.147
-700.529	28.970	0.160	-0.135
-699.514	-200.000	-0.021	-0.187
-698.499	-77.369	-0.155	0.054
-697.485	-5.184	-0.085	0.058
-696.470	800.000	0.034	-0.113
-695.456	73.711	0.242	0.253
-694.441	-200.000	-0.036	0.343
-693.426	-119.202	-0.387	-0.067
-692.412	800.000	-0.119	-0.403
-691.397	800.000	0.056	0.190
-690.383	800.000	0.019	-0.061
-689.368	-200.000	-0.016	-0.142
-688.354	800.000	0.020	0.074
-687.339	243.174	0.232	0.388
-686.324	800.000	-0.079	-0.291
-685.310	-59.223	-0.073	0.031
-684.295	568.364	-0.023	-0.057
-683.281	71.256	-0.164	-0.169
-682.266	-134.033	-0.142	0.018
-681.251	19.011	0.157	-0.125
-680.237	-129.939	0.196	-0.027
-679.222	-108.985	-0.194	-0.041
-678.208	40.269	0.185	0.166
-677.193	6.519	-0.105	-0.078
-676.178	-53.243	-0.353	0.162
-675.164	565.607	-0.052	-0.126
-674.149	-200.000	0.007	0.255
-673.135	42.195	-0.022	0.020
-672.120	-13.949	-0.027	0.018
-671.105	-73.753	-0.228	0.083
-670.091	-178.064	-0.230	-0.005
-669.076	94.323	-0.207	-0.234
-668.062	-113.519	-0.367	-0.072
-667.047	631.092	0.042	-0.105
-666.032	-80.566	-0.054	0.018
-665.018	-125.590	0.456	0.069
-664.003	127.263	-0.098	0.124
-662.989	650.080	0.141	-0.360
-661.974	800.000	-0.068	-0.194
-660.959	-115.167	-0.036	0.007
-659.945	107.526	0.059	-0.071
-658.930	-115.165	-0.388	0.073
-657.916	-135.452	0.278	-0.033
-656.901	-20.721	0.217	0.133
-655.886	239.933	0.045	-0.074
-654.872	245.053	0.206	0.345
-653.857	800.000	-0.100	-0.301
-652.843	800.000	-0.067	0.258
-651.828	2.835	-0.185	-0.134
-650.814	400.115	0.067	0.140
-649.799	-30.706	-0.068	0.038
-648.784	-22.770	0.201	-0.121
-647.770	72.284	-0.113	0.117
-646.755	-18.439	-0.138	0.086
-645.741	-68.572	-0.085	0.033
-644.726	110.934	0.053	-0.064
-643.711	800.000	-0.077	-0.257
-642.697	-200.000	-0.021	0.244
-641.682	-51.633	0.205	0.095
-640.668	-150.999	0.225	0.017
-639.653	499.871	0.085	0.194
-638.638	-3.430	-0.293	0.203
-637.624	-73.038	-0.113	-0.041
-636.609	-200.000	-0.029	-0.331
-635.595	-200.000	-0.057	-0.285
-634.580	22.609	0.277	-0.226
-633.565	800.000	0.083	-0.298
-632.551	90.528	0.162	-0.180
-631.536	446.807	-0.045	-0.099
-630.522	-200.000	-0.009	0.188
-629.507	800.000	0.062	0.177
-628.492	12.479	-0.256	-0.197
-627.478	-8.185	-0.358	-0.240
-626.463	230.274	0.064	-0.104
-625.449	-200.000	0.028	-0.366
-624.434	-18.178	0.056	-0.035
-623.419	-55.763	0.086	-0.038
-622.405	-200.000	-0.012	-0.299
-621.390	24.861	0.258	-0.213
-620.376	-107.557	0.212	-0.046
-619.361	800.000	-0.053	0.160
-618.346	-200.000	0.013	-0.094
-617.332	-159.435	-0.247	-0.014
-616.317	219.082	-0.083	-0.133
-615.303	194.051	-0.181	-0.274
-614.288	327.024	-0.049	0.094
-613.273	-118.587	0.107	-0.019
-612.259	-200.000	0.004	0.034
-611.244	55.615	0.204	0.197
-610.230	-18.467	-0.146	-0.091
-609.215	69.977	-0.151	-0.156
-608.201	195.739	-0.081	0.123
-607.186	-47.886	0.184	0.089
-606.171	-200.000	-0.013	0.480
-605.157	800.000	0.070	0.203
-604.142	82.723	0.128	0.138
-603.128	124.919	0.165	0.206
-602.113	800.000	-0.106	-0.348
-601.098	800.000	0.079	-0.224
-600.084	202.663	0.132	0.202
-599.069	800.000	-0.100	0.395
-598.055	135.006	0.225	-0.290
-597.040	127.806	0.188	0.238
-596.025	-54.614	-0.353	0.159
-595.011	550.454	0.040	-0.094
-593.996	800.000	0.125	-0.399
-592.982	-13.248	-0.245	0.158
-591.967	-11.611	0.218	-0.142
-590.952	45.279	-0.086	0.079
-589.938	-200.000	-0.016	0.151
-588.923	-200.000	-0.033	-0.209
-587.909	800.000	-0.103	0.290
-586.894	-61.500	0.055	0.023
-585.879	-73.086	-0.263	-0.096
-584.865	118.045	-0.159	-0.195
-583.850	-31.182	-0.252	0.141
-582.836	-98.252	-0.327	0.083
-581.821	35.727	0.165	0.144
-580.806	297.265	-0.115	0.209
-579.792	-84.322	-0.078	0.025
-578.777	34.859	0.060	0.052
-577.763	-200.000	0.069	0.524
-576.748	247.244	0.255	0.428
-575.733	-31.349	-0.377	-0.211
-574.719	-54.315	0.054	-0.024
-573.704	-62.572	-0.201	0.083
-572.690	280.362	0.100	-0.177
-571.675	-177.697	-0.161	0.004
-570.661	39.940	0.329	-0.293
-569.646	-27.676	-0.048	-0.028
-568.631	-200.000	0.016	-0.247
-567.617	142.635	-0.109	-0.144
-566.602	22.475	-0.251	-0.204
-565.588	-39.491	0.433	-0.226
-564.573	-129.138	0.038	-0.005
-563.558	-98.120	0.162	-0.042
-562.544	685.452	0.027	-0.070
-561.529	130.736	-0.066	-0.083
-560.515	-200.000	0.055	-0.252
-559.500	-138.736	0.243	0.026
-558.485	-200.000	-0.003	0.145
-557.471	7.900	-0.211	-0.157
-556.456	-200.000	0.007	0.269
-555.442	800.000	-0.047	-0.142
-554.427	517.072	-0.096	0.223
-553.412	172.278	-0.145	0.207
-552.398	-124.095	-0.186	0.029
-551.383	-200.000	-0.006	0.072
-550.369	-19.023	0.073	-0.045
-549.354	-200.000	0.073	-0.457
-548.339	357.522	-0.085	0.169
-547.325	800.000	-0.014	0.041
-546.310	800.000	-0.022	0.070
-545.296	-200.000	0.039	0.367
-544.281	-200.000	0.011	-0.148
-543.266	78.031	0.070	-0.074
-542.252	752.908	0.123	0.330
-541.237	460.152	0.065	0.143
-540.223	779.333	-0.051	0.140
-539.208	-132.578	-0.142	0.018
-538.193	-96.899	0.223	0.058
-537.179	158.746	0.105	-0.145
-536.164	-142.644	-0.125	-0.012
-535.150	268.020	0.197	-0.342
-534.135	-200.000	-0.023	-0.326
-533.121	-200.000	0.040	0.214
-532.106	-79.988	0.178	0.059
-531.091	100.538	0.122	0.140
-530.077	766.216	-0.033	-0.090
-529.062	42.019	0.042	0.038
-528.048	-57.224	0.191	0.083
-527.033	4.069	-0.340	-0.246
-526.018	-200.000	-0.048	-0.295
-525.004	-200.000	-0.043	-0.224
-523.989	-54.493	0.070	-0.031
-522.975	512.676	0.082	-0.190
-521.960	148.363	-0.061	-0.082
-520.945	-188.140	-0.140	-0.002
-519.931	-200.000	-0.044	-0.208
-518.916	-40.333	-0.035	0.018
-517.902	-161.167	0.196	0.010
-516.887	-200.000	-0.004	-0.168
-515.872	-65.252	-0.155	-0.062
-514.858	58.748	-0.120	-0.117
-513.843	148.683	0.080	-0.107
-512.829	-94.981	-0.164	0.044
-511.814	800.000	0.025	-0.105
-510.799	138.040	-0.116	0.151
-509.785	-83.000	-0.058	-0.019
-508.770	148.568	0.130	0.174
-507.756	97.340	-0.295	-0.335
-506.741	278.274	0.022	-0.039
-505.726	-200.000	-0.026	-0.140
-504.712	-42.372	-0.234	0.118
-503.697	36.046	-0.119	0.103
-502.683	-72.649	-0.123	0.045
-501.668	-130.556	-0.256	0.034
-500.653	224.414	-0.172	0.276
-499.639	-200.000	-0.004	-0.066
-498.624	-140.893	-0.115	0.012
-497.610	-200.000	0.004	0.110
-496.595	800.000	0.143	-0.530
-495.581	-73.533	0.125	-0.045
-494.566	800.000	-0.098	-0.408
-493.551	54.875	0.062	-0.059
-492.537	83.407	-0.206	0.222
-491.522	-200.000	0.025	0.194
-490.508	90.644	0.147	0.163
-489.493	800.000	0.071	-0.236
-488.478	765.908	0.024	-0.064
-487.464	42.688	0.235	-0.212
-486.449	10.032	0.087	0.065
-485.435	-200.000	0.040	0.249
-484.420	681.461	0.078	0.200
-483.405	197.981	-0.191	0.289
-482.391	-200.000	-0.026	-0.199
-481.376	48.771	0.193	0.179
-480.362	744.472	0.120	0.320
-479.347	-120.382	0.225	-0.038
-478.332	27.007	-0.114	0.095
-477.318	-85.217	-0.170	-0.053
-476.303	-181.222	-0.150	-0.003
-475.289	-95.578	-0.336	0.089
-474.274	63.516	0.140	0.139
-473.259	61.834	-0.159	0.157
-472.245	-200.000	0.024	0.324
-471.230	800.000	0.109	0.330
-470.216	-45.436	0.330	-0.162
-469.201	34.468	0.100	0.086
-468.186	176.367	-0.097	-0.139
-467.172	-120.284	-0.066	-0.011
-466.157	-81.720	-0.188	-0.061
-465.143	329.114	-0.103	-0.196
-464.128	800.000	0.080	0.219
-463.113	105.316	-0.035	0.041
-462.099	29.507	0.154	0.129
-461.084	165.962	0.114	0.159
-460.070	510.798	0.107	-0.247
-459.055	800.000	0.183	0.521
-458.040	-52.381	-0.434	-0.199
-457.026	301.931	0.095	0.174
-456.011	491.221	0.059	0.134
-454.997	800.000	-0.029	0.117
-453.982	-19.842	0.164	-0.101
-452.968	21.521	0.199	-0.160
-451.953	-200.000	0.019	0.132
-450.938	223.319	-0.020	-0.032
-449.924	109.009	-0.148	-0.176
-448.909	-47.115	0.399	-0.193
-447.895	16.933	0.057	-0.045
-446.880	-151.199	-0.291	0.022
-445.865	-117.580	0.139	0.025
-444.851	48.998	-0.240	-0.223
-443.836	154.477	-0.249	0.338
-442.822	-16.583	-0.227	-0.142
-441.807	-16.735	-0.236	0.148
-440.792	19.968	-0.311	-0.248
-439.778	268.905	0.053	-0.092
-438.763	27.046	-0.289	-0.240
-437.749	110.032	0.205	-0.243
-436.734	-162.954	0.251	0.012
-435.719	-135.898	-0.233	0.027
-434.705	-53.412	0.344	0.156
-433.690	-200.000	-0.014	-0.246
-432.676	64.941	0.113	0.113
-431.661	4.263	0.189	-0.137
-430.646	-68.233	-0.218	-0.084
-429.632	239.559	-0.046	0.075
-428.617	77.769	-0.157	0.166
-427.603	-142.158	0.089	-0.009
-426.588	-84.569	-0.131	-0.041
-425.573	-15.488	0.359	-0.227
-424.559	-200.000	0.048	-0.263
-423.544	-200.000	-0.035	-0.326
-422.530	800.000	-0.033	0.111
-421.515	226.494	-0.090	0.144
-420.500	-181.141	-0.253	-0.005
-419.486	269.773	-0.174	-0.302
-418.471	-200.000	0.020	0.239
-417.457	17.547	0.251	0.197
-416.442	125.678	-0.116	0.144
-415.428	224.606	-0.023	0.037
-414.413	800.000	-0.026	-0.082
-413.398	-146.768	-0.120	-0.010
-412.384	-200.000	0.003	-0.033
-411.369	-45.691	0.192	0.094
-410.355	186.939	0.151	0.222
-409.340	256.108	0.135	0.228
-408.325	-29.265	-0.381	0.216
-407.311	-105.846	-0.178	0.040
-406.296	102.062	-0.180	-0.207
-405.282	229.402	0.086	-0.139
-404.267	750.183	0.028	-0.075
-403.252	164.766	-0.122	0.169
-402.238	192.660	-0.152	0.227
-401.223	53.094	-0.161	0.153
-400.209	800.000	-0.097	-0.413
-399.194	800.000	0.127	-0.417
-398.179	45.324	0.233	0.212
-397.165	14.300	0.281	0.217
-396.150	-200.000	-0.023	-0.214
-395.136	187.695	-0.101	0.149
-394.121	-27.860	0.131	0.075
-393.106	98.169	0.049	0.055
-392.092	-131.119	0.206	0.027
-391.077	-63.361	-0.164	0.067
-390.063	46.888	-0.377	-0.346
-389.048	117.024	-0.179	-0.217
-388.033	-105.407	-0.207	0.046
-387.019	-57.443	-0.294	0.127
-386.004	-200.000	-0.022	-0.108
-384.990	16.969	0.267	-0.209
-383.975	-124.560	-0.286	0.044
-382.960	-200.000	0.002	-0.024
-381.946	173.509	0.263	0.374
-380.931	-45.898	0.024	-0.012
-379.917	-200.000	-0.024	-0.224
-378.902	-62.367	0.216	-0.089
-377.888	-144.402	0.122	0.011
-376.873	-57.699	-0.178	0.077
-375.858	-114.859	-0.258	0.049
-374.844	40.138	-0.028	0.025
-373.829	-51.143	0.204	0.095
-372.815	-107.414	0.277	0.060
-371.800	-24.325	0.223	-0.131
-370.785	-51.641	0.261	0.120
-369.771	-200.000	0.107	0.476
-368.756	-200.000	-0.045	0.232
-367.742	-105.917	0.139	-0.031
-366.727	35.449	-0.130	-0.112
-365.712	119.386	0.191	-0.233
-364.698	-133.036	-0.108	0.014
-363.683	-200.000	0.008	-0.046
-362.669	800.000	-0.049	-0.204
-361.654	800.000	0.095	-0.328
-360.639	-157.150	0.331	-0.020
-359.625	503.834	0.014	-0.031
-358.610	-48.437	0.045	-0.021
-357.596	399.206	0.106	-0.219
-356.581	-200.000	-0.033	-0.252
-355.566	-107.159	0.255	-0.055
-354.552	578.083	-0.152	0.367
-353.537	182.209	-0.054	0.078
-352.523	-26.707	0.198	-0.114
-351.508	137.656	-0.140	-0.181
-350.493	65.812	0.120	0.120
-349.479	134.222	0.098	0.126
-348.464	670.171	-0.119	0.304
-347.450	161.044	0.189	-0.261
-346.435	149.043	0.056	-0.074
-345.420	-155.053	0.231	-0.015
-344.406	285.409	0.199	-0.353
-343.391	-47.065	-0.186	0.089
-342.377	-153.748	0.140	-0.009
-341.362	-35.995	0.309	-0.165
-340.348	187.390	0.028	-0.041
-339.333	-200.000	0.023	0.269
-338.318	36.151	0.139	-0.121
-337.304	-43.599	-0.355	0.176
-336.289	800.000	-0.078	0.218
-335.275	451.703	0.082	0.179
-334.260	-43.865	-0.147	-0.073
-333.245	-1.879	0.044	-0.031
-332.231	123.835	0.129	0.159
-331.216	-120.341	-0.164	0.027
-330.202	-200.000	0.023	-0.272
-329.187	170.144	-0.100	-0.141
-328.172	306.502	-0.124	-0.227
-327.158	172.107	-0.174	0.246
-326.143	191.401	-0.098	-0.145
-325.129	800.000	-0.046	0.164
-324.114	-22.720	0.190	-0.113
-323.099	-200.000	0.025	0.155
-322.085	157.486	0.088	0.120
-321.070	392.406	0.161	-0.330
-320.056	-200.000	0.019	0.124
-319.041	800.000	-0.040	0.116
-318.026	122.487	0.260	0.319
-317.012	-94.222	-0.314	-0.085
-315.997	800.000	0.065	-0.213
-314.983	165.127	0.111	0.154
-313.968	412.814	-0.111	0.233
-312.953	72.406	-0.178	-0.182
-311.939	-200.000	-0.037	0.214
-310.924	-114.119	-0.339	-0.064
-309.910	-149.865	-0.173	0.013
-308.895	-200.000	0.035	-0.175
-307.880	46.957	0.263	-0.240
-306.866	0.613	-0.393	-0.276
-305.851	405.941	-0.060	-0.124
-304.837	-78.313	0.307	-0.103
-303.822	134.042	-0.169	0.215
-302.807	-95.567	0.254	-0.067
-301.793	472.034	-0.139	0.308
-300.778	40.678	-0.112	-0.099
-299.764	-200.000	0.068	-0.303
-298.749	-105.144	0.389	-0.087
-297.735	66.664	-0.059	-0.059
-296.720	126.500	-0.155	0.193
-295.705	-21.589	0.233	0.140
-294.691	221.129	0.064	0.102
-293.676	190.161	0.196	0.289
-292.662	800.000	-0.071	-0.275
-291.647	361.878	0.080	0.157
-290.632	-133.753	-0.652	0.080
-289.618	-84.686	0.071	-0.022
-288.603	800.000	0.019	-0.058
-287.589	800.000	0.048	-0.184
-286.574	286.894	0.132	0.235
-285.559	-54.275	0.116	0.052
-284.545	-200.000	0.067	0.431
-283.530	225.689	0.097	0.154
-282.516	-55.688	0.196	0.086
-281.501	-95.897	-0.235	-0.062
-280.486	-196.435	0.296	0.002
-279.472	-71.262	-0.225	0.083
-278.457	361.984	0.066	-0.130
-277.443	131.413	0.197	-0.249
-276.428	12.931	-0.226	-0.172
-275.413	-163.440	-0.082	-0.004
-274.399	-162.839	0.119	0.006
-273.384	622.041	-0.051	0.127
-272.370	206.943	-0.083	-0.127
-271.355	-200.000	-0.002	-0.094
-270.340	-147.268	-0.157	-0.013
-269.326	345.989	-0.136	0.263
-268.311	-129.047	0.254	-0.035
-267.297	20.652	0.185	0.147
-266.282	610.063	-0.067	0.165
-265.267	294.469	0.175	0.313
-264.253	-115.537	0.191	-0.035
-263.238	-200.000	-0.002	-0.332
-262.224	-200.000	-0.024	-0.130
-261.209	-144.299	-0.287	-0.026
-260.195	462.672	-0.042	-0.092
-259.180	-200.000	0.017	0.079
-258.165	800.000	-0.031	0.115
-257.151	153.952	0.024	-0.032
-256.136	32.998	-0.126	0.107
-255.122	-200.000	0.034	-0.282
-254.107	-142.979	0.127	0.012
-253.092	-16.430	-0.054	0.034
-252.078	243.900	-0.220	-0.362
-251.063	-200.000	-0.060	0.270
-250.049	-150.349	-0.144	0.011
-249.034	215.317	-0.188	0.293
-248.019	-105.497	-0.491	0.109
-247.005	71.241	0.124	0.126
-245.990	49.389	0.200	0.184
-244.976	-100.148	0.248	0.061
-243.961	35.122	0.271	0.233
-242.946	-132.530	0.220	0.028
-241.932	-63.721	0.200	0.080
-240.917	4.398	0.153	-0.110
-239.903	44.223	-0.167	0.151
-238.888	800.000	-0.084	0.240
-237.873	40.957	-0.173	-0.153
-236.859	-103.493	-0.192	-0.044
-235.844	86.003	0.132	0.142
-234.830	50.754	0.056	0.052
-233.815	-36.907	0.221	-0.116
-232.800	766.101	-0.023	0.061
-231.786	-200.000	-0.064	-0.375
-230.771	337.662	-0.183	-0.349
-229.757	-200.000	0.031	-0.239
-228.742	103.644	0.197	0.227
-227.727	800.000	-0.097	0.377
-226.713	240.952	0.229	-0.375
-225.698	-17.471	-0.116	0.072
-224.684	-200.000	0.006	-0.296
-223.669	179.749	0.208	-0.299
-222.655	-3.016	-0.150	0.103
-221.640	-110.456	0.269	0.055
-220.625	-200.000	-0.029	-0.130
-219.611	543.828	-0.120	0.282
-218.596	-76.972	-0.074	0.025
-217.582	800.000	-0.054	0.227
-216.567	-98.058	-0.075	-0.019
-215.552	-169.109	-0.007	-0.000
-214.538	-200.000	0.004	0.259
-213.523	-19.637	-0.164	-0.100
-212.509	-58.452	-0.124	0.053
-211.494	-73.238	0.369	-0.133
-210.479	141.576	0.109	-0.142
-209.465	-197.299	-0.176	0.001
-208.450	345.879	0.239	0.460
-207.436	800.000	0.127	-0.476
-206.421	-117.251	-0.348	0.062
-205.406	635.312	-0.024	-0.061
-204.392	-200.000	0.022	-0.158
-203.377	83.733	-0.159	-0.170
-202.363	-103.027	-0.168	0.039
-201.348	548.602	0.100	0.234
-200.333	-27.483	-0.029	0.017
-199.319	247.978	0.112	0.186
-198.304	593.575	-0.078	-0.189
-197.290	-200.000	0.021	-0.130
-196.275	119.706	-0.183	-0.222
-195.260	416.765	-0.136	0.285
-194.246	-149.766	-0.390	0.030
-193.231	215.088	0.128	0.199
-192.217	-96.660	0.085	0.022
-191.202	172.407	0.117	0.164
-190.187	-128.366	-0.271	-0.038
-189.173	-200.000	0.023	0.123
-188.158	-47.293	0.118	0.056
-187.144	-1.064	0.137	0.095
-186.129	167.687	0.277	0.386
-185.114	-41.755	-0.233	0.117
-184.100	-200.000	0.008	-0.078
-183.085	-55.167	0.268	0.118
-182.071	281.269	0.128	0.224
-181.056	-87.641	0.356	-0.105
-180.042	93.819	-0.211	0.234
-179.027	-93.416	0.274	0.074
-178.012	-200.000	0.037	0.228
-176.998	286.883	-0.078	-0.137
-175.983	-200.000	-0.057	0.385
-174.969	31.634	0.193	0.163
-173.954	-200.000	0.005	-0.143
-172.939	-132.917	0.284	-0.035
-171.925	-200.000	0.041	-0.335
-170.910	444.414	-0.057	-0.122
-169.896	800.000	-0.069	-0.223
-168.881	-77.607	0.307	0.104
-167.866	215.832	0.097	-0.151
-166.852	-50.342	0.229	-0.106
-165.837	-71.357	0.089	0.033
-164.823	-37.751	-0.059	0.031
-163.808	-15.718	0.083	-0.052
-162.793	-200.000	-0.010	0.222
-161.779	-200.000	-0.011	-0.134
-160.764	-40.123	-0.137	0.070
-159.750	-59.051	-0.114	0.048
-158.735	76.685	-0.029	0.030
-157.720	-123.072	0.117	0.018
-156.706	-87.918	-0.403	0.119
-155.691	-200.000	0.001	0.055
-154.677	188.248	-0.179	-0.262
-153.662	63.420	-0.061	-0.060
-152.647	91.953	-0.118	0.130
-151.633	-200.000	-0.013	-0.148
-150.618	338.410	-0.151	0.288
-149.604	225.758	-0.070	0.111
-148.589	446.510	0.122	0.262
-147.574	800.000	0.032	0.118
-146.560	-56.368	-0.221	0.096
-145.545	-57.492	0.438	0.188
-144.531	-200.000	-0.327	0.001
-143.516	-4.388	-0.230	0.155
-142.502	204.762	-0.257	-0.390
-141.487	-65.920	0.069	0.027
-140.472	-66.694	0.299	-0.116
-139.458	-111.475	-0.257	0.051
-138.443	800.000	0.031	-0.101
-137.429	-139.828	-0.123	-0.013
-136.414	272.604	-0.166	0.286
-135.399	-200.000	0.066	0.334
-134.385	407.654	0.177	-0.366
-133.370	-13.052	0.150	0.095
-132.356	-125.329	0.117	-0.017
-131.341	-12.876	0.196	-0.125
-130.326	-92.038	-0.200	-0.055
-129.312	390.598	-0.097	0.197
-128.297	100.073	-0.057	-0.064
-127.283	280.008	-0.068	-0.118
-126.268	800.000	-0.066	0.239
-125.253	699.431	0.069	-0.176
-124.239	78.841	-0.107	-0.112
-123.224	84.515	-0.082	-0.088
-122.210	46.770	-0.203	0.184
-121.195	632.647	-0.077	-0.191
