DTS Sentinel unit serial number:	SN413079Multiplexer serial number:	ORYXHardware model number:	OX4-SRSoftware version number:	ORYX F/W v4.00 Oryx Data Collector v3.7.2.0data status	okinstallation	princeton_trtdifferential loss correction	single-endedforward channel	channel 3reverse channel	N/Adate	2019/09/11time	19:46:11forward acquisition time	60.00reverse acquisition time	0.00gamma	496.2192k internal	0.2298k external	0.2298temperature offset calibration	1.0016default loss term (dB/km)	0.3790temperature slope calibration	1.0000multiplexer offset coefficient	1.0000multiplexer slope coefficient	1.0000fibre end	0.00T internal ref (°C)	39.52T ext. ref 1 (°C)	1.36T ext. ref 2 (°C)	32.37length (m)	temperature (°C)	Stokes	anti-Stokes-747.200	403.849	-0.096	0.206
-746.185	-200.000	-0.024	0.140
-745.171	121.360	0.102	0.130
-744.156	-200.000	-0.033	0.182
-743.142	744.245	-0.097	0.265
-742.127	391.574	-0.077	0.164
-741.112	-12.690	0.185	-0.123
-740.098	-34.054	-0.171	0.096
-739.083	-200.000	-0.043	0.351
-738.069	-23.803	0.199	-0.122
-737.054	107.654	-0.083	0.101
-736.039	-105.679	-0.290	0.067
-735.025	20.392	0.116	0.096
-734.010	515.635	-0.094	-0.225
-732.996	310.480	0.145	-0.277
-731.981	-200.000	-0.244	-0.001
-730.966	387.880	-0.154	-0.325
-729.952	-200.000	0.026	-0.120
-728.937	-49.006	0.330	-0.161
-727.923	351.121	-0.217	0.438
-726.908	30.323	0.341	0.298
-725.894	-200.000	-0.025	0.125
-724.879	193.818	0.174	-0.269
-723.864	-114.319	0.159	-0.031
-722.850	41.194	0.130	0.120
-721.835	505.663	-0.024	-0.057
-720.821	116.439	-0.196	-0.245
-719.806	-29.246	0.192	-0.112
-718.791	-81.815	-0.098	-0.033
-717.777	665.293	-0.091	0.240
-716.762	81.972	-0.071	-0.079
-715.748	-70.714	-0.153	0.059
-714.733	-200.000	0.003	0.204
-713.718	-75.722	-0.287	-0.104
-712.704	165.073	-0.096	-0.138
-711.689	12.143	-0.275	-0.216
-710.675	800.000	0.058	-0.193
-709.660	92.479	-0.177	-0.204
-708.645	50.185	0.267	-0.257
-707.631	-48.656	-0.128	0.063
-706.616	800.000	0.023	0.083
-705.602	201.386	-0.084	0.131
-704.587	-44.376	0.191	-0.097
-703.572	-47.736	-0.312	0.154
-702.558	-176.059	-0.215	-0.006
-701.543	-179.869	-0.105	0.002
-700.529	-73.994	-0.013	-0.005
-699.514	9.411	0.192	-0.148
-698.499	-24.184	-0.226	-0.137
-697.485	800.000	0.070	0.199
-696.470	-200.000	-0.021	-0.383
-695.456	-37.563	0.193	0.105
-694.441	-102.187	0.232	-0.057
-693.426	324.686	0.124	0.241
-692.412	-200.000	0.032	0.147
-691.397	-182.535	-0.116	-0.002
-690.383	85.487	-0.017	0.019
-689.368	191.735	0.170	0.262
-688.354	-200.000	0.001	-0.301
-687.339	-200.000	0.012	0.332
-686.324	206.095	-0.199	-0.315
-685.310	-92.606	0.073	-0.021
-684.295	-151.321	0.262	0.020
-683.281	111.316	0.017	-0.021
-682.266	41.094	-0.272	0.250
-681.251	275.937	0.058	0.105
-680.237	322.938	0.057	0.110
-679.222	-7.214	-0.077	-0.053
-678.208	-112.819	0.067	0.013
-677.193	800.000	-0.054	0.160
-676.178	-188.348	0.475	-0.006
-675.164	-200.000	0.028	-0.174
-674.149	-146.090	-0.343	0.031
-673.135	-200.000	-0.023	0.166
-672.120	52.178	0.186	-0.181
-671.105	800.000	0.122	-0.368
-670.091	800.000	0.082	-0.333
-669.076	-24.208	0.130	-0.079
-668.062	72.776	-0.174	-0.185
-667.047	426.196	-0.064	-0.141
-666.032	533.734	-0.052	-0.125
-665.018	-38.775	-0.234	-0.125
-664.003	10.128	0.137	0.106
-662.989	-10.130	-0.107	-0.072
-661.974	137.142	0.131	-0.174
-660.959	-71.154	-0.292	-0.111
-659.945	-200.000	0.011	-0.077
-658.930	800.000	0.059	-0.231
-657.916	8.636	-0.241	-0.185
-656.901	-75.297	-0.292	0.106
-655.886	-64.676	0.111	-0.046
-654.872	55.107	0.158	0.155
-653.857	-200.000	0.022	-0.328
-652.843	6.965	-0.235	-0.178
-651.828	-51.746	-0.178	0.084
-650.814	183.710	0.112	0.169
-649.799	-163.398	0.273	-0.013
-648.784	-111.961	-0.091	0.019
-647.770	797.047	0.060	0.168
-646.755	40.416	-0.128	-0.117
-645.741	-45.539	-0.395	0.199
-644.726	23.639	-0.245	0.205
-643.711	-166.547	0.014	-0.001
-642.697	-200.000	0.012	0.064
-641.682	-23.840	-0.064	0.039
-640.668	1.046	0.193	-0.141
-639.653	798.892	-0.086	-0.240
-638.638	-77.287	-0.269	-0.095
-637.624	-42.247	0.191	-0.099
-636.609	233.321	-0.105	-0.175
-635.595	-31.122	0.178	-0.102
-634.580	800.000	-0.033	0.116
-633.565	-91.130	0.194	-0.057
-632.551	296.094	0.063	0.118
-631.536	-112.719	-0.126	-0.025
-630.522	-84.021	-0.496	-0.160
-629.507	-200.000	-0.098	0.000
-628.492	-106.847	-0.144	0.032
-627.478	22.656	-0.173	-0.144
-626.463	193.178	-0.055	-0.084
-625.449	-200.000	0.020	-0.172
-624.434	-80.524	0.215	-0.073
-623.419	-105.232	0.225	0.052
-622.405	288.583	0.064	-0.117
-621.390	387.314	0.153	0.322
-620.376	-169.339	-0.185	-0.007
-619.361	-29.137	-0.370	0.215
-618.346	219.187	-0.170	-0.276
-617.332	-200.000	0.053	0.241
-616.317	-74.140	-0.283	0.104
-615.303	134.400	0.158	-0.209
-614.288	-200.000	0.004	0.072
-613.273	112.723	-0.006	-0.007
-612.259	253.518	0.037	-0.063
-611.244	83.265	-0.100	0.110
-610.230	-186.570	-0.087	0.001
-609.215	-47.779	-0.307	-0.151
-608.201	138.784	0.240	-0.321
-607.186	411.462	0.098	-0.211
-606.171	-73.276	0.302	-0.112
-605.157	766.459	0.028	-0.078
-604.142	20.827	-0.317	-0.260
-603.128	-173.081	0.285	-0.009
-602.113	11.498	0.088	0.069
-601.098	-126.610	-0.167	0.025
-600.084	-118.266	-0.326	0.059
-599.069	-78.500	0.278	-0.097
-598.055	394.855	0.058	0.123
-597.040	-200.000	0.011	-0.130
-596.025	-200.000	0.015	0.210
-595.011	43.576	-0.036	-0.034
-593.996	155.779	-0.112	-0.156
-592.982	-109.007	-0.153	0.033
-591.967	143.276	-0.095	-0.128
-590.952	800.000	-0.022	0.086
-589.938	741.714	0.095	0.259
-588.923	-96.429	0.163	-0.044
-587.909	51.956	0.220	0.212
-586.894	-200.000	0.013	-0.114
-585.879	-42.958	0.391	0.201
-584.865	2.695	0.013	0.010
-583.850	-200.000	0.007	-0.182
-582.836	-200.000	0.005	-0.275
-581.821	429.956	-0.129	-0.282
-580.806	-61.289	0.125	0.053
-579.792	155.595	0.045	-0.063
-578.777	800.000	0.085	0.248
-577.763	28.109	0.117	-0.100
-576.748	-93.940	-0.344	-0.096
-575.733	-81.251	-0.310	0.104
-574.719	-141.131	0.190	-0.020
-573.704	556.510	0.022	0.053
-572.690	-33.956	-0.262	0.146
-571.675	-58.485	-0.151	0.067
-570.661	19.987	0.171	0.140
-569.646	-200.000	0.030	-0.211
-568.631	141.506	-0.177	-0.237
-567.617	-115.751	-0.493	-0.094
-566.602	292.430	0.175	-0.324
-565.588	277.211	0.103	-0.187
-564.573	-3.460	0.064	0.045
-563.558	115.877	-0.127	-0.158
-562.544	-57.011	0.155	-0.069
-561.529	-21.856	0.217	0.134
-560.515	82.618	0.201	-0.221
-559.500	800.000	-0.067	-0.205
-558.485	-29.510	0.241	0.140
-557.471	-93.544	-0.104	-0.029
-556.456	-0.592	-0.123	0.089
-555.442	-112.458	0.203	0.041
-554.427	-200.000	0.016	-0.077
-553.412	800.000	-0.029	-0.083
-552.398	153.176	-0.159	0.221
-551.383	241.827	0.091	0.154
-550.369	38.507	0.419	-0.378
-549.354	-9.354	0.210	0.142
-548.339	-26.841	0.118	-0.070
-547.325	253.792	0.156	-0.269
-546.310	-6.430	0.211	0.146
-545.296	-200.000	-0.066	-0.333
-544.281	-62.966	-0.112	0.047
-543.266	-54.972	-0.622	-0.284
-542.252	42.581	0.482	-0.444
-541.237	-54.128	-0.151	-0.069
-540.223	135.220	-0.057	-0.076
-539.208	-5.612	0.249	-0.173
-538.193	62.451	-0.134	-0.136
-537.179	-200.000	0.052	-0.247
-536.164	2.676	0.016	-0.012
-535.150	-65.126	0.290	0.119
-534.135	-134.764	0.235	-0.029
-533.121	2.150	0.281	-0.205
-532.106	-99.292	-0.198	-0.051
-531.091	-162.162	-0.449	-0.023
-530.077	105.846	0.058	-0.070
-529.062	-200.000	0.031	-0.180
-528.048	318.807	-0.089	0.171
-527.033	-120.729	0.028	-0.005
-526.018	8.923	0.180	0.137
-525.004	-200.000	-0.018	0.172
-523.989	3.972	0.475	0.351
-522.975	141.211	0.055	0.074
-521.960	77.860	-0.068	0.074
-520.945	-43.025	0.338	0.173
-519.931	1.544	-0.075	0.055
-518.916	800.000	-0.042	0.155
-517.902	-8.679	0.381	0.259
-516.887	52.251	-0.152	0.147
-515.872	800.000	0.096	0.356
-514.858	-200.000	-0.024	-0.245
-513.843	-80.975	0.264	-0.089
-512.829	-200.000	0.016	-0.084
-511.814	-10.301	0.243	-0.163
-510.799	-51.046	0.344	0.163
-509.785	800.000	0.019	-0.065
-508.770	-79.362	-0.152	0.052
-507.756	104.432	-0.076	-0.091
-506.741	-77.409	-0.019	0.007
-505.726	-200.000	0.044	-0.313
-504.712	-110.490	-0.298	0.063
-503.697	-146.597	-0.459	0.040
-502.683	-124.150	-0.225	0.036
-501.668	-42.567	-0.189	-0.097
-500.653	-55.753	-0.286	-0.129
-499.639	-142.103	-0.063	0.006
-498.624	-123.237	0.146	0.024
-497.610	147.113	-0.078	0.105
-496.595	303.908	0.080	0.150
-495.581	471.553	-0.075	0.171
-494.566	29.011	0.267	0.229
-493.551	4.346	-0.211	0.156
-492.537	146.466	-0.064	0.087
-491.522	545.628	0.125	0.302
-490.508	-200.000	-0.011	0.121
-489.493	-200.000	0.028	-0.128
-488.478	-3.201	-0.260	0.183
-487.464	-40.768	0.094	0.049
-486.449	416.870	-0.152	0.329
-485.435	-44.424	0.021	0.010
-484.420	272.068	0.074	-0.131
-483.405	2.263	-0.155	0.113
-482.391	589.525	0.054	0.135
-481.376	-50.605	0.054	-0.026
-480.362	800.000	0.029	0.104
-479.347	-76.503	0.404	0.143
-478.332	800.000	0.057	-0.167
-477.318	311.673	0.074	0.141
-476.303	800.000	-0.040	0.174
-475.289	26.004	0.080	0.068
-474.274	295.838	-0.105	-0.195
-473.259	556.718	0.125	-0.304
-472.245	-27.025	-0.249	0.146
-471.230	428.378	-0.147	0.320
-470.216	-200.000	-0.047	-0.256
-469.201	411.554	-0.226	-0.484
-468.186	800.000	0.042	0.160
-467.172	800.000	-0.108	-0.395
-466.157	-130.163	-0.245	0.034
-465.143	-157.743	-0.254	0.015
-464.128	249.426	-0.047	0.081
-463.113	219.621	-0.256	-0.413
-462.099	-7.675	0.240	0.164
-461.084	800.000	-0.043	0.153
-460.070	800.000	0.102	-0.363
-459.055	-58.391	-0.415	-0.182
-458.040	-33.609	-0.154	-0.086
-457.026	86.531	0.053	0.059
-456.011	-72.230	0.136	-0.051
-454.997	104.038	-0.083	0.098
-453.982	-142.855	0.175	0.017
-452.968	-200.000	0.005	-0.174
-451.953	-93.800	0.151	-0.042
-450.938	-167.925	-0.168	0.007
-449.924	188.505	-0.131	0.198
-448.909	-10.057	-0.238	-0.160
-447.895	156.638	-0.171	0.238
-446.880	4.431	0.085	0.063
-445.865	-114.275	0.215	0.042
-444.851	-83.171	0.062	-0.020
-443.836	315.930	0.064	-0.122
-442.822	800.000	-0.058	0.193
-441.807	166.822	0.096	-0.137
-440.792	800.000	-0.044	-0.135
-439.778	-56.317	0.202	0.090
-438.763	-200.000	0.014	0.074
-437.749	-63.402	-0.120	0.050
-436.734	613.220	-0.077	-0.194
-435.719	-63.224	0.096	-0.040
-434.705	165.570	0.104	-0.148
-433.690	89.144	-0.142	-0.160
-432.676	142.884	-0.276	-0.370
-431.661	-200.000	0.052	-0.250
-430.646	-46.099	-0.130	0.065
-429.632	130.594	-0.147	-0.190
-428.617	-88.189	0.054	-0.016
-427.603	800.000	0.123	0.442
-426.588	-200.000	-0.052	0.325
-425.573	800.000	0.060	-0.168
-424.559	-126.462	0.033	-0.005
-423.544	463.078	-0.137	0.308
-422.530	650.792	0.068	0.175
-421.515	800.000	-0.052	-0.154
-420.500	624.266	0.059	0.150
-419.486	800.000	-0.065	0.242
-418.471	181.129	-0.287	0.425
-417.457	146.151	-0.270	0.365
-416.442	98.610	-0.193	0.224
-415.428	-42.017	-0.067	0.034
-414.413	-31.575	-0.212	-0.120
-413.398	-115.182	0.232	0.044
-412.384	163.583	-0.132	-0.187
-411.369	-81.074	0.215	-0.072
-410.355	21.020	0.193	-0.158
-409.340	-7.248	-0.084	-0.057
-408.325	569.169	-0.189	0.463
-407.311	-200.000	-0.005	-0.173
-406.296	-181.053	-0.257	0.005
-405.282	-121.025	0.040	-0.007
-404.267	800.000	-0.041	0.119
-403.252	-200.000	-0.004	0.268
-402.238	358.692	-0.117	-0.234
-401.223	712.905	0.142	0.378
-400.209	140.681	0.203	-0.270
-399.194	-132.270	-0.450	-0.059
-398.179	-82.473	-0.314	-0.103
-397.165	800.000	-0.056	0.167
-396.150	-121.143	0.069	0.012
-395.136	363.352	0.118	-0.238
-394.121	800.000	0.048	0.153
-393.106	800.000	-0.084	-0.310
-392.092	495.320	0.155	-0.359
-391.077	-7.568	-0.179	-0.122
-390.063	-200.000	0.008	-0.376
-389.048	109.828	0.160	-0.193
-388.033	207.649	0.177	0.279
-387.019	-78.920	0.219	0.075
-386.004	-200.000	-0.003	-0.308
-384.990	-200.000	0.001	0.109
-383.975	173.841	-0.087	-0.127
-382.960	-62.120	0.176	-0.074
-381.946	331.927	0.073	-0.142
-380.931	-21.428	0.258	-0.159
-379.917	-82.283	0.225	-0.074
-378.902	-69.941	0.233	-0.090
-377.888	1.495	-0.104	0.075
-376.873	305.048	-0.036	-0.066
-375.858	800.000	0.070	0.235
-374.844	-200.000	0.013	0.103
-373.829	800.000	0.032	-0.111
-372.815	800.000	0.048	0.145
-371.800	40.503	-0.074	-0.067
-370.785	-78.984	0.151	-0.052
-369.771	-60.411	0.256	-0.109
-368.756	796.615	0.066	0.184
-367.742	-11.380	-0.222	0.147
-366.727	5.664	-0.263	0.196
-365.712	449.519	0.155	-0.345
-364.698	-52.368	0.188	-0.088
-363.683	95.241	-0.198	-0.226
-362.669	-162.946	0.075	-0.004
-361.654	131.737	0.079	-0.102
-360.639	800.000	0.033	0.138
-359.625	-200.000	0.011	-0.061
-358.610	169.957	0.064	0.092
-357.596	-81.508	-0.335	-0.111
-356.581	96.772	0.098	0.112
-355.566	-200.000	0.036	0.298
-354.552	-151.657	-0.251	-0.019
-353.537	45.973	0.081	-0.076
-352.523	677.988	0.054	-0.142
-351.508	-45.272	-0.149	0.074
-350.493	-200.000	-0.005	-0.289
-349.479	-107.321	0.221	0.049
-348.464	-200.000	-0.026	-0.212
-347.450	-63.109	-0.236	0.098
-346.435	-200.000	0.006	0.350
-345.420	348.599	-0.130	0.257
-344.406	-2.009	0.325	0.229
-343.391	800.000	-0.117	0.403
-342.377	-112.670	-0.153	0.031
-341.362	119.708	-0.131	0.163
-340.348	-78.853	-0.059	0.020
-339.333	143.091	0.061	-0.082
-338.318	69.697	-0.105	-0.109
-337.304	445.489	-0.102	-0.224
-336.289	-32.741	-0.194	-0.108
-335.275	50.360	-0.252	0.239
-334.260	-158.738	0.223	-0.013
-333.245	800.000	0.067	0.225
-332.231	-33.830	0.196	0.108
-331.216	-105.414	0.188	0.043
-330.202	800.000	-0.038	0.160
-329.187	800.000	-0.068	0.273
-328.172	374.649	0.076	0.155
-327.158	403.605	-0.135	0.286
-326.143	493.796	0.174	0.402
-325.129	3.944	-0.334	-0.245
-324.114	-131.474	0.251	-0.033
-323.099	-200.000	-0.022	-0.271
-322.085	231.127	-0.232	-0.381
-321.070	800.000	-0.083	-0.290
-320.056	457.145	0.060	-0.133
-319.041	28.809	-0.303	0.258
-318.026	124.568	-0.287	0.362
-317.012	-43.902	0.086	-0.043
-315.997	-164.824	-0.215	0.010
-314.983	335.814	0.061	-0.118
-313.968	542.198	-0.162	-0.387
-312.953	153.747	0.056	0.077
-311.939	-192.898	0.140	-0.001
-310.924	96.230	0.146	-0.168
-309.910	75.766	0.227	0.241
-308.895	-119.342	-0.133	-0.023
-307.880	56.048	0.216	-0.210
-306.866	-200.000	-0.032	-0.201
-305.851	800.000	-0.059	-0.193
-304.837	-200.000	0.010	-0.200
-303.822	46.841	0.090	0.084
-302.807	363.514	0.048	0.097
-301.793	-185.383	0.266	-0.004
-300.778	-136.374	-0.295	-0.034
-299.764	-198.656	0.358	-0.002
-298.749	-142.418	0.437	0.043
-297.735	-31.767	0.288	0.162
-296.720	-57.507	-0.124	0.054
-295.705	-37.176	-0.290	0.156
-294.691	206.416	0.022	-0.034
-293.676	800.000	-0.058	0.214
-292.662	-37.538	0.233	-0.125
-291.647	25.384	-0.077	-0.064
-290.632	800.000	0.036	0.127
-289.618	-36.533	-0.081	0.044
-288.603	-17.187	-0.166	-0.105
-287.589	-200.000	-0.030	0.134
-286.574	-39.296	0.413	0.217
-285.559	294.444	-0.071	0.129
-284.545	800.000	0.138	-0.415
-283.530	-42.551	-0.302	-0.154
-282.516	43.233	0.240	-0.220
-281.501	272.911	-0.098	-0.174
-280.486	-84.236	-0.321	0.102
-279.472	-127.143	0.240	-0.035
-278.457	97.921	0.158	0.183
-277.443	35.056	-0.234	0.206
-276.428	-200.000	-0.006	-0.133
-275.413	800.000	0.026	0.101
-274.399	367.097	0.125	0.252
-273.384	41.423	0.139	0.126
-272.370	-108.542	-0.195	-0.042
-271.355	74.218	-0.261	-0.275
-270.340	800.000	0.084	-0.259
-269.326	-8.363	-0.253	0.171
-268.311	799.311	0.072	0.200
-267.297	-86.886	0.194	-0.059
-266.282	-42.322	-0.061	-0.031
-265.267	-7.274	0.335	-0.227
-264.253	678.862	-0.082	0.213
-263.238	-126.550	-0.204	0.030
-262.224	-15.849	0.200	0.127
-261.209	112.702	-0.042	0.051
-260.195	-200.000	0.007	-0.055
-259.180	-72.202	0.151	-0.056
-258.165	-17.186	0.063	0.040
-257.151	583.668	-0.055	0.136
-256.136	224.144	-0.094	-0.153
-255.122	-137.938	-0.031	0.003
-254.107	54.234	-0.134	-0.129
-253.092	-94.806	0.380	0.103
-252.078	-79.255	0.128	-0.043
-251.063	-10.723	-0.318	0.211
-250.049	800.000	0.014	-0.061
-249.034	292.562	-0.063	-0.115
-248.019	355.408	-0.025	-0.049
-247.005	-166.517	-0.172	0.007
-245.990	-111.981	-0.236	-0.048
-244.976	800.000	-0.060	-0.211
-243.961	255.521	-0.067	0.115
-242.946	75.558	0.122	0.129
-241.932	283.189	0.044	-0.078
-240.917	-22.031	-0.141	0.086
-239.903	-200.000	0.009	-0.049
-238.888	30.973	-0.140	-0.120
-237.873	-143.632	0.253	-0.024
-236.859	-3.625	-0.076	-0.053
-235.844	-200.000	-0.038	-0.306
-234.830	94.950	-0.031	0.035
-233.815	-195.282	0.139	-0.001
-232.800	123.461	0.096	0.120
-231.786	350.436	0.073	0.144
-230.771	231.869	-0.140	-0.230
-229.757	-200.000	-0.029	0.297
-228.742	-200.000	0.000	-0.032
-227.727	431.119	0.080	-0.174
-226.713	-125.389	0.091	0.014
-225.698	609.633	0.028	0.071
-224.684	-58.724	0.066	-0.029
-223.669	-200.000	0.121	-0.000
-222.655	800.000	-0.096	-0.285
-221.640	72.549	0.068	0.071
-220.625	-78.057	-0.182	0.063
-219.611	-163.598	-0.110	0.005
-218.596	230.734	0.096	0.157
-217.582	-200.000	-0.062	0.316
-216.567	-200.000	0.005	-0.473
-215.552	322.004	0.076	0.145
-214.538	50.418	0.279	0.264
-213.523	55.656	-0.149	-0.145
-212.509	-200.000	-0.014	-0.078
-211.494	-144.297	-0.091	0.008
-210.479	26.340	-0.209	-0.175
-209.465	-34.036	0.156	-0.086
-208.450	-78.488	-0.181	0.062
-207.436	-32.791	0.200	0.111
-206.421	-200.000	0.009	-0.123
-205.406	212.851	0.128	0.202
-204.392	-27.113	-0.116	0.068
-203.377	-42.867	-0.390	0.198
-202.363	-200.000	0.056	0.293
-201.348	304.279	-0.198	0.366
-200.333	442.433	0.039	-0.085
-199.319	474.637	0.144	0.325
-198.304	51.095	-0.011	0.011
-197.290	-58.252	-0.037	-0.016
-196.275	-119.496	-0.217	-0.038
-195.260	-74.878	-0.405	0.145
-194.246	-101.705	0.311	-0.075
-193.231	800.000	0.171	0.522
-192.217	26.235	-0.050	0.042
-191.202	-108.777	-0.157	-0.034
-190.187	439.534	0.071	0.154
-189.173	800.000	0.011	0.046
-188.158	-200.000	0.066	0.405
-187.144	227.910	0.019	0.031
-186.129	268.948	0.124	0.218
-185.114	204.245	0.165	0.256
-184.100	-88.124	0.184	-0.055
-183.085	800.000	-0.048	-0.190
-182.071	162.955	0.189	-0.266
-181.056	-97.095	0.426	0.111
-180.042	-13.158	0.301	0.195
-179.027	-52.444	0.216	-0.100
-178.012	-200.000	0.004	-0.028
-176.998	-34.424	-0.151	0.083
-175.983	-200.000	0.033	-0.363
-174.969	-86.062	-0.049	0.015
-173.954	-36.766	-0.056	0.030
-172.939	-12.761	0.057	-0.037
-171.925	-57.790	0.150	0.065
-170.910	49.708	-0.151	-0.142
-169.896	-200.000	0.006	-0.092
-168.881	-200.000	0.004	-0.024
-167.866	-68.025	0.072	-0.028
-166.852	171.163	0.194	-0.278
-165.837	-64.505	-0.110	-0.045
-164.823	274.074	-0.062	-0.110
-163.808	800.000	0.135	-0.423
-162.793	-200.000	0.027	-0.146
-161.779	10.955	0.241	0.184
-160.764	80.227	0.290	0.311
-159.750	417.693	-0.179	0.381
-158.735	-158.049	-0.104	-0.006
-157.720	-94.818	0.110	-0.030
-156.706	-37.058	0.090	0.048
-155.691	-200.000	-0.034	0.222
-154.677	-200.000	-0.015	0.233
-153.662	-50.999	0.171	-0.080
-152.647	-151.792	-0.174	0.013
-151.633	-193.340	0.041	0.000
-150.618	48.763	0.143	-0.134
-149.604	-200.000	-0.006	-0.095
-148.589	234.415	-0.122	-0.201
-147.574	800.000	-0.112	0.359
-146.560	-53.205	-0.169	-0.078
-145.545	-18.121	0.059	0.037
-144.531	-200.000	-0.034	0.431
-143.516	-63.626	0.339	-0.139
-142.502	49.689	0.101	-0.095
-141.487	2.958	0.037	0.027
-140.472	-200.000	0.008	-0.216
-139.458	-121.781	0.235	-0.039
-138.443	-91.280	-0.169	-0.048
-137.429	-200.000	0.038	-0.415
-136.414	74.672	0.133	-0.140
-135.399	-117.874	-0.153	0.027
-134.385	-200.000	0.004	-0.190
-133.370	800.000	0.070	-0.306
-132.356	-200.000	-0.007	-0.235
-131.341	50.731	-0.157	-0.149
-130.326	-172.487	-0.188	0.006
-129.312	283.973	0.094	0.168
-128.297	-139.958	0.447	0.047
-127.283	800.000	0.050	-0.187
-126.268	44.304	0.106	-0.097
-125.253	-88.981	-0.236	-0.070
-124.239	-200.000	-0.092	-0.435
-123.224	322.604	0.089	-0.170
-122.210	-130.772	-0.222	0.030
-121.195	-200.000	-0.001	0.187
-120.180	800.000	-0.041	-0.129
