DTS Sentinel unit serial number:	SN413079Multiplexer serial number:	ORYXHardware model number:	OX4-SRSoftware version number:	ORYX F/W v4.00 Oryx Data Collector v3.7.2.0data status	okinstallation	princeton_trtdifferential loss correction	single-endedforward channel	channel 3reverse channel	N/Adate	2019/09/10time	18:06:11forward acquisition time	60.00reverse acquisition time	0.00gamma	496.2192k internal	0.2302k external	0.2302temperature offset calibration	0.9914default loss term (dB/km)	0.3790temperature slope calibration	1.0000multiplexer offset coefficient	1.0000multiplexer slope coefficient	1.0000fibre end	0.00T internal ref (°C)	36.91T ext. ref 1 (°C)	-0.37T ext. ref 2 (°C)	29.23length (m)	temperature (°C)	Stokes	anti-Stokes-747.200	800.000	0.066	0.237
-746.185	87.386	0.170	0.192
-745.171	-35.128	0.073	-0.040
-744.156	170.497	0.042	-0.062
-743.142	-200.000	0.007	-0.127
-742.127	-200.000	0.011	0.140
-741.112	-33.435	0.146	0.082
-740.098	18.998	0.362	0.296
-739.083	-22.297	-0.383	0.237
-738.069	-161.915	0.325	-0.017
-737.054	29.226	-0.199	0.172
-736.039	22.549	-0.172	0.143
-735.025	-111.041	0.039	-0.008
-734.010	108.836	-0.164	-0.199
-732.996	-200.000	0.023	-0.104
-731.981	-133.182	-0.192	-0.025
-730.966	-153.855	-0.221	0.015
-729.952	800.000	-0.038	0.136
-728.937	85.207	-0.094	0.105
-727.923	-46.456	-0.221	-0.110
-726.908	800.000	-0.033	0.102
-725.894	184.443	-0.019	-0.029
-724.879	-122.542	-0.173	-0.029
-723.864	-20.159	-0.026	0.016
-722.850	-91.486	0.409	-0.119
-721.835	-98.018	-0.187	-0.049
-720.821	-7.401	0.211	-0.146
-719.806	-200.000	-0.002	-0.233
-718.791	-40.919	0.126	-0.066
-717.777	18.744	-0.023	0.018
-716.762	-15.339	0.098	-0.064
-715.748	7.289	0.181	-0.138
-714.733	-40.927	0.694	-0.365
-713.718	204.192	0.061	0.096
-712.704	154.190	-0.129	0.180
-711.689	304.675	-0.071	0.134
-710.675	794.038	0.056	-0.156
-709.660	363.504	0.127	0.259
-708.645	-44.799	-0.119	-0.060
-707.631	226.399	0.112	0.186
-706.616	800.000	0.095	-0.313
-705.602	-49.586	0.236	0.114
-704.587	-200.000	-0.024	-0.141
-703.572	-67.835	0.277	0.110
-702.558	-148.245	0.452	-0.038
-701.543	-200.000	0.007	0.072
-700.529	800.000	0.056	0.226
-699.514	-124.170	0.148	0.024
-698.499	146.847	-0.229	0.313
-697.485	200.773	-0.078	-0.123
-696.470	32.887	-0.062	-0.055
-695.456	-48.005	-0.386	-0.190
-694.441	-195.683	0.249	-0.002
-693.426	-91.720	0.111	0.032
-692.412	291.768	0.076	-0.141
-691.397	-117.879	0.008	0.001
-690.383	-77.248	-0.069	0.024
-689.368	115.158	-0.022	-0.028
-688.354	-80.862	-0.067	-0.023
-687.339	44.066	-0.223	-0.208
-686.324	-200.000	0.018	-0.197
-685.310	49.546	0.228	0.218
-684.295	-110.740	0.474	0.099
-683.281	-197.198	0.166	0.001
-682.266	-54.114	0.137	0.063
-681.251	-22.495	-0.182	-0.112
-680.237	-200.000	0.010	-0.178
-679.222	11.332	-0.086	-0.067
-678.208	-57.258	-0.286	-0.128
-677.193	-152.309	0.238	-0.017
-676.178	-36.632	-0.318	-0.174
-675.164	-46.201	0.294	-0.147
-674.149	-60.971	-0.404	0.173
-673.135	700.768	0.055	0.146
-672.120	186.617	0.186	-0.282
-671.105	-61.222	-0.283	-0.121
-670.091	-63.175	-0.354	-0.148
-669.076	-200.000	0.065	-0.319
-668.062	-125.553	-0.463	0.071
-667.047	-200.000	-0.020	0.245
-666.032	29.145	-0.093	-0.080
-665.018	21.950	-0.182	-0.151
-664.003	-200.000	-0.058	-0.268
-662.989	299.736	-0.097	-0.181
-661.974	-200.000	-0.057	-0.287
-660.959	-200.000	-0.003	0.178
-659.945	157.085	-0.181	-0.254
-658.930	-85.621	0.227	0.072
-657.916	316.259	-0.058	0.111
-656.901	-200.000	-0.010	0.151
-655.886	211.688	-0.110	-0.176
-654.872	-45.590	0.103	0.052
-653.857	-148.305	0.203	-0.017
-652.843	289.540	-0.149	0.275
-651.828	-78.157	-0.371	0.130
-650.814	-200.000	-0.010	-0.374
-649.799	-200.000	0.002	0.061
-648.784	-47.879	-0.124	0.061
-647.770	-110.740	-0.316	0.066
-646.755	-56.740	0.186	0.083
-645.741	7.528	-0.148	0.113
-644.726	143.060	0.094	0.127
-643.711	800.000	0.052	0.154
-642.697	-37.152	0.250	0.136
-641.682	-127.915	-0.137	0.020
-640.668	-54.348	0.183	0.084
-639.653	-200.000	-0.039	0.214
-638.638	111.656	-0.126	-0.154
-637.624	-123.910	-0.165	-0.026
-636.609	-72.181	0.264	-0.100
-635.595	-200.000	0.013	0.161
-634.580	144.232	-0.191	0.258
-633.565	-90.380	-0.163	0.048
-632.551	222.593	-0.262	-0.429
-631.536	37.923	-0.087	0.079
-630.522	-36.520	-0.042	0.023
-629.507	132.857	-0.117	0.153
-628.492	800.000	-0.032	-0.105
-627.478	211.976	0.124	-0.199
-626.463	-200.000	-0.075	0.384
-625.449	9.730	0.140	0.108
-624.434	49.816	-0.342	-0.327
-623.419	-200.000	-0.030	-0.179
-622.405	-38.587	-0.225	0.121
-621.390	241.182	0.073	-0.124
-620.376	104.381	0.095	0.114
-619.361	-22.127	-0.187	0.115
-618.346	32.902	0.049	0.043
-617.332	-200.000	0.023	-0.118
-616.317	-145.633	0.081	0.007
-615.303	-51.842	-0.156	-0.074
-614.288	27.763	0.028	0.024
-613.273	-111.511	0.331	-0.068
-612.259	-26.763	0.400	-0.237
-611.244	-200.000	-0.026	-0.234
-610.230	-1.337	0.076	-0.054
-609.215	-200.000	-0.013	-0.161
-608.201	-81.521	0.329	-0.110
-607.186	-131.561	0.042	-0.006
-606.171	-15.135	0.225	-0.146
-605.157	-34.578	0.109	-0.061
-604.142	-24.179	0.152	-0.092
-603.128	30.224	0.130	0.112
-602.113	126.545	0.068	0.087
-601.098	-112.674	-0.095	-0.019
-600.084	69.047	0.009	0.010
-599.069	800.000	-0.081	0.237
-598.055	-83.820	0.083	-0.027
-597.040	-200.000	0.090	-0.425
-596.025	292.919	-0.190	0.351
-595.011	-35.484	-0.130	0.071
-593.996	800.000	0.079	-0.260
-592.982	-42.464	0.267	0.138
-591.967	387.288	0.065	0.135
-590.952	-39.622	-0.434	0.230
-589.938	471.940	-0.073	0.166
-588.923	-53.354	-0.239	-0.111
-587.909	-138.524	0.387	0.043
-586.894	207.026	0.162	-0.256
-585.879	107.122	-0.107	-0.128
-584.865	50.198	-0.065	-0.062
-583.850	-200.000	-0.034	-0.298
-582.836	-52.569	0.245	-0.115
-581.821	-46.081	0.083	0.041
-580.806	191.207	0.106	0.161
-579.792	-16.977	0.200	0.128
-578.777	-161.433	0.101	0.005
-577.763	251.740	0.189	-0.327
-576.748	-0.876	0.228	-0.164
-575.733	630.871	0.154	-0.394
-574.719	575.825	0.117	0.289
-573.704	-200.000	0.046	0.305
-572.690	-200.000	0.003	-0.407
-571.675	45.710	-0.133	-0.125
-570.661	264.037	0.033	-0.059
-569.646	205.696	0.057	-0.090
-568.631	-92.395	0.170	0.048
-567.617	534.890	0.062	0.149
-566.602	-200.000	0.000	0.300
-565.588	-86.807	0.118	-0.036
-564.573	70.823	0.204	0.214
-563.558	105.429	-0.119	0.142
-562.544	-151.940	0.176	0.013
-561.529	-200.000	-0.002	-0.138
-560.515	-168.096	-0.167	-0.007
-559.500	28.779	-0.045	-0.039
-558.485	-200.000	0.018	0.144
-557.471	800.000	-0.078	-0.252
-556.456	-65.500	-0.180	0.073
-555.442	149.742	-0.131	-0.180
-554.427	614.337	0.111	0.280
-553.412	-111.542	0.352	-0.072
-552.398	-126.314	-0.089	0.013
-551.383	-35.509	0.299	0.165
-550.369	-200.000	-0.001	0.057
-549.354	-81.631	-0.246	0.082
-548.339	208.060	0.127	-0.201
-547.325	-35.943	0.212	0.116
-546.310	352.343	0.079	0.159
-545.296	-17.328	0.198	-0.126
-544.281	-200.000	-0.030	-0.163
-543.266	-89.994	0.171	-0.050
-542.252	-143.039	-0.199	-0.019
-541.237	-34.084	0.217	0.121
-540.223	-12.142	-0.226	0.150
-539.208	101.573	-0.164	0.193
-538.193	-132.231	-0.141	-0.018
-537.179	187.467	0.068	-0.103
-536.164	-196.957	0.105	0.001
-535.150	-200.000	-0.006	0.086
-534.135	482.475	0.101	-0.232
-533.121	-86.503	-0.135	0.042
-532.106	-200.000	0.034	-0.347
-531.091	66.766	0.120	-0.123
-530.077	-12.815	0.151	-0.099
-529.062	-185.669	0.285	0.004
-528.048	-26.656	-0.259	0.153
-527.033	120.841	0.110	0.138
-526.018	-200.000	0.053	-0.304
-525.004	-174.515	0.360	0.010
-523.989	-31.935	-0.148	-0.084
-522.975	-126.964	-0.351	-0.052
-521.960	92.600	-0.103	0.118
-520.945	69.870	-0.107	-0.112
-519.931	97.480	0.122	0.142
-518.916	-180.213	-0.320	-0.007
-517.902	-155.240	0.323	-0.021
-516.887	668.901	0.031	0.081
-515.872	235.924	0.162	-0.271
-514.858	-124.285	-0.167	0.026
-513.843	197.621	-0.065	-0.101
-512.829	-87.487	-0.055	0.017
-511.814	-2.661	-0.134	-0.094
-510.799	-92.426	0.023	-0.007
-509.785	239.091	-0.065	-0.109
-508.770	-186.198	0.280	-0.004
-507.756	-70.081	0.387	-0.149
-506.741	-162.852	0.114	-0.006
-505.726	147.756	-0.138	0.188
-504.712	48.462	-0.232	-0.219
-503.697	-41.623	-0.226	-0.117
-502.683	-72.102	0.104	-0.039
-501.668	-84.504	0.127	0.041
-500.653	-2.596	-0.246	0.174
-499.639	800.000	0.089	-0.270
-498.624	-96.406	0.473	0.126
-497.610	800.000	-0.064	-0.200
-496.595	186.218	0.074	0.112
-495.581	-121.095	0.179	-0.030
-494.566	-200.000	-0.028	-0.464
-493.551	-110.067	0.110	0.023
-492.537	178.987	-0.116	0.171
-491.522	-49.633	-0.361	0.173
-490.508	-115.914	0.062	0.012
-489.493	78.432	-0.214	0.230
-488.478	343.182	-0.039	-0.076
-487.464	-200.000	-0.005	-0.125
-486.449	800.000	0.082	0.246
-485.435	138.606	0.194	-0.257
-484.420	762.193	-0.064	-0.176
-483.405	-8.693	0.214	0.145
-482.391	679.200	0.031	0.082
-481.376	38.028	-0.118	0.106
-480.362	314.191	-0.063	-0.120
-479.347	462.506	-0.074	0.167
-478.332	352.269	0.152	0.303
-477.318	-60.515	-0.143	-0.061
-476.303	-97.079	-0.071	-0.019
-475.289	-78.149	0.227	0.079
-474.274	183.647	0.096	-0.142
-473.259	-24.087	0.189	-0.114
-472.245	-200.000	-0.018	-0.093
-471.230	-200.000	0.017	-0.324
-470.216	74.593	-0.038	-0.040
-469.201	34.075	0.090	-0.079
-468.186	-21.531	0.096	-0.059
-467.172	71.580	0.148	0.155
-466.157	8.791	-0.180	-0.137
-465.143	-200.000	-0.003	-0.121
-464.128	-94.277	-0.075	-0.021
-463.113	-9.468	-0.570	0.384
-462.099	135.246	-0.265	-0.348
-461.084	-136.393	-0.103	-0.012
-460.070	800.000	-0.102	-0.427
-459.055	160.094	0.123	-0.172
-458.040	-57.694	-0.232	-0.102
-457.026	100.550	0.096	-0.112
-456.011	104.231	0.285	0.338
-454.997	3.313	-0.250	-0.183
-453.982	-83.933	-0.206	0.066
-452.968	-43.628	0.245	-0.124
-451.953	-116.977	-0.182	0.033
-450.938	-193.565	-0.177	-0.002
-449.924	800.000	-0.035	-0.151
-448.909	800.000	-0.058	-0.235
-447.895	59.031	-0.162	-0.160
-446.880	800.000	0.115	-0.434
-445.865	17.644	0.275	-0.221
-444.851	245.017	0.133	-0.226
-443.836	-200.000	-0.007	-0.218
-442.822	425.547	-0.111	0.241
-441.807	-43.778	0.244	0.124
-440.792	-13.218	0.222	-0.146
-439.778	206.282	-0.090	0.141
-438.763	-138.507	0.308	0.034
-437.749	-147.261	0.080	0.007
-436.734	75.598	0.082	0.087
-435.719	12.941	-0.169	0.131
-434.705	44.774	-0.034	0.031
-433.690	-175.833	-0.040	0.001
-432.676	678.521	-0.097	0.255
-431.661	-200.000	0.004	0.091
-430.646	-143.894	-0.060	0.006
-429.632	123.872	-0.047	-0.060
-428.617	800.000	-0.061	-0.174
-427.603	12.465	-0.285	-0.221
-426.588	-60.561	0.186	-0.079
-425.573	8.195	-0.072	0.054
-424.559	690.842	-0.139	0.366
-423.544	-12.484	0.228	0.150
-422.530	92.423	0.055	-0.062
-421.515	226.750	0.094	0.153
-420.500	-200.000	-0.028	0.241
-419.486	48.784	0.193	-0.182
-418.471	-4.030	0.084	0.059
-417.457	-11.479	-0.199	0.132
-416.442	-101.735	-0.206	-0.050
-415.428	721.104	-0.205	0.549
-414.413	-138.678	-0.151	0.017
-413.398	14.600	-0.246	0.193
-412.384	404.573	0.129	0.274
-411.369	0.990	0.064	-0.046
-410.355	-61.088	-0.359	0.152
-409.340	382.150	0.091	0.188
-408.325	-174.385	-0.145	-0.004
-407.311	-200.000	0.045	0.229
-406.296	1.982	0.158	0.114
-405.282	-81.455	-0.268	-0.089
-404.267	-197.245	0.264	-0.002
-403.252	-200.000	-0.010	0.227
-402.238	-174.414	0.193	0.006
-401.223	284.390	-0.106	-0.192
-400.209	-17.304	0.094	0.060
-399.194	-111.962	0.154	0.031
-398.179	270.552	-0.047	-0.082
-397.165	436.515	-0.093	-0.204
-396.150	57.474	0.311	-0.305
-395.136	50.141	0.172	-0.163
-394.121	17.188	0.190	0.151
-393.106	-79.694	-0.200	0.068
-392.092	-200.000	0.050	-0.381
-391.077	671.724	0.030	-0.078
-390.063	191.589	-0.162	0.246
-389.048	-19.875	-0.122	-0.076
-388.033	-53.783	0.364	-0.167
-387.019	142.797	0.199	-0.265
-386.004	13.725	-0.318	0.249
-384.990	176.800	-0.118	0.172
-383.975	800.000	-0.036	0.104
-382.960	-113.690	0.310	0.061
-381.946	38.336	-0.178	0.159
-380.931	2.523	-0.235	0.171
-379.917	419.033	-0.112	-0.240
-378.902	23.311	-0.047	-0.038
-377.888	-200.000	0.009	-0.053
-376.873	324.374	-0.004	-0.007
-375.858	72.422	0.101	0.105
-374.844	-98.197	0.275	0.071
-373.829	134.360	-0.067	0.087
-372.815	24.295	-0.116	-0.096
-371.800	194.371	-0.082	0.125
-370.785	-46.493	-0.304	0.150
-369.771	-51.567	-0.121	0.057
-368.756	357.504	0.226	-0.453
-367.742	652.127	0.084	-0.216
-366.727	-200.000	0.011	0.156
-365.712	95.656	-0.237	0.272
-364.698	-62.977	-0.087	0.036
-363.683	62.856	0.084	-0.085
-362.669	-30.779	-0.110	-0.063
-361.654	352.072	-0.035	-0.069
-360.639	-77.661	0.080	0.028
-359.625	-142.934	-0.263	0.026
-358.610	-8.943	0.182	0.122
-357.596	800.000	-0.056	-0.182
-356.581	-200.000	-0.064	-0.289
-355.566	-144.674	-0.334	-0.031
-354.552	-200.000	0.016	-0.158
-353.537	41.627	0.157	0.143
-352.523	48.299	0.203	-0.191
-351.508	-53.998	-0.170	-0.078
-350.493	-127.384	-0.167	-0.024
-349.479	-153.011	-0.146	0.010
-348.464	-27.281	-0.186	0.109
-347.450	-94.586	0.132	0.036
-346.435	121.057	-0.188	0.235
-345.420	-200.000	0.001	0.261
-344.406	118.342	0.299	0.370
-343.391	-71.979	-0.167	0.062
-342.377	216.243	-0.079	-0.126
-341.362	-192.721	0.430	0.004
-340.348	-23.628	-0.188	0.113
-339.333	30.494	-0.257	0.221
-338.318	-68.848	0.102	0.039
-337.304	394.554	0.115	-0.240
-336.289	88.174	0.185	-0.206
-335.275	686.923	-0.094	0.246
-334.260	-200.000	0.032	0.338
-333.245	544.258	-0.097	0.231
-332.231	-200.000	0.059	-0.430
-331.216	-64.206	0.041	0.017
-330.202	441.091	-0.190	-0.417
-329.187	-54.099	0.185	0.084
-328.172	68.474	-0.089	0.091
-327.158	800.000	0.095	0.373
-326.143	120.021	0.163	-0.202
-325.129	-52.625	0.323	0.150
-324.114	-137.088	-0.181	-0.021
-323.099	800.000	0.048	0.144
-322.085	-49.883	0.234	-0.111
-321.070	800.000	-0.054	-0.195
-320.056	-53.955	0.187	-0.085
-319.041	84.840	0.216	0.237
-318.026	-85.347	-0.220	0.069
-317.012	261.142	-0.214	0.371
-315.997	-70.841	-0.157	-0.059
-314.983	-61.377	-0.194	-0.082
-313.968	114.777	0.121	0.148
-312.953	-58.195	-0.089	0.039
-311.939	-28.630	-0.063	-0.036
-310.924	-200.000	0.020	0.143
-309.910	167.651	-0.159	-0.226
-308.895	121.848	-0.271	0.339
-307.880	1.600	-0.277	-0.200
-306.866	15.782	-0.146	0.115
-305.851	254.297	-0.098	0.167
-304.837	137.121	-0.154	-0.202
-303.822	-57.268	0.095	-0.042
-302.807	800.000	-0.080	0.273
-301.793	-36.617	-0.123	0.066
-300.778	102.257	0.144	-0.169
-299.764	61.995	0.334	0.333
-298.749	144.383	0.272	-0.364
-297.735	432.889	0.056	0.121
-296.720	-71.027	-0.063	0.024
-295.705	46.587	0.068	0.063
-294.691	-134.012	-0.348	-0.043
-293.676	16.561	-0.408	-0.323
-292.662	800.000	-0.022	-0.083
-291.647	-200.000	0.004	-0.223
-290.632	470.589	0.006	0.013
-289.618	292.914	-0.071	0.130
-288.603	800.000	0.068	0.240
-287.589	-200.000	-0.031	0.299
-286.574	-200.000	0.038	0.371
-285.559	-200.000	-0.051	-0.624
-284.545	61.647	-0.249	-0.248
-283.530	329.446	0.117	0.225
-282.516	-200.000	0.015	-0.209
-281.501	413.490	-0.125	-0.267
-280.486	-200.000	0.067	0.401
-279.472	520.972	-0.033	0.079
-278.457	104.993	-0.128	-0.151
-277.443	612.541	0.150	0.375
-276.428	-200.000	-0.003	0.014
-275.413	800.000	-0.055	-0.218
-274.399	12.020	-0.244	0.188
-273.384	-65.001	-0.108	0.044
-272.370	124.386	0.126	-0.158
-271.355	757.591	-0.111	-0.301
-270.340	-74.766	0.213	0.077
-269.326	800.000	0.105	0.298
-268.311	-200.000	0.011	-0.255
-267.297	636.192	0.036	-0.093
-266.282	-23.881	0.460	-0.275
-265.267	91.068	-0.176	0.197
-264.253	289.429	0.048	0.086
-263.238	-51.359	-0.233	0.109
-262.224	-38.985	-0.087	-0.046
-261.209	18.478	-0.178	-0.142
-260.195	9.178	-0.332	0.251
-259.180	800.000	0.059	-0.175
-258.165	-200.000	0.012	0.276
-257.151	459.522	-0.154	0.343
-256.136	275.386	0.039	-0.068
-255.122	-146.951	-0.137	0.012
-254.107	507.116	0.101	-0.235
-253.092	-200.000	0.001	-0.064
-252.078	-200.000	-0.036	-0.406
-251.063	-169.024	-0.226	-0.008
-250.049	-34.526	0.298	-0.163
-249.034	-167.565	-0.109	0.004
-248.019	55.730	-0.081	-0.079
-247.005	-13.594	0.390	0.252
-245.990	800.000	0.036	-0.153
-244.976	-171.345	-0.141	-0.005
-243.961	-133.490	0.137	-0.017
-242.946	89.303	0.168	-0.188
-241.932	408.970	0.077	-0.163
-240.917	196.287	0.216	-0.328
-239.903	705.331	-0.047	-0.124
-238.888	-94.005	0.355	0.097
-237.873	-53.620	-0.128	-0.059
-236.859	-103.792	0.262	-0.061
-235.844	285.719	0.086	0.156
-234.830	-200.000	0.098	0.519
-233.815	-112.530	-0.176	0.035
-232.800	-108.464	0.156	-0.034
-231.786	800.000	-0.050	-0.193
-230.771	-200.000	0.037	-0.331
-229.757	130.324	-0.218	-0.279
-228.742	-161.169	-0.172	0.009
-227.727	800.000	-0.024	0.073
-226.713	800.000	0.022	-0.075
-225.698	-78.630	-0.281	-0.096
-224.684	-31.189	-0.020	0.011
-223.669	44.537	-0.339	-0.311
-222.655	-137.120	0.538	-0.061
-221.640	-133.135	0.233	-0.029
-220.625	-200.000	0.010	0.284
-219.611	-74.765	0.098	0.035
-218.596	216.048	-0.161	-0.255
-217.582	87.068	-0.257	-0.284
-216.567	800.000	0.075	0.261
-215.552	61.672	-0.097	-0.097
-214.538	104.359	-0.120	-0.141
-213.523	-112.456	-0.092	-0.018
-212.509	800.000	0.021	0.065
-211.494	161.023	-0.134	0.187
-210.479	-200.000	-0.011	-0.110
-209.465	-49.530	-0.088	0.042
-208.450	377.027	0.081	0.165
-207.436	91.393	0.152	0.171
-206.421	102.302	-0.141	-0.165
-205.406	800.000	-0.088	-0.272
-204.392	630.013	-0.096	0.242
-203.377	-131.913	0.306	-0.040
-202.363	-200.000	-0.034	0.167
-201.348	271.958	-0.091	0.160
-200.333	151.259	0.135	0.183
-199.319	365.095	0.018	-0.037
-198.304	-110.558	0.180	-0.037
-197.290	-196.770	-0.210	-0.001
-196.275	94.657	-0.183	0.208
-195.260	-200.000	0.021	0.186
-194.246	-33.786	-0.278	0.153
-193.231	-200.000	0.007	-0.126
-192.217	422.179	0.013	0.027
-191.202	-115.327	0.163	-0.031
-190.187	-2.531	-0.264	0.184
-189.173	-125.729	0.115	-0.017
-188.158	156.664	0.036	-0.049
-187.144	800.000	0.055	-0.176
-186.129	-67.960	-0.319	-0.124
-185.114	136.732	0.192	-0.251
-184.100	89.356	0.089	0.099
-183.085	42.400	0.219	0.199
-182.071	-200.000	-0.033	0.298
-181.056	-58.537	-0.136	0.059
-180.042	-22.664	-0.302	0.182
-179.027	-125.051	0.201	-0.031
-178.012	-86.195	-0.268	0.082
-176.998	-55.968	0.134	0.060
-175.983	-82.329	-0.334	-0.108
-174.969	-200.000	-0.021	0.102
-173.954	-200.000	-0.039	-0.204
-172.939	-153.741	0.179	-0.012
-171.925	-97.131	0.357	0.093
-170.910	-153.279	0.193	-0.013
-169.896	5.507	-0.203	0.149
-168.881	-61.780	0.178	-0.074
-167.866	-74.420	-0.148	0.053
-166.852	800.000	0.044	-0.144
-165.837	-177.112	0.270	0.007
-164.823	800.000	-0.076	0.223
-163.808	800.000	0.023	0.101
-162.793	-200.000	-0.038	0.262
-161.779	-200.000	0.021	0.104
-160.764	-7.650	-0.198	0.133
-159.750	19.972	-0.109	0.087
-158.735	-8.877	0.309	0.206
-157.720	-200.000	0.033	0.205
-156.706	-55.701	0.069	-0.031
-155.691	31.327	-0.058	0.049
-154.677	800.000	0.050	0.216
-153.662	-55.490	0.119	-0.053
-152.647	800.000	-0.040	-0.120
-151.633	143.943	-0.113	-0.150
-150.618	-53.123	0.131	-0.060
-149.604	138.463	0.121	0.158
-148.589	-200.000	0.006	0.076
-147.574	-37.621	-0.209	-0.111
-146.560	616.770	-0.012	-0.029
-145.545	4.040	0.325	-0.237
-144.531	1.679	-0.110	0.079
-143.516	-58.697	0.174	-0.075
-142.502	100.426	0.117	0.136
-141.487	14.916	-0.284	0.221
-140.472	-200.000	0.049	0.259
-139.458	-69.319	0.297	-0.114
-138.443	-71.801	-0.160	0.059
-137.429	-74.398	0.121	0.043
-136.414	800.000	0.010	-0.029
-135.399	8.810	0.122	0.092
-134.385	-84.363	-0.127	-0.040
-133.370	800.000	0.092	0.300
-132.356	56.917	-0.233	0.226
-131.341	31.698	-0.158	0.135
-130.326	338.850	-0.037	-0.072
-129.312	-44.702	0.252	-0.125
-128.297	-89.304	-0.125	-0.037
-127.283	-63.775	-0.587	-0.239
-126.268	425.096	0.181	-0.388
-125.253	153.195	0.232	-0.316
-124.239	-139.030	-0.037	0.004
-123.224	800.000	0.015	-0.056
-122.210	-40.053	-0.191	0.099
-121.195	16.827	-0.060	-0.048
-120.180	-157.477	-0.212	-0.013
