DTS Sentinel unit serial number:	SN413079Multiplexer serial number:	ORYXHardware model number:	OX4-SRSoftware version number:	ORYX F/W v4.00 Oryx Data Collector v3.7.2.0data status	okinstallation	princeton_trtdifferential loss correction	single-endedforward channel	channel 3reverse channel	N/Adate	2019/09/18time	01:28:35forward acquisition time	60.00reverse acquisition time	0.00gamma	496.2192k internal	0.2345k external	0.2345temperature offset calibration	0.9949default loss term (dB/km)	0.3790temperature slope calibration	1.0000multiplexer offset coefficient	1.0000multiplexer slope coefficient	1.0000fibre end	0.00T internal ref (°C)	23.12T ext. ref 1 (°C)	0.17T ext. ref 2 (°C)	16.80length (m)	temperature (°C)	Stokes	anti-Stokes-747.200	112.925	0.097	0.117
-746.185	102.806	-0.198	0.232
-745.171	-88.418	-0.104	0.031
-744.156	-33.432	-0.375	0.207
-743.142	-200.000	0.002	0.307
-742.127	593.355	0.072	-0.178
-741.112	800.000	-0.104	-0.293
-740.098	-1.612	-0.269	0.190
-739.083	120.527	0.120	0.149
-738.069	-200.000	-0.000	0.330
-737.054	-200.000	0.447	-0.002
-736.039	-133.544	-0.420	0.053
-735.025	-138.853	0.468	-0.051
-734.010	-101.345	-0.259	-0.063
-732.996	9.692	-0.275	-0.208
-731.981	300.246	0.049	-0.090
-730.966	112.694	0.062	-0.076
-729.952	-77.259	-0.308	-0.107
-728.937	72.710	-0.347	-0.362
-727.923	-200.000	-0.000	-0.062
-726.908	-7.112	0.217	-0.147
-725.894	0.669	-0.153	-0.109
-724.879	116.052	-0.076	0.092
-723.864	-137.246	-0.327	0.037
-722.850	102.413	-0.246	0.288
-721.835	-127.045	-0.173	0.025
-720.821	108.358	0.198	-0.236
-719.806	-186.940	-0.180	-0.002
-718.791	33.447	0.108	-0.094
-717.777	-96.763	-0.425	-0.112
-716.762	-12.289	0.204	-0.134
-715.748	-108.958	-0.311	-0.066
-714.733	-200.000	0.027	-0.333
-713.718	-200.000	0.087	0.485
-712.704	800.000	-0.008	0.032
-711.689	-116.346	-0.125	0.023
-710.675	-64.575	-0.212	0.086
-709.660	800.000	-0.130	-0.410
-708.645	31.330	0.174	0.149
-707.631	39.851	0.261	0.234
-706.616	-133.315	0.191	0.024
-705.602	-71.944	-0.101	0.037
-704.587	277.621	-0.086	0.152
-703.572	-200.000	-0.010	0.088
-702.558	-155.297	-0.216	-0.014
-701.543	-200.000	0.034	-0.176
-700.529	-18.929	0.166	0.103
-699.514	638.049	0.125	-0.317
-698.499	795.550	0.168	-0.461
-697.485	69.049	0.124	-0.128
-696.470	-200.000	-0.183	0.000
-695.456	-8.237	-0.128	0.086
-694.441	-200.000	-0.061	-0.370
-693.426	800.000	-0.082	-0.264
-692.412	-83.355	0.388	-0.124
-691.397	-200.000	-0.008	0.109
-690.383	-84.166	0.179	0.057
-689.368	356.939	-0.091	-0.181
-688.354	-200.000	0.070	-0.320
-687.339	770.979	-0.077	-0.209
-686.324	-17.625	0.030	0.019
-685.310	-200.000	0.005	-0.131
-684.295	346.479	-0.037	0.073
-683.281	518.523	-0.149	-0.348
-682.266	329.160	-0.099	-0.190
-681.251	23.931	-0.142	0.117
-680.237	-107.130	-0.293	-0.064
-679.222	-124.025	0.266	0.042
-678.208	170.268	0.085	-0.121
-677.193	-102.161	0.083	0.020
-676.178	-111.556	0.174	-0.035
-675.164	107.183	-0.088	0.105
-674.149	323.199	0.084	-0.159
-673.135	-147.202	0.417	-0.035
-672.120	-84.823	-0.287	0.090
-671.105	-58.106	-0.170	0.074
-670.091	484.252	0.084	-0.192
-669.076	-15.257	-0.291	-0.186
-668.062	800.000	0.036	-0.116
-667.047	-38.260	0.218	-0.115
-666.032	-139.607	-0.123	0.013
-665.018	198.381	0.081	0.124
-664.003	-200.000	-0.024	0.158
-662.989	-200.000	-0.011	-0.076
-661.974	119.344	-0.224	0.277
-660.959	-151.963	0.163	0.012
-659.945	-118.330	0.080	-0.014
-658.930	-79.447	0.292	-0.098
-657.916	-119.715	-0.331	-0.057
-656.901	800.000	0.085	-0.274
-655.886	15.850	-0.225	-0.177
-654.872	13.806	-0.133	0.103
-653.857	54.946	0.117	-0.112
-652.843	-200.000	-0.085	-0.407
-651.828	-100.560	0.060	-0.015
-650.814	243.414	-0.077	0.128
-649.799	143.920	-0.056	0.074
-648.784	100.154	0.112	0.129
-647.770	366.828	0.155	-0.312
-646.755	48.620	-0.226	0.211
-645.741	-48.814	-0.168	-0.080
-644.726	418.473	-0.188	0.401
-643.711	-130.659	0.040	-0.005
-642.697	-200.000	0.007	0.105
-641.682	335.262	0.063	0.121
-640.668	-89.458	-0.341	-0.100
-639.653	-163.685	0.163	-0.008
-638.638	-124.319	-0.071	0.011
-637.624	37.247	-0.111	0.098
-636.609	-187.304	0.310	0.004
-635.595	-15.274	0.166	0.106
-634.580	467.567	-0.044	-0.098
-633.565	-200.000	0.029	0.331
-632.551	-80.899	0.425	-0.140
-631.536	210.478	0.100	-0.156
-630.522	3.384	-0.200	-0.145
-629.507	166.641	0.080	-0.114
-628.492	-43.543	-0.332	-0.167
-627.478	-200.000	-0.019	0.175
-626.463	-183.135	-0.144	0.003
-625.449	279.310	-0.075	0.134
-624.434	45.805	-0.048	-0.044
-623.419	-101.946	-0.154	-0.037
-622.405	-200.000	0.001	-0.139
-621.390	-123.188	0.179	-0.029
-620.376	-69.471	-0.168	-0.064
-619.361	800.000	0.059	-0.166
-618.346	-200.000	-0.025	0.142
-617.332	355.220	-0.078	-0.154
-616.317	-200.000	0.023	0.162
-615.303	-200.000	-0.007	-0.206
-614.288	174.979	-0.068	0.098
-613.273	-7.024	0.064	-0.043
-612.259	132.328	-0.210	-0.270
-611.244	356.621	0.053	0.105
-610.230	216.408	-0.179	-0.283
-609.215	63.979	-0.194	-0.194
-608.201	-200.000	-0.023	-0.278
-607.186	-200.000	0.366	-0.001
-606.171	800.000	-0.048	0.156
-605.157	56.955	-0.176	0.171
-604.142	-32.973	0.102	-0.056
-603.128	9.925	0.087	-0.066
-602.113	33.916	0.072	-0.062
-601.098	51.406	-0.053	0.051
-600.084	-57.356	-0.092	-0.040
-599.069	-14.916	-0.380	-0.242
-598.055	157.846	0.199	-0.274
-597.040	800.000	0.035	-0.150
-596.025	83.844	0.066	-0.072
-595.011	23.898	-0.112	-0.092
-593.996	-132.628	-0.265	0.034
-592.982	-87.735	0.131	-0.039
-591.967	-137.714	0.381	-0.043
-590.952	393.983	-0.114	-0.236
-589.938	-29.754	-0.060	-0.034
-588.923	-200.000	-0.014	-0.300
-587.909	-200.000	-0.047	-0.210
-586.894	59.014	-0.305	0.299
-585.879	6.133	-0.427	-0.315
-584.865	487.073	0.060	-0.135
-583.850	6.433	0.085	0.063
-582.836	-200.000	0.011	0.268
-581.821	-43.657	0.207	0.104
-580.806	91.631	0.077	0.086
-579.792	-200.000	0.042	-0.216
-578.777	185.630	0.145	-0.214
-577.763	800.000	0.030	-0.107
-576.748	-128.121	0.197	-0.028
-575.733	-134.522	-0.455	-0.055
-574.719	-104.219	-0.291	-0.067
-573.704	449.698	0.030	-0.065
-572.690	15.898	-0.249	-0.195
-571.675	-6.199	0.263	0.178
-570.661	-200.000	0.052	-0.450
-569.646	-17.582	-0.214	-0.133
-568.631	88.100	0.162	-0.178
-567.617	745.392	0.132	-0.354
-566.602	-128.509	0.179	-0.025
-565.588	-90.096	-0.210	-0.061
-564.573	226.205	-0.246	0.396
-563.558	-150.269	-0.165	0.013
-562.544	-136.507	-0.232	0.027
-561.529	59.198	0.173	0.169
-560.515	800.000	0.093	0.323
-559.500	800.000	-0.027	0.108
-558.485	20.368	0.132	0.106
-557.471	-110.484	-0.315	-0.065
-556.456	-147.824	0.083	-0.007
-555.442	157.631	-0.141	0.194
-554.427	-120.391	-0.047	-0.008
-553.412	-113.952	-0.270	-0.052
-552.398	71.995	-0.121	0.125
-551.383	570.860	0.106	0.255
-550.369	-37.792	-0.302	0.160
-549.354	140.701	0.145	-0.190
-548.339	-56.150	-0.255	-0.113
-547.325	251.216	-0.205	-0.346
-546.310	123.359	0.119	0.149
-545.296	-200.000	0.030	-0.151
-544.281	104.207	-0.030	-0.035
-543.266	-52.802	0.378	-0.173
-542.252	335.655	-0.062	0.119
-541.237	460.988	0.189	0.418
-540.223	-33.388	-0.323	-0.177
-539.208	736.838	-0.196	-0.522
-538.193	-161.653	0.209	-0.011
-537.179	227.061	0.115	0.186
-536.164	-60.894	-0.218	0.092
-535.150	-200.000	-0.026	-0.269
-534.135	-85.338	0.193	-0.060
-533.121	-140.385	-0.335	0.035
-532.106	773.865	0.105	0.283
-531.091	80.567	-0.089	-0.095
-530.077	800.000	-0.051	-0.164
-529.062	218.373	0.091	0.144
-528.048	140.279	0.237	0.310
-527.033	-53.571	-0.228	0.103
-526.018	800.000	-0.059	-0.202
-525.004	-133.504	0.257	-0.032
-523.989	135.955	0.183	0.236
-522.975	-3.246	-0.136	0.094
-521.960	244.824	0.122	0.203
-520.945	-90.612	-0.392	-0.113
-519.931	-200.000	-0.001	-0.402
-518.916	-102.142	0.454	0.108
-517.902	402.991	0.047	-0.097
-516.887	-61.930	0.150	0.062
-515.872	-63.343	0.222	0.091
-514.858	-77.723	-0.262	-0.090
-513.843	-154.845	-0.279	-0.018
-512.829	-183.094	0.395	-0.007
-511.814	-114.705	0.072	-0.014
-510.799	6.732	-0.026	-0.019
-509.785	12.945	0.272	0.209
-508.770	800.000	-0.095	-0.358
-507.756	-200.000	-0.049	-0.329
-506.741	107.474	0.270	-0.318
-505.726	-30.861	0.274	0.153
-504.712	-200.000	-0.021	-0.218
-503.697	190.398	0.156	0.232
-502.683	733.152	-0.036	0.096
-501.668	-85.722	-0.152	-0.047
-500.653	800.000	-0.095	0.296
-499.639	-27.412	-0.203	0.117
-498.624	105.733	0.153	0.179
-497.610	-62.947	0.376	0.154
-496.595	800.000	-0.036	0.135
-495.581	3.100	-0.302	0.217
-494.566	233.434	-0.019	0.032
-493.551	170.112	-0.115	-0.163
-492.537	-200.000	-0.000	-0.251
-491.522	224.064	0.095	-0.153
-490.508	-39.422	-0.148	0.077
-489.493	-200.000	0.026	0.157
-488.478	-200.000	-0.010	0.132
-487.464	9.778	-0.079	-0.059
-486.449	-30.439	0.165	0.093
-485.435	-5.367	0.033	-0.022
-484.420	-200.000	0.019	0.172
-483.405	-179.981	0.046	0.001
-482.391	37.937	0.028	-0.025
-481.376	-200.000	0.021	0.148
-480.362	-200.000	0.033	0.249
-479.347	472.448	-0.033	0.075
-478.332	17.605	0.174	0.137
-477.318	-52.430	0.145	-0.066
-476.303	-117.051	0.010	-0.002
-475.289	-170.058	0.074	-0.003
-474.274	-200.000	-0.005	-0.096
-473.259	800.000	-0.054	0.178
-472.245	323.251	-0.157	0.296
-471.230	-24.295	0.286	-0.169
-470.216	-69.805	0.355	-0.134
-469.201	-200.000	-0.024	0.303
-468.186	491.053	-0.146	0.332
-467.172	-54.132	-0.229	0.103
-466.157	233.189	0.038	-0.061
-465.143	800.000	0.102	0.334
-464.128	24.237	0.183	0.150
-463.113	284.899	-0.038	-0.067
-462.099	-20.359	0.243	0.148
-461.084	-169.010	0.082	-0.003
-460.070	-115.010	0.134	0.025
-459.055	-140.773	-0.028	0.003
-458.040	-3.851	-0.120	0.082
-457.026	-27.315	0.212	-0.122
-456.011	800.000	0.080	-0.230
-454.997	800.000	0.082	-0.328
-453.982	-83.593	-0.327	-0.103
-452.968	-124.738	-0.391	0.060
-451.953	-71.761	0.295	0.109
-450.938	-53.874	-0.144	-0.065
-449.924	800.000	-0.074	0.253
-448.909	-100.638	0.073	0.018
-447.895	8.054	0.092	-0.069
-446.880	-86.233	0.168	-0.051
-445.865	515.273	0.062	0.144
-444.851	321.590	-0.125	-0.236
-443.836	-200.000	-0.030	-0.168
-442.822	217.886	-0.171	0.270
-441.807	108.779	0.270	0.319
-440.792	-175.790	0.288	0.008
-439.778	55.324	0.115	-0.110
-438.763	-113.206	0.287	-0.056
-437.749	359.244	-0.069	-0.136
-436.734	800.000	0.084	0.263
-435.719	-18.167	0.137	-0.085
-434.705	1.776	0.103	0.073
-433.690	-119.178	0.331	0.057
-432.676	-200.000	-0.037	-0.290
-431.661	800.000	-0.031	0.098
-430.646	279.874	-0.089	-0.158
-429.632	800.000	0.060	-0.175
-428.617	800.000	0.031	0.126
-427.603	-200.000	0.008	0.266
-426.588	455.826	0.072	0.158
-425.573	22.030	0.107	0.086
-424.559	494.846	0.038	-0.086
-423.544	-45.116	0.128	-0.063
-422.530	-86.273	0.189	0.057
-421.515	-41.788	-0.127	0.065
-420.500	800.000	0.056	0.234
-419.486	-105.690	-0.095	-0.021
-418.471	-200.000	0.037	-0.233
-417.457	27.473	-0.087	0.072
-416.442	-200.000	0.023	0.286
-415.428	181.834	0.200	-0.291
-414.413	-179.323	0.173	0.004
-413.398	81.900	0.151	-0.162
-412.384	464.152	0.064	0.142
-411.369	-103.988	0.392	0.090
-410.355	-122.442	0.213	0.034
-409.340	40.954	-0.062	-0.055
-408.325	-200.000	0.076	0.359
-407.311	-103.016	0.199	-0.047
-406.296	-108.455	0.159	-0.034
-405.282	-24.623	-0.206	-0.121
-404.267	26.156	-0.162	-0.134
-403.252	-200.000	0.022	0.124
-402.238	26.729	-0.138	-0.114
-401.223	625.104	0.021	0.053
-400.209	17.994	0.029	0.023
-399.194	199.082	-0.039	-0.060
-398.179	2.840	0.086	-0.062
-397.165	-132.025	0.261	0.034
-396.150	-70.103	-0.330	0.124
-395.136	-47.714	-0.141	-0.068
-394.121	-181.816	-0.287	0.005
-393.106	36.389	0.104	-0.090
-392.092	-141.029	0.062	0.006
-391.077	-114.307	0.163	0.031
-390.063	-66.633	0.234	0.092
-389.048	-6.723	-0.090	0.061
-388.033	-200.000	0.044	0.372
-387.019	57.246	0.123	-0.118
-386.004	-200.000	0.019	0.086
-384.990	800.000	0.027	0.099
-383.975	-44.584	-0.208	-0.103
-382.960	-112.812	0.286	0.056
-381.946	800.000	-0.078	0.335
-380.931	-200.000	-0.050	-0.281
-379.917	114.973	-0.170	-0.204
-378.902	-84.896	-0.263	0.082
-377.888	-42.165	0.265	0.133
-376.873	-107.783	0.117	0.025
-375.858	-123.308	-0.293	0.046
-374.844	11.409	0.188	-0.142
-373.829	-18.425	-0.100	0.061
-372.815	159.986	-0.158	0.218
-371.800	-123.529	0.257	-0.040
-370.785	-87.244	0.181	0.054
-369.771	115.520	0.144	0.174
-368.756	5.225	-0.082	0.060
-367.742	-83.665	0.204	0.064
-366.727	-141.688	0.239	-0.024
-365.712	724.122	0.137	-0.359
-364.698	-97.536	0.184	0.047
-363.683	141.285	-0.170	-0.221
-362.669	224.369	0.161	-0.256
-361.654	183.590	-0.028	0.040
-360.639	-18.656	-0.214	-0.131
-359.625	78.791	-0.088	0.092
-358.610	-200.000	0.023	0.201
-357.596	-102.793	0.107	0.025
-356.581	123.413	0.051	-0.063
-355.566	39.306	0.117	-0.104
-354.552	-65.206	-0.134	0.053
-353.537	-100.508	0.404	-0.099
-352.523	-43.533	-0.374	0.186
-351.508	800.000	-0.045	-0.162
-350.493	298.978	0.140	-0.255
-349.479	71.935	0.118	0.121
-348.464	-169.909	-0.222	-0.008
-347.450	-200.000	-0.011	-0.112
-346.435	-23.983	0.239	0.141
-345.420	-24.130	0.115	-0.068
-344.406	40.488	0.085	0.075
-343.391	-74.945	-0.312	0.110
-342.377	288.557	-0.104	-0.186
-341.362	800.000	0.056	0.171
-340.348	-75.282	-0.136	0.048
-339.333	242.940	-0.053	0.087
-338.318	-148.787	-0.282	-0.023
-337.304	-124.492	-0.158	0.024
-336.289	800.000	-0.037	0.118
-335.275	-171.793	-0.154	0.005
-334.260	-0.074	-0.070	-0.049
-333.245	-120.228	-0.343	-0.058
-332.231	-200.000	0.004	-0.048
-331.216	-196.268	0.208	0.001
-330.202	-200.000	0.043	0.302
-329.187	-7.975	0.181	0.120
-328.172	-45.565	-0.414	0.202
-327.158	-131.553	0.244	0.032
-326.143	-150.165	-0.027	0.002
-325.129	3.258	0.183	-0.131
-324.114	-60.604	-0.218	0.091
-323.099	800.000	-0.024	-0.079
-322.085	325.140	0.098	-0.185
-321.070	31.240	-0.158	-0.134
-320.056	328.702	-0.140	-0.264
-319.041	111.846	-0.318	-0.378
-318.026	800.000	-0.091	-0.357
-317.012	800.000	0.115	0.357
-315.997	-165.507	0.262	-0.011
-314.983	494.757	-0.119	-0.270
-313.968	800.000	0.027	0.075
-312.953	39.742	-0.146	0.129
-311.939	308.838	-0.092	-0.169
-310.924	320.390	-0.140	-0.261
-309.910	30.016	0.134	-0.113
-308.895	-200.000	-0.032	-0.252
-307.880	-200.000	0.032	0.430
-306.866	-33.843	0.172	-0.093
-305.851	-4.692	0.111	0.075
-304.837	-69.627	0.371	-0.140
-303.822	-200.000	-0.029	-0.339
-302.807	-143.267	-0.155	0.015
-301.793	116.486	-0.170	0.205
-300.778	740.183	-0.053	0.140
-299.764	608.502	-0.107	-0.263
-298.749	258.055	0.154	0.262
-297.735	800.000	0.123	0.356
-296.720	-107.913	-0.201	-0.043
-295.705	-2.384	0.239	0.165
-294.691	104.765	-0.101	0.117
-293.676	14.366	-0.162	0.124
-292.662	37.703	0.133	-0.116
-291.647	-200.000	-0.036	0.187
-290.632	-33.690	-0.085	0.046
-289.618	-200.000	0.045	0.198
-288.603	95.516	0.013	0.015
-287.589	39.664	-0.172	-0.152
-286.574	45.510	-0.187	-0.170
-285.559	75.839	0.059	0.061
-284.545	296.923	-0.157	-0.283
-283.530	-200.000	-0.017	-0.413
-282.516	800.000	-0.108	-0.391
-281.501	-41.269	0.169	-0.086
-280.486	-60.765	0.139	-0.058
-279.472	-55.888	-0.379	-0.166
-278.457	-85.948	-0.144	0.044
-277.443	-3.624	0.280	-0.191
-276.428	144.628	-0.221	-0.290
-275.413	800.000	-0.081	0.265
-274.399	-33.400	-0.220	0.120
-273.384	317.661	0.190	-0.353
-272.370	66.373	0.171	-0.171
-271.355	-33.266	-0.263	-0.143
-270.340	-51.068	0.190	-0.088
-269.326	-200.000	0.004	0.088
-268.311	119.442	0.178	-0.216
-267.297	-200.000	-0.014	-0.324
-266.282	-191.513	-0.323	-0.003
-265.267	20.803	-0.351	-0.279
-264.253	-101.190	-0.155	0.037
-263.238	-200.000	-0.012	-0.386
-262.224	80.067	0.127	-0.134
-261.209	318.725	-0.227	0.422
-260.195	-108.570	0.204	-0.043
-259.180	-26.486	0.331	0.190
-258.165	265.037	-0.094	0.161
-257.151	713.134	-0.066	0.173
-256.136	-200.000	0.044	0.206
-255.122	800.000	-0.030	-0.101
-254.107	800.000	-0.035	0.144
-253.092	-126.019	-0.171	0.025
-252.078	246.533	-0.104	0.172
-251.063	-124.647	0.133	0.020
-250.049	35.563	-0.159	-0.137
-249.034	-26.370	0.169	0.097
-248.019	107.174	-0.215	-0.251
-247.005	800.000	0.041	0.142
-245.990	-58.371	-0.276	0.118
-244.976	800.000	-0.114	0.348
-243.961	-74.001	0.173	-0.061
-242.946	-91.732	-0.205	0.057
-241.932	-154.261	-0.086	0.006
-240.917	-57.691	-0.076	-0.032
-239.903	-87.018	-0.238	0.071
-238.888	-89.686	-0.109	-0.031
-237.873	94.459	-0.165	0.184
-236.859	-17.036	0.232	-0.144
-235.844	47.218	0.166	-0.152
-234.830	-0.625	-0.049	-0.034
-233.815	-67.535	0.310	-0.119
-232.800	-200.000	-0.002	0.122
-231.786	-116.884	0.138	0.025
-230.771	-200.000	-0.002	-0.318
-229.757	-200.000	0.013	-0.140
-228.742	-28.625	0.283	0.160
-227.727	800.000	0.106	0.315
-226.713	708.152	-0.196	0.507
-225.698	-200.000	0.002	-0.015
-224.684	-152.205	-0.205	0.015
-223.669	59.404	0.325	0.314
-222.655	800.000	0.034	-0.109
-221.640	108.641	-0.116	-0.136
-220.625	489.190	-0.257	0.576
-219.611	-173.517	-0.364	-0.011
-218.596	-200.000	0.042	-0.298
-217.582	-200.000	-0.004	0.060
-216.567	800.000	0.038	-0.155
-215.552	-200.000	0.045	-0.319
-214.538	-125.176	-0.182	0.027
-213.523	-86.181	-0.052	-0.016
-212.509	-76.276	-0.289	0.100
-211.494	559.281	0.047	-0.110
-210.479	48.939	-0.132	0.121
-209.465	-67.107	0.189	0.073
-208.450	-85.387	0.152	0.046
-207.436	-80.430	-0.185	0.061
-206.421	-41.145	-0.103	0.052
-205.406	214.003	-0.042	0.064
-204.392	-200.000	-0.006	0.099
-203.377	800.000	-0.061	0.227
-202.363	-200.000	0.035	0.236
-201.348	800.000	0.135	0.375
-200.333	527.280	0.106	0.245
-199.319	-93.459	0.254	0.069
-198.304	-118.814	0.238	0.041
-197.290	-200.000	0.028	-0.181
-196.275	-27.877	0.219	-0.124
-195.260	64.635	-0.154	-0.152
-194.246	-160.067	0.122	-0.007
-193.231	289.172	0.069	-0.122
-192.217	-200.000	0.001	-0.263
-191.202	259.371	-0.152	-0.256
-190.187	71.968	-0.186	-0.190
-189.173	-200.000	-0.019	-0.108
-188.158	115.877	-0.187	-0.224
-187.144	65.954	0.256	0.254
-186.129	125.275	-0.076	-0.093
-185.114	-172.425	-0.427	0.013
-184.100	304.371	0.148	-0.269
-183.085	122.967	-0.122	-0.150
-182.071	241.259	-0.068	0.112
-181.056	-197.010	0.268	-0.002
-180.042	-120.417	-0.275	-0.046
-179.027	-46.238	0.267	-0.129
-178.012	-33.666	0.259	-0.140
-176.998	365.576	0.063	-0.124
-175.983	-40.957	0.262	-0.132
-174.969	800.000	-0.062	-0.228
-173.954	-47.374	-0.135	-0.064
-172.939	265.324	0.078	0.133
-171.925	350.287	0.221	0.428
-170.910	800.000	-0.094	0.316
-169.896	28.289	-0.144	0.119
-168.881	333.110	-0.061	0.116
-167.866	167.966	0.212	0.295
-166.852	-87.000	0.045	0.013
-165.837	24.111	0.075	-0.060
-164.823	-124.820	-0.233	0.035
-163.808	-200.000	-0.023	0.313
-162.793	-110.781	0.114	-0.023
-161.779	292.495	0.102	0.181
-160.764	402.387	0.080	0.165
-159.750	615.455	-0.097	0.239
-158.735	25.568	-0.178	-0.145
-157.720	-173.193	0.516	0.015
-156.706	582.729	-0.143	0.343
-155.691	-63.587	0.095	0.038
-154.677	-200.000	-0.047	-0.258
-153.662	-58.165	-0.051	-0.022
-152.647	-2.427	-0.173	0.119
-151.633	-61.848	-0.167	0.069
-150.618	-92.250	0.289	0.080
-149.604	800.000	0.056	0.217
-148.589	60.934	0.247	0.240
-147.574	-200.000	-0.009	-0.125
-146.560	595.020	0.149	0.361
-145.545	136.980	0.102	-0.131
-144.531	193.012	0.045	0.067
-143.516	135.664	0.266	0.339
-142.502	45.193	0.285	0.257
-141.487	11.778	-0.126	0.095
-140.472	48.847	-0.039	-0.036
-139.458	-138.136	0.217	0.024
-138.443	208.573	-0.183	0.279
-137.429	-74.098	0.196	-0.070
-136.414	-58.003	-0.273	-0.116
-135.399	-39.161	0.209	-0.107
-134.385	146.547	-0.105	0.138
-133.370	-11.994	-0.234	0.150
-132.356	63.389	0.361	0.354
-131.341	800.000	0.111	-0.318
-130.326	-51.398	0.197	-0.090
-129.312	643.791	-0.060	-0.150
-128.297	-200.000	0.008	0.287
-127.283	-102.391	-0.195	0.046
-126.268	-65.470	0.527	-0.207
-125.253	102.231	-0.217	-0.248
-124.239	-34.619	-0.200	0.107
-123.224	123.994	-0.262	0.322
-122.210	129.106	0.111	0.138
-121.195	-75.071	-0.271	-0.095
