DTS Sentinel unit serial number:	SN413079Multiplexer serial number:	ORYXHardware model number:	OX4-SRSoftware version number:	ORYX F/W v4.00 Oryx Data Collector v3.7.2.0data status	okinstallation	princeton_trtdifferential loss correction	single-endedforward channel	channel 3reverse channel	N/Adate	2019/09/18time	11:00:35forward acquisition time	60.00reverse acquisition time	0.00gamma	496.2192k internal	0.2326k external	0.2326temperature offset calibration	0.9953default loss term (dB/km)	0.3790temperature slope calibration	1.0000multiplexer offset coefficient	1.0000multiplexer slope coefficient	1.0000fibre end	0.00T internal ref (°C)	29.31T ext. ref 1 (°C)	0.40T ext. ref 2 (°C)	25.65length (m)	temperature (°C)	Stokes	anti-Stokes-747.200	286.067	0.157	-0.286
-746.185	-93.317	-0.230	-0.064
-745.171	-20.513	0.224	0.139
-744.156	87.067	-0.198	0.221
-743.142	578.876	0.060	0.148
-742.127	-15.138	-0.263	-0.170
-741.112	603.235	0.072	-0.182
-740.098	-135.950	-0.236	-0.028
-739.083	196.526	-0.082	0.126
-738.069	-200.000	-0.068	0.361
-737.054	-56.374	0.190	-0.085
-736.039	-130.035	-0.539	0.074
-735.025	-147.663	0.282	0.024
-734.010	18.885	-0.029	-0.024
-732.996	-200.000	-0.124	-0.564
-731.981	113.130	-0.186	-0.228
-730.966	88.630	0.124	-0.139
-729.952	-200.000	0.010	-0.101
-728.937	800.000	-0.071	-0.214
-727.923	-81.714	-0.103	-0.034
-726.908	59.664	-0.106	0.105
-725.894	135.834	-0.196	-0.257
-724.879	704.105	0.145	-0.385
-723.864	-39.503	0.115	-0.061
-722.850	-165.124	-0.282	0.013
-721.835	727.719	0.184	-0.494
-720.821	-73.467	-0.141	-0.052
-719.806	-200.000	0.036	0.310
-718.791	60.136	0.146	-0.145
-717.777	-121.356	0.143	0.024
-716.762	-41.474	-0.207	-0.108
-715.748	203.535	-0.165	0.258
-714.733	433.241	0.127	-0.277
-713.718	-116.691	-0.011	0.002
-712.704	-68.739	0.127	0.050
-711.689	204.310	-0.156	0.244
-710.675	121.172	-0.285	-0.357
-709.660	-200.000	0.033	-0.172
-708.645	-130.626	-0.136	-0.018
-707.631	-82.508	0.254	-0.083
-706.616	-200.000	0.000	-0.051
-705.602	-200.000	0.041	-0.199
-704.587	36.435	0.178	-0.158
-703.572	-200.000	-0.014	-0.183
-702.558	-200.000	0.024	0.112
-701.543	-42.343	0.153	0.079
-700.529	123.897	0.137	-0.173
-699.514	-134.462	-0.519	0.064
-698.499	73.143	-0.311	0.327
-697.485	-200.000	0.015	0.107
-696.470	-76.711	0.269	-0.095
-695.456	800.000	0.033	-0.096
-694.441	19.554	-0.273	0.221
-693.426	-200.000	-0.008	0.048
-692.412	144.048	0.121	-0.163
-691.397	72.485	-0.063	0.066
-690.383	131.946	0.176	-0.228
-689.368	-200.000	0.039	0.216
-688.354	11.114	0.237	0.182
-687.339	-200.000	0.035	-0.152
-686.324	-66.263	-0.159	-0.063
-685.310	47.678	-0.223	-0.209
-684.295	265.903	0.120	-0.210
-683.281	157.453	-0.146	0.203
-682.266	-87.485	0.081	-0.025
-681.251	-122.863	-0.098	-0.016
-680.237	-200.000	0.010	0.140
-679.222	189.220	-0.128	-0.194
-678.208	24.524	0.074	0.062
-677.193	800.000	-0.080	-0.248
-676.178	-2.373	-0.298	-0.210
-675.164	-19.627	0.311	-0.194
-674.149	800.000	-0.135	-0.462
-673.135	-200.000	0.021	0.277
-672.120	211.948	-0.262	-0.415
-671.105	-22.766	-0.182	-0.110
-670.091	575.275	0.092	-0.226
-669.076	-81.939	0.194	-0.064
-668.062	-146.966	-0.491	0.042
-667.047	-173.677	0.143	0.004
-666.032	-200.000	0.049	-0.306
-665.018	-167.859	0.229	-0.009
-664.003	-6.381	-0.035	0.024
-662.989	99.253	-0.046	-0.053
-661.974	-200.000	-0.012	-0.087
-660.959	226.923	-0.068	0.111
-659.945	303.611	0.035	0.065
-658.930	244.381	0.209	-0.353
-657.916	127.764	-0.315	-0.402
-656.901	-38.953	-0.153	-0.081
-655.886	165.444	-0.099	0.141
-654.872	-95.711	-0.387	-0.104
-653.857	800.000	-0.005	-0.018
-652.843	71.484	-0.195	-0.204
-651.828	442.004	0.195	0.429
-650.814	-30.680	0.228	0.130
-649.799	-116.475	-0.298	-0.055
-648.784	33.120	0.216	-0.188
-647.770	43.727	-0.284	0.261
-646.755	-200.000	-0.068	0.318
-645.741	150.788	0.100	0.137
-644.726	17.392	-0.181	-0.144
-643.711	-49.040	-0.187	0.090
-642.697	-200.000	-0.073	-0.326
-641.682	-200.000	0.012	-0.152
-640.668	-21.141	-0.051	-0.031
-639.653	-1.603	-0.058	0.041
-638.638	-102.143	0.128	-0.031
-637.624	226.319	-0.106	-0.173
-636.609	-38.035	0.157	-0.084
-635.595	-48.953	-0.077	-0.037
-634.580	-200.000	-0.019	0.170
-633.565	262.744	-0.057	-0.099
-632.551	-200.000	0.018	0.214
-631.536	248.586	0.108	0.184
-630.522	-54.646	-0.310	0.141
-629.507	169.674	0.197	0.282
-628.492	-152.667	0.195	0.014
-627.478	-200.000	0.016	-0.136
-626.463	325.639	-0.035	-0.068
-625.449	-36.295	-0.462	-0.250
-624.434	-53.386	-0.060	0.027
-623.419	301.392	-0.065	-0.120
-622.405	-191.727	0.118	0.001
-621.390	-162.887	0.227	0.011
-620.376	-92.897	0.101	0.028
-619.361	-200.000	0.053	-0.300
-618.346	-64.743	-0.187	0.076
-617.332	800.000	-0.122	0.341
-616.317	-128.237	0.515	-0.074
-615.303	62.256	-0.096	0.096
-614.288	-200.000	0.001	-0.446
-613.273	751.543	-0.115	0.312
-612.259	-200.000	0.044	-0.337
-611.244	-11.289	-0.205	-0.136
-610.230	303.638	0.057	0.106
-609.215	211.035	-0.047	-0.073
-608.201	-99.583	0.216	0.054
-607.186	590.716	0.026	0.063
-606.171	267.420	0.063	0.111
-605.157	800.000	-0.153	-0.442
-604.142	-71.240	0.343	0.129
-603.128	-60.026	0.111	0.048
-602.113	150.318	-0.186	0.253
-601.098	38.871	0.053	-0.047
-600.084	413.509	-0.211	0.451
-599.069	-200.000	-0.010	-0.117
-598.055	-153.184	-0.344	-0.024
-597.040	5.676	-0.103	0.076
-596.025	-137.222	-0.307	0.035
-595.011	-27.522	-0.102	0.059
-593.996	-47.329	-0.082	0.040
-592.982	-123.329	-0.154	0.025
-591.967	222.705	-0.185	0.299
-590.952	721.047	0.021	-0.056
-589.938	800.000	-0.005	-0.023
-588.923	727.108	-0.116	-0.310
-587.909	17.117	0.048	0.038
-586.894	269.792	0.158	-0.278
-585.879	-125.875	-0.166	-0.025
-584.865	-26.395	0.400	-0.235
-583.850	-200.000	0.003	-0.088
-582.836	-83.816	0.470	-0.150
-581.821	800.000	-0.049	-0.198
-580.806	98.734	-0.098	-0.113
-579.792	-152.525	0.260	0.019
-578.777	-37.984	0.029	0.015
-577.763	337.626	0.131	-0.256
-576.748	-200.000	0.020	-0.091
-575.733	-162.494	-0.245	0.012
-574.719	-171.246	-0.092	0.003
-573.704	22.475	-0.025	-0.021
-572.690	800.000	0.069	-0.210
-571.675	89.813	0.256	0.287
-570.661	-127.031	-0.324	-0.048
-569.646	405.998	0.055	-0.116
-568.631	191.741	-0.085	-0.128
-567.617	95.524	0.096	0.109
-566.602	-68.871	-0.198	-0.077
-565.588	-187.521	0.265	0.004
-564.573	93.953	0.094	-0.107
-563.558	183.980	-0.099	0.147
-562.544	64.339	-0.127	-0.128
-561.529	-200.000	0.029	-0.187
-560.515	-200.000	0.007	0.033
-559.500	141.306	0.210	-0.278
-558.485	-24.473	0.259	-0.155
-557.471	800.000	-0.049	-0.184
-556.456	-39.301	0.260	-0.136
-555.442	-152.314	0.062	-0.004
-554.427	-177.414	-0.065	0.002
-553.412	401.167	-0.099	0.209
-552.398	51.131	0.144	-0.136
-551.383	-79.906	0.184	-0.062
-550.369	-200.000	0.011	0.150
-549.354	141.420	0.153	0.203
-548.339	-200.000	-0.019	-0.224
-547.325	434.277	0.093	-0.202
-546.310	-149.052	0.199	-0.016
-545.296	-96.344	-0.390	-0.103
-544.281	40.355	0.110	-0.099
-543.266	53.894	-0.212	0.204
-542.252	800.000	-0.133	0.502
-541.237	-65.955	-0.049	-0.020
-540.223	-7.963	0.232	0.157
-539.208	160.657	-0.177	0.247
-538.193	4.047	-0.351	0.257
-537.179	-115.897	-0.082	-0.015
-536.164	-48.316	0.290	0.140
-535.150	-121.085	0.064	-0.011
-534.135	-26.759	0.270	-0.158
-533.121	334.901	-0.050	0.098
-532.106	72.690	-0.142	0.148
-531.091	-13.886	0.060	-0.039
-530.077	-200.000	0.076	-0.388
-529.062	-200.000	0.032	0.344
-528.048	-168.235	-0.141	0.005
-527.033	-200.000	-0.030	0.208
-526.018	322.967	0.164	0.313
-525.004	-6.592	-0.262	0.178
-523.989	800.000	0.074	0.226
-522.975	280.682	0.178	-0.318
-521.960	147.286	0.136	-0.184
-520.945	-162.760	-0.130	0.006
-519.931	299.479	0.132	-0.243
-518.916	-52.387	0.192	-0.089
-517.902	-38.302	0.077	0.041
-516.887	-114.173	0.028	0.005
-515.872	309.256	0.104	0.194
-514.858	-21.426	-0.144	0.088
-513.843	800.000	0.097	0.332
-512.829	1.622	0.232	-0.167
-511.814	-63.031	0.107	0.044
-510.799	800.000	0.035	0.144
-509.785	181.529	0.131	-0.193
-508.770	243.072	-0.072	-0.121
-507.756	800.000	-0.041	-0.168
-506.741	-200.000	0.021	0.126
-505.726	800.000	-0.036	-0.155
-504.712	-143.723	0.313	-0.030
-503.697	103.019	-0.077	-0.090
-502.683	253.050	-0.150	-0.255
-501.668	-59.446	0.175	-0.075
-500.653	-39.392	-0.149	-0.078
-499.639	-200.000	0.076	-0.334
-498.624	220.040	0.244	-0.390
-497.610	-71.428	0.237	0.089
-496.595	135.014	0.185	0.241
-495.581	654.009	-0.145	-0.370
-494.566	61.774	0.166	0.165
-493.551	800.000	0.023	0.093
-492.537	800.000	-0.027	-0.089
-491.522	245.802	0.158	-0.266
-490.508	-39.083	0.300	0.157
-489.493	332.393	-0.076	0.147
-488.478	333.997	0.083	-0.160
-487.464	86.681	0.225	-0.248
-486.449	-56.051	0.108	0.048
-485.435	-200.000	-0.071	0.311
-484.420	174.343	-0.042	-0.060
-483.405	649.580	0.129	0.330
-482.391	476.549	-0.212	0.479
-481.376	-200.000	-0.002	0.095
-480.362	-200.000	-0.005	-0.099
-479.347	-200.000	0.021	-0.385
-478.332	-78.236	-0.416	-0.143
-477.318	-200.000	-0.010	-0.062
-476.303	-130.402	0.448	-0.061
-475.289	800.000	0.017	-0.051
-474.274	-200.000	0.003	-0.081
-473.259	800.000	0.014	-0.053
-472.245	-67.165	0.221	0.087
-471.230	-2.595	0.220	-0.154
-470.216	73.411	0.178	-0.186
-469.201	176.541	0.074	-0.108
-468.186	-76.860	0.215	0.075
-467.172	-200.000	-0.027	0.179
-466.157	180.700	-0.119	-0.175
-465.143	-98.596	0.037	-0.009
-464.128	800.000	0.062	0.185
-463.113	61.594	0.144	0.143
-462.099	800.000	-0.031	-0.124
-461.084	-136.427	0.253	0.029
-460.070	800.000	-0.019	-0.060
-459.055	129.381	-0.079	0.101
-458.040	134.698	-0.239	-0.310
-457.026	-78.198	0.133	-0.046
-456.011	30.378	0.257	-0.219
-454.997	-149.648	0.246	-0.019
-453.982	-47.102	0.168	-0.082
-452.968	800.000	-0.032	-0.124
-451.953	-200.000	-0.005	0.148
-450.938	-12.306	0.236	0.154
-449.924	-200.000	0.021	0.523
-448.909	-88.787	-0.280	0.083
-447.895	180.574	0.020	-0.029
-446.880	-68.655	-0.210	-0.081
-445.865	-86.892	-0.207	-0.063
-444.851	-31.659	0.211	0.118
-443.836	-143.440	0.268	0.025
-442.822	800.000	0.054	-0.155
-441.807	-200.000	0.087	-0.382
-440.792	358.034	0.117	0.232
-439.778	505.917	-0.132	0.304
-438.763	800.000	0.084	-0.329
-437.749	-129.115	0.345	-0.048
-436.734	-72.616	-0.452	0.166
-435.719	800.000	0.102	-0.394
-434.705	-1.667	-0.491	-0.345
-433.690	-30.633	0.094	-0.053
-432.676	-124.760	0.179	0.028
-431.661	-48.963	-0.416	-0.199
-430.646	-55.514	0.174	0.078
-429.632	800.000	0.039	0.129
-428.617	-153.983	-0.255	0.017
-427.603	205.136	0.333	0.515
-426.588	-200.000	-0.021	-0.134
-425.573	-143.207	0.262	-0.025
-424.559	-200.000	0.006	0.233
-423.544	-75.951	0.605	-0.213
-422.530	-200.000	0.003	0.140
-421.515	212.142	-0.098	0.154
-420.500	-158.251	-0.569	0.033
-419.486	139.477	0.078	-0.102
-418.471	312.895	0.296	-0.554
-417.457	-16.301	-0.264	0.167
-416.442	-155.893	0.301	0.019
-415.428	111.121	-0.179	-0.215
-414.413	800.000	0.087	-0.323
-413.398	-200.000	0.009	-0.059
-412.384	-200.000	0.063	0.357
-411.369	-164.600	-0.210	0.009
-410.355	800.000	0.023	-0.072
-409.340	-55.947	-0.045	-0.020
-408.325	800.000	0.123	0.391
-407.311	-75.190	-0.381	0.136
-406.296	6.054	-0.214	0.157
-405.282	-200.000	-0.016	0.203
-404.267	8.160	-0.189	-0.141
-403.252	-144.811	-0.177	0.016
-402.238	-200.000	0.020	-0.091
-401.223	-127.332	-0.452	0.066
-400.209	800.000	0.092	0.355
-399.194	312.971	0.027	-0.051
-398.179	25.051	0.284	-0.234
-397.165	22.197	0.124	-0.101
-396.150	719.849	0.092	0.244
-395.136	84.668	-0.078	-0.085
-394.121	336.960	0.099	-0.191
-393.106	-151.240	-0.265	-0.020
-392.092	-30.745	0.306	0.172
-391.077	105.937	-0.088	0.103
-390.063	122.355	-0.151	0.188
-389.048	334.226	0.083	-0.160
-388.033	-115.750	-0.101	0.019
-387.019	14.830	-0.332	0.258
-386.004	800.000	-0.046	-0.135
-384.990	217.775	-0.113	-0.180
-383.975	-50.792	-0.201	0.094
-382.960	265.933	-0.088	0.153
-381.946	33.942	-0.080	-0.070
-380.931	-115.990	0.231	0.043
-379.917	-162.583	0.084	0.004
-378.902	-111.129	-0.245	-0.050
-377.888	55.630	-0.060	0.058
-376.873	-167.384	-0.253	-0.010
-375.858	-200.000	0.013	-0.168
-374.844	-200.000	0.049	-0.220
-373.829	-0.938	-0.081	0.057
-372.815	31.740	0.166	0.142
-371.800	40.878	-0.406	0.364
-370.785	-200.000	0.037	0.258
-369.771	800.000	0.115	0.315
-368.756	96.219	-0.188	-0.214
-367.742	105.487	0.142	0.167
-366.727	592.789	0.181	0.444
-365.712	-129.291	-0.071	0.010
-364.698	-129.195	0.139	0.019
-363.683	17.449	-0.236	-0.186
-362.669	0.769	0.207	0.147
-361.654	-166.021	0.218	-0.009
-360.639	233.052	0.067	-0.110
-359.625	-158.006	0.436	-0.026
-358.610	-83.713	-0.348	-0.110
-357.596	-200.000	-0.005	-0.088
-356.581	-200.000	0.001	-0.376
-355.566	314.169	-0.174	-0.325
-354.552	-48.394	0.145	0.070
-353.537	-200.000	-0.030	0.191
-352.523	-189.582	0.089	0.001
-351.508	-137.942	-0.225	0.025
-350.493	-40.136	0.232	-0.120
-349.479	150.116	0.096	0.130
-348.464	-200.000	-0.001	-0.040
-347.450	462.949	-0.039	-0.087
-346.435	-103.511	-0.113	0.026
-345.420	56.489	-0.177	0.171
-344.406	273.752	-0.182	0.320
-343.391	-100.594	-0.056	-0.014
-342.377	32.596	0.173	0.148
-341.362	-200.000	-0.031	0.232
-340.348	13.515	0.017	-0.013
-339.333	235.272	-0.107	0.176
-338.318	52.982	-0.121	0.115
-337.304	-112.520	0.303	0.060
-336.289	4.318	0.188	0.137
-335.275	-200.000	-0.015	0.095
-334.260	201.745	0.060	0.092
-333.245	-200.000	-0.028	0.249
-332.231	317.721	-0.137	-0.257
-331.216	-193.240	0.472	0.004
-330.202	-200.000	0.058	0.300
-329.187	116.147	0.056	0.068
-328.172	-200.000	-0.051	0.224
-327.158	34.755	-0.100	0.087
-326.143	-200.000	-0.022	0.170
-325.129	33.086	0.158	-0.136
-324.114	234.452	0.161	0.264
-323.099	-13.368	-0.240	-0.155
-322.085	-200.000	0.002	0.224
-321.070	-20.685	-0.199	0.121
-320.056	-200.000	0.025	0.113
-319.041	230.242	-0.105	0.170
-318.026	-22.265	0.289	-0.174
-317.012	-153.129	-0.060	-0.004
-315.997	-200.000	-0.019	-0.278
-314.983	800.000	0.021	0.068
-313.968	800.000	-0.058	-0.158
-312.953	-105.349	-0.230	-0.052
-311.939	-25.878	0.276	-0.161
-310.924	-200.000	0.017	0.386
-309.910	-200.000	-0.013	0.064
-308.895	158.029	0.127	0.174
-307.880	-35.365	-0.363	-0.196
-306.866	-200.000	-0.008	0.121
-305.851	-32.891	0.121	0.067
-304.837	-78.868	0.217	0.073
-303.822	641.169	-0.027	0.067
-302.807	131.511	-0.045	0.058
-301.793	-200.000	-0.009	-0.259
-300.778	-168.162	-0.452	-0.017
-299.764	-156.474	0.353	-0.022
-298.749	181.606	-0.058	-0.084
-297.735	77.719	-0.141	0.149
-296.720	-200.000	0.010	-0.175
-295.705	-71.079	-0.070	-0.026
-294.691	119.931	-0.137	-0.168
-293.676	-200.000	0.028	-0.142
-292.662	-200.000	0.057	-0.385
-291.647	-200.000	-0.063	0.277
-290.632	5.674	0.060	-0.044
-289.618	800.000	0.062	0.204
-288.603	-65.337	-0.230	0.092
-287.589	34.258	0.224	0.193
-286.574	293.896	0.095	0.172
-285.559	171.009	0.125	-0.178
-284.545	800.000	0.063	0.184
-283.530	150.631	-0.217	-0.292
-282.516	-46.365	0.280	0.136
-281.501	54.392	-0.144	-0.138
-280.486	-200.000	0.020	-0.291
-279.472	-98.474	-0.296	0.075
-278.457	147.675	-0.080	0.107
-277.443	-43.008	-0.152	0.076
-276.428	127.721	-0.061	0.077
-275.413	-44.556	0.151	0.075
-274.399	93.484	-0.202	0.227
-273.384	-47.937	-0.198	-0.095
-272.370	-42.949	-0.191	-0.096
-271.355	-72.618	0.106	0.039
-270.340	-107.968	-0.130	0.028
-269.326	82.779	-0.241	-0.259
-268.311	508.731	-0.089	0.204
-267.297	800.000	-0.053	0.177
-266.282	-100.710	0.446	0.109
-265.267	800.000	-0.067	-0.283
-264.253	396.253	-0.083	-0.172
-263.238	-142.093	-0.217	0.021
-262.224	4.939	-0.145	-0.106
-261.209	-200.000	0.012	0.260
-260.195	800.000	-0.048	-0.181
-259.180	-152.321	0.104	0.007
-258.165	326.971	-0.140	0.266
-257.151	-200.000	0.013	0.117
-256.136	-51.855	-0.165	0.076
-255.122	11.361	-0.174	0.132
-254.107	-200.000	-0.034	0.160
-253.092	-118.608	0.190	0.033
-252.078	-99.925	-0.105	-0.026
-251.063	-14.471	-0.262	0.167
-250.049	-200.000	0.011	0.268
-249.034	-200.000	-0.019	0.204
-248.019	-108.782	0.288	-0.061
-247.005	-200.000	-0.041	0.190
-245.990	-57.758	0.204	-0.088
-244.976	330.545	0.078	0.149
-243.961	208.857	-0.118	0.182
-242.946	187.495	0.076	0.113
-241.932	-200.000	-0.074	0.373
-240.917	800.000	0.090	-0.319
-239.903	-124.758	-0.217	-0.033
-238.888	-200.000	0.037	0.271
-237.873	-139.794	0.253	0.027
-236.859	-66.905	0.169	-0.066
-235.844	-98.347	-0.063	-0.016
-234.830	-138.903	-0.164	0.018
-233.815	-142.828	-0.111	0.011
-232.800	97.706	0.108	-0.123
-231.786	3.550	-0.066	0.048
-230.771	-91.261	0.332	0.094
-229.757	800.000	0.106	-0.337
-228.742	37.786	0.089	-0.078
-227.727	0.481	-0.449	-0.317
-226.713	-171.963	0.323	0.010
-225.698	-91.069	0.198	0.056
-224.684	256.293	-0.125	-0.212
-223.669	-84.032	0.070	-0.022
-222.655	800.000	0.069	0.284
-221.640	-200.000	-0.023	0.295
-220.625	518.716	-0.087	-0.200
-219.611	119.355	-0.097	0.119
-218.596	384.097	0.128	0.261
-217.582	-29.948	-0.051	0.028
-216.567	181.599	-0.300	-0.436
-215.552	175.929	0.110	-0.158
-214.538	2.363	0.177	0.126
-213.523	186.175	0.033	0.048
-212.509	-142.559	0.192	-0.019
-211.494	-138.919	-0.448	-0.048
-210.479	-70.088	-0.093	0.035
-209.465	8.615	0.255	-0.190
-208.450	-42.275	-0.063	0.032
-207.436	800.000	0.089	-0.299
-206.421	264.469	-0.137	-0.235
-205.406	-200.000	-0.034	0.147
-204.392	-34.967	-0.064	-0.034
-203.377	230.151	-0.173	-0.280
-202.363	800.000	-0.115	-0.425
-201.348	220.963	-0.115	-0.183
-200.333	-200.000	0.030	0.146
-199.319	53.421	0.039	-0.037
-198.304	37.197	0.293	-0.257
-197.290	-200.000	-0.277	-0.001
-196.275	-139.714	-0.264	-0.028
-195.260	672.740	-0.043	-0.111
-194.246	130.893	-0.176	-0.223
-193.231	335.184	0.101	0.193
-192.217	-32.149	-0.138	-0.076
-191.202	-75.054	0.116	-0.041
-190.187	502.398	-0.022	-0.051
-189.173	-57.715	0.161	0.070
-188.158	-22.902	-0.290	-0.172
-187.144	-121.643	0.240	-0.039
-186.129	97.608	0.196	-0.222
-185.114	-75.607	0.135	0.047
-184.100	800.000	-0.026	-0.082
-183.085	-57.159	-0.161	-0.070
-182.071	800.000	-0.036	-0.112
-181.056	424.586	-0.064	0.136
-180.042	-195.295	-0.284	-0.002
-179.027	-34.387	0.078	-0.042
-178.012	-63.291	-0.358	0.146
-176.998	-16.119	-0.066	0.042
-175.983	-181.985	-0.048	-0.001
-174.969	-200.000	-0.486	-0.001
-173.954	-69.932	-0.207	-0.078
-172.939	-8.810	0.459	-0.304
-171.925	376.608	-0.212	-0.427
-170.910	164.926	-0.157	0.218
-169.896	-114.549	0.312	-0.059
-168.881	-144.050	-0.118	0.011
-167.866	800.000	-0.060	0.192
-166.852	415.805	-0.034	-0.071
-165.837	-200.000	-0.004	-0.284
-164.823	-66.900	0.188	-0.073
-163.808	23.921	0.055	-0.044
-162.793	-116.558	-0.070	-0.013
-161.779	273.280	-0.268	0.468
-160.764	800.000	0.031	-0.133
-159.750	11.623	0.123	-0.093
-158.735	-120.043	0.203	0.034
-157.720	-166.948	0.092	-0.004
-156.706	-200.000	0.034	0.185
-155.691	-157.193	-0.317	0.019
-154.677	-195.839	-0.207	0.001
-153.662	9.074	0.136	0.101
-152.647	-37.985	0.268	0.140
-151.633	-157.474	0.265	0.016
-150.618	591.660	-0.173	0.421
-149.604	41.732	-0.073	-0.065
-148.589	-200.000	-0.043	0.307
-147.574	-38.500	-0.128	-0.067
-146.560	24.627	0.085	-0.069
-145.545	364.457	-0.116	-0.230
-144.531	-190.114	-0.111	-0.001
-143.516	-130.148	0.211	-0.028
-142.502	-82.217	0.026	0.008
-141.487	-200.000	0.026	0.246
-140.472	3.992	0.240	-0.172
-139.458	60.768	-0.220	-0.215
-138.443	-71.471	0.065	-0.024
-137.429	-36.577	-0.246	0.130
-136.414	800.000	0.057	0.164
-135.399	800.000	-0.107	-0.348
-134.385	294.614	0.099	0.178
-133.370	-64.079	0.423	-0.170
-132.356	-46.209	-0.087	0.042
-131.341	126.579	0.163	-0.203
-130.326	39.867	-0.165	0.146
-129.312	-200.000	-0.015	0.288
-128.297	241.630	0.179	0.294
-127.283	-200.000	0.064	0.448
-126.268	-9.742	-0.168	0.110
-125.253	27.603	0.131	-0.109
-124.239	-200.000	0.011	-0.099
-123.224	-72.888	0.165	-0.060
-122.210	581.525	-0.092	0.223
