DTS Sentinel unit serial number:	SN413079Multiplexer serial number:	ORYXHardware model number:	OX4-SRSoftware version number:	ORYX F/W v4.00 Oryx Data Collector v3.7.2.0data status	okinstallation	princeton_trtdifferential loss correction	single-endedforward channel	channel 3reverse channel	N/Adate	2019/09/15time	03:12:35forward acquisition time	60.00reverse acquisition time	0.00gamma	496.2192k internal	0.2323k external	0.2323temperature offset calibration	0.9962default loss term (dB/km)	0.3790temperature slope calibration	1.0000multiplexer offset coefficient	1.0000multiplexer slope coefficient	1.0000fibre end	0.00T internal ref (°C)	31.14T ext. ref 1 (°C)	4.58T ext. ref 2 (°C)	25.76length (m)	temperature (°C)	Stokes	anti-Stokes-747.200	-110.763	0.277	-0.058
-746.185	800.000	-0.149	0.520
-745.171	-200.000	-0.039	0.236
-744.156	-200.000	-0.009	-0.226
-743.142	2.548	0.072	0.052
-742.127	737.474	0.063	0.171
-741.112	413.092	0.069	-0.148
-740.098	318.847	0.072	0.138
-739.083	35.014	-0.170	0.150
-738.069	73.712	-0.191	0.202
-737.054	-139.268	-0.178	0.019
-736.039	645.199	-0.041	-0.107
-735.025	21.845	-0.045	-0.037
-734.010	-200.000	0.011	0.147
-732.996	800.000	-0.058	-0.223
-731.981	-10.314	-0.319	-0.213
-730.966	69.507	0.113	-0.118
-729.952	-200.000	-0.024	-0.133
-728.937	799.379	0.112	-0.311
-727.923	-171.073	-0.299	-0.010
-726.908	293.145	0.081	0.148
-725.894	64.399	0.309	0.314
-724.879	-49.837	0.140	-0.067
-723.864	153.002	0.126	0.174
-722.850	258.867	-0.071	0.124
-721.835	154.344	0.115	-0.159
-720.821	-200.000	-0.057	-0.332
-719.806	800.000	-0.045	0.164
-718.791	-24.503	-0.209	0.126
-717.777	-180.797	0.231	-0.005
-716.762	-12.872	-0.204	-0.134
-715.748	-200.000	-0.006	0.158
-714.733	800.000	0.045	-0.143
-713.718	-113.292	-0.211	0.042
-712.704	800.000	-0.026	0.101
-711.689	-18.105	-0.172	0.109
-710.675	-97.103	0.109	-0.029
-709.660	-12.967	-0.224	0.147
-708.645	72.094	0.048	-0.050
-707.631	40.528	0.125	0.114
-706.616	-23.959	-0.272	-0.164
-705.602	105.745	-0.014	0.016
-704.587	-132.274	-0.008	0.001
-703.572	-52.819	-0.252	0.117
-702.558	61.993	0.149	-0.149
-701.543	122.963	0.194	0.245
-700.529	800.000	0.092	0.298
-699.514	-24.967	-0.037	-0.022
-698.499	-195.619	0.125	0.001
-697.485	-200.000	0.017	0.250
-696.470	219.362	-0.133	-0.215
-695.456	109.222	0.178	-0.215
-694.441	-200.000	-0.000	-0.095
-693.426	-47.748	-0.398	0.194
-692.412	-161.394	-0.361	-0.019
-691.397	99.420	-0.114	-0.133
-690.383	142.779	-0.068	-0.091
-689.368	-200.000	0.075	-0.495
-688.354	121.974	-0.075	0.094
-687.339	-200.000	-0.014	-0.130
-686.324	-54.180	0.162	-0.074
-685.310	-84.444	-0.182	0.058
-684.295	-119.078	-0.180	-0.032
-683.281	722.776	0.183	0.491
-682.266	453.275	0.042	-0.094
-681.251	369.090	-0.020	0.041
-680.237	800.000	-0.050	-0.175
-679.222	47.744	-0.083	-0.078
-678.208	-118.908	-0.058	-0.010
-677.193	8.396	-0.286	-0.217
-676.178	-200.000	0.000	-0.045
-675.164	286.261	0.226	-0.411
-674.149	800.000	0.029	-0.086
-673.135	54.128	-0.229	-0.222
-672.120	85.242	0.246	-0.272
-671.105	159.453	0.138	0.194
-670.091	-77.360	0.169	-0.059
-669.076	-164.618	-0.293	-0.013
-668.062	156.042	-0.055	-0.076
-667.047	-109.355	-0.031	0.007
-666.032	-157.302	-0.237	0.014
-665.018	98.688	0.121	-0.140
-664.003	-200.000	-0.012	-0.113
-662.989	-200.000	0.037	0.169
-661.974	173.330	-0.090	0.131
-660.959	-60.473	-0.108	-0.046
-659.945	-200.000	0.031	0.142
-658.930	27.686	-0.164	-0.139
-657.916	-200.000	0.001	0.100
-656.901	438.092	-0.168	-0.368
-655.886	492.626	-0.094	0.218
-654.872	-100.946	-0.340	-0.084
-653.857	-200.000	-0.009	-0.430
-652.843	5.285	-0.343	-0.255
-651.828	16.377	-0.194	0.154
-650.814	-59.733	-0.213	-0.092
-649.799	775.362	-0.021	-0.057
-648.784	-76.014	-0.140	-0.050
-647.770	124.824	0.149	-0.189
-646.755	796.207	-0.075	-0.209
-645.741	-39.681	-0.401	-0.211
-644.726	-200.000	0.018	0.368
-643.711	-200.000	0.063	-0.304
-642.697	-200.000	0.058	-0.290
-641.682	85.211	0.130	-0.144
-640.668	-104.371	-0.414	0.096
-639.653	-90.198	0.162	-0.047
-638.638	-200.000	-0.006	-0.059
-637.624	115.451	-0.207	-0.255
-636.609	-44.550	-0.425	-0.214
-635.595	-6.541	0.234	-0.160
-634.580	800.000	-0.059	-0.241
-633.565	-83.684	-0.340	-0.109
-632.551	-200.000	-0.023	0.115
-631.536	181.155	-0.066	-0.097
-630.522	-90.167	0.226	0.066
-629.507	362.604	0.127	0.256
-628.492	800.000	0.086	-0.312
-627.478	442.215	-0.158	0.347
-626.463	-200.000	-0.016	0.075
-625.449	114.577	-0.069	0.084
-624.434	-79.836	-0.297	0.101
-623.419	17.673	-0.192	0.154
-622.405	299.277	-0.115	0.213
-621.390	-175.062	-0.420	0.012
-620.376	-0.470	-0.059	0.042
-619.361	-10.394	-0.254	0.170
-618.346	221.639	-0.126	-0.203
-617.332	68.314	0.067	0.069
-616.317	313.140	-0.141	-0.266
-615.303	-200.000	0.064	-0.325
-614.288	800.000	0.064	0.219
-613.273	489.565	-0.034	-0.079
-612.259	-59.160	-0.249	-0.108
-611.244	-29.665	0.363	-0.208
-610.230	-160.224	-0.169	-0.009
-609.215	-19.438	0.074	-0.046
-608.201	69.004	-0.146	0.151
-607.186	-51.818	0.387	-0.181
-606.171	131.496	0.254	0.328
-605.157	139.759	-0.068	-0.090
-604.142	-154.839	-0.239	0.016
-603.128	800.000	-0.057	0.178
-602.113	-53.882	-0.299	-0.137
-601.098	618.046	-0.063	-0.158
-600.084	-200.000	0.124	0.000
-599.069	179.032	0.159	-0.233
-598.055	-61.264	0.346	0.146
-597.040	-7.300	-0.077	0.052
-596.025	267.003	0.124	0.217
-595.011	-116.988	0.282	0.052
-593.996	-32.886	0.283	-0.158
-592.982	-200.000	-0.005	-0.023
-591.967	480.656	-0.135	-0.308
-590.952	-20.152	0.099	-0.061
-589.938	-200.000	0.005	-0.025
-588.923	220.328	0.127	-0.205
-587.909	-43.213	-0.142	-0.072
-586.894	-128.070	-0.408	0.059
-585.879	-79.903	0.156	0.053
-584.865	163.153	0.115	-0.163
-583.850	-38.760	0.127	-0.067
-582.836	-77.714	-0.196	0.068
-581.821	-200.000	0.000	-0.058
-580.806	-69.087	-0.096	-0.037
-579.792	-48.966	-0.193	-0.093
-578.777	-200.000	0.046	0.231
-577.763	-45.419	-0.155	0.077
-576.748	166.677	0.115	-0.163
-575.733	-163.927	0.396	-0.019
-574.719	-200.000	0.008	0.090
-573.704	614.028	0.049	0.124
-572.690	-200.000	0.002	0.077
-571.675	123.351	0.103	0.130
-570.661	-185.883	-0.117	-0.002
-569.646	427.309	-0.210	-0.455
-568.631	441.675	0.193	-0.423
-567.617	-93.578	0.361	-0.100
-566.602	800.000	0.051	0.201
-565.588	180.046	-0.171	0.251
-564.573	143.782	0.308	-0.411
-563.558	239.905	-0.097	-0.163
-562.544	23.639	-0.089	-0.074
-561.529	-156.606	-0.062	0.004
-560.515	676.237	0.081	-0.211
-559.500	163.133	-0.046	0.064
-558.485	-110.703	-0.214	-0.044
-557.471	70.167	-0.032	0.033
-556.456	-103.050	-0.098	-0.023
-555.442	-194.994	0.058	-0.000
-554.427	440.100	-0.025	-0.056
-553.412	-74.831	-0.237	-0.085
-552.398	800.000	0.057	0.162
-551.383	227.121	-0.143	0.233
-550.369	-34.354	0.108	0.059
-549.354	-77.472	0.242	-0.084
-548.339	159.727	-0.153	-0.213
-547.325	800.000	-0.052	-0.182
-546.310	-200.000	-0.003	0.271
-545.296	253.343	0.156	0.268
-544.281	203.910	0.084	-0.130
-543.266	800.000	-0.045	0.132
-542.252	191.275	0.028	-0.042
-541.237	-200.000	0.011	0.283
-540.223	-200.000	0.001	-0.148
-539.208	457.236	-0.032	-0.072
-538.193	79.007	-0.286	-0.306
-537.179	-200.000	0.023	0.118
-536.164	319.238	0.058	0.110
-535.150	-198.860	-0.108	0.001
-534.135	306.370	-0.113	-0.210
-533.121	58.085	0.278	-0.272
-532.106	-113.370	-0.139	-0.027
-531.091	800.000	-0.026	0.077
-530.077	51.793	0.118	0.113
-529.062	413.560	-0.017	-0.037
-528.048	459.973	0.049	0.110
-527.033	-47.439	0.359	-0.175
-526.018	-85.143	-0.275	-0.086
-525.004	800.000	0.083	0.234
-523.989	800.000	0.038	-0.138
-522.975	-54.128	-0.090	0.041
-521.960	649.645	0.067	0.172
-520.945	198.822	-0.081	-0.124
-519.931	141.811	0.051	-0.068
-518.916	-97.483	0.118	-0.031
-517.902	800.000	-0.039	0.156
-516.887	150.741	-0.124	-0.168
-515.872	324.905	-0.103	-0.196
-514.858	-92.061	-0.161	-0.046
-513.843	-68.929	-0.638	-0.246
-512.829	800.000	-0.095	-0.408
-511.814	105.147	-0.121	0.143
-510.799	-144.824	0.238	0.022
-509.785	32.033	-0.266	0.230
-508.770	159.218	0.028	-0.039
-507.756	116.918	0.251	0.308
-506.741	-0.772	-0.216	-0.153
-505.726	-60.065	0.109	-0.047
-504.712	576.686	0.115	-0.281
-503.697	-105.673	-0.474	-0.107
-502.683	-200.000	0.016	-0.258
-501.668	-63.719	0.132	-0.054
-500.653	-200.000	0.009	-0.252
-499.639	-113.258	0.126	-0.025
-498.624	-200.000	-0.029	-0.321
-497.610	371.193	-0.062	0.125
-496.595	156.889	-0.111	-0.153
-495.581	-51.182	0.074	-0.035
-494.566	-102.000	-0.213	0.051
-493.551	800.000	-0.073	0.221
-492.537	-56.503	-0.332	-0.147
-491.522	-115.650	0.100	-0.019
-490.508	199.053	-0.072	-0.110
-489.493	-29.594	0.327	0.187
-488.478	-200.000	0.016	-0.119
-487.464	356.815	-0.049	-0.097
-486.449	42.326	-0.083	0.076
-485.435	601.762	0.185	0.460
-484.420	-200.000	-0.014	0.206
-483.405	-80.619	-0.225	-0.075
-482.391	-119.048	0.270	0.047
-481.376	93.114	0.106	-0.120
-480.362	-115.752	-0.096	-0.018
-479.347	345.324	0.148	-0.290
-478.332	320.073	-0.209	-0.396
-477.318	1.622	-0.139	-0.100
-476.303	-91.793	0.289	0.082
-475.289	-200.000	-0.021	0.141
-474.274	-74.072	-0.075	-0.027
-473.259	365.939	0.079	0.159
-472.245	406.100	-0.182	0.384
-471.230	-200.000	-0.022	-0.145
-470.216	-200.000	0.008	-0.175
-469.201	-89.614	0.418	0.123
-468.186	-53.003	0.224	-0.103
-467.172	192.369	-0.063	-0.095
-466.157	-79.142	-0.390	-0.132
-465.143	213.664	0.076	0.119
-464.128	-154.880	0.207	-0.014
-463.113	671.177	-0.113	-0.292
-462.099	-184.400	0.091	0.001
-461.084	-200.000	0.036	-0.186
-460.070	800.000	0.053	-0.154
-459.055	376.411	0.051	-0.103
-458.040	-25.507	0.052	-0.031
-457.026	83.238	-0.113	-0.123
-456.011	-99.435	0.300	0.075
-454.997	-55.029	-0.088	0.040
-453.982	159.293	-0.041	0.058
-452.968	-105.011	-0.271	-0.062
-451.953	-200.000	-0.017	0.245
-450.938	-126.885	0.402	-0.059
-449.924	-38.946	0.076	0.040
-448.909	800.000	-0.050	-0.198
-447.895	-93.357	0.074	0.020
-446.880	-200.000	0.005	0.281
-445.865	-118.448	-0.079	0.014
-444.851	-90.157	-0.312	0.091
-443.836	69.214	0.306	0.314
-442.822	89.330	-0.247	0.275
-441.807	-90.822	-0.060	0.017
-440.792	188.996	0.101	-0.152
-439.778	800.000	0.069	0.204
-438.763	54.198	0.282	0.270
-437.749	800.000	0.078	0.229
-436.734	-102.207	0.271	0.065
-435.719	215.582	-0.059	-0.094
-434.705	-200.000	-0.005	-0.378
-433.690	800.000	-0.035	-0.137
-432.676	54.888	-0.170	-0.163
-431.661	-200.000	0.015	0.143
-430.646	-200.000	-0.044	0.226
-429.632	14.341	-0.032	0.025
-428.617	254.541	0.076	-0.129
-427.603	70.016	-0.252	-0.259
-426.588	-55.924	0.233	0.104
-425.573	800.000	0.052	0.202
-424.559	-89.497	-0.159	-0.047
-423.544	-200.000	0.032	-0.148
-422.530	-72.846	0.128	0.047
-421.515	-164.508	0.229	-0.010
-420.500	-89.648	0.200	-0.058
-419.486	-13.542	0.172	0.111
-418.471	401.748	-0.116	0.244
-417.457	466.423	-0.136	-0.304
-416.442	-200.000	-0.023	-0.310
-415.428	206.643	-0.084	-0.130
-414.413	-2.844	0.325	-0.226
-413.398	-41.643	0.266	0.136
-412.384	800.000	-0.085	0.298
-411.369	-121.037	0.339	0.057
-410.355	-89.308	-0.262	0.077
-409.340	800.000	-0.055	0.221
-408.325	44.486	0.190	-0.174
-407.311	-43.849	0.312	0.156
-406.296	-118.424	0.158	0.028
-405.282	-2.898	0.173	-0.120
-404.267	-200.000	-0.038	-0.318
-403.252	117.327	0.102	0.125
-402.238	-200.000	-0.015	-0.114
-401.223	87.129	0.193	0.212
-400.209	51.880	0.204	-0.194
-399.194	0.182	-0.101	0.071
-398.179	-97.498	-0.111	0.029
-397.165	800.000	-0.050	0.197
-396.150	-121.108	-0.189	0.031
-395.136	-27.288	-0.261	-0.151
-394.121	800.000	-0.153	0.457
-393.106	-5.540	0.229	0.156
-392.092	-200.000	0.016	-0.097
-391.077	28.958	0.153	0.129
-390.063	-150.424	-0.312	-0.024
-389.048	-27.790	0.109	0.063
-388.033	696.044	-0.066	0.173
-387.019	800.000	-0.055	-0.216
-386.004	-49.899	0.166	-0.078
-384.990	467.533	-0.063	0.141
-383.975	-37.203	-0.028	0.015
-382.960	187.953	0.114	0.169
-381.946	-32.758	0.217	-0.120
-380.931	-187.582	-0.303	-0.004
-379.917	19.744	0.191	-0.153
-378.902	-107.037	-0.398	-0.087
-377.888	800.000	-0.020	-0.073
-376.873	800.000	0.026	0.091
-375.858	37.362	0.114	0.101
-374.844	-200.000	0.005	0.171
-373.829	-138.487	-0.213	0.023
-372.815	158.681	-0.062	0.086
-371.800	651.863	0.016	0.042
-370.785	-200.000	0.059	0.333
-369.771	227.060	-0.030	0.048
-368.756	-118.810	-0.179	0.031
-367.742	82.135	0.189	0.204
-366.727	-134.379	0.284	0.035
-365.712	-88.396	-0.267	-0.079
-364.698	48.426	0.088	0.082
-363.683	-103.237	-0.262	-0.062
-362.669	440.042	-0.030	0.065
-361.654	-200.000	-0.050	-0.293
-360.639	-200.000	0.012	-0.107
-359.625	-103.250	0.575	0.135
-358.610	-47.692	0.497	0.240
-357.596	-90.845	-0.234	0.067
-356.581	-200.000	0.033	-0.180
-355.566	-121.914	0.247	0.041
-354.552	18.202	-0.210	-0.167
-353.537	328.290	-0.084	-0.161
-352.523	724.796	0.106	-0.282
-351.508	-100.269	0.307	0.076
-350.493	21.989	-0.240	0.194
-349.479	227.798	0.068	-0.110
-348.464	159.743	-0.086	0.119
-347.450	800.000	0.035	0.127
-346.435	-200.000	-0.010	0.278
-345.420	-116.760	-0.152	0.028
-344.406	-200.000	0.047	-0.281
-343.391	460.774	0.172	-0.382
-342.377	-145.897	0.207	0.018
-341.362	53.186	0.178	0.170
-340.348	-69.783	0.077	-0.029
-339.333	800.000	0.041	0.141
-338.318	23.282	0.173	-0.142
-337.304	310.446	0.178	0.332
-336.289	800.000	0.026	-0.090
-335.275	-117.465	-0.210	0.038
-334.260	-200.000	0.060	-0.299
-333.245	-200.000	0.013	-0.296
-332.231	-99.989	-0.257	0.064
-331.216	-106.407	0.206	-0.046
-330.202	396.236	0.221	-0.459
-329.187	-200.000	-0.033	0.232
-328.172	421.320	-0.098	0.209
-327.158	445.745	-0.042	-0.091
-326.143	-40.752	0.322	-0.166
-325.129	-69.524	-0.104	-0.040
-324.114	50.921	0.348	0.327
-323.099	402.714	0.099	-0.207
-322.085	374.760	0.132	-0.268
-321.070	87.872	-0.093	0.102
-320.056	-200.000	0.018	0.080
-319.041	-200.000	-0.014	0.210
-318.026	-59.228	0.416	0.178
-317.012	423.378	-0.136	0.290
-315.997	-200.000	-0.010	-0.149
-314.983	-5.086	-0.155	-0.106
-313.968	800.000	0.035	-0.115
-312.953	555.280	-0.150	-0.358
-311.939	800.000	-0.068	-0.206
-310.924	800.000	-0.096	-0.351
-309.910	523.504	-0.010	-0.024
-308.895	-101.182	0.238	0.058
-307.880	265.750	-0.136	-0.236
-306.866	800.000	0.077	0.247
-305.851	126.119	-0.189	-0.238
-304.837	-200.000	-0.032	-0.321
-303.822	-200.000	0.027	-0.139
-302.807	-5.599	0.024	-0.016
-301.793	31.120	-0.197	0.168
-300.778	-96.057	0.163	0.043
-299.764	800.000	-0.069	0.192
-298.749	6.977	-0.271	-0.200
-297.735	23.069	0.041	0.034
-296.720	800.000	0.064	0.273
-295.705	-200.000	0.041	0.184
-294.691	63.854	0.138	0.138
-293.676	-90.712	0.118	-0.034
-292.662	-14.459	0.057	-0.036
-291.647	369.474	0.069	-0.138
-290.632	-8.192	0.211	0.141
-289.618	-114.147	0.355	0.068
-288.603	-42.423	-0.316	0.160
-287.589	800.000	-0.127	-0.349
-286.574	716.781	-0.060	-0.159
-285.559	-103.114	-0.159	0.037
-284.545	641.004	0.042	-0.106
-283.530	-185.518	0.098	0.001
-282.516	-152.255	0.101	-0.007
-281.501	-200.000	-0.068	0.319
-280.486	-84.515	-0.194	-0.061
-279.472	-200.000	0.013	-0.171
-278.457	52.774	-0.122	0.116
-277.443	-48.283	-0.130	0.062
-276.428	-200.000	-0.016	0.098
-275.413	227.160	-0.166	0.267
-274.399	19.810	-0.167	0.133
-273.384	-71.083	0.023	-0.009
-272.370	-169.319	-0.318	0.012
-271.355	-135.749	-0.124	0.015
-270.340	403.193	-0.062	0.130
-269.326	196.383	-0.045	0.068
-268.311	800.000	0.063	0.217
-267.297	1.297	0.180	0.128
-266.282	-200.000	0.005	0.068
-265.267	399.715	-0.039	-0.081
-264.253	119.272	0.097	0.119
-263.238	-89.787	0.128	0.037
-262.224	-200.000	0.007	0.167
-261.209	361.221	-0.228	0.453
-260.195	-200.000	0.025	0.119
-259.180	-101.305	-0.212	-0.051
-258.165	77.039	-0.178	0.188
-257.151	136.617	-0.147	-0.191
-256.136	800.000	-0.019	0.065
-255.122	-49.152	-0.156	0.074
-254.107	-110.121	0.273	0.057
-253.092	-200.000	-0.065	0.586
-252.078	800.000	0.057	0.222
-251.063	-116.019	-0.228	0.042
-250.049	337.555	0.060	-0.115
-249.034	-50.523	-0.091	0.043
-248.019	-94.688	0.073	-0.020
-247.005	-101.284	-0.305	0.074
-245.990	117.803	-0.263	-0.320
-244.976	-137.891	0.028	-0.003
-243.961	28.383	0.122	-0.102
-242.946	556.841	0.081	-0.194
-241.932	-69.277	-0.215	-0.082
-240.917	555.054	-0.035	-0.083
-239.903	102.159	0.080	-0.092
-238.888	-41.996	-0.230	0.117
-237.873	-124.095	0.160	0.025
-236.859	422.879	-0.072	0.153
-235.844	-8.421	0.100	-0.067
-234.830	14.818	-0.234	-0.181
-233.815	-200.000	-0.002	0.118
-232.800	70.311	0.009	0.010
-231.786	54.999	-0.230	-0.220
-230.771	4.958	0.127	0.092
-229.757	43.698	0.262	0.237
-228.742	272.599	0.101	0.177
-227.727	750.023	-0.075	0.199
-226.713	190.187	-0.033	-0.049
-225.698	62.074	0.286	0.282
-224.684	-6.482	-0.058	-0.039
-223.669	326.275	0.132	0.249
-222.655	287.285	-0.064	-0.114
-221.640	562.094	0.110	0.264
-220.625	-54.844	0.493	-0.220
-219.611	230.446	-0.211	0.341
-218.596	-200.000	-0.010	0.275
-217.582	-200.000	0.018	-0.262
-216.567	41.128	-0.206	0.184
-215.552	-200.000	-0.029	0.309
-214.538	-62.345	0.256	-0.105
-213.523	-200.000	0.031	0.157
-212.509	-64.917	-0.156	0.062
-211.494	55.921	0.044	-0.042
-210.479	58.023	0.181	0.175
-209.465	-200.000	0.024	0.165
-208.450	-200.000	-0.007	0.041
-207.436	373.893	-0.067	-0.136
-206.421	800.000	-0.104	-0.292
-205.406	-108.026	0.096	-0.021
-204.392	-36.244	-0.279	0.149
-203.377	-99.249	0.081	-0.020
-202.363	800.000	0.055	0.226
-201.348	237.527	-0.045	-0.074
-200.333	800.000	-0.033	0.091
-199.319	144.618	0.216	0.285
-198.304	-200.000	-0.029	0.202
-197.290	800.000	0.093	0.374
-196.275	-200.000	-0.063	0.298
-195.260	207.460	-0.206	0.317
-194.246	800.000	-0.060	-0.201
-193.231	-200.000	0.017	-0.209
-192.217	259.317	-0.153	-0.261
-191.202	-80.943	-0.645	-0.211
-190.187	-22.681	0.180	0.107
-189.173	87.319	0.097	-0.106
-188.158	667.218	-0.056	-0.143
-187.144	289.403	0.219	-0.392
-186.129	102.403	-0.248	0.286
-185.114	-200.000	-0.005	0.050
-184.100	-200.000	-0.014	-0.210
-183.085	168.931	-0.139	-0.196
-182.071	229.385	0.127	-0.206
-181.056	561.311	0.065	-0.156
-180.042	-42.479	0.176	-0.089
-179.027	-9.235	0.078	0.051
-178.012	-116.172	0.210	-0.039
-176.998	-108.484	-0.066	0.014
-175.983	-200.000	-0.073	-0.418
-174.969	-126.778	0.354	-0.052
-173.954	800.000	-0.057	0.215
-172.939	-30.153	-0.148	-0.083
-171.925	45.416	0.148	-0.135
-170.910	-105.195	-0.301	0.068
-169.896	-11.371	0.089	-0.058
-168.881	-154.704	0.385	0.025
-167.866	-110.714	-0.151	0.031
-166.852	27.375	0.015	0.013
-165.837	-188.235	-0.308	0.004
-164.823	148.875	-0.152	0.202
-163.808	-200.000	0.032	0.292
-162.793	6.011	0.170	-0.124
-161.779	75.162	0.075	-0.078
-160.764	140.388	-0.204	0.266
-159.750	408.862	-0.069	0.143
-158.735	-46.124	-0.089	0.043
-157.720	-92.236	0.343	0.095
-156.706	-83.944	0.289	0.091
-155.691	-164.370	0.371	0.017
-154.677	309.147	-0.158	0.291
-153.662	-0.678	0.241	-0.168
-152.647	-200.000	0.050	0.397
-151.633	-12.694	-0.230	0.148
-150.618	100.881	0.203	-0.232
-149.604	-200.000	-0.008	-0.122
-148.589	800.000	0.109	-0.429
-147.574	800.000	0.041	-0.153
-146.560	-200.000	-0.045	0.226
-145.545	-200.000	-0.055	0.512
-144.531	298.994	-0.089	0.162
-143.516	126.445	-0.184	0.229
-142.502	-99.762	0.070	-0.017
-141.487	220.858	-0.139	0.220
-140.472	36.189	0.107	0.093
-139.458	-129.384	-0.217	0.030
-138.443	-38.425	0.090	0.047
-137.429	681.592	-0.109	0.280
-136.414	91.983	0.193	0.214
-135.399	-200.000	-0.015	-0.281
-134.385	129.489	0.093	0.117
-133.370	-200.000	0.008	0.172
-132.356	-188.958	0.072	-0.001
-131.341	-200.000	-0.026	0.313
-130.326	110.157	0.210	0.249
-129.312	-12.819	0.111	0.071
-128.297	800.000	-0.035	0.136
-127.283	-24.252	-0.288	-0.169
-126.268	8.038	0.178	-0.132
-125.253	-44.716	-0.207	-0.102
-124.239	-48.796	-0.254	0.120
-123.224	-200.000	-0.015	0.226
-122.210	82.368	-0.247	-0.265
