DTS Sentinel unit serial number:	SN413079Multiplexer serial number:	ORYXHardware model number:	OX4-SRSoftware version number:	ORYX F/W v4.00 Oryx Data Collector v3.7.2.0data status	okinstallation	princeton_trtdifferential loss correction	single-endedforward channel	channel 3reverse channel	N/Adate	2019/09/19time	02:00:34forward acquisition time	60.00reverse acquisition time	0.00gamma	496.2192k internal	0.2347k external	0.2347temperature offset calibration	0.9989default loss term (dB/km)	0.3790temperature slope calibration	1.0000multiplexer offset coefficient	1.0000multiplexer slope coefficient	1.0000fibre end	0.00T internal ref (°C)	21.25T ext. ref 1 (°C)	0.68T ext. ref 2 (°C)	14.83length (m)	temperature (°C)	Stokes	anti-Stokes-747.200	-6.170	-0.081	-0.055
-746.185	435.648	-0.027	0.058
-745.171	42.553	-0.039	-0.036
-744.156	19.675	-0.298	0.240
-743.142	529.116	-0.089	-0.211
-742.127	731.726	-0.034	0.091
-741.112	-200.000	-0.024	0.113
-740.098	-134.667	-0.069	0.008
-739.083	-59.302	0.462	0.199
-738.069	45.159	0.093	0.086
-737.054	-200.000	-0.002	0.213
-736.039	-38.830	-0.264	0.139
-735.025	-200.000	0.086	0.449
-734.010	87.195	-0.381	0.421
-732.996	800.000	0.060	0.199
-731.981	-99.441	-0.020	0.005
-730.966	101.421	-0.205	0.239
-729.952	181.686	-0.190	-0.279
-728.937	47.228	-0.217	0.202
-727.923	84.525	-0.121	-0.132
-726.908	169.147	-0.050	-0.071
-725.894	-64.850	-0.181	-0.073
-724.879	-127.154	-0.162	0.024
-723.864	119.698	-0.106	-0.131
-722.850	-17.361	-0.044	0.028
-721.835	800.000	0.059	-0.232
-720.821	298.095	0.136	-0.250
-719.806	-200.000	0.003	-0.177
-718.791	-93.758	-0.348	0.096
-717.777	-21.213	-0.133	-0.081
-716.762	-27.806	-0.108	-0.063
-715.748	345.673	-0.099	0.193
-714.733	-4.197	0.279	0.193
-713.718	356.353	0.111	-0.220
-712.704	-200.000	0.039	-0.202
-711.689	107.351	-0.109	-0.130
-710.675	-200.000	-0.020	0.110
-709.660	-73.381	0.302	0.110
-708.645	-190.099	0.089	0.001
-707.631	-73.683	-0.201	0.073
-706.616	-181.301	-0.032	-0.001
-705.602	66.952	0.139	0.141
-704.587	-200.000	0.012	-0.160
-703.572	-40.785	-0.365	-0.188
-702.558	-86.740	-0.305	-0.093
-701.543	443.800	-0.126	-0.275
-700.529	-64.106	-0.108	-0.044
-699.514	-123.386	-0.129	-0.021
-698.499	-66.678	0.385	-0.152
-697.485	29.897	0.139	0.118
-696.470	-131.388	-0.214	-0.028
-695.456	49.313	0.030	0.028
-694.441	-200.000	-0.024	-0.212
-693.426	-50.408	-0.153	0.072
-692.412	-32.144	0.246	-0.137
-691.397	-13.654	-0.168	-0.108
-690.383	-104.322	-0.321	0.074
-689.368	260.484	0.059	-0.103
-688.354	-19.451	0.190	-0.118
-687.339	552.496	0.047	-0.113
-686.324	292.864	0.030	0.054
-685.310	-39.764	-0.050	-0.026
-684.295	-200.000	-0.023	-0.191
-683.281	-83.342	-0.148	-0.047
-682.266	-87.809	0.187	-0.056
-681.251	189.792	-0.128	-0.191
-680.237	-16.726	0.302	-0.191
-679.222	250.454	-0.218	0.369
-678.208	-15.563	0.251	0.160
-677.193	-59.216	0.045	0.019
-676.178	40.607	0.157	0.141
-675.164	116.650	0.181	0.221
-674.149	-110.885	-0.294	-0.060
-673.135	97.216	-0.197	0.225
-672.120	440.889	-0.094	-0.205
-671.105	-151.961	-0.296	0.022
-670.091	-88.562	0.058	0.017
-669.076	0.690	-0.361	-0.257
-668.062	-48.142	0.379	-0.182
-667.047	800.000	-0.105	-0.337
-666.032	-93.026	-0.185	0.051
-665.018	-54.410	0.029	-0.013
-664.003	-26.358	0.397	-0.232
-662.989	-200.000	0.007	-0.143
-661.974	-52.855	0.083	-0.038
-660.959	-25.383	-0.187	-0.110
-659.945	54.445	-0.088	-0.085
-658.930	-101.286	-0.294	-0.071
-657.916	-159.823	0.245	-0.013
-656.901	1.640	0.179	0.128
-655.886	293.109	0.008	0.014
-654.872	-35.406	0.068	-0.037
-653.857	-139.599	-0.529	0.056
-652.843	800.000	0.093	0.309
-651.828	-13.582	0.163	-0.105
-650.814	-102.164	-0.049	-0.012
-649.799	-29.453	-0.164	-0.093
-648.784	-56.715	-0.270	0.119
-647.770	-200.000	0.023	-0.192
-646.755	-99.054	-0.046	0.012
-645.741	-17.731	0.163	0.102
-644.726	38.257	-0.044	0.039
-643.711	-88.919	-0.306	0.090
-642.697	-183.101	0.163	0.003
-641.682	17.329	0.143	-0.113
-640.668	59.740	-0.280	-0.275
-639.653	-65.667	-0.149	0.059
-638.638	800.000	0.027	0.119
-637.624	-24.537	-0.273	-0.162
-636.609	782.028	0.032	-0.086
-635.595	-81.378	-0.077	-0.025
-634.580	-200.000	0.004	-0.126
-633.565	-29.660	-0.162	0.092
-632.551	-21.802	0.136	0.082
-631.536	434.158	0.087	0.187
-630.522	-107.513	-0.285	-0.062
-629.507	516.356	0.060	-0.140
-628.492	-200.000	0.043	-0.303
-627.478	145.047	-0.083	-0.110
-626.463	800.000	-0.057	-0.193
-625.449	12.420	-0.063	0.049
-624.434	-200.000	-0.017	-0.267
-623.419	-65.481	0.337	-0.135
-622.405	119.322	-0.089	0.110
-621.390	150.639	-0.136	-0.184
-620.376	-15.857	0.198	-0.126
-619.361	-79.602	-0.126	0.042
-618.346	285.667	0.106	-0.191
-617.332	-200.000	0.057	-0.262
-616.317	-200.000	-0.001	-0.132
-615.303	181.444	0.077	0.112
-614.288	-145.312	-0.063	0.006
-613.273	-116.646	0.203	-0.037
-612.259	-106.990	-0.230	-0.051
-611.244	89.258	0.141	-0.156
-610.230	-200.000	0.001	-0.088
-609.215	323.882	-0.153	0.290
-608.201	-66.752	-0.336	0.132
-607.186	-200.000	-0.022	0.228
-606.171	-15.292	0.161	-0.102
-605.157	-78.506	-0.276	0.094
-604.142	175.586	-0.126	0.182
-603.128	-103.057	-0.191	0.045
-602.113	254.619	0.145	0.247
-601.098	-39.926	0.070	0.036
-600.084	-13.501	0.013	0.008
-599.069	-14.210	-0.163	0.104
-598.055	-38.736	0.434	-0.227
-597.040	800.000	-0.018	-0.062
-596.025	-200.000	0.022	-0.464
-595.011	-200.000	-0.000	0.097
-593.996	-68.937	0.300	0.115
-592.982	-113.134	0.117	0.023
-591.967	-72.094	0.112	-0.041
-590.952	-121.305	-0.143	0.024
-589.938	193.204	-0.042	0.063
-588.923	247.004	-0.067	0.112
-587.909	212.958	0.215	-0.337
-586.894	6.143	-0.172	0.127
-585.879	800.000	-0.048	-0.203
-584.865	130.100	-0.228	0.290
-583.850	-200.000	0.041	0.225
-582.836	-63.782	0.203	-0.082
-581.821	-142.654	0.196	-0.019
-580.806	-166.138	-0.268	-0.011
-579.792	415.593	0.068	-0.143
-578.777	800.000	0.037	0.145
-577.763	-27.585	-0.261	-0.151
-576.748	-72.426	0.089	-0.033
-575.733	759.188	-0.101	0.272
-574.719	-200.000	-0.003	0.062
-573.704	88.152	-0.070	-0.077
-572.690	247.802	-0.110	-0.185
-571.675	-135.601	-0.133	0.016
-570.661	38.489	0.432	-0.383
-569.646	800.000	0.014	0.057
-568.631	13.893	0.207	0.160
-567.617	800.000	-0.076	0.230
-566.602	-200.000	0.065	0.418
-565.588	-200.000	-0.037	-0.400
-564.573	-133.241	-0.074	0.009
-563.558	-100.941	-0.066	0.016
-562.544	-97.734	0.406	-0.104
-561.529	-200.000	-0.041	0.233
-560.515	175.618	-0.245	-0.352
-559.500	-75.675	-0.254	-0.090
-558.485	800.000	-0.044	0.168
-557.471	-75.846	-0.290	-0.102
-556.456	16.880	0.011	-0.008
-555.442	316.873	0.092	-0.172
-554.427	-200.000	-0.004	0.043
-553.412	38.566	0.151	-0.134
-552.398	-200.000	0.040	-0.323
-551.383	-200.000	0.015	0.081
-550.369	130.161	0.024	-0.030
-549.354	18.915	-0.059	0.047
-548.339	-200.000	0.042	0.225
-547.325	-50.661	0.111	0.052
-546.310	-166.405	-0.156	0.006
-545.296	412.599	-0.038	0.080
-544.281	-164.576	0.291	-0.013
-543.266	48.551	0.093	-0.087
-542.252	174.043	-0.044	-0.063
-541.237	-130.761	-0.146	0.019
-540.223	-200.000	0.047	0.391
-539.208	-143.392	-0.298	-0.028
-538.193	-91.219	0.242	0.069
-537.179	-200.000	0.075	0.415
-536.164	31.518	0.068	0.058
-535.150	148.739	-0.229	0.306
-534.135	-89.313	-0.207	-0.060
-533.121	-200.000	-0.023	-0.367
-532.106	800.000	0.054	0.206
-531.091	509.469	0.087	0.200
-530.077	800.000	-0.100	-0.311
-529.062	512.708	0.044	0.101
-528.048	2.716	-0.080	-0.058
-527.033	800.000	0.089	0.255
-526.018	-43.488	-0.199	0.100
-525.004	800.000	-0.045	-0.139
-523.989	-125.205	0.183	-0.028
-522.975	-121.343	-0.242	0.040
-521.960	343.425	0.057	0.111
-520.945	53.767	0.115	0.109
-519.931	365.668	-0.078	0.155
-518.916	398.932	0.031	-0.064
-517.902	800.000	0.092	0.332
-516.887	-15.637	-0.346	0.219
-515.872	-107.729	-0.199	0.043
-514.858	-200.000	-0.015	-0.135
-513.843	800.000	-0.039	-0.124
-512.829	-200.000	0.012	0.168
-511.814	111.790	0.200	-0.239
-510.799	48.894	0.132	0.122
-509.785	37.243	-0.154	0.135
-508.770	36.798	-0.117	-0.102
-507.756	-60.151	0.095	0.040
-506.741	-200.000	0.009	-0.144
-505.726	585.083	-0.046	-0.111
-504.712	-95.688	0.297	0.079
-503.697	0.746	-0.144	0.102
-502.683	-72.123	0.083	-0.031
-501.668	-200.000	-0.054	-0.440
-500.653	-147.791	-0.221	-0.018
-499.639	255.995	0.119	-0.202
-498.624	-12.558	0.149	-0.096
-497.610	-158.832	-0.192	-0.011
-496.595	6.430	-0.273	-0.201
-495.581	118.270	-0.071	-0.087
-494.566	-34.730	0.108	-0.059
-493.551	-200.000	0.018	-0.210
-492.537	800.000	-0.011	0.037
-491.522	-200.000	-0.005	-0.032
-490.508	39.652	0.139	-0.123
-489.493	-200.000	-0.031	0.445
-488.478	-92.152	-0.351	-0.098
-487.464	209.246	0.038	0.059
-486.449	109.283	0.078	0.093
-485.435	-200.000	-0.029	0.138
-484.420	-111.255	-0.217	0.044
-483.405	229.655	-0.146	0.236
-482.391	-200.000	-0.050	0.239
-481.376	10.033	-0.158	-0.119
-480.362	22.688	-0.036	-0.029
-479.347	205.617	0.035	-0.054
-478.332	-26.542	0.127	0.073
-477.318	-60.267	0.162	0.068
-476.303	-91.534	-0.199	-0.056
-475.289	453.657	-0.103	0.225
-474.274	643.753	0.166	0.419
-473.259	-200.000	-0.000	-0.113
-472.245	-200.000	0.011	0.073
-471.230	-61.269	-0.278	0.116
-470.216	-200.000	-0.019	-0.208
-469.201	-122.874	-0.249	-0.040
-468.186	59.489	0.365	-0.356
-467.172	93.882	-0.103	-0.116
-466.157	316.864	0.120	0.224
-465.143	800.000	-0.107	-0.317
-464.128	-200.000	0.028	-0.319
-463.113	-86.219	0.103	-0.031
-462.099	800.000	0.080	-0.266
-461.084	46.563	0.334	-0.307
-460.070	-80.862	-0.287	-0.094
-459.055	44.595	-0.190	-0.172
-458.040	89.716	-0.083	-0.091
-457.026	-200.000	0.076	0.400
-456.011	57.027	0.059	-0.057
-454.997	800.000	-0.080	0.306
-453.982	-200.000	0.009	-0.072
-452.968	-36.857	-0.268	0.142
-451.953	253.622	-0.250	0.422
-450.938	-52.915	0.143	0.065
-449.924	-181.287	0.087	0.002
-448.909	-149.104	-0.082	0.006
-447.895	-110.705	-0.186	0.038
-446.880	13.217	-0.137	-0.105
-445.865	-200.000	0.007	0.171
-444.851	-178.050	0.112	0.003
-443.836	100.906	-0.229	-0.263
-442.822	-200.000	0.001	-0.017
-441.807	0.141	-0.265	0.187
-440.792	-114.134	-0.197	-0.038
-439.778	114.469	0.258	-0.310
-438.763	-200.000	-0.014	-0.159
-437.749	-83.545	-0.410	0.130
-436.734	-6.548	-0.209	0.140
-435.719	-119.343	0.046	0.008
-434.705	-159.943	0.204	-0.011
-433.690	-49.661	-0.059	0.028
-432.676	-92.149	0.148	0.041
-431.661	240.210	-0.061	0.101
-430.646	-177.318	-0.008	-0.000
-429.632	-66.873	0.227	0.089
-428.617	-115.867	-0.196	0.036
-427.603	-31.595	0.223	-0.124
-426.588	341.520	-0.098	0.190
-425.573	182.692	-0.059	0.086
-424.559	-200.000	-0.048	-0.302
-423.544	800.000	0.050	-0.160
-422.530	667.556	0.082	0.209
-421.515	56.801	0.140	0.134
-420.500	405.528	-0.047	-0.097
-419.486	220.855	0.156	-0.247
-418.471	-34.055	-0.147	-0.080
-417.457	192.073	0.150	0.224
-416.442	26.260	0.096	-0.080
-415.428	18.756	0.127	-0.100
-414.413	-84.961	0.078	-0.024
-413.398	-200.000	-0.042	0.368
-412.384	-46.570	-0.086	0.042
-411.369	-102.125	0.346	-0.082
-410.355	-45.985	-0.185	-0.090
-409.340	21.087	0.225	-0.180
-408.325	800.000	0.006	-0.022
-407.311	-126.183	-0.180	-0.027
-406.296	519.723	0.093	-0.216
-405.282	-12.662	0.301	-0.194
-404.267	-43.186	0.168	0.084
-403.252	-4.346	0.155	-0.106
-402.238	-4.138	-0.345	0.235
-401.223	-174.943	0.073	-0.002
-400.209	-123.234	-0.268	-0.042
-399.194	-200.000	-0.004	0.096
-398.179	-200.000	0.048	0.541
-397.165	-118.676	0.209	0.036
-396.150	13.718	-0.146	0.111
-395.136	255.669	-0.216	0.365
-394.121	-106.434	-0.024	-0.005
-393.106	-55.873	0.108	0.048
-392.092	-77.953	-0.081	0.028
-391.077	155.214	-0.119	-0.162
-390.063	-156.659	0.264	0.016
-389.048	205.844	-0.107	0.164
-388.033	-104.534	-0.051	0.012
-387.019	322.722	-0.090	0.170
-386.004	7.616	0.151	0.112
-384.990	26.102	0.080	-0.066
-383.975	776.931	0.051	0.136
-382.960	-200.000	0.002	-0.065
-381.946	-139.100	0.193	0.021
-380.931	269.139	0.056	0.097
-379.917	276.791	-0.160	-0.280
-378.902	-38.864	-0.186	-0.097
-377.888	182.818	0.022	0.032
-376.873	-200.000	0.021	-0.112
-375.858	536.586	-0.070	-0.163
-374.844	-127.023	-0.106	-0.015
-373.829	-99.157	0.263	0.066
-372.815	182.251	-0.096	0.140
-371.800	-47.340	-0.391	-0.187
-370.785	78.310	-0.171	-0.180
-369.771	66.062	0.082	-0.082
-368.756	82.982	-0.099	-0.106
-367.742	2.343	-0.178	0.127
-366.727	-154.309	0.185	-0.012
-365.712	800.000	0.049	0.136
-364.698	198.008	-0.120	0.181
-363.683	-82.146	-0.216	-0.069
-362.669	310.108	0.058	-0.107
-361.654	50.357	0.095	-0.088
-360.639	290.313	0.076	0.136
-359.625	-200.000	-0.028	-0.161
-358.610	717.164	0.040	0.105
-357.596	-15.132	0.157	0.099
-356.581	128.378	-0.138	-0.174
-355.566	131.484	-0.083	0.105
-354.552	233.600	0.093	-0.150
-353.537	-200.000	-0.052	0.442
-352.523	111.339	-0.097	0.115
-351.508	-69.607	-0.263	-0.099
-350.493	18.887	-0.156	-0.123
-349.479	800.000	-0.059	0.176
-348.464	-200.000	-0.018	-0.158
-347.450	-200.000	-0.043	-0.229
-346.435	169.108	0.119	0.167
-345.420	-141.943	0.393	-0.039
-344.406	480.652	0.051	0.115
-343.391	351.989	-0.166	0.324
-342.377	82.643	-0.180	0.193
-341.362	-20.254	0.139	-0.084
-340.348	373.314	-0.147	0.294
-339.333	120.592	-0.030	-0.037
-338.318	-200.000	0.029	-0.244
-337.304	800.000	-0.093	0.329
-336.289	58.791	-0.029	0.028
-335.275	48.463	-0.207	-0.191
-334.260	400.378	0.090	0.187
-333.245	-83.722	0.078	-0.025
-332.231	599.948	0.068	0.167
-331.216	800.000	-0.077	-0.214
-330.202	343.145	-0.043	-0.082
-329.187	-94.423	0.515	-0.138
-328.172	-29.155	-0.057	-0.032
-327.158	800.000	-0.109	0.315
-326.143	-200.000	-0.003	0.122
-325.129	-4.233	-0.329	0.224
-324.114	311.833	0.118	-0.217
-323.099	25.768	0.314	0.257
-322.085	-89.113	0.210	0.061
-321.070	-0.751	0.148	0.103
-320.056	100.413	0.144	-0.164
-319.041	-22.807	-0.234	0.139
-318.026	-17.382	0.230	0.142
-317.012	-169.206	0.406	0.015
-315.997	-8.724	0.206	-0.136
-314.983	-130.218	0.209	0.028
-313.968	-200.000	0.034	-0.303
-312.953	-152.205	-0.159	-0.011
-311.939	-200.000	0.035	0.304
-310.924	-200.000	-0.012	0.166
-309.910	148.319	-0.215	-0.285
-308.895	184.807	-0.155	-0.226
-307.880	58.440	-0.088	0.085
-306.866	132.601	0.099	-0.126
-305.851	231.145	-0.199	-0.321
-304.837	192.271	0.077	0.114
-303.822	-200.000	0.006	-0.193
-302.807	181.086	-0.038	0.054
-301.793	-131.417	-0.137	-0.018
-300.778	800.000	0.073	0.209
-299.764	-200.000	0.010	-0.133
-298.749	90.447	0.111	-0.123
-297.735	800.000	-0.050	0.202
-296.720	-128.544	-0.224	-0.031
-295.705	-82.207	0.175	-0.056
-294.691	-135.026	0.162	-0.019
-293.676	13.229	0.194	-0.148
-292.662	99.991	-0.285	-0.324
-291.647	-118.349	0.130	0.023
-290.632	-200.000	0.020	-0.139
-289.618	-69.636	0.162	0.061
-288.603	-113.384	0.573	0.110
-287.589	-7.449	-0.178	0.118
-286.574	-23.104	0.241	-0.143
-285.559	45.512	0.193	0.175
-284.545	420.740	0.161	-0.340
-283.530	49.722	-0.092	0.085
-282.516	-200.000	-0.067	0.303
-281.501	-1.943	-0.358	0.247
-280.486	-5.865	0.152	0.102
-279.472	765.433	-0.138	-0.369
-278.457	-182.823	0.338	-0.006
-277.443	196.723	-0.082	0.122
-276.428	-136.261	-0.215	-0.025
-275.413	800.000	0.061	0.198
-274.399	228.812	0.148	-0.236
-273.384	-52.136	-0.198	0.090
-272.370	356.644	-0.041	-0.080
-271.355	-58.982	0.229	0.097
-270.340	452.780	0.151	0.328
-269.326	190.113	0.060	-0.088
-268.311	-9.904	0.075	0.049
-267.297	-76.656	0.128	-0.044
-266.282	614.042	0.101	-0.247
-265.267	-200.000	-0.018	-0.181
-264.253	345.807	0.147	0.283
-263.238	735.026	0.076	0.200
-262.224	-200.000	-0.002	0.132
-261.209	0.146	0.175	-0.123
-260.195	800.000	0.054	-0.220
-259.180	64.196	0.064	0.063
-258.165	-200.000	0.033	-0.241
-257.151	-13.028	-0.213	0.136
-256.136	224.402	0.058	0.092
-255.122	-115.101	-0.117	-0.022
-254.107	293.443	-0.057	0.102
-253.092	-169.277	0.170	-0.006
-252.078	-53.197	0.244	0.110
-251.063	800.000	0.099	0.332
-250.049	-28.282	0.030	-0.017
-249.034	46.967	0.190	0.174
-248.019	-4.117	-0.089	0.061
-247.005	30.855	0.073	0.061
-245.990	-200.000	-0.016	-0.099
-244.976	-200.000	-0.028	-0.125
-243.961	-200.000	-0.060	-0.289
-242.946	-71.148	-0.358	-0.132
-241.932	142.171	0.087	-0.113
-240.917	800.000	-0.039	0.118
-239.903	168.783	-0.036	-0.051
-238.888	644.017	-0.085	0.212
-237.873	519.987	0.116	0.267
-236.859	800.000	0.097	0.296
-235.844	800.000	-0.065	-0.187
-234.830	301.383	-0.133	0.240
-233.815	21.524	-0.393	-0.313
-232.800	-62.085	-0.043	-0.018
-231.786	390.872	0.029	0.058
-230.771	251.340	0.112	-0.187
-229.757	-63.771	0.491	-0.197
-228.742	-81.880	0.183	-0.059
-227.727	800.000	-0.061	0.197
-226.713	-5.328	-0.031	-0.021
-225.698	-108.308	0.134	-0.028
-224.684	-12.507	0.305	0.195
-223.669	170.133	-0.119	0.166
-222.655	498.945	0.177	0.399
-221.640	62.919	-0.064	0.063
-220.625	32.714	0.179	0.152
-219.611	-168.414	-0.337	-0.013
-218.596	-200.000	-0.003	-0.050
-217.582	236.230	-0.179	-0.289
-216.567	413.195	0.032	-0.066
-215.552	214.217	-0.019	-0.029
-214.538	800.000	-0.066	-0.193
-213.523	-70.264	0.238	-0.088
-212.509	293.448	0.229	0.409
-211.494	-200.000	-0.002	-0.156
-210.479	-8.006	-0.292	0.193
-209.465	83.043	-0.126	-0.134
-208.450	-109.403	0.180	0.037
-207.436	-200.000	0.030	-0.200
-206.421	-105.738	0.163	0.036
-205.406	-4.555	0.036	0.024
-204.392	-200.000	0.039	0.271
-203.377	-200.000	0.020	-0.206
-202.363	42.781	-0.017	0.015
-201.348	-120.087	-0.068	-0.011
-200.333	-12.606	-0.047	-0.030
-199.319	-200.000	0.028	-0.131
-198.304	-58.366	0.067	0.028
-197.290	32.193	0.192	-0.162
-196.275	-5.558	-0.021	-0.014
-195.260	550.684	0.079	0.185
-194.246	188.127	-0.116	0.169
-193.231	405.106	0.089	0.184
-192.217	-109.882	-0.457	0.094
-191.202	-136.300	0.194	-0.022
-190.187	325.274	0.028	0.053
-189.173	-200.000	0.014	-0.294
-188.158	611.474	-0.098	-0.240
-187.144	-200.000	0.019	-0.087
-186.129	-200.000	0.034	-0.201
-185.114	-137.288	0.277	0.031
-184.100	81.268	-0.057	-0.060
-183.085	10.658	0.015	-0.011
-182.071	178.505	-0.211	0.301
-181.056	108.644	-0.178	0.208
-180.042	581.168	-0.090	-0.217
-179.027	-200.000	-0.003	0.079
-178.012	-200.000	0.001	-0.226
-176.998	-145.885	-0.166	-0.014
-175.983	441.278	-0.159	-0.341
-174.969	29.926	-0.182	0.151
-173.954	800.000	0.098	0.298
-172.939	-200.000	-0.004	0.127
-171.925	-200.000	-0.020	-0.119
-170.910	557.237	-0.119	-0.280
-169.896	-123.396	0.208	0.032
-168.881	494.266	-0.026	0.059
-167.866	16.435	-0.105	-0.081
-166.852	36.493	0.152	-0.131
-165.837	-200.000	-0.002	-0.087
-164.823	800.000	-0.061	-0.180
-163.808	-40.459	0.230	-0.117
-162.793	289.517	-0.045	-0.080
-161.779	-146.986	0.296	-0.025
-160.764	-14.804	0.302	0.189
-159.750	679.429	-0.087	-0.221
-158.735	114.542	0.058	-0.069
-157.720	800.000	0.058	-0.223
-156.706	601.348	0.131	-0.317
-155.691	126.271	0.091	0.112
-154.677	280.466	0.097	0.169
-153.662	50.540	0.055	-0.051
-152.647	-69.053	0.220	-0.083
-151.633	106.124	-0.057	0.066
-150.618	126.161	0.204	0.252
-149.604	800.000	0.079	-0.237
-148.589	-200.000	-0.040	0.458
-147.574	176.155	-0.034	-0.048
-146.560	48.794	0.032	0.029
-145.545	800.000	-0.016	0.053
-144.531	-200.000	-0.001	-0.041
-143.516	800.000	-0.127	-0.411
-142.502	-74.092	-0.352	-0.125
-141.487	212.662	0.186	0.287
-140.472	-79.654	0.219	0.072
-139.458	26.175	-0.109	-0.089
-138.443	-200.000	0.000	-0.257
-137.429	-92.480	-0.085	0.023
-136.414	-200.000	0.034	0.308
-135.399	61.014	0.126	0.122
-134.385	107.408	-0.148	-0.171
-133.370	-200.000	-0.009	0.217
-132.356	91.121	0.173	-0.189
-131.341	-155.955	-0.118	0.007
-130.326	-200.000	-0.000	0.246
-129.312	-200.000	0.010	-0.196
-128.297	-134.171	-0.204	0.025
-127.283	-73.031	0.449	0.161
-126.268	-38.261	0.272	-0.140
-125.253	800.000	0.080	0.298
-124.239	708.698	-0.115	0.297
-123.224	10.508	-0.071	0.053
-122.210	-50.927	0.068	0.031
-121.195	-200.000	0.022	0.299
