DTS Sentinel unit serial number:	SN413079Multiplexer serial number:	ORYXHardware model number:	OX4-SRSoftware version number:	ORYX F/W v4.00 Oryx Data Collector v3.7.2.0data status	okinstallation	princeton_trtdifferential loss correction	single-endedforward channel	channel 3reverse channel	N/Adate	2019/09/14time	12:12:35forward acquisition time	60.00reverse acquisition time	0.00gamma	496.2192k internal	0.2295k external	0.2295temperature offset calibration	1.0068default loss term (dB/km)	0.3790temperature slope calibration	1.0000multiplexer offset coefficient	1.0000multiplexer slope coefficient	1.0000fibre end	0.00T internal ref (°C)	37.56T ext. ref 1 (°C)	4.71T ext. ref 2 (°C)	33.40length (m)	temperature (°C)	Stokes	anti-Stokes-747.200	358.468	-0.079	-0.161
-746.185	423.137	0.022	0.048
-745.171	626.939	0.050	0.129
-744.156	198.512	-0.194	0.304
-743.142	35.744	-0.248	0.223
-742.127	-127.265	0.130	-0.019
-741.112	-109.131	0.098	0.021
-740.098	-200.000	-0.021	0.277
-739.083	-200.000	0.032	-0.246
-738.069	4.071	0.131	0.098
-737.054	13.196	-0.091	-0.072
-736.039	93.307	0.248	0.287
-735.025	147.722	-0.108	0.149
-734.010	-200.000	0.039	0.245
-732.996	800.000	-0.101	-0.332
-731.981	-103.798	-0.320	-0.076
-730.966	-47.666	-0.214	0.106
-729.952	-96.790	0.149	-0.040
-728.937	-103.713	0.074	-0.018
-727.923	-101.640	-0.301	-0.075
-726.908	-200.000	0.004	-0.266
-725.894	-182.201	0.202	0.004
-724.879	774.871	0.062	-0.172
-723.864	-200.000	0.022	0.171
-722.850	-200.000	-0.009	0.124
-721.835	-97.567	0.153	-0.041
-720.821	-200.000	-0.004	0.284
-719.806	800.000	-0.077	-0.338
-718.791	-171.385	0.201	0.007
-717.777	800.000	-0.107	-0.355
-716.762	329.170	0.068	-0.134
-715.748	71.013	0.061	0.065
-714.733	336.622	0.074	0.147
-713.718	-6.953	-0.331	-0.230
-712.704	6.984	0.161	-0.123
-711.689	-40.484	0.182	0.096
-710.675	107.991	-0.130	0.159
-709.660	136.770	0.178	0.237
-708.645	-10.409	-0.383	-0.259
-707.631	-111.916	0.461	0.095
-706.616	72.185	0.108	0.115
-705.602	-115.325	0.168	0.032
-704.587	-200.000	0.025	-0.336
-703.572	49.085	-0.173	-0.166
-702.558	-48.176	-0.134	-0.066
-701.543	800.000	-0.093	0.321
-700.529	800.000	0.111	-0.442
-699.514	-107.608	-0.144	-0.032
-698.499	203.119	0.217	-0.342
-697.485	4.685	-0.246	-0.184
-696.470	183.276	0.180	0.272
-695.456	30.816	0.095	0.083
-694.441	800.000	-0.078	-0.286
-693.426	87.771	0.086	-0.097
-692.412	-7.711	0.056	-0.038
-691.397	800.000	-0.010	-0.037
-690.383	-81.591	-0.150	-0.050
-689.368	-181.574	-0.098	0.002
-688.354	-175.555	0.224	-0.006
-687.339	800.000	-0.038	-0.134
-686.324	800.000	0.084	-0.247
-685.310	55.283	-0.086	0.085
-684.295	0.439	-0.379	0.276
-683.281	203.327	0.128	-0.202
-682.266	-100.649	-0.158	0.040
-681.251	-111.949	-0.319	-0.066
-680.237	297.268	-0.110	-0.205
-679.222	33.368	-0.150	-0.133
-678.208	-84.653	-0.344	0.110
-677.193	-5.941	0.208	0.145
-676.178	92.703	-0.022	-0.025
-675.164	-200.000	0.018	0.198
-674.149	-78.937	-0.157	-0.055
-673.135	52.572	-0.180	0.175
-672.120	-29.012	-0.134	0.078
-671.105	10.397	0.102	0.079
-670.091	-110.007	0.109	0.023
-669.076	-56.023	0.202	-0.092
-668.062	77.971	-0.132	-0.143
-667.047	-14.119	-0.082	-0.054
-666.032	31.966	-0.376	-0.331
-665.018	36.295	-0.197	-0.177
-664.003	-200.000	0.007	0.491
-662.989	800.000	-0.016	-0.066
-661.974	800.000	-0.104	-0.299
-660.959	-200.000	-0.013	-0.068
-659.945	-70.312	0.133	0.051
-658.930	-158.236	-0.399	0.024
-657.916	-200.000	-0.002	-0.186
-656.901	-60.449	-0.308	-0.134
-655.886	-200.000	-0.044	-0.232
-654.872	-125.784	-0.018	0.003
-653.857	-200.000	-0.044	-0.257
-652.843	-129.338	-0.373	-0.053
-651.828	-200.000	0.062	-0.407
-650.814	5.419	0.403	-0.303
-649.799	202.647	-0.092	0.145
-648.784	222.723	-0.216	0.354
-647.770	-159.731	-0.352	0.020
-646.755	-32.187	-0.151	0.086
-645.741	-61.198	-0.236	0.102
-644.726	309.044	0.200	-0.381
-643.711	18.441	-0.200	0.163
-642.697	612.327	0.109	0.277
-641.682	800.000	-0.028	0.095
-640.668	-200.000	0.037	0.331
-639.653	8.372	0.379	0.290
-638.638	227.969	0.091	0.150
-637.624	-71.834	-0.086	0.033
-636.609	12.639	0.224	-0.176
-635.595	-64.758	-0.139	0.057
-634.580	-200.000	-0.022	0.106
-633.565	182.128	-0.111	-0.166
-632.551	-79.111	-0.265	0.092
-631.536	-142.797	-0.378	-0.038
-630.522	-106.742	-0.102	0.023
-629.507	-28.092	-0.139	0.082
-628.492	457.908	-0.151	0.342
-627.478	13.090	-0.036	-0.028
-626.463	-131.676	0.211	-0.028
-625.449	-200.000	-0.012	-0.275
-624.434	-180.742	0.208	0.004
-623.419	116.613	0.161	0.201
-622.405	-76.155	0.367	0.132
-621.390	1.404	-0.223	0.163
-620.376	-93.270	-0.183	0.052
-619.361	800.000	0.105	-0.378
-618.346	756.499	0.043	0.119
-617.332	800.000	0.046	-0.137
-616.317	62.959	-0.106	0.108
-615.303	-142.103	-0.317	0.032
-614.288	121.621	-0.173	-0.219
-613.273	-1.618	0.171	-0.122
-612.259	-134.103	0.153	-0.019
-611.244	-200.000	-0.019	-0.202
-610.230	-9.139	0.180	-0.123
-609.215	292.018	-0.066	-0.122
-608.201	32.683	0.052	-0.046
-607.186	-6.959	-0.058	0.040
-606.171	171.983	-0.184	-0.269
-605.157	119.411	0.074	-0.093
-604.142	-200.000	-0.024	-0.247
-603.128	-76.953	0.408	-0.145
-602.113	-3.346	-0.243	0.172
-601.098	205.291	-0.147	0.232
-600.084	16.914	-0.208	0.168
-599.069	115.013	0.097	0.120
-598.055	-200.000	-0.021	-0.277
-597.040	239.268	-0.079	-0.134
-596.025	227.023	-0.066	0.110
-595.011	691.483	-0.010	-0.027
-593.996	17.702	-0.199	-0.161
-592.982	-94.772	-0.087	-0.024
-591.967	-113.099	0.466	0.093
-590.952	705.939	0.023	-0.063
-589.938	-103.968	-0.175	-0.042
-588.923	654.557	0.102	0.266
-587.909	-200.000	0.058	-0.329
-586.894	800.000	-0.095	-0.327
-585.879	-5.812	-0.169	0.118
-584.865	365.649	0.060	-0.123
-583.850	505.428	-0.087	0.206
-582.836	84.448	-0.102	0.113
-581.821	-200.000	0.005	0.050
-580.806	339.826	-0.161	-0.318
-579.792	576.441	-0.057	-0.141
-578.777	250.907	0.117	0.202
-577.763	50.543	-0.098	0.094
-576.748	144.288	-0.113	0.154
-575.733	-66.964	0.185	-0.074
-574.719	225.161	0.256	-0.421
-573.704	-167.258	-0.086	-0.004
-572.690	-15.405	-0.056	-0.036
-571.675	64.823	-0.120	0.123
-570.661	-2.210	0.280	0.200
-569.646	510.207	-0.160	0.377
-568.631	67.324	-0.226	0.234
-567.617	204.792	-0.114	0.179
-566.602	-65.978	-0.365	0.148
-565.588	295.511	-0.044	0.082
-564.573	800.000	-0.051	-0.154
-563.558	27.553	-0.090	0.077
-562.544	-45.966	-0.315	-0.158
-561.529	15.153	0.189	-0.151
-560.515	-200.000	-0.005	0.217
-559.500	-200.000	-0.033	0.231
-558.485	703.769	-0.082	0.219
-557.471	45.125	0.119	0.112
-556.456	18.105	-0.068	-0.055
-555.442	-41.940	0.330	-0.172
-554.427	116.242	-0.096	0.119
-553.412	-92.552	-0.381	-0.109
-552.398	800.000	-0.003	0.014
-551.383	-200.000	-0.012	-0.091
-550.369	109.007	0.041	-0.050
-549.354	159.434	0.111	0.157
-548.339	98.869	-0.225	-0.263
-547.325	-108.466	0.071	0.016
-546.310	-169.510	-0.344	-0.013
-545.296	800.000	0.058	-0.197
-544.281	-95.162	-0.153	0.042
-543.266	800.000	-0.025	0.094
-542.252	-44.995	-0.253	-0.128
-541.237	58.849	-0.098	-0.098
-540.223	800.000	-0.042	-0.156
-539.208	-45.102	-0.219	-0.110
-538.193	-6.228	-0.027	-0.019
-537.179	26.323	-0.343	-0.291
-536.164	-40.092	-0.146	-0.077
-535.150	-73.553	0.407	0.150
-534.135	561.025	-0.112	0.273
-533.121	-93.084	-0.123	0.035
-532.106	57.324	0.103	0.102
-531.091	656.448	-0.080	0.209
-530.077	800.000	0.075	-0.297
-529.062	185.512	0.152	-0.229
-528.048	442.112	0.026	-0.057
-527.033	76.692	-0.209	0.225
-526.018	70.186	0.329	0.345
-525.004	189.589	-0.136	0.207
-523.989	-31.781	-0.092	-0.052
-522.975	463.850	0.101	-0.229
-521.960	139.054	-0.166	0.221
-520.945	-51.924	-0.059	0.028
-519.931	-47.972	0.386	0.189
-518.916	-74.120	0.330	0.121
-517.902	588.519	-0.034	-0.084
-516.887	32.595	-0.091	0.080
-515.872	19.106	-0.196	0.159
-514.858	-37.524	-0.194	-0.105
-513.843	-200.000	-0.023	-0.152
-512.829	511.752	0.062	-0.146
-511.814	-71.566	0.049	0.019
-510.799	-200.000	-0.005	-0.111
-509.785	-146.207	0.288	-0.026
-508.770	-17.869	-0.245	-0.156
-507.756	-167.341	0.061	-0.002
-506.741	-200.000	0.003	-0.109
-505.726	-128.352	-0.176	0.025
-504.712	-1.031	0.230	0.165
-503.697	-23.109	-0.036	-0.022
-502.683	-118.796	0.266	-0.047
-501.668	-157.634	0.305	0.018
-500.653	343.928	0.146	-0.289
-499.639	250.808	-0.062	-0.107
-498.624	38.765	0.306	0.277
-497.610	-200.000	-0.009	0.124
-496.595	-23.219	-0.064	-0.039
-495.581	-200.000	-0.021	0.109
-494.566	-84.218	0.077	-0.025
-493.551	571.978	0.077	-0.189
-492.537	314.162	0.071	-0.135
-491.522	153.766	-0.036	0.050
-490.508	58.631	-0.095	0.095
-489.493	12.525	0.237	0.185
-488.478	140.524	-0.072	0.097
-487.464	-200.000	0.005	-0.104
-486.449	-130.696	-0.372	0.051
-485.435	119.910	0.032	0.040
-484.420	800.000	-0.108	0.383
-483.405	-200.000	0.028	0.411
-482.391	262.002	0.080	-0.140
-481.376	-52.203	0.359	0.169
-480.362	359.221	-0.105	0.213
-479.347	-5.004	-0.112	-0.078
-478.332	-143.921	0.249	-0.024
-477.318	-129.110	0.133	-0.019
-476.303	162.836	0.050	-0.071
-475.289	-148.123	0.117	-0.010
-474.274	800.000	0.034	0.141
-473.259	15.463	-0.429	0.341
-472.245	-200.000	-0.004	0.139
-471.230	-200.000	0.052	0.379
-470.216	-200.000	-0.012	0.166
-469.201	81.285	-0.147	-0.161
-468.186	98.116	0.226	-0.264
-467.172	749.684	0.037	-0.100
-466.157	138.181	0.131	0.174
-465.143	196.082	0.182	-0.280
-464.128	800.000	0.054	0.236
-463.113	122.897	0.206	0.261
-462.099	-200.000	0.018	-0.085
-461.084	-200.000	-0.027	-0.262
-460.070	-51.427	-0.159	0.075
-459.055	-9.513	-0.230	0.155
-458.040	-200.000	-0.012	-0.205
-457.026	800.000	0.055	0.180
-456.011	-200.000	-0.016	0.150
-454.997	20.232	-0.195	-0.159
-453.982	800.000	0.111	-0.332
-452.968	718.364	-0.057	-0.153
-451.953	516.929	-0.046	0.108
-450.938	-81.745	0.179	-0.059
-449.924	0.908	0.196	0.142
-448.909	41.013	0.218	-0.199
-447.895	107.524	0.176	0.211
-446.880	-88.009	0.384	0.117
-445.865	-28.609	0.105	-0.061
-444.851	-34.220	0.263	-0.146
-443.836	517.020	-0.089	0.210
-442.822	-109.970	0.133	0.028
-441.807	800.000	0.115	0.328
-440.792	-83.875	0.408	0.131
-439.778	389.503	0.019	-0.039
-438.763	-159.289	-0.210	0.012
-437.749	347.864	0.052	-0.103
-436.734	60.719	-0.188	0.189
-435.719	37.491	-0.228	-0.204
-434.705	-30.036	0.324	0.186
-433.690	-14.506	-0.205	-0.133
-432.676	-200.000	0.033	-0.238
-431.661	-200.000	-0.027	-0.518
-430.646	-119.790	-0.297	0.052
-429.632	10.869	0.080	-0.062
-428.617	800.000	0.084	0.305
-427.603	92.460	-0.128	-0.146
-426.588	-38.394	-0.326	-0.174
-425.573	330.465	-0.035	-0.067
-424.559	258.572	0.141	0.246
-423.544	-92.596	0.118	0.034
-422.530	59.793	0.154	-0.154
-421.515	-200.000	-0.034	-0.215
-420.500	-141.404	0.216	0.022
-419.486	-121.988	-0.089	0.015
-418.471	-200.000	-0.053	0.258
-417.457	-61.402	-0.091	0.039
-416.442	-200.000	-0.002	-0.114
-415.428	-200.000	-0.036	0.339
-414.413	26.285	0.185	-0.156
-413.398	-83.107	-0.411	0.133
-412.384	4.454	-0.123	-0.091
-411.369	-123.773	-0.154	0.025
-410.355	49.011	0.122	0.116
-409.340	298.784	0.022	0.041
-408.325	105.825	0.160	-0.192
-407.311	800.000	-0.033	-0.119
-406.296	141.991	0.147	0.197
-405.282	-29.256	-0.153	0.088
-404.267	-25.039	-0.187	-0.112
-403.252	-132.542	-0.206	0.027
-402.238	800.000	0.097	-0.316
-401.223	-48.040	-0.358	0.175
-400.209	-71.137	0.281	-0.106
-399.194	-200.000	0.000	-0.003
-398.179	-188.278	0.253	-0.003
-397.165	149.902	-0.245	0.335
-396.150	-52.459	-0.211	0.098
-395.136	237.478	0.116	0.195
-394.121	-149.590	-0.350	-0.028
-393.106	2.341	-0.368	0.268
-392.092	-76.941	0.258	-0.091
-391.077	74.188	0.199	-0.211
-390.063	129.309	0.062	-0.079
-389.048	6.623	-0.167	-0.125
-388.033	-2.928	-0.243	-0.171
-387.019	134.534	-0.143	0.187
-386.004	418.153	-0.079	-0.170
-384.990	-200.000	-0.064	-0.402
-383.975	-143.588	-0.151	-0.015
-382.960	453.619	-0.109	-0.243
-381.946	-14.047	-0.114	-0.074
-380.931	-25.200	0.124	0.074
-379.917	-44.860	-0.240	0.121
-378.902	485.162	-0.184	-0.423
-377.888	800.000	0.039	0.111
-376.873	-157.090	0.541	-0.033
-375.858	274.466	-0.114	0.204
-374.844	-147.239	0.216	0.019
-373.829	-200.000	-0.029	-0.172
-372.815	-168.213	-0.206	0.008
-371.800	20.233	-0.140	0.114
-370.785	800.000	0.054	0.156
-369.771	-5.075	-0.138	0.095
-368.756	-117.357	0.132	-0.024
-367.742	800.000	0.122	-0.439
-366.727	-45.078	0.207	0.104
-365.712	39.276	0.069	-0.062
-364.698	118.080	-0.106	0.132
-363.683	63.738	0.200	0.202
-362.669	-12.392	-0.085	0.056
-361.654	-200.000	-0.026	-0.281
-360.639	800.000	0.058	-0.251
-359.625	-88.317	0.159	0.048
-358.610	-200.000	0.003	-0.184
-357.596	800.000	0.059	0.239
-356.581	-112.774	0.361	0.072
-355.566	-77.085	0.220	0.077
-354.552	-200.000	-0.020	0.113
-353.537	800.000	0.084	-0.325
-352.523	-167.389	-0.370	-0.015
-351.508	-38.841	0.279	-0.148
-350.493	-200.000	0.037	-0.358
-349.479	47.592	-0.133	-0.125
-348.464	-200.000	0.083	-0.369
-347.450	50.250	0.124	0.118
-346.435	800.000	0.036	-0.136
-345.420	70.260	0.123	0.128
-344.406	7.473	0.202	-0.152
-343.391	-200.000	-0.012	-0.073
-342.377	-4.048	-0.349	-0.243
-341.362	2.473	-0.102	-0.074
-340.348	-84.017	-0.129	-0.041
-339.333	46.362	-0.071	-0.066
-338.318	237.903	0.062	0.103
-337.304	-86.106	-0.239	0.074
-336.289	-87.822	0.206	-0.062
-335.275	128.740	0.151	-0.194
-334.260	85.675	0.054	-0.060
-333.245	-117.253	-0.160	-0.029
-332.231	-200.000	0.065	-0.323
-331.216	-200.000	-0.002	-0.140
-330.202	800.000	0.067	-0.222
-329.187	-68.007	-0.315	0.124
-328.172	720.114	0.147	0.394
-327.158	116.423	0.093	-0.115
-326.143	106.917	-0.151	-0.181
-325.129	210.959	0.141	-0.223
-324.114	-37.192	-0.161	0.086
-323.099	-1.080	0.174	-0.124
-322.085	-200.000	-0.061	0.333
-321.070	451.577	0.103	0.228
-320.056	800.000	-0.080	-0.278
-319.041	471.192	-0.071	0.161
-318.026	-74.847	0.252	-0.091
-317.012	-200.000	-0.080	0.516
-315.997	-117.605	0.306	-0.055
-314.983	133.480	0.031	-0.041
-313.968	-0.532	-0.063	-0.045
-312.953	143.018	0.144	0.193
-311.939	800.000	0.052	0.176
-310.924	-200.000	-0.003	-0.133
-309.910	-139.142	0.327	0.035
-308.895	-127.367	-0.249	-0.036
-307.880	-39.753	0.069	-0.036
-306.866	110.349	-0.291	-0.352
-305.851	-118.661	0.218	0.039
-304.837	145.600	-0.096	0.129
-303.822	251.373	-0.126	-0.215
-302.807	126.249	-0.077	-0.098
-301.793	-45.921	-0.267	-0.132
-300.778	322.796	0.119	0.228
-299.764	-18.660	0.171	0.107
-298.749	-200.000	0.029	-0.138
-297.735	-200.000	0.022	-0.343
-296.720	-46.759	0.187	0.092
-295.705	-91.522	0.091	-0.026
-294.691	-81.522	0.212	0.070
-293.676	800.000	0.126	0.351
-292.662	-1.999	0.238	0.168
-291.647	214.526	0.066	0.105
-290.632	-84.680	-0.052	0.017
-289.618	800.000	0.092	-0.344
-288.603	-78.694	0.022	0.008
-287.589	165.762	0.161	0.229
-286.574	-200.000	0.042	0.253
-285.559	92.059	0.222	-0.251
-284.545	393.200	0.130	-0.271
-283.530	-45.813	-0.125	0.062
-282.516	30.030	0.198	-0.169
-281.501	-66.716	0.034	0.014
-280.486	-200.000	-0.002	0.357
-279.472	-113.213	-0.171	0.034
-278.457	75.537	0.140	-0.148
-277.443	800.000	0.072	0.278
-276.428	800.000	-0.060	0.211
-275.413	-77.555	-0.289	0.101
-274.399	-5.337	-0.133	0.091
-273.384	-200.000	-0.002	-0.054
-272.370	21.339	-0.148	-0.121
-271.355	67.270	0.294	-0.301
-270.340	13.149	-0.247	-0.192
-269.326	241.519	0.071	-0.119
-268.311	-34.743	-0.203	0.111
-267.297	-108.523	-0.106	0.023
-266.282	301.391	-0.212	0.393
-265.267	166.536	-0.170	-0.241
-264.253	2.982	0.158	0.115
-263.238	-200.000	-0.076	0.420
-262.224	-53.197	0.058	-0.027
-261.209	544.374	0.147	0.353
-260.195	-33.893	0.126	0.070
-259.180	-155.377	0.048	0.003
-258.165	278.891	-0.175	-0.313
-257.151	-200.000	0.003	-0.371
-256.136	364.799	-0.210	0.424
-255.122	207.613	-0.151	0.236
-254.107	-9.040	0.186	-0.125
-253.092	635.816	0.113	-0.287
-252.078	121.493	0.321	-0.401
-251.063	65.913	0.113	-0.115
-250.049	-66.733	-0.174	-0.069
-249.034	-132.822	-0.154	0.020
-248.019	-200.000	-0.013	-0.087
-247.005	24.784	0.227	0.189
-245.990	-17.696	-0.104	0.065
-244.976	-147.405	-0.157	0.013
-243.961	-40.781	0.109	-0.057
-242.946	-51.952	-0.393	0.183
-241.932	-84.745	0.028	-0.009
-240.917	800.000	-0.003	0.010
-239.903	-13.622	-0.137	0.089
-238.888	-157.969	0.314	0.019
-237.873	181.161	0.143	0.211
-236.859	-32.113	0.166	0.093
-235.844	42.538	0.259	-0.236
-234.830	-16.000	0.196	-0.125
-233.815	236.281	0.096	0.159
-232.800	43.778	0.198	0.181
-231.786	13.421	0.095	0.074
-230.771	-117.985	0.337	0.060
-229.757	-200.000	0.022	0.102
-228.742	244.162	-0.021	0.035
-227.727	-95.983	0.197	-0.052
-226.713	-162.825	0.195	0.010
-225.698	-178.806	-0.125	0.003
-224.684	800.000	-0.026	0.078
-223.669	-37.203	-0.111	0.060
-222.655	625.093	-0.097	-0.245
-221.640	-200.000	0.033	-0.251
-220.625	-100.132	-0.201	0.050
-219.611	-72.023	-0.214	-0.080
-218.596	-76.190	0.220	-0.078
-217.582	-79.799	-0.036	-0.012
-216.567	42.074	0.248	-0.226
-215.552	-200.000	-0.008	0.109
-214.538	393.305	0.090	-0.187
-213.523	-118.667	-0.231	0.041
-212.509	243.994	-0.140	0.235
-211.494	-200.000	-0.040	-0.195
-210.479	-74.695	-0.197	-0.071
-209.465	120.178	0.081	-0.101
-208.450	800.000	-0.067	-0.234
-207.436	800.000	0.068	0.254
-206.421	-101.006	0.281	-0.069
-205.406	-49.432	0.081	-0.039
-204.392	-87.422	-0.284	-0.086
-203.377	-96.724	-0.198	0.052
-202.363	-200.000	0.024	-0.149
-201.348	800.000	0.054	-0.160
-200.333	-106.005	-0.233	0.053
-199.319	-39.341	0.190	-0.100
-198.304	202.410	-0.104	0.160
-197.290	-200.000	0.003	-0.178
-196.275	-200.000	-0.001	0.077
-195.260	-96.529	-0.301	0.079
-194.246	-200.000	-0.010	0.080
-193.231	-59.150	0.156	0.067
-192.217	-109.756	0.339	0.071
-191.202	-116.565	0.263	0.049
-190.187	800.000	-0.092	0.380
-189.173	28.944	-0.076	0.064
-188.158	-127.754	-0.322	-0.046
-187.144	-200.000	-0.011	-0.093
-186.129	146.108	0.051	0.069
-185.114	-171.901	-0.199	-0.006
-184.100	-200.000	0.042	0.223
-183.085	800.000	0.067	0.276
-182.071	234.557	-0.165	-0.272
-181.056	615.746	0.038	-0.095
-180.042	-112.124	0.350	-0.070
-179.027	-86.790	-0.262	-0.080
-178.012	188.856	0.141	0.211
-176.998	-200.000	0.063	0.311
-175.983	-74.553	-0.236	-0.085
-174.969	81.943	0.069	-0.074
-173.954	800.000	0.127	0.358
-172.939	-131.140	-0.227	-0.030
-171.925	24.443	0.070	-0.058
-170.910	560.291	-0.172	-0.415
-169.896	47.646	-0.288	-0.269
-168.881	-56.774	-0.150	-0.066
-167.866	-44.154	-0.182	-0.091
-166.852	-63.970	0.287	-0.117
-165.837	-61.096	0.050	-0.021
-164.823	800.000	0.067	-0.212
-163.808	56.367	0.115	-0.111
-162.793	27.347	0.447	0.375
-161.779	175.156	0.087	-0.126
-160.764	-31.641	0.184	-0.103
-159.750	-21.884	-0.271	0.165
-158.735	-99.333	-0.246	-0.062
-157.720	-200.000	-0.013	-0.072
-156.706	56.222	0.179	-0.173
-155.691	-200.000	-0.041	-0.227
-154.677	800.000	0.222	0.620
-153.662	42.978	0.152	0.138
-152.647	-200.000	-0.046	-0.409
-151.633	14.881	-0.162	0.126
-150.618	-134.294	0.395	-0.048
-149.604	-200.000	0.037	-0.166
-148.589	-200.000	-0.012	0.054
-147.574	-200.000	-0.035	-0.193
-146.560	112.389	0.058	0.071
-145.545	-12.923	-0.196	-0.128
-144.531	58.634	-0.034	0.033
-143.516	4.045	-0.321	0.235
-142.502	-145.195	0.245	0.022
-141.487	-200.000	0.060	-0.324
-140.472	-96.247	0.302	-0.080
-139.458	-103.919	-0.168	0.039
-138.443	196.098	0.078	-0.119
-137.429	-200.000	0.009	0.076
-136.414	-108.147	0.095	0.021
-135.399	163.387	-0.242	0.340
-134.385	65.432	0.050	-0.051
-133.370	-115.569	0.078	0.015
-132.356	800.000	0.052	-0.194
-131.341	283.505	-0.152	-0.273
-130.326	-77.620	0.313	-0.108
-129.312	800.000	0.045	-0.150
-128.297	-200.000	0.037	0.167
-127.283	-200.000	-0.068	0.304
-126.268	800.000	0.072	0.236
-125.253	-200.000	-0.002	-0.013
-124.239	-158.212	0.230	0.013
-123.224	593.236	-0.134	-0.330
-122.210	-19.910	-0.165	-0.102
-121.195	222.855	-0.066	0.107
