DTS Sentinel unit serial number:	SN413079Multiplexer serial number:	ORYXHardware model number:	OX4-SRSoftware version number:	ORYX F/W v4.00 Oryx Data Collector v3.7.2.0data status	okinstallation	princeton_trtdifferential loss correction	single-endedforward channel	channel 3reverse channel	N/Adate	2019/09/19time	02:12:35forward acquisition time	60.00reverse acquisition time	0.00gamma	496.2192k internal	0.2348k external	0.2348temperature offset calibration	0.9994default loss term (dB/km)	0.3790temperature slope calibration	1.0000multiplexer offset coefficient	1.0000multiplexer slope coefficient	1.0000fibre end	0.00T internal ref (°C)	21.17T ext. ref 1 (°C)	0.68T ext. ref 2 (°C)	14.71length (m)	temperature (°C)	Stokes	anti-Stokes-747.200	222.355	-0.099	0.160
-746.185	5.055	-0.264	0.194
-745.171	-49.413	0.176	-0.084
-744.156	-111.422	-0.157	-0.032
-743.142	-128.074	-0.156	0.022
-742.127	419.119	-0.238	0.510
-741.112	-12.770	0.687	0.447
-740.098	547.165	0.106	0.254
-739.083	-32.102	-0.084	0.047
-738.069	-87.720	0.163	0.049
-737.054	-180.732	-0.150	0.003
-736.039	-200.000	0.006	-0.090
-735.025	40.631	0.049	-0.044
-734.010	-178.888	-0.316	-0.007
-732.996	800.000	-0.029	-0.080
-731.981	4.622	0.054	-0.040
-730.966	-194.013	0.328	-0.003
-729.952	-200.000	-0.015	0.312
-728.937	452.525	0.058	0.129
-727.923	27.671	-0.087	0.074
-726.908	15.109	-0.204	0.160
-725.894	427.680	0.162	-0.348
-724.879	-28.737	-0.458	-0.263
-723.864	339.309	-0.099	-0.194
-722.850	561.049	0.018	-0.043
-721.835	-28.828	0.193	0.111
-720.821	553.775	0.120	0.289
-719.806	210.388	-0.050	0.078
-718.791	-200.000	-0.014	-0.208
-717.777	209.205	-0.181	-0.284
-716.762	11.596	0.071	0.055
-715.748	-134.664	0.227	-0.028
-714.733	-61.202	0.162	0.068
-713.718	-110.200	0.158	0.033
-712.704	-200.000	-0.001	0.257
-711.689	451.455	-0.118	-0.260
-710.675	-109.167	-0.204	-0.043
-709.660	-51.550	-0.039	0.018
-708.645	800.000	-0.085	-0.363
-707.631	7.872	0.299	0.224
-706.616	-136.385	-0.186	0.022
-705.602	113.127	0.169	0.204
-704.587	-200.000	-0.051	0.225
-703.572	-200.000	0.023	-0.279
-702.558	-11.747	0.090	0.059
-701.543	127.545	0.212	0.268
-700.529	-120.212	0.225	0.038
-699.514	167.310	0.155	-0.219
-698.499	8.684	-0.076	0.057
-697.485	-105.984	-0.270	-0.061
-696.470	800.000	-0.064	0.195
-695.456	800.000	0.074	-0.296
-694.441	45.590	0.162	-0.149
-693.426	-12.020	0.099	0.065
-692.412	-4.756	0.102	-0.070
-691.397	-132.742	-0.273	0.035
-690.383	-18.520	0.525	0.327
-689.368	-112.070	-0.287	0.058
-688.354	295.855	-0.072	-0.131
-687.339	88.476	0.068	-0.075
-686.324	800.000	0.026	0.081
-685.310	605.293	0.040	-0.099
-684.295	53.555	0.166	-0.159
-683.281	76.974	-0.307	-0.325
-682.266	-96.560	0.117	-0.031
-681.251	92.432	-0.084	-0.095
-680.237	-200.000	-0.001	0.019
-679.222	-155.802	0.345	0.022
-678.208	-75.214	-0.042	0.015
-677.193	-121.691	-0.012	-0.002
-676.178	171.336	0.075	-0.108
-675.164	-200.000	-0.056	-0.458
-674.149	800.000	-0.114	-0.326
-673.135	-30.599	0.234	-0.132
-672.120	167.626	0.058	-0.082
-671.105	-64.659	-0.257	0.104
-670.091	23.231	-0.205	0.168
-669.076	-63.450	-0.184	-0.075
-668.062	800.000	0.052	0.198
-667.047	800.000	-0.058	0.199
-666.032	132.278	0.172	-0.220
-665.018	-162.963	0.165	0.008
-664.003	-200.000	0.012	-0.130
-662.989	-22.562	0.081	-0.049
-661.974	800.000	-0.137	-0.433
-660.959	-44.004	0.200	-0.100
-659.945	-1.097	0.103	-0.073
-658.930	-137.370	-0.080	0.009
-657.916	800.000	0.099	0.298
-656.901	-200.000	0.025	-0.138
-655.886	-43.049	-0.243	-0.123
-654.872	-154.402	-0.357	0.024
-653.857	43.735	-0.079	-0.072
-652.843	-44.485	0.404	-0.201
-651.828	-192.448	0.212	-0.002
-650.814	-149.309	0.081	-0.006
-649.799	768.478	0.085	-0.231
-648.784	20.445	0.219	-0.177
-647.770	129.279	0.143	-0.182
-646.755	-31.999	-0.045	-0.025
-645.741	-94.919	0.161	0.043
-644.726	382.970	0.174	-0.355
-643.711	440.835	0.075	0.163
-642.697	-75.450	-0.530	0.188
-641.682	32.459	-0.218	-0.187
-640.668	-46.312	0.092	0.045
-639.653	800.000	-0.047	-0.137
-638.638	153.448	0.073	-0.100
-637.624	328.891	-0.043	0.083
-636.609	-200.000	0.016	0.174
-635.595	63.213	0.032	0.032
-634.580	186.322	0.052	0.077
-633.565	-98.170	0.142	-0.036
-632.551	-77.765	0.180	-0.062
-631.536	-200.000	0.014	0.126
-630.522	81.648	0.095	-0.103
-629.507	-165.665	0.157	0.007
-628.492	-62.512	-0.276	-0.114
-627.478	-74.522	0.371	-0.133
-626.463	-79.750	0.136	-0.046
-625.449	93.553	-0.042	0.048
-624.434	501.308	0.034	-0.077
-623.419	-146.399	-0.199	-0.017
-622.405	-144.733	-0.274	0.025
-621.390	103.573	-0.238	-0.277
-620.376	800.000	-0.054	0.203
-619.361	-78.590	-0.463	0.157
-618.346	-136.268	-0.148	-0.017
-617.332	763.344	-0.053	-0.143
-616.317	-130.130	-0.078	-0.011
-615.303	-200.000	0.001	-0.268
-614.288	-49.778	0.099	-0.047
-613.273	-80.453	-0.137	-0.046
-612.259	-200.000	0.007	-0.238
-611.244	725.400	-0.169	-0.447
-610.230	350.896	-0.092	0.180
-609.215	-43.007	0.251	0.127
-608.201	22.799	0.069	-0.057
-607.186	800.000	-0.035	-0.135
-606.171	-46.693	-0.109	-0.053
-605.157	332.401	-0.044	-0.084
-604.142	411.579	-0.045	0.095
-603.128	-37.079	-0.208	-0.111
-602.113	302.142	0.175	0.321
-601.098	-200.000	0.026	-0.281
-600.084	800.000	-0.091	-0.310
-599.069	-111.986	0.485	-0.097
-598.055	-138.168	-0.153	0.017
-597.040	-200.000	-0.015	0.081
-596.025	-157.194	0.178	-0.011
-595.011	-200.000	-0.024	-0.286
-593.996	800.000	-0.078	-0.215
-592.982	255.089	0.139	0.236
-591.967	-38.684	0.216	0.113
-590.952	365.243	0.043	0.087
-589.938	29.315	0.336	0.283
-588.923	95.788	0.252	-0.286
-587.909	503.113	0.106	0.245
-586.894	-82.440	0.185	-0.060
-585.879	71.825	0.147	-0.151
-584.865	800.000	0.181	-0.549
-583.850	290.445	-0.175	0.316
-582.836	800.000	0.093	0.352
-581.821	-200.000	-0.255	-0.001
-580.806	-56.960	-0.464	-0.203
-579.792	210.262	-0.014	0.022
-578.777	-122.250	0.115	-0.019
-577.763	17.980	-0.192	0.152
-576.748	50.717	0.069	-0.065
-575.733	195.235	-0.174	-0.262
-574.719	-114.344	0.123	-0.023
-573.704	-144.959	0.151	-0.014
-572.690	93.946	-0.251	0.282
-571.675	27.795	-0.272	0.228
-570.661	63.654	0.248	-0.248
-569.646	-46.557	-0.157	0.076
-568.631	56.216	-0.255	-0.246
-567.617	-138.918	-0.314	-0.034
-566.602	-140.941	0.113	0.012
-565.588	66.709	0.011	0.011
-564.573	800.000	-0.147	0.420
-563.558	800.000	0.081	0.289
-562.544	-200.000	0.000	-0.099
-561.529	-200.000	0.007	-0.079
-560.515	-200.000	0.009	0.174
-559.500	748.114	-0.112	-0.299
-558.485	-63.929	-0.119	-0.048
-557.471	-200.000	0.028	0.317
-556.456	-77.852	-0.317	0.109
-555.442	267.077	-0.032	-0.055
-554.427	307.791	-0.073	0.134
-553.412	-61.821	-0.245	0.102
-552.398	-117.058	-0.479	0.087
-551.383	79.225	-0.291	0.309
-550.369	-200.000	-0.004	-0.026
-549.354	800.000	-0.061	0.222
-548.339	397.192	0.212	0.439
-547.325	-63.704	0.132	-0.054
-546.310	-69.482	0.196	-0.074
-545.296	70.232	-0.120	-0.123
-544.281	22.836	0.075	-0.061
-543.266	-200.000	-0.017	-0.222
-542.252	80.990	0.172	-0.184
-541.237	108.595	-0.102	0.121
-540.223	-25.367	0.132	-0.077
-539.208	-155.199	0.078	0.005
-538.193	-200.000	0.101	-0.438
-537.179	-127.410	-0.425	-0.061
-536.164	-95.316	0.268	-0.071
-535.150	-47.597	-0.155	-0.075
-534.135	121.794	-0.179	0.221
-533.121	-16.079	0.310	-0.195
-532.106	-200.000	-0.070	-0.388
-531.091	-188.358	-0.311	-0.004
-530.077	-200.000	0.011	0.458
-529.062	-98.429	0.248	0.063
-528.048	-200.000	-0.010	-0.069
-527.033	54.024	-0.130	-0.124
-526.018	-52.219	-0.159	0.073
-525.004	-99.368	-0.323	0.081
-523.989	-135.483	0.165	-0.019
-522.975	-123.189	0.271	-0.043
-521.960	62.072	0.204	-0.201
-520.945	-70.439	0.068	-0.025
-519.931	311.683	-0.068	-0.126
-518.916	-200.000	-0.028	-0.193
-517.902	-200.000	0.019	0.413
-516.887	-40.155	-0.079	0.041
-515.872	-74.229	0.201	0.072
-514.858	63.834	0.238	-0.236
-513.843	1.950	-0.055	0.039
-512.829	-200.000	0.026	0.117
-511.814	158.981	0.161	0.222
-510.799	219.604	-0.081	0.128
-509.785	104.026	-0.087	-0.101
-508.770	-20.566	0.280	-0.171
-507.756	-157.359	-0.195	0.012
-506.741	65.253	-0.163	0.163
-505.726	-5.952	0.376	-0.254
-504.712	-141.091	-0.114	0.012
-503.697	-200.000	-0.009	-0.202
-502.683	8.132	-0.105	-0.078
-501.668	8.640	-0.102	-0.076
-500.653	-78.870	0.275	-0.093
-499.639	39.201	-0.087	0.077
-498.624	432.478	0.076	0.162
-497.610	-55.129	-0.361	0.161
-496.595	101.160	0.143	0.164
-495.581	-200.000	0.028	-0.203
-494.566	548.843	0.150	0.355
-493.551	800.000	0.147	-0.508
-492.537	484.970	0.130	-0.292
-491.522	49.146	0.169	-0.157
-490.508	116.535	0.080	0.097
-489.493	42.366	0.123	0.111
-488.478	510.933	-0.129	-0.297
-487.464	-200.000	-0.019	0.138
-486.449	-67.298	0.198	-0.077
-485.435	27.237	0.071	-0.059
-484.420	800.000	-0.091	0.296
-483.405	-200.000	0.016	-0.131
-482.391	160.063	0.141	-0.194
-481.376	18.035	-0.276	-0.218
-480.362	800.000	-0.054	-0.155
-479.347	-150.389	0.060	0.005
-478.332	63.422	-0.248	-0.246
-477.318	-200.000	-0.021	0.270
-476.303	-3.883	0.189	-0.130
-475.289	800.000	-0.080	-0.263
-474.274	-49.172	-0.261	-0.123
-473.259	-200.000	0.012	0.073
-472.245	800.000	0.088	-0.340
-471.230	-19.752	-0.193	0.118
-470.216	-133.743	0.529	0.065
-469.201	-101.480	-0.210	-0.050
-468.186	-200.000	0.019	-0.116
-467.172	-59.290	0.083	0.035
-466.157	785.175	-0.041	-0.111
-465.143	-53.149	-0.139	0.063
-464.128	46.452	0.130	-0.119
-463.113	-200.000	0.024	-0.216
-462.099	-8.035	-0.118	-0.079
-461.084	-96.978	-0.071	0.018
-460.070	4.479	-0.160	-0.116
-459.055	113.336	0.065	-0.078
-458.040	800.000	0.026	0.101
-457.026	-75.818	0.234	-0.082
-456.011	-116.373	-0.139	-0.025
-454.997	-10.931	-0.039	-0.026
-453.982	-74.953	-0.100	0.035
-452.968	-194.613	-0.165	0.001
-451.953	35.342	0.104	-0.090
-450.938	-164.397	-0.235	0.011
-449.924	205.596	-0.052	-0.081
-448.909	800.000	-0.022	0.086
-447.895	397.285	0.077	0.160
-446.880	149.050	-0.281	0.376
-445.865	105.840	-0.045	0.052
-444.851	-20.311	0.186	0.113
-443.836	-10.504	0.058	0.038
-442.822	-14.985	0.172	0.109
-441.807	-149.536	0.131	0.010
-440.792	-26.729	-0.115	0.067
-439.778	800.000	-0.018	-0.055
-438.763	-200.000	0.003	-0.119
-437.749	-129.823	0.159	-0.022
-436.734	-41.098	-0.158	0.080
-435.719	178.335	0.156	-0.225
-434.705	119.211	0.187	0.228
-433.690	-200.000	0.007	0.128
-432.676	800.000	-0.067	-0.247
-431.661	-67.143	-0.144	-0.056
-430.646	101.779	0.303	0.348
-429.632	-42.425	-0.299	-0.151
-428.617	-112.734	0.188	-0.037
-427.603	16.006	0.143	-0.111
-426.588	800.000	0.040	0.171
-425.573	800.000	0.078	0.257
-424.559	-101.641	-0.187	0.045
-423.544	59.813	-0.152	-0.148
-422.530	107.496	0.133	0.157
-421.515	-145.719	-0.153	0.013
-420.500	800.000	-0.094	-0.271
-419.486	-79.188	-0.240	0.080
-418.471	-14.509	-0.176	-0.112
-417.457	55.498	0.131	-0.125
-416.442	-75.575	0.141	-0.050
-415.428	-200.000	0.011	-0.128
-414.413	242.683	-0.209	0.345
-413.398	800.000	0.105	-0.308
-412.384	-32.078	-0.175	-0.097
-411.369	800.000	0.068	0.242
-410.355	-122.599	-0.411	-0.066
-409.340	3.883	-0.370	-0.266
-408.325	45.403	-0.072	0.066
-407.311	-6.347	-0.296	-0.199
-406.296	-2.778	0.084	-0.058
-405.282	-110.901	-0.329	-0.067
-404.267	800.000	-0.046	-0.138
-403.252	154.519	0.254	0.344
-402.238	-17.646	-0.092	-0.057
-401.223	-129.889	0.176	0.024
-400.209	-200.000	-0.031	-0.186
-399.194	-112.189	-0.211	0.042
-398.179	10.980	0.349	0.263
-397.165	-200.000	0.031	0.240
-396.150	-35.739	-0.098	-0.052
-395.136	114.145	-0.152	-0.182
-394.121	800.000	-0.115	-0.395
-393.106	14.047	-0.209	-0.161
-392.092	473.924	-0.091	-0.202
-391.077	126.362	-0.012	0.015
-390.063	-39.702	0.127	-0.066
-389.048	-184.682	-0.095	-0.002
-388.033	-200.000	-0.015	0.292
-387.019	-81.773	-0.149	-0.048
-386.004	385.422	-0.131	0.267
-384.990	-81.195	-0.234	0.076
-383.975	-3.560	0.098	0.067
-382.960	-37.592	-0.188	-0.098
-381.946	-64.804	-0.285	-0.114
-380.931	-137.231	-0.199	-0.022
-379.917	-99.815	0.484	-0.119
-378.902	-200.000	-0.004	0.167
-377.888	9.363	0.039	0.029
-376.873	-30.345	0.322	-0.180
-375.858	-49.560	-0.182	0.086
-374.844	-142.864	0.220	0.021
-373.829	425.347	-0.110	0.233
-372.815	429.816	0.060	-0.129
-371.800	-14.421	0.014	0.009
-370.785	800.000	-0.025	0.076
-369.771	41.580	-0.245	0.218
-368.756	-106.075	0.193	-0.043
-367.742	-62.560	-0.277	-0.113
-366.727	-28.822	0.258	-0.146
-365.712	-185.774	-0.134	-0.002
-364.698	800.000	-0.120	0.428
-363.683	800.000	-0.125	0.438
-362.669	14.296	-0.182	0.140
-361.654	156.317	0.143	0.194
-360.639	327.566	0.095	-0.180
-359.625	67.497	-0.113	-0.113
-358.610	-0.798	-0.051	-0.036
-357.596	-21.489	0.164	0.099
-356.581	199.928	0.228	0.344
-355.566	168.493	0.023	-0.032
-354.552	330.604	0.108	0.205
-353.537	184.048	0.050	0.073
-352.523	-12.849	0.053	0.034
-351.508	-86.329	-0.247	-0.075
-350.493	-38.769	0.224	-0.116
-349.479	-149.228	-0.305	0.024
-348.464	-31.504	-0.393	-0.217
-347.450	621.371	0.092	-0.228
-346.435	231.623	0.262	0.423
-345.420	-200.000	-0.086	0.460
-344.406	-200.000	0.026	0.217
-343.391	379.134	-0.031	-0.063
-342.377	7.800	0.151	-0.111
-341.362	26.096	-0.167	-0.137
-340.348	8.508	0.055	-0.041
-339.333	-167.492	0.499	-0.020
-338.318	-50.281	-0.111	-0.052
-337.304	53.828	-0.164	-0.155
-336.289	800.000	0.047	0.139
-335.275	-131.832	0.052	-0.007
-334.260	-49.557	-0.162	-0.076
-333.245	268.022	0.132	-0.228
-332.231	-72.508	0.308	-0.112
-331.216	-67.231	0.132	0.051
-330.202	800.000	-0.060	-0.175
-329.187	-200.000	-0.046	0.323
-328.172	-165.790	-0.136	0.006
-327.158	-107.069	-0.155	-0.034
-326.143	624.563	0.095	-0.235
-325.129	-57.313	0.105	0.045
-324.114	168.728	0.064	-0.090
-323.099	-80.087	0.093	0.031
-322.085	323.635	-0.037	0.069
-321.070	-200.000	0.011	0.063
-320.056	-152.124	0.366	-0.026
-319.041	-141.040	0.298	-0.030
-318.026	226.887	-0.189	0.302
-317.012	-176.608	0.108	-0.003
-315.997	59.096	0.196	-0.190
-314.983	106.450	-0.138	0.160
-313.968	358.190	-0.188	0.369
-312.953	800.000	-0.030	0.095
-311.939	-200.000	0.004	-0.019
-310.924	-96.691	-0.393	0.102
-309.910	28.522	0.074	-0.062
-308.895	229.559	0.262	0.421
-307.880	-16.234	-0.129	0.081
-306.866	-128.915	-0.291	-0.040
-305.851	796.337	0.098	-0.265
-304.837	-180.996	-0.208	0.004
-303.822	0.226	0.229	-0.161
-302.807	36.412	0.225	-0.195
-301.793	396.515	-0.106	-0.218
-300.778	226.481	0.125	-0.199
-299.764	-36.608	0.493	-0.260
-298.749	148.311	0.213	0.282
-297.735	21.537	0.096	0.077
-296.720	800.000	0.020	0.077
-295.705	-200.000	-0.006	0.177
-294.691	-76.731	0.382	0.131
-293.676	-200.000	0.059	0.496
-292.662	54.314	0.043	-0.041
-291.647	-104.196	-0.347	0.079
-290.632	103.728	-0.251	-0.290
-289.618	96.616	-0.150	-0.169
-288.603	-200.000	0.052	-0.293
-287.589	-116.343	0.276	0.050
-286.574	-92.494	-0.223	0.061
-285.559	800.000	0.061	-0.182
-284.545	-36.521	0.180	-0.095
-283.530	453.108	0.068	-0.148
-282.516	-131.631	-0.481	-0.062
-281.501	51.565	-0.105	-0.098
-280.486	189.055	-0.052	-0.076
-279.472	348.260	0.109	-0.210
-278.457	756.204	0.139	0.369
-277.443	-157.491	-0.166	0.010
-276.428	34.411	0.064	-0.055
-275.413	89.800	-0.256	-0.280
-274.399	-200.000	-0.021	0.281
-273.384	-17.422	0.303	-0.187
-272.370	-200.000	0.017	-0.333
-271.355	9.785	0.065	-0.049
-270.340	800.000	-0.089	-0.258
-269.326	800.000	0.095	-0.364
-268.311	800.000	0.023	-0.073
-267.297	-61.681	0.090	0.037
-266.282	677.258	0.101	0.258
-265.267	-200.000	-0.088	0.538
-264.253	18.435	0.168	-0.131
-263.238	-200.000	-0.022	0.095
-262.224	436.591	0.120	0.256
-261.209	-178.289	0.292	-0.007
-260.195	800.000	-0.066	0.241
-259.180	-41.483	0.161	0.081
-258.165	134.409	0.105	0.134
-257.151	-154.960	0.227	0.015
-256.136	-200.000	-0.023	0.203
-255.122	800.000	-0.041	-0.165
-254.107	45.296	0.384	0.347
-253.092	-161.753	0.258	0.013
-252.078	35.376	-0.272	0.234
-251.063	800.000	0.113	-0.437
-250.049	559.854	-0.177	0.419
-249.034	229.358	-0.095	0.152
-248.019	5.788	0.066	-0.048
-247.005	233.895	-0.106	0.171
-245.990	-126.240	-0.175	0.026
-244.976	-200.000	-0.011	0.054
-243.961	22.110	-0.232	0.186
-242.946	27.505	0.177	-0.146
-241.932	-58.891	0.159	-0.067
-240.917	-64.436	-0.246	0.098
-239.903	-161.119	0.318	0.016
-238.888	97.215	-0.125	-0.140
-237.873	-154.285	0.453	0.030
-236.859	-200.000	-0.032	0.158
-235.844	-44.729	-0.126	-0.062
-234.830	-200.000	0.016	0.102
-233.815	-27.100	0.352	0.201
-232.800	-4.078	-0.069	0.047
-231.786	800.000	-0.091	-0.277
-230.771	-14.266	-0.125	-0.079
-229.757	-200.000	-0.012	-0.073
-228.742	-95.894	0.398	-0.104
-227.727	-200.000	-0.026	0.118
-226.713	800.000	-0.034	0.137
-225.698	-134.301	0.241	0.029
-224.684	-14.604	-0.215	0.135
-223.669	-133.160	-0.233	0.029
-222.655	-200.000	-0.013	-0.192
-221.640	-1.754	-0.111	-0.077
-220.625	-129.485	0.149	-0.020
-219.611	-51.579	-0.278	0.127
-218.596	-200.000	0.026	0.152
-217.582	800.000	-0.054	-0.213
-216.567	47.905	-0.247	-0.225
-215.552	-3.280	-0.187	-0.128
-214.538	13.406	0.018	-0.014
-213.523	-57.275	0.092	-0.040
-212.509	1.375	-0.278	-0.196
-211.494	41.316	-0.088	0.078
-210.479	-200.000	-0.039	0.379
-209.465	-200.000	0.056	-0.476
-208.450	-58.371	0.067	-0.029
-207.436	-200.000	0.021	0.357
-206.421	245.971	0.046	-0.075
-205.406	123.852	0.110	0.135
-204.392	-57.737	0.124	-0.053
-203.377	-29.529	0.318	0.178
-202.363	-200.000	0.033	0.340
-201.348	111.889	-0.181	-0.213
-200.333	-200.000	-0.025	-0.166
-199.319	194.794	0.062	-0.092
-198.304	63.032	-0.048	-0.047
-197.290	531.028	-0.124	-0.287
-196.275	45.083	0.290	0.261
-195.260	-139.026	-0.252	-0.027
-194.246	13.320	0.267	0.202
-193.231	55.315	0.018	0.017
-192.217	27.759	0.072	-0.059
-191.202	-27.349	-0.363	0.207
-190.187	-64.401	-0.048	-0.019
-189.173	413.096	0.109	0.228
-188.158	80.967	0.204	0.216
-187.144	95.547	0.093	0.104
-186.129	-53.497	-0.204	0.091
-185.114	98.603	0.231	-0.260
-184.100	-34.905	-0.302	0.161
-183.085	-200.000	-0.044	0.254
-182.071	-200.000	-0.007	0.131
-181.056	-200.000	0.029	-0.279
-180.042	800.000	-0.073	0.243
-179.027	-200.000	-0.036	0.302
-178.012	394.435	-0.055	-0.112
-176.998	28.104	0.146	-0.121
-175.983	-200.000	0.025	0.270
-174.969	-200.000	-0.006	0.159
-173.954	-200.000	0.029	0.251
-172.939	35.407	0.185	0.158
-171.925	276.407	-0.226	0.393
-170.910	-70.512	0.364	0.135
-169.896	23.519	-0.217	0.174
-168.881	66.634	0.163	-0.162
-167.866	-200.000	0.058	-0.447
-166.852	24.669	0.099	-0.080
-165.837	414.926	-0.022	0.046
-164.823	-84.884	-0.033	0.010
-163.808	17.613	0.162	-0.126
-162.793	800.000	0.044	-0.171
-161.779	-22.573	0.153	0.090
-160.764	-200.000	0.015	-0.094
-159.750	-118.687	0.390	-0.067
-158.735	-200.000	0.026	0.295
-157.720	309.160	-0.024	0.045
-156.706	-200.000	0.027	-0.218
-155.691	11.044	-0.155	0.116
-154.677	196.788	-0.190	-0.283
-153.662	-77.644	-0.187	-0.063
-152.647	-200.000	-0.021	0.118
-151.633	257.442	0.206	0.346
-150.618	325.096	-0.047	0.088
-149.604	800.000	-0.048	-0.199
-148.589	800.000	-0.032	0.103
-147.574	800.000	-0.083	-0.244
-146.560	239.929	-0.039	-0.064
-145.545	800.000	-0.044	0.169
-144.531	45.836	0.229	0.207
-143.516	178.635	0.078	0.111
-142.502	44.999	0.216	0.194
-141.487	722.527	-0.109	0.283
-140.472	-200.000	-0.005	-0.137
-139.458	160.193	-0.181	0.246
-138.443	31.768	-0.109	-0.091
-137.429	800.000	-0.052	0.147
-136.414	16.145	0.112	0.086
-135.399	-200.000	-0.068	-0.343
-134.385	-169.368	0.412	0.015
-133.370	-159.535	-0.207	0.011
-132.356	-167.998	-0.123	0.005
-131.341	-63.878	0.385	0.153
-130.326	-154.059	-0.095	-0.006
-129.312	43.991	0.200	0.179
-128.297	-113.826	0.066	0.013
-127.283	-118.912	0.113	0.019
-126.268	-59.128	0.176	-0.074
-125.253	-200.000	-0.016	0.178
-124.239	90.057	0.042	0.046
-123.224	-151.200	-0.149	-0.011
-122.210	43.586	0.333	-0.297
-121.195	278.731	-0.224	0.389
