DTS Sentinel unit serial number:	SN413079Multiplexer serial number:	ORYXHardware model number:	OX4-SRSoftware version number:	ORYX F/W v4.00 Oryx Data Collector v3.7.2.0data status	okinstallation	princeton_trtdifferential loss correction	single-endedforward channel	channel 3reverse channel	N/Adate	2019/09/15time	02:48:35forward acquisition time	60.00reverse acquisition time	0.00gamma	496.2192k internal	0.2323k external	0.2323temperature offset calibration	0.9969default loss term (dB/km)	0.3790temperature slope calibration	1.0000multiplexer offset coefficient	1.0000multiplexer slope coefficient	1.0000fibre end	0.00T internal ref (°C)	31.34T ext. ref 1 (°C)	4.57T ext. ref 2 (°C)	25.75length (m)	temperature (°C)	Stokes	anti-Stokes-747.200	421.405	-0.074	0.160
-746.185	-105.632	0.255	0.058
-745.171	800.000	0.044	0.157
-744.156	171.400	-0.183	0.265
-743.142	-72.421	0.428	-0.160
-742.127	-41.518	0.267	0.138
-741.112	-154.634	-0.139	0.009
-740.098	-95.407	-0.124	-0.034
-739.083	185.806	0.161	0.242
-738.069	37.611	-0.099	-0.088
-737.054	-107.645	0.103	-0.023
-736.039	347.613	0.061	-0.121
-735.025	99.182	0.435	-0.507
-734.010	800.000	-0.109	-0.314
-732.996	508.995	0.067	-0.156
-731.981	60.533	-0.063	-0.063
-730.966	-111.680	-0.150	-0.031
-729.952	275.048	-0.198	0.354
-728.937	630.415	-0.119	0.305
-727.923	-149.309	0.109	0.009
-726.908	800.000	-0.039	-0.115
-725.894	-21.078	-0.123	-0.076
-724.879	-121.547	0.081	-0.014
-723.864	-200.000	0.045	-0.214
-722.850	-7.698	0.092	0.063
-721.835	448.539	-0.135	0.299
-720.821	-53.046	-0.242	-0.112
-719.806	-200.000	0.100	-0.512
-718.791	-83.919	-0.375	-0.120
-717.777	-200.000	0.061	-0.342
-716.762	-113.195	-0.281	-0.056
-715.748	-200.000	-0.009	0.221
-714.733	800.000	0.061	0.212
-713.718	-7.711	0.319	-0.218
-712.704	-54.445	0.018	0.008
-711.689	-5.801	-0.218	0.151
-710.675	-61.863	0.312	0.132
-709.660	140.635	-0.138	0.184
-708.645	-41.055	-0.397	-0.207
-707.631	161.657	-0.299	0.422
-706.616	-200.000	0.034	-0.365
-705.602	115.576	0.118	0.145
-704.587	-19.399	0.287	0.179
-703.572	-200.000	0.198	-0.001
-702.558	9.967	0.100	0.077
-701.543	115.154	0.215	0.265
-700.529	-124.330	0.099	0.016
-699.514	171.650	-0.135	-0.196
-698.499	800.000	0.093	-0.328
-697.485	-45.524	-0.228	-0.114
-696.470	398.238	0.150	0.317
-695.456	800.000	0.050	0.183
-694.441	-11.235	-0.331	0.220
-693.426	38.238	-0.080	-0.071
-692.412	-104.555	-0.233	-0.054
-691.397	112.856	-0.146	0.178
-690.383	-200.000	-0.010	0.228
-689.368	100.085	-0.131	0.153
-688.354	114.341	0.061	0.074
-687.339	43.685	-0.175	-0.162
-686.324	357.116	-0.093	0.187
-685.310	800.000	-0.050	0.146
-684.295	-60.083	0.363	0.156
-683.281	33.353	0.265	-0.231
-682.266	123.773	0.064	0.081
-681.251	800.000	0.136	0.403
-680.237	76.242	0.166	0.177
-679.222	53.837	-0.106	-0.103
-678.208	-46.880	0.191	0.094
-677.193	177.046	0.079	-0.115
-676.178	800.000	-0.048	-0.182
-675.164	598.040	-0.107	0.267
-674.149	-59.630	-0.316	-0.136
-673.135	-200.000	-0.008	0.084
-672.120	16.083	0.170	-0.135
-671.105	-181.351	0.270	-0.005
-670.091	34.399	0.173	-0.152
-669.076	-200.000	0.002	-0.093
-668.062	-15.717	-0.173	0.111
-667.047	581.109	-0.099	0.243
-666.032	41.675	-0.211	0.193
-665.018	-81.179	0.256	-0.085
-664.003	632.185	0.120	-0.307
-662.989	800.000	-0.081	-0.247
-661.974	-120.621	-0.143	0.024
-660.959	-64.021	0.182	0.075
-659.945	-41.538	-0.158	0.082
-658.930	-138.294	0.215	-0.024
-657.916	392.348	-0.179	0.375
-656.901	-126.303	-0.453	0.068
-655.886	-100.082	0.028	-0.007
-654.872	-64.549	-0.223	0.091
-653.857	87.047	0.074	-0.083
-652.843	-16.300	-0.071	-0.045
-651.828	484.809	-0.119	0.273
-650.814	-18.423	-0.073	-0.046
-649.799	-3.743	-0.063	-0.044
-648.784	228.964	-0.160	-0.263
-647.770	-200.000	-0.019	-0.239
-646.755	-200.000	-0.012	-0.066
-645.741	16.801	-0.077	0.061
-644.726	120.759	-0.165	0.207
-643.711	54.738	-0.125	-0.121
-642.697	-149.053	0.156	0.013
-641.682	723.101	-0.089	-0.238
-640.668	-84.738	-0.258	-0.082
-639.653	-200.000	-0.009	0.053
-638.638	458.671	0.056	0.126
-637.624	-133.702	0.286	-0.036
-636.609	800.000	-0.016	-0.053
-635.595	-200.000	0.026	0.197
-634.580	800.000	0.038	-0.146
-633.565	425.111	-0.027	0.058
-632.551	25.762	0.142	0.119
-631.536	400.697	-0.204	-0.431
-630.522	-71.896	-0.254	-0.095
-629.507	-12.841	0.198	0.130
-628.492	-39.954	-0.017	0.009
-627.478	-104.107	0.262	0.061
-626.463	468.996	-0.075	-0.169
-625.449	44.682	-0.129	-0.120
-624.434	-24.216	0.098	-0.059
-623.419	-99.959	-0.217	-0.054
-622.405	-156.444	-0.128	-0.008
-621.390	257.104	-0.092	-0.159
-620.376	330.304	0.192	0.371
-619.361	-200.000	-0.037	0.429
-618.346	91.822	0.035	0.040
-617.332	24.000	0.207	-0.172
-616.317	-200.000	-0.008	0.286
-615.303	175.442	-0.028	0.041
-614.288	-76.440	-0.084	-0.030
-613.273	-9.578	-0.155	0.104
-612.259	-170.630	0.515	0.018
-611.244	-169.651	-0.199	0.007
-610.230	-84.737	0.213	0.067
-609.215	-200.000	-0.002	0.125
-608.201	266.277	-0.092	0.161
-607.186	-14.037	-0.377	0.245
-606.171	-200.000	0.009	0.197
-605.157	64.944	0.143	0.145
-604.142	-200.000	-0.041	0.359
-603.128	-62.939	-0.208	0.086
-602.113	800.000	0.012	0.051
-601.098	5.419	0.140	-0.104
-600.084	800.000	-0.088	-0.256
-599.069	-143.233	-0.255	-0.025
-598.055	-200.000	0.076	0.485
-597.040	559.885	0.071	0.172
-596.025	52.278	-0.152	0.145
-595.011	313.430	0.116	0.218
-593.996	455.160	0.064	-0.143
-592.982	800.000	-0.008	-0.024
-591.967	290.842	-0.162	-0.296
-590.952	-200.000	0.030	-0.281
-589.938	499.874	0.105	0.243
-588.923	-30.088	0.180	0.103
-587.909	-70.469	0.102	-0.039
-586.894	239.138	-0.141	-0.236
-585.879	-200.000	-0.002	-0.330
-584.865	228.048	-0.339	-0.554
-583.850	85.982	0.122	0.135
-582.836	72.772	0.218	-0.229
-581.821	206.541	-0.118	0.184
-580.806	-200.000	-0.034	-0.261
-579.792	-87.669	-0.287	0.087
-578.777	71.700	-0.090	-0.094
-577.763	98.653	-0.076	0.088
-576.748	-200.000	-0.013	0.401
-575.733	-101.638	0.214	-0.052
-574.719	-83.024	0.179	0.058
-573.704	-71.395	-0.277	0.104
-572.690	349.923	0.141	-0.280
-571.675	-123.634	-0.328	-0.052
-570.661	7.271	0.254	0.190
-569.646	200.425	-0.217	0.334
-568.631	771.593	-0.023	-0.064
-567.617	800.000	-0.046	-0.135
-566.602	351.065	-0.067	-0.132
-565.588	-60.437	0.169	-0.072
-564.573	-89.403	-0.453	0.134
-563.558	1.860	0.285	-0.206
-562.544	-70.261	0.224	-0.085
-561.529	-82.023	-0.230	-0.075
-560.515	-58.748	0.041	-0.018
-559.500	-87.907	0.150	0.045
-558.485	-105.598	-0.190	0.043
-557.471	414.330	-0.041	0.088
-556.456	-91.364	-0.310	0.089
-555.442	-200.000	0.001	-0.249
-554.427	41.871	-0.122	-0.111
-553.412	-90.789	-0.424	0.122
-552.398	800.000	0.013	-0.042
-551.383	-93.682	-0.176	-0.049
-550.369	-128.091	-0.030	-0.004
-549.354	75.231	-0.237	-0.250
-548.339	-122.548	0.178	0.029
-547.325	-121.606	0.177	0.029
-546.310	-40.267	-0.291	-0.152
-545.296	-12.641	-0.079	0.052
-544.281	20.032	0.121	0.098
-543.266	-133.076	-0.294	-0.037
-542.252	-85.602	-0.146	-0.046
-541.237	140.199	-0.215	-0.284
-540.223	-200.000	0.025	-0.227
-539.208	403.332	-0.035	0.074
-538.193	800.000	-0.095	-0.365
-537.179	47.422	-0.300	-0.280
-536.164	-86.748	0.247	0.076
-535.150	113.919	0.084	-0.102
-534.135	-200.000	-0.004	-0.165
-533.121	145.380	0.149	0.200
-532.106	-97.149	0.364	-0.095
-531.091	658.291	0.026	-0.066
-530.077	131.204	0.100	-0.128
-529.062	35.207	0.256	0.225
-528.048	-134.385	0.024	-0.003
-527.033	90.870	-0.079	0.089
-526.018	-149.941	0.316	0.025
-525.004	-67.791	-0.207	-0.081
-523.989	-74.632	0.051	0.018
-522.975	-77.820	0.129	0.045
-521.960	-37.892	0.414	-0.220
-520.945	-200.000	0.004	-0.036
-519.931	-97.793	0.123	-0.032
-518.916	-200.000	0.003	-0.044
-517.902	800.000	0.092	-0.367
-516.887	441.290	0.084	0.185
-515.872	100.113	-0.112	0.129
-514.858	493.904	0.095	-0.218
-513.843	782.908	-0.045	-0.124
-512.829	-20.608	0.115	-0.071
-511.814	-200.000	-0.015	-0.122
-510.799	249.882	0.216	0.368
-509.785	-4.847	0.252	-0.174
-508.770	511.947	0.092	-0.215
-507.756	-200.000	0.005	0.111
-506.741	-118.407	-0.311	-0.055
-505.726	-123.738	0.320	-0.051
-504.712	33.239	-0.276	-0.240
-503.697	61.121	-0.300	0.298
-502.683	12.261	0.289	-0.223
-501.668	143.838	-0.080	-0.107
-500.653	-89.878	0.049	-0.014
-499.639	-200.000	0.047	-0.227
-498.624	124.680	-0.171	0.216
-497.610	5.473	0.075	0.056
-496.595	56.412	0.326	-0.317
-495.581	-200.000	-0.018	0.166
-494.566	174.340	-0.327	-0.472
-493.551	-64.879	0.420	0.170
-492.537	10.209	0.074	-0.056
-491.522	800.000	0.049	0.199
-490.508	-4.068	-0.184	-0.127
-489.493	-111.509	0.275	-0.056
-488.478	-12.677	-0.084	0.055
-487.464	-157.459	-0.217	0.013
-486.449	234.133	-0.088	0.144
-485.435	-17.013	-0.238	-0.150
-484.420	5.787	0.141	0.104
-483.405	194.229	-0.235	0.355
-482.391	-65.203	-0.144	0.058
-481.376	-23.010	0.341	-0.205
-480.362	57.949	-0.065	0.063
-479.347	344.746	-0.145	0.284
-478.332	168.106	0.163	0.232
-477.318	-150.663	0.146	-0.011
-476.303	-110.577	-0.083	-0.017
-475.289	800.000	0.091	0.260
-474.274	800.000	0.105	-0.408
-473.259	210.264	0.048	-0.075
-472.245	4.820	0.173	0.127
-471.230	61.029	0.184	0.183
-470.216	-36.312	0.323	0.174
-469.201	800.000	-0.033	-0.112
-468.186	106.960	-0.246	0.292
-467.172	-130.263	0.024	-0.003
-466.157	-59.705	-0.133	-0.057
-465.143	38.097	0.248	-0.220
-464.128	-46.811	-0.138	-0.067
-463.113	800.000	0.060	-0.168
-462.099	63.778	-0.276	0.277
-461.084	-95.439	-0.321	-0.086
-460.070	800.000	-0.070	0.234
-459.055	800.000	-0.067	0.264
-458.040	800.000	0.076	-0.263
-457.026	-138.665	-0.230	0.025
-456.011	-108.664	0.308	-0.066
-454.997	68.998	-0.149	-0.152
-453.982	263.378	-0.105	-0.183
-452.968	148.126	0.267	-0.360
-451.953	26.976	-0.176	0.148
-450.938	-200.000	0.029	0.217
-449.924	-200.000	0.012	-0.172
-448.909	251.309	-0.169	-0.287
-447.895	-200.000	-0.020	0.261
-446.880	22.711	-0.158	0.129
-445.865	-120.742	0.196	0.033
-444.851	-3.734	0.319	0.221
-443.836	-200.000	0.001	-0.306
-442.822	73.704	0.117	-0.122
-441.807	2.130	-0.031	-0.022
-440.792	116.741	0.157	0.192
-439.778	-200.000	0.030	0.138
-438.763	30.053	0.187	0.160
-437.749	-52.913	-0.243	-0.112
-436.734	254.848	-0.132	0.226
-435.719	-200.000	0.009	-0.127
-434.705	-200.000	-0.036	0.245
-433.690	-77.752	-0.281	-0.097
-432.676	369.814	0.037	-0.075
-431.661	214.906	0.053	0.084
-430.646	174.984	0.038	-0.055
-429.632	402.922	-0.057	0.119
-428.617	-109.352	-0.093	0.020
-427.603	235.868	0.255	-0.421
-426.588	66.949	-0.251	-0.255
-425.573	-125.879	-0.393	0.059
-424.559	294.297	0.045	-0.082
-423.544	800.000	0.077	0.265
-422.530	-15.090	0.085	-0.054
-421.515	-117.305	0.100	-0.018
-420.500	15.578	0.112	-0.088
-419.486	-7.029	0.233	0.158
-418.471	251.306	0.031	-0.052
-417.457	-200.000	0.001	0.024
-416.442	-115.444	-0.330	0.062
-415.428	-116.085	-0.325	0.060
-414.413	-0.502	0.145	0.102
-413.398	-200.000	-0.018	0.127
-412.384	-55.451	0.263	-0.118
-411.369	-200.000	0.012	-0.130
-410.355	-127.453	-0.184	0.027
-409.340	-200.000	-0.029	0.216
-408.325	-200.000	-0.000	-0.009
-407.311	-200.000	0.029	-0.175
-406.296	-9.692	0.143	0.095
-405.282	1.007	-0.296	0.212
-404.267	-146.683	0.166	0.014
-403.252	-200.000	0.033	-0.350
-402.238	-49.551	-0.256	-0.122
-401.223	800.000	-0.109	-0.443
-400.209	-200.000	0.006	-0.168
-399.194	336.294	0.076	0.147
-398.179	405.948	0.114	-0.241
-397.165	-40.720	0.285	-0.147
-396.150	-46.708	-0.308	0.150
-395.136	-200.000	-0.006	-0.098
-394.121	20.317	0.222	-0.179
-393.106	-52.313	0.161	-0.074
-392.092	-200.000	0.060	0.285
-391.077	-161.982	0.519	0.026
-390.063	5.940	0.085	0.063
-389.048	378.292	0.136	-0.278
-388.033	-38.442	-0.126	0.066
-387.019	25.172	-0.143	0.119
-386.004	-200.000	0.030	-0.180
-384.990	-22.998	0.101	0.061
-383.975	-200.000	0.003	0.223
-382.960	800.000	0.053	-0.161
-381.946	-47.437	0.337	-0.163
-380.931	-200.000	-0.009	0.094
-379.917	56.000	0.210	-0.202
-378.902	-158.878	-0.217	-0.012
-377.888	307.836	-0.121	0.226
-376.873	-18.585	0.180	0.112
-375.858	-200.000	-0.003	0.309
-374.844	-200.000	0.001	-0.066
-373.829	-29.723	-0.125	-0.071
-372.815	-200.000	0.003	-0.129
-371.800	640.220	-0.037	0.094
-370.785	22.386	-0.186	0.152
-369.771	436.357	-0.065	-0.141
-368.756	-27.480	-0.104	-0.060
-367.742	-200.000	-0.014	-0.079
-366.727	-200.000	-0.013	-0.252
-365.712	80.001	-0.077	-0.082
-364.698	800.000	-0.119	-0.478
-363.683	-200.000	0.054	0.329
-362.669	748.324	-0.101	0.271
-361.654	-70.700	0.231	-0.087
-360.639	-115.549	-0.193	0.036
-359.625	-190.373	-0.298	0.003
-358.610	458.295	-0.117	-0.260
-357.596	709.646	-0.016	-0.042
-356.581	34.458	-0.234	-0.203
-355.566	153.509	0.083	0.113
-354.552	-141.165	-0.206	-0.021
-353.537	800.000	0.068	-0.275
-352.523	-90.469	-0.178	-0.051
-351.508	55.455	-0.171	0.165
-350.493	-106.910	0.174	0.038
-349.479	265.532	-0.025	-0.043
-348.464	64.891	-0.034	-0.034
-347.450	135.893	-0.124	0.161
-346.435	150.244	0.017	0.022
-345.420	-200.000	0.006	-0.221
-344.406	800.000	-0.127	0.488
-343.391	-102.459	-0.088	-0.021
-342.377	197.372	0.150	0.228
-341.362	-11.001	-0.050	-0.033
-340.348	178.699	-0.134	-0.194
-339.333	-169.727	-0.103	0.004
-338.318	800.000	0.005	0.019
-337.304	95.703	0.290	0.329
-336.289	116.713	0.147	-0.180
-335.275	-87.232	-0.097	-0.029
-334.260	-200.000	0.052	-0.260
-333.245	301.401	-0.125	-0.229
-332.231	-200.000	0.059	0.262
-331.216	80.924	0.219	0.235
-330.202	-69.651	-0.085	-0.032
-329.187	-14.039	-0.125	-0.080
-328.172	-49.417	0.055	-0.026
-327.158	123.956	-0.185	-0.231
-326.143	321.315	0.159	0.301
-325.129	244.087	-0.172	0.287
-324.114	-200.000	0.011	-0.271
-323.099	173.084	-0.161	0.231
-322.085	-148.473	-0.104	0.008
-321.070	-200.000	0.017	-0.103
-320.056	27.586	0.190	-0.159
-319.041	-116.773	0.178	0.032
-318.026	-86.951	-0.178	0.054
-317.012	10.251	-0.322	0.243
-315.997	24.557	0.064	0.053
-314.983	800.000	-0.061	-0.188
-313.968	152.919	0.164	-0.222
-312.953	800.000	0.020	-0.077
-311.939	3.392	-0.082	0.059
-310.924	-200.000	0.009	-0.134
-309.910	-186.926	0.171	0.002
-308.895	-200.000	-0.003	-0.218
-307.880	800.000	0.075	-0.314
-306.866	246.660	0.089	0.150
-305.851	-164.812	-0.074	-0.003
-304.837	190.764	-0.073	0.110
-303.822	-200.000	0.028	-0.281
-302.807	-110.708	0.016	-0.003
-301.793	87.268	-0.120	-0.131
-300.778	-3.451	-0.154	-0.107
-299.764	-200.000	0.047	-0.407
-298.749	800.000	-0.018	-0.062
-297.735	-200.000	0.012	0.186
-296.720	178.333	-0.053	-0.077
-295.705	800.000	0.109	0.300
-294.691	-95.153	-0.196	0.052
-293.676	-200.000	-0.013	0.108
-292.662	474.203	-0.056	0.125
-291.647	279.980	-0.064	-0.113
-290.632	-138.108	0.053	-0.006
-289.618	-172.855	0.433	-0.013
-288.603	800.000	0.062	-0.188
-287.589	-167.730	-0.344	-0.014
-286.574	31.929	-0.196	-0.167
-285.559	-125.663	0.174	-0.026
-284.545	-46.603	0.261	0.127
-283.530	800.000	-0.032	-0.128
-282.516	-200.000	-0.034	-0.195
-281.501	-52.990	-0.089	0.041
-280.486	-136.094	-0.077	-0.009
-279.472	213.048	0.205	0.320
-278.457	-138.385	0.083	-0.009
-277.443	-25.209	0.125	-0.074
-276.428	26.800	-0.200	0.166
-275.413	796.196	-0.100	0.273
-274.399	81.837	-0.051	-0.054
-273.384	25.297	0.150	-0.123
-272.370	-95.492	-0.184	0.049
-271.355	-89.821	-0.151	0.044
-270.340	118.630	0.074	0.091
-269.326	-57.172	-0.149	0.065
-268.311	10.355	0.125	-0.094
-267.297	800.000	0.080	-0.272
-266.282	99.319	0.115	-0.132
-265.267	-200.000	0.000	0.090
-264.253	-111.969	0.070	-0.014
-263.238	-92.294	0.176	-0.049
-262.224	-55.697	0.256	0.113
-261.209	3.802	0.194	-0.140
-260.195	-200.000	-0.256	-0.000
-259.180	179.734	-0.228	0.332
-258.165	-93.642	0.438	0.120
-257.151	-7.177	-0.248	0.166
-256.136	800.000	-0.068	-0.235
-255.122	-13.375	-0.101	0.065
-254.107	-88.100	-0.267	0.079
-253.092	15.313	-0.180	-0.140
-252.078	-33.134	0.147	-0.081
-251.063	-4.952	0.590	0.403
-250.049	-200.000	-0.018	0.221
-249.034	-20.114	0.185	0.113
-248.019	800.000	-0.088	-0.295
-247.005	-103.216	0.191	-0.045
-245.990	-200.000	0.003	-0.134
-244.976	800.000	-0.063	-0.197
-243.961	14.223	0.174	0.134
-242.946	422.280	0.225	0.479
-241.932	61.568	-0.100	-0.098
-240.917	16.747	0.126	-0.099
-239.903	71.830	-0.181	-0.186
-238.888	800.000	-0.177	-0.623
-237.873	204.801	-0.200	0.307
-236.859	-180.856	0.132	0.003
-235.844	27.349	-0.121	-0.101
-234.830	84.060	-0.165	0.179
-233.815	82.528	-0.151	-0.162
-232.800	-149.682	0.276	-0.022
-231.786	568.434	-0.024	0.057
-230.771	-178.190	0.234	0.005
-229.757	800.000	-0.061	0.173
-228.742	-47.055	0.364	0.176
-227.727	-50.249	0.137	-0.064
-226.713	130.591	-0.283	0.359
-225.698	-200.000	-0.015	0.425
-224.684	50.187	-0.055	0.052
-223.669	-137.719	-0.180	-0.020
-222.655	365.947	0.041	-0.082
-221.640	-200.000	-0.016	0.212
-220.625	-200.000	-0.002	0.222
-219.611	19.490	-0.048	-0.038
-218.596	-159.294	-0.208	0.012
-217.582	83.711	-0.168	0.181
-216.567	800.000	0.053	-0.181
-215.552	-160.302	0.311	0.017
-214.538	336.451	-0.128	-0.245
-213.523	76.664	0.082	-0.086
-212.509	-200.000	-0.005	-0.245
-211.494	-111.696	-0.017	0.003
-210.479	800.000	-0.038	-0.140
-209.465	55.199	-0.139	0.133
-208.450	800.000	0.058	0.227
-207.436	-15.909	0.221	-0.139
-206.421	800.000	-0.083	-0.343
-205.406	244.723	0.039	-0.065
-204.392	151.023	0.209	0.282
-203.377	-200.000	-0.025	0.484
-202.363	-33.856	0.132	-0.072
-201.348	-149.692	0.149	-0.012
-200.333	-91.148	0.122	0.035
-199.319	800.000	0.110	0.399
-198.304	-200.000	-0.048	-0.302
-197.290	449.933	0.106	0.232
-196.275	-200.000	0.250	-0.001
-195.260	-95.075	-0.340	0.091
-194.246	-92.757	0.510	0.141
-193.231	-88.517	0.125	-0.037
-192.217	-92.779	0.300	0.083
-191.202	-200.000	-0.008	-0.054
-190.187	-139.896	-0.129	0.013
-189.173	29.952	0.058	0.048
-188.158	-68.762	-0.230	0.088
-187.144	-65.723	-0.282	-0.112
-186.129	-79.884	-0.289	0.096
-185.114	185.058	-0.077	0.113
-184.100	-200.000	0.040	0.327
-183.085	800.000	-0.056	-0.163
-182.071	-88.976	-0.343	0.100
-181.056	182.402	-0.064	-0.094
-180.042	48.479	-0.186	0.172
-179.027	675.927	-0.113	0.290
-178.012	-200.000	0.002	-0.085
-176.998	319.990	0.054	0.100
-175.983	-40.816	0.225	-0.115
-174.969	770.081	-0.067	-0.181
-173.954	219.741	-0.068	0.107
-172.939	800.000	0.087	0.240
-171.925	-200.000	0.021	0.239
-170.910	-121.497	0.186	-0.031
-169.896	-200.000	0.020	0.153
-168.881	80.770	0.091	0.097
-167.866	800.000	-0.023	0.069
-166.852	-184.382	0.148	-0.002
-165.837	-80.412	0.242	0.080
-164.823	-178.638	-0.177	-0.004
-163.808	-158.302	0.105	0.006
-162.793	45.689	0.137	0.125
-161.779	166.123	0.211	0.295
-160.764	777.185	-0.022	-0.059
-159.750	-200.000	0.027	-0.165
-158.735	-200.000	0.022	-0.171
-157.720	-27.775	0.146	0.084
-156.706	-174.107	0.339	0.010
-155.691	76.653	0.115	-0.120
-154.677	-200.000	-0.000	0.463
-153.662	-101.516	0.053	-0.013
-152.647	-200.000	0.008	0.034
-151.633	74.903	-0.161	0.168
-150.618	-200.000	-0.010	0.155
-149.604	595.370	0.093	0.228
-148.589	800.000	0.075	-0.230
-147.574	-55.743	0.129	-0.057
-146.560	205.883	0.098	-0.150
-145.545	-137.084	-0.068	0.008
-144.531	124.464	0.109	0.136
-143.516	209.422	-0.092	-0.141
-142.502	-200.000	0.062	-0.334
-141.487	-190.962	0.271	0.003
-140.472	94.490	0.222	-0.249
-139.458	170.165	0.240	0.339
-138.443	46.978	0.181	0.166
-137.429	-20.485	-0.033	-0.020
-136.414	-200.000	0.298	0.000
-135.399	107.338	0.209	0.245
-134.385	-110.223	-0.098	0.020
-133.370	800.000	-0.033	-0.091
-132.356	577.224	-0.051	0.123
-131.341	-17.003	0.076	-0.048
-130.326	-19.747	0.177	-0.108
-129.312	-32.339	0.225	-0.124
-128.297	448.975	0.051	0.111
-127.283	25.792	-0.179	-0.147
-126.268	457.909	0.136	0.299
-125.253	-28.389	-0.024	-0.014
-124.239	-58.427	0.178	-0.076
-123.224	-200.000	-0.028	0.330
-122.210	385.875	0.078	0.158
-121.195	429.317	0.125	-0.267
