DTS Sentinel unit serial number:	SN413079Multiplexer serial number:	ORYXHardware model number:	OX4-SRSoftware version number:	ORYX F/W v4.00 Oryx Data Collector v3.7.2.0data status	okinstallation	princeton_trtdifferential loss correction	single-endedforward channel	channel 3reverse channel	N/Adate	2019/09/18time	14:44:35forward acquisition time	60.00reverse acquisition time	0.00gamma	496.2192k internal	0.2306k external	0.2306temperature offset calibration	0.9975default loss term (dB/km)	0.3790temperature slope calibration	1.0000multiplexer offset coefficient	1.0000multiplexer slope coefficient	1.0000fibre end	0.00T internal ref (°C)	34.91T ext. ref 1 (°C)	0.70T ext. ref 2 (°C)	33.19length (m)	temperature (°C)	Stokes	anti-Stokes-747.200	184.442	0.160	0.241
-746.185	421.616	0.074	0.162
-745.171	-172.055	-0.128	0.004
-744.156	-4.866	0.204	0.143
-743.142	47.192	-0.024	-0.022
-742.127	800.000	-0.074	0.286
-741.112	-135.448	-0.161	-0.020
-740.098	48.574	0.061	-0.058
-739.083	-200.000	-0.011	-0.201
-738.069	-104.217	-0.290	0.069
-737.054	-161.309	0.153	0.008
-736.039	-94.672	-0.360	0.100
-735.025	-112.165	0.273	0.056
-734.010	-70.269	0.207	0.080
-732.996	800.000	-0.069	0.242
-731.981	548.394	-0.067	0.164
-730.966	112.708	-0.170	0.209
-729.952	-45.522	-0.330	-0.166
-728.937	-200.000	0.035	0.204
-727.923	-18.373	-0.154	-0.098
-726.908	10.851	-0.073	-0.056
-725.894	772.036	-0.061	-0.169
-724.879	608.106	-0.048	-0.122
-723.864	34.539	0.166	0.147
-722.850	-48.244	-0.197	0.097
-721.835	-184.473	-0.188	0.003
-720.821	424.860	-0.219	-0.480
-719.806	-104.128	-0.163	0.039
-718.791	6.599	-0.195	0.147
-717.777	-80.267	-0.264	0.090
-716.762	800.000	0.043	-0.158
-715.748	800.000	-0.051	-0.178
-714.733	-200.000	0.038	0.289
-713.718	140.378	-0.268	-0.359
-712.704	151.047	0.113	-0.156
-711.689	-200.000	-0.056	-0.253
-710.675	-92.622	-0.231	0.066
-709.660	20.978	-0.064	-0.053
-708.645	241.799	0.038	-0.065
-707.631	-200.000	0.018	0.176
-706.616	-62.172	0.128	0.054
-705.602	-63.168	-0.143	0.060
-704.587	-184.219	0.268	0.004
-703.572	126.956	-0.199	-0.257
-702.558	-4.722	0.093	0.065
-701.543	800.000	0.054	-0.202
-700.529	-111.627	0.220	0.045
-699.514	-104.921	-0.292	-0.068
-698.499	42.796	0.217	0.201
-697.485	-33.070	-0.023	-0.013
-696.470	125.378	-0.058	0.075
-695.456	128.998	-0.039	0.050
-694.441	-16.551	0.103	-0.066
-693.426	252.953	-0.164	-0.284
-692.412	-166.382	-0.238	0.010
-691.397	-112.172	0.156	0.032
-690.383	582.980	-0.062	0.154
-689.368	269.952	-0.087	0.156
-688.354	-200.000	0.012	0.289
-687.339	1.391	-0.362	0.264
-686.324	-145.136	-0.287	0.026
-685.310	21.986	-0.159	-0.132
-684.295	589.981	-0.106	0.266
-683.281	-0.644	0.202	0.145
-682.266	-145.301	0.161	-0.015
-681.251	72.094	-0.137	-0.145
-680.237	-200.000	-0.035	0.313
-679.222	-154.955	-0.262	0.018
-678.208	-200.000	-0.003	0.128
-677.193	-19.570	-0.151	-0.095
-676.178	-120.023	-0.134	-0.023
-675.164	126.691	0.079	-0.102
-674.149	-43.556	-0.119	-0.061
-673.135	800.000	-0.144	-0.434
-672.120	-200.000	0.023	0.249
-671.105	428.847	-0.087	0.191
-670.091	800.000	0.039	0.138
-669.076	800.000	-0.104	0.383
-668.062	-200.000	0.035	0.250
-667.047	37.590	0.427	0.384
-666.032	153.803	-0.085	-0.118
-665.018	-200.000	-0.011	0.222
-664.003	-200.000	-0.004	0.246
-662.989	-79.331	-0.192	-0.066
-661.974	22.684	-0.336	-0.279
-660.959	-200.000	-0.062	-0.315
-659.945	141.963	-0.131	0.176
-658.930	298.138	-0.031	-0.058
-657.916	-122.401	-0.293	-0.048
-656.901	382.096	-0.110	-0.229
-655.886	-189.234	-0.375	0.004
-654.872	-12.453	0.182	0.121
-653.857	-200.000	-0.053	0.292
-652.843	-12.609	-0.031	0.021
-651.828	-28.277	0.143	0.084
-650.814	-200.000	-0.024	-0.245
-649.799	-12.999	0.039	-0.026
-648.784	800.000	0.040	0.178
-647.770	-200.000	-0.019	-0.246
-646.755	-85.817	0.060	-0.019
-645.741	108.367	-0.231	-0.280
-644.726	-125.427	0.222	0.034
-643.711	130.635	0.116	0.150
-642.697	-200.000	-0.049	0.268
-641.682	-100.282	0.180	-0.045
-640.668	-110.181	0.083	0.018
-639.653	-68.892	-0.089	0.035
-638.638	-79.863	-0.210	0.072
-637.624	-120.186	-0.316	-0.055
-636.609	-200.000	-0.009	0.101
-635.595	-105.260	-0.200	-0.046
-634.580	252.777	-0.164	0.283
-633.565	-114.701	-0.319	0.062
-632.551	-16.878	-0.124	-0.079
-631.536	800.000	0.124	0.458
-630.522	-130.883	0.224	0.030
-629.507	269.048	0.060	0.107
-628.492	-72.659	0.195	0.073
-627.478	257.474	-0.037	-0.064
-626.463	273.915	-0.066	-0.119
-625.449	-136.907	0.242	-0.028
-624.434	800.000	-0.078	-0.243
-623.419	800.000	-0.127	0.379
-622.405	525.592	0.085	-0.203
-621.390	-115.427	0.092	-0.018
-620.376	-14.728	0.186	-0.121
-619.361	398.155	-0.078	-0.166
-618.346	-17.704	0.160	-0.102
-617.332	-15.060	-0.236	-0.153
-616.317	800.000	-0.118	-0.366
-615.303	800.000	-0.050	-0.156
-614.288	-200.000	0.021	0.261
-613.273	15.132	-0.160	-0.127
-612.259	-47.987	0.236	-0.116
-611.244	-157.776	-0.238	0.014
-610.230	-135.243	-0.471	-0.057
-609.215	-200.000	-0.081	-0.377
-608.201	305.001	0.073	0.138
-607.186	-152.517	0.224	-0.016
-606.171	312.103	-0.123	-0.233
-605.157	-45.577	-0.176	-0.088
-604.142	-200.000	0.010	-0.076
-603.128	-50.029	0.423	-0.203
-602.113	-200.000	0.003	-0.228
-601.098	-9.119	0.235	-0.159
-600.084	-200.000	0.039	0.225
-599.069	73.324	-0.192	-0.203
-598.055	74.562	0.288	-0.306
-597.040	33.685	-0.148	-0.131
-596.025	-0.903	0.171	0.123
-595.011	-200.000	-0.021	0.204
-593.996	140.926	0.159	-0.212
-592.982	34.825	-0.114	-0.101
-591.967	100.801	-0.153	-0.180
-590.952	2.091	-0.323	-0.236
-589.938	-165.602	-0.294	-0.013
-588.923	-143.751	-0.205	0.020
-587.909	81.828	-0.147	-0.161
-586.894	-139.725	0.220	-0.024
-585.879	-117.734	-0.122	-0.022
-584.865	-65.293	0.091	-0.037
-583.850	-200.000	-0.013	-0.148
-582.836	-7.165	0.057	0.039
-581.821	800.000	0.050	-0.165
-580.806	257.338	-0.152	-0.264
-579.792	-200.000	-0.071	0.383
-578.777	-200.000	0.015	0.141
-577.763	-200.000	0.030	-0.302
-576.748	532.660	0.099	-0.238
-575.733	666.752	-0.015	0.039
-574.719	231.747	0.173	0.287
-573.704	35.941	0.025	-0.022
-572.690	-84.908	-0.342	0.108
-571.675	-48.587	-0.082	0.040
-570.661	21.690	-0.141	-0.116
-569.646	800.000	-0.040	-0.121
-568.631	-32.451	-0.268	-0.151
-567.617	800.000	-0.091	-0.271
-566.602	-55.861	0.270	-0.122
-565.588	-124.890	0.126	0.020
-564.573	-200.000	-0.012	0.191
-563.558	174.950	-0.244	0.357
-562.544	361.515	-0.179	-0.362
-561.529	75.589	-0.194	-0.207
-560.515	53.030	0.092	0.089
-559.500	-200.000	0.011	-0.152
-558.485	-200.000	-0.009	0.228
-557.471	-200.000	0.006	0.287
-556.456	-30.797	0.357	0.204
-555.442	-200.000	0.023	0.154
-554.427	-60.455	-0.240	-0.103
-553.412	43.716	-0.068	0.063
-552.398	364.440	-0.100	-0.204
-551.383	-148.456	0.246	-0.020
-550.369	314.994	-0.199	0.378
-549.354	472.061	-0.056	0.127
-548.339	-14.396	0.347	-0.226
-547.325	-66.197	0.260	-0.104
-546.310	-123.318	0.013	-0.002
-545.296	-43.608	0.159	0.081
-544.281	-200.000	0.059	0.443
-543.266	-38.521	0.054	-0.029
-542.252	13.232	-0.253	-0.198
-541.237	219.196	-0.134	0.217
-540.223	-16.948	0.392	0.250
-539.208	-124.874	0.356	-0.055
-538.193	-122.642	0.202	0.033
-537.179	212.575	-0.198	0.315
-536.164	-115.396	-0.091	0.017
-535.150	-73.379	-0.159	-0.059
-534.135	168.202	-0.038	0.055
-533.121	142.536	0.198	-0.265
-532.106	754.274	-0.062	-0.169
-531.091	-94.188	-0.382	0.105
-530.077	154.954	0.149	-0.206
-529.062	800.000	0.081	0.323
-528.048	-165.362	-0.063	-0.003
-527.033	-82.677	0.083	0.027
-526.018	465.034	-0.070	-0.158
-525.004	-143.720	-0.157	-0.015
-523.989	-21.771	0.100	0.061
-522.975	115.256	-0.023	-0.029
-521.960	-137.518	-0.173	-0.020
-520.945	-200.000	-0.011	-0.211
-519.931	253.588	0.059	-0.101
-518.916	-66.961	-0.239	0.095
-517.902	671.375	-0.076	0.199
-516.887	-200.000	-0.001	0.156
-515.872	13.390	0.195	-0.153
-514.858	-64.600	-0.093	-0.038
-513.843	-105.180	0.170	0.039
-512.829	-172.070	0.123	0.004
-511.814	-200.000	-0.022	0.141
-510.799	-57.418	-0.098	0.043
-509.785	800.000	0.155	-0.480
-508.770	535.447	0.110	-0.263
-507.756	-200.000	0.023	-0.134
-506.741	-99.902	0.073	0.018
-505.726	304.317	0.154	0.287
-504.712	-156.356	0.459	-0.029
-503.697	56.422	-0.146	0.143
-502.683	1.520	0.346	-0.251
-501.668	-131.779	-0.266	0.035
-500.653	-200.000	0.031	0.179
-499.639	352.753	0.216	0.433
-498.624	-26.024	-0.132	-0.078
-497.610	-67.602	0.194	0.076
-496.595	-110.746	-0.199	0.041
-495.581	101.563	0.099	0.116
-494.566	146.652	0.106	-0.143
-493.551	-75.781	0.108	-0.039
-492.537	-42.221	-0.202	-0.104
-491.522	-94.643	0.254	0.069
-490.508	210.227	-0.047	-0.074
-489.493	-194.001	-0.130	0.001
-488.478	-56.867	0.250	0.111
-487.464	627.548	0.056	-0.141
-486.449	195.306	-0.234	0.358
-485.435	97.249	0.037	-0.043
-484.420	-120.151	-0.143	0.025
-483.405	-24.238	0.139	0.083
-482.391	206.540	0.130	0.205
-481.376	-58.766	0.168	0.073
-480.362	-118.673	0.310	-0.055
-479.347	-200.000	-0.035	0.219
-478.332	-200.000	0.000	0.125
-477.318	86.533	-0.392	0.435
-476.303	307.863	0.080	0.150
-475.289	-200.000	-0.072	0.373
-474.274	-109.870	0.171	-0.036
-473.259	-200.000	0.009	-0.186
-472.245	-169.003	0.363	-0.014
-471.230	573.132	0.119	-0.292
-470.216	-200.000	-0.011	-0.053
-469.201	-114.390	-0.227	0.044
-468.186	464.702	-0.148	-0.332
-467.172	9.396	-0.066	-0.050
-466.157	800.000	-0.025	-0.107
-465.143	343.656	0.054	-0.107
-464.128	-6.358	-0.452	0.310
-463.113	-200.000	0.036	0.213
-462.099	92.039	-0.018	0.021
-461.084	161.603	0.115	-0.162
-460.070	68.494	0.088	0.091
-459.055	130.967	-0.204	0.263
-458.040	510.097	-0.050	0.116
-457.026	110.012	0.025	0.031
-456.011	564.321	-0.071	0.174
-454.997	36.390	-0.230	0.204
-453.982	243.296	0.183	-0.309
-452.968	-200.000	-0.058	-0.261
-451.953	127.823	0.164	-0.210
-450.938	-59.704	-0.143	-0.062
-449.924	-135.656	-0.408	-0.049
-448.909	-122.345	0.238	-0.039
-447.895	-128.399	-0.051	-0.007
-446.880	800.000	0.058	-0.249
-445.865	800.000	0.041	0.135
-444.851	-74.951	0.218	0.079
-443.836	27.987	-0.047	0.039
-442.822	97.198	0.157	-0.181
-441.807	-92.188	-0.199	-0.056
-440.792	619.666	0.041	-0.104
-439.778	-79.730	0.145	0.049
-438.763	-109.844	-0.171	0.036
-437.749	255.937	-0.063	-0.109
-436.734	-200.000	-0.094	0.420
-435.719	765.533	0.109	0.299
-434.705	413.222	0.115	-0.247
-433.690	-200.000	-0.008	0.100
-432.676	385.854	-0.142	0.295
-431.661	800.000	0.057	-0.229
-430.646	661.731	-0.109	-0.282
-429.632	-100.528	0.108	0.027
-428.617	-14.455	-0.092	-0.060
-427.603	46.066	-0.151	-0.140
-426.588	-108.179	0.103	-0.022
-425.573	351.232	-0.110	0.218
-424.559	147.242	0.108	0.146
-423.544	-108.006	-0.127	-0.028
-422.530	-139.929	-0.058	0.006
-421.515	520.248	-0.041	0.097
-420.500	-200.000	0.013	-0.219
-419.486	800.000	0.071	-0.299
-418.471	-151.681	0.047	0.003
-417.457	195.066	-0.171	0.261
-416.442	12.218	0.236	0.183
-415.428	27.504	-0.232	0.196
-414.413	-2.618	0.296	0.208
-413.398	-200.000	0.000	-0.056
-412.384	-152.198	-0.377	-0.027
-411.369	108.403	0.205	-0.245
-410.355	31.119	-0.056	-0.048
-409.340	-6.968	0.204	-0.139
-408.325	-140.361	0.123	-0.013
-407.311	-52.673	0.215	-0.100
-406.296	87.497	-0.258	-0.287
-405.282	-200.000	-0.001	0.127
-404.267	-200.000	0.080	-0.429
-403.252	-120.970	0.127	-0.022
-402.238	-97.191	-0.106	-0.028
-401.223	800.000	-0.060	0.188
-400.209	-200.000	0.005	0.053
-399.194	-38.772	-0.256	-0.135
-398.179	565.463	0.095	0.231
-397.165	169.821	-0.169	0.243
-396.150	192.198	0.101	0.153
-395.136	85.925	0.131	0.144
-394.121	153.016	0.242	-0.332
-393.106	-20.801	-0.210	0.129
-392.092	74.935	0.362	-0.383
-391.077	-94.232	-0.081	0.022
-390.063	-200.000	-0.011	-0.121
-389.048	-92.968	0.101	0.028
-388.033	368.387	0.031	-0.063
-387.019	-186.915	-0.256	-0.004
-386.004	-200.000	-0.054	0.304
-384.990	397.328	0.088	-0.184
-383.975	15.767	0.116	0.092
-382.960	-158.025	-0.309	0.018
-381.946	800.000	0.101	0.292
-380.931	-178.225	-0.138	0.003
-379.917	-96.926	-0.043	0.011
-378.902	17.860	-0.380	-0.304
-377.888	342.116	-0.037	-0.073
-376.873	44.469	0.112	0.103
-375.858	120.609	0.237	-0.296
-374.844	218.174	-0.109	-0.175
-373.829	-130.054	0.326	0.045
-372.815	218.857	-0.135	0.217
-371.800	172.780	0.040	-0.058
-370.785	-200.000	-0.013	0.100
-369.771	76.900	-0.091	-0.097
-368.756	145.079	0.214	0.287
-367.742	40.147	-0.207	0.187
-366.727	-55.705	-0.228	-0.102
-365.712	-200.000	0.026	0.319
-364.698	146.396	-0.025	0.033
-363.683	125.752	-0.107	-0.136
-362.669	89.102	-0.085	-0.095
-361.654	800.000	0.040	0.157
-360.639	-200.000	-0.006	-0.125
-359.625	-61.050	0.266	0.113
-358.610	-88.157	0.086	0.026
-357.596	-39.424	-0.019	0.010
-356.581	-121.828	-0.050	0.008
-355.566	-12.001	-0.074	-0.049
-354.552	800.000	-0.039	-0.125
-353.537	-122.832	0.161	0.026
-352.523	-200.000	-0.003	0.340
-351.508	51.586	-0.061	-0.058
-350.493	586.107	0.042	0.104
-349.479	142.168	-0.096	-0.127
-348.464	-200.000	-0.043	-0.319
-347.450	154.733	0.105	-0.145
-346.435	16.659	-0.156	-0.124
-345.420	800.000	-0.050	-0.190
-344.406	122.987	0.141	-0.177
-343.391	335.064	0.153	-0.297
-342.377	-200.000	0.078	0.359
-341.362	-188.704	-0.346	-0.004
-340.348	-200.000	0.003	-0.253
-339.333	800.000	0.067	0.264
-338.318	22.981	-0.104	-0.085
-337.304	461.497	0.082	0.183
-336.289	-37.268	0.033	-0.018
-335.275	-50.439	0.075	-0.035
-334.260	152.511	-0.043	-0.058
-333.245	-112.873	-0.199	-0.040
-332.231	-53.916	0.119	0.054
-331.216	-200.000	-0.029	0.135
-330.202	-148.329	-0.169	0.014
-329.187	-96.299	0.080	-0.021
-328.172	-112.761	-0.437	0.087
-327.158	291.195	-0.044	-0.081
-326.143	89.858	0.066	-0.074
-325.129	-200.000	-0.018	-0.117
-324.114	-100.809	-0.149	0.037
-323.099	315.421	-0.089	0.169
-322.085	-37.089	0.231	-0.124
-321.070	506.430	0.049	-0.114
-320.056	-12.517	-0.053	-0.035
-319.041	-200.000	-0.019	-0.121
-318.026	-200.000	0.017	-0.156
-317.012	311.554	-0.099	0.187
-315.997	-38.507	-0.060	-0.032
-314.983	381.261	-0.083	0.171
-313.968	-74.987	0.444	0.159
-312.953	-156.950	-0.600	-0.037
-311.939	-96.519	0.361	0.095
-310.924	800.000	0.088	-0.251
-309.910	-142.908	-0.303	-0.029
-308.895	40.205	0.266	-0.239
-307.880	89.165	0.122	-0.136
-306.866	581.629	0.101	0.247
-305.851	257.156	-0.030	-0.051
-304.837	132.393	-0.110	0.142
-303.822	208.743	0.175	-0.274
-302.807	264.669	-0.103	0.179
-301.793	128.919	0.242	0.309
-300.778	-55.079	-0.086	-0.039
-299.764	-200.000	0.051	0.292
-298.749	-29.330	-0.128	0.073
-297.735	800.000	-0.109	0.304
-296.720	-35.448	-0.186	-0.101
-295.705	-67.779	-0.146	0.057
-294.691	49.476	0.199	-0.187
-293.676	-200.000	0.011	-0.166
-292.662	-200.000	-0.011	0.117
-291.647	-200.000	-0.004	-0.364
-290.632	188.724	-0.046	0.069
-289.618	60.267	-0.127	0.125
-288.603	107.792	-0.114	-0.136
-287.589	491.067	0.160	-0.366
-286.574	-200.000	-0.044	-0.238
-285.559	79.158	-0.150	-0.160
-284.545	-37.197	-0.119	-0.063
-283.530	34.353	0.073	0.064
-282.516	357.168	0.029	0.057
-281.501	32.975	-0.237	-0.205
-280.486	-137.827	0.150	0.017
-279.472	-40.932	-0.309	0.159
-278.457	-78.263	-0.278	-0.096
-277.443	-120.296	0.233	-0.040
-276.428	-151.345	-0.232	0.017
-275.413	593.076	0.062	-0.153
-274.399	343.627	-0.108	0.212
-273.384	565.177	-0.034	-0.083
-272.370	-86.584	-0.171	-0.052
-271.355	800.000	0.162	0.481
-270.340	233.775	0.144	-0.237
-269.326	800.000	0.065	-0.184
-268.311	41.784	-0.113	-0.103
-267.297	16.929	-0.272	0.215
-266.282	-160.007	-0.189	0.010
-265.267	18.781	0.276	0.221
-264.253	-185.506	0.266	0.004
-263.238	-200.000	-0.042	-0.297
-262.224	227.463	-0.061	-0.100
-261.209	-200.000	-0.058	0.367
-260.195	326.747	0.149	0.285
-259.180	0.340	-0.046	0.033
-258.165	665.381	0.112	-0.290
-257.151	-200.000	-0.022	-0.311
-256.136	-106.027	0.155	0.035
-255.122	-94.628	-0.136	-0.037
-254.107	69.040	-0.140	0.143
-253.092	-200.000	0.011	0.132
-252.078	309.101	-0.143	0.266
-251.063	-115.212	0.204	0.039
-250.049	-200.000	0.028	0.335
-249.034	173.957	0.141	-0.203
-248.019	-200.000	-0.007	0.223
-247.005	800.000	0.026	-0.099
-245.990	67.419	0.160	-0.163
-244.976	244.521	-0.049	-0.082
-243.961	-15.671	0.272	0.173
-242.946	-114.253	0.052	-0.010
-241.932	19.140	0.159	0.127
-240.917	117.214	0.170	0.208
-239.903	357.530	-0.088	0.175
-238.888	-75.372	-0.070	0.025
-237.873	-115.249	-0.187	0.035
-236.859	66.330	-0.138	-0.140
-235.844	64.031	0.133	-0.134
-234.830	738.595	0.056	0.151
-233.815	128.037	0.048	0.061
-232.800	19.951	0.083	-0.066
-231.786	217.097	0.100	-0.159
-230.771	800.000	-0.062	-0.183
-229.757	-58.726	-0.254	-0.110
-228.742	-200.000	0.057	0.264
-227.727	43.360	0.131	0.119
-226.713	-59.828	0.201	0.086
-225.698	-200.000	-0.035	0.348
-224.684	-48.824	0.192	0.092
-223.669	7.879	-0.134	0.100
-222.655	-147.451	0.278	0.023
-221.640	-200.000	0.036	-0.267
-220.625	-129.707	0.136	0.019
-219.611	-200.000	0.037	-0.301
-218.596	800.000	0.098	0.359
-217.582	-2.674	0.220	0.153
-216.567	46.949	0.237	-0.220
-215.552	5.243	-0.199	-0.146
-214.538	350.402	-0.087	-0.171
-213.523	580.776	-0.031	0.075
-212.509	31.975	-0.255	-0.219
-211.494	-176.386	0.078	-0.002
-210.479	-41.424	0.274	0.140
-209.465	297.985	-0.045	-0.083
-208.450	-45.770	-0.335	0.165
-207.436	-165.541	0.420	-0.018
-206.421	-168.785	0.126	-0.005
-205.406	-24.858	0.191	0.113
-204.392	-75.332	-0.244	-0.087
-203.377	514.663	-0.114	-0.266
-202.363	-36.484	0.315	0.169
-201.348	-200.000	-0.024	0.405
-200.333	-200.000	-0.011	-0.141
-199.319	-125.736	0.299	-0.045
-198.304	72.655	0.261	-0.271
-197.290	96.619	0.124	0.142
-196.275	99.850	0.123	-0.142
-195.260	177.524	0.108	-0.156
-194.246	-159.460	0.168	0.009
-193.231	-200.000	0.052	0.261
-192.217	-120.944	-0.074	-0.012
-191.202	-123.810	-0.132	0.021
-190.187	-26.101	-0.281	-0.165
-189.173	155.609	-0.094	-0.129
-188.158	618.035	-0.070	0.174
-187.144	316.141	0.131	0.246
-186.129	179.497	0.123	0.180
-185.114	46.455	-0.197	0.182
-184.100	800.000	0.016	0.059
-183.085	-139.453	0.190	0.020
-182.071	69.614	0.092	0.094
-181.056	-115.324	0.359	-0.067
-180.042	163.270	0.099	0.138
-179.027	428.215	-0.041	-0.089
-178.012	-200.000	-0.007	0.035
-176.998	271.759	0.206	-0.361
-175.983	-200.000	0.032	-0.353
-174.969	129.878	0.113	-0.144
-173.954	800.000	-0.062	-0.256
-172.939	60.320	-0.141	0.138
-171.925	-62.557	-0.169	0.070
-170.910	-200.000	-0.003	0.278
-169.896	161.013	-0.100	0.139
-168.881	52.575	0.120	0.114
-167.866	-18.997	-0.105	-0.065
-166.852	-200.000	0.016	0.174
-165.837	800.000	0.033	0.121
-164.823	8.033	-0.265	0.198
-163.808	800.000	0.054	0.170
-162.793	-34.222	-0.306	-0.167
-161.779	800.000	-0.090	0.292
-160.764	795.030	-0.049	-0.133
-159.750	-200.000	0.011	0.297
-158.735	162.185	-0.048	-0.067
-157.720	-30.956	0.223	0.125
-156.706	216.786	-0.218	-0.345
-155.691	-200.000	-0.010	-0.066
-154.677	388.268	-0.252	0.518
-153.662	57.777	-0.117	0.114
-152.647	-66.537	0.163	-0.064
-151.633	-200.000	-0.066	-0.307
-150.618	-102.704	0.224	0.053
-149.604	-62.353	0.207	-0.085
-148.589	416.451	0.082	-0.174
-147.574	-200.000	-0.019	-0.407
-146.560	425.202	0.099	0.212
-145.545	231.132	0.138	-0.225
-144.531	800.000	0.089	0.301
-143.516	-26.634	-0.283	0.164
-142.502	-141.726	-0.146	0.015
-141.487	-200.000	-0.016	-0.141
-140.472	-200.000	0.045	-0.268
-139.458	44.187	0.192	-0.175
-138.443	-22.250	0.280	0.169
-137.429	65.272	-0.201	-0.202
-136.414	34.339	0.095	-0.082
-135.399	133.810	0.015	-0.019
-134.385	-118.145	0.345	0.061
-133.370	-115.712	-0.120	-0.022
-132.356	-49.792	0.300	-0.142
-131.341	332.922	0.089	0.172
-130.326	800.000	0.074	-0.251
-129.312	-200.000	0.006	0.143
-128.297	308.276	0.022	-0.041
-127.283	-53.699	0.143	-0.065
-126.268	227.363	-0.242	0.390
-125.253	-96.074	-0.221	-0.058
-124.239	-184.652	-0.152	0.002
-123.224	800.000	-0.084	0.319
