DTS Sentinel unit serial number:	SN413079Multiplexer serial number:	ORYXHardware model number:	OX4-SRSoftware version number:	ORYX F/W v4.00 Oryx Data Collector v3.7.2.0data status	okinstallation	princeton_trtdifferential loss correction	single-endedforward channel	channel 3reverse channel	N/Adate	2019/09/18time	12:48:35forward acquisition time	60.00reverse acquisition time	0.00gamma	496.2192k internal	0.2316k external	0.2316temperature offset calibration	0.9969default loss term (dB/km)	0.3790temperature slope calibration	1.0000multiplexer offset coefficient	1.0000multiplexer slope coefficient	1.0000fibre end	0.00T internal ref (°C)	33.02T ext. ref 1 (°C)	0.55T ext. ref 2 (°C)	29.54length (m)	temperature (°C)	Stokes	anti-Stokes-747.200	355.177	0.110	0.221
-746.185	-29.989	-0.290	0.167
-745.171	-167.912	0.409	-0.016
-744.156	-137.003	0.209	-0.024
-743.142	800.000	-0.127	0.404
-742.127	8.592	-0.339	0.258
-741.112	-134.715	-0.190	-0.023
-740.098	-200.000	-0.056	0.403
-739.083	215.775	-0.124	0.199
-738.069	-64.865	-0.200	0.082
-737.054	-200.000	0.004	-0.129
-736.039	-134.316	-0.405	0.050
-735.025	-200.000	-0.018	0.208
-734.010	104.065	-0.102	-0.122
-732.996	800.000	0.032	-0.115
-731.981	-44.444	0.320	-0.162
-730.966	-12.002	-0.123	-0.082
-729.952	775.403	0.072	-0.200
-728.937	47.353	0.018	0.017
-727.923	780.692	-0.078	-0.215
-726.908	-200.000	0.001	-0.220
-725.894	-21.125	-0.192	-0.119
-724.879	188.229	-0.062	0.094
-723.864	-32.518	-0.245	-0.138
-722.850	263.871	0.030	0.052
-721.835	353.505	0.079	-0.159
-720.821	-4.063	-0.152	0.107
-719.806	76.598	0.127	0.136
-718.791	134.881	0.150	0.198
-717.777	-104.300	0.248	0.058
-716.762	101.874	-0.132	0.156
-715.748	781.041	-0.079	-0.220
-714.733	-200.000	0.085	-0.000
-713.718	44.310	-0.098	0.091
-712.704	-200.000	0.048	0.308
-711.689	-195.273	-0.029	0.000
-710.675	729.688	0.036	-0.097
-709.660	-9.846	-0.155	0.104
-708.645	800.000	0.079	-0.266
-707.631	52.536	-0.051	-0.049
-706.616	-103.664	-0.174	0.041
-705.602	-155.261	-0.225	-0.015
-704.587	-11.905	0.152	0.101
-703.572	-50.341	-0.372	-0.178
-702.558	-65.572	-0.209	0.085
-701.543	-96.495	0.089	0.024
-700.529	-200.000	-0.004	-0.236
-699.514	199.855	-0.154	-0.239
-698.499	-3.359	-0.303	-0.213
-697.485	-200.000	-0.011	0.314
-696.470	232.220	-0.051	-0.084
-695.456	246.495	0.152	0.260
-694.441	800.000	0.082	-0.351
-693.426	-128.061	-0.351	0.051
-692.412	-200.000	0.002	0.255
-691.397	345.406	0.098	0.195
-690.383	31.828	-0.195	-0.170
-689.368	42.199	-0.170	-0.157
-688.354	104.186	0.206	-0.244
-687.339	230.535	-0.122	0.202
-686.324	75.448	-0.207	0.221
-685.310	-158.329	-0.117	0.007
-684.295	-130.236	-0.155	-0.021
-683.281	-200.000	0.036	0.190
-682.266	-83.046	-0.238	-0.078
-681.251	-95.230	-0.202	-0.055
-680.237	108.555	0.066	-0.080
-679.222	-126.244	0.049	-0.007
-678.208	800.000	-0.032	-0.101
-677.193	-58.189	0.151	0.067
-676.178	306.335	0.067	-0.126
-675.164	286.761	-0.179	0.327
-674.149	-200.000	0.033	-0.206
-673.135	16.168	-0.194	-0.155
-672.120	800.000	-0.099	-0.317
-671.105	492.876	0.097	-0.225
-670.091	-112.200	-0.172	-0.035
-669.076	19.344	0.095	-0.077
-668.062	-93.074	-0.084	0.024
-667.047	-200.000	0.015	-0.266
-666.032	-124.928	0.221	0.034
-665.018	-30.516	0.403	-0.231
-664.003	528.326	-0.066	0.158
-662.989	-200.000	-0.006	-0.206
-661.974	-69.435	-0.079	0.030
-660.959	74.241	0.068	0.072
-659.945	-200.000	-0.021	0.185
-658.930	254.922	0.035	0.060
-657.916	-200.000	-0.035	-0.200
-656.901	800.000	-0.047	-0.146
-655.886	238.441	-0.076	-0.127
-654.872	-200.000	0.067	-0.371
-653.857	-85.832	-0.073	-0.023
-652.843	-14.453	-0.061	0.040
-651.828	37.146	0.079	-0.070
-650.814	344.155	0.096	-0.190
-649.799	800.000	0.133	-0.392
-648.784	800.000	-0.072	-0.250
-647.770	482.226	0.068	-0.155
-646.755	-118.372	0.156	0.028
-645.741	155.609	0.126	-0.176
-644.726	15.347	0.202	-0.160
-643.711	800.000	0.086	-0.362
-642.697	66.613	0.252	0.258
-641.682	-138.616	-0.230	-0.025
-640.668	86.505	-0.236	0.263
-639.653	209.324	0.091	0.143
-638.638	-137.132	0.323	0.037
-637.624	-95.856	0.135	-0.036
-636.609	143.361	-0.039	0.052
-635.595	190.470	0.073	0.111
-634.580	5.980	-0.097	-0.073
-633.565	65.976	-0.238	0.244
-632.551	-90.195	0.204	-0.060
-631.536	-150.020	-0.260	-0.020
-630.522	-121.823	-0.118	-0.020
-629.507	244.014	-0.105	-0.178
-628.492	284.492	0.013	-0.023
-627.478	9.430	-0.076	0.058
-626.463	142.794	0.145	-0.194
-625.449	7.053	-0.174	-0.131
-624.434	176.257	-0.069	0.101
-623.419	-106.270	0.216	-0.049
-622.405	138.147	-0.210	-0.277
-621.390	259.240	0.216	0.376
-620.376	54.493	-0.197	0.192
-619.361	20.133	-0.010	0.008
-618.346	33.856	-0.066	-0.058
-617.332	-151.767	-0.265	-0.020
-616.317	-107.688	0.312	0.069
-615.303	-47.582	-0.288	-0.141
-614.288	800.000	-0.039	-0.159
-613.273	-143.232	-0.254	-0.025
-612.259	800.000	0.138	-0.474
-611.244	182.757	-0.229	-0.341
-610.230	373.513	-0.143	-0.292
-609.215	407.414	0.124	0.264
-608.201	-33.951	0.091	0.051
-607.186	800.000	0.093	0.269
-606.171	-114.415	0.072	-0.014
-605.157	35.856	0.185	0.164
-604.142	-69.602	-0.265	0.102
-603.128	327.595	0.070	0.135
-602.113	-144.506	-0.216	-0.020
-601.098	452.524	0.115	-0.256
-600.084	-200.000	-0.002	-0.321
-599.069	-153.112	-0.275	0.019
-598.055	195.669	-0.088	-0.135
-597.040	64.011	-0.261	-0.264
-596.025	-200.000	0.004	0.346
-595.011	-132.949	-0.186	-0.024
-593.996	105.194	-0.322	-0.383
-592.982	-27.701	0.295	0.173
-591.967	-115.060	-0.266	-0.051
-590.952	-83.195	-0.214	0.069
-589.938	198.024	0.126	-0.194
-588.923	-125.209	0.156	-0.024
-587.909	-75.424	-0.178	-0.064
-586.894	58.286	0.178	-0.176
-585.879	191.457	-0.047	0.071
-584.865	55.894	0.387	-0.378
-583.850	18.766	-0.224	0.181
-582.836	-200.000	-0.004	0.237
-581.821	-60.119	0.348	0.149
-580.806	30.348	-0.160	0.138
-579.792	-44.831	0.241	-0.121
-578.777	174.650	0.127	0.185
-577.763	-22.829	-0.168	0.102
-576.748	56.123	0.165	-0.161
-575.733	-159.372	0.247	0.014
-574.719	-166.657	-0.337	0.014
-573.704	800.000	0.048	0.152
-572.690	-30.075	0.134	0.077
-571.675	-200.000	-0.011	0.267
-570.661	484.519	0.030	-0.069
-569.646	301.633	0.142	-0.264
-568.631	-115.718	-0.423	-0.080
-567.617	-60.726	0.143	-0.061
-566.602	-38.155	0.302	0.161
-565.588	-6.400	0.082	-0.056
-564.573	800.000	0.020	-0.069
-563.558	-149.801	0.152	0.012
-562.544	-175.886	0.552	0.015
-561.529	-139.111	-0.297	-0.032
-560.515	-89.266	-0.211	0.063
-559.500	-200.000	-0.002	0.013
-558.485	-10.682	-0.073	0.049
-557.471	-68.647	0.212	-0.083
-556.456	174.621	-0.025	0.036
-555.442	-200.000	-0.019	-0.175
-554.427	-40.855	0.101	0.052
-553.412	179.975	0.029	-0.043
-552.398	-38.437	0.132	0.070
-551.383	-200.000	-0.024	0.157
-550.369	800.000	-0.080	-0.279
-549.354	331.662	0.204	-0.396
-548.339	-200.000	-0.322	0.000
-547.325	-85.907	-0.324	0.101
-546.310	413.089	0.114	0.243
-545.296	-200.000	0.019	0.358
-544.281	-105.022	-0.220	-0.051
-543.266	-132.182	0.109	-0.014
-542.252	-25.021	-0.093	0.055
-541.237	-97.509	0.387	-0.101
-540.223	295.630	-0.277	0.510
-539.208	-14.381	0.313	0.203
-538.193	-200.000	-0.042	-0.244
-537.179	-165.584	0.043	-0.002
-536.164	800.000	-0.038	0.108
-535.150	-200.000	-0.020	0.183
-534.135	-59.174	0.395	-0.171
-533.121	800.000	-0.022	0.078
-532.106	10.328	0.297	-0.227
-531.091	86.762	0.257	-0.285
-530.077	-200.000	0.024	0.152
-529.062	-200.000	-0.059	-0.401
-528.048	501.856	0.101	-0.234
-527.033	-57.998	0.128	0.056
-526.018	519.784	0.023	0.055
-525.004	-200.000	-0.023	-0.115
-523.989	596.995	0.142	-0.354
-522.975	-162.222	-0.152	-0.008
-521.960	-200.000	0.005	0.127
-520.945	-95.617	-0.184	-0.050
-519.931	-1.026	-0.042	0.030
-518.916	-53.089	-0.113	0.052
-517.902	-51.627	0.124	-0.058
-516.887	-80.299	-0.298	-0.100
-515.872	800.000	-0.036	0.133
-514.858	40.946	-0.109	0.099
-513.843	304.846	0.034	-0.063
-512.829	-43.984	0.498	-0.251
-511.814	-200.000	-0.022	-0.108
-510.799	96.773	-0.051	0.058
-509.785	-1.135	-0.359	0.255
-508.770	337.415	0.055	-0.108
-507.756	184.382	0.114	-0.170
-506.741	-30.369	-0.038	-0.022
-505.726	800.000	-0.031	0.116
-504.712	126.414	0.192	0.244
-503.697	34.651	0.159	-0.139
-502.683	800.000	-0.060	-0.172
-501.668	3.152	0.058	-0.042
-500.653	-200.000	-0.028	0.161
-499.639	-176.430	-0.409	0.011
-498.624	-69.938	0.021	0.008
-497.610	620.955	0.140	0.353
-496.595	37.789	0.088	0.078
-495.581	24.625	-0.205	-0.170
-494.566	405.571	-0.145	-0.306
-493.551	201.882	0.030	-0.047
-492.537	787.227	-0.133	-0.366
-491.522	-200.000	0.012	-0.236
-490.508	-200.000	0.006	-0.229
-489.493	89.159	-0.289	0.323
-488.478	-38.242	-0.185	-0.099
-487.464	18.768	0.246	0.197
-486.449	398.021	-0.039	0.083
-485.435	800.000	0.047	0.172
-484.420	-200.000	-0.008	-0.074
-483.405	800.000	0.041	0.123
-482.391	-97.346	0.351	0.092
-481.376	54.331	-0.159	0.153
-480.362	-200.000	0.005	0.191
-479.347	-200.000	0.021	-0.232
-478.332	-72.174	-0.186	-0.069
-477.318	-200.000	0.004	0.257
-476.303	-200.000	0.029	-0.153
-475.289	-37.057	0.136	0.073
-474.274	-85.278	-0.413	0.129
-473.259	-44.214	0.126	0.063
-472.245	176.476	-0.065	0.094
-471.230	-19.725	-0.306	-0.190
-470.216	182.142	0.094	0.139
-469.201	508.764	-0.106	0.248
-468.186	421.392	0.070	-0.149
-467.172	-34.546	0.364	-0.200
-466.157	14.309	0.185	-0.145
-465.143	-100.751	0.168	0.042
-464.128	800.000	0.077	0.240
-463.113	800.000	-0.079	0.332
-462.099	451.234	-0.029	0.065
-461.084	174.479	0.152	0.221
-460.070	-115.233	0.321	0.061
-459.055	800.000	0.060	0.170
-458.040	-200.000	-0.007	0.035
-457.026	-200.000	0.022	-0.099
-456.011	18.132	-0.100	-0.080
-454.997	-86.307	0.110	0.034
-453.982	-200.000	0.004	-0.205
-452.968	45.145	0.331	-0.306
-451.953	-84.833	-0.199	-0.063
-450.938	-29.809	0.195	0.111
-449.924	2.554	0.157	0.114
-448.909	-9.640	-0.185	-0.123
-447.895	-123.141	-0.083	0.013
-446.880	-200.000	-0.006	-0.155
-445.865	352.904	-0.096	-0.190
-444.851	-80.534	0.168	0.056
-443.836	-48.626	0.166	0.080
-442.822	-200.000	0.004	0.021
-441.807	188.603	-0.193	-0.289
-440.792	403.294	0.004	-0.009
-439.778	64.304	-0.115	-0.116
-438.763	-118.949	-0.115	-0.020
-437.749	230.852	-0.145	-0.237
-436.734	-200.000	-0.017	0.109
-435.719	105.072	0.085	-0.101
-434.705	148.653	-0.383	0.518
-433.690	438.975	0.108	0.237
-432.676	-68.916	0.131	0.051
-431.661	37.928	-0.094	0.084
-430.646	-200.000	0.036	0.391
-429.632	443.008	-0.072	-0.157
-428.617	4.426	-0.093	0.068
-427.603	53.347	-0.090	-0.086
-426.588	800.000	-0.104	0.366
-425.573	-11.577	-0.214	-0.141
-424.559	-200.000	-0.016	-0.349
-423.544	86.719	-0.122	-0.134
-422.530	139.283	0.013	-0.017
-421.515	-200.000	-0.090	-0.523
-420.500	351.293	0.111	-0.220
-419.486	-200.000	-0.020	0.156
-418.471	528.234	0.110	-0.260
-417.457	3.234	-0.361	-0.263
-416.442	-200.000	0.040	-0.220
-415.428	800.000	-0.072	-0.233
-414.413	800.000	-0.083	-0.284
-413.398	-164.031	-0.184	-0.009
-412.384	11.753	0.118	0.091
-411.369	-200.000	0.027	0.120
-410.355	-200.000	0.002	0.199
-409.340	47.443	0.307	0.286
-408.325	-133.336	0.313	-0.039
-407.311	90.106	0.117	-0.131
-406.296	696.375	0.103	0.271
-405.282	-104.756	0.346	0.080
-404.267	800.000	-0.004	0.016
-403.252	202.763	-0.185	0.286
-402.238	800.000	0.011	0.043
-401.223	-200.000	-0.038	0.199
-400.209	734.426	-0.068	0.183
-399.194	-56.667	0.209	0.093
-398.179	-4.861	-0.336	-0.232
-397.165	45.408	-0.130	-0.120
-396.150	-125.853	0.450	0.068
-395.136	4.814	-0.265	-0.195
-394.121	39.553	0.109	-0.097
-393.106	205.948	-0.036	0.056
-392.092	-135.697	0.264	0.031
-391.077	800.000	0.088	-0.275
-390.063	800.000	0.010	-0.028
-389.048	-172.947	-0.093	0.003
-388.033	-164.820	0.141	0.006
-387.019	-200.000	-0.008	0.084
-386.004	24.161	-0.205	-0.169
-384.990	-114.707	0.389	0.074
-383.975	-18.523	0.097	0.060
-382.960	-175.309	-0.154	-0.004
-381.946	800.000	-0.080	-0.220
-380.931	729.236	0.056	-0.149
-379.917	89.981	-0.237	-0.264
-378.902	151.615	0.055	-0.075
-377.888	-51.394	-0.283	-0.132
-376.873	121.543	-0.177	0.220
-375.858	800.000	0.024	0.099
-374.844	94.254	-0.134	-0.152
-373.829	-200.000	-0.020	0.101
-372.815	800.000	-0.046	0.150
-371.800	-200.000	-0.017	0.108
-370.785	-6.234	-0.297	0.202
-369.771	150.044	0.174	0.235
-368.756	-38.713	-0.246	-0.130
-367.742	11.806	0.052	-0.040
-366.727	-42.483	0.218	0.111
-365.712	-134.585	-0.053	0.006
-364.698	503.735	0.157	0.362
-363.683	72.270	-0.139	0.145
-362.669	800.000	0.144	0.578
-361.654	-52.687	-0.334	0.154
-360.639	97.243	-0.071	0.081
-359.625	800.000	-0.014	-0.051
-358.610	-200.000	-0.005	0.165
-357.596	740.043	-0.127	-0.340
-356.581	-52.713	0.116	-0.053
-355.566	-34.792	-0.352	-0.192
-354.552	-200.000	-0.021	-0.245
-353.537	-63.504	0.309	-0.127
-352.523	288.331	-0.102	0.184
-351.508	800.000	0.110	-0.310
-350.493	-200.000	-0.003	-0.127
-349.479	-81.339	0.142	0.047
-348.464	800.000	0.045	-0.138
-347.450	-78.648	0.127	0.043
-346.435	-134.886	-0.359	-0.043
-345.420	417.941	0.037	0.078
-344.406	7.757	-0.211	0.157
-343.391	-55.930	0.131	-0.058
-342.377	79.694	0.169	-0.181
-341.362	-200.000	0.005	0.440
-340.348	-200.000	-0.010	0.271
-339.333	800.000	-0.052	-0.165
-338.318	-200.000	-0.025	-0.431
-337.304	-143.723	0.070	0.007
-336.289	623.572	-0.073	-0.183
-335.275	91.372	0.285	-0.319
-334.260	12.837	0.218	0.168
-333.245	-58.730	-0.121	0.052
-332.231	-93.516	0.369	-0.102
-331.216	-11.603	0.039	-0.026
-330.202	-0.239	-0.123	0.087
-329.187	-1.159	0.143	0.101
-328.172	-101.866	0.210	-0.051
-327.158	-200.000	0.580	-0.001
-326.143	211.412	0.085	-0.134
-325.129	-177.401	0.135	-0.003
-324.114	-148.421	0.205	-0.017
-323.099	-120.187	-0.221	-0.038
-322.085	-200.000	0.034	0.237
-321.070	215.433	0.072	-0.114
-320.056	252.288	-0.109	0.186
-319.041	-127.427	-0.265	0.038
-318.026	226.033	0.131	0.211
-317.012	33.051	0.120	-0.104
-315.997	-100.242	-0.264	0.065
-314.983	-132.928	0.377	0.048
-313.968	800.000	-0.039	0.112
-312.953	296.340	0.213	-0.389
-311.939	454.419	0.017	-0.038
-310.924	243.310	-0.046	0.076
-309.910	-116.609	0.377	0.069
-308.895	-80.564	-0.110	-0.037
-307.880	159.602	-0.233	-0.323
-306.866	-164.627	0.154	0.007
-305.851	42.857	0.062	0.056
-304.837	201.944	-0.106	-0.162
-303.822	105.327	-0.048	0.057
-302.807	41.953	0.191	0.172
-301.793	800.000	-0.050	0.173
-300.778	-52.210	-0.320	-0.148
-299.764	-200.000	0.049	-0.365
-298.749	-18.125	-0.157	-0.098
-297.735	64.696	-0.218	0.219
-296.720	87.191	0.133	0.146
-295.705	800.000	0.013	-0.041
-294.691	-200.000	0.009	0.265
-293.676	751.026	-0.051	0.137
-292.662	582.170	0.067	0.164
-291.647	639.537	0.009	-0.024
-290.632	-200.000	-0.144	0.635
-289.618	86.655	0.086	0.094
-288.603	74.086	0.143	0.150
-287.589	-106.190	0.051	-0.011
-286.574	-200.000	-0.031	-0.301
-285.559	-144.068	0.224	-0.021
-284.545	93.936	-0.143	0.161
-283.530	-87.508	0.205	0.062
-282.516	-72.758	0.216	-0.079
-281.501	399.443	-0.012	0.026
-280.486	-200.000	0.003	0.353
-279.472	7.568	-0.178	-0.133
-278.457	-8.076	-0.132	-0.089
-277.443	-92.947	0.327	0.091
-276.428	285.916	0.201	-0.361
-275.413	800.000	-0.083	0.242
-274.399	800.000	0.076	-0.267
-273.384	-81.378	-0.149	0.049
-272.370	784.738	0.077	-0.211
-271.355	-64.045	0.091	0.037
-270.340	406.581	-0.105	-0.220
-269.326	111.972	-0.177	0.213
-268.311	800.000	-0.098	-0.305
-267.297	407.918	-0.117	-0.247
-266.282	106.801	0.272	-0.321
-265.267	120.452	0.126	-0.155
-264.253	-17.243	-0.187	-0.117
-263.238	-76.124	-0.401	-0.141
-262.224	-200.000	0.034	-0.169
-261.209	800.000	0.069	-0.258
-260.195	55.743	0.257	-0.248
-259.180	291.947	-0.066	0.119
-258.165	287.806	0.067	-0.120
-257.151	252.419	0.196	0.332
-256.136	-71.683	0.169	0.063
-255.122	-186.009	0.036	-0.001
-254.107	-64.813	0.039	0.016
-253.092	-111.809	-0.235	0.047
-252.078	-200.000	0.033	0.354
-251.063	-98.622	-0.151	0.038
-250.049	-92.015	0.224	0.063
-249.034	800.000	-0.077	-0.279
-248.019	-90.016	-0.242	0.070
-247.005	800.000	-0.052	-0.179
-245.990	176.514	-0.050	-0.072
-244.976	-181.051	0.250	0.005
-243.961	-34.720	-0.050	0.027
-242.946	34.677	0.143	0.124
-241.932	-6.335	-0.076	0.052
-240.917	-200.000	0.016	-0.119
-239.903	-107.513	-0.236	0.051
-238.888	782.831	0.054	-0.146
-237.873	-62.392	-0.096	-0.040
-236.859	-51.581	0.417	-0.193
-235.844	-11.194	-0.209	0.137
-234.830	42.751	-0.218	0.197
-233.815	-200.000	-0.018	0.259
-232.800	119.247	-0.266	-0.327
-231.786	-88.902	-0.289	-0.085
-230.771	-13.788	-0.308	0.198
-229.757	-100.662	-0.192	0.047
-228.742	-200.000	-0.068	0.363
-227.727	141.355	0.138	0.181
-226.713	-13.257	0.396	0.255
-225.698	-111.929	0.097	-0.019
-224.684	327.769	-0.103	0.196
-223.669	-115.018	0.403	-0.076
-222.655	-139.321	-0.189	-0.020
-221.640	7.285	-0.207	0.153
-220.625	27.620	0.200	0.167
-219.611	-120.206	-0.132	0.022
-218.596	82.844	0.252	-0.271
-217.582	64.432	-0.343	-0.343
-216.567	-36.583	0.121	0.065
-215.552	-200.000	-0.020	0.222
-214.538	1.105	-0.196	-0.140
-213.523	-129.514	-0.155	-0.021
-212.509	-200.000	0.013	0.414
-211.494	127.005	-0.334	0.420
-210.479	-92.730	0.224	0.062
-209.465	-119.102	0.129	-0.022
-208.450	452.462	-0.140	-0.306
-207.436	101.141	-0.147	-0.170
-206.421	84.764	-0.182	0.198
-205.406	-71.019	0.334	0.125
-204.392	-2.172	0.201	0.140
-203.377	93.311	-0.088	0.099
-202.363	30.153	-0.212	0.179
-201.348	-169.606	-0.452	0.016
-200.333	-95.654	-0.111	-0.029
-199.319	-200.000	0.028	0.426
-198.304	279.070	-0.192	0.339
-197.290	547.226	0.016	-0.038
-196.275	73.045	-0.328	-0.340
-195.260	-74.961	-0.267	0.095
-194.246	199.156	-0.036	0.054
-193.231	800.000	0.042	0.179
-192.217	-23.757	0.175	0.104
-191.202	-29.626	-0.273	-0.155
-190.187	157.828	-0.195	0.268
-189.173	45.272	0.186	-0.170
-188.158	-74.682	-0.292	0.104
-187.144	40.552	-0.253	0.226
-186.129	390.289	0.149	0.305
-185.114	-17.158	0.309	0.193
-184.100	800.000	0.037	-0.135
-183.085	-200.000	-0.027	-0.408
-182.071	-68.711	-0.280	-0.108
-181.056	800.000	0.029	0.092
-180.042	223.071	-0.122	0.195
-179.027	-14.383	-0.211	0.135
-178.012	-64.853	0.306	0.123
-176.998	132.381	-0.058	-0.074
-175.983	800.000	-0.052	0.160
-174.969	-140.448	0.218	-0.022
-173.954	244.515	0.087	0.145
-172.939	38.477	-0.103	0.091
-171.925	-200.000	-0.006	0.203
-170.910	-68.999	-0.099	0.038
-169.896	-200.000	-0.005	0.108
-168.881	-134.068	-0.373	-0.046
-167.866	800.000	0.026	0.091
-166.852	306.483	0.124	-0.229
-165.837	55.026	0.321	-0.307
-164.823	-104.870	-0.207	-0.047
-163.808	244.226	-0.034	-0.057
-162.793	-200.000	-0.006	-0.249
-161.779	800.000	0.038	0.148
-160.764	55.460	-0.300	0.287
-159.750	180.900	0.079	0.115
-158.735	-200.000	-0.044	-0.333
-157.720	-12.793	0.292	0.188
-156.706	-74.685	0.285	-0.101
-155.691	-200.000	-0.003	-0.211
-154.677	-200.000	-0.005	0.037
-153.662	-14.109	0.222	0.142
-152.647	-86.082	0.293	-0.090
-151.633	-196.088	0.119	-0.001
-150.618	-97.477	0.110	-0.028
-149.604	-123.748	0.398	0.062
-148.589	121.741	0.285	-0.352
-147.574	112.696	0.042	-0.051
-146.560	392.775	-0.025	0.052
-145.545	-200.000	0.043	-0.280
-144.531	-72.815	-0.143	0.052
-143.516	164.631	0.087	0.122
-142.502	210.168	0.092	0.142
-141.487	800.000	0.081	0.238
-140.472	-55.484	0.141	-0.062
-139.458	-200.000	-0.025	-0.235
-138.443	-41.166	0.082	0.042
-137.429	-32.986	-0.152	-0.084
-136.414	800.000	0.057	0.237
-135.399	199.657	0.150	0.227
-134.385	153.746	-0.192	-0.261
-133.370	-200.000	-0.008	-0.238
-132.356	-200.000	0.038	-0.370
-131.341	-143.844	-0.437	0.041
-130.326	0.063	-0.195	0.137
-129.312	136.803	0.191	-0.247
-128.297	-123.394	0.159	-0.025
-127.283	-200.000	0.024	0.188
-126.268	-179.546	0.087	0.002
-125.253	-98.667	0.156	0.039
-124.239	-200.000	-0.069	0.332
-123.224	140.992	-0.052	0.068
-122.210	1.615	0.103	-0.073
-121.195	-40.480	0.095	-0.049
