DTS Sentinel unit serial number:	SN413079Multiplexer serial number:	ORYXHardware model number:	OX4-SRSoftware version number:	ORYX F/W v4.00 Oryx Data Collector v3.7.2.0data status	okinstallation	princeton_trtdifferential loss correction	single-endedforward channel	channel 3reverse channel	N/Adate	2019/09/17time	14:56:35forward acquisition time	60.00reverse acquisition time	0.00gamma	496.2192k internal	0.2296k external	0.2296temperature offset calibration	0.9955default loss term (dB/km)	0.3790temperature slope calibration	1.0000multiplexer offset coefficient	1.0000multiplexer slope coefficient	1.0000fibre end	0.00T internal ref (°C)	37.25T ext. ref 1 (°C)	0.40T ext. ref 2 (°C)	34.21length (m)	temperature (°C)	Stokes	anti-Stokes-747.200	391.844	0.075	0.160
-746.185	800.000	-0.050	-0.194
-745.171	-14.024	0.031	0.020
-744.156	-70.794	-0.399	0.154
-743.142	-120.821	0.608	0.105
-742.127	800.000	-0.026	-0.086
-741.112	-57.321	-0.199	-0.089
-740.098	-152.935	-0.118	0.008
-739.083	-55.918	0.327	-0.149
-738.069	800.000	-0.049	0.147
-737.054	-200.000	-0.001	-0.273
-736.039	154.460	-0.098	-0.137
-735.025	-200.000	0.027	-0.181
-734.010	636.276	0.058	-0.150
-732.996	50.331	-0.085	-0.082
-731.981	-200.000	-0.098	-0.551
-730.966	-85.120	-0.097	0.031
-729.952	-7.479	-0.194	-0.134
-728.937	-200.000	-0.024	-0.125
-727.923	368.010	-0.184	-0.379
-726.908	167.854	-0.156	-0.226
-725.894	-200.000	-0.006	-0.061
-724.879	-68.077	0.197	0.078
-723.864	66.826	-0.162	0.169
-722.850	-79.003	-0.259	0.090
-721.835	-89.578	-0.475	-0.142
-720.821	3.602	0.208	-0.155
-719.806	36.963	-0.206	0.186
-718.791	590.985	-0.100	-0.252
-717.777	-134.577	-0.316	-0.039
-716.762	215.798	0.198	-0.322
-715.748	800.000	-0.053	0.170
-714.733	-132.082	0.394	-0.052
-713.718	-85.610	-0.143	0.045
-712.704	49.188	-0.233	-0.224
-711.689	21.471	0.305	-0.253
-710.675	-105.340	-0.222	-0.052
-709.660	21.978	-0.112	0.093
-708.645	104.132	0.120	0.144
-707.631	-105.145	-0.067	0.016
-706.616	292.015	0.113	-0.209
-705.602	141.761	-0.147	0.198
-704.587	-56.664	0.111	0.050
-703.572	387.646	0.076	0.159
-702.558	-164.406	-0.166	0.008
-701.543	-3.211	0.275	-0.195
-700.529	45.554	-0.238	0.225
-699.514	-110.969	-0.394	-0.083
-698.499	-34.010	-0.146	0.082
-697.485	-115.177	-0.218	-0.042
-696.470	-68.963	-0.335	0.132
-695.456	-107.805	0.363	0.081
-694.441	187.076	-0.053	-0.080
-693.426	-5.574	-0.228	0.160
-692.412	141.544	0.081	-0.109
-691.397	127.865	0.171	0.221
-690.383	800.000	-0.128	-0.387
-689.368	-164.337	0.328	0.015
-688.354	-57.227	0.032	0.014
-687.339	125.778	-0.243	0.314
-686.324	-43.958	-0.159	-0.082
-685.310	62.694	-0.022	-0.023
-684.295	-200.000	0.009	-0.076
-683.281	56.155	-0.130	0.128
-682.266	-200.000	-0.000	0.034
-681.251	-200.000	0.001	-0.070
-680.237	-114.115	0.319	0.063
-679.222	38.932	-0.346	0.315
-678.208	21.205	-0.075	-0.062
-677.193	800.000	0.034	0.152
-676.178	88.131	0.107	-0.122
-675.164	169.500	-0.072	-0.105
-674.149	34.146	-0.173	0.153
-673.135	26.275	-0.357	0.304
-672.120	85.054	0.179	-0.200
-671.105	-200.000	-0.039	-0.194
-670.091	-60.252	-0.267	-0.116
-669.076	-13.688	0.053	-0.035
-668.062	641.121	-0.110	-0.285
-667.047	-107.114	-0.226	0.051
-666.032	800.000	-0.074	-0.228
-665.018	315.757	-0.034	0.065
-664.003	800.000	-0.063	0.223
-662.989	114.482	0.197	-0.244
-661.974	-200.000	-0.042	-0.196
-660.959	-200.000	0.031	0.147
-659.945	-44.336	0.085	-0.043
-658.930	666.964	-0.077	-0.202
-657.916	42.254	-0.306	0.283
-656.901	-14.299	-0.158	-0.103
-655.886	-107.417	0.290	-0.065
-654.872	-200.000	-0.001	0.349
-653.857	45.789	0.082	-0.077
-652.843	103.696	0.130	-0.156
-651.828	-200.000	-0.060	0.443
-650.814	65.464	0.188	-0.194
-649.799	98.331	-0.100	-0.117
-648.784	415.717	0.142	-0.309
-647.770	-115.118	-0.228	-0.044
-646.755	147.009	-0.029	0.039
-645.741	44.023	-0.117	0.109
-644.726	-21.875	0.189	0.117
-643.711	33.581	0.280	0.247
-642.697	800.000	0.088	-0.315
-641.682	199.972	-0.088	0.138
-640.668	101.113	0.177	0.210
-639.653	43.585	-0.253	-0.236
-638.638	-200.000	-0.004	-0.258
-637.624	363.989	-0.179	-0.367
-636.609	-0.710	0.228	-0.164
-635.595	85.596	0.110	0.123
-634.580	-146.557	-0.302	0.027
-633.565	-128.714	-0.172	-0.025
-632.551	30.928	0.131	-0.114
-631.536	-104.752	-0.257	-0.060
-630.522	153.637	-0.123	0.171
-629.507	150.989	-0.147	-0.204
-628.492	6.177	-0.141	-0.106
-627.478	50.679	0.121	0.116
-626.463	-170.283	0.108	0.004
-625.449	-97.704	-0.160	-0.042
-624.434	-200.000	0.048	0.292
-623.419	167.033	-0.097	-0.140
-622.405	-60.869	-0.181	-0.078
-621.390	-64.068	-0.118	0.049
-620.376	-44.906	-0.086	-0.043
-619.361	58.200	-0.217	0.217
-618.346	-96.354	-0.439	-0.118
-617.332	477.662	-0.105	0.241
-616.317	622.186	-0.037	0.095
-615.303	33.093	-0.198	0.174
-614.288	-55.517	0.190	-0.087
-613.273	-163.438	-0.393	0.019
-612.259	800.000	0.088	-0.288
-611.244	32.242	-0.092	0.080
-610.230	800.000	-0.058	0.236
-609.215	800.000	0.036	-0.154
-608.201	219.735	-0.130	-0.212
-607.186	-63.124	0.082	0.034
-606.171	-200.000	0.022	0.188
-605.157	-29.869	-0.196	-0.113
-604.142	-117.932	0.312	0.057
-603.128	-118.981	-0.422	-0.075
-602.113	-81.693	-0.195	0.065
-601.098	108.229	-0.173	0.210
-600.084	-162.333	-0.350	0.018
-599.069	-67.893	0.264	-0.105
-598.055	101.858	0.152	0.180
-597.040	535.402	-0.166	-0.401
-596.025	800.000	0.040	0.123
-595.011	444.762	0.046	0.103
-593.996	30.285	-0.259	-0.225
-592.982	-182.906	-0.416	0.008
-591.967	176.833	0.053	0.079
-590.952	-100.782	-0.064	0.016
-589.938	123.685	-0.281	-0.358
-588.923	-187.208	0.429	-0.006
-587.909	-200.000	-0.027	-0.211
-586.894	219.405	-0.082	0.134
-585.879	419.539	0.055	0.120
-584.865	-200.000	0.027	0.125
-583.850	30.727	0.159	-0.138
-582.836	-200.000	-0.011	0.206
-581.821	68.939	-0.192	-0.201
-580.806	64.810	-0.013	0.014
-579.792	-200.000	0.010	-0.114
-578.777	800.000	0.076	0.261
-577.763	-200.000	-0.050	0.000
-576.748	-1.780	0.130	0.093
-575.733	144.821	-0.231	-0.313
-574.719	-98.894	0.089	0.023
-573.704	110.495	0.073	0.090
-572.690	-200.000	-0.033	-0.187
-571.675	-106.383	0.221	0.050
-570.661	-109.614	-0.071	0.015
-569.646	13.402	0.199	-0.157
-568.631	-37.506	0.200	-0.108
-567.617	0.849	0.147	-0.107
-566.602	-127.112	0.111	-0.016
-565.588	167.768	-0.025	-0.036
-564.573	-46.669	0.241	-0.120
-563.558	800.000	-0.041	-0.127
-562.544	141.600	0.062	0.083
-561.529	-136.367	0.539	0.064
-560.515	282.329	-0.034	0.062
-559.500	-113.088	-0.346	0.069
-558.485	443.759	0.103	-0.230
-557.471	726.773	0.035	-0.094
-556.456	91.603	-0.146	-0.167
-555.442	123.678	-0.066	0.085
-554.427	-135.690	0.255	-0.031
-553.412	261.132	0.074	-0.131
-552.398	-138.879	0.308	0.034
-551.383	115.372	-0.189	-0.234
-550.369	800.000	0.073	-0.226
-549.354	14.322	-0.141	-0.112
-548.339	55.795	-0.148	-0.146
-547.325	-111.611	0.252	-0.052
-546.310	320.032	0.165	0.317
-545.296	-200.000	0.013	-0.130
-544.281	197.037	-0.082	0.127
-543.266	0.027	0.064	0.046
-542.252	-132.806	0.178	-0.023
-541.237	69.559	0.127	-0.132
-540.223	-200.000	-0.020	0.230
-539.208	70.512	0.160	0.167
-538.193	-14.648	-0.257	-0.167
-537.179	-60.681	0.165	-0.071
-536.164	234.068	-0.107	-0.178
-535.150	52.268	-0.054	-0.052
-534.135	292.421	-0.052	-0.096
-533.121	-171.727	-0.129	-0.004
-532.106	-178.348	0.420	0.010
-531.091	800.000	0.071	0.228
-530.077	236.967	0.094	-0.159
-529.062	-91.943	-0.177	0.051
-528.048	381.292	-0.115	-0.240
-527.033	795.285	-0.067	-0.188
-526.018	800.000	0.103	0.405
-525.004	101.987	-0.058	0.068
-523.989	-22.510	-0.253	-0.155
-522.975	800.000	-0.066	-0.257
-521.960	-200.000	0.043	0.311
-520.945	-100.525	0.170	0.043
-519.931	372.741	-0.092	-0.189
-518.916	-32.324	-0.077	-0.043
-517.902	-86.559	-0.163	-0.051
-516.887	-8.470	-0.185	0.126
-515.872	149.985	0.127	0.174
-514.858	-137.356	-0.151	0.017
-513.843	504.180	-0.053	0.125
-512.829	272.056	-0.060	0.107
-511.814	-200.000	-0.059	-0.317
-510.799	203.228	-0.045	0.070
-509.785	125.835	-0.146	0.186
-508.770	800.000	-0.120	0.359
-507.756	-109.211	-0.073	-0.016
-506.741	-200.000	-0.011	-0.228
-505.726	339.249	0.134	0.264
-504.712	80.919	-0.111	0.122
-503.697	19.810	-0.121	-0.098
-502.683	88.134	-0.148	0.167
-501.668	-154.456	-0.169	0.011
-500.653	-200.000	-0.019	-0.117
-499.639	485.792	0.080	-0.185
-498.624	-137.659	0.135	-0.015
-497.610	234.910	-0.044	0.073
-496.595	800.000	0.142	-0.501
-495.581	156.873	0.096	-0.135
-494.566	800.000	0.038	0.114
-493.551	-98.613	0.084	-0.022
-492.537	-200.000	0.017	-0.105
-491.522	-107.687	0.087	-0.019
-490.508	-200.000	0.057	0.255
-489.493	-200.000	0.045	-0.312
-488.478	800.000	-0.123	-0.375
-487.464	800.000	-0.041	0.174
-486.449	-56.991	-0.110	-0.049
-485.435	-9.940	-0.266	-0.179
-484.420	741.971	-0.141	-0.383
-483.405	-200.000	0.017	-0.122
-482.391	768.132	0.113	0.310
-481.376	-76.238	-0.268	-0.096
-480.362	327.590	0.124	0.241
-479.347	26.201	-0.195	0.164
-478.332	-105.453	-0.098	0.023
-477.318	-200.000	-0.020	0.089
-476.303	-197.777	0.367	0.002
-475.289	-82.202	-0.194	-0.064
-474.274	-200.000	-0.020	0.281
-473.259	-36.201	0.010	0.005
-472.245	800.000	-0.042	-0.172
-471.230	-114.763	0.125	0.024
-470.216	72.750	-0.100	0.105
-469.201	364.868	-0.119	-0.242
-468.186	-189.325	-0.148	-0.002
-467.172	-79.877	0.135	0.046
-466.157	76.792	0.196	0.210
-465.143	261.328	-0.034	0.059
-464.128	-200.000	0.005	-0.102
-463.113	-59.618	0.439	0.190
-462.099	800.000	0.032	-0.097
-461.084	333.287	-0.150	0.293
-460.070	-61.130	0.110	0.047
-459.055	800.000	-0.062	-0.221
-458.040	800.000	0.053	-0.187
-457.026	26.431	0.094	0.079
-456.011	-69.526	0.048	-0.019
-454.997	68.276	-0.060	0.062
-453.982	-37.664	-0.201	0.108
-452.968	800.000	0.012	-0.048
-451.953	-146.217	-0.243	0.022
-450.938	201.517	-0.076	-0.118
-449.924	44.293	-0.096	-0.089
-448.909	77.704	-0.221	-0.238
-447.895	-21.765	0.257	0.158
-446.880	370.580	-0.054	-0.111
-445.865	-8.313	0.066	0.045
-444.851	323.536	0.096	0.185
-443.836	123.783	-0.184	0.233
-442.822	71.342	0.089	-0.093
-441.807	-200.000	-0.064	0.398
-440.792	55.356	-0.005	-0.005
-439.778	-9.310	0.224	0.151
-438.763	136.228	-0.208	0.274
-437.749	12.255	0.187	0.145
-436.734	759.355	-0.166	-0.455
-435.719	-200.000	-0.002	-0.041
-434.705	-86.640	0.319	0.099
-433.690	-117.158	-0.190	-0.035
-432.676	340.721	-0.117	-0.230
-431.661	-176.750	-0.161	-0.004
-430.646	382.497	0.037	0.076
-429.632	-27.331	0.241	-0.142
-428.617	260.663	0.129	-0.225
-427.603	-28.671	0.230	-0.134
-426.588	64.852	-0.191	0.194
-425.573	800.000	0.080	0.275
-424.559	-145.490	0.295	0.027
-423.544	-151.090	-0.433	0.033
-422.530	-187.490	-0.132	0.002
-421.515	-98.308	-0.133	0.034
-420.500	-200.000	0.008	-0.277
-419.486	-147.639	-0.201	-0.017
-418.471	186.954	-0.172	0.258
-417.457	800.000	-0.058	-0.188
-416.442	137.252	0.084	0.111
-415.428	-200.000	0.015	0.213
-414.413	-142.013	-0.120	-0.012
-413.398	-200.000	0.034	0.273
-412.384	800.000	0.030	0.121
-411.369	206.591	-0.145	-0.228
-410.355	-112.174	0.099	-0.020
-409.340	90.157	0.222	-0.250
-408.325	97.324	-0.298	0.345
-407.311	172.741	0.047	0.068
-406.296	24.513	0.176	0.147
-405.282	192.647	-0.073	0.112
-404.267	144.802	0.122	-0.165
-403.252	-171.398	0.149	-0.005
-402.238	32.789	0.121	0.106
-401.223	346.396	0.054	0.107
-400.209	800.000	0.066	-0.266
-399.194	-200.000	0.000	-0.196
-398.179	-116.194	-0.411	-0.077
-397.165	-66.834	0.296	-0.118
-396.150	-200.000	0.001	0.263
-395.136	173.409	-0.091	0.132
-394.121	-75.084	-0.185	0.067
-393.106	800.000	0.108	-0.308
-392.092	659.859	-0.057	-0.148
-391.077	-60.721	0.262	-0.112
-390.063	274.057	-0.103	-0.183
-389.048	-200.000	-0.048	0.327
-388.033	-200.000	0.027	-0.451
-387.019	28.433	-0.178	0.152
-386.004	-154.468	0.161	0.011
-384.990	-134.773	-0.176	-0.022
-383.975	40.506	-0.165	-0.150
-382.960	94.396	-0.168	0.192
-381.946	595.751	0.210	0.524
-380.931	63.476	-0.285	-0.288
-379.917	117.466	0.149	0.184
-378.902	-200.000	-0.022	0.150
-377.888	800.000	-0.090	0.280
-376.873	-160.071	-0.174	0.010
-375.858	-190.303	-0.268	-0.003
-374.844	-86.178	-0.234	-0.073
-373.829	104.096	0.055	0.066
-372.815	-200.000	0.050	-0.221
-371.800	13.994	0.238	0.187
-370.785	273.116	0.115	-0.205
-369.771	549.363	-0.020	0.048
-368.756	-128.907	0.048	-0.007
-367.742	-78.653	-0.166	-0.057
-366.727	800.000	0.031	0.092
-365.712	41.167	0.289	0.263
-364.698	530.843	-0.183	0.436
-363.683	-52.553	0.084	0.039
-362.669	58.289	-0.197	-0.195
-361.654	498.047	0.092	-0.214
-360.639	156.385	0.062	0.086
-359.625	-126.597	0.127	-0.019
-358.610	-98.568	-0.124	0.032
-357.596	376.751	0.007	-0.014
-356.581	-47.514	0.461	0.226
-355.566	800.000	0.047	0.147
-354.552	-200.000	-0.033	0.278
-353.537	83.037	-0.208	-0.228
-352.523	-200.000	-0.030	-0.155
-351.508	330.758	-0.040	-0.079
-350.493	-66.232	0.370	0.148
-349.479	262.789	0.112	-0.195
-348.464	556.372	0.105	-0.253
-347.450	-200.000	0.023	0.244
-346.435	373.649	0.145	0.297
-345.420	800.000	0.064	-0.232
-344.406	800.000	0.050	0.199
-343.391	-200.000	-0.059	-0.271
-342.377	-15.764	-0.208	-0.133
-341.362	-200.000	-0.064	-0.288
-340.348	-60.132	-0.263	0.113
-339.333	114.955	0.047	0.058
-338.318	-200.000	-0.023	-0.169
-337.304	235.391	0.213	-0.354
-336.289	-200.000	0.005	0.197
-335.275	800.000	0.051	0.150
-334.260	737.683	-0.161	0.433
-333.245	25.593	0.366	0.307
-332.231	-119.364	0.148	-0.026
-331.216	48.988	-0.175	0.165
-330.202	-35.401	-0.151	-0.083
-329.187	241.694	-0.114	0.192
-328.172	656.375	0.035	0.089
-327.158	-200.000	0.012	-0.222
-326.143	-74.822	0.304	-0.110
-325.129	718.316	0.108	-0.289
-324.114	95.569	-0.107	-0.123
-323.099	602.601	0.128	-0.320
-322.085	-200.000	0.034	0.286
-321.070	-200.000	0.002	-0.194
-320.056	1.380	-0.134	-0.097
-319.041	800.000	-0.022	0.090
-318.026	800.000	0.068	-0.235
-317.012	-113.621	-0.609	0.120
-315.997	-61.135	-0.248	-0.105
-314.983	-13.429	-0.074	0.049
-313.968	23.943	0.232	0.192
-312.953	-200.000	-0.010	-0.212
-311.939	28.388	-0.096	-0.081
-310.924	152.303	-0.070	-0.095
-309.910	800.000	-0.061	0.216
-308.895	-200.000	0.003	-0.388
-307.880	-6.467	0.116	-0.079
-306.866	-66.234	-0.200	0.080
-305.851	509.276	-0.133	-0.311
-304.837	-200.000	-0.009	0.136
-303.822	-11.724	-0.149	0.098
-302.807	-200.000	-0.006	0.246
-301.793	800.000	-0.031	0.134
-300.778	-200.000	-0.031	-0.284
-299.764	22.715	0.392	-0.322
-298.749	39.857	0.136	0.123
-297.735	429.365	0.072	0.156
-296.720	-69.494	0.134	-0.052
-295.705	232.167	-0.027	-0.044
-294.691	800.000	-0.057	0.233
-293.676	800.000	0.073	-0.227
-292.662	116.325	-0.109	-0.134
-291.647	-200.000	0.028	0.195
-290.632	40.588	-0.067	0.060
-289.618	-200.000	-0.141	-0.670
-288.603	-31.668	-0.184	-0.103
-287.589	89.292	-0.059	0.066
-286.574	209.658	-0.082	0.129
-285.559	-200.000	-0.003	0.168
-284.545	68.638	-0.141	0.145
-283.530	-129.992	-0.111	0.015
-282.516	800.000	0.058	0.215
-281.501	-125.093	0.153	0.024
-280.486	800.000	-0.087	0.305
-279.472	101.943	0.196	0.230
-278.457	-112.701	0.519	0.103
-277.443	-16.570	-0.039	-0.025
-276.428	109.934	-0.107	-0.129
-275.413	-47.287	0.116	0.057
-274.399	269.915	0.073	-0.129
-273.384	800.000	0.025	0.097
-272.370	-200.000	0.041	0.239
-271.355	297.467	-0.017	-0.031
-270.340	800.000	-0.031	0.093
-269.326	212.358	0.187	0.296
-268.311	27.422	0.141	0.119
-267.297	-64.605	-0.190	0.078
-266.282	87.086	0.063	-0.069
-265.267	160.257	0.119	-0.167
-264.253	-94.393	0.532	-0.146
-263.238	-200.000	-0.053	0.363
-262.224	-200.000	-0.034	0.235
-261.209	800.000	0.098	-0.331
-260.195	142.471	0.207	0.275
-259.180	-52.311	0.071	0.033
-258.165	300.366	0.064	0.119
-257.151	-40.265	-0.068	-0.035
-256.136	-200.000	-0.016	-0.178
-255.122	104.136	-0.027	-0.032
-254.107	421.903	0.074	0.160
-253.092	108.430	0.224	-0.268
-252.078	50.715	-0.177	-0.168
-251.063	-95.924	0.397	-0.106
-250.049	800.000	-0.090	-0.280
-249.034	800.000	0.040	-0.114
-248.019	-137.714	0.270	0.030
-247.005	549.784	-0.107	0.258
-245.990	-143.974	0.006	-0.001
-244.976	-73.486	0.026	0.010
-243.961	239.731	0.024	-0.041
-242.946	-41.201	0.110	0.057
-241.932	75.883	0.117	-0.124
-240.917	-200.000	-0.035	0.285
-239.903	-200.000	0.004	0.365
-238.888	78.852	0.148	-0.158
-237.873	-130.262	0.198	0.027
-236.859	800.000	0.119	-0.330
-235.844	800.000	-0.078	-0.336
-234.830	-1.848	0.331	-0.233
-233.815	179.229	0.204	-0.299
-232.800	724.920	-0.084	0.225
-231.786	593.203	0.099	0.244
-230.771	120.995	0.187	-0.233
-229.757	115.214	0.150	0.183
-228.742	47.789	-0.178	-0.167
-227.727	-134.441	0.433	0.053
-226.713	-200.000	-0.032	0.157
-225.698	-86.882	0.409	-0.125
-224.684	800.000	0.072	0.245
-223.669	459.552	0.057	0.128
-222.655	-200.000	0.000	0.003
-221.640	40.765	0.193	-0.174
-220.625	448.066	-0.048	0.106
-219.611	-62.989	0.172	0.071
-218.596	63.170	0.143	0.143
-217.582	-20.142	-0.197	0.122
-216.567	-200.000	0.015	0.172
-215.552	-200.000	-0.365	-0.001
-214.538	-125.370	-0.156	0.024
-213.523	633.119	-0.115	0.292
-212.509	288.948	0.194	0.352
-211.494	-0.559	-0.092	-0.065
-210.479	77.961	0.064	-0.068
-209.465	800.000	-0.059	0.202
-208.450	17.891	0.150	0.120
-207.436	-200.000	0.064	0.336
-206.421	-40.065	-0.084	0.044
-205.406	43.150	0.144	0.132
-204.392	50.478	0.083	0.078
-203.377	-47.981	-0.050	-0.024
-202.363	187.908	-0.198	-0.296
-201.348	-13.600	-0.322	-0.209
-200.333	-27.670	-0.108	-0.063
-199.319	145.250	0.162	-0.216
-198.304	-200.000	0.038	-0.172
-197.290	143.397	-0.069	0.092
-196.275	800.000	-0.069	-0.209
-195.260	-200.000	0.015	0.124
-194.246	-81.017	-0.055	-0.018
-193.231	78.706	-0.075	-0.080
-192.217	688.982	0.039	0.101
-191.202	-200.000	0.025	-0.290
-190.187	141.157	0.079	-0.105
-189.173	-42.195	0.178	-0.091
-188.158	-66.055	-0.080	-0.032
-187.144	373.044	-0.128	0.260
-186.129	525.022	-0.198	0.466
-185.114	187.538	-0.070	-0.105
-184.100	-105.293	0.147	-0.034
-183.085	97.564	-0.179	0.205
-182.071	-200.000	-0.044	0.406
-181.056	-200.000	0.031	-0.171
-180.042	761.322	-0.050	-0.136
-179.027	-68.974	0.585	-0.226
-178.012	87.242	-0.153	0.169
-176.998	59.122	-0.062	-0.061
-175.983	-123.667	0.168	-0.027
-174.969	-185.361	-0.309	-0.005
-173.954	-178.583	-0.136	0.003
-172.939	-26.228	0.309	-0.181
-171.925	-34.141	0.194	0.106
-170.910	-36.713	0.129	0.069
-169.896	380.240	0.049	0.099
-168.881	-176.268	0.256	-0.007
-167.866	283.670	0.135	0.243
-166.852	-200.000	0.011	-0.145
-165.837	297.672	-0.037	0.067
-164.823	128.320	0.051	0.065
-163.808	-100.903	-0.112	-0.027
-162.793	-168.365	0.352	0.014
-161.779	-58.405	-0.271	-0.118
-160.764	-200.000	-0.009	0.057
-159.750	-200.000	-0.008	-0.123
-158.735	-200.000	-0.073	0.328
-157.720	-140.893	0.035	0.004
-156.706	195.107	-0.106	0.160
-155.691	-145.987	-0.220	0.019
-154.677	-200.000	-0.031	-0.152
-153.662	103.970	-0.280	-0.329
-152.647	-95.189	0.089	0.024
-151.633	800.000	0.041	-0.150
-150.618	-199.174	0.112	0.001
-149.604	155.968	0.259	-0.357
-148.589	-120.471	-0.294	-0.050
-147.574	12.032	-0.131	0.101
-146.560	-90.619	0.048	-0.014
-145.545	800.000	0.039	0.131
-144.531	-14.074	-0.293	0.189
-143.516	53.123	-0.298	0.285
-142.502	-200.000	0.025	-0.165
-141.487	118.028	0.216	-0.266
-140.472	83.744	0.213	0.232
-139.458	181.055	0.062	0.091
-138.443	157.526	0.145	-0.200
-137.429	800.000	0.092	0.315
-136.414	800.000	-0.032	0.121
-135.399	-34.475	-0.023	0.012
-134.385	-84.695	-0.356	-0.112
-133.370	40.643	-0.173	-0.155
-132.356	-115.466	0.045	-0.008
-131.341	337.160	-0.109	-0.212
-130.326	-3.343	0.136	0.095
-129.312	208.470	0.104	0.162
-128.297	22.994	0.080	0.066
-127.283	-200.000	0.019	-0.269
-126.268	12.849	-0.238	0.183
-125.253	-92.664	-0.082	0.023
-124.239	79.321	0.250	0.267
-123.224	122.224	0.195	0.243
-122.210	800.000	-0.070	0.291
-121.195	-146.211	-0.127	-0.011
