DTS Sentinel unit serial number:	SN413079Multiplexer serial number:	ORYXHardware model number:	OX4-SRSoftware version number:	ORYX F/W v4.00 Oryx Data Collector v3.7.2.0data status	okinstallation	princeton_trtdifferential loss correction	single-endedforward channel	channel 3reverse channel	N/Adate	2019/09/12time	23:44:35forward acquisition time	60.00reverse acquisition time	0.00gamma	496.2192k internal	0.2329k external	0.2329temperature offset calibration	1.0126default loss term (dB/km)	0.3790temperature slope calibration	1.0000multiplexer offset coefficient	1.0000multiplexer slope coefficient	1.0000fibre end	0.00T internal ref (°C)	28.81T ext. ref 1 (°C)	3.78T ext. ref 2 (°C)	23.55length (m)	temperature (°C)	Stokes	anti-Stokes-747.200	800.000	0.080	0.249
-746.185	-17.723	-0.075	0.047
-745.171	28.240	-0.314	0.267
-744.156	-183.768	-0.155	-0.003
-743.142	-84.858	-0.235	-0.074
-742.127	89.791	0.089	0.100
-741.112	43.418	0.309	-0.285
-740.098	495.049	-0.092	0.212
-739.083	-186.587	0.284	0.004
-738.069	-41.165	-0.058	-0.030
-737.054	-200.000	-0.001	0.056
-736.039	45.665	-0.380	0.354
-735.025	-47.767	0.083	-0.041
-734.010	-15.497	-0.270	0.174
-732.996	2.467	0.136	0.099
-731.981	800.000	-0.030	-0.092
-730.966	-52.236	-0.288	0.135
-729.952	-200.000	-0.059	-0.373
-728.937	-42.151	-0.412	-0.212
-727.923	118.429	0.114	0.142
-726.908	-1.595	0.096	0.068
-725.894	-200.000	0.071	-0.325
-724.879	-200.000	0.004	-0.038
-723.864	800.000	0.067	-0.217
-722.850	188.179	0.042	-0.064
-721.835	-17.162	0.180	0.114
-720.821	198.484	-0.058	-0.089
-719.806	800.000	-0.149	-0.438
-718.791	62.194	-0.039	0.039
-717.777	-200.000	0.021	0.230
-716.762	800.000	-0.021	0.064
-715.748	53.457	-0.306	-0.295
-714.733	-200.000	-0.035	-0.254
-713.718	117.472	-0.180	-0.222
-712.704	36.003	-0.193	-0.170
-711.689	-200.000	-0.022	-0.324
-710.675	290.402	0.236	0.431
-709.660	-200.000	-0.018	-0.117
-708.645	-200.000	-0.003	0.285
-707.631	-66.881	-0.054	0.021
-706.616	800.000	0.025	0.092
-705.602	380.905	-0.087	0.179
-704.587	57.801	0.303	-0.298
-703.572	800.000	0.078	-0.229
-702.558	800.000	-0.040	-0.172
-701.543	115.056	-0.143	0.175
-700.529	317.077	0.211	-0.402
-699.514	-200.000	-0.005	-0.025
-698.499	121.648	-0.040	0.050
-697.485	13.161	-0.072	-0.056
-696.470	-200.000	-0.040	-0.273
-695.456	-62.357	-0.056	0.023
-694.441	-1.130	-0.359	0.255
-693.426	-105.720	0.053	0.012
-692.412	-108.400	0.166	-0.036
-691.397	-200.000	0.043	-0.234
-690.383	-146.996	0.127	-0.011
-689.368	17.849	-0.155	0.124
-688.354	-200.000	0.045	-0.232
-687.339	-60.116	-0.153	0.066
-686.324	-172.872	0.283	-0.009
-685.310	470.478	0.091	-0.205
-684.295	800.000	-0.061	0.209
-683.281	-8.842	0.356	-0.240
-682.266	-9.346	-0.134	-0.090
-681.251	15.400	-0.283	-0.223
-680.237	109.687	0.117	-0.141
-679.222	22.674	0.191	-0.157
-678.208	-53.279	-0.150	0.069
-677.193	-118.766	0.299	0.053
-676.178	-75.265	0.258	0.092
-675.164	-200.000	-0.006	0.376
-674.149	7.994	0.073	0.055
-673.135	72.397	-0.065	0.068
-672.120	-200.000	-0.178	-0.001
-671.105	-200.000	-0.005	0.163
-670.091	-123.513	0.168	0.027
-669.076	-200.000	0.047	-0.347
-668.062	2.119	-0.119	-0.086
-667.047	92.610	-0.009	0.010
-666.032	-97.180	0.123	-0.032
-665.018	-52.251	-0.172	0.080
-664.003	220.264	-0.198	0.318
-662.989	-200.000	-0.009	-0.127
-661.974	523.874	0.098	-0.231
-660.959	237.561	-0.162	0.270
-659.945	564.582	0.148	-0.359
-658.930	197.901	0.112	0.172
-657.916	-87.654	0.287	-0.087
-656.901	-200.000	0.019	-0.222
-655.886	-200.000	0.017	-0.176
-654.872	800.000	-0.105	-0.303
-653.857	-200.000	0.027	0.201
-652.843	-200.000	0.008	0.088
-651.828	-91.904	-0.255	0.072
-650.814	-37.005	0.175	-0.094
-649.799	-2.864	0.144	-0.101
-648.784	-143.516	0.293	0.028
-647.770	-132.902	-0.221	-0.028
-646.755	-98.071	-0.470	0.121
-645.741	-45.129	0.224	-0.112
-644.726	84.523	0.136	0.149
-643.711	15.110	-0.146	0.114
-642.697	-22.834	-0.299	-0.181
-641.682	36.290	-0.052	-0.046
-640.668	-113.756	-0.148	-0.029
-639.653	163.652	-0.235	-0.331
-638.638	-142.597	0.183	0.018
-637.624	-110.105	0.167	0.035
-636.609	-1.048	0.116	0.082
-635.595	-165.483	-0.252	0.011
-634.580	-71.260	0.115	-0.043
-633.565	353.911	0.139	0.277
-632.551	-200.000	-0.019	-0.137
-631.536	800.000	-0.050	0.217
-630.522	800.000	-0.026	-0.107
-629.507	800.000	0.044	-0.189
-628.492	737.270	-0.037	-0.099
-627.478	-24.285	0.176	0.105
-626.463	712.074	-0.138	0.366
-625.449	800.000	0.092	-0.335
-624.434	77.721	0.023	-0.024
-623.419	800.000	-0.013	-0.054
-622.405	593.017	0.191	0.472
-621.390	373.270	-0.050	-0.101
-620.376	-85.766	-0.205	0.064
-619.361	-127.671	0.075	-0.011
-618.346	-45.193	0.128	0.064
-617.332	-200.000	-0.003	0.151
-616.317	-107.642	-0.466	0.102
-615.303	-200.000	0.023	0.459
-614.288	-56.716	0.357	0.158
-613.273	-127.972	-0.394	-0.057
-612.259	-102.930	-0.135	-0.032
-611.244	40.285	0.330	-0.297
-610.230	-64.067	-0.091	-0.037
-609.215	283.298	-0.031	-0.056
-608.201	-8.012	-0.050	-0.034
-607.186	-18.048	-0.075	0.047
-606.171	-85.450	-0.032	-0.010
-605.157	61.727	-0.112	0.111
-604.142	-72.798	-0.282	0.104
-603.128	800.000	-0.022	0.077
-602.113	251.369	0.075	-0.128
-601.098	-200.000	0.005	-0.039
-600.084	800.000	-0.066	-0.229
-599.069	800.000	0.064	0.199
-598.055	253.445	-0.055	-0.094
-597.040	195.802	-0.145	-0.221
-596.025	-200.000	-0.006	-0.094
-595.011	-200.000	0.010	-0.087
-593.996	96.337	-0.276	0.316
-592.982	-167.286	0.219	-0.009
-591.967	800.000	-0.088	-0.365
-590.952	800.000	0.041	0.124
-589.938	-200.000	0.041	-0.190
-588.923	161.534	-0.226	0.316
-587.909	28.285	0.176	-0.149
-586.894	120.931	-0.033	0.041
-585.879	800.000	-0.026	0.098
-584.865	-72.110	-0.202	0.075
-583.850	341.458	-0.064	0.124
-582.836	800.000	0.062	-0.221
-581.821	800.000	0.088	-0.315
-580.806	-97.659	-0.284	-0.074
-579.792	443.415	-0.103	-0.227
-578.777	-20.396	0.171	-0.105
-577.763	53.861	0.114	-0.110
-576.748	557.948	0.115	-0.277
-575.733	-67.149	-0.130	-0.051
-574.719	255.087	-0.083	0.141
-573.704	124.589	0.032	-0.041
-572.690	35.628	0.283	0.249
-571.675	114.337	0.158	-0.192
-570.661	-111.815	-0.327	0.066
-569.646	-117.581	-0.298	-0.054
-568.631	-38.608	-0.188	-0.099
-567.617	-70.513	0.111	0.042
-566.602	-149.671	-0.140	0.011
-565.588	-68.869	-0.226	-0.087
-564.573	-200.000	-0.038	0.484
-563.558	800.000	-0.057	-0.220
-562.544	-104.318	0.103	-0.024
-561.529	800.000	-0.057	0.161
-560.515	252.983	-0.230	-0.392
-559.500	-137.237	0.073	-0.008
-558.485	-127.613	0.131	0.019
-557.471	-200.000	-0.004	0.072
-556.456	-40.369	0.190	-0.099
-555.442	7.983	-0.199	-0.149
-554.427	-65.772	-0.257	0.103
-553.412	-122.075	0.334	0.055
-552.398	-28.115	0.062	-0.036
-551.383	655.229	-0.010	0.026
-550.369	28.111	-0.110	0.093
-549.354	-107.815	0.225	-0.049
-548.339	-200.000	-0.036	-0.196
-547.325	-124.421	0.125	0.019
-546.310	365.146	-0.078	0.157
-545.296	-200.000	-0.008	-0.157
-544.281	800.000	-0.015	0.066
-543.266	69.489	0.085	0.087
-542.252	-127.757	-0.179	-0.026
-541.237	37.930	0.103	0.091
-540.223	-200.000	-0.005	-0.065
-539.208	-97.029	-0.079	0.021
-538.193	533.746	0.129	-0.305
-537.179	-79.078	-0.293	-0.099
-536.164	100.076	0.180	0.208
-535.150	277.906	0.036	-0.063
-534.135	-84.016	-0.138	0.044
-533.121	-36.856	-0.065	-0.035
-532.106	-116.279	-0.168	0.031
-531.091	-150.692	-0.224	0.017
-530.077	248.485	0.063	0.106
-529.062	505.972	-0.157	0.362
-528.048	-149.617	-0.387	0.030
-527.033	-87.566	0.334	-0.101
-526.018	-150.904	-0.335	-0.025
-525.004	-172.625	0.160	-0.005
-523.989	800.000	0.068	-0.267
-522.975	156.514	0.038	0.053
-521.960	-114.193	0.231	-0.045
-520.945	-164.779	0.248	0.011
-519.931	-47.133	0.192	0.093
-518.916	-200.000	0.024	0.127
-517.902	-110.922	-0.169	-0.035
-516.887	800.000	-0.087	-0.332
-515.872	-82.391	-0.446	0.145
-514.858	-131.326	0.389	-0.051
-513.843	353.192	-0.108	-0.213
-512.829	-77.191	0.067	-0.023
-511.814	13.595	0.167	-0.130
-510.799	230.071	0.129	-0.210
-509.785	501.279	-0.092	0.212
-508.770	-200.000	-0.008	-0.109
-507.756	-75.673	0.154	0.055
-506.741	170.719	0.123	0.175
-505.726	-134.051	0.146	0.018
-504.712	800.000	0.035	0.126
-503.697	86.939	-0.188	-0.207
-502.683	-16.165	-0.501	-0.317
-501.668	-54.989	0.225	0.101
-500.653	123.092	-0.201	-0.251
-499.639	99.126	-0.069	-0.080
-498.624	-9.384	-0.193	-0.129
-497.610	-24.953	0.180	-0.107
-496.595	460.887	0.080	0.177
-495.581	-126.067	-0.171	0.026
-494.566	-135.115	0.083	-0.010
-493.551	800.000	0.013	0.042
-492.537	166.728	0.176	0.249
-491.522	-95.249	0.151	-0.041
-490.508	-63.198	-0.337	0.138
-489.493	-75.835	0.280	0.099
-488.478	524.914	0.066	0.155
-487.464	-134.759	-0.127	-0.015
-486.449	227.816	0.137	-0.222
-485.435	-101.801	0.301	-0.073
-484.420	-49.524	-0.217	0.103
-483.405	123.572	-0.094	-0.118
-482.391	59.657	-0.255	0.251
-481.376	800.000	0.042	0.152
-480.362	-111.614	-0.037	0.007
-479.347	349.577	0.160	-0.315
-478.332	-31.801	0.180	-0.101
-477.318	-132.922	-0.250	-0.032
-476.303	-27.885	-0.055	-0.032
-475.289	-200.000	-0.049	-0.215
-474.274	8.663	-0.213	0.160
-473.259	-41.829	0.057	-0.029
-472.245	-82.558	0.524	-0.169
-471.230	50.423	0.223	-0.210
-470.216	-106.795	0.248	0.055
-469.201	-21.398	0.375	-0.228
-468.186	402.427	-0.091	-0.191
-467.172	105.421	-0.388	-0.457
-466.157	-58.226	0.068	0.029
-465.143	94.587	-0.362	0.410
-464.128	-84.786	-0.189	-0.059
-463.113	-46.125	-0.151	-0.074
-462.099	800.000	0.033	-0.119
-461.084	610.952	0.061	0.153
-460.070	800.000	-0.003	0.013
-459.055	-200.000	0.028	-0.171
-458.040	800.000	-0.080	-0.231
-457.026	157.551	-0.089	-0.123
-456.011	346.698	0.111	-0.218
-454.997	193.380	0.062	-0.094
-453.982	-200.000	0.019	-0.087
-452.968	434.620	-0.026	0.056
-451.953	582.022	0.051	0.124
-450.938	-68.612	0.098	-0.038
-449.924	-30.643	0.143	-0.081
-448.909	800.000	-0.023	-0.094
-447.895	-114.149	0.114	-0.022
-446.880	-163.447	0.312	-0.015
-445.865	34.953	-0.061	-0.053
-444.851	549.416	0.101	0.241
-443.836	-49.059	0.332	-0.158
-442.822	800.000	-0.084	-0.233
-441.807	-196.710	0.181	0.001
-440.792	-200.000	-0.022	0.250
-439.778	-38.752	0.129	0.068
-438.763	21.141	-0.056	0.045
-437.749	800.000	-0.080	-0.251
-436.734	-106.759	0.132	-0.029
-435.719	-82.452	-0.439	0.142
-434.705	-85.659	-0.088	0.027
-433.690	-200.000	-0.013	0.061
-432.676	-158.604	-0.128	0.007
-431.661	728.960	-0.032	0.085
-430.646	800.000	-0.074	-0.281
-429.632	332.155	-0.127	-0.243
-428.617	262.076	0.081	0.139
-427.603	800.000	-0.060	-0.179
-426.588	-113.661	0.110	0.021
-425.573	-77.312	0.125	0.043
-424.559	301.015	0.083	-0.153
-423.544	200.050	0.037	0.056
-422.530	-97.402	-0.050	-0.013
-421.515	405.475	0.108	-0.226
-420.500	800.000	0.068	-0.278
-419.486	-200.000	-0.027	-0.152
-418.471	-82.398	0.048	-0.016
-417.457	-159.296	0.032	0.002
-416.442	-87.517	-0.053	-0.016
-415.428	116.664	-0.054	-0.065
-414.413	85.888	-0.189	-0.206
-413.398	-153.160	-0.160	0.011
-412.384	-93.601	0.387	-0.106
-411.369	-8.096	0.242	0.162
-410.355	-28.188	-0.387	0.223
-409.340	800.000	0.115	0.388
-408.325	67.725	-0.243	0.247
-407.311	-200.000	0.008	-0.277
-406.296	15.383	0.341	-0.266
-405.282	16.441	0.045	-0.035
-404.267	557.024	-0.049	-0.118
-403.252	800.000	-0.038	0.135
-402.238	800.000	-0.042	0.172
-401.223	-25.096	0.244	0.144
-400.209	-200.000	-0.046	-0.212
-399.194	130.567	0.127	0.162
-398.179	192.994	0.087	0.131
-397.165	249.360	0.118	-0.198
-396.150	-200.000	-0.010	0.318
-395.136	-200.000	-0.010	-0.108
-394.121	722.755	0.118	0.312
-393.106	-124.182	-0.159	-0.025
-392.092	-200.000	0.034	0.310
-391.077	800.000	0.085	-0.255
-390.063	-200.000	-0.052	-0.263
-389.048	-200.000	-0.031	0.145
-388.033	-137.529	0.180	0.020
-387.019	-38.724	-0.073	0.038
-386.004	-150.939	0.220	0.017
-384.990	800.000	-0.036	0.118
-383.975	-156.172	0.381	-0.024
-382.960	800.000	-0.030	0.121
-381.946	-200.000	-0.052	-0.249
-380.931	234.595	0.114	0.187
-379.917	-200.000	0.004	-0.087
-378.902	40.969	-0.209	0.188
-377.888	-200.000	0.020	0.216
-376.873	781.771	0.140	0.380
-375.858	532.669	0.157	0.369
-374.844	55.504	-0.226	0.217
-373.829	800.000	-0.047	-0.172
-372.815	-143.066	-0.189	-0.018
-371.800	-160.364	-0.212	0.011
-370.785	170.093	0.149	0.212
-369.771	-84.751	0.222	0.069
-368.756	800.000	-0.025	0.080
-367.742	-200.000	-0.002	0.204
-366.727	297.800	-0.021	0.038
-365.712	127.150	0.199	0.251
-364.698	-33.402	0.199	-0.109
-363.683	20.719	-0.185	-0.148
-362.669	-200.000	0.051	-0.248
-361.654	800.000	0.059	0.256
-360.639	116.002	-0.127	0.154
-359.625	77.609	-0.295	0.311
-358.610	123.838	0.018	-0.022
-357.596	139.406	-0.132	-0.172
-356.581	6.725	0.119	-0.088
-355.566	-174.212	0.120	0.003
-354.552	800.000	-0.082	0.231
-353.537	-132.003	-0.268	0.035
-352.523	800.000	-0.092	-0.295
-351.508	-39.027	-0.204	0.107
-350.493	-108.139	0.224	-0.048
-349.479	-200.000	-0.179	0.000
-348.464	800.000	0.056	0.170
-347.450	99.447	0.099	-0.113
-346.435	-30.621	-0.248	-0.140
-345.420	183.427	0.158	-0.232
-344.406	82.752	-0.051	0.055
-343.391	-95.306	0.044	0.012
-342.377	-41.100	0.151	-0.077
-341.362	-156.497	0.460	0.028
-340.348	-104.739	0.108	-0.025
-339.333	143.346	-0.075	-0.099
-338.318	-200.000	0.011	-0.048
-337.304	49.162	-0.108	0.101
-336.289	800.000	-0.065	0.193
-335.275	-53.855	0.253	0.114
-334.260	12.009	-0.114	-0.087
-333.245	800.000	-0.073	-0.210
-332.231	-99.266	-0.177	-0.044
-331.216	-22.957	0.145	0.086
-330.202	73.815	-0.241	-0.251
-329.187	27.616	0.115	0.096
-328.172	100.173	-0.359	-0.413
-327.158	-76.727	0.090	-0.031
-326.143	-3.126	0.059	0.041
-325.129	-103.431	0.248	0.058
-324.114	-91.765	0.059	-0.017
-323.099	171.135	0.167	-0.238
-322.085	800.000	0.111	0.392
-321.070	296.977	-0.104	0.189
-320.056	-200.000	-0.041	-0.229
-319.041	-1.007	-0.223	0.156
-318.026	408.139	0.136	0.284
-317.012	-200.000	0.069	-0.328
-315.997	800.000	0.050	0.160
-314.983	382.073	0.149	0.303
-313.968	67.369	0.231	0.234
-312.953	58.230	0.310	0.301
-311.939	-174.685	0.116	0.003
-310.924	-200.000	-0.010	-0.071
-309.910	-183.661	-0.123	0.002
-308.895	125.344	0.102	-0.128
-307.880	152.608	-0.158	0.213
-306.866	-136.213	0.219	-0.025
-305.851	693.979	-0.111	-0.289
-304.837	-200.000	-0.042	0.217
-303.822	-163.247	0.091	0.004
-302.807	-111.102	0.245	-0.050
-301.793	-94.738	-0.186	-0.050
-300.778	63.441	-0.170	0.169
-299.764	538.400	0.134	-0.315
-298.749	-72.003	0.293	-0.108
-297.735	725.881	-0.079	0.210
-296.720	-158.645	0.329	0.019
-295.705	-200.000	-0.063	0.327
-294.691	800.000	-0.074	-0.206
-293.676	-7.071	-0.087	-0.059
-292.662	39.911	0.266	-0.237
-291.647	-72.767	0.221	-0.081
-290.632	95.197	-0.071	-0.080
-289.618	282.980	-0.030	-0.054
-288.603	-40.534	0.280	0.144
-287.589	2.056	0.368	0.263
-286.574	-132.669	0.102	0.013
-285.559	504.342	-0.045	0.103
-284.545	800.000	0.053	-0.183
-283.530	-200.000	-0.022	-0.328
-282.516	-64.533	-0.197	0.079
-281.501	-200.000	0.006	0.058
-280.486	-119.501	-0.296	0.051
-279.472	-103.718	0.125	-0.029
-278.457	-112.886	-0.106	-0.021
-277.443	-44.656	0.091	0.045
-276.428	-81.149	0.129	-0.042
-275.413	-46.325	-0.189	-0.092
-274.399	-91.474	-0.066	0.019
-273.384	-200.000	-0.039	-0.245
-272.370	-131.170	0.156	0.021
-271.355	-50.815	0.247	0.115
-270.340	55.875	-0.176	0.169
-269.326	-51.771	0.091	-0.042
-268.311	-145.859	0.251	0.022
-267.297	293.507	-0.043	0.078
-266.282	800.000	-0.026	0.082
-265.267	78.198	0.076	-0.081
-264.253	800.000	0.033	0.104
-263.238	-200.000	-0.011	0.109
-262.224	-136.226	0.359	0.041
-261.209	800.000	0.065	-0.240
-260.195	800.000	0.031	-0.117
-259.180	11.830	-0.256	0.195
-258.165	-57.674	0.162	0.070
-257.151	-200.000	-0.034	-0.171
-256.136	800.000	-0.072	0.298
-255.122	-134.630	-0.182	-0.022
-254.107	224.089	-0.104	-0.165
-253.092	800.000	-0.140	0.423
-252.078	-7.625	-0.351	0.234
-251.063	8.068	0.140	0.104
-250.049	800.000	0.080	-0.223
-249.034	1.714	0.233	-0.166
-248.019	-28.158	-0.154	0.088
-247.005	-69.280	-0.144	-0.055
-245.990	73.980	-0.312	-0.323
-244.976	-148.058	0.103	0.008
-243.961	-118.119	-0.489	0.086
-242.946	0.879	-0.040	0.028
-241.932	-59.928	0.332	0.140
-240.917	800.000	0.070	-0.250
-239.903	-26.912	-0.287	0.166
-238.888	-200.000	0.020	0.112
-237.873	-200.000	-0.011	-0.211
-236.859	-46.058	-0.322	0.157
-235.844	-200.000	0.008	0.133
-234.830	346.475	0.098	-0.191
-233.815	-161.349	0.068	-0.003
-232.800	-200.000	0.051	-0.313
-231.786	-87.286	0.507	-0.152
-230.771	-52.585	-0.319	0.145
-229.757	5.353	-0.162	0.118
-228.742	-28.276	0.356	0.203
-227.727	323.802	0.059	-0.112
-226.713	-79.086	-0.379	-0.127
-225.698	84.668	-0.182	0.197
-224.684	111.041	-0.162	-0.193
-223.669	-20.410	-0.264	-0.160
-222.655	53.120	0.069	0.065
-221.640	-200.000	0.015	-0.140
-220.625	-200.000	0.004	0.058
-219.611	90.796	-0.156	-0.172
-218.596	183.171	0.062	0.090
-217.582	-84.142	0.240	0.075
-216.567	120.255	-0.176	-0.215
-215.552	27.433	-0.209	-0.173
-214.538	800.000	0.103	-0.304
-213.523	518.110	-0.073	0.169
-212.509	-52.736	0.225	-0.102
-211.494	93.457	-0.048	0.054
-210.479	-200.000	0.077	0.402
-209.465	-55.653	0.048	0.021
-208.450	-6.697	-0.080	0.054
-207.436	194.694	0.073	-0.109
-206.421	-200.000	-0.052	-0.240
-205.406	576.373	0.130	0.313
-204.392	-0.247	-0.093	-0.065
-203.377	-200.000	0.002	-0.034
-202.363	732.875	-0.102	0.269
-201.348	122.710	0.122	0.151
-200.333	-153.138	-0.105	-0.007
-199.319	139.465	-0.032	0.042
-198.304	-115.769	0.141	0.026
-197.290	-200.000	0.038	0.428
-196.275	-138.302	-0.260	0.028
-195.260	-0.397	-0.266	0.186
-194.246	-76.103	0.069	0.024
-193.231	-161.899	-0.239	-0.012
-192.217	-44.960	0.141	0.069
-191.202	-200.000	0.015	-0.131
-190.187	-200.000	-0.010	-0.130
-189.173	-165.290	-0.203	0.009
-188.158	36.224	0.265	0.230
-187.144	-61.519	-0.073	-0.030
-186.129	-82.954	0.259	0.082
-185.114	3.348	-0.379	-0.272
-184.100	-122.848	-0.190	-0.030
-183.085	-135.761	0.151	0.018
-182.071	-200.000	-0.037	0.211
-181.056	555.283	0.173	-0.411
-180.042	-200.000	0.003	0.194
-179.027	-145.088	-0.143	-0.013
-178.012	-59.619	-0.310	-0.131
-176.998	506.257	-0.082	0.187
-175.983	48.815	0.351	0.324
-174.969	40.734	0.183	-0.163
-173.954	123.163	0.338	0.417
-172.939	24.919	-0.124	-0.101
-171.925	-56.828	0.307	-0.134
-170.910	205.570	0.091	-0.139
-169.896	-90.294	-0.290	0.083
-168.881	-5.478	0.027	0.018
-167.866	33.042	-0.198	-0.169
-166.852	-200.000	0.021	0.101
-165.837	42.230	-0.134	0.120
-164.823	800.000	-0.116	-0.353
-163.808	-37.648	-0.282	-0.148
-162.793	413.468	-0.053	0.111
-161.779	-48.168	0.494	0.235
-160.764	-200.000	0.034	0.361
-159.750	84.069	-0.173	0.186
-158.735	186.810	-0.065	0.095
-157.720	-151.825	0.117	0.008
-156.706	188.268	0.145	0.214
-155.691	337.198	0.102	-0.196
-154.677	800.000	-0.043	-0.129
-153.662	-121.376	-0.240	0.039
-152.647	-123.318	-0.081	0.013
-151.633	-35.133	0.303	0.162
-150.618	-41.809	-0.130	0.066
-149.604	244.753	0.022	0.036
-148.589	-152.682	-0.333	0.023
-147.574	8.201	-0.124	-0.091
-146.560	270.847	-0.253	-0.437
-145.545	-200.000	0.040	-0.427
-144.531	-53.681	0.219	-0.098
-143.516	-161.767	0.243	-0.012
-142.502	42.446	0.276	0.247
-141.487	289.194	-0.281	0.501
-140.472	171.031	0.148	0.209
-139.458	30.376	-0.152	0.128
-138.443	-18.203	-0.227	-0.139
-137.429	800.000	-0.046	0.190
-136.414	800.000	-0.144	0.415
-135.399	75.858	0.091	-0.094
-134.385	-109.842	-0.044	-0.009
-133.370	-57.908	0.241	-0.104
-132.356	800.000	-0.101	0.345
-131.341	264.698	0.067	0.115
-130.326	122.388	0.101	-0.124
-129.312	-99.198	0.187	0.046
-128.297	694.501	0.047	0.122
-127.283	503.839	-0.051	-0.116
-126.268	-200.000	-0.019	-0.112
-125.253	199.142	0.210	-0.316
-124.239	156.845	0.356	0.483
-123.224	-200.000	-0.060	0.502
-122.210	65.118	-0.223	0.221
-121.195	800.000	0.036	-0.123
