DTS Sentinel unit serial number:	SN413079Multiplexer serial number:	ORYXHardware model number:	OX4-SRSoftware version number:	ORYX F/W v4.00 Oryx Data Collector v3.7.2.0data status	okinstallation	princeton_trtdifferential loss correction	single-endedforward channel	channel 3reverse channel	N/Adate	2019/09/17time	06:32:35forward acquisition time	60.00reverse acquisition time	0.00gamma	496.2192k internal	0.2331k external	0.2331temperature offset calibration	0.9944default loss term (dB/km)	0.3790temperature slope calibration	1.0000multiplexer offset coefficient	1.0000multiplexer slope coefficient	1.0000fibre end	0.00T internal ref (°C)	28.12T ext. ref 1 (°C)	0.12T ext. ref 2 (°C)	21.44length (m)	temperature (°C)	Stokes	anti-Stokes-747.200	800.000	-0.084	0.235
-746.185	-117.143	-0.220	0.040
-745.171	-58.421	0.200	-0.087
-744.156	658.766	0.100	0.258
-743.142	-200.000	-0.010	0.063
-742.127	793.305	0.107	-0.295
-741.112	-200.000	-0.011	0.285
-740.098	800.000	0.080	0.240
-739.083	-134.602	0.214	-0.026
-738.069	380.766	-0.142	0.294
-737.054	-200.000	-0.029	0.182
-736.039	53.912	-0.158	0.153
-735.025	800.000	0.055	-0.185
-734.010	-197.985	-0.184	-0.001
-732.996	-175.335	0.171	-0.005
-731.981	-200.000	0.041	0.288
-730.966	-52.149	-0.222	0.104
-729.952	439.683	-0.073	-0.161
-728.937	-97.160	-0.104	-0.027
-727.923	-89.733	-0.079	-0.023
-726.908	273.822	-0.131	-0.232
-725.894	125.543	-0.083	0.105
-724.879	8.818	-0.251	-0.190
-723.864	-169.318	0.163	0.006
-722.850	-42.131	-0.105	-0.054
-721.835	-30.408	0.058	-0.033
-720.821	-86.595	0.104	0.032
-719.806	800.000	-0.090	0.252
-718.791	353.401	-0.089	-0.178
-717.777	-15.954	0.306	-0.196
-716.762	-12.261	-0.249	-0.164
-715.748	796.731	0.074	-0.204
-714.733	800.000	0.095	-0.324
-713.718	98.233	-0.115	0.133
-712.704	140.325	0.070	0.093
-711.689	176.187	0.091	-0.134
-710.675	407.190	-0.235	0.499
-709.660	49.138	0.182	-0.172
-708.645	18.522	0.049	0.039
-707.631	-122.445	-0.093	-0.015
-706.616	-200.000	-0.016	-0.462
-705.602	-66.026	-0.263	0.106
-704.587	-33.670	-0.152	-0.084
-703.572	-181.612	-0.224	-0.004
-702.558	-124.163	0.157	0.025
-701.543	54.379	0.167	-0.161
-700.529	-183.973	-0.257	0.004
-699.514	426.989	0.121	0.262
-698.499	544.413	-0.054	-0.130
-697.485	-200.000	-0.012	0.148
-696.470	-170.334	0.138	-0.005
-695.456	-75.908	-0.078	-0.028
-694.441	370.102	-0.086	-0.175
-693.426	-109.385	-0.247	-0.053
-692.412	247.455	-0.209	-0.354
-691.397	800.000	0.161	-0.687
-690.383	-164.833	-0.358	-0.016
-689.368	-32.687	-0.377	-0.211
-688.354	-158.377	0.114	-0.007
-687.339	400.197	-0.037	-0.078
-686.324	1.197	-0.247	0.178
-685.310	800.000	-0.071	0.311
-684.295	-171.053	0.238	-0.008
-683.281	-200.000	0.002	-0.065
-682.266	98.838	0.053	-0.062
-681.251	645.110	0.038	-0.098
-680.237	800.000	0.099	-0.328
-679.222	2.270	-0.147	0.107
-678.208	800.000	0.072	0.243
-677.193	162.582	-0.137	-0.193
-676.178	18.961	-0.085	-0.068
-675.164	47.411	-0.157	-0.147
-674.149	37.006	-0.302	0.268
-673.135	800.000	-0.031	0.133
-672.120	-75.989	0.076	0.027
-671.105	-34.879	0.218	-0.120
-670.091	-3.527	-0.319	0.223
-669.076	62.519	-0.209	0.210
-668.062	95.606	0.158	0.181
-667.047	142.827	-0.135	0.181
-666.032	800.000	-0.099	0.355
-665.018	36.825	-0.090	-0.080
-664.003	-82.160	-0.250	0.082
-662.989	-76.050	-0.094	-0.033
-661.974	-200.000	0.029	0.229
-660.959	-58.571	-0.080	0.035
-659.945	-63.434	-0.157	0.065
-658.930	800.000	0.083	-0.322
-657.916	110.196	-0.123	-0.148
-656.901	13.926	-0.166	-0.130
-655.886	-135.090	-0.189	-0.023
-654.872	-69.313	0.107	-0.041
-653.857	-102.343	-0.380	-0.091
-652.843	644.455	-0.103	0.263
-651.828	425.810	-0.052	0.113
-650.814	-182.751	-0.511	0.009
-649.799	-69.634	-0.184	-0.071
-648.784	-91.122	0.168	0.048
-647.770	-200.000	-0.002	-0.193
-646.755	-63.426	0.105	-0.043
-645.741	-200.000	0.062	0.355
-644.726	5.471	0.170	-0.126
-643.711	-200.000	-0.013	0.111
-642.697	800.000	-0.081	0.291
-641.682	-200.000	0.002	-0.059
-640.668	92.659	-0.149	-0.168
-639.653	-88.022	0.288	-0.087
-638.638	-200.000	0.009	0.137
-637.624	-128.434	0.185	-0.026
-636.609	83.655	-0.087	0.095
-635.595	-136.534	-0.374	0.043
-634.580	-25.045	0.167	0.099
-633.565	-49.311	0.319	-0.152
-632.551	535.026	-0.022	-0.052
-631.536	-200.000	0.037	0.240
-630.522	-5.248	0.317	-0.219
-629.507	75.361	0.038	0.040
-628.492	-73.567	-0.314	-0.115
-627.478	800.000	0.108	-0.298
-626.463	96.416	0.204	0.233
-625.449	-43.418	-0.051	-0.026
-624.434	-52.503	-0.195	-0.090
-623.419	-10.511	-0.318	0.211
-622.405	-200.000	0.061	-0.318
-621.390	25.379	0.114	-0.095
-620.376	372.592	0.109	0.223
-619.361	-133.725	-0.087	0.011
-618.346	18.481	0.219	-0.175
-617.332	260.066	0.018	-0.031
-616.317	36.246	-0.143	0.126
-615.303	462.175	-0.063	0.141
-614.288	-128.386	0.317	0.045
-613.273	-200.000	0.001	-0.057
-612.259	-200.000	-0.039	0.191
-611.244	-200.000	0.022	0.134
-610.230	353.732	0.041	-0.081
-609.215	-77.418	-0.189	0.066
-608.201	422.099	0.067	-0.143
-607.186	-56.871	-0.141	0.062
-606.171	-200.000	0.007	-0.233
-605.157	-200.000	0.033	-0.331
-604.142	-200.000	-0.081	0.382
-603.128	-67.513	-0.070	0.028
-602.113	-200.000	-0.027	0.249
-601.098	101.422	-0.152	-0.178
-600.084	-78.768	0.115	0.039
-599.069	-200.000	-0.007	-0.277
-598.055	-144.216	-0.293	-0.027
-597.040	122.524	-0.096	0.120
-596.025	-200.000	-0.015	-0.135
-595.011	-133.581	0.260	-0.033
-593.996	800.000	0.043	-0.182
-592.982	113.713	-0.046	-0.056
-591.967	-99.856	0.093	0.023
-590.952	-27.811	-0.207	-0.120
-589.938	-125.934	-0.267	0.040
-588.923	250.707	-0.164	0.278
-587.909	568.787	-0.101	-0.246
-586.894	-29.446	-0.121	0.069
-585.879	-84.909	-0.377	-0.118
-584.865	187.501	0.186	-0.277
-583.850	18.059	-0.070	0.056
-582.836	282.074	-0.189	-0.340
-581.821	-200.000	0.007	0.060
-580.806	-43.977	-0.118	0.059
-579.792	-51.296	-0.349	0.163
-578.777	138.231	-0.055	0.072
-577.763	-195.801	-0.423	-0.003
-576.748	8.839	0.067	0.050
-575.733	-123.363	-0.330	-0.053
-574.719	694.593	0.068	0.177
-573.704	200.918	-0.080	-0.123
-572.690	128.169	-0.190	-0.242
-571.675	-178.199	0.218	0.005
-570.661	-83.175	-0.215	-0.069
-569.646	-79.714	0.228	0.077
-568.631	4.031	0.413	0.302
-567.617	32.232	-0.092	0.079
-566.602	-45.094	-0.070	-0.035
-565.588	-158.832	0.152	0.009
-564.573	111.751	0.061	-0.074
-563.558	-117.124	-0.159	0.029
-562.544	-20.552	-0.346	-0.213
-561.529	80.030	-0.107	-0.115
-560.515	-68.246	0.233	-0.091
-559.500	108.727	0.111	-0.132
-558.485	-195.695	-0.098	-0.001
-557.471	211.629	0.046	0.073
-556.456	427.136	0.032	-0.069
-555.442	-116.817	0.218	0.040
-554.427	21.932	0.179	0.145
-553.412	-70.868	-0.055	0.021
-552.398	-24.510	0.245	0.146
-551.383	-200.000	-0.006	-0.400
-550.369	19.885	0.145	-0.117
-549.354	-133.105	0.258	-0.033
-548.339	338.256	-0.059	0.114
-547.325	-98.074	-0.082	-0.021
-546.310	67.440	0.058	0.060
-545.296	800.000	0.054	0.191
-544.281	148.255	0.121	0.163
-543.266	257.006	0.055	0.095
-542.252	800.000	-0.079	0.246
-541.237	800.000	-0.095	0.369
-540.223	-149.029	-0.087	0.007
-539.208	55.026	0.060	0.057
-538.193	401.616	0.065	-0.137
-537.179	-143.202	-0.288	-0.028
-536.164	12.561	-0.177	0.136
-535.150	744.970	0.132	0.355
-534.135	-97.477	-0.066	-0.017
-533.121	-122.127	-0.263	-0.043
-532.106	203.313	0.095	0.146
-531.091	-103.245	0.066	0.016
-530.077	800.000	0.037	-0.141
-529.062	-133.426	-0.058	-0.007
-528.048	-72.353	-0.226	-0.084
-527.033	-54.003	0.371	-0.169
-526.018	-200.000	-0.052	0.296
-525.004	-200.000	0.017	-0.262
-523.989	-108.982	-0.373	-0.079
-522.975	155.099	0.146	-0.200
-521.960	-95.270	-0.326	0.088
-520.945	-95.478	-0.039	-0.010
-519.931	-138.242	0.186	0.021
-518.916	585.839	0.072	-0.176
-517.902	-133.898	0.286	-0.035
-516.887	353.975	-0.082	0.163
-515.872	8.589	0.246	0.184
-514.858	800.000	-0.125	-0.455
-513.843	-34.569	-0.165	-0.090
-512.829	-200.000	-0.039	-0.285
-511.814	-17.765	-0.244	0.153
-510.799	-86.015	0.229	-0.071
-509.785	193.909	0.048	-0.073
-508.770	-200.000	-0.008	-0.123
-507.756	-200.000	-0.023	0.174
-506.741	-200.000	0.019	-0.123
-505.726	141.190	0.243	0.320
-504.712	47.901	0.048	0.045
-503.697	-135.106	-0.072	0.009
-502.683	92.371	0.335	-0.376
-501.668	45.611	-0.232	0.214
-500.653	-18.594	0.202	0.125
-499.639	-200.000	-0.059	0.320
-498.624	100.380	0.087	-0.101
-497.610	800.000	-0.033	0.097
-496.595	-97.982	-0.195	-0.050
-495.581	175.904	0.106	0.153
-494.566	800.000	-0.019	0.074
-493.551	278.207	-0.167	0.297
-492.537	-85.533	-0.035	0.011
-491.522	223.962	0.131	0.211
-490.508	-200.000	0.035	0.328
-489.493	-157.123	-0.240	0.015
-488.478	-101.834	0.286	-0.069
-487.464	3.245	0.219	0.159
-486.449	-36.581	0.191	0.102
-485.435	-51.824	-0.161	0.075
-484.420	-104.402	-0.332	0.077
-483.405	-118.272	-0.460	0.081
-482.391	-73.941	0.091	0.033
-481.376	800.000	-0.046	-0.150
-480.362	-40.618	0.152	-0.079
-479.347	-84.429	-0.152	-0.048
-478.332	-200.000	0.010	0.293
-477.318	187.821	-0.278	0.414
-476.303	363.412	0.076	-0.151
-475.289	-115.514	-0.262	-0.049
-474.274	124.406	-0.199	-0.249
-473.259	-125.792	0.058	-0.009
-472.245	-200.000	-0.035	0.333
-471.230	-88.997	0.089	-0.026
-470.216	-92.367	-0.373	0.105
-469.201	381.802	0.134	-0.273
-468.186	18.997	0.058	0.046
-467.172	-33.500	-0.248	0.136
-466.157	-65.444	0.223	-0.089
-465.143	-200.000	-0.075	0.354
-464.128	-200.000	0.003	-0.284
-463.113	-77.555	0.177	-0.061
-462.099	184.741	-0.070	0.103
-461.084	-200.000	0.052	0.388
-460.070	-144.455	0.187	-0.017
-459.055	-200.000	-0.003	0.116
-458.040	-55.877	0.266	-0.118
-457.026	104.582	0.127	-0.149
-456.011	150.073	0.062	-0.083
-454.997	-174.071	0.167	-0.005
-453.982	-200.000	-0.009	-0.062
-452.968	-136.228	0.244	0.028
-451.953	308.492	-0.115	0.213
-450.938	-159.007	0.382	0.022
-449.924	-80.091	0.231	0.077
-448.909	119.875	-0.140	-0.173
-447.895	-138.749	-0.074	-0.008
-446.880	800.000	0.106	-0.432
-445.865	-68.081	-0.137	0.053
-444.851	-200.000	-0.001	0.034
-443.836	-200.000	0.022	-0.108
-442.822	-153.427	-0.121	0.008
-441.807	-200.000	-0.041	-0.199
-440.792	165.405	0.120	-0.169
-439.778	-200.000	0.010	-0.119
-438.763	-47.929	0.154	-0.074
-437.749	336.189	0.064	-0.124
-436.734	30.083	0.144	0.122
-435.719	798.952	-0.060	0.165
-434.705	-27.211	-0.079	-0.046
-433.690	-36.589	-0.139	0.074
-432.676	-33.083	0.261	-0.144
-431.661	-118.356	0.282	-0.050
-430.646	-52.664	-0.100	-0.046
-429.632	-50.385	-0.194	0.091
-428.617	-154.642	0.231	0.015
-427.603	-200.000	-0.011	0.274
-426.588	-161.385	0.232	0.012
-425.573	-200.000	0.024	0.182
-424.559	-200.000	0.002	-0.052
-423.544	-112.924	0.226	-0.045
-422.530	-114.048	0.483	0.093
-421.515	-200.000	0.037	0.275
-420.500	85.226	-0.112	0.122
-419.486	102.000	0.094	0.109
-418.471	210.495	0.052	-0.081
-417.457	774.346	-0.091	0.247
-416.442	-200.000	-0.018	-0.116
-415.428	-16.072	-0.087	0.055
-414.413	-200.000	-0.035	-0.181
-413.398	-11.360	0.168	0.110
-412.384	-61.724	0.190	-0.079
-411.369	54.377	0.159	-0.152
-410.355	717.356	0.113	0.298
-409.340	30.947	0.295	0.251
-408.325	-200.000	0.015	-0.163
-407.311	-93.800	0.127	-0.035
-406.296	-97.989	0.070	-0.018
-405.282	521.557	-0.149	0.348
-404.267	-136.983	0.070	-0.008
-403.252	-5.626	-0.149	0.101
-402.238	-60.392	0.148	-0.063
-401.223	-1.932	-0.208	0.145
-400.209	117.510	-0.168	-0.206
-399.194	-23.612	0.163	-0.097
-398.179	475.264	0.140	-0.313
-397.165	-200.000	-0.014	0.099
-396.150	144.077	-0.205	-0.271
-395.136	399.506	0.155	-0.322
-394.121	-30.208	-0.097	0.055
-393.106	-118.423	0.091	-0.016
-392.092	14.700	0.241	-0.187
-391.077	164.771	-0.182	-0.255
-390.063	-91.656	0.258	0.073
-389.048	-119.276	0.169	0.029
-388.033	-37.763	0.326	-0.172
-387.019	-4.232	0.191	-0.131
-386.004	-200.000	-0.006	-0.171
-384.990	332.730	-0.133	-0.255
-383.975	295.035	-0.087	-0.157
-382.960	-13.060	-0.104	0.067
-381.946	800.000	0.082	0.245
-380.931	-165.272	0.137	-0.006
-379.917	1.067	-0.081	0.058
-378.902	-87.788	0.185	-0.055
-377.888	582.417	0.046	-0.111
-376.873	-200.000	0.029	-0.220
-375.858	-154.397	0.387	-0.026
-374.844	17.969	-0.201	-0.159
-373.829	70.100	0.181	-0.185
-372.815	258.990	-0.214	-0.366
-371.800	-158.868	0.258	0.015
-370.785	188.518	0.128	-0.190
-369.771	347.309	0.035	0.068
-368.756	-71.231	-0.161	-0.060
-367.742	3.499	-0.140	0.101
-366.727	48.952	0.147	0.137
-365.712	-69.852	-0.121	0.046
-364.698	18.272	-0.130	0.103
-363.683	191.617	-0.247	-0.368
-362.669	-84.392	0.160	0.050
-361.654	-27.723	0.339	-0.195
-360.639	800.000	-0.051	-0.201
-359.625	658.352	-0.119	-0.304
-358.610	87.409	-0.427	-0.468
-357.596	-200.000	0.005	-0.194
-356.581	141.592	-0.205	0.269
-355.566	800.000	0.029	-0.083
-354.552	-107.186	0.065	-0.014
-353.537	-75.183	-0.239	0.085
-352.523	-200.000	0.013	0.248
-351.508	-81.989	0.062	0.020
-350.493	95.726	0.170	-0.193
-349.479	800.000	0.013	-0.041
-348.464	-200.000	0.028	-0.243
-347.450	800.000	0.031	-0.130
-346.435	-200.000	-0.028	-0.141
-345.420	800.000	-0.064	-0.214
-344.406	-18.482	0.309	0.191
-343.391	162.178	-0.111	-0.154
-342.377	14.015	-0.099	0.076
-341.362	-200.000	-0.035	0.300
-340.348	76.354	-0.151	-0.159
-339.333	-155.761	-0.237	0.015
-338.318	-151.691	-0.213	0.016
-337.304	-200.000	0.042	-0.365
-336.289	23.897	-0.185	0.151
-335.275	85.179	-0.131	-0.142
-334.260	-132.778	0.350	0.044
-333.245	165.866	-0.169	0.236
-332.231	212.657	-0.146	-0.228
-331.216	560.250	-0.093	-0.224
-330.202	-38.068	-0.311	0.163
-329.187	142.013	-0.347	0.456
-328.172	585.244	-0.105	0.256
-327.158	135.770	0.093	0.119
-326.143	172.662	0.095	0.135
-325.129	800.000	-0.026	-0.102
-324.114	800.000	0.038	-0.153
-323.099	-136.762	-0.160	-0.018
-322.085	-200.000	0.028	0.229
-321.070	511.972	0.142	0.327
-320.056	104.336	0.134	-0.157
-319.041	261.498	0.210	-0.360
-318.026	-129.731	-0.385	0.052
-317.012	-29.003	-0.108	-0.061
-315.997	-17.816	-0.157	-0.097
-314.983	147.936	-0.045	-0.059
-313.968	-200.000	-0.052	-0.259
-312.953	43.466	-0.078	0.070
-311.939	105.029	0.120	0.140
-310.924	-43.420	0.303	0.152
-309.910	-200.000	-0.014	-0.109
-308.895	-200.000	-0.041	-0.419
-307.880	-95.329	0.161	-0.043
-306.866	-123.689	-0.166	0.026
-305.851	-200.000	0.004	0.383
-304.837	-43.036	-0.279	0.140
-303.822	-64.994	-0.202	-0.081
-302.807	-141.847	0.137	0.014
-301.793	157.220	-0.151	-0.206
-300.778	573.764	-0.019	-0.047
-299.764	-200.000	0.031	-0.162
-298.749	-59.707	-0.100	-0.042
-297.735	117.034	0.061	0.074
-296.720	-121.525	0.145	0.024
-295.705	-56.025	-0.090	0.040
-294.691	84.282	0.106	-0.115
-293.676	51.223	0.203	0.190
-292.662	800.000	0.021	-0.071
-291.647	-68.638	-0.208	-0.080
-290.632	243.613	-0.154	-0.255
-289.618	-200.000	-0.018	0.230
-288.603	-173.003	0.169	-0.005
-287.589	-46.286	-0.198	-0.096
-286.574	203.691	-0.208	-0.317
-285.559	151.937	-0.045	-0.060
-284.545	-200.000	0.049	0.243
-283.530	-172.003	-0.381	-0.012
-282.516	-109.285	-0.343	0.072
-281.501	98.940	0.030	-0.034
-280.486	18.211	0.254	-0.200
-279.472	-200.000	0.001	0.144
-278.457	-152.703	-0.216	0.015
-277.443	8.516	0.162	-0.121
-276.428	59.927	0.153	-0.150
-275.413	-120.396	-0.127	-0.021
-274.399	-42.130	-0.198	0.100
-273.384	800.000	0.131	0.371
-272.370	130.764	0.156	-0.197
-271.355	134.952	-0.096	-0.123
-270.340	275.052	-0.153	-0.267
-269.326	-200.000	0.040	0.243
-268.311	73.944	-0.197	0.204
-267.297	509.318	0.150	-0.344
-266.282	-200.000	-0.009	-0.266
-265.267	94.146	-0.069	0.078
-264.253	452.582	-0.033	-0.072
-263.238	800.000	0.085	-0.272
-262.224	-78.402	0.257	0.087
-261.209	800.000	0.034	0.134
-260.195	-81.095	0.128	-0.042
-259.180	336.666	0.056	-0.108
-258.165	-200.000	-0.021	-0.162
-257.151	12.853	0.154	0.118
-256.136	-200.000	0.048	-0.347
-255.122	188.203	-0.077	-0.113
-254.107	-30.415	0.109	-0.061
-253.092	-70.857	-0.213	-0.079
-252.078	541.721	0.087	0.206
-251.063	-143.563	-0.329	-0.031
-250.049	-100.044	-0.022	0.006
-249.034	-200.000	-0.010	-0.284
-248.019	-52.031	0.213	0.098
-247.005	-46.263	0.305	-0.148
-245.990	-49.549	-0.131	0.061
-244.976	86.731	0.161	0.175
-243.961	472.481	0.154	0.342
-242.946	-200.000	-0.045	0.255
-241.932	-83.303	0.087	-0.028
-240.917	140.856	-0.055	0.072
-239.903	92.314	-0.046	-0.051
-238.888	284.931	0.123	0.219
-237.873	51.528	0.072	0.068
-236.859	106.384	-0.131	-0.153
-235.844	249.829	-0.128	0.215
-234.830	-200.000	-0.086	0.400
-233.815	0.117	-0.382	0.268
-232.800	487.856	-0.024	-0.053
-231.786	-29.856	-0.240	0.135
-230.771	-7.751	-0.170	0.113
-229.757	22.641	0.144	0.116
-228.742	-83.592	0.216	-0.068
-227.727	438.015	0.133	0.286
-226.713	-26.652	0.137	-0.079
-225.698	-50.814	0.119	0.055
-224.684	800.000	0.097	-0.293
-223.669	189.123	0.056	-0.083
-222.655	222.779	-0.104	0.165
-221.640	584.043	-0.134	0.325
-220.625	-200.000	-0.003	0.214
-219.611	0.181	-0.069	-0.048
-218.596	-200.000	-0.064	0.458
-217.582	180.154	0.263	0.380
-216.567	-178.486	-0.152	-0.003
-215.552	0.871	-0.409	0.289
-214.538	-95.046	0.055	0.015
-213.523	-72.345	0.280	-0.102
-212.509	412.818	0.045	-0.093
-211.494	-36.723	-0.016	-0.008
-210.479	-43.022	-0.114	-0.057
-209.465	-104.429	-0.333	0.076
-208.450	28.599	-0.209	-0.174
-207.436	-200.000	-0.036	-0.218
-206.421	-101.074	0.142	0.034
-205.406	229.630	0.165	0.266
-204.392	-51.599	0.206	-0.095
-203.377	-95.023	-0.302	-0.080
-202.363	123.903	-0.089	0.110
-201.348	31.800	-0.113	0.096
-200.333	-200.000	-0.003	0.149
-199.319	-45.253	-0.068	0.033
-198.304	-196.143	0.164	0.001
-197.290	-141.967	-0.092	0.009
-196.275	-5.670	-0.106	-0.072
-195.260	13.673	0.264	-0.202
-194.246	-200.000	0.018	0.160
-193.231	800.000	-0.016	-0.051
-192.217	800.000	0.026	0.081
-191.202	266.774	0.109	0.188
-190.187	208.715	-0.096	0.149
-189.173	-58.682	-0.164	-0.070
-188.158	-66.047	-0.202	-0.080
-187.144	224.955	0.141	-0.224
-186.129	-200.000	0.003	-0.221
-185.114	90.619	0.074	-0.081
-184.100	31.763	0.153	0.130
-183.085	-104.504	0.293	0.067
-182.071	-110.691	-0.282	-0.057
-181.056	-110.128	0.130	-0.027
-180.042	241.581	-0.106	-0.175
-179.027	-138.322	-0.154	0.017
-178.012	10.220	0.055	-0.041
-176.998	-69.050	-0.218	-0.083
-175.983	-61.582	0.153	0.063
-174.969	-112.687	-0.157	-0.031
-173.954	-165.889	0.226	-0.010
-172.939	-132.389	0.108	-0.014
-171.925	155.873	0.380	0.516
-170.910	-22.917	-0.099	0.059
-169.896	-76.924	-0.189	-0.065
-168.881	270.759	0.122	-0.212
-167.866	-57.502	0.054	-0.023
-166.852	-19.234	0.327	0.200
-165.837	-85.458	-0.108	-0.033
-164.823	800.000	0.087	-0.248
-163.808	-200.000	0.002	-0.016
-162.793	175.045	0.158	-0.224
-161.779	-200.000	0.058	0.313
-160.764	304.772	0.097	0.178
-159.750	212.637	0.034	0.052
-158.735	39.760	-0.276	0.244
-157.720	39.145	0.055	-0.048
-156.706	158.353	0.072	-0.099
-155.691	42.728	0.214	-0.192
-154.677	-200.000	-0.040	0.197
-153.662	-0.103	-0.101	-0.071
-152.647	-200.000	-0.055	0.317
-151.633	-200.000	-0.032	0.187
-150.618	55.650	-0.259	0.247
-149.604	-32.375	0.121	0.066
-148.589	4.756	0.130	-0.094
-147.574	226.673	0.178	-0.284
-146.560	800.000	0.027	-0.113
-145.545	800.000	-0.035	0.121
-144.531	800.000	-0.092	-0.319
-143.516	502.824	0.090	0.205
-142.502	-200.000	0.044	0.353
-141.487	-86.771	-0.222	0.067
-140.472	-176.029	-0.210	-0.005
-139.458	5.391	0.110	-0.080
-138.443	-59.258	0.297	0.125
-137.429	-200.000	0.054	0.325
-136.414	-35.189	-0.159	-0.085
-135.399	38.440	-0.267	0.234
-134.385	800.000	0.144	-0.408
-133.370	160.667	-0.035	-0.048
-132.356	-200.000	-0.014	-0.138
-131.341	-113.785	0.255	-0.049
-130.326	41.704	0.186	-0.166
-129.312	-200.000	-0.010	0.047
-128.297	-104.503	0.198	-0.045
-127.283	123.976	0.037	0.046
-126.268	554.623	0.081	0.191
-125.253	-200.000	-0.015	-0.252
-124.239	-200.000	-0.050	0.342
-123.224	251.051	0.032	0.053
-122.210	-24.739	0.056	0.033
