DTS Sentinel unit serial number:	SN413079Multiplexer serial number:	ORYXHardware model number:	OX4-SRSoftware version number:	ORYX F/W v4.00 Oryx Data Collector v3.7.2.0data status	okinstallation	princeton_trtdifferential loss correction	single-endedforward channel	channel 3reverse channel	N/Adate	2019/09/17time	14:00:35forward acquisition time	60.00reverse acquisition time	0.00gamma	496.2192k internal	0.2301k external	0.2301temperature offset calibration	0.9958default loss term (dB/km)	0.3790temperature slope calibration	1.0000multiplexer offset coefficient	1.0000multiplexer slope coefficient	1.0000fibre end	0.00T internal ref (°C)	35.56T ext. ref 1 (°C)	0.41T ext. ref 2 (°C)	32.51length (m)	temperature (°C)	Stokes	anti-Stokes-747.200	800.000	0.138	0.530
-746.185	800.000	-0.050	0.188
-745.171	574.000	0.092	-0.229
-744.156	-3.079	0.148	0.105
-743.142	121.318	0.189	0.239
-742.127	30.168	0.224	0.195
-741.112	8.561	-0.131	0.100
-740.098	281.997	0.076	0.139
-739.083	-142.849	-0.089	0.009
-738.069	-42.469	-0.208	0.108
-737.054	14.233	0.140	0.111
-736.039	-200.000	-0.062	0.381
-735.025	186.462	0.121	0.183
-734.010	527.314	-0.031	-0.075
-732.996	-200.000	-0.011	0.077
-731.981	-200.000	0.058	-0.269
-730.966	331.152	-0.187	-0.368
-729.952	-46.336	-0.277	-0.139
-728.937	10.981	0.206	-0.161
-727.923	-200.000	0.008	-0.193
-726.908	64.229	-0.122	0.125
-725.894	173.138	-0.199	-0.293
-724.879	-200.000	-0.095	0.440
-723.864	-137.985	-0.379	0.043
-722.850	148.123	-0.061	-0.083
-721.835	-74.484	-0.274	-0.101
-720.821	-18.997	-0.077	0.049
-719.806	-200.000	0.018	-0.188
-718.791	433.311	0.129	-0.285
-717.777	800.000	-0.084	0.272
-716.762	419.652	0.077	-0.169
-715.748	27.720	0.252	0.217
-714.733	-13.632	-0.194	-0.128
-713.718	55.705	-0.150	-0.148
-712.704	520.122	-0.219	0.523
-711.689	-200.000	-0.055	0.523
-710.675	121.649	-0.211	0.267
-709.660	155.050	-0.142	0.198
-708.645	-200.000	-0.025	0.341
-707.631	-200.000	-0.019	0.345
-706.616	-95.506	0.190	-0.052
-705.602	764.598	-0.129	-0.357
-704.587	197.119	0.156	0.242
-703.572	521.285	0.284	0.679
-702.558	-68.526	0.129	0.051
-701.543	-170.811	0.236	0.008
-700.529	-200.000	-0.032	-0.256
-699.514	-200.000	0.078	0.393
-698.499	445.317	0.057	0.128
-697.485	81.310	-0.141	0.155
-696.470	521.020	0.119	-0.285
-695.456	-200.000	0.028	0.140
-694.441	127.884	0.134	-0.174
-693.426	-37.789	0.180	-0.098
-692.412	132.942	-0.156	-0.206
-691.397	195.295	-0.040	-0.062
-690.383	516.827	-0.053	-0.126
-689.368	-121.058	0.206	-0.035
-688.354	-36.679	-0.051	0.028
-687.339	-99.071	0.143	0.037
-686.324	-154.233	-0.206	0.014
-685.310	-200.000	-0.052	0.308
-684.295	-22.461	0.197	0.122
-683.281	-135.126	0.263	0.032
-682.266	-200.000	-0.049	-0.323
-681.251	-200.000	-0.003	0.181
-680.237	76.543	-0.284	-0.306
-679.222	-200.000	0.017	-0.183
-678.208	-62.025	-0.340	-0.144
-677.193	86.480	0.166	-0.186
-676.178	-105.742	-0.054	0.012
-675.164	5.886	-0.204	-0.154
-674.149	800.000	-0.065	0.195
-673.135	422.711	0.061	0.134
-672.120	182.636	0.031	-0.047
-671.105	17.847	-0.200	0.162
-670.091	139.254	-0.109	0.146
-669.076	-148.154	-0.229	-0.019
-668.062	127.701	0.124	-0.160
-667.047	-134.056	0.139	-0.017
-666.032	800.000	0.042	0.183
-665.018	151.909	-0.134	0.186
-664.003	800.000	-0.141	-0.589
-662.989	-96.659	0.131	-0.035
-661.974	218.192	-0.083	-0.135
-660.959	-88.388	0.059	0.018
-659.945	-94.674	-0.353	-0.097
-658.930	800.000	-0.100	-0.367
-657.916	243.954	-0.032	-0.055
-656.901	-200.000	-0.036	0.199
-655.886	-142.125	0.419	0.042
-654.872	187.598	-0.071	-0.108
-653.857	-51.220	-0.193	0.092
-652.843	-49.155	-0.229	-0.111
-651.828	-91.264	0.191	-0.056
-650.814	-120.718	-0.232	-0.040
-649.799	800.000	0.069	-0.209
-648.784	-34.736	-0.275	-0.153
-647.770	-107.371	-0.076	-0.017
-646.755	34.662	0.103	0.091
-645.741	-6.559	0.051	0.036
-644.726	-200.000	0.017	0.193
-643.711	28.700	-0.115	-0.099
-642.697	17.583	-0.153	-0.124
-641.682	-93.408	-0.315	-0.089
-640.668	-161.870	-0.149	0.008
-639.653	141.841	-0.155	-0.208
-638.638	-152.600	0.079	-0.006
-637.624	-10.619	0.167	0.112
-636.609	700.562	0.157	0.420
-635.595	800.000	0.068	-0.210
-634.580	71.070	-0.099	0.104
-633.565	-38.889	0.023	0.012
-632.551	-200.000	0.010	-0.158
-631.536	-182.698	0.239	-0.004
-630.522	-7.936	0.327	0.224
-629.507	386.781	-0.037	-0.078
-628.492	6.061	0.191	-0.143
-627.478	-121.888	0.473	-0.079
-626.463	128.147	-0.256	0.330
-625.449	7.313	0.465	0.352
-624.434	-200.000	0.002	-0.011
-623.419	-18.490	-0.216	-0.137
-622.405	59.376	-0.240	0.240
-621.390	759.468	0.113	-0.310
-620.376	-34.553	0.174	-0.097
-619.361	546.163	0.086	0.209
-618.346	-171.151	0.184	0.006
-617.332	321.958	0.072	0.139
-616.317	-13.508	-0.098	-0.064
-615.303	675.554	-0.090	0.236
-614.288	84.601	-0.372	0.413
-613.273	30.446	0.094	0.082
-612.259	-144.053	-0.152	0.014
-611.244	510.464	0.038	-0.091
-610.230	166.735	-0.111	-0.160
-609.215	-200.000	0.004	-0.167
-608.201	-40.581	0.161	-0.084
-607.186	-200.000	-0.053	-0.238
-606.171	95.237	0.089	-0.103
-605.157	-200.000	-0.013	-0.126
-604.142	159.769	0.112	-0.158
-603.128	18.098	0.183	-0.148
-602.113	-71.915	-0.110	0.042
-601.098	800.000	0.101	0.380
-600.084	421.146	-0.029	-0.063
-599.069	-41.474	0.170	-0.089
-598.055	-122.961	0.165	0.027
-597.040	157.266	0.162	-0.227
-596.025	800.000	-0.019	-0.057
-595.011	-135.132	0.149	0.018
-593.996	-124.772	0.422	-0.066
-592.982	-50.616	0.244	0.116
-591.967	-80.119	-0.200	-0.068
-590.952	508.724	0.066	0.156
-589.938	128.641	0.205	-0.265
-588.923	-99.692	0.099	-0.025
-587.909	159.784	-0.118	0.167
-586.894	-61.479	0.132	0.056
-585.879	67.111	0.046	-0.047
-584.865	-146.951	-0.228	-0.020
-583.850	-197.051	0.217	0.001
-582.836	800.000	0.003	-0.012
-581.821	-114.722	-0.091	-0.018
-580.806	-117.981	-0.210	-0.038
-579.792	393.579	0.046	0.098
-578.777	38.677	-0.160	-0.145
-577.763	-200.000	-0.019	0.152
-576.748	-200.000	-0.004	0.077
-575.733	-200.000	-0.051	-0.258
-574.719	-18.980	-0.077	-0.049
-573.704	-145.691	-0.283	-0.026
-572.690	-45.346	-0.157	0.079
-571.675	185.419	-0.189	0.284
-570.661	-167.444	0.144	0.006
-569.646	83.143	0.167	-0.184
-568.631	260.982	0.110	0.193
-567.617	372.916	-0.064	-0.131
-566.602	32.631	0.147	-0.129
-565.588	336.219	0.064	0.127
-564.573	491.381	0.102	0.237
-563.558	-200.000	0.015	0.191
-562.544	-200.000	0.021	-0.138
-561.529	55.525	0.163	0.160
-560.515	75.280	-0.106	-0.114
-559.500	-67.481	-0.142	0.056
-558.485	76.207	0.334	0.358
-557.471	148.823	0.229	0.314
-556.456	800.000	0.145	0.409
-555.442	87.086	0.146	0.163
-554.427	-151.870	-0.259	0.019
-553.412	60.953	0.254	0.255
-552.398	154.772	-0.121	0.168
-551.383	-57.944	-0.225	0.099
-550.369	-12.111	-0.124	-0.082
-549.354	507.300	-0.074	0.174
-548.339	314.257	-0.132	0.251
-547.325	80.974	-0.342	0.374
-546.310	39.479	0.098	0.089
-545.296	323.662	0.034	-0.066
-544.281	-200.000	0.008	0.059
-543.266	-38.663	-0.181	-0.097
-542.252	116.212	0.196	-0.243
-541.237	-200.000	-0.041	-0.195
-540.223	322.924	0.040	0.077
-539.208	-200.000	0.021	-0.276
-538.193	67.903	0.262	-0.271
-537.179	38.134	-0.073	-0.066
-536.164	-72.729	-0.283	-0.106
-535.150	-118.341	-0.134	-0.024
-534.135	157.248	-0.171	-0.240
-533.121	560.422	-0.073	0.178
-532.106	-80.686	-0.197	-0.066
-531.091	-37.497	-0.144	0.077
-530.077	24.623	-0.190	-0.159
-529.062	-31.742	-0.235	-0.133
-528.048	-133.461	0.179	-0.023
-527.033	105.956	0.171	-0.205
-526.018	-91.787	-0.184	0.053
-525.004	-131.143	0.476	0.064
-523.989	12.754	-0.123	0.096
-522.975	-200.000	-0.015	-0.133
-521.960	45.718	-0.302	-0.282
-520.945	95.801	0.124	-0.143
-519.931	123.506	0.131	0.166
-518.916	-114.665	-0.511	0.099
-517.902	-112.580	0.243	-0.049
-516.887	800.000	-0.071	0.298
-515.872	69.167	0.009	0.010
-514.858	-96.445	-0.149	0.040
-513.843	185.698	-0.101	0.152
-512.829	92.390	-0.171	0.194
-511.814	185.522	0.192	-0.289
-510.799	239.857	-0.015	0.026
-509.785	-114.162	0.172	0.034
-508.770	266.622	0.086	-0.152
-507.756	60.487	0.185	0.185
-506.741	-16.513	-0.348	0.223
-505.726	-200.000	0.005	0.035
-504.712	379.461	-0.015	0.032
-503.697	800.000	-0.033	0.099
-502.683	-26.086	-0.012	0.007
-501.668	-11.908	-0.392	0.259
-500.653	85.859	0.252	-0.280
-499.639	-35.384	0.100	0.055
-498.624	-81.821	0.131	0.043
-497.610	62.063	0.052	0.053
-496.595	207.259	-0.155	0.245
-495.581	-53.815	0.016	0.007
-494.566	151.812	0.092	0.127
-493.551	-28.795	-0.183	-0.106
-492.537	-161.484	0.210	0.011
-491.522	-91.585	0.222	-0.064
-490.508	-200.000	-0.028	0.350
-489.493	800.000	-0.035	0.119
-488.478	28.263	0.289	0.247
-487.464	-200.000	-0.005	-0.101
-486.449	632.510	0.079	0.201
-485.435	-200.000	0.011	-0.090
-484.420	-67.990	0.188	-0.074
-483.405	-34.578	0.206	-0.114
-482.391	-45.073	-0.298	0.150
-481.376	-55.535	0.111	-0.050
-480.362	-119.231	-0.572	0.101
-479.347	532.433	-0.091	0.217
-478.332	800.000	-0.065	-0.225
-477.318	56.633	0.021	0.021
-476.303	274.052	0.106	-0.189
-475.289	381.249	0.253	-0.523
-474.274	-117.910	-0.559	-0.101
-473.259	180.091	-0.136	0.200
-472.245	183.216	-0.092	0.137
-471.230	-200.000	-0.003	0.137
-470.216	-70.134	-0.182	-0.070
-469.201	43.091	0.241	-0.222
-468.186	276.656	0.118	0.212
-467.172	-24.583	-0.160	0.096
-466.157	-200.000	-0.002	-0.050
-465.143	-71.524	-0.449	-0.169
-464.128	144.185	0.097	-0.130
-463.113	800.000	-0.057	-0.216
-462.099	200.240	-0.060	-0.093
-461.084	210.344	0.111	-0.175
-460.070	-57.569	0.155	-0.068
-459.055	48.879	-0.105	0.099
-458.040	318.806	-0.068	0.130
-457.026	-83.854	-0.286	-0.092
-456.011	81.166	-0.224	0.244
-454.997	800.000	0.037	-0.106
-453.982	-40.421	-0.085	-0.044
-452.968	209.187	0.068	-0.107
-451.953	-186.054	0.246	0.004
-450.938	-162.941	-0.074	0.004
-449.924	352.470	-0.078	-0.155
-448.909	800.000	0.073	-0.253
-447.895	56.166	0.125	-0.122
-446.880	111.672	0.068	0.083
-445.865	-70.827	0.304	0.116
-444.851	334.726	0.065	-0.127
-443.836	81.751	-0.122	-0.133
-442.822	800.000	-0.023	0.094
-441.807	30.790	-0.252	0.217
-440.792	39.621	-0.282	-0.255
-439.778	7.915	-0.055	0.041
-438.763	149.915	-0.111	-0.151
-437.749	131.564	0.179	-0.231
-436.734	-200.000	0.022	0.383
-435.719	95.035	0.015	-0.018
-434.705	55.483	0.111	0.108
-433.690	-145.743	-0.110	0.010
-432.676	800.000	0.026	-0.071
-431.661	618.223	0.095	-0.239
-430.646	-200.000	0.002	0.289
-429.632	13.489	0.170	-0.133
-428.617	-151.770	-0.337	-0.025
-427.603	-98.604	0.134	-0.035
-426.588	-32.231	-0.480	-0.270
-425.573	22.487	0.073	-0.060
-424.559	208.048	0.144	-0.226
-423.544	93.522	-0.078	-0.089
-422.530	144.101	-0.111	0.149
-421.515	410.018	-0.008	-0.017
-420.500	-200.000	0.002	-0.159
-419.486	-200.000	0.025	0.139
-418.471	800.000	0.101	-0.366
-417.457	41.477	0.073	-0.067
-416.442	-131.874	0.345	-0.045
-415.428	418.047	0.102	0.219
-414.413	248.425	-0.100	0.170
-413.398	426.358	-0.152	-0.329
-412.384	-125.535	-0.485	-0.074
-411.369	-200.000	-0.022	-0.218
-410.355	-200.000	-0.014	0.436
-409.340	800.000	0.123	-0.471
-408.325	800.000	0.004	0.018
-407.311	800.000	-0.092	-0.302
-406.296	30.941	-0.229	0.197
-405.282	-85.254	0.166	0.052
-404.267	800.000	-0.130	0.436
-403.252	-57.537	0.102	-0.045
-402.238	-200.000	0.016	0.396
-401.223	-121.913	0.490	0.081
-400.209	-141.197	-0.326	0.033
-399.194	800.000	-0.082	-0.248
-398.179	280.913	0.013	0.023
-397.165	32.147	0.256	0.222
-396.150	800.000	-0.029	0.122
-395.136	32.076	0.205	0.177
-394.121	250.375	-0.141	0.241
-393.106	800.000	-0.094	-0.282
-392.092	5.201	0.053	-0.039
-391.077	-200.000	0.049	0.471
-390.063	50.336	0.223	0.212
-389.048	800.000	0.054	0.179
-388.033	-138.279	-0.040	-0.004
-387.019	583.601	-0.009	-0.021
-386.004	-144.245	-0.149	0.014
-384.990	-41.581	0.360	0.186
-383.975	-46.215	-0.121	0.060
-382.960	800.000	-0.058	-0.181
-381.946	252.436	0.129	-0.220
-380.931	800.000	-0.058	-0.196
-379.917	-19.592	0.245	0.153
-378.902	-95.684	-0.099	0.027
-377.888	188.240	0.094	0.141
-376.873	-136.589	-0.084	-0.010
-375.858	-17.402	0.205	0.130
-374.844	486.055	0.240	-0.550
-373.829	-200.000	0.000	-0.218
-372.815	-30.543	0.120	-0.069
-371.800	-200.000	-0.033	0.213
-370.785	800.000	0.012	-0.038
-369.771	178.555	-0.161	0.236
-368.756	-200.000	0.447	0.001
-367.742	161.412	-0.096	-0.135
-366.727	-87.972	0.018	0.006
-365.712	91.685	0.121	0.136
-364.698	-82.972	0.269	-0.087
-363.683	-200.000	-0.030	-0.211
-362.669	306.229	-0.082	0.153
-361.654	-20.257	-0.271	0.168
-360.639	207.493	-0.074	-0.115
-359.625	4.684	-0.207	0.153
-358.610	-200.000	0.037	0.188
-357.596	759.819	-0.037	0.101
-356.581	-154.491	0.483	-0.032
-355.566	28.411	-0.307	-0.261
-354.552	280.300	0.073	0.132
-353.537	-200.000	0.005	-0.096
-352.523	-200.000	0.012	0.221
-351.508	-84.127	-0.162	-0.052
-350.493	109.754	0.189	0.227
-349.479	-45.825	0.243	-0.120
-348.464	-167.705	-0.420	-0.017
-347.450	169.261	0.075	-0.108
-346.435	-1.975	0.357	-0.252
-345.420	432.981	0.157	-0.343
-344.406	-200.000	-0.001	-0.012
-343.391	40.942	-0.265	-0.240
-342.377	800.000	-0.099	-0.293
-341.362	-18.942	-0.193	0.121
-340.348	-91.467	0.217	-0.062
-339.333	473.434	0.104	0.235
-338.318	-47.669	0.155	0.075
-337.304	-200.000	-0.027	0.229
-336.289	-137.500	0.303	0.034
-335.275	800.000	0.020	-0.060
-334.260	-84.455	-0.237	-0.075
-333.245	-50.877	-0.117	0.055
-332.231	222.288	-0.076	-0.122
-331.216	269.126	-0.146	0.257
-330.202	-112.245	-0.284	0.057
-329.187	-135.518	-0.340	-0.041
-328.172	-10.670	-0.149	0.099
-327.158	-134.684	0.287	-0.035
-326.143	54.399	-0.388	-0.375
-325.129	-72.263	0.324	0.120
-324.114	87.056	0.151	0.168
-323.099	59.236	0.061	-0.061
-322.085	-109.667	-0.265	0.056
-321.070	-56.464	-0.055	0.024
-320.056	153.129	0.089	-0.122
-319.041	116.443	0.201	0.247
-318.026	-76.766	-0.153	0.054
-317.012	452.194	0.031	0.068
-315.997	-42.858	0.283	0.144
-314.983	-200.000	0.022	-0.269
-313.968	-68.018	0.339	-0.133
-312.953	-200.000	0.014	0.118
-311.939	84.425	-0.158	0.173
-310.924	110.026	-0.323	0.389
-309.910	152.849	-0.046	0.064
-308.895	800.000	-0.048	-0.132
-307.880	472.398	-0.062	-0.139
-306.866	40.733	-0.049	-0.044
-305.851	117.055	0.136	-0.168
-304.837	-51.824	-0.535	0.250
-303.822	11.167	-0.115	0.088
-302.807	162.451	-0.181	-0.255
-301.793	-46.046	-0.069	0.034
-300.778	562.648	0.128	-0.309
-299.764	800.000	-0.032	-0.090
-298.749	45.802	0.266	0.247
-297.735	-200.000	-0.030	-0.286
-296.720	-85.074	0.230	-0.072
-295.705	-137.652	0.353	0.040
-294.691	-81.870	-0.249	-0.082
-293.676	800.000	0.095	-0.264
-292.662	-90.200	0.151	-0.044
-291.647	460.214	0.053	0.117
-290.632	147.607	-0.177	0.239
-289.618	-30.943	0.231	-0.131
-288.603	11.682	0.388	-0.298
-287.589	-18.081	0.232	-0.145
-286.574	19.037	-0.180	0.144
-285.559	-200.000	-0.022	0.162
-284.545	87.620	0.094	-0.104
-283.530	72.161	-0.218	-0.227
-282.516	-46.056	0.130	-0.064
-281.501	-84.653	-0.153	-0.048
-280.486	-126.699	0.041	-0.006
-279.472	87.115	0.071	0.079
-278.457	314.674	0.015	0.028
-277.443	-200.000	0.019	-0.156
-276.428	-200.000	0.006	-0.235
-275.413	207.784	0.095	0.149
-274.399	-4.695	-0.136	0.094
-273.384	-200.000	0.044	0.213
-272.370	800.000	0.037	0.152
-271.355	49.323	0.086	0.081
-270.340	327.793	0.080	-0.154
-269.326	-86.029	-0.147	-0.045
-268.311	-200.000	-0.004	-0.171
-267.297	-158.869	0.184	-0.010
-266.282	-14.437	-0.044	-0.029
-265.267	657.917	-0.119	0.306
-264.253	206.934	0.204	-0.318
-263.238	-145.509	0.199	0.018
-262.224	206.100	-0.246	-0.382
-261.209	-44.464	-0.141	-0.071
-260.195	800.000	0.049	-0.208
-259.180	-123.678	0.239	-0.038
-258.165	-2.709	-0.185	0.129
-257.151	-200.000	-0.007	0.109
-256.136	-200.000	0.041	0.362
-255.122	124.799	0.087	0.110
-254.107	800.000	-0.054	0.204
-253.092	317.905	-0.096	0.181
-252.078	-43.103	0.360	-0.182
-251.063	-157.824	-0.224	0.013
-250.049	737.126	0.181	-0.485
-249.034	106.178	-0.200	-0.237
-248.019	-129.032	-0.207	-0.029
-247.005	-5.129	-0.269	-0.185
-245.990	155.955	0.012	0.016
-244.976	-139.331	-0.360	0.039
-243.961	-200.000	-0.009	-0.312
-242.946	-50.824	-0.057	-0.027
-241.932	96.304	0.192	0.220
-240.917	-30.628	0.129	-0.073
-239.903	-200.000	-0.067	0.391
-238.888	800.000	0.078	0.249
-237.873	800.000	-0.045	0.138
-236.859	-79.598	-0.269	-0.091
-235.844	212.491	-0.091	0.144
-234.830	-200.000	-0.027	0.194
-233.815	-66.172	-0.193	0.077
-232.800	800.000	-0.026	-0.089
-231.786	-17.933	0.083	0.052
-230.771	-200.000	0.028	-0.362
-229.757	-200.000	-0.034	-0.156
-228.742	-15.033	-0.345	-0.221
-227.727	-64.608	0.278	-0.113
-226.713	-49.924	0.271	0.128
-225.698	157.067	0.163	-0.225
-224.684	-64.360	-0.045	-0.018
-223.669	72.873	0.113	-0.117
-222.655	-200.000	-0.004	-0.220
-221.640	-98.522	-0.227	-0.058
-220.625	667.592	-0.049	-0.126
-219.611	39.581	0.094	-0.084
-218.596	639.239	0.118	0.299
-217.582	-13.385	-0.101	-0.065
-216.567	-125.472	-0.324	-0.049
-215.552	607.144	0.085	-0.211
-214.538	-72.094	-0.029	-0.011
-213.523	179.916	-0.127	-0.186
-212.509	-31.534	0.219	0.123
-211.494	-200.000	-0.006	0.216
-210.479	24.623	-0.068	0.056
-209.465	146.885	0.154	-0.207
-208.450	53.073	0.393	-0.376
-207.436	101.877	0.099	-0.115
-206.421	-200.000	-0.048	-0.270
-205.406	191.940	-0.229	-0.344
-204.392	547.723	0.081	-0.193
-203.377	-40.618	-0.219	0.113
-202.363	105.472	0.134	-0.158
-201.348	623.291	0.109	0.273
-200.333	517.509	-0.013	-0.031
-199.319	-9.039	-0.226	-0.151
-198.304	14.583	-0.216	-0.168
-197.290	169.228	0.090	-0.128
-196.275	800.000	0.051	0.157
-195.260	-200.000	-0.020	-0.102
-194.246	800.000	-0.072	-0.213
-193.231	41.677	0.432	0.390
-192.217	800.000	-0.050	-0.194
-191.202	-143.754	-0.357	-0.034
-190.187	-153.356	-0.378	-0.026
-189.173	-151.745	0.159	0.012
-188.158	-70.202	0.218	0.083
-187.144	-107.881	0.574	0.125
-186.129	-73.383	-0.302	0.110
-185.114	123.147	0.122	0.153
-184.100	522.558	-0.076	0.178
-183.085	169.844	0.050	0.071
-182.071	800.000	-0.100	0.291
-181.056	207.715	-0.134	0.208
-180.042	800.000	-0.057	0.208
-179.027	-143.380	-0.180	-0.017
-178.012	419.732	0.065	-0.138
-176.998	800.000	0.098	0.383
-175.983	1.028	-0.230	0.164
-174.969	20.482	-0.215	0.174
-173.954	-99.765	0.198	-0.049
-172.939	800.000	0.045	0.140
-171.925	688.466	0.045	0.118
-170.910	-115.696	0.128	0.024
-169.896	-200.000	0.034	0.168
-168.881	6.888	-0.138	0.102
-167.866	-200.000	0.017	0.139
-166.852	-58.352	0.273	0.118
-165.837	800.000	-0.014	-0.060
-164.823	-85.947	0.327	0.101
-163.808	200.012	0.147	0.226
-162.793	68.855	-0.083	0.085
-161.779	11.899	-0.376	0.288
-160.764	2.766	0.229	0.165
-159.750	-200.000	-0.007	0.178
-158.735	-14.501	-0.358	-0.229
-157.720	800.000	0.066	-0.240
-156.706	800.000	-0.077	-0.288
-155.691	800.000	-0.082	-0.281
-154.677	-200.000	0.019	-0.166
-153.662	800.000	0.019	-0.073
-152.647	-45.887	0.138	0.068
-151.633	-78.521	-0.101	-0.035
-150.618	248.919	-0.163	-0.275
-149.604	153.703	0.074	0.101
-148.589	-27.845	0.127	-0.074
-147.574	-95.130	-0.161	-0.043
-146.560	194.934	0.044	0.066
-145.545	-200.000	0.304	-0.000
-144.531	-47.292	-0.127	0.062
-143.516	-200.000	0.055	0.530
-142.502	44.156	0.201	-0.184
-141.487	-36.942	-0.165	-0.088
-140.472	94.435	0.100	0.113
-139.458	674.707	-0.112	0.290
-138.443	184.868	-0.229	0.339
-137.429	-72.049	0.166	-0.062
-136.414	671.880	-0.027	-0.070
-135.399	-200.000	0.010	-0.140
-134.385	800.000	0.125	0.458
-133.370	491.007	-0.020	0.046
-132.356	-200.000	-0.014	0.204
-131.341	401.771	-0.088	0.184
-130.326	199.630	0.217	-0.331
-129.312	800.000	-0.087	0.284
-128.297	-43.612	0.307	-0.154
-127.283	44.621	-0.245	-0.224
-126.268	16.359	0.283	0.222
-125.253	59.520	-0.263	0.258
-124.239	-14.554	0.182	0.116
-123.224	-107.384	-0.306	0.067
-122.210	-31.499	0.177	-0.099
-121.195	5.899	0.066	0.049
-120.180	256.625	-0.075	0.128
