DTS Sentinel unit serial number:	SN413079Multiplexer serial number:	ORYXHardware model number:	OX4-SRSoftware version number:	ORYX F/W v4.00 Oryx Data Collector v3.7.2.0data status	okinstallation	princeton_trtdifferential loss correction	single-endedforward channel	channel 3reverse channel	N/Adate	2019/09/17time	03:32:35forward acquisition time	60.00reverse acquisition time	0.00gamma	496.2192k internal	0.2323k external	0.2323temperature offset calibration	0.9945default loss term (dB/km)	0.3790temperature slope calibration	1.0000multiplexer offset coefficient	1.0000multiplexer slope coefficient	1.0000fibre end	0.00T internal ref (°C)	30.00T ext. ref 1 (°C)	0.13T ext. ref 2 (°C)	24.62length (m)	temperature (°C)	Stokes	anti-Stokes-747.200	120.803	0.064	-0.080
-746.185	-200.000	-0.033	-0.414
-745.171	-200.000	0.015	0.134
-744.156	99.098	0.088	-0.103
-743.142	800.000	0.070	0.202
-742.127	800.000	-0.070	0.247
-741.112	8.087	0.275	0.208
-740.098	668.463	0.212	0.554
-739.083	-200.000	-0.028	-0.137
-738.069	800.000	-0.095	0.265
-737.054	-102.844	0.119	0.029
-736.039	165.748	-0.033	0.048
-735.025	-200.000	-0.036	-0.396
-734.010	-46.586	0.391	-0.194
-732.996	47.652	-0.192	-0.180
-731.981	-67.995	-0.136	0.054
-730.966	-172.007	-0.250	0.008
-729.952	800.000	-0.058	0.171
-728.937	-200.000	-0.057	0.286
-727.923	-200.000	-0.102	-0.000
-726.908	188.607	0.193	-0.292
-725.894	-200.000	-0.023	-0.177
-724.879	-200.000	0.019	-0.185
-723.864	800.000	-0.011	-0.046
-722.850	45.419	-0.250	0.233
-721.835	-9.990	-0.211	0.142
-720.821	-188.134	0.148	-0.002
-719.806	17.462	-0.367	-0.294
-718.791	800.000	0.087	-0.294
-717.777	-50.233	0.148	0.071
-716.762	-16.385	-0.212	-0.136
-715.748	-109.920	0.177	0.037
-714.733	490.042	-0.238	-0.548
-713.718	-200.000	-0.022	-0.122
-712.704	45.044	-0.306	0.284
-711.689	-103.488	0.101	-0.024
-710.675	25.209	0.314	0.263
-709.660	800.000	0.154	-0.579
-708.645	-200.000	0.004	0.058
-707.631	-86.887	-0.145	0.045
-706.616	-0.637	-0.251	-0.179
-705.602	-200.000	0.042	-0.452
-704.587	50.312	0.271	0.259
-703.572	539.389	-0.047	0.112
-702.558	96.243	0.034	-0.039
-701.543	24.932	-0.030	0.025
-700.529	765.923	-0.040	0.109
-699.514	-50.160	0.315	-0.150
-698.499	32.138	-0.110	0.096
-697.485	261.046	0.192	-0.336
-696.470	-3.123	-0.329	0.231
-695.456	-200.000	0.002	-0.132
-694.441	147.405	0.055	0.074
-693.426	-2.187	0.195	-0.138
-692.412	-153.431	-0.044	-0.003
-691.397	-30.742	-0.530	-0.302
-690.383	-83.996	0.417	-0.134
-689.368	89.132	-0.059	0.067
-688.354	-191.455	-0.129	-0.001
-687.339	100.901	0.132	0.155
-686.324	-27.453	0.069	-0.040
-685.310	-53.121	-0.128	0.059
-684.295	-94.013	0.434	-0.120
-683.281	-156.608	0.346	-0.022
-682.266	-131.821	-0.175	0.023
-681.251	-17.216	0.258	-0.164
-680.237	25.144	-0.168	-0.140
-679.222	-200.000	-0.034	-0.193
-678.208	-51.436	-0.288	-0.135
-677.193	-28.756	0.340	0.197
-676.178	248.465	0.136	-0.231
-675.164	800.000	-0.029	-0.091
-674.149	435.568	-0.098	-0.215
-673.135	247.850	-0.172	-0.293
-672.120	-78.555	0.546	-0.188
-671.105	239.028	-0.155	0.260
-670.091	89.836	-0.238	-0.268
-669.076	800.000	0.103	0.356
-668.062	611.080	-0.096	-0.243
-667.047	-101.532	-0.421	-0.103
-666.032	24.012	0.290	-0.241
-665.018	-72.617	-0.205	-0.076
-664.003	-72.750	-0.217	0.080
-662.989	-200.000	-0.040	-0.249
-661.974	226.720	0.077	0.126
-660.959	-22.557	-0.115	0.070
-659.945	599.006	0.089	-0.222
-658.930	90.095	0.120	0.135
-657.916	-13.877	0.314	-0.204
-656.901	71.992	0.216	-0.226
-655.886	-16.578	-0.019	-0.012
-654.872	76.615	-0.156	0.167
-653.857	487.322	-0.095	0.219
-652.843	-200.000	0.026	-0.191
-651.828	-15.929	-0.171	-0.109
-650.814	-67.597	0.013	0.005
-649.799	314.680	0.112	-0.212
-648.784	-70.080	-0.123	-0.047
-647.770	227.873	-0.220	0.361
-646.755	-161.878	-0.152	0.008
-645.741	-6.787	-0.342	-0.234
-644.726	52.529	0.085	0.082
-643.711	87.831	-0.146	0.163
-642.697	-110.211	-0.353	-0.074
-641.682	-109.554	-0.419	-0.089
-640.668	214.459	0.079	0.126
-639.653	-200.000	0.018	0.230
-638.638	108.040	0.144	0.173
-637.624	-170.658	0.102	-0.004
-636.609	-137.683	-0.225	-0.025
-635.595	-65.144	-0.246	0.100
-634.580	7.347	0.129	0.097
-633.565	82.087	-0.012	0.013
-632.551	-135.125	0.208	0.025
-631.536	-77.246	-0.377	0.132
-630.522	-113.284	-0.168	0.033
-629.507	-39.744	-0.123	0.065
-628.492	-121.898	-0.142	0.023
-627.478	-43.531	0.237	0.121
-626.463	-200.000	0.025	0.242
-625.449	-145.961	-0.195	0.017
-624.434	-8.131	-0.378	0.256
-623.419	-60.955	0.073	0.031
-622.405	218.972	0.066	-0.106
-621.390	-79.957	-0.101	0.034
-620.376	-15.482	0.164	0.105
-619.361	-98.170	-0.162	-0.042
-618.346	137.846	-0.146	0.193
-617.332	254.170	-0.165	0.283
-616.317	-52.153	0.291	0.136
-615.303	-77.655	-0.264	0.092
-614.288	-73.820	0.535	-0.195
-613.273	-153.549	0.079	-0.005
-612.259	-65.369	-0.337	-0.136
-611.244	119.233	0.084	-0.104
-610.230	-200.000	-0.014	-0.190
-609.215	800.000	0.065	-0.276
-608.201	194.431	0.252	-0.384
-607.186	317.980	-0.186	-0.354
-606.171	-111.617	0.121	-0.025
-605.157	-200.000	-0.027	0.179
-604.142	329.717	-0.070	-0.135
-603.128	59.334	-0.084	-0.083
-602.113	-200.000	0.027	-0.235
-601.098	800.000	0.057	0.243
-600.084	708.071	0.077	0.204
-599.069	-138.045	0.178	-0.020
-598.055	23.608	0.153	0.126
-597.040	70.381	0.168	0.175
-596.025	-156.335	0.198	-0.012
-595.011	391.978	0.193	-0.402
-593.996	-57.473	0.243	0.107
-592.982	-76.775	-0.227	0.080
-591.967	46.658	0.374	0.348
-590.952	404.097	-0.137	-0.289
-589.938	-144.459	0.086	0.008
-588.923	131.357	-0.312	-0.403
-587.909	-200.000	0.028	-0.140
-586.894	-200.000	0.049	-0.247
-585.879	48.342	-0.138	0.129
-584.865	800.000	-0.057	0.233
-583.850	44.454	0.265	0.245
-582.836	765.699	0.018	0.048
-581.821	-95.114	-0.256	-0.069
-580.806	-15.140	-0.265	-0.170
-579.792	-75.232	-0.206	-0.074
-578.777	61.212	-0.045	-0.045
-577.763	63.070	-0.148	0.149
-576.748	325.447	-0.102	-0.196
-575.733	165.717	0.154	-0.219
-574.719	11.820	0.144	0.111
-573.704	-200.000	0.005	-0.348
-572.690	800.000	-0.085	0.323
-571.675	28.074	0.255	0.216
-570.661	648.033	-0.093	0.238
-569.646	-200.000	-0.003	-0.174
-568.631	-59.711	-0.158	-0.068
-567.617	29.726	0.108	0.092
-566.602	-19.901	0.119	0.074
-565.588	-200.000	-0.034	-0.211
-564.573	341.357	-0.101	0.199
-563.558	-73.467	-0.377	-0.138
-562.544	-200.000	0.000	-0.091
-561.529	114.334	0.185	-0.226
-560.515	72.806	-0.202	-0.212
-559.500	-112.521	-0.222	-0.044
-558.485	-200.000	-0.026	0.167
-557.471	74.092	0.088	-0.092
-556.456	122.482	-0.335	-0.420
-555.442	700.713	-0.132	-0.349
-554.427	271.223	-0.100	-0.176
-553.412	-2.154	0.222	-0.156
-552.398	-200.000	0.013	-0.149
-551.383	62.884	0.253	0.254
-550.369	70.429	0.278	0.289
-549.354	-94.233	-0.201	0.055
-548.339	-148.827	-0.195	-0.016
-547.325	-135.958	0.142	0.017
-546.310	7.001	0.153	0.114
-545.296	23.996	-0.174	0.144
-544.281	155.096	-0.053	0.073
-543.266	58.847	0.174	0.171
-542.252	-59.254	0.196	0.085
-541.237	-26.721	-0.034	-0.020
-540.223	0.044	0.275	-0.196
-539.208	199.485	0.035	-0.054
-538.193	67.235	-0.034	-0.035
-537.179	-94.107	-0.388	-0.107
-536.164	-200.000	0.036	0.421
-535.150	-116.002	0.169	-0.032
-534.135	-49.917	-0.148	-0.070
-533.121	800.000	0.069	0.206
-532.106	-40.262	0.173	-0.090
-531.091	17.855	-0.259	0.206
-530.077	-32.078	0.222	0.124
-529.062	34.359	-0.081	-0.070
-528.048	-200.000	0.021	0.254
-527.033	442.079	-0.094	0.206
-526.018	-54.976	0.260	-0.117
-525.004	-87.191	0.011	-0.003
-523.989	-200.000	0.026	0.115
-522.975	392.125	-0.147	-0.306
-521.960	-124.141	-0.164	0.026
-520.945	263.940	-0.173	-0.302
-519.931	-150.604	0.297	-0.023
-518.916	-144.648	-0.111	-0.010
-517.902	397.381	-0.073	0.152
-516.887	-200.000	0.018	0.145
-515.872	-1.814	0.289	0.204
-514.858	-109.176	0.069	0.015
-513.843	-38.327	0.171	0.090
-512.829	346.531	-0.133	-0.262
-511.814	-46.259	0.149	-0.073
-510.799	3.046	-0.144	0.105
-509.785	12.677	0.150	-0.116
-508.770	468.920	-0.057	0.128
-507.756	-100.229	-0.300	-0.075
-506.741	-79.742	-0.126	0.043
-505.726	-85.606	-0.189	-0.059
-504.712	800.000	-0.064	0.218
-503.697	27.201	-0.072	-0.061
-502.683	68.882	0.269	-0.277
-501.668	-200.000	0.001	-0.116
-500.653	-200.000	0.035	0.222
-499.639	155.411	-0.190	0.262
-498.624	-200.000	-0.053	0.256
-497.610	800.000	-0.084	-0.268
-496.595	159.097	0.165	0.230
-495.581	-152.050	0.061	0.004
-494.566	-86.703	0.160	0.049
-493.551	800.000	-0.066	-0.239
-492.537	-12.971	-0.327	-0.212
-491.522	-200.000	-0.012	-0.070
-490.508	28.703	0.175	0.148
-489.493	-200.000	-0.028	0.175
-488.478	-79.372	-0.343	0.116
-487.464	112.599	-0.383	0.464
-486.449	143.097	-0.083	-0.110
-485.435	-200.000	0.055	0.265
-484.420	327.949	-0.063	0.120
-483.405	-161.432	-0.245	0.013
-482.391	385.303	0.045	0.092
-481.376	58.428	0.188	-0.185
-480.362	-200.000	0.053	-0.455
-479.347	660.231	0.020	0.052
-478.332	-200.000	-0.041	-0.256
-477.318	-5.644	0.179	-0.123
-476.303	157.564	0.123	-0.170
-475.289	-200.000	-0.059	0.291
-474.274	-139.855	-0.300	0.032
-473.259	-200.000	0.005	-0.160
-472.245	-70.936	-0.329	-0.124
-471.230	-144.385	-0.311	-0.029
-470.216	-137.837	-0.301	-0.034
-469.201	45.330	-0.095	-0.087
-468.186	149.039	0.085	0.115
-467.172	-105.710	0.340	0.077
-466.157	-143.921	-0.153	-0.014
-465.143	800.000	-0.044	0.164
-464.128	-42.359	-0.191	-0.097
-463.113	335.033	0.131	-0.253
-462.099	-200.000	-0.028	-0.225
-461.084	-24.675	0.175	0.104
-460.070	-33.401	-0.117	-0.064
-459.055	567.812	-0.052	-0.127
-458.040	-56.149	0.163	0.072
-457.026	200.350	-0.086	0.132
-456.011	800.000	-0.077	0.236
-454.997	-15.158	-0.257	0.165
-453.982	148.471	0.073	0.098
-452.968	-200.000	0.032	-0.234
-451.953	259.820	0.018	-0.031
-450.938	-51.755	-0.178	0.083
-449.924	526.101	-0.110	0.258
-448.909	75.428	0.268	0.282
-447.895	-148.670	-0.278	0.023
-446.880	352.600	-0.056	-0.110
-445.865	137.949	-0.134	0.176
-444.851	-3.202	-0.022	0.015
-443.836	-7.512	-0.129	-0.087
-442.822	-44.790	0.090	-0.045
-441.807	9.899	0.192	-0.146
-440.792	-115.153	0.216	-0.041
-439.778	77.872	-0.132	-0.140
-438.763	85.911	0.095	-0.104
-437.749	800.000	-0.084	0.262
-436.734	800.000	0.063	-0.187
-435.719	-200.000	-0.006	0.095
-434.705	-137.284	-0.498	-0.057
-433.690	73.635	0.080	0.084
-432.676	-42.611	0.103	0.052
-431.661	-39.411	0.127	-0.066
-430.646	40.748	0.285	-0.256
-429.632	673.460	-0.047	-0.121
-428.617	15.582	0.196	-0.154
-427.603	645.642	-0.040	0.102
-426.588	76.666	-0.287	0.304
-425.573	800.000	-0.063	0.195
-424.559	-156.582	0.106	0.007
-423.544	800.000	0.096	0.332
-422.530	-70.073	-0.232	-0.088
-421.515	-166.233	-0.170	0.007
-420.500	169.755	0.209	-0.297
-419.486	93.865	0.144	-0.163
-418.471	-146.274	-0.096	-0.008
-417.457	243.626	0.097	0.162
-416.442	-130.990	-0.221	0.029
-415.428	497.576	0.070	-0.161
-414.413	20.716	0.205	-0.166
-413.398	132.460	0.111	0.143
-412.384	195.113	-0.223	0.337
-411.369	-126.389	-0.284	0.042
-410.355	-44.360	-0.335	-0.167
-409.340	-200.000	-0.002	-0.077
-408.325	-12.331	-0.208	0.135
-407.311	57.503	-0.142	0.138
-406.296	230.646	-0.024	0.040
-405.282	-145.169	-0.187	0.017
-404.267	-146.558	-0.049	-0.004
-403.252	-7.389	-0.151	0.102
-402.238	-200.000	-0.003	-0.153
-401.223	-52.116	0.282	-0.130
-400.209	-48.657	0.364	0.174
-399.194	620.309	0.112	0.281
-398.179	496.539	-0.050	0.114
-397.165	193.796	-0.095	-0.143
-396.150	-83.678	-0.073	0.023
-395.136	-18.688	0.114	0.071
-394.121	210.099	-0.185	-0.290
-393.106	380.224	-0.073	0.148
-392.092	138.193	0.177	0.232
-391.077	-200.000	-0.009	-0.075
-390.063	40.352	0.268	0.240
-389.048	800.000	-0.049	0.159
-388.033	800.000	-0.073	0.277
-387.019	-96.101	-0.225	-0.059
-386.004	-171.025	0.334	0.011
-384.990	-85.000	0.062	-0.019
-383.975	458.639	0.231	0.512
-382.960	38.652	0.361	-0.321
-381.946	209.115	-0.122	-0.189
-380.931	151.426	-0.107	0.145
-379.917	-200.000	0.014	0.133
-378.902	83.001	-0.085	-0.092
-377.888	-200.000	-0.011	0.168
-376.873	800.000	0.075	-0.228
-375.858	-200.000	0.042	0.241
-374.844	24.166	0.069	0.057
-373.829	-200.000	-0.005	0.159
-372.815	-8.087	0.161	-0.108
-371.800	-200.000	-0.004	0.448
-370.785	-39.434	0.277	-0.145
-369.771	549.921	-0.059	0.142
-368.756	-99.078	0.075	-0.019
-367.742	449.570	-0.111	-0.245
-366.727	4.308	-0.117	-0.085
-365.712	176.738	-0.127	-0.184
-364.698	-200.000	0.031	-0.456
-363.683	-105.878	0.374	0.084
-362.669	-200.000	0.044	0.291
-361.654	435.284	-0.071	0.154
-360.639	153.281	0.096	-0.131
-359.625	-200.000	0.035	-0.381
-358.610	101.614	-0.205	-0.238
-357.596	682.914	-0.087	-0.226
-356.581	110.331	-0.263	0.314
-355.566	-200.000	0.058	0.321
-354.552	-10.873	0.356	-0.234
-353.537	114.222	-0.054	-0.066
-352.523	24.541	-0.312	-0.257
-351.508	70.356	-0.210	0.215
-350.493	139.936	0.179	-0.235
-349.479	759.084	-0.085	-0.230
-348.464	800.000	0.042	0.147
-347.450	-91.988	0.189	-0.053
-346.435	256.411	0.124	0.212
-345.420	-8.528	-0.245	0.164
-344.406	304.321	0.050	0.092
-343.391	-92.446	0.231	0.065
-342.377	-200.000	-0.011	0.168
-341.362	-63.029	0.176	0.072
-340.348	-25.237	-0.202	0.119
-339.333	-103.242	0.139	-0.033
-338.318	-67.456	0.219	-0.086
-337.304	-95.027	0.112	0.030
-336.289	-115.603	0.424	-0.079
-335.275	-142.778	0.186	0.018
-334.260	36.504	0.117	0.102
-333.245	800.000	0.156	0.437
-332.231	34.271	0.306	-0.265
-331.216	260.619	0.140	0.241
-330.202	-84.947	-0.176	0.055
-329.187	-64.658	0.103	0.042
-328.172	800.000	-0.156	-0.571
-327.158	-50.694	-0.261	-0.122
-326.143	174.092	-0.198	-0.284
-325.129	-163.062	-0.364	-0.017
-324.114	-52.332	0.097	-0.045
-323.099	800.000	0.113	-0.368
-322.085	-200.000	-0.008	0.074
-321.070	-57.727	0.549	-0.239
-320.056	-196.645	0.207	0.001
-319.041	-200.000	-0.059	-0.357
-318.026	-200.000	0.075	0.412
-317.012	9.158	-0.094	0.070
-315.997	-200.000	0.038	0.332
-314.983	-67.986	-0.265	-0.103
-313.968	36.229	0.033	0.029
-312.953	-24.020	0.033	0.019
-311.939	2.087	-0.161	-0.116
-310.924	32.999	-0.138	-0.119
-309.910	172.632	0.163	0.233
-308.895	-129.617	0.349	0.048
-307.880	721.811	0.036	0.094
-306.866	-200.000	-0.004	-0.036
-305.851	2.742	0.169	0.122
-304.837	-93.981	-0.127	-0.035
-303.822	-200.000	0.058	-0.303
-302.807	-200.000	0.021	-0.097
-301.793	-130.866	-0.322	-0.043
-300.778	-200.000	0.041	-0.209
-299.764	-200.000	-0.065	-0.324
-298.749	-200.000	-0.023	-0.331
-297.735	-106.951	-0.296	0.065
-296.720	-95.098	0.288	-0.077
-295.705	61.632	0.055	0.054
-294.691	-49.408	-0.406	-0.192
-293.676	14.525	0.121	-0.093
-292.662	-200.000	0.151	0.000
-291.647	211.638	-0.148	-0.231
-290.632	-167.382	0.209	0.008
-289.618	9.511	-0.064	0.048
-288.603	335.960	-0.131	0.253
-287.589	-73.869	-0.261	-0.094
-286.574	177.180	0.130	0.187
-285.559	800.000	0.142	-0.495
-284.545	-200.000	0.015	-0.434
-283.530	-3.726	0.207	-0.142
-282.516	139.209	-0.183	-0.238
-281.501	21.745	-0.208	-0.168
-280.486	-114.512	0.164	-0.031
-279.472	800.000	0.075	0.245
-278.457	369.291	0.130	-0.262
-277.443	-142.150	-0.172	-0.017
-276.428	-188.035	-0.219	-0.003
-275.413	738.761	-0.104	0.277
-274.399	800.000	-0.050	0.140
-273.384	800.000	0.144	0.495
-272.370	171.904	-0.187	0.267
-271.355	25.441	0.201	0.166
-270.340	-196.275	0.083	-0.001
-269.326	-200.000	-0.209	0.000
-268.311	266.366	-0.029	-0.050
-267.297	-2.981	-0.059	0.041
-266.282	-200.000	0.069	-0.580
-265.267	-160.768	0.336	-0.018
-264.253	76.084	-0.240	-0.252
-263.238	800.000	-0.071	-0.277
-262.224	-200.000	-0.063	-0.330
-261.209	157.366	0.058	0.079
-260.195	-78.723	-0.275	-0.093
-259.180	-105.864	-0.113	-0.025
-258.165	40.214	-0.329	-0.293
-257.151	120.330	-0.081	-0.100
-256.136	-200.000	0.011	0.106
-255.122	-200.000	-0.008	0.191
-254.107	-68.272	-0.139	0.053
-253.092	-44.481	-0.063	-0.031
-252.078	128.567	0.168	0.212
-251.063	-135.786	-0.182	-0.021
-250.049	100.395	0.232	-0.267
-249.034	-200.000	0.048	-0.334
-248.019	-40.911	-0.053	-0.027
-247.005	-33.521	0.288	0.158
-245.990	227.572	-0.138	0.222
-244.976	-182.276	0.062	-0.001
-243.961	243.603	-0.096	0.160
-242.946	62.698	-0.245	0.243
-241.932	45.560	0.077	0.070
-240.917	39.648	0.385	0.342
-239.903	-115.013	0.104	0.020
-238.888	144.858	-0.149	-0.197
-237.873	-129.915	0.162	0.022
-236.859	75.510	0.033	-0.034
-235.844	41.596	0.374	0.335
-234.830	85.859	0.122	0.133
-233.815	800.000	-0.006	0.025
-232.800	-200.000	0.024	0.282
-231.786	800.000	-0.092	-0.262
-230.771	72.888	0.144	-0.149
-229.757	-83.842	0.123	0.039
-228.742	71.344	0.180	-0.185
-227.727	-200.000	-0.045	-0.363
-226.713	-90.768	0.084	0.024
-225.698	-89.146	-0.201	-0.059
-224.684	-134.972	0.333	0.040
-223.669	12.068	-0.243	-0.185
-222.655	-200.000	0.014	0.255
-221.640	-65.245	-0.187	0.075
-220.625	-47.577	-0.166	-0.080
-219.611	292.070	0.166	0.299
-218.596	-56.248	0.023	0.010
-217.582	-200.000	-0.023	-0.127
-216.567	-135.979	-0.142	-0.017
-215.552	-141.906	-0.299	0.030
-214.538	-200.000	-0.009	-0.085
-213.523	62.397	-0.228	0.226
-212.509	-200.000	-0.002	-0.102
-211.494	-40.124	0.121	0.062
-210.479	58.821	0.096	-0.093
-209.465	8.901	0.378	-0.282
-208.450	308.854	0.205	-0.379
-207.436	-19.808	0.175	0.107
-206.421	266.707	-0.030	-0.052
-205.406	95.577	0.185	0.209
-204.392	145.044	0.255	0.337
-203.377	-3.369	-0.216	0.149
-202.363	39.407	-0.157	0.139
-201.348	-122.765	0.411	0.066
-200.333	-200.000	-0.030	0.259
-199.319	-52.330	0.067	0.031
-198.304	-125.918	-0.329	-0.049
-197.290	-161.179	-0.175	-0.009
-196.275	-151.854	0.236	0.017
-195.260	-200.000	0.025	0.144
-194.246	-200.000	0.024	-0.214
-193.231	18.401	0.352	-0.278
-192.217	-106.394	0.198	0.044
-191.202	800.000	0.046	0.151
-190.187	-156.231	0.143	-0.009
-189.173	-9.518	0.101	0.066
-188.158	146.039	0.138	0.183
-187.144	-34.417	-0.126	-0.068
-186.129	351.192	-0.049	-0.096
-185.114	8.588	0.248	-0.185
-184.100	-98.867	0.105	-0.026
-183.085	280.306	0.107	0.190
-182.071	-81.422	-0.056	-0.018
-181.056	56.559	0.214	0.206
-180.042	-200.000	-0.031	0.403
-179.027	-56.593	0.146	-0.064
-178.012	15.866	-0.094	-0.073
-176.998	-6.265	0.098	0.066
-175.983	49.153	-0.194	0.180
-174.969	7.869	0.277	0.205
-173.954	-138.556	-0.346	-0.038
-172.939	-100.561	0.252	-0.061
-171.925	-84.591	0.204	-0.064
-170.910	538.150	-0.049	-0.115
-169.896	365.734	-0.033	0.066
-168.881	468.417	0.077	-0.171
-167.866	233.157	-0.152	-0.247
-166.852	96.835	0.137	-0.155
-165.837	355.232	0.062	-0.121
-164.823	22.363	0.218	-0.176
-163.808	800.000	0.085	0.312
-162.793	319.119	0.106	0.198
-161.779	34.972	0.280	-0.242
-160.764	784.170	0.038	0.103
-159.750	-54.663	0.186	-0.083
-158.735	-113.168	0.279	0.054
-157.720	480.806	-0.025	0.055
-156.706	467.856	-0.073	0.161
-155.691	-9.796	0.173	-0.114
-154.677	112.602	-0.232	-0.277
-153.662	-60.165	-0.216	0.091
-152.647	0.399	-0.045	-0.032
-151.633	-97.817	-0.207	0.053
-150.618	-200.000	0.006	-0.187
-149.604	-200.000	0.027	-0.219
-148.589	137.211	0.129	-0.167
-147.574	-71.265	-0.041	0.015
-146.560	800.000	-0.029	0.114
-145.545	224.533	0.058	-0.092
-144.531	-200.000	-0.036	0.192
-143.516	-38.675	0.227	-0.118
-142.502	587.209	0.170	-0.412
-141.487	64.495	-0.281	0.279
-140.472	-200.000	-0.034	-0.199
-139.458	-99.996	-0.164	0.040
-138.443	-9.832	-0.308	0.202
-137.429	15.850	0.172	0.134
-136.414	146.612	-0.154	0.205
-135.399	800.000	0.046	-0.139
-134.385	-88.103	-0.240	0.071
-133.370	49.505	-0.165	0.154
-132.356	-100.620	0.130	-0.032
-131.341	-39.728	-0.125	-0.065
-130.326	93.449	0.048	-0.054
-129.312	98.209	-0.067	0.076
-128.297	222.741	-0.214	0.340
-127.283	-13.459	0.209	0.133
-126.268	-32.632	-0.065	-0.036
-125.253	25.201	0.109	0.090
-124.239	-200.000	-0.016	0.179
-123.224	268.242	0.148	-0.256
-122.210	15.460	0.189	0.146
-121.195	-200.000	-0.014	-0.180
-120.180	45.397	-0.264	0.240
