DTS Sentinel unit serial number:	SN413079Multiplexer serial number:	ORYXHardware model number:	OX4-SRSoftware version number:	ORYX F/W v4.00 Oryx Data Collector v3.7.2.0data status	okinstallation	princeton_trtdifferential loss correction	single-endedforward channel	channel 3reverse channel	N/Adate	2019/09/13time	11:20:34forward acquisition time	60.00reverse acquisition time	0.00gamma	496.2192k internal	0.2315k external	0.2315temperature offset calibration	1.0145default loss term (dB/km)	0.3790temperature slope calibration	1.0000multiplexer offset coefficient	1.0000multiplexer slope coefficient	1.0000fibre end	0.00T internal ref (°C)	32.44T ext. ref 1 (°C)	4.70T ext. ref 2 (°C)	29.61length (m)	temperature (°C)	Stokes	anti-Stokes-747.200	800.000	-0.050	-0.167
-746.185	-60.110	-0.158	0.068
-745.171	-71.357	0.160	0.061
-744.156	800.000	0.040	0.129
-743.142	-79.735	0.246	-0.084
-742.127	-29.124	0.085	0.049
-741.112	-88.734	-0.605	0.182
-740.098	196.143	0.234	0.361
-739.083	264.603	-0.049	-0.087
-738.069	800.000	0.056	0.170
-737.054	110.498	0.141	0.172
-736.039	-134.646	-0.229	-0.028
-735.025	-2.569	-0.147	0.104
-734.010	537.660	0.089	-0.213
-732.996	1.544	-0.069	0.050
-731.981	-200.000	0.021	-0.148
-730.966	127.502	0.056	0.072
-729.952	800.000	-0.101	0.339
-728.937	-143.875	-0.520	-0.050
-727.923	496.030	-0.090	-0.210
-726.908	-123.221	-0.214	0.035
-725.894	-200.000	0.033	-0.190
-724.879	-83.191	-0.284	-0.093
-723.864	6.386	-0.188	0.142
-722.850	-94.503	0.134	-0.037
-721.835	800.000	0.072	-0.303
-720.821	222.733	0.218	-0.356
-719.806	631.945	0.034	0.088
-718.791	11.920	0.253	-0.197
-717.777	-191.528	-0.145	-0.001
-716.762	-44.546	-0.562	-0.285
-715.748	-8.966	0.287	-0.194
-714.733	-10.309	-0.080	-0.053
-713.718	535.964	-0.090	0.216
-712.704	81.008	0.076	-0.083
-711.689	-21.489	0.146	-0.090
-710.675	-62.048	0.135	-0.057
-709.660	229.556	0.073	0.121
-708.645	-200.000	-0.035	-0.236
-707.631	-96.375	0.192	0.051
-706.616	517.985	-0.150	0.355
-705.602	160.765	0.102	0.144
-704.587	800.000	0.040	0.126
-703.572	-200.000	-0.058	-0.299
-702.558	110.305	-0.114	0.139
-701.543	403.386	0.082	-0.174
-700.529	104.567	0.201	0.239
-699.514	-200.000	0.035	0.274
-698.499	600.151	-0.020	0.051
-697.485	800.000	0.043	-0.149
-696.470	-100.274	0.224	0.056
-695.456	22.394	-0.178	-0.147
-694.441	-200.000	0.004	-0.464
-693.426	-24.064	-0.230	0.139
-692.412	261.773	0.065	-0.114
-691.397	122.290	0.106	0.133
-690.383	-8.400	-0.174	-0.118
-689.368	364.024	0.160	-0.325
-688.354	110.259	0.145	0.176
-687.339	-113.124	0.251	0.050
-686.324	-13.297	-0.309	-0.203
-685.310	-109.547	-0.220	-0.047
-684.295	-200.000	-0.013	0.149
-683.281	-129.886	0.413	0.057
-682.266	482.471	-0.145	-0.332
-681.251	7.673	-0.330	0.250
-680.237	-23.003	-0.195	0.119
-679.222	23.827	-0.097	-0.081
-678.208	485.317	0.089	0.205
-677.193	269.259	-0.050	-0.090
-676.178	-52.818	-0.206	-0.096
-675.164	304.510	-0.092	0.172
-674.149	800.000	0.037	-0.116
-673.135	-200.000	0.000	-0.083
-672.120	-139.314	-0.338	0.037
-671.105	-200.000	0.070	0.336
-670.091	52.775	0.133	0.129
-669.076	423.860	-0.154	0.335
-668.062	-57.028	0.490	-0.218
-667.047	800.000	-0.076	-0.309
-666.032	-131.213	-0.424	-0.057
-665.018	-41.936	0.087	0.045
-664.003	800.000	0.053	-0.156
-662.989	800.000	-0.010	0.040
-661.974	-24.570	-0.159	-0.096
-660.959	582.360	-0.087	0.215
-659.945	-26.045	-0.152	-0.090
-658.930	-167.756	-0.130	0.005
-657.916	7.068	0.079	-0.059
-656.901	25.507	-0.193	-0.162
-655.886	-94.451	0.103	-0.028
-654.872	125.515	-0.031	-0.040
-653.857	-58.168	0.169	0.074
-652.843	216.164	-0.163	0.262
-651.828	177.468	-0.236	0.348
-650.814	-200.000	-0.070	0.344
-649.799	-78.098	0.304	-0.105
-648.784	107.864	-0.009	-0.011
-647.770	-147.161	0.358	0.031
-646.755	-200.000	0.017	0.127
-645.741	778.244	-0.092	0.253
-644.726	-200.000	0.017	0.085
-643.711	-108.599	-0.490	0.106
-642.697	3.368	-0.185	0.136
-641.682	-125.467	0.318	-0.049
-640.668	40.636	-0.165	0.150
-639.653	659.932	-0.059	0.153
-638.638	-105.636	-0.169	-0.039
-637.624	-12.911	-0.363	-0.238
-636.609	-43.946	0.087	0.044
-635.595	-39.217	-0.121	-0.064
-634.580	-200.000	-0.021	-0.116
-633.565	5.968	-0.086	-0.065
-632.551	-145.066	0.181	0.017
-631.536	800.000	-0.081	0.265
-630.522	479.475	0.080	0.183
-629.507	452.589	-0.044	0.098
-628.492	-26.107	-0.134	-0.080
-627.478	-9.251	0.099	-0.067
-626.463	-103.970	-0.195	-0.046
-625.449	276.248	-0.114	-0.204
-624.434	-78.507	-0.246	-0.085
-623.419	800.000	0.080	-0.346
-622.405	-200.000	0.045	-0.505
-621.390	440.968	0.070	0.154
-620.376	-78.981	-0.393	-0.135
-619.361	-200.000	0.061	0.349
-618.346	-17.294	-0.282	-0.179
-617.332	-120.252	0.132	0.023
-616.317	-200.000	0.032	-0.229
-615.303	-200.000	0.004	-0.044
-614.288	11.594	-0.115	-0.089
-613.273	-113.191	0.145	0.029
-612.259	-149.680	0.415	0.033
-611.244	-111.749	-0.376	0.077
-610.230	313.396	0.041	0.078
-609.215	-122.456	0.219	0.036
-608.201	-59.340	-0.168	0.073
-607.186	-44.237	0.202	-0.102
-606.171	-22.779	-0.039	-0.024
-605.157	-22.915	0.366	-0.223
-604.142	21.224	0.184	0.151
-603.128	-121.342	0.235	0.039
-602.113	-17.595	0.029	-0.018
-601.098	-36.880	0.027	-0.014
-600.084	-200.000	-0.010	0.240
-599.069	-49.086	-0.254	0.122
-598.055	101.168	0.146	-0.172
-597.040	-200.000	0.005	0.103
-596.025	-200.000	-0.009	-0.248
-595.011	-125.523	-0.352	-0.054
-593.996	111.000	-0.235	-0.285
-592.982	-200.000	0.021	-0.096
-591.967	-200.000	0.014	0.226
-590.952	3.611	0.124	-0.091
-589.938	14.080	-0.215	0.169
-588.923	800.000	-0.165	-0.611
-587.909	87.992	0.216	-0.242
-586.894	-42.771	0.208	-0.106
-585.879	-83.323	-0.260	-0.084
-584.865	-200.000	-0.065	-0.321
-583.850	-200.000	-0.016	-0.141
-582.836	-78.799	-0.088	-0.030
-581.821	188.449	0.149	-0.224
-580.806	-81.809	-0.438	-0.145
-579.792	-3.904	0.117	0.082
-578.777	-82.629	0.112	-0.037
-577.763	-73.768	-0.450	0.165
-576.748	48.109	0.108	0.101
-575.733	-33.562	0.132	-0.073
-574.719	-200.000	-0.004	-0.072
-573.704	800.000	0.081	-0.301
-572.690	-200.000	0.031	-0.142
-571.675	-200.000	0.059	0.380
-570.661	363.919	0.098	0.199
-569.646	800.000	0.022	-0.094
-568.631	101.878	-0.178	0.208
-567.617	-12.149	0.427	-0.281
-566.602	292.916	-0.205	-0.377
-565.588	447.537	0.118	-0.262
-564.573	-147.702	0.257	-0.022
-563.558	-38.859	0.112	0.059
-562.544	216.681	0.200	0.319
-561.529	-165.611	0.095	0.004
-560.515	167.786	-0.251	0.359
-559.500	800.000	0.114	-0.350
-558.485	86.289	0.175	-0.194
-557.471	18.231	-0.134	0.108
-556.456	190.535	-0.195	-0.294
-555.442	90.506	-0.059	-0.067
-554.427	-200.000	-0.019	-0.136
-553.412	-118.645	-0.316	0.056
-552.398	-200.000	0.024	-0.430
-551.383	-200.000	0.037	-0.322
-550.369	285.257	0.055	-0.099
-549.354	122.883	-0.012	0.016
-548.339	-66.470	0.035	-0.014
-547.325	-147.995	-0.438	-0.037
-546.310	-75.633	0.108	0.039
-545.296	177.270	-0.077	-0.113
-544.281	24.733	0.103	-0.086
-543.266	22.079	-0.235	-0.193
-542.252	-200.000	0.062	-0.292
-541.237	800.000	0.050	-0.217
-540.223	24.786	0.224	-0.187
-539.208	-200.000	-0.042	-0.309
-538.193	-136.571	-0.283	0.033
-537.179	-15.521	0.053	0.034
-536.164	-65.832	0.202	-0.081
-535.150	-10.826	0.273	0.181
-534.135	68.483	-0.092	-0.094
-533.121	-200.000	0.034	0.212
-532.106	38.213	-0.116	-0.104
-531.091	121.393	0.121	0.152
-530.077	614.385	-0.121	0.305
-529.062	64.651	-0.150	-0.152
-528.048	-118.635	0.297	-0.053
-527.033	800.000	0.065	-0.229
-526.018	-45.478	-0.087	0.043
-525.004	62.463	0.023	0.023
-523.989	-110.961	0.297	0.061
-522.975	-166.141	0.038	-0.002
-521.960	50.557	-0.022	-0.021
-520.945	-33.465	0.140	-0.078
-519.931	186.961	0.039	-0.059
-518.916	-160.936	-0.297	-0.016
-517.902	800.000	0.112	-0.313
-516.887	-200.000	-0.055	-0.306
-515.872	-92.651	-0.063	0.018
-514.858	775.065	0.024	-0.065
-513.843	-108.318	-0.218	-0.047
-512.829	228.658	0.106	0.174
-511.814	14.047	-0.184	0.144
-510.799	18.094	0.105	0.084
-509.785	244.681	-0.076	0.129
-508.770	-47.765	-0.225	-0.109
-507.756	-200.000	-0.029	-0.160
-506.741	364.001	-0.151	0.305
-505.726	-32.498	0.179	-0.100
-504.712	52.457	0.045	-0.043
-503.697	-97.347	0.268	0.070
-502.683	91.923	-0.225	-0.254
-501.668	-181.510	-0.061	-0.001
-500.653	-98.089	0.301	0.078
-499.639	-155.484	0.380	0.025
-498.624	-55.458	0.463	0.209
-497.610	-144.445	-0.268	0.025
-496.595	-124.809	-0.343	-0.053
-495.581	21.641	-0.124	0.101
-494.566	-200.000	-0.022	0.311
-493.551	203.602	-0.092	-0.142
-492.537	129.026	0.105	-0.134
-491.522	204.253	0.068	0.105
-490.508	12.474	0.155	0.120
-489.493	-13.994	-0.165	0.107
-488.478	234.278	-0.085	0.140
-487.464	-200.000	-0.049	0.404
-486.449	44.810	-0.234	0.216
-485.435	-130.825	-0.197	-0.027
-484.420	-154.485	-0.142	0.010
-483.405	118.568	0.267	0.330
-482.391	324.173	-0.118	0.226
-481.376	21.616	0.244	0.199
-480.362	90.175	0.036	-0.040
-479.347	388.714	0.136	0.282
-478.332	-118.983	0.247	-0.043
-477.318	-12.732	0.266	0.174
-476.303	233.143	0.140	-0.230
-475.289	37.047	-0.198	0.176
-474.274	-91.220	0.317	-0.091
-473.259	-123.773	0.049	-0.008
-472.245	92.471	0.126	0.142
-471.230	-1.212	-0.107	-0.076
-470.216	-44.689	0.202	-0.101
-469.201	434.124	-0.029	-0.062
-468.186	-200.000	-0.008	-0.037
-467.172	-200.000	-0.004	0.021
-466.157	-200.000	0.006	-0.059
-465.143	-22.001	-0.242	0.147
-464.128	-197.881	0.048	-0.000
-463.113	800.000	0.071	-0.250
-462.099	-98.961	-0.093	0.024
-461.084	-200.000	0.029	0.240
-460.070	-200.000	0.049	0.287
-459.055	11.496	-0.364	0.280
-458.040	-10.889	-0.094	-0.062
-457.026	123.524	-0.217	-0.273
-456.011	55.506	-0.195	-0.189
-454.997	-200.000	-0.032	0.154
-453.982	44.367	0.103	0.094
-452.968	-104.683	-0.212	-0.049
-451.953	-102.425	-0.111	0.027
-450.938	-103.962	-0.322	-0.075
-449.924	-157.133	-0.115	0.007
-448.909	-200.000	-0.018	0.118
-447.895	186.721	0.049	0.073
-446.880	-109.320	-0.327	0.069
-445.865	148.372	-0.023	-0.032
-444.851	800.000	0.013	0.044
-443.836	117.191	0.025	-0.030
-442.822	2.616	-0.399	-0.290
-441.807	-88.813	0.216	0.064
-440.792	-200.000	-0.015	0.213
-439.778	12.093	0.262	0.202
-438.763	800.000	0.077	-0.250
-437.749	-34.688	0.150	-0.082
-436.734	-157.059	-0.141	0.009
-435.719	4.889	-0.071	0.052
-434.705	-200.000	-0.018	-0.226
-433.690	-12.567	-0.168	0.110
-432.676	-200.000	-0.014	0.143
-431.661	-75.094	-0.209	-0.075
-430.646	-114.527	-0.272	0.052
-429.632	-150.908	0.208	-0.016
-428.617	-0.794	-0.108	-0.076
-427.603	529.482	-0.061	0.145
-426.588	-200.000	0.018	0.235
-425.573	188.882	0.235	0.352
-424.559	-69.654	0.190	0.073
-423.544	800.000	0.110	0.321
-422.530	-0.682	0.215	0.153
-421.515	-200.000	0.015	-0.186
-420.500	-200.000	0.001	-0.237
-419.486	-86.219	0.228	-0.070
-418.471	53.632	0.073	0.070
-417.457	-28.766	-0.126	-0.073
-416.442	800.000	-0.037	-0.110
-415.428	773.305	0.140	0.381
-414.413	-45.372	0.202	-0.100
-413.398	23.077	0.172	0.141
-412.384	-3.710	-0.268	0.187
-411.369	-128.510	0.307	-0.044
-410.355	80.048	0.020	0.022
-409.340	-71.298	0.058	0.022
-408.325	37.423	-0.104	-0.092
-407.311	-174.862	-0.275	0.008
-406.296	-157.840	0.263	0.016
-405.282	-200.000	0.059	-0.264
-404.267	-143.753	-0.226	-0.021
-403.252	61.091	0.092	-0.092
-402.238	8.529	-0.176	0.133
-401.223	-76.122	0.296	0.105
-400.209	-133.863	0.206	0.026
-399.194	-200.000	0.017	-0.297
-398.179	-200.000	0.021	-0.300
-397.165	-200.000	-0.037	-0.262
-396.150	-200.000	-0.009	-0.215
-395.136	-200.000	-0.014	0.147
-394.121	86.538	0.054	-0.060
-393.106	-23.879	-0.144	-0.086
-392.092	13.424	0.114	-0.089
-391.077	116.728	0.148	-0.182
-390.063	68.401	0.248	-0.254
-389.048	-23.474	-0.249	-0.149
-388.033	-200.000	-0.005	0.116
-387.019	110.551	0.157	-0.189
-386.004	404.801	0.131	0.277
-384.990	-82.511	-0.312	-0.101
-383.975	57.531	0.204	0.199
-382.960	800.000	-0.017	0.046
-381.946	-200.000	-0.027	0.328
-380.931	-106.101	0.153	0.034
-379.917	230.390	-0.172	-0.281
-378.902	-184.064	-0.125	0.002
-377.888	-90.538	0.186	-0.054
-376.873	386.109	-0.019	0.040
-375.858	323.331	0.066	0.125
-374.844	216.033	-0.025	-0.040
-373.829	469.395	0.053	0.119
-372.815	-200.000	0.004	-0.170
-371.800	119.770	-0.164	0.203
-370.785	743.913	0.110	0.295
-369.771	-200.000	-0.061	0.360
-368.756	223.114	-0.122	0.197
-367.742	-5.139	0.105	-0.072
-366.727	-3.418	-0.241	0.168
-365.712	72.450	0.118	-0.123
-364.698	-200.000	-0.006	0.252
-363.683	-59.247	-0.475	0.204
-362.669	314.264	-0.101	-0.189
-361.654	-63.568	-0.398	-0.163
-360.639	506.508	0.045	0.105
-359.625	-156.310	0.256	0.016
-358.610	-200.000	0.025	-0.240
-357.596	800.000	-0.022	0.080
-356.581	203.474	-0.123	0.190
-355.566	735.343	-0.117	0.312
-354.552	70.210	-0.099	-0.102
-353.537	76.515	0.188	0.199
-352.523	-23.461	-0.314	0.188
-351.508	-19.728	-0.205	-0.126
-350.493	133.237	0.052	0.066
-349.479	-130.799	0.419	0.056
-348.464	-12.308	0.236	0.154
-347.450	668.321	0.041	-0.105
-346.435	24.466	-0.122	0.101
-345.420	97.375	-0.054	0.061
-344.406	86.728	0.381	-0.420
-343.391	-200.000	-0.018	-0.124
-342.377	-186.539	-0.324	0.005
-341.362	-200.000	0.000	0.177
-340.348	-74.229	0.386	-0.139
-339.333	49.259	0.068	0.064
-338.318	-165.704	0.330	0.014
-337.304	-85.823	0.082	-0.025
-336.289	1.318	0.224	0.161
-335.275	43.759	-0.314	0.286
-334.260	334.724	-0.034	0.066
-333.245	-200.000	-0.068	0.483
-332.231	70.983	-0.187	0.193
-331.216	-200.000	-0.037	-0.261
-330.202	-38.895	0.119	-0.062
-329.187	-200.000	-0.015	-0.335
-328.172	-138.551	-0.188	-0.021
-327.158	-200.000	0.009	0.237
-326.143	47.336	-0.149	-0.138
-325.129	-49.347	0.353	0.168
-324.114	-137.660	0.081	-0.009
-323.099	800.000	0.060	0.170
-322.085	-200.000	0.172	0.000
-321.070	-10.290	0.023	0.015
-320.056	-28.553	-0.126	0.072
-319.041	800.000	0.017	-0.058
-318.026	-200.000	0.005	0.100
-317.012	-200.000	0.061	0.270
-315.997	-189.461	-0.140	-0.002
-314.983	32.147	0.083	0.071
-313.968	-125.939	0.122	-0.018
-312.953	-108.273	-0.373	-0.080
-311.939	-98.110	-0.192	0.049
-310.924	-200.000	0.024	0.404
-309.910	203.939	0.295	0.455
-308.895	222.927	-0.094	-0.151
-307.880	251.173	0.152	-0.258
-306.866	-200.000	0.029	0.299
-305.851	-36.450	-0.313	-0.168
-304.837	-200.000	-0.017	-0.371
-303.822	49.805	0.202	0.190
-302.807	-0.451	0.171	0.121
-301.793	-34.471	0.172	0.094
-300.778	-200.000	-0.038	0.243
-299.764	124.608	-0.200	0.251
-298.749	33.810	0.137	-0.119
-297.735	-200.000	-0.014	0.145
-296.720	29.515	-0.285	-0.241
-295.705	-98.960	-0.192	0.049
-294.691	35.881	0.186	0.163
-293.676	-200.000	0.010	-0.178
-292.662	-200.000	-0.040	-0.426
-291.647	-200.000	-0.012	-0.096
-290.632	237.975	-0.042	-0.070
-289.618	622.869	0.102	-0.256
-288.603	-128.651	-0.220	-0.031
-287.589	267.502	-0.198	0.345
-286.574	-13.332	0.160	0.103
-285.559	-23.679	0.152	0.090
-284.545	610.571	0.025	0.061
-283.530	800.000	-0.081	0.239
-282.516	800.000	0.057	0.210
-281.501	152.038	0.062	-0.084
-280.486	-124.467	0.477	-0.074
-279.472	-38.916	0.247	-0.130
-278.457	80.800	0.143	0.153
-277.443	-43.067	-0.331	0.167
-276.428	583.236	-0.030	-0.074
-275.413	-18.192	0.228	-0.142
-274.399	-1.804	0.081	-0.057
-273.384	-104.850	0.122	-0.028
-272.370	-19.505	0.218	0.134
-271.355	-123.264	-0.380	0.060
-270.340	-99.651	-0.342	-0.085
-269.326	-200.000	-0.001	0.069
-268.311	-24.532	-0.230	-0.136
-267.297	-113.547	0.292	-0.057
-266.282	651.260	0.086	-0.219
-265.267	-200.000	-0.006	-0.211
-264.253	-200.000	-0.012	0.282
-263.238	800.000	-0.040	-0.112
-262.224	210.908	-0.021	-0.033
-261.209	-48.573	0.145	-0.069
-260.195	183.176	0.348	0.511
-259.180	204.886	-0.156	0.240
-258.165	157.398	-0.123	0.169
-257.151	-200.000	0.005	0.073
-256.136	-93.531	0.037	0.010
-255.122	38.819	-0.097	0.086
-254.107	40.469	0.083	0.074
-253.092	-67.183	0.321	-0.126
-252.078	-108.906	-0.138	0.029
-251.063	314.411	0.081	-0.151
-250.049	37.083	0.254	-0.224
-249.034	189.676	0.111	0.166
-248.019	-200.000	0.025	0.179
-247.005	-11.916	0.362	0.236
-245.990	-66.270	-0.181	0.071
-244.976	800.000	0.025	0.084
-243.961	214.110	0.162	0.254
-242.946	-200.000	0.006	0.261
-241.932	-78.706	-0.150	-0.051
-240.917	7.642	0.042	0.031
-239.903	800.000	0.089	0.309
-238.888	-27.177	-0.225	-0.130
-237.873	262.693	0.097	-0.168
-236.859	-200.000	0.051	0.295
-235.844	74.402	0.188	-0.196
-234.830	-134.354	-0.227	-0.028
-233.815	-68.905	-0.171	-0.066
-232.800	117.737	0.054	-0.066
-231.786	-46.605	0.121	-0.059
-230.771	-51.126	-0.281	-0.131
-229.757	-200.000	0.017	-0.177
-228.742	259.314	0.087	-0.149
-227.727	351.684	-0.043	-0.084
-226.713	47.622	0.112	-0.104
-225.698	578.663	-0.166	-0.404
-224.684	40.655	0.047	-0.042
-223.669	407.586	-0.008	0.016
-222.655	35.036	0.106	0.092
-221.640	-200.000	0.020	0.142
-220.625	-73.575	-0.191	0.069
-219.611	800.000	0.023	-0.090
-218.596	235.208	-0.086	-0.141
-217.582	-139.190	0.316	0.034
-216.567	180.998	-0.129	0.188
-215.552	-151.067	-0.062	-0.005
-214.538	-7.243	0.328	-0.221
-213.523	49.605	-0.105	0.098
-212.509	0.209	-0.221	-0.156
-211.494	800.000	0.084	-0.256
-210.479	-151.270	-0.352	0.026
-209.465	-29.819	-0.313	0.177
-208.450	188.827	0.346	0.513
-207.436	-200.000	0.014	-0.261
-206.421	-117.391	0.121	-0.022
-205.406	-200.000	-0.022	-0.248
-204.392	61.908	-0.057	0.056
-203.377	800.000	-0.040	0.161
-202.363	-139.393	-0.084	0.009
-201.348	-107.683	0.051	-0.011
-200.333	132.942	-0.116	0.149
-199.319	-58.914	-0.352	0.151
-198.304	8.738	-0.189	0.141
-197.290	-113.572	0.108	-0.021
-196.275	13.019	0.048	-0.036
-195.260	-128.365	-0.218	0.031
-194.246	-76.563	-0.092	0.032
-193.231	205.405	0.075	0.116
-192.217	-135.167	0.127	0.015
-191.202	-30.786	-0.428	-0.240
-190.187	-200.000	-0.017	0.191
-189.173	800.000	-0.095	-0.319
-188.158	-66.735	-0.240	0.094
-187.144	-43.252	-0.247	-0.124
-186.129	-71.143	-0.165	0.062
-185.114	-166.680	-0.274	0.011
-184.100	-200.000	0.038	-0.174
-183.085	-200.000	-0.049	-0.432
-182.071	128.295	0.136	-0.172
-181.056	69.271	0.246	-0.251
-180.042	365.301	0.083	-0.166
-179.027	200.169	0.236	-0.359
-178.012	502.333	0.051	0.116
-176.998	19.422	0.238	-0.189
-175.983	298.461	0.150	0.273
-174.969	-138.915	0.072	-0.008
-173.954	800.000	-0.067	-0.228
-172.939	275.626	0.282	0.495
-171.925	-174.439	-0.266	0.008
-170.910	800.000	0.073	-0.272
-169.896	-78.094	-0.185	0.063
-168.881	12.885	0.010	-0.008
-167.866	259.187	-0.124	0.211
-166.852	800.000	0.077	0.247
-165.837	-142.073	0.235	0.023
-164.823	-200.000	0.056	-0.282
-163.808	-152.234	-0.174	-0.012
-162.793	-125.723	0.036	0.005
-161.779	-4.327	0.141	-0.097
-160.764	800.000	0.103	-0.405
-159.750	322.402	0.090	-0.170
-158.735	-200.000	-0.006	0.119
-157.720	-200.000	0.011	0.127
-156.706	218.335	0.029	-0.045
-155.691	110.178	-0.196	-0.233
-154.677	-171.931	0.295	-0.010
-153.662	800.000	-0.061	0.246
-152.647	800.000	-0.135	0.448
-151.633	485.981	0.178	-0.401
-150.618	204.320	0.197	0.302
-149.604	7.596	0.132	0.098
-148.589	-136.658	-0.214	-0.024
-147.574	224.156	-0.172	0.275
-146.560	-200.000	-0.018	-0.089
-145.545	-27.428	-0.114	-0.066
-144.531	162.434	-0.176	0.245
-143.516	477.295	-0.059	0.131
-142.502	-3.304	-0.360	0.248
-141.487	-123.632	0.213	-0.034
-140.472	29.822	0.109	0.092
-139.458	182.895	-0.061	0.089
-138.443	-83.197	0.027	-0.009
-137.429	-143.992	0.201	0.019
-136.414	101.628	0.129	0.149
-135.399	800.000	0.018	0.059
-134.385	370.125	0.057	0.114
-133.370	-187.688	0.194	0.003
-132.356	255.307	-0.100	-0.170
-131.341	-30.297	-0.128	-0.072
-130.326	-200.000	-0.030	-0.163
-129.312	109.491	-0.130	-0.154
-128.297	304.552	-0.101	0.186
-127.283	12.461	-0.297	-0.227
-126.268	-48.951	0.330	-0.156
-125.253	120.679	0.110	-0.136
-124.239	5.427	0.254	0.185
-123.224	126.345	0.386	-0.483
-122.210	-23.836	0.350	0.207
-121.195	-33.960	0.224	0.122
