DTS Sentinel unit serial number:	SN413079Multiplexer serial number:	ORYXHardware model number:	OX4-SRSoftware version number:	ORYX F/W v4.00 Oryx Data Collector v3.7.2.0data status	okinstallation	princeton_trtdifferential loss correction	single-endedforward channel	channel 3reverse channel	N/Adate	2019/09/17time	08:16:34forward acquisition time	60.00reverse acquisition time	0.00gamma	496.2192k internal	0.2333k external	0.2333temperature offset calibration	0.9936default loss term (dB/km)	0.3790temperature slope calibration	1.0000multiplexer offset coefficient	1.0000multiplexer slope coefficient	1.0000fibre end	0.00T internal ref (°C)	27.39T ext. ref 1 (°C)	0.13T ext. ref 2 (°C)	22.78length (m)	temperature (°C)	Stokes	anti-Stokes-747.200	-124.949	0.212	0.033
-746.185	125.824	0.367	0.466
-745.171	261.513	-0.053	0.093
-744.156	348.811	-0.213	0.423
-743.142	800.000	-0.073	0.228
-742.127	-200.000	-0.010	0.199
-741.112	457.760	0.162	0.362
-740.098	-78.525	-0.144	0.049
-739.083	-200.000	0.046	-0.413
-738.069	800.000	-0.088	0.278
-737.054	180.943	0.112	-0.165
-736.039	-107.107	-0.334	-0.074
-735.025	-113.018	0.540	0.107
-734.010	800.000	0.034	-0.108
-732.996	-183.017	-0.322	-0.006
-731.981	633.815	0.055	-0.141
-730.966	-121.813	-0.366	-0.061
-729.952	-125.087	0.153	-0.024
-728.937	-140.068	-0.315	-0.033
-727.923	406.549	0.054	-0.114
-726.908	86.077	-0.127	-0.141
-725.894	86.857	-0.057	-0.064
-724.879	-12.613	0.175	-0.115
-723.864	81.671	-0.153	-0.167
-722.850	-36.980	0.406	-0.219
-721.835	-200.000	-0.021	-0.263
-720.821	182.187	0.196	0.289
-719.806	-200.000	0.011	0.158
-718.791	800.000	-0.091	-0.261
-717.777	322.109	0.077	-0.148
-716.762	126.014	0.120	0.152
-715.748	619.771	0.042	-0.106
-714.733	43.866	-0.213	-0.196
-713.718	-161.469	-0.305	0.016
-712.704	-60.733	0.203	-0.086
-711.689	-136.055	0.379	0.045
-710.675	26.955	0.078	0.066
-709.660	-57.822	0.133	-0.059
-708.645	232.968	-0.210	-0.347
-707.631	122.876	0.291	0.366
-706.616	-200.000	-0.017	0.367
-705.602	-200.000	0.066	-0.345
-704.587	123.127	0.101	-0.127
-703.572	800.000	-0.140	0.401
-702.558	-82.004	-0.187	-0.061
-701.543	800.000	0.063	-0.192
-700.529	-53.273	0.164	0.075
-699.514	-132.533	0.144	0.019
-698.499	-138.572	-0.163	-0.018
-697.485	-200.000	-0.049	0.444
-696.470	167.489	0.148	-0.211
-695.456	70.340	-0.103	0.107
-694.441	800.000	0.252	0.975
-693.426	68.652	-0.196	-0.202
-692.412	-200.000	-0.005	-0.054
-691.397	115.768	-0.106	0.130
-690.383	584.084	0.042	0.105
-689.368	-173.165	-0.259	-0.008
-688.354	-155.505	-0.380	-0.025
-687.339	-99.022	-0.114	-0.029
-686.324	31.835	0.140	-0.121
-685.310	262.231	-0.198	0.344
-684.295	4.796	-0.137	0.101
-683.281	800.000	-0.054	-0.228
-682.266	-16.437	0.084	0.053
-681.251	439.839	0.063	-0.138
-680.237	800.000	-0.093	0.297
-679.222	-110.622	-0.359	0.074
-678.208	-17.135	-0.096	0.061
-677.193	-39.047	0.259	-0.137
-676.178	-62.788	0.228	-0.095
-675.164	0.842	0.120	0.086
-674.149	-200.000	-0.017	-0.193
-673.135	-102.009	-0.134	0.033
-672.120	-50.801	-0.190	0.089
-671.105	-200.000	0.024	-0.162
-670.091	-200.000	-0.039	0.275
-669.076	242.247	-0.292	0.490
-668.062	-157.579	0.262	0.016
-667.047	-200.000	0.014	-0.101
-666.032	-9.471	0.455	0.304
-665.018	-113.221	0.270	-0.053
-664.003	-17.298	-0.105	-0.066
-662.989	21.255	0.207	-0.168
-661.974	-120.127	-0.207	-0.035
-660.959	91.899	-0.154	0.174
-659.945	401.344	-0.024	0.051
-658.930	265.735	-0.219	-0.383
-657.916	299.035	-0.037	-0.067
-656.901	-200.000	0.053	0.403
-655.886	-129.730	-0.041	-0.006
-654.872	5.536	0.075	-0.056
-653.857	211.327	0.148	-0.234
-652.843	-129.172	-0.182	0.025
-651.828	360.355	-0.091	-0.183
-650.814	709.292	-0.074	-0.197
-649.799	800.000	-0.096	-0.360
-648.784	-131.039	0.140	0.019
-647.770	-143.040	0.319	0.031
-646.755	639.404	-0.085	0.217
-645.741	-48.091	0.129	-0.062
-644.726	758.623	-0.131	-0.355
-643.711	-200.000	-0.054	-0.251
-642.697	-200.000	-0.009	-0.298
-641.682	123.783	-0.120	0.150
-640.668	-143.660	-0.135	0.013
-639.653	-45.977	0.143	-0.071
-638.638	-26.037	0.160	-0.094
-637.624	-149.981	-0.429	-0.034
-636.609	426.784	-0.050	0.107
-635.595	-62.297	-0.107	0.045
-634.580	165.989	0.051	0.072
-633.565	-1.470	-0.150	-0.106
-632.551	-115.474	-0.222	-0.042
-631.536	142.048	-0.150	-0.199
-630.522	-105.843	-0.475	0.107
-629.507	97.077	0.152	-0.175
-628.492	-36.848	0.111	0.060
-627.478	141.869	-0.171	0.227
-626.463	-0.849	0.334	-0.237
-625.449	41.170	0.048	-0.043
-624.434	-200.000	0.000	0.137
-623.419	35.654	-0.138	0.122
-622.405	-93.266	-0.131	-0.036
-621.390	-64.117	0.175	-0.072
-620.376	-200.000	-0.011	-0.064
-619.361	6.899	-0.218	0.163
-618.346	-4.247	-0.093	0.065
-617.332	-84.306	-0.222	0.070
-616.317	-116.993	-0.318	-0.058
-615.303	-200.000	0.012	-0.090
-614.288	-83.303	-0.481	-0.154
-613.273	450.499	0.058	0.128
-612.259	120.786	-0.289	0.359
-611.244	-12.690	0.161	0.105
-610.230	185.285	0.132	-0.196
-609.215	199.647	-0.110	0.169
-608.201	-165.202	0.224	-0.010
-607.186	39.444	0.139	-0.125
-606.171	557.513	0.085	0.204
-605.157	-76.558	0.302	-0.106
-604.142	110.948	-0.232	0.279
-603.128	-200.000	0.069	0.346
-602.113	800.000	-0.087	0.283
-601.098	29.085	0.230	0.195
-600.084	733.365	0.040	-0.108
-599.069	-168.508	-0.319	0.012
-598.055	800.000	0.018	0.066
-597.040	-107.753	-0.241	0.053
-596.025	175.300	0.133	-0.192
-595.011	-27.757	-0.324	-0.188
-593.996	-5.940	0.090	0.061
-592.982	800.000	0.118	-0.391
-591.967	-62.085	-0.227	0.095
-590.952	-123.258	-0.226	-0.036
-589.938	800.000	-0.042	-0.131
-588.923	235.937	-0.327	-0.540
-587.909	-75.690	0.413	0.147
-586.894	800.000	0.112	-0.317
-585.879	-10.918	0.159	-0.105
-584.865	580.271	0.127	0.310
-583.850	800.000	-0.048	0.187
-582.836	72.064	0.209	0.217
-581.821	-147.251	0.135	0.011
-580.806	-38.088	-0.233	-0.124
-579.792	640.515	-0.059	0.150
-578.777	-17.181	0.416	-0.262
-577.763	40.196	-0.141	-0.127
-576.748	-109.345	0.117	0.025
-575.733	329.546	-0.044	0.085
-574.719	79.946	-0.206	-0.221
-573.704	-98.007	-0.220	-0.057
-572.690	800.000	0.093	-0.319
-571.675	-1.934	0.283	0.199
-570.661	232.633	-0.149	0.244
-569.646	-200.000	-0.053	-0.271
-568.631	70.093	-0.107	-0.110
-567.617	-48.602	0.038	0.018
-566.602	-141.254	-0.235	-0.024
-565.588	800.000	-0.067	-0.212
-564.573	45.670	0.222	-0.205
-563.558	314.746	0.012	-0.023
-562.544	138.393	0.154	0.201
-561.529	-157.656	-0.047	-0.003
-560.515	-200.000	-0.002	-0.243
-559.500	26.309	-0.165	-0.138
-558.485	158.285	-0.183	0.253
-557.471	-200.000	-0.027	0.000
-556.456	-200.000	0.027	-0.231
-555.442	-1.417	-0.172	0.121
-554.427	370.333	0.201	0.407
-553.412	-155.613	0.209	0.013
-552.398	-200.000	0.040	-0.201
-551.383	20.731	-0.292	0.236
-550.369	-69.041	-0.142	0.054
-549.354	-43.702	-0.200	-0.100
-548.339	800.000	0.056	-0.156
-547.325	75.620	0.102	-0.107
-546.310	-89.795	0.127	0.037
-545.296	-165.444	-0.135	-0.006
-544.281	-200.000	-0.011	-0.281
-543.266	800.000	-0.058	0.232
-542.252	-47.369	0.088	0.043
-541.237	15.605	0.123	0.097
-540.223	800.000	-0.034	-0.104
-539.208	216.248	-0.043	-0.068
-538.193	419.649	0.207	0.441
-537.179	-126.032	-0.297	0.045
-536.164	178.854	0.125	-0.182
-535.150	172.201	0.249	0.357
-534.135	-49.119	0.098	0.047
-533.121	-113.780	0.267	-0.052
-532.106	800.000	0.170	0.473
-531.091	25.698	-0.218	-0.181
-530.077	-200.000	-0.026	0.240
-529.062	96.124	0.146	0.166
-528.048	-67.925	0.115	0.045
-527.033	566.690	-0.122	-0.295
-526.018	-200.000	0.035	0.248
-525.004	-122.782	0.346	-0.056
-523.989	608.260	0.128	-0.319
-522.975	132.454	-0.145	-0.186
-521.960	800.000	0.071	0.201
-520.945	46.312	-0.120	-0.111
-519.931	539.279	-0.045	-0.107
-518.916	-84.820	0.170	0.053
-517.902	16.843	0.292	-0.231
-516.887	-99.380	-0.382	0.096
-515.872	-58.256	0.466	0.202
-514.858	-66.335	-0.129	0.051
-513.843	-4.888	0.269	-0.185
-512.829	13.660	0.283	0.219
-511.814	-8.900	0.239	0.160
-510.799	-101.879	0.288	0.069
-509.785	-30.150	-0.191	0.108
-508.770	-147.871	-0.362	0.030
-507.756	800.000	0.075	0.257
-506.741	-94.859	0.138	0.037
-505.726	87.642	-0.257	0.284
-504.712	2.123	0.310	0.223
-503.697	-59.157	0.076	0.033
-502.683	18.074	-0.130	-0.103
-501.668	800.000	-0.092	0.264
-500.653	800.000	-0.065	0.242
-499.639	-162.614	-0.366	-0.018
-498.624	182.381	-0.084	-0.123
-497.610	-120.556	-0.053	-0.009
-496.595	-59.499	-0.167	0.072
-495.581	-144.184	-0.128	0.012
-494.566	-83.635	-0.231	0.073
-493.551	-103.379	-0.049	0.011
-492.537	-200.000	0.024	0.254
-491.522	-4.536	0.074	-0.051
-490.508	-30.046	0.114	0.065
-489.493	247.263	-0.055	0.093
-488.478	-55.727	-0.166	0.074
-487.464	18.552	-0.173	0.137
-486.449	-115.738	0.117	0.022
-485.435	326.869	0.031	-0.058
-484.420	-138.833	-0.017	-0.002
-483.405	-200.000	-0.019	0.087
-482.391	268.283	0.089	0.155
-481.376	49.293	0.226	0.211
-480.362	-200.000	0.086	0.381
-479.347	588.509	-0.024	0.059
-478.332	-141.493	0.390	-0.039
-477.318	41.250	0.140	0.126
-476.303	-49.490	0.257	0.122
-475.289	-200.000	-0.020	-0.151
-474.274	-29.971	0.141	0.080
-473.259	23.233	-0.127	-0.104
-472.245	242.502	0.049	-0.081
-471.230	-200.000	0.012	0.247
-470.216	-115.407	-0.196	-0.037
-469.201	-90.392	-0.175	0.050
-468.186	-4.169	0.098	0.068
-467.172	409.553	0.047	-0.099
-466.157	524.971	0.067	0.158
-465.143	274.306	-0.084	-0.149
-464.128	284.252	0.035	0.063
-463.113	-200.000	-0.021	0.302
-462.099	-126.015	0.096	0.014
-461.084	323.431	0.138	-0.262
-460.070	-32.666	-0.166	-0.092
-459.055	-200.000	-0.023	-0.295
-458.040	583.489	0.063	-0.154
-457.026	-43.362	0.126	0.063
-456.011	-61.677	-0.385	-0.161
-454.997	-19.271	-0.206	0.127
-453.982	-124.430	0.404	0.063
-452.968	-200.000	-0.019	0.143
-451.953	288.127	0.113	-0.203
-450.938	-158.270	0.238	-0.014
-449.924	-83.857	-0.284	0.090
-448.909	330.483	-0.155	0.296
-447.895	-89.065	0.271	0.080
-446.880	-200.000	-0.053	0.295
-445.865	184.044	-0.050	0.074
-444.851	800.000	-0.075	0.258
-443.836	-200.000	-0.020	-0.246
-442.822	-120.628	0.170	0.029
-441.807	-80.497	0.371	-0.123
-440.792	-111.722	-0.152	-0.031
-439.778	151.261	0.168	-0.228
-438.763	-75.382	-0.177	0.063
-437.749	-200.000	0.003	-0.112
-436.734	-200.000	0.027	-0.135
-435.719	-200.000	0.029	0.261
-434.705	-69.181	0.317	0.121
-433.690	-44.129	0.127	-0.063
-432.676	-15.748	-0.112	0.071
-431.661	-29.446	-0.188	0.107
-430.646	46.102	0.088	0.081
-429.632	-142.656	0.242	0.023
-428.617	115.132	0.072	-0.087
-427.603	-107.341	-0.260	-0.057
-426.588	203.735	0.090	-0.138
-425.573	308.638	0.118	-0.219
-424.559	146.337	-0.152	0.203
-423.544	47.592	-0.245	-0.227
-422.530	800.000	0.033	-0.113
-421.515	-200.000	0.367	0.001
-420.500	-41.576	0.055	0.028
-419.486	-200.000	-0.030	0.295
-418.471	800.000	0.030	-0.084
-417.457	16.781	0.135	-0.106
-416.442	-124.217	-0.564	-0.088
-415.428	63.074	0.223	0.222
-414.413	-11.809	-0.135	-0.088
-413.398	-39.571	0.276	-0.143
-412.384	800.000	-0.032	0.117
-411.369	90.839	-0.161	-0.179
-410.355	-153.050	-0.193	0.014
-409.340	-200.000	0.016	-0.111
-408.325	-21.208	-0.061	-0.037
-407.311	20.826	-0.081	-0.065
-406.296	-200.000	0.001	-0.089
-405.282	69.136	-0.199	-0.203
-404.267	-0.596	-0.198	0.140
-403.252	15.390	0.345	-0.268
-402.238	-200.000	-0.063	0.292
-401.223	77.122	0.063	-0.066
-400.209	237.755	-0.149	-0.246
-399.194	-82.295	0.251	0.081
-398.179	-42.569	0.217	0.110
-397.165	-175.463	0.245	-0.007
-396.150	-200.000	0.017	-0.184
-395.136	-200.000	-0.024	-0.397
-394.121	35.178	-0.063	0.055
-393.106	-200.000	0.029	0.226
-392.092	-128.340	-0.199	-0.028
-391.077	800.000	0.078	0.253
-390.063	-156.938	-0.310	0.019
-389.048	-72.000	-0.279	-0.103
-388.033	529.878	0.049	0.114
-387.019	-64.615	0.042	-0.017
-386.004	72.849	-0.194	0.201
-384.990	-17.869	0.242	-0.150
-383.975	-200.000	0.045	0.470
-382.960	-200.000	-0.010	0.138
-381.946	800.000	-0.071	0.249
-380.931	1.063	-0.133	0.095
-379.917	800.000	-0.037	0.136
-378.902	-66.346	0.323	0.127
-377.888	-3.505	0.061	0.042
-376.873	268.268	-0.013	0.022
-375.858	-200.000	0.076	-0.462
-374.844	-103.485	-0.226	-0.053
-373.829	695.539	0.151	0.392
-372.815	800.000	-0.083	-0.334
-371.800	-84.865	-0.161	-0.050
-370.785	43.704	0.069	0.063
-369.771	175.868	-0.165	-0.238
-368.756	168.748	0.237	0.335
-367.742	296.213	-0.016	-0.028
-366.727	103.765	0.164	0.191
-365.712	-77.686	0.263	0.090
-364.698	33.654	-0.122	-0.105
-363.683	-4.939	0.038	0.026
-362.669	118.374	-0.166	-0.203
-361.654	-200.000	-0.052	-0.356
-360.639	-9.251	-0.142	0.094
-359.625	-93.443	-0.375	0.103
-358.610	-107.430	-0.207	0.045
-357.596	92.648	0.241	-0.269
-356.581	-64.753	-0.345	0.139
-355.566	-9.304	-0.085	-0.056
-354.552	-22.563	0.052	0.031
-353.537	-1.726	0.099	-0.069
-352.523	-67.882	0.121	-0.047
-351.508	347.862	0.120	-0.234
-350.493	-200.000	0.052	-0.246
-349.479	269.233	-0.189	0.328
-348.464	-171.767	-0.149	-0.005
-347.450	301.585	0.068	-0.124
-346.435	124.089	0.314	0.391
-345.420	32.238	-0.062	-0.053
-344.406	-200.000	-0.048	0.209
-343.391	467.048	-0.144	0.320
-342.377	-28.403	-0.274	-0.157
-341.362	165.396	0.093	0.131
-340.348	71.384	-0.237	0.244
-339.333	800.000	-0.021	-0.085
-338.318	-47.197	-0.189	0.091
-337.304	-124.684	0.217	0.033
-336.289	800.000	0.105	0.314
-335.275	425.613	0.095	0.202
-334.260	-40.126	-0.209	-0.108
-333.245	-95.270	0.058	0.016
-332.231	-57.166	-0.268	-0.117
-331.216	-144.595	0.195	-0.018
-330.202	-63.441	0.238	0.097
-329.187	-62.018	0.216	-0.089
-328.172	-176.123	-0.320	0.008
-327.158	282.168	0.058	-0.102
-326.143	-200.000	-0.013	-0.109
-325.129	-34.602	0.408	-0.221
-324.114	44.921	-0.058	-0.052
-323.099	-59.450	-0.291	-0.124
-322.085	-200.000	-0.029	-0.135
-321.070	688.557	-0.015	-0.040
-320.056	-118.002	0.137	0.024
-319.041	-33.267	-0.127	0.070
-318.026	127.648	-0.148	-0.185
-317.012	220.440	0.078	0.123
-315.997	-200.000	-0.002	-0.140
-314.983	-93.609	0.069	-0.019
-313.968	24.341	0.108	-0.088
-312.953	-61.205	-0.254	-0.106
-311.939	800.000	-0.069	0.232
-310.924	218.155	-0.200	-0.315
-309.910	-37.822	-0.157	-0.083
-308.895	-28.689	0.298	0.170
-307.880	463.844	-0.030	-0.067
-306.866	-136.469	-0.189	0.022
-305.851	723.063	-0.085	0.224
-304.837	-200.000	0.005	-0.232
-303.822	563.695	-0.081	-0.195
-302.807	800.000	0.092	0.255
-301.793	136.331	0.043	0.056
-300.778	-175.338	-0.094	0.003
-299.764	238.284	-0.089	-0.146
-298.749	-200.000	0.002	-0.123
-297.735	-112.193	0.138	0.027
-296.720	-43.039	0.211	-0.106
-295.705	36.434	0.100	-0.088
-294.691	171.165	0.145	-0.205
-293.676	105.769	-0.132	0.154
-292.662	108.752	0.211	-0.249
-291.647	709.883	-0.049	-0.128
-290.632	-72.860	-0.077	0.028
-289.618	-182.507	0.390	-0.007
-288.603	35.134	0.117	0.102
-287.589	-34.878	0.109	-0.059
-286.574	-90.712	0.176	-0.050
-285.559	-61.805	-0.088	0.037
-284.545	433.561	-0.156	0.334
-283.530	-68.218	0.495	-0.190
-282.516	119.469	-0.175	0.214
-281.501	11.707	0.096	-0.073
-280.486	-159.685	-0.228	-0.012
-279.472	-101.288	0.204	-0.049
-278.457	-80.395	-0.127	0.042
-277.443	180.788	0.117	-0.170
-276.428	17.932	0.188	-0.148
-275.413	800.000	-0.065	-0.265
-274.399	-167.968	0.199	-0.008
-273.384	800.000	-0.045	0.175
-272.370	262.938	-0.045	0.077
-271.355	-53.043	0.180	0.082
-270.340	-42.811	0.101	-0.051
-269.326	39.457	-0.105	-0.093
-268.311	441.469	0.106	0.229
-267.297	-52.103	-0.147	-0.067
-266.282	800.000	-0.063	-0.214
-265.267	135.078	0.038	-0.049
-264.253	159.913	0.233	-0.320
-263.238	-137.941	0.125	-0.014
-262.224	-163.747	0.182	-0.008
-261.209	-108.336	0.383	0.082
-260.195	247.681	0.162	-0.269
-259.180	-200.000	-0.064	-0.403
-258.165	657.936	0.032	0.080
-257.151	-102.543	0.227	0.054
-256.136	800.000	0.024	-0.088
-255.122	-174.210	0.180	-0.005
-254.107	-200.000	-0.060	-0.270
-253.092	800.000	-0.051	0.153
-252.078	-200.000	-0.015	0.114
-251.063	-129.594	-0.416	0.057
-250.049	2.807	0.212	-0.152
-249.034	-70.780	-0.101	-0.038
-248.019	-200.000	0.009	-0.142
-247.005	34.454	0.255	-0.220
-245.990	-172.053	-0.218	-0.007
-244.976	9.955	-0.171	-0.128
-243.961	-76.994	0.130	0.045
-242.946	-38.112	0.105	0.055
-241.932	-200.000	0.002	0.046
-240.917	-200.000	0.095	0.448
-239.903	317.388	0.037	-0.070
-238.888	-116.766	0.109	0.020
-237.873	234.362	0.045	-0.073
-236.859	326.042	0.097	-0.183
-235.844	286.624	-0.211	-0.376
-234.830	140.661	0.174	-0.226
-233.815	49.391	0.091	0.084
-232.800	166.112	-0.114	0.158
-231.786	-98.004	-0.199	0.050
-230.771	-158.836	-0.241	0.014
-229.757	800.000	-0.043	0.152
-228.742	-138.358	0.235	0.026
-227.727	-3.653	-0.320	-0.219
-226.713	-59.174	-0.353	-0.150
-225.698	-57.472	-0.354	-0.153
-224.684	-99.063	-0.050	-0.013
-223.669	-24.706	-0.137	-0.081
-222.655	491.165	0.098	0.221
-221.640	1.889	0.142	-0.101
-220.625	410.769	0.153	-0.319
-219.611	-152.399	0.383	0.027
-218.596	17.771	-0.157	-0.123
-217.582	-162.442	0.547	0.027
-216.567	32.648	-0.156	0.133
-215.552	-200.000	-0.030	-0.144
-214.538	-144.157	0.103	-0.009
-213.523	-109.001	-0.335	0.070
-212.509	800.000	-0.034	0.100
-211.494	-173.062	0.137	0.004
-210.479	3.349	0.202	-0.145
-209.465	-200.000	0.022	0.203
-208.450	-151.864	-0.319	0.023
-207.436	-200.000	-0.046	-0.235
-206.421	70.025	0.225	0.228
-205.406	67.667	0.162	0.163
-204.392	215.948	-0.116	-0.181
-203.377	-65.769	-0.270	-0.107
-202.363	479.676	0.169	-0.376
-201.348	-200.000	-0.044	-0.247
-200.333	-200.000	0.035	-0.269
-199.319	66.177	-0.392	0.391
-198.304	553.698	-0.027	0.064
-197.290	87.113	0.166	-0.180
-196.275	666.757	0.086	0.220
-195.260	-24.911	-0.112	-0.065
-194.246	-200.000	-0.005	0.331
-193.231	-2.853	0.293	0.202
-192.217	372.623	0.075	0.149
-191.202	-200.000	0.034	0.284
-190.187	-170.610	-0.160	-0.005
-189.173	-157.933	-0.414	0.024
-188.158	-200.000	0.007	0.321
-187.144	605.679	-0.056	0.137
-186.129	-142.188	-0.422	0.041
-185.114	-25.404	0.119	0.069
-184.100	-108.076	-0.101	-0.021
-183.085	355.446	0.147	0.287
-182.071	28.219	0.112	0.093
-181.056	800.000	0.030	0.082
-180.042	622.801	-0.132	-0.328
-179.027	-47.844	0.257	-0.122
-178.012	-175.414	-0.377	0.010
-176.998	800.000	0.073	0.278
-175.983	73.843	-0.061	0.063
-174.969	112.535	-0.107	0.128
-173.954	-127.220	0.407	-0.059
-172.939	112.048	0.052	-0.061
-171.925	800.000	-0.054	-0.194
-170.910	102.029	-0.083	0.095
-169.896	146.596	0.173	0.229
-168.881	-200.000	0.030	-0.263
-167.866	30.381	-0.108	-0.091
-166.852	81.620	-0.111	0.118
-165.837	-200.000	-0.017	-0.079
-164.823	-58.540	0.153	0.065
-163.808	306.372	0.190	-0.348
-162.793	-200.000	-0.017	0.376
-161.779	-84.188	-0.307	-0.096
-160.764	-200.000	-0.047	-0.380
-159.750	156.653	-0.032	-0.044
-158.735	146.843	-0.206	-0.272
-157.720	15.624	0.226	0.175
-156.706	-200.000	-0.050	-0.401
-155.691	-200.000	-0.007	0.263
-154.677	-17.590	0.134	-0.083
-153.662	221.634	-0.128	0.202
-152.647	-47.326	0.040	-0.019
-151.633	-25.415	-0.248	-0.144
-150.618	-12.937	0.189	0.121
-149.604	-71.167	-0.106	-0.039
-148.589	111.551	0.017	0.020
-147.574	-49.892	-0.108	-0.050
-146.560	-132.665	-0.132	0.017
-145.545	186.692	0.198	0.290
-144.531	-200.000	-0.013	0.081
-143.516	800.000	0.049	-0.177
-142.502	146.000	-0.154	-0.203
-141.487	-57.960	-0.157	0.068
-140.472	-127.071	-0.100	-0.014
-139.458	-200.000	0.013	0.071
-138.443	-66.157	-0.068	-0.027
-137.429	392.558	-0.109	-0.223
-136.414	-41.528	-0.141	0.071
-135.399	45.872	0.227	0.206
-134.385	26.854	0.237	0.195
-133.370	-200.000	0.004	0.281
-132.356	-41.386	-0.270	0.136
-131.341	800.000	-0.065	-0.214
-130.326	800.000	-0.079	-0.303
-129.312	406.675	0.092	-0.191
-128.297	-20.104	0.433	-0.262
-127.283	-47.538	0.087	-0.042
-126.268	-200.000	0.002	0.321
-125.253	-36.877	-0.137	-0.072
-124.239	-127.740	-0.197	-0.028
-123.224	96.472	-0.129	-0.145
-122.210	79.299	0.164	0.172
-121.195	-64.333	0.267	-0.107
