DTS Sentinel unit serial number:	SN413079Multiplexer serial number:	ORYXHardware model number:	OX4-SRSoftware version number:	ORYX F/W v4.00 Oryx Data Collector v3.7.2.0data status	okinstallation	princeton_trtdifferential loss correction	single-endedforward channel	channel 3reverse channel	N/Adate	2019/09/13time	00:20:35forward acquisition time	60.00reverse acquisition time	0.00gamma	496.2192k internal	0.2330k external	0.2330temperature offset calibration	1.0131default loss term (dB/km)	0.3790temperature slope calibration	1.0000multiplexer offset coefficient	1.0000multiplexer slope coefficient	1.0000fibre end	0.00T internal ref (°C)	28.47T ext. ref 1 (°C)	3.75T ext. ref 2 (°C)	23.13length (m)	temperature (°C)	Stokes	anti-Stokes-747.200	516.862	0.170	-0.401
-746.185	-165.523	-0.492	-0.022
-745.171	66.192	-0.149	-0.152
-744.156	800.000	0.105	0.428
-743.142	-147.600	0.060	-0.005
-742.127	-25.451	-0.117	-0.069
-741.112	-200.000	0.036	0.291
-740.098	88.894	0.176	0.197
-739.083	-23.866	0.127	-0.076
-738.069	800.000	0.093	0.352
-737.054	800.000	0.108	-0.411
-736.039	-200.000	-0.022	0.156
-735.025	97.492	-0.172	0.199
-734.010	-54.705	-0.046	0.021
-732.996	-19.768	-0.254	-0.158
-731.981	-1.624	-0.220	0.156
-730.966	-34.802	0.133	0.073
-729.952	-39.258	-0.212	0.112
-728.937	-200.000	-0.026	-0.182
-727.923	-200.000	0.050	-0.326
-726.908	17.024	0.088	-0.071
-725.894	-63.482	0.014	-0.006
-724.879	-200.000	0.071	-0.425
-723.864	-200.000	-0.055	-0.393
-722.850	118.279	0.077	0.095
-721.835	34.694	-0.047	-0.041
-720.821	-58.230	-0.112	-0.049
-719.806	527.031	0.051	0.121
-718.791	-148.381	0.103	-0.008
-717.777	-88.710	-0.367	0.110
-716.762	651.543	0.090	-0.232
-715.748	-200.000	-0.012	-0.196
-714.733	-9.911	-0.101	-0.068
-713.718	-138.686	-0.293	-0.032
-712.704	104.527	0.037	0.044
-711.689	-112.820	0.116	0.023
-710.675	-53.905	0.246	-0.113
-709.660	-11.107	-0.111	-0.073
-708.645	60.125	-0.141	-0.140
-707.631	3.875	-0.127	0.093
-706.616	28.060	-0.109	-0.093
-705.602	113.816	-0.231	-0.282
-704.587	223.464	-0.083	-0.134
-703.572	42.097	0.056	-0.051
-702.558	-121.703	0.103	0.017
-701.543	800.000	-0.030	-0.130
-700.529	-140.442	-0.380	-0.040
-699.514	800.000	-0.144	-0.483
-698.499	157.634	-0.126	0.175
-697.485	58.686	0.158	-0.156
-696.470	-200.000	-0.029	0.265
-695.456	-72.889	0.160	-0.059
-694.441	-27.246	-0.296	-0.173
-693.426	211.004	0.211	-0.334
-692.412	-17.368	-0.176	-0.112
-691.397	-129.697	0.336	0.047
-690.383	-101.009	-0.221	-0.054
-689.368	800.000	0.130	-0.369
-688.354	-183.643	0.123	-0.002
-687.339	21.663	0.145	-0.118
-686.324	-200.000	-0.049	-0.234
-685.310	-200.000	0.003	-0.185
-684.295	225.433	-0.124	-0.202
-683.281	-112.850	0.140	0.028
-682.266	24.809	-0.077	0.064
-681.251	790.718	0.117	-0.322
-680.237	90.391	0.155	0.175
-679.222	-200.000	-0.057	0.259
-678.208	-131.405	0.343	-0.046
-677.193	31.338	0.128	0.110
-676.178	-200.000	-0.030	0.137
-675.164	-5.152	0.275	0.190
-674.149	-30.521	-0.139	-0.079
-673.135	58.009	-0.214	-0.210
-672.120	-200.000	-0.000	-0.063
-671.105	-46.776	0.241	-0.118
-670.091	189.598	-0.327	-0.493
-669.076	-200.000	0.010	-0.294
-668.062	476.925	-0.062	-0.141
-667.047	-200.000	-0.017	-0.087
-666.032	7.591	-0.187	-0.140
-665.018	55.041	-0.099	-0.096
-664.003	40.944	0.236	0.213
-662.989	12.657	0.194	-0.150
-661.974	255.738	-0.035	0.061
-660.959	-200.000	-0.010	-0.046
-659.945	482.017	0.079	-0.181
-658.930	-178.242	-0.312	-0.007
-657.916	-84.993	-0.430	0.135
-656.901	-76.891	-0.119	-0.042
-655.886	64.778	0.205	-0.207
-654.872	-200.000	0.006	-0.231
-653.857	-200.000	0.007	-0.166
-652.843	-200.000	-0.016	-0.142
-651.828	302.539	-0.089	-0.164
-650.814	800.000	-0.039	-0.151
-649.799	13.238	-0.277	-0.216
-648.784	-200.000	0.007	0.172
-647.770	478.634	0.080	-0.183
-646.755	-57.488	-0.153	0.067
-645.741	134.252	0.007	0.009
-644.726	123.180	-0.228	0.287
-643.711	-135.518	0.063	0.008
-642.697	800.000	0.161	-0.472
-641.682	64.530	-0.155	-0.157
-640.668	273.198	0.076	-0.135
-639.653	-200.000	0.000	0.195
-638.638	-88.826	0.268	-0.080
-637.624	800.000	-0.087	-0.260
-636.609	19.068	0.038	0.031
-635.595	-95.973	-0.090	0.024
-634.580	-200.000	-0.010	-0.126
-633.565	-47.543	0.299	-0.146
-632.551	-16.234	-0.226	0.144
-631.536	-200.000	0.076	0.381
-630.522	-200.000	-0.006	-0.205
-629.507	33.115	-0.017	0.015
-628.492	-200.000	0.000	-0.077
-627.478	-27.063	0.071	-0.042
-626.463	-200.000	-0.030	0.389
-625.449	220.888	0.142	-0.228
-624.434	141.363	0.140	0.185
-623.419	-142.409	0.142	-0.014
-622.405	449.218	0.150	0.331
-621.390	224.057	-0.114	-0.184
-620.376	-46.654	0.181	-0.089
-619.361	93.151	-0.310	-0.351
-618.346	-200.000	-0.088	-0.431
-617.332	-34.903	0.248	-0.135
-616.317	11.181	-0.097	-0.074
-615.303	800.000	0.072	0.206
-614.288	250.920	0.080	-0.136
-613.273	165.628	0.169	0.240
-612.259	-43.639	0.111	0.056
-611.244	354.334	0.134	-0.267
-610.230	800.000	0.025	0.100
-609.215	-10.688	-0.152	0.101
-608.201	199.750	-0.186	-0.285
-607.186	251.474	0.158	-0.269
-606.171	-200.000	-0.022	-0.187
-605.157	-136.632	-0.183	0.021
-604.142	96.677	0.230	0.263
-603.128	-200.000	0.056	0.244
-602.113	543.498	0.096	-0.229
-601.098	113.671	-0.197	-0.240
-600.084	-200.000	0.007	0.140
-599.069	-34.855	0.067	-0.037
-598.055	-198.724	-0.304	0.002
-597.040	-143.907	-0.357	-0.034
-596.025	574.099	-0.089	-0.217
-595.011	-41.071	0.155	0.080
-593.996	-157.655	-0.232	0.014
-592.982	-67.095	-0.197	-0.078
-591.967	-92.152	-0.102	0.029
-590.952	52.983	-0.139	-0.133
-589.938	48.590	-0.096	-0.090
-588.923	-200.000	-0.010	0.052
-587.909	-200.000	0.015	-0.263
-586.894	144.723	-0.120	0.160
-585.879	181.766	0.109	-0.160
-584.865	26.564	0.418	0.350
-583.850	128.755	-0.145	-0.185
-582.836	263.186	-0.107	-0.187
-581.821	-200.000	0.029	0.178
-580.806	-42.821	-0.510	0.259
-579.792	93.056	-0.075	0.084
-578.777	446.920	0.116	-0.254
-577.763	167.379	-0.080	-0.114
-576.748	192.154	0.131	0.197
-575.733	226.263	-0.136	0.221
-574.719	50.602	-0.095	0.090
-573.704	-200.000	0.055	0.303
-572.690	-200.000	-0.016	-0.125
-571.675	800.000	0.070	-0.255
-570.661	-74.650	0.145	0.052
-569.646	253.153	-0.217	-0.370
-568.631	-37.516	-0.166	-0.088
-567.617	-17.975	-0.224	-0.140
-566.602	800.000	-0.049	-0.146
-565.588	184.087	0.214	0.317
-564.573	-51.070	-0.204	-0.096
-563.558	80.867	-0.047	0.050
-562.544	246.794	0.097	-0.164
-561.529	79.188	0.215	0.231
-560.515	0.701	-0.011	0.008
-559.500	154.467	-0.153	-0.209
-558.485	-11.254	-0.278	0.183
-557.471	139.342	0.274	0.360
-556.456	-129.641	-0.055	0.008
-555.442	800.000	-0.035	-0.122
-554.427	4.722	-0.032	0.024
-553.412	161.864	-0.228	0.320
-552.398	-76.830	-0.203	-0.071
-551.383	-107.475	-0.352	-0.077
-550.369	568.417	-0.127	0.308
-549.354	-62.326	-0.188	-0.078
-548.339	-148.220	-0.140	0.012
-547.325	92.623	0.071	-0.081
-546.310	190.689	-0.144	-0.217
-545.296	-100.315	-0.154	-0.038
-544.281	-200.000	-0.021	0.171
-543.266	-200.000	0.013	0.253
-542.252	800.000	0.044	-0.154
-541.237	-87.688	0.187	-0.056
-540.223	-121.106	0.216	-0.036
-539.208	-17.148	0.199	-0.125
-538.193	-161.430	-0.260	-0.013
-537.179	-49.310	0.157	-0.075
-536.164	-200.000	-0.018	-0.284
-535.150	377.470	-0.148	0.303
-534.135	-200.000	0.039	0.250
-533.121	303.707	-0.066	0.122
-532.106	-99.783	-0.144	-0.036
-531.091	-128.681	0.177	-0.025
-530.077	-200.000	0.050	-0.273
-529.062	722.099	-0.030	0.079
-528.048	520.139	0.028	0.066
-527.033	-17.660	0.128	-0.080
-526.018	-11.693	-0.231	0.151
-525.004	12.236	-0.193	-0.148
-523.989	-114.868	0.353	-0.067
-522.975	-200.000	-0.020	0.198
-521.960	-66.051	0.111	0.044
-520.945	52.812	-0.053	0.051
-519.931	-86.880	-0.075	-0.023
-518.916	-143.403	0.061	0.006
-517.902	-177.175	0.085	-0.002
-516.887	-200.000	0.061	-0.317
-515.872	53.455	-0.113	-0.108
-514.858	-76.873	-0.161	-0.056
-513.843	31.983	0.058	-0.050
-512.829	28.935	-0.179	-0.152
-511.814	197.432	-0.154	0.234
-510.799	98.415	-0.384	-0.442
-509.785	7.490	0.193	0.144
-508.770	98.209	-0.154	0.177
-507.756	-123.919	-0.197	-0.031
-506.741	178.355	0.122	-0.177
-505.726	-77.279	0.191	-0.066
-504.712	-193.211	-0.092	0.001
-503.697	66.718	-0.326	0.331
-502.683	-1.577	-0.293	-0.206
-501.668	-96.242	0.334	0.088
-500.653	-200.000	-0.031	-0.203
-499.639	239.781	0.196	-0.326
-498.624	145.000	-0.088	-0.117
-497.610	-64.361	0.174	0.071
-496.595	118.256	0.212	-0.261
-495.581	48.862	0.167	0.156
-494.566	800.000	0.054	0.174
-493.551	-154.316	0.253	-0.017
-492.537	179.143	-0.203	-0.296
-491.522	-44.323	0.374	-0.187
-490.508	78.659	-0.240	-0.256
-489.493	11.460	0.138	-0.105
-488.478	-66.089	0.265	0.106
-487.464	-200.000	-0.040	0.277
-486.449	-97.564	-0.176	-0.045
-485.435	-43.856	-0.214	0.107
-484.420	-72.171	-0.477	-0.176
-483.405	59.819	-0.062	-0.061
-482.391	800.000	0.029	0.126
-481.376	82.765	-0.135	0.147
-480.362	36.254	-0.093	-0.082
-479.347	800.000	-0.031	0.113
-478.332	272.216	-0.092	-0.161
-477.318	59.912	-0.258	-0.254
-476.303	281.487	-0.052	-0.092
-475.289	-70.043	0.533	-0.202
-474.274	-200.000	-0.014	-0.159
-473.259	402.358	0.157	-0.328
-472.245	419.212	-0.179	-0.382
-471.230	379.868	0.113	0.231
-470.216	66.660	0.182	-0.184
-469.201	-71.841	0.108	-0.040
-468.186	800.000	-0.069	0.242
-467.172	-200.000	-0.012	0.293
-466.157	118.908	0.160	0.196
-465.143	62.734	-0.286	-0.284
-464.128	101.245	0.120	-0.140
-463.113	-74.531	-0.128	-0.046
-462.099	800.000	0.043	-0.120
-461.084	-78.166	-0.263	0.090
-460.070	117.002	0.165	0.202
-459.055	161.790	-0.184	0.256
-458.040	-200.000	-0.025	-0.131
-457.026	671.338	-0.068	0.175
-456.011	-152.964	-0.094	0.007
-454.997	-200.000	0.233	-0.001
-453.982	-200.000	-0.035	-0.189
-452.968	-40.700	0.334	-0.172
-451.953	-30.087	-0.176	0.100
-450.938	70.233	0.205	0.210
-449.924	-190.197	0.127	0.001
-448.909	-73.020	-0.168	-0.061
-447.895	6.207	-0.108	0.080
-446.880	11.619	0.143	0.109
-445.865	-67.362	-0.268	0.105
-444.851	-70.244	-0.494	0.187
-443.836	249.544	-0.135	0.228
-442.822	46.138	-0.118	0.108
-441.807	-34.500	-0.056	0.031
-440.792	-16.745	0.341	0.215
-439.778	137.279	0.124	0.162
-438.763	314.975	-0.065	0.123
-437.749	76.280	0.073	0.076
-436.734	-200.000	0.048	-0.309
-435.719	-95.642	-0.236	-0.063
-434.705	-31.741	0.409	-0.228
-433.690	62.274	0.160	0.158
-432.676	-60.569	0.232	-0.098
-431.661	-137.617	0.254	-0.028
-430.646	-200.000	0.015	-0.322
-429.632	-59.455	0.254	0.108
-428.617	-200.000	-0.049	-0.302
-427.603	-200.000	0.015	-0.351
-426.588	-111.544	-0.279	-0.056
-425.573	11.587	-0.086	0.066
-424.559	-200.000	-0.025	-0.124
-423.544	800.000	0.061	-0.253
-422.530	-60.032	0.293	-0.124
-421.515	-107.974	-0.097	-0.021
-420.500	81.152	-0.123	0.132
-419.486	-58.663	0.374	0.161
-418.471	-200.000	0.048	-0.224
-417.457	-34.527	0.472	-0.257
-416.442	43.452	-0.307	0.279
-415.428	800.000	-0.074	0.246
-414.413	66.102	-0.141	-0.142
-413.398	25.756	0.434	0.359
-412.384	-127.204	0.091	-0.013
-411.369	-119.155	0.261	-0.045
-410.355	-142.071	0.335	-0.033
-409.340	127.403	-0.146	-0.185
-408.325	177.412	-0.143	-0.207
-407.311	49.310	0.140	-0.131
-406.296	-200.000	-0.059	0.329
-405.282	173.737	-0.085	0.122
-404.267	-79.430	0.196	-0.066
-403.252	-36.589	0.112	-0.060
-402.238	-112.810	0.370	-0.073
-401.223	-84.262	-0.273	-0.086
-400.209	132.863	-0.228	0.292
-399.194	800.000	0.085	0.340
-398.179	-149.916	-0.199	-0.015
-397.165	-91.006	0.197	0.056
-396.150	800.000	-0.078	0.222
-395.136	35.509	-0.149	0.130
-394.121	475.969	0.097	0.218
-393.106	-8.951	-0.073	0.048
-392.092	107.313	-0.180	0.212
-391.077	-200.000	0.009	0.055
-390.063	-95.875	0.120	-0.032
-389.048	800.000	-0.101	-0.312
-388.033	91.302	-0.207	-0.231
-387.019	-78.256	0.187	0.064
-386.004	-186.587	0.324	0.005
-384.990	-14.221	-0.167	0.107
-383.975	171.944	-0.035	0.050
-382.960	10.470	0.294	0.223
-381.946	-121.132	-0.150	0.025
-380.931	26.340	-0.069	-0.057
-379.917	-9.554	0.083	0.055
-378.902	-158.778	0.412	0.023
-377.888	-19.975	0.021	-0.013
-376.873	-121.486	-0.138	-0.023
-375.858	7.729	0.327	0.243
-374.844	-200.000	-0.001	-0.122
-373.829	154.283	0.105	-0.143
-372.815	30.100	-0.117	-0.099
-371.800	-144.118	0.284	0.026
-370.785	-59.566	-0.183	-0.078
-369.771	-191.593	0.408	-0.004
-368.756	-54.877	0.063	0.028
-367.742	-200.000	0.016	-0.133
-366.727	339.918	-0.078	0.150
-365.712	-11.225	-0.163	0.107
-364.698	215.579	0.053	-0.083
-363.683	-32.280	0.134	0.074
-362.669	2.361	0.276	0.198
-361.654	-200.000	-0.004	0.023
-360.639	-121.911	-0.397	0.065
-359.625	-55.899	-0.122	0.054
-358.610	58.873	-0.138	0.135
-357.596	184.514	-0.319	0.469
-356.581	-107.453	-0.294	-0.064
-355.566	469.846	-0.033	-0.074
-354.552	-200.000	-0.078	0.406
-353.537	-47.033	0.152	-0.073
-352.523	-200.000	0.012	0.165
-351.508	-132.669	0.247	-0.031
-350.493	393.672	-0.111	0.229
-349.479	800.000	0.071	-0.225
-348.464	128.300	-0.106	-0.134
-347.450	32.430	-0.027	-0.023
-346.435	55.184	-0.062	0.059
-345.420	800.000	0.081	0.224
-344.406	-109.771	0.422	-0.088
-343.391	-32.383	-0.132	-0.073
-342.377	-49.235	0.435	0.206
-341.362	159.165	0.162	0.223
-340.348	800.000	-0.128	0.450
-339.333	279.691	-0.179	0.317
-338.318	-200.000	0.044	-0.284
-337.304	-200.000	-0.025	0.151
-336.289	800.000	-0.095	-0.359
-335.275	-46.387	0.238	-0.116
-334.260	-3.511	-0.086	-0.059
-333.245	-200.000	0.024	-0.158
-332.231	-51.435	-0.124	0.057
-331.216	-69.398	0.062	0.023
-330.202	-78.209	0.292	0.099
-329.187	-200.000	-0.022	-0.152
-328.172	-141.449	0.122	-0.012
-327.158	45.717	0.210	0.192
-326.143	-199.638	0.279	-0.001
-325.129	-200.000	0.025	-0.146
-324.114	-138.541	-0.076	-0.008
-323.099	-200.000	0.022	-0.139
-322.085	221.384	-0.109	-0.174
-321.070	37.831	0.105	-0.092
-320.056	-200.000	-0.005	-0.072
-319.041	-53.533	-0.152	0.069
-318.026	229.344	-0.171	0.276
-317.012	-16.153	-0.178	0.112
-315.997	139.505	0.240	-0.313
-314.983	-132.175	0.092	-0.012
-313.968	800.000	-0.071	0.292
-312.953	-114.736	0.127	0.024
-311.939	139.904	-0.049	-0.064
-310.924	25.110	0.275	-0.226
-309.910	-87.840	-0.119	-0.036
-308.895	-32.361	0.093	-0.051
-307.880	-4.528	-0.139	-0.095
-306.866	308.038	0.054	-0.100
-305.851	-114.757	0.240	-0.045
-304.837	42.702	-0.250	-0.226
-303.822	54.773	-0.093	-0.089
-302.807	-155.529	-0.438	-0.028
-301.793	-141.201	-0.230	-0.023
-300.778	-27.474	-0.132	-0.076
-299.764	800.000	-0.054	-0.232
-298.749	800.000	0.085	-0.321
-297.735	-76.869	-0.303	0.105
-296.720	-77.251	-0.042	0.015
-295.705	800.000	0.076	0.246
-294.691	-6.305	0.315	-0.213
-293.676	210.559	-0.184	0.286
-292.662	-5.952	0.154	0.104
-291.647	39.991	-0.179	-0.159
-290.632	-120.483	-0.328	0.055
-289.618	800.000	-0.093	0.261
-288.603	800.000	-0.038	0.108
-287.589	-110.652	0.090	-0.018
-286.574	800.000	0.123	0.528
-285.559	32.227	-0.157	0.134
-284.545	379.255	-0.058	0.117
-283.530	67.794	-0.187	0.189
-282.516	284.845	-0.100	0.178
-281.501	-93.097	0.122	-0.033
-280.486	800.000	0.085	-0.265
-279.472	800.000	0.034	0.129
-278.457	26.322	0.051	-0.042
-277.443	800.000	0.046	-0.135
-276.428	465.742	-0.026	0.057
-275.413	89.120	-0.129	0.142
-274.399	91.155	-0.116	-0.128
-273.384	-18.006	-0.136	0.084
-272.370	-119.907	-0.427	-0.073
-271.355	-114.323	-0.304	-0.058
-270.340	378.552	-0.068	-0.138
-269.326	-23.185	-0.169	-0.101
-268.311	-123.256	-0.085	-0.013
-267.297	242.042	0.134	0.222
-266.282	-200.000	0.000	-0.072
-265.267	43.923	0.197	-0.178
-264.253	77.141	-0.171	0.180
-263.238	-163.953	0.188	0.009
-262.224	250.377	-0.143	0.240
-261.209	75.144	-0.106	0.111
-260.195	-200.000	-0.026	0.185
-259.180	-122.392	0.412	-0.066
-258.165	-61.900	0.171	-0.071
-257.151	-19.910	0.169	-0.103
-256.136	-200.000	0.033	0.198
-255.122	515.481	-0.127	0.293
-254.107	800.000	-0.041	0.170
-253.092	787.963	-0.073	-0.197
-252.078	-92.675	-0.492	-0.136
-251.063	-27.519	0.159	-0.091
-250.049	123.581	-0.301	0.372
-249.034	-146.369	-0.300	0.026
-248.019	713.005	0.047	-0.124
-247.005	218.750	0.151	-0.238
-245.990	-98.273	-0.284	-0.072
-244.976	800.000	0.021	0.063
-243.961	38.790	0.115	-0.101
-242.946	-41.840	-0.122	-0.062
-241.932	208.369	-0.081	-0.125
-240.917	28.472	0.095	0.079
-239.903	-67.295	0.350	0.136
-238.888	-200.000	0.036	-0.246
-237.873	-98.397	-0.145	-0.037
-236.859	188.510	0.265	-0.391
-235.844	65.365	0.126	0.126
-234.830	141.457	0.032	-0.042
-233.815	-200.000	0.035	-0.204
-232.800	74.864	0.130	0.135
-231.786	209.073	0.130	-0.201
-230.771	-200.000	0.008	0.094
-229.757	-153.683	-0.156	-0.011
-228.742	-2.337	0.188	-0.130
-227.727	56.045	-0.111	-0.106
-226.713	-200.000	-0.049	-0.481
-225.698	-200.000	0.053	-0.364
-224.684	291.798	0.137	-0.247
-223.669	-34.622	0.087	0.047
-222.655	-55.711	0.147	0.065
-221.640	-57.094	-0.433	-0.188
-220.625	65.402	-0.092	-0.092
-219.611	-200.000	-0.002	0.124
-218.596	-112.785	-0.350	0.069
-217.582	-200.000	0.005	0.108
-216.567	-200.000	-0.034	0.184
-215.552	532.796	-0.059	0.139
-214.538	-47.479	0.069	0.033
-213.523	-200.000	0.002	0.071
-212.509	119.055	-0.180	0.219
-211.494	-200.000	0.021	-0.142
-210.479	81.964	0.294	0.314
-209.465	47.339	-0.104	0.096
-208.450	800.000	-0.123	0.416
-207.436	297.105	-0.212	0.384
-206.421	-83.356	0.182	0.057
-205.406	-73.134	-0.094	0.034
-204.392	-15.566	-0.038	-0.024
-203.377	800.000	0.092	0.307
-202.363	-151.423	0.129	-0.009
-201.348	337.267	0.028	-0.053
-200.333	197.488	-0.104	0.156
-199.319	292.790	0.026	0.046
-198.304	-78.470	0.259	0.087
-197.290	225.397	0.004	0.007
-196.275	39.088	-0.173	-0.152
-195.260	63.604	0.129	0.127
-194.246	72.362	0.145	0.148
-193.231	-131.955	-0.122	0.016
-192.217	-200.000	-0.045	0.196
-191.202	-200.000	-0.026	0.134
-190.187	-3.214	0.086	0.059
-189.173	32.538	0.292	-0.248
-188.158	-200.000	0.000	-0.168
-187.144	571.309	-0.122	-0.293
-186.129	68.826	0.225	-0.227
-185.114	-200.000	-0.031	-0.348
-184.100	800.000	-0.056	-0.177
-183.085	-123.382	0.084	0.013
-182.071	-67.769	0.213	-0.082
-181.056	800.000	0.024	0.085
-180.042	-86.127	0.198	-0.060
-179.027	507.181	-0.122	0.280
-178.012	384.755	-0.155	0.314
-176.998	-108.024	0.474	-0.101
-175.983	58.790	0.200	-0.194
-174.969	-200.000	0.089	0.404
-173.954	372.353	-0.042	-0.084
-172.939	152.823	0.216	-0.291
-171.925	-200.000	0.029	0.381
-170.910	-116.231	0.061	-0.011
-169.896	54.791	0.061	-0.058
-168.881	155.622	-0.185	0.251
-167.866	-70.568	0.380	0.141
-166.852	197.296	0.117	-0.176
-165.837	800.000	0.065	0.259
-164.823	307.612	0.119	-0.218
-163.808	360.473	0.041	0.080
-162.793	41.835	-0.072	0.064
-161.779	176.118	-0.241	0.344
-160.764	-200.000	0.033	-0.292
-159.750	-73.240	0.141	0.051
-158.735	160.466	-0.049	0.068
-157.720	440.072	0.105	-0.225
-156.706	109.936	0.143	-0.169
-155.691	-200.000	-0.048	0.396
-154.677	583.218	0.189	0.457
-153.662	-31.434	0.114	0.063
-152.647	-98.394	-0.264	0.066
-151.633	421.368	0.143	-0.302
-150.618	800.000	0.096	-0.275
-149.604	2.088	0.018	-0.013
-148.589	-19.889	-0.120	-0.073
-147.574	-48.780	0.221	-0.104
-146.560	199.355	0.127	0.191
-145.545	-25.786	-0.273	-0.158
-144.531	800.000	0.084	-0.324
-143.516	-200.000	0.015	0.187
-142.502	-43.174	-0.172	0.085
-141.487	-200.000	0.025	-0.315
-140.472	800.000	-0.079	-0.223
-139.458	392.387	0.088	-0.179
-138.443	94.351	0.100	0.112
-137.429	-49.826	0.127	0.059
-136.414	-200.000	-0.057	0.313
-135.399	800.000	-0.030	-0.114
-134.385	-13.969	0.161	-0.102
-133.370	314.286	-0.117	-0.217
-132.356	108.774	-0.076	-0.089
-131.341	-200.000	0.006	0.074
-130.326	-138.066	0.171	0.019
-129.312	29.613	-0.171	-0.143
-128.297	-200.000	0.043	0.306
-127.283	-114.576	0.175	-0.033
-126.268	-149.479	-0.186	0.015
-125.253	62.352	-0.309	-0.303
-124.239	-130.460	-0.337	-0.045
-123.224	-200.000	-0.028	-0.441
-122.210	276.644	0.154	-0.268
