DTS Sentinel unit serial number:	SN413079Multiplexer serial number:	ORYXHardware model number:	OX4-SRSoftware version number:	ORYX F/W v4.00 Oryx Data Collector v3.7.2.0data status	okinstallation	princeton_trtdifferential loss correction	single-endedforward channel	channel 3reverse channel	N/Adate	2019/09/15time	10:16:34forward acquisition time	60.00reverse acquisition time	0.00gamma	496.2192k internal	0.2307k external	0.2307temperature offset calibration	0.9973default loss term (dB/km)	0.3790temperature slope calibration	1.0000multiplexer offset coefficient	1.0000multiplexer slope coefficient	1.0000fibre end	0.00T internal ref (°C)	34.25T ext. ref 1 (°C)	5.03T ext. ref 2 (°C)	29.64length (m)	temperature (°C)	Stokes	anti-Stokes-747.200	800.000	-0.070	0.289
-746.185	-139.349	0.222	-0.024
-745.171	88.854	0.135	0.153
-744.156	120.221	0.111	-0.140
-743.142	-200.000	-0.025	-0.255
-742.127	-86.498	-0.173	0.054
-741.112	-200.000	-0.015	0.090
-740.098	57.985	0.061	0.061
-739.083	-200.000	-0.032	-0.276
-738.069	-35.333	0.148	-0.082
-737.054	-200.000	-0.014	-0.265
-736.039	19.584	-0.357	-0.292
-735.025	169.873	0.017	-0.024
-734.010	143.300	-0.063	-0.085
-732.996	-200.000	0.014	0.443
-731.981	84.415	0.166	0.185
-730.966	-32.752	0.209	0.118
-729.952	-48.205	0.113	-0.055
-728.937	652.278	-0.175	-0.457
-727.923	147.835	-0.239	-0.327
-726.908	-200.000	0.046	0.368
-725.894	-64.297	0.093	-0.039
-724.879	-92.126	-0.036	-0.010
-723.864	-34.070	-0.122	0.068
-722.850	45.139	-0.310	0.290
-721.835	321.805	0.079	-0.152
-720.821	-200.000	-0.011	0.117
-719.806	-47.609	-0.156	0.077
-718.791	90.104	-0.086	-0.097
-717.777	-45.875	-0.342	0.172
-716.762	-149.664	-0.027	-0.002
-715.748	800.000	-0.121	-0.475
-714.733	-173.763	0.332	0.010
-713.718	6.903	-0.317	-0.240
-712.704	-107.813	-0.443	-0.098
-711.689	800.000	0.015	0.050
-710.675	-12.553	-0.173	-0.115
-709.660	-180.471	-0.429	0.009
-708.645	-90.929	-0.181	0.053
-707.631	-200.000	-0.012	-0.166
-706.616	290.198	-0.153	-0.282
-705.602	-174.559	0.129	-0.004
-704.587	-200.000	-0.015	-0.291
-703.572	-126.026	-0.481	0.073
-702.558	-81.867	-0.046	-0.015
-701.543	102.099	-0.280	-0.332
-700.529	800.000	0.087	-0.292
-699.514	-39.761	-0.106	0.056
-698.499	-200.000	-0.018	0.114
-697.485	-23.955	0.072	-0.044
-696.470	-99.307	-0.042	0.011
-695.456	800.000	-0.088	0.299
-694.441	-73.276	-0.205	-0.076
-693.426	-103.663	0.339	-0.081
-692.412	362.246	0.072	0.146
-691.397	-4.817	-0.413	0.289
-690.383	672.152	-0.144	0.378
-689.368	-158.875	0.105	0.006
-688.354	97.769	0.120	0.140
-687.339	-200.000	-0.007	-0.158
-686.324	-158.546	-0.070	0.004
-685.310	-200.000	-0.006	0.067
-684.295	69.741	-0.286	0.299
-683.281	87.226	-0.032	-0.035
-682.266	-28.184	0.299	-0.175
-681.251	543.229	0.099	0.240
-680.237	69.711	-0.168	-0.176
-679.222	-170.743	0.292	0.010
-678.208	-200.000	0.009	0.113
-677.193	800.000	-0.069	0.241
-676.178	33.661	-0.075	0.067
-675.164	-35.536	-0.401	-0.221
-674.149	91.150	-0.240	-0.273
-673.135	-103.979	0.277	-0.066
-672.120	-70.996	0.198	0.075
-671.105	-93.023	-0.072	-0.020
-670.091	800.000	-0.106	-0.367
-669.076	-200.000	0.006	-0.126
-668.062	-200.000	-0.055	0.288
-667.047	185.759	-0.221	0.332
-666.032	-7.443	-0.443	-0.304
-665.018	300.312	0.039	-0.073
-664.003	-106.242	0.203	0.046
-662.989	-60.725	-0.054	0.023
-661.974	-66.068	0.166	-0.067
-660.959	-200.000	0.027	0.202
-659.945	-139.030	0.378	0.041
-658.930	282.301	-0.150	0.272
-657.916	274.918	-0.196	0.352
-656.901	8.457	-0.284	-0.216
-655.886	42.650	-0.217	-0.200
-654.872	29.022	-0.162	-0.140
-653.857	197.992	0.035	0.055
-652.843	800.000	0.025	-0.098
-651.828	37.347	-0.157	0.141
-650.814	606.002	0.079	0.199
-649.799	800.000	0.050	-0.179
-648.784	-101.822	-0.173	0.042
-647.770	-200.000	-0.055	-0.254
-646.755	-200.000	-0.003	0.059
-645.741	-200.000	-0.004	-0.184
-644.726	-128.404	0.155	0.022
-643.711	800.000	-0.040	-0.128
-642.697	393.341	-0.119	0.251
-641.682	-72.541	0.216	0.081
-640.668	206.319	-0.020	0.032
-639.653	-24.982	0.052	-0.031
-638.638	-170.604	-0.257	0.009
-637.624	-107.330	0.137	-0.031
-636.609	-200.000	-0.007	0.142
-635.595	24.036	-0.103	-0.086
-634.580	-200.000	-0.023	0.103
-633.565	-3.853	-0.270	-0.189
-632.551	100.994	0.306	-0.360
-631.536	-31.817	-0.196	-0.111
-630.522	-70.460	-0.071	-0.027
-629.507	49.250	0.286	0.273
-628.492	-20.724	-0.143	0.089
-627.478	-93.146	-0.359	-0.101
-626.463	-200.000	-0.006	-0.162
-625.449	-115.602	-0.166	-0.031
-624.434	-128.269	-0.039	-0.006
-623.419	-47.779	0.221	-0.108
-622.405	-186.910	-0.128	-0.002
-621.390	-29.727	-0.139	0.080
-620.376	121.986	-0.128	0.161
-619.361	-200.000	0.001	0.211
-618.346	-176.091	-0.134	-0.004
-617.332	244.558	0.090	-0.153
-616.317	-150.089	-0.227	-0.018
-615.303	47.735	0.081	0.076
-614.288	-95.684	0.320	-0.087
-613.273	309.295	0.077	0.145
-612.259	-11.041	0.115	-0.077
-611.244	59.767	-0.141	-0.141
-610.230	-140.891	0.285	-0.030
-609.215	-55.535	0.323	0.146
-608.201	190.667	-0.085	0.129
-607.186	641.333	0.047	0.121
-606.171	-24.233	-0.030	0.018
-605.157	-125.997	-0.367	-0.056
-604.142	-92.918	-0.178	0.050
-603.128	-25.371	0.222	0.133
-602.113	800.000	-0.062	-0.181
-601.098	594.472	-0.105	0.261
-600.084	22.961	0.136	-0.113
-599.069	29.708	-0.153	0.132
-598.055	-125.037	-0.152	-0.024
-597.040	242.761	0.003	-0.005
-596.025	-54.531	0.267	-0.122
-595.011	800.000	-0.039	0.153
-593.996	-89.961	0.237	-0.070
-592.982	440.792	0.071	0.157
-591.967	800.000	0.069	-0.269
-590.952	-25.991	-0.092	0.055
-589.938	-26.501	-0.283	-0.168
-588.923	-200.000	0.028	-0.302
-587.909	-139.086	-0.142	0.016
-586.894	800.000	-0.021	-0.060
-585.879	800.000	0.094	-0.378
-584.865	-200.000	-0.028	-0.319
-583.850	186.748	0.080	0.120
-582.836	800.000	0.034	0.105
-581.821	-168.298	-0.103	-0.004
-580.806	-41.691	0.195	-0.101
-579.792	800.000	0.072	-0.263
-578.777	-100.579	0.361	-0.090
-577.763	-62.391	0.027	-0.011
-576.748	630.947	0.071	0.181
-575.733	-43.260	-0.322	0.165
-574.719	320.058	-0.102	0.196
-573.704	-57.061	-0.227	0.101
-572.690	38.994	0.165	0.149
-571.675	-200.000	0.007	0.196
-570.661	95.151	-0.062	0.071
-569.646	178.661	0.166	-0.245
-568.631	103.913	-0.140	-0.166
-567.617	-72.922	0.334	-0.124
-566.602	-200.000	0.001	-0.183
-565.588	-200.000	0.058	0.266
-564.573	266.141	-0.203	-0.358
-563.558	-136.336	-0.294	0.035
-562.544	-59.641	0.070	0.031
-561.529	-171.667	-0.112	-0.004
-560.515	51.243	0.139	0.134
-559.500	58.234	0.069	0.068
-558.485	367.917	0.073	0.149
-557.471	-200.000	0.046	0.222
-556.456	313.410	0.165	0.313
-555.442	-27.506	0.072	-0.042
-554.427	45.206	-0.043	0.040
-553.412	-108.538	0.081	0.018
-552.398	-101.477	-0.239	0.059
-551.383	165.645	-0.173	0.247
-550.369	-200.000	0.016	-0.106
-549.354	-171.453	0.291	0.010
-548.339	-200.000	-0.268	-0.000
-547.325	-71.661	0.443	-0.167
-546.310	800.000	0.031	-0.128
-545.296	-107.917	0.171	-0.038
-544.281	499.157	0.122	-0.284
-543.266	-200.000	0.057	0.358
-542.252	291.424	-0.113	0.207
-541.237	76.652	-0.295	-0.315
-540.223	-16.555	0.176	-0.112
-539.208	-54.581	0.188	-0.086
-538.193	218.299	-0.269	-0.433
-537.179	800.000	0.022	0.086
-536.164	-200.000	-0.036	0.480
-535.150	54.186	0.095	0.092
-534.135	36.129	0.103	0.091
-533.121	38.022	-0.096	-0.086
-532.106	335.170	-0.085	0.166
-531.091	59.854	-0.070	-0.070
-530.077	-136.055	-0.245	-0.029
-529.062	-95.871	0.084	0.023
-528.048	800.000	-0.081	-0.286
-527.033	-105.782	-0.050	-0.011
-526.018	640.749	-0.018	-0.046
-525.004	-149.199	-0.122	-0.010
-523.989	444.604	0.046	0.103
-522.975	68.808	-0.139	0.144
-521.960	126.564	-0.137	0.175
-520.945	800.000	0.071	0.303
-519.931	207.140	0.197	0.309
-518.916	-73.506	-0.061	0.022
-517.902	96.480	-0.176	0.203
-516.887	-200.000	-0.028	-0.224
-515.872	800.000	-0.021	-0.065
-514.858	14.128	0.122	-0.096
-513.843	-200.000	0.011	0.115
-512.829	-200.000	-0.038	-0.272
-511.814	-52.058	-0.179	0.084
-510.799	192.134	-0.249	-0.378
-509.785	800.000	-0.112	0.336
-508.770	-59.041	-0.177	0.077
-507.756	1.773	-0.339	0.246
-506.741	-138.422	-0.184	0.020
-505.726	48.906	-0.426	-0.403
-504.712	-134.864	0.227	-0.028
-503.697	0.369	0.074	0.053
-502.683	-68.061	-0.099	-0.039
-501.668	8.387	-0.142	0.107
-500.653	56.542	-0.083	0.081
-499.639	-8.927	-0.118	-0.080
-498.624	-71.185	0.389	-0.147
-497.610	-1.810	-0.171	-0.121
-496.595	350.170	-0.070	0.138
-495.581	164.277	0.080	0.113
-494.566	181.902	0.062	0.093
-493.551	800.000	-0.023	-0.069
-492.537	-200.000	-0.010	-0.195
-491.522	-5.230	-0.218	-0.151
-490.508	-85.837	-0.189	-0.059
-489.493	128.410	-0.025	0.032
-488.478	551.457	0.053	-0.128
-487.464	-117.597	0.272	0.049
-486.449	202.572	-0.264	-0.411
-485.435	253.443	0.086	-0.148
-484.420	-90.165	-0.297	0.087
-483.405	72.887	0.147	0.154
-482.391	-76.138	0.279	0.099
-481.376	236.634	-0.105	-0.176
-480.362	-86.707	-0.500	-0.154
-479.347	-60.786	0.276	0.118
-478.332	-22.195	0.227	-0.138
-477.318	-200.000	-0.018	-0.196
-476.303	-200.000	0.002	0.501
-475.289	300.562	-0.105	0.196
-474.274	-124.115	0.171	-0.027
-473.259	130.489	-0.172	-0.222
-472.245	-137.961	-0.096	0.011
-471.230	63.513	0.088	0.088
-470.216	141.177	0.121	0.161
-469.201	218.728	-0.104	0.168
-468.186	-200.000	0.023	0.243
-467.172	-65.222	-0.128	0.052
-466.157	-53.418	-0.186	-0.086
-465.143	800.000	0.040	-0.162
-464.128	-200.000	-0.036	-0.293
-463.113	-114.154	-0.335	0.065
-462.099	362.784	-0.152	-0.307
-461.084	-49.156	0.137	-0.066
-460.070	-200.000	0.002	-0.102
-459.055	384.608	0.084	0.173
-458.040	-112.674	-0.141	0.028
-457.026	-87.232	0.446	0.136
-456.011	-96.896	0.056	0.015
-454.997	102.858	0.096	-0.113
-453.982	91.069	-0.193	-0.217
-452.968	246.093	0.061	-0.103
-451.953	-73.926	0.133	0.048
-450.938	-71.221	-0.039	-0.015
-449.924	-101.757	0.195	0.048
-448.909	671.868	-0.130	0.338
-447.895	214.572	-0.155	0.246
-446.880	-148.350	-0.392	-0.032
-445.865	118.736	-0.283	0.351
-444.851	800.000	-0.033	0.133
-443.836	543.104	-0.082	0.196
-442.822	-200.000	-0.016	0.201
-441.807	-191.452	-0.338	-0.003
-440.792	80.350	0.221	0.239
-439.778	-39.156	0.123	-0.065
-438.763	-139.389	0.155	-0.017
-437.749	24.386	-0.113	0.094
-436.734	353.979	-0.202	-0.404
-435.719	756.709	0.063	-0.171
-434.705	800.000	-0.047	-0.141
-433.690	-53.307	-0.054	-0.025
-432.676	82.473	-0.182	0.198
-431.661	23.797	-0.177	-0.147
-430.646	122.535	0.278	-0.349
-429.632	-10.722	-0.098	0.065
-428.617	74.249	0.129	0.136
-427.603	-153.470	-0.573	-0.040
-426.588	-14.966	0.483	0.311
-425.573	339.045	0.077	0.151
-424.559	800.000	-0.094	-0.293
-423.544	-59.136	-0.296	-0.128
-422.530	-133.478	-0.175	-0.022
-421.515	-23.682	0.314	0.189
-420.500	-72.977	-0.301	0.111
-419.486	-51.537	0.342	-0.160
-418.471	71.864	0.160	0.168
-417.457	800.000	0.006	0.021
-416.442	145.332	-0.144	-0.193
-415.428	53.930	-0.278	-0.268
-414.413	-145.809	0.182	0.016
-413.398	-188.458	0.164	0.002
-412.384	171.819	-0.093	-0.134
-411.369	34.976	-0.070	-0.061
-410.355	-75.242	-0.089	-0.032
-409.340	-200.000	0.014	0.478
-408.325	800.000	-0.155	0.526
-407.311	-200.000	0.042	0.312
-406.296	368.565	-0.125	-0.254
-405.282	13.043	-0.105	0.082
-404.267	130.684	0.085	-0.109
-403.252	-33.490	0.157	-0.087
-402.238	-200.000	-0.027	-0.121
-401.223	60.646	0.091	-0.090
-400.209	-102.737	0.087	-0.021
-399.194	-133.998	-0.275	-0.034
-398.179	-31.799	0.217	-0.122
-397.165	-83.592	0.360	0.116
-396.150	-130.615	-0.371	0.050
-395.136	800.000	-0.025	0.081
-394.121	-200.000	-0.018	0.093
-393.106	9.153	-0.134	0.101
-392.092	-5.984	-0.340	-0.233
-391.077	-200.000	-0.008	-0.063
-390.063	-76.273	-0.190	0.067
-389.048	-85.992	-0.133	-0.041
-388.033	-77.305	-0.274	-0.096
-387.019	94.292	-0.136	-0.155
-386.004	-26.198	-0.119	-0.070
-384.990	-15.363	-0.138	0.088
-383.975	49.047	0.222	0.209
-382.960	-100.809	0.358	0.088
-381.946	139.149	-0.041	0.055
-380.931	-37.698	-0.126	0.067
-379.917	262.154	-0.024	0.041
-378.902	250.552	0.257	0.438
-377.888	-54.795	-0.151	-0.068
-376.873	-110.104	-0.023	0.005
-375.858	-200.000	0.021	-0.263
-374.844	348.550	-0.175	0.347
-373.829	52.973	-0.159	0.153
-372.815	-94.228	0.428	-0.117
-371.800	-17.726	0.293	0.185
-370.785	25.147	0.284	0.236
-369.771	-61.025	-0.176	-0.074
-368.756	-84.979	-0.265	0.083
-367.742	-200.000	-0.003	-0.198
-366.727	164.236	0.094	0.132
-365.712	800.000	0.072	-0.276
-364.698	-40.092	0.113	-0.059
-363.683	62.930	-0.209	0.210
-362.669	-147.632	0.426	-0.036
-361.654	-15.538	-0.114	-0.073
-360.639	-162.853	-0.010	-0.000
-359.625	-118.958	-0.220	-0.039
-358.610	-1.145	0.453	-0.321
-357.596	-200.000	-0.046	-0.326
-356.581	-29.562	0.346	-0.198
-355.566	-200.000	-0.030	0.174
-354.552	6.310	0.233	0.173
-353.537	-48.388	-0.191	-0.092
-352.523	-200.000	-0.004	0.150
-351.508	-200.000	-0.004	-0.170
-350.493	800.000	-0.074	0.312
-349.479	53.254	0.052	0.050
-348.464	137.277	0.137	0.180
-347.450	-200.000	0.003	-0.099
-346.435	141.872	0.188	0.250
-345.420	-200.000	0.023	0.358
-344.406	31.728	0.141	0.122
-343.391	311.642	-0.015	0.028
-342.377	-19.821	-0.072	0.044
-341.362	-188.388	0.232	0.003
-340.348	242.122	-0.111	0.186
-339.333	800.000	-0.041	-0.179
-338.318	245.724	-0.162	0.273
-337.304	-200.000	-0.024	-0.408
-336.289	248.048	0.127	-0.215
-335.275	-131.546	-0.270	-0.036
-334.260	-200.000	-0.049	-0.395
-333.245	800.000	0.034	0.114
-332.231	-123.324	0.038	0.006
-331.216	466.547	0.051	0.115
-330.202	800.000	-0.027	-0.093
-329.187	173.277	0.128	-0.185
-328.172	-200.000	0.007	-0.188
-327.158	125.711	-0.047	-0.059
-326.143	84.591	-0.175	-0.192
-325.129	-97.554	-0.181	-0.047
-324.114	-163.545	0.141	-0.007
-323.099	343.172	-0.087	0.171
-322.085	800.000	0.063	-0.221
-321.070	143.816	-0.097	-0.130
-320.056	-133.048	-0.378	0.048
-319.041	781.213	-0.033	-0.090
-318.026	-49.521	-0.107	-0.051
-317.012	-5.467	0.375	0.257
-315.997	758.124	0.077	0.210
-314.983	-84.395	0.396	0.125
-313.968	-59.945	-0.163	0.070
-312.953	206.240	-0.200	0.311
-311.939	248.466	-0.124	-0.210
-310.924	-0.230	0.272	-0.193
-309.910	-200.000	0.029	0.171
-308.895	100.233	0.180	-0.208
-307.880	468.601	-0.188	0.422
-306.866	-32.132	0.062	-0.035
-305.851	-86.634	0.041	-0.012
-304.837	28.759	-0.262	0.222
-303.822	31.740	0.218	0.188
-302.807	-200.000	-0.005	0.349
-301.793	-200.000	0.005	-0.137
-300.778	113.473	0.178	0.216
-299.764	-71.599	0.246	0.092
-298.749	-0.084	0.175	-0.124
-297.735	800.000	-0.080	-0.289
-296.720	-200.000	-0.042	0.186
-295.705	800.000	0.068	-0.190
-294.691	107.877	0.079	0.094
-293.676	299.780	0.057	0.104
-292.662	95.572	0.126	0.144
-291.647	-200.000	-0.015	-0.102
-290.632	-29.674	-0.187	0.107
-289.618	-13.518	0.266	-0.172
-288.603	-110.455	0.149	-0.031
-287.589	-59.061	-0.186	0.080
-286.574	-3.575	0.227	0.158
-285.559	31.744	0.084	0.072
-284.545	-57.681	-0.028	-0.012
-283.530	-116.512	0.465	-0.086
-282.516	370.182	0.193	-0.391
-281.501	-130.297	0.211	-0.029
-280.486	-105.499	0.108	-0.025
-279.472	-144.799	0.382	0.035
-278.457	107.376	-0.172	0.205
-277.443	-181.827	0.063	-0.001
-276.428	-70.268	0.175	0.066
-275.413	-44.387	0.261	-0.131
-274.399	-98.615	0.215	0.055
-273.384	35.100	-0.052	0.046
-272.370	-200.000	-0.002	-0.362
-271.355	-3.881	0.046	0.032
-270.340	800.000	0.025	-0.106
-269.326	0.873	0.056	-0.040
-268.311	-200.000	-0.027	-0.407
-267.297	-113.861	-0.242	0.047
-266.282	800.000	-0.034	-0.101
-265.267	-200.000	-0.088	-0.000
-264.253	743.272	-0.085	-0.228
-263.238	-64.289	0.158	0.064
-262.224	-33.408	-0.128	0.071
-261.209	-200.000	0.007	0.047
-260.195	-101.690	-0.086	-0.021
-259.180	423.425	0.056	-0.120
-258.165	-200.000	-0.013	-0.283
-257.151	122.592	-0.197	0.246
-256.136	41.467	-0.149	-0.134
-255.122	-200.000	0.038	-0.167
-254.107	-200.000	-0.009	0.292
-253.092	90.389	-0.079	-0.088
-252.078	800.000	-0.060	0.201
-251.063	284.623	-0.137	-0.246
-250.049	800.000	0.084	0.351
-249.034	-8.553	-0.077	-0.052
-248.019	-200.000	0.005	0.100
-247.005	-15.347	0.131	-0.083
-245.990	321.151	0.055	0.104
-244.976	339.187	0.082	-0.158
-243.961	684.162	-0.144	-0.374
-242.946	-20.226	-0.303	0.186
-241.932	391.413	0.059	-0.123
-240.917	-200.000	0.013	-0.287
-239.903	210.909	0.122	0.191
-238.888	612.818	0.073	0.183
-237.873	284.262	0.067	-0.119
-236.859	-93.608	-0.101	0.028
-235.844	257.978	0.072	-0.123
-234.830	800.000	0.051	0.177
-233.815	355.792	0.199	0.395
-232.800	-48.011	-0.196	-0.095
-231.786	16.512	-0.101	-0.079
-230.771	442.365	-0.139	0.302
-229.757	-105.769	0.352	0.079
-228.742	120.739	0.083	-0.103
-227.727	-58.587	-0.216	0.093
-226.713	606.828	0.091	-0.227
-225.698	50.550	-0.163	0.154
-224.684	-200.000	-0.009	-0.057
-223.669	-200.000	0.006	-0.140
-222.655	126.912	-0.196	-0.248
-221.640	4.053	0.300	0.219
-220.625	160.183	-0.247	0.343
-219.611	97.205	0.274	0.314
-218.596	-43.877	-0.097	0.049
-217.582	185.650	0.207	-0.307
-216.567	-148.180	-0.034	0.003
-215.552	46.653	0.197	-0.182
-214.538	25.180	0.105	-0.087
-213.523	60.350	0.192	-0.189
-212.509	-121.467	-0.093	0.015
-211.494	-200.000	-0.008	-0.106
-210.479	-200.000	0.049	-0.261
-209.465	21.835	0.162	0.132
-208.450	-35.100	0.137	-0.074
-207.436	-200.000	0.010	0.193
-206.421	-158.319	0.030	0.002
-205.406	800.000	0.076	0.231
-204.392	-200.000	0.012	-0.053
-203.377	-36.400	0.246	0.132
-202.363	-40.585	0.153	0.079
-201.348	172.798	0.078	0.112
-200.333	89.257	0.176	-0.195
-199.319	99.569	0.185	-0.213
-198.304	-124.469	0.160	-0.025
-197.290	9.787	0.223	0.168
-196.275	-44.573	-0.431	-0.215
-195.260	-200.000	0.055	-0.269
-194.246	67.002	0.141	0.142
-193.231	70.049	-0.114	0.117
-192.217	119.271	-0.117	0.144
-191.202	-112.104	-0.160	-0.032
-190.187	-97.945	0.275	0.071
-189.173	169.049	0.095	-0.135
-188.158	-200.000	-0.028	0.125
-187.144	111.528	-0.037	0.044
-186.129	-200.000	-0.003	-0.264
-185.114	-36.373	0.275	-0.147
-184.100	-200.000	0.026	0.126
-183.085	-200.000	0.022	0.138
-182.071	-200.000	-0.012	0.150
-181.056	285.695	-0.065	-0.116
-180.042	800.000	-0.051	-0.190
-179.027	-157.826	0.097	0.006
-178.012	-10.573	-0.041	0.027
-176.998	212.128	-0.140	-0.219
-175.983	800.000	-0.087	-0.260
-174.969	-11.404	-0.116	0.076
-173.954	169.063	-0.173	0.245
-172.939	77.209	0.066	-0.069
-171.925	207.258	0.181	-0.281
-170.910	-200.000	-0.034	-0.371
-169.896	-200.000	-0.041	0.206
-168.881	-76.907	0.258	0.090
-167.866	201.203	-0.035	0.053
-166.852	-200.000	-0.028	-0.169
-165.837	-200.000	0.015	0.100
-164.823	135.617	-0.109	0.141
-163.808	-200.000	-0.015	0.098
-162.793	-103.843	0.065	-0.015
-161.779	-164.959	-0.355	-0.016
-160.764	-143.215	0.209	0.020
-159.750	35.190	0.163	-0.142
-158.735	390.115	-0.097	-0.199
-157.720	-200.000	-0.036	-0.466
-156.706	0.054	-0.106	-0.075
-155.691	163.620	-0.057	0.079
-154.677	-11.550	-0.076	0.050
-153.662	115.185	0.188	0.228
-152.647	-200.000	0.020	0.141
-151.633	-200.000	-0.017	0.318
-150.618	159.600	-0.185	0.256
-149.604	-200.000	0.007	-0.292
-148.589	-14.918	-0.192	0.122
-147.574	6.862	-0.076	-0.057
-146.560	-40.014	0.310	0.161
-145.545	363.747	-0.251	0.500
-144.531	-200.000	0.036	0.000
-143.516	-113.468	-0.047	-0.009
-142.502	275.938	0.021	0.037
-141.487	181.272	-0.208	0.303
-140.472	286.152	0.084	0.151
-139.458	591.035	0.077	-0.189
-138.443	-200.000	-0.011	-0.247
-137.429	-25.121	-0.502	0.295
-136.414	195.525	-0.130	-0.196
-135.399	69.574	0.179	-0.183
-134.385	-200.000	-0.049	-0.342
-133.370	800.000	0.051	-0.171
-132.356	76.055	0.128	0.135
-131.341	-92.029	0.127	-0.036
-130.326	-200.000	0.061	0.305
-129.312	41.395	-0.187	0.168
-128.297	-158.111	-0.264	0.015
-127.283	-4.846	-0.207	0.141
-126.268	307.402	0.137	-0.254
-125.253	194.053	0.042	-0.063
-124.239	800.000	-0.086	0.257
-123.224	-140.438	-0.041	0.004
-122.210	-23.386	-0.328	-0.196
