DTS Sentinel unit serial number:	SN413079Multiplexer serial number:	ORYXHardware model number:	OX4-SRSoftware version number:	ORYX F/W v4.00 Oryx Data Collector v3.7.2.0data status	okinstallation	princeton_trtdifferential loss correction	single-endedforward channel	channel 3reverse channel	N/Adate	2019/09/12time	18:25:04forward acquisition time	15.00reverse acquisition time	0.00gamma	496.2192k internal	0.2317k external	0.2317temperature offset calibration	1.0091default loss term (dB/km)	0.3790temperature slope calibration	1.0000multiplexer offset coefficient	1.0000multiplexer slope coefficient	1.0000fibre end	0.00T internal ref (°C)	33.31T ext. ref 1 (°C)	2.86T ext. ref 2 (°C)	28.00length (m)	temperature (°C)	Stokes	anti-Stokes-747.200	419.350	-0.123	-0.267
-746.185	800.000	-0.197	0.599
-745.171	-130.311	-0.580	0.080
-744.156	109.199	-0.282	-0.342
-743.142	122.020	-0.431	0.544
-742.127	-139.789	0.396	0.042
-741.112	15.080	0.667	-0.529
-740.098	800.000	-0.229	0.711
-739.083	130.539	0.249	-0.323
-738.069	293.234	0.181	-0.334
-737.054	370.343	-0.634	-1.301
-736.039	95.900	-0.398	-0.460
-735.025	-50.053	0.291	-0.140
-734.010	-11.320	0.642	-0.428
-732.996	70.532	0.071	0.075
-731.981	-117.775	-0.211	-0.038
-730.966	-68.036	0.590	-0.233
-729.952	-146.530	-0.259	0.023
-728.937	-134.948	-0.485	-0.059
-727.923	-200.000	0.096	0.496
-726.908	154.127	0.161	-0.224
-725.894	-120.094	-0.569	-0.099
-724.879	747.279	0.250	-0.681
-723.864	-28.454	0.489	-0.285
-722.850	110.385	0.409	0.497
-721.835	494.769	-0.344	-0.800
-720.821	436.661	0.313	0.690
-719.806	307.506	0.070	-0.132
-718.791	7.476	-0.821	0.621
-717.777	347.312	-0.196	-0.391
-716.762	84.933	-0.472	0.523
-715.748	-200.000	-0.241	-1.133
-714.733	296.583	0.701	-1.300
-713.718	129.907	-0.360	-0.466
-712.704	364.649	0.545	1.109
-711.689	-200.000	0.035	-0.750
-710.675	800.000	0.241	0.883
-709.660	800.000	-0.102	0.359
-708.645	800.000	-0.303	-0.875
-707.631	60.312	0.365	0.365
-706.616	527.853	-0.359	-0.855
-705.602	-200.000	0.040	-0.607
-704.587	-41.006	0.212	-0.111
-703.572	202.972	-0.239	-0.373
-702.558	800.000	-0.150	0.656
-701.543	-200.000	-0.051	0.318
-700.529	-124.832	-0.615	0.096
-699.514	146.110	-0.363	-0.492
-698.499	-119.735	0.284	0.049
-697.485	800.000	0.023	-0.070
-696.470	800.000	0.194	0.541
-695.456	-200.000	-0.028	-0.602
-694.441	-200.000	-0.009	-0.776
-693.426	31.652	-0.232	-0.201
-692.412	-106.000	0.534	0.121
-691.397	-139.517	-0.327	0.035
-690.383	33.851	0.381	-0.335
-689.368	-200.000	0.080	0.481
-688.354	-160.887	-0.346	0.018
-687.339	40.083	0.370	-0.336
-686.324	494.057	-0.535	-1.240
-685.310	9.522	-0.911	-0.697
-684.295	-200.000	0.002	-0.832
-683.281	91.834	0.299	-0.340
-682.266	40.130	-0.439	-0.399
-681.251	332.001	0.433	-0.844
-680.237	-112.532	1.470	-0.296
-679.222	-76.024	-0.596	-0.213
-678.208	-143.808	-0.542	0.052
-677.193	-20.962	0.416	-0.257
-676.178	-200.000	-0.057	-0.569
-675.164	102.097	0.369	-0.435
-674.149	-200.000	0.058	0.976
-673.135	-114.078	1.158	-0.226
-672.120	657.506	-0.196	-0.509
-671.105	-200.000	0.132	-0.673
-670.091	800.000	0.108	-0.365
-669.076	134.247	-0.350	-0.458
-668.062	6.949	0.214	0.161
-667.047	-58.586	0.578	-0.253
-666.032	-169.647	0.385	-0.014
-665.018	-200.000	0.013	0.193
-664.003	-157.188	0.328	-0.020
-662.989	-80.978	-0.204	0.068
-661.974	42.012	-0.366	-0.336
-660.959	113.715	0.182	0.223
-659.945	26.717	-0.029	0.025
-658.930	179.472	0.089	-0.131
-657.916	-130.182	0.502	0.069
-656.901	114.746	-0.116	-0.143
-655.886	800.000	0.171	-0.510
-654.872	208.390	-0.472	-0.745
-653.857	-200.000	-0.110	0.546
-652.843	-60.412	-0.724	-0.310
-651.828	-24.150	0.405	-0.244
-650.814	320.689	-0.241	-0.462
-649.799	55.609	-0.693	-0.677
-648.784	-93.218	-0.227	-0.064
-647.770	469.939	0.039	0.089
-646.755	12.715	-0.396	-0.309
-645.741	311.876	-0.302	-0.572
-644.726	-100.626	0.080	0.020
-643.711	97.876	-0.109	-0.126
-642.697	674.949	0.194	0.507
-641.682	-93.470	-0.272	0.076
-640.668	-43.700	-0.007	0.004
-639.653	-133.166	0.244	0.031
-638.638	-116.971	0.143	-0.026
-637.624	74.750	0.395	-0.419
-636.609	526.886	-0.266	-0.632
-635.595	-200.000	-0.090	-0.678
-634.580	800.000	-0.218	-0.623
-633.565	-109.744	-0.906	0.192
-632.551	-157.066	-0.497	-0.031
-631.536	800.000	0.233	0.711
-630.522	-50.913	-0.237	-0.112
-629.507	-200.000	0.087	-0.404
-628.492	-117.374	0.728	-0.133
-627.478	-101.561	-0.571	-0.140
-626.463	76.736	-0.553	-0.591
-625.449	-200.000	-0.014	-0.750
-624.434	-35.626	0.558	0.305
-623.419	-35.832	-0.159	0.087
-622.405	-159.911	0.340	0.019
-621.390	-133.511	-0.903	-0.114
-620.376	-55.899	-0.552	-0.248
-619.361	-68.450	0.311	-0.122
-618.346	-63.511	0.312	0.129
-617.332	-200.000	-0.001	-0.043
-616.317	750.945	0.109	0.297
-615.303	-200.000	0.095	1.226
-614.288	-200.000	-0.013	-0.361
-613.273	-72.007	0.437	0.164
-612.259	-16.147	0.208	0.133
-611.244	-44.044	0.301	0.152
-610.230	-107.537	-0.350	0.077
-609.215	-200.000	0.062	1.564
-608.201	9.575	0.212	-0.162
-607.186	800.000	0.175	0.653
-606.171	800.000	-0.170	-0.507
-605.157	-98.817	0.794	-0.203
-604.142	-69.192	-0.799	0.309
-603.128	-131.740	-0.481	-0.064
-602.113	86.594	0.495	0.550
-601.098	-200.000	0.028	-0.762
-600.084	165.907	-0.600	-0.854
-599.069	46.234	0.463	0.432
-598.055	660.976	0.315	0.818
-597.040	-152.522	0.432	-0.031
-596.025	83.227	-0.263	0.288
-595.011	114.909	0.202	-0.248
-593.996	-76.629	-0.400	0.141
-592.982	-138.320	-0.368	0.041
-591.967	800.000	-0.083	0.277
-590.952	330.613	-0.318	-0.616
-589.938	260.110	0.054	0.095
-588.923	104.590	0.555	-0.658
-587.909	-26.372	0.634	-0.374
-586.894	655.473	-0.577	-1.490
-585.879	-120.503	-0.374	0.064
-584.865	-200.000	0.039	0.357
-583.850	262.145	-0.322	0.562
-582.836	800.000	-0.013	0.046
-581.821	396.012	0.301	0.632
-580.806	-131.462	0.377	-0.050
-579.792	800.000	0.139	0.464
-578.777	2.115	-0.715	0.520
-577.763	-200.000	-0.050	-0.616
-576.748	118.748	-0.129	-0.160
-575.733	57.277	0.463	-0.455
-574.719	-10.667	-0.321	0.213
-573.704	157.644	0.148	0.206
-572.690	-0.222	0.110	0.079
-571.675	330.567	-0.177	-0.344
-570.661	-119.942	0.355	-0.061
-569.646	-200.000	-0.033	-0.351
-568.631	-14.368	-0.233	-0.151
-567.617	41.277	-0.481	0.437
-566.602	29.122	0.269	0.229
-565.588	-83.062	0.520	0.168
-564.573	62.342	0.356	-0.357
-563.558	139.671	-0.337	-0.446
-562.544	73.483	-0.655	0.689
-561.529	-200.000	0.062	-0.287
-560.515	-1.766	-0.026	0.018
-559.500	-111.172	-0.304	-0.063
-558.485	309.179	0.135	-0.254
-557.471	-200.000	0.013	-0.334
-556.456	16.525	0.503	0.400
-555.442	-61.018	-0.363	-0.154
-554.427	-135.382	0.474	0.057
-553.412	197.673	0.362	-0.556
-552.398	-200.000	-0.372	0.000
-551.383	46.633	0.362	0.337
-550.369	-200.000	-0.087	-0.413
-549.354	800.000	-0.249	-0.752
-548.339	-13.716	0.587	0.381
-547.325	387.279	-0.359	0.744
-546.310	-200.000	-0.012	0.090
-545.296	-105.033	-0.323	0.074
-544.281	-133.280	0.846	0.107
-543.266	280.577	-0.100	-0.179
-542.252	-76.017	-0.991	-0.352
-541.237	-38.961	0.538	-0.284
-540.223	-200.000	0.194	-1.043
-539.208	29.796	0.415	0.355
-538.193	496.166	0.059	0.136
-537.179	150.353	0.259	-0.353
-536.164	-200.000	-0.064	-0.338
-535.150	22.009	0.228	0.187
-534.135	-200.000	0.065	-0.998
-533.121	-93.743	0.493	-0.137
-532.106	113.245	0.376	-0.458
-531.091	-159.660	0.695	0.039
-530.077	77.626	-0.300	-0.321
-529.062	-129.694	0.850	-0.118
-528.048	447.857	0.246	-0.543
-527.033	52.330	0.542	0.519
-526.018	-158.946	-0.461	0.026
-525.004	-26.897	-0.272	0.159
-523.989	-11.387	-0.407	0.269
-522.975	-31.108	-0.104	0.059
-521.960	-18.793	0.534	-0.334
-520.945	-5.552	0.566	0.389
-519.931	160.555	-0.158	0.221
-518.916	-200.000	0.057	-0.394
-517.902	-109.302	0.384	-0.082
-516.887	0.901	0.837	-0.602
-515.872	91.084	-0.393	0.442
-514.858	571.138	-0.152	0.372
-513.843	-200.000	-0.084	-0.474
-512.829	237.589	0.443	0.737
-511.814	-73.214	-0.396	0.145
-510.799	-75.018	0.542	0.195
-509.785	-101.014	0.309	-0.076
-508.770	800.000	0.365	-1.371
-507.756	-154.163	-0.934	-0.063
-506.741	-200.000	0.045	0.884
-505.726	-200.000	-0.083	-0.927
-504.712	-27.881	0.391	-0.227
-503.697	7.631	0.405	0.304
-502.683	-125.249	-0.672	0.103
-501.668	-23.345	0.234	-0.141
-500.653	83.406	-0.729	0.796
-499.639	102.134	0.290	0.340
-498.624	265.250	-0.265	-0.462
-497.610	29.251	0.295	0.251
-496.595	-200.000	0.022	0.307
-495.581	800.000	0.277	0.881
-494.566	-200.000	-0.166	0.876
-493.551	6.793	0.214	0.160
-492.537	-55.206	-0.292	-0.132
-491.522	10.340	0.463	0.354
-490.508	800.000	-0.095	0.408
-489.493	-200.000	-0.056	0.493
-488.478	-136.925	0.436	-0.050
-487.464	12.496	0.344	0.266
-486.449	379.217	0.270	0.554
-485.435	-200.000	-0.032	0.490
-484.420	112.774	0.340	-0.412
-483.405	69.100	0.118	-0.121
-482.391	50.693	-0.473	-0.449
-481.376	156.564	-0.392	0.543
-480.362	190.926	0.686	-1.035
-479.347	58.928	-0.514	-0.506
-478.332	18.491	-0.455	-0.365
-477.318	-111.952	0.212	-0.043
-476.303	-200.000	0.112	0.695
-475.289	15.702	-0.278	0.219
-474.274	73.733	-0.174	0.183
-473.259	141.949	0.389	0.517
-472.245	-85.936	-0.730	0.226
-471.230	135.105	-0.227	-0.295
-470.216	545.171	-0.152	-0.364
-469.201	52.012	-0.354	0.338
-468.186	161.949	-0.410	-0.576
-467.172	50.064	-0.146	-0.138
-466.157	7.540	0.478	-0.358
-465.143	270.365	0.213	-0.376
-464.128	204.018	-0.432	-0.670
-463.113	-123.656	0.649	-0.103
-462.099	-200.000	0.107	0.949
-461.084	800.000	-0.298	0.827
-460.070	-49.111	0.638	0.306
-459.055	-105.161	0.306	0.070
-458.040	-1.085	-0.774	0.548
-457.026	80.425	0.449	0.484
-456.011	800.000	0.273	0.867
-454.997	-72.313	0.456	-0.169
-453.982	-165.482	-0.463	0.020
-452.968	-33.457	0.329	-0.182
-451.953	800.000	-0.210	-0.749
-450.938	356.122	0.344	-0.686
-449.924	156.550	0.326	0.451
-448.909	-200.000	0.098	0.634
-447.895	-200.000	0.159	-0.736
-446.880	387.247	-0.580	-1.200
-445.865	10.905	0.308	0.236
-444.851	800.000	0.151	0.613
-443.836	-129.458	-0.163	0.023
-442.822	90.507	-0.573	-0.642
-441.807	-187.136	-0.572	-0.008
-440.792	135.288	-0.609	0.792
-439.778	6.423	0.469	0.348
-438.763	-200.000	-0.141	0.772
-437.749	736.275	0.176	0.473
-436.734	89.085	0.235	0.262
-435.719	-87.429	-0.246	-0.075
-434.705	188.068	-0.249	0.372
-433.690	6.011	0.111	0.082
-432.676	-144.278	0.379	0.035
-431.661	800.000	-0.154	-0.596
-430.646	-77.739	0.459	0.159
-429.632	-200.000	-0.020	0.145
-428.617	-31.016	-0.477	-0.269
-427.603	800.000	0.055	-0.197
-426.588	-200.000	-0.004	-0.112
-425.573	-59.480	-0.193	-0.083
-424.559	105.876	-0.356	0.421
-423.544	-200.000	0.105	-0.470
-422.530	-43.286	-0.890	-0.450
-421.515	800.000	-0.157	-0.502
-420.500	744.218	-0.167	-0.448
-419.486	774.260	0.285	-0.777
-418.471	-97.867	0.249	-0.064
-417.457	-35.070	-0.276	-0.150
-416.442	136.268	-1.023	1.333
-415.428	130.225	-0.311	-0.398
-414.413	-200.000	0.022	-0.193
-413.398	85.718	0.315	-0.346
-412.384	-114.116	-0.384	0.074
-411.369	137.135	0.049	0.064
-410.355	-200.000	-0.029	-0.132
-409.340	-118.996	0.964	0.169
-408.325	-200.000	0.018	-0.136
-407.311	-48.258	0.486	0.234
-406.296	-62.917	0.332	-0.137
-405.282	-18.496	1.097	0.684
-404.267	-200.000	0.052	-0.346
-403.252	-12.064	-0.638	0.417
-402.238	-139.654	-0.509	0.054
-401.223	-200.000	-0.021	0.375
-400.209	-64.648	0.139	0.056
-399.194	-143.142	-0.237	-0.023
-398.179	-59.498	-0.703	-0.302
-397.165	356.626	-0.116	0.231
-396.150	-1.604	-0.581	0.409
-395.136	-137.192	-0.365	-0.042
-394.121	-26.675	-0.788	-0.461
-393.106	-92.382	-0.190	0.053
-392.092	21.210	0.391	-0.317
-391.077	-194.382	0.447	-0.004
-390.063	-135.075	0.906	0.109
-389.048	377.664	0.066	0.135
-388.033	-1.384	0.438	0.309
-387.019	785.880	0.077	-0.211
-386.004	-121.162	0.253	0.042
-384.990	244.626	-0.101	-0.170
-383.975	-71.914	0.158	-0.059
-382.960	-45.705	-0.671	0.331
-381.946	52.817	-0.432	-0.412
-380.931	-167.805	0.706	0.028
-379.917	-20.800	-0.269	-0.165
-378.902	800.000	-0.071	0.284
-377.888	116.213	0.093	0.114
-376.873	-92.740	0.465	-0.130
-375.858	135.689	0.388	-0.504
-374.844	42.788	-0.436	-0.397
-373.829	252.529	0.211	-0.359
-372.815	176.599	-0.217	-0.315
-371.800	103.768	0.591	-0.692
-370.785	192.094	-0.402	-0.605
-369.771	143.548	0.107	-0.142
-368.756	78.280	-0.521	0.555
-367.742	-86.288	0.587	0.180
-366.727	-49.610	-0.143	-0.068
-365.712	-200.000	0.081	-0.838
-364.698	-123.715	-0.362	-0.057
-363.683	0.757	-0.503	0.359
-362.669	-200.000	-0.037	0.976
-361.654	-68.656	0.659	0.254
-360.639	132.402	-0.097	0.124
-359.625	-50.239	-0.556	-0.262
-358.610	-200.000	0.030	-0.303
-357.596	617.288	0.295	-0.738
-356.581	-166.753	-0.410	0.017
-355.566	-150.010	0.251	0.020
-354.552	120.517	0.347	0.429
-353.537	-171.358	0.202	-0.007
-352.523	-55.637	0.468	-0.209
-351.508	-7.154	0.108	0.073
-350.493	-13.153	-0.476	-0.309
-349.479	-200.000	0.054	0.551
-348.464	60.522	-0.289	-0.286
-347.450	168.230	0.236	0.335
-346.435	-150.692	-0.739	-0.056
-345.420	-110.903	-0.522	0.107
-344.406	326.427	-0.004	0.007
-343.391	-200.000	-0.180	1.081
-342.377	68.591	0.063	-0.065
-341.362	-49.522	-0.555	0.264
-340.348	-55.057	0.158	-0.071
-339.333	313.674	-0.390	0.731
-338.318	-144.818	0.705	-0.064
-337.304	-106.051	0.569	0.128
-336.289	32.715	0.718	-0.619
-335.275	-145.963	-0.578	-0.051
-334.260	19.614	-0.224	-0.180
-333.245	-105.294	0.204	0.046
-332.231	23.031	-0.393	-0.321
-331.216	495.975	-0.251	0.574
-330.202	71.537	0.527	-0.545
-329.187	-181.773	0.311	0.006
-328.172	649.203	-0.187	-0.478
-327.158	-200.000	-0.045	-0.684
-326.143	80.413	-0.391	-0.420
-325.129	-200.000	-0.005	0.426
-324.114	22.367	0.831	0.677
-323.099	-134.472	-0.190	0.023
-322.085	-11.065	-0.334	-0.219
-321.070	-148.847	0.740	-0.060
-320.056	-138.822	-0.146	-0.016
-319.041	-70.550	-0.252	0.095
-318.026	537.205	-0.133	-0.313
-317.012	47.101	0.795	-0.737
-315.997	-104.456	-1.054	-0.243
-314.983	1.064	-0.672	0.480
-313.968	20.272	0.528	-0.424
-312.953	800.000	0.186	-0.626
-311.939	-117.717	-0.660	-0.118
-310.924	-200.000	0.062	0.506
-309.910	27.075	-0.266	-0.222
-308.895	303.430	0.406	0.749
-307.880	-93.984	-0.526	0.144
-306.866	-34.745	-0.294	0.160
-305.851	174.836	0.313	0.451
-304.837	-37.036	-0.554	-0.295
-303.822	-62.803	-0.042	0.017
-302.807	-200.000	-0.050	0.616
-301.793	-44.519	-0.425	0.211
-300.778	800.000	-0.117	0.426
-299.764	-29.606	-0.460	0.262
-298.749	125.039	-0.310	0.389
-297.735	-200.000	0.070	0.318
-296.720	800.000	0.074	0.260
-295.705	-200.000	0.093	0.650
-294.691	492.243	-0.068	-0.154
-293.676	-35.713	0.811	-0.437
-292.662	-149.040	-0.773	0.062
-291.647	236.751	0.229	0.376
-290.632	69.465	0.527	0.540
-289.618	-200.000	-0.022	-0.340
-288.603	-40.883	-0.487	0.251
-287.589	454.780	0.224	0.495
-286.574	-51.552	-1.104	-0.513
-285.559	-86.406	0.278	-0.085
-284.545	115.710	0.548	0.667
-283.530	-200.000	0.058	0.831
-282.516	58.335	0.408	0.398
-281.501	-96.755	0.812	0.212
-280.486	-15.055	-0.243	-0.155
-279.472	-1.301	-0.136	0.095
-278.457	4.594	0.483	-0.352
-277.443	152.113	-0.152	0.206
-276.428	-62.837	0.725	0.298
-275.413	800.000	0.130	-0.376
-274.399	-200.000	0.013	-0.118
-273.384	55.597	0.337	0.324
-272.370	181.426	-0.307	-0.449
-271.355	432.054	0.115	0.249
-270.340	-200.000	-0.026	-0.132
-269.326	-112.153	0.763	-0.152
-268.311	-200.000	-0.156	0.818
-267.297	286.261	0.394	0.707
-266.282	50.769	0.325	0.306
-265.267	190.332	-0.204	-0.305
-264.253	-100.381	0.627	0.154
-263.238	-145.040	0.778	-0.070
-262.224	-200.000	0.027	0.564
-261.209	-20.095	-0.224	-0.138
-260.195	-117.328	0.196	0.035
-259.180	23.099	-0.234	0.191
-258.165	-135.882	-0.381	0.045
-257.151	18.577	0.507	0.403
-256.136	-28.219	-0.617	0.354
-255.122	217.170	-0.387	-0.612
-254.107	28.188	-0.118	-0.099
-253.092	-102.137	-0.904	-0.216
-252.078	277.809	0.399	-0.705
-251.063	-200.000	-0.089	0.556
-250.049	324.866	-0.214	-0.406
-249.034	642.301	-0.144	-0.364
-248.019	-60.785	0.332	0.140
-247.005	-59.259	-0.632	-0.270
-245.990	55.075	0.291	0.279
-244.976	-133.624	0.900	-0.112
-243.961	-40.879	0.733	-0.377
-242.946	123.576	-0.253	0.315
-241.932	-200.000	0.146	0.990
-240.917	119.195	-0.290	-0.357
-239.903	359.554	0.150	0.299
-238.888	-200.000	-0.017	0.421
-237.873	183.577	-0.408	-0.598
-236.859	57.958	-0.973	-0.945
-235.844	-111.485	0.765	0.155
-234.830	-98.381	-0.792	0.201
-233.815	-17.910	0.119	-0.074
-232.800	-200.000	-0.008	-0.193
-231.786	800.000	0.073	-0.301
-230.771	294.318	-0.125	-0.227
-229.757	779.823	-0.068	-0.184
-228.742	-100.235	0.072	0.018
-227.727	272.021	0.341	0.597
-226.713	10.442	0.716	-0.541
-225.698	-144.165	0.327	-0.030
-224.684	137.412	-0.176	-0.229
-223.669	41.179	0.287	-0.258
-222.655	94.173	-0.375	0.422
-221.640	800.000	-0.127	0.383
-220.625	-48.596	0.646	0.308
-219.611	800.000	0.525	-1.593
-218.596	-54.915	0.961	-0.430
-217.582	51.093	0.060	0.057
-216.567	-94.647	-0.359	-0.097
-215.552	-200.000	-0.046	0.371
-214.538	-200.000	0.061	0.396
-213.523	-67.670	0.016	-0.006
-212.509	161.939	-0.464	-0.645
-211.494	-28.200	-0.516	-0.296
-210.479	-113.962	-0.169	0.033
-209.465	49.893	-0.137	-0.128
-208.450	227.645	-0.280	0.451
-207.436	-200.000	0.025	-0.255
-206.421	-64.237	0.480	-0.194
-205.406	-51.742	-0.164	0.076
-204.392	186.684	-0.369	-0.544
-203.377	330.688	-0.186	-0.356
-202.363	52.992	0.380	0.361
-201.348	-174.810	-0.416	0.012
-200.333	-200.000	0.128	-0.680
-199.319	-53.130	-0.602	0.274
-198.304	-1.895	0.510	0.356
-197.290	-67.399	-0.316	-0.123
-196.275	391.127	-0.136	0.280
-195.260	370.172	0.221	-0.443
-194.246	132.606	-0.182	-0.232
-193.231	131.855	-0.232	0.296
-192.217	304.741	0.293	0.538
-191.202	-1.096	-0.156	0.109
-190.187	-116.981	0.293	-0.053
-189.173	313.835	0.174	0.325
-188.158	-156.869	0.175	0.011
-187.144	721.203	0.193	-0.509
-186.129	328.734	0.055	-0.105
-185.114	-4.913	-0.364	0.249
-184.100	-94.355	-0.268	-0.073
-183.085	-14.744	-0.318	-0.202
-182.071	85.412	-0.625	0.679
-181.056	59.668	-0.530	0.517
-180.042	-183.072	0.435	0.008
-179.027	-4.065	-0.748	-0.514
-178.012	-100.427	-0.175	0.043
-176.998	-121.643	-0.484	-0.079
-175.983	130.397	-0.110	0.140
-174.969	-145.557	-0.340	0.030
-173.954	-132.136	-0.314	-0.040
-172.939	66.323	0.443	-0.446
-171.925	23.465	-0.174	0.141
-170.910	13.923	-0.182	0.140
-169.896	202.283	0.068	0.103
-168.881	800.000	0.048	0.179
-167.866	33.175	0.257	0.221
-166.852	-90.724	0.739	-0.211
-165.837	44.689	-0.451	0.411
-164.823	-47.010	0.212	-0.102
-163.808	-200.000	-0.017	-0.201
-162.793	-164.686	0.691	-0.031
-161.779	-200.000	-0.051	0.321
-160.764	-39.923	0.877	-0.453
-159.750	246.659	-0.341	0.569
-158.735	25.176	-0.181	-0.149
-157.720	-61.201	0.415	0.173
-156.706	338.802	0.079	0.152
-155.691	460.768	-0.093	-0.206
-154.677	46.448	0.115	-0.106
-153.662	800.000	0.152	0.473
-152.647	-200.000	-0.115	-0.823
-151.633	-146.897	-0.620	-0.053
-150.618	49.136	0.556	0.517
-149.604	141.545	0.356	0.466
-148.589	37.980	-0.118	-0.104
-147.574	-200.000	-0.073	0.672
-146.560	-200.000	0.006	0.140
-145.545	541.611	0.323	-0.761
-144.531	-82.610	-0.852	-0.273
-143.516	456.798	-0.118	0.260
-142.502	800.000	0.197	0.647
-141.487	-109.909	0.289	-0.060
-140.472	-36.445	0.584	0.311
-139.458	-131.143	-1.443	0.190
-138.443	-200.000	0.080	0.359
-137.429	102.989	-0.425	0.492
-136.414	147.732	0.386	-0.515
-135.399	228.678	0.192	0.309
-134.385	-130.254	-0.174	0.023
-133.370	-200.000	-0.071	-0.504
-132.356	38.752	-0.494	-0.436
-131.341	97.406	-0.127	-0.144
-130.326	-200.000	0.023	0.398
-129.312	23.205	0.356	-0.289
-128.297	800.000	-0.117	-0.423
-127.283	24.094	0.356	-0.290
-126.268	-136.062	-0.367	-0.043
-125.253	49.766	0.315	-0.294
-124.239	642.167	-0.326	-0.820
-123.224	-200.000	0.031	0.163
-122.210	800.000	0.114	-0.444
-121.195	138.291	-0.202	0.262
