DTS Sentinel unit serial number:	SN413079Multiplexer serial number:	ORYXHardware model number:	OX4-SRSoftware version number:	ORYX F/W v4.00 Oryx Data Collector v3.7.2.0data status	okinstallation	princeton_trtdifferential loss correction	single-endedforward channel	channel 3reverse channel	N/Adate	2019/09/12time	13:10:10forward acquisition time	60.00reverse acquisition time	0.00gamma	496.2192k internal	0.2291k external	0.2291temperature offset calibration	1.0037default loss term (dB/km)	0.3790temperature slope calibration	1.0000multiplexer offset coefficient	1.0000multiplexer slope coefficient	1.0000fibre end	0.00T internal ref (°C)	41.03T ext. ref 1 (°C)	2.00T ext. ref 2 (°C)	36.30length (m)	temperature (°C)	Stokes	anti-Stokes-747.200	173.991	0.080	-0.118
-746.185	-103.585	0.173	0.042
-745.171	215.943	0.161	0.262
-744.156	-73.328	-0.285	0.107
-743.142	-11.849	0.047	0.031
-742.127	23.002	0.232	0.195
-741.112	-16.007	-0.153	0.100
-740.098	112.235	-0.379	0.469
-739.083	-151.086	0.079	-0.006
-738.069	95.813	-0.217	0.253
-737.054	-51.732	-0.044	-0.021
-736.039	325.917	-0.075	-0.148
-735.025	412.866	-0.045	0.099
-734.010	41.778	-0.179	-0.166
-732.996	168.546	0.036	-0.052
-731.981	50.857	0.143	0.139
-730.966	185.631	0.089	0.135
-729.952	-140.880	-0.392	-0.041
-728.937	231.428	0.075	-0.126
-727.923	-32.547	-0.097	0.055
-726.908	-154.152	-0.213	-0.015
-725.894	116.378	-0.199	-0.249
-724.879	48.766	0.080	0.077
-723.864	800.000	0.056	-0.186
-722.850	-88.138	-0.160	0.049
-721.835	-9.704	0.076	0.052
-720.821	85.301	-0.136	0.153
-719.806	133.565	-0.183	-0.242
-718.791	62.779	0.076	-0.078
-717.777	-200.000	-0.205	-0.001
-716.762	-73.941	-0.482	-0.179
-715.748	800.000	0.056	0.184
-714.733	-87.921	0.261	0.080
-713.718	-200.000	-0.051	-0.236
-712.704	-40.928	0.060	-0.032
-711.689	800.000	0.118	-0.342
-710.675	-200.000	0.103	-0.484
-709.660	395.391	0.140	0.299
-708.645	-128.080	-0.193	-0.028
-707.631	-200.000	-0.001	0.122
-706.616	-88.751	-0.351	0.107
-705.602	-109.038	0.297	0.065
-704.587	-39.923	-0.176	0.094
-703.572	800.000	0.064	-0.237
-702.558	282.496	-0.054	0.099
-701.543	0.666	0.205	0.150
-700.529	-200.000	-0.021	0.325
-699.514	-140.881	-0.130	0.014
-698.499	254.494	0.071	-0.124
-697.485	800.000	0.140	0.449
-696.470	-200.000	-0.018	-0.102
-695.456	95.070	-0.259	0.301
-694.441	-200.000	0.015	0.159
-693.426	800.000	-0.025	-0.071
-692.412	175.743	0.161	0.239
-691.397	38.851	0.285	-0.260
-690.383	664.063	-0.047	-0.124
-689.368	64.182	0.088	-0.091
-688.354	183.789	-0.156	0.235
-687.339	-107.635	-0.526	0.118
-686.324	240.362	0.122	0.208
-685.310	52.416	-0.056	-0.055
-684.295	-102.713	0.098	0.024
-683.281	61.796	-0.285	0.290
-682.266	-98.684	0.386	-0.100
-681.251	14.706	-0.236	-0.189
-680.237	-83.210	-0.303	0.099
-679.222	-172.851	-0.126	0.004
-678.208	-200.000	-0.066	-0.327
-677.193	800.000	0.010	-0.042
-676.178	128.647	0.206	-0.268
-675.164	-49.033	-0.158	-0.077
-674.149	800.000	-0.110	-0.400
-673.135	800.000	0.066	0.232
-672.120	-200.000	0.027	0.389
-671.105	-145.617	-0.090	-0.008
-670.091	20.244	0.130	0.107
-669.076	111.744	-0.096	0.118
-668.062	147.182	0.221	0.303
-667.047	-177.074	-0.370	0.009
-666.032	-77.558	-0.184	0.065
-665.018	-163.631	0.272	0.013
-664.003	-52.239	-0.282	0.133
-662.989	800.000	-0.040	-0.151
-661.974	-108.818	-0.149	0.033
-660.959	-82.160	0.099	0.033
-659.945	153.108	0.183	0.256
-658.930	9.513	0.090	-0.070
-657.916	800.000	-0.041	0.167
-656.901	10.459	-0.127	-0.098
-655.886	327.691	-0.156	0.306
-654.872	800.000	0.039	-0.146
-653.857	34.843	0.033	-0.029
-652.843	135.948	-0.044	0.059
-651.828	180.280	-0.176	-0.264
-650.814	-54.268	-0.358	-0.166
-649.799	-118.722	-0.036	-0.006
-648.784	-82.254	-0.177	-0.059
-647.770	-47.154	0.067	0.033
-646.755	-200.000	-0.000	-0.111
-645.741	37.222	-0.083	-0.075
-644.726	28.145	-0.095	-0.082
-643.711	91.532	-0.036	0.041
-642.697	-200.000	-0.112	-0.000
-641.682	-200.000	-0.014	-0.274
-640.668	312.721	0.097	-0.187
-639.653	-200.000	0.041	0.253
-638.638	166.617	0.055	-0.080
-637.624	-48.535	-0.475	-0.233
-636.609	-123.326	-0.353	0.057
-635.595	-94.475	0.083	-0.023
-634.580	800.000	0.069	-0.220
-633.565	181.445	0.139	-0.209
-632.551	-25.152	-0.445	-0.269
-631.536	800.000	0.072	-0.257
-630.522	-200.000	-0.009	-0.488
-629.507	-108.805	-0.105	-0.023
-628.492	-200.000	0.069	0.355
-627.478	-138.769	-0.278	-0.031
-626.463	-14.745	-0.115	-0.075
-625.449	259.542	-0.056	-0.099
-624.434	-158.147	0.244	0.015
-623.419	413.264	0.084	0.182
-622.405	-7.668	0.195	0.134
-621.390	604.137	0.036	0.092
-620.376	-200.000	-0.005	-0.237
-619.361	-200.000	0.004	-0.069
-618.346	141.551	0.111	-0.149
-617.332	-84.735	0.186	-0.060
-616.317	800.000	-0.050	-0.199
-615.303	136.381	0.120	-0.159
-614.288	284.845	0.139	0.255
-613.273	800.000	-0.065	-0.185
-612.259	629.542	0.013	-0.032
-611.244	-155.442	-0.088	-0.006
-610.230	-100.282	0.337	0.085
-609.215	474.912	-0.050	0.115
-608.201	800.000	0.009	0.031
-607.186	245.620	0.113	-0.194
-606.171	-200.000	0.018	0.081
-605.157	-196.601	0.335	0.002
-604.142	-200.000	-0.019	0.269
-603.128	84.262	0.147	0.164
-602.113	-200.000	0.024	-0.356
-601.098	173.372	0.127	-0.187
-600.084	800.000	0.125	-0.511
-599.069	39.483	-0.008	0.008
-598.055	-151.101	-0.097	0.007
-597.040	50.834	0.335	0.323
-596.025	-200.000	0.006	-0.038
-595.011	106.375	-0.247	-0.298
-593.996	38.667	0.112	-0.102
-592.982	102.797	0.196	-0.234
-591.967	-200.000	-0.008	0.159
-590.952	-44.297	-0.054	0.028
-589.938	800.000	-0.059	-0.199
-588.923	-63.907	-0.227	-0.095
-587.909	-64.021	0.190	-0.079
-586.894	134.603	0.276	-0.364
-585.879	-200.000	0.020	-0.365
-584.865	360.739	-0.192	-0.392
-583.850	-20.732	0.141	-0.088
-582.836	-106.055	-0.094	-0.021
-581.821	451.056	-0.088	-0.198
-580.806	-16.246	0.197	0.127
-579.792	109.385	0.153	0.186
-578.777	800.000	-0.095	0.276
-577.763	-200.000	-0.022	0.135
-576.748	-125.768	0.299	0.046
-575.733	35.811	-0.207	0.185
-574.719	-63.434	-0.035	0.015
-573.704	-200.000	-0.001	0.101
-572.690	-34.136	-0.231	0.129
-571.675	800.000	0.109	-0.387
-570.661	800.000	-0.046	-0.132
-569.646	-200.000	-0.021	0.151
-568.631	-120.814	0.085	0.015
-567.617	-155.744	-0.454	-0.030
-566.602	-33.141	-0.345	0.194
-565.588	-200.000	-0.023	-0.322
-564.573	150.650	0.098	0.136
-563.558	248.585	-0.173	-0.298
-562.544	-7.585	0.125	-0.086
-561.529	-5.930	-0.044	0.031
-560.515	-103.758	-0.067	-0.016
-559.500	409.811	-0.090	0.194
-558.485	69.330	-0.082	-0.086
-557.471	365.863	0.131	0.269
-556.456	-200.000	-0.001	-0.029
-555.442	-101.319	0.069	-0.017
-554.427	-74.292	-0.068	0.025
-553.412	57.128	-0.077	-0.077
-552.398	358.425	0.037	-0.076
-551.383	338.242	0.095	0.187
-550.369	-2.939	-0.137	0.097
-549.354	800.000	-0.098	-0.381
-548.339	-164.458	0.170	-0.008
-547.325	-32.661	0.142	-0.080
-546.310	-171.311	-0.158	0.005
-545.296	-200.000	0.023	-0.240
-544.281	-42.234	-0.201	0.105
-543.266	800.000	-0.108	0.330
-542.252	-54.708	0.152	-0.070
-541.237	-96.775	0.291	-0.078
-540.223	715.010	0.064	-0.173
-539.208	-155.595	0.070	0.005
-538.193	215.832	-0.093	-0.150
-537.179	-200.000	-0.015	0.199
-536.164	28.907	0.097	-0.084
-535.150	-145.013	-0.175	0.016
-534.135	329.735	0.223	-0.435
-533.121	108.881	-0.270	0.328
-532.106	800.000	-0.037	-0.150
-531.091	-130.810	0.236	-0.032
-530.077	-52.349	-0.209	-0.098
-529.062	271.789	-0.076	-0.137
-528.048	-186.792	-0.182	0.003
-527.033	-4.997	0.207	0.145
-526.018	513.975	-0.031	-0.073
-525.004	596.608	-0.070	-0.177
-523.989	-83.852	0.331	0.107
-522.975	609.055	0.123	-0.311
-521.960	-200.000	-0.031	0.170
-520.945	-43.806	-0.260	-0.133
-519.931	-38.254	0.034	0.018
-518.916	591.011	0.045	0.114
-517.902	83.137	-0.111	-0.122
-516.887	-52.141	0.246	-0.116
-515.872	304.718	0.228	-0.430
-514.858	-200.000	0.052	0.323
-513.843	800.000	0.099	0.289
-512.829	-200.000	0.032	-0.166
-511.814	-200.000	0.063	0.297
-510.799	44.357	0.114	-0.106
-509.785	-142.819	-0.036	-0.004
-508.770	122.380	-0.176	0.223
-507.756	-125.098	-0.251	-0.039
-506.741	-90.484	0.173	0.051
-505.726	-200.000	-0.003	0.351
-504.712	235.794	0.137	0.229
-503.697	-4.419	0.082	0.057
-502.683	-200.000	0.021	-0.283
-501.668	800.000	0.026	-0.104
-500.653	7.911	-0.095	0.072
-499.639	115.366	0.129	0.159
-498.624	173.230	0.136	0.199
-497.610	-200.000	0.013	0.316
-496.595	-73.528	-0.360	-0.133
-495.581	66.531	0.095	-0.098
-494.566	-120.175	-0.382	-0.066
-493.551	-63.298	-0.082	-0.034
-492.537	-17.707	0.150	-0.095
-491.522	-56.420	0.131	-0.059
-490.508	259.876	0.202	-0.354
-489.493	623.962	-0.144	-0.367
-488.478	-200.000	-0.040	-0.255
-487.464	-127.717	-0.198	0.029
-486.449	295.957	-0.033	0.062
-485.435	796.908	-0.043	-0.120
-484.420	29.785	0.052	0.045
-483.405	-71.075	-0.059	-0.023
-482.391	-118.958	0.357	-0.064
-481.376	-43.788	-0.221	-0.113
-480.362	-30.872	-0.250	0.143
-479.347	72.530	0.096	-0.101
-478.332	-137.366	-0.055	-0.006
-477.318	98.767	-0.079	0.092
-476.303	-111.311	-0.216	0.045
-475.289	-27.995	0.174	-0.102
-474.274	80.987	0.040	0.044
-473.259	-151.683	-0.224	0.017
-472.245	800.000	-0.058	-0.221
-471.230	-200.000	-0.018	0.279
-470.216	560.252	-0.038	-0.093
-469.201	-119.840	-0.078	0.014
-468.186	638.162	0.106	0.272
-467.172	800.000	0.098	0.291
-466.157	-200.000	0.058	0.279
-465.143	-200.000	-0.002	-0.278
-464.128	157.294	0.089	0.124
-463.113	-11.889	-0.283	-0.188
-462.099	-36.705	-0.268	0.146
-461.084	-181.373	-0.454	-0.009
-460.070	96.523	-0.086	0.099
-459.055	-50.137	-0.340	-0.163
-458.040	-4.912	-0.239	-0.167
-457.026	80.598	0.062	0.067
-456.011	-176.759	0.155	0.004
-454.997	12.066	0.164	-0.127
-453.982	-200.000	-0.023	0.155
-452.968	150.120	0.181	-0.248
-451.953	-23.678	-0.250	0.152
-450.938	647.427	-0.055	0.141
-449.924	217.782	0.177	-0.285
-448.909	-185.026	0.264	0.004
-447.895	-99.588	0.461	-0.117
-446.880	59.780	-0.008	0.008
-445.865	297.323	0.187	-0.347
-444.851	800.000	0.055	0.160
-443.836	157.375	0.060	0.085
-442.822	-78.453	0.209	-0.072
-441.807	397.407	-0.057	-0.122
-440.792	-200.000	0.007	-0.224
-439.778	-65.910	-0.074	-0.030
-438.763	-47.574	0.225	0.111
-437.749	800.000	-0.049	0.215
-436.734	-105.751	-0.197	-0.045
-435.719	800.000	0.019	-0.072
-434.705	-6.002	-0.175	-0.121
-433.690	800.000	-0.078	0.327
-432.676	1.639	0.205	0.150
-431.661	216.876	0.084	-0.136
-430.646	-59.418	0.173	-0.075
-429.632	-113.683	0.151	0.030
-428.617	800.000	0.038	0.141
-427.603	-200.000	-0.029	0.176
-426.588	800.000	0.059	-0.173
-425.573	-108.217	-0.144	0.032
-424.559	-145.857	-0.096	0.009
-423.544	10.558	-0.152	0.117
-422.530	627.433	0.108	0.275
-421.515	-0.171	0.293	0.211
-420.500	-186.070	-0.391	-0.006
-419.486	21.409	-0.052	0.043
-418.471	267.290	-0.142	-0.251
-417.457	-57.787	-0.346	0.153
-416.442	233.629	-0.125	-0.208
-415.428	-25.104	-0.263	-0.157
-414.413	165.723	0.145	0.208
-413.398	800.000	0.053	0.162
-412.384	283.613	0.151	-0.275
-411.369	-39.576	-0.128	0.068
-410.355	53.594	-0.162	-0.158
-409.340	-53.018	0.308	-0.143
-408.325	69.926	-0.321	-0.334
-407.311	23.874	-0.139	0.115
-406.296	-16.852	0.039	0.025
-405.282	-55.221	-0.051	-0.023
-404.267	-95.118	0.268	0.073
-403.252	45.573	0.170	-0.158
-402.238	-132.515	0.100	0.013
-401.223	536.122	0.052	-0.124
-400.209	-200.000	0.028	0.377
-399.194	-200.000	-0.042	-0.295
-398.179	236.394	0.055	0.092
-397.165	-184.487	0.217	0.004
-396.150	65.296	-0.101	0.104
-395.136	800.000	0.075	-0.250
-394.121	-143.930	-0.356	-0.034
-393.106	38.741	0.183	0.165
-392.092	-200.000	-0.035	0.192
-391.077	800.000	0.082	0.236
-390.063	-37.335	0.097	-0.053
-389.048	215.562	0.031	-0.050
-388.033	-200.000	0.019	-0.283
-387.019	-99.647	-0.092	0.023
-386.004	-200.000	-0.000	-0.069
-384.990	-130.254	0.305	0.042
-383.975	111.358	0.147	0.179
-382.960	497.082	-0.137	-0.318
-381.946	-200.000	-0.024	0.158
-380.931	-101.751	-0.172	-0.042
-379.917	800.000	-0.074	-0.225
-378.902	-200.000	0.012	-0.334
-377.888	-200.000	0.027	0.140
-376.873	492.122	-0.075	0.174
-375.858	-200.000	0.012	-0.137
-374.844	-102.409	-0.325	-0.079
-373.829	80.805	0.213	-0.232
-372.815	-53.602	-0.171	0.079
-371.800	-45.848	-0.167	-0.083
-370.785	-114.643	0.298	-0.058
-369.771	-166.558	0.100	-0.004
-368.756	19.305	-0.171	-0.139
-367.742	7.189	0.244	-0.184
-366.727	30.680	-0.035	-0.030
-365.712	352.836	-0.045	0.090
-364.698	-30.738	0.083	0.047
-363.683	-200.000	0.003	0.034
-362.669	-131.975	0.271	0.036
-361.654	78.795	-0.056	0.060
-360.639	-135.134	-0.139	0.017
-359.625	243.899	-0.098	-0.165
-358.610	800.000	0.047	0.184
-357.596	-33.659	-0.214	0.119
-356.581	560.653	-0.060	-0.146
-355.566	-14.101	0.042	-0.027
-354.552	-76.026	0.132	-0.047
-353.537	355.865	-0.117	-0.235
-352.523	101.995	0.183	-0.215
-351.508	-145.267	-0.062	0.006
-350.493	17.772	-0.208	-0.167
-349.479	55.865	-0.246	0.241
-348.464	103.534	-0.195	-0.231
-347.450	35.167	-0.167	0.148
-346.435	55.616	0.286	0.279
-345.420	46.904	-0.204	0.191
-344.406	800.000	-0.062	0.201
-343.391	-81.428	-0.434	0.144
-342.377	30.665	-0.152	0.131
-341.362	-200.000	0.019	0.096
-340.348	243.312	0.117	0.197
-339.333	-200.000	-0.008	-0.132
-338.318	367.404	0.176	-0.359
-337.304	67.021	0.225	0.231
-336.289	-99.100	-0.147	-0.038
-335.275	-132.087	0.410	-0.054
-334.260	24.315	0.313	-0.261
-333.245	364.724	0.134	0.271
-332.231	403.150	0.184	-0.391
-331.216	-76.229	-0.180	-0.064
-330.202	-155.062	-0.207	-0.014
-329.187	1.124	0.212	0.153
-328.172	-176.091	0.087	-0.002
-327.158	-200.000	-0.008	-0.044
-326.143	724.957	-0.002	-0.006
-325.129	-143.681	0.142	0.014
-324.114	141.852	0.144	-0.192
-323.099	-115.501	0.310	0.059
-322.085	81.112	0.053	0.058
-321.070	57.243	-0.285	0.280
-320.056	34.217	0.117	0.102
-319.041	300.728	-0.090	0.168
-318.026	-151.598	-0.289	0.022
-317.012	129.079	-0.151	-0.194
-315.997	800.000	0.075	-0.283
-314.983	-38.720	0.191	0.102
-313.968	800.000	0.035	0.135
-312.953	-43.045	-0.080	0.041
-311.939	-163.575	-0.155	0.007
-310.924	451.034	-0.117	-0.261
-309.910	42.642	0.199	-0.183
-308.895	-44.954	0.389	-0.195
-307.880	-153.484	-0.440	-0.031
-306.866	-200.000	-0.014	0.072
-305.851	-92.569	0.207	-0.059
-304.837	47.330	-0.298	0.279
-303.822	-125.018	-0.277	-0.043
-302.807	158.644	-0.123	-0.172
-301.793	-98.758	0.044	-0.011
-300.778	413.236	-0.122	-0.261
-299.764	-62.946	0.178	-0.074
-298.749	-88.883	0.398	-0.119
-297.735	-200.000	-0.036	0.170
-296.720	-200.000	-0.048	0.340
-295.705	-12.286	-0.022	0.015
-294.691	47.826	0.195	-0.183
-293.676	74.384	-0.019	-0.020
-292.662	5.823	0.082	-0.061
-291.647	-90.693	-0.240	-0.070
-290.632	-200.000	0.024	-0.173
-289.618	36.979	0.146	-0.130
-288.603	-89.973	-0.339	-0.099
-287.589	488.745	-0.125	-0.287
-286.574	729.950	-0.041	-0.111
-285.559	-74.272	0.441	0.160
-284.545	40.570	0.158	0.143
-283.530	800.000	0.027	0.082
-282.516	6.825	0.176	-0.132
-281.501	85.075	0.202	0.223
-280.486	-111.081	0.190	0.039
-279.472	-65.355	-0.196	-0.079
-278.457	132.664	0.057	-0.075
-277.443	-136.929	-0.103	-0.012
-276.428	800.000	0.026	-0.100
-275.413	-116.995	-0.139	0.025
-274.399	104.021	-0.154	0.182
-273.384	206.284	-0.038	-0.060
-272.370	124.747	-0.066	0.083
-271.355	-200.000	0.030	0.152
-270.340	-108.527	0.116	-0.025
-269.326	-200.000	0.018	0.269
-268.311	463.437	0.073	-0.164
-267.297	-105.280	-0.305	-0.070
-266.282	-200.000	-0.015	-0.092
-265.267	-128.891	0.249	0.035
-264.253	409.308	-0.138	0.294
-263.238	-115.923	-0.687	-0.129
-262.224	-86.436	0.321	0.099
-261.209	-89.819	0.039	0.011
-260.195	-67.672	-0.297	0.117
-259.180	339.021	-0.079	-0.155
-258.165	686.325	-0.025	0.065
-257.151	-99.411	0.180	0.045
-256.136	255.348	0.125	-0.216
-255.122	-89.535	-0.380	-0.112
-254.107	-137.134	-0.119	-0.014
-253.092	-200.000	-0.030	0.272
-252.078	-125.738	-0.435	0.066
-251.063	-10.170	0.285	-0.190
-250.049	-200.000	0.017	0.229
-249.034	200.097	-0.190	0.293
-248.019	-200.000	0.061	0.275
-247.005	248.639	0.181	0.308
-245.990	343.516	-0.086	-0.170
-244.976	-120.864	0.302	-0.051
-243.961	-168.898	0.154	-0.006
-242.946	-190.498	0.220	0.002
-241.932	-200.000	-0.016	0.256
-240.917	51.054	-0.169	0.161
-239.903	-160.397	-0.209	0.011
-238.888	24.723	0.181	-0.150
-237.873	-22.556	-0.258	0.157
-236.859	-38.588	-0.250	-0.133
-235.844	135.716	0.195	0.255
-234.830	40.499	0.153	0.138
-233.815	800.000	-0.061	0.171
-232.800	72.345	0.133	0.139
-231.786	169.449	-0.062	-0.088
-230.771	-5.104	-0.288	-0.199
-229.757	25.556	-0.231	0.193
-228.742	-200.000	-0.070	0.396
-227.727	-97.607	0.326	0.085
-226.713	-139.349	0.097	-0.010
-225.698	-42.676	0.330	0.168
-224.684	43.734	-0.096	0.088
-223.669	457.634	-0.134	0.299
-222.655	41.720	0.123	-0.112
-221.640	204.689	-0.056	-0.088
-220.625	-149.955	-0.212	-0.017
-219.611	-45.139	-0.285	-0.142
-218.596	-200.000	-0.024	0.220
-217.582	-85.054	-0.113	0.036
-216.567	-84.379	-0.128	-0.041
-215.552	-114.365	0.045	0.009
-214.538	-64.149	-0.205	0.084
-213.523	272.427	0.047	0.083
-212.509	-27.064	0.146	0.085
-211.494	40.889	-0.087	-0.079
-210.479	95.548	-0.097	-0.110
-209.465	237.531	0.112	0.187
-208.450	-22.620	-0.062	0.037
-207.436	87.877	0.141	0.157
-206.421	-200.000	-0.040	0.377
-205.406	-85.048	-0.038	0.012
-204.392	-155.388	-0.327	0.021
-203.377	87.004	0.057	-0.064
-202.363	12.576	-0.241	0.187
-201.348	-86.519	0.318	0.098
-200.333	-139.719	-0.181	0.019
-199.319	800.000	-0.045	0.192
-198.304	-138.191	0.142	0.016
-197.290	-200.000	0.045	0.283
-196.275	176.101	0.285	0.414
-195.260	-80.793	-0.219	0.073
-194.246	-27.538	-0.123	0.072
-193.231	178.600	-0.202	0.296
-192.217	194.553	-0.105	0.160
-191.202	800.000	0.033	-0.126
-190.187	718.198	0.110	0.294
-189.173	800.000	-0.090	0.251
-188.158	800.000	-0.075	0.228
-187.144	-105.109	0.240	0.055
-186.129	235.886	0.127	0.210
-185.114	20.495	0.339	0.274
-184.100	173.225	0.182	0.263
-183.085	15.957	-0.102	0.081
-182.071	88.775	0.120	-0.134
-181.056	-71.268	-0.229	0.086
-180.042	-200.000	0.007	0.036
-179.027	-56.254	-0.223	0.099
-178.012	657.692	-0.080	0.206
-176.998	-78.891	-0.263	0.090
-175.983	-200.000	0.042	0.185
-174.969	61.803	0.056	-0.056
-173.954	-200.000	0.074	0.417
-172.939	0.046	0.235	-0.168
-171.925	-200.000	-0.000	0.238
-170.910	-28.980	0.091	0.052
-169.896	198.809	0.183	-0.280
-168.881	-8.773	0.076	-0.051
-167.866	23.382	-0.177	0.146
-166.852	800.000	0.084	-0.258
-165.837	51.853	-0.117	-0.112
-164.823	-58.273	0.423	-0.184
-163.808	1.992	0.201	-0.145
-162.793	-200.000	-0.007	-0.075
-161.779	175.233	-0.095	-0.138
-160.764	-0.100	0.337	-0.240
-159.750	-176.783	0.085	-0.002
-158.735	6.978	-0.183	-0.136
-157.720	-96.962	0.191	0.050
-156.706	-200.000	0.000	-0.027
-155.691	-200.000	-0.040	0.211
-154.677	-113.123	0.387	0.076
-153.662	-200.000	-0.022	0.202
-152.647	23.162	0.137	0.112
-151.633	-156.997	0.479	0.029
-150.618	208.806	-0.163	-0.256
-149.604	-83.858	-0.338	0.108
-148.589	294.571	-0.061	0.111
-147.574	-17.403	-0.206	-0.130
-146.560	41.618	0.376	-0.341
-145.545	-7.563	-0.033	-0.022
-144.531	-3.495	-0.109	-0.076
-143.516	-200.000	0.033	0.202
-142.502	-68.580	0.478	-0.185
-141.487	70.441	-0.212	0.219
-140.472	138.260	0.293	-0.385
-139.458	-200.000	-0.059	-0.276
-138.443	-26.393	-0.249	-0.146
-137.429	-200.000	-0.021	0.118
-136.414	394.946	-0.099	0.207
-135.399	-73.473	-0.021	0.008
-134.385	-103.375	0.439	0.103
-133.370	196.370	-0.232	-0.354
-132.356	731.590	0.088	0.236
-131.341	510.438	0.194	-0.452
-130.326	-52.289	0.243	-0.113
-129.312	-121.336	-0.435	0.073
-128.297	299.240	0.197	-0.363
-127.283	-35.196	-0.130	-0.071
-126.268	-105.084	0.378	0.086
-125.253	343.829	-0.083	-0.163
-124.239	-23.415	0.180	-0.108
-123.224	17.833	0.182	-0.145
-122.210	-151.779	-0.267	-0.020
-121.195	-200.000	-0.031	0.209
