DTS Sentinel unit serial number:	SN413079Multiplexer serial number:	ORYXHardware model number:	OX4-SRSoftware version number:	ORYX F/W v4.00 Oryx Data Collector v3.7.2.0data status	okinstallation	princeton_trtdifferential loss correction	single-endedforward channel	channel 3reverse channel	N/Adate	2019/09/13time	12:08:34forward acquisition time	60.00reverse acquisition time	0.00gamma	496.2192k internal	0.2309k external	0.2309temperature offset calibration	1.0152default loss term (dB/km)	0.3790temperature slope calibration	1.0000multiplexer offset coefficient	1.0000multiplexer slope coefficient	1.0000fibre end	0.00T internal ref (°C)	33.81T ext. ref 1 (°C)	4.62T ext. ref 2 (°C)	31.24length (m)	temperature (°C)	Stokes	anti-Stokes-747.200	410.875	0.091	0.196
-746.185	-31.338	-0.396	0.227
-745.171	-79.434	0.067	-0.023
-744.156	210.301	-0.115	0.183
-743.142	394.882	-0.052	-0.109
-742.127	175.324	-0.055	-0.080
-741.112	-29.787	0.076	0.044
-740.098	-200.000	-0.040	0.258
-739.083	-99.325	-0.088	0.023
-738.069	-200.000	-0.026	0.169
-737.054	232.506	-0.175	-0.292
-736.039	111.907	0.177	-0.217
-735.025	-68.616	0.188	0.074
-734.010	789.216	0.035	0.099
-732.996	-29.739	-0.338	-0.196
-731.981	149.999	0.177	0.243
-730.966	800.000	0.042	-0.182
-729.952	-182.838	-0.232	-0.004
-728.937	-200.000	0.016	-0.168
-727.923	-67.561	-0.263	-0.105
-726.908	-200.000	0.080	0.538
-725.894	-53.071	0.186	-0.087
-724.879	-0.807	-0.135	0.097
-723.864	501.634	-0.127	0.298
-722.850	736.830	-0.043	-0.116
-721.835	-81.108	0.115	0.038
-720.821	800.000	0.034	0.116
-719.806	223.719	0.095	-0.155
-718.791	163.718	-0.212	-0.302
-717.777	-200.000	-0.006	-0.266
-716.762	-109.530	-0.198	0.043
-715.748	-155.913	-0.251	0.016
-714.733	594.289	-0.151	0.379
-713.718	-56.305	0.038	-0.017
-712.704	-8.237	0.198	-0.135
-711.689	-173.516	0.047	-0.001
-710.675	-30.245	-0.154	-0.089
-709.660	800.000	-0.044	0.131
-708.645	-7.498	0.171	0.118
-707.631	-134.371	-0.230	0.029
-706.616	-86.961	-0.155	-0.048
-705.602	-200.000	-0.005	-0.201
-704.587	800.000	0.060	0.169
-703.572	-50.255	-0.172	0.082
-702.558	800.000	-0.043	-0.185
-701.543	-200.000	-0.046	0.436
-700.529	800.000	0.122	-0.369
-699.514	800.000	0.042	-0.182
-698.499	-200.000	0.000	0.116
-697.485	-19.213	0.380	-0.240
-696.470	14.048	0.223	0.176
-695.456	-200.000	0.004	0.202
-694.441	-17.671	0.182	0.116
-693.426	-130.700	0.009	0.001
-692.412	83.299	-0.102	-0.112
-691.397	-72.458	0.065	0.024
-690.383	11.833	0.284	0.221
-689.368	14.989	0.247	-0.196
-688.354	-200.000	-0.009	-0.509
-687.339	50.470	0.187	-0.179
-686.324	-200.000	0.015	-0.276
-685.310	35.282	0.075	0.067
-684.295	-117.100	-0.206	-0.038
-683.281	800.000	0.068	0.236
-682.266	-24.584	-0.123	0.074
-681.251	65.439	-0.202	-0.207
-680.237	35.448	-0.163	0.145
-679.222	-54.253	0.160	0.074
-678.208	255.650	0.199	0.346
-677.193	-200.000	0.022	-0.221
-676.178	103.720	-0.074	0.089
-675.164	800.000	-0.000	0.001
-674.149	-119.666	-0.367	-0.064
-673.135	800.000	-0.081	-0.286
-672.120	800.000	0.010	0.036
-671.105	270.507	0.086	0.154
-670.091	-200.000	-0.004	0.087
-669.076	-172.615	0.072	0.002
-668.062	-158.708	0.279	-0.016
-667.047	-104.509	-0.443	0.104
-666.032	-141.115	0.222	0.023
-665.018	766.249	-0.059	0.163
-664.003	800.000	-0.042	-0.132
-662.989	-24.274	-0.246	0.149
-661.974	-71.550	-0.159	0.060
-660.959	-200.000	-0.086	-0.403
-659.945	-200.000	-0.014	-0.207
-658.930	89.320	0.119	-0.134
-657.916	31.219	-0.092	-0.080
-656.901	-129.262	0.227	-0.032
-655.886	-114.612	0.221	-0.043
-654.872	-200.000	0.010	-0.143
-653.857	629.802	-0.082	0.210
-652.843	-200.000	-0.019	-0.225
-651.828	-141.150	0.307	0.032
-650.814	285.921	0.087	-0.158
-649.799	365.831	0.077	-0.157
-648.784	800.000	-0.058	-0.166
-647.770	311.254	0.049	-0.093
-646.755	6.452	-0.246	0.185
-645.741	-62.389	-0.036	0.015
-644.726	358.700	0.084	-0.169
-643.711	132.023	-0.232	-0.303
-642.697	60.042	0.072	-0.072
-641.682	-27.287	-0.268	-0.158
-640.668	800.000	-0.104	-0.382
-639.653	-79.763	-0.140	0.048
-638.638	-13.628	0.325	0.213
-637.624	-163.636	-0.288	0.014
-636.609	800.000	0.032	0.126
-635.595	-126.907	0.437	-0.065
-634.580	-200.000	-0.004	-0.092
-633.565	-200.000	-0.068	0.347
-632.551	0.846	-0.151	-0.110
-631.536	26.804	0.400	-0.339
-630.522	84.144	-0.157	0.174
-629.507	-41.663	-0.046	0.024
-628.492	-200.000	-0.010	-0.144
-627.478	160.418	-0.211	-0.298
-626.463	-114.454	-0.092	-0.018
-625.449	-200.000	-0.035	-0.224
-624.434	-200.000	0.013	-0.126
-623.419	45.686	-0.115	0.107
-622.405	359.721	0.036	-0.073
-621.390	-55.764	-0.253	0.114
-620.376	61.675	-0.226	-0.227
-619.361	-63.452	-0.276	0.115
-618.346	250.810	0.031	-0.053
-617.332	183.126	-0.067	-0.100
-616.317	-131.663	-0.292	-0.039
-615.303	149.413	0.128	-0.175
-614.288	572.099	-0.017	0.043
-613.273	65.714	0.203	0.208
-612.259	-90.697	-0.114	-0.033
-611.244	-98.949	-0.112	0.029
-610.230	112.004	-0.068	0.083
-609.215	-125.729	0.026	0.004
-608.201	439.852	0.188	-0.416
-607.186	780.258	-0.023	0.064
-606.171	-89.944	0.277	0.082
-605.157	-80.582	-0.302	0.102
-604.142	41.674	0.114	0.105
-603.128	399.440	-0.076	0.160
-602.113	356.686	-0.177	-0.357
-601.098	425.517	-0.094	-0.205
-600.084	-200.000	-0.089	0.402
-599.069	800.000	-0.081	-0.256
-598.055	-111.082	0.298	0.062
-597.040	-58.176	-0.218	0.096
-596.025	485.157	-0.025	-0.059
-595.011	-105.772	-0.374	-0.085
-593.996	119.103	0.157	-0.196
-592.982	-200.000	0.007	0.067
-591.967	192.485	0.183	0.280
-590.952	-159.939	-0.132	-0.007
-589.938	-58.097	-0.097	0.043
-588.923	-200.000	0.010	-0.251
-587.909	-61.010	0.087	0.037
-586.894	-53.862	0.352	0.162
-585.879	500.773	0.102	-0.238
-584.865	170.081	0.271	0.391
-583.850	551.406	-0.142	0.345
-582.836	-138.852	0.070	0.008
-581.821	28.371	-0.158	0.135
-580.806	800.000	-0.034	-0.134
-579.792	-153.152	-0.163	-0.012
-578.777	-20.856	0.275	-0.170
-577.763	182.576	-0.120	0.178
-576.748	-76.848	0.195	-0.069
-575.733	-200.000	-0.016	-0.109
-574.719	113.419	-0.283	-0.347
-573.704	-1.874	-0.135	0.096
-572.690	96.070	-0.267	-0.308
-571.675	-19.913	0.233	-0.145
-570.661	-126.257	0.073	-0.011
-569.646	-200.000	0.003	-0.177
-568.631	-62.112	0.168	-0.071
-567.617	-200.000	-0.002	-0.091
-566.602	197.720	-0.104	-0.160
-565.588	0.333	-0.120	-0.087
-564.573	-26.341	0.375	-0.222
-563.558	800.000	-0.018	-0.068
-562.544	33.770	0.134	0.118
-561.529	-114.427	-0.067	0.013
-560.515	7.301	0.053	-0.040
-559.500	154.155	-0.095	-0.132
-558.485	800.000	0.042	0.140
-557.471	-78.802	-0.086	0.030
-556.456	800.000	-0.069	-0.267
-555.442	463.132	-0.080	-0.181
-554.427	-55.955	-0.163	-0.073
-553.412	-200.000	-0.002	0.176
-552.398	206.020	0.069	0.108
-551.383	-92.721	0.229	0.065
-550.369	-163.884	-0.098	-0.005
-549.354	-109.121	0.046	-0.010
-548.339	800.000	-0.052	-0.169
-547.325	-200.000	0.007	0.067
-546.310	-83.707	0.125	-0.040
-545.296	-200.000	0.010	-0.105
-544.281	-178.514	-0.298	0.007
-543.266	244.247	0.117	0.198
-542.252	-131.177	-0.340	-0.046
-541.237	800.000	-0.028	-0.104
-540.223	177.464	-0.125	-0.184
-539.208	-200.000	-0.011	0.051
-538.193	189.381	0.157	-0.237
-537.179	702.716	-0.095	-0.253
-536.164	261.435	-0.073	-0.127
-535.150	72.756	0.119	0.126
-534.135	634.894	-0.111	0.285
-533.121	643.846	-0.106	-0.272
-532.106	-200.000	-0.015	-0.203
-531.091	-106.040	0.280	-0.063
-530.077	16.974	0.245	0.195
-529.062	-118.611	0.091	0.016
-528.048	-95.753	-0.312	0.084
-527.033	800.000	-0.070	0.269
-526.018	249.030	-0.176	0.301
-525.004	-156.548	0.264	-0.017
-523.989	108.012	-0.073	-0.088
-522.975	-36.666	-0.416	-0.225
-521.960	-35.569	0.209	-0.114
-520.945	800.000	-0.027	-0.082
-519.931	79.790	0.046	-0.050
-518.916	-113.788	-0.354	-0.069
-517.902	-200.000	0.023	0.208
-516.887	-132.070	0.348	-0.046
-515.872	-200.000	0.031	0.216
-514.858	255.909	0.038	-0.065
-513.843	-200.000	-0.024	0.229
-512.829	800.000	-0.016	0.049
-511.814	-90.753	0.239	-0.069
-510.799	150.413	-0.059	0.080
-509.785	68.535	-0.120	0.124
-508.770	426.381	0.085	0.184
-507.756	-146.646	-0.104	-0.009
-506.741	800.000	-0.101	-0.303
-505.726	22.921	-0.185	-0.153
-504.712	-200.000	-0.032	-0.247
-503.697	-105.575	-0.186	0.043
-502.683	-33.372	0.165	-0.092
-501.668	-92.255	-0.175	0.050
-500.653	193.951	0.162	0.247
-499.639	-22.238	-0.126	0.077
-498.624	-150.717	0.164	-0.013
-497.610	-200.000	-0.054	0.361
-496.595	-119.521	-0.185	-0.032
-495.581	-200.000	-0.030	-0.151
-494.566	26.999	-0.161	0.136
-493.551	2.752	0.146	-0.106
-492.537	238.014	-0.125	0.209
-491.522	88.038	0.179	0.200
-490.508	673.977	-0.081	0.212
-489.493	-43.105	-0.122	0.062
-488.478	800.000	0.022	0.079
-487.464	-126.763	-0.116	0.017
-486.449	635.792	-0.032	0.082
-485.435	-82.035	-0.372	-0.122
-484.420	-123.683	0.197	0.031
-483.405	-200.000	0.010	-0.130
-482.391	-62.953	0.223	-0.093
-481.376	-200.000	0.005	-0.185
-480.362	-200.000	-0.047	0.284
-479.347	-42.290	0.211	-0.109
-478.332	-93.680	0.149	-0.041
-477.318	173.231	-0.095	-0.137
-476.303	-200.000	-0.042	0.217
-475.289	646.866	0.163	0.418
-474.274	-159.581	-0.131	0.007
-473.259	558.206	0.070	0.169
-472.245	248.329	-0.101	-0.172
-471.230	-62.065	-0.196	-0.082
-470.216	190.670	-0.077	-0.117
-469.201	-25.580	-0.221	0.131
-468.186	800.000	0.026	-0.071
-467.172	-200.000	-0.033	0.321
-466.157	-91.464	-0.243	0.070
-465.143	-120.766	-0.266	-0.045
-464.128	-27.805	0.171	-0.100
-463.113	-173.354	0.252	0.008
-462.099	17.559	0.085	0.068
-461.084	63.747	0.165	-0.166
-460.070	-200.000	0.020	-0.352
-459.055	15.997	0.103	-0.081
-458.040	800.000	0.023	-0.099
-457.026	666.976	0.114	0.297
-456.011	-46.007	-0.182	-0.090
-454.997	-200.000	-0.001	0.138
-453.982	-1.877	0.034	-0.024
-452.968	203.271	0.059	-0.092
-451.953	-25.658	0.076	0.045
-450.938	-200.000	0.001	-0.252
-449.924	-39.095	-0.347	0.183
-448.909	-200.000	-0.009	0.115
-447.895	147.319	-0.144	-0.194
-446.880	276.648	0.171	0.305
-445.865	343.088	-0.137	-0.270
-444.851	-200.000	0.028	0.266
-443.836	761.418	0.073	0.198
-442.822	800.000	0.078	-0.243
-441.807	-200.000	-0.006	0.265
-440.792	299.570	-0.077	0.143
-439.778	-200.000	0.008	0.075
-438.763	23.622	-0.157	0.130
-437.749	-200.000	0.009	0.101
-436.734	-80.628	-0.062	0.021
-435.719	-200.000	0.027	-0.195
-434.705	113.068	0.166	-0.202
-433.690	-145.444	-0.260	0.023
-432.676	445.634	0.059	-0.129
-431.661	-67.646	-0.214	-0.084
-430.646	66.461	-0.200	0.204
-429.632	-122.602	-0.182	0.030
-428.617	5.449	-0.068	-0.050
-427.603	68.831	-0.072	0.075
-426.588	40.808	0.228	-0.206
-425.573	-200.000	-0.048	-0.219
-424.559	393.477	-0.116	-0.241
-423.544	98.792	0.347	-0.402
-422.530	800.000	0.020	-0.071
-421.515	-200.000	0.007	0.042
-420.500	-80.297	-0.164	0.055
-419.486	-104.082	-0.413	0.096
-418.471	91.618	-0.106	0.120
-417.457	800.000	-0.118	0.445
-416.442	36.968	-0.093	-0.082
-415.428	-58.647	-0.307	0.134
-414.413	800.000	0.065	-0.237
-413.398	-200.000	-0.009	-0.231
-412.384	800.000	-0.114	-0.363
-411.369	114.376	0.019	0.024
-410.355	-132.362	-0.109	0.014
-409.340	800.000	0.014	0.054
-408.325	-98.323	-0.191	0.049
-407.311	-200.000	-0.029	0.233
-406.296	-162.783	-0.108	0.005
-405.282	-41.669	0.245	-0.126
-404.267	800.000	0.025	0.094
-403.252	-155.445	-0.155	-0.010
-402.238	-200.000	0.000	0.140
-401.223	406.570	-0.111	0.234
-400.209	8.005	0.373	-0.280
-399.194	-109.002	-0.288	-0.062
-398.179	117.199	0.079	-0.097
-397.165	800.000	0.115	-0.349
-396.150	-200.000	0.003	0.041
-395.136	239.331	0.135	-0.224
-394.121	-200.000	-0.013	0.256
-393.106	-94.357	0.119	0.033
-392.092	800.000	0.169	0.591
-391.077	800.000	-0.068	0.262
-390.063	-57.042	-0.302	-0.133
-389.048	-153.302	-0.510	0.036
-388.033	34.958	0.274	0.240
-387.019	800.000	0.070	-0.205
-386.004	375.529	-0.059	-0.121
-384.990	-133.939	-0.227	-0.028
-383.975	610.685	0.106	0.266
-382.960	-84.204	0.287	0.091
-381.946	800.000	-0.123	0.361
-380.931	114.324	-0.053	0.064
-379.917	-26.651	0.079	0.046
-378.902	-200.000	-0.013	0.163
-377.888	98.016	0.173	0.199
-376.873	-106.879	-0.214	-0.048
-375.858	-104.201	0.281	-0.065
-374.844	-7.167	-0.055	0.037
-373.829	209.397	0.123	0.193
-372.815	27.489	0.123	0.104
-371.800	-200.000	0.004	0.020
-370.785	800.000	0.018	0.062
-369.771	-200.000	0.068	-0.355
-368.756	800.000	0.074	0.228
-367.742	-200.000	-0.078	0.348
-366.727	307.069	0.129	0.240
-365.712	-43.584	0.261	0.132
-364.698	87.513	-0.026	0.029
-363.683	-107.868	-0.472	-0.103
-362.669	-98.064	-0.105	0.027
-361.654	95.963	0.105	0.120
-360.639	-124.145	-0.169	0.026
-359.625	-85.371	0.217	0.068
-358.610	-49.383	0.194	0.092
-357.596	66.687	0.124	0.126
-356.581	-12.837	0.258	-0.168
-355.566	800.000	0.036	0.102
-354.552	-148.288	-0.215	0.018
-353.537	-119.857	0.242	0.042
-352.523	5.661	0.111	-0.082
-351.508	444.197	0.144	-0.317
-350.493	-200.000	-0.027	0.361
-349.479	-200.000	0.017	0.242
-348.464	244.335	0.026	-0.044
-347.450	-109.248	-0.139	0.029
-346.435	-66.393	0.346	-0.138
-345.420	381.390	0.153	0.315
-344.406	-200.000	0.037	0.246
-343.391	-58.778	0.349	0.151
-342.377	-200.000	0.020	-0.096
-341.362	173.315	-0.042	0.061
-340.348	-160.093	-0.203	0.011
-339.333	46.853	-0.020	0.019
-338.318	-200.000	-0.082	-0.365
-337.304	266.761	-0.199	-0.347
-336.289	129.048	0.115	0.147
-335.275	416.386	0.056	-0.119
-334.260	-99.211	-0.204	0.052
-333.245	41.778	-0.132	0.120
-332.231	-93.068	0.229	0.064
-331.216	-200.000	0.057	0.448
-330.202	-118.274	0.329	-0.059
-329.187	-200.000	-0.093	-0.462
-328.172	197.358	0.085	-0.130
-327.158	6.828	0.213	0.159
-326.143	-200.000	0.006	0.163
-325.129	762.441	0.055	-0.149
-324.114	18.417	0.196	0.157
-323.099	141.880	-0.197	-0.261
-322.085	123.555	-0.229	-0.287
-321.070	-45.013	-0.111	0.055
-320.056	52.969	-0.081	-0.078
-319.041	10.399	-0.190	0.144
-318.026	-155.163	0.197	-0.013
-317.012	-52.305	0.209	-0.097
-315.997	-45.243	0.095	0.047
-314.983	127.145	0.093	-0.118
-313.968	-130.542	-0.100	-0.013
-312.953	684.615	-0.056	-0.147
-311.939	434.459	0.017	-0.037
-310.924	-200.000	0.014	0.195
-309.910	-200.000	0.045	0.308
-308.895	-76.856	-0.157	0.055
-307.880	-34.670	0.107	-0.058
-306.866	-200.000	0.007	0.065
-305.851	255.242	-0.099	0.170
-304.837	-55.421	-0.252	-0.113
-303.822	-200.000	0.016	-0.169
-302.807	800.000	0.021	0.081
-301.793	-200.000	-0.014	0.220
-300.778	-76.145	0.320	0.113
-299.764	-89.013	-0.193	-0.057
-298.749	54.361	0.130	0.125
-297.735	-200.000	-0.004	-0.219
-296.720	-195.583	-0.180	0.001
-295.705	316.389	-0.184	0.346
-294.691	-200.000	0.030	0.361
-293.676	259.168	-0.131	0.226
-292.662	-101.489	0.226	-0.055
-291.647	800.000	0.126	-0.358
-290.632	800.000	-0.038	-0.147
-289.618	-18.512	-0.190	0.119
-288.603	-124.772	0.208	-0.032
-287.589	-83.087	0.263	-0.084
-286.574	-130.279	-0.248	-0.034
-285.559	40.978	-0.126	0.114
-284.545	-200.000	0.009	-0.257
-283.530	95.158	0.124	-0.141
-282.516	90.794	-0.105	-0.117
-281.501	442.806	0.093	0.204
-280.486	-195.316	0.017	0.000
-279.472	119.190	0.090	0.111
-278.457	-124.674	-0.105	0.016
-277.443	-18.387	0.156	0.097
-276.428	800.000	-0.022	0.074
-275.413	-74.818	-0.212	-0.076
-274.399	-200.000	0.016	-0.160
-273.384	161.039	-0.107	-0.149
-272.370	-16.026	0.178	-0.113
-271.355	461.979	-0.109	0.242
-270.340	279.481	0.240	0.427
-269.326	43.283	0.125	0.114
-268.311	800.000	0.095	0.354
-267.297	-161.815	0.145	0.007
-266.282	-200.000	-0.002	0.316
-265.267	800.000	-0.023	-0.073
-264.253	-121.809	0.320	0.053
-263.238	26.514	-0.171	-0.142
-262.224	261.177	0.113	-0.194
-261.209	196.317	-0.187	0.284
-260.195	18.235	0.183	0.145
-259.180	353.610	0.139	-0.276
-258.165	291.147	-0.080	-0.145
-257.151	-15.181	-0.281	0.179
-256.136	157.189	-0.153	-0.210
-255.122	-200.000	-0.026	0.153
-254.107	281.165	-0.055	0.098
-253.092	800.000	-0.035	0.115
-252.078	-152.307	0.218	0.016
-251.063	-158.773	0.121	0.007
-250.049	368.175	-0.081	0.163
-249.034	-112.705	-0.251	0.050
-248.019	219.727	-0.108	-0.173
-247.005	-200.000	0.010	-0.124
-245.990	-6.952	0.155	0.105
-244.976	292.074	0.122	0.222
-243.961	67.798	-0.077	-0.078
-242.946	37.308	0.218	0.193
-241.932	-200.000	-0.001	0.177
-240.917	-148.664	0.059	0.005
-239.903	-100.519	-0.115	0.028
-238.888	27.850	0.088	-0.074
-237.873	-86.689	0.134	-0.041
-236.859	-200.000	-0.040	0.297
-235.844	-145.895	0.247	-0.022
-234.830	21.227	-0.117	-0.095
-233.815	-154.598	-0.281	0.019
-232.800	-151.974	-0.252	-0.018
-231.786	19.504	-0.221	-0.177
-230.771	158.433	0.303	0.419
-229.757	-121.578	0.130	-0.022
-228.742	-141.625	-0.500	0.050
-227.727	800.000	-0.067	0.261
-226.713	120.176	-0.148	-0.183
-225.698	-32.541	-0.237	-0.131
-224.684	-30.782	0.213	0.120
-223.669	-200.000	-0.052	0.408
-222.655	96.345	0.229	0.261
-221.640	-32.447	0.384	-0.213
-220.625	166.042	0.160	-0.225
-219.611	588.828	-0.075	0.184
-218.596	116.217	0.217	0.264
-217.582	-30.036	0.144	0.082
-216.567	88.630	0.203	-0.225
-215.552	420.767	0.083	0.177
-214.538	800.000	0.073	-0.238
-213.523	236.111	-0.033	-0.054
-212.509	521.716	-0.083	-0.195
-211.494	-137.187	-0.067	0.008
-210.479	-96.942	0.214	0.056
-209.465	-100.395	0.176	-0.043
-208.450	40.689	-0.160	-0.143
-207.436	-180.193	-0.353	0.007
-206.421	109.292	-0.064	-0.076
-205.406	800.000	0.032	0.132
-204.392	-39.272	-0.188	-0.098
-203.377	215.522	0.071	0.113
-202.363	129.280	0.059	0.075
-201.348	39.314	0.048	-0.043
-200.333	-200.000	0.041	-0.274
-199.319	21.190	0.182	-0.147
-198.304	-88.715	0.212	-0.063
-197.290	39.900	0.152	-0.136
-196.275	-191.574	-0.248	-0.002
-195.260	767.115	-0.121	-0.326
-194.246	402.048	-0.049	0.101
-193.231	-86.629	-0.083	-0.025
-192.217	-200.000	0.018	0.365
-191.202	-59.406	0.073	-0.031
-190.187	135.847	0.088	-0.114
-189.173	131.756	0.133	-0.170
-188.158	-90.133	0.200	0.058
-187.144	-200.000	0.005	0.239
-186.129	7.016	-0.231	-0.172
-185.114	83.848	-0.088	0.095
-184.100	-84.983	0.374	0.117
-183.085	-55.545	0.096	0.043
-182.071	-52.803	0.194	-0.089
-181.056	-163.578	-0.319	-0.015
-180.042	84.855	0.116	0.127
-179.027	-159.941	0.177	0.010
-178.012	-43.369	0.320	-0.161
-176.998	173.711	-0.112	-0.161
-175.983	-200.000	-0.015	-0.146
-174.969	414.412	-0.183	-0.388
-173.954	-198.585	0.307	-0.002
-172.939	-20.095	0.319	-0.195
-171.925	190.253	0.155	-0.232
-170.910	580.200	0.018	0.044
-169.896	6.787	0.236	-0.175
-168.881	165.643	0.146	-0.205
-167.866	800.000	0.115	0.357
-166.852	-30.064	-0.285	-0.161
-165.837	-77.441	-0.152	-0.052
-164.823	-3.149	-0.236	-0.163
-163.808	-128.094	0.327	-0.047
-162.793	-137.030	0.372	0.042
-161.779	55.362	0.228	-0.219
-160.764	-17.679	-0.087	-0.054
-159.750	-200.000	0.011	-0.136
-158.735	233.815	-0.064	-0.105
-157.720	-200.000	0.050	-0.297
-156.706	233.407	0.226	-0.369
-155.691	105.186	-0.151	0.178
-154.677	-92.640	0.431	0.120
-153.662	201.412	0.054	0.083
-152.647	-24.611	-0.133	0.079
-151.633	-138.004	-0.213	-0.024
-150.618	242.344	-0.073	-0.121
-149.604	143.057	-0.062	-0.082
-148.589	80.845	0.174	0.187
-147.574	294.509	0.031	0.056
-146.560	-57.900	0.315	-0.137
-145.545	-174.508	-0.404	0.011
-144.531	-72.251	-0.310	-0.114
-143.516	445.928	-0.113	0.247
-142.502	-22.612	0.199	0.120
-141.487	800.000	-0.030	0.085
-140.472	-40.012	-0.113	-0.059
-139.458	5.329	-0.082	0.060
-138.443	-200.000	-0.002	0.092
-137.429	44.769	-0.083	-0.076
-136.414	-200.000	-0.078	0.493
-135.399	152.381	-0.149	0.202
-134.385	800.000	-0.093	0.267
-133.370	434.939	-0.106	-0.229
-132.356	-70.429	-0.266	-0.100
-131.341	-52.807	0.343	0.157
-130.326	433.292	0.131	-0.281
-129.312	-200.000	0.009	-0.412
-128.297	273.406	0.052	0.091
-127.283	800.000	-0.114	0.459
-126.268	47.904	-0.219	-0.203
-125.253	226.236	-0.099	0.159
-124.239	227.642	-0.195	-0.314
-123.224	39.526	0.231	-0.205
-122.210	-124.045	0.091	-0.014
