DTS Sentinel unit serial number:	SN413079Multiplexer serial number:	ORYXHardware model number:	OX4-SRSoftware version number:	ORYX F/W v4.00 Oryx Data Collector v3.7.2.0data status	okinstallation	princeton_trtdifferential loss correction	single-endedforward channel	channel 3reverse channel	N/Adate	2019/09/19time	14:52:35forward acquisition time	60.00reverse acquisition time	0.00gamma	496.2192k internal	0.2316k external	0.2316temperature offset calibration	1.0007default loss term (dB/km)	0.3790temperature slope calibration	1.0000multiplexer offset coefficient	1.0000multiplexer slope coefficient	1.0000fibre end	0.00T internal ref (°C)	32.87T ext. ref 1 (°C)	1.10T ext. ref 2 (°C)	29.86length (m)	temperature (°C)	Stokes	anti-Stokes-747.200	256.213	0.070	0.122
-746.185	248.765	-0.243	0.416
-745.171	87.470	-0.187	0.209
-744.156	729.954	-0.076	0.206
-743.142	-92.289	0.333	0.095
-742.127	158.517	0.346	0.487
-741.112	87.998	-0.316	0.355
-740.098	630.274	-0.143	0.365
-739.083	-58.703	0.308	0.135
-738.069	91.908	-0.292	0.333
-737.054	-200.000	0.021	-0.234
-736.039	-101.651	-0.266	-0.065
-735.025	-98.360	-0.237	0.061
-734.010	-9.574	0.134	-0.091
-732.996	800.000	0.052	-0.150
-731.981	-63.692	-0.274	0.114
-730.966	-200.000	0.003	0.031
-729.952	16.870	0.209	-0.168
-728.937	-77.822	-0.178	-0.062
-727.923	-128.600	-0.203	-0.029
-726.908	800.000	-0.044	0.163
-725.894	428.724	-0.085	-0.186
-724.879	-81.432	-0.224	-0.075
-723.864	205.334	-0.113	-0.177
-722.850	366.909	-0.097	-0.198
-721.835	-119.979	-0.106	-0.018
-720.821	-85.672	-0.057	-0.018
-719.806	115.471	-0.171	0.212
-718.791	800.000	-0.109	-0.329
-717.777	107.130	0.082	0.099
-716.762	451.270	-0.048	-0.107
-715.748	-158.488	0.227	0.013
-714.733	-200.000	0.031	-0.199
-713.718	5.573	0.175	-0.131
-712.704	-68.072	0.070	0.028
-711.689	43.492	-0.201	-0.186
-710.675	143.552	-0.159	-0.214
-709.660	144.866	0.236	-0.319
-708.645	-43.819	-0.064	0.033
-707.631	67.916	-0.203	-0.210
-706.616	8.313	-0.145	0.110
-705.602	106.736	0.100	-0.119
-704.587	-200.000	-0.040	-0.378
-703.572	127.906	0.270	-0.347
-702.558	-52.054	0.135	-0.063
-701.543	147.365	0.182	0.247
-700.529	-45.400	-0.048	0.024
-699.514	367.458	0.069	0.141
-698.499	-21.020	-0.156	0.097
-697.485	275.239	-0.066	-0.118
-696.470	800.000	-0.024	-0.086
-695.456	788.904	0.079	-0.220
-694.441	507.209	0.115	-0.270
-693.426	-84.595	-0.205	0.065
-692.412	-69.133	-0.176	-0.069
-691.397	38.767	0.126	-0.113
-690.383	232.738	-0.176	-0.293
-689.368	144.408	0.104	-0.141
-688.354	100.328	-0.159	-0.187
-687.339	-32.807	0.048	0.027
-686.324	-101.837	0.202	-0.049
-685.310	-116.777	0.104	0.019
-684.295	113.765	-0.100	-0.123
-683.281	370.999	0.157	-0.322
-682.266	800.000	-0.083	-0.263
-681.251	-200.000	0.042	0.308
-680.237	-200.000	0.010	0.057
-679.222	800.000	-0.026	0.084
-678.208	-193.144	0.142	-0.001
-677.193	-108.696	-0.098	-0.021
-676.178	-200.000	0.024	-0.279
-675.164	800.000	-0.067	0.250
-674.149	-109.401	-0.168	0.036
-673.135	148.892	0.094	0.128
-672.120	-200.000	-0.022	-0.136
-671.105	25.551	0.144	0.121
-670.091	24.064	-0.176	-0.147
-669.076	-200.000	-0.035	-0.309
-668.062	-12.619	-0.208	-0.137
-667.047	157.715	-0.142	0.199
-666.032	305.723	-0.111	0.208
-665.018	-147.511	-0.085	0.007
-664.003	-47.167	0.126	-0.062
-662.989	49.554	-0.137	0.130
-661.974	-86.532	0.183	0.057
-660.959	-175.013	0.240	0.007
-659.945	-200.000	0.016	0.074
-658.930	521.348	-0.099	0.235
-657.916	21.152	0.218	0.179
-656.901	-105.604	0.155	0.036
-655.886	361.107	0.162	0.328
-654.872	47.437	0.149	0.140
-653.857	-100.723	0.183	-0.046
-652.843	-92.368	-0.056	0.016
-651.828	-145.672	0.182	-0.016
-650.814	800.000	0.058	-0.213
-649.799	-128.758	0.567	0.081
-648.784	-41.379	-0.033	-0.017
-647.770	-32.722	-0.179	0.100
-646.755	241.079	0.148	0.249
-645.741	134.049	-0.095	0.124
-644.726	-23.090	0.324	0.197
-643.711	18.610	0.111	0.089
-642.697	-32.907	-0.097	-0.054
-641.682	15.417	0.195	0.154
-640.668	226.305	0.078	0.128
-639.653	138.413	-0.163	0.216
-638.638	-31.602	-0.208	-0.118
-637.624	221.294	0.037	-0.061
-636.609	-119.730	0.098	-0.017
-635.595	743.675	-0.090	-0.245
-634.580	800.000	-0.130	-0.397
-633.565	252.367	0.052	0.090
-632.551	-200.000	-0.061	-0.355
-631.536	203.417	0.171	-0.267
-630.522	9.772	-0.257	-0.197
-629.507	-45.128	-0.226	-0.113
-628.492	-14.673	0.052	-0.034
-627.478	99.218	0.173	0.202
-626.463	-26.295	-0.319	-0.189
-625.449	-139.779	0.195	0.021
-624.434	104.437	-0.072	-0.085
-623.419	-5.484	0.128	-0.089
-622.405	192.496	-0.172	-0.261
-621.390	216.750	-0.057	-0.092
-620.376	800.000	0.152	-0.457
-619.361	154.470	0.150	-0.208
-618.346	168.880	0.089	-0.128
-617.332	-73.387	-0.355	-0.131
-616.317	159.289	0.093	0.130
-615.303	-200.000	0.011	-0.173
-614.288	-24.037	0.273	-0.165
-613.273	-142.566	-0.181	0.018
-612.259	19.539	0.086	-0.069
-611.244	270.953	-0.158	-0.279
-610.230	-200.000	-0.041	-0.241
-609.215	237.515	-0.053	-0.089
-608.201	311.125	0.186	-0.351
-607.186	-102.987	-0.323	-0.077
-606.171	-50.731	-0.276	0.131
-605.157	-200.000	-0.006	0.057
-604.142	-127.423	-0.119	-0.017
-603.128	-85.243	-0.213	-0.067
-602.113	0.563	0.089	0.064
-601.098	-200.000	-0.006	0.064
-600.084	-34.915	-0.282	0.155
-599.069	-110.164	0.084	0.018
-598.055	253.545	0.257	-0.441
-597.040	180.777	0.118	-0.175
-596.025	223.511	-0.059	-0.096
-595.011	172.996	-0.275	0.400
-593.996	16.424	-0.144	-0.114
-592.982	-10.998	0.306	0.203
-591.967	-200.000	0.036	-0.242
-590.952	95.941	-0.142	0.163
-589.938	14.790	-0.314	-0.247
-588.923	-195.704	-0.273	0.002
-587.909	-192.609	-0.341	-0.003
-586.894	580.350	0.111	0.274
-585.879	95.660	-0.031	0.036
-584.865	800.000	-0.019	-0.067
-583.850	-200.000	0.001	-0.279
-582.836	-150.084	-0.164	-0.013
-581.821	607.414	0.120	-0.300
-580.806	-200.000	0.017	-0.268
-579.792	-26.585	0.241	-0.142
-578.777	-83.313	0.295	-0.095
-577.763	-152.778	0.213	-0.015
-576.748	189.134	0.063	0.095
-575.733	401.774	0.025	-0.054
-574.719	-22.298	-0.237	-0.145
-573.704	-200.000	0.047	-0.445
-572.690	57.456	-0.141	-0.138
-571.675	-144.811	-0.220	0.020
-570.661	-200.000	0.012	0.119
-569.646	466.363	-0.065	-0.145
-568.631	118.788	0.121	0.151
-567.617	638.030	0.097	0.247
-566.602	229.424	-0.159	-0.261
-565.588	82.499	-0.143	0.156
-564.573	-111.273	0.293	-0.060
-563.558	128.412	0.330	0.423
-562.544	-200.000	0.061	0.364
-561.529	52.142	0.052	-0.050
-560.515	-103.325	-0.175	0.041
-559.500	187.757	-0.187	0.281
-558.485	-200.000	-0.006	-0.293
-557.471	-200.000	0.016	0.279
-556.456	109.868	-0.144	0.173
-555.442	253.482	0.146	0.250
-554.427	-25.567	0.135	0.080
-553.412	730.735	0.139	-0.373
-552.398	618.154	0.006	0.015
-551.383	-125.321	-0.240	-0.037
-550.369	99.506	-0.154	-0.179
-549.354	180.522	-0.124	0.183
-548.339	157.146	0.113	0.158
-547.325	-27.678	-0.194	-0.113
-546.310	269.166	-0.171	0.301
-545.296	255.174	-0.128	-0.221
-544.281	-200.000	-0.013	0.183
-543.266	97.590	0.250	0.288
-542.252	41.363	0.248	0.225
-541.237	-32.369	-0.197	-0.111
-540.223	-104.304	0.186	-0.043
-539.208	-200.000	-0.021	-0.110
-538.193	52.273	-0.193	-0.185
-537.179	70.821	-0.108	-0.112
-536.164	112.423	-0.235	-0.286
-535.150	800.000	0.040	-0.166
-534.135	-52.828	-0.236	-0.109
-533.121	800.000	-0.056	0.240
-532.106	-200.000	-0.022	-0.129
-531.091	-200.000	-0.021	0.206
-530.077	68.019	0.241	-0.248
-529.062	-8.343	0.037	0.025
-528.048	97.454	-0.090	0.104
-527.033	411.559	-0.208	0.444
-526.018	171.195	0.169	-0.244
-525.004	800.000	-0.040	-0.174
-523.989	130.915	-0.175	0.226
-522.975	-200.000	0.009	-0.181
-521.960	-120.621	0.308	-0.052
-520.945	-200.000	0.074	0.332
-519.931	800.000	0.050	-0.214
-518.916	-33.076	-0.112	0.063
-517.902	51.767	0.098	-0.094
-516.887	-200.000	0.045	-0.261
-515.872	455.420	0.088	-0.196
-514.858	118.943	-0.207	0.257
-513.843	218.893	0.134	0.214
-512.829	-176.818	-0.072	-0.002
-511.814	800.000	-0.070	0.224
-510.799	800.000	-0.066	-0.244
-509.785	-159.865	-0.107	-0.006
-508.770	-81.298	-0.285	-0.094
-507.756	-200.000	-0.051	-0.376
-506.741	58.286	-0.237	0.233
-505.726	-184.927	-0.369	0.006
-504.712	254.367	0.153	0.262
-503.697	637.386	0.050	-0.127
-502.683	114.898	0.132	0.162
-501.668	-154.056	-0.184	-0.013
-500.653	-136.302	-0.204	0.024
-499.639	-200.000	-0.004	-0.027
-498.624	67.050	0.163	0.167
-497.610	-144.305	0.034	0.003
-496.595	-200.000	0.009	0.126
-495.581	-67.893	0.241	0.094
-494.566	46.808	-0.303	0.282
-493.551	193.390	0.153	-0.232
-492.537	82.148	0.176	0.191
-491.522	800.000	-0.022	-0.096
-490.508	25.541	0.076	0.063
-489.493	-200.000	-0.028	0.202
-488.478	8.930	0.201	0.152
-487.464	346.938	-0.218	-0.430
-486.449	-110.544	0.107	-0.022
-485.435	-142.408	-0.106	-0.010
-484.420	-24.684	-0.205	0.122
-483.405	65.323	-0.319	0.324
-482.391	-83.167	-0.304	-0.098
-481.376	-58.386	-0.408	0.178
-480.362	112.887	-0.193	0.235
-479.347	-74.822	0.058	0.021
-478.332	-196.076	0.139	0.001
-477.318	149.890	-0.201	-0.273
-476.303	-200.000	-0.041	-0.272
-475.289	340.583	-0.083	-0.162
-474.274	171.902	-0.211	0.304
-473.259	255.978	-0.103	0.178
-472.245	800.000	-0.053	0.177
-471.230	223.782	0.149	0.241
-470.216	-92.998	0.099	-0.028
-469.201	-200.000	-0.004	0.347
-468.186	-200.000	0.025	0.295
-467.172	800.000	0.046	-0.178
-466.157	-112.136	-0.248	0.050
-465.143	-43.870	-0.130	-0.066
-464.128	800.000	0.019	0.056
-463.113	-200.000	-0.041	0.207
-462.099	-200.000	0.019	0.394
-461.084	30.964	-0.153	0.131
-460.070	290.462	0.069	-0.125
-459.055	-52.567	-0.259	-0.120
-458.040	49.309	-0.053	-0.050
-457.026	-200.000	-0.010	0.051
-456.011	307.466	-0.020	-0.037
-454.997	800.000	0.047	0.132
-453.982	800.000	-0.052	0.162
-452.968	455.791	0.113	-0.250
-451.953	327.354	0.111	-0.213
-450.938	-200.000	-0.031	-0.151
-449.924	-141.848	0.195	0.020
-448.909	-200.000	0.008	-0.295
-447.895	96.616	-0.100	-0.114
-446.880	-146.785	-0.234	0.020
-445.865	63.168	-0.207	0.208
-444.851	105.500	0.065	0.077
-443.836	21.301	0.012	-0.009
-442.822	-200.000	-0.027	0.351
-441.807	-16.300	-0.236	-0.150
-440.792	723.873	0.076	0.203
-439.778	111.850	0.048	0.058
-438.763	188.203	-0.177	-0.264
-437.749	35.980	-0.218	-0.192
-436.734	-200.000	0.077	-0.466
-435.719	-86.798	-0.184	-0.056
-434.705	-200.000	0.055	-0.275
-433.690	-112.386	-0.432	-0.087
-432.676	-200.000	0.052	0.299
-431.661	131.589	0.172	0.221
-430.646	800.000	0.109	0.303
-429.632	464.148	-0.044	-0.099
-428.617	47.371	0.205	0.191
-427.603	150.959	-0.032	0.043
-426.588	-36.529	-0.267	0.144
-425.573	-200.000	0.005	-0.163
-424.559	-4.358	0.445	-0.308
-423.544	52.935	0.119	0.114
-422.530	-139.119	-0.238	0.026
-421.515	603.829	0.177	-0.441
-420.500	-125.474	0.256	-0.039
-419.486	800.000	-0.059	0.166
-418.471	-200.000	-0.001	-0.293
-417.457	-123.690	-0.203	-0.032
-416.442	172.469	-0.207	-0.298
-415.428	-143.754	0.292	0.028
-414.413	-123.930	0.344	0.054
-413.398	645.086	-0.110	-0.281
-412.384	507.916	-0.084	0.195
-411.369	156.043	-0.276	-0.380
-410.355	800.000	0.088	-0.333
-409.340	800.000	0.092	-0.292
-408.325	3.896	0.102	-0.074
-407.311	34.907	-0.265	-0.232
-406.296	124.615	-0.110	-0.139
-405.282	-3.725	0.143	-0.099
-404.267	800.000	-0.061	-0.226
-403.252	-97.562	0.147	-0.038
-402.238	-200.000	0.015	0.184
-401.223	-126.597	0.202	0.030
-400.209	148.768	0.056	-0.076
-399.194	-48.420	0.016	-0.008
-398.179	-88.565	-0.546	0.163
-397.165	42.358	-0.111	0.101
-396.150	-117.414	-0.221	-0.040
-395.136	303.599	0.147	-0.272
-394.121	121.050	-0.184	0.229
-393.106	333.928	0.264	-0.510
-392.092	567.883	0.057	-0.139
-391.077	487.935	-0.024	0.055
-390.063	-180.130	-0.229	-0.005
-389.048	800.000	-0.024	-0.070
-388.033	-127.475	-0.230	0.033
-387.019	-200.000	0.010	-0.075
-386.004	-84.201	-0.193	-0.061
-384.990	-200.000	-0.034	-0.198
-383.975	668.481	0.106	-0.273
-382.960	-131.935	-0.345	-0.045
-381.946	-100.485	0.335	0.083
-380.931	47.494	-0.328	0.306
-379.917	-33.325	0.066	-0.037
-378.902	-177.705	0.273	-0.007
-377.888	-135.965	0.309	-0.036
-376.873	-23.140	-0.191	0.115
-375.858	77.387	0.149	-0.158
-374.844	89.277	0.148	-0.165
-373.829	-21.882	-0.160	0.097
-372.815	-200.000	0.010	-0.190
-371.800	800.000	-0.025	-0.073
-370.785	338.974	-0.165	0.321
-369.771	-3.273	-0.125	-0.087
-368.756	440.157	-0.112	0.243
-367.742	511.863	0.135	0.314
-366.727	800.000	-0.039	-0.128
-365.712	99.430	-0.029	0.034
-364.698	9.808	-0.265	0.201
-363.683	107.589	-0.108	-0.128
-362.669	518.488	-0.120	0.281
-361.654	266.590	-0.215	0.375
-360.639	-21.657	0.132	-0.080
-359.625	-19.036	0.133	-0.083
-358.610	82.222	0.109	0.118
-357.596	800.000	-0.052	0.199
-356.581	-200.000	0.025	0.154
-355.566	-62.496	-0.210	-0.087
-354.552	800.000	0.050	0.207
-353.537	161.175	0.143	0.199
-352.523	114.453	-0.165	0.200
-351.508	-128.536	-0.139	-0.020
-350.493	-55.880	-0.095	0.042
-349.479	-29.248	0.182	0.104
-348.464	-49.243	0.132	0.063
-347.450	800.000	0.150	-0.415
-346.435	-165.361	-0.296	-0.013
-345.420	-200.000	-0.048	0.219
-344.406	-76.197	-0.370	-0.130
-343.391	52.902	0.179	0.171
-342.377	800.000	-0.087	0.270
-341.362	-200.000	0.037	-0.251
-340.348	-164.969	-0.091	-0.004
-339.333	73.242	0.202	-0.211
-338.318	190.922	0.145	0.218
-337.304	-200.000	-0.007	0.201
-336.289	-117.502	-0.297	-0.053
-335.275	800.000	0.097	-0.371
-334.260	24.361	0.370	-0.305
-333.245	-98.075	0.287	0.074
-332.231	251.819	0.204	0.345
-331.216	67.075	0.180	0.183
-330.202	82.649	-0.161	0.174
-329.187	81.690	-0.150	0.162
-328.172	158.253	-0.060	-0.082
-327.158	59.237	0.172	-0.168
-326.143	-92.502	0.119	-0.033
-325.129	-110.011	-0.220	0.046
-324.114	800.000	0.040	0.134
-323.099	-200.000	-0.015	-0.153
-322.085	411.858	0.125	0.265
-321.070	-52.794	0.156	0.071
-320.056	800.000	0.034	-0.111
-319.041	148.133	0.136	-0.183
-318.026	-118.106	-0.233	-0.041
-317.012	24.548	-0.323	0.266
-315.997	-200.000	0.012	-0.063
-314.983	-200.000	0.001	-0.057
-313.968	91.000	0.308	0.344
-312.953	152.178	-0.167	0.227
-311.939	204.661	-0.185	0.286
-310.924	-54.901	-0.055	-0.025
-309.910	-200.000	-0.006	-0.077
-308.895	-86.777	-0.237	-0.072
-307.880	-151.310	0.117	-0.009
-306.866	111.776	-0.040	-0.048
-305.851	-125.976	-0.165	0.025
-304.837	-30.575	0.214	-0.121
-303.822	800.000	0.048	-0.187
-302.807	20.590	0.365	0.294
-301.793	-134.038	0.516	0.064
-300.778	800.000	0.023	-0.063
-299.764	-200.000	-0.039	0.474
-298.749	800.000	-0.035	0.143
-297.735	92.810	-0.122	-0.138
-296.720	-110.333	0.471	-0.098
-295.705	53.636	0.318	-0.303
-294.691	622.767	0.094	-0.236
-293.676	23.615	0.197	-0.162
-292.662	-200.000	0.053	-0.338
-291.647	133.361	-0.019	0.025
-290.632	-33.129	0.107	0.059
-289.618	-58.630	-0.225	-0.097
-288.603	-34.298	0.306	-0.167
-287.589	628.525	0.085	-0.215
-286.574	800.000	-0.052	0.143
-285.559	201.896	0.124	-0.191
-284.545	-0.851	0.144	0.102
-283.530	-200.000	-0.036	0.196
-282.516	490.118	-0.092	0.209
-281.501	800.000	0.083	-0.245
-280.486	-142.081	-0.187	-0.018
-279.472	113.124	-0.202	-0.243
-278.457	-6.885	0.200	0.135
-277.443	-200.000	-0.011	0.195
-276.428	-64.804	0.241	0.097
-275.413	-200.000	-0.032	0.487
-274.399	-20.407	-0.242	-0.148
-273.384	-200.000	0.004	0.259
-272.370	-200.000	0.035	0.219
-271.355	-200.000	-0.057	0.254
-270.340	-200.000	-0.000	-0.306
-269.326	272.374	-0.133	0.234
-268.311	-107.362	0.267	0.058
-267.297	-159.799	0.137	0.008
-266.282	40.364	-0.264	-0.236
-265.267	-200.000	-0.002	0.276
-264.253	-119.182	-0.085	-0.015
-263.238	-27.110	0.413	-0.240
-262.224	-84.194	0.054	0.017
-261.209	-110.891	0.362	-0.074
-260.195	52.327	-0.061	0.058
-259.180	282.969	0.095	-0.169
-258.165	800.000	0.057	0.191
-257.151	-41.354	0.236	0.121
-256.136	209.848	0.089	0.138
-255.122	800.000	-0.058	-0.167
-254.107	-38.716	0.310	-0.163
-253.092	-97.924	0.203	0.052
-252.078	234.121	-0.087	0.142
-251.063	800.000	-0.043	-0.148
-250.049	26.445	0.186	0.154
-249.034	-81.423	-0.261	0.085
-248.019	120.228	0.093	-0.115
-247.005	84.665	-0.231	-0.251
-245.990	-161.584	0.164	0.008
-244.976	-111.957	-0.152	0.031
-243.961	135.351	0.060	0.078
-242.946	61.355	0.146	0.144
-241.932	-33.328	0.113	0.062
-240.917	800.000	-0.060	0.221
-239.903	447.551	0.128	0.279
-238.888	365.845	0.055	0.110
-237.873	-176.019	0.184	-0.005
-236.859	146.015	0.229	0.305
-235.844	32.351	-0.061	0.052
-234.830	-16.008	0.175	-0.111
-233.815	-122.236	0.288	0.047
-232.800	-9.917	-0.127	-0.084
-231.786	-2.428	-0.199	0.139
-230.771	-97.167	0.171	0.044
-229.757	259.402	-0.073	0.125
-228.742	44.010	-0.096	0.088
-227.727	85.365	-0.072	0.078
-226.713	-200.000	-0.017	-0.134
-225.698	-200.000	-0.036	0.256
-224.684	800.000	-0.050	-0.150
-223.669	-128.499	-0.369	0.052
-222.655	-104.388	0.579	0.133
-221.640	49.024	-0.110	0.103
-220.625	7.218	0.058	-0.043
-219.611	-7.885	0.014	0.010
-218.596	-200.000	-0.047	-0.212
-217.582	517.561	-0.124	0.287
-216.567	106.736	0.241	-0.284
-215.552	-7.101	-0.174	0.117
-214.538	-91.690	-0.196	0.055
-213.523	138.038	0.176	0.229
-212.509	8.141	0.067	-0.050
-211.494	54.619	0.115	-0.110
-210.479	-200.000	0.005	0.349
-209.465	-123.632	-0.385	-0.061
-208.450	120.964	0.089	-0.110
-207.436	418.640	-0.126	-0.267
-206.421	-100.218	-0.393	-0.097
-205.406	648.854	-0.096	-0.242
-204.392	390.798	-0.021	-0.044
-203.377	129.028	0.132	0.167
-202.363	27.413	-0.072	-0.060
-201.348	-200.000	0.012	-0.430
-200.333	-47.703	0.167	0.080
-199.319	500.798	0.032	0.073
-198.304	-69.724	0.279	0.106
-197.290	-57.214	0.106	-0.046
-196.275	137.706	0.044	0.057
-195.260	-81.094	0.156	0.051
-194.246	-151.855	0.081	0.006
-193.231	245.721	-0.073	0.122
-192.217	-8.380	0.257	-0.171
-191.202	-79.809	-0.074	0.025
-190.187	-5.036	0.363	0.248
-189.173	154.557	-0.106	0.144
-188.158	-200.000	0.038	-0.259
-187.144	-200.000	0.037	0.221
-186.129	42.323	0.213	-0.192
-185.114	148.116	-0.165	0.221
-184.100	-45.949	0.074	-0.036
-183.085	53.089	0.222	-0.210
-182.071	-117.903	-0.251	0.045
-181.056	58.135	0.253	-0.245
-180.042	-98.098	-0.231	0.059
-179.027	-11.390	0.312	-0.204
-178.012	-52.910	0.228	0.104
-176.998	-22.030	0.291	0.175
-175.983	-27.449	0.196	0.113
-174.969	-101.265	0.188	0.045
-173.954	-200.000	0.042	0.204
-172.939	186.829	-0.150	0.221
-171.925	242.678	0.195	-0.323
-170.910	-4.576	-0.195	0.133
-169.896	-200.000	0.027	-0.155
-168.881	14.141	-0.193	0.149
-167.866	302.933	0.124	0.228
-166.852	92.371	0.179	-0.200
-165.837	120.373	-0.164	-0.201
-164.823	-92.663	-0.194	-0.054
-163.808	-1.326	0.321	0.224
-162.793	60.717	-0.211	-0.207
-161.779	516.845	-0.050	0.116
-160.764	-14.050	0.191	0.122
-159.750	-60.094	-0.091	0.038
-158.735	87.821	0.148	0.163
-157.720	-38.886	-0.055	0.029
-156.706	7.846	-0.243	-0.181
-155.691	-72.027	0.210	0.077
-154.677	210.399	-0.058	0.090
-153.662	509.257	0.082	0.189
-152.647	449.271	0.050	-0.109
-151.633	-103.916	0.340	-0.079
-150.618	81.220	-0.115	0.123
-149.604	-200.000	0.229	-0.001
-148.589	-113.898	0.292	0.056
-147.574	573.778	0.125	-0.303
-146.560	214.177	0.078	-0.122
-145.545	-39.146	-0.229	0.119
-144.531	-104.466	-0.251	-0.058
-143.516	-80.237	-0.216	-0.071
-142.502	215.205	-0.108	-0.169
-141.487	-180.104	-0.188	0.004
-140.472	-161.260	-0.270	-0.014
-139.458	48.737	-0.260	-0.242
-138.443	-200.000	0.034	0.229
-137.429	-83.656	-0.439	-0.139
-136.414	-30.387	0.056	-0.031
-135.399	-53.187	0.075	-0.034
-134.385	800.000	0.027	0.107
-133.370	-148.753	0.169	-0.014
-132.356	-200.000	0.051	-0.308
-131.341	-117.393	0.150	0.027
-130.326	23.062	-0.151	0.123
-129.312	-115.834	0.165	-0.030
-128.297	138.220	0.146	0.189
-127.283	800.000	-0.023	-0.078
-126.268	50.427	-0.240	-0.224
-125.253	135.222	0.152	0.195
-124.239	-200.000	0.365	-0.000
-123.224	-71.256	0.044	-0.016
-122.210	-59.728	-0.155	0.066
-121.195	159.764	0.058	-0.080
