DTS Sentinel unit serial number:	SN413079Multiplexer serial number:	ORYXHardware model number:	OX4-SRSoftware version number:	ORYX F/W v4.00 Oryx Data Collector v3.7.2.0data status	okinstallation	princeton_trtdifferential loss correction	single-endedforward channel	channel 3reverse channel	N/Adate	2019/09/17time	16:44:35forward acquisition time	60.00reverse acquisition time	0.00gamma	496.2192k internal	0.2291k external	0.2291temperature offset calibration	0.9948default loss term (dB/km)	0.3790temperature slope calibration	1.0000multiplexer offset coefficient	1.0000multiplexer slope coefficient	1.0000fibre end	0.00T internal ref (°C)	42.09T ext. ref 1 (°C)	0.36T ext. ref 2 (°C)	38.55length (m)	temperature (°C)	Stokes	anti-Stokes-747.200	176.801	0.145	0.216
-746.185	-200.000	-0.038	-0.193
-745.171	-200.000	-0.094	-0.488
-744.156	-187.361	0.276	-0.004
-743.142	183.430	-0.232	0.351
-742.127	-41.407	-0.279	0.147
-741.112	800.000	-0.065	-0.213
-740.098	389.767	0.073	-0.155
-739.083	-165.584	-0.098	0.004
-738.069	-200.000	-0.039	0.364
-737.054	227.612	-0.222	0.370
-736.039	800.000	0.076	-0.290
-735.025	29.743	0.105	0.092
-734.010	6.167	-0.213	0.162
-732.996	-67.769	0.017	-0.007
-731.981	800.000	-0.066	0.214
-730.966	-200.000	-0.008	-0.243
-729.952	233.423	0.093	-0.157
-728.937	31.412	-0.285	-0.251
-727.923	-46.956	-0.422	-0.211
-726.908	-112.687	0.167	0.034
-725.894	800.000	0.043	-0.154
-724.879	13.998	-0.118	0.094
-723.864	-113.261	-0.098	0.020
-722.850	-147.993	-0.314	-0.027
-721.835	-73.688	0.054	0.020
-720.821	273.895	-0.058	-0.105
-719.806	-136.133	-0.263	0.032
-718.791	800.000	-0.023	-0.092
-717.777	-200.000	-0.032	0.208
-716.762	33.873	0.060	-0.054
-715.748	44.077	0.155	0.146
-714.733	800.000	-0.017	-0.053
-713.718	-200.000	0.027	0.538
-712.704	-108.342	-0.122	-0.027
-711.689	-200.000	0.016	-0.081
-710.675	-61.363	-0.197	-0.085
-709.660	120.136	-0.119	-0.151
-708.645	-200.000	0.040	-0.222
-707.631	-200.000	0.001	0.117
-706.616	-7.938	0.238	0.164
-705.602	-8.526	-0.293	-0.201
-704.587	-53.442	-0.364	-0.170
-703.572	20.487	-0.245	0.203
-702.558	236.067	-0.176	-0.298
-701.543	45.453	0.142	0.134
-700.529	800.000	0.059	0.185
-699.514	-157.304	-0.343	-0.021
-698.499	-83.906	-0.218	0.071
-697.485	227.266	0.122	0.202
-696.470	672.069	0.144	-0.381
-695.456	-200.000	-0.006	-0.141
-694.441	-69.312	0.015	-0.006
-693.426	697.841	0.028	0.076
-692.412	129.310	-0.014	0.018
-691.397	9.141	0.336	0.259
-690.383	93.406	-0.152	0.176
-689.368	107.738	0.127	0.154
-688.354	144.283	0.075	-0.102
-687.339	12.271	-0.371	-0.292
-686.324	305.836	0.060	0.114
-685.310	65.238	0.064	-0.066
-684.295	-200.000	0.018	-0.507
-683.281	-56.699	-0.337	-0.152
-682.266	-70.406	0.252	0.098
-681.251	-182.422	0.052	-0.001
-680.237	-80.738	-0.126	-0.043
-679.222	800.000	-0.087	0.271
-678.208	-200.000	-0.041	-0.297
-677.193	-200.000	-0.013	0.306
-676.178	24.885	-0.229	0.194
-675.164	-103.786	-0.232	-0.055
-674.149	18.720	-0.223	-0.183
-673.135	-14.898	-0.176	-0.115
-672.120	800.000	-0.042	-0.151
-671.105	-184.856	-0.262	-0.004
-670.091	78.881	-0.095	-0.103
-669.076	14.939	-0.313	-0.250
-668.062	-200.000	-0.007	-0.055
-667.047	-46.297	-0.102	-0.051
-666.032	9.705	0.243	-0.188
-665.018	800.000	0.044	-0.146
-664.003	-200.000	-0.055	0.302
-662.989	-99.938	-0.204	-0.052
-661.974	-200.000	-0.019	-0.366
-660.959	73.029	-0.194	-0.207
-659.945	-36.672	-0.095	0.052
-658.930	108.410	-0.261	0.317
-657.916	-4.177	-0.177	-0.125
-656.901	-200.000	-0.003	0.246
-655.886	5.452	-0.057	0.043
-654.872	-200.000	-0.027	-0.250
-653.857	80.222	-0.147	0.161
-652.843	-70.492	-0.290	-0.112
-651.828	-88.697	0.145	0.044
-650.814	800.000	-0.047	-0.134
-649.799	74.471	-0.132	0.142
-648.784	800.000	-0.082	0.270
-647.770	93.262	0.102	-0.117
-646.755	-59.019	-0.141	0.062
-645.741	-66.370	-0.067	-0.027
-644.726	-142.300	-0.134	-0.013
-643.711	-200.000	0.008	-0.044
-642.697	-106.835	0.160	0.036
-641.682	374.942	-0.143	-0.298
-640.668	407.655	0.172	0.371
-639.653	-200.000	-0.029	0.304
-638.638	-188.115	-0.459	0.006
-637.624	-28.471	0.086	0.051
-636.609	138.033	0.159	-0.212
-635.595	-200.000	0.030	-0.154
-634.580	-117.272	-0.173	-0.032
-633.565	-57.030	0.475	-0.214
-632.551	-200.000	-0.011	-0.248
-631.536	83.588	-0.170	0.189
-630.522	595.700	-0.144	-0.363
-629.507	800.000	0.067	0.214
-628.492	-88.108	0.366	0.112
-627.478	-118.030	-0.190	0.035
-626.463	800.000	-0.081	-0.270
-625.449	645.314	-0.116	-0.302
-624.434	173.191	0.069	-0.102
-623.419	80.905	-0.160	0.176
-622.405	-140.271	-0.133	-0.014
-621.390	-94.420	-0.220	0.061
-620.376	65.823	-0.251	0.259
-619.361	-195.084	0.234	0.002
-618.346	-33.139	-0.228	-0.129
-617.332	800.000	-0.061	0.222
-616.317	539.785	0.132	0.321
-615.303	695.203	-0.068	0.181
-614.288	-36.844	0.118	-0.064
-613.273	-169.654	0.343	0.013
-612.259	-139.128	0.259	0.029
-611.244	316.125	0.130	0.250
-610.230	-16.904	-0.098	-0.063
-609.215	-20.818	0.198	-0.124
-608.201	-200.000	0.011	0.213
-607.186	349.143	0.050	0.101
-606.171	-170.517	-0.123	0.004
-605.157	-200.000	0.028	0.187
-604.142	-38.778	0.227	0.122
-603.128	-200.000	-0.008	-0.249
-602.113	22.759	-0.082	-0.069
-601.098	800.000	-0.051	-0.186
-600.084	-61.392	0.153	0.066
-599.069	-141.041	-0.255	0.027
-598.055	148.106	-0.094	-0.129
-597.040	-34.989	-0.347	-0.193
-596.025	239.344	-0.023	-0.039
-595.011	-200.000	-0.014	-0.213
-593.996	-200.000	-0.012	0.135
-592.982	87.728	-0.197	0.222
-591.967	-200.000	0.003	-0.078
-590.952	-200.000	0.014	-0.228
-589.938	254.657	0.045	-0.079
-588.923	-200.000	0.058	-0.310
-587.909	11.392	-0.179	-0.139
-586.894	103.379	-0.142	0.170
-585.879	721.402	0.200	0.543
-584.865	-80.715	-0.228	0.077
-583.850	-30.576	0.105	-0.060
-582.836	43.405	-0.209	-0.195
-581.821	-60.299	0.221	0.096
-580.806	-11.105	0.158	0.106
-579.792	256.370	0.086	0.150
-578.777	229.025	0.049	0.081
-577.763	-127.688	0.281	-0.041
-576.748	41.102	-0.118	0.109
-575.733	-109.995	-0.247	-0.053
-574.719	104.043	-0.148	-0.177
-573.704	-80.186	-0.064	-0.022
-572.690	-200.000	-0.063	-0.346
-571.675	302.747	0.255	-0.480
-570.661	-39.383	0.120	0.064
-569.646	-141.389	0.152	-0.016
-568.631	4.221	-0.092	0.069
-567.617	-18.692	0.259	-0.164
-566.602	8.098	0.064	0.049
-565.588	115.949	-0.220	0.274
-564.573	-18.508	-0.304	-0.193
-563.558	37.721	0.135	0.122
-562.544	23.709	0.122	0.102
-561.529	119.652	0.186	0.234
-560.515	99.263	-0.155	-0.182
-559.500	338.079	0.041	-0.081
-558.485	-104.676	-0.004	-0.001
-557.471	-163.504	-0.208	-0.010
-556.456	800.000	0.128	-0.376
-555.442	-76.220	0.347	0.124
-554.427	11.346	-0.317	0.247
-553.412	297.609	-0.068	0.127
-552.398	-123.007	0.184	0.030
-551.383	-35.840	-0.291	0.160
-550.369	537.258	0.036	0.088
-549.354	-59.589	0.430	0.188
-548.339	800.000	0.087	0.335
-547.325	81.125	-0.253	0.278
-546.310	-82.741	0.149	-0.049
-545.296	168.451	-0.017	0.025
-544.281	-200.000	-0.005	0.053
-543.266	194.647	-0.294	0.453
-542.252	-51.414	-0.181	0.086
-541.237	-100.132	0.170	-0.043
-540.223	9.382	0.042	-0.032
-539.208	646.920	-0.103	0.267
-538.193	-16.166	0.136	-0.088
-537.179	-33.335	0.106	-0.060
-536.164	322.451	-0.084	0.163
-535.150	-21.392	0.193	0.119
-534.135	-30.204	-0.147	0.085
-533.121	-200.000	-0.097	-0.466
-532.106	-200.000	0.072	-0.424
-531.091	82.615	0.107	-0.118
-530.077	55.674	-0.077	0.076
-529.062	-200.000	0.025	0.158
-528.048	-82.097	0.191	0.063
-527.033	-133.583	0.128	0.016
-526.018	-59.687	0.394	0.171
-525.004	-30.211	0.292	-0.169
-523.989	-152.188	-0.372	0.027
-522.975	-31.075	0.265	-0.152
-521.960	208.801	-0.099	0.158
-520.945	702.894	0.047	0.127
-519.931	-200.000	0.020	-0.144
-518.916	-200.000	-0.008	-0.194
-517.902	-183.857	-0.690	-0.012
-516.887	-10.646	-0.207	-0.139
-515.872	-89.000	0.348	-0.105
-514.858	-200.000	0.011	-0.258
-513.843	317.765	-0.099	0.190
-512.829	-1.056	0.150	0.108
-511.814	-62.990	-0.102	-0.043
-510.799	243.076	-0.049	0.082
-509.785	392.621	-0.117	-0.246
-508.770	-31.589	-0.209	-0.119
-507.756	800.000	-0.098	0.337
-506.741	-114.934	0.266	0.051
-505.726	800.000	0.021	-0.071
-504.712	-69.860	0.204	0.079
-503.697	800.000	0.072	-0.214
-502.683	174.426	-0.139	0.203
-501.668	-123.817	0.203	0.033
-500.653	-192.629	-0.201	-0.002
-499.639	-103.294	-0.341	0.082
-498.624	-98.779	0.420	-0.109
-497.610	102.996	-0.218	-0.259
-496.595	-129.738	-0.292	0.041
-495.581	-200.000	-0.002	0.141
-494.566	464.591	0.062	-0.140
-493.551	-200.000	-0.019	0.107
-492.537	-86.668	0.295	-0.092
-491.522	800.000	-0.068	-0.286
-490.508	415.277	-0.026	-0.057
-489.493	140.845	-0.096	-0.129
-488.478	-128.660	-0.101	-0.015
-487.464	216.068	0.066	-0.106
-486.449	118.498	0.155	-0.194
-485.435	-57.862	0.432	-0.191
-484.420	705.949	0.045	0.121
-483.405	-56.263	0.134	0.060
-482.391	74.243	-0.140	0.149
-481.376	800.000	-0.011	-0.031
-480.362	-34.991	-0.230	-0.127
-479.347	187.771	-0.110	0.166
-478.332	-83.744	0.362	0.117
-477.318	800.000	-0.028	0.105
-476.303	-200.000	-0.037	-0.339
-475.289	221.331	-0.111	-0.181
-474.274	-84.496	0.175	-0.056
-473.259	-99.060	0.386	-0.099
-472.245	-200.000	-0.030	0.175
-471.230	-9.451	0.212	-0.143
-470.216	-91.354	-0.272	-0.079
-469.201	800.000	0.036	-0.133
-468.186	-41.552	0.064	-0.033
-467.172	5.905	0.244	0.183
-466.157	-46.247	0.257	-0.128
-465.143	-105.805	-0.201	0.046
-464.128	-131.679	0.221	0.029
-463.113	93.666	0.168	0.193
-462.099	-1.604	0.084	-0.060
-461.084	125.419	-0.128	0.164
-460.070	362.641	0.018	-0.036
-459.055	-42.717	-0.176	0.091
-458.040	-54.814	0.162	0.074
-457.026	74.679	-0.007	-0.008
-456.011	90.407	-0.223	-0.253
-454.997	434.525	-0.223	0.491
-453.982	-200.000	0.014	-0.140
-452.968	-200.000	-0.022	-0.230
-451.953	199.702	0.089	0.138
-450.938	-56.145	0.280	0.126
-449.924	274.132	-0.092	0.164
-448.909	-111.301	-0.165	0.034
-447.895	635.365	-0.097	0.249
-446.880	151.811	0.170	-0.234
-445.865	-0.049	0.161	0.116
-444.851	94.891	-0.061	0.071
-443.836	-116.310	0.341	0.064
-442.822	-105.469	-0.342	-0.079
-441.807	-111.850	-0.172	0.035
-440.792	105.114	0.203	0.242
-439.778	286.469	-0.105	-0.192
-438.763	70.787	-0.139	0.146
-437.749	-200.000	-0.021	0.105
-436.734	13.441	0.190	0.149
-435.719	-53.255	-0.274	-0.127
-434.705	800.000	0.017	-0.063
-433.690	561.462	-0.107	-0.262
-432.676	-73.399	-0.065	-0.024
-431.661	-200.000	0.023	-0.188
-430.646	-38.494	0.162	0.087
-429.632	527.683	-0.172	0.410
-428.617	258.995	-0.236	0.411
-427.603	-200.000	-0.023	-0.161
-426.588	-200.000	-0.036	0.168
-425.573	143.838	-0.173	-0.233
-424.559	-200.000	-0.019	0.235
-423.544	-200.000	-0.179	-0.001
-422.530	120.347	0.124	0.155
-421.515	800.000	-0.083	0.296
-420.500	-16.202	0.187	-0.120
-419.486	12.440	0.330	0.257
-418.471	323.059	0.092	-0.177
-417.457	-121.857	-0.289	0.048
-416.442	-125.986	0.183	0.028
-415.428	-48.013	-0.181	-0.089
-414.413	-70.103	0.156	-0.060
-413.398	316.903	-0.185	0.354
-412.384	70.769	-0.168	0.176
-411.369	347.814	0.091	-0.182
-410.355	265.153	0.063	-0.111
-409.340	-35.386	0.140	0.077
-408.325	-200.000	0.018	0.114
-407.311	434.200	0.045	-0.100
-406.296	238.819	-0.103	0.173
-405.282	-170.094	0.139	-0.005
-404.267	-92.570	-0.427	-0.121
-403.252	306.807	-0.156	0.293
-402.238	317.412	0.140	-0.267
-401.223	-137.764	-0.071	0.008
-400.209	-123.562	0.331	-0.053
-399.194	-200.000	-0.028	0.154
-398.179	800.000	-0.094	-0.290
-397.165	117.719	0.160	0.199
-396.150	-106.430	-0.293	-0.066
-395.136	800.000	-0.089	-0.324
-394.121	800.000	0.050	0.215
-393.106	182.874	-0.194	0.289
-392.092	-56.438	0.189	-0.085
-391.077	-200.000	-0.047	-0.336
-390.063	-9.081	0.280	-0.189
-389.048	-200.000	0.016	-0.145
-388.033	-50.103	-0.329	0.157
-387.019	-111.588	0.206	0.042
-386.004	-200.000	-0.001	-0.130
-384.990	-16.127	0.137	-0.088
-383.975	-129.392	-0.144	0.020
-382.960	800.000	-0.045	0.139
-381.946	-146.856	0.151	0.013
-380.931	427.268	-0.066	-0.144
-379.917	-112.661	0.288	-0.058
-378.902	-149.196	-0.409	0.033
-377.888	402.899	-0.182	-0.386
-376.873	-93.365	0.154	-0.043
-375.858	409.901	-0.060	-0.129
-374.844	-83.723	-0.364	0.117
-373.829	151.465	-0.125	-0.172
-372.815	800.000	0.114	-0.448
-371.800	800.000	-0.051	0.170
-370.785	-65.948	-0.237	0.096
-369.771	-151.187	0.133	-0.010
-368.756	-109.326	-0.115	-0.025
-367.742	-152.754	-0.198	-0.014
-366.727	-200.000	-0.000	0.115
-365.712	51.065	0.124	0.119
-364.698	712.834	-0.033	-0.088
-363.683	74.062	0.038	0.040
-362.669	5.206	0.304	0.226
-361.654	120.872	-0.045	0.057
-360.639	-200.000	0.013	0.221
-359.625	800.000	0.091	-0.337
-358.610	-100.113	0.097	0.024
-357.596	5.957	0.049	0.036
-356.581	171.591	-0.185	-0.268
-355.566	-76.319	-0.392	0.139
-354.552	61.983	0.263	-0.264
-353.537	47.679	0.214	0.202
-352.523	257.365	-0.086	-0.149
-351.508	-71.241	0.056	-0.021
-350.493	-143.998	0.076	-0.007
-349.479	108.547	-0.142	0.171
-348.464	185.697	-0.181	-0.272
-347.450	182.713	0.039	0.058
-346.435	248.017	-0.027	0.046
-345.420	-78.152	-0.062	-0.021
-344.406	-200.000	-0.034	0.150
-343.391	-63.022	0.273	-0.114
-342.377	-200.000	-0.037	-0.204
-341.362	-16.062	-0.184	0.118
-340.348	104.004	-0.215	-0.255
-339.333	-200.000	0.007	-0.093
-338.318	670.292	0.056	-0.145
-337.304	34.620	-0.145	0.128
-336.289	630.222	-0.116	-0.295
-335.275	800.000	-0.047	-0.160
-334.260	-24.684	0.382	0.229
-333.245	800.000	-0.059	-0.166
-332.231	246.752	0.106	0.180
-331.216	-39.352	0.275	0.145
-330.202	59.115	-0.128	0.127
-329.187	-94.399	0.058	-0.016
-328.172	-156.724	-0.073	-0.005
-327.158	2.146	0.161	0.117
-326.143	100.301	-0.053	0.061
-325.129	-80.125	-0.102	-0.034
-324.114	-9.713	0.263	-0.177
-323.099	145.670	0.058	-0.078
-322.085	154.108	0.046	-0.063
-321.070	523.891	0.097	-0.230
-320.056	-200.000	-0.051	-0.250
-319.041	-200.000	-0.025	-0.173
-318.026	-74.378	-0.358	-0.130
-317.012	-200.000	0.025	0.247
-315.997	306.838	-0.222	-0.417
-314.983	86.398	-0.099	0.110
-313.968	13.660	0.076	0.059
-312.953	-152.021	-0.118	0.009
-311.939	67.429	0.118	0.122
-310.924	-200.000	-0.021	0.161
-309.910	-125.091	0.215	0.033
-308.895	22.346	0.163	-0.134
-307.880	-67.533	-0.136	0.054
-306.866	354.501	0.027	-0.054
-305.851	800.000	-0.039	-0.129
-304.837	-200.000	0.057	0.439
-303.822	13.599	-0.441	-0.345
-302.807	417.734	0.149	0.320
-301.793	-60.496	-0.158	0.067
-300.778	11.677	-0.207	-0.160
-299.764	49.210	-0.325	0.307
-298.749	-80.274	0.206	0.069
-297.735	120.283	-0.024	-0.030
-296.720	-200.000	0.041	-0.221
-295.705	-100.783	-0.267	-0.066
-294.691	117.863	0.016	-0.020
-293.676	-123.023	0.439	-0.071
-292.662	625.565	-0.136	0.344
-291.647	-43.014	-0.181	0.092
-290.632	132.633	-0.083	0.108
-289.618	-200.000	0.010	-0.292
-288.603	103.400	-0.097	-0.114
-287.589	-49.991	0.128	0.061
-286.574	173.666	0.041	-0.059
-285.559	160.920	-0.184	-0.259
-284.545	147.993	0.009	-0.012
-283.530	552.201	0.045	0.108
-282.516	454.887	0.142	0.318
-281.501	-119.295	0.321	0.056
-280.486	800.000	-0.100	-0.353
-279.472	-77.927	-0.181	-0.063
-278.457	800.000	0.034	-0.142
-277.443	-200.000	-0.001	0.144
-276.428	800.000	-0.009	-0.027
-275.413	489.568	-0.083	0.190
-274.399	800.000	-0.039	0.151
-273.384	800.000	-0.115	0.410
-272.370	530.564	-0.076	-0.180
-271.355	-18.759	0.137	-0.086
-270.340	800.000	-0.058	-0.204
-269.326	-14.296	0.181	0.117
-268.311	67.923	0.259	0.266
-267.297	96.752	-0.165	-0.190
-266.282	182.602	0.120	-0.178
-265.267	45.387	0.200	0.186
-264.253	-124.071	-0.099	0.016
-263.238	-200.000	0.027	0.128
-262.224	505.209	0.084	-0.195
-261.209	246.754	0.030	0.051
-260.195	747.987	-0.076	0.205
-259.180	633.729	0.083	0.212
-258.165	-92.395	0.174	-0.049
-257.151	-34.353	-0.126	-0.069
-256.136	409.394	-0.083	-0.177
-255.122	35.468	-0.035	-0.031
-254.107	3.661	0.142	0.104
-253.092	43.038	0.144	0.132
-252.078	-0.645	-0.077	0.055
-251.063	-200.000	-0.010	-0.076
-250.049	-36.529	-0.093	-0.050
-249.034	-143.535	0.058	0.006
-248.019	287.731	-0.078	-0.142
-247.005	142.375	0.263	0.351
-245.990	182.865	0.098	0.145
-244.976	105.524	-0.123	0.146
-243.961	409.285	0.165	-0.350
-242.946	1.007	0.102	-0.074
-241.932	-71.620	0.205	-0.077
-240.917	-200.000	-0.006	0.174
-239.903	283.670	0.033	-0.059
-238.888	370.232	0.243	-0.494
-237.873	-80.792	0.185	0.062
-236.859	51.761	-0.322	0.307
-235.844	-200.000	0.012	-0.059
-234.830	800.000	-0.042	-0.142
-233.815	9.328	0.161	0.122
-232.800	-134.176	-0.310	0.038
-231.786	-99.589	-0.430	0.108
-230.771	-101.712	-0.373	0.091
-229.757	-45.494	-0.218	-0.109
-228.742	152.656	-0.084	-0.116
-227.727	-33.657	0.272	0.151
-226.713	-122.186	-0.227	-0.037
-225.698	-78.829	-0.102	0.035
-224.684	-98.166	-0.126	-0.032
-223.669	680.114	-0.013	0.035
-222.655	-132.398	0.120	0.015
-221.640	-17.208	0.132	0.083
-220.625	157.615	-0.113	-0.157
-219.611	272.411	-0.047	0.082
-218.596	-200.000	-0.001	-0.116
-217.582	81.775	0.066	-0.072
-216.567	-133.083	-0.344	0.044
-215.552	52.256	0.396	0.379
-214.538	-200.000	0.024	0.226
-213.523	-4.334	-0.376	-0.261
-212.509	-200.000	-0.037	0.181
-211.494	-148.410	-0.035	0.003
-210.479	-58.620	0.157	-0.068
-209.465	-54.203	0.297	-0.135
-208.450	-157.642	-0.096	-0.006
-207.436	369.306	0.068	0.139
-206.421	-200.000	0.015	0.091
-205.406	25.068	0.044	0.037
-204.392	800.000	0.090	-0.270
-203.377	-72.762	-0.222	-0.082
-202.363	-59.796	0.082	0.035
-201.348	-120.607	-0.108	0.018
-200.333	-66.920	0.246	0.097
-199.319	15.163	0.161	0.127
-198.304	-151.795	-0.237	0.017
-197.290	-200.000	-0.010	-0.552
-196.275	-109.551	0.096	0.020
-195.260	163.718	-0.120	0.169
-194.246	131.925	-0.179	0.230
-193.231	159.661	-0.086	-0.120
-192.217	-200.000	-0.018	0.396
-191.202	-0.301	0.323	-0.230
-190.187	-109.931	-0.133	-0.028
-189.173	-89.352	-0.332	-0.098
-188.158	-200.000	-0.005	-0.163
-187.144	-148.476	0.279	0.023
-186.129	-69.129	0.258	0.100
-185.114	-200.000	-0.025	-0.156
-184.100	171.914	0.015	0.022
-183.085	-4.574	0.051	0.035
-182.071	-131.055	0.219	0.029
-181.056	-200.000	0.009	0.230
-180.042	589.749	0.135	-0.333
-179.027	196.283	0.183	-0.279
-178.012	-74.505	-0.184	0.066
-176.998	-75.975	-0.271	-0.096
-175.983	150.367	-0.097	-0.131
-174.969	800.000	0.018	0.056
-173.954	800.000	0.080	-0.318
-172.939	-200.000	-0.008	0.222
-171.925	-9.176	0.205	-0.137
-170.910	-60.627	-0.305	-0.130
-169.896	222.958	-0.104	0.169
-168.881	-61.292	-0.152	-0.064
-167.866	-33.263	0.137	-0.076
-166.852	800.000	0.040	0.166
-165.837	-59.133	0.126	-0.054
-164.823	-7.604	0.095	-0.064
-163.808	-84.648	0.370	-0.117
-162.793	-98.524	0.119	-0.031
-161.779	758.286	-0.083	-0.224
-160.764	-200.000	-0.049	0.249
-159.750	-200.000	-0.091	0.403
-158.735	162.420	0.116	0.163
-157.720	800.000	-0.128	-0.441
-156.706	150.840	0.141	-0.191
-155.691	-146.756	0.291	0.025
-154.677	-200.000	-0.022	0.156
-153.662	205.488	0.078	0.122
-152.647	-171.022	0.363	0.012
-151.633	-200.000	-0.018	0.177
-150.618	-200.000	0.061	0.282
-149.604	-17.918	-0.169	-0.106
-148.589	143.276	0.203	-0.271
-147.574	-78.348	-0.027	-0.009
-146.560	0.737	0.214	-0.153
-145.545	-124.179	0.230	0.036
-144.531	590.875	0.026	-0.064
-143.516	-75.122	0.251	-0.090
-142.502	-57.012	-0.421	-0.186
-141.487	142.005	0.183	-0.243
-140.472	292.091	0.082	0.149
-139.458	-70.670	0.355	0.134
-138.443	-200.000	0.035	0.171
-137.429	-36.272	-0.250	-0.135
-136.414	-113.954	0.106	0.021
-135.399	-200.000	-0.073	-0.433
-134.385	-92.727	-0.302	0.085
-133.370	-200.000	0.058	-0.447
-132.356	8.554	-0.159	0.120
-131.341	-54.688	-0.082	-0.037
-130.326	129.533	0.242	-0.309
-129.312	241.617	0.029	0.048
-128.297	236.147	-0.029	-0.049
-127.283	-112.653	-0.024	0.005
-126.268	110.598	-0.046	-0.056
-125.253	50.844	0.223	0.212
-124.239	-200.000	-0.040	-0.289
-123.224	-84.231	-0.204	0.065
-122.210	-167.369	0.225	-0.009
