DTS Sentinel unit serial number:	SN413079Multiplexer serial number:	ORYXHardware model number:	OX4-SRSoftware version number:	ORYX F/W v4.00 Oryx Data Collector v3.7.2.0data status	okinstallation	princeton_trtdifferential loss correction	single-endedforward channel	channel 3reverse channel	N/Adate	2019/09/16time	17:56:35forward acquisition time	60.00reverse acquisition time	0.00gamma	496.2192k internal	0.2300k external	0.2300temperature offset calibration	0.9945default loss term (dB/km)	0.3790temperature slope calibration	1.0000multiplexer offset coefficient	1.0000multiplexer slope coefficient	1.0000fibre end	0.00T internal ref (°C)	37.75T ext. ref 1 (°C)	15.63T ext. ref 2 (°C)	31.52length (m)	temperature (°C)	Stokes	anti-Stokes-747.200	34.182	-0.106	0.094
-746.185	95.509	0.107	-0.124
-745.171	170.879	-0.253	-0.370
-744.156	-184.252	0.272	0.005
-743.142	-115.106	-0.098	-0.019
-742.127	732.528	0.125	0.341
-741.112	-82.892	-0.247	0.081
-740.098	120.116	0.209	0.264
-739.083	800.000	0.085	0.259
-738.069	280.218	-0.158	0.288
-737.054	-49.021	0.230	-0.112
-736.039	-44.896	-0.321	0.163
-735.025	146.167	0.148	0.203
-734.010	-200.000	-0.021	0.145
-732.996	-200.000	0.018	-0.367
-731.981	-161.780	0.201	-0.010
-730.966	-108.436	-0.270	0.059
-729.952	268.773	-0.069	-0.123
-728.937	-91.957	-0.301	0.087
-727.923	764.015	0.041	-0.114
-726.908	327.437	-0.012	0.023
-725.894	800.000	-0.074	0.224
-724.879	-31.237	0.250	-0.144
-723.864	197.314	-0.093	0.144
-722.850	55.822	-0.046	0.046
-721.835	0.593	0.114	-0.083
-720.821	239.581	-0.088	-0.150
-719.806	100.125	0.259	-0.306
-718.791	800.000	-0.057	-0.187
-717.777	-200.000	0.017	-0.354
-716.762	800.000	-0.064	0.199
-715.748	-26.162	0.159	0.095
-714.733	-68.554	-0.162	0.064
-713.718	261.512	0.121	0.214
-712.704	-66.037	0.125	-0.051
-711.689	-170.023	-0.363	0.013
-710.675	800.000	-0.083	-0.251
-709.660	-15.279	-0.116	0.076
-708.645	90.897	-0.017	-0.019
-707.631	-9.110	-0.246	-0.167
-706.616	30.219	-0.215	-0.187
-705.602	106.215	-0.197	0.238
-704.587	179.595	-0.132	0.197
-703.572	-200.000	0.000	0.136
-702.558	-110.316	-0.248	-0.053
-701.543	-22.840	0.078	-0.048
-700.529	180.009	0.119	-0.178
-699.514	382.876	0.057	-0.119
-698.499	800.000	-0.027	-0.084
-697.485	157.778	-0.087	-0.123
-696.470	-200.000	-0.013	-0.126
-695.456	-0.240	0.201	0.146
-694.441	-200.000	-0.020	-0.137
-693.426	-200.000	-0.029	-0.147
-692.412	278.561	0.187	0.340
-691.397	239.837	0.120	-0.203
-690.383	53.903	-0.354	-0.346
-689.368	-133.446	-0.239	-0.031
-688.354	-64.807	0.113	-0.047
-687.339	800.000	0.074	0.212
-686.324	800.000	-0.068	0.239
-685.310	1.818	-0.206	-0.151
-684.295	122.596	0.095	-0.120
-683.281	-200.000	-0.018	-0.134
-682.266	-200.000	0.059	0.334
-681.251	-140.207	-0.317	-0.034
-680.237	-52.626	0.059	0.028
-679.222	-144.354	0.253	-0.024
-678.208	-200.000	-0.014	0.177
-677.193	-108.157	-0.089	0.020
-676.178	-48.183	-0.276	-0.136
-675.164	-106.344	-0.100	-0.023
-674.149	389.482	0.193	-0.407
-673.135	208.825	0.039	0.062
-672.120	-2.760	-0.197	-0.140
-671.105	791.037	-0.028	0.078
-670.091	34.320	0.123	0.109
-669.076	-111.222	0.124	0.026
-668.062	-146.200	0.159	-0.014
-667.047	236.079	0.038	-0.064
-666.032	-200.000	0.006	0.051
-665.018	38.034	0.160	0.144
-664.003	-102.411	-0.013	0.003
-662.989	-16.298	0.209	-0.135
-661.974	-121.781	-0.278	-0.047
-660.959	625.549	-0.038	0.098
-659.945	120.307	-0.281	-0.355
-658.930	-111.805	-0.229	0.047
-657.916	-102.512	-0.310	-0.075
-656.901	553.583	0.096	-0.235
-655.886	-200.000	0.006	0.166
-654.872	561.815	0.082	0.203
-653.857	514.499	-0.191	-0.453
-652.843	-58.962	0.212	-0.093
-651.828	-200.000	0.016	-0.159
-650.814	-125.047	-0.201	0.031
-649.799	16.075	-0.392	0.314
-648.784	406.411	0.142	-0.304
-647.770	-200.000	-0.030	-0.540
-646.755	747.541	-0.046	0.125
-645.741	29.709	0.140	0.121
-644.726	261.031	-0.103	-0.181
-643.711	326.897	0.086	-0.167
-642.697	-200.000	0.006	-0.129
-641.682	288.384	-0.058	-0.107
-640.668	55.064	-0.343	0.336
-639.653	-84.700	0.020	-0.007
-638.638	8.008	-0.223	-0.170
-637.624	800.000	-0.061	0.202
-636.609	223.249	0.082	0.134
-635.595	800.000	-0.121	-0.361
-634.580	-2.063	0.063	0.045
-633.565	-78.521	0.253	0.088
-632.551	800.000	-0.056	0.166
-631.536	49.578	0.316	0.302
-630.522	544.084	0.043	0.103
-629.507	307.480	0.095	-0.180
-628.492	-167.681	0.170	-0.007
-627.478	-36.986	0.255	0.139
-626.463	-77.642	0.423	0.149
-625.449	800.000	0.059	-0.176
-624.434	40.556	-0.409	-0.374
-623.419	439.214	0.135	-0.298
-622.405	16.538	0.362	0.290
-621.390	271.222	0.150	0.268
-620.376	-0.619	0.183	-0.131
-619.361	193.842	0.047	-0.072
-618.346	113.384	-0.089	-0.110
-617.332	-200.000	0.045	-0.217
-616.317	-44.195	0.177	-0.090
-615.303	-200.000	-0.032	-0.162
-614.288	69.252	-0.096	0.100
-613.273	315.861	-0.155	0.296
-612.259	71.934	-0.052	0.055
-611.244	-200.000	-0.004	-0.271
-610.230	-25.808	-0.316	0.189
-609.215	-200.000	0.031	0.232
-608.201	52.099	-0.109	-0.105
-607.186	-23.790	0.122	-0.074
-606.171	-106.511	-0.200	0.045
-605.157	3.702	-0.155	-0.115
-604.142	-45.460	-0.059	0.029
-603.128	-37.961	0.226	-0.122
-602.113	-55.787	-0.078	0.035
-601.098	153.994	-0.313	-0.436
-600.084	-111.822	-0.246	-0.050
-599.069	-2.949	0.408	0.289
-598.055	800.000	-0.098	-0.294
-597.040	-85.694	0.055	-0.017
-596.025	-71.497	-0.374	-0.142
-595.011	-200.000	-0.055	0.363
-593.996	205.250	0.036	-0.057
-592.982	-200.000	-0.050	0.361
-591.967	-44.629	0.125	0.063
-590.952	-97.547	0.216	-0.057
-589.938	251.732	-0.061	-0.105
-588.923	204.555	-0.019	0.030
-587.909	800.000	-0.061	0.177
-586.894	-144.411	-0.437	0.041
-585.879	800.000	-0.042	0.127
-584.865	-147.097	-0.416	0.036
-583.850	-200.000	0.018	-0.200
-582.836	106.178	-0.016	-0.019
-581.821	-63.069	0.123	-0.052
-580.806	-134.069	0.230	0.029
-579.792	-200.000	0.007	-0.092
-578.777	121.575	0.172	-0.218
-577.763	43.527	-0.179	-0.165
-576.748	-107.444	-0.046	-0.010
-575.733	106.374	-0.116	-0.140
-574.719	-36.437	-0.216	-0.118
-573.704	281.049	-0.088	-0.160
-572.690	-3.983	0.301	0.212
-571.675	37.188	0.203	-0.182
-570.661	-200.000	-0.062	0.312
-569.646	-200.000	0.034	0.175
-568.631	173.522	0.077	-0.112
-567.617	-14.421	-0.331	0.216
-566.602	800.000	-0.079	0.295
-565.588	533.833	-0.053	-0.128
-564.573	-199.540	-0.428	0.002
-563.558	-58.081	0.384	0.170
-562.544	-200.000	0.065	0.306
-561.529	-5.695	0.307	0.213
-560.515	493.796	0.053	-0.124
-559.500	-145.006	-0.127	-0.012
-558.485	84.829	-0.225	-0.250
-557.471	-200.000	0.002	-0.082
-556.456	131.056	-0.151	0.196
-555.442	346.997	-0.066	0.132
-554.427	119.344	-0.220	-0.275
-553.412	129.964	-0.248	-0.322
-552.398	-34.799	0.270	-0.149
-551.383	800.000	-0.100	0.331
-550.369	-7.123	-0.217	0.149
-549.354	-199.287	0.116	-0.001
-548.339	202.769	-0.120	0.187
-547.325	789.411	-0.024	-0.068
-546.310	-3.092	-0.170	-0.120
-545.296	800.000	-0.074	-0.221
-544.281	-200.000	0.043	0.258
-543.266	800.000	-0.061	-0.171
-542.252	-87.321	0.165	0.051
-541.237	-39.976	-0.233	-0.123
-540.223	153.775	0.087	0.120
-539.208	0.837	-0.096	0.069
-538.193	-19.142	0.151	-0.095
-537.179	33.984	0.082	0.072
-536.164	-107.724	-0.219	-0.048
-535.150	-136.973	0.335	0.039
-534.135	62.007	-0.139	-0.140
-533.121	83.564	-0.132	-0.146
-532.106	-106.889	-0.213	0.048
-531.091	198.314	-0.181	-0.280
-530.077	742.453	-0.074	-0.202
-529.062	800.000	-0.115	-0.408
-528.048	-200.000	0.004	-0.189
-527.033	-200.000	-0.025	-0.282
-526.018	-93.833	0.059	-0.016
-525.004	36.184	-0.158	-0.141
-523.989	-61.907	-0.227	-0.096
-522.975	496.192	-0.096	-0.223
-521.960	-200.000	-0.027	-0.160
-520.945	-163.491	0.316	-0.015
-519.931	-143.351	0.293	0.028
-518.916	240.633	0.099	0.166
-517.902	-22.108	-0.121	-0.074
-516.887	73.811	-0.056	-0.060
-515.872	-102.661	-0.292	0.070
-514.858	214.353	-0.195	0.312
-513.843	800.000	0.035	0.117
-512.829	800.000	-0.030	0.114
-511.814	-44.231	-0.316	0.160
-510.799	-105.657	0.198	-0.045
-509.785	243.166	0.092	0.155
-508.770	28.426	0.169	0.144
-507.756	92.122	0.230	-0.262
-506.741	334.442	0.027	-0.054
-505.726	800.000	-0.078	-0.270
-504.712	-49.577	0.182	-0.088
-503.697	-21.912	0.116	0.071
-502.683	-200.000	-0.010	0.087
-501.668	80.808	0.205	-0.223
-500.653	-45.093	-0.144	-0.072
-499.639	144.422	0.255	-0.344
-498.624	-59.945	-0.299	-0.129
-497.610	-131.741	-0.132	-0.017
-496.595	251.615	0.059	-0.101
-495.581	-42.504	0.312	-0.161
-494.566	-180.468	0.282	0.006
-493.551	-53.000	0.069	0.032
-492.537	-129.491	-0.026	0.004
-491.522	9.226	-0.146	0.111
-490.508	-5.758	-0.398	0.275
-489.493	-122.417	-0.399	-0.066
-488.478	-200.000	0.011	-0.132
-487.464	-35.168	0.162	0.089
-486.449	800.000	0.157	-0.462
-485.435	-23.843	0.189	0.114
-484.420	-5.345	0.111	-0.077
-483.405	-87.161	0.279	0.086
-482.391	-33.557	0.155	-0.087
-481.376	143.190	-0.237	0.319
-480.362	-185.293	-0.363	-0.006
-479.347	-200.000	-0.000	0.061
-478.332	646.603	0.090	-0.231
-477.318	90.471	0.117	-0.132
-476.303	-80.625	-0.205	-0.069
-475.289	79.127	-0.125	0.135
-474.274	572.434	-0.065	-0.161
-473.259	-81.751	-0.132	0.044
-472.245	256.498	-0.079	0.138
-471.230	95.896	-0.140	-0.161
-470.216	800.000	-0.077	-0.307
-469.201	714.282	0.077	-0.207
-468.186	-104.810	0.265	-0.061
-467.172	-84.486	-0.213	-0.068
-466.157	1.242	0.092	-0.067
-465.143	45.275	0.212	0.197
-464.128	-174.114	0.100	0.003
-463.113	160.618	0.109	-0.153
-462.099	-157.784	-0.126	0.008
-461.084	214.815	0.186	-0.298
-460.070	-200.000	0.050	-0.382
-459.055	-200.000	-0.019	-0.348
-458.040	-89.315	-0.016	0.005
-457.026	370.057	-0.019	0.038
-456.011	3.381	-0.247	-0.182
-454.997	-7.261	0.111	0.076
-453.982	34.912	-0.224	-0.198
-452.968	314.211	-0.083	-0.158
-451.953	-60.885	-0.370	-0.158
-450.938	-27.530	-0.049	-0.029
-449.924	384.627	-0.087	0.182
-448.909	5.487	0.240	0.178
-447.895	-7.948	0.210	-0.143
-446.880	800.000	-0.044	-0.126
-445.865	-117.067	-0.074	0.014
-444.851	81.530	-0.222	0.242
-443.836	-96.264	-0.128	-0.034
-442.822	-99.142	0.258	0.066
-441.807	337.382	0.048	-0.093
-440.792	19.500	0.099	0.081
-439.778	-61.611	-0.276	0.117
-438.763	101.824	-0.139	0.164
-437.749	667.619	0.125	0.326
-436.734	-127.090	-0.100	-0.015
-435.719	800.000	-0.012	0.039
-434.705	43.116	-0.232	0.213
-433.690	-200.000	-0.036	-0.162
-432.676	800.000	-0.031	-0.121
-431.661	-46.844	0.281	-0.139
-430.646	145.157	0.116	-0.157
-429.632	-83.261	-0.183	0.059
-428.617	-200.000	0.030	0.293
-427.603	327.297	0.070	0.136
-426.588	-55.066	-0.070	0.032
-425.573	-200.000	-0.018	0.284
-424.559	-200.000	-0.067	0.319
-423.544	433.403	-0.037	0.082
-422.530	127.080	-0.133	0.170
-421.515	359.124	-0.136	-0.273
-420.500	-200.000	0.034	-0.281
-419.486	175.407	-0.074	-0.108
-418.471	-158.703	0.224	0.013
-417.457	-176.570	-0.093	-0.002
-416.442	-112.868	-0.163	0.033
-415.428	123.649	0.173	-0.218
-414.413	-48.022	-0.071	0.035
-413.398	-136.648	-0.082	-0.010
-412.384	23.253	-0.133	0.110
-411.369	-200.000	-0.012	-0.121
-410.355	-36.561	0.264	0.143
-409.340	800.000	0.070	0.276
-408.325	800.000	-0.025	0.105
-407.311	800.000	-0.203	0.589
-406.296	34.688	0.063	0.056
-405.282	-200.000	0.103	0.471
-404.267	-200.000	-0.006	-0.131
-403.252	563.871	-0.180	-0.439
-402.238	440.158	-0.130	-0.286
-401.223	-62.022	0.308	0.129
-400.209	12.093	-0.131	0.102
-399.194	218.019	0.076	0.123
-398.179	81.787	-0.264	0.288
-397.165	-1.620	0.270	0.191
-396.150	-200.000	-0.074	-0.491
-395.136	-200.000	0.041	-0.184
-394.121	-200.000	-0.018	0.218
-393.106	757.437	0.057	0.155
-392.092	-72.630	0.195	-0.073
-391.077	-200.000	-0.072	0.462
-390.063	-200.000	0.012	0.055
-389.048	462.640	0.076	0.170
-388.033	-0.930	0.155	-0.110
-387.019	-19.662	0.529	0.329
-386.004	-200.000	-0.007	0.174
-384.990	178.433	0.228	0.335
-383.975	154.207	-0.059	-0.081
-382.960	-200.000	-0.039	0.277
-381.946	-162.987	-0.344	-0.017
-380.931	-76.495	-0.286	0.101
-379.917	33.696	0.040	0.035
-378.902	-200.000	0.021	-0.146
-377.888	0.246	-0.381	-0.273
-376.873	748.144	-0.044	0.120
-375.858	-200.000	-0.051	0.340
-374.844	-146.173	0.379	0.034
-373.829	-54.537	0.265	0.120
-372.815	40.252	0.305	0.276
-371.800	-146.042	0.533	0.047
-370.785	261.585	-0.136	-0.236
-369.771	163.527	-0.068	0.096
-368.756	-86.638	-0.150	0.046
-367.742	279.247	0.056	0.100
-366.727	345.850	-0.108	-0.213
-365.712	27.348	-0.080	0.068
-364.698	-78.583	0.157	0.054
-363.683	800.000	-0.090	-0.386
-362.669	-126.056	-0.125	0.019
-361.654	223.819	-0.089	-0.144
-360.639	-200.000	0.004	-0.196
-359.625	184.447	0.151	0.226
-358.610	515.692	0.102	0.240
-357.596	158.256	-0.096	-0.134
-356.581	-200.000	-0.023	-0.125
-355.566	-26.247	-0.077	-0.046
-354.552	2.264	0.286	-0.208
-353.537	25.158	0.165	0.137
-352.523	11.201	0.238	0.183
-351.508	14.953	0.191	-0.150
-350.493	-32.165	-0.186	-0.104
-349.479	-55.004	0.212	0.096
-348.464	800.000	-0.090	0.266
-347.450	-52.232	0.180	-0.084
-346.435	-153.147	0.232	-0.016
-345.420	-24.735	-0.387	-0.231
-344.406	34.807	0.122	-0.108
-343.391	-200.000	0.008	-0.239
-342.377	-200.000	-0.029	0.139
-341.362	-93.635	-0.163	-0.045
-340.348	87.786	0.041	0.046
-339.333	500.849	0.041	-0.096
-338.318	-200.000	0.034	0.204
-337.304	109.329	-0.112	0.134
-336.289	-84.430	0.348	0.110
-335.275	800.000	0.026	-0.092
-334.260	-121.669	-0.133	0.022
-333.245	-54.267	0.221	0.101
-332.231	-200.000	0.106	0.000
-331.216	-49.791	0.290	-0.138
-330.202	-10.536	0.216	-0.143
-329.187	32.230	0.196	-0.170
-328.172	800.000	0.061	-0.173
-327.158	-63.507	0.268	-0.110
-326.143	-63.564	0.136	0.056
-325.129	-61.252	-0.071	-0.030
-324.114	-149.397	-0.153	-0.012
-323.099	-200.000	-0.038	0.252
-322.085	-146.613	0.317	-0.028
-321.070	398.651	0.204	0.428
-320.056	-3.658	-0.126	-0.088
-319.041	-114.081	-0.146	-0.028
-318.026	-31.439	0.138	-0.078
-317.012	-8.265	-0.116	-0.078
-315.997	800.000	-0.016	0.057
-314.983	99.674	0.264	0.307
-313.968	69.684	0.209	0.216
-312.953	-97.065	-0.234	0.061
-311.939	-200.000	-0.056	0.519
-310.924	56.173	0.053	-0.051
-309.910	56.911	-0.164	-0.160
-308.895	-167.171	-0.226	-0.009
-307.880	-200.000	-0.066	0.399
-306.866	-200.000	0.020	-0.117
-305.851	492.900	-0.019	0.044
-304.837	-57.417	-0.287	0.126
-303.822	800.000	0.060	-0.228
-302.807	25.781	0.117	-0.098
-301.793	-10.478	0.034	0.023
-300.778	-39.754	0.177	-0.093
-299.764	-67.667	-0.291	0.114
-298.749	-34.166	0.349	-0.192
-297.735	-135.539	-0.217	0.026
-296.720	197.646	-0.166	0.253
-295.705	669.727	0.054	-0.139
-294.691	-69.477	0.318	0.122
-293.676	-33.683	0.455	-0.252
-292.662	-14.503	-0.294	-0.189
-291.647	-79.964	0.138	-0.046
-290.632	-103.292	-0.267	0.063
-289.618	-72.610	-0.243	0.090
-288.603	522.061	0.143	-0.337
-287.589	326.213	0.206	-0.394
-286.574	-200.000	0.029	-0.240
-285.559	32.545	-0.244	-0.211
-284.545	-200.000	-0.001	-0.176
-283.530	-66.798	-0.104	0.041
-282.516	-200.000	0.003	-0.088
-281.501	-55.389	0.059	0.026
-280.486	-27.477	-0.081	-0.047
-279.472	-129.983	-0.023	-0.003
-278.457	-200.000	0.041	0.228
-277.443	-200.000	0.031	0.183
-276.428	-74.164	0.179	-0.065
-275.413	-200.000	0.015	-0.193
-274.399	-143.792	-0.213	-0.020
-273.384	756.735	0.134	0.362
-272.370	-200.000	-0.051	0.265
-271.355	-81.439	-0.421	-0.139
-270.340	800.000	-0.069	0.237
-269.326	-106.945	-0.171	0.038
-268.311	-149.047	0.397	0.032
-267.297	776.323	-0.150	-0.409
-266.282	-61.127	-0.346	0.146
-265.267	-0.935	0.122	0.086
-264.253	800.000	-0.056	0.164
-263.238	-60.429	0.100	0.042
-262.224	195.425	0.080	0.122
-261.209	668.680	0.047	0.122
-260.195	1.787	0.234	0.169
-259.180	-52.378	0.245	0.113
-258.165	-123.309	0.355	0.057
-257.151	229.376	-0.023	-0.038
-256.136	-200.000	0.038	0.294
-255.122	-131.039	0.126	0.017
-254.107	23.929	-0.122	0.101
-253.092	-200.000	-0.013	-0.057
-252.078	-51.244	-0.354	-0.166
-251.063	88.724	-0.235	0.261
-250.049	800.000	0.098	0.303
-249.034	-200.000	0.033	0.164
-248.019	-143.061	-0.309	0.030
-247.005	800.000	-0.093	-0.294
-245.990	329.999	0.118	-0.227
-244.976	-153.063	0.167	-0.012
-243.961	469.292	-0.180	-0.405
-242.946	158.076	-0.184	-0.255
-241.932	105.604	-0.240	-0.284
-240.917	694.882	0.058	-0.152
-239.903	-96.492	0.127	0.034
-238.888	-8.262	0.392	0.264
-237.873	110.032	-0.047	-0.056
-236.859	-151.108	-0.106	0.008
-235.844	-23.783	-0.211	-0.127
-234.830	-200.000	-0.068	0.453
-233.815	41.380	0.190	-0.172
-232.800	-200.000	0.021	0.241
-231.786	230.329	0.096	-0.156
-230.771	-20.831	0.220	-0.135
-229.757	-96.316	0.189	-0.050
-228.742	85.495	-0.041	0.046
-227.727	294.148	-0.081	0.148
-226.713	-65.430	-0.287	0.115
-225.698	212.422	-0.120	0.190
-224.684	-200.000	0.014	0.375
-223.669	800.000	-0.062	-0.207
-222.655	-200.000	-0.011	0.087
-221.640	800.000	-0.069	-0.227
-220.625	45.706	0.150	-0.139
-219.611	800.000	0.016	0.065
-218.596	6.266	-0.199	0.147
-217.582	800.000	0.040	-0.130
-216.567	-121.173	0.066	-0.011
-215.552	330.246	0.081	-0.155
-214.538	133.571	0.164	-0.212
-213.523	-200.000	0.003	0.055
-212.509	405.271	-0.096	-0.203
-211.494	-200.000	0.048	-0.259
-210.479	800.000	-0.035	0.127
-209.465	125.147	-0.162	0.203
-208.450	128.593	-0.095	0.121
-207.436	-25.338	-0.032	0.019
-206.421	800.000	0.020	-0.083
-205.406	114.448	0.106	0.128
-204.392	-85.743	0.223	0.069
-203.377	-102.466	-0.194	-0.046
-202.363	-200.000	-0.021	0.101
-201.348	11.624	0.182	0.139
-200.333	-43.218	-0.186	-0.094
-199.319	384.927	-0.097	-0.200
-198.304	414.533	-0.061	-0.131
-197.290	-200.000	-0.007	0.440
-196.275	800.000	-0.056	-0.232
-195.260	-76.743	-0.382	0.134
-194.246	529.036	0.080	-0.188
-193.231	-55.108	-0.364	-0.164
-192.217	-36.734	0.357	0.191
-191.202	-162.801	0.198	0.010
-190.187	-142.470	-0.072	0.007
-189.173	87.811	0.154	0.170
-188.158	-200.000	0.027	-0.222
-187.144	596.676	0.121	0.298
-186.129	-80.172	-0.167	0.056
-185.114	-35.844	0.227	0.122
-184.100	6.811	-0.376	0.279
-183.085	228.962	-0.218	0.356
-182.071	169.804	0.036	0.052
-181.056	35.885	0.204	-0.179
-180.042	519.953	-0.117	0.274
-179.027	-200.000	0.002	0.166
-178.012	2.906	0.202	-0.146
-176.998	800.000	-0.101	-0.312
-175.983	-85.849	0.143	-0.044
-174.969	-200.000	-0.004	-0.046
-173.954	-62.542	0.140	-0.058
-172.939	125.189	0.212	0.267
-171.925	-170.823	0.261	-0.009
-170.910	-81.159	0.222	-0.073
-169.896	34.945	-0.270	-0.236
-168.881	-91.013	0.156	0.045
-167.866	398.693	0.072	0.150
-166.852	-32.438	0.270	0.150
-165.837	-200.000	-0.069	0.324
-164.823	417.005	-0.153	-0.326
-163.808	-53.882	-0.227	-0.103
-162.793	-200.000	-0.003	-0.353
-161.779	-189.081	-0.226	-0.003
-160.764	-200.000	-0.043	0.287
-159.750	-107.466	0.457	0.100
-158.735	124.517	-0.193	0.242
-157.720	-75.959	0.211	0.075
-156.706	415.489	-0.044	0.095
-155.691	800.000	0.063	-0.182
-154.677	18.582	-0.122	0.097
-153.662	800.000	-0.027	-0.097
-152.647	37.495	0.299	-0.264
-151.633	620.073	0.075	0.188
-150.618	-66.747	-0.029	-0.011
-149.604	446.870	0.197	-0.432
-148.589	43.746	-0.122	-0.111
-147.574	472.814	-0.069	-0.155
-146.560	800.000	-0.009	0.027
-145.545	733.488	0.166	0.442
-144.531	90.318	-0.125	-0.140
-143.516	646.552	-0.083	0.210
-142.502	800.000	0.039	0.136
-141.487	-200.000	-0.009	0.432
-140.472	127.136	0.132	0.167
-139.458	230.296	-0.160	-0.260
-138.443	124.884	0.013	0.017
-137.429	-143.017	0.097	-0.009
-136.414	628.459	0.082	-0.205
-135.399	-200.000	-0.017	0.083
-134.385	-200.000	0.030	-0.177
-133.370	-143.153	0.180	-0.017
-132.356	148.600	0.101	-0.136
-131.341	-133.203	-0.173	0.022
-130.326	-138.954	0.107	-0.012
-129.312	-56.096	0.334	0.148
-128.297	76.121	-0.218	0.230
-127.283	-50.567	-0.209	-0.098
-126.268	209.869	0.120	0.187
-125.253	-2.689	-0.183	0.128
-124.239	-113.907	0.262	0.051
-123.224	800.000	-0.079	0.260
-122.210	42.740	0.099	0.089
-121.195	-169.766	0.264	0.009
