DTS Sentinel unit serial number:	SN413079Multiplexer serial number:	ORYXHardware model number:	OX4-SRSoftware version number:	ORYX F/W v4.00 Oryx Data Collector v3.7.2.0data status	okinstallation	princeton_trtdifferential loss correction	single-endedforward channel	channel 3reverse channel	N/Adate	2019/09/17time	13:56:35forward acquisition time	60.00reverse acquisition time	0.00gamma	496.2192k internal	0.2301k external	0.2301temperature offset calibration	0.9958default loss term (dB/km)	0.3790temperature slope calibration	1.0000multiplexer offset coefficient	1.0000multiplexer slope coefficient	1.0000fibre end	0.00T internal ref (°C)	35.44T ext. ref 1 (°C)	0.41T ext. ref 2 (°C)	32.53length (m)	temperature (°C)	Stokes	anti-Stokes-747.200	-151.645	0.204	-0.015
-746.185	-200.000	-0.000	-0.148
-745.171	-200.000	0.003	-0.226
-744.156	225.958	0.057	-0.094
-743.142	101.120	-0.139	0.164
-742.127	-46.072	-0.108	0.054
-741.112	-200.000	-0.015	0.114
-740.098	480.650	0.047	0.110
-739.083	513.896	0.111	0.263
-738.069	395.060	-0.047	-0.099
-737.054	477.088	-0.087	0.200
-736.039	800.000	-0.078	-0.325
-735.025	2.455	0.068	0.050
-734.010	443.196	-0.120	-0.268
-732.996	69.413	0.238	-0.250
-731.981	34.001	-0.158	-0.140
-730.966	563.557	-0.089	-0.219
-729.952	-92.787	0.108	-0.031
-728.937	-200.000	-0.042	0.268
-727.923	-70.634	-0.287	0.110
-726.908	-102.514	-0.109	0.027
-725.894	-200.000	0.029	-0.180
-724.879	128.377	-0.150	-0.194
-723.864	-200.000	-0.022	-0.336
-722.850	-200.000	-0.029	0.191
-721.835	118.492	-0.235	0.295
-720.821	221.233	-0.069	0.113
-719.806	-72.276	-0.182	-0.069
-718.791	640.374	-0.052	0.136
-717.777	65.620	0.134	-0.139
-716.762	234.557	-0.114	0.192
-715.748	-107.396	-0.381	-0.085
-714.733	-110.371	0.212	-0.045
-713.718	-200.000	-0.020	0.207
-712.704	67.635	-0.129	0.134
-711.689	235.214	-0.036	-0.060
-710.675	29.995	0.212	0.184
-709.660	-62.335	-0.123	0.052
-708.645	46.436	0.257	-0.243
-707.631	59.464	0.071	0.072
-706.616	-200.000	0.017	-0.293
-705.602	194.494	0.138	-0.213
-704.587	387.487	0.078	-0.165
-703.572	800.000	-0.040	-0.141
-702.558	-52.248	0.311	-0.147
-701.543	-91.203	0.461	0.134
-700.529	-200.000	0.041	0.380
-699.514	-117.167	0.452	-0.084
-698.499	274.450	-0.097	0.174
-697.485	777.896	-0.078	0.217
-696.470	-104.879	0.276	0.065
-695.456	167.122	0.127	0.183
-694.441	-57.474	-0.247	0.110
-693.426	-200.000	0.030	-0.208
-692.412	-144.312	-0.220	0.021
-691.397	-96.295	-0.083	-0.022
-690.383	128.659	-0.206	-0.267
-689.368	-200.000	0.148	-0.000
-688.354	-200.000	0.020	0.114
-687.339	147.962	-0.198	0.272
-686.324	-200.000	-0.016	0.281
-685.310	93.344	-0.039	0.045
-684.295	-29.783	0.349	-0.202
-683.281	-41.165	0.098	-0.051
-682.266	107.924	-0.085	0.103
-681.251	165.247	-0.136	0.195
-680.237	404.401	0.070	-0.150
-679.222	39.775	0.233	-0.213
-678.208	-200.000	0.000	-0.368
-677.193	-181.800	-0.094	-0.002
-676.178	-68.471	-0.138	0.054
-675.164	-143.238	-0.252	0.025
-674.149	-35.979	0.170	0.093
-673.135	800.000	-0.085	-0.261
-672.120	180.690	0.084	0.125
-671.105	-15.328	-0.358	-0.233
-670.091	-23.892	0.199	-0.121
-669.076	-200.000	-0.034	0.182
-668.062	-200.000	-0.001	0.292
-667.047	364.292	-0.108	-0.221
-666.032	576.835	-0.079	-0.196
-665.018	800.000	-0.043	-0.188
-664.003	-174.066	-0.257	0.008
-662.989	-200.000	0.004	-0.080
-661.974	-200.000	0.023	-0.314
-660.959	39.523	-0.220	0.200
-659.945	-71.843	0.384	0.145
-658.930	-122.131	0.157	-0.026
-657.916	705.015	-0.155	0.415
-656.901	233.748	0.171	-0.286
-655.886	5.854	0.013	0.010
-654.872	-101.668	0.226	0.056
-653.857	-200.000	0.034	-0.160
-652.843	241.217	0.129	-0.219
-651.828	438.302	0.148	-0.328
-650.814	-200.000	-0.052	-0.376
-649.799	171.337	0.168	-0.245
-648.784	-75.017	-0.123	-0.045
-647.770	-7.733	-0.076	0.052
-646.755	-113.374	-0.253	0.050
-645.741	-200.000	-0.029	0.133
-644.726	-172.740	0.231	-0.007
-643.711	204.958	0.175	-0.276
-642.697	50.414	0.105	0.101
-641.682	-134.220	0.461	0.058
-640.668	424.517	0.107	0.233
-639.653	-200.000	-0.005	0.067
-638.638	-33.255	-0.191	0.108
-637.624	219.169	0.122	0.198
-636.609	800.000	-0.113	0.459
-635.595	800.000	-0.126	-0.472
-634.580	-200.000	0.040	0.475
-633.565	-200.000	-0.022	-0.323
-632.551	800.000	0.111	-0.313
-631.536	9.166	-0.127	0.097
-630.522	-200.000	0.044	0.343
-629.507	11.875	-0.214	-0.167
-628.492	-112.518	-0.073	0.015
-627.478	-200.000	-0.010	0.140
-626.463	96.554	-0.104	0.121
-625.449	-60.335	-0.180	-0.078
-624.434	-17.860	-0.221	-0.141
-623.419	-109.786	-0.211	0.045
-622.405	249.906	0.145	-0.250
-621.390	-200.000	0.075	-0.375
-620.376	-20.067	0.210	-0.131
-619.361	294.401	0.146	-0.270
-618.346	236.805	0.052	0.088
-617.332	12.344	0.068	-0.054
-616.317	190.889	0.049	-0.074
-615.303	-200.000	-0.035	0.388
-614.288	-187.709	0.107	0.001
-613.273	-200.000	0.069	-0.385
-612.259	-116.890	-0.181	0.034
-611.244	-200.000	-0.011	0.075
-610.230	-93.969	-0.133	0.037
-609.215	-49.097	-0.064	0.031
-608.201	-25.787	-0.151	0.091
-607.186	-200.000	-0.018	0.087
-606.171	-65.008	0.034	-0.014
-605.157	-200.000	-0.022	0.146
-604.142	-62.276	0.226	0.096
-603.128	168.484	-0.152	-0.220
-602.113	800.000	0.110	-0.351
-601.098	-200.000	0.048	-0.401
-600.084	-128.563	0.341	0.049
-599.069	-200.000	-0.052	-0.338
-598.055	-135.575	-0.248	0.030
-597.040	-167.133	0.182	-0.007
-596.025	-136.866	0.054	0.006
-595.011	-200.000	-0.133	-0.001
-593.996	800.000	-0.027	0.117
-592.982	-28.330	-0.176	0.103
-591.967	-200.000	0.012	0.257
-590.952	-63.736	0.333	-0.138
-589.938	695.011	-0.141	-0.374
-588.923	-77.251	-0.076	-0.027
-587.909	68.673	-0.047	0.049
-586.894	-200.000	-0.016	0.078
-585.879	-177.806	-0.203	-0.005
-584.865	800.000	0.101	-0.353
-583.850	-57.946	0.122	-0.054
-582.836	800.000	-0.117	-0.435
-581.821	85.323	-0.103	0.115
-580.806	-91.786	-0.239	-0.069
-579.792	-200.000	-0.000	0.032
-578.777	-129.346	-0.253	-0.036
-577.763	-42.376	0.202	-0.104
-576.748	-22.139	0.183	-0.112
-575.733	-58.922	0.290	-0.127
-574.719	800.000	0.065	0.225
-573.704	-104.259	0.360	-0.085
-572.690	-186.070	0.115	0.002
-571.675	800.000	0.059	0.182
-570.661	141.620	-0.219	0.294
-569.646	96.710	-0.159	-0.185
-568.631	57.898	-0.135	0.134
-567.617	-22.493	-0.235	0.144
-566.602	-15.130	-0.159	-0.103
-565.588	-131.095	-0.224	-0.030
-564.573	-200.000	0.428	-0.002
-563.558	16.200	0.137	-0.110
-562.544	-167.417	-0.229	0.009
-561.529	137.977	-0.208	-0.277
-560.515	-200.000	-0.009	0.041
-559.500	-61.066	0.172	-0.073
-558.485	-40.771	-0.244	0.128
-557.471	-94.304	-0.269	0.074
-556.456	-136.819	0.326	-0.038
-555.442	-200.000	0.014	-0.109
-554.427	412.958	-0.083	0.179
-553.412	-134.588	0.333	0.041
-552.398	218.249	0.180	-0.290
-551.383	214.710	-0.059	0.094
-550.369	-27.040	-0.082	0.048
-549.354	-80.500	0.271	0.092
-548.339	800.000	0.054	-0.221
-547.325	435.323	-0.041	0.089
-546.310	751.485	-0.099	-0.271
-545.296	187.942	0.128	-0.193
-544.281	-28.577	0.112	-0.065
-543.266	163.101	0.102	-0.145
-542.252	800.000	0.054	0.169
-541.237	71.867	-0.348	-0.366
-540.223	800.000	0.049	-0.191
-539.208	-78.476	-0.335	-0.116
-538.193	-3.285	0.020	0.014
-537.179	305.838	0.214	0.403
-536.164	103.309	0.026	0.031
-535.150	166.534	-0.105	-0.150
-534.135	-62.227	-0.388	-0.164
-533.121	45.970	0.089	-0.083
-532.106	-35.431	0.223	0.122
-531.091	166.711	-0.087	-0.125
-530.077	-39.261	0.226	0.120
-529.062	-131.065	0.279	-0.038
-528.048	317.850	-0.065	-0.124
-527.033	4.315	-0.256	0.189
-526.018	-123.264	-0.471	-0.076
-525.004	601.958	-0.180	-0.451
-523.989	131.081	0.132	-0.171
-522.975	50.452	0.242	0.231
-521.960	-21.370	-0.180	0.111
-520.945	800.000	-0.092	-0.335
-519.931	-101.089	-0.243	-0.060
-518.916	37.444	0.184	-0.165
-517.902	-49.672	0.189	-0.091
-516.887	-121.931	-0.399	0.066
-515.872	-176.889	0.207	0.005
-514.858	-8.069	-0.225	0.153
-513.843	248.119	0.071	-0.122
-512.829	-183.501	-0.175	0.003
-511.814	560.444	-0.048	-0.117
-510.799	-200.000	-0.035	-0.184
-509.785	174.718	-0.102	-0.148
-508.770	800.000	-0.064	0.220
-507.756	-200.000	-0.011	0.127
-506.741	-136.525	0.202	0.024
-505.726	-14.510	-0.093	0.061
-504.712	64.354	0.152	0.155
-503.697	800.000	0.068	0.226
-502.683	-200.000	-0.003	0.079
-501.668	-200.000	0.026	0.201
-500.653	-139.090	-0.152	0.017
-499.639	88.916	0.235	0.264
-498.624	-145.876	-0.236	-0.021
-497.610	281.956	-0.093	-0.168
-496.595	69.889	0.185	-0.193
-495.581	-117.738	0.204	0.037
-494.566	-34.215	-0.106	-0.059
-493.551	74.203	0.162	0.171
-492.537	-149.066	-0.245	0.020
-491.522	800.000	0.120	-0.360
-490.508	142.085	0.167	-0.223
-489.493	-200.000	0.043	0.196
-488.478	-102.538	-0.249	-0.060
-487.464	-156.262	-0.048	-0.003
-486.449	-134.101	0.338	0.042
-485.435	-200.000	0.034	-0.218
-484.420	-200.000	0.015	0.390
-483.405	308.109	-0.081	0.153
-482.391	-35.854	-0.069	0.038
-481.376	-106.667	-0.506	-0.114
-480.362	-115.089	0.157	-0.030
-479.347	-96.544	-0.073	-0.020
-478.332	133.597	0.156	-0.203
-477.318	-200.000	0.046	0.311
-476.303	-200.000	0.067	0.418
-475.289	393.550	0.106	0.222
-474.274	800.000	0.036	-0.128
-473.259	31.567	0.127	0.110
-472.245	21.286	0.263	0.216
-471.230	-200.000	0.002	-0.056
-470.216	-4.528	0.150	0.104
-469.201	-200.000	0.005	0.062
-468.186	-37.449	-0.307	0.165
-467.172	-34.170	-0.341	0.189
-466.157	165.706	0.208	-0.296
-465.143	201.906	0.073	-0.113
-464.128	94.998	-0.137	-0.157
-463.113	-101.391	-0.163	0.040
-462.099	-200.000	-0.000	0.001
-461.084	-200.000	-0.033	-0.437
-460.070	-38.366	-0.102	0.054
-459.055	-124.854	0.077	-0.012
-458.040	-82.969	0.047	-0.015
-457.026	800.000	0.065	-0.182
-456.011	-19.034	-0.224	-0.140
-454.997	-200.000	0.044	0.194
-453.982	589.615	0.154	0.383
-452.968	117.282	0.144	0.179
-451.953	-53.201	0.117	0.054
-450.938	3.542	-0.104	-0.076
-449.924	-97.367	-0.291	0.076
-448.909	-121.092	0.170	-0.029
-447.895	-190.415	-0.411	-0.005
-446.880	64.816	-0.208	0.212
-445.865	-113.442	-0.120	-0.024
-444.851	567.498	-0.138	-0.337
-443.836	534.888	0.088	-0.211
-442.822	-161.064	0.075	0.004
-441.807	-43.722	-0.149	0.076
-440.792	228.744	-0.062	-0.102
-439.778	480.782	-0.119	0.272
-438.763	-14.208	-0.092	0.060
-437.749	509.165	-0.069	0.161
-436.734	333.516	0.071	0.137
-435.719	-200.000	-0.014	-0.155
-434.705	-162.112	-0.234	0.012
-433.690	800.000	-0.003	-0.013
-432.676	144.918	-0.204	0.275
-431.661	-9.097	0.249	0.168
-430.646	-47.708	-0.183	0.089
-429.632	800.000	0.014	-0.057
-428.617	-103.141	0.511	0.122
-427.603	-200.000	0.001	0.159
-426.588	-128.619	-0.330	0.047
-425.573	354.573	0.084	0.168
-424.559	-142.233	0.156	0.016
-423.544	-86.083	0.050	-0.016
-422.530	144.815	0.189	0.255
-421.515	800.000	0.112	0.477
-420.500	287.036	0.118	-0.214
-419.486	-81.179	-0.185	-0.062
-418.471	50.397	0.158	-0.150
-417.457	-143.750	0.172	0.016
-416.442	119.980	-0.217	-0.271
-415.428	-4.629	0.144	0.100
-414.413	-200.000	-0.027	0.209
-413.398	-46.067	0.228	0.113
-412.384	-200.000	0.055	-0.270
-411.369	-200.000	0.014	0.313
-410.355	55.138	-0.206	0.201
-409.340	-200.000	-0.021	0.271
-408.325	135.777	-0.133	0.174
-407.311	-200.000	-0.034	-0.269
-406.296	663.423	0.013	-0.032
-405.282	-97.061	-0.374	0.098
-404.267	-200.000	0.005	0.224
-403.252	-200.000	0.001	0.089
-402.238	593.967	-0.068	0.168
-401.223	32.067	-0.012	0.010
-400.209	-200.000	-0.008	0.060
-399.194	277.818	0.047	0.084
-398.179	-22.604	0.021	-0.013
-397.165	32.607	-0.205	0.178
-396.150	-6.029	-0.130	0.090
-395.136	184.505	-0.035	0.052
-394.121	-96.326	-0.434	-0.116
-393.106	248.614	0.252	0.430
-392.092	800.000	0.043	0.147
-391.077	-30.233	0.053	-0.030
-390.063	-200.000	-0.069	0.439
-389.048	-35.508	0.272	0.149
-388.033	800.000	-0.005	-0.016
-387.019	137.439	-0.091	0.120
-386.004	2.594	0.092	-0.067
-384.990	-46.327	0.178	-0.088
-383.975	509.252	-0.034	-0.079
-382.960	8.675	-0.102	0.077
-381.946	272.171	-0.099	0.175
-380.931	-200.000	-0.038	-0.327
-379.917	275.186	-0.115	0.205
-378.902	-123.559	-0.353	0.056
-377.888	-72.228	-0.074	-0.028
-376.873	-134.199	0.268	0.033
-375.858	-200.000	0.000	0.451
-374.844	-137.595	0.222	-0.025
-373.829	-40.858	-0.127	-0.066
-372.815	-17.145	-0.090	-0.057
-371.800	310.266	0.164	0.308
-370.785	-67.334	-0.089	-0.035
-369.771	589.479	-0.132	0.326
-368.756	319.101	0.085	-0.161
-367.742	22.453	0.198	0.163
-366.727	-200.000	-0.048	-0.261
-365.712	800.000	0.057	-0.190
-364.698	-200.000	0.010	-0.372
-363.683	-68.180	-0.254	-0.099
-362.669	479.668	0.115	-0.261
-361.654	800.000	-0.092	-0.283
-360.639	144.341	-0.152	-0.204
-359.625	130.676	0.315	-0.405
-358.610	75.883	-0.090	-0.096
-357.596	-183.114	0.163	0.003
-356.581	-41.601	0.156	-0.081
-355.566	-200.000	0.001	0.097
-354.552	135.660	0.144	0.188
-353.537	158.749	0.172	0.240
-352.523	85.612	-0.159	-0.175
-351.508	-200.000	0.014	0.311
-350.493	154.062	0.041	-0.057
-349.479	-200.000	-0.013	-0.200
-348.464	27.913	0.177	0.150
-347.450	-7.695	0.154	0.105
-346.435	-200.000	0.042	0.192
-345.420	11.354	0.276	0.212
-344.406	-50.019	-0.106	0.051
-343.391	346.865	-0.030	0.060
-342.377	-138.117	0.646	0.072
-341.362	100.495	-0.162	-0.188
-340.348	-200.000	0.011	0.167
-339.333	800.000	0.099	-0.341
-338.318	-54.548	-0.073	-0.033
-337.304	20.777	0.195	0.159
-336.289	117.375	0.054	0.066
-335.275	-139.881	0.247	-0.026
-334.260	-200.000	-0.056	-0.254
-333.245	-12.253	0.305	-0.200
-332.231	-166.701	-0.202	-0.008
-331.216	-200.000	-0.010	0.254
-330.202	-200.000	-0.014	-0.218
-329.187	158.449	0.110	-0.154
-328.172	92.451	-0.090	-0.102
-327.158	800.000	-0.055	0.237
-326.143	356.696	0.176	-0.353
-325.129	17.530	-0.147	0.117
-324.114	800.000	0.091	-0.338
-323.099	-42.064	0.236	0.121
-322.085	3.090	-0.265	-0.193
-321.070	-200.000	0.004	0.145
-320.056	33.740	0.121	-0.106
-319.041	293.627	-0.131	0.239
-318.026	48.785	-0.355	0.334
-317.012	-36.458	-0.315	-0.170
-315.997	177.844	0.099	-0.145
-314.983	109.786	-0.113	0.136
-313.968	366.884	-0.132	-0.268
-312.953	-200.000	-0.012	-0.231
-311.939	-29.466	-0.155	-0.089
-310.924	-58.362	-0.231	-0.101
-309.910	800.000	-0.016	0.061
-308.895	-36.658	-0.173	0.093
-307.880	146.398	-0.185	0.250
-306.866	89.860	0.140	-0.157
-305.851	-38.894	-0.324	-0.171
-304.837	800.000	-0.089	-0.325
-303.822	19.745	0.092	-0.074
-302.807	-37.261	-0.052	-0.028
-301.793	-200.000	0.020	0.177
-300.778	-75.390	0.368	-0.131
-299.764	-169.152	-0.158	0.006
-298.749	28.430	-0.309	0.261
-297.735	248.034	0.136	0.230
-296.720	541.121	0.091	-0.217
-295.705	-200.000	-0.048	-0.249
-294.691	509.244	0.128	-0.299
-293.676	-29.954	-0.175	-0.100
-292.662	147.114	-0.117	0.157
-291.647	-186.620	0.182	-0.003
-290.632	186.318	-0.101	0.151
-289.618	-69.146	0.091	0.035
-288.603	-120.504	-0.389	0.066
-287.589	0.436	-0.227	0.162
-286.574	-151.574	-0.147	-0.011
-285.559	-26.530	0.197	0.116
-284.545	109.900	-0.159	0.191
-283.530	-15.046	-0.360	-0.231
-282.516	800.000	-0.016	0.043
-281.501	58.602	0.204	0.200
-280.486	200.834	-0.061	0.094
-279.472	-200.000	-0.001	0.044
-278.457	46.657	0.250	-0.232
-277.443	-200.000	-0.003	-0.248
-276.428	150.379	-0.099	-0.134
-275.413	407.001	-0.081	0.172
-274.399	-200.000	0.012	-0.125
-273.384	-200.000	0.038	-0.168
-272.370	58.504	-0.086	0.084
-271.355	-97.805	-0.248	0.064
-270.340	-173.663	0.136	-0.004
-269.326	30.532	0.134	0.115
-268.311	100.425	-0.120	-0.140
-267.297	-98.259	0.100	0.026
-266.282	635.346	0.046	0.117
-265.267	134.253	0.241	0.313
-264.253	-34.092	0.160	0.088
-263.238	83.107	-0.071	-0.077
-262.224	231.405	0.066	-0.109
-261.209	-37.134	0.064	-0.035
-260.195	-24.771	0.112	0.066
-259.180	-78.191	0.297	-0.102
-258.165	-154.928	0.154	0.010
-257.151	-125.830	0.373	-0.056
-256.136	800.000	0.114	-0.325
-255.122	100.099	-0.224	0.260
-254.107	121.519	-0.119	0.149
-253.092	128.390	0.169	0.216
-252.078	53.443	0.245	-0.235
-251.063	-109.509	-0.343	0.072
-250.049	-116.700	0.291	0.053
-249.034	-138.020	0.086	-0.010
-248.019	480.021	-0.056	-0.127
-247.005	-48.506	0.248	-0.119
-245.990	66.124	-0.280	-0.284
-244.976	-132.350	0.326	-0.042
-243.961	-97.768	-0.120	-0.031
-242.946	267.307	0.046	-0.081
-241.932	561.445	0.023	-0.056
-240.917	-7.431	-0.281	-0.190
-239.903	-93.741	-0.174	-0.048
-238.888	800.000	-0.128	-0.417
-237.873	800.000	-0.060	0.188
-236.859	100.460	-0.124	0.144
-235.844	-84.417	-0.258	0.082
-234.830	-110.900	-0.243	0.050
-233.815	-200.000	0.028	0.249
-232.800	-13.803	0.297	0.192
-231.786	-58.404	-0.143	0.062
-230.771	-200.000	-0.003	0.329
-229.757	-172.944	0.161	-0.005
-228.742	-125.654	-0.257	0.039
-227.727	-99.351	0.233	0.059
-226.713	60.860	0.204	-0.202
-225.698	-200.000	-0.053	-0.249
-224.684	800.000	0.013	0.054
-223.669	40.749	-0.226	-0.204
-222.655	-3.171	-0.231	-0.161
-221.640	-3.979	0.054	0.037
-220.625	41.713	-0.158	0.143
-219.611	-20.672	0.136	-0.083
-218.596	-200.000	0.101	0.478
-217.582	44.923	-0.220	0.202
-216.567	-75.328	0.484	0.172
-215.552	-200.000	-0.034	0.159
-214.538	72.357	-0.144	-0.150
-213.523	33.224	-0.013	-0.011
-212.509	-124.938	-0.164	0.025
-211.494	0.624	0.267	0.191
-210.479	-50.897	-0.246	-0.115
-209.465	-200.000	-0.028	-0.328
-208.450	800.000	-0.052	-0.180
-207.436	-25.730	-0.148	0.087
-206.421	-64.386	-0.163	0.066
-205.406	469.659	0.038	-0.085
-204.392	45.595	0.186	-0.171
-203.377	-200.000	0.018	0.102
-202.363	-200.000	-0.012	0.210
-201.348	750.346	0.061	0.164
-200.333	-65.855	0.136	0.054
-199.319	-200.000	0.014	-0.063
-198.304	770.846	-0.089	0.243
-197.290	-35.494	0.404	0.219
-196.275	-144.796	0.294	-0.027
-195.260	-200.000	-0.010	0.328
-194.246	-40.151	-0.144	0.075
-193.231	230.820	0.083	-0.136
-192.217	-200.000	-0.023	0.303
-191.202	13.271	0.264	0.204
-190.187	-200.000	-0.018	-0.267
-189.173	-50.286	0.150	-0.071
-188.158	13.224	0.194	-0.150
-187.144	-24.323	0.094	-0.056
-186.129	34.006	0.302	0.263
-185.114	-37.700	-0.155	-0.082
-184.100	-55.676	-0.334	-0.149
-183.085	739.623	-0.091	0.242
-182.071	-36.104	-0.303	-0.163
-181.056	-117.286	0.213	-0.039
-180.042	8.110	-0.134	-0.101
-179.027	0.433	0.109	0.077
-178.012	-83.164	0.308	-0.099
-176.998	-91.215	-0.133	-0.038
-175.983	-34.293	0.297	-0.163
-174.969	-145.038	0.312	0.028
-173.954	94.700	0.188	-0.213
-172.939	57.246	0.304	0.295
-171.925	-46.787	-0.074	-0.036
-170.910	800.000	0.029	-0.118
-169.896	19.637	-0.132	-0.106
-168.881	-161.526	0.198	-0.010
-167.866	-200.000	0.049	0.226
-166.852	138.459	-0.042	0.055
-165.837	-200.000	-0.001	0.032
-164.823	-115.460	-0.095	0.018
-163.808	-84.422	-0.129	-0.041
-162.793	-34.107	-0.131	-0.072
-161.779	107.956	0.235	-0.279
-160.764	-135.325	-0.214	-0.025
-159.750	1.277	-0.299	-0.214
-158.735	362.633	0.119	0.237
-157.720	-45.590	-0.019	0.009
-156.706	-158.478	0.179	-0.010
-155.691	-200.000	0.041	-0.287
-154.677	111.778	0.095	-0.114
-153.662	-189.496	0.184	-0.002
-152.647	-186.947	-0.189	0.003
-151.633	9.080	0.142	-0.107
-150.618	-200.000	0.040	0.240
-149.604	184.603	-0.148	0.218
-148.589	133.002	0.155	-0.200
-147.574	347.572	-0.026	-0.050
-146.560	-175.831	0.103	0.003
-145.545	-200.000	-0.025	-0.304
-144.531	60.291	0.137	-0.135
-143.516	-106.507	0.389	-0.086
-142.502	-51.243	0.056	-0.026
-141.487	-118.363	0.151	0.027
-140.472	214.145	0.206	0.325
-139.458	119.141	0.059	-0.072
-138.443	246.658	-0.135	-0.227
-137.429	176.816	-0.036	-0.052
-136.414	120.889	0.290	-0.359
-135.399	84.359	0.127	0.138
-134.385	-200.000	-0.028	0.196
-133.370	-200.000	0.020	0.220
-132.356	-65.224	0.100	0.040
-131.341	800.000	0.079	-0.227
-130.326	800.000	0.117	0.341
-129.312	2.190	-0.167	-0.120
-128.297	115.379	-0.133	-0.161
-127.283	126.776	-0.167	0.211
-126.268	71.990	0.060	0.062
-125.253	85.194	-0.150	0.164
-124.239	-200.000	-0.029	0.152
-123.224	-18.893	0.151	-0.094
-122.210	20.747	0.092	-0.074
