DTS Sentinel unit serial number:	SN413079Multiplexer serial number:	ORYXHardware model number:	OX4-SRSoftware version number:	ORYX F/W v4.00 Oryx Data Collector v3.7.2.0data status	okinstallation	princeton_trtdifferential loss correction	single-endedforward channel	channel 3reverse channel	N/Adate	2019/09/17time	08:40:34forward acquisition time	60.00reverse acquisition time	0.00gamma	496.2192k internal	0.2331k external	0.2331temperature offset calibration	0.9942default loss term (dB/km)	0.3790temperature slope calibration	1.0000multiplexer offset coefficient	1.0000multiplexer slope coefficient	1.0000fibre end	0.00T internal ref (°C)	27.69T ext. ref 1 (°C)	0.13T ext. ref 2 (°C)	23.25length (m)	temperature (°C)	Stokes	anti-Stokes-747.200	-200.000	0.030	0.202
-746.185	-72.730	-0.274	0.102
-745.171	-2.082	-0.172	0.121
-744.156	74.664	-0.127	0.135
-743.142	-110.426	-0.193	-0.040
-742.127	-200.000	-0.004	0.117
-741.112	503.586	0.093	-0.217
-740.098	61.049	-0.196	-0.196
-739.083	-200.000	-0.021	0.213
-738.069	-200.000	-0.279	0.001
-737.054	-63.415	-0.265	-0.110
-736.039	-149.728	-0.042	-0.003
-735.025	129.680	-0.091	0.117
-734.010	-200.000	0.018	-0.247
-732.996	-68.096	0.130	-0.051
-731.981	-200.000	-0.016	0.289
-730.966	27.972	-0.161	-0.137
-729.952	51.066	-0.198	0.189
-728.937	-200.000	0.030	0.184
-727.923	-28.833	-0.118	0.068
-726.908	800.000	-0.056	-0.160
-725.894	-66.820	-0.072	0.029
-724.879	-171.417	-0.452	0.015
-723.864	-107.260	-0.326	0.072
-722.850	-63.168	0.197	-0.082
-721.835	-100.147	-0.042	-0.011
-720.821	-104.228	-0.146	0.034
-719.806	-200.000	0.051	-0.342
-718.791	-200.000	-0.003	0.159
-717.777	-200.000	0.009	0.068
-716.762	-200.000	0.048	0.256
-715.748	-73.381	0.229	0.084
-714.733	214.927	0.193	-0.307
-713.718	216.973	-0.047	0.075
-712.704	-200.000	0.026	-0.145
-711.689	593.695	-0.114	0.284
-710.675	-122.993	-0.218	-0.035
-709.660	100.105	-0.063	0.074
-708.645	-58.981	0.114	0.049
-707.631	-200.000	-0.060	-0.332
-706.616	-200.000	0.048	-0.422
-705.602	-140.468	-0.188	-0.020
-704.587	479.243	0.030	-0.068
-703.572	-95.635	0.144	0.039
-702.558	703.911	-0.046	-0.123
-701.543	179.070	0.038	0.056
-700.529	413.407	0.142	-0.304
-699.514	-65.445	-0.172	-0.069
-698.499	26.017	-0.021	-0.017
-697.485	-103.815	0.190	-0.045
-696.470	16.962	-0.180	0.144
-695.456	-6.575	0.144	-0.098
-694.441	-90.040	0.482	-0.141
-693.426	-8.677	-0.341	-0.230
-692.412	800.000	0.111	-0.406
-691.397	-76.012	-0.248	0.088
-690.383	37.766	0.152	-0.136
-689.368	-122.012	-0.180	-0.030
-688.354	800.000	0.051	0.172
-687.339	-62.192	0.196	-0.082
-686.324	178.256	0.147	-0.216
-685.310	-152.287	0.091	0.007
-684.295	218.295	-0.199	0.319
-683.281	-200.000	0.000	0.206
-682.266	-14.994	0.274	0.176
-681.251	123.932	-0.288	-0.363
-680.237	496.496	-0.102	-0.235
-679.222	8.423	-0.113	-0.086
-678.208	-144.972	-0.485	-0.044
-677.193	21.867	-0.331	0.271
-676.178	175.934	-0.183	-0.266
-675.164	50.259	0.036	-0.034
-674.149	-133.624	-0.180	0.023
-673.135	-200.000	-0.020	0.404
-672.120	-78.174	0.159	-0.055
-671.105	139.327	-0.045	-0.060
-670.091	184.283	-0.082	0.122
-669.076	78.711	-0.129	-0.138
-668.062	800.000	-0.067	-0.199
-667.047	-200.000	0.055	-0.372
-666.032	274.004	0.205	-0.365
-665.018	-114.627	-0.036	0.007
-664.003	-200.000	0.004	0.249
-662.989	57.734	-0.082	-0.080
-661.974	49.038	-0.030	-0.028
-660.959	800.000	0.055	0.198
-659.945	195.136	0.142	0.216
-658.930	119.623	0.182	-0.227
-657.916	-200.000	0.006	-0.046
-656.901	-200.000	-0.005	-0.063
-655.886	79.325	-0.182	0.196
-654.872	-65.330	0.081	0.033
-653.857	613.614	-0.071	-0.177
-652.843	99.699	0.181	-0.210
-651.828	-200.000	-0.020	-0.091
-650.814	162.846	-0.043	0.061
-649.799	24.197	-0.216	-0.179
-648.784	226.582	-0.072	0.118
-647.770	-137.497	0.199	0.023
-646.755	221.585	-0.103	-0.167
-645.741	-123.339	0.078	-0.012
-644.726	97.415	-0.334	-0.384
-643.711	22.315	-0.109	0.090
-642.697	-136.610	-0.410	0.048
-641.682	113.399	-0.042	-0.051
-640.668	-96.093	0.074	0.020
-639.653	370.587	-0.133	-0.270
-638.638	800.000	-0.049	0.184
-637.624	-200.000	0.023	-0.134
-636.609	-200.000	-0.055	0.389
-635.595	4.719	-0.149	0.109
-634.580	-108.039	-0.169	-0.037
-633.565	-106.262	-0.318	0.072
-632.551	237.063	0.155	0.257
-631.536	639.792	-0.117	0.299
-630.522	6.263	0.152	0.113
-629.507	-32.345	-0.194	-0.109
-628.492	140.819	0.142	0.189
-627.478	-152.378	-0.066	0.005
-626.463	51.582	0.140	0.133
-625.449	-186.336	-0.197	0.003
-624.434	19.583	0.055	-0.044
-623.419	78.195	0.163	-0.175
-622.405	179.515	-0.106	0.155
-621.390	-48.667	0.127	0.061
-620.376	597.743	0.064	-0.159
-619.361	-200.000	-0.047	0.266
-618.346	-200.000	-0.007	-0.250
-617.332	231.045	-0.167	-0.274
-616.317	-194.636	-0.028	0.000
-615.303	250.181	-0.010	0.018
-614.288	272.706	-0.153	-0.271
-613.273	-28.923	0.423	-0.243
-612.259	192.554	0.216	-0.327
-611.244	-200.000	-0.026	-0.255
-610.230	-100.088	0.288	0.072
-609.215	20.329	-0.247	-0.199
-608.201	-200.000	-0.069	-0.000
-607.186	-16.044	0.103	0.066
-606.171	-200.000	0.024	0.137
-605.157	800.000	-0.096	0.292
-604.142	71.664	0.152	0.158
-603.128	170.219	-0.280	-0.402
-602.113	-200.000	0.017	-0.220
-601.098	-117.398	-0.141	-0.025
-600.084	-45.450	-0.324	0.161
-599.069	-115.666	0.333	-0.063
-598.055	-76.101	0.048	-0.017
-597.040	281.207	-0.066	0.118
-596.025	800.000	0.054	-0.203
-595.011	-138.424	-0.089	0.010
-593.996	-200.000	0.017	-0.076
-592.982	-72.024	-0.420	-0.156
-591.967	343.714	0.134	0.263
-590.952	-200.000	0.007	0.181
-589.938	-200.000	-0.032	-0.175
-588.923	726.847	-0.152	-0.406
-587.909	-149.475	0.061	-0.005
-586.894	-94.854	0.303	-0.082
-585.879	285.097	0.212	0.382
-584.865	800.000	0.067	-0.188
-583.850	249.696	0.036	-0.060
-582.836	-3.040	-0.043	0.030
-581.821	275.781	0.178	-0.315
-580.806	-200.000	0.020	-0.195
-579.792	128.786	0.127	-0.162
-578.777	-6.771	0.435	-0.296
-577.763	-36.063	0.200	-0.108
-576.748	-200.000	0.008	0.116
-575.733	7.001	0.223	0.166
-574.719	149.050	-0.101	-0.136
-573.704	800.000	-0.035	0.126
-572.690	21.869	-0.149	0.122
-571.675	-200.000	-0.001	-0.136
-570.661	-41.498	-0.274	-0.141
-569.646	-58.470	-0.227	-0.099
-568.631	0.262	0.110	-0.078
-567.617	-200.000	0.038	-0.234
-566.602	-200.000	0.073	-0.355
-565.588	12.370	-0.032	0.025
-564.573	800.000	-0.052	0.189
-563.558	-200.000	0.042	-0.239
-562.544	202.541	0.015	0.024
-561.529	800.000	0.080	-0.344
-560.515	-11.421	0.073	0.048
-559.500	-200.000	0.041	-0.198
-558.485	-200.000	-0.048	-0.304
-557.471	97.820	-0.202	-0.232
-556.456	693.780	0.067	0.175
-555.442	-79.208	-0.317	-0.107
-554.427	-85.170	0.109	0.034
-553.412	410.911	-0.021	-0.045
-552.398	23.242	-0.388	-0.319
-551.383	-55.763	-0.356	-0.159
-550.369	-105.585	0.284	0.064
-549.354	532.045	-0.156	0.368
-548.339	-48.697	-0.154	0.074
-547.325	10.901	0.277	0.211
-546.310	-145.183	0.283	-0.026
-545.296	-200.000	0.002	0.027
-544.281	-137.892	-0.230	0.026
-543.266	72.555	-0.238	0.248
-542.252	35.934	-0.086	0.076
-541.237	-118.324	0.275	-0.049
-540.223	325.171	0.055	0.105
-539.208	315.642	-0.070	0.132
-538.193	-87.027	-0.261	0.079
-537.179	-17.756	0.108	0.068
-536.164	800.000	-0.005	0.018
-535.150	396.035	-0.084	0.176
-534.135	45.622	0.104	0.096
-533.121	365.651	-0.126	0.253
-532.106	-200.000	0.033	-0.316
-531.091	-146.340	0.013	-0.001
-530.077	-200.000	-0.021	-0.137
-529.062	-31.553	0.335	0.188
-528.048	-2.965	0.181	0.126
-527.033	800.000	-0.053	-0.209
-526.018	-200.000	-0.010	-0.132
-525.004	-104.653	0.195	-0.045
-523.989	9.983	-0.478	-0.362
-522.975	39.033	-0.043	-0.038
-521.960	-22.086	0.222	0.135
-520.945	223.704	-0.144	0.232
-519.931	-200.000	-0.006	0.283
-518.916	-200.000	-0.044	0.428
-517.902	-108.939	0.306	0.065
-516.887	167.705	0.115	-0.163
-515.872	755.580	0.048	0.129
-514.858	-93.317	-0.278	0.077
-513.843	-126.235	-0.275	0.041
-512.829	800.000	-0.048	0.139
-511.814	800.000	-0.052	-0.217
-510.799	148.510	-0.075	0.102
-509.785	20.250	0.166	-0.134
-508.770	284.511	0.020	0.036
-507.756	800.000	0.076	0.262
-506.741	-53.223	-0.044	0.020
-505.726	35.095	0.235	-0.206
-504.712	-149.781	0.431	0.034
-503.697	-105.118	-0.172	-0.039
-502.683	194.084	0.121	0.183
-501.668	-170.134	0.180	-0.006
-500.653	-59.824	-0.179	-0.076
-499.639	-200.000	0.024	-0.165
-498.624	25.963	0.213	0.177
-497.610	168.254	-0.059	0.084
-496.595	6.141	0.367	-0.271
-495.581	-75.642	-0.054	-0.019
-494.566	-133.173	0.308	-0.039
-493.551	-200.000	-0.021	0.119
-492.537	800.000	0.057	0.236
-491.522	186.087	0.037	-0.055
-490.508	-58.458	-0.166	0.072
-489.493	-39.481	-0.309	0.162
-488.478	344.973	0.065	0.127
-487.464	-34.985	0.269	-0.146
-486.449	366.961	0.001	0.002
-485.435	-131.586	0.223	-0.029
-484.420	-70.503	-0.428	-0.161
-483.405	150.102	-0.157	0.212
-482.391	225.252	0.138	0.223
-481.376	170.159	0.098	0.140
-480.362	-183.924	-0.384	0.006
-479.347	-200.000	0.022	-0.167
-478.332	36.723	0.098	-0.087
-477.318	-84.775	-0.368	-0.115
-476.303	-200.000	0.008	-0.078
-475.289	82.234	-0.137	-0.148
-474.274	508.975	-0.072	0.167
-473.259	91.850	0.130	0.146
-472.245	-200.000	0.001	0.028
-471.230	2.364	0.061	0.044
-470.216	123.381	-0.138	-0.172
-469.201	280.238	0.096	0.171
-468.186	-154.972	0.332	-0.022
-467.172	88.443	0.242	-0.268
-466.157	800.000	0.066	0.197
-465.143	-200.000	0.058	-0.335
-464.128	-64.983	0.043	-0.017
-463.113	107.171	-0.160	-0.189
-462.099	-107.693	0.099	0.022
-461.084	-200.000	0.008	-0.288
-460.070	-200.000	0.010	0.096
-459.055	800.000	-0.066	0.248
-458.040	-200.000	-0.011	-0.586
-457.026	-120.600	0.237	0.040
-456.011	800.000	-0.064	0.228
-454.997	130.478	-0.219	0.279
-453.982	62.922	-0.163	-0.163
-452.968	800.000	0.109	-0.385
-451.953	14.624	0.054	0.042
-450.938	45.194	-0.270	0.248
-449.924	-200.000	-0.005	0.022
-448.909	800.000	-0.058	0.204
-447.895	-19.938	0.244	0.150
-446.880	44.011	0.228	-0.208
-445.865	-118.659	0.174	0.030
-444.851	611.532	0.085	0.210
-443.836	-200.000	0.029	-0.199
-442.822	800.000	-0.014	-0.052
-441.807	-84.656	-0.219	0.069
-440.792	219.180	-0.042	0.067
-439.778	-53.551	0.106	0.048
-438.763	105.551	-0.159	-0.187
-437.749	7.297	-0.365	-0.271
-436.734	-200.000	-0.007	-0.301
-435.719	-99.627	0.314	-0.078
-434.705	800.000	-0.058	-0.168
-433.690	-49.256	0.169	-0.080
-432.676	169.128	-0.128	-0.181
-431.661	-158.910	0.090	-0.005
-430.646	-179.079	0.438	-0.010
-429.632	-200.000	0.030	-0.403
-428.617	240.642	-0.030	0.050
-427.603	-139.339	0.120	-0.013
-426.588	-200.000	-0.013	-0.104
-425.573	-73.245	-0.158	-0.057
-424.559	-140.373	0.228	0.024
-423.544	-200.000	0.009	0.393
-422.530	-7.242	-0.201	-0.136
-421.515	99.247	0.101	-0.116
-420.500	144.348	0.229	0.304
-419.486	179.435	0.047	0.068
-418.471	313.772	0.174	0.325
-417.457	-14.074	0.289	0.186
-416.442	38.655	-0.092	0.082
-415.428	-45.444	-0.419	0.206
-414.413	211.373	0.351	0.549
-413.398	-200.000	0.019	0.229
-412.384	-51.935	-0.074	-0.034
-411.369	-200.000	-0.052	0.378
-410.355	4.528	-0.024	0.018
-409.340	-200.000	0.018	-0.287
-408.325	124.303	-0.130	-0.162
-407.311	-200.000	-0.007	-0.368
-406.296	206.623	-0.184	-0.284
-405.282	320.934	-0.131	-0.247
-404.267	-52.231	0.180	-0.083
-403.252	-114.195	0.038	-0.007
-402.238	-200.000	-0.008	-0.267
-401.223	-200.000	0.056	0.281
-400.209	255.782	-0.065	0.111
-399.194	-99.948	-0.103	-0.026
-398.179	212.940	-0.116	0.182
-397.165	-200.000	-0.005	0.221
-396.150	800.000	0.017	0.063
-395.136	453.626	-0.094	-0.206
-394.121	85.268	0.297	0.324
-393.106	43.790	0.143	0.130
-392.092	800.000	0.005	-0.017
-391.077	137.601	0.099	-0.128
-390.063	-160.928	-0.074	0.004
-389.048	282.799	0.160	-0.285
-388.033	428.927	0.169	-0.363
-387.019	-200.000	-0.020	-0.194
-386.004	-200.000	-0.020	-0.129
-384.990	-31.091	0.205	-0.115
-383.975	800.000	-0.102	-0.443
-382.960	-61.920	0.259	-0.107
-381.946	-144.655	0.528	-0.048
-380.931	229.806	-0.087	0.140
-379.917	-200.000	0.045	0.342
-378.902	349.687	0.092	-0.181
-377.888	-61.046	-0.204	0.086
-376.873	37.174	0.081	-0.072
-375.858	-200.000	-0.020	0.107
-374.844	361.513	0.121	0.242
-373.829	509.813	-0.052	-0.120
-372.815	-74.017	0.130	0.047
-371.800	-49.935	0.225	0.106
-370.785	-96.972	0.186	-0.048
-369.771	-69.348	0.201	-0.076
-368.756	3.245	0.344	-0.248
-367.742	-83.266	-0.315	-0.100
-366.727	-24.191	0.155	-0.092
-365.712	153.161	-0.133	0.181
-364.698	-18.499	0.142	0.088
-363.683	-108.905	-0.373	-0.079
-362.669	-48.871	-0.048	-0.023
-361.654	-146.373	0.277	0.024
-360.639	102.848	0.141	0.164
-359.625	800.000	0.089	0.365
-358.610	-200.000	0.032	0.270
-357.596	45.427	-0.197	-0.180
-356.581	800.000	0.040	0.153
-355.566	-124.110	-0.301	0.047
-354.552	171.679	0.158	0.225
-353.537	-200.000	0.065	0.389
-352.523	-200.000	-0.013	-0.138
-351.508	-144.117	-0.156	-0.015
-350.493	-29.471	-0.141	0.080
-349.479	285.802	0.135	0.242
-348.464	-28.332	0.387	-0.222
-347.450	-105.358	-0.086	0.019
-346.435	-32.730	-0.261	0.144
-345.420	-33.293	-0.214	-0.117
-344.406	-19.494	-0.289	-0.177
-343.391	109.813	-0.222	-0.264
-342.377	34.023	0.154	-0.133
-341.362	800.000	0.066	0.217
-340.348	-60.597	-0.223	0.094
-339.333	800.000	-0.015	0.055
-338.318	-135.649	-0.171	-0.020
-337.304	677.265	-0.126	0.324
-336.289	127.843	-0.255	-0.322
-335.275	208.803	-0.260	-0.403
-334.260	106.223	0.223	0.262
-333.245	-200.000	0.006	0.251
-332.231	4.756	-0.115	0.083
-331.216	171.032	0.068	-0.096
-330.202	154.832	-0.032	0.044
-329.187	-66.040	0.050	-0.020
-328.172	-65.296	0.201	0.080
-327.158	-123.939	-0.163	0.025
-326.143	35.707	0.084	0.073
-325.129	28.481	-0.340	-0.285
-324.114	-200.000	-0.047	-0.275
-323.099	800.000	0.108	-0.369
-322.085	270.694	-0.013	0.022
-321.070	800.000	-0.031	0.118
-320.056	800.000	-0.045	0.188
-319.041	-67.156	0.217	-0.085
-318.026	-10.328	-0.132	-0.087
-317.012	42.505	0.180	-0.162
-315.997	-27.249	-0.336	0.194
-314.983	185.360	-0.173	0.255
-313.968	-96.791	-0.062	0.016
-312.953	300.976	0.081	0.149
-311.939	-79.441	-0.140	-0.047
-310.924	-200.000	-0.093	-0.515
-309.910	207.934	0.107	0.166
-308.895	81.782	0.207	-0.221
-307.880	301.835	0.042	-0.078
-306.866	-57.136	0.363	-0.158
-305.851	725.349	-0.114	-0.300
-304.837	103.416	-0.056	0.065
-303.822	-10.534	-0.177	-0.116
-302.807	138.008	0.050	0.065
-301.793	-30.147	-0.270	-0.152
-300.778	-151.231	-0.162	-0.012
-299.764	104.730	0.137	0.160
-298.749	353.837	0.038	-0.075
-297.735	89.269	-0.123	-0.135
-296.720	-190.774	-0.096	-0.001
-295.705	121.482	-0.216	0.266
-294.691	-200.000	0.002	-0.137
-293.676	-184.969	0.081	-0.001
-292.662	-190.101	0.164	0.002
-291.647	-154.897	-0.087	0.006
-290.632	800.000	0.089	0.250
-289.618	-46.498	-0.185	0.090
-288.603	-94.431	-0.058	-0.016
-287.589	50.572	-0.401	0.375
-286.574	255.640	0.048	0.081
-285.559	216.072	-0.200	0.314
-284.545	48.756	0.035	0.033
-283.530	165.101	-0.094	0.131
-282.516	-200.000	0.001	-0.082
-281.501	-200.000	0.020	0.185
-280.486	-200.000	-0.003	-0.029
-279.472	-200.000	-0.057	-0.310
-278.457	-19.167	-0.320	0.196
-277.443	-200.000	0.041	0.237
-276.428	36.376	-0.131	-0.114
-275.413	-200.000	-0.036	-0.167
-274.399	-200.000	0.016	-0.074
-273.384	-84.311	0.076	-0.024
-272.370	-200.000	0.017	0.493
-271.355	115.652	0.111	0.134
-270.340	710.477	-0.071	0.186
-269.326	-99.493	-0.127	0.032
-268.311	-54.083	-0.098	0.044
-267.297	800.000	0.031	-0.115
-266.282	-173.849	-0.070	-0.002
-265.267	-141.423	-0.096	-0.010
-264.253	800.000	0.055	-0.187
-263.238	143.861	-0.098	-0.129
-262.224	-99.240	-0.213	0.053
-261.209	-112.291	-0.321	-0.064
-260.195	239.889	0.248	0.408
-259.180	-171.348	0.168	-0.006
-258.165	82.256	0.279	0.298
-257.151	-6.049	0.270	-0.182
-256.136	800.000	0.100	0.322
-255.122	-52.963	-0.208	-0.094
-254.107	695.522	-0.065	-0.169
-253.092	-200.000	-0.011	-0.243
-252.078	800.000	0.111	-0.378
-251.063	-9.354	-0.109	-0.072
-250.049	-8.595	0.235	-0.156
-249.034	800.000	-0.070	0.234
-248.019	-200.000	-0.014	-0.095
-247.005	-91.220	-0.050	-0.014
-245.990	-40.204	-0.448	-0.230
-244.976	-200.000	-0.058	-0.351
-243.961	159.729	-0.118	0.163
-242.946	55.156	0.070	-0.067
-241.932	-46.999	-0.107	0.052
-240.917	-168.428	0.401	0.015
-239.903	-200.000	-0.006	-0.126
-238.888	-46.927	0.168	-0.081
-237.873	-112.538	0.060	0.012
-236.859	386.375	-0.150	-0.305
-235.844	-195.838	-0.101	-0.001
-234.830	725.439	-0.087	-0.229
-233.815	-74.541	-0.269	0.096
-232.800	-58.804	-0.048	-0.021
-231.786	-133.239	0.218	0.027
-230.771	24.950	-0.035	0.028
-229.757	-77.093	0.084	0.029
-228.742	27.180	0.284	0.235
-227.727	-200.000	-0.031	0.186
-226.713	800.000	0.063	0.263
-225.698	517.730	0.067	0.155
-224.684	-136.213	0.155	-0.018
-223.669	113.339	0.178	0.213
-222.655	121.343	-0.101	-0.124
-221.640	-87.465	0.351	0.105
-220.625	74.730	-0.348	-0.361
-219.611	378.016	-0.144	0.291
-218.596	-19.540	0.086	-0.053
-217.582	-35.906	0.281	-0.150
-216.567	369.108	0.059	0.118
-215.552	-200.000	0.038	0.365
-214.538	-16.852	0.129	0.080
-213.523	-194.086	0.186	0.002
-212.509	-138.138	-0.305	0.033
-211.494	-121.033	0.129	0.021
-210.479	-70.589	0.217	-0.081
-209.465	-24.980	0.126	-0.074
-208.450	-200.000	-0.009	0.103
-207.436	800.000	0.040	-0.125
-206.421	-79.544	-0.241	0.080
-205.406	-64.844	0.148	0.059
-204.392	141.666	-0.110	0.144
-203.377	-200.000	0.031	0.230
-202.363	-200.000	0.010	-0.200
-201.348	306.450	-0.028	-0.051
-200.333	251.675	0.063	-0.106
-199.319	-107.634	0.207	0.045
-198.304	-53.861	-0.236	-0.106
-197.290	-57.323	0.110	0.048
-196.275	-158.494	-0.290	0.017
-195.260	-200.000	0.016	0.095
-194.246	34.367	0.314	0.270
-193.231	422.970	0.115	-0.243
-192.217	547.079	0.017	-0.040
-191.202	800.000	0.064	-0.205
-190.187	374.488	-0.121	0.243
-189.173	-107.860	0.038	0.008
-188.158	-67.605	-0.214	-0.083
-187.144	-51.842	0.255	0.117
-186.129	303.502	-0.243	0.444
-185.114	-200.000	0.080	0.387
-184.100	-37.992	-0.229	-0.120
-183.085	-200.000	-0.039	0.298
-182.071	140.613	0.035	0.046
-181.056	-57.371	-0.287	0.124
-180.042	422.841	0.074	0.156
-179.027	110.118	-0.138	0.163
-178.012	800.000	-0.041	0.126
-176.998	242.881	0.089	0.147
-175.983	107.739	-0.119	0.140
-174.969	-200.000	-0.003	0.032
-173.954	800.000	0.052	0.218
-172.939	-63.596	-0.289	0.117
-171.925	152.793	0.151	0.204
-170.910	-15.671	-0.148	-0.093
-169.896	800.000	-0.038	-0.131
-168.881	-133.078	-0.104	-0.013
-167.866	-145.371	-0.143	-0.013
-166.852	-33.568	0.119	0.065
-165.837	-158.289	0.288	-0.017
-164.823	30.174	0.103	0.086
-163.808	800.000	0.079	-0.246
-162.793	310.048	-0.068	0.125
-161.779	-144.948	0.092	0.008
-160.764	-200.000	0.004	-0.084
-159.750	-200.000	0.010	-0.249
-158.735	-118.262	0.278	-0.049
-157.720	99.043	0.084	-0.096
-156.706	-200.000	-0.024	0.330
-155.691	469.397	0.135	-0.298
-154.677	-6.447	0.085	0.057
-153.662	-163.412	0.182	-0.009
-152.647	-85.029	-0.132	-0.041
-151.633	93.543	-0.105	-0.117
-150.618	114.341	0.102	-0.123
-149.604	-156.358	-0.216	-0.013
-148.589	651.434	0.054	-0.137
-147.574	401.324	0.044	0.090
-146.560	27.545	-0.136	0.112
-145.545	215.528	0.198	-0.310
-144.531	-19.240	-0.458	-0.280
-143.516	7.253	-0.277	-0.204
-142.502	34.384	-0.219	-0.188
-141.487	-200.000	0.033	0.240
-140.472	-93.970	0.368	0.099
-139.458	-145.786	-0.219	-0.019
-138.443	800.000	0.044	0.177
-137.429	25.411	0.309	-0.252
-136.414	-102.374	0.371	0.087
-135.399	-200.000	0.027	-0.244
-134.385	800.000	-0.023	0.066
-133.370	-200.000	-0.003	0.043
-132.356	96.593	0.249	-0.280
-131.341	262.217	-0.093	-0.158
-130.326	27.632	-0.131	-0.108
-129.312	363.796	0.127	-0.251
-128.297	2.600	-0.207	-0.148
-127.283	800.000	-0.088	-0.323
-126.268	143.226	-0.110	-0.144
-125.253	3.466	-0.217	0.156
-124.239	-7.227	0.141	-0.094
-123.224	-58.239	0.185	0.079
-122.210	105.042	-0.253	0.294
