DTS Sentinel unit serial number:	SN413079Multiplexer serial number:	ORYXHardware model number:	OX4-SRSoftware version number:	ORYX F/W v4.00 Oryx Data Collector v3.7.2.0data status	okinstallation	princeton_trtdifferential loss correction	single-endedforward channel	channel 3reverse channel	N/Adate	2019/09/16time	17:00:35forward acquisition time	60.00reverse acquisition time	0.00gamma	496.2192k internal	0.2295k external	0.2295temperature offset calibration	0.9942default loss term (dB/km)	0.3790temperature slope calibration	1.0000multiplexer offset coefficient	1.0000multiplexer slope coefficient	1.0000fibre end	0.00T internal ref (°C)	39.31T ext. ref 1 (°C)	15.28T ext. ref 2 (°C)	33.60length (m)	temperature (°C)	Stokes	anti-Stokes-747.200	-104.855	0.192	-0.045
-746.185	-72.793	-0.139	0.052
-745.171	-200.000	-0.025	-0.115
-744.156	800.000	0.031	0.091
-743.142	-200.000	-0.042	0.206
-742.127	-131.983	-0.301	0.040
-741.112	775.892	0.169	0.473
-740.098	-200.000	-0.044	0.399
-739.083	200.529	0.079	-0.123
-738.069	-187.624	-0.179	0.002
-737.054	221.490	-0.129	-0.211
-736.039	-200.000	-0.005	0.068
-735.025	102.847	0.114	0.136
-734.010	324.841	0.079	-0.155
-732.996	-102.579	0.282	-0.069
-731.981	457.594	0.032	0.073
-730.966	-200.000	-0.009	0.133
-729.952	612.933	-0.005	-0.014
-728.937	-200.000	-0.052	-0.252
-727.923	549.158	-0.081	-0.199
-726.908	257.724	0.142	-0.250
-725.894	252.728	0.116	0.202
-724.879	-129.605	-0.352	-0.050
-723.864	-200.000	0.048	-0.218
-722.850	31.715	0.234	-0.205
-721.835	98.904	-0.122	-0.144
-720.821	-18.027	-0.126	0.080
-719.806	-45.516	-0.168	-0.085
-718.791	228.735	-0.163	-0.271
-717.777	16.305	0.116	0.093
-716.762	12.320	0.152	0.119
-715.748	-173.350	0.142	-0.004
-714.733	44.200	-0.126	-0.118
-713.718	-34.584	-0.185	0.103
-712.704	-105.943	0.074	0.017
-711.689	-108.000	0.098	0.022
-710.675	710.486	-0.064	-0.172
-709.660	-200.000	0.052	-0.390
-708.645	-86.228	0.156	-0.049
-707.631	800.000	0.072	0.261
-706.616	-0.121	0.429	-0.312
-705.602	-38.882	0.207	-0.111
-704.587	83.205	0.286	-0.318
-703.572	-53.875	0.206	0.096
-702.558	-152.382	-0.191	-0.014
-701.543	-140.172	-0.354	-0.038
-700.529	-71.416	-0.152	-0.058
-699.514	800.000	-0.059	0.206
-698.499	16.279	0.197	-0.159
-697.485	-200.000	0.094	0.446
-696.470	24.876	0.103	0.087
-695.456	-191.477	-0.105	0.001
-694.441	-64.620	-0.220	-0.091
-693.426	600.400	-0.169	-0.428
-692.412	115.859	-0.119	-0.148
-691.397	-153.565	-0.066	0.005
-690.383	-63.011	0.339	0.143
-689.368	-200.000	0.002	-0.050
-688.354	-91.512	0.161	-0.047
-687.339	-136.122	-0.434	0.052
-686.324	-200.000	-0.022	0.167
-685.310	-200.000	0.003	-0.467
-684.295	66.648	0.152	-0.157
-683.281	-85.765	-0.139	-0.044
-682.266	-200.000	0.042	0.352
-681.251	-51.463	-0.278	0.133
-680.237	-105.386	-0.252	0.059
-679.222	155.265	-0.101	-0.141
-678.208	-49.653	-0.146	-0.071
-677.193	-138.304	-0.263	-0.030
-676.178	203.071	-0.058	-0.092
-675.164	-23.942	-0.088	-0.054
-674.149	-39.215	-0.104	-0.056
-673.135	93.687	0.420	0.485
-672.120	-134.130	-0.382	0.048
-671.105	174.122	-0.010	0.014
-670.091	800.000	-0.049	-0.204
-669.076	-92.497	-0.205	-0.059
-668.062	115.762	-0.106	-0.133
-667.047	-20.141	-0.197	0.124
-666.032	-200.000	0.040	-0.221
-665.018	800.000	0.050	0.207
-664.003	-200.000	0.012	-0.082
-662.989	800.000	0.033	-0.136
-661.974	-41.028	0.068	0.036
-660.959	799.697	-0.121	-0.339
-659.945	-24.959	0.107	0.064
-658.930	53.282	-0.130	0.126
-657.916	-50.555	0.090	0.043
-656.901	-41.917	-0.089	0.047
-655.886	574.280	-0.105	-0.260
-654.872	-158.430	0.209	0.012
-653.857	80.953	0.181	0.199
-652.843	800.000	-0.059	-0.211
-651.828	800.000	0.122	-0.367
-650.814	-200.000	0.056	0.308
-649.799	-101.304	0.081	0.020
-648.784	367.777	-0.126	-0.258
-647.770	-200.000	0.004	-0.295
-646.755	293.386	0.107	0.198
-645.741	324.414	-0.190	-0.369
-644.726	-27.846	0.086	-0.051
-643.711	-15.168	-0.227	0.148
-642.697	87.600	0.097	0.109
-641.682	-200.000	-0.025	-0.390
-640.668	-200.000	0.004	-0.271
-639.653	43.183	-0.338	-0.314
-638.638	50.804	0.164	0.159
-637.624	-3.032	-0.008	-0.005
-636.609	-130.250	-0.216	0.030
-635.595	-135.683	-0.068	0.008
-634.580	19.151	-0.054	0.044
-633.565	64.825	0.045	-0.046
-632.551	113.740	0.165	-0.204
-631.536	2.449	0.123	0.091
-630.522	-2.082	-0.475	-0.339
-629.507	-136.968	0.286	-0.033
-628.492	18.855	-0.174	-0.141
-627.478	800.000	-0.077	-0.269
-626.463	64.962	-0.111	-0.114
-625.449	800.000	0.054	-0.187
-624.434	-2.724	0.069	0.049
-623.419	-9.069	-0.586	-0.399
-622.405	-200.000	0.008	-0.243
-621.390	122.688	0.168	0.214
-620.376	-47.912	0.150	0.074
-619.361	14.807	0.231	-0.183
-618.346	-200.000	-0.057	0.314
-617.332	-44.380	-0.465	-0.237
-616.317	73.223	-0.164	0.174
-615.303	800.000	0.084	0.373
-614.288	-74.428	0.405	-0.149
-613.273	-61.100	-0.093	-0.040
-612.259	236.409	0.087	-0.146
-611.244	208.795	-0.160	-0.255
-610.230	-128.374	-0.294	0.042
-609.215	800.000	-0.132	0.426
-608.201	505.141	-0.066	-0.155
-607.186	-172.520	0.395	-0.013
-606.171	113.636	0.018	-0.022
-605.157	-200.000	-0.070	0.419
-604.142	-200.000	0.006	0.045
-603.128	-200.000	0.026	-0.392
-602.113	67.467	0.199	-0.207
-601.098	-110.420	0.041	0.009
-600.084	-115.467	0.099	0.019
-599.069	-109.127	-0.266	0.057
-598.055	427.995	-0.103	0.226
-597.040	-67.011	-0.122	0.049
-596.025	-96.873	0.253	0.067
-595.011	-120.748	-0.315	-0.054
-593.996	-127.150	-0.086	0.013
-592.982	205.527	0.055	0.087
-591.967	189.091	0.185	0.282
-590.952	-133.358	-0.147	0.019
-589.938	-150.147	0.231	-0.018
-588.923	-34.803	-0.349	-0.194
-587.909	5.782	0.205	0.154
-586.894	149.718	-0.121	0.167
-585.879	-67.675	-0.445	-0.177
-584.865	-17.356	0.453	0.290
-583.850	584.273	0.020	0.049
-582.836	800.000	0.054	0.164
-581.821	-200.000	0.050	-0.237
-580.806	-68.809	0.081	-0.032
-579.792	-35.737	-0.161	0.089
-578.777	399.419	0.105	0.223
-577.763	33.023	-0.108	-0.095
-576.748	-71.760	-0.371	-0.141
-575.733	-84.777	0.336	-0.107
-574.719	-139.618	0.072	-0.008
-573.704	-33.343	0.146	0.082
-572.690	-87.998	-0.291	-0.089
-571.675	-6.414	-0.179	-0.124
-570.661	434.317	-0.112	0.248
-569.646	-147.944	-0.120	0.010
-568.631	800.000	0.034	-0.132
-567.617	-99.346	-0.254	0.065
-566.602	800.000	-0.044	-0.179
-565.588	300.990	-0.043	-0.080
-564.573	-182.168	-0.081	0.002
-563.558	51.981	-0.110	0.107
-562.544	-130.017	0.179	0.025
-561.529	29.628	-0.228	0.197
-560.515	-6.006	-0.081	0.056
-559.500	-150.779	-0.205	0.016
-558.485	339.096	0.040	-0.079
-557.471	92.882	0.053	0.061
-556.456	-86.440	-0.065	0.020
-555.442	-200.000	0.097	-0.000
-554.427	-200.000	0.028	0.170
-553.412	-9.227	-0.094	-0.064
-552.398	95.688	-0.084	0.098
-551.383	138.723	0.126	0.167
-550.369	124.504	0.109	0.139
-549.354	800.000	-0.012	0.045
-548.339	-122.610	-0.102	-0.017
-547.325	78.724	0.140	0.152
-546.310	-150.219	-0.072	0.006
-545.296	-200.000	0.031	-0.137
-544.281	-200.000	-0.017	0.113
-543.266	84.295	-0.026	0.029
-542.252	800.000	-0.085	-0.285
-541.237	-155.195	-0.318	-0.021
-540.223	-57.885	-0.087	-0.038
-539.208	23.479	-0.203	-0.170
-538.193	51.392	0.043	-0.042
-537.179	-147.393	-0.184	-0.016
-536.164	162.721	0.176	-0.251
-535.150	-91.888	0.229	-0.066
-534.135	36.039	-0.165	0.147
-533.121	-200.000	0.011	0.194
-532.106	-155.944	0.132	0.009
-531.091	-149.004	0.232	-0.019
-530.077	-200.000	0.031	0.256
-529.062	9.393	0.220	-0.169
-528.048	35.660	-0.171	0.152
-527.033	32.193	0.043	0.038
-526.018	779.860	-0.050	-0.139
-525.004	-65.542	-0.388	-0.158
-523.989	800.000	-0.040	-0.172
-522.975	-46.548	-0.137	0.068
-521.960	62.464	0.144	0.146
-520.945	-96.099	0.138	-0.037
-519.931	169.859	0.156	-0.225
-518.916	55.717	0.117	-0.115
-517.902	800.000	-0.025	-0.110
-516.887	-88.945	0.085	0.026
-515.872	57.873	-0.191	-0.189
-514.858	800.000	-0.022	-0.077
-513.843	-200.000	0.032	0.148
-512.829	-88.147	-0.425	-0.129
-511.814	8.590	-0.260	-0.198
-510.799	178.717	-0.119	-0.175
-509.785	-109.909	-0.266	-0.056
-508.770	96.076	-0.061	0.070
-507.756	-73.409	-0.223	-0.082
-506.741	498.341	0.113	0.263
-505.726	-40.618	-0.303	0.159
-504.712	251.634	0.237	0.408
-503.697	-30.366	0.102	-0.059
-502.683	-144.120	-0.298	0.028
-501.668	-116.526	-0.176	0.033
-500.653	-63.812	0.162	-0.067
-499.639	41.065	-0.153	-0.140
-498.624	297.961	-0.147	0.273
-497.610	800.000	0.088	0.306
-496.595	-135.320	0.123	-0.015
-495.581	342.948	0.077	-0.153
-494.566	-200.000	0.043	-0.294
-493.551	800.000	-0.148	-0.488
-492.537	-153.201	0.139	0.010
-491.522	-95.925	0.237	-0.064
-490.508	-15.800	0.172	-0.111
-489.493	-200.000	-0.329	-0.001
-488.478	-200.000	0.055	0.261
-487.464	-131.592	-0.266	0.035
-486.449	-200.000	0.021	-0.178
-485.435	-200.000	0.004	0.089
-484.420	800.000	0.079	-0.232
-483.405	-55.016	0.174	0.079
-482.391	-32.774	0.175	0.098
-481.376	5.604	0.144	-0.108
-480.362	34.660	-0.284	0.251
-479.347	6.568	-0.176	-0.133
-478.332	61.730	-0.095	-0.096
-477.318	-74.696	-0.312	0.113
-476.303	800.000	-0.078	0.222
-475.289	-200.000	-0.002	-0.014
-474.274	526.356	-0.058	-0.138
-473.259	71.455	0.131	-0.138
-472.245	-55.901	-0.276	-0.125
-471.230	-0.798	-0.270	-0.194
-470.216	243.288	0.162	0.275
-469.201	20.022	-0.082	-0.067
-468.186	-62.813	-0.207	0.087
-467.172	-44.643	0.057	-0.029
-466.157	-151.504	0.397	-0.030
-465.143	-30.735	0.219	0.126
-464.128	-7.559	0.080	0.055
-463.113	-106.327	0.295	0.067
-462.099	457.930	0.102	-0.229
-461.084	-200.000	0.029	-0.236
-460.070	800.000	-0.073	0.205
-459.055	-144.181	0.433	-0.041
-458.040	-200.000	-0.039	-0.261
-457.026	91.475	0.238	0.271
-456.011	-200.000	0.014	-0.137
-454.997	-156.587	0.084	-0.005
-453.982	232.850	0.120	-0.199
-452.968	187.207	-0.069	-0.104
-451.953	-200.000	0.049	0.275
-450.938	-23.262	-0.219	0.133
-449.924	-145.230	0.252	0.023
-448.909	11.817	-0.190	0.147
-447.895	-61.112	0.273	-0.116
-446.880	22.484	0.221	-0.183
-445.865	192.259	0.033	0.050
-444.851	800.000	0.030	-0.115
-443.836	15.679	-0.148	0.117
-442.822	161.775	-0.032	0.045
-441.807	452.872	0.141	-0.315
-440.792	287.791	-0.172	-0.314
-439.778	84.378	0.067	0.074
-438.763	113.742	0.126	0.155
-437.749	-63.508	0.096	0.040
-436.734	800.000	-0.044	-0.158
-435.719	131.260	0.066	-0.085
-434.705	213.368	0.160	0.255
-433.690	-22.019	0.105	0.064
-432.676	667.884	-0.010	0.027
-431.661	82.304	0.123	0.135
-430.646	187.735	-0.097	0.147
-429.632	109.558	0.098	-0.119
-428.617	-31.701	0.295	-0.167
-427.603	189.050	0.089	-0.135
-426.588	89.776	0.187	0.210
-425.573	-200.000	0.100	0.488
-424.559	229.230	-0.123	-0.203
-423.544	-7.538	-0.331	-0.226
-422.530	-200.000	0.004	0.373
-421.515	-200.000	0.042	0.353
-420.500	-200.000	0.009	0.278
-419.486	95.359	-0.177	-0.204
-418.471	-50.699	0.311	-0.148
-417.457	800.000	-0.096	0.269
-416.442	-200.000	0.002	0.136
-415.428	34.293	0.090	-0.079
-414.413	-59.930	0.076	0.033
-413.398	165.842	-0.149	-0.212
-412.384	143.822	0.116	-0.156
-411.369	381.536	0.005	0.010
-410.355	800.000	0.089	-0.273
-409.340	201.645	-0.207	-0.322
-408.325	46.961	-0.038	-0.036
-407.311	-14.551	-0.169	0.110
-406.296	800.000	-0.014	-0.053
-405.282	-112.996	-0.081	0.016
-404.267	-122.932	0.186	-0.030
-403.252	-121.568	-0.028	0.005
-402.238	-106.162	-0.193	-0.044
-401.223	166.171	0.130	0.185
-400.209	-166.664	0.359	0.015
-399.194	179.819	0.105	-0.155
-398.179	256.875	0.100	0.173
-397.165	47.674	0.137	0.129
-396.150	-20.038	0.206	0.128
-395.136	-105.141	-0.250	0.058
-394.121	173.774	-0.067	0.098
-393.106	81.732	-0.147	0.160
-392.092	-162.170	0.243	-0.012
-391.077	-200.000	-0.007	-0.219
-390.063	-22.353	-0.214	0.131
-389.048	-11.255	-0.223	0.148
-388.033	627.482	-0.065	-0.166
-387.019	-84.857	0.270	-0.085
-386.004	-1.107	0.075	-0.054
-384.990	-56.239	-0.304	-0.136
-383.975	-168.830	-0.276	-0.010
-382.960	-200.000	0.006	-0.033
-381.946	94.251	0.170	0.194
-380.931	800.000	0.085	0.262
-379.917	-95.743	0.498	-0.134
-378.902	341.124	0.086	-0.170
-377.888	-87.234	-0.273	0.084
-376.873	-53.702	0.165	-0.076
-375.858	-159.306	-0.059	0.003
-374.844	281.673	0.051	0.093
-373.829	-116.988	-0.268	-0.049
-372.815	124.276	0.198	0.250
-371.800	-200.000	0.078	0.446
-370.785	145.277	-0.081	0.110
-369.771	184.417	0.246	0.367
-368.756	-32.920	0.345	0.193
-367.742	-46.820	-0.101	0.050
-366.727	562.151	-0.114	-0.279
-365.712	800.000	0.061	0.217
-364.698	97.599	0.153	-0.178
-363.683	-200.000	0.091	-0.458
-362.669	40.838	-0.290	0.264
-361.654	344.423	-0.030	0.059
-360.639	-46.826	-0.204	0.101
-359.625	191.154	0.092	-0.140
-358.610	186.457	-0.045	-0.067
-357.596	511.456	0.093	-0.218
-356.581	-8.536	0.300	0.203
-355.566	-200.000	-0.020	-0.476
-354.552	16.579	-0.212	-0.169
-353.537	75.150	-0.281	-0.298
-352.523	9.332	-0.094	0.072
-351.508	42.123	0.278	-0.254
-350.493	-200.000	-0.046	0.234
-349.479	189.291	0.064	-0.096
-348.464	6.536	-0.122	-0.091
-347.450	800.000	0.083	0.287
-346.435	-161.774	-0.066	-0.003
-345.420	-200.000	-0.010	0.228
-344.406	800.000	0.096	-0.345
-343.391	-72.184	0.313	-0.117
-342.377	762.084	-0.054	-0.146
-341.362	12.697	0.216	-0.168
-340.348	186.846	0.110	0.165
-339.333	98.045	0.178	0.206
-338.318	-140.918	0.253	0.026
-337.304	26.921	0.317	-0.268
-336.289	774.592	0.069	-0.189
-335.275	91.983	0.167	-0.189
-334.260	-72.285	0.195	-0.073
-333.245	598.279	-0.028	0.071
-332.231	-200.000	-0.010	-0.375
-331.216	-6.630	-0.059	-0.041
-330.202	-99.486	0.082	-0.021
-329.187	-160.189	-0.205	0.011
-328.172	-59.899	0.293	-0.126
-327.158	79.846	0.112	0.121
-326.143	-6.916	-0.175	0.119
-325.129	-8.849	0.323	0.218
-324.114	64.596	0.136	-0.138
-323.099	800.000	0.026	-0.102
-322.085	-200.000	0.020	-0.130
-321.070	24.527	0.301	0.250
-320.056	-200.000	0.034	-0.205
-319.041	-10.973	0.031	-0.021
-318.026	-25.848	-0.075	0.045
-317.012	800.000	-0.077	-0.289
-315.997	-48.004	0.105	-0.051
-314.983	-200.000	-0.049	-0.329
-313.968	28.964	-0.058	-0.049
-312.953	-29.542	0.296	0.170
-311.939	-200.000	0.034	-0.167
-310.924	24.938	0.207	-0.173
-309.910	800.000	0.065	0.185
-308.895	21.689	-0.167	0.136
-307.880	-144.957	-0.088	-0.008
-306.866	225.511	-0.111	-0.180
-305.851	-124.473	-0.120	-0.019
-304.837	131.063	0.024	0.030
-303.822	-112.158	0.355	-0.072
-302.807	-19.330	0.082	-0.051
-301.793	800.000	0.086	0.253
-300.778	170.416	-0.013	-0.018
-299.764	144.074	-0.037	-0.049
-298.749	308.687	-0.062	-0.116
-297.735	556.957	-0.127	0.308
-296.720	-90.600	-0.252	0.073
-295.705	35.996	-0.148	0.131
-294.691	-8.025	-0.056	0.038
-293.676	66.653	0.271	-0.277
-292.662	-106.377	0.122	0.027
-291.647	456.296	-0.063	0.141
-290.632	738.733	0.086	0.232
-289.618	352.807	-0.042	-0.083
-288.603	-41.016	-0.201	0.104
-287.589	41.378	0.114	-0.103
-286.574	-103.181	-0.319	0.076
-285.559	-200.000	0.025	-0.232
-284.545	-182.727	-0.060	0.001
-283.530	800.000	0.070	0.293
-282.516	-200.000	-0.012	0.130
-281.501	-137.317	-0.194	0.022
-280.486	-124.066	-0.156	0.025
-279.472	-200.000	-0.072	0.349
-278.457	493.605	-0.056	0.130
-277.443	230.701	0.133	-0.219
-276.428	-200.000	-0.033	-0.286
-275.413	6.700	0.030	0.023
-274.399	-61.696	0.331	0.139
-273.384	170.678	-0.149	-0.215
-272.370	-122.898	0.067	0.011
-271.355	430.013	-0.075	0.162
-270.340	130.061	-0.207	-0.266
-269.326	596.885	0.047	0.118
-268.311	175.976	-0.128	0.186
-267.297	-200.000	-0.011	0.135
-266.282	-129.465	0.172	-0.024
-265.267	36.801	0.239	0.212
-264.253	134.079	0.038	-0.049
-263.238	53.670	-0.332	0.319
-262.224	800.000	-0.022	-0.088
-261.209	-141.669	-0.278	0.028
-260.195	324.730	0.140	0.267
-259.180	304.578	-0.053	0.099
-258.165	-200.000	0.056	0.349
-257.151	800.000	-0.007	0.022
-256.136	229.950	-0.114	0.186
-255.122	-107.125	-0.122	0.027
-254.107	-194.541	-0.329	-0.003
-253.092	18.086	-0.205	-0.164
-252.078	-171.427	-0.140	-0.005
-251.063	-200.000	-0.001	-0.026
-250.049	-151.519	0.448	0.033
-249.034	-19.805	0.105	0.065
-248.019	136.117	-0.179	0.234
-247.005	-21.710	0.104	-0.063
-245.990	-200.000	-0.012	0.239
-244.976	800.000	-0.073	0.283
-243.961	-200.000	-0.004	0.048
-242.946	-182.644	0.327	0.006
-241.932	660.815	0.068	0.175
-240.917	301.117	0.157	-0.291
-239.903	-187.937	0.141	0.002
-238.888	-96.331	0.176	-0.047
-237.873	-200.000	-0.025	-0.148
-236.859	-80.021	0.150	0.050
-235.844	87.534	0.140	0.155
-234.830	148.828	-0.057	0.078
-233.815	249.494	0.078	-0.132
-232.800	800.000	-0.057	-0.163
-231.786	-102.702	0.197	0.047
-230.771	-56.606	-0.450	0.200
-229.757	-66.192	0.429	0.171
-228.742	800.000	0.053	0.232
-227.727	-22.163	-0.309	-0.188
-226.713	-154.959	0.151	0.010
-225.698	-77.266	-0.305	0.106
-224.684	-158.645	-0.140	0.008
-223.669	185.512	0.143	-0.213
-222.655	570.185	0.082	-0.201
-221.640	147.044	0.183	0.246
-220.625	74.395	-0.156	0.164
-219.611	263.964	0.095	0.166
-218.596	-13.798	-0.120	0.078
-217.582	637.924	0.050	-0.127
-216.567	10.574	0.062	0.048
-215.552	111.279	-0.272	0.329
-214.538	-200.000	0.007	-0.205
-213.523	-130.262	0.113	-0.015
-212.509	-17.213	0.228	-0.144
-211.494	800.000	-0.040	-0.122
-210.479	47.209	-0.219	-0.204
-209.465	-127.824	0.211	-0.031
-208.450	6.040	-0.281	-0.208
-207.436	66.784	-0.024	-0.025
-206.421	81.217	0.163	0.176
-205.406	-200.000	0.010	-0.319
-204.392	2.701	-0.014	-0.010
-203.377	-7.150	0.178	-0.121
-202.363	-118.623	-0.329	-0.058
-201.348	130.628	0.234	0.300
-200.333	-200.000	0.048	0.218
-199.319	-1.517	0.187	-0.132
-198.304	35.813	0.064	0.056
-197.290	-76.533	0.267	-0.094
-196.275	338.642	0.076	0.149
-195.260	-200.000	0.007	0.067
-194.246	101.103	0.145	-0.169
-193.231	-140.666	-0.392	0.041
-192.217	-160.575	0.074	-0.004
-191.202	800.000	0.094	0.295
-190.187	123.273	-0.114	0.143
-189.173	-122.542	0.009	-0.001
-188.158	78.993	-0.188	-0.201
-187.144	-63.545	-0.155	-0.064
-186.129	-111.250	-0.269	-0.055
-185.114	-200.000	-0.015	0.185
-184.100	-200.000	-0.019	-0.182
-183.085	800.000	0.081	0.226
-182.071	-28.037	0.024	0.014
-181.056	280.068	-0.151	-0.269
-180.042	-200.000	0.035	-0.193
-179.027	-141.004	-0.212	0.022
-178.012	91.847	0.180	0.202
-176.998	-65.854	-0.442	0.177
-175.983	270.512	0.063	0.111
-174.969	6.926	-0.161	0.120
-173.954	54.287	0.182	-0.176
-172.939	-4.786	0.238	-0.164
-171.925	-23.482	0.223	-0.134
-170.910	-200.000	-0.033	0.165
-169.896	-200.000	0.047	0.222
-168.881	28.805	0.109	-0.092
-167.866	75.228	-0.071	-0.074
-166.852	103.321	0.198	0.232
-165.837	27.021	0.219	-0.183
-164.823	-79.885	-0.103	0.035
-163.808	86.534	-0.184	0.202
-162.793	-200.000	0.009	-0.116
-161.779	-200.000	-0.003	-0.189
-160.764	-31.425	0.271	0.152
-159.750	800.000	-0.050	0.167
-158.735	-108.779	-0.281	0.060
-157.720	-128.246	-0.296	-0.042
-156.706	-62.468	-0.370	-0.154
-155.691	-200.000	0.005	0.563
-154.677	218.074	-0.112	0.179
-153.662	800.000	0.074	-0.217
-152.647	118.133	0.059	0.073
-151.633	7.740	-0.061	-0.046
-150.618	-22.773	0.096	-0.058
-149.604	704.030	-0.081	0.214
-148.589	-120.679	0.226	-0.038
-147.574	139.953	-0.231	-0.304
-146.560	-84.128	0.161	-0.051
-145.545	800.000	-0.058	0.170
-144.531	-124.856	0.127	-0.020
-143.516	115.610	0.132	-0.161
-142.502	163.849	0.056	-0.079
-141.487	214.343	-0.080	-0.127
-140.472	-159.170	-0.159	0.009
-139.458	-200.000	0.037	-0.227
-138.443	-26.578	0.125	0.073
-137.429	-8.459	-0.276	-0.185
-136.414	-200.000	-0.053	0.276
-135.399	800.000	0.047	0.154
-134.385	-200.000	0.008	-0.046
-133.370	271.111	-0.129	-0.227
-132.356	128.237	0.085	-0.108
-131.341	782.101	-0.055	0.151
-130.326	-200.000	0.022	-0.110
-129.312	-38.711	0.483	-0.254
-128.297	14.416	-0.175	-0.136
-127.283	23.293	-0.379	0.310
-126.268	-30.795	-0.133	0.075
-125.253	-43.050	-0.070	0.035
-124.239	-170.287	-0.116	0.004
-123.224	800.000	0.032	-0.114
-122.210	-46.105	-0.193	-0.095
-121.195	-92.352	0.204	0.057
-120.180	-86.667	-0.138	0.042
