DTS Sentinel unit serial number:	SN413079Multiplexer serial number:	ORYXHardware model number:	OX4-SRSoftware version number:	ORYX F/W v4.00 Oryx Data Collector v3.7.2.0data status	okinstallation	princeton_trtdifferential loss correction	single-endedforward channel	channel 3reverse channel	N/Adate	2019/09/17time	00:28:35forward acquisition time	60.00reverse acquisition time	0.00gamma	496.2192k internal	0.2325k external	0.2325temperature offset calibration	0.9941default loss term (dB/km)	0.3790temperature slope calibration	1.0000multiplexer offset coefficient	1.0000multiplexer slope coefficient	1.0000fibre end	0.00T internal ref (°C)	29.50T ext. ref 1 (°C)	0.10T ext. ref 2 (°C)	23.74length (m)	temperature (°C)	Stokes	anti-Stokes-747.200	-200.000	0.042	-0.191
-746.185	-200.000	0.047	0.252
-745.171	-200.000	0.013	-0.221
-744.156	119.939	-0.056	0.070
-743.142	481.832	0.065	0.149
-742.127	449.725	0.102	0.226
-741.112	-170.894	0.062	-0.002
-740.098	706.255	0.068	-0.182
-739.083	-47.939	-0.264	0.129
-738.069	-200.000	0.010	0.349
-737.054	-23.447	-0.267	-0.162
-736.039	-58.979	0.093	-0.041
-735.025	88.785	0.309	0.346
-734.010	15.381	-0.361	-0.286
-732.996	4.074	0.220	-0.162
-731.981	604.032	-0.113	0.284
-730.966	-95.132	0.202	0.055
-729.952	7.698	-0.136	-0.103
-728.937	-31.736	-0.262	0.148
-727.923	305.465	-0.087	-0.162
-726.908	-38.534	0.118	-0.063
-725.894	-53.816	-0.270	0.124
-724.879	-101.547	0.047	-0.011
-723.864	-200.000	0.003	0.048
-722.850	49.571	-0.431	-0.409
-721.835	321.790	-0.102	-0.196
-720.821	26.221	-0.059	-0.050
-719.806	781.509	-0.026	-0.072
-718.791	-200.000	0.013	0.090
-717.777	-30.698	0.218	-0.124
-716.762	-29.184	-0.187	-0.108
-715.748	-38.767	0.136	-0.072
-714.733	395.770	0.034	0.073
-713.718	-121.488	-0.471	-0.079
-712.704	66.174	0.070	-0.072
-711.689	-70.535	-0.268	-0.102
-710.675	-92.659	-0.251	0.071
-709.660	-200.000	0.045	-0.253
-708.645	477.931	-0.044	0.101
-707.631	-200.000	-0.002	0.009
-706.616	-200.000	0.039	-0.271
-705.602	-2.475	0.101	0.071
-704.587	154.385	-0.095	0.132
-703.572	800.000	0.057	0.239
-702.558	-30.987	0.342	0.195
-701.543	104.355	-0.159	0.189
-700.529	-4.782	0.354	0.246
-699.514	-66.186	-0.252	-0.101
-698.499	-109.407	0.136	-0.029
-697.485	-25.200	-0.097	-0.058
-696.470	151.195	-0.112	-0.154
-695.456	587.587	0.061	-0.151
-694.441	59.592	-0.203	-0.201
-693.426	153.860	0.186	-0.256
-692.412	-99.070	-0.099	-0.025
-691.397	800.000	0.062	-0.181
-690.383	89.196	-0.056	0.063
-689.368	-173.526	0.181	0.005
-688.354	-200.000	0.031	-0.251
-687.339	184.974	0.190	0.284
-686.324	-200.000	-0.048	0.388
-685.310	800.000	0.053	-0.177
-684.295	155.994	-0.127	0.176
-683.281	-128.532	-0.190	-0.027
-682.266	800.000	-0.122	0.342
-681.251	-56.878	-0.058	0.026
-680.237	44.308	0.111	-0.103
-679.222	-41.618	0.138	-0.072
-678.208	800.000	0.028	0.088
-677.193	21.442	0.067	0.055
-676.178	-154.952	0.113	-0.007
-675.164	53.915	-0.165	-0.159
-674.149	618.517	0.029	0.073
-673.135	49.583	-0.163	-0.154
-672.120	-200.000	0.004	-0.105
-671.105	-200.000	0.040	-0.362
-670.091	-44.646	0.148	0.074
-669.076	-64.897	-0.196	-0.080
-668.062	-81.197	0.206	0.068
-667.047	676.783	-0.152	-0.397
-666.032	-114.642	0.188	-0.036
-665.018	458.979	0.064	0.143
-664.003	-98.043	0.393	0.102
-662.989	-200.000	-0.002	0.063
-661.974	62.313	-0.175	-0.175
-660.959	61.478	0.374	0.374
-659.945	-79.952	-0.172	0.058
-658.930	-200.000	0.034	-0.239
-657.916	-200.000	-0.005	0.061
-656.901	-59.145	0.141	0.061
-655.886	92.307	-0.051	-0.058
-654.872	-200.000	-0.002	-0.128
-653.857	17.790	0.265	-0.212
-652.843	-120.123	-0.267	0.046
-651.828	642.218	-0.091	0.232
-650.814	-126.493	-0.165	-0.025
-649.799	-200.000	0.008	-0.077
-648.784	13.259	0.083	-0.065
-647.770	800.000	0.019	-0.078
-646.755	134.473	0.116	0.151
-645.741	17.079	-0.201	-0.160
-644.726	1.474	0.146	0.106
-643.711	800.000	-0.055	-0.201
-642.697	-173.163	0.208	-0.006
-641.682	169.900	0.214	-0.308
-640.668	-66.188	-0.245	-0.098
-639.653	129.007	-0.145	-0.186
-638.638	-183.376	-0.154	-0.003
-637.624	89.843	-0.059	-0.066
-636.609	0.693	-0.154	-0.111
-635.595	-189.348	0.172	0.002
-634.580	-200.000	0.028	-0.167
-633.565	-84.391	0.080	0.025
-632.551	363.376	0.069	-0.139
-631.536	-64.109	0.224	-0.092
-630.522	134.309	0.047	-0.061
-629.507	350.002	-0.236	-0.469
-628.492	121.894	-0.178	0.223
-627.478	800.000	0.081	-0.338
-626.463	-64.366	-0.228	-0.093
-625.449	-200.000	-0.018	-0.135
-624.434	118.615	-0.045	-0.056
-623.419	-88.962	-0.117	-0.035
-622.405	800.000	-0.130	0.516
-621.390	-40.935	-0.154	-0.080
-620.376	-75.373	-0.193	0.069
-619.361	534.215	-0.077	0.183
-618.346	131.483	-0.144	-0.186
-617.332	-71.274	-0.158	-0.060
-616.317	-88.563	0.431	0.129
-615.303	-166.915	-0.289	-0.012
-614.288	211.523	-0.217	0.343
-613.273	-120.827	0.263	-0.045
-612.259	533.637	-0.054	-0.128
-611.244	162.562	-0.160	-0.225
-610.230	-50.225	0.394	0.187
-609.215	128.392	0.131	0.167
-608.201	-186.417	-0.156	-0.002
-607.186	-200.000	-0.001	-0.067
-606.171	-38.109	0.166	0.088
-605.157	11.883	-0.222	0.171
-604.142	-164.212	0.292	0.013
-603.128	-35.677	0.169	0.092
-602.113	157.658	-0.098	-0.136
-601.098	190.662	0.158	-0.239
-600.084	-100.328	0.164	-0.041
-599.069	215.384	0.413	-0.657
-598.055	800.000	-0.027	0.097
-597.040	-165.841	0.376	-0.016
-596.025	355.217	0.022	0.044
-595.011	-200.000	-0.026	0.232
-593.996	147.428	0.169	-0.228
-592.982	-151.881	0.338	-0.025
-591.967	624.098	-0.066	0.168
-590.952	-67.814	-0.067	-0.026
-589.938	-200.000	-0.058	0.385
-588.923	311.066	0.179	0.335
-587.909	800.000	-0.148	0.429
-586.894	301.982	-0.124	0.229
-585.879	-79.202	-0.194	0.066
-584.865	-74.409	0.116	0.042
-583.850	-6.045	-0.268	-0.184
-582.836	-92.546	0.181	-0.051
-581.821	-200.000	0.110	0.000
-580.806	38.238	-0.056	-0.050
-579.792	-24.996	-0.188	-0.112
-578.777	116.429	0.236	-0.290
-577.763	800.000	0.008	0.026
-576.748	200.267	-0.061	-0.094
-575.733	-200.000	0.043	-0.322
-574.719	-1.699	0.137	0.096
-573.704	299.779	-0.136	-0.252
-572.690	86.348	0.079	-0.088
-571.675	21.921	-0.036	-0.030
-570.661	52.783	-0.199	-0.191
-569.646	-101.189	-0.480	0.118
-568.631	-200.000	0.008	-0.336
-567.617	-132.864	-0.386	0.049
-566.602	-143.230	0.317	0.031
-565.588	-200.000	-0.005	-0.421
-564.573	48.119	-0.100	-0.093
-563.558	800.000	-0.030	0.108
-562.544	-200.000	0.040	-0.212
-561.529	120.150	-0.033	-0.041
-560.515	29.244	-0.293	0.249
-559.500	-77.138	-0.166	0.058
-558.485	96.611	0.104	-0.119
-557.471	-50.487	-0.167	-0.079
-556.456	274.441	-0.077	0.137
-555.442	-200.000	-0.022	0.401
-554.427	78.320	-0.235	-0.251
-553.412	-83.293	0.422	0.136
-552.398	98.430	-0.102	0.118
-551.383	800.000	-0.092	-0.256
-550.369	-9.850	-0.294	-0.196
-549.354	-187.114	-0.294	-0.004
-548.339	-200.000	0.031	0.304
-547.325	-197.014	0.271	0.002
-546.310	12.142	-0.105	0.081
-545.296	-0.269	-0.333	-0.237
-544.281	206.023	0.074	0.115
-543.266	27.550	-0.243	0.204
-542.252	201.394	-0.155	-0.239
-541.237	800.000	0.035	-0.140
-540.223	131.177	-0.346	0.445
-539.208	20.574	-0.104	0.085
-538.193	111.964	0.109	-0.132
-537.179	-143.345	0.263	0.025
-536.164	781.602	0.138	-0.378
-535.150	-200.000	-0.018	0.086
-534.135	244.433	0.087	0.146
-533.121	-65.889	0.228	0.091
-532.106	-200.000	-0.078	-0.442
-531.091	159.521	-0.088	0.123
-530.077	-55.379	-0.036	-0.016
-529.062	-115.534	0.226	0.043
-528.048	-200.000	0.012	0.125
-527.033	124.988	-0.081	-0.102
-526.018	49.698	-0.207	0.195
-525.004	-200.000	-0.022	-0.332
-523.989	319.543	0.096	0.182
-522.975	209.609	-0.121	-0.190
-521.960	-29.155	-0.128	0.073
-520.945	-90.621	-0.433	-0.125
-519.931	-87.619	0.091	0.027
-518.916	-200.000	-0.025	0.264
-517.902	369.541	0.165	-0.335
-516.887	57.258	0.188	0.183
-515.872	-174.286	0.424	0.012
-514.858	-200.000	0.015	0.166
-513.843	-200.000	-0.001	-0.253
-512.829	-27.419	0.263	0.153
-511.814	-41.699	0.217	-0.111
-510.799	6.514	0.265	-0.197
-509.785	-200.000	0.049	0.520
-508.770	333.485	0.062	0.119
-507.756	-127.838	-0.257	0.037
-506.741	264.648	0.124	0.216
-505.726	-66.520	0.176	0.070
-504.712	800.000	0.072	-0.218
-503.697	-119.711	-0.332	-0.057
-502.683	-65.868	0.134	0.053
-501.668	800.000	-0.061	0.172
-500.653	-19.153	0.292	0.181
-499.639	28.603	-0.112	0.095
-498.624	413.587	0.090	0.191
-497.610	-67.714	0.128	-0.050
-496.595	-86.958	-0.184	-0.056
-495.581	-55.836	-0.371	0.165
-494.566	800.000	-0.047	0.148
-493.551	-146.579	-0.343	0.030
-492.537	23.876	-0.159	0.131
-491.522	305.839	-0.272	-0.505
-490.508	-151.700	0.117	-0.009
-489.493	800.000	0.089	-0.340
-488.478	-47.499	0.268	0.130
-487.464	-200.000	0.067	0.482
-486.449	147.174	0.048	-0.064
-485.435	-200.000	-0.002	0.176
-484.420	-200.000	-0.000	-0.106
-483.405	-20.636	0.271	-0.166
-482.391	-200.000	0.036	-0.280
-481.376	-200.000	-0.051	0.561
-480.362	741.070	0.051	-0.136
-479.347	-99.227	0.238	-0.060
-478.332	-34.326	0.137	-0.075
-477.318	-145.500	0.145	-0.013
-476.303	-200.000	-0.027	0.169
-475.289	386.312	-0.044	-0.090
-474.274	-200.000	0.015	0.112
-473.259	-53.353	-0.278	-0.127
-472.245	-33.674	-0.273	-0.150
-471.230	33.593	-0.065	-0.057
-470.216	178.702	0.062	-0.090
-469.201	228.333	0.070	0.114
-468.186	547.833	-0.146	0.349
-467.172	-32.817	-0.254	0.141
-466.157	120.006	-0.041	0.050
-465.143	271.900	-0.174	-0.306
-464.128	-7.555	0.353	0.238
-463.113	-200.000	-0.010	-0.071
-462.099	113.995	-0.025	-0.030
-461.084	420.805	-0.123	0.264
-460.070	-50.662	0.124	-0.058
-459.055	-200.000	0.005	0.032
-458.040	-92.736	0.089	0.025
-457.026	-3.893	0.155	-0.107
-456.011	-152.509	-0.324	0.023
-454.997	-119.318	0.113	0.020
-453.982	369.337	-0.204	0.412
-452.968	24.968	-0.167	-0.138
-451.953	800.000	-0.061	0.183
-450.938	-119.634	-0.260	-0.045
-449.924	800.000	-0.068	-0.199
-448.909	-111.229	-0.074	-0.015
-447.895	-51.984	-0.106	0.049
-446.880	165.511	0.146	-0.206
-445.865	-66.561	-0.403	0.160
-444.851	632.310	-0.103	0.261
-443.836	530.412	0.057	-0.135
-442.822	-50.617	0.249	0.117
-441.807	-200.000	0.015	0.390
-440.792	800.000	-0.086	-0.263
-439.778	-200.000	-0.012	-0.106
-438.763	-44.778	0.050	-0.025
-437.749	800.000	-0.056	0.179
-436.734	170.799	0.152	-0.217
-435.719	-40.763	-0.134	-0.069
-434.705	-111.927	0.129	-0.026
-433.690	-200.000	-0.054	-0.363
-432.676	-200.000	-0.007	0.045
-431.661	-200.000	-0.021	0.240
-430.646	4.120	0.228	0.166
-429.632	94.337	-0.059	-0.067
-428.617	-155.452	0.324	0.021
-427.603	-60.791	-0.072	-0.030
-426.588	47.660	-0.199	0.185
-425.573	34.479	0.122	0.106
-424.559	-96.435	-0.226	-0.060
-423.544	425.472	-0.208	0.446
-422.530	176.473	0.072	0.105
-421.515	-114.506	0.308	-0.059
-420.500	603.218	0.096	-0.237
-419.486	-129.612	0.324	-0.045
-418.471	-37.531	0.254	0.135
-417.457	-63.054	0.246	-0.101
-416.442	-105.481	-0.079	-0.018
-415.428	173.299	-0.065	-0.094
-414.413	-34.526	0.100	0.054
-413.398	426.506	-0.176	0.377
-412.384	417.148	-0.054	0.116
-411.369	-37.764	0.096	-0.051
-410.355	-106.604	-0.199	-0.044
-409.340	648.084	0.040	-0.102
-408.325	96.205	-0.128	-0.146
-407.311	200.137	0.220	-0.336
-406.296	-74.404	-0.376	0.135
-405.282	-130.873	0.287	0.038
-404.267	72.634	0.092	-0.095
-403.252	83.163	-0.198	-0.214
-402.238	429.582	-0.024	-0.052
-401.223	-6.416	-0.309	-0.210
-400.209	-38.756	-0.106	0.055
-399.194	-170.665	0.228	0.008
-398.179	5.601	0.262	-0.193
-397.165	-200.000	-0.049	0.228
-396.150	-139.095	-0.338	-0.036
-395.136	48.846	-0.087	0.082
-394.121	-200.000	-0.026	-0.212
-393.106	84.093	0.221	-0.240
-392.092	524.987	-0.068	-0.159
-391.077	58.017	0.216	-0.211
-390.063	-116.095	0.149	0.028
-389.048	-11.189	0.041	0.027
-388.033	-171.468	0.100	-0.003
-387.019	164.111	-0.049	-0.069
-386.004	-200.000	0.000	-0.165
-384.990	-200.000	0.012	-0.083
-383.975	800.000	0.128	0.525
-382.960	35.312	0.121	-0.106
-381.946	270.297	-0.093	-0.164
-380.931	-45.536	-0.146	-0.072
-379.917	-189.883	0.149	-0.002
-378.902	-200.000	-0.005	-0.093
-377.888	-86.305	-0.070	-0.022
-376.873	-200.000	-0.062	-0.504
-375.858	119.562	-0.083	-0.102
-374.844	220.053	0.363	0.579
-373.829	-200.000	0.005	0.339
-372.815	-200.000	0.011	-0.238
-371.800	172.741	0.173	-0.247
-370.785	30.067	0.123	-0.105
-369.771	55.621	-0.134	-0.129
-368.756	-57.899	-0.362	-0.157
-367.742	516.814	0.032	-0.074
-366.727	-200.000	0.051	0.364
-365.712	-36.422	0.209	0.112
-364.698	232.923	0.039	-0.064
-363.683	148.538	0.191	-0.256
-362.669	800.000	-0.043	0.131
-361.654	-177.853	0.073	0.002
-360.639	354.804	0.104	0.205
-359.625	41.675	-0.198	0.179
-358.610	240.963	-0.146	0.242
-357.596	110.563	-0.066	0.078
-356.581	-167.317	-0.212	-0.008
-355.566	-46.752	0.059	-0.029
-354.552	1.641	-0.102	0.073
-353.537	-47.290	0.083	0.040
-352.523	80.946	0.100	0.107
-351.508	-78.551	0.282	0.096
-350.493	286.977	-0.176	-0.317
-349.479	254.740	-0.008	-0.014
-348.464	-98.553	-0.094	0.024
-347.450	126.153	0.189	0.238
-346.435	-200.000	-0.039	-0.272
-345.420	79.050	-0.256	0.272
-344.406	195.595	-0.082	-0.124
-343.391	82.091	0.052	-0.056
-342.377	-20.493	0.226	0.138
-341.362	9.946	0.181	-0.137
-340.348	-35.965	0.211	0.113
-339.333	-200.000	0.004	0.027
-338.318	9.913	0.257	-0.194
-337.304	-200.000	0.000	-0.130
-336.289	10.407	0.143	0.108
-335.275	-67.361	-0.161	-0.063
-334.260	-200.000	-0.003	-0.237
-333.245	696.385	-0.055	-0.143
-332.231	-80.421	0.046	-0.015
-331.216	800.000	-0.022	0.070
-330.202	-69.322	-0.094	0.036
-329.187	-200.000	0.015	-0.109
-328.172	-148.414	-0.155	-0.013
-327.158	-81.277	0.173	0.057
-326.143	490.966	0.051	0.116
-325.129	46.736	-0.066	0.061
-324.114	33.316	0.147	0.127
-323.099	218.146	0.233	-0.369
-322.085	-200.000	-0.001	0.078
-321.070	46.458	-0.300	-0.276
-320.056	800.000	0.075	0.264
-319.041	800.000	-0.047	0.187
-318.026	369.883	-0.157	0.316
-317.012	-195.760	0.297	-0.002
-315.997	-200.000	0.084	-0.456
-314.983	-169.655	-0.081	0.003
-313.968	-61.446	0.233	-0.097
-312.953	-63.430	0.119	0.048
-311.939	-200.000	0.051	0.283
-310.924	800.000	0.023	-0.090
-309.910	-200.000	0.041	-0.339
-308.895	-101.724	0.059	-0.014
-307.880	76.855	-0.054	-0.057
-306.866	800.000	-0.035	0.113
-305.851	47.183	-0.249	0.230
-304.837	265.828	0.038	0.066
-303.822	262.272	-0.018	0.032
-302.807	-200.000	0.005	0.301
-301.793	-200.000	-0.012	0.088
-300.778	-200.000	-0.013	-0.111
-299.764	291.046	0.077	0.140
-298.749	-94.932	0.215	0.058
-297.735	-200.000	-0.005	-0.226
-296.720	-89.853	0.113	0.033
-295.705	478.341	-0.014	-0.032
-294.691	414.098	-0.142	-0.299
-293.676	92.347	0.026	0.029
-292.662	800.000	0.076	-0.281
-291.647	-144.571	0.312	-0.029
-290.632	-200.000	-0.006	0.118
-289.618	-86.653	-0.296	-0.090
-288.603	142.829	0.107	0.141
-287.589	162.635	-0.200	-0.279
-286.574	-191.643	0.200	-0.002
-285.559	-28.782	-0.333	0.190
-284.545	-200.000	0.043	0.253
-283.530	-62.328	-0.200	0.083
-282.516	66.630	0.062	0.063
-281.501	-168.163	0.274	0.011
-280.486	-93.990	0.123	0.034
-279.472	-51.914	0.103	0.048
-278.457	166.002	-0.074	0.104
-277.443	12.473	-0.258	0.197
-276.428	-45.384	0.155	0.076
-275.413	217.942	-0.167	-0.265
-274.399	33.581	-0.192	0.165
-273.384	-131.257	0.389	-0.051
-272.370	47.180	-0.084	-0.078
-271.355	622.082	0.099	-0.247
-270.340	45.913	-0.195	0.179
-269.326	-20.195	0.211	-0.129
-268.311	79.947	0.196	-0.208
-267.297	-200.000	0.001	-0.332
-266.282	-28.248	-0.448	0.256
-265.267	66.436	-0.264	-0.266
-264.253	-114.688	0.361	0.068
-263.238	-151.621	0.235	0.017
-262.224	112.265	-0.176	0.211
-261.209	1.016	-0.333	0.237
-260.195	680.852	-0.097	0.251
-259.180	96.844	-0.189	-0.215
-258.165	509.912	-0.063	0.145
-257.151	-177.876	0.176	-0.004
-256.136	-200.000	0.031	0.359
-255.122	-200.000	0.006	-0.102
-254.107	46.681	-0.092	0.084
-253.092	-39.233	0.206	-0.107
-252.078	-84.833	-0.239	0.074
-251.063	161.862	-0.057	0.079
-250.049	126.011	-0.081	-0.102
-249.034	-200.000	-0.055	0.260
-248.019	-199.785	0.139	0.001
-247.005	-117.534	-0.109	-0.019
-245.990	-33.255	0.345	0.189
-244.976	27.894	-0.013	0.011
-243.961	287.283	-0.096	-0.172
-242.946	560.446	-0.136	0.326
-241.932	-18.040	-0.159	0.098
-240.917	223.526	-0.149	-0.238
-239.903	-61.676	-0.278	0.115
-238.888	-83.638	-0.095	-0.030
-237.873	517.826	0.038	0.088
-236.859	50.641	-0.148	-0.138
-235.844	-109.065	0.221	0.047
-234.830	-200.000	0.016	-0.258
-233.815	-12.176	-0.378	0.245
-232.800	-200.000	-0.059	-0.428
-231.786	412.070	-0.120	0.253
-230.771	18.537	-0.174	0.137
-229.757	-82.593	-0.106	0.034
-228.742	-200.000	-0.028	-0.154
-227.727	-47.093	0.328	-0.158
-226.713	174.148	-0.103	-0.147
-225.698	116.650	0.115	-0.139
-224.684	-16.534	0.163	-0.102
-223.669	-200.000	0.005	0.126
-222.655	800.000	-0.023	-0.089
-221.640	-67.582	-0.030	-0.012
-220.625	96.290	0.126	-0.143
-219.611	-200.000	-0.021	0.214
-218.596	654.490	0.030	-0.077
-217.582	-84.919	0.115	-0.036
-216.567	800.000	0.046	0.145
-215.552	-200.000	0.222	-0.000
-214.538	-79.971	-0.279	-0.093
-213.523	617.426	0.078	0.192
-212.509	40.029	-0.005	0.005
-211.494	173.244	-0.083	0.119
-210.479	-140.112	0.321	0.033
-209.465	-200.000	0.007	0.039
-208.450	-107.413	0.491	-0.106
-207.436	12.888	-0.131	0.100
-206.421	188.742	-0.117	-0.173
-205.406	152.187	0.197	-0.265
-204.392	-54.231	0.189	0.085
-203.377	434.657	-0.150	-0.323
-202.363	148.628	0.056	0.075
-201.348	183.944	-0.130	-0.190
-200.333	190.280	0.065	-0.096
-199.319	52.429	-0.093	0.088
-198.304	-135.191	-0.243	-0.029
-197.290	627.501	-0.099	-0.247
-196.275	389.464	0.136	0.277
-195.260	-34.782	-0.178	-0.096
-194.246	99.479	0.335	0.383
-193.231	-200.000	0.039	-0.208
-192.217	800.000	0.085	-0.245
-191.202	9.640	0.093	0.070
-190.187	-107.121	0.033	0.007
-189.173	-171.985	0.048	-0.002
-188.158	-200.000	0.004	-0.100
-187.144	38.707	0.149	-0.131
-186.129	673.769	-0.024	-0.061
-185.114	27.253	0.206	0.171
-184.100	-133.502	-0.308	-0.038
-183.085	98.814	-0.060	0.068
-182.071	-200.000	-0.028	-0.123
-181.056	-125.558	-0.149	-0.022
-180.042	148.430	-0.135	-0.180
-179.027	-200.000	-0.058	0.311
-178.012	-84.631	0.141	-0.044
-176.998	-73.077	-0.145	-0.053
-175.983	-38.888	0.084	0.043
-174.969	-118.601	-0.256	0.045
-173.954	257.588	-0.093	-0.158
-172.939	-136.019	-0.033	0.004
-171.925	-134.728	0.172	-0.021
-170.910	103.383	0.300	0.347
-169.896	-50.718	0.176	0.082
-168.881	256.589	-0.225	0.382
-167.866	-74.813	0.219	-0.078
-166.852	315.247	0.043	-0.080
-165.837	-82.675	-0.246	-0.078
-164.823	-146.945	-0.281	-0.024
-163.808	106.412	0.069	-0.081
-162.793	244.964	0.125	0.208
-161.779	431.847	0.119	0.254
-160.764	86.040	0.207	0.225
-159.750	-129.702	0.022	-0.003
-158.735	139.038	-0.080	0.103
-157.720	121.889	-0.163	0.201
-156.706	65.563	-0.030	-0.030
-155.691	-74.919	0.391	0.138
-154.677	-19.227	-0.193	0.118
-153.662	-155.235	-0.217	0.014
-152.647	58.125	0.131	-0.127
-151.633	800.000	0.098	0.407
-150.618	193.253	-0.060	0.089
-149.604	-111.781	-0.444	0.089
-148.589	6.621	-0.076	-0.056
-147.574	-61.070	-0.082	0.034
-146.560	73.064	-0.151	-0.155
-145.545	35.989	0.184	0.160
-144.531	-156.856	-0.021	0.001
-143.516	-200.000	-0.049	-0.339
-142.502	52.876	-0.057	0.053
-141.487	-99.225	0.137	-0.034
-140.472	302.871	0.022	0.040
-139.458	800.000	-0.037	0.129
-138.443	-109.077	0.113	-0.024
-137.429	161.576	-0.069	-0.095
-136.414	-94.444	0.330	0.089
-135.399	-139.584	0.093	-0.010
-134.385	-141.676	-0.059	-0.006
-133.370	-12.800	-0.066	-0.042
-132.356	-101.771	0.298	0.071
-131.341	-150.360	-0.257	-0.019
-130.326	-60.470	0.107	-0.045
-129.312	-103.799	-0.110	-0.025
-128.297	-129.645	-0.510	-0.069
-127.283	-200.000	-0.002	0.100
-126.268	215.544	-0.047	-0.073
-125.253	5.991	-0.178	0.130
-124.239	-200.000	0.025	0.196
-123.224	37.264	-0.065	-0.056
-122.210	-84.987	0.362	-0.112
-121.195	74.769	0.280	0.290
