DTS Sentinel unit serial number:	SN413079Multiplexer serial number:	ORYXHardware model number:	OX4-SRSoftware version number:	ORYX F/W v4.00 Oryx Data Collector v3.7.2.0data status	okinstallation	princeton_trtdifferential loss correction	single-endedforward channel	channel 3reverse channel	N/Adate	2019/09/14time	02:20:35forward acquisition time	60.00reverse acquisition time	0.00gamma	496.2192k internal	0.2339k external	0.2339temperature offset calibration	1.0057default loss term (dB/km)	0.3790temperature slope calibration	1.0000multiplexer offset coefficient	1.0000multiplexer slope coefficient	1.0000fibre end	0.00T internal ref (°C)	26.50T ext. ref 1 (°C)	3.22T ext. ref 2 (°C)	21.48length (m)	temperature (°C)	Stokes	anti-Stokes-747.200	-163.381	0.503	-0.024
-746.185	-169.330	0.010	0.000
-745.171	29.772	0.042	0.036
-744.156	800.000	0.056	0.160
-743.142	800.000	-0.027	-0.115
-742.127	224.738	0.068	-0.110
-741.112	800.000	-0.061	0.178
-740.098	-200.000	-0.065	0.374
-739.083	-200.000	0.000	0.048
-738.069	-105.164	-0.018	-0.004
-737.054	-26.460	0.142	0.084
-736.039	156.647	-0.112	0.155
-735.025	-200.000	-0.043	0.196
-734.010	106.403	-0.292	0.347
-732.996	-115.894	0.269	0.050
-731.981	136.266	0.093	-0.121
-730.966	56.551	0.211	-0.206
-729.952	-180.394	-0.202	-0.004
-728.937	800.000	-0.047	-0.165
-727.923	-142.804	0.065	0.006
-726.908	31.672	-0.198	-0.171
-725.894	-58.394	-0.423	0.184
-724.879	151.066	-0.140	-0.190
-723.864	70.107	-0.239	-0.248
-722.850	231.998	-0.104	0.170
-721.835	46.489	-0.203	-0.189
-720.821	9.150	-0.173	-0.131
-719.806	-48.818	0.189	-0.091
-718.791	-200.000	0.018	-0.091
-717.777	-23.932	-0.182	0.109
-716.762	-82.057	0.069	0.023
-715.748	800.000	-0.048	-0.164
-714.733	800.000	-0.068	-0.204
-713.718	800.000	-0.052	-0.175
-712.704	70.839	0.259	0.268
-711.689	57.845	0.147	-0.144
-710.675	-28.037	0.308	-0.179
-709.660	-200.000	0.030	-0.227
-708.645	209.120	-0.071	-0.111
-707.631	-130.012	-0.143	-0.020
-706.616	530.614	-0.076	-0.179
-705.602	-17.122	-0.179	-0.113
-704.587	-43.090	-0.367	0.186
-703.572	-147.532	-0.215	-0.018
-702.558	12.895	-0.059	0.046
-701.543	-105.627	0.159	-0.036
-700.529	20.631	0.096	-0.078
-699.514	-115.869	-0.295	0.055
-698.499	12.804	0.250	0.193
-697.485	-47.354	-0.183	0.089
-696.470	687.380	-0.023	-0.060
-695.456	-30.431	0.119	-0.068
-694.441	472.597	-0.105	-0.238
-693.426	800.000	0.175	-0.560
-692.412	264.571	-0.168	0.293
-691.397	69.062	0.157	-0.162
-690.383	145.845	-0.091	-0.122
-689.368	-200.000	0.061	-0.357
-688.354	255.188	0.171	0.293
-687.339	164.024	0.139	-0.196
-686.324	-200.000	-0.015	0.073
-685.310	13.054	-0.037	-0.029
-684.295	239.219	-0.207	0.345
-683.281	-0.486	0.079	-0.056
-682.266	800.000	0.070	-0.289
-681.251	68.898	0.039	-0.040
-680.237	69.023	0.148	0.152
-679.222	151.815	-0.195	0.266
-678.208	-116.512	0.062	-0.011
-677.193	-200.000	-0.010	-0.092
-676.178	-6.483	-0.203	-0.138
-675.164	287.956	-0.059	-0.108
-674.149	-200.000	0.006	-0.244
-673.135	800.000	-0.039	-0.128
-672.120	-48.500	-0.232	0.112
-671.105	560.157	-0.057	-0.139
-670.091	800.000	0.063	-0.269
-669.076	-45.540	0.156	0.077
-668.062	-200.000	-0.037	-0.293
-667.047	70.604	0.213	0.221
-666.032	-139.235	0.240	-0.026
-665.018	-200.000	0.007	0.276
-664.003	-155.899	0.113	-0.007
-662.989	304.898	0.125	-0.232
-661.974	-2.610	0.264	-0.184
-660.959	-80.800	0.210	-0.070
-659.945	-110.775	0.143	0.029
-658.930	14.661	0.355	-0.278
-657.916	206.092	-0.101	0.157
-656.901	-166.827	-0.056	0.002
-655.886	-200.000	0.000	-0.160
-654.872	563.318	-0.010	0.025
-653.857	-200.000	0.015	-0.172
-652.843	745.033	-0.082	0.221
-651.828	144.481	0.077	0.103
-650.814	61.366	0.236	-0.234
-649.799	74.121	0.145	0.152
-648.784	-200.000	0.024	-0.117
-647.770	800.000	0.069	-0.239
-646.755	-200.000	-0.009	-0.076
-645.741	373.875	-0.162	-0.329
-644.726	800.000	0.011	0.032
-643.711	-200.000	-0.013	-0.062
-642.697	-119.264	-0.492	0.086
-641.682	-58.017	-0.197	-0.086
-640.668	-92.373	0.275	0.077
-639.653	-187.272	-0.145	-0.002
-638.638	800.000	-0.064	-0.236
-637.624	-93.314	-0.260	0.072
-636.609	6.507	-0.120	-0.089
-635.595	20.875	-0.237	0.192
-634.580	343.996	-0.110	0.215
-633.565	-59.136	0.186	0.080
-632.551	337.722	-0.082	0.159
-631.536	256.608	-0.034	0.057
-630.522	222.254	0.048	-0.077
-629.507	-160.156	-0.362	-0.020
-628.492	-9.198	0.176	-0.118
-627.478	25.011	0.344	0.285
-626.463	-69.208	-0.046	0.018
-625.449	-102.095	-0.168	0.040
-624.434	-200.000	0.020	0.115
-623.419	23.532	-0.143	-0.117
-622.405	800.000	-0.039	-0.110
-621.390	-87.162	0.409	-0.124
-620.376	664.880	0.121	-0.312
-619.361	49.855	-0.263	-0.248
-618.346	178.869	0.030	-0.044
-617.332	-72.239	-0.031	0.012
-616.317	253.824	-0.067	-0.114
-615.303	-200.000	0.012	-0.138
-614.288	-200.000	-0.013	-0.353
-613.273	-200.000	0.005	-0.052
-612.259	94.895	0.135	0.154
-611.244	293.266	-0.040	0.073
-610.230	31.827	0.013	-0.011
-609.215	-200.000	0.015	-0.281
-608.201	-10.932	-0.106	0.070
-607.186	-137.272	0.266	0.030
-606.171	132.207	0.159	0.205
-605.157	63.774	0.101	-0.101
-604.142	149.348	-0.160	-0.216
-603.128	-26.235	-0.172	-0.101
-602.113	15.259	0.176	-0.138
-601.098	-141.517	-0.168	-0.017
-600.084	800.000	-0.138	-0.404
-599.069	455.699	-0.055	-0.122
-598.055	-13.575	0.171	0.110
-597.040	-200.000	-0.065	-0.324
-596.025	-200.000	0.006	-0.162
-595.011	6.497	0.148	0.110
-593.996	499.126	-0.080	-0.183
-592.982	102.204	0.342	0.399
-591.967	-37.789	0.414	0.219
-590.952	-200.000	-0.027	0.127
-589.938	800.000	0.058	-0.175
-588.923	-71.483	0.258	0.096
-587.909	-53.418	0.090	0.041
-586.894	-80.686	-0.144	-0.048
-585.879	-1.781	0.071	0.050
-584.865	-200.000	0.025	-0.196
-583.850	29.558	-0.164	0.139
-582.836	-74.924	-0.256	0.092
-581.821	696.682	0.083	0.218
-580.806	-91.006	0.043	0.012
-579.792	119.246	0.103	-0.127
-578.777	53.640	0.255	0.244
-577.763	79.490	-0.279	0.298
-576.748	-200.000	0.036	-0.202
-575.733	-200.000	0.036	-0.209
-574.719	252.561	-0.155	-0.264
-573.704	-200.000	0.046	-0.244
-572.690	-200.000	-0.015	-0.089
-571.675	-20.691	0.207	-0.127
-570.661	-132.452	0.277	-0.035
-569.646	800.000	-0.077	0.281
-568.631	14.616	-0.159	0.124
-567.617	-125.537	0.392	0.059
-566.602	-109.647	0.148	0.031
-565.588	-130.365	-0.215	0.029
-564.573	-200.000	-0.010	0.062
-563.558	-35.571	-0.193	-0.104
-562.544	-165.171	0.144	0.006
-561.529	-156.489	-0.300	-0.019
-560.515	800.000	0.045	-0.169
-559.500	-200.000	-0.003	0.046
-558.485	-200.000	0.025	0.437
-557.471	-106.999	-0.123	-0.027
-556.456	800.000	0.033	0.119
-555.442	-9.390	0.142	0.095
-554.427	107.412	-0.032	0.038
-553.412	-200.000	-0.016	-0.164
-552.398	83.458	0.228	-0.248
-551.383	-131.936	-0.151	-0.020
-550.369	800.000	0.035	0.122
-549.354	-103.055	-0.164	0.039
-548.339	-57.813	-0.160	0.070
-547.325	-164.658	0.166	-0.007
-546.310	800.000	-0.038	-0.136
-545.296	191.235	0.183	-0.275
-544.281	800.000	0.116	0.336
-543.266	2.224	0.103	0.074
-542.252	-140.461	0.450	-0.047
-541.237	12.986	0.152	-0.117
-540.223	19.857	0.095	-0.076
-539.208	28.055	-0.081	-0.068
-538.193	45.396	0.243	-0.224
-537.179	-67.640	-0.031	0.012
-536.164	-200.000	0.010	0.162
-535.150	800.000	0.028	-0.079
-534.135	800.000	-0.114	-0.367
-533.121	125.746	-0.052	-0.065
-532.106	800.000	0.094	-0.294
-531.091	-200.000	-0.000	-0.287
-530.077	800.000	-0.029	-0.100
-529.062	-35.358	0.113	0.061
-528.048	-102.136	-0.015	0.004
-527.033	-99.126	-0.155	-0.039
-526.018	-200.000	-0.056	0.282
-525.004	-200.000	0.073	0.387
-523.989	35.563	-0.085	-0.074
-522.975	23.599	0.197	-0.161
-521.960	-200.000	-0.035	-0.241
-520.945	389.414	0.050	0.103
-519.931	-200.000	0.003	0.212
-518.916	194.448	0.086	-0.130
-517.902	754.049	-0.071	-0.190
-516.887	13.681	0.178	-0.138
-515.872	127.149	-0.039	-0.050
-514.858	91.285	-0.145	-0.162
-513.843	78.426	-0.155	0.165
-512.829	224.849	-0.054	0.087
-511.814	550.039	0.040	-0.096
-510.799	-92.914	-0.447	0.124
-509.785	-200.000	-0.050	-0.236
-508.770	-133.434	0.370	0.046
-507.756	800.000	-0.064	0.208
-506.741	-200.000	-0.001	0.264
-505.726	-157.982	0.382	0.022
-504.712	-122.697	0.161	0.026
-503.697	800.000	-0.093	-0.337
-502.683	-84.859	0.141	-0.044
-501.668	118.295	-0.191	-0.234
-500.653	-76.274	-0.200	-0.070
-499.639	144.032	0.019	0.025
-498.624	-200.000	0.011	-0.152
-497.610	-200.000	0.002	-0.315
-496.595	-71.948	-0.212	0.078
-495.581	800.000	-0.034	0.100
-494.566	-17.402	-0.142	0.089
-493.551	70.657	0.053	0.055
-492.537	767.250	-0.088	-0.238
-491.522	-56.363	-0.103	-0.045
-490.508	29.233	-0.251	0.211
-489.493	58.049	-0.145	-0.141
-488.478	-180.237	0.068	0.001
-487.464	-200.000	-0.057	-0.301
-486.449	-200.000	0.036	-0.296
-485.435	114.202	-0.090	0.109
-484.420	-72.443	0.250	0.092
-483.405	-107.356	-0.357	0.078
-482.391	154.259	-0.076	0.104
-481.376	26.950	-0.107	0.089
-480.362	-200.000	0.000	-0.005
-479.347	472.491	0.037	-0.084
-478.332	-200.000	-0.001	0.017
-477.318	-54.799	0.153	0.069
-476.303	-200.000	0.019	0.088
-475.289	95.994	-0.163	0.184
-474.274	-28.333	-0.072	-0.041
-473.259	-200.000	0.039	-0.191
-472.245	228.247	-0.168	0.272
-471.230	-153.884	0.088	-0.006
-470.216	84.060	-0.115	0.124
-469.201	-200.000	0.004	-0.241
-468.186	26.538	-0.163	0.136
-467.172	418.557	0.192	-0.408
-466.157	-147.947	0.058	0.005
-465.143	117.036	0.151	-0.184
-464.128	102.017	-0.115	0.133
-463.113	-140.504	-0.243	-0.025
-462.099	275.190	0.298	0.524
-461.084	-200.000	-0.011	0.658
-460.070	99.386	0.243	-0.279
-459.055	53.272	-0.062	-0.059
-458.040	127.722	0.311	0.392
-457.026	181.247	-0.076	-0.110
-456.011	-200.000	0.001	0.028
-454.997	-24.775	0.324	-0.191
-453.982	-7.894	0.228	0.153
-452.968	800.000	0.081	-0.266
-451.953	43.027	0.196	0.177
-450.938	89.202	-0.109	0.120
-449.924	52.927	-0.105	-0.099
-448.909	96.072	0.083	-0.094
-447.895	800.000	0.043	-0.153
-446.880	2.857	-0.229	0.165
-445.865	166.390	-0.181	-0.255
-444.851	26.795	-0.259	0.215
-443.836	-89.371	-0.229	0.067
-442.822	800.000	-0.107	0.309
-441.807	1.910	-0.424	0.303
-440.792	-167.071	-0.157	0.006
-439.778	219.564	-0.178	-0.282
-438.763	800.000	0.079	0.230
-437.749	-200.000	0.053	0.572
-436.734	-163.630	-0.128	-0.006
-435.719	-9.946	0.120	0.079
-434.705	86.205	-0.098	0.107
-433.690	57.263	-0.189	0.183
-432.676	104.376	-0.202	-0.235
-431.661	302.112	0.162	-0.298
-430.646	-81.240	-0.062	0.020
-429.632	-41.071	0.343	-0.175
-428.617	-41.946	-0.123	-0.062
-427.603	193.113	-0.230	0.344
-426.588	-130.502	-0.104	-0.014
-425.573	-8.999	-0.415	-0.275
-424.559	-200.000	0.038	0.417
-423.544	-56.550	0.260	0.114
-422.530	-48.955	-0.115	-0.054
-421.515	108.805	-0.126	-0.149
-420.500	66.849	0.261	-0.263
-419.486	729.323	0.015	0.040
-418.471	34.171	0.084	0.072
-417.457	-200.000	-0.048	-0.314
-416.442	-108.735	0.080	0.017
-415.428	-87.189	-0.181	-0.054
-414.413	-98.886	0.245	-0.062
-413.398	-4.236	-0.034	-0.023
-412.384	290.950	0.021	0.039
-411.369	200.569	0.118	-0.180
-410.355	-123.855	-0.323	0.051
-409.340	-63.019	0.300	-0.123
-408.325	-65.119	-0.182	0.073
-407.311	283.216	-0.023	-0.041
-406.296	194.455	-0.008	0.012
-405.282	-98.743	-0.126	-0.032
-404.267	-105.413	-0.186	-0.042
-403.252	-200.000	-0.032	0.245
-402.238	800.000	-0.005	-0.021
-401.223	305.672	-0.063	0.116
-400.209	-200.000	0.074	0.339
-399.194	-200.000	0.030	0.191
-398.179	800.000	-0.040	-0.131
-397.165	209.884	-0.165	0.257
-396.150	4.300	0.110	-0.080
-395.136	-124.057	-0.388	0.060
-394.121	38.183	0.060	0.053
-393.106	-174.046	0.084	-0.002
-392.092	-82.352	-0.161	0.052
-391.077	78.117	-0.058	-0.061
-390.063	-157.915	0.485	-0.028
-389.048	-33.436	-0.249	0.136
-388.033	-139.982	-0.453	0.047
-387.019	24.808	-0.046	-0.037
-386.004	-200.000	-0.001	0.152
-384.990	50.136	0.015	-0.014
-383.975	211.167	0.178	0.277
-382.960	-75.344	0.209	0.074
-381.946	-200.000	-0.016	-0.233
-380.931	40.758	0.136	0.122
-379.917	167.479	0.051	-0.072
-378.902	17.990	0.029	0.023
-377.888	-31.076	0.215	0.120
-376.873	105.425	0.234	0.274
-375.858	-145.570	0.221	-0.020
-374.844	227.080	-0.137	-0.220
-373.829	-120.144	0.222	-0.038
-372.815	-80.905	0.132	-0.043
-371.800	-158.140	-0.272	-0.016
-370.785	-33.662	0.137	-0.075
-369.771	79.997	-0.200	-0.213
-368.756	95.746	-0.142	-0.160
-367.742	-81.124	-0.105	0.034
-366.727	-127.294	0.111	-0.016
-365.712	-35.745	0.152	-0.081
-364.698	800.000	0.063	-0.274
-363.683	-35.042	-0.273	0.147
-362.669	-48.877	0.175	0.083
-361.654	-174.410	0.228	0.006
-360.639	-200.000	-0.045	0.284
-359.625	363.843	-0.156	0.311
-358.610	12.623	-0.141	-0.107
-357.596	-81.055	-0.064	-0.021
-356.581	-200.000	-0.063	0.285
-355.566	-200.000	0.057	0.304
-354.552	-92.185	0.206	0.057
-353.537	-36.035	0.407	-0.217
-352.523	-94.251	-0.395	-0.107
-351.508	81.651	0.150	-0.160
-350.493	800.000	-0.018	-0.053
-349.479	260.184	0.020	-0.035
-348.464	10.827	0.268	0.202
-347.450	-95.151	0.257	0.068
-346.435	-154.510	-0.032	-0.002
-345.420	-29.914	0.141	0.079
-344.406	-89.459	-0.181	-0.053
-343.391	-200.000	0.013	-0.349
-342.377	-128.017	-0.220	-0.031
-341.362	-102.100	0.308	-0.073
-340.348	-21.368	-0.289	0.174
-339.333	-11.092	-0.195	-0.127
-338.318	-135.171	0.109	0.013
-337.304	728.340	0.012	0.032
-336.289	-200.000	0.024	-0.169
-335.275	-25.885	-0.279	-0.162
-334.260	-143.054	-0.215	0.021
-333.245	-113.193	0.212	0.041
-332.231	254.296	-0.100	0.168
-331.216	109.867	-0.100	0.118
-330.202	234.300	0.149	0.242
-329.187	-200.000	-0.011	0.165
-328.172	-200.000	0.003	-0.095
-327.158	1.895	-0.053	0.037
-326.143	33.916	0.070	0.060
-325.129	800.000	-0.111	0.382
-324.114	-86.749	-0.095	-0.029
-323.099	800.000	-0.133	0.434
-322.085	-200.000	0.006	0.114
-321.070	285.868	-0.110	-0.196
-320.056	-43.562	-0.361	-0.180
-319.041	216.249	0.181	0.284
-318.026	-0.089	-0.282	-0.198
-317.012	-200.000	0.005	0.287
-315.997	-139.219	0.446	-0.047
-314.983	-200.000	0.028	-0.197
-313.968	330.513	0.217	0.413
-312.953	-124.284	-0.361	0.056
-311.939	-3.554	-0.149	-0.102
-310.924	-151.141	0.294	0.022
-309.910	-20.695	-0.076	0.046
-308.895	-62.666	0.179	0.073
-307.880	-108.195	-0.085	0.018
-306.866	233.223	0.103	0.166
-305.851	-29.620	0.142	-0.080
-304.837	33.815	0.232	-0.199
-303.822	-89.882	-0.139	-0.040
-302.807	-74.385	0.425	-0.151
-301.793	-98.523	-0.449	0.113
-300.778	-118.931	0.242	0.042
-299.764	50.023	-0.073	0.068
-298.749	190.333	0.110	0.162
-297.735	-22.505	-0.132	-0.079
-296.720	-200.000	0.001	0.076
-295.705	800.000	-0.017	-0.068
-294.691	33.503	-0.218	0.186
-293.676	-23.078	0.263	-0.156
-292.662	800.000	0.033	-0.100
-291.647	800.000	-0.052	-0.152
-290.632	800.000	0.087	0.309
-289.618	-36.396	-0.102	0.054
-288.603	351.603	-0.140	0.273
-287.589	184.441	-0.074	-0.108
-286.574	-8.286	0.052	-0.034
-285.559	-90.352	0.114	-0.033
-284.545	-93.085	-0.116	0.032
-283.530	-108.332	-0.259	0.055
-282.516	158.773	-0.049	0.068
-281.501	-16.895	-0.110	0.069
-280.486	800.000	0.103	-0.326
-279.472	800.000	0.053	-0.171
-278.457	-123.066	-0.168	0.027
-277.443	-27.551	0.131	0.075
-276.428	646.590	-0.086	-0.216
-275.413	354.056	0.164	-0.321
-274.399	-200.000	-0.005	0.335
-273.384	-127.972	-0.116	0.016
-272.370	-19.768	0.124	0.075
-271.355	-200.000	-0.005	0.052
-270.340	-127.476	0.370	0.053
-269.326	149.250	-0.085	0.113
-268.311	-11.903	-0.209	-0.135
-267.297	-84.030	-0.124	-0.039
-266.282	-200.000	-0.224	0.001
-265.267	-21.990	0.174	0.104
-264.253	-1.784	-0.267	0.185
-263.238	-120.383	0.104	-0.017
-262.224	-55.447	-0.208	-0.092
-261.209	67.622	0.124	0.125
-260.195	213.618	0.029	-0.045
-259.180	-103.194	0.237	-0.055
-258.165	55.592	0.150	-0.143
-257.151	-79.381	-0.310	0.103
-256.136	-62.953	0.178	-0.073
-255.122	36.772	-0.130	-0.113
-254.107	-59.047	0.293	-0.125
-253.092	449.872	0.033	-0.072
-252.078	-102.113	-0.164	0.039
-251.063	-174.411	0.170	-0.005
-250.049	-45.672	0.035	-0.017
-249.034	150.456	0.035	-0.046
-248.019	800.000	0.049	-0.209
-247.005	297.046	-0.096	0.173
-245.990	700.888	-0.061	0.157
-244.976	800.000	0.056	-0.213
-243.961	-200.000	0.006	0.434
-242.946	-190.303	0.377	-0.004
-241.932	-120.488	-0.247	0.041
-240.917	40.451	0.213	0.189
-239.903	209.522	0.039	0.061
-238.888	424.889	-0.184	0.388
-237.873	-6.190	0.345	0.232
-236.859	-47.377	0.439	-0.210
-235.844	-42.906	-0.233	-0.116
-234.830	-200.000	0.049	-0.230
-233.815	-173.854	0.190	-0.006
-232.800	45.346	-0.138	-0.125
-231.786	-159.910	-0.078	-0.004
-230.771	32.413	0.147	-0.125
-229.757	23.834	-0.094	-0.076
-228.742	115.950	0.057	0.069
-227.727	-200.000	-0.001	0.141
-226.713	800.000	-0.042	-0.161
-225.698	371.740	0.171	0.341
-224.684	30.773	0.083	-0.070
-223.669	322.648	0.116	0.217
-222.655	-194.831	-0.048	-0.000
-221.640	-200.000	0.026	0.146
-220.625	-88.293	0.124	-0.036
-219.611	-151.088	-0.509	0.038
-218.596	475.804	0.057	0.126
-217.582	-200.000	0.004	0.090
-216.567	0.395	-0.219	0.154
-215.552	800.000	-0.085	-0.362
-214.538	243.557	0.194	-0.319
-213.523	-200.000	-0.003	0.128
-212.509	-42.065	0.222	0.112
-211.494	-200.000	0.051	-0.412
-210.479	2.874	0.202	-0.144
-209.465	-0.265	0.132	0.092
-208.450	-200.000	0.302	0.000
-207.436	-109.391	-0.172	0.036
-206.421	-200.000	0.024	-0.221
-205.406	-200.000	0.067	-0.296
-204.392	-28.612	-0.087	0.049
-203.377	410.901	0.103	-0.215
-202.363	-31.199	-0.082	-0.045
-201.348	-164.492	0.115	0.005
-200.333	-200.000	-0.019	0.184
-199.319	125.352	-0.106	-0.132
-198.304	171.471	-0.056	0.079
-197.290	-136.454	-0.311	-0.035
-196.275	7.595	0.225	-0.166
-195.260	32.058	-0.073	-0.062
-194.246	69.360	-0.245	-0.248
-193.231	-96.339	0.280	0.073
-192.217	694.250	-0.044	0.112
-191.202	800.000	-0.098	-0.386
-190.187	-32.141	-0.372	-0.204
-189.173	-112.981	-0.163	0.032
-188.158	135.954	-0.122	-0.156
-187.144	-200.000	-0.068	-0.448
-186.129	-200.000	0.054	-0.232
-185.114	-47.514	-0.168	0.080
-184.100	-97.320	-0.126	0.032
-183.085	-31.375	0.146	-0.081
-182.071	45.515	0.185	-0.168
-181.056	503.391	-0.059	0.133
-180.042	-62.824	0.072	-0.029
-179.027	800.000	0.040	0.170
-178.012	-200.000	0.005	0.205
-176.998	19.057	-0.155	-0.122
-175.983	162.582	0.031	-0.042
-174.969	380.211	-0.116	0.234
-173.954	-34.586	0.344	0.185
-172.939	-200.000	-0.019	-0.212
-171.925	353.288	0.093	0.180
-170.910	36.489	0.093	-0.081
-169.896	237.493	-0.135	0.220
-168.881	575.019	-0.055	-0.132
-167.866	42.430	-0.055	0.049
-166.852	41.022	0.282	0.250
-165.837	-200.000	0.006	0.129
-164.823	-30.336	-0.231	0.129
-163.808	13.869	0.248	0.189
-162.793	171.583	-0.167	0.234
-161.779	-46.049	-0.196	0.095
-160.764	-57.205	0.175	-0.075
-159.750	-14.357	-0.089	0.056
-158.735	1.958	0.297	-0.210
-157.720	436.174	0.082	-0.176
-156.706	613.515	0.066	0.161
-155.691	800.000	-0.101	0.281
-154.677	-65.380	0.389	0.153
-153.662	-117.880	-0.182	-0.032
-152.647	-133.102	-0.501	0.062
-151.633	-121.155	0.476	-0.078
-150.618	-115.085	0.294	-0.055
-149.604	238.341	-0.047	-0.077
-148.589	-5.537	-0.230	-0.155
-147.574	-40.827	0.155	0.079
-146.560	62.574	-0.063	-0.061
-145.545	-48.060	0.070	0.033
-144.531	80.872	-0.198	0.209
-143.516	173.187	0.187	0.263
-142.502	-53.457	0.251	-0.112
-141.487	19.810	-0.138	0.109
-140.472	-105.699	-0.387	0.086
-139.458	58.809	0.066	0.063
-138.443	191.632	0.025	0.036
-137.429	-200.000	-0.022	-0.131
-136.414	-45.659	-0.056	0.027
-135.399	-200.000	-0.007	-0.293
-134.385	-196.799	-0.155	0.001
-133.370	116.044	0.112	0.134
-132.356	-133.845	0.229	0.028
-131.341	261.640	-0.138	0.234
-130.326	-65.510	0.071	-0.028
-129.312	-200.000	-0.002	-0.101
-128.297	-26.075	0.098	0.056
-127.283	29.061	0.191	0.159
-126.268	-200.000	-0.021	-0.341
-125.253	195.683	0.086	-0.128
-124.239	456.339	-0.131	-0.284
-123.224	637.317	-0.041	-0.101
-122.210	7.796	0.231	-0.169
-121.195	-200.000	-0.028	-0.225
