DTS Sentinel unit serial number:	SN413079Multiplexer serial number:	ORYXHardware model number:	OX4-SRSoftware version number:	ORYX F/W v4.00 Oryx Data Collector v3.7.2.0data status	okinstallation	princeton_trtdifferential loss correction	single-endedforward channel	channel 3reverse channel	N/Adate	2019/09/17time	12:24:35forward acquisition time	60.00reverse acquisition time	0.00gamma	496.2192k internal	0.2319k external	0.2319temperature offset calibration	0.9963default loss term (dB/km)	0.3790temperature slope calibration	1.0000multiplexer offset coefficient	1.0000multiplexer slope coefficient	1.0000fibre end	0.00T internal ref (°C)	31.73T ext. ref 1 (°C)	0.43T ext. ref 2 (°C)	28.82length (m)	temperature (°C)	Stokes	anti-Stokes-747.200	77.480	0.364	0.392
-746.185	-200.000	-0.041	0.289
-745.171	32.345	0.137	-0.119
-744.156	-49.713	-0.295	0.142
-743.142	-19.728	0.125	-0.078
-742.127	11.246	0.316	0.245
-741.112	800.000	0.092	-0.261
-740.098	-91.589	-0.202	0.058
-739.083	198.687	-0.185	-0.286
-738.069	243.180	0.070	0.119
-737.054	153.213	-0.165	-0.228
-736.039	-96.504	-0.508	-0.136
-735.025	254.396	0.083	0.144
-734.010	-48.934	-0.305	-0.148
-732.996	516.719	-0.127	-0.301
-731.981	328.158	0.117	-0.228
-730.966	800.000	-0.059	-0.207
-729.952	800.000	0.047	0.181
-728.937	-200.000	-0.042	0.220
-727.923	69.272	0.241	-0.251
-726.908	153.573	-0.181	-0.251
-725.894	178.623	-0.055	-0.081
-724.879	699.902	0.194	-0.517
-723.864	-200.000	0.023	-0.176
-722.850	-140.359	-0.122	0.013
-721.835	-100.286	0.165	0.041
-720.821	-138.293	-0.224	-0.025
-719.806	-49.927	0.072	-0.034
-718.791	-153.934	0.076	-0.005
-717.777	304.400	0.011	-0.021
-716.762	-120.625	-0.157	0.027
-715.748	-164.484	0.232	-0.011
-714.733	5.173	0.139	0.103
-713.718	7.247	-0.261	0.197
-712.704	80.915	-0.126	0.137
-711.689	-200.000	0.076	0.000
-710.675	348.439	-0.139	-0.276
-709.660	9.304	0.178	-0.136
-708.645	-28.029	0.253	0.148
-707.631	-200.000	0.019	-0.244
-706.616	-29.733	-0.334	-0.192
-705.602	-58.300	0.197	0.087
-704.587	-9.184	-0.185	-0.125
-703.572	-76.770	-0.169	0.060
-702.558	-160.361	0.187	-0.010
-701.543	-174.666	0.264	-0.008
-700.529	124.623	0.049	0.062
-699.514	549.097	-0.089	0.215
-698.499	-91.402	0.145	-0.042
-697.485	-126.463	-0.211	-0.032
-696.470	-93.112	-0.232	-0.065
-695.456	44.419	0.171	0.159
-694.441	-21.035	0.245	-0.151
-693.426	-200.000	0.106	-0.504
-692.412	120.365	-0.061	-0.076
-691.397	-200.000	0.041	0.278
-690.383	-81.848	-0.123	-0.041
-689.368	-124.138	-0.375	-0.059
-688.354	-63.327	-0.231	0.096
-687.339	455.213	0.041	-0.093
-686.324	80.245	0.056	-0.061
-685.310	-72.424	0.047	-0.018
-684.295	-88.818	0.235	0.070
-683.281	800.000	-0.055	0.204
-682.266	-200.000	-0.060	-0.371
-681.251	-72.384	-0.049	-0.018
-680.237	29.955	-0.158	-0.136
-679.222	552.709	-0.027	0.066
-678.208	42.824	0.213	-0.196
-677.193	133.160	-0.015	-0.020
-676.178	506.367	-0.118	-0.276
-675.164	-105.673	0.145	0.033
-674.149	-2.911	-0.097	-0.069
-673.135	45.303	0.322	-0.300
-672.120	281.636	-0.174	-0.314
-671.105	49.987	-0.216	0.206
-670.091	-38.980	0.067	0.036
-669.076	-150.633	0.160	-0.012
-668.062	-23.986	0.084	0.051
-667.047	-200.000	-0.056	0.299
-666.032	200.905	-0.150	-0.233
-665.018	-200.000	0.044	-0.315
-664.003	-167.164	0.346	-0.014
-662.989	800.000	-0.070	-0.235
-661.974	239.894	-0.119	-0.200
-660.959	-30.644	-0.117	-0.067
-659.945	-70.150	0.238	0.091
-658.930	-103.637	-0.147	-0.035
-657.916	-200.000	-0.018	0.200
-656.901	-44.225	-0.206	-0.104
-655.886	90.725	0.149	-0.169
-654.872	800.000	-0.052	0.213
-653.857	-200.000	0.012	-0.094
-652.843	-69.623	0.305	-0.118
-651.828	-165.332	0.183	0.008
-650.814	-200.000	-0.002	-0.042
-649.799	800.000	0.068	-0.200
-648.784	-55.263	0.097	-0.044
-647.770	-86.797	-0.275	0.085
-646.755	45.110	0.076	-0.071
-645.741	-34.318	-0.246	0.136
-644.726	97.136	0.063	0.073
-643.711	-107.535	0.264	-0.058
-642.697	232.432	-0.110	-0.182
-641.682	52.689	0.146	-0.140
-640.668	37.476	0.111	-0.099
-639.653	-38.210	0.081	0.043
-638.638	-87.912	0.166	0.050
-637.624	-112.544	0.188	0.038
-636.609	-200.000	0.047	-0.262
-635.595	239.801	-0.111	0.187
-634.580	800.000	-0.055	-0.206
-633.565	-76.305	-0.191	-0.068
-632.551	282.400	-0.063	0.115
-631.536	-200.000	0.032	0.301
-630.522	18.408	0.095	-0.077
-629.507	-200.000	-0.047	-0.259
-628.492	712.270	0.049	0.130
-627.478	-63.491	-0.263	0.109
-626.463	-61.740	0.136	0.057
-625.449	-127.118	-0.063	-0.009
-624.434	224.488	-0.077	-0.126
-623.419	-103.971	-0.312	-0.073
-622.405	111.621	0.095	-0.115
-621.390	-45.975	0.319	0.159
-620.376	-72.287	0.407	0.152
-619.361	-82.476	0.352	0.115
-618.346	560.246	0.072	-0.174
-617.332	-89.143	0.277	-0.083
-616.317	225.591	-0.118	-0.193
-615.303	-200.000	-0.079	-0.457
-614.288	-85.721	-0.279	0.087
-613.273	-200.000	-0.026	-0.178
-612.259	544.700	0.039	-0.094
-611.244	-190.409	-0.209	-0.002
-610.230	71.026	-0.158	-0.164
-609.215	127.975	0.115	-0.147
-608.201	800.000	-0.011	-0.041
-607.186	-200.000	-0.046	0.262
-606.171	-200.000	0.031	0.268
-605.157	800.000	-0.072	-0.237
-604.142	330.713	0.049	-0.095
-603.128	153.522	0.025	-0.035
-602.113	-121.129	0.151	0.026
-601.098	144.206	-0.119	0.160
-600.084	125.515	-0.242	0.308
-599.069	322.328	-0.059	0.114
-598.055	-161.479	0.040	0.002
-597.040	15.827	-0.242	-0.192
-596.025	256.702	0.015	-0.026
-595.011	800.000	-0.050	0.170
-593.996	64.519	-0.148	0.150
-592.982	98.129	-0.126	-0.146
-591.967	-103.660	0.295	0.070
-590.952	49.803	0.258	-0.245
-589.938	800.000	0.099	-0.291
-588.923	-200.000	-0.034	0.238
-587.909	389.552	-0.121	0.252
-586.894	62.966	-0.032	0.032
-585.879	90.234	-0.058	0.065
-584.865	58.273	-0.422	0.416
-583.850	130.796	0.069	0.089
-582.836	-200.000	-0.001	-0.141
-581.821	-8.536	0.105	-0.071
-580.806	-120.466	-0.099	-0.017
-579.792	800.000	-0.109	-0.305
-578.777	-5.299	0.192	-0.133
-577.763	-85.476	-0.425	-0.133
-576.748	-122.712	-0.041	-0.007
-575.733	587.478	-0.047	0.117
-574.719	160.337	-0.169	-0.237
-573.704	166.187	0.083	0.118
-572.690	-25.568	0.155	-0.092
-571.675	241.066	-0.066	0.111
-570.661	-1.682	0.128	-0.091
-569.646	-200.000	0.014	0.262
-568.631	-119.290	0.121	-0.021
-567.617	-52.362	0.231	0.108
-566.602	-41.113	-0.102	-0.053
-565.588	800.000	-0.019	0.057
-564.573	-200.000	0.025	0.259
-563.558	-23.539	-0.346	0.208
-562.544	-59.762	-0.238	-0.103
-561.529	52.629	-0.166	-0.160
-560.515	104.246	0.017	0.020
-559.500	411.073	0.088	-0.187
-558.485	-200.000	-0.004	-0.098
-557.471	564.878	-0.115	0.279
-556.456	800.000	0.025	-0.084
-555.442	131.719	-0.167	0.216
-554.427	800.000	-0.112	0.319
-553.412	494.454	-0.062	-0.143
-552.398	598.438	-0.071	0.176
-551.383	-80.638	0.186	-0.062
-550.369	156.811	0.249	-0.345
-549.354	609.187	0.090	-0.225
-548.339	148.733	-0.090	0.123
-547.325	-200.000	-0.007	-0.152
-546.310	-25.331	0.043	0.025
-545.296	800.000	-0.090	-0.350
-544.281	-99.655	0.176	-0.044
-543.266	22.651	0.164	-0.135
-542.252	800.000	-0.086	0.251
-541.237	800.000	-0.024	-0.106
-540.223	101.576	0.064	0.075
-539.208	77.093	-0.167	0.178
-538.193	49.087	0.253	-0.238
-537.179	-134.574	-0.162	0.020
-536.164	-200.000	-0.009	-0.275
-535.150	-200.000	-0.002	-0.036
-534.135	-131.961	0.224	0.029
-533.121	21.158	-0.063	0.052
-532.106	-4.726	-0.127	0.088
-531.091	-123.871	0.088	-0.014
-530.077	192.629	-0.092	-0.139
-529.062	14.631	0.322	0.252
-528.048	188.447	-0.131	-0.197
-527.033	20.934	0.155	0.126
-526.018	100.475	0.293	0.342
-525.004	-149.351	-0.294	0.023
-523.989	-200.000	-0.062	-0.297
-522.975	-0.929	-0.058	-0.042
-521.960	-75.006	-0.095	0.034
-520.945	-36.140	0.331	-0.179
-519.931	76.462	-0.360	0.382
-518.916	-177.538	-0.364	0.009
-517.902	130.989	-0.177	0.228
-516.887	-18.006	-0.356	-0.224
-515.872	-100.910	0.037	0.009
-514.858	50.037	0.076	0.072
-513.843	10.582	0.244	-0.187
-512.829	-138.943	-0.376	-0.041
-511.814	-81.929	-0.363	-0.119
-510.799	800.000	0.030	0.117
-509.785	-200.000	0.015	-0.195
-508.770	13.854	-0.309	-0.241
-507.756	-200.000	0.001	-0.232
-506.741	-119.749	0.163	-0.028
-505.726	397.889	-0.092	-0.194
-504.712	-200.000	0.027	-0.204
-503.697	-95.691	-0.021	0.006
-502.683	-54.885	0.384	0.173
-501.668	-41.533	-0.355	-0.183
-500.653	-185.277	-0.326	0.005
-499.639	9.874	-0.082	-0.063
-498.624	800.000	-0.058	0.246
-497.610	2.483	-0.100	0.073
-496.595	-82.187	-0.134	-0.044
-495.581	-93.828	-0.310	-0.086
-494.566	-10.495	0.139	0.092
-493.551	800.000	0.082	-0.297
-492.537	203.188	-0.070	-0.108
-491.522	-82.038	0.277	-0.091
-490.508	-136.656	-0.193	-0.022
-489.493	-200.000	0.027	0.183
-488.478	-15.552	0.162	0.104
-487.464	753.177	-0.049	-0.133
-486.449	41.094	0.241	-0.218
-485.435	166.387	-0.137	-0.195
-484.420	640.701	-0.016	0.040
-483.405	132.475	0.028	-0.037
-482.391	-119.835	0.058	0.010
-481.376	-200.000	0.013	0.384
-480.362	26.944	0.240	-0.202
-479.347	-109.002	0.175	-0.037
-478.332	11.774	0.149	-0.115
-477.318	144.260	-0.184	-0.245
-476.303	-80.132	-0.111	0.037
-475.289	-73.689	0.332	-0.121
-474.274	-65.202	0.291	0.117
-473.259	800.000	-0.031	-0.109
-472.245	169.414	0.131	-0.188
-471.230	-200.000	0.031	0.213
-470.216	-144.635	-0.326	-0.030
-469.201	-200.000	0.003	0.177
-468.186	-106.856	0.166	-0.037
-467.172	742.298	0.067	0.180
-466.157	-90.964	-0.422	0.121
-465.143	46.507	-0.130	-0.121
-464.128	371.188	0.132	0.268
-463.113	316.167	-0.176	0.333
-462.099	240.831	0.191	0.320
-461.084	-8.623	-0.185	-0.124
-460.070	231.347	0.106	0.174
-459.055	-143.524	-0.111	-0.011
-458.040	104.982	-0.250	0.295
-457.026	-172.118	0.255	-0.008
-456.011	-74.050	0.315	0.114
-454.997	-119.153	0.263	-0.046
-453.982	-106.716	-0.134	0.030
-452.968	-200.000	-0.040	0.262
-451.953	328.355	-0.059	0.113
-450.938	-200.000	0.003	0.154
-449.924	200.439	0.229	-0.351
-448.909	-49.761	0.165	-0.079
-447.895	31.512	0.286	-0.246
-446.880	348.088	-0.071	0.140
-445.865	800.000	-0.101	-0.384
-444.851	102.698	0.289	-0.338
-443.836	-23.044	-0.253	0.152
-442.822	-96.539	0.309	0.082
-441.807	-200.000	-0.027	-0.175
-440.792	252.533	-0.205	0.350
-439.778	-200.000	-0.009	-0.093
-438.763	299.241	0.145	0.266
-437.749	-36.043	0.113	-0.061
-436.734	-200.000	-0.058	0.324
-435.719	285.483	0.078	-0.141
-434.705	-200.000	0.043	0.206
-433.690	213.684	-0.214	-0.338
-432.676	-51.535	-0.187	0.087
-431.661	-74.373	-0.137	0.049
-430.646	760.918	0.056	-0.153
-429.632	26.011	-0.171	-0.142
-428.617	-129.896	-0.272	0.037
-427.603	786.668	0.133	0.365
-426.588	-200.000	0.005	-0.110
-425.573	223.375	-0.029	-0.047
-424.559	1.042	-0.208	0.149
-423.544	561.183	0.022	-0.054
-422.530	18.862	0.256	0.205
-421.515	-46.890	-0.404	0.197
-420.500	147.374	-0.186	0.251
-419.486	40.959	-0.162	0.146
-418.471	-200.000	0.010	-0.277
-417.457	-200.000	-0.016	-0.195
-416.442	-23.437	-0.207	-0.124
-415.428	-200.000	0.001	-0.415
-414.413	-60.621	0.183	0.077
-413.398	775.739	0.160	0.435
-412.384	-176.690	-0.456	-0.012
-411.369	800.000	0.085	0.240
-410.355	-164.605	-0.189	0.009
-409.340	11.791	-0.401	-0.307
-408.325	-26.270	-0.241	0.141
-407.311	-200.000	0.129	0.000
-406.296	527.155	-0.040	-0.095
-405.282	-200.000	-0.024	0.271
-404.267	-43.131	-0.190	0.096
-403.252	-1.166	0.130	0.092
-402.238	-200.000	0.039	0.254
-401.223	-95.364	-0.252	0.068
-400.209	-179.868	0.038	-0.001
-399.194	-200.000	0.032	-0.160
-398.179	-101.056	-0.253	-0.062
-397.165	-42.655	0.264	0.134
-396.150	728.677	0.044	-0.118
-395.136	-42.033	0.261	0.133
-394.121	800.000	-0.018	-0.075
-393.106	-178.851	-0.183	0.004
-392.092	18.334	0.031	-0.025
-391.077	-61.960	0.245	-0.102
-390.063	-179.819	-0.349	-0.007
-389.048	7.542	-0.178	0.133
-388.033	-125.399	0.072	-0.011
-387.019	-132.179	-0.238	-0.031
-386.004	800.000	0.034	0.093
-384.990	277.529	0.188	0.334
-383.975	-15.224	0.274	0.175
-382.960	-188.682	0.133	-0.002
-381.946	-162.026	0.450	-0.023
-380.931	-126.145	-0.146	-0.022
-379.917	-91.200	-0.331	0.095
-378.902	-116.300	0.361	0.067
-377.888	-160.908	0.095	0.005
-376.873	-0.700	0.304	0.215
-375.858	800.000	0.021	-0.091
-374.844	540.568	0.159	-0.379
-373.829	-45.227	-0.175	0.087
-372.815	-200.000	-0.016	-0.312
-371.800	-8.978	0.231	0.154
-370.785	800.000	-0.040	0.151
-369.771	-200.000	0.015	-0.345
-368.756	616.294	-0.075	0.186
-367.742	-200.000	-0.005	0.022
-366.727	24.503	-0.273	-0.225
-365.712	19.204	0.251	-0.201
-364.698	-50.616	0.073	0.034
-363.683	-25.807	-0.272	-0.160
-362.669	137.984	0.335	-0.437
-361.654	530.700	0.119	0.280
-360.639	132.848	-0.014	0.018
-359.625	-78.842	-0.020	0.007
-358.610	-68.135	0.311	-0.121
-357.596	-54.255	-0.105	-0.048
-356.581	159.917	0.132	-0.184
-355.566	296.545	0.127	-0.233
-354.552	-200.000	0.055	0.292
-353.537	263.745	0.107	-0.185
-352.523	360.754	0.149	0.298
-351.508	-200.000	-0.003	-0.046
-350.493	-135.719	0.270	-0.032
-349.479	20.344	0.157	-0.126
-348.464	7.887	0.036	-0.027
-347.450	-200.000	-0.097	0.464
-346.435	699.274	-0.081	0.213
-345.420	-200.000	-0.035	-0.294
-344.406	-123.800	0.085	-0.013
-343.391	-20.074	-0.109	0.067
-342.377	-44.180	-0.283	0.141
-341.362	-139.477	-0.062	0.007
-340.348	-74.283	0.096	0.034
-339.333	-7.734	0.344	-0.232
-338.318	-87.141	0.300	-0.091
-337.304	389.470	0.042	-0.086
-336.289	86.291	-0.275	0.301
-335.275	800.000	0.028	0.123
-334.260	165.529	0.087	0.122
-333.245	72.640	-0.193	-0.200
-332.231	800.000	0.011	0.030
-331.216	132.957	-0.078	0.100
-330.202	91.995	0.156	-0.175
-329.187	160.228	0.067	0.093
-328.172	189.630	-0.131	-0.195
-327.158	290.253	-0.092	0.165
-326.143	93.379	0.043	0.048
-325.129	-44.243	0.153	-0.076
-324.114	36.019	0.178	-0.156
-323.099	173.040	0.021	-0.030
-322.085	800.000	-0.007	0.032
-321.070	-200.000	0.003	-0.251
-320.056	111.608	-0.067	0.081
-319.041	157.917	0.240	0.331
-318.026	800.000	0.075	-0.210
-317.012	-115.517	-0.232	-0.043
-315.997	340.511	0.111	-0.216
-314.983	3.214	0.166	0.120
-313.968	-81.632	-0.398	-0.130
-312.953	-6.696	-0.174	0.118
-311.939	-162.178	-0.155	0.008
-310.924	800.000	0.101	-0.424
-309.910	-33.349	0.288	-0.158
-308.895	692.333	0.108	0.282
-307.880	337.007	0.038	-0.074
-306.866	65.477	-0.234	0.235
-305.851	31.478	0.029	-0.025
-304.837	800.000	0.074	0.208
-303.822	98.135	-0.179	0.205
-302.807	-200.000	-0.000	-0.108
-301.793	101.660	-0.278	-0.322
-300.778	510.791	-0.201	-0.465
-299.764	109.994	-0.125	-0.149
-298.749	-119.918	-0.224	0.038
-297.735	-200.000	-0.033	0.156
-296.720	800.000	0.035	0.115
-295.705	464.681	0.137	0.304
-294.691	-32.550	-0.150	-0.083
-293.676	-44.658	0.244	0.121
-292.662	13.352	-0.198	0.152
-291.647	-200.000	0.082	0.360
-290.632	-45.843	-0.194	0.095
-289.618	266.209	-0.031	-0.054
-288.603	-200.000	-0.012	0.230
-287.589	-26.709	0.283	-0.164
-286.574	199.741	0.124	0.189
-285.559	-34.780	-0.232	0.126
-284.545	-200.000	0.047	-0.510
-283.530	583.844	-0.013	0.032
-282.516	109.272	-0.162	-0.192
-281.501	17.523	-0.081	0.064
-280.486	247.248	0.141	0.236
-279.472	-200.000	0.023	0.235
-278.457	-200.000	0.044	-0.193
-277.443	206.129	0.250	-0.386
-276.428	-195.068	-0.165	-0.001
-275.413	-57.832	0.102	0.045
-274.399	242.592	-0.071	-0.118
-273.384	-136.362	-0.186	-0.022
-272.370	125.061	-0.131	-0.164
-271.355	800.000	0.085	0.241
-270.340	-129.476	0.080	-0.011
-269.326	683.358	0.004	-0.009
-268.311	-200.000	0.033	-0.207
-267.297	-200.000	-0.018	0.093
-266.282	252.402	0.218	-0.369
-265.267	31.695	-0.113	-0.097
-264.253	520.261	0.065	0.150
-263.238	-175.278	-0.250	-0.007
-262.224	-200.000	0.003	0.043
-261.209	800.000	0.128	-0.364
-260.195	800.000	0.076	0.214
-259.180	82.001	-0.247	0.265
-258.165	495.630	0.111	-0.254
-257.151	64.085	0.072	0.071
-256.136	449.230	-0.069	-0.150
-255.122	-192.745	0.326	-0.003
-254.107	391.466	0.075	0.154
-253.092	79.148	-0.030	-0.032
-252.078	-200.000	0.013	-0.249
-251.063	13.876	-0.092	-0.071
-250.049	44.021	-0.198	-0.180
-249.034	129.537	0.184	0.234
-248.019	20.238	-0.191	-0.153
-247.005	299.907	-0.109	-0.199
-245.990	-23.925	-0.188	-0.112
-244.976	44.305	0.028	0.025
-243.961	-116.452	0.406	0.074
-242.946	3.421	0.023	-0.017
-241.932	-200.000	-0.040	-0.231
-240.917	-106.900	0.080	0.018
-239.903	-107.104	0.257	0.056
-238.888	413.781	0.061	0.129
-237.873	800.000	0.137	0.404
-236.859	-200.000	-0.006	-0.093
-235.844	5.160	-0.093	-0.068
-234.830	-60.223	-0.317	-0.134
-233.815	-200.000	-0.127	-0.000
-232.800	166.797	-0.135	0.190
-231.786	121.019	-0.281	0.347
-230.771	-59.173	0.090	0.038
-229.757	-117.646	0.486	0.087
-228.742	-129.941	0.238	0.032
-227.727	-17.661	0.212	-0.132
-226.713	-200.000	-0.019	-0.172
-225.698	142.306	0.179	0.236
-224.684	104.315	-0.142	0.166
-223.669	68.477	-0.049	0.050
-222.655	-107.243	-0.290	0.063
-221.640	-78.296	0.404	0.138
-220.625	143.750	-0.136	0.180
-219.611	-117.804	0.082	-0.015
-218.596	683.012	-0.054	-0.139
-217.582	-104.193	-0.351	0.081
-216.567	51.436	-0.269	0.253
-215.552	800.000	0.079	0.319
-214.538	296.884	-0.227	-0.412
-213.523	800.000	0.062	0.213
-212.509	235.263	-0.128	0.210
-211.494	352.830	-0.089	-0.174
-210.479	-150.383	0.193	0.015
-209.465	685.810	-0.099	-0.257
-208.450	6.566	0.453	-0.334
-207.436	-157.984	0.446	0.026
-206.421	50.973	-0.242	0.227
-205.406	-29.807	0.170	0.096
-204.392	29.729	0.077	-0.065
-203.377	-200.000	0.056	0.443
-202.363	12.106	-0.267	0.204
-201.348	-200.000	0.005	0.086
-200.333	-128.210	0.073	-0.010
-199.319	316.882	0.159	-0.297
-198.304	247.069	-0.189	-0.316
-197.290	-117.960	-0.156	0.028
-196.275	-124.475	-0.148	0.023
-195.260	-46.905	0.167	-0.081
-194.246	-182.919	0.510	0.009
-193.231	221.018	0.044	-0.070
-192.217	-29.221	0.119	-0.068
-191.202	179.852	0.028	-0.041
-190.187	403.450	0.104	0.217
-189.173	229.574	0.253	-0.409
-188.158	78.039	-0.073	-0.078
-187.144	-140.255	-0.071	0.007
-186.129	735.861	-0.029	-0.078
-185.114	-143.300	0.330	0.031
-184.100	-104.819	0.230	-0.052
-183.085	-16.373	0.205	-0.129
-182.071	800.000	-0.097	0.270
-181.056	-200.000	-0.386	0.001
-180.042	179.779	-0.093	0.135
-179.027	185.336	0.146	-0.214
-178.012	314.268	-0.052	0.096
-176.998	-55.648	-0.097	0.043
-175.983	156.806	-0.102	0.140
-174.969	110.785	0.198	0.235
-173.954	637.479	0.151	-0.380
-172.939	800.000	0.157	0.454
-171.925	800.000	-0.083	0.302
-170.910	-142.754	-0.187	-0.018
-169.896	502.121	0.081	0.186
-168.881	-102.006	0.087	0.021
-167.866	208.538	0.036	0.056
-166.852	39.789	0.067	-0.059
-165.837	-21.354	-0.277	-0.167
-164.823	26.569	0.120	-0.099
-163.808	194.213	-0.117	-0.175
-162.793	-93.953	0.019	0.005
-161.779	123.974	-0.064	-0.079
-160.764	800.000	-0.068	0.221
-159.750	-84.108	0.147	-0.046
-158.735	-200.000	-0.012	0.119
-157.720	-160.750	-0.136	0.007
-156.706	-112.175	0.205	-0.041
-155.691	38.888	-0.092	-0.081
-154.677	-49.227	-0.237	-0.112
-153.662	-51.337	0.221	-0.102
-152.647	161.305	0.207	0.286
-151.633	294.078	-0.176	0.318
-150.618	-144.517	0.153	0.014
-149.604	252.871	0.039	0.066
-148.589	-75.933	0.452	0.158
-147.574	185.019	-0.213	0.312
-146.560	337.145	-0.138	0.264
-145.545	-38.929	0.265	-0.138
-144.531	92.971	-0.185	-0.206
-143.516	-200.000	-0.036	-0.179
-142.502	-155.795	0.274	-0.017
-141.487	-28.697	-0.148	0.084
-140.472	800.000	-0.058	0.189
-139.458	60.005	-0.271	-0.264
-138.443	161.707	0.078	-0.108
-137.429	-178.520	0.623	-0.014
-136.414	-97.676	0.033	0.009
-135.399	70.104	-0.117	-0.120
-134.385	6.105	0.313	0.229
-133.370	-200.000	0.010	0.059
-132.356	6.383	0.198	0.145
-131.341	800.000	-0.062	0.249
-130.326	378.099	-0.017	0.034
-129.312	-131.274	-0.221	-0.029
-128.297	-200.000	-0.090	0.476
-127.283	-33.778	0.283	0.154
-126.268	572.014	-0.093	-0.224
-125.253	-200.000	0.005	0.049
-124.239	26.435	0.291	-0.240
-123.224	-5.460	0.278	-0.188
-122.210	-200.000	0.004	-0.104
-121.195	800.000	-0.018	0.078
