DTS Sentinel unit serial number:	SN413079Multiplexer serial number:	ORYXHardware model number:	OX4-SRSoftware version number:	ORYX F/W v4.00 Oryx Data Collector v3.7.2.0data status	okinstallation	princeton_trtdifferential loss correction	single-endedforward channel	channel 3reverse channel	N/Adate	2019/09/16time	22:32:35forward acquisition time	60.00reverse acquisition time	0.00gamma	496.2192k internal	0.2324k external	0.2324temperature offset calibration	0.9943default loss term (dB/km)	0.3790temperature slope calibration	1.0000multiplexer offset coefficient	1.0000multiplexer slope coefficient	1.0000fibre end	0.00T internal ref (°C)	30.77T ext. ref 1 (°C)	0.08T ext. ref 2 (°C)	24.43length (m)	temperature (°C)	Stokes	anti-Stokes-747.200	339.638	-0.133	0.261
-746.185	-164.431	0.174	-0.008
-745.171	206.014	-0.032	0.051
-744.156	173.388	0.183	0.266
-743.142	800.000	0.082	0.243
-742.127	-0.524	0.149	0.106
-741.112	7.932	-0.133	0.101
-740.098	-200.000	-0.040	0.317
-739.083	317.045	-0.094	-0.180
-738.069	525.752	-0.186	0.442
-737.054	-84.419	0.338	-0.108
-736.039	-13.279	0.058	-0.038
-735.025	261.201	0.074	0.130
-734.010	112.207	0.061	-0.074
-732.996	26.226	-0.508	-0.428
-731.981	-11.681	-0.066	-0.044
-730.966	800.000	-0.052	0.189
-729.952	-57.960	0.057	0.025
-728.937	90.878	0.067	-0.076
-727.923	94.460	0.149	-0.171
-726.908	671.434	-0.047	-0.122
-725.894	-200.000	-0.016	-0.424
-724.879	-14.208	-0.137	-0.089
-723.864	800.000	-0.056	-0.205
-722.850	-17.715	0.307	-0.194
-721.835	243.214	-0.202	0.341
-720.821	-105.099	-0.228	-0.053
-719.806	-119.426	0.444	0.078
-718.791	-79.789	-0.173	-0.059
-717.777	-163.575	-0.282	0.013
-716.762	327.171	0.076	-0.147
-715.748	800.000	-0.015	0.045
-714.733	473.221	-0.118	-0.269
-713.718	-149.798	0.249	0.020
-712.704	58.024	0.031	0.030
-711.689	-109.436	-0.114	-0.024
-710.675	-193.855	0.233	-0.002
-709.660	-122.553	-0.441	0.072
-708.645	-43.368	-0.270	0.138
-707.631	-53.536	-0.254	-0.117
-706.616	-47.285	-0.282	-0.138
-705.602	-74.221	-0.106	0.039
-704.587	-200.000	-0.021	-0.111
-703.572	-200.000	-0.059	-0.343
-702.558	-56.976	0.344	0.153
-701.543	-21.830	-0.093	-0.057
-700.529	-96.822	0.090	-0.024
-699.514	-200.000	-0.014	0.160
-698.499	-200.000	-0.004	-0.186
-697.485	18.043	-0.383	0.307
-696.470	-40.602	-0.056	-0.029
-695.456	-59.287	0.278	-0.121
-694.441	-75.835	-0.135	0.048
-693.426	-73.517	0.132	0.049
-692.412	188.729	-0.098	-0.148
-691.397	800.000	-0.079	0.238
-690.383	-91.611	-0.294	0.084
-689.368	-131.400	0.182	-0.024
-688.354	800.000	-0.068	0.199
-687.339	-200.000	0.010	0.176
-686.324	-114.418	0.326	-0.063
-685.310	-39.144	0.104	-0.055
-684.295	-64.485	-0.118	-0.048
-683.281	-200.000	0.038	0.412
-682.266	-26.926	0.130	0.076
-681.251	800.000	0.080	0.300
-680.237	38.316	-0.235	0.211
-679.222	302.886	0.153	0.285
-678.208	-90.860	-0.193	0.056
-677.193	800.000	-0.092	0.257
-676.178	800.000	-0.044	-0.193
-675.164	391.109	0.078	-0.163
-674.149	298.626	-0.059	-0.109
-673.135	150.056	-0.114	0.156
-672.120	-9.733	-0.051	0.034
-671.105	147.138	0.032	0.043
-670.091	-200.000	0.026	-0.172
-669.076	-26.338	0.100	0.059
-668.062	-112.785	0.107	0.021
-667.047	145.061	0.220	0.296
-666.032	143.270	-0.251	-0.337
-665.018	-104.883	0.473	0.109
-664.003	-73.193	0.280	-0.103
-662.989	340.886	0.084	-0.165
-661.974	-140.131	0.186	-0.020
-660.959	-139.299	0.211	0.023
-659.945	-137.657	0.361	0.041
-658.930	15.051	0.224	-0.176
-657.916	-103.125	-0.366	0.087
-656.901	-80.510	0.132	-0.044
-655.886	21.074	-0.414	0.338
-654.872	285.078	-0.074	-0.134
-653.857	-131.227	-0.282	0.038
-652.843	-157.820	-0.179	0.011
-651.828	267.218	-0.083	0.147
-650.814	-65.921	0.411	-0.165
-649.799	203.993	0.038	0.059
-648.784	-137.783	0.343	0.039
-647.770	587.827	-0.036	-0.088
-646.755	219.352	0.202	-0.325
-645.741	298.492	-0.164	-0.304
-644.726	237.563	-0.142	-0.236
-643.711	-78.107	0.187	0.065
-642.697	-88.804	0.503	0.150
-641.682	-200.000	0.023	0.150
-640.668	-60.008	-0.167	0.072
-639.653	-200.000	-0.028	-0.189
-638.638	-200.000	0.091	0.469
-637.624	-200.000	0.018	0.158
-636.609	409.256	0.091	-0.194
-635.595	-128.769	-0.202	-0.029
-634.580	10.637	-0.049	-0.038
-633.565	50.681	-0.147	-0.140
-632.551	-19.652	0.277	-0.172
-631.536	-27.002	0.253	0.148
-630.522	134.929	-0.088	-0.115
-629.507	386.557	0.153	-0.318
-628.492	-128.345	0.110	-0.016
-627.478	-72.526	-0.360	-0.134
-626.463	800.000	0.011	-0.042
-625.449	-113.373	0.125	-0.025
-624.434	-80.821	0.136	0.045
-623.419	-162.579	-0.347	0.017
-622.405	445.744	-0.014	-0.030
-621.390	800.000	-0.024	-0.103
-620.376	800.000	-0.032	-0.091
-619.361	-200.000	0.027	-0.160
-618.346	145.383	0.106	0.143
-617.332	110.693	-0.043	-0.052
-616.317	-200.000	-0.003	0.015
-615.303	-128.154	-0.319	0.046
-614.288	-56.336	0.260	-0.116
-613.273	-22.024	-0.127	0.078
-612.259	-6.444	-0.146	0.100
-611.244	-57.046	-0.215	-0.095
-610.230	-139.141	0.157	0.017
-609.215	142.346	0.023	0.031
-608.201	-51.878	0.153	-0.071
-607.186	-200.000	-0.012	-0.122
-606.171	-18.325	-0.023	0.015
-605.157	-200.000	-0.001	-0.025
-604.142	-97.910	-0.194	-0.050
-603.128	-23.324	0.106	-0.064
-602.113	-200.000	0.011	0.121
-601.098	-116.056	0.254	0.047
-600.084	27.615	-0.095	0.080
-599.069	29.312	0.220	0.187
-598.055	-110.602	-0.600	0.125
-597.040	166.898	0.130	-0.185
-596.025	-111.700	0.343	0.070
-595.011	69.890	-0.160	-0.166
-593.996	157.813	0.161	-0.224
-592.982	-61.459	-0.333	-0.140
-591.967	-50.976	-0.481	-0.227
-590.952	-91.475	-0.133	-0.038
-589.938	72.661	0.102	-0.106
-588.923	-53.554	0.124	-0.057
-587.909	288.788	0.015	0.027
-586.894	47.633	0.178	-0.167
-585.879	800.000	0.066	-0.203
-584.865	-2.485	-0.226	0.159
-583.850	-104.947	-0.177	-0.041
-582.836	-13.270	0.212	0.138
-581.821	158.233	0.101	-0.141
-580.806	229.244	0.014	0.023
-579.792	72.962	0.134	-0.140
-578.777	-200.000	0.065	0.296
-577.763	76.737	-0.172	-0.183
-576.748	-200.000	0.001	-0.134
-575.733	362.184	0.088	-0.177
-574.719	606.042	-0.074	-0.185
-573.704	0.640	-0.314	0.225
-572.690	129.100	0.105	0.134
-571.675	-54.294	-0.352	0.160
-570.661	219.939	0.134	0.214
-569.646	12.400	-0.138	0.107
-568.631	135.962	0.073	-0.096
-567.617	800.000	-0.058	0.228
-566.602	-200.000	-0.044	-0.250
-565.588	-66.703	-0.143	0.057
-564.573	-200.000	0.013	-0.072
-563.558	-89.199	-0.101	0.030
-562.544	202.501	-0.072	-0.111
-561.529	248.094	0.109	-0.185
-560.515	800.000	-0.136	0.398
-559.500	105.370	-0.196	-0.233
-558.485	308.501	-0.095	-0.178
-557.471	59.121	-0.022	0.022
-556.456	-137.123	0.231	-0.026
-555.442	-116.432	0.068	-0.013
-554.427	56.372	0.162	0.158
-553.412	-200.000	-0.000	0.218
-552.398	137.504	-0.061	-0.080
-551.383	-89.201	-0.121	0.036
-550.369	31.012	0.118	0.102
-549.354	800.000	0.073	-0.241
-548.339	-200.000	-0.038	-0.234
-547.325	429.741	0.122	-0.265
-546.310	-108.879	0.337	0.072
-545.296	226.206	0.102	0.165
-544.281	121.307	-0.083	0.104
-543.266	-138.782	0.183	-0.020
-542.252	31.013	0.159	0.136
-541.237	162.665	-0.064	-0.090
-540.223	144.064	-0.213	0.285
-539.208	437.988	-0.175	0.383
-538.193	-132.267	-0.175	0.023
-537.179	-119.141	0.173	-0.030
-536.164	-200.000	0.038	-0.198
-535.150	278.641	-0.056	0.101
-534.135	-89.500	-0.097	0.028
-533.121	222.779	-0.028	0.044
-532.106	-200.000	-0.028	-0.366
-531.091	76.653	0.224	-0.238
-530.077	757.656	-0.107	0.291
-529.062	800.000	0.050	-0.177
-528.048	-200.000	0.060	0.343
-527.033	175.242	-0.046	0.067
-526.018	-48.699	-0.486	-0.234
-525.004	156.053	-0.297	-0.410
-523.989	800.000	0.052	0.169
-522.975	140.833	-0.225	0.298
-521.960	-147.808	0.154	0.013
-520.945	224.463	-0.065	-0.106
-519.931	92.315	0.329	-0.371
-518.916	-145.286	0.165	0.015
-517.902	579.381	-0.081	-0.199
-516.887	35.725	0.056	-0.050
-515.872	-11.241	-0.145	0.095
-514.858	19.766	-0.331	-0.267
-513.843	15.668	0.221	-0.174
-512.829	27.234	0.059	0.049
-511.814	100.787	-0.200	-0.233
-510.799	800.000	-0.018	0.061
-509.785	800.000	-0.042	0.156
-508.770	130.427	-0.110	-0.141
-507.756	-151.732	0.106	0.008
-506.741	-27.242	-0.131	0.076
-505.726	800.000	0.079	0.240
-504.712	17.564	0.124	-0.099
-503.697	-121.432	0.239	-0.040
-502.683	182.102	0.101	-0.149
-501.668	-141.708	-0.466	0.047
-500.653	222.636	-0.040	0.065
-499.639	-143.003	-0.354	0.034
-498.624	-200.000	-0.036	0.227
-497.610	146.046	-0.193	-0.259
-496.595	800.000	-0.016	-0.055
-495.581	-2.338	-0.334	-0.234
-494.566	800.000	-0.040	0.125
-493.551	123.973	-0.300	0.377
-492.537	344.447	0.189	-0.371
-491.522	254.545	-0.124	-0.212
-490.508	800.000	-0.042	-0.131
-489.493	-34.242	-0.228	0.125
-488.478	800.000	0.034	-0.141
-487.464	83.734	0.253	-0.276
-486.449	800.000	-0.086	0.323
-485.435	-31.748	-0.032	-0.018
-484.420	-47.260	-0.090	0.044
-483.405	-200.000	-0.011	-0.227
-482.391	-17.255	0.403	0.254
-481.376	398.668	-0.181	0.379
-480.362	800.000	-0.099	0.305
-479.347	800.000	-0.131	0.393
-478.332	-54.640	-0.295	0.133
-477.318	-67.735	0.211	0.083
-476.303	-170.215	0.134	0.005
-475.289	792.585	-0.131	0.360
-474.274	-161.857	0.447	0.023
-473.259	-112.150	-0.213	0.043
-472.245	-6.159	0.228	0.156
-471.230	108.499	-0.138	0.165
-470.216	448.253	0.091	0.199
-469.201	800.000	0.057	-0.209
-468.186	36.901	-0.215	-0.190
-467.172	800.000	-0.027	0.089
-466.157	-139.703	0.099	-0.011
-465.143	-200.000	-0.021	0.149
-464.128	800.000	-0.064	0.233
-463.113	364.788	-0.133	0.267
-462.099	-106.253	0.274	-0.061
-461.084	-54.071	-0.217	-0.098
-460.070	800.000	0.066	-0.289
-459.055	-89.919	0.023	-0.007
-458.040	800.000	-0.065	0.226
-457.026	-200.000	0.000	0.019
-456.011	126.797	0.133	-0.169
-454.997	166.270	0.079	-0.111
-453.982	44.978	0.323	0.296
-452.968	-200.000	-0.002	-0.318
-451.953	68.475	-0.214	-0.219
-450.938	800.000	-0.057	-0.227
-449.924	698.020	-0.072	-0.189
-448.909	-200.000	0.007	0.104
-447.895	-200.000	0.029	-0.148
-446.880	-200.000	-0.045	-0.351
-445.865	9.352	-0.148	0.112
-444.851	-20.197	0.078	-0.048
-443.836	-94.022	0.079	-0.022
-442.822	265.962	0.168	0.292
-441.807	-200.000	0.020	-0.259
-440.792	-29.902	0.217	-0.124
-439.778	-94.200	-0.115	0.031
-438.763	-200.000	-0.071	0.431
-437.749	-200.000	-0.049	-0.362
-436.734	800.000	0.083	0.241
-435.719	91.797	-0.267	-0.299
-434.705	-103.259	0.246	0.058
-433.690	-40.512	-0.228	-0.118
-432.676	-40.536	-0.173	-0.090
-431.661	18.238	0.166	0.132
-430.646	-76.309	-0.117	-0.041
-429.632	800.000	0.044	0.181
-428.617	68.645	-0.121	-0.124
-427.603	280.451	-0.177	0.316
-426.588	-146.080	-0.192	0.017
-425.573	64.961	-0.155	0.156
-424.559	165.587	0.132	-0.186
-423.544	1.141	-0.220	0.157
-422.530	222.629	-0.060	0.097
-421.515	42.335	0.123	0.112
-420.500	-200.000	-0.001	-0.088
-419.486	128.017	-0.141	0.179
-418.471	-35.259	0.013	-0.007
-417.457	-22.908	-0.235	0.141
-416.442	-137.567	0.227	-0.026
-415.428	-75.814	0.110	-0.039
-414.413	-14.117	-0.239	-0.154
-413.398	204.105	0.156	0.241
-412.384	-128.155	0.291	-0.041
-411.369	382.721	-0.019	-0.039
-410.355	-47.520	-0.116	-0.056
-409.340	30.579	-0.229	-0.195
-408.325	-121.482	0.199	-0.033
-407.311	91.791	-0.047	-0.053
-406.296	54.006	0.221	-0.211
-405.282	800.000	0.021	0.062
-404.267	-48.526	-0.339	0.162
-403.252	24.013	-0.039	0.032
-402.238	-200.000	-0.030	0.278
-401.223	-130.058	-0.203	-0.028
-400.209	43.053	0.326	0.297
-399.194	800.000	0.066	0.203
-398.179	119.216	0.138	0.170
-397.165	106.737	0.148	0.175
-396.150	179.835	0.079	0.115
-395.136	-152.476	-0.247	0.018
-394.121	-65.499	-0.135	0.054
-393.106	632.391	0.146	-0.369
-392.092	62.447	0.054	-0.054
-391.077	-14.542	-0.087	0.055
-390.063	-56.194	0.128	-0.057
-389.048	-200.000	0.036	0.314
-388.033	-6.009	-0.257	-0.175
-387.019	-85.998	0.213	-0.066
-386.004	25.944	-0.094	0.078
-384.990	800.000	0.116	-0.331
-383.975	-13.580	0.011	-0.007
-382.960	-109.076	-0.122	-0.026
-381.946	800.000	0.075	0.290
-380.931	382.233	0.108	0.221
-379.917	714.416	-0.107	-0.282
-378.902	126.739	0.210	-0.264
-377.888	164.029	-0.155	0.217
-376.873	-177.862	-0.187	-0.004
-375.858	-17.616	-0.168	-0.105
-374.844	45.296	0.178	-0.163
-373.829	-132.201	-0.197	0.025
-372.815	420.942	0.089	-0.189
-371.800	62.116	0.357	-0.354
-370.785	478.857	-0.129	-0.290
-369.771	316.557	0.085	-0.159
-368.756	-129.735	0.176	0.024
-367.742	537.890	0.099	-0.234
-366.727	77.343	-0.216	-0.229
-365.712	-91.909	-0.362	0.102
-364.698	-200.000	-0.012	0.530
-363.683	169.000	0.147	-0.208
-362.669	323.637	-0.057	-0.109
-361.654	364.990	0.151	0.302
-360.639	304.403	-0.016	0.030
-359.625	714.101	0.071	-0.187
-358.610	11.566	0.153	0.117
-357.596	-154.066	-0.253	-0.017
-356.581	-200.000	-0.002	-0.159
-355.566	800.000	-0.035	-0.144
-354.552	-158.456	-0.155	-0.009
-353.537	800.000	0.033	-0.106
-352.523	-200.000	0.026	0.146
-351.508	-50.589	0.277	-0.130
-350.493	-64.814	-0.365	0.147
-349.479	800.000	-0.056	0.191
-348.464	-13.182	0.199	-0.128
-347.450	191.363	-0.203	0.304
-346.435	800.000	0.095	0.273
-345.420	-73.148	0.376	0.137
-344.406	59.627	0.039	0.038
-343.391	262.247	-0.136	0.235
-342.377	398.656	0.089	-0.185
-341.362	-200.000	-0.055	0.310
-340.348	800.000	0.059	0.234
-339.333	-200.000	-0.014	0.076
-338.318	-71.727	0.221	-0.082
-337.304	582.031	0.130	-0.316
-336.289	-105.426	-0.142	-0.032
-335.275	48.542	-0.109	0.101
-334.260	800.000	0.066	0.236
-333.245	134.137	-0.164	-0.211
-332.231	16.849	-0.142	-0.112
-331.216	14.156	-0.091	-0.071
-330.202	264.905	0.149	-0.259
-329.187	800.000	0.034	0.143
-328.172	-40.066	0.394	0.204
-327.158	42.124	0.170	-0.154
-326.143	-92.305	0.170	-0.047
-325.129	190.218	-0.272	-0.406
-324.114	62.212	0.141	-0.140
-323.099	126.745	-0.156	0.196
-322.085	55.414	-0.125	0.120
-321.070	-200.000	0.009	0.073
-320.056	57.419	-0.170	0.165
-319.041	139.463	-0.058	0.076
-318.026	-32.311	0.403	-0.223
-317.012	170.294	0.067	-0.095
-315.997	589.207	0.021	-0.050
-314.983	9.472	-0.271	0.204
-313.968	118.555	-0.258	0.316
-312.953	-105.523	0.399	-0.090
-311.939	133.204	0.089	0.114
-310.924	102.771	0.148	-0.172
-309.910	-200.000	0.007	0.055
-308.895	-173.991	-0.301	-0.009
-307.880	-10.742	-0.123	0.081
-306.866	-154.169	-0.083	0.006
-305.851	87.968	-0.272	0.300
-304.837	-181.256	0.285	0.006
-303.822	156.544	-0.181	-0.248
-302.807	-200.000	-0.331	-0.000
-301.793	-31.666	-0.220	0.123
-300.778	800.000	0.016	0.049
-299.764	40.390	0.226	0.202
-298.749	10.434	0.164	0.124
-297.735	280.166	-0.105	0.186
-296.720	-111.321	-0.034	-0.007
-295.705	271.594	-0.198	-0.346
-294.691	-106.420	0.224	-0.050
-293.676	-64.740	-0.183	-0.074
-292.662	-200.000	0.175	0.000
-291.647	800.000	-0.077	-0.216
-290.632	-70.226	0.096	0.036
-289.618	601.629	-0.037	0.091
-288.603	-92.236	0.130	-0.036
-287.589	-115.692	0.439	0.082
-286.574	800.000	0.102	0.299
-285.559	-86.613	-0.304	-0.092
-284.545	800.000	-0.071	-0.203
-283.530	-188.647	0.107	0.001
-282.516	-180.944	0.262	-0.005
-281.501	-200.000	0.024	-0.164
-280.486	-32.840	0.074	0.041
-279.472	-134.984	-0.317	0.038
-278.457	-200.000	0.058	-0.293
-277.443	800.000	0.021	-0.070
-276.428	-83.432	0.073	0.023
-275.413	-197.754	0.342	0.002
-274.399	-200.000	-0.021	0.096
-273.384	800.000	0.031	0.087
-272.370	142.605	0.101	0.134
-271.355	169.480	-0.230	-0.325
-270.340	92.026	-0.053	0.059
-269.326	680.455	-0.052	-0.135
-268.311	-26.989	-0.335	-0.193
-267.297	-103.159	0.247	0.058
-266.282	79.261	0.105	-0.112
-265.267	136.905	-0.256	-0.332
-264.253	-200.000	0.008	0.178
-263.238	-86.630	0.040	0.012
-262.224	291.096	0.223	-0.402
-261.209	-200.000	-0.063	0.287
-260.195	-38.373	0.086	-0.045
-259.180	144.847	0.104	-0.137
-258.165	546.278	0.158	-0.374
-257.151	456.945	0.106	-0.233
-256.136	-116.295	-0.016	-0.003
-255.122	-180.537	0.422	-0.009
-254.107	465.489	0.151	0.335
-253.092	-102.269	0.117	0.028
-252.078	-143.391	-0.283	0.027
-251.063	50.160	-0.141	-0.131
-250.049	-87.071	0.181	0.055
-249.034	-8.206	-0.166	0.111
-248.019	800.000	0.009	-0.033
-247.005	-200.000	0.055	0.345
-245.990	450.787	0.072	-0.157
-244.976	-112.524	0.521	-0.103
-243.961	-66.033	0.362	-0.143
-242.946	405.426	-0.070	0.145
-241.932	13.261	0.158	0.121
-240.917	-45.485	-0.236	-0.116
-239.903	-42.254	0.121	0.061
-238.888	-200.000	-0.038	-0.232
-237.873	360.521	0.072	0.142
-236.859	-123.491	0.156	-0.024
-235.844	0.224	-0.316	-0.223
-234.830	-163.426	0.094	0.004
-233.815	490.725	-0.061	0.139
-232.800	285.796	0.073	0.130
-231.786	800.000	0.024	-0.089
-230.771	286.358	0.073	-0.131
-229.757	78.385	0.032	0.034
-228.742	-200.000	-0.069	0.336
-227.727	174.592	0.013	0.018
-226.713	-200.000	0.029	-0.127
-225.698	341.356	0.115	0.221
-224.684	-33.511	-0.134	0.073
-223.669	127.370	0.105	0.131
-222.655	800.000	-0.026	0.081
-221.640	-200.000	0.071	0.438
-220.625	83.987	-0.059	0.064
-219.611	-200.000	-0.015	0.066
-218.596	69.449	0.225	-0.229
-217.582	224.047	-0.100	0.160
-216.567	-43.237	0.110	0.055
-215.552	-200.000	-0.050	-0.296
-214.538	467.772	-0.242	0.536
-213.523	-200.000	0.006	0.049
-212.509	-63.044	0.067	-0.027
-211.494	800.000	0.090	-0.297
-210.479	40.728	0.044	0.039
-209.465	-200.000	-0.012	0.081
-208.450	270.280	0.115	0.200
-207.436	575.473	0.111	0.267
-206.421	-200.000	0.006	-0.056
-205.406	-59.448	-0.059	-0.025
-204.392	-200.000	0.018	-0.095
-203.377	155.977	0.175	-0.238
-202.363	-40.686	0.026	-0.013
-201.348	-25.290	0.217	0.127
-200.333	-51.511	-0.263	-0.121
-199.319	-200.000	0.027	0.212
-198.304	800.000	-0.052	-0.166
-197.290	-34.563	0.165	-0.089
-196.275	654.006	0.100	0.252
-195.260	501.796	0.061	-0.139
-194.246	-140.291	-0.136	0.014
-193.231	348.390	0.085	0.166
-192.217	800.000	0.054	-0.214
-191.202	-200.000	0.027	0.158
-190.187	430.370	0.087	-0.187
-189.173	-33.588	0.190	-0.104
-188.158	-200.000	-0.001	-0.041
-187.144	44.309	0.220	0.199
-186.129	281.519	-0.181	-0.319
-185.114	-97.900	-0.278	0.071
-184.100	-117.024	0.310	0.056
-183.085	-178.764	-0.173	-0.004
-182.071	-73.295	-0.362	0.131
-181.056	452.363	0.046	0.101
-180.042	270.450	-0.114	-0.198
-179.027	181.439	0.173	-0.251
-178.012	-114.407	-0.103	-0.020
-176.998	-52.401	-0.100	-0.046
-175.983	65.234	0.164	0.164
-174.969	-153.089	0.266	-0.018
-173.954	43.488	-0.255	0.230
-172.939	9.435	0.099	-0.074
-171.925	34.727	-0.203	0.176
-170.910	800.000	-0.062	0.237
-169.896	-29.356	0.307	-0.173
-168.881	-61.555	-0.345	-0.143
-167.866	4.864	0.089	0.065
-166.852	-200.000	0.066	0.342
-165.837	217.868	0.086	0.135
-164.823	-41.853	-0.072	0.037
-163.808	51.876	-0.047	0.044
-162.793	167.425	0.036	0.050
-161.779	29.233	0.165	0.138
-160.764	68.228	0.177	0.179
-159.750	-118.687	-0.230	0.040
-158.735	17.739	-0.229	-0.180
-157.720	-200.000	0.038	0.193
-156.706	-150.608	-0.245	-0.018
-155.691	-200.000	-0.014	0.126
-154.677	800.000	-0.026	-0.107
-153.662	-55.141	-0.274	0.122
-152.647	-82.323	0.180	-0.058
-151.633	-192.997	0.203	-0.002
-150.618	-47.539	0.551	-0.264
-149.604	-23.090	0.136	0.081
-148.589	-162.816	-0.331	-0.016
-147.574	800.000	-0.084	0.241
-146.560	-42.366	-0.210	-0.106
-145.545	642.899	0.023	-0.057
-144.531	-23.172	-0.142	-0.084
-143.516	-20.065	-0.175	0.106
-142.502	23.706	-0.298	0.242
-141.487	510.379	-0.092	-0.210
-140.472	800.000	0.069	0.199
-139.458	-16.847	0.089	-0.056
-138.443	-200.000	-0.025	-0.229
-137.429	479.103	0.093	-0.208
-136.414	-163.527	-0.191	-0.009
-135.399	20.042	0.178	0.141
-134.385	-76.112	0.487	-0.170
-133.370	148.039	0.156	-0.208
-132.356	13.518	0.124	-0.095
-131.341	-200.000	0.064	0.499
-130.326	-47.639	0.231	0.110
-129.312	-77.530	0.206	0.070
-128.297	-200.000	0.032	0.226
-127.283	43.063	0.123	-0.111
-126.268	100.236	0.137	0.157
-125.253	-42.622	0.176	0.088
-124.239	150.738	-0.075	-0.101
-123.224	-52.804	-0.239	0.109
-122.210	-159.270	-0.202	-0.011
-121.195	-117.870	-0.177	-0.031
