DTS Sentinel unit serial number:	SN413079Multiplexer serial number:	ORYXHardware model number:	OX4-SRSoftware version number:	ORYX F/W v4.00 Oryx Data Collector v3.7.2.0data status	okinstallation	princeton_trtdifferential loss correction	single-endedforward channel	channel 3reverse channel	N/Adate	2019/09/17time	06:56:35forward acquisition time	60.00reverse acquisition time	0.00gamma	496.2192k internal	0.2333k external	0.2333temperature offset calibration	0.9945default loss term (dB/km)	0.3790temperature slope calibration	1.0000multiplexer offset coefficient	1.0000multiplexer slope coefficient	1.0000fibre end	0.00T internal ref (°C)	27.58T ext. ref 1 (°C)	0.12T ext. ref 2 (°C)	21.03length (m)	temperature (°C)	Stokes	anti-Stokes-747.200	70.760	0.014	0.014
-746.185	300.258	0.308	0.571
-745.171	-200.000	0.001	0.066
-744.156	-82.347	-0.308	0.101
-743.142	-17.945	0.256	0.161
-742.127	-31.903	-0.136	0.077
-741.112	209.045	-0.002	0.003
-740.098	-155.457	0.183	0.012
-739.083	35.568	-0.157	0.139
-738.069	-152.425	-0.411	0.030
-737.054	-139.063	-0.091	-0.010
-736.039	-200.000	0.111	-0.623
-735.025	63.417	-0.048	0.049
-734.010	-200.000	-0.070	-0.328
-732.996	35.708	-0.201	0.178
-731.981	-200.000	0.049	0.322
-730.966	-66.008	0.169	-0.068
-729.952	-27.184	0.098	0.058
-728.937	-111.470	-0.294	-0.060
-727.923	-11.397	0.381	-0.252
-726.908	-130.881	-0.268	0.036
-725.894	-82.093	-0.106	-0.035
-724.879	-200.000	-0.014	0.156
-723.864	373.645	-0.128	0.263
-722.850	-200.000	0.004	0.294
-721.835	-200.000	-0.049	0.238
-720.821	-200.000	0.083	-0.396
-719.806	-74.492	0.373	-0.135
-718.791	-44.240	0.247	-0.124
-717.777	800.000	-0.060	-0.179
-716.762	-132.202	0.098	0.013
-715.748	6.887	0.115	0.086
-714.733	62.981	-0.141	-0.142
-713.718	-111.681	0.108	-0.022
-712.704	-124.888	0.048	0.007
-711.689	23.740	-0.094	-0.078
-710.675	-118.266	-0.268	-0.048
-709.660	-59.201	0.457	-0.198
-708.645	-200.000	0.003	0.219
-707.631	-57.031	-0.057	0.025
-706.616	-50.646	0.266	0.126
-705.602	167.826	-0.159	0.227
-704.587	-36.603	-0.089	-0.048
-703.572	-200.000	0.270	-0.001
-702.558	72.779	0.221	-0.232
-701.543	442.018	-0.047	-0.103
-700.529	800.000	-0.060	0.172
-699.514	84.041	0.401	-0.439
-698.499	90.984	0.134	-0.151
-697.485	112.670	0.095	-0.115
-696.470	-170.715	-0.446	0.015
-695.456	-111.322	0.098	-0.020
-694.441	-164.566	-0.234	-0.011
-693.426	5.773	-0.215	0.160
-692.412	-152.762	0.236	0.017
-691.397	-73.843	-0.119	-0.043
-690.383	800.000	-0.036	0.105
-689.368	-7.004	-0.363	0.247
-688.354	-200.000	0.092	-0.528
-687.339	-200.000	-0.001	0.133
-686.324	-65.830	-0.175	0.070
-685.310	800.000	0.050	0.214
-684.295	-55.847	-0.326	0.146
-683.281	800.000	-0.071	0.216
-682.266	81.622	-0.144	0.156
-681.251	1.348	0.298	-0.215
-680.237	207.867	-0.037	0.057
-679.222	1.219	-0.115	0.083
-678.208	44.455	0.018	-0.017
-677.193	-200.000	-0.070	-0.399
-676.178	-54.663	0.159	0.072
-675.164	-200.000	-0.033	0.168
-674.149	-200.000	-0.084	-0.394
-673.135	-149.290	-0.204	0.016
-672.120	-73.154	0.150	-0.055
-671.105	-200.000	0.003	-0.130
-670.091	-200.000	-0.021	-0.295
-669.076	6.681	-0.166	-0.124
-668.062	800.000	-0.082	0.303
-667.047	45.822	-0.160	0.148
-666.032	-3.880	-0.122	-0.085
-665.018	800.000	-0.069	-0.255
-664.003	-200.000	0.027	-0.166
-662.989	-27.653	-0.108	0.063
-661.974	-200.000	0.019	0.246
-660.959	391.935	-0.061	0.128
-659.945	-200.000	-0.008	-0.040
-658.930	-99.327	0.257	-0.065
-657.916	-67.319	-0.032	-0.012
-656.901	5.243	-0.023	-0.017
-655.886	180.400	-0.129	-0.190
-654.872	-130.018	0.075	0.010
-653.857	112.900	-0.049	-0.060
-652.843	-200.000	0.040	0.269
-651.828	-145.973	0.255	0.023
-650.814	-74.227	-0.161	0.058
-649.799	-8.617	-0.161	-0.108
-648.784	-200.000	-0.026	0.246
-647.770	-70.872	0.311	0.117
-646.755	-28.754	0.338	0.195
-645.741	401.040	0.066	0.139
-644.726	-200.000	0.000	0.088
-643.711	-135.718	0.143	-0.017
-642.697	-63.484	0.124	0.051
-641.682	-200.000	-0.001	0.089
-640.668	-163.612	-0.352	0.017
-639.653	272.157	0.104	0.183
-638.638	297.487	-0.158	0.291
-637.624	-110.964	0.192	-0.039
-636.609	-200.000	0.036	0.354
-635.595	-149.336	-0.152	-0.012
-634.580	-200.000	-0.017	0.204
-633.565	16.615	0.099	-0.079
-632.551	-200.000	0.073	-0.323
-631.536	-101.857	-0.172	0.042
-630.522	262.818	-0.040	-0.070
-629.507	-200.000	0.014	-0.303
-628.492	-49.049	0.207	0.099
-627.478	199.809	-0.109	-0.168
-626.463	283.415	-0.057	0.102
-625.449	-67.946	-0.086	0.033
-624.434	-57.398	0.137	0.060
-623.419	-170.428	-0.103	0.004
-622.405	-111.700	0.107	-0.022
-621.390	-200.000	0.019	-0.163
-620.376	-5.767	0.211	-0.144
-619.361	767.369	-0.051	0.138
-618.346	58.555	-0.069	-0.067
-617.332	469.688	-0.068	0.152
-616.317	-59.186	0.462	-0.199
-615.303	-200.000	0.040	-0.301
-614.288	85.421	-0.226	-0.248
-613.273	17.815	-0.216	-0.172
-612.259	32.759	-0.020	0.017
-611.244	-200.000	0.010	-0.134
-610.230	77.658	-0.163	-0.174
-609.215	-200.000	0.031	0.167
-608.201	-200.000	0.014	-0.258
-607.186	38.246	0.273	-0.243
-606.171	800.000	-0.049	0.200
-605.157	-198.732	0.193	0.001
-604.142	-60.795	0.116	-0.049
-603.128	339.496	-0.054	-0.105
-602.113	-69.578	-0.143	0.055
-601.098	202.000	0.198	-0.305
-600.084	800.000	-0.057	-0.206
-599.069	67.198	-0.131	-0.134
-598.055	-185.030	0.300	-0.005
-597.040	-42.771	0.172	-0.088
-596.025	-196.065	0.194	0.001
-595.011	-46.969	-0.177	-0.087
-593.996	-20.858	-0.184	0.113
-592.982	-75.854	0.132	0.047
-591.967	-161.586	-0.371	0.019
-590.952	-115.673	-0.108	-0.020
-589.938	-200.000	0.008	-0.317
-588.923	95.484	0.103	-0.118
-587.909	-200.000	0.030	-0.138
-586.894	4.436	-0.137	0.101
-585.879	254.183	-0.188	0.321
-584.865	-200.000	-0.009	0.158
-583.850	-89.077	-0.118	-0.035
-582.836	130.345	0.041	-0.052
-581.821	-200.000	-0.001	-0.109
-580.806	-200.000	-0.005	-0.136
-579.792	236.630	-0.034	0.056
-578.777	136.532	-0.176	-0.230
-577.763	-112.797	0.185	-0.037
-576.748	206.401	0.175	-0.273
-575.733	215.168	0.092	-0.146
-574.719	-23.363	-0.150	0.090
-573.704	-77.499	0.285	-0.099
-572.690	105.000	0.159	0.187
-571.675	46.968	-0.064	0.060
-570.661	-157.729	0.258	0.015
-569.646	353.418	-0.065	0.130
-568.631	-200.000	0.041	0.227
-567.617	-17.102	0.119	0.075
-566.602	-200.000	-0.033	-0.154
-565.588	62.261	-0.219	-0.218
-564.573	-182.428	-0.071	-0.001
-563.558	-133.582	0.350	-0.044
-562.544	87.777	0.296	0.327
-561.529	-121.193	-0.158	0.026
-560.515	176.933	-0.210	-0.305
-559.500	318.617	-0.078	-0.148
-558.485	-200.000	0.035	-0.161
-557.471	-135.520	-0.026	-0.003
-556.456	111.827	0.119	-0.143
-555.442	800.000	-0.070	0.242
-554.427	800.000	-0.027	0.107
-553.412	800.000	0.102	-0.283
-552.398	-23.020	0.119	-0.071
-551.383	138.313	-0.299	0.391
-550.369	-93.137	0.183	-0.051
-549.354	-109.166	0.366	-0.078
-548.339	-87.650	0.328	-0.099
-547.325	48.325	-0.161	0.151
-546.310	140.475	0.140	0.184
-545.296	449.718	-0.090	0.199
-544.281	-111.551	0.062	0.012
-543.266	17.841	0.233	0.185
-542.252	2.005	0.117	0.084
-541.237	406.787	0.207	-0.436
-540.223	235.348	0.106	-0.174
-539.208	-134.690	-0.227	-0.028
-538.193	-120.465	-0.124	-0.021
-537.179	800.000	0.025	0.074
-536.164	30.877	-0.231	0.198
-535.150	5.131	-0.186	0.137
-534.135	800.000	-0.080	0.349
-533.121	29.340	0.062	0.052
-532.106	34.649	0.193	0.168
-531.091	-200.000	-0.100	-0.480
-530.077	-105.625	0.193	0.044
-529.062	-200.000	0.018	-0.126
-528.048	-200.000	-0.006	0.100
-527.033	8.858	0.192	-0.145
-526.018	-77.578	-0.119	0.041
-525.004	-138.641	-0.032	-0.004
-523.989	-200.000	-0.017	-0.271
-522.975	-200.000	0.033	0.212
-521.960	-97.417	-0.497	-0.129
-520.945	615.112	-0.138	-0.345
-519.931	-74.840	-0.180	-0.064
-518.916	26.378	-0.055	-0.046
-517.902	-8.890	0.170	0.114
-516.887	800.000	0.075	0.258
-515.872	-200.000	-0.064	-0.422
-514.858	-8.683	-0.225	-0.151
-513.843	6.213	-0.330	-0.244
-512.829	-164.128	0.181	0.008
-511.814	-95.441	0.346	0.093
-510.799	-67.826	-0.194	-0.076
-509.785	800.000	0.064	0.236
-508.770	-136.452	-0.155	0.018
-507.756	-200.000	-0.018	-0.112
-506.741	33.452	0.062	-0.053
-505.726	6.661	-0.141	-0.105
-504.712	800.000	0.048	-0.165
-503.697	800.000	-0.139	0.506
-502.683	-14.013	0.269	0.173
-501.668	16.370	0.110	0.087
-500.653	-89.909	0.173	0.050
-499.639	160.051	-0.143	-0.199
-498.624	-200.000	0.041	0.214
-497.610	-19.253	-0.156	-0.097
-496.595	1.434	0.214	0.153
-495.581	215.614	0.206	0.326
-494.566	-48.866	0.277	0.132
-493.551	-111.631	0.293	-0.059
-492.537	-155.583	0.225	0.014
-491.522	-200.000	0.016	0.109
-490.508	-2.213	-0.286	0.200
-489.493	198.556	-0.180	0.274
-488.478	6.290	-0.147	-0.109
-487.464	-129.257	0.226	0.031
-486.449	-150.430	-0.040	-0.003
-485.435	149.873	0.091	-0.123
-484.420	800.000	0.024	0.077
-483.405	-200.000	0.002	-0.137
-482.391	44.817	-0.091	0.084
-481.376	-17.597	-0.217	0.136
-480.362	162.468	0.106	-0.148
-479.347	800.000	-0.043	0.170
-478.332	-53.876	-0.258	0.117
-477.318	-61.245	-0.040	-0.017
-476.303	97.304	-0.039	0.044
-475.289	178.081	0.139	0.202
-474.274	-98.913	0.157	-0.040
-473.259	-8.596	0.215	0.144
-472.245	37.066	0.048	-0.043
-471.230	-165.433	-0.280	0.012
-470.216	654.050	-0.033	-0.084
-469.201	800.000	-0.084	-0.315
-468.186	-30.035	-0.019	-0.011
-467.172	144.426	-0.213	-0.284
-466.157	520.470	0.141	-0.328
-465.143	-53.751	0.191	-0.087
-464.128	471.481	0.111	0.248
-463.113	-108.052	-0.368	-0.079
-462.099	-119.308	-0.121	-0.021
-461.084	-200.000	0.039	-0.349
-460.070	-79.767	0.154	-0.051
-459.055	21.584	0.380	0.307
-458.040	800.000	-0.026	-0.072
-457.026	-6.054	0.154	-0.105
-456.011	87.112	0.193	0.212
-454.997	63.594	0.157	0.157
-453.982	800.000	0.074	-0.273
-452.968	-28.747	-0.319	0.182
-451.953	-76.526	-0.102	0.035
-450.938	20.116	-0.112	-0.090
-449.924	24.946	0.229	0.189
-448.909	157.151	0.055	-0.075
-447.895	-22.970	-0.083	0.050
-446.880	546.211	-0.036	0.086
-445.865	-74.982	-0.084	-0.030
-444.851	-28.594	0.220	0.126
-443.836	-200.000	0.006	-0.179
-442.822	800.000	-0.020	0.056
-441.807	-104.070	-0.219	0.051
-440.792	-200.000	0.024	-0.247
-439.778	-6.113	-0.147	0.100
-438.763	-200.000	-0.019	-0.128
-437.749	-129.793	-0.159	0.022
-436.734	-81.071	0.193	-0.064
-435.719	800.000	-0.080	0.262
-434.705	-200.000	-0.009	-0.143
-433.690	-200.000	0.012	-0.353
-432.676	563.136	-0.048	0.116
-431.661	-162.647	0.156	0.008
-430.646	-168.392	0.120	-0.005
-429.632	65.739	0.186	-0.187
-428.617	-122.241	0.219	-0.036
-427.603	-200.000	0.017	0.136
-426.588	-127.091	-0.086	0.012
-425.573	-38.049	0.507	0.267
-424.559	-46.998	-0.055	0.026
-423.544	241.017	0.116	0.193
-422.530	-128.372	0.133	-0.019
-421.515	78.898	0.072	0.076
-420.500	206.857	0.109	0.169
-419.486	-200.000	-0.038	-0.298
-418.471	-200.000	-0.008	-0.286
-417.457	-93.772	-0.076	-0.021
-416.442	-115.375	-0.427	-0.080
-415.428	65.045	-0.332	0.333
-414.413	-200.000	-0.016	0.172
-413.398	800.000	-0.138	0.394
-412.384	118.095	-0.179	0.219
-411.369	-49.579	0.236	0.112
-410.355	-148.250	0.029	0.002
-409.340	18.747	-0.196	-0.155
-408.325	800.000	0.066	-0.280
-407.311	-127.270	-0.108	0.016
-406.296	161.572	-0.092	0.128
-405.282	-200.000	-0.029	-0.217
-404.267	-53.074	-0.235	0.107
-403.252	15.411	0.267	-0.208
-402.238	-200.000	0.015	-0.171
-401.223	11.584	0.157	0.120
-400.209	-200.000	0.033	0.273
-399.194	-200.000	-0.002	-0.022
-398.179	-25.358	-0.129	-0.076
-397.165	61.977	0.301	-0.298
-396.150	-200.000	0.018	-0.167
-395.136	-200.000	0.022	-0.308
-394.121	-200.000	-0.036	0.255
-393.106	-151.413	-0.222	0.016
-392.092	-200.000	-0.018	-0.083
-391.077	-200.000	-0.204	-0.000
-390.063	-200.000	0.006	0.271
-389.048	800.000	-0.090	0.272
-388.033	54.447	-0.220	0.210
-387.019	-61.068	0.350	-0.146
-386.004	141.001	0.170	-0.223
-384.990	156.239	-0.108	0.148
-383.975	-200.000	-0.005	-0.207
-382.960	-200.000	-0.002	0.092
-381.946	-200.000	-0.011	0.209
-380.931	159.049	-0.227	-0.312
-379.917	-200.000	-0.008	0.256
-378.902	-196.759	0.177	-0.001
-377.888	-12.141	-0.164	0.107
-376.873	-70.036	0.345	-0.130
-375.858	59.614	-0.068	0.067
-374.844	370.941	0.046	-0.092
-373.829	226.806	0.052	-0.084
-372.815	-55.455	-0.221	-0.098
-371.800	-158.009	-0.320	-0.019
-370.785	151.814	-0.155	-0.209
-369.771	-80.148	0.074	-0.025
-368.756	5.707	0.160	-0.117
-367.742	800.000	-0.047	-0.138
-366.727	495.195	0.090	-0.204
-365.712	-38.882	-0.175	0.091
-364.698	111.273	-0.157	0.187
-363.683	-41.230	-0.198	-0.101
-362.669	558.074	-0.085	-0.203
-361.654	530.237	-0.106	0.248
-360.639	-134.986	0.166	-0.020
-359.625	148.752	-0.214	-0.287
-358.610	-200.000	-0.005	0.155
-357.596	-200.000	0.066	-0.431
-356.581	9.693	-0.026	0.019
-355.566	-200.000	0.011	-0.270
-354.552	175.657	-0.136	0.195
-353.537	136.353	0.087	-0.112
-352.523	-200.000	0.022	-0.323
-351.508	644.897	0.057	-0.143
-350.493	800.000	-0.060	0.236
-349.479	-200.000	0.001	0.321
-348.464	-50.799	-0.075	0.035
-347.450	-20.376	-0.213	0.130
-346.435	-15.670	0.161	0.102
-345.420	134.099	-0.207	-0.265
-344.406	736.690	-0.134	0.355
-343.391	106.459	-0.302	0.355
-342.377	-65.080	0.146	0.058
-341.362	800.000	-0.047	-0.175
-340.348	800.000	-0.070	-0.214
-339.333	-200.000	-0.023	0.459
-338.318	89.010	0.137	-0.151
-337.304	-200.000	0.032	0.166
-336.289	-106.207	-0.128	0.029
-335.275	-16.133	-0.217	-0.136
-334.260	800.000	0.046	-0.159
-333.245	-200.000	0.048	0.280
-332.231	-118.661	0.019	-0.003
-331.216	-151.167	-0.114	0.008
-330.202	-200.000	-0.044	-0.214
-329.187	-15.345	0.115	-0.073
-328.172	800.000	-0.067	-0.203
-327.158	482.547	-0.145	-0.327
-326.143	-32.429	0.238	0.131
-325.129	5.223	0.184	-0.134
-324.114	-31.538	0.157	0.088
-323.099	473.984	0.104	0.232
-322.085	-93.547	-0.191	-0.052
-321.070	-23.193	0.553	-0.329
-320.056	-138.969	-0.243	-0.026
-319.041	-136.347	-0.397	0.046
-318.026	-29.108	0.222	-0.126
-317.012	-34.806	0.218	0.118
-315.997	-39.946	0.202	0.104
-314.983	-200.000	0.025	-0.133
-313.968	73.684	0.132	-0.136
-312.953	84.336	-0.184	0.199
-311.939	84.884	0.178	-0.193
-310.924	75.265	0.142	0.148
-309.910	505.995	-0.066	-0.150
-308.895	-65.886	-0.231	-0.091
-307.880	-59.341	-0.197	0.084
-306.866	-87.854	0.363	-0.108
-305.851	335.623	0.119	-0.228
-304.837	236.221	-0.155	0.253
-303.822	800.000	0.031	0.112
-302.807	-16.821	-0.308	0.192
-301.793	-111.232	-0.084	0.017
-300.778	-24.463	0.522	0.307
-299.764	587.365	-0.141	-0.343
-298.749	-1.544	-0.154	-0.107
-297.735	-1.793	0.194	-0.135
-296.720	800.000	0.037	0.143
-295.705	484.933	0.075	-0.170
-294.691	-127.596	0.166	0.024
-293.676	127.168	0.150	-0.188
-292.662	-200.000	0.004	0.085
-291.647	457.830	0.119	0.261
-290.632	-72.513	0.349	-0.127
-289.618	-200.000	0.025	0.249
-288.603	148.194	-0.162	0.215
-287.589	395.461	-0.073	-0.150
-286.574	685.414	0.047	-0.120
-285.559	-200.000	-0.033	0.311
-284.545	-81.447	0.076	0.025
-283.530	800.000	0.177	-0.511
-282.516	-35.773	0.164	-0.088
-281.501	19.389	0.101	-0.080
-280.486	-200.000	-0.027	-0.214
-279.472	-54.704	0.066	0.029
-278.457	458.085	0.107	0.235
-277.443	113.256	-0.172	-0.206
-276.428	-33.302	-0.126	0.069
-275.413	-200.000	0.005	0.126
-274.399	198.777	0.035	-0.052
-273.384	384.965	-0.047	0.095
-272.370	-43.530	-0.171	-0.085
-271.355	167.974	-0.166	0.233
-270.340	-107.096	0.266	0.058
-269.326	-158.698	0.167	-0.009
-268.311	-200.000	-0.016	0.460
-267.297	800.000	-0.116	0.315
-266.282	35.006	0.108	0.093
-265.267	-43.709	-0.230	-0.114
-264.253	-41.385	0.165	-0.084
-263.238	-86.982	-0.441	-0.133
-262.224	-56.671	0.096	0.042
-261.209	337.686	0.041	0.079
-260.195	127.109	0.146	-0.183
-259.180	108.001	-0.088	0.103
-258.165	800.000	-0.078	0.288
-257.151	-200.000	-0.019	0.481
-256.136	-55.727	0.322	-0.142
-255.122	-56.534	0.229	0.100
-254.107	294.722	0.068	0.122
-253.092	184.168	0.099	0.145
-252.078	-101.311	-0.178	-0.043
-251.063	185.240	0.093	0.136
-250.049	-127.701	0.118	0.017
-249.034	52.047	0.293	0.276
-248.019	-200.000	-0.004	-0.095
-247.005	-130.978	-0.183	0.024
-245.990	-147.157	-0.170	0.014
-244.976	-120.148	-0.396	-0.067
-243.961	19.976	-0.142	-0.113
-242.946	-89.440	-0.264	-0.077
-241.932	-24.035	0.242	0.143
-240.917	-38.845	-0.059	-0.031
-239.903	-141.081	0.407	-0.041
-238.888	-74.583	-0.425	-0.151
-237.873	202.682	0.037	0.057
-236.859	-24.090	0.233	-0.137
-235.844	634.366	0.136	0.341
-234.830	85.649	0.096	-0.104
-233.815	-162.242	-0.133	0.007
-232.800	-53.405	0.076	0.034
-231.786	29.805	0.167	-0.140
-230.771	-200.000	-0.027	0.306
-229.757	67.131	0.111	-0.112
-228.742	226.169	-0.044	-0.070
-227.727	-53.866	-0.442	0.199
-226.713	-41.485	0.082	-0.042
-225.698	245.684	-0.264	-0.438
-224.684	91.363	-0.163	-0.180
-223.669	29.998	0.199	0.167
-222.655	117.691	-0.144	-0.175
-221.640	-88.869	-0.077	0.022
-220.625	-112.003	0.197	0.039
-219.611	139.074	-0.151	0.195
-218.596	800.000	0.077	-0.253
-217.582	800.000	0.032	0.108
-216.567	109.304	-0.202	0.238
-215.552	-80.345	-0.119	-0.039
-214.538	84.364	-0.078	-0.085
-213.523	800.000	-0.069	0.207
-212.509	-200.000	-0.052	0.267
-211.494	128.161	-0.153	-0.191
-210.479	-200.000	-0.026	0.203
-209.465	-61.348	-0.178	-0.074
-208.450	-90.295	-0.202	-0.058
-207.436	55.167	-0.237	0.226
-206.421	-97.017	-0.169	0.044
-205.406	46.260	0.174	-0.158
-204.392	49.384	-0.021	-0.019
-203.377	-200.000	-0.013	-0.184
-202.363	-34.557	0.074	-0.040
-201.348	-29.194	-0.031	0.018
-200.333	10.338	-0.234	0.175
-199.319	-100.860	0.361	-0.087
-198.304	18.514	0.055	-0.043
-197.290	306.623	0.096	0.176
-196.275	44.449	-0.031	-0.028
-195.260	111.645	0.147	0.175
-194.246	209.649	0.109	0.168
-193.231	137.808	0.116	-0.150
-192.217	627.782	-0.106	-0.264
-191.202	122.316	-0.195	-0.239
-190.187	94.502	0.195	0.218
-189.173	800.000	0.108	0.379
-188.158	150.787	-0.169	0.226
-187.144	16.813	-0.220	-0.171
-186.129	276.679	0.155	-0.272
-185.114	-24.217	-0.321	-0.189
-184.100	-106.214	-0.311	0.069
-183.085	800.000	0.032	-0.111
-182.071	-119.182	0.186	-0.032
-181.056	172.161	-0.090	-0.127
-180.042	-13.543	-0.135	0.086
-179.027	-200.000	-0.084	-0.450
-178.012	-111.162	-0.325	-0.065
-176.998	202.780	0.138	-0.210
-175.983	800.000	0.068	0.254
-174.969	135.591	-0.071	0.091
-173.954	800.000	-0.037	0.144
-172.939	-136.007	-0.098	0.011
-171.925	-151.733	-0.178	-0.013
-170.910	-200.000	0.047	-0.221
-169.896	-152.867	0.030	0.002
-168.881	286.708	0.085	0.151
-167.866	-84.822	-0.019	0.006
-166.852	800.000	-0.048	0.142
-165.837	63.936	0.466	-0.461
-164.823	167.362	0.098	0.136
-163.808	800.000	-0.045	-0.168
-162.793	-115.861	-0.527	0.097
-161.779	-39.884	-0.177	0.091
-160.764	-200.000	-0.074	0.372
-159.750	27.967	0.229	0.190
-158.735	-25.273	0.137	0.080
-157.720	11.314	-0.054	0.041
-156.706	275.776	0.085	0.148
-155.691	-110.875	-0.232	0.047
-154.677	10.906	-0.298	-0.223
-153.662	113.162	-0.208	0.248
-152.647	-83.934	0.368	-0.115
-151.633	357.486	0.120	0.235
-150.618	-106.620	-0.103	0.022
-149.604	455.893	0.064	0.140
-148.589	-3.833	-0.302	0.206
-147.574	612.042	0.116	0.284
-146.560	-126.915	-0.074	0.011
-145.545	177.047	0.103	-0.147
-144.531	-115.313	-0.473	0.088
-143.516	-58.514	0.370	0.158
-142.502	-97.969	0.244	0.062
-141.487	-147.093	-0.261	-0.022
-140.472	-70.370	0.143	0.053
-139.458	142.745	0.075	0.097
-138.443	475.016	-0.141	0.311
-137.429	81.244	0.054	-0.057
-136.414	-200.000	0.011	-0.127
-135.399	-200.000	-0.043	0.223
-134.385	-137.836	0.276	0.030
-133.370	104.391	0.012	-0.014
-132.356	800.000	0.115	-0.391
-131.341	800.000	0.051	0.172
-130.326	-200.000	0.002	-0.154
-129.312	800.000	0.066	-0.200
-128.297	-35.786	0.476	-0.253
-127.283	445.247	0.074	-0.160
-126.268	121.519	0.105	-0.128
-125.253	-6.565	0.154	-0.103
-124.239	-200.000	-0.020	0.147
-123.224	800.000	-0.084	0.277
-122.210	-56.396	0.370	0.161
-121.195	80.239	-0.274	0.289
