DTS Sentinel unit serial number:	SN413079Multiplexer serial number:	ORYXHardware model number:	OX4-SRSoftware version number:	ORYX F/W v4.00 Oryx Data Collector v3.7.2.0data status	okinstallation	princeton_trtdifferential loss correction	single-endedforward channel	channel 3reverse channel	N/Adate	2019/09/14time	22:44:34forward acquisition time	60.00reverse acquisition time	0.00gamma	496.2192k internal	0.2318k external	0.2318temperature offset calibration	0.9988default loss term (dB/km)	0.3790temperature slope calibration	1.0000multiplexer offset coefficient	1.0000multiplexer slope coefficient	1.0000fibre end	0.00T internal ref (°C)	32.50T ext. ref 1 (°C)	4.68T ext. ref 2 (°C)	27.49length (m)	temperature (°C)	Stokes	anti-Stokes-747.200	52.478	0.025	0.024
-746.185	263.414	-0.112	0.196
-745.171	-15.588	0.348	-0.224
-744.156	-147.864	-0.040	0.003
-743.142	-100.730	0.364	-0.091
-742.127	376.421	-0.144	0.298
-741.112	22.646	0.137	0.114
-740.098	86.370	-0.066	0.074
-739.083	-80.439	0.271	0.092
-738.069	571.623	-0.088	-0.217
-737.054	208.156	-0.102	-0.162
-736.039	-99.579	-0.186	-0.047
-735.025	-25.423	-0.033	-0.019
-734.010	448.293	-0.114	0.254
-732.996	264.561	-0.150	-0.265
-731.981	-200.000	0.003	-0.112
-730.966	389.402	-0.168	-0.351
-729.952	31.557	0.067	-0.058
-728.937	-72.269	0.218	0.082
-727.923	49.099	-0.082	0.077
-726.908	140.427	0.025	-0.033
-725.894	98.485	-0.089	-0.104
-724.879	-170.280	-0.422	-0.015
-723.864	-89.043	0.153	-0.046
-722.850	-29.446	-0.039	0.023
-721.835	-123.314	-0.147	0.024
-720.821	-136.779	0.304	0.035
-719.806	-131.221	-0.077	0.010
-718.791	-150.005	-0.068	-0.005
-717.777	-200.000	0.035	-0.226
-716.762	-4.129	-0.201	0.141
-715.748	578.335	-0.096	0.237
-714.733	199.936	-0.083	-0.129
-713.718	-128.472	-0.136	0.020
-712.704	-19.664	-0.092	-0.058
-711.689	8.149	-0.102	0.077
-710.675	-200.000	0.042	0.000
-709.660	88.684	-0.100	-0.112
-708.645	-21.498	0.199	-0.123
-707.631	-200.000	-0.035	-0.160
-706.616	281.970	0.038	0.068
-705.602	-13.275	-0.136	0.089
-704.587	-143.499	0.231	-0.022
-703.572	-97.944	-0.190	-0.050
-702.558	222.484	-0.050	0.081
-701.543	71.693	-0.123	-0.129
-700.529	800.000	-0.095	-0.269
-699.514	-20.837	-0.211	0.131
-698.499	-17.775	-0.022	0.014
-697.485	621.593	-0.142	0.361
-696.470	-138.648	-0.333	-0.037
-695.456	-200.000	0.036	-0.168
-694.441	-41.601	0.106	-0.055
-693.426	-167.519	0.428	0.017
-692.412	460.909	-0.109	-0.245
-691.397	-200.000	-0.056	-0.314
-690.383	-200.000	0.008	0.305
-689.368	412.669	-0.112	0.241
-688.354	209.220	0.092	-0.145
-687.339	24.619	0.063	0.052
-686.324	-30.826	-0.279	-0.159
-685.310	118.946	-0.268	-0.335
-684.295	-107.465	-0.317	0.070
-683.281	242.582	0.140	-0.237
-682.266	82.634	-0.181	0.199
-681.251	-26.867	0.287	-0.169
-680.237	-105.466	-0.205	-0.047
-679.222	105.754	-0.145	0.173
-678.208	-123.495	-0.140	-0.022
-677.193	198.936	0.092	-0.142
-676.178	-99.218	-0.351	-0.089
-675.164	-14.860	-0.236	0.153
-674.149	-76.799	0.066	-0.023
-673.135	424.580	0.056	-0.121
-672.120	168.359	-0.084	0.121
-671.105	34.432	-0.049	-0.043
-670.091	66.701	0.212	-0.217
-669.076	150.083	-0.097	-0.132
-668.062	210.990	-0.129	-0.204
-667.047	800.000	0.112	0.316
-666.032	800.000	0.074	-0.284
-665.018	-187.187	-0.329	0.005
-664.003	-53.859	0.123	-0.057
-662.989	156.925	-0.130	0.181
-661.974	-60.295	-0.311	-0.134
-660.959	-134.293	-0.194	0.024
-659.945	800.000	-0.021	0.069
-658.930	159.097	-0.116	-0.163
-657.916	9.554	-0.233	-0.178
-656.901	-29.964	0.126	-0.072
-655.886	800.000	-0.121	-0.363
-654.872	-61.488	-0.243	0.103
-653.857	-154.552	0.274	-0.018
-652.843	-89.803	0.148	0.044
-651.828	-200.000	-0.005	-0.260
-650.814	-131.473	0.364	-0.048
-649.799	-126.153	-0.219	-0.033
-648.784	-37.861	0.185	0.099
-647.770	-63.142	-0.173	0.072
-646.755	3.172	0.138	-0.101
-645.741	800.000	0.016	-0.061
-644.726	-200.000	-0.175	0.001
-643.711	-48.658	-0.402	-0.194
-642.697	-52.115	-0.037	0.017
-641.682	800.000	-0.034	-0.108
-640.668	-200.000	-0.078	-0.550
-639.653	-166.048	0.264	-0.011
-638.638	222.654	0.096	0.155
-637.624	-165.060	-0.171	0.008
-636.609	-72.384	-0.108	-0.040
-635.595	-46.722	-0.201	-0.099
-634.580	800.000	-0.014	-0.057
-633.565	112.150	0.095	0.115
-632.551	15.577	-0.156	0.124
-631.536	401.349	-0.053	-0.112
-630.522	-110.048	0.147	0.031
-629.507	36.479	-0.084	-0.075
-628.492	-59.560	0.051	-0.022
-627.478	-122.267	0.221	-0.036
-626.463	395.461	-0.053	-0.112
-625.449	258.705	-0.151	-0.261
-624.434	-48.877	0.165	-0.080
-623.419	-200.000	0.048	0.230
-622.405	-29.836	-0.318	0.183
-621.390	800.000	-0.043	0.164
-620.376	-84.016	-0.270	0.086
-619.361	122.254	0.167	-0.210
-618.346	-78.788	-0.198	0.068
-617.332	-200.000	0.039	-0.272
-616.317	800.000	-0.068	0.232
-615.303	527.232	0.016	-0.037
-614.288	-50.751	0.167	-0.079
-613.273	303.405	0.059	-0.110
-612.259	-46.103	0.288	0.143
-611.244	-89.270	-0.054	-0.016
-610.230	-9.919	0.189	-0.126
-609.215	106.887	0.100	-0.120
-608.201	268.999	-0.120	-0.212
-607.186	124.947	-0.177	-0.224
-606.171	-3.612	0.134	0.094
-605.157	-87.434	-0.192	0.059
-604.142	-200.000	-0.028	0.163
-603.128	-106.733	-0.041	0.009
-602.113	35.960	0.310	-0.275
-601.098	345.213	0.044	0.087
-600.084	16.564	-0.273	-0.217
-599.069	-200.000	0.053	-0.246
-598.055	82.116	0.078	0.085
-597.040	-109.311	0.107	0.023
-596.025	-43.839	-0.126	-0.064
-595.011	-200.000	0.054	-0.347
-593.996	120.838	-0.174	-0.218
-592.982	131.662	-0.116	0.150
-591.967	46.867	-0.083	-0.078
-590.952	-157.905	0.108	-0.006
-589.938	254.854	-0.025	-0.044
-588.923	5.027	0.106	-0.079
-587.909	167.530	0.083	0.118
-586.894	24.605	0.081	0.068
-585.879	108.062	-0.104	-0.125
-584.865	56.245	-0.361	-0.353
-583.850	252.971	-0.087	-0.149
-582.836	294.820	-0.111	0.205
-581.821	800.000	0.018	0.073
-580.806	89.120	-0.028	0.032
-579.792	-144.229	-0.114	-0.011
-578.777	-104.626	-0.139	0.032
-577.763	-112.232	0.090	-0.018
-576.748	231.310	0.114	0.188
-575.733	-109.941	-0.041	0.009
-574.719	127.019	-0.160	-0.204
-573.704	446.414	-0.058	0.129
-572.690	-200.000	-0.028	-0.262
-571.675	800.000	-0.100	-0.337
-570.661	-144.609	-0.105	0.010
-569.646	-46.259	-0.093	-0.046
-568.631	56.455	0.078	-0.076
-567.617	69.670	-0.298	0.309
-566.602	-74.454	-0.149	-0.054
-565.588	-200.000	-0.019	-0.164
-564.573	-142.295	0.343	-0.034
-563.558	-40.296	0.124	-0.065
-562.544	-98.020	-0.161	-0.042
-561.529	-200.000	0.027	-0.142
-560.515	12.101	0.056	-0.043
-559.500	47.228	0.027	-0.025
-558.485	729.265	-0.073	0.196
-557.471	-200.000	0.023	0.327
-556.456	-33.057	-0.193	0.107
-555.442	-24.393	0.104	0.062
-554.427	260.087	0.161	0.279
-553.412	800.000	0.065	-0.182
-552.398	-124.217	-0.047	0.007
-551.383	-22.132	0.257	0.157
-550.369	-200.000	0.002	0.056
-549.354	-9.767	-0.157	0.105
-548.339	2.025	0.232	-0.168
-547.325	-165.260	0.159	-0.007
-546.310	-158.647	0.361	0.021
-545.296	326.031	-0.075	-0.145
-544.281	765.296	-0.029	-0.078
-543.266	-200.000	-0.013	-0.231
-542.252	83.152	-0.115	0.126
-541.237	29.688	-0.251	-0.215
-540.223	800.000	-0.024	0.069
-539.208	-200.000	0.023	-0.243
-538.193	365.537	0.105	0.213
-537.179	-146.150	-0.262	-0.023
-536.164	-200.000	-0.020	0.119
-535.150	3.352	-0.272	-0.199
-534.135	321.197	-0.066	-0.126
-533.121	29.279	-0.137	-0.117
-532.106	-11.077	0.145	-0.096
-531.091	-148.871	0.242	0.020
-530.077	185.380	0.142	-0.212
-529.062	-200.000	0.021	-0.096
-528.048	-15.692	0.292	-0.187
-527.033	-9.503	-0.172	0.115
-526.018	209.185	-0.112	0.177
-525.004	-145.459	0.182	-0.016
-523.989	-200.000	0.067	-0.296
-522.975	-83.442	0.188	0.060
-521.960	77.391	-0.254	0.271
-520.945	158.897	-0.097	0.135
-519.931	389.023	-0.094	-0.195
-518.916	15.813	0.160	0.126
-517.902	800.000	-0.072	0.227
-516.887	152.890	0.076	-0.104
-515.872	-139.272	0.318	-0.034
-514.858	800.000	0.067	0.262
-513.843	800.000	0.057	0.197
-512.829	800.000	-0.100	0.310
-511.814	8.461	-0.131	-0.099
-510.799	800.000	-0.038	0.137
-509.785	663.095	-0.022	0.058
-508.770	-114.273	-0.305	0.059
-507.756	785.438	0.103	-0.284
-506.741	-94.833	-0.312	0.085
-505.726	-194.566	0.217	0.002
-504.712	211.776	0.089	0.140
-503.697	60.962	0.140	-0.139
-502.683	-142.439	-0.329	0.032
-501.668	-158.064	0.163	0.010
-500.653	34.034	0.120	0.105
-499.639	800.000	0.027	0.088
-498.624	187.312	0.133	-0.198
-497.610	800.000	-0.050	0.161
-496.595	-200.000	0.006	0.158
-495.581	9.458	-0.144	0.110
-494.566	800.000	-0.078	-0.282
-493.551	422.058	-0.051	0.109
-492.537	-59.508	0.227	0.098
-491.522	-200.000	-0.034	0.187
-490.508	800.000	0.089	0.352
-489.493	177.447	-0.107	-0.156
-488.478	-200.000	0.014	0.137
-487.464	-200.000	-0.008	-0.188
-486.449	-37.080	-0.061	0.033
-485.435	138.859	-0.054	0.072
-484.420	-200.000	-0.019	-0.083
-483.405	-55.862	0.291	-0.130
-482.391	-157.062	-0.156	-0.010
-481.376	146.093	-0.183	-0.246
-480.362	-6.666	0.214	-0.146
-479.347	800.000	-0.072	-0.252
-478.332	-55.141	-0.207	0.093
-477.318	-200.000	-0.003	0.072
-476.303	208.459	-0.078	0.122
-475.289	172.392	0.171	-0.247
-474.274	7.041	-0.149	0.112
-473.259	362.693	-0.062	0.124
-472.245	-54.978	-0.180	-0.081
-471.230	273.025	0.065	0.114
-470.216	-200.000	0.006	-0.030
-469.201	800.000	-0.187	0.542
-468.186	800.000	-0.121	0.495
-467.172	-57.811	0.022	0.009
-466.157	455.577	-0.095	0.210
-465.143	79.131	-0.228	0.244
-464.128	57.474	0.076	0.075
-463.113	800.000	0.042	0.124
-462.099	18.973	0.104	0.083
-461.084	-200.000	0.014	-0.193
-460.070	800.000	-0.032	0.127
-459.055	-200.000	-0.029	-0.151
-458.040	-32.727	0.060	-0.033
-457.026	-200.000	0.001	0.162
-456.011	-200.000	0.025	-0.151
-454.997	-200.000	-0.017	-0.091
-453.982	54.644	0.120	0.116
-452.968	162.444	-0.042	0.059
-451.953	88.312	-0.100	0.111
-450.938	84.235	-0.152	-0.166
-449.924	106.217	-0.192	-0.227
-448.909	-200.000	0.009	0.204
-447.895	-200.000	-0.016	0.236
-446.880	-69.551	0.117	-0.045
-445.865	-120.301	-0.226	0.038
-444.851	16.902	0.053	0.042
-443.836	-67.961	-0.230	0.090
-442.822	800.000	0.062	-0.182
-441.807	179.850	0.092	-0.135
-440.792	800.000	0.130	-0.429
-439.778	258.058	0.201	0.346
-438.763	800.000	-0.056	0.179
-437.749	-10.247	0.069	0.046
-436.734	99.250	-0.298	0.344
-435.719	5.960	0.311	0.230
-434.705	-112.616	0.411	0.082
-433.690	800.000	-0.040	-0.120
-432.676	-200.000	0.004	0.077
-431.661	3.581	0.077	0.056
-430.646	-200.000	0.059	0.511
-429.632	-38.390	0.105	0.056
-428.617	-104.179	-0.346	0.080
-427.603	109.314	0.130	-0.156
-426.588	-200.000	-0.007	0.205
-425.573	-30.773	0.141	-0.080
-424.559	-190.871	0.051	0.001
-423.544	-13.493	-0.137	0.088
-422.530	-200.000	0.028	0.122
-421.515	69.648	-0.088	0.091
-420.500	-200.000	-0.021	0.097
-419.486	-200.000	0.009	0.327
-418.471	38.119	0.065	-0.058
-417.457	-49.630	-0.456	-0.217
-416.442	-32.424	0.168	-0.093
-415.428	42.161	-0.164	0.149
-414.413	79.556	0.227	-0.243
-413.398	145.145	0.328	-0.439
-412.384	800.000	0.076	0.259
-411.369	-96.920	0.338	0.088
-410.355	270.420	0.113	-0.199
-409.340	-103.926	0.404	0.094
-408.325	-200.000	0.018	-0.108
-407.311	-200.000	-0.099	0.435
-406.296	-111.639	-0.330	0.067
-405.282	-76.559	-0.144	-0.050
-404.267	124.725	0.129	-0.162
-403.252	-200.000	-0.061	-0.411
-402.238	-200.000	0.016	0.249
-401.223	-38.171	-0.216	-0.114
-400.209	-21.159	0.285	-0.174
-399.194	14.590	-0.163	0.127
-398.179	-200.000	0.039	-0.249
-397.165	-57.426	0.118	-0.052
-396.150	2.686	0.265	-0.192
-395.136	-200.000	0.007	-0.114
-394.121	188.133	0.065	-0.096
-393.106	107.851	0.063	0.075
-392.092	90.626	-0.215	-0.240
-391.077	532.201	0.035	-0.084
-390.063	386.956	-0.053	-0.108
-389.048	150.252	0.169	-0.229
-388.033	-120.604	-0.105	0.018
-387.019	410.179	-0.081	0.170
-386.004	-91.059	0.120	0.034
-384.990	-200.000	0.020	0.264
-383.975	387.659	0.070	-0.144
-382.960	118.687	0.086	-0.106
-381.946	-200.000	-0.056	0.298
-380.931	-131.773	0.206	0.027
-379.917	267.426	0.194	-0.339
-378.902	-102.729	-0.139	-0.033
-377.888	800.000	0.031	-0.132
-376.873	12.666	0.060	-0.046
-375.858	124.873	0.315	0.396
-374.844	-31.013	-0.133	-0.075
-373.829	-121.251	0.403	0.067
-372.815	-8.865	-0.066	-0.044
-371.800	-69.806	0.160	-0.061
-370.785	457.612	0.042	0.094
-369.771	37.270	0.163	-0.144
-368.756	173.896	-0.188	-0.271
-367.742	-47.518	-0.196	-0.095
-366.727	-116.633	-0.266	0.049
-365.712	68.700	-0.171	-0.175
-364.698	-71.998	-0.109	-0.040
-363.683	446.070	0.148	0.324
-362.669	800.000	0.053	0.228
-361.654	163.583	0.061	0.086
-360.639	-184.205	0.148	-0.002
-359.625	-200.000	0.006	-0.083
-358.610	-103.491	0.360	-0.084
-357.596	-177.305	0.094	0.002
-356.581	432.300	0.092	0.200
-355.566	-115.987	0.360	-0.067
-354.552	38.691	0.092	-0.082
-353.537	115.080	0.087	0.106
-352.523	-35.951	-0.128	0.069
-351.508	-92.637	0.253	-0.071
-350.493	-61.553	0.377	-0.158
-349.479	4.700	-0.212	0.156
-348.464	61.170	0.122	-0.121
-347.450	570.359	-0.092	-0.222
-346.435	95.107	0.256	-0.291
-345.420	-141.241	-0.142	-0.014
-344.406	50.921	0.049	-0.046
-343.391	114.835	-0.179	0.218
-342.377	-200.000	0.084	0.396
-341.362	-14.592	-0.340	0.218
-340.348	-63.367	0.212	0.087
-339.333	-200.000	0.015	0.132
-338.318	278.973	0.029	-0.051
-337.304	53.358	-0.304	0.291
-336.289	-200.000	-0.058	-0.297
-335.275	196.050	-0.147	-0.223
-334.260	407.624	0.209	-0.441
-333.245	-2.638	0.189	-0.132
-332.231	800.000	0.066	-0.238
-331.216	273.778	0.051	-0.090
-330.202	284.045	-0.005	-0.010
-329.187	599.574	0.077	0.190
-328.172	-142.422	-0.367	0.036
-327.158	266.954	-0.119	0.208
-326.143	237.514	0.102	-0.168
-325.129	-62.087	-0.190	-0.079
-324.114	26.574	0.055	0.046
-323.099	3.744	0.179	0.130
-322.085	-151.824	-0.263	-0.019
-321.070	636.073	-0.064	-0.163
-320.056	-31.697	0.319	0.178
-319.041	-2.694	-0.088	0.061
-318.026	0.407	0.184	-0.131
-317.012	-103.754	0.268	0.062
-315.997	-3.389	-0.248	0.172
-314.983	-109.070	-0.105	-0.022
-313.968	-154.188	0.116	0.008
-312.953	528.968	0.057	0.134
-311.939	119.338	-0.155	-0.191
-310.924	-60.646	-0.259	-0.109
-309.910	92.471	-0.215	0.241
-308.895	800.000	-0.076	-0.211
-307.880	-127.677	-0.269	0.039
-306.866	800.000	-0.041	-0.175
-305.851	-127.089	0.263	-0.038
-304.837	7.470	-0.103	-0.076
-303.822	-200.000	0.005	0.130
-302.807	79.157	0.197	0.210
-301.793	-138.924	-0.071	0.008
-300.778	113.916	0.057	-0.069
-299.764	-14.485	-0.145	-0.093
-298.749	-200.000	-0.223	0.001
-297.735	-200.000	-0.314	-0.001
-296.720	-200.000	-0.033	0.416
-295.705	-172.929	0.257	-0.008
-294.691	800.000	-0.091	-0.368
-293.676	147.397	0.142	0.190
-292.662	-200.000	-0.004	0.273
-291.647	432.053	0.015	0.032
-290.632	12.070	0.280	0.214
-289.618	-91.688	-0.151	-0.043
-288.603	-85.940	0.288	-0.089
-287.589	-200.000	0.033	-0.322
-286.574	4.767	-0.058	-0.042
-285.559	-200.000	0.065	0.313
-284.545	-200.000	-0.027	-0.146
-283.530	-85.739	-0.116	-0.036
-282.516	-72.362	-0.290	0.107
-281.501	-77.550	-0.118	0.041
-280.486	125.417	-0.110	0.138
-279.472	375.349	0.026	0.053
-278.457	146.028	0.120	-0.160
-277.443	-200.000	-0.010	0.073
-276.428	-144.045	0.246	0.023
-275.413	-57.863	0.580	0.252
-274.399	321.717	-0.105	0.199
-273.384	126.559	-0.112	-0.141
-272.370	175.154	0.116	-0.167
-271.355	800.000	-0.061	-0.169
-270.340	-200.000	0.022	0.168
-269.326	209.123	0.100	0.156
-268.311	-3.597	0.058	0.040
-267.297	-106.505	-0.375	0.083
-266.282	-163.313	-0.133	0.006
-265.267	56.639	0.104	0.100
-264.253	-57.826	-0.208	0.090
-263.238	256.107	0.043	0.074
-262.224	-200.000	0.080	0.372
-261.209	170.659	0.143	-0.204
-260.195	-40.850	0.096	0.049
-259.180	-200.000	-0.001	-0.090
-258.165	-160.066	-0.347	0.019
-257.151	-33.648	-0.104	-0.057
-256.136	202.963	-0.025	-0.039
-255.122	126.908	0.057	-0.071
-254.107	-200.000	-0.040	-0.218
-253.092	-83.321	0.195	0.062
-252.078	-4.325	0.257	0.176
-251.063	106.119	-0.203	0.239
-250.049	66.585	0.158	-0.159
-249.034	800.000	-0.113	-0.450
-248.019	-80.756	0.048	0.016
-247.005	556.565	-0.093	-0.223
-245.990	6.365	-0.049	-0.036
-244.976	-33.430	0.183	-0.100
-243.961	693.990	-0.150	-0.391
-242.946	-200.000	0.025	0.324
-241.932	-154.485	-0.156	0.010
-240.917	-71.012	0.210	0.078
-239.903	100.445	-0.276	0.318
-238.888	-47.474	-0.225	0.109
-237.873	66.936	-0.113	0.114
-236.859	324.758	0.127	-0.241
-235.844	-43.142	-0.173	-0.087
-234.830	800.000	0.180	0.544
-233.815	150.409	-0.180	0.242
-232.800	425.672	-0.084	-0.180
-231.786	88.122	0.181	0.199
-230.771	800.000	0.106	-0.295
-229.757	-105.791	0.434	-0.097
-228.742	-145.688	0.376	-0.033
-227.727	38.674	-0.090	0.080
-226.713	-33.294	0.239	0.131
-225.698	-65.425	0.244	0.097
-224.684	-200.000	0.002	-0.106
-223.669	-200.000	0.006	-0.066
-222.655	-155.404	0.403	0.026
-221.640	6.150	-0.245	-0.180
-220.625	-200.000	-0.032	-0.235
-219.611	-116.784	0.266	0.048
-218.596	800.000	-0.021	0.088
-217.582	-200.000	-0.061	0.332
-216.567	361.567	-0.171	0.340
-215.552	110.670	0.084	-0.100
-214.538	136.584	0.103	0.133
-213.523	511.322	-0.115	0.264
-212.509	134.578	0.107	-0.138
-211.494	14.754	0.389	-0.301
-210.479	-60.178	-0.046	0.019
-209.465	-123.111	-0.234	-0.037
-208.450	237.029	-0.076	-0.125
-207.436	227.627	-0.086	-0.139
-206.421	800.000	-0.038	0.116
-205.406	213.531	-0.124	-0.194
-204.392	-19.403	0.168	0.103
-203.377	28.138	-0.191	0.160
-202.363	-147.996	0.118	0.010
-201.348	-200.000	-0.009	0.062
-200.333	97.268	-0.123	-0.140
-199.319	-176.189	0.276	-0.007
-198.304	-200.000	0.011	-0.145
-197.290	-66.801	-0.304	-0.119
-196.275	-46.308	-0.050	0.025
-195.260	14.247	0.016	0.012
-194.246	800.000	-0.037	0.114
-193.231	-21.943	-0.200	0.121
-192.217	46.814	-0.172	-0.158
-191.202	-76.361	0.154	0.054
-190.187	-200.000	0.009	-0.156
-189.173	323.022	-0.031	0.059
-188.158	-19.753	-0.168	-0.103
-187.144	-200.000	-0.020	-0.236
-186.129	-120.173	0.241	0.041
-185.114	800.000	0.050	-0.155
-184.100	-23.183	-0.242	-0.144
-183.085	344.186	-0.056	-0.108
-182.071	-166.205	-0.048	-0.002
-181.056	-101.759	0.268	0.064
-180.042	43.898	-0.045	0.041
-179.027	117.778	-0.316	0.385
-178.012	-124.670	0.250	-0.038
-176.998	-163.633	0.310	0.014
-175.983	373.765	-0.016	-0.032
-174.969	10.516	-0.187	0.141
-173.954	-200.000	0.132	0.000
-172.939	-156.593	-0.122	0.008
-171.925	-59.875	-0.139	-0.059
-170.910	-200.000	0.001	0.068
-169.896	223.468	-0.159	0.254
-168.881	53.768	-0.159	-0.151
-167.866	-48.119	0.249	-0.119
-166.852	-115.413	-0.056	0.010
-165.837	800.000	-0.065	-0.222
-164.823	218.778	-0.034	0.054
-163.808	279.190	-0.079	0.140
-162.793	800.000	0.048	-0.199
-161.779	235.981	-0.069	-0.113
-160.764	-200.000	0.305	-0.000
-159.750	71.047	-0.097	-0.100
-158.735	43.929	-0.108	-0.098
-157.720	195.197	-0.147	0.220
-156.706	-130.121	-0.113	0.015
-155.691	-51.727	0.045	0.021
-154.677	459.734	0.066	0.146
-153.662	-123.825	-0.376	0.059
-152.647	-119.950	-0.125	0.021
-151.633	-112.804	0.233	-0.046
-150.618	-200.000	-0.005	-0.165
-149.604	-200.000	0.043	-0.344
-148.589	-135.731	0.340	-0.040
-147.574	-134.897	-0.268	0.032
-146.560	800.000	-0.064	-0.213
-145.545	492.708	0.058	-0.131
-144.531	75.050	-0.077	-0.081
-143.516	78.095	-0.178	-0.188
-142.502	18.947	-0.180	-0.143
-141.487	800.000	0.081	-0.330
-140.472	665.210	0.032	0.082
-139.458	-200.000	0.001	-0.027
-138.443	168.366	0.191	-0.270
-137.429	453.607	-0.066	-0.144
-136.414	-136.475	-0.146	0.017
-135.399	800.000	-0.088	0.285
-134.385	17.108	0.145	0.114
-133.370	188.516	0.170	0.252
-132.356	-86.477	0.343	-0.104
-131.341	-200.000	0.032	-0.159
-130.326	65.599	0.102	0.102
-129.312	800.000	-0.070	-0.193
-128.297	-25.587	-0.111	0.065
-127.283	-200.000	-0.010	-0.102
-126.268	-50.907	0.390	-0.181
-125.253	168.522	-0.069	0.098
-124.239	104.531	0.147	0.172
-123.224	800.000	0.097	0.369
-122.210	40.955	-0.152	0.135
-121.195	269.806	0.042	0.072
