DTS Sentinel unit serial number:	SN413079Multiplexer serial number:	ORYXHardware model number:	OX4-SRSoftware version number:	ORYX F/W v4.00 Oryx Data Collector v3.7.2.0data status	okinstallation	princeton_trtdifferential loss correction	single-endedforward channel	channel 3reverse channel	N/Adate	2019/09/15time	22:28:34forward acquisition time	60.00reverse acquisition time	0.00gamma	496.2192k internal	0.2332k external	0.2332temperature offset calibration	0.9944default loss term (dB/km)	0.3790temperature slope calibration	1.0000multiplexer offset coefficient	1.0000multiplexer slope coefficient	1.0000fibre end	0.00T internal ref (°C)	29.19T ext. ref 1 (°C)	8.74T ext. ref 2 (°C)	22.63length (m)	temperature (°C)	Stokes	anti-Stokes-747.200	-112.277	-0.076	0.015
-746.185	800.000	0.121	0.341
-745.171	-42.173	-0.093	-0.048
-744.156	-200.000	-0.001	0.540
-743.142	314.331	0.112	0.213
-742.127	135.287	-0.115	0.151
-741.112	533.646	-0.127	0.301
-740.098	800.000	-0.110	0.327
-739.083	-200.000	0.008	0.083
-738.069	-200.000	0.020	-0.178
-737.054	-193.634	0.154	0.001
-736.039	-62.064	-0.357	0.150
-735.025	110.553	0.193	0.233
-734.010	574.583	-0.120	-0.294
-732.996	-200.000	-0.019	0.167
-731.981	-116.055	-0.132	-0.025
-730.966	-32.073	-0.233	0.131
-729.952	207.228	-0.168	-0.264
-728.937	323.344	-0.052	-0.100
-727.923	69.613	-0.222	-0.230
-726.908	-200.000	0.025	-0.152
-725.894	-200.000	-0.032	-0.313
-724.879	-116.607	-0.208	-0.038
-723.864	-200.000	0.011	0.408
-722.850	-184.548	0.218	0.004
-721.835	-82.609	-0.246	-0.080
-720.821	102.605	-0.125	0.148
-719.806	165.708	0.120	-0.170
-718.791	-200.000	0.017	0.158
-717.777	-154.066	-0.185	0.013
-716.762	-24.428	-0.103	0.062
-715.748	-159.978	-0.335	0.018
-714.733	231.678	0.100	0.164
-713.718	121.609	-0.225	-0.281
-712.704	-200.000	0.003	-0.160
-711.689	251.919	0.079	-0.134
-710.675	-6.982	-0.057	-0.039
-709.660	-55.103	-0.285	-0.129
-708.645	-47.372	0.074	0.036
-707.631	-74.193	0.370	-0.134
-706.616	12.378	-0.139	-0.108
-705.602	62.643	0.307	-0.308
-704.587	-164.057	-0.319	-0.015
-703.572	120.886	0.223	0.279
-702.558	-106.106	-0.277	0.062
-701.543	75.344	-0.045	0.048
-700.529	-40.619	-0.146	-0.076
-699.514	131.846	-0.040	-0.052
-698.499	800.000	-0.054	0.179
-697.485	-104.146	0.180	0.042
-696.470	277.059	-0.050	-0.089
-695.456	-40.361	0.254	0.132
-694.441	389.213	0.015	0.031
-693.426	-200.000	0.041	0.225
-692.412	-185.430	-0.269	0.004
-691.397	-29.131	-0.136	0.078
-690.383	134.775	-0.152	-0.198
-689.368	-7.491	0.176	-0.120
-688.354	62.864	0.070	-0.070
-687.339	-29.615	-0.200	-0.114
-686.324	-71.869	-0.078	0.029
-685.310	71.256	0.112	0.117
-684.295	800.000	-0.071	0.310
-683.281	-133.625	0.345	0.043
-682.266	-109.886	0.301	0.063
-681.251	-162.469	-0.233	0.012
-680.237	34.987	0.268	-0.235
-679.222	-200.000	0.024	-0.142
-678.208	-143.949	-0.190	0.018
-677.193	-200.000	-0.043	-0.285
-676.178	-70.567	-0.183	-0.069
-675.164	-200.000	0.049	0.259
-674.149	268.133	0.166	0.292
-673.135	800.000	-0.063	0.277
-672.120	-67.045	0.059	0.023
-671.105	-79.903	0.278	0.094
-670.091	-67.155	-0.048	0.019
-669.076	180.926	-0.188	-0.278
-668.062	266.879	-0.113	0.199
-667.047	-200.000	-0.073	-0.366
-666.032	115.931	0.140	-0.172
-665.018	-2.829	0.140	-0.098
-664.003	24.863	-0.211	-0.175
-662.989	17.584	0.201	0.160
-661.974	86.127	-0.158	0.174
-660.959	-47.846	-0.459	-0.223
-659.945	-72.067	-0.182	-0.068
-658.930	-14.065	-0.264	0.171
-657.916	-22.037	-0.205	-0.125
-656.901	14.641	-0.214	0.167
-655.886	-200.000	0.025	-0.119
-654.872	800.000	0.052	0.184
-653.857	-31.514	-0.119	-0.067
-652.843	800.000	-0.069	-0.222
-651.828	-94.321	-0.131	0.036
-650.814	-72.691	0.245	-0.091
-649.799	-43.780	0.142	-0.072
-648.784	-17.575	-0.172	-0.108
-647.770	-30.815	0.223	0.126
-646.755	94.332	0.161	-0.183
-645.741	-42.976	-0.248	0.126
-644.726	-200.000	-0.004	-0.058
-643.711	227.846	-0.134	-0.219
-642.697	800.000	-0.021	0.088
-641.682	-96.324	-0.373	-0.099
-640.668	313.361	0.173	-0.325
-639.653	-103.992	0.218	0.051
-638.638	800.000	-0.068	0.227
-637.624	63.926	0.024	-0.024
-636.609	-14.199	0.360	0.232
-635.595	52.134	0.157	-0.150
-634.580	-200.000	-0.009	0.103
-633.565	800.000	-0.098	0.336
-632.551	-61.287	0.325	0.137
-631.536	-43.616	-0.138	0.070
-630.522	134.666	-0.140	0.183
-629.507	800.000	-0.050	-0.191
-628.492	584.235	-0.159	0.391
-627.478	800.000	-0.035	0.123
-626.463	109.129	0.076	-0.091
-625.449	800.000	0.090	0.342
-624.434	270.112	-0.150	-0.264
-623.419	577.920	-0.116	-0.283
-622.405	-84.167	-0.332	0.105
-621.390	612.635	0.027	0.068
-620.376	-81.484	-0.546	-0.180
-619.361	4.229	-0.322	-0.236
-618.346	-129.378	0.264	-0.037
-617.332	-121.997	-0.127	0.021
-616.317	90.401	0.221	0.248
-615.303	-7.683	0.032	-0.022
-614.288	272.393	0.227	-0.401
-613.273	101.712	0.193	-0.226
-612.259	-200.000	0.047	0.212
-611.244	-57.637	0.285	-0.125
-610.230	-200.000	-0.011	0.322
-609.215	248.315	-0.080	-0.135
-608.201	-30.434	-0.100	-0.057
-607.186	2.601	0.152	-0.110
-606.171	-138.452	0.159	0.018
-605.157	160.609	-0.071	0.100
-604.142	4.929	-0.156	0.115
-603.128	800.000	-0.005	0.017
-602.113	122.116	-0.231	-0.288
-601.098	-200.000	0.038	-0.224
-600.084	175.834	-0.205	-0.298
-599.069	166.601	-0.182	-0.257
-598.055	24.099	0.125	-0.103
-597.040	-104.568	-0.265	0.061
-596.025	33.488	0.106	-0.093
-595.011	-154.365	-0.400	-0.027
-593.996	29.513	0.159	0.135
-592.982	-76.854	0.170	0.059
-591.967	339.534	0.064	0.124
-590.952	800.000	-0.081	0.249
-589.938	-43.868	0.356	0.179
-588.923	800.000	-0.061	-0.248
-587.909	-92.949	0.171	0.048
-586.894	-29.210	0.222	-0.127
-585.879	-34.312	-0.128	0.070
-584.865	101.655	-0.139	0.161
-583.850	800.000	0.027	-0.112
-582.836	24.097	-0.385	0.318
-581.821	-200.000	0.083	0.407
-580.806	800.000	-0.160	-0.448
-579.792	300.404	0.071	-0.132
-578.777	-200.000	-0.040	0.223
-577.763	-73.163	0.131	-0.048
-576.748	-120.005	-0.197	-0.034
-575.733	-106.672	-0.118	0.026
-574.719	204.069	0.043	0.067
-573.704	-200.000	-0.013	-0.228
-572.690	20.738	0.054	-0.043
-571.675	800.000	-0.156	-0.467
-570.661	284.654	-0.027	0.049
-569.646	-57.957	0.161	0.070
-568.631	-14.720	0.112	0.072
-567.617	-200.000	-0.032	-0.268
-566.602	-157.067	-0.326	-0.020
-565.588	800.000	-0.073	-0.258
-564.573	265.991	0.032	-0.055
-563.558	800.000	0.077	-0.249
-562.544	29.065	0.223	-0.189
-561.529	-32.119	0.223	0.125
-560.515	572.644	-0.038	0.092
-559.500	64.173	0.176	0.177
-558.485	-159.044	0.199	0.011
-557.471	800.000	-0.042	-0.145
-556.456	-200.000	0.011	-0.190
-555.442	-69.554	0.218	0.083
-554.427	100.407	-0.119	-0.138
-553.412	-143.137	0.131	-0.013
-552.398	-124.201	-0.302	-0.047
-551.383	-104.466	0.296	0.068
-550.369	305.384	0.008	-0.015
-549.354	-200.000	0.063	-0.294
-548.339	30.024	0.246	0.209
-547.325	-200.000	0.000	0.030
-546.310	154.527	-0.134	-0.184
-545.296	260.934	0.104	-0.180
-544.281	800.000	-0.018	-0.059
-543.266	-39.329	-0.238	-0.125
-542.252	-101.727	-0.141	-0.034
-541.237	58.062	0.147	-0.144
-540.223	389.195	-0.092	0.190
-539.208	251.038	-0.164	-0.279
-538.193	30.966	-0.184	0.157
-537.179	800.000	0.060	-0.213
-536.164	-157.629	-0.276	-0.016
-535.150	63.242	-0.057	0.057
-534.135	-51.270	-0.104	-0.048
-533.121	14.201	-0.158	0.123
-532.106	800.000	-0.043	-0.184
-531.091	-133.317	-0.279	-0.035
-530.077	-40.859	-0.267	0.138
-529.062	350.334	0.170	0.335
-528.048	-109.038	-0.138	0.029
-527.033	800.000	-0.050	0.186
-526.018	251.266	-0.137	-0.233
-525.004	261.167	-0.051	0.088
-523.989	217.506	-0.035	-0.055
-522.975	243.724	-0.080	-0.134
-521.960	-154.172	0.308	-0.021
-520.945	800.000	-0.120	-0.504
-519.931	-62.669	0.171	0.071
-518.916	-200.000	-0.002	0.058
-517.902	-108.485	0.143	0.031
-516.887	-200.000	-0.046	-0.294
-515.872	121.276	0.128	-0.159
-514.858	800.000	-0.049	-0.141
-513.843	173.756	-0.285	-0.410
-512.829	-110.448	-0.107	-0.022
-511.814	143.420	0.068	0.090
-510.799	-90.214	0.173	0.050
-509.785	-200.000	0.051	0.282
-508.770	-128.095	0.125	0.018
-507.756	-200.000	0.001	-0.053
-506.741	-63.726	0.192	0.078
-505.726	59.511	-0.121	0.119
-504.712	49.068	0.088	0.082
-503.697	-20.791	-0.203	0.124
-502.683	-29.834	0.268	-0.152
-501.668	35.954	0.165	0.145
-500.653	69.134	-0.139	0.143
-499.639	-30.721	0.557	-0.314
-498.624	-200.000	-0.022	0.359
-497.610	-200.000	-0.022	0.270
-496.595	68.472	0.133	0.136
-495.581	16.137	-0.085	0.067
-494.566	-78.841	-0.232	0.079
-493.551	800.000	-0.023	-0.069
-492.537	-111.616	-0.077	0.016
-491.522	338.360	0.078	0.151
-490.508	-164.630	-0.157	-0.007
-489.493	-44.930	-0.163	0.081
-488.478	-200.000	0.022	0.303
-487.464	800.000	0.103	0.422
-486.449	255.672	0.135	-0.230
-485.435	282.243	-0.112	-0.201
-484.420	-16.493	0.304	-0.192
-483.405	-200.000	0.033	0.196
-482.391	-175.300	0.134	-0.004
-481.376	-65.762	0.505	-0.201
-480.362	163.592	-0.122	-0.171
-479.347	-64.860	-0.304	-0.123
-478.332	-73.365	0.133	0.049
-477.318	88.523	-0.096	0.106
-476.303	-106.571	-0.084	-0.019
-475.289	-2.501	-0.099	0.069
-474.274	-200.000	-0.019	0.147
-473.259	45.644	0.187	0.172
-472.245	-118.511	0.122	0.022
-471.230	-15.225	-0.229	0.146
-470.216	-65.814	-0.110	-0.044
-469.201	-6.099	-0.181	0.123
-468.186	-176.895	0.184	0.005
-467.172	97.332	-0.108	0.123
-466.157	14.889	-0.394	0.307
-465.143	-200.000	0.020	0.183
-464.128	-40.388	0.256	0.132
-463.113	742.953	-0.131	-0.350
-462.099	269.768	-0.146	-0.256
-461.084	-45.183	-0.106	-0.052
-460.070	-163.700	0.105	0.005
-459.055	-163.978	-0.038	0.002
-458.040	-12.491	-0.263	-0.171
-457.026	-200.000	-0.038	-0.191
-456.011	-63.934	-0.148	-0.060
-454.997	131.453	-0.080	-0.103
-453.982	339.087	0.018	0.035
-452.968	800.000	0.113	0.386
-451.953	746.861	0.094	0.251
-450.938	-63.820	0.073	-0.030
-449.924	228.002	0.130	0.210
-448.909	800.000	-0.061	0.204
-447.895	-22.914	0.153	-0.092
-446.880	75.584	0.071	0.074
-445.865	18.006	-0.238	-0.189
-444.851	-20.381	-0.234	0.143
-443.836	-87.305	-0.197	-0.059
-442.822	204.494	-0.128	-0.198
-441.807	800.000	0.052	0.175
-440.792	-38.963	-0.057	-0.030
-439.778	-160.610	-0.069	-0.004
-438.763	-166.216	-0.056	0.002
-437.749	315.964	0.062	0.116
-436.734	223.303	-0.205	-0.328
-435.719	536.684	0.057	-0.135
-434.705	87.883	0.188	-0.207
-433.690	86.286	-0.064	0.070
-432.676	-47.174	-0.311	-0.151
-431.661	34.377	-0.210	0.182
-430.646	-149.454	0.284	0.022
-429.632	-22.316	0.212	-0.128
-428.617	-21.739	-0.168	-0.102
-427.603	-200.000	-0.066	-0.382
-426.588	463.700	0.045	-0.100
-425.573	24.714	-0.234	0.193
-424.559	143.059	0.157	-0.208
-423.544	-200.000	-0.007	-0.082
-422.530	265.610	0.002	0.004
-421.515	535.809	0.029	-0.068
-420.500	-200.000	0.003	0.214
-419.486	37.201	0.182	-0.160
-418.471	800.000	-0.151	-0.451
-417.457	174.011	-0.120	-0.173
-416.442	553.972	0.151	0.360
-415.428	49.426	0.202	-0.189
-414.413	35.419	0.110	0.096
-413.398	800.000	0.062	0.182
-412.384	151.968	-0.071	-0.096
-411.369	-35.259	-0.236	-0.127
-410.355	67.067	-0.257	0.260
-409.340	-200.000	0.045	-0.265
-408.325	-39.743	0.171	-0.089
-407.311	-20.632	-0.246	-0.150
-406.296	391.669	-0.125	0.258
-405.282	510.418	0.126	0.290
-404.267	-39.191	0.100	-0.052
-403.252	-67.793	-0.278	-0.108
-402.238	135.538	-0.133	0.171
-401.223	13.999	-0.139	-0.107
-400.209	-61.744	0.124	0.051
-399.194	800.000	-0.027	-0.103
-398.179	-149.740	0.025	-0.002
-397.165	-200.000	0.023	0.229
-396.150	-54.542	0.333	-0.150
-395.136	-200.000	-0.009	0.159
-394.121	-54.312	0.067	0.030
-393.106	-45.183	-0.181	0.089
-392.092	-11.041	-0.450	-0.295
-391.077	-152.262	0.178	0.013
-390.063	699.804	-0.100	-0.262
-389.048	263.688	0.021	-0.036
-388.033	784.427	0.138	0.375
-387.019	-200.000	-0.008	-0.210
-386.004	768.276	-0.101	-0.272
-384.990	-6.569	-0.409	-0.276
-383.975	-200.000	-0.034	-0.194
-382.960	-45.642	-0.069	-0.034
-381.946	51.936	0.133	-0.126
-380.931	-105.709	-0.273	0.061
-379.917	647.965	0.073	-0.185
-378.902	-184.122	-0.115	-0.002
-377.888	174.535	0.010	0.015
-376.873	-200.000	0.004	0.030
-375.858	-200.000	0.007	-0.218
-374.844	-200.000	0.090	0.419
-373.829	618.108	0.108	-0.269
-372.815	339.343	0.056	0.109
-371.800	-149.362	-0.380	0.030
-370.785	150.685	-0.008	0.010
-369.771	289.161	-0.135	0.243
-368.756	184.463	0.134	0.197
-367.742	-47.034	-0.277	-0.134
-366.727	-34.180	0.162	0.088
-365.712	34.210	-0.128	0.111
-364.698	-119.770	-0.099	0.017
-363.683	46.430	-0.189	-0.174
-362.669	800.000	0.160	0.518
-361.654	136.551	0.153	0.198
-360.639	-200.000	0.003	-0.025
-359.625	18.352	0.316	-0.250
-358.610	409.064	-0.077	0.162
-357.596	800.000	0.029	-0.116
-356.581	5.491	0.274	-0.200
-355.566	-110.490	-0.159	0.033
-354.552	564.369	0.110	0.264
-353.537	16.348	0.235	0.184
-352.523	-74.729	0.217	0.077
-351.508	347.343	-0.064	-0.125
-350.493	276.052	-0.137	-0.242
-349.479	-200.000	0.028	-0.206
-348.464	-200.000	-0.059	0.304
-347.450	-12.884	-0.050	-0.032
-346.435	-95.516	-0.153	0.041
-345.420	-167.547	0.191	0.008
-344.406	-78.779	-0.114	0.038
-343.391	40.785	-0.068	-0.061
-342.377	185.703	0.103	0.151
-341.362	-3.853	0.063	-0.043
-340.348	64.965	-0.097	0.097
-339.333	68.628	0.139	0.141
-338.318	168.330	-0.176	0.249
-337.304	-200.000	0.024	0.195
-336.289	-107.783	-0.097	0.021
-335.275	373.709	0.031	0.062
-334.260	-47.097	0.238	-0.115
-333.245	-98.574	-0.121	-0.031
-332.231	800.000	-0.108	-0.365
-331.216	211.493	0.023	-0.036
-330.202	-200.000	-0.013	0.157
-329.187	-124.898	0.117	-0.018
-328.172	457.290	-0.080	0.175
-327.158	-135.461	-0.309	0.036
-326.143	14.630	0.209	-0.162
-325.129	-69.831	0.286	-0.108
-324.114	510.859	-0.049	-0.113
-323.099	800.000	0.089	0.255
-322.085	120.015	0.208	0.256
-321.070	34.619	0.050	-0.043
-320.056	586.477	-0.053	0.130
-319.041	165.771	-0.195	-0.274
-318.026	294.230	-0.095	0.172
-317.012	800.000	0.095	0.290
-315.997	800.000	0.048	-0.161
-314.983	46.825	0.206	0.190
-313.968	-200.000	0.011	-0.186
-312.953	800.000	0.027	0.094
-311.939	300.877	-0.109	0.199
-310.924	-150.659	-0.202	0.015
-309.910	49.030	0.167	0.155
-308.895	800.000	0.105	0.333
-307.880	-200.000	0.009	0.229
-306.866	800.000	0.051	0.184
-305.851	315.549	0.091	0.170
-304.837	126.401	0.113	0.142
-303.822	-19.133	0.131	0.080
-302.807	603.909	0.014	-0.035
-301.793	163.817	-0.039	-0.054
-300.778	472.339	0.126	0.281
-299.764	-21.889	-0.184	-0.111
-298.749	-200.000	0.009	-0.097
-297.735	-113.095	-0.164	0.032
-296.720	-200.000	-0.006	0.050
-295.705	-117.874	0.330	0.058
-294.691	800.000	0.099	0.364
-293.676	-137.897	-0.337	-0.037
-292.662	-146.573	0.207	-0.018
-291.647	-42.227	0.141	-0.071
-290.632	-64.895	0.500	-0.200
-289.618	-104.764	-0.406	-0.092
-288.603	490.776	0.154	-0.347
-287.589	-51.236	0.204	0.095
-286.574	-200.000	0.014	-0.072
-285.559	800.000	0.065	0.213
-284.545	-94.848	-0.226	0.060
-283.530	-46.435	0.067	-0.032
-282.516	800.000	0.019	-0.070
-281.501	-136.671	-0.069	0.008
-280.486	604.414	-0.148	-0.365
-279.472	-168.492	-0.260	0.010
-278.457	-145.348	0.260	-0.023
-277.443	318.948	0.129	-0.242
-276.428	594.795	-0.055	-0.136
-275.413	-200.000	0.041	0.322
-274.399	-137.720	0.186	-0.021
-273.384	161.396	0.115	-0.158
-272.370	-65.438	-0.114	0.045
-271.355	-145.791	-0.114	-0.010
-270.340	-161.771	-0.265	0.013
-269.326	-200.000	0.002	-0.168
-268.311	0.707	0.329	0.232
-267.297	800.000	-0.066	0.207
-266.282	77.730	0.249	-0.262
-265.267	-143.209	0.168	-0.016
-264.253	-91.406	0.196	0.055
-263.238	-48.771	-0.223	0.106
-262.224	-62.828	-0.198	0.081
-261.209	800.000	0.014	-0.055
-260.195	-200.000	0.002	-0.056
-259.180	-200.000	0.018	-0.269
-258.165	457.427	-0.095	-0.209
-257.151	-34.604	0.115	0.062
-256.136	234.769	0.212	0.346
-255.122	800.000	-0.093	0.262
-254.107	-57.972	0.114	-0.049
-253.092	-34.319	-0.115	0.062
-252.078	151.654	0.133	-0.178
-251.063	130.517	0.111	-0.141
-250.049	-15.711	-0.157	-0.099
-249.034	38.722	0.148	0.130
-248.019	-119.141	-0.307	0.053
-247.005	78.088	-0.075	-0.079
-245.990	-56.085	-0.096	-0.042
-244.976	283.559	-0.046	-0.082
-243.961	277.529	0.064	-0.112
-242.946	125.700	-0.113	0.141
-241.932	-86.415	0.244	-0.074
-240.917	98.165	-0.129	-0.147
-239.903	147.510	0.086	0.114
-238.888	38.699	-0.232	0.204
-237.873	-18.866	0.084	0.051
-236.859	-134.231	0.289	-0.035
-235.844	800.000	0.134	0.524
-234.830	-153.481	0.240	-0.016
-233.815	-123.379	0.155	0.024
-232.800	-200.000	0.015	-0.124
-231.786	-63.673	0.348	0.141
-230.771	-200.000	-0.026	-0.121
-229.757	-101.877	0.104	-0.025
-228.742	-65.775	0.458	0.181
-227.727	-46.630	0.052	-0.025
-226.713	800.000	-0.050	-0.181
-225.698	180.433	0.139	0.201
-224.684	73.046	0.129	0.132
-223.669	551.964	-0.209	0.496
-222.655	532.960	0.161	-0.376
-221.640	675.326	0.055	-0.141
-220.625	129.115	-0.045	-0.057
-219.611	121.285	-0.141	-0.174
-218.596	-125.448	-0.269	-0.040
-217.582	7.685	0.129	0.095
-216.567	56.851	0.075	-0.072
-215.552	150.912	-0.067	-0.089
-214.538	252.015	0.124	-0.208
-213.523	155.405	-0.138	0.187
-212.509	-200.000	-0.039	-0.269
-211.494	471.545	0.117	0.260
-210.479	800.000	0.085	-0.253
-209.465	619.922	0.011	-0.028
-208.450	800.000	-0.106	-0.318
-207.436	-77.249	-0.232	0.079
-206.421	-200.000	-0.028	0.145
-205.406	800.000	0.037	0.138
-204.392	-70.538	-0.235	0.088
-203.377	-151.734	0.076	-0.006
-202.363	212.045	-0.066	0.102
-201.348	349.319	0.113	0.219
-200.333	-93.748	-0.339	0.092
-199.319	-106.633	0.027	-0.006
-198.304	253.918	0.158	-0.266
-197.290	-200.000	0.024	0.171
-196.275	-18.768	0.126	-0.077
-195.260	1.049	0.208	-0.147
-194.246	-200.000	0.005	0.060
-193.231	-151.860	0.249	0.018
-192.217	-138.317	0.115	0.012
-191.202	-6.315	-0.139	0.094
-190.187	51.696	0.030	0.028
-189.173	-158.966	0.273	-0.015
-188.158	-172.600	0.339	-0.011
-187.144	33.346	0.274	0.234
-186.129	-159.862	0.066	0.004
-185.114	1.800	-0.052	-0.037
-184.100	-199.125	-0.191	-0.001
-183.085	-15.909	0.081	-0.051
-182.071	-200.000	0.053	-0.266
-181.056	-200.000	-0.054	0.237
-180.042	610.496	0.141	0.346
-179.027	-50.137	-0.311	-0.145
-178.012	-52.772	0.137	0.062
-176.998	3.320	-0.109	0.078
-175.983	-57.800	-0.215	0.093
-174.969	-123.260	0.099	-0.016
-173.954	-33.979	-0.298	0.161
-172.939	-148.546	-0.137	-0.011
-171.925	-50.882	0.204	-0.094
-170.910	800.000	-0.100	0.321
-169.896	-8.407	-0.159	0.105
-168.881	-8.740	-0.086	-0.057
-167.866	-67.096	-0.117	0.046
-166.852	-92.524	0.167	-0.046
-165.837	-106.186	-0.153	0.034
-164.823	-109.695	0.264	0.055
-163.808	-114.214	-0.259	0.049
-162.793	-200.000	-0.039	-0.280
-161.779	-113.652	-0.270	-0.052
-160.764	368.557	-0.144	-0.285
-159.750	-93.124	0.184	0.050
-158.735	-96.813	0.250	-0.065
-157.720	215.039	0.110	0.171
-156.706	127.130	0.096	-0.120
-155.691	-139.455	-0.151	0.016
-154.677	-146.456	-0.220	-0.019
-153.662	-200.000	0.002	-0.025
-152.647	83.356	0.220	-0.236
-151.633	-138.369	0.091	-0.010
-150.618	-117.702	0.429	-0.076
-149.604	755.436	-0.089	0.236
-148.589	-61.132	-0.235	0.097
-147.574	-200.000	0.003	0.276
-146.560	-99.435	0.376	0.093
-145.545	5.953	-0.203	0.147
-144.531	76.440	-0.139	0.145
-143.516	-106.266	0.160	0.035
-142.502	-81.906	-0.144	0.046
-141.487	-200.000	-0.007	-0.286
-140.472	800.000	0.046	-0.151
-139.458	-35.497	0.105	-0.056
-138.443	-7.163	-0.117	0.078
-137.429	150.960	-0.053	-0.071
-136.414	-74.308	0.422	-0.150
-135.399	-143.830	-0.222	0.021
-134.385	-140.489	0.270	0.028
-133.370	-3.229	-0.234	0.160
-132.356	199.078	-0.083	0.125
-131.341	374.297	-0.014	0.027
-130.326	119.387	0.088	0.107
-129.312	85.239	-0.200	0.216
-128.297	-88.109	0.095	-0.028
-127.283	-122.054	-0.097	-0.016
-126.268	-77.880	-0.098	-0.033
-125.253	186.480	0.109	-0.160
-124.239	48.350	0.318	0.292
-123.224	19.553	-0.007	0.006
-122.210	-86.524	0.105	0.032
-121.195	-112.599	0.013	-0.002
