DTS Sentinel unit serial number:	SN413079Multiplexer serial number:	ORYXHardware model number:	OX4-SRSoftware version number:	ORYX F/W v4.00 Oryx Data Collector v3.7.2.0data status	okinstallation	princeton_trtdifferential loss correction	single-endedforward channel	channel 3reverse channel	N/Adate	2019/09/15time	13:28:35forward acquisition time	60.00reverse acquisition time	0.00gamma	496.2192k internal	0.2293k external	0.2293temperature offset calibration	0.9955default loss term (dB/km)	0.3790temperature slope calibration	1.0000multiplexer offset coefficient	1.0000multiplexer slope coefficient	1.0000fibre end	0.00T internal ref (°C)	37.50T ext. ref 1 (°C)	4.89T ext. ref 2 (°C)	34.47length (m)	temperature (°C)	Stokes	anti-Stokes-747.200	45.789	0.093	-0.088
-746.185	491.755	-0.073	0.170
-745.171	0.195	-0.103	-0.075
-744.156	-92.909	0.075	0.021
-743.142	800.000	0.037	-0.122
-742.127	141.039	-0.198	0.268
-741.112	70.014	0.208	0.219
-740.098	-200.000	0.011	0.085
-739.083	-122.597	-0.241	0.040
-738.069	-147.354	0.111	0.010
-737.054	-70.695	-0.113	-0.044
-736.039	13.051	-0.106	-0.084
-735.025	747.331	-0.052	0.144
-734.010	-9.761	0.151	-0.103
-732.996	47.270	0.170	-0.162
-731.981	-68.165	-0.412	0.164
-730.966	800.000	-0.018	0.068
-729.952	-125.827	-0.052	0.008
-728.937	65.320	-0.029	0.030
-727.923	14.779	0.161	0.129
-726.908	-56.967	-0.084	-0.038
-725.894	10.012	-0.213	-0.165
-724.879	157.655	-0.136	-0.192
-723.864	-67.231	-0.143	-0.058
-722.850	-28.981	-0.265	-0.155
-721.835	119.136	0.072	0.091
-720.821	-200.000	0.082	-0.395
-719.806	-19.256	0.327	-0.208
-718.791	167.493	-0.187	0.271
-717.777	5.245	0.082	-0.062
-716.762	-200.000	-0.005	0.229
-715.748	58.403	0.165	0.166
-714.733	278.577	-0.139	-0.254
-713.718	271.136	-0.048	-0.087
-712.704	11.394	0.132	0.103
-711.689	-33.616	0.315	-0.178
-710.675	458.846	-0.114	0.258
-709.660	-110.231	-0.205	-0.044
-708.645	134.289	0.204	0.270
-707.631	3.237	-0.107	0.079
-706.616	39.918	-0.198	0.181
-705.602	-111.138	0.305	-0.064
-704.587	-69.116	-0.328	-0.129
-703.572	313.170	-0.104	0.199
-702.558	-200.000	-0.022	0.145
-701.543	-42.250	-0.271	-0.141
-700.529	214.654	0.084	0.135
-699.514	-102.506	0.149	0.036
-698.499	-132.816	0.192	0.025
-697.485	-50.107	-0.042	0.021
-696.470	-200.000	0.023	-0.296
-695.456	118.385	0.078	-0.098
-694.441	-107.243	-0.424	-0.095
-693.426	-100.281	-0.475	-0.121
-692.412	6.490	-0.042	-0.032
-691.397	-110.698	0.137	0.029
-690.383	-87.000	-0.438	-0.136
-689.368	-46.139	0.179	-0.090
-688.354	410.622	0.109	-0.237
-687.339	800.000	-0.038	-0.117
-686.324	-53.745	-0.304	0.142
-685.310	-149.769	0.111	-0.009
-684.295	-38.787	0.145	-0.078
-683.281	-92.905	-0.292	-0.083
-682.266	188.050	-0.131	0.200
-681.251	173.303	0.196	-0.288
-680.237	36.502	0.099	0.089
-679.222	-102.189	-0.170	0.042
-678.208	800.000	-0.068	-0.221
-677.193	38.389	-0.603	0.549
-676.178	-187.241	0.157	0.002
-675.164	136.838	0.137	-0.182
-674.149	-24.702	0.119	-0.072
-673.135	-200.000	0.013	-0.106
-672.120	-88.125	-0.292	-0.089
-671.105	248.617	0.035	0.060
-670.091	97.064	-0.159	-0.185
-669.076	95.663	-0.075	-0.088
-668.062	-155.034	0.069	-0.005
-667.047	45.760	0.048	-0.045
-666.032	800.000	0.037	-0.122
-665.018	254.300	-0.078	-0.136
-664.003	800.000	0.019	-0.080
-662.989	44.102	0.248	-0.232
-661.974	-151.249	-0.225	0.017
-660.959	-89.809	0.221	-0.066
-659.945	38.717	-0.015	0.014
-658.930	-153.941	0.293	0.020
-657.916	-200.000	-0.023	-0.202
-656.901	-104.271	-0.174	-0.041
-655.886	501.534	0.075	-0.177
-654.872	70.314	-0.252	0.266
-653.857	800.000	-0.026	-0.112
-652.843	-122.911	-0.135	-0.022
-651.828	-140.547	-0.258	0.027
-650.814	308.899	0.036	-0.068
-649.799	-200.000	0.006	0.144
-648.784	78.599	-0.024	0.026
-647.770	-43.032	-0.122	-0.063
-646.755	-171.455	0.184	0.006
-645.741	-112.082	0.174	-0.036
-644.726	-31.745	0.222	0.127
-643.711	-47.996	-0.044	-0.022
-642.697	-71.503	-0.105	-0.040
-641.682	18.915	0.120	-0.098
-640.668	-48.655	-0.495	-0.242
-639.653	-109.707	0.118	0.025
-638.638	228.641	0.036	-0.060
-637.624	-55.893	-0.265	0.120
-636.609	-73.461	-0.118	-0.044
-635.595	-200.000	0.013	-0.103
-634.580	-37.858	-0.151	0.082
-633.565	63.410	0.091	-0.093
-632.551	464.354	0.103	0.234
-631.536	101.467	-0.196	0.233
-630.522	290.787	0.065	-0.120
-629.507	-55.757	0.239	-0.109
-628.492	93.558	-0.101	-0.117
-627.478	-200.000	-0.005	-0.099
-626.463	-183.268	-0.209	0.004
-625.449	-144.708	0.464	0.043
-624.434	449.051	0.086	-0.194
-623.419	62.642	0.035	-0.036
-622.405	800.000	0.046	0.135
-621.390	-106.585	-0.312	0.071
-620.376	-124.440	-0.383	-0.061
-619.361	27.532	0.159	0.136
-618.346	413.473	-0.114	0.247
-617.332	189.780	-0.214	-0.328
-616.317	-10.974	0.116	0.078
-615.303	-88.849	-0.267	0.081
-614.288	131.296	-0.011	0.015
-613.273	-112.276	0.282	0.058
-612.259	653.191	-0.007	-0.018
-611.244	-119.119	-0.382	-0.068
-610.230	-111.225	-0.277	-0.058
-609.215	111.829	0.121	0.149
-608.201	-51.675	0.208	-0.099
-607.186	154.058	0.106	0.149
-606.171	-140.777	-0.144	-0.015
-605.157	-38.531	-0.081	0.044
-604.142	265.598	0.101	0.180
-603.128	-158.125	0.173	0.010
-602.113	-75.663	-0.237	-0.086
-601.098	-200.000	0.020	-0.112
-600.084	-92.231	-0.174	0.050
-599.069	-10.252	-0.114	-0.077
-598.055	-200.000	-0.002	-0.091
-597.040	-38.960	-0.317	-0.170
-596.025	800.000	-0.035	-0.147
-595.011	151.812	0.139	0.193
-593.996	179.349	-0.086	0.127
-592.982	-90.389	0.205	0.061
-591.967	-96.741	-0.064	-0.017
-590.952	51.226	-0.104	-0.101
-589.938	17.219	-0.059	-0.047
-588.923	-200.000	-0.001	-0.027
-587.909	-200.000	0.018	-0.156
-586.894	303.264	-0.094	-0.176
-585.879	-63.564	-0.164	-0.069
-584.865	-68.863	0.308	-0.121
-583.850	-12.596	-0.267	-0.177
-582.836	316.430	0.135	-0.258
-581.821	554.410	0.082	-0.201
-580.806	-200.000	0.035	-0.239
-579.792	119.535	0.241	-0.304
-578.777	-200.000	0.017	-0.212
-577.763	-200.000	-0.027	-0.170
-576.748	-200.000	-0.006	-0.065
-575.733	224.237	-0.101	0.166
-574.719	169.121	-0.036	-0.052
-573.704	800.000	0.136	-0.566
-572.690	156.450	-0.155	0.218
-571.675	229.168	0.155	-0.257
-570.661	-114.863	0.163	0.032
-569.646	800.000	-0.061	-0.255
-568.631	390.727	0.064	0.135
-567.617	-15.889	0.163	-0.105
-566.602	392.694	0.177	-0.374
-565.588	63.142	0.246	-0.251
-564.573	-64.973	0.245	0.101
-563.558	-45.917	-0.158	0.079
-562.544	-200.000	-0.005	-0.221
-561.529	168.904	-0.173	0.251
-560.515	-200.000	-0.030	0.281
-559.500	-76.211	0.177	0.063
-558.485	-42.220	0.073	-0.038
-557.471	-142.644	-0.404	0.040
-556.456	-200.000	-0.039	-0.235
-555.442	-200.000	-0.010	0.173
-554.427	226.656	0.209	-0.344
-553.412	-200.000	-0.001	-0.139
-552.398	-200.000	-0.004	-0.238
-551.383	135.609	0.080	0.106
-550.369	-25.118	-0.260	0.157
-549.354	800.000	-0.104	-0.390
-548.339	-200.000	-0.010	-0.119
-547.325	162.046	0.248	-0.352
-546.310	-53.886	-0.297	-0.137
-545.296	710.900	0.030	0.080
-544.281	-53.764	0.053	-0.025
-543.266	-77.654	0.137	0.048
-542.252	-188.856	0.164	0.002
-541.237	-151.282	0.233	-0.018
-540.223	766.032	0.013	0.035
-539.208	101.747	0.150	-0.178
-538.193	16.961	0.132	0.106
-537.179	126.749	0.215	-0.277
-536.164	300.763	-0.107	-0.200
-535.150	85.137	0.015	-0.017
-534.135	26.653	0.044	-0.037
-533.121	-200.000	0.036	0.229
-532.106	144.076	-0.137	0.186
-531.091	-96.002	-0.289	0.078
-530.077	-31.637	0.229	-0.130
-529.062	158.333	-0.031	0.043
-528.048	-14.827	0.168	-0.109
-527.033	800.000	-0.126	0.353
-526.018	-36.254	-0.170	-0.093
-525.004	6.786	-0.124	0.094
-523.989	597.704	-0.006	-0.014
-522.975	99.515	0.282	-0.331
-521.960	68.112	0.141	-0.147
-520.945	562.868	-0.193	0.473
-519.931	550.792	-0.166	-0.404
-518.916	73.478	0.173	0.183
-517.902	178.874	-0.085	0.126
-516.887	235.860	-0.077	0.130
-515.872	191.496	0.054	-0.082
-514.858	52.373	0.156	0.151
-513.843	800.000	0.017	0.075
-512.829	-200.000	-0.028	-0.311
-511.814	-134.591	-0.225	-0.028
-510.799	-89.217	0.214	0.064
-509.785	-200.000	0.018	0.200
-508.770	-76.660	-0.191	-0.068
-507.756	-74.583	-0.127	-0.046
-506.741	-200.000	-0.001	0.192
-505.726	-11.740	0.157	-0.104
-504.712	-142.107	-0.209	-0.021
-503.697	-127.052	0.153	-0.023
-502.683	121.382	0.061	-0.077
-501.668	38.999	-0.062	-0.056
-500.653	3.660	-0.196	0.145
-499.639	309.393	-0.142	-0.270
-498.624	-50.680	0.259	-0.123
-497.610	163.874	-0.100	-0.142
-496.595	800.000	0.045	0.165
-495.581	-153.054	-0.472	0.034
-494.566	67.454	0.090	0.093
-493.551	-89.751	0.309	0.092
-492.537	-88.567	0.130	-0.039
-491.522	266.746	-0.106	-0.187
-490.508	-17.225	0.141	-0.090
-489.493	-171.772	0.270	-0.009
-488.478	-143.346	-0.243	-0.024
-487.464	299.864	0.152	0.283
-486.449	-84.542	0.128	-0.041
-485.435	-135.428	-0.167	-0.020
-484.420	-151.965	-0.175	-0.013
-483.405	-110.169	-0.215	0.045
-482.391	153.520	0.144	-0.199
-481.376	-200.000	-0.007	0.174
-480.362	-19.367	-0.173	-0.108
-479.347	116.790	0.222	-0.275
-478.332	-200.000	-0.026	0.140
-477.318	-129.451	-0.224	0.031
-476.303	285.124	-0.052	0.095
-475.289	245.512	0.097	-0.165
-474.274	27.832	0.090	0.077
-473.259	61.200	-0.203	-0.204
-472.245	-18.472	-0.108	-0.068
-471.230	-200.000	0.007	0.278
-470.216	-0.815	-0.116	0.083
-469.201	35.029	-0.170	0.151
-468.186	33.073	0.271	-0.238
-467.172	-12.063	0.091	-0.061
-466.157	1.058	0.064	-0.047
-465.143	-200.000	0.000	-0.032
-464.128	22.057	0.285	-0.235
-463.113	-200.000	0.047	-0.258
-462.099	-103.282	0.096	-0.023
-461.084	800.000	0.063	0.200
-460.070	25.418	-0.131	-0.111
-459.055	-76.532	-0.232	0.082
-458.040	-60.637	-0.184	-0.079
-457.026	-19.884	0.401	0.250
-456.011	-72.377	-0.389	-0.146
-454.997	-43.614	-0.047	0.024
-453.982	-25.847	0.150	-0.089
-452.968	-70.529	0.224	0.086
-451.953	-200.000	0.008	0.036
-450.938	-69.455	-0.176	0.068
-449.924	-85.475	0.070	0.022
-448.909	800.000	-0.106	0.439
-447.895	800.000	0.074	0.223
-446.880	800.000	-0.042	0.184
-445.865	15.392	-0.077	-0.061
-444.851	254.093	0.078	-0.135
-443.836	800.000	-0.053	0.155
-442.822	-53.771	0.049	0.023
-441.807	263.405	-0.135	-0.237
-440.792	30.086	-0.152	0.131
-439.778	-156.687	-0.176	0.011
-438.763	230.564	0.155	-0.257
-437.749	800.000	-0.076	0.338
-436.734	800.000	-0.037	0.125
-435.719	-200.000	0.025	0.120
-434.705	-59.492	0.166	0.072
-433.690	-0.500	0.245	-0.176
-432.676	757.955	-0.024	-0.067
-431.661	355.546	-0.054	0.108
-430.646	606.006	0.107	0.270
-429.632	-79.013	-0.054	-0.018
-428.617	-7.477	-0.124	0.085
-427.603	199.010	-0.156	-0.241
-426.588	-200.000	-0.009	0.153
-425.573	-67.044	0.172	-0.069
-424.559	-137.708	0.270	0.031
-423.544	-200.000	0.023	0.139
-422.530	-5.240	0.091	0.063
-421.515	49.010	-0.236	-0.224
-420.500	-81.089	0.300	-0.100
-419.486	282.052	-0.068	-0.124
-418.471	321.222	-0.032	0.062
-417.457	768.254	-0.157	-0.432
-416.442	4.912	-0.224	0.167
-415.428	163.197	-0.133	0.188
-414.413	-58.666	-0.048	-0.021
-413.398	95.465	0.014	-0.016
-412.384	33.461	-0.470	0.412
-411.369	156.211	0.070	-0.097
-410.355	-39.507	0.150	-0.079
-409.340	393.271	-0.160	0.336
-408.325	326.556	-0.131	0.253
-407.311	800.000	-0.040	0.113
-406.296	34.356	0.184	0.162
-405.282	377.212	0.043	-0.088
-404.267	71.901	-0.017	0.018
-403.252	-67.237	0.302	0.120
-402.238	631.044	0.099	-0.254
-401.223	250.338	0.136	-0.234
-400.209	-43.376	-0.238	-0.121
-399.194	800.000	0.040	0.146
-398.179	58.084	-0.151	-0.149
-397.165	149.725	0.101	-0.138
-396.150	-65.249	-0.174	-0.071
-395.136	327.983	-0.036	-0.069
-394.121	-77.728	-0.383	0.134
-393.106	401.058	-0.053	-0.111
-392.092	-45.046	0.082	0.041
-391.077	147.620	-0.143	-0.195
-390.063	-129.204	0.024	0.003
-389.048	-39.535	-0.220	-0.116
-388.033	-139.506	-0.438	-0.047
-387.019	54.273	-0.029	-0.028
-386.004	390.700	-0.068	0.143
-384.990	20.932	-0.192	0.157
-383.975	-189.573	0.170	-0.002
-382.960	247.284	-0.131	0.222
-381.946	703.814	-0.096	0.256
-380.931	132.415	0.077	0.099
-379.917	132.169	0.220	0.285
-378.902	-58.429	-0.145	-0.064
-377.888	800.000	0.015	0.054
-376.873	-160.776	0.342	0.018
-375.858	-118.888	-0.218	-0.039
-374.844	-91.425	0.230	-0.066
-373.829	-18.455	0.178	-0.112
-372.815	-200.000	0.000	0.224
-371.800	155.441	-0.174	-0.241
-370.785	272.401	-0.047	0.084
-369.771	350.213	0.037	-0.073
-368.756	221.571	-0.016	0.027
-367.742	-200.000	0.056	-0.361
-366.727	800.000	0.050	-0.173
-365.712	19.650	0.209	0.170
-364.698	9.405	-0.178	-0.136
-363.683	-150.379	0.075	-0.006
-362.669	-200.000	-0.034	-0.383
-361.654	-143.306	0.083	-0.008
-360.639	800.000	0.023	0.099
-359.625	-51.314	-0.319	-0.150
-358.610	-200.000	-0.025	0.135
-357.596	-200.000	0.001	0.138
-356.581	86.603	-0.132	-0.147
-355.566	-200.000	0.002	0.011
-354.552	-136.286	0.178	-0.021
-353.537	203.965	-0.075	0.116
-352.523	224.066	0.070	0.114
-351.508	103.668	-0.249	-0.294
-350.493	508.589	-0.051	0.119
-349.479	-160.963	-0.142	0.008
-348.464	-94.262	0.087	0.024
-347.450	-174.252	0.154	-0.005
-346.435	-179.425	-0.334	-0.007
-345.420	-14.805	0.260	0.168
-344.406	-41.984	0.159	0.082
-343.391	800.000	0.048	0.166
-342.377	25.598	0.114	-0.096
-341.362	-47.569	0.239	-0.117
-340.348	-21.770	-0.062	-0.038
-339.333	800.000	-0.062	-0.202
-338.318	452.540	0.163	0.362
-337.304	-200.000	-0.029	0.158
-336.289	18.979	-0.218	0.176
-335.275	-55.071	0.138	0.062
-334.260	800.000	-0.071	-0.263
-333.245	22.337	0.319	-0.263
-332.231	-5.836	-0.052	-0.036
-331.216	172.132	-0.091	-0.132
-330.202	-200.000	-0.007	-0.264
-329.187	-85.356	0.412	0.129
-328.172	0.329	0.026	-0.018
-327.158	-133.612	-0.154	0.019
-326.143	-200.000	0.010	-0.150
-325.129	80.243	0.149	-0.162
-324.114	-93.116	-0.181	-0.051
-323.099	-71.306	-0.251	-0.095
-322.085	-105.885	-0.261	0.059
-321.070	800.000	0.021	-0.076
-320.056	5.467	0.136	-0.101
-319.041	-103.066	0.208	0.050
-318.026	88.619	0.221	-0.248
-317.012	460.999	-0.076	0.170
-315.997	-178.406	0.025	-0.001
-314.983	713.172	-0.141	0.375
-313.968	-200.000	0.053	0.418
-312.953	-4.450	0.220	-0.153
-311.939	277.521	0.162	-0.289
-310.924	-200.000	-0.033	-0.191
-309.910	68.536	-0.139	-0.143
-308.895	121.626	0.230	0.289
-307.880	382.208	0.143	0.296
-306.866	197.196	0.037	0.057
-305.851	-118.574	0.029	0.005
-304.837	-113.229	0.261	-0.052
-303.822	800.000	-0.033	-0.102
-302.807	-121.857	0.401	-0.066
-301.793	-146.133	-0.114	-0.010
-300.778	-143.596	-0.265	0.025
-299.764	-44.223	-0.147	-0.074
-298.749	800.000	-0.187	0.566
-297.735	258.307	-0.101	0.175
-296.720	-65.744	0.256	0.103
-295.705	614.134	0.113	0.285
-294.691	-35.522	-0.249	0.136
-293.676	-200.000	0.005	-0.027
-292.662	-149.929	-0.089	-0.007
-291.647	800.000	-0.110	0.384
-290.632	-17.240	0.042	0.027
-289.618	-200.000	0.040	0.273
-288.603	800.000	-0.050	-0.208
-287.589	-42.607	0.142	-0.073
-286.574	-200.000	-0.014	0.132
-285.559	-200.000	-0.006	0.071
-284.545	41.442	0.112	-0.102
-283.530	-200.000	-0.018	0.154
-282.516	-134.838	0.102	0.012
-281.501	23.750	0.174	-0.144
-280.486	323.312	0.069	0.133
-279.472	37.853	0.165	0.147
-278.457	507.367	-0.121	-0.282
-277.443	130.685	0.383	0.493
-276.428	29.986	0.122	0.105
-275.413	-172.114	-0.274	-0.009
-274.399	-100.795	0.417	-0.103
-273.384	-93.432	0.280	0.078
-272.370	-34.248	0.127	-0.070
-271.355	-200.000	-0.004	-0.242
-270.340	-200.000	0.053	-0.302
-269.326	202.431	0.093	-0.144
-268.311	800.000	0.075	-0.277
-267.297	17.002	0.402	0.320
-266.282	-100.635	-0.079	-0.020
-265.267	11.817	-0.181	0.139
-264.253	-133.491	-0.238	0.030
-263.238	-103.433	-0.201	-0.047
-262.224	388.468	0.053	0.109
-261.209	107.393	0.089	-0.106
-260.195	-182.253	0.320	-0.006
-259.180	375.349	0.026	-0.053
-258.165	-22.637	-0.194	-0.118
-257.151	-200.000	0.014	0.068
-256.136	135.785	-0.317	0.414
-255.122	-200.000	-0.057	0.257
-254.107	324.132	-0.020	-0.039
-253.092	46.722	0.204	0.190
-252.078	-200.000	-0.058	-0.276
-251.063	44.978	-0.202	0.187
-250.049	-24.151	0.143	-0.086
-249.034	718.955	0.019	0.051
-248.019	-200.000	-0.065	0.399
-247.005	-200.000	0.001	-0.006
-245.990	-200.000	0.008	-0.193
-244.976	800.000	0.078	0.242
-243.961	15.954	0.153	0.121
-242.946	-151.874	-0.220	-0.016
-241.932	7.981	-0.121	-0.091
-240.917	-29.433	0.193	0.111
-239.903	-80.840	-0.221	0.074
-238.888	-72.390	0.223	-0.083
-237.873	-83.635	0.081	0.026
-236.859	-93.504	-0.120	0.033
-235.844	38.794	0.087	0.078
-234.830	142.476	-0.052	0.069
-233.815	-80.521	-0.491	-0.164
-232.800	193.641	0.165	0.250
-231.786	-142.563	-0.257	-0.025
-230.771	800.000	-0.090	0.365
-229.757	442.270	-0.039	0.085
-228.742	81.297	-0.217	0.235
-227.727	42.417	-0.150	0.137
-226.713	-11.525	0.034	-0.023
-225.698	-119.120	-0.217	-0.038
-224.684	289.242	-0.087	-0.159
-223.669	147.135	0.135	0.182
-222.655	655.979	0.036	-0.094
-221.640	-172.241	-0.243	0.008
-220.625	-200.000	-0.035	-0.198
-219.611	-135.544	0.095	-0.011
-218.596	-1.046	0.269	0.191
-217.582	-200.000	0.015	0.145
-216.567	-66.183	-0.232	0.093
-215.552	-75.016	-0.229	0.082
-214.538	247.659	0.045	0.076
-213.523	35.494	0.042	-0.037
-212.509	700.641	-0.014	0.036
-211.494	49.964	-0.285	0.269
-210.479	-200.000	0.004	0.282
-209.465	87.536	0.310	-0.343
-208.450	-84.565	0.187	-0.059
-207.436	-83.930	-0.254	-0.081
-206.421	-71.812	-0.189	0.071
-205.406	-1.981	0.098	-0.069
-204.392	-200.000	0.017	0.096
-203.377	-21.798	-0.134	0.082
-202.363	120.015	0.309	-0.384
-201.348	-72.444	-0.360	0.133
-200.333	800.000	-0.068	0.221
-199.319	729.682	0.119	-0.319
-198.304	-200.000	0.024	-0.184
-197.290	168.596	0.132	0.188
-196.275	800.000	0.064	-0.179
-195.260	361.349	-0.082	0.164
-194.246	137.372	0.157	0.205
-193.231	800.000	0.022	-0.067
-192.217	-89.138	-0.104	0.031
-191.202	77.348	-0.061	0.065
-190.187	-91.213	-0.031	0.009
-189.173	800.000	-0.070	-0.197
-188.158	25.290	-0.139	-0.116
-187.144	-66.080	-0.235	0.094
-186.129	-128.382	0.074	0.011
-185.114	-200.000	-0.020	0.140
-184.100	-200.000	0.000	0.067
-183.085	220.300	-0.081	-0.130
-182.071	-79.042	0.309	0.105
-181.056	218.940	0.187	-0.299
-180.042	-200.000	-0.012	0.079
-179.027	-112.345	0.392	0.078
-178.012	326.154	-0.065	-0.125
-176.998	177.615	-0.191	-0.279
-175.983	-200.000	-0.032	0.243
-174.969	384.035	-0.076	0.157
-173.954	-72.263	0.139	-0.052
-172.939	-45.297	0.428	0.213
-171.925	-56.058	0.293	0.131
-170.910	-200.000	-0.013	0.243
-169.896	800.000	-0.036	0.137
-168.881	1.981	-0.198	-0.143
-167.866	-124.919	-0.134	0.021
-166.852	-191.059	0.424	0.004
-165.837	481.809	0.096	-0.219
-164.823	-158.098	0.345	-0.020
-163.808	52.282	0.017	0.016
-162.793	-200.000	0.031	-0.158
-161.779	-200.000	0.012	-0.143
-160.764	13.503	-0.315	0.245
-159.750	114.065	0.140	0.171
-158.735	-200.000	0.020	0.546
-157.720	27.271	-0.078	-0.066
-156.706	-36.496	-0.266	0.143
-155.691	-200.000	0.001	-0.100
-154.677	137.187	0.338	-0.441
-153.662	-200.000	-0.012	-0.330
-152.647	-11.247	-0.128	0.084
-151.633	-196.077	0.108	0.001
-150.618	103.145	0.143	-0.168
-149.604	-111.862	0.168	0.034
-148.589	800.000	-0.064	-0.264
-147.574	-200.000	-0.022	-0.244
-146.560	-200.000	0.003	-0.205
-145.545	-72.715	-0.353	-0.130
-144.531	34.223	0.047	0.041
-143.516	-78.145	-0.330	-0.114
-142.502	53.813	-0.167	0.160
-141.487	-200.000	-0.070	0.378
-140.472	-156.282	0.060	-0.004
-139.458	-67.732	-0.225	-0.088
-138.443	7.115	0.144	0.107
-137.429	-72.802	-0.240	0.088
-136.414	280.874	0.182	-0.325
-135.399	2.782	-0.107	-0.078
-134.385	209.732	-0.189	0.296
-133.370	83.425	0.229	-0.250
-132.356	-200.000	0.014	0.213
-131.341	800.000	-0.107	0.317
-130.326	-200.000	-0.003	-0.332
-129.312	200.271	-0.077	-0.117
-128.297	-200.000	0.019	-0.233
-127.283	800.000	-0.123	-0.385
-126.268	-200.000	-0.018	-0.220
-125.253	360.713	-0.210	-0.421
-124.239	64.659	0.091	-0.091
-123.224	173.490	0.161	-0.232
-122.210	-141.655	0.113	0.011
-121.195	-97.576	0.322	-0.084
