DTS Sentinel unit serial number:	SN413079Multiplexer serial number:	ORYXHardware model number:	OX4-SRSoftware version number:	ORYX F/W v4.00 Oryx Data Collector v3.7.2.0data status	okinstallation	princeton_trtdifferential loss correction	single-endedforward channel	channel 3reverse channel	N/Adate	2019/09/17time	13:52:35forward acquisition time	60.00reverse acquisition time	0.00gamma	496.2192k internal	0.2302k external	0.2302temperature offset calibration	0.9960default loss term (dB/km)	0.3790temperature slope calibration	1.0000multiplexer offset coefficient	1.0000multiplexer slope coefficient	1.0000fibre end	0.00T internal ref (°C)	35.31T ext. ref 1 (°C)	0.42T ext. ref 2 (°C)	32.42length (m)	temperature (°C)	Stokes	anti-Stokes-747.200	-200.000	0.046	-0.221
-746.185	-74.326	-0.080	0.029
-745.171	42.919	0.134	0.125
-744.156	-56.681	-0.166	0.075
-743.142	800.000	0.117	0.374
-742.127	-200.000	-0.057	0.646
-741.112	-200.000	-0.016	0.101
-740.098	117.489	0.146	0.182
-739.083	69.552	-0.235	0.247
-738.069	270.725	0.153	0.275
-737.054	229.766	0.125	-0.209
-736.039	-58.145	0.203	-0.090
-735.025	-41.772	-0.227	0.119
-734.010	94.673	-0.084	-0.097
-732.996	674.637	-0.141	-0.374
-731.981	-24.776	-0.266	-0.161
-730.966	102.491	-0.101	0.120
-729.952	242.249	-0.107	0.182
-728.937	194.845	0.128	-0.197
-727.923	-75.124	-0.148	-0.054
-726.908	29.272	-0.133	0.115
-725.894	-113.315	-0.366	-0.073
-724.879	357.636	-0.027	0.055
-723.864	-108.511	0.122	0.027
-722.850	228.963	-0.227	-0.377
-721.835	-200.000	0.033	-0.233
-720.821	-72.624	-0.075	-0.028
-719.806	-77.010	-0.423	-0.150
-718.791	143.121	-0.059	0.080
-717.777	-200.000	0.042	-0.306
-716.762	-44.599	0.182	0.093
-715.748	800.000	-0.110	-0.324
-714.733	93.136	-0.141	-0.162
-713.718	296.747	0.156	-0.291
-712.704	-200.000	0.023	-0.150
-711.689	-47.578	-0.219	-0.108
-710.675	-44.806	-0.212	0.108
-709.660	-195.914	-0.192	-0.001
-708.645	316.832	0.088	0.169
-707.631	800.000	-0.039	-0.152
-706.616	270.242	0.031	0.055
-705.602	-70.990	-0.201	0.077
-704.587	750.222	-0.106	0.292
-703.572	50.136	-0.291	0.279
-702.558	99.046	0.094	0.110
-701.543	-200.000	0.005	0.092
-700.529	-25.667	0.218	0.131
-699.514	-200.000	-0.001	0.431
-698.499	800.000	-0.048	0.195
-697.485	-29.900	-0.376	0.218
-696.470	-45.236	0.121	-0.061
-695.456	425.032	-0.162	-0.354
-694.441	-137.191	0.266	-0.031
-693.426	800.000	-0.068	-0.239
-692.412	364.342	-0.135	-0.277
-691.397	-150.418	0.090	-0.007
-690.383	266.081	0.046	0.082
-689.368	79.160	-0.259	0.282
-688.354	-24.992	-0.185	-0.111
-687.339	800.000	-0.031	0.109
-686.324	379.885	-0.032	-0.066
-685.310	70.229	-0.070	-0.073
-684.295	36.641	-0.090	0.081
-683.281	152.462	-0.196	-0.273
-682.266	218.520	-0.135	-0.220
-681.251	800.000	-0.066	-0.188
-680.237	355.242	0.198	-0.400
-679.222	11.207	0.123	-0.096
-678.208	217.418	0.203	-0.329
-677.193	-200.000	-0.004	-0.312
-676.178	28.320	0.232	0.199
-675.164	12.476	0.188	0.147
-674.149	196.307	-0.117	0.182
-673.135	-200.000	-0.058	-0.378
-672.120	-179.428	-0.289	-0.006
-671.105	14.443	-0.351	-0.278
-670.091	28.452	-0.189	0.163
-669.076	-19.254	0.165	0.104
-668.062	800.000	0.088	0.293
-667.047	80.410	0.105	-0.115
-666.032	-200.000	0.016	-0.149
-665.018	-87.669	-0.217	0.066
-664.003	201.752	-0.065	-0.101
-662.989	-79.382	0.061	0.021
-661.974	93.033	0.097	0.112
-660.959	-200.000	0.024	0.125
-659.945	-200.000	0.077	-0.382
-658.930	282.585	0.015	-0.027
-657.916	800.000	0.059	-0.167
-656.901	203.216	0.186	0.292
-655.886	76.830	-0.113	0.121
-654.872	-80.817	-0.224	-0.075
-653.857	-73.622	-0.214	-0.079
-652.843	75.080	-0.147	-0.158
-651.828	-21.383	0.250	-0.155
-650.814	296.194	0.151	0.281
-649.799	615.331	-0.077	-0.195
-648.784	228.916	-0.132	0.219
-647.770	149.979	0.090	0.124
-646.755	-200.000	-0.001	0.194
-645.741	-110.353	-0.166	0.035
-644.726	-53.912	0.325	-0.151
-643.711	667.663	-0.099	0.260
-642.697	-11.859	0.339	0.226
-641.682	-200.000	-0.030	0.230
-640.668	238.803	-0.211	-0.356
-639.653	-78.908	0.186	-0.064
-638.638	59.994	-0.026	-0.026
-637.624	268.240	0.116	0.205
-636.609	6.041	0.151	-0.114
-635.595	210.804	0.173	-0.277
-634.580	-124.204	0.165	-0.026
-633.565	-200.000	-0.041	-0.296
-632.551	155.945	-0.174	-0.243
-631.536	800.000	0.092	-0.329
-630.522	465.771	-0.096	0.217
-629.507	-116.779	-0.372	-0.069
-628.492	800.000	0.039	0.148
-627.478	-66.734	-0.262	-0.105
-626.463	-127.541	0.284	-0.042
-625.449	-200.000	0.016	0.203
-624.434	337.671	0.026	-0.051
-623.419	42.858	-0.250	-0.231
-622.405	-98.724	-0.442	-0.114
-621.390	-24.466	0.114	-0.069
-620.376	-32.753	-0.043	0.024
-619.361	453.161	-0.095	-0.213
-618.346	-22.852	0.071	-0.044
-617.332	37.086	0.285	0.256
-616.317	99.216	-0.215	0.252
-615.303	572.874	-0.128	-0.315
-614.288	685.506	0.102	0.269
-613.273	-54.100	-0.046	-0.021
-612.259	-200.000	-0.001	-0.315
-611.244	-200.000	0.025	-0.231
-610.230	-200.000	0.029	-0.284
-609.215	-111.382	-0.332	0.069
-608.201	-200.000	0.003	0.079
-607.186	800.000	-0.009	-0.040
-606.171	-200.000	0.031	-0.180
-605.157	-27.057	0.239	0.141
-604.142	-66.860	-0.187	-0.075
-603.128	110.894	0.113	-0.138
-602.113	-128.718	-0.112	-0.016
-601.098	-200.000	0.057	0.266
-600.084	-39.745	0.220	0.117
-599.069	-200.000	0.005	-0.044
-598.055	800.000	0.058	-0.234
-597.040	-47.129	0.158	-0.078
-596.025	-200.000	-0.017	-0.232
-595.011	99.101	-0.073	0.086
-593.996	-127.807	-0.441	0.064
-592.982	252.227	0.098	-0.169
-591.967	-89.775	-0.365	0.108
-590.952	-80.991	-0.158	0.053
-589.938	190.502	-0.227	-0.346
-588.923	-200.000	-0.309	-0.001
-587.909	-200.000	0.037	0.413
-586.894	204.927	0.076	-0.119
-585.879	-83.587	-0.263	-0.085
-584.865	-65.732	-0.431	0.175
-583.850	6.089	0.019	0.014
-582.836	-200.000	0.028	0.199
-581.821	-116.177	0.455	0.086
-580.806	-51.084	0.394	-0.187
-579.792	-100.120	0.311	-0.078
-578.777	431.869	-0.108	-0.236
-577.763	-46.720	-0.279	-0.139
-576.748	-112.555	-0.183	-0.037
-575.733	638.507	0.054	0.139
-574.719	-74.284	-0.195	0.071
-573.704	-38.468	0.191	0.102
-572.690	800.000	0.151	-0.440
-571.675	-118.184	-0.160	0.029
-570.661	-68.546	-0.255	0.100
-569.646	167.092	0.259	0.371
-568.631	-37.763	-0.155	0.083
-567.617	-34.880	0.216	0.120
-566.602	-20.414	-0.089	0.055
-565.588	197.838	-0.107	0.166
-564.573	-7.780	-0.162	0.110
-563.558	-119.231	0.252	0.044
-562.544	19.555	0.104	-0.085
-561.529	-200.000	0.042	0.195
-560.515	-75.308	0.301	0.109
-559.500	-23.347	0.156	-0.095
-558.485	-184.566	-0.267	0.004
-557.471	452.870	-0.126	-0.282
-556.456	-65.879	-0.193	-0.078
-555.442	373.240	-0.007	-0.014
-554.427	-144.478	0.104	-0.010
-553.412	-50.616	-0.088	0.042
-552.398	800.000	-0.024	-0.099
-551.383	-126.272	-0.166	0.025
-550.369	105.598	-0.028	-0.034
-549.354	-200.000	0.041	-0.219
-548.339	-200.000	0.051	0.364
-547.325	-56.592	0.111	0.050
-546.310	2.371	0.209	-0.153
-545.296	352.524	-0.019	-0.037
-544.281	80.741	0.204	0.222
-543.266	36.908	0.253	-0.226
-542.252	122.551	0.225	-0.284
-541.237	-200.000	-0.000	-0.012
-540.223	71.433	0.246	0.258
-539.208	-200.000	-0.011	-0.136
-538.193	800.000	0.044	-0.129
-537.179	800.000	0.120	-0.361
-536.164	-128.845	0.087	-0.012
-535.150	11.790	-0.120	-0.093
-534.135	51.689	-0.145	-0.139
-533.121	106.240	0.232	0.278
-532.106	-101.728	0.054	-0.013
-531.091	289.500	0.137	-0.251
-530.077	-84.222	0.159	-0.051
-529.062	47.996	0.242	-0.228
-528.048	-38.030	0.117	-0.063
-527.033	132.603	0.189	0.247
-526.018	-159.910	0.138	0.008
-525.004	-161.781	-0.235	-0.012
-523.989	5.267	-0.347	-0.258
-522.975	303.604	0.038	0.071
-521.960	800.000	0.051	-0.203
-520.945	59.404	-0.137	0.136
-519.931	800.000	0.049	-0.187
-518.916	-107.218	-0.209	0.047
-517.902	543.509	0.053	0.128
-516.887	-78.051	0.089	-0.031
-515.872	-42.646	-0.204	0.105
-514.858	-200.000	0.006	-0.053
-513.843	-200.000	0.024	0.179
-512.829	-136.398	0.138	0.016
-511.814	800.000	-0.030	0.118
-510.799	110.082	-0.106	0.128
-509.785	-159.909	-0.404	-0.022
-508.770	279.561	-0.079	0.143
-507.756	-132.005	-0.251	-0.033
-506.741	800.000	-0.049	-0.172
-505.726	-200.000	-0.089	0.420
-504.712	-200.000	0.037	0.334
-503.697	-200.000	-0.030	-0.445
-502.683	-78.222	-0.275	-0.095
-501.668	800.000	0.029	-0.101
-500.653	800.000	-0.110	-0.387
-499.639	800.000	-0.045	0.157
-498.624	-10.435	0.089	-0.060
-497.610	22.947	-0.283	0.234
-496.595	296.077	-0.065	-0.121
-495.581	-103.271	-0.202	-0.048
-494.566	50.038	0.223	-0.212
-493.551	-200.000	0.032	-0.249
-492.537	-200.000	-0.007	-0.186
-491.522	800.000	-0.055	-0.216
-490.508	-200.000	-0.038	0.270
-489.493	-93.111	0.149	0.042
-488.478	303.678	0.152	-0.284
-487.464	14.902	0.218	-0.172
-486.449	-173.623	-0.169	-0.005
-485.435	-48.775	-0.099	-0.048
-484.420	-48.600	-0.237	-0.115
-483.405	46.711	-0.129	0.121
-482.391	800.000	-0.045	-0.151
-481.376	299.465	0.166	0.308
-480.362	543.737	0.124	0.299
-479.347	-200.000	-0.016	0.230
-478.332	-154.003	0.254	-0.017
-477.318	-80.030	0.293	0.099
-476.303	48.702	0.135	0.127
-475.289	800.000	-0.054	-0.199
-474.274	441.843	-0.102	0.224
-473.259	102.112	-0.182	0.215
-472.245	71.955	0.141	-0.147
-471.230	-200.000	0.028	0.253
-470.216	800.000	-0.082	0.240
-469.201	-200.000	0.005	-0.048
-468.186	-35.619	0.251	0.137
-467.172	-163.752	0.108	0.005
-466.157	-32.477	-0.171	-0.096
-465.143	153.178	-0.237	-0.327
-464.128	-200.000	0.001	-0.140
-463.113	-200.000	0.009	-0.235
-462.099	124.157	-0.205	0.259
-461.084	42.941	-0.226	-0.208
-460.070	-35.893	0.261	-0.143
-459.055	-0.863	0.079	-0.057
-458.040	800.000	0.045	0.130
-457.026	-200.000	0.029	-0.284
-456.011	-86.906	0.226	-0.069
-454.997	57.492	-0.112	0.111
-453.982	-84.950	0.235	-0.074
-452.968	-0.961	-0.147	0.105
-451.953	-87.479	0.468	-0.143
-450.938	63.941	-0.037	-0.038
-449.924	63.996	-0.260	0.263
-448.909	20.325	0.089	-0.073
-447.895	-29.477	0.095	-0.055
-446.880	-151.447	-0.312	0.023
-445.865	800.000	-0.051	0.157
-444.851	-88.405	0.558	0.168
-443.836	800.000	0.078	0.310
-442.822	-148.779	-0.261	-0.021
-441.807	17.713	0.238	0.191
-440.792	-200.000	0.005	-0.054
-439.778	187.851	0.160	0.241
-438.763	-200.000	0.008	-0.097
-437.749	-35.664	0.151	-0.083
-436.734	-200.000	-0.011	-0.053
-435.719	-22.453	-0.161	-0.098
-434.705	-136.145	0.071	-0.008
-433.690	-158.504	-0.221	0.013
-432.676	212.950	0.211	0.336
-431.661	-163.987	-0.059	0.003
-430.646	247.053	-0.073	0.123
-429.632	0.276	0.229	-0.164
-428.617	106.194	0.113	0.134
-427.603	83.848	-0.054	0.059
-426.588	-200.000	-0.028	0.216
-425.573	-200.000	-0.029	0.154
-424.559	388.648	-0.080	0.166
-423.544	-91.101	-0.357	-0.103
-422.530	338.796	-0.093	-0.181
-421.515	-77.592	-0.237	0.082
-420.500	-195.343	0.269	-0.002
-419.486	-200.000	-0.001	-0.205
-418.471	800.000	0.027	-0.095
-417.457	-120.726	-0.148	0.025
-416.442	36.911	-0.189	-0.168
-415.428	-84.786	-0.273	-0.086
-414.413	53.347	-0.053	0.052
-413.398	-200.000	-0.003	0.048
-412.384	-65.606	0.124	-0.050
-411.369	-200.000	-0.032	0.222
-410.355	58.453	0.273	0.269
-409.340	3.337	-0.231	0.169
-408.325	365.126	-0.200	-0.404
-407.311	21.082	-0.282	0.230
-406.296	-125.671	0.337	0.051
-405.282	800.000	-0.075	0.279
-404.267	664.763	-0.068	-0.178
-403.252	-61.692	-0.282	-0.119
-402.238	589.815	-0.041	-0.102
-401.223	3.744	-0.190	0.140
-400.209	-110.001	-0.311	0.065
-399.194	-110.578	0.044	0.009
-398.179	-58.534	0.283	-0.123
-397.165	-200.000	-0.060	0.299
-396.150	151.702	0.204	-0.279
-395.136	-63.543	-0.342	0.141
-394.121	-13.175	-0.145	-0.095
-393.106	104.001	-0.206	-0.244
-392.092	-129.713	0.143	0.020
-391.077	-200.000	-0.037	0.364
-390.063	-22.554	0.120	-0.073
-389.048	458.659	0.110	-0.246
-388.033	487.368	-0.104	0.239
-387.019	33.910	0.055	-0.048
-386.004	-200.000	0.010	-0.167
-384.990	-200.000	0.007	0.422
-383.975	-200.000	0.013	0.079
-382.960	-166.878	-0.145	-0.006
-381.946	219.768	0.127	-0.204
-380.931	-66.877	-0.203	-0.080
-379.917	-200.000	0.010	-0.228
-378.902	800.000	0.096	0.369
-377.888	721.979	-0.065	0.173
-376.873	783.995	0.039	0.108
-375.858	154.033	-0.296	0.408
-374.844	-89.281	0.341	0.101
-373.829	-160.672	0.110	0.006
-372.815	386.594	-0.061	-0.127
-371.800	659.753	0.110	0.283
-370.785	-200.000	0.018	0.325
-369.771	-104.831	-0.253	-0.058
-368.756	-94.289	0.164	0.045
-367.742	143.101	0.111	-0.148
-366.727	-79.635	-0.207	-0.070
-365.712	-3.916	-0.167	0.116
-364.698	210.178	-0.235	-0.371
-363.683	-135.302	0.319	-0.038
-362.669	146.063	-0.069	-0.093
-361.654	800.000	-0.056	-0.169
-360.639	207.736	0.069	0.109
-359.625	127.341	-0.118	-0.151
-358.610	-200.000	-0.051	0.236
-357.596	-22.770	-0.121	-0.073
-356.581	131.047	0.336	0.433
-355.566	133.427	-0.076	-0.098
-354.552	-200.000	-0.027	-0.230
-353.537	-68.851	-0.174	-0.067
-352.523	-151.636	0.468	0.035
-351.508	-29.464	0.076	0.043
-350.493	-146.745	-0.466	0.040
-349.479	-95.201	-0.129	-0.035
-348.464	-107.865	-0.110	-0.024
-347.450	428.496	0.127	0.275
-346.435	41.575	-0.197	0.179
-345.420	-73.495	-0.160	-0.059
-344.406	-10.098	0.285	0.190
-343.391	-82.474	-0.192	-0.062
-342.377	-27.555	0.244	-0.142
-341.362	800.000	0.039	-0.157
-340.348	162.877	-0.217	0.306
-339.333	-119.114	0.157	0.028
-338.318	-200.000	-0.057	-0.267
-337.304	-200.000	-0.010	0.045
-336.289	-200.000	0.061	-0.315
-335.275	-48.358	-0.085	-0.041
-334.260	-200.000	-0.013	-0.060
-333.245	781.270	0.048	0.131
-332.231	56.803	-0.084	0.082
-331.216	47.585	-0.233	0.218
-330.202	-59.795	0.164	0.071
-329.187	-174.886	-0.040	-0.001
-328.172	604.228	0.104	-0.260
-327.158	-92.299	0.296	0.084
-326.143	344.963	0.063	0.124
-325.129	800.000	0.056	0.198
-324.114	-40.741	-0.059	0.031
-323.099	-168.513	-0.130	-0.005
-322.085	-200.000	-0.007	0.205
-321.070	-45.173	-0.175	0.087
-320.056	-160.410	-0.123	0.007
-319.041	-63.230	-0.229	0.095
-318.026	-100.528	0.146	-0.036
-317.012	-200.000	0.004	0.448
-315.997	63.615	0.155	-0.156
-314.983	143.535	0.284	0.379
-313.968	22.016	-0.184	-0.150
-312.953	-88.673	-0.148	-0.044
-311.939	-104.959	-0.165	0.038
-310.924	152.223	0.051	0.070
-309.910	-200.000	-0.028	0.224
-308.895	72.953	0.159	0.166
-307.880	773.018	0.101	-0.276
-306.866	41.400	-0.264	-0.239
-305.851	-92.692	-0.115	0.032
-304.837	43.469	-0.320	-0.293
-303.822	-68.500	0.192	0.075
-302.807	11.860	0.242	0.186
-301.793	-200.000	-0.011	-0.171
-300.778	303.331	-0.080	0.149
-299.764	100.748	0.094	0.109
-298.749	358.687	0.040	0.080
-297.735	172.810	-0.139	0.200
-296.720	49.077	0.205	0.193
-295.705	164.565	0.075	-0.105
-294.691	-200.000	0.009	-0.197
-293.676	28.591	0.070	-0.059
-292.662	9.919	-0.205	-0.155
-291.647	-65.485	0.055	0.022
-290.632	177.762	-0.179	0.262
-289.618	-200.000	0.047	0.306
-288.603	-33.171	0.288	-0.160
-287.589	-135.113	0.278	0.033
-286.574	-28.444	0.337	0.195
-285.559	321.066	-0.066	-0.126
-284.545	-17.120	-0.209	0.132
-283.530	-200.000	-0.011	0.139
-282.516	-166.679	-0.195	0.008
-281.501	-129.378	-0.375	-0.052
-280.486	-18.989	0.129	0.081
-279.472	-197.458	0.229	0.001
-278.457	-105.084	0.126	-0.029
-277.443	800.000	0.028	0.116
-276.428	46.962	-0.091	-0.085
-275.413	-68.982	0.188	0.072
-274.399	800.000	0.056	-0.180
-273.384	-35.873	0.092	-0.050
-272.370	-200.000	0.036	-0.168
-271.355	-200.000	-0.005	-0.322
-270.340	661.001	0.160	0.413
-269.326	49.559	-0.149	-0.140
-268.311	800.000	0.048	-0.153
-267.297	91.452	-0.154	-0.173
-266.282	137.535	0.099	-0.130
-265.267	313.214	0.131	-0.246
-264.253	-185.476	0.307	-0.005
-263.238	-66.592	-0.214	0.085
-262.224	188.742	-0.127	0.190
-261.209	81.952	-0.140	0.152
-260.195	-25.306	0.077	0.046
-259.180	153.085	-0.168	-0.230
-258.165	-21.572	0.218	0.133
-257.151	69.414	-0.137	0.140
-256.136	-129.952	0.354	0.048
-255.122	404.573	-0.013	-0.028
-254.107	717.778	-0.060	0.158
-253.092	-187.449	-0.339	0.005
-252.078	-200.000	-0.030	0.141
-251.063	298.658	-0.102	0.188
-250.049	-148.227	0.148	0.012
-249.034	-186.230	0.270	-0.004
-248.019	193.719	-0.080	0.121
-247.005	-126.507	0.099	0.015
-245.990	-200.000	-0.027	-0.126
-244.976	643.496	0.118	0.302
-243.961	-123.467	0.218	0.035
-242.946	176.136	0.258	0.375
-241.932	102.145	-0.082	-0.096
-240.917	-76.532	-0.091	-0.032
-239.903	40.561	-0.067	-0.060
-238.888	-122.657	0.079	0.013
-237.873	-50.315	-0.358	0.169
-236.859	172.026	0.055	-0.079
-235.844	-80.572	0.363	0.121
-234.830	-40.068	-0.087	0.046
-233.815	6.839	0.162	0.120
-232.800	542.708	-0.108	-0.258
-231.786	19.790	-0.163	0.131
-230.771	-61.400	-0.101	0.042
-229.757	-150.436	-0.368	0.028
-228.742	52.776	0.179	-0.171
-227.727	-163.511	0.340	0.016
-226.713	530.936	-0.109	-0.257
-225.698	800.000	-0.063	-0.251
-224.684	654.710	0.130	-0.334
-223.669	-9.718	-0.171	0.113
-222.655	43.391	-0.140	-0.127
-221.640	800.000	0.072	-0.227
-220.625	-4.735	0.101	-0.070
-219.611	7.622	-0.054	0.040
-218.596	235.094	0.209	0.345
-217.582	-16.514	0.206	0.130
-216.567	173.116	0.103	-0.149
-215.552	800.000	-0.060	0.189
-214.538	191.699	0.019	0.029
-213.523	800.000	0.073	-0.281
-212.509	11.515	-0.127	0.097
-211.494	-200.000	0.017	0.211
-210.479	-200.000	0.066	-0.487
-209.465	98.779	-0.136	-0.157
-208.450	-97.225	-0.364	-0.095
-207.436	-200.000	0.005	-0.109
-206.421	-200.000	0.004	0.047
-205.406	800.000	-0.033	0.128
-204.392	-68.687	-0.340	-0.131
-203.377	800.000	-0.091	0.275
-202.363	95.791	0.107	-0.122
-201.348	-200.000	-0.088	-0.494
-200.333	-151.856	0.218	-0.016
-199.319	32.415	0.154	-0.133
-198.304	-130.102	-0.122	0.017
-197.290	-137.728	-0.353	-0.040
-196.275	10.366	-0.132	-0.100
-195.260	71.065	0.202	0.208
-194.246	-72.416	0.355	0.131
-193.231	742.536	-0.059	-0.158
-192.217	-117.522	-0.196	0.035
-191.202	-1.054	-0.513	0.362
-190.187	-152.701	-0.308	-0.022
-189.173	332.792	0.334	0.643
-188.158	-135.277	0.010	-0.001
-187.144	324.666	0.159	-0.302
-186.129	-172.259	0.040	0.001
-185.114	-129.006	0.410	-0.057
-184.100	-99.733	0.107	0.027
-183.085	-94.821	0.127	0.034
-182.071	-64.439	-0.154	-0.062
-181.056	4.659	-0.092	-0.068
-180.042	800.000	0.105	-0.316
-179.027	-47.113	0.271	-0.132
-178.012	-200.000	-0.019	-0.442
-176.998	-170.233	0.276	0.010
-175.983	-200.000	0.027	-0.283
-174.969	341.490	0.050	-0.098
-173.954	-124.516	0.418	-0.065
-172.939	-85.376	0.165	0.051
-171.925	-146.640	0.322	0.028
-170.910	-52.442	0.143	-0.066
-169.896	-200.000	0.037	0.200
-168.881	-55.023	0.096	-0.043
-167.866	239.579	0.068	-0.113
-166.852	300.898	0.121	0.222
-165.837	71.121	-0.147	-0.152
-164.823	-200.000	-0.040	-0.290
-163.808	73.367	0.295	-0.308
-162.793	800.000	-0.033	-0.097
-161.779	-200.000	-0.114	0.502
-160.764	-200.000	-0.034	-0.330
-159.750	9.501	0.147	0.111
-158.735	104.192	-0.242	0.283
-157.720	-150.636	0.148	0.011
-156.706	-200.000	0.058	-0.324
-155.691	-200.000	0.016	-0.161
-154.677	-129.980	-0.390	-0.053
-153.662	-59.970	-0.219	-0.093
-152.647	1.251	0.424	0.303
-151.633	-200.000	-0.009	0.157
-150.618	-54.283	0.285	-0.129
-149.604	323.230	-0.108	0.205
-148.589	99.714	-0.104	0.120
-147.574	231.817	0.140	-0.229
-146.560	67.858	-0.068	-0.069
-145.545	38.539	-0.076	-0.067
-144.531	-43.536	-0.416	0.209
-143.516	426.920	0.112	0.240
-142.502	-161.078	0.215	0.011
-141.487	800.000	0.075	-0.221
-140.472	-55.656	-0.306	0.136
-139.458	388.835	-0.048	-0.099
-138.443	-200.000	0.026	-0.269
-137.429	-123.506	-0.093	-0.015
-136.414	-45.101	0.155	0.077
-135.399	-80.905	-0.103	0.034
-134.385	-8.559	0.217	0.145
-133.370	79.157	0.131	-0.140
-132.356	-0.793	-0.109	-0.077
-131.341	-200.000	0.002	-0.022
-130.326	-137.208	-0.166	-0.019
-129.312	27.562	-0.107	-0.090
-128.297	-200.000	0.003	0.036
-127.283	-44.532	0.094	-0.047
-126.268	-18.060	-0.141	0.088
-125.253	19.863	-0.230	-0.184
-124.239	-200.000	-0.013	-0.156
-123.224	52.322	-0.128	0.121
-122.210	547.469	0.118	0.281
