DTS Sentinel unit serial number:	SN413079Multiplexer serial number:	ORYXHardware model number:	OX4-SRSoftware version number:	ORYX F/W v4.00 Oryx Data Collector v3.7.2.0data status	okinstallation	princeton_trtdifferential loss correction	single-endedforward channel	channel 3reverse channel	N/Adate	2019/09/11time	02:02:10forward acquisition time	60.00reverse acquisition time	0.00gamma	496.2192k internal	0.2332k external	0.2332temperature offset calibration	0.9914default loss term (dB/km)	0.3790temperature slope calibration	1.0000multiplexer offset coefficient	1.0000multiplexer slope coefficient	1.0000fibre end	0.00T internal ref (°C)	29.19T ext. ref 1 (°C)	-0.30T ext. ref 2 (°C)	23.23length (m)	temperature (°C)	Stokes	anti-Stokes-747.200	-32.055	-0.203	0.114
-746.185	163.560	0.076	-0.108
-745.171	-105.703	-0.145	-0.033
-744.156	800.000	-0.042	0.132
-743.142	-175.014	-0.405	0.011
-742.127	-51.959	-0.309	0.144
-741.112	-108.381	0.300	0.065
-740.098	-200.000	0.009	-0.115
-739.083	-170.885	-0.286	-0.010
-738.069	-200.000	0.011	0.148
-737.054	110.766	-0.131	0.159
-736.039	106.332	-0.059	-0.070
-735.025	-200.000	-0.024	-0.110
-734.010	-38.423	-0.329	-0.175
-732.996	239.681	-0.072	0.120
-731.981	-52.375	-0.061	0.029
-730.966	-102.695	0.143	-0.034
-729.952	-78.431	-0.306	0.105
-728.937	-200.000	-0.010	0.405
-727.923	533.487	0.054	0.130
-726.908	-200.000	-0.132	0.000
-725.894	1.726	0.207	-0.150
-724.879	-137.040	-0.062	-0.007
-723.864	144.772	0.035	0.047
-722.850	379.965	-0.181	0.374
-721.835	29.911	-0.202	-0.173
-720.821	-106.916	0.304	0.068
-719.806	13.101	0.156	-0.121
-718.791	631.042	0.047	0.120
-717.777	77.140	-0.208	0.222
-716.762	-108.960	0.189	0.041
-715.748	-200.000	-0.017	-0.104
-714.733	102.435	0.201	-0.236
-713.718	-80.898	0.249	-0.083
-712.704	616.172	0.033	0.084
-711.689	-47.334	0.145	-0.071
-710.675	-41.417	0.155	0.080
-709.660	49.846	-0.330	0.313
-708.645	-156.701	-0.013	-0.001
-707.631	-153.429	-0.153	-0.011
-706.616	340.753	0.156	0.305
-705.602	46.570	-0.185	-0.173
-704.587	-110.089	-0.268	0.056
-703.572	136.558	0.171	-0.224
-702.558	19.880	0.200	-0.162
-701.543	-108.947	0.210	-0.045
-700.529	-42.089	0.299	-0.153
-699.514	57.197	-0.173	-0.169
-698.499	-130.603	0.180	-0.024
-697.485	-200.000	-0.013	-0.077
-696.470	-36.465	-0.270	0.146
-695.456	-107.582	0.163	0.036
-694.441	255.413	-0.163	0.281
-693.426	463.544	-0.066	0.148
-692.412	-1.144	0.149	0.106
-691.397	-200.000	-0.040	-0.293
-690.383	-18.383	0.172	-0.108
-689.368	-141.586	-0.160	0.016
-688.354	800.000	-0.060	-0.187
-687.339	-50.989	-0.174	0.082
-686.324	35.929	0.057	-0.050
-685.310	-125.326	-0.276	0.042
-684.295	-91.978	-0.215	0.061
-683.281	227.755	0.187	-0.305
-682.266	-11.430	-0.147	-0.097
-681.251	800.000	-0.021	0.083
-680.237	-41.217	0.152	0.079
-679.222	-46.088	0.572	0.283
-678.208	183.152	0.203	-0.301
-677.193	100.833	0.110	-0.128
-676.178	-125.012	0.363	-0.056
-675.164	98.609	-0.155	-0.180
-674.149	-37.540	-0.285	-0.153
-673.135	107.335	-0.096	0.114
-672.120	-74.879	-0.054	0.019
-671.105	800.000	0.046	-0.144
-670.091	135.304	0.128	0.168
-669.076	-47.669	0.024	-0.012
-668.062	800.000	-0.088	-0.316
-667.047	-92.208	-0.091	0.026
-666.032	116.140	0.104	-0.128
-665.018	800.000	-0.034	0.108
-664.003	653.169	0.120	0.308
-662.989	-33.998	0.095	-0.053
-661.974	157.950	-0.037	0.051
-660.959	-158.005	-0.269	0.016
-659.945	-200.000	0.033	-0.186
-658.930	625.845	0.104	-0.264
-657.916	-101.030	-0.300	-0.074
-656.901	19.228	0.126	-0.101
-655.886	-73.226	-0.578	-0.212
-654.872	25.880	0.187	-0.156
-653.857	3.221	-0.243	-0.177
-652.843	10.685	-0.075	-0.057
-651.828	-137.900	-0.157	-0.018
-650.814	41.647	-0.280	0.254
-649.799	80.529	-0.204	0.220
-648.784	129.877	-0.158	0.203
-647.770	20.742	-0.100	-0.081
-646.755	800.000	0.050	0.217
-645.741	157.317	0.034	0.047
-644.726	800.000	0.092	-0.322
-643.711	800.000	-0.052	-0.222
-642.697	-26.862	-0.111	-0.065
-641.682	800.000	-0.046	-0.181
-640.668	-111.622	-0.233	-0.047
-639.653	-7.604	-0.182	0.123
-638.638	-36.133	-0.115	0.062
-637.624	-2.966	0.143	-0.100
-636.609	-147.492	0.517	0.044
-635.595	800.000	0.009	-0.026
-634.580	-200.000	0.004	0.069
-633.565	336.403	-0.105	0.204
-632.551	-200.000	-0.019	0.168
-631.536	127.633	0.226	-0.287
-630.522	-179.879	0.387	0.008
-629.507	-85.846	-0.137	0.043
-628.492	-157.258	-0.095	-0.006
-627.478	60.068	-0.150	0.148
-626.463	800.000	-0.047	-0.175
-625.449	523.146	0.045	-0.106
-624.434	-200.000	0.006	-0.196
-623.419	49.947	-0.276	0.261
-622.405	800.000	0.085	-0.284
-621.390	-200.000	0.009	-0.194
-620.376	-156.434	0.387	0.024
-619.361	-73.897	-0.178	0.065
-618.346	-200.000	0.028	-0.234
-617.332	800.000	0.095	0.313
-616.317	-97.800	-0.415	0.108
-615.303	67.707	-0.048	-0.049
-614.288	681.845	0.047	-0.123
-613.273	172.866	0.100	-0.143
-612.259	-132.598	-0.238	0.031
-611.244	-134.290	0.084	-0.010
-610.230	298.074	0.057	-0.105
-609.215	-125.242	0.269	-0.041
-608.201	-78.249	0.183	0.063
-607.186	-75.608	0.151	-0.054
-606.171	-138.104	-0.221	0.025
-605.157	-61.645	-0.379	-0.159
-604.142	-31.148	0.216	-0.122
-603.128	40.087	-0.104	-0.093
-602.113	56.787	0.118	-0.114
-601.098	34.610	0.163	0.143
-600.084	468.475	-0.155	-0.349
-599.069	-157.664	0.282	0.017
-598.055	800.000	-0.128	-0.390
-597.040	-126.241	0.037	-0.006
-596.025	-73.847	-0.460	0.167
-595.011	-67.469	0.389	0.153
-593.996	-31.239	-0.130	-0.073
-592.982	99.351	0.143	-0.166
-591.967	-43.251	-0.246	0.125
-590.952	-195.451	0.153	0.001
-589.938	-200.000	-0.086	-0.386
-588.923	38.598	-0.199	0.178
-587.909	-200.000	0.015	0.137
-586.894	-22.616	0.329	0.199
-585.879	-200.000	-0.031	0.615
-584.865	-66.582	-0.256	0.101
-583.850	35.220	0.472	-0.413
-582.836	-200.000	0.030	-0.364
-581.821	-34.675	-0.315	-0.172
-580.806	-82.920	0.198	0.064
-579.792	-115.024	-0.472	-0.090
-578.777	-3.254	-0.154	-0.107
-577.763	-133.707	0.151	-0.019
-576.748	-59.344	-0.134	-0.057
-575.733	-174.187	-0.168	0.005
-574.719	-200.000	-0.040	0.218
-573.704	200.779	0.058	0.089
-572.690	-200.000	-0.023	-0.338
-571.675	-200.000	-0.276	-0.001
-570.661	115.897	-0.026	0.032
-569.646	-200.000	-0.023	-0.271
-568.631	-200.000	-0.001	-0.073
-567.617	-108.529	0.246	0.053
-566.602	-200.000	-0.024	-0.110
-565.588	-200.000	0.026	0.117
-564.573	-95.995	-0.255	0.068
-563.558	-43.531	-0.059	0.030
-562.544	-168.011	0.424	0.017
-561.529	-200.000	0.016	0.228
-560.515	-85.451	-0.176	-0.055
-559.500	299.535	0.093	0.172
-558.485	-200.000	0.021	0.179
-557.471	800.000	-0.080	-0.256
-556.456	-126.866	-0.234	-0.034
-555.442	800.000	0.079	-0.226
-554.427	27.669	-0.097	0.082
-553.412	387.899	0.109	0.225
-552.398	800.000	0.087	0.315
-551.383	3.930	-0.290	0.211
-550.369	-69.737	0.432	0.165
-549.354	-16.098	0.181	0.115
-548.339	-200.000	-0.065	0.355
-547.325	230.350	0.095	0.155
-546.310	59.139	0.031	-0.030
-545.296	119.009	0.082	0.101
-544.281	6.873	0.281	-0.209
-543.266	-76.135	-0.087	0.031
-542.252	-200.000	0.006	-0.191
-541.237	-48.133	0.200	-0.096
-540.223	5.012	0.139	0.102
-539.208	-57.492	0.024	-0.011
-538.193	150.160	0.149	0.202
-537.179	497.867	0.074	0.171
-536.164	-60.234	-0.019	-0.008
-535.150	628.835	-0.087	0.221
-534.135	-200.000	-0.273	0.000
-533.121	-30.757	-0.047	0.026
-532.106	-13.226	-0.293	0.190
-531.091	-170.776	0.212	-0.007
-530.077	217.706	0.217	0.345
-529.062	800.000	0.081	-0.224
-528.048	582.528	0.136	0.332
-527.033	5.414	0.193	0.142
-526.018	800.000	-0.011	-0.041
-525.004	-57.552	-0.148	0.065
-523.989	-200.000	0.023	0.317
-522.975	-33.448	0.053	0.029
-521.960	-47.757	-0.422	-0.204
-520.945	800.000	0.037	0.112
-519.931	-71.230	-0.297	0.111
-518.916	-196.002	-0.296	-0.002
-517.902	60.227	-0.133	0.131
-516.887	220.669	-0.314	-0.502
-515.872	91.318	0.110	0.123
-514.858	800.000	-0.096	0.276
-513.843	-31.325	-0.423	-0.238
-512.829	-140.474	0.220	-0.023
-511.814	207.926	-0.044	-0.069
-510.799	404.840	0.104	-0.219
-509.785	-113.150	0.119	0.023
-508.770	-119.956	0.177	0.030
-507.756	-120.988	0.629	0.105
-506.741	-22.952	-0.161	-0.097
-505.726	-200.000	0.001	0.164
-504.712	-151.262	0.193	-0.014
-503.697	112.187	-0.133	0.160
-502.683	306.085	0.112	0.207
-501.668	43.670	-0.128	0.117
-500.653	800.000	-0.010	-0.036
-499.639	-200.000	0.047	-0.567
-498.624	661.863	0.153	-0.392
-497.610	-200.000	-0.048	-0.305
-496.595	306.749	-0.141	-0.261
-495.581	800.000	0.117	-0.365
-494.566	2.948	0.197	-0.142
-493.551	-10.098	-0.201	-0.133
-492.537	-78.242	-0.319	0.109
-491.522	-121.132	-0.225	0.038
-490.508	185.420	-0.147	-0.218
-489.493	-81.566	0.351	0.115
-488.478	800.000	-0.039	-0.139
-487.464	800.000	0.055	-0.154
-486.449	135.268	0.231	-0.299
-485.435	800.000	-0.029	0.118
-484.420	-171.094	-0.303	-0.010
-483.405	-83.342	0.253	-0.081
-482.391	-189.316	0.253	0.003
-481.376	-9.968	-0.214	-0.142
-480.362	-200.000	0.038	0.229
-479.347	-69.836	0.088	0.033
-478.332	28.332	0.325	0.273
-477.318	190.285	-0.062	-0.093
-476.303	-112.827	0.379	-0.075
-475.289	-0.087	-0.237	0.168
-474.274	-200.000	0.006	-0.108
-473.259	-101.691	-0.296	0.071
-472.245	-66.358	0.239	-0.095
-471.230	633.784	0.041	0.103
-470.216	247.135	0.057	0.096
-469.201	-200.000	0.015	-0.131
-468.186	293.620	-0.062	-0.112
-467.172	5.456	-0.157	0.115
-466.157	-33.902	-0.080	-0.044
-465.143	-162.537	0.336	-0.017
-464.128	-192.096	-0.232	0.002
-463.113	-30.488	-0.176	0.099
-462.099	-71.388	0.105	-0.039
-461.084	800.000	0.051	-0.146
-460.070	-18.486	-0.230	0.143
-459.055	-79.253	0.349	0.118
-458.040	800.000	-0.073	-0.247
-457.026	-85.591	-0.024	-0.007
-456.011	-47.584	0.176	-0.085
-454.997	65.189	-0.071	0.072
-453.982	-200.000	-0.020	0.136
-452.968	800.000	0.073	-0.216
-451.953	-37.408	0.212	-0.112
-450.938	371.228	0.078	-0.158
-449.924	68.835	-0.101	0.103
-448.909	800.000	-0.106	-0.432
-447.895	249.432	-0.137	-0.231
-446.880	800.000	0.055	-0.225
-445.865	77.833	-0.135	-0.143
-444.851	-133.574	-0.139	-0.017
-443.836	-200.000	-0.015	0.116
-442.822	-111.883	-0.220	0.044
-441.807	209.125	0.179	0.279
-440.792	-72.576	0.266	-0.098
-439.778	-111.269	-0.191	0.039
-438.763	-98.892	0.211	-0.053
-437.749	800.000	-0.060	0.184
-436.734	-89.759	0.216	0.063
-435.719	-200.000	0.016	-0.650
-434.705	-170.508	-0.272	-0.009
-433.690	520.583	0.039	0.090
-432.676	751.342	-0.087	-0.234
-431.661	-200.000	0.030	0.295
-430.646	-154.805	0.229	-0.015
-429.632	508.644	0.094	-0.217
-428.617	800.000	0.025	-0.080
-427.603	71.450	-0.087	0.089
-426.588	85.388	0.037	0.040
-425.573	580.424	-0.103	-0.252
-424.559	788.440	-0.048	-0.131
-423.544	-105.828	-0.048	-0.011
-422.530	167.881	-0.081	0.114
-421.515	-120.291	-0.363	0.062
-420.500	71.317	-0.100	0.103
-419.486	-200.000	-0.025	0.241
-418.471	217.585	0.154	-0.243
-417.457	156.212	-0.071	0.097
-416.442	77.373	-0.080	-0.084
-415.428	-9.112	0.085	-0.057
-414.413	95.170	0.065	-0.073
-413.398	15.395	0.139	0.109
-412.384	281.594	-0.069	-0.123
-411.369	-121.131	-0.272	0.045
-410.355	800.000	-0.020	-0.070
-409.340	-180.142	0.135	-0.003
-408.325	-67.039	-0.293	0.115
-407.311	-15.080	-0.250	-0.159
-406.296	-166.579	0.142	0.006
-405.282	-200.000	0.006	-0.191
-404.267	239.018	0.038	-0.062
-403.252	-157.350	-0.225	-0.013
-402.238	-193.464	0.162	-0.001
-401.223	191.918	-0.056	0.083
-400.209	-39.656	-0.145	-0.075
-399.194	160.090	-0.114	-0.158
-398.179	147.237	-0.101	0.135
-397.165	354.406	0.133	0.262
-396.150	240.288	0.096	-0.159
-395.136	37.014	-0.195	0.171
-394.121	-89.733	-0.320	0.093
-393.106	109.579	-0.123	0.147
-392.092	800.000	0.020	0.071
-391.077	-200.000	0.008	0.147
-390.063	-36.410	0.161	-0.086
-389.048	144.430	-0.231	-0.306
-388.033	196.825	0.222	0.336
-387.019	-164.219	-0.256	0.012
-386.004	88.972	0.150	-0.166
-384.990	-86.908	0.257	-0.078
-383.975	12.463	0.106	-0.081
-382.960	-59.249	-0.038	-0.016
-381.946	-200.000	0.009	-0.206
-380.931	60.517	0.079	-0.077
-379.917	23.893	-0.224	-0.183
-378.902	335.463	0.036	-0.070
-377.888	93.309	-0.133	-0.149
-376.873	229.477	0.089	0.145
-375.858	237.028	0.083	-0.136
-374.844	-44.495	0.230	-0.114
-373.829	334.050	-0.136	-0.261
-372.815	-147.928	0.230	0.019
-371.800	-61.395	0.319	-0.133
-370.785	4.703	0.165	0.120
-369.771	800.000	0.127	0.408
-368.756	25.911	0.230	0.190
-367.742	-197.396	-0.492	0.003
-366.727	-80.152	0.292	0.097
-365.712	-17.855	0.047	-0.029
-364.698	13.088	-0.081	-0.062
-363.683	-19.335	-0.215	-0.132
-362.669	-11.665	0.149	0.097
-361.654	-200.000	-0.002	-0.194
-360.639	-52.418	0.071	-0.032
-359.625	105.443	0.215	-0.251
-358.610	-4.226	-0.130	-0.089
-357.596	120.025	-0.112	-0.137
-356.581	28.267	-0.250	-0.209
-355.566	5.280	0.165	-0.120
-354.552	20.859	0.180	-0.145
-353.537	14.981	-0.031	-0.024
-352.523	-34.582	-0.031	-0.017
-351.508	-76.103	-0.037	-0.013
-350.493	-108.553	-0.040	0.008
-349.479	32.108	-0.093	-0.080
-348.464	-200.000	-0.021	0.159
-347.450	-122.294	0.347	0.056
-346.435	-13.805	0.427	0.274
-345.420	-23.954	-0.043	0.025
-344.406	-200.000	-0.020	-0.109
-343.391	114.032	0.050	0.060
-342.377	-182.414	-0.397	-0.007
-341.362	-2.218	-0.206	-0.143
-340.348	200.829	0.173	0.263
-339.333	659.565	0.158	-0.402
-338.318	-137.876	0.009	-0.001
-337.304	-43.113	-0.119	-0.060
-336.289	124.594	0.122	0.151
-335.275	-200.000	-0.031	0.155
-334.260	-200.000	-0.028	0.198
-333.245	15.799	-0.248	0.193
-332.231	-200.000	0.016	0.187
-331.216	-118.989	0.179	0.031
-330.202	-61.792	-0.388	0.161
-329.187	-84.908	0.081	0.025
-328.172	-26.528	0.293	0.170
-327.158	-23.287	-0.234	-0.139
-326.143	800.000	-0.043	0.123
-325.129	-24.884	0.199	0.117
-324.114	-28.438	0.288	0.164
-323.099	26.952	-0.029	0.024
-322.085	-32.896	-0.120	0.066
-321.070	-102.488	-0.107	-0.025
-320.056	-89.332	-0.262	0.076
-319.041	413.853	-0.140	0.295
-318.026	390.628	-0.087	0.178
-317.012	800.000	-0.067	-0.185
-315.997	-56.010	-0.493	-0.217
-314.983	-110.158	-0.420	0.087
-313.968	46.955	0.221	-0.203
-312.953	87.847	0.193	0.212
-311.939	-2.507	0.072	-0.050
-310.924	-136.346	0.306	-0.035
-309.910	-67.145	0.371	-0.145
-308.895	306.821	0.057	-0.105
-307.880	-200.000	-0.011	-0.067
-306.866	-69.838	0.107	-0.040
-305.851	-200.000	-0.011	0.197
-304.837	-51.328	-0.083	0.038
-303.822	120.197	0.161	0.198
-302.807	-44.813	0.246	0.121
-301.793	-62.310	-0.109	-0.045
-300.778	70.349	-0.127	0.130
-299.764	550.871	-0.013	0.030
-298.749	-23.780	0.286	0.170
-297.735	-67.811	-0.299	-0.116
-296.720	211.332	-0.055	-0.085
-295.705	-59.439	-0.111	-0.047
-294.691	-159.559	-0.075	0.004
-293.676	-102.479	-0.142	-0.034
-292.662	240.231	-0.043	0.072
-291.647	757.820	-0.018	0.047
-290.632	800.000	-0.028	0.117
-289.618	800.000	0.049	0.151
-288.603	-112.173	0.080	0.016
-287.589	-117.021	0.127	-0.023
-286.574	-128.551	0.187	-0.026
-285.559	-71.609	-0.208	0.077
-284.545	-101.326	0.245	0.059
-283.530	241.496	-0.142	-0.234
-282.516	-16.284	-0.245	-0.154
-281.501	430.835	0.056	-0.119
-280.486	332.765	-0.061	-0.116
-279.472	-94.410	-0.247	0.067
-278.457	-169.185	0.204	-0.007
-277.443	74.440	-0.060	0.062
-276.428	-200.000	0.026	-0.250
-275.413	-200.000	-0.010	0.134
-274.399	204.529	0.060	-0.092
-273.384	-142.557	0.069	0.007
-272.370	-80.646	-0.167	-0.055
-271.355	-200.000	-0.009	-0.343
-270.340	-200.000	0.022	-0.115
-269.326	-200.000	-0.036	-0.182
-268.311	-76.785	0.113	-0.039
-267.297	26.986	-0.247	-0.205
-266.282	800.000	-0.061	0.220
-265.267	800.000	-0.056	-0.202
-264.253	-68.790	-0.317	0.121
-263.238	-163.656	0.309	0.014
-262.224	-200.000	0.013	0.364
-261.209	143.169	0.220	0.289
-260.195	-31.480	0.050	-0.027
-259.180	-128.261	-0.132	0.019
-258.165	137.884	0.184	0.238
-257.151	-25.300	0.027	0.016
-256.136	800.000	0.090	0.293
-255.122	0.123	0.317	-0.223
-254.107	-69.423	0.218	0.083
-253.092	-200.000	-0.044	0.226
-252.078	102.358	-0.244	0.282
-251.063	46.577	0.128	0.117
-250.049	715.839	0.115	0.301
-249.034	-1.420	0.433	0.302
-248.019	-55.476	-0.074	0.033
-247.005	-136.406	0.368	-0.042
-245.990	114.543	-0.078	0.093
-244.976	-178.923	0.226	-0.005
-243.961	-83.192	-0.120	0.038
-242.946	401.538	0.029	-0.061
-241.932	-105.233	0.199	0.045
-240.917	-6.585	-0.288	-0.194
-239.903	800.000	-0.089	0.291
-238.888	-124.325	-0.397	0.061
-237.873	446.449	-0.044	0.095
-236.859	800.000	0.055	0.169
-235.844	111.553	0.139	-0.165
-234.830	800.000	-0.045	-0.144
-233.815	37.380	0.294	0.257
-232.800	-113.765	-0.130	0.025
-231.786	-27.974	-0.239	-0.137
-230.771	-66.050	-0.246	-0.097
-229.757	55.987	-0.074	-0.071
-228.742	-200.000	0.070	-0.380
-227.727	31.547	0.295	-0.250
-226.713	664.017	-0.069	0.177
-225.698	141.678	-0.121	0.158
-224.684	-129.668	-0.158	-0.022
-223.669	245.074	-0.076	-0.126
-222.655	-62.463	0.210	0.086
-221.640	151.532	-0.105	-0.140
-220.625	-200.000	0.023	-0.103
-219.611	139.409	0.116	-0.150
-218.596	464.436	0.084	-0.185
-217.582	-35.844	-0.497	-0.265
-216.567	800.000	0.072	0.302
-215.552	-50.271	0.356	-0.166
-214.538	27.986	0.224	-0.186
-213.523	-200.000	0.077	-0.339
-212.509	-107.814	0.092	0.020
-211.494	-132.637	-0.437	-0.055
-210.479	-200.000	0.031	-0.319
-209.465	517.235	0.053	0.123
-208.450	388.647	0.049	-0.101
-207.436	800.000	-0.056	-0.235
-206.421	-18.912	-0.181	0.111
-205.406	-29.879	-0.127	0.071
-204.392	-20.018	0.282	0.171
-203.377	232.588	0.144	-0.233
-202.363	-200.000	0.019	0.192
-201.348	483.248	-0.129	0.288
-200.333	800.000	-0.086	0.295
-199.319	-52.738	-0.283	0.129
-198.304	-116.806	0.560	0.101
-197.290	356.642	0.116	0.228
-196.275	82.534	0.175	-0.187
-195.260	323.618	-0.078	0.147
-194.246	-119.760	-0.538	0.091
-193.231	-76.870	-0.184	0.063
-192.217	300.351	-0.065	-0.119
-191.202	-54.865	0.319	-0.142
-190.187	-108.601	-0.141	0.030
-189.173	283.940	-0.152	-0.269
-188.158	-151.751	-0.309	-0.022
-187.144	-200.000	0.018	0.179
-186.129	800.000	-0.067	0.182
-185.114	-49.177	0.252	-0.119
-184.100	154.678	-0.079	-0.106
-183.085	-200.000	-0.001	0.163
-182.071	-62.421	0.020	-0.008
-181.056	99.331	0.121	0.138
-180.042	378.217	0.071	-0.143
-179.027	282.923	-0.065	0.115
-178.012	-4.632	0.192	0.130
-176.998	-180.093	0.216	-0.005
-175.983	150.285	0.098	-0.131
-174.969	-120.403	0.434	0.073
-173.954	767.631	-0.129	0.344
-172.939	-92.253	-0.190	0.053
-171.925	-200.000	0.011	0.128
-170.910	-146.867	0.069	-0.006
-169.896	424.510	0.111	0.235
-168.881	99.364	-0.106	-0.121
-167.866	-164.689	-0.214	-0.009
-166.852	110.783	0.059	0.070
-165.837	-21.428	0.119	-0.071
-164.823	-200.000	0.012	-0.065
-163.808	-200.000	0.024	0.150
-162.793	373.234	-0.150	0.300
-161.779	132.467	0.239	0.303
-160.764	42.865	0.183	0.164
-159.750	59.679	-0.186	0.181
-158.735	258.507	0.121	0.206
-157.720	86.015	0.124	-0.134
-156.706	-147.761	-0.150	-0.012
-155.691	800.000	-0.030	-0.104
-154.677	800.000	-0.041	-0.135
-153.662	-35.921	0.185	0.098
-152.647	37.732	-0.342	0.299
-151.633	-128.630	-0.156	-0.022
-150.618	-15.890	-0.112	0.070
-149.604	-200.000	0.017	0.111
-148.589	800.000	-0.017	0.065
-147.574	-109.424	0.197	0.041
-146.560	800.000	0.070	0.213
-145.545	800.000	-0.058	-0.215
-144.531	-125.021	0.115	-0.017
-143.516	231.726	0.156	-0.251
-142.502	-200.000	-0.242	-0.001
-141.487	-121.608	-0.036	-0.006
-140.472	707.294	-0.109	-0.283
-139.458	800.000	0.057	0.238
-138.443	800.000	-0.104	0.291
-137.429	-99.141	0.223	0.055
-136.414	-86.830	-0.019	-0.006
-135.399	178.466	-0.057	0.082
-134.385	-200.000	-0.050	-0.345
-133.370	-21.714	-0.215	0.129
-132.356	800.000	0.044	-0.186
-131.341	-154.821	-0.238	-0.015
-130.326	-200.000	-0.023	-0.180
-129.312	52.525	0.354	0.332
-128.297	-75.007	0.157	-0.055
-127.283	-36.109	0.257	0.136
-126.268	547.519	-0.058	0.137
-125.253	-200.000	0.001	0.051
-124.239	91.457	0.123	-0.135
-123.224	-41.233	-0.214	0.109
-122.210	-0.196	-0.055	-0.038
