DTS Sentinel unit serial number:	SN413079Multiplexer serial number:	ORYXHardware model number:	OX4-SRSoftware version number:	ORYX F/W v4.00 Oryx Data Collector v3.7.2.0data status	okinstallation	princeton_trtdifferential loss correction	single-endedforward channel	channel 3reverse channel	N/Adate	2019/09/15time	06:20:35forward acquisition time	60.00reverse acquisition time	0.00gamma	496.2192k internal	0.2324k external	0.2324temperature offset calibration	0.9978default loss term (dB/km)	0.3790temperature slope calibration	1.0000multiplexer offset coefficient	1.0000multiplexer slope coefficient	1.0000fibre end	0.00T internal ref (°C)	30.52T ext. ref 1 (°C)	4.84T ext. ref 2 (°C)	25.26length (m)	temperature (°C)	Stokes	anti-Stokes-747.200	30.867	0.068	0.059
-746.185	46.198	-0.063	0.059
-745.171	391.569	-0.080	0.167
-744.156	18.290	0.177	0.142
-743.142	45.357	0.115	-0.108
-742.127	-200.000	-0.172	0.001
-741.112	800.000	0.028	0.098
-740.098	-151.243	0.201	0.015
-739.083	214.273	0.192	0.307
-738.069	-122.661	-0.216	-0.035
-737.054	174.414	0.053	0.078
-736.039	-131.002	-0.218	-0.029
-735.025	800.000	0.028	0.116
-734.010	-3.298	0.125	0.088
-732.996	149.273	0.102	-0.139
-731.981	181.257	0.036	0.054
-730.966	471.815	0.058	0.132
-729.952	117.991	0.116	0.144
-728.937	-52.521	0.295	-0.137
-727.923	-99.575	-0.037	0.009
-726.908	28.792	-0.230	-0.196
-725.894	83.218	-0.267	-0.293
-724.879	-200.000	0.047	0.296
-723.864	-107.755	0.334	0.073
-722.850	-200.000	-0.012	-0.072
-721.835	-200.000	0.045	-0.421
-720.821	-200.000	-0.042	-0.202
-719.806	-104.657	-0.197	0.046
-718.791	-200.000	0.029	-0.156
-717.777	-14.930	0.160	-0.103
-716.762	23.905	-0.224	0.186
-715.748	-46.884	0.098	0.048
-714.733	331.140	0.036	-0.070
-713.718	-200.000	0.014	-0.278
-712.704	800.000	-0.043	-0.174
-711.689	-30.841	0.034	-0.019
-710.675	-32.607	-0.256	-0.144
-709.660	-52.286	0.226	0.106
-708.645	54.830	-0.127	-0.123
-707.631	515.213	0.092	-0.217
-706.616	90.806	-0.170	-0.192
-705.602	69.656	0.126	-0.131
-704.587	800.000	0.026	0.101
-703.572	-200.000	0.004	0.205
-702.558	107.824	-0.171	-0.205
-701.543	-109.954	-0.256	0.054
-700.529	-43.107	-0.246	-0.126
-699.514	-98.087	0.074	-0.019
-698.499	116.723	-0.040	0.049
-697.485	333.738	-0.056	0.109
-696.470	-7.572	0.096	-0.065
-695.456	38.254	0.032	-0.029
-694.441	-82.100	0.234	0.077
-693.426	79.953	0.199	0.215
-692.412	-13.726	-0.131	0.085
-691.397	-174.768	0.328	-0.009
-690.383	-129.585	0.106	0.015
-689.368	-147.968	0.097	0.008
-688.354	-106.313	-0.206	0.046
-687.339	-105.530	-0.238	-0.054
-686.324	-200.000	-0.011	-0.064
-685.310	348.844	-0.105	-0.209
-684.295	-51.058	-0.174	-0.082
-683.281	800.000	-0.079	-0.286
-682.266	91.943	-0.208	-0.236
-681.251	-43.829	0.214	-0.108
-680.237	515.098	-0.131	-0.307
-679.222	0.922	-0.260	0.188
-678.208	-37.816	0.146	-0.078
-677.193	-200.000	-0.018	-0.124
-676.178	13.416	-0.092	-0.071
-675.164	-200.000	-0.009	0.240
-674.149	3.819	-0.213	0.156
-673.135	-200.000	0.027	-0.358
-672.120	-122.358	0.164	-0.027
-671.105	568.896	-0.117	0.287
-670.091	436.967	0.037	-0.082
-669.076	55.294	0.036	0.035
-668.062	-200.000	0.047	0.296
-667.047	-134.087	0.212	0.026
-666.032	-200.000	-0.015	-0.362
-665.018	-50.275	0.212	0.101
-664.003	190.108	0.124	0.187
-662.989	-70.696	-0.292	-0.111
-661.974	-118.074	0.281	-0.051
-660.959	-84.679	0.187	0.059
-659.945	-147.470	-0.331	0.028
-658.930	-63.807	0.295	-0.122
-657.916	-35.670	0.120	0.066
-656.901	-23.836	-0.094	0.057
-655.886	-200.000	0.011	-0.644
-654.872	-6.993	0.170	-0.116
-653.857	-105.112	-0.112	-0.026
-652.843	-14.152	-0.210	0.136
-651.828	431.973	0.197	-0.430
-650.814	137.749	0.032	-0.042
-649.799	81.962	0.455	0.496
-648.784	-200.000	-0.006	0.232
-647.770	-161.912	0.249	0.013
-646.755	800.000	-0.066	0.264
-645.741	-200.000	0.000	-0.272
-644.726	164.041	-0.057	0.081
-643.711	-200.000	-0.020	-0.270
-642.697	-200.000	-0.083	0.431
-641.682	-200.000	0.001	-0.261
-640.668	47.649	-0.238	0.223
-639.653	-162.627	-0.368	-0.018
-638.638	406.933	-0.138	-0.294
-637.624	-128.755	-0.382	-0.054
-636.609	1.982	-0.134	-0.097
-635.595	-80.816	-0.050	0.017
-634.580	-60.071	0.208	-0.089
-633.565	800.000	-0.055	-0.193
-632.551	-48.795	0.289	-0.139
-631.536	-139.152	-0.185	0.020
-630.522	800.000	0.052	-0.199
-629.507	-70.662	0.328	0.124
-628.492	90.760	0.172	-0.193
-627.478	-200.000	0.002	0.390
-626.463	-102.037	-0.304	-0.074
-625.449	-90.510	-0.117	-0.034
-624.434	-200.000	0.029	0.150
-623.419	-0.336	0.186	0.133
-622.405	93.816	0.171	0.195
-621.390	-200.000	0.130	0.607
-620.376	-141.234	-0.376	0.038
-619.361	-151.044	0.156	0.012
-618.346	66.150	0.195	-0.199
-617.332	800.000	0.016	0.049
-616.317	800.000	-0.123	0.476
-615.303	225.406	0.096	-0.155
-614.288	-144.119	-0.330	-0.031
-613.273	-55.650	0.107	0.048
-612.259	-4.165	-0.075	0.052
-611.244	-70.536	-0.108	-0.041
-610.230	800.000	-0.161	-0.470
-609.215	127.649	0.202	0.258
-608.201	800.000	0.051	0.163
-607.186	-57.534	-0.119	-0.052
-606.171	-200.000	0.021	0.273
-605.157	-58.013	-0.110	-0.048
-604.142	-200.000	0.037	0.249
-603.128	92.632	0.121	0.137
-602.113	-89.876	-0.296	0.087
-601.098	-200.000	-0.029	0.163
-600.084	-200.000	0.039	-0.274
-599.069	-157.185	-0.067	0.004
-598.055	467.038	0.121	-0.272
-597.040	737.733	-0.100	-0.268
-596.025	88.662	0.062	0.070
-595.011	170.576	0.140	0.201
-593.996	9.256	-0.078	-0.060
-592.982	276.528	-0.210	0.375
-591.967	-45.403	-0.320	0.159
-590.952	59.796	0.042	0.041
-589.938	53.338	-0.234	-0.225
-588.923	320.238	0.029	-0.055
-587.909	-33.243	-0.214	-0.119
-586.894	-194.210	0.207	0.002
-585.879	-38.906	-0.074	-0.039
-584.865	-85.406	-0.381	-0.119
-583.850	-146.091	0.213	-0.019
-582.836	-79.715	0.173	0.059
-581.821	-81.970	0.193	0.063
-580.806	-172.109	-0.130	0.004
-579.792	263.546	0.063	0.111
-578.777	-200.000	-0.042	0.276
-577.763	-131.394	-0.140	0.019
-576.748	-65.468	0.018	-0.007
-575.733	-42.878	0.310	0.158
-574.719	-133.619	-0.366	-0.046
-573.704	122.093	0.148	-0.186
-572.690	-163.573	0.177	-0.008
-571.675	-66.628	0.078	-0.031
-570.661	-200.000	0.053	0.377
-569.646	13.841	-0.353	-0.275
-568.631	104.255	-0.049	0.058
-567.617	189.059	0.188	-0.282
-566.602	126.823	-0.107	0.136
-565.588	-103.986	0.236	-0.055
-564.573	319.787	-0.053	-0.101
-563.558	447.841	-0.139	-0.307
-562.544	37.923	0.149	0.133
-561.529	-70.145	-0.151	0.057
-560.515	186.819	-0.102	0.152
-559.500	-120.095	-0.263	-0.045
-558.485	-27.871	-0.096	-0.056
-557.471	-200.000	-0.026	-0.222
-556.456	457.856	-0.096	0.214
-555.442	800.000	-0.038	0.133
-554.427	-200.000	-0.015	-0.408
-553.412	229.796	-0.245	-0.401
-552.398	35.857	0.039	-0.035
-551.383	-99.743	-0.322	0.081
-550.369	-91.514	0.176	-0.050
-549.354	-200.000	-0.007	0.335
-548.339	66.440	0.110	0.112
-547.325	52.818	-0.184	0.176
-546.310	-77.487	-0.250	0.087
-545.296	-29.768	0.422	0.241
-544.281	181.084	-0.115	0.169
-543.266	-115.677	0.142	0.027
-542.252	-18.848	0.195	0.121
-541.237	800.000	-0.047	-0.154
-540.223	-197.051	-0.078	0.001
-539.208	-168.921	-0.047	0.002
-538.193	800.000	0.014	-0.058
-537.179	394.213	0.144	-0.301
-536.164	5.726	-0.210	-0.155
-535.150	-33.040	-0.097	0.054
-534.135	-88.686	0.185	0.055
-533.121	-200.000	-0.037	-0.325
-532.106	-200.000	0.039	0.176
-531.091	800.000	-0.008	-0.030
-530.077	100.732	0.100	-0.117
-529.062	-200.000	-0.022	-0.227
-528.048	-43.185	0.149	0.075
-527.033	800.000	-0.010	0.044
-526.018	384.668	0.034	0.070
-525.004	64.169	0.201	-0.203
-523.989	136.789	-0.190	-0.248
-522.975	-79.155	-0.003	-0.001
-521.960	364.006	-0.106	0.213
-520.945	-28.422	-0.206	0.119
-519.931	59.502	-0.352	0.347
-518.916	160.016	-0.119	0.166
-517.902	800.000	0.077	-0.233
-516.887	-200.000	0.003	-0.212
-515.872	-63.778	0.115	-0.047
-514.858	-76.316	0.059	-0.021
-513.843	-123.010	-0.154	0.025
-512.829	-11.075	0.223	-0.147
-511.814	784.267	-0.033	0.090
-510.799	-23.473	-0.165	0.099
-509.785	800.000	-0.022	-0.080
-508.770	139.635	-0.165	0.217
-507.756	85.071	0.225	-0.247
-506.741	-83.633	0.213	-0.068
-505.726	-18.611	-0.235	-0.146
-504.712	-200.000	0.048	0.218
-503.697	108.234	0.165	-0.197
-502.683	129.712	0.295	0.377
-501.668	-7.212	-0.215	-0.146
-500.653	-41.546	0.109	-0.056
-499.639	-7.616	-0.264	0.178
-498.624	111.708	0.076	0.092
-497.610	-2.318	0.264	-0.185
-496.595	800.000	0.049	-0.164
-495.581	-200.000	-0.002	-0.236
-494.566	-200.000	0.026	0.214
-493.551	-134.459	0.152	0.019
-492.537	-159.095	-0.110	0.006
-491.522	-200.000	-0.052	-0.246
-490.508	-106.840	-0.240	-0.053
-489.493	-200.000	-0.007	0.072
-488.478	97.714	-0.072	0.083
-487.464	-200.000	0.012	0.222
-486.449	-163.280	-0.264	0.013
-485.435	27.280	0.073	-0.062
-484.420	183.897	0.147	0.217
-483.405	-131.169	0.155	-0.021
-482.391	-40.014	-0.266	-0.139
-481.376	600.476	-0.178	-0.443
-480.362	389.188	0.084	-0.174
-479.347	-118.371	-0.203	0.036
-478.332	512.800	-0.092	-0.215
-477.318	-141.922	-0.045	0.005
-476.303	196.360	0.184	-0.279
-475.289	167.370	-0.239	-0.340
-474.274	-169.406	0.393	0.014
-473.259	-200.000	-0.004	-0.175
-472.245	-200.000	0.051	0.497
-471.230	-200.000	0.004	-0.105
-470.216	619.200	0.041	0.104
-469.201	-91.005	0.133	-0.038
-468.186	-102.481	0.196	0.047
-467.172	571.970	-0.088	0.214
-466.157	-119.692	-0.276	-0.048
-465.143	-47.768	0.199	0.097
-464.128	-200.000	0.028	0.266
-463.113	83.702	-0.213	0.232
-462.099	-200.000	0.001	0.101
-461.084	-43.886	-0.180	-0.090
-460.070	-13.105	-0.086	-0.056
-459.055	-37.072	0.082	-0.044
-458.040	25.758	0.234	0.194
-457.026	-116.130	0.276	-0.051
-456.011	-78.916	0.028	0.009
-454.997	375.939	0.104	0.212
-453.982	730.177	0.038	-0.102
-452.968	217.733	-0.084	-0.133
-451.953	-148.252	0.144	0.012
-450.938	6.081	0.155	-0.114
-449.924	-200.000	-0.002	0.078
-448.909	96.564	0.164	-0.188
-447.895	320.799	-0.073	0.138
-446.880	206.719	0.057	-0.089
-445.865	599.463	-0.078	0.194
-444.851	-58.845	0.141	0.061
-443.836	30.496	0.274	-0.233
-442.822	183.249	0.219	-0.323
-441.807	800.000	0.102	0.329
-440.792	-32.969	-0.088	-0.048
-439.778	777.565	0.118	0.322
-438.763	-89.009	0.169	0.050
-437.749	-51.440	0.176	-0.082
-436.734	-119.144	0.266	0.046
-435.719	-200.000	0.030	0.164
-434.705	-140.832	0.210	-0.022
-433.690	-8.977	-0.172	0.115
-432.676	84.935	0.283	0.310
-431.661	800.000	-0.082	-0.284
-430.646	9.925	0.150	-0.114
-429.632	-113.066	-0.213	-0.042
-428.617	-160.240	-0.318	0.017
-427.603	495.714	-0.071	0.163
-426.588	800.000	0.038	-0.161
-425.573	127.805	0.238	-0.302
-424.559	40.149	0.078	-0.070
-423.544	209.694	-0.100	0.156
-422.530	95.768	-0.207	-0.235
-421.515	-80.587	0.189	0.063
-420.500	-166.024	0.138	0.006
-419.486	79.821	-0.180	-0.192
-418.471	177.506	-0.067	0.098
-417.457	503.542	-0.119	0.273
-416.442	-81.233	0.334	-0.110
-415.428	-54.573	-0.120	0.054
-414.413	800.000	-0.132	0.394
-413.398	2.913	0.053	0.039
-412.384	4.454	-0.189	-0.138
-411.369	89.613	0.073	-0.081
-410.355	-60.988	0.068	-0.028
-409.340	24.338	0.133	-0.110
-408.325	-3.756	-0.169	-0.117
-407.311	-155.656	0.230	0.015
-406.296	-37.706	0.051	-0.027
-405.282	419.066	0.200	0.425
-404.267	-8.956	-0.296	0.197
-403.252	65.770	-0.150	-0.151
-402.238	-200.000	-0.013	-0.057
-401.223	-17.723	-0.100	-0.062
-400.209	15.829	-0.073	0.057
-399.194	138.018	-0.097	0.127
-398.179	-53.482	-0.347	-0.158
-397.165	-200.000	0.025	-0.163
-396.150	144.148	0.123	0.163
-395.136	-105.930	-0.266	0.060
-394.121	-97.005	0.149	-0.039
-393.106	444.196	0.068	-0.148
-392.092	800.000	0.087	-0.263
-391.077	800.000	-0.048	0.135
-390.063	782.067	-0.088	-0.239
-389.048	800.000	0.082	-0.256
-388.033	-33.322	-0.216	0.119
-387.019	-140.454	0.230	-0.024
-386.004	262.757	0.238	-0.411
-384.990	418.146	0.110	-0.234
-383.975	-103.730	-0.457	-0.107
-382.960	-184.191	0.459	-0.008
-381.946	-162.516	0.162	-0.008
-380.931	800.000	-0.104	-0.352
-379.917	800.000	0.042	-0.125
-378.902	135.706	0.161	0.208
-377.888	108.755	-0.217	0.258
-376.873	-200.000	0.040	-0.231
-375.858	-137.342	-0.304	-0.034
-374.844	-82.478	0.293	0.095
-373.829	-200.000	0.009	-0.090
-372.815	800.000	0.073	0.297
-371.800	86.732	-0.218	-0.239
-370.785	800.000	0.003	0.009
-369.771	-200.000	-0.016	0.229
-368.756	-200.000	-0.003	0.410
-367.742	112.354	-0.230	0.277
-366.727	545.559	-0.145	-0.344
-365.712	-44.612	-0.184	-0.091
-364.698	-29.468	-0.179	0.102
-363.683	82.257	0.371	0.400
-362.669	-32.985	-0.181	0.100
-361.654	355.950	-0.090	0.179
-360.639	37.116	-0.056	-0.050
-359.625	437.196	-0.098	0.212
-358.610	104.383	0.077	-0.090
-357.596	800.000	0.103	-0.327
-356.581	-115.849	-0.371	0.069
-355.566	-168.774	-0.168	-0.006
-354.552	-140.011	-0.072	0.008
-353.537	-61.221	-0.058	-0.024
-352.523	800.000	-0.073	-0.241
-351.508	800.000	-0.096	0.293
-350.493	-76.798	0.223	0.078
-349.479	73.942	0.166	-0.173
-348.464	-85.517	-0.131	0.041
-347.450	800.000	0.085	-0.234
-346.435	-57.531	-0.133	-0.058
-345.420	-141.131	-0.287	0.029
-344.406	-49.646	0.151	0.071
-343.391	102.988	0.066	0.077
-342.377	-124.013	-0.236	0.037
-341.362	-200.000	0.074	0.385
-340.348	-200.000	0.058	0.331
-339.333	800.000	-0.103	-0.305
-338.318	442.631	-0.099	-0.216
-337.304	800.000	-0.068	0.260
-336.289	95.548	0.254	-0.288
-335.275	-44.140	0.098	-0.049
-334.260	-135.052	0.110	0.013
-333.245	-91.855	-0.129	-0.036
-332.231	-64.244	-0.254	-0.103
-331.216	264.157	0.118	-0.203
-330.202	280.371	0.126	-0.224
-329.187	-105.522	-0.391	0.088
-328.172	800.000	-0.068	0.208
-327.158	311.927	-0.088	-0.164
-326.143	82.084	-0.238	-0.256
-325.129	-81.468	0.154	-0.050
-324.114	-200.000	-0.029	-0.297
-323.099	-6.943	-0.142	0.096
-322.085	288.488	-0.139	0.250
-321.070	390.532	-0.174	-0.359
-320.056	682.973	-0.054	-0.141
-319.041	36.735	0.142	0.125
-318.026	679.476	-0.115	-0.296
-317.012	-10.627	0.137	0.090
-315.997	-200.000	-0.015	0.066
-314.983	-200.000	-0.028	0.000
-313.968	-72.491	0.232	0.085
-312.953	558.944	-0.059	-0.141
-311.939	28.944	-0.248	-0.209
-310.924	4.064	-0.178	-0.129
-309.910	143.799	-0.053	0.070
-308.895	-200.000	-0.002	0.436
-307.880	-44.031	0.118	-0.059
-306.866	800.000	0.082	-0.314
-305.851	255.629	-0.100	0.170
-304.837	-32.389	-0.275	0.152
-303.822	-64.451	0.167	-0.067
-302.807	221.340	0.087	-0.139
-301.793	621.093	-0.099	0.248
-300.778	737.445	0.058	0.154
-299.764	186.051	0.069	0.102
-298.749	598.456	-0.101	-0.248
-297.735	-4.342	0.255	0.175
-296.720	800.000	0.022	0.061
-295.705	173.800	0.120	-0.172
-294.691	-2.285	0.117	-0.081
-293.676	702.288	0.096	0.251
-292.662	800.000	0.054	-0.192
-291.647	-200.000	-0.005	-0.119
-290.632	-46.494	0.206	0.100
-289.618	-138.045	-0.147	0.016
-288.603	-129.957	0.090	-0.012
-287.589	-112.868	0.097	-0.019
-286.574	118.184	0.168	0.205
-285.559	76.275	-0.141	0.148
-284.545	-157.415	0.091	-0.005
-283.530	-42.824	0.072	0.036
-282.516	-18.852	0.030	-0.019
-281.501	54.959	-0.262	-0.251
-280.486	112.506	0.099	-0.119
-279.472	-85.377	0.193	-0.060
-278.457	-69.096	0.099	-0.038
-277.443	-139.200	0.224	0.024
-276.428	-3.758	0.101	0.069
-275.413	-200.000	0.020	-0.130
-274.399	225.510	-0.052	-0.083
-273.384	-72.314	-0.189	0.069
-272.370	294.266	0.052	0.095
-271.355	50.450	0.210	-0.197
-270.340	800.000	-0.193	-0.590
-269.326	-200.000	-0.080	-0.410
-268.311	-136.041	-0.323	0.038
-267.297	389.939	0.152	0.313
-266.282	-103.494	-0.249	-0.058
-265.267	26.572	-0.241	-0.200
-264.253	-143.358	-0.288	0.027
-263.238	485.159	0.144	0.325
-262.224	30.645	0.165	-0.140
-261.209	800.000	0.128	-0.360
-260.195	800.000	0.018	-0.072
-259.180	109.853	-0.128	0.152
-258.165	205.173	0.114	-0.175
-257.151	720.093	0.080	-0.212
-256.136	-200.000	0.029	0.139
-255.122	-200.000	0.057	-0.289
-254.107	1.227	0.090	0.064
-253.092	-45.949	0.118	0.058
-252.078	-96.399	0.264	-0.069
-251.063	-86.187	-0.233	0.071
-250.049	-72.073	0.251	-0.092
-249.034	-162.854	0.145	-0.007
-248.019	-200.000	0.036	0.180
-247.005	-95.869	-0.083	0.022
-245.990	-108.426	0.333	-0.071
-244.976	8.083	0.032	0.024
-243.961	77.032	0.076	-0.080
-242.946	499.336	0.143	0.326
-241.932	-200.000	-0.041	0.221
-240.917	800.000	0.030	-0.112
-239.903	-200.000	0.002	-0.063
-238.888	-200.000	0.005	0.352
-237.873	-74.083	0.228	0.082
-236.859	-200.000	-0.063	0.596
-235.844	-78.497	0.247	0.084
-234.830	-200.000	0.019	0.086
-233.815	-111.958	0.143	-0.029
-232.800	215.537	0.138	0.217
-231.786	80.429	-0.029	-0.031
-230.771	-200.000	0.005	-0.114
-229.757	-16.583	-0.111	-0.070
-228.742	446.941	0.148	0.322
-227.727	800.000	-0.073	0.249
-226.713	305.326	0.101	-0.185
-225.698	-200.000	0.003	-0.113
-224.684	800.000	-0.121	-0.347
-223.669	-121.320	0.243	-0.040
-222.655	120.702	0.127	-0.156
-221.640	-127.879	0.204	-0.029
-220.625	-47.601	0.325	-0.156
-219.611	-200.000	-0.005	-0.097
-218.596	-56.193	-0.326	0.143
-217.582	-33.161	0.167	0.091
-216.567	128.840	0.174	-0.219
-215.552	800.000	-0.033	0.097
-214.538	36.352	-0.108	-0.094
-213.523	-68.320	-0.078	0.030
-212.509	-200.000	-0.054	-0.258
-211.494	-13.551	0.102	0.065
-210.479	-26.549	-0.365	-0.211
-209.465	-49.275	0.377	0.178
-208.450	-200.000	0.028	0.193
-207.436	-107.197	-0.167	-0.036
-206.421	-68.934	-0.175	-0.067
-205.406	151.815	0.136	0.183
-204.392	-118.466	-0.171	0.030
-203.377	-200.000	0.006	-0.208
-202.363	175.868	0.253	-0.362
-201.348	-48.236	-0.232	-0.110
-200.333	168.664	0.179	0.253
-199.319	15.022	0.195	0.151
-198.304	-200.000	-0.009	0.158
-197.290	-200.000	-0.031	0.257
-196.275	800.000	-0.044	-0.144
-195.260	51.089	-0.128	0.120
-194.246	-33.955	-0.113	-0.061
-193.231	208.078	0.044	-0.068
-192.217	-187.736	-0.137	-0.002
-191.202	-125.051	0.228	0.035
-190.187	-13.143	-0.096	-0.062
-189.173	-57.813	0.192	-0.083
-188.158	-76.273	0.201	0.070
-187.144	-200.000	0.011	-0.134
-186.129	800.000	-0.055	0.230
-185.114	800.000	-0.078	0.316
-184.100	-200.000	-0.036	-0.290
-183.085	148.534	-0.035	-0.047
-182.071	-16.932	-0.149	0.093
-181.056	-150.095	-0.113	-0.009
-180.042	640.157	0.089	0.223
-179.027	800.000	-0.032	0.132
-178.012	17.163	0.161	0.126
-176.998	-174.187	0.136	0.004
-175.983	112.926	-0.170	-0.204
-174.969	800.000	-0.057	-0.222
-173.954	-133.273	0.295	-0.037
-172.939	-73.015	-0.256	0.093
-171.925	-121.214	0.307	0.051
-170.910	217.395	-0.086	-0.136
-169.896	-200.000	-0.007	0.209
-168.881	-153.263	-0.273	-0.019
-167.866	58.173	-0.120	0.116
-166.852	86.141	-0.018	-0.020
-165.837	-62.943	0.075	0.031
-164.823	800.000	0.071	0.301
-163.808	-105.986	0.526	0.117
-162.793	13.791	0.049	0.037
-161.779	78.292	-0.043	0.045
-160.764	-68.764	-0.113	0.043
-159.750	800.000	-0.042	-0.118
-158.735	-52.334	-0.301	0.137
-157.720	41.604	-0.193	0.172
-156.706	-98.551	-0.083	-0.021
-155.691	757.833	-0.038	-0.101
-154.677	-94.505	0.313	-0.084
-153.662	81.392	-0.079	-0.085
-152.647	-1.233	-0.068	0.048
-151.633	790.916	-0.072	-0.196
-150.618	-60.667	-0.095	0.040
-149.604	-93.518	0.141	0.038
-148.589	-200.000	0.021	-0.248
-147.574	-200.000	0.004	-0.072
-146.560	-144.992	0.273	0.025
-145.545	800.000	-0.023	0.068
-144.531	-162.652	-0.299	-0.014
-143.516	10.566	0.286	0.215
-142.502	-123.985	0.374	0.058
-141.487	-42.904	-0.190	-0.095
-140.472	4.443	0.211	-0.152
-139.458	-89.602	0.217	-0.063
-138.443	-200.000	-0.012	0.073
-137.429	-25.599	0.064	-0.037
-136.414	-176.247	-0.159	-0.004
-135.399	195.608	-0.035	-0.052
-134.385	590.698	0.142	-0.345
-133.370	253.444	0.071	0.119
-132.356	770.852	-0.131	-0.351
-131.341	-86.667	-0.156	0.047
-130.326	-200.000	-0.006	-0.044
-129.312	-200.000	-0.028	-0.150
-128.297	74.633	-0.105	-0.109
-127.283	205.788	-0.133	0.204
-126.268	800.000	0.057	-0.165
-125.253	-45.348	0.373	-0.183
-124.239	548.121	0.078	0.183
-123.224	800.000	0.055	0.201
-122.210	-200.000	0.002	-0.026
-121.195	-99.168	-0.068	0.017
