DTS Sentinel unit serial number:	SN413079Multiplexer serial number:	ORYXHardware model number:	OX4-SRSoftware version number:	ORYX F/W v4.00 Oryx Data Collector v3.7.2.0data status	okinstallation	princeton_trtdifferential loss correction	single-endedforward channel	channel 3reverse channel	N/Adate	2019/09/17time	23:36:35forward acquisition time	60.00reverse acquisition time	0.00gamma	496.2192k internal	0.2345k external	0.2345temperature offset calibration	0.9949default loss term (dB/km)	0.3790temperature slope calibration	1.0000multiplexer offset coefficient	1.0000multiplexer slope coefficient	1.0000fibre end	0.00T internal ref (°C)	24.19T ext. ref 1 (°C)	0.16T ext. ref 2 (°C)	17.55length (m)	temperature (°C)	Stokes	anti-Stokes-747.200	290.787	0.138	-0.251
-746.185	800.000	-0.067	0.205
-745.171	-0.911	0.195	-0.138
-744.156	-70.154	0.090	-0.034
-743.142	125.391	0.074	0.094
-742.127	-200.000	-0.042	0.436
-741.112	-200.000	0.001	0.173
-740.098	-95.368	-0.391	0.105
-739.083	35.930	-0.125	0.110
-738.069	86.284	-0.317	0.350
-737.054	-36.097	0.135	-0.073
-736.039	-65.774	-0.081	0.032
-735.025	-8.909	-0.154	-0.103
-734.010	-19.580	-0.142	0.088
-732.996	340.835	-0.105	-0.205
-731.981	-31.594	-0.027	-0.015
-730.966	800.000	-0.034	-0.138
-729.952	-99.898	-0.074	0.019
-728.937	-108.944	0.340	0.073
-727.923	15.962	0.056	0.044
-726.908	800.000	0.098	-0.295
-725.894	-163.439	-0.192	-0.009
-724.879	271.363	-0.113	-0.199
-723.864	123.920	-0.149	-0.188
-722.850	-18.384	-0.090	0.056
-721.835	-138.817	0.046	0.005
-720.821	-200.000	-0.012	0.211
-719.806	351.820	-0.137	0.272
-718.791	544.166	0.113	-0.269
-717.777	-200.000	-0.008	-0.176
-716.762	-115.160	0.121	-0.023
-715.748	-146.296	0.131	0.011
-714.733	-179.197	-0.287	-0.006
-713.718	49.468	-0.261	-0.245
-712.704	-200.000	-0.020	-0.271
-711.689	0.126	0.060	-0.043
-710.675	-69.145	-0.367	-0.141
-709.660	-103.984	0.056	-0.013
-708.645	-200.000	0.023	-0.286
-707.631	800.000	-0.030	-0.092
-706.616	101.300	0.224	0.261
-705.602	-113.156	0.311	-0.061
-704.587	151.842	0.168	-0.228
-703.572	-54.330	0.118	0.053
-702.558	16.581	-0.316	0.249
-701.543	73.265	-0.223	0.233
-700.529	-113.564	0.154	0.030
-699.514	-200.000	-0.121	0.000
-698.499	275.458	-0.079	0.140
-697.485	-73.257	0.082	0.030
-696.470	8.794	-0.087	-0.066
-695.456	207.939	-0.078	-0.122
-694.441	40.353	-0.103	0.093
-693.426	-192.029	0.178	-0.002
-692.412	147.239	-0.149	0.200
-691.397	-152.514	-0.418	-0.030
-690.383	163.742	-0.088	0.124
-689.368	62.311	-0.114	0.113
-688.354	-89.860	0.123	0.036
-687.339	-200.000	-0.005	-0.208
-686.324	-80.939	0.022	0.007
-685.310	-60.853	-0.184	-0.078
-684.295	118.227	-0.171	-0.210
-683.281	-200.000	0.017	-0.184
-682.266	-134.484	-0.188	-0.023
-681.251	-153.089	0.371	0.026
-680.237	-136.601	-0.516	-0.060
-679.222	-38.517	0.092	-0.048
-678.208	-171.177	0.176	0.006
-677.193	-6.012	-0.284	0.194
-676.178	-108.416	0.232	-0.050
-675.164	-200.000	-0.011	-0.297
-674.149	-200.000	0.445	0.001
-673.135	-21.411	-0.346	0.211
-672.120	-200.000	-0.064	0.345
-671.105	-144.707	0.258	-0.024
-670.091	-108.222	0.313	-0.068
-669.076	34.000	-0.174	-0.151
-668.062	800.000	-0.063	-0.244
-667.047	268.175	-0.130	-0.227
-666.032	10.979	0.040	0.030
-665.018	-116.762	-0.067	-0.012
-664.003	-3.677	0.177	-0.123
-662.989	99.873	-0.160	-0.185
-661.974	193.556	0.215	-0.324
-660.959	800.000	0.061	-0.243
-659.945	-23.293	0.324	0.194
-658.930	-133.442	0.344	-0.043
-657.916	-125.371	0.327	0.050
-656.901	-78.061	-0.268	0.092
-655.886	72.100	0.204	-0.212
-654.872	800.000	-0.108	-0.403
-653.857	530.142	0.166	-0.390
-652.843	-23.560	-0.065	0.039
-651.828	-106.325	-0.376	-0.084
-650.814	54.534	-0.059	0.057
-649.799	-106.855	-0.190	0.042
-648.784	800.000	-0.104	0.396
-647.770	475.709	-0.064	-0.144
-646.755	-185.925	0.598	-0.009
-645.741	165.776	-0.130	-0.183
-644.726	-200.000	-0.018	0.207
-643.711	238.863	0.121	-0.200
-642.697	-8.698	0.174	0.116
-641.682	-151.915	0.157	-0.011
-640.668	159.278	0.272	0.377
-639.653	-25.016	-0.126	0.074
-638.638	420.494	-0.230	0.491
-637.624	-21.101	-0.233	-0.142
-636.609	244.153	-0.019	0.032
-635.595	39.104	0.208	-0.185
-634.580	61.578	0.112	0.111
-633.565	262.603	-0.127	-0.219
-632.551	385.385	0.148	-0.303
-631.536	-200.000	-0.001	-0.087
-630.522	-52.840	-0.116	0.053
-629.507	-200.000	0.015	-0.155
-628.492	449.752	-0.041	-0.090
-627.478	-137.730	0.138	-0.015
-626.463	-200.000	-0.009	0.174
-625.449	-3.592	0.239	-0.165
-624.434	-29.955	0.286	-0.162
-623.419	-39.620	-0.093	0.048
-622.405	181.317	0.098	-0.143
-621.390	112.569	0.054	0.064
-620.376	356.849	-0.073	-0.145
-619.361	294.230	-0.024	-0.044
-618.346	800.000	-0.032	-0.123
-617.332	-200.000	0.071	0.444
-616.317	-18.948	-0.179	0.111
-615.303	-151.326	-0.184	-0.014
-614.288	-74.907	-0.370	-0.132
-613.273	-200.000	-0.012	-0.057
-612.259	753.389	-0.063	-0.170
-611.244	195.503	0.171	-0.259
-610.230	74.287	-0.164	0.172
-609.215	-200.000	0.037	0.351
-608.201	-172.964	0.325	0.010
-607.186	-37.661	0.167	0.089
-606.171	65.995	-0.100	0.101
-605.157	-43.002	0.137	0.069
-604.142	21.070	-0.187	0.151
-603.128	-105.315	0.351	0.079
-602.113	-200.000	-0.003	-0.129
-601.098	-33.961	-0.154	-0.084
-600.084	800.000	0.056	-0.206
-599.069	800.000	0.054	-0.210
-598.055	800.000	-0.041	-0.123
-597.040	-120.014	-0.188	0.032
-596.025	-17.007	-0.141	0.088
-595.011	345.136	-0.123	0.240
-593.996	485.438	-0.046	0.104
-592.982	-44.257	-0.282	-0.140
-591.967	-89.265	-0.170	0.050
-590.952	-109.261	-0.183	-0.039
-589.938	230.424	0.096	-0.156
-588.923	522.419	0.057	-0.133
-587.909	581.756	-0.078	0.189
-586.894	-200.000	0.001	-0.036
-585.879	199.213	-0.028	-0.043
-584.865	291.281	-0.131	0.238
-583.850	-103.610	-0.058	-0.013
-582.836	-23.649	-0.206	-0.123
-581.821	-56.305	-0.382	0.169
-580.806	-8.833	-0.185	0.123
-579.792	6.814	-0.113	-0.083
-578.777	361.536	-0.028	-0.055
-577.763	9.866	-0.334	0.252
-576.748	480.135	-0.091	0.205
-575.733	-139.883	0.144	0.015
-574.719	319.032	-0.177	-0.333
-573.704	800.000	-0.052	-0.163
-572.690	800.000	-0.062	-0.201
-571.675	109.230	-0.194	-0.230
-570.661	-172.250	-0.246	0.008
-569.646	-70.716	0.164	0.062
-568.631	15.346	0.287	0.224
-567.617	52.070	0.079	-0.075
-566.602	800.000	0.043	-0.161
-565.588	615.706	0.118	-0.294
-564.573	-14.348	-0.220	-0.141
-563.558	75.927	-0.235	0.247
-562.544	26.403	0.187	0.156
-561.529	4.885	0.104	0.076
-560.515	-123.565	-0.306	-0.048
-559.500	219.908	-0.095	0.151
-558.485	-200.000	0.009	-0.073
-557.471	493.239	0.096	-0.218
-556.456	800.000	0.043	0.170
-555.442	15.862	0.181	0.142
-554.427	-141.166	-0.250	0.025
-553.412	324.302	-0.061	0.116
-552.398	639.367	-0.162	-0.408
-551.383	51.897	-0.175	-0.166
-550.369	492.341	0.026	-0.059
-549.354	197.036	0.010	0.015
-548.339	8.533	0.303	0.227
-547.325	-200.000	-0.051	-0.387
-546.310	-200.000	0.024	-0.368
-545.296	-9.030	0.016	0.011
-544.281	-89.432	-0.240	0.070
-543.266	-12.666	0.165	-0.107
-542.252	-14.804	0.128	0.081
-541.237	523.154	-0.078	-0.183
-540.223	-72.162	0.204	-0.075
-539.208	-38.989	0.046	-0.024
-538.193	-76.015	-0.228	-0.080
-537.179	401.622	-0.008	-0.017
-536.164	-151.834	-0.375	0.027
-535.150	-200.000	-0.004	0.066
-534.135	124.731	-0.158	-0.198
-533.121	-45.664	0.180	0.088
-532.106	-49.578	0.110	0.052
-531.091	18.502	-0.151	0.120
-530.077	134.308	-0.195	-0.251
-529.062	290.346	0.083	0.149
-528.048	-200.000	-0.326	-0.001
-527.033	-117.357	0.268	-0.048
-526.018	800.000	0.072	-0.285
-525.004	800.000	0.036	-0.144
-523.989	251.660	-0.216	0.365
-522.975	13.671	-0.064	-0.049
-521.960	-71.321	-0.340	-0.127
-520.945	410.652	-0.028	0.059
-519.931	800.000	-0.034	-0.118
-518.916	-200.000	-0.040	-0.265
-517.902	-50.949	0.137	0.064
-516.887	-151.163	0.107	-0.008
-515.872	-78.647	0.240	0.081
-514.858	-37.991	0.350	-0.184
-513.843	186.319	0.222	-0.328
-512.829	239.940	-0.211	-0.348
-511.814	30.124	0.257	-0.217
-510.799	9.123	0.396	-0.297
-509.785	-200.000	-0.042	-0.279
-508.770	301.634	-0.026	0.048
-507.756	-89.966	0.278	-0.081
-506.741	103.377	0.082	-0.096
-505.726	53.906	0.206	-0.196
-504.712	-109.835	-0.179	-0.037
-503.697	52.080	-0.126	-0.119
-502.683	-55.872	-0.164	0.073
-501.668	-71.143	-0.090	-0.034
-500.653	-122.413	-0.108	-0.017
-499.639	800.000	-0.112	0.317
-498.624	74.493	-0.207	0.216
-497.610	321.546	-0.088	-0.166
-496.595	800.000	0.048	-0.196
-495.581	-161.740	0.167	0.008
-494.566	-58.750	0.302	-0.130
-493.551	335.970	-0.167	0.321
-492.537	-54.558	-0.073	-0.033
-491.522	176.637	-0.218	-0.314
-490.508	-200.000	0.015	-0.441
-489.493	-77.150	-0.361	0.125
-488.478	218.631	-0.094	-0.148
-487.464	-84.083	-0.295	-0.093
-486.449	243.424	-0.159	0.265
-485.435	-70.565	-0.275	-0.103
-484.420	-85.667	-0.151	-0.046
-483.405	32.028	0.132	-0.112
-482.391	-15.525	-0.274	-0.173
-481.376	-50.591	0.440	0.205
-480.362	59.813	0.110	0.107
-479.347	-11.290	0.044	0.029
-478.332	57.945	-0.221	0.214
-477.318	800.000	-0.117	0.375
-476.303	102.255	-0.166	-0.192
-475.289	25.814	0.214	-0.177
-474.274	2.174	0.309	0.221
-473.259	-108.138	-0.225	0.048
-472.245	-110.404	-0.272	-0.056
-471.230	-127.086	-0.225	-0.033
-470.216	133.832	-0.081	-0.104
-469.201	52.063	0.287	0.270
-468.186	-191.418	-0.421	0.004
-467.172	-33.814	0.101	0.055
-466.157	690.770	0.061	0.159
-465.143	-138.279	0.036	0.004
-464.128	62.256	-0.163	0.161
-463.113	47.532	0.272	-0.251
-462.099	-23.800	-0.229	-0.136
-461.084	-12.179	-0.088	-0.057
-460.070	-19.354	0.406	0.249
-459.055	800.000	0.071	-0.293
-458.040	108.536	-0.356	-0.421
-457.026	-159.547	0.154	-0.008
-456.011	-200.000	-0.046	-0.379
-454.997	362.924	-0.141	0.281
-453.982	-130.963	0.271	0.036
-452.968	800.000	-0.150	0.459
-451.953	800.000	-0.061	0.217
-450.938	-200.000	-0.006	0.172
-449.924	800.000	0.011	-0.032
-448.909	-93.462	-0.381	-0.104
-447.895	314.629	0.040	0.074
-446.880	-142.312	-0.243	-0.024
-445.865	-200.000	-0.041	0.204
-444.851	771.551	-0.025	0.068
-443.836	358.368	-0.121	-0.239
-442.822	800.000	0.103	-0.316
-441.807	89.075	0.212	-0.234
-440.792	-15.642	-0.099	-0.063
-439.778	-72.679	-0.195	0.071
-438.763	-200.000	0.015	0.071
-437.749	-200.000	-0.011	-0.210
-436.734	113.317	-0.043	0.051
-435.719	800.000	-0.109	-0.328
-434.705	299.423	-0.074	0.135
-433.690	-103.314	0.164	0.038
-432.676	159.999	-0.033	0.045
-431.661	-98.673	0.095	-0.024
-430.646	-122.657	0.241	-0.039
-429.632	39.500	-0.256	-0.227
-428.617	-36.387	0.287	0.153
-427.603	-58.577	-0.162	0.070
-426.588	39.027	0.050	0.044
-425.573	-55.384	0.206	-0.091
-424.559	800.000	-0.070	-0.281
-423.544	124.892	0.188	0.234
-422.530	-135.166	0.134	-0.016
-421.515	-200.000	0.043	0.280
-420.500	56.104	-0.334	-0.320
-419.486	-12.020	0.187	-0.121
-418.471	-200.000	0.005	-0.035
-417.457	-22.580	-0.240	0.143
-416.442	-200.000	-0.022	0.289
-415.428	115.334	-0.246	0.297
-414.413	-75.169	-0.052	0.018
-413.398	800.000	0.054	-0.163
-412.384	-43.579	0.225	0.112
-411.369	7.780	0.285	0.211
-410.355	9.876	-0.317	0.238
-409.340	95.139	0.273	0.307
-408.325	800.000	0.079	0.264
-407.311	-1.741	-0.089	-0.062
-406.296	-56.206	0.185	-0.081
-405.282	-79.313	-0.246	-0.082
-404.267	-200.000	-0.043	-0.197
-403.252	-174.536	0.128	0.004
-402.238	-200.000	0.017	0.145
-401.223	800.000	0.062	-0.205
-400.209	139.520	-0.114	-0.148
-399.194	68.555	0.150	-0.151
-398.179	-45.182	-0.183	0.090
-397.165	83.054	-0.065	-0.070
-396.150	729.651	0.141	-0.373
-395.136	-100.404	0.232	-0.057
-394.121	-200.000	-0.004	-0.021
-393.106	-50.824	0.169	-0.079
-392.092	276.682	-0.207	-0.364
-391.077	51.000	-0.142	0.132
-390.063	-56.778	-0.235	0.102
-389.048	156.299	-0.172	0.234
-388.033	19.222	0.276	-0.218
-387.019	-101.954	0.223	-0.053
-386.004	724.636	0.100	0.264
-384.990	237.371	-0.205	0.334
-383.975	-83.216	0.192	0.061
-382.960	-200.000	0.079	0.356
-381.946	-77.626	-0.090	-0.031
-380.931	111.696	0.026	-0.031
-379.917	800.000	0.061	0.259
-378.902	43.602	0.081	-0.073
-377.888	5.435	0.106	-0.077
-376.873	-200.000	0.006	0.167
-375.858	97.968	0.276	-0.314
-374.844	-8.946	-0.166	-0.110
-373.829	800.000	0.133	0.367
-372.815	269.404	-0.020	0.035
-371.800	-200.000	-0.020	0.111
-370.785	544.641	-0.157	-0.370
-369.771	-200.000	-0.028	-0.259
-368.756	-128.639	0.115	0.016
-367.742	214.871	-0.056	0.087
-366.727	14.854	0.231	0.178
-365.712	-59.349	-0.139	0.059
-364.698	-173.924	-0.140	0.004
-363.683	-158.214	0.224	0.013
-362.669	-4.417	-0.115	-0.079
-361.654	48.206	0.104	-0.096
-360.639	800.000	-0.101	0.284
-359.625	-182.977	0.100	0.002
-358.610	800.000	-0.028	0.079
-357.596	122.736	0.145	0.179
-356.581	93.067	0.222	-0.247
-355.566	-65.956	0.199	-0.078
-354.552	168.915	0.057	0.079
-353.537	-129.516	0.175	-0.024
-352.523	153.414	-0.287	0.387
-351.508	-65.102	-0.096	-0.038
-350.493	800.000	-0.044	0.148
-349.479	-64.922	-0.177	-0.070
-348.464	100.158	0.237	0.270
-347.450	474.760	-0.059	-0.131
-346.435	-135.388	-0.324	-0.038
-345.420	145.664	0.095	0.125
-344.406	-11.095	-0.259	0.168
-343.391	329.340	0.047	-0.089
-342.377	-41.564	0.140	-0.071
-341.362	399.553	0.149	0.308
-340.348	-95.842	0.163	-0.043
-339.333	-43.979	-0.005	0.003
-338.318	-200.000	0.000	0.131
-337.304	-200.000	-0.002	0.274
-336.289	0.531	-0.269	-0.189
-335.275	-200.000	-0.009	-0.165
-334.260	-6.525	0.135	-0.091
-333.245	30.093	-0.163	-0.137
-332.231	79.134	0.207	-0.219
-331.216	-189.449	0.335	0.004
-330.202	800.000	0.064	-0.187
-329.187	-200.000	-0.054	0.347
-328.172	-10.847	-0.286	0.186
-327.158	57.651	-0.068	0.066
-326.143	695.699	0.071	-0.184
-325.129	-17.588	0.356	0.220
-324.114	-24.240	0.304	0.179
-323.099	511.306	0.089	0.203
-322.085	57.630	-0.135	-0.130
-321.070	-200.000	0.059	0.319
-320.056	-200.000	-0.019	0.131
-319.041	-200.000	0.039	-0.226
-318.026	51.927	-0.265	-0.248
-317.012	-200.000	0.007	0.060
-315.997	130.887	-0.079	0.100
-314.983	473.365	-0.189	0.419
-313.968	-40.073	0.249	-0.128
-312.953	26.317	-0.189	0.155
-311.939	191.190	0.066	0.097
-310.924	-11.195	-0.125	-0.081
-309.910	-200.000	-0.045	0.225
-308.895	-200.000	-0.031	-0.211
-307.880	-200.000	0.010	-0.151
-306.866	-148.079	0.131	0.011
-305.851	242.202	0.144	0.236
-304.837	-22.517	0.193	0.115
-303.822	25.296	-0.316	0.258
-302.807	-200.000	0.002	-0.099
-301.793	-106.723	0.196	0.043
-300.778	-84.233	0.418	-0.130
-299.764	-136.948	0.412	-0.046
-298.749	-84.861	-0.436	-0.135
-297.735	-50.709	-0.442	-0.204
-296.720	-28.164	0.386	-0.220
-295.705	72.541	-0.289	0.297
-294.691	-200.000	-0.038	-0.169
-293.676	-200.000	0.039	-0.224
-292.662	-149.992	0.376	-0.029
-291.647	12.265	-0.198	0.150
-290.632	26.734	0.246	-0.202
-289.618	364.745	-0.218	0.431
-288.603	-101.453	0.136	0.033
-287.589	800.000	-0.038	-0.145
-286.574	32.000	0.049	0.042
-285.559	-200.000	-0.008	0.303
-284.545	73.275	-0.169	-0.174
-283.530	-200.000	0.042	-0.308
-282.516	-200.000	0.016	0.178
-281.501	-21.368	-0.161	-0.097
-280.486	-43.227	0.019	-0.009
-279.472	-200.000	0.010	-0.049
-278.457	141.406	-0.143	0.187
-277.443	-40.048	-0.187	0.096
-276.428	-18.753	-0.137	-0.084
-275.413	800.000	0.083	0.294
-274.399	213.821	0.088	-0.137
-273.384	347.365	0.203	-0.393
-272.370	-42.221	0.188	0.095
-271.355	403.086	-0.048	0.099
-270.340	-129.061	0.253	-0.035
-269.326	-52.760	-0.310	0.141
-268.311	359.127	0.111	-0.218
-267.297	78.755	-0.275	-0.289
-266.282	-120.544	-0.175	-0.029
-265.267	-187.990	0.052	0.001
-264.253	38.528	-0.031	0.027
-263.238	-200.000	-0.048	-0.238
-262.224	190.509	-0.126	0.186
-261.209	502.697	0.151	-0.342
-260.195	-43.861	-0.038	-0.019
-259.180	-106.771	0.062	-0.014
-258.165	639.696	0.032	-0.079
-257.151	77.629	-0.051	-0.053
-256.136	-15.792	0.095	-0.060
-255.122	-200.000	-0.004	-0.205
-254.107	-83.853	0.203	-0.063
-253.092	-200.000	0.018	0.263
-252.078	84.768	-0.047	0.050
-251.063	79.796	0.094	-0.100
-250.049	-200.000	-0.030	0.301
-249.034	11.100	0.249	-0.187
-248.019	-200.000	-0.084	0.377
-247.005	-110.056	0.174	0.036
-245.990	800.000	-0.054	0.231
-244.976	-200.000	-0.019	0.157
-243.961	92.626	-0.074	0.082
-242.946	152.447	0.156	0.210
-241.932	-84.390	0.166	-0.051
-240.917	245.777	0.114	-0.188
-239.903	166.991	0.111	0.155
-238.888	146.062	0.062	0.081
-237.873	-115.335	-0.140	-0.026
-236.859	232.396	-0.188	0.302
-235.844	262.973	0.059	0.100
-234.830	-200.000	-0.015	0.183
-233.815	-34.495	-0.214	0.115
-232.800	-63.263	0.151	-0.061
-231.786	55.122	-0.242	0.230
-230.771	119.792	0.156	0.189
-229.757	-135.070	0.066	0.008
-228.742	193.090	-0.192	-0.284
-227.727	-162.357	0.393	-0.019
-226.713	107.576	0.238	-0.278
-225.698	-62.495	0.214	-0.087
-224.684	-10.684	0.109	0.071
-223.669	424.800	-0.064	0.135
-222.655	107.928	-0.149	-0.174
-221.640	-200.000	-0.060	0.333
-220.625	-84.106	-0.097	0.030
-219.611	225.469	-0.061	-0.096
-218.596	52.436	0.305	0.285
-217.582	323.220	0.154	-0.289
-216.567	119.776	0.103	0.125
-215.552	-200.000	-0.019	0.119
-214.538	-200.000	-0.001	-0.299
-213.523	-124.806	-0.119	0.018
-212.509	-200.000	0.015	0.128
-211.494	-135.615	0.238	0.028
-210.479	-7.759	-0.142	0.094
-209.465	320.059	0.137	-0.255
-208.450	-123.128	0.142	-0.022
-207.436	-69.382	-0.246	-0.092
-206.421	-4.549	-0.101	-0.068
-205.406	-200.000	-0.007	0.036
-204.392	-200.000	-0.055	-0.237
-203.377	-200.000	0.019	-0.219
-202.363	233.671	-0.038	-0.061
-201.348	800.000	0.099	0.374
-200.333	181.261	0.115	0.166
-199.319	-158.249	0.353	0.020
-198.304	230.224	-0.184	-0.295
-197.290	8.182	0.266	0.195
-196.275	287.566	0.077	-0.137
-195.260	-166.764	-0.253	-0.010
-194.246	-41.405	0.086	0.043
-193.231	233.680	0.037	0.060
-192.217	-117.656	-0.331	0.058
-191.202	358.507	-0.159	0.312
-190.187	-94.130	0.341	0.092
-189.173	-124.531	-0.230	-0.035
-188.158	-92.780	-0.189	0.052
-187.144	800.000	0.068	-0.235
-186.129	94.257	0.298	-0.331
-185.114	-200.000	-0.330	-0.001
-184.100	50.939	0.215	0.199
-183.085	352.037	0.168	-0.325
-182.071	800.000	0.024	0.072
-181.056	-200.000	0.001	0.226
-180.042	800.000	0.053	0.164
-179.027	-138.058	0.259	0.028
-178.012	-200.000	-0.007	0.255
-176.998	-182.037	-0.216	0.004
-175.983	21.998	-0.052	-0.041
-174.969	39.255	0.036	0.031
-173.954	-106.199	-0.401	0.088
-172.939	195.820	0.128	-0.190
-171.925	-200.000	-0.025	0.187
-170.910	-137.703	0.398	0.044
-169.896	147.612	-0.181	0.239
-168.881	800.000	0.116	0.482
-167.866	-102.100	0.221	-0.052
-166.852	-74.031	-0.105	-0.037
-165.837	-131.210	0.140	-0.018
-164.823	800.000	0.021	0.075
-163.808	-49.462	0.295	0.137
-162.793	86.475	-0.081	0.087
-161.779	-72.403	0.415	0.150
-160.764	53.684	-0.139	0.130
-159.750	-28.066	0.117	-0.066
-158.735	43.197	-0.387	-0.346
-157.720	292.652	0.273	-0.487
-156.706	336.628	-0.102	-0.193
-155.691	-59.213	0.393	-0.165
-154.677	-49.281	-0.209	0.098
-153.662	5.748	0.141	0.102
-152.647	156.654	0.086	0.116
-151.633	-150.431	-0.190	0.014
-150.618	800.000	0.091	-0.303
-149.604	-160.585	-0.354	-0.018
-148.589	242.782	-0.192	-0.314
-147.574	-96.175	0.197	-0.051
-146.560	-1.704	0.245	-0.169
-145.545	-59.558	0.178	0.075
-144.531	253.430	0.267	0.445
-143.516	-107.619	-0.066	0.014
-142.502	728.826	0.048	-0.125
-141.487	336.009	0.124	0.235
-140.472	125.078	-0.070	-0.086
-139.458	-41.365	0.224	-0.113
-138.443	1.509	-0.198	-0.139
-137.429	-200.000	-0.009	-0.262
-136.414	-200.000	0.050	0.228
-135.399	-64.270	0.098	0.039
-134.385	589.145	0.086	-0.207
-133.370	-23.824	0.354	0.207
-132.356	247.363	0.160	-0.263
-131.341	127.113	0.139	0.173
-130.326	566.187	0.148	0.350
-129.312	800.000	-0.033	-0.104
-128.297	-26.567	0.256	0.147
-127.283	-58.104	0.156	0.067
-126.268	18.594	0.256	-0.200
-125.253	-118.576	0.079	-0.014
-124.239	-115.668	-0.192	0.035
-123.224	344.163	-0.115	-0.220
-122.210	97.356	0.115	-0.129
-121.195	-160.112	-0.351	0.019
