DTS Sentinel unit serial number:	SN413079Multiplexer serial number:	ORYXHardware model number:	OX4-SRSoftware version number:	ORYX F/W v4.00 Oryx Data Collector v3.7.2.0data status	okinstallation	princeton_trtdifferential loss correction	single-endedforward channel	channel 3reverse channel	N/Adate	2019/09/14time	17:24:35forward acquisition time	60.00reverse acquisition time	0.00gamma	496.2192k internal	0.2296k external	0.2296temperature offset calibration	1.0028default loss term (dB/km)	0.3790temperature slope calibration	1.0000multiplexer offset coefficient	1.0000multiplexer slope coefficient	1.0000fibre end	0.00T internal ref (°C)	37.80T ext. ref 1 (°C)	5.05T ext. ref 2 (°C)	32.45length (m)	temperature (°C)	Stokes	anti-Stokes-747.200	-177.649	-0.062	-0.002
-746.185	93.729	-0.253	0.293
-745.171	159.619	0.094	-0.134
-744.156	800.000	-0.009	0.028
-743.142	-109.223	0.539	0.117
-742.127	-200.000	0.041	0.326
-741.112	-38.314	0.037	-0.020
-740.098	800.000	0.025	-0.072
-739.083	-123.307	0.074	0.012
-738.069	-200.000	0.006	0.345
-737.054	-152.729	-0.246	0.018
-736.039	800.000	0.132	-0.417
-735.025	-89.307	0.266	-0.080
-734.010	-200.000	0.024	-0.447
-732.996	-200.000	-0.056	-0.313
-731.981	-79.816	-0.411	-0.141
-730.966	-200.000	-0.008	0.054
-729.952	226.671	-0.183	-0.303
-728.937	-12.663	-0.138	0.092
-727.923	327.364	0.062	-0.121
-726.908	-107.205	-0.180	0.040
-725.894	-72.832	-0.213	-0.080
-724.879	-52.682	-0.237	-0.112
-723.864	-200.000	0.010	0.112
-722.850	42.958	0.040	0.037
-721.835	325.098	0.029	-0.056
-720.821	-200.000	0.026	0.328
-719.806	-101.730	-0.178	0.044
-718.791	-133.336	-0.160	0.021
-717.777	-200.000	-0.001	-0.481
-716.762	543.012	-0.085	-0.208
-715.748	-200.000	0.037	-0.453
-714.733	800.000	-0.044	0.137
-713.718	125.821	0.166	0.214
-712.704	363.927	-0.107	-0.219
-711.689	-151.156	-0.258	0.020
-710.675	709.568	-0.132	0.356
-709.660	86.484	-0.243	-0.273
-708.645	-74.729	0.306	0.112
-707.631	-156.525	0.140	0.009
-706.616	800.000	-0.028	0.126
-705.602	383.797	-0.075	-0.159
-704.587	-106.917	-0.253	0.057
-703.572	491.623	0.115	-0.268
-702.558	95.957	-0.095	-0.111
-701.543	-137.319	-0.102	-0.012
-700.529	-53.363	0.315	-0.147
-699.514	-168.281	-0.211	0.008
-698.499	-121.086	0.212	-0.036
-697.485	169.253	-0.133	0.194
-696.470	-54.125	0.066	-0.031
-695.456	340.209	0.060	0.120
-694.441	41.902	-0.185	-0.171
-693.426	39.857	-0.146	-0.133
-692.412	-78.151	-0.190	0.067
-691.397	-200.000	-0.000	-0.180
-690.383	124.779	-0.176	0.226
-689.368	578.732	-0.087	-0.217
-688.354	422.098	0.103	-0.225
-687.339	36.873	0.096	0.087
-686.324	26.426	-0.152	-0.130
-685.310	-117.993	-0.249	-0.045
-684.295	-200.000	0.024	0.350
-683.281	-52.446	-0.252	0.119
-682.266	-34.426	-0.149	-0.083
-681.251	800.000	0.110	-0.341
-680.237	218.245	-0.046	0.075
-679.222	-200.000	-0.498	-0.001
-678.208	-200.000	-0.046	0.407
-677.193	-15.993	0.202	-0.131
-676.178	-118.438	0.100	0.018
-675.164	-88.038	0.575	0.176
-674.149	357.919	-0.038	0.078
-673.135	-25.569	0.110	0.066
-672.120	115.308	-0.130	-0.162
-671.105	0.286	0.253	-0.184
-670.091	150.024	0.249	0.344
-669.076	235.665	0.133	-0.224
-668.062	-87.032	0.371	-0.115
-667.047	-34.685	0.118	-0.066
-666.032	-114.155	0.202	0.040
-665.018	-141.290	0.103	0.011
-664.003	-95.574	-0.192	0.052
-662.989	118.544	0.126	0.159
-661.974	-200.000	0.004	0.347
-660.959	51.251	-0.334	-0.323
-659.945	-74.383	-0.199	-0.073
-658.930	800.000	-0.066	0.231
-657.916	522.869	-0.063	-0.150
-656.901	726.135	0.162	-0.441
-655.886	-200.000	-0.037	0.216
-654.872	-147.490	0.383	-0.033
-653.857	800.000	0.039	0.118
-652.843	-153.303	-0.484	-0.034
-651.828	-74.967	0.323	0.118
-650.814	-200.000	0.014	0.070
-649.799	118.911	0.210	-0.265
-648.784	-51.901	0.205	-0.097
-647.770	162.974	0.071	0.101
-646.755	206.727	-0.121	-0.192
-645.741	-200.000	-0.010	-0.187
-644.726	-128.122	0.076	-0.011
-643.711	39.068	-0.104	0.095
-642.697	-200.000	-0.039	-0.293
-641.682	11.705	-0.344	0.269
-640.668	-23.273	0.126	0.077
-639.653	-200.000	0.033	0.254
-638.638	-151.517	-0.017	-0.001
-637.624	175.125	0.082	0.121
-636.609	-200.000	0.006	0.046
-635.595	407.644	0.026	-0.056
-634.580	332.260	0.104	0.204
-633.565	36.674	-0.097	0.087
-632.551	-200.000	-0.009	-0.261
-631.536	-200.000	-0.024	-0.429
-630.522	-96.174	-0.222	-0.060
-629.507	-99.523	0.233	0.060
-628.492	243.514	0.197	0.335
-627.478	-154.294	0.429	-0.029
-626.463	-70.701	0.329	-0.126
-625.449	-200.000	0.029	-0.413
-624.434	749.873	-0.047	-0.130
-623.419	800.000	-0.044	0.163
-622.405	800.000	-0.122	0.356
-621.390	7.501	-0.277	-0.211
-620.376	-126.621	-0.435	-0.066
-619.361	218.297	-0.117	0.190
-618.346	-8.386	0.243	0.166
-617.332	85.492	0.166	0.185
-616.317	-67.677	0.232	-0.093
-615.303	187.666	0.120	-0.183
-614.288	-137.689	-0.121	0.014
-613.273	-108.462	-0.308	0.067
-612.259	41.373	0.129	-0.119
-611.244	82.716	0.070	0.078
-610.230	-35.003	-0.188	-0.104
-609.215	-45.741	-0.193	0.097
-608.201	12.994	-0.114	0.090
-607.186	-54.129	0.157	-0.073
-606.171	800.000	-0.041	0.147
-605.157	143.240	0.057	-0.077
-604.142	-52.370	0.070	0.033
-603.128	397.134	0.072	-0.153
-602.113	-19.151	-0.411	-0.259
-601.098	56.127	0.071	0.070
-600.084	-200.000	0.033	0.174
-599.069	514.031	-0.102	-0.241
-598.055	-200.000	-0.011	-0.225
-597.040	-48.382	-0.444	-0.217
-596.025	131.023	-0.167	-0.218
-595.011	135.833	0.197	0.261
-593.996	24.693	0.076	0.064
-592.982	54.459	0.135	0.132
-591.967	142.167	0.098	-0.133
-590.952	17.677	-0.046	0.037
-589.938	-72.802	-0.129	0.048
-588.923	29.903	0.056	0.048
-587.909	-159.583	0.073	-0.004
-586.894	800.000	-0.018	0.069
-585.879	-198.677	-0.264	0.001
-584.865	687.533	-0.090	-0.240
-583.850	800.000	-0.084	0.260
-582.836	800.000	0.030	0.121
-581.821	-121.956	-0.090	-0.015
-580.806	-166.190	-0.146	-0.006
-579.792	800.000	-0.099	0.343
-578.777	-114.129	-0.437	-0.086
-577.763	-200.000	-0.024	0.314
-576.748	-81.676	-0.507	-0.169
-575.733	224.835	-0.066	-0.108
-574.719	48.362	0.160	-0.152
-573.704	-89.337	0.067	-0.020
-572.690	292.239	-0.100	-0.184
-571.675	-87.559	-0.133	0.041
-570.661	-161.119	0.309	-0.016
-569.646	-200.000	-0.015	0.234
-568.631	-200.000	-0.002	-0.150
-567.617	-102.032	0.361	0.088
-566.602	158.005	0.220	0.309
-565.588	172.341	-0.147	-0.214
-564.573	-62.320	0.145	0.061
-563.558	-70.418	-0.258	-0.099
-562.544	800.000	0.082	-0.325
-561.529	746.129	0.082	-0.223
-560.515	-141.641	-0.133	0.014
-559.500	248.139	0.112	-0.192
-558.485	-92.925	-0.157	0.044
-557.471	800.000	0.046	0.135
-556.456	-60.528	0.417	-0.180
-555.442	-158.806	-0.251	0.015
-554.427	-200.000	-0.013	-0.137
-553.412	89.737	-0.103	0.117
-552.398	-52.915	0.197	0.092
-551.383	-200.000	0.102	0.471
-550.369	502.662	0.063	0.147
-549.354	6.333	-0.248	-0.186
-548.339	-49.052	0.143	-0.069
-547.325	142.853	0.223	-0.300
-546.310	-151.751	-0.294	0.022
-545.296	580.456	0.016	0.039
-544.281	-36.225	0.152	-0.083
-543.266	-72.606	-0.259	-0.097
-542.252	458.026	-0.142	0.320
-541.237	-66.437	-0.148	-0.060
-540.223	428.381	0.124	-0.271
-539.208	-45.000	0.211	0.107
-538.193	-200.000	-0.028	0.152
-537.179	9.023	0.299	-0.229
-536.164	-111.572	0.074	-0.015
-535.150	-85.544	-0.284	0.090
-534.135	261.494	-0.104	0.182
-533.121	-95.996	-0.463	-0.125
-532.106	-120.979	0.261	-0.044
-531.091	-20.802	0.211	0.131
-530.077	-200.000	0.012	-0.151
-529.062	-148.546	0.212	0.018
-528.048	16.338	0.186	0.149
-527.033	800.000	-0.031	-0.126
-526.018	-98.098	-0.129	0.034
-525.004	417.213	0.252	-0.545
-523.989	493.854	0.020	0.046
-522.975	-200.000	-0.033	0.496
-521.960	125.107	0.223	0.285
-520.945	-12.088	-0.198	0.131
-519.931	114.437	0.253	-0.312
-518.916	-200.000	-0.016	-0.137
-517.902	-18.587	-0.044	0.028
-516.887	-45.068	-0.219	0.110
-515.872	293.526	0.083	0.153
-514.858	-107.910	-0.199	-0.044
-513.843	-65.808	0.377	-0.153
-512.829	-136.019	-0.080	-0.009
-511.814	-109.721	0.373	-0.080
-510.799	-199.022	0.111	0.001
-509.785	489.626	-0.076	0.176
-508.770	-89.485	0.189	-0.056
-507.756	56.953	-0.073	-0.072
-506.741	263.680	0.212	0.373
-505.726	501.618	0.064	-0.149
-504.712	51.007	0.133	-0.128
-503.697	-91.715	0.241	0.069
-502.683	87.556	0.021	-0.023
-501.668	-131.453	0.152	0.020
-500.653	-57.633	0.062	-0.028
-499.639	-55.455	-0.038	0.017
-498.624	-200.000	-0.000	-0.064
-497.610	-108.695	-0.240	0.052
-496.595	-200.000	-0.034	-0.292
-495.581	72.612	0.108	-0.114
-494.566	-95.374	-0.052	-0.014
-493.551	-151.078	-0.124	0.009
-492.537	95.708	0.140	-0.161
-491.522	-134.550	0.092	0.011
-490.508	-200.000	0.015	0.232
-489.493	-10.872	-0.203	0.135
-488.478	-76.850	-0.196	0.069
-487.464	201.959	0.238	0.372
-486.449	28.435	0.128	0.109
-485.435	133.734	-0.209	-0.274
-484.420	83.640	0.171	0.189
-483.405	205.493	0.083	0.130
-482.391	226.850	-0.317	-0.520
-481.376	42.846	0.054	0.050
-480.362	-143.327	-0.324	0.031
-479.347	800.000	-0.081	-0.274
-478.332	-18.969	-0.123	0.077
-477.318	2.936	0.080	-0.058
-476.303	800.000	0.060	-0.264
-475.289	105.373	0.121	0.145
-474.274	162.738	0.105	-0.149
-473.259	-200.000	0.010	0.362
-472.245	-103.101	-0.162	-0.039
-471.230	109.698	-0.073	-0.089
-470.216	69.259	0.267	-0.278
-469.201	-69.710	0.094	0.036
-468.186	26.492	-0.212	0.179
-467.172	-35.098	-0.248	-0.136
-466.157	-200.000	-0.115	0.553
-465.143	-200.000	0.006	0.088
-464.128	-16.829	-0.170	0.109
-463.113	117.200	-0.352	0.437
-462.099	-200.000	-0.047	0.217
-461.084	556.910	-0.038	0.094
-460.070	-200.000	0.036	-0.288
-459.055	-200.000	0.009	0.047
-458.040	69.270	-0.098	-0.102
-457.026	139.322	-0.321	-0.427
-456.011	-70.815	0.097	-0.037
-454.997	-200.000	-0.008	-0.121
-453.982	-29.560	-0.179	0.103
-452.968	-65.417	-0.253	0.103
-451.953	659.490	0.055	-0.143
-450.938	-135.834	0.088	-0.010
-449.924	-151.939	-0.177	-0.013
-448.909	-200.000	-0.003	-0.050
-447.895	-200.000	0.035	0.282
-446.880	-50.742	0.118	-0.056
-445.865	-126.446	-0.325	-0.049
-444.851	126.115	-0.073	0.093
-443.836	31.052	0.303	-0.263
-442.822	-48.009	-0.157	0.076
-441.807	163.108	-0.108	-0.154
-440.792	112.641	0.109	0.133
-439.778	30.799	-0.159	-0.137
-438.763	-200.000	0.023	0.169
-437.749	-30.979	-0.266	-0.151
-436.734	-80.959	-0.130	-0.044
-435.719	157.367	0.071	0.100
-434.705	-117.011	-0.300	-0.055
-433.690	-105.437	-0.143	-0.033
-432.676	-200.000	0.005	-0.136
-431.661	-200.000	0.084	0.444
-430.646	-7.245	-0.230	0.158
-429.632	-200.000	-0.018	-0.131
-428.617	5.019	-0.074	-0.055
-427.603	-183.505	-0.263	-0.005
-426.588	774.732	0.140	-0.386
-425.573	49.845	0.050	-0.047
-424.559	-162.198	-0.327	-0.017
-423.544	63.484	-0.202	-0.205
-422.530	1.370	-0.281	-0.204
-421.515	128.752	0.052	-0.067
-420.500	58.088	0.273	0.269
-419.486	-86.917	0.166	0.051
-418.471	-114.188	0.128	0.025
-417.457	539.833	-0.060	-0.143
-416.442	63.530	0.126	0.128
-415.428	-102.800	0.282	-0.068
-414.413	-200.000	-0.028	0.249
-413.398	-71.510	-0.086	-0.033
-412.384	537.245	0.047	0.113
-411.369	460.646	-0.089	-0.200
-410.355	-200.000	0.030	0.428
-409.340	219.160	-0.026	-0.043
-408.325	-22.117	-0.238	0.146
-407.311	800.000	0.085	-0.358
-406.296	22.710	0.087	0.072
-405.282	33.529	-0.050	-0.044
-404.267	-26.037	-0.185	-0.110
-403.252	367.026	0.185	-0.376
-402.238	216.845	0.073	-0.117
-401.223	71.527	0.180	0.188
-400.209	-73.589	-0.138	-0.051
-399.194	3.484	0.080	-0.058
-398.179	-7.694	-0.088	0.060
-397.165	137.842	-0.193	-0.255
-396.150	63.626	-0.055	-0.056
-395.136	-101.233	-0.349	0.086
-394.121	138.387	0.101	-0.133
-393.106	-200.000	0.011	0.101
-392.092	-128.676	0.243	0.035
-391.077	521.813	-0.089	0.211
-390.063	456.279	0.104	0.232
-389.048	-21.037	0.074	0.046
-388.033	278.582	0.130	-0.234
-387.019	-134.516	-0.121	0.015
-386.004	-167.406	0.068	0.003
-384.990	-200.000	-0.017	0.353
-383.975	-40.400	0.075	-0.039
-382.960	-176.821	0.146	0.004
-381.946	-200.000	0.028	0.146
-380.931	101.319	0.253	0.296
-379.917	120.825	0.103	-0.129
-378.902	-200.000	0.022	-0.537
-377.888	-200.000	0.016	0.071
-376.873	-40.927	0.068	0.035
-375.858	-91.013	0.143	0.041
-374.844	374.594	0.043	0.088
-373.829	-162.617	0.145	0.007
-372.815	301.273	-0.201	-0.374
-371.800	262.728	-0.110	0.192
-370.785	315.378	-0.123	0.233
-369.771	-106.878	-0.432	-0.096
-368.756	378.578	0.168	-0.347
-367.742	-27.240	0.308	-0.180
-366.727	-81.841	-0.361	0.119
-365.712	-131.937	0.166	0.022
-364.698	-117.718	0.132	-0.024
-363.683	-200.000	-0.005	-0.134
-362.669	-7.523	-0.215	-0.147
-361.654	-21.234	0.278	0.171
-360.639	800.000	0.024	-0.084
-359.625	117.427	-0.139	0.173
-358.610	-8.411	-0.179	0.121
-357.596	145.992	0.238	0.322
-356.581	-48.352	-0.139	-0.067
-355.566	-55.024	-0.200	0.091
-354.552	-200.000	-0.047	-0.213
-353.537	122.784	0.163	-0.206
-352.523	21.572	-0.146	-0.119
-351.508	63.441	-0.089	0.090
-350.493	-124.654	0.087	0.014
-349.479	-46.350	-0.175	-0.087
-348.464	-160.809	0.190	0.010
-347.450	-174.456	-0.064	-0.002
-346.435	-200.000	-0.041	0.221
-345.420	118.413	0.220	0.273
-344.406	800.000	-0.051	0.219
-343.391	-96.045	-0.382	0.102
-342.377	-200.000	0.020	-0.173
-341.362	-200.000	0.024	0.000
-340.348	228.000	0.150	0.246
-339.333	800.000	-0.037	-0.128
-338.318	93.003	-0.123	0.140
-337.304	588.189	0.110	-0.274
-336.289	-200.000	0.027	0.451
-335.275	800.000	-0.085	0.271
-334.260	-45.725	-0.248	0.123
-333.245	800.000	0.080	0.257
-332.231	53.602	0.245	0.236
-331.216	-200.000	-0.028	0.136
-330.202	-69.437	0.071	0.027
-329.187	-97.282	0.202	0.053
-328.172	570.559	0.031	0.075
-327.158	10.485	0.186	0.142
-326.143	-200.000	-0.079	-0.411
-325.129	33.156	-0.095	-0.083
-324.114	-94.537	0.241	0.066
-323.099	-53.443	0.205	0.094
-322.085	-38.706	0.147	0.078
-321.070	211.277	-0.175	-0.276
-320.056	18.600	-0.039	-0.031
-319.041	-200.000	0.020	-0.097
-318.026	194.093	-0.108	0.164
-317.012	-200.000	-0.003	-0.114
-315.997	-80.478	0.088	0.030
-314.983	46.930	-0.107	0.100
-313.968	-27.229	0.062	-0.036
-312.953	507.085	0.011	0.027
-311.939	-46.249	0.075	0.037
-310.924	-60.383	-0.061	0.026
-309.910	403.084	-0.080	-0.169
-308.895	131.614	-0.249	-0.322
-307.880	-85.387	0.132	0.041
-306.866	517.822	0.183	-0.430
-305.851	46.817	-0.125	-0.116
-304.837	636.356	-0.085	0.216
-303.822	800.000	-0.036	0.155
-302.807	800.000	-0.100	0.433
-301.793	369.308	-0.069	-0.140
-300.778	800.000	0.015	0.053
-299.764	800.000	-0.024	0.086
-298.749	177.884	0.049	-0.071
-297.735	-137.350	0.314	-0.036
-296.720	156.193	-0.197	-0.273
-295.705	-110.153	-0.263	-0.055
-294.691	59.723	-0.245	0.243
-293.676	-200.000	0.004	-0.174
-292.662	800.000	-0.046	0.196
-291.647	-200.000	0.037	0.234
-290.632	424.018	-0.054	0.117
-289.618	-72.134	-0.341	0.127
-288.603	-200.000	-0.007	0.063
-287.589	220.036	0.233	0.374
-286.574	133.610	-0.171	0.222
-285.559	146.965	0.088	-0.119
-284.545	-134.725	0.285	0.035
-283.530	-78.759	0.219	0.075
-282.516	800.000	0.050	0.149
-281.501	800.000	0.016	0.070
-280.486	-77.798	0.182	-0.063
-279.472	-126.493	-0.208	0.031
-278.457	-72.079	-0.315	0.118
-277.443	701.357	-0.028	0.073
-276.428	510.056	-0.044	-0.103
-275.413	209.485	-0.167	-0.263
-274.399	345.858	-0.129	-0.254
-273.384	234.312	0.117	-0.194
-272.370	76.959	-0.231	-0.246
-271.355	-143.685	0.193	-0.018
-270.340	-89.695	0.382	0.112
-269.326	-21.325	0.425	0.260
-268.311	-200.000	0.039	0.204
-267.297	128.762	-0.189	0.241
-266.282	-50.600	0.182	-0.086
-265.267	741.906	0.163	0.439
-264.253	-200.000	-0.022	-0.214
-263.238	-14.786	0.196	0.126
-262.224	63.951	-0.322	0.324
-261.209	174.219	0.074	-0.107
-260.195	-33.956	-0.241	0.133
-259.180	-45.878	0.218	0.108
-258.165	-135.380	0.014	-0.002
-257.151	-137.077	0.460	0.053
-256.136	-100.087	-0.206	0.052
-255.122	107.291	0.022	0.027
-254.107	712.096	-0.058	0.155
-253.092	11.545	0.116	-0.089
-252.078	-102.813	-0.062	-0.015
-251.063	16.334	-0.136	-0.107
-250.049	-200.000	0.017	-0.127
-249.034	-200.000	0.024	-0.112
-248.019	336.140	0.064	-0.124
-247.005	491.653	0.038	-0.086
-245.990	48.041	-0.130	-0.122
-244.976	403.737	0.131	-0.277
-243.961	429.073	-0.210	0.455
-242.946	-167.651	0.179	0.007
-241.932	3.907	-0.328	-0.240
-240.917	-33.376	-0.091	0.050
-239.903	199.541	0.196	-0.302
-238.888	7.874	-0.167	-0.126
-237.873	800.000	0.109	-0.347
-236.859	-21.587	-0.070	0.043
-235.844	-200.000	0.014	-0.072
-234.830	-81.224	-0.157	-0.052
-233.815	34.504	-0.277	0.243
-232.800	-22.890	0.206	0.124
-231.786	-117.411	0.290	-0.053
-230.771	41.554	0.092	0.084
-229.757	290.183	-0.089	0.162
-228.742	180.805	0.096	0.142
-227.727	-114.365	-0.094	-0.018
-226.713	121.295	-0.146	-0.182
-225.698	611.240	-0.203	-0.508
-224.684	415.307	-0.116	0.247
-223.669	35.917	-0.228	-0.201
-222.655	-200.000	0.031	-0.146
-221.640	-86.289	-0.207	0.064
-220.625	184.315	0.209	0.310
-219.611	-68.469	0.051	-0.020
-218.596	-179.819	-0.228	0.005
-217.582	104.803	-0.112	0.132
-216.567	800.000	0.116	0.416
-215.552	-1.841	0.248	0.175
-214.538	8.476	0.052	-0.039
-213.523	724.328	-0.080	-0.213
-212.509	-113.683	0.340	0.066
-211.494	-131.963	0.341	-0.045
-210.479	159.667	0.164	-0.228
-209.465	-37.255	0.288	0.154
-208.450	282.419	0.093	-0.168
-207.436	373.413	-0.083	-0.168
-206.421	800.000	-0.052	-0.187
-205.406	-134.577	-0.349	-0.043
-204.392	-119.308	0.237	-0.041
-203.377	-200.000	0.005	-0.080
-202.363	-153.853	-0.182	0.012
-201.348	110.464	-0.096	-0.115
-200.333	214.107	0.055	-0.087
-199.319	47.407	0.134	0.125
-198.304	-3.247	0.131	-0.091
-197.290	283.123	0.100	0.180
-196.275	-200.000	-0.049	-0.410
-195.260	-75.974	0.150	-0.053
-194.246	-99.134	0.185	0.047
-193.231	-200.000	-0.004	0.261
-192.217	106.638	-0.303	-0.359
-191.202	-31.225	0.347	-0.196
-190.187	13.748	-0.244	-0.190
-189.173	4.714	-0.142	0.104
-188.158	-200.000	-0.002	0.205
-187.144	-71.939	-0.201	0.075
-186.129	-99.194	0.141	-0.036
-185.114	352.034	0.197	-0.390
-184.100	-75.576	-0.189	0.067
-183.085	32.931	0.093	0.081
-182.071	-200.000	-0.002	0.114
-181.056	-65.435	0.186	-0.075
-180.042	-31.200	0.285	0.160
-179.027	507.407	-0.224	0.519
-178.012	800.000	-0.160	0.463
-176.998	-200.000	-0.055	-0.290
-175.983	-39.295	-0.036	-0.019
-174.969	-25.139	0.275	-0.163
-173.954	-137.191	0.206	-0.023
-172.939	335.556	0.144	-0.280
-171.925	-73.964	0.346	0.125
-170.910	70.084	0.145	0.149
-169.896	-41.608	-0.440	-0.226
-168.881	565.779	0.153	-0.370
-167.866	-167.393	0.396	0.016
-166.852	-160.353	0.214	0.012
-165.837	-112.654	-0.135	-0.027
-164.823	235.426	0.184	-0.304
-163.808	370.890	0.063	0.128
-162.793	237.413	0.051	-0.085
-161.779	800.000	0.050	0.163
-160.764	-200.000	-0.021	-0.134
-159.750	-106.289	-0.165	0.037
-158.735	-28.817	-0.116	-0.066
-157.720	-24.087	0.270	0.161
-156.706	-0.732	-0.356	0.252
-155.691	-104.451	0.120	0.028
-154.677	-200.000	0.005	-0.285
-153.662	-200.000	-0.018	-0.112
-152.647	-13.555	0.208	0.134
-151.633	2.932	0.166	0.120
-150.618	-168.889	0.235	-0.009
-149.604	800.000	-0.036	-0.123
-148.589	356.707	0.109	-0.217
-147.574	-137.086	0.225	0.026
-146.560	-200.000	-0.018	0.139
-145.545	139.040	-0.138	-0.181
-144.531	157.563	0.122	0.168
-143.516	-200.000	0.015	-0.184
-142.502	68.874	0.103	-0.106
-141.487	42.082	0.032	-0.029
-140.472	493.466	-0.091	-0.207
-139.458	-200.000	0.029	-0.238
-138.443	245.176	0.139	0.234
-137.429	508.398	0.145	0.336
-136.414	169.585	-0.102	-0.146
-135.399	-29.572	-0.073	0.042
-134.385	49.937	-0.110	-0.103
-133.370	122.991	0.087	-0.109
-132.356	22.281	0.203	-0.166
-131.341	660.479	0.042	-0.108
-130.326	89.798	-0.258	0.287
-129.312	-200.000	0.061	0.357
-128.297	417.181	-0.072	0.153
-127.283	-59.873	0.349	0.149
-126.268	-7.691	-0.188	0.126
-125.253	13.130	-0.092	0.071
-124.239	103.800	-0.080	-0.094
-123.224	-11.369	0.178	-0.117
-122.210	300.370	-0.205	0.378
-121.195	-139.544	-0.251	0.027
