DTS Sentinel unit serial number:	SN413079Multiplexer serial number:	ORYXHardware model number:	OX4-SRSoftware version number:	ORYX F/W v4.00 Oryx Data Collector v3.7.2.0data status	okinstallation	princeton_trtdifferential loss correction	single-endedforward channel	channel 3reverse channel	N/Adate	2019/09/14time	19:08:34forward acquisition time	60.00reverse acquisition time	0.00gamma	496.2192k internal	0.2309k external	0.2309temperature offset calibration	1.0010default loss term (dB/km)	0.3790temperature slope calibration	1.0000multiplexer offset coefficient	1.0000multiplexer slope coefficient	1.0000fibre end	0.00T internal ref (°C)	35.39T ext. ref 1 (°C)	4.87T ext. ref 2 (°C)	29.31length (m)	temperature (°C)	Stokes	anti-Stokes-747.200	-14.972	0.268	0.175
-746.185	-200.000	-0.026	0.152
-745.171	1.013	0.324	0.236
-744.156	800.000	-0.173	0.588
-743.142	-180.608	0.252	-0.005
-742.127	-200.000	0.033	0.266
-741.112	32.179	-0.253	-0.222
-740.098	22.145	0.154	0.127
-739.083	-107.836	0.117	0.026
-738.069	800.000	-0.038	0.113
-737.054	-200.000	-0.009	0.113
-736.039	800.000	-0.042	0.167
-735.025	-85.786	0.229	0.072
-734.010	232.839	-0.124	-0.206
-732.996	-71.189	-0.250	0.095
-731.981	286.921	0.099	0.181
-730.966	-88.718	0.133	-0.040
-729.952	-200.000	-0.009	-0.376
-728.937	-26.455	0.040	0.024
-727.923	21.120	-0.091	-0.075
-726.908	55.257	-0.195	-0.191
-725.894	-54.685	-0.323	0.148
-724.879	-4.848	-0.225	-0.157
-723.864	800.000	0.037	-0.129
-722.850	215.449	-0.031	0.050
-721.835	49.625	-0.396	0.379
-720.821	800.000	0.036	-0.137
-719.806	49.766	0.105	0.101
-718.791	108.503	0.090	0.109
-717.777	75.610	-0.132	-0.141
-716.762	-14.460	0.217	-0.142
-715.748	-74.505	-0.302	-0.110
-714.733	-175.390	-0.248	0.007
-713.718	519.622	-0.018	-0.043
-712.704	-121.980	-0.137	0.023
-711.689	-200.000	-0.056	-0.341
-710.675	-200.000	-0.013	-0.208
-709.660	11.935	0.060	-0.047
-708.645	-135.648	-0.182	-0.022
-707.631	153.629	-0.126	0.175
-706.616	-31.825	-0.031	-0.018
-705.602	-92.081	-0.262	0.075
-704.587	800.000	-0.045	-0.139
-703.572	800.000	0.075	-0.319
-702.558	71.186	-0.260	0.274
-701.543	93.781	-0.060	0.069
-700.529	92.061	-0.422	-0.482
-699.514	-45.616	-0.052	-0.026
-698.499	334.699	-0.151	-0.297
-697.485	-200.000	0.066	-0.348
-696.470	64.919	-0.180	-0.185
-695.456	-67.549	-0.415	0.165
-694.441	-105.402	-0.254	-0.059
-693.426	-20.500	0.225	0.140
-692.412	425.725	0.091	-0.198
-691.397	107.815	0.069	0.083
-690.383	66.869	-0.147	0.151
-689.368	-80.247	0.106	-0.036
-688.354	206.196	0.034	-0.053
-687.339	-58.606	0.236	0.104
-686.324	63.181	0.141	-0.143
-685.310	-183.078	0.326	-0.006
-684.295	-105.469	-0.508	0.117
-683.281	258.968	0.125	-0.219
-682.266	800.000	0.093	-0.358
-681.251	-78.125	0.148	0.052
-680.237	-104.652	-0.100	-0.023
-679.222	584.778	0.085	0.212
-678.208	-61.828	0.286	0.122
-677.193	492.710	0.196	-0.455
-676.178	450.472	0.205	-0.458
-675.164	597.206	0.099	-0.250
-674.149	-75.907	-0.181	0.065
-673.135	120.902	0.095	-0.120
-672.120	-200.000	0.004	0.059
-671.105	70.501	-0.027	-0.029
-670.091	-87.079	-0.305	-0.094
-669.076	-158.390	0.175	-0.010
-668.062	4.937	0.275	-0.205
-667.047	176.154	-0.148	-0.218
-666.032	-39.311	0.297	-0.158
-665.018	483.613	0.175	0.404
-664.003	0.904	0.166	-0.120
-662.989	388.148	-0.171	-0.358
-661.974	-78.928	-0.228	0.079
-660.959	800.000	0.044	-0.182
-659.945	-7.128	-0.154	-0.106
-658.930	800.000	-0.069	0.225
-657.916	-116.752	0.144	-0.027
-656.901	62.336	0.169	-0.171
-655.886	295.696	-0.250	-0.463
-654.872	-77.834	-0.133	-0.047
-653.857	-123.511	-0.191	0.031
-652.843	800.000	-0.102	-0.323
-651.828	-134.459	0.153	0.019
-650.814	-107.656	0.280	0.062
-649.799	230.034	0.158	-0.261
-648.784	-90.563	0.234	-0.068
-647.770	-16.718	0.205	-0.131
-646.755	205.171	0.084	0.132
-645.741	-200.000	-0.011	-0.166
-644.726	-28.656	-0.192	-0.112
-643.711	-106.862	-0.119	-0.027
-642.697	-200.000	-0.073	0.343
-641.682	-129.741	0.105	0.015
-640.668	468.536	-0.188	-0.426
-639.653	12.691	-0.087	-0.068
-638.638	-200.000	-0.103	-0.517
-637.624	800.000	-0.037	-0.149
-636.609	23.325	-0.186	-0.154
-635.595	135.958	0.063	-0.083
-634.580	-75.680	-0.057	-0.021
-633.565	482.673	0.014	0.031
-632.551	231.111	-0.126	-0.209
-631.536	-200.000	-0.018	-0.234
-630.522	-95.778	0.212	-0.057
-629.507	-168.838	0.135	-0.005
-628.492	-65.097	-0.299	0.122
-627.478	-36.169	-0.133	0.073
-626.463	216.866	0.108	0.174
-625.449	-99.852	-0.221	0.056
-624.434	-73.484	-0.094	-0.035
-623.419	-162.676	-0.151	0.007
-622.405	-200.000	-0.007	0.066
-621.390	-90.577	-0.194	-0.057
-620.376	570.954	-0.109	0.267
-619.361	-18.473	-0.183	-0.116
-618.346	800.000	-0.154	-0.538
-617.332	800.000	-0.059	-0.174
-616.317	66.651	-0.370	-0.380
-615.303	271.048	-0.101	-0.180
-614.288	289.862	-0.165	-0.303
-613.273	-107.133	0.110	-0.025
-612.259	-200.000	-0.008	-0.138
-611.244	203.297	0.081	-0.126
-610.230	263.932	0.136	0.239
-609.215	800.000	-0.002	-0.006
-608.201	-112.409	0.080	-0.016
-607.186	-200.000	-0.046	0.236
-606.171	-152.863	-0.457	0.033
-605.157	47.967	0.369	-0.349
-604.142	324.197	0.017	0.032
-603.128	-200.000	-0.052	-0.261
-602.113	18.749	-0.117	-0.095
-601.098	426.237	0.164	-0.357
-600.084	312.051	0.117	0.222
-599.069	86.348	-0.177	-0.197
-598.055	-200.000	0.085	-0.413
-597.040	-83.964	-0.242	-0.078
-596.025	222.885	-0.122	-0.198
-595.011	-200.000	-0.026	-0.262
-593.996	192.248	0.032	0.048
-592.982	180.101	0.177	0.262
-591.967	800.000	0.034	0.105
-590.952	393.574	0.096	0.202
-589.938	-200.000	0.050	-0.243
-588.923	-200.000	0.027	0.133
-587.909	-13.199	-0.126	0.082
-586.894	386.374	0.106	-0.220
-585.879	-73.672	-0.134	0.049
-584.865	-200.000	-0.018	-0.128
-583.850	-97.301	-0.368	0.097
-582.836	-95.803	-0.353	0.095
-581.821	-200.000	-0.017	-0.185
-580.806	379.165	-0.096	0.198
-579.792	800.000	0.107	-0.346
-578.777	-200.000	0.005	-0.046
-577.763	-200.000	-0.003	-0.206
-576.748	-18.192	0.025	-0.016
-575.733	-126.784	0.016	0.002
-574.719	223.166	-0.221	-0.360
-573.704	-146.418	-0.302	0.027
-572.690	-200.000	0.043	0.297
-571.675	800.000	-0.016	-0.046
-570.661	125.650	0.202	-0.258
-569.646	800.000	0.016	-0.058
-568.631	-200.000	-0.017	0.247
-567.617	503.967	-0.123	-0.287
-566.602	-74.900	0.170	-0.062
-565.588	-95.361	-0.228	-0.062
-564.573	-200.000	-0.024	-0.234
-563.558	-200.000	-0.049	0.301
-562.544	-200.000	-0.002	0.134
-561.529	-200.000	0.003	0.269
-560.515	347.391	-0.016	0.033
-559.500	-184.968	-0.099	-0.002
-558.485	77.742	-0.107	0.115
-557.471	-95.960	-0.398	0.107
-556.456	-115.439	0.114	0.022
-555.442	286.434	0.058	0.105
-554.427	176.488	-0.275	-0.402
-553.412	-160.155	-0.180	-0.010
-552.398	358.757	-0.105	0.212
-551.383	800.000	-0.150	0.517
-550.369	-200.000	0.016	-0.133
-549.354	-99.098	0.147	-0.038
-548.339	-61.225	0.160	0.068
-547.325	-78.310	0.144	0.050
-546.310	48.098	-0.225	-0.212
-545.296	-46.439	0.134	-0.066
-544.281	-81.612	-0.491	-0.162
-543.266	-19.392	-0.292	-0.182
-542.252	-200.000	0.006	-0.036
-541.237	-8.199	0.327	0.222
-540.223	-42.294	0.299	0.154
-539.208	379.580	0.139	0.288
-538.193	-193.495	0.538	-0.005
-537.179	-124.406	0.273	-0.043
-536.164	11.253	0.346	0.267
-535.150	407.519	-0.034	0.073
-534.135	800.000	-0.076	-0.285
-533.121	-7.673	0.138	-0.094
-532.106	271.240	-0.121	0.214
-531.091	800.000	-0.084	0.311
-530.077	105.290	-0.220	0.262
-529.062	163.758	-0.114	0.162
-528.048	-25.287	-0.363	0.216
-527.033	800.000	-0.063	0.274
-526.018	-200.000	-0.005	-0.368
-525.004	-153.681	-0.288	0.020
-523.989	-63.138	0.082	0.034
-522.975	17.513	0.124	-0.099
-521.960	-200.000	-0.004	0.180
-520.945	-200.000	0.010	0.093
-519.931	-20.508	0.387	-0.239
-518.916	-73.263	0.306	0.113
-517.902	789.204	-0.147	-0.408
-516.887	114.292	0.200	0.246
-515.872	-144.145	-0.092	-0.009
-514.858	800.000	-0.074	0.226
-513.843	800.000	0.100	0.300
-512.829	81.333	-0.096	-0.104
-511.814	85.066	0.175	-0.194
-510.799	800.000	0.127	-0.507
-509.785	-200.000	-0.048	-0.231
-508.770	-29.990	0.174	-0.100
-507.756	77.411	0.098	-0.105
-506.741	89.962	-0.166	-0.187
-505.726	82.209	0.116	0.127
-504.712	-149.574	-0.156	-0.012
-503.697	-13.477	-0.256	0.167
-502.683	-165.320	0.176	-0.008
-501.668	367.243	0.085	0.174
-500.653	647.174	0.063	0.161
-499.639	-38.143	-0.201	0.107
-498.624	-200.000	0.018	0.103
-497.610	-200.000	0.014	-0.120
-496.595	625.367	-0.070	0.178
-495.581	240.550	-0.132	-0.222
-494.566	347.118	0.038	-0.075
-493.551	-200.000	-0.025	-0.153
-492.537	251.924	-0.092	-0.158
-491.522	-140.048	-0.107	-0.011
-490.508	-64.707	0.133	-0.054
-489.493	38.041	-0.210	0.188
-488.478	-29.360	0.129	0.074
-487.464	-179.825	0.257	0.006
-486.449	800.000	-0.019	0.058
-485.435	55.404	0.294	0.286
-484.420	275.115	0.076	0.136
-483.405	-71.239	0.069	-0.026
-482.391	-138.165	0.128	0.014
-481.376	800.000	0.084	0.232
-480.362	-130.749	-0.016	0.002
-479.347	37.473	0.044	-0.039
-478.332	1.747	0.060	0.043
-477.318	-60.264	0.446	-0.191
-476.303	800.000	-0.101	0.291
-475.289	-111.914	0.148	0.030
-474.274	-200.000	-0.015	0.126
-473.259	-152.132	-0.129	0.009
-472.245	290.099	-0.070	0.127
-471.230	773.011	0.029	0.080
-470.216	-24.152	0.199	-0.119
-469.201	176.272	0.197	-0.288
-468.186	19.938	0.297	0.240
-467.172	-163.006	-0.471	0.023
-466.157	-26.125	0.272	-0.161
-465.143	-145.542	-0.185	-0.017
-464.128	-109.493	-0.259	0.055
-463.113	577.346	0.098	0.240
-462.099	-86.555	-0.197	0.061
-461.084	85.226	0.145	0.159
-460.070	76.667	0.193	-0.205
-459.055	13.219	-0.056	-0.044
-458.040	-136.441	0.189	0.022
-457.026	35.206	-0.150	-0.132
-456.011	345.108	0.054	0.107
-454.997	-200.000	-0.021	0.126
-453.982	-200.000	-0.019	-0.085
-452.968	-200.000	0.020	-0.116
-451.953	136.777	-0.102	-0.133
-450.938	-200.000	0.006	0.342
-449.924	-169.223	0.413	-0.015
-448.909	33.437	0.258	-0.225
-447.895	264.608	0.123	0.215
-446.880	-128.839	-0.263	0.037
-445.865	408.347	0.101	-0.216
-444.851	-25.024	-0.111	-0.066
-443.836	-60.140	0.323	-0.138
-442.822	-14.847	0.311	-0.200
-441.807	-46.239	0.187	0.093
-440.792	800.000	-0.072	0.286
-439.778	-133.593	0.063	0.008
-438.763	-74.064	0.060	0.022
-437.749	800.000	-0.072	0.258
-436.734	199.972	0.159	0.246
-435.719	-47.672	0.217	-0.106
-434.705	202.130	0.209	0.324
-433.690	-200.000	0.017	0.074
-432.676	-48.484	0.120	-0.058
-431.661	-200.000	0.024	0.261
-430.646	-47.062	0.172	0.084
-429.632	524.839	0.128	-0.303
-428.617	94.299	0.187	-0.213
-427.603	-58.252	-0.217	-0.095
-426.588	-200.000	0.318	0.001
-425.573	109.972	0.123	-0.148
-424.559	47.553	0.106	0.099
-423.544	-154.369	-0.208	-0.014
-422.530	-56.588	-0.142	-0.063
-421.515	-41.026	-0.207	-0.107
-420.500	-57.513	0.314	0.138
-419.486	800.000	-0.081	0.297
-418.471	-122.812	0.222	0.036
-417.457	11.238	-0.234	-0.180
-416.442	-81.601	-0.088	-0.029
-415.428	-200.000	0.049	-0.383
-414.413	-126.291	-0.234	0.035
-413.398	-50.479	0.147	-0.070
-412.384	23.835	-0.158	0.131
-411.369	59.588	-0.178	-0.176
-410.355	800.000	0.031	0.133
-409.340	-92.484	0.363	-0.102
-408.325	800.000	0.056	0.179
-407.311	37.599	0.148	-0.131
-406.296	-33.640	-0.108	0.060
-405.282	-134.001	-0.256	0.032
-404.267	-200.000	0.042	0.262
-403.252	126.369	-0.135	0.171
-402.238	-51.112	0.241	-0.113
-401.223	800.000	0.025	-0.075
-400.209	-1.273	0.211	0.149
-399.194	-132.599	0.205	0.026
-398.179	-132.042	-0.385	-0.050
-397.165	-200.000	-0.013	0.168
-396.150	-101.780	-0.154	-0.037
-395.136	3.064	-0.121	0.088
-394.121	109.375	0.196	-0.235
-393.106	-44.511	0.243	-0.122
-392.092	-98.626	0.128	-0.033
-391.077	-26.406	-0.164	0.096
-390.063	67.842	-0.248	0.254
-389.048	-35.444	-0.216	-0.118
-388.033	-127.425	-0.114	0.017
-387.019	258.785	0.052	0.089
-386.004	550.440	0.092	0.220
-384.990	-20.026	0.278	0.172
-383.975	-200.000	-0.003	0.032
-382.960	800.000	-0.042	0.121
-381.946	800.000	-0.029	-0.127
-380.931	646.638	-0.054	-0.139
-379.917	173.267	-0.144	0.208
-378.902	-103.630	0.135	0.032
-377.888	285.888	-0.098	0.176
-376.873	557.332	-0.009	-0.022
-375.858	-69.106	0.268	-0.103
-374.844	-200.000	0.037	-0.215
-373.829	-98.289	-0.184	0.047
-372.815	-200.000	0.014	0.209
-371.800	189.860	0.208	-0.312
-370.785	-200.000	-0.043	0.255
-369.771	-155.939	-0.095	-0.006
-368.756	400.107	0.238	0.499
-367.742	4.566	0.158	0.116
-366.727	110.604	0.200	-0.241
-365.712	313.328	0.069	-0.129
-364.698	-11.743	0.155	-0.102
-363.683	17.072	-0.143	0.113
-362.669	105.925	-0.080	-0.095
-361.654	59.809	-0.061	-0.060
-360.639	82.018	-0.143	0.155
-359.625	-120.137	0.163	0.028
-358.610	337.427	0.092	-0.179
-357.596	-200.000	-0.023	-0.126
-356.581	122.839	0.120	0.150
-355.566	269.795	-0.082	0.144
-354.552	-200.000	-0.013	0.065
-353.537	-79.445	0.297	-0.101
-352.523	-200.000	0.004	-0.036
-351.508	800.000	-0.118	0.368
-350.493	-10.217	-0.197	0.131
-349.479	-97.355	-0.399	-0.104
-348.464	216.570	-0.127	-0.203
-347.450	11.722	0.314	-0.241
-346.435	-162.828	0.299	0.015
-345.420	77.290	-0.179	0.191
-344.406	-200.000	-0.001	-0.315
-343.391	-37.743	-0.362	0.193
-342.377	-200.000	0.024	0.170
-341.362	415.312	0.059	0.126
-340.348	-200.000	-0.037	0.189
-339.333	334.151	0.236	0.457
-338.318	-185.066	0.316	0.005
-337.304	553.482	0.036	0.087
-336.289	185.991	-0.051	-0.076
-335.275	0.905	-0.157	-0.113
-334.260	113.458	0.249	0.302
-333.245	-200.000	-0.032	0.186
-332.231	-200.000	0.029	-0.214
-331.216	63.595	0.083	-0.084
-330.202	120.281	-0.125	-0.155
-329.187	-52.369	-0.086	-0.040
-328.172	-200.000	-0.047	0.294
-327.158	800.000	0.098	-0.284
-326.143	27.364	-0.212	-0.178
-325.129	800.000	-0.043	-0.174
-324.114	800.000	-0.191	0.606
-323.099	194.667	-0.187	0.284
-322.085	298.499	-0.114	0.209
-321.070	-54.277	-0.158	0.072
-320.056	68.963	-0.149	0.153
-319.041	-15.885	0.085	-0.054
-318.026	486.795	-0.045	0.102
-317.012	800.000	0.036	-0.122
-315.997	454.531	0.045	0.100
-314.983	-43.929	0.261	-0.131
-313.968	-145.735	0.490	-0.044
-312.953	288.911	-0.068	0.124
-311.939	62.005	-0.043	-0.043
-310.924	740.211	-0.085	-0.229
-309.910	2.113	-0.185	-0.133
-308.895	-63.778	-0.219	0.090
-307.880	109.340	0.276	0.330
-306.866	253.310	0.105	-0.180
-305.851	20.932	-0.376	-0.304
-304.837	-200.000	-0.008	-0.114
-303.822	149.706	0.048	0.065
-302.807	22.501	0.261	-0.213
-301.793	-97.597	0.247	0.064
-300.778	-136.722	-0.249	-0.029
-299.764	-64.635	0.228	-0.092
-298.749	455.123	0.068	-0.151
-297.735	-134.843	-0.275	0.033
-296.720	50.739	-0.268	0.254
-295.705	150.547	0.140	0.190
-294.691	334.421	0.138	0.267
-293.676	176.329	-0.120	0.174
-292.662	-200.000	0.019	0.435
-291.647	-107.731	0.185	0.040
-290.632	-200.000	0.014	-0.360
-289.618	800.000	0.046	-0.183
-288.603	-200.000	-0.052	-0.240
-287.589	-67.874	0.133	0.052
-286.574	-200.000	0.005	-0.028
-285.559	-101.517	-0.467	-0.113
-284.545	-124.916	-0.303	-0.047
-283.530	-200.000	-0.015	0.245
-282.516	385.363	-0.014	0.029
-281.501	-200.000	-0.072	-0.418
-280.486	147.182	-0.189	0.254
-279.472	-77.314	0.184	-0.064
-278.457	320.605	-0.107	-0.202
-277.443	423.609	-0.101	-0.216
-276.428	-140.355	-0.146	0.015
-275.413	5.824	-0.118	-0.087
-274.399	-200.000	0.021	-0.162
-273.384	-200.000	-0.021	-0.120
-272.370	-163.636	-0.443	-0.021
-271.355	-129.152	0.150	-0.021
-270.340	53.533	-0.257	-0.246
-269.326	238.492	0.097	-0.160
-268.311	-200.000	-0.002	0.017
-267.297	-200.000	-0.017	-0.349
-266.282	800.000	0.016	0.057
-265.267	800.000	0.141	0.416
-264.253	-164.271	0.177	-0.008
-263.238	-66.699	-0.277	0.109
-262.224	-69.452	0.236	-0.090
-261.209	-43.370	-0.130	0.066
-260.195	41.129	0.217	-0.195
-259.180	208.533	-0.041	0.064
-258.165	17.934	0.084	-0.066
-257.151	645.977	0.112	-0.286
-256.136	-27.092	0.312	-0.182
-255.122	-14.265	0.195	-0.125
-254.107	199.151	-0.165	0.251
-253.092	-136.401	0.214	-0.025
-252.078	-138.121	0.102	0.011
-251.063	45.755	-0.125	0.115
-250.049	-3.412	-0.032	-0.022
-249.034	-97.050	-0.375	-0.098
-248.019	149.047	0.137	-0.185
-247.005	-104.420	0.282	0.065
-245.990	-200.000	-0.030	0.379
-244.976	-66.784	-0.224	0.088
-243.961	-200.000	-0.009	-0.151
-242.946	-9.449	-0.122	0.081
-241.932	-200.000	-0.039	0.191
-240.917	-128.085	0.154	-0.022
-239.903	-200.000	-0.006	-0.074
-238.888	800.000	-0.045	0.131
-237.873	466.046	0.185	-0.413
-236.859	579.820	-0.083	-0.202
-235.844	-140.914	0.193	-0.020
-234.830	179.675	-0.042	-0.061
-233.815	800.000	-0.049	-0.174
-232.800	421.242	0.110	-0.234
-231.786	800.000	-0.049	-0.199
-230.771	-102.640	-0.030	0.007
-229.757	486.587	0.085	0.192
-228.742	-54.908	-0.163	0.073
-227.727	-12.968	-0.162	0.105
-226.713	374.696	0.042	0.085
-225.698	274.509	-0.144	-0.254
-224.684	26.926	-0.084	0.070
-223.669	-140.701	0.271	0.028
-222.655	175.572	-0.134	-0.193
-221.640	-200.000	0.029	0.403
-220.625	-66.667	-0.145	0.057
-219.611	-200.000	0.021	-0.163
-218.596	-96.426	-0.378	0.100
-217.582	-77.670	-0.177	0.061
-216.567	-126.162	0.381	-0.057
-215.552	-200.000	-0.027	0.163
-214.538	-200.000	0.026	0.274
-213.523	582.951	-0.179	0.437
-212.509	-200.000	0.085	0.438
-211.494	-200.000	0.021	-0.092
-210.479	21.398	-0.241	0.195
-209.465	570.207	-0.102	0.247
-208.450	-40.787	0.032	0.017
-207.436	-52.402	0.258	-0.119
-206.421	-80.687	-0.284	-0.094
-205.406	-189.678	-0.395	0.005
-204.392	-110.751	0.240	-0.049
-203.377	242.148	-0.029	-0.049
-202.363	96.925	-0.269	0.307
-201.348	-200.000	0.021	-0.114
-200.333	-95.776	0.178	-0.047
-199.319	800.000	-0.072	0.219
-198.304	-200.000	-0.040	-0.243
-197.290	267.532	0.097	0.169
-196.275	800.000	0.020	0.070
-195.260	800.000	-0.048	0.162
-194.246	-42.386	0.080	-0.041
-193.231	92.067	0.043	-0.049
-192.217	800.000	-0.167	0.525
-191.202	302.152	-0.070	0.129
-190.187	-151.117	0.267	0.020
-189.173	-200.000	0.010	0.287
-188.158	-200.000	-0.066	-0.352
-187.144	-80.284	0.387	0.129
-186.129	-83.098	0.026	0.008
-185.114	360.996	-0.112	-0.223
-184.100	102.939	0.282	-0.329
-183.085	-194.488	0.046	0.000
-182.071	-114.062	0.175	-0.034
-181.056	800.000	-0.100	0.300
-180.042	-168.685	-0.266	-0.010
-179.027	-200.000	0.002	-0.074
-178.012	-172.245	0.225	0.007
-176.998	-103.537	0.204	0.048
-175.983	-200.000	-0.007	-0.034
-174.969	-61.710	-0.055	-0.023
-173.954	800.000	-0.024	-0.099
-172.939	-99.512	0.209	0.052
-171.925	156.972	-0.211	-0.290
-170.910	-200.000	0.010	0.094
-169.896	-118.549	-0.264	-0.046
-168.881	-59.681	-0.211	-0.090
-167.866	-200.000	0.043	0.261
-166.852	800.000	-0.075	0.296
-165.837	485.817	-0.114	-0.259
-164.823	-9.644	0.229	0.152
-163.808	800.000	0.074	0.269
-162.793	-22.931	-0.326	-0.196
-161.779	800.000	0.101	-0.335
-160.764	-65.303	0.147	-0.059
-159.750	140.879	0.204	-0.268
-158.735	-87.127	-0.166	0.050
-157.720	800.000	0.064	-0.274
-156.706	-138.976	-0.081	-0.009
-155.691	-200.000	0.011	0.047
-154.677	-200.000	0.015	-0.262
-153.662	-57.572	0.270	0.118
-152.647	-200.000	-0.014	0.190
-151.633	356.595	0.190	0.376
-150.618	168.739	0.063	-0.090
-149.604	-86.724	0.267	0.081
-148.589	53.237	0.293	0.279
-147.574	-104.334	0.224	0.052
-146.560	-200.000	-0.026	-0.270
-145.545	24.829	0.198	-0.163
-144.531	-86.330	-0.222	-0.068
-143.516	108.292	0.127	-0.150
-142.502	-31.290	-0.250	-0.140
-141.487	195.889	0.166	0.250
-140.472	68.864	0.125	-0.127
-139.458	-98.662	0.074	-0.019
-138.443	-18.309	-0.168	0.104
-137.429	-149.460	0.331	-0.026
-136.414	320.571	0.024	0.045
-135.399	467.649	-0.061	0.135
-134.385	-3.344	-0.274	0.189
-133.370	-69.225	0.150	0.057
-132.356	61.054	0.145	-0.143
-131.341	410.633	-0.096	0.201
-130.326	1.036	0.264	-0.188
-129.312	-42.421	-0.164	0.083
-128.297	-121.181	0.168	0.028
-127.283	-192.302	0.323	0.003
-126.268	31.300	-0.130	0.111
-125.253	72.717	-0.139	-0.144
-124.239	-145.339	-0.090	-0.008
-123.224	-200.000	0.020	0.129
-122.210	72.550	-0.083	-0.086
