DTS Sentinel unit serial number:	SN413079Multiplexer serial number:	ORYXHardware model number:	OX4-SRSoftware version number:	ORYX F/W v4.00 Oryx Data Collector v3.7.2.0data status	okinstallation	princeton_trtdifferential loss correction	single-endedforward channel	channel 3reverse channel	N/Adate	2019/09/18time	06:28:34forward acquisition time	60.00reverse acquisition time	0.00gamma	496.2192k internal	0.2343k external	0.2343temperature offset calibration	0.9951default loss term (dB/km)	0.3790temperature slope calibration	1.0000multiplexer offset coefficient	1.0000multiplexer slope coefficient	1.0000fibre end	0.00T internal ref (°C)	23.27T ext. ref 1 (°C)	0.19T ext. ref 2 (°C)	17.54length (m)	temperature (°C)	Stokes	anti-Stokes-747.200	308.124	-0.200	0.373
-746.185	282.805	0.222	0.399
-745.171	-132.551	0.218	-0.028
-744.156	-48.284	0.171	-0.083
-743.142	94.950	0.412	-0.470
-742.127	8.743	-0.229	0.173
-741.112	-168.527	0.408	0.016
-740.098	-74.419	-0.555	0.200
-739.083	-200.000	0.027	-0.396
-738.069	173.182	-0.190	-0.274
-737.054	-123.664	-0.261	0.041
-736.039	200.731	-0.149	-0.230
-735.025	1.963	-0.089	-0.065
-734.010	-141.302	-0.352	0.036
-732.996	-162.178	0.137	0.007
-731.981	-200.000	-0.022	-0.337
-730.966	-200.000	0.015	-0.118
-729.952	-200.000	-0.005	0.481
-728.937	596.396	0.039	-0.097
-727.923	-77.574	0.180	-0.062
-726.908	-36.907	0.341	0.183
-725.894	49.610	0.154	-0.146
-724.879	800.000	0.064	-0.192
-723.864	171.627	0.105	0.150
-722.850	294.852	-0.100	0.183
-721.835	-90.718	0.251	-0.072
-720.821	-200.000	-0.057	-0.296
-719.806	306.552	-0.058	0.108
-718.791	421.394	0.059	-0.126
-717.777	-200.000	-0.012	-0.145
-716.762	-142.994	-0.121	0.012
-715.748	-158.743	-0.128	0.007
-714.733	-188.066	-0.575	-0.007
-713.718	72.778	-0.148	0.154
-712.704	386.495	-0.121	0.250
-711.689	680.268	-0.044	-0.113
-710.675	-81.280	-0.189	-0.062
-709.660	-200.000	0.013	-0.081
-708.645	-200.000	-0.006	-0.196
-707.631	-71.499	-0.309	-0.116
-706.616	-200.000	0.043	-0.334
-705.602	800.000	0.062	-0.226
-704.587	-78.686	-0.310	-0.106
-703.572	-40.418	0.325	-0.169
-702.558	-78.606	-0.432	0.148
-701.543	376.338	0.079	-0.162
-700.529	-135.459	-0.313	-0.037
-699.514	800.000	0.023	0.064
-698.499	-18.845	-0.288	-0.179
-697.485	467.928	-0.122	0.273
-696.470	17.759	0.173	-0.138
-695.456	-2.072	0.094	-0.066
-694.441	411.616	-0.068	0.143
-693.426	-200.000	-0.065	0.302
-692.412	118.685	-0.211	0.261
-691.397	-128.632	-0.434	0.061
-690.383	-104.187	0.176	-0.041
-689.368	-200.000	-0.054	-0.323
-688.354	122.907	0.168	0.210
-687.339	-85.804	-0.111	-0.034
-686.324	-179.871	0.407	-0.009
-685.310	54.423	0.071	0.068
-684.295	355.317	-0.090	0.180
-683.281	273.711	-0.047	0.084
-682.266	216.292	0.150	-0.238
-681.251	-62.248	0.046	-0.019
-680.237	171.918	-0.089	-0.127
-679.222	800.000	0.080	-0.287
-678.208	-200.000	-0.024	-0.190
-677.193	-200.000	-0.003	-0.014
-676.178	-119.858	-0.334	0.057
-675.164	722.148	0.120	-0.319
-674.149	-7.858	-0.258	-0.174
-673.135	800.000	0.022	-0.071
-672.120	-85.482	-0.342	-0.106
-671.105	-200.000	0.003	-0.301
-670.091	800.000	-0.134	0.375
-669.076	130.700	-0.146	-0.188
-668.062	16.115	0.190	0.150
-667.047	26.547	0.334	0.279
-666.032	421.888	-0.137	0.294
-665.018	-194.423	0.306	0.002
-664.003	-118.152	0.316	0.056
-662.989	153.848	-0.279	-0.382
-661.974	108.540	0.207	-0.247
-660.959	-79.720	0.083	-0.028
-659.945	86.282	-0.175	0.193
-658.930	-144.551	0.147	-0.014
-657.916	-59.794	-0.198	-0.085
-656.901	-200.000	0.033	0.298
-655.886	800.000	-0.067	0.267
-654.872	71.847	0.217	0.225
-653.857	116.828	-0.268	-0.328
-652.843	15.266	0.216	-0.169
-651.828	-200.000	0.038	0.290
-650.814	800.000	-0.077	-0.311
-649.799	29.594	-0.186	0.158
-648.784	-200.000	0.053	-0.256
-647.770	-47.310	-0.128	-0.062
-646.755	505.676	0.051	-0.118
-645.741	133.956	-0.175	0.226
-644.726	213.334	0.087	0.136
-643.711	-113.209	0.300	-0.059
-642.697	329.119	0.028	-0.053
-641.682	-12.262	0.044	-0.029
-640.668	72.587	-0.162	0.168
-639.653	390.943	0.032	0.065
-638.638	287.733	0.160	-0.289
-637.624	800.000	-0.038	-0.134
-636.609	-67.731	0.360	-0.140
-635.595	-145.419	0.244	-0.022
-634.580	290.245	0.160	-0.290
-633.565	800.000	-0.089	-0.260
-632.551	-200.000	-0.017	-0.188
-631.536	154.544	0.034	0.047
-630.522	-131.989	0.167	-0.022
-629.507	-25.546	-0.350	-0.206
-628.492	-20.104	-0.196	-0.120
-627.478	30.867	-0.080	-0.068
-626.463	-74.588	-0.097	0.035
-625.449	800.000	0.052	-0.167
-624.434	-13.016	0.093	-0.060
-623.419	-134.977	0.126	0.015
-622.405	440.561	-0.071	0.154
-621.390	-200.000	0.014	0.149
-620.376	-200.000	0.009	0.111
-619.361	-93.231	0.118	0.033
-618.346	241.679	-0.092	-0.153
-617.332	-0.451	-0.217	-0.153
-616.317	202.531	-0.235	0.362
-615.303	208.481	-0.148	0.231
-614.288	265.142	-0.038	0.066
-613.273	-32.819	0.209	0.116
-612.259	-48.193	-0.289	-0.139
-611.244	-73.988	0.302	-0.109
-610.230	-115.501	-0.207	-0.039
-609.215	-66.440	-0.372	-0.147
-608.201	247.864	-0.157	0.265
-607.186	440.387	0.048	0.105
-606.171	-6.531	-0.238	0.162
-605.157	-105.006	0.313	-0.071
-604.142	6.442	-0.154	0.114
-603.128	-200.000	0.039	-0.461
-602.113	-42.828	0.339	-0.172
-601.098	-54.165	0.155	0.070
-600.084	-200.000	0.013	-0.069
-599.069	800.000	0.095	-0.302
-598.055	-33.886	0.146	-0.080
-597.040	72.299	0.084	-0.087
-596.025	413.467	-0.155	0.329
-595.011	19.030	-0.054	-0.043
-593.996	-19.715	0.169	0.104
-592.982	208.241	0.055	0.085
-591.967	344.406	-0.106	-0.207
-590.952	-105.364	-0.123	0.028
-589.938	45.273	0.108	0.099
-588.923	-200.000	-0.021	-0.137
-587.909	-200.000	-0.001	-0.229
-586.894	-25.396	-0.416	0.245
-585.879	-200.000	0.032	-0.243
-584.865	-200.000	-0.055	-0.285
-583.850	-200.000	0.024	-0.131
-582.836	602.874	0.115	-0.285
-581.821	-191.478	0.333	-0.003
-580.806	-36.884	-0.185	-0.099
-579.792	-200.000	0.009	0.234
-578.777	-109.939	-0.028	-0.006
-577.763	131.865	-0.169	-0.216
-576.748	-200.000	0.032	0.168
-575.733	-200.000	-0.017	0.154
-574.719	-200.000	-0.019	-0.559
-573.704	-200.000	-0.037	-0.198
-572.690	800.000	0.083	-0.303
-571.675	-113.759	0.110	-0.021
-570.661	-77.701	-0.377	-0.130
-569.646	-99.130	-0.159	-0.040
-568.631	-199.785	0.122	0.001
-567.617	-157.416	0.081	0.005
-566.602	-30.468	0.182	-0.103
-565.588	3.077	0.093	0.067
-564.573	-200.000	0.012	-0.318
-563.558	792.950	0.120	-0.328
-562.544	-200.000	-0.031	0.228
-561.529	61.648	-0.130	-0.128
-560.515	-103.165	-0.579	-0.136
-559.500	0.250	0.137	-0.097
-558.485	263.159	-0.052	-0.089
-557.471	18.758	-0.332	-0.264
-556.456	77.914	0.164	-0.174
-555.442	549.125	-0.051	0.122
-554.427	800.000	-0.070	-0.257
-553.412	-107.122	0.200	-0.044
-552.398	212.223	0.059	-0.092
-551.383	-100.424	0.152	-0.037
-550.369	-100.111	0.177	0.044
-549.354	415.082	-0.085	-0.180
-548.339	-46.387	-0.330	-0.161
-547.325	281.001	-0.025	0.045
-546.310	-25.830	-0.242	0.142
-545.296	38.106	0.042	-0.037
-544.281	-17.769	-0.174	-0.109
-543.266	-37.344	-0.056	-0.030
-542.252	-200.000	-0.068	0.314
-541.237	-200.000	-0.028	-0.176
-540.223	-21.134	0.145	-0.088
-539.208	-51.247	-0.084	-0.039
-538.193	-111.710	-0.499	-0.100
-537.179	-119.912	-0.119	0.020
-536.164	-163.159	0.376	0.018
-535.150	172.206	-0.084	-0.121
-534.135	-55.250	0.380	0.170
-533.121	77.165	0.259	0.274
-532.106	-200.000	0.032	0.486
-531.091	-200.000	0.012	-0.061
-530.077	523.261	0.021	-0.049
-529.062	159.686	-0.115	0.159
-528.048	28.676	0.279	0.235
-527.033	784.233	-0.067	-0.183
-526.018	-29.250	0.480	-0.273
-525.004	-200.000	-0.015	-0.080
-523.989	44.030	-0.198	0.180
-522.975	-127.069	0.247	0.036
-521.960	-88.073	-0.441	0.131
-520.945	431.899	-0.146	0.314
-519.931	800.000	0.054	0.213
-518.916	259.298	-0.184	0.314
-517.902	800.000	-0.019	0.069
-516.887	-154.212	-0.539	0.036
-515.872	-37.194	0.096	-0.051
-514.858	140.984	0.163	0.215
-513.843	-13.001	-0.183	0.118
-512.829	-200.000	-0.007	-0.104
-511.814	-200.000	0.014	0.105
-510.799	-140.715	-0.258	0.026
-509.785	-52.975	0.132	0.060
-508.770	800.000	0.085	-0.240
-507.756	-110.867	0.184	-0.037
-506.741	231.043	0.286	-0.465
-505.726	46.294	-0.255	-0.235
-504.712	-200.000	0.006	-0.042
-503.697	800.000	0.061	0.236
-502.683	-71.179	0.353	-0.132
-501.668	-200.000	0.031	-0.620
-500.653	99.143	-0.053	0.060
-499.639	341.645	0.083	0.161
-498.624	-200.000	0.007	-0.058
-497.610	27.140	0.126	-0.105
-496.595	-200.000	-0.042	-0.320
-495.581	16.363	-0.268	0.210
-494.566	800.000	-0.066	0.212
-493.551	134.517	-0.162	0.208
-492.537	384.892	0.087	0.177
-491.522	-142.869	-0.016	0.002
-490.508	-26.800	-0.221	0.128
-489.493	555.933	0.041	0.098
-488.478	-140.815	0.414	-0.042
-487.464	213.014	0.083	0.130
-486.449	153.837	0.129	-0.176
-485.435	-78.049	0.122	-0.042
-484.420	78.170	-0.387	-0.409
-483.405	618.062	0.050	-0.124
-482.391	-66.935	-0.194	0.076
-481.376	-124.791	0.089	-0.014
-480.362	-200.000	0.008	-0.306
-479.347	-200.000	-0.007	-0.118
-478.332	130.316	0.013	0.017
-477.318	800.000	-0.090	0.250
-476.303	-141.230	0.255	-0.026
-475.289	138.310	-0.241	-0.313
-474.274	-97.919	0.288	0.074
-473.259	169.487	-0.246	-0.348
-472.245	216.558	0.048	-0.076
-471.230	800.000	-0.107	0.357
-470.216	157.897	0.110	0.151
-469.201	-30.827	-0.182	-0.102
-468.186	-74.595	-0.104	-0.037
-467.172	135.440	-0.222	-0.286
-466.157	-200.000	0.010	0.155
-465.143	149.820	0.078	0.105
-464.128	-130.549	-0.292	0.039
-463.113	188.141	0.189	0.279
-462.099	-142.921	-0.042	0.004
-461.084	89.790	0.277	0.306
-460.070	-101.130	0.164	0.040
-459.055	-11.383	-0.127	0.083
-458.040	800.000	0.076	-0.244
-457.026	-200.000	-0.026	0.178
-456.011	-200.000	-0.119	0.000
-454.997	159.824	-0.105	0.144
-453.982	800.000	0.105	0.300
-452.968	800.000	0.019	-0.078
-451.953	54.404	-0.269	-0.256
-450.938	-200.000	-0.017	-0.215
-449.924	21.822	0.166	0.134
-448.909	34.679	0.102	-0.088
-447.895	-200.000	-0.003	-0.335
-446.880	50.234	-0.206	-0.193
-445.865	328.231	0.047	0.089
-444.851	311.709	-0.205	0.381
-443.836	-53.754	0.140	0.063
-442.822	-200.000	-0.011	0.098
-441.807	372.613	-0.073	-0.147
-440.792	-75.012	-0.379	0.134
-439.778	-200.000	-0.229	0.001
-438.763	17.665	0.149	0.117
-437.749	331.334	-0.224	0.428
-436.734	-200.000	-0.028	-0.222
-435.719	-88.463	-0.082	0.024
-434.705	-200.000	0.066	0.431
-433.690	-9.929	-0.164	-0.108
-432.676	-32.027	0.066	0.037
-431.661	-85.779	-0.245	0.075
-430.646	86.260	-0.097	0.106
-429.632	-115.410	0.138	0.026
-428.617	-52.817	0.139	-0.063
-427.603	0.437	-0.091	0.064
-426.588	-200.000	0.016	0.225
-425.573	-142.245	0.215	0.021
-424.559	-71.193	0.435	0.161
-423.544	-27.858	0.108	-0.062
-422.530	-38.384	0.137	-0.071
-421.515	-200.000	0.030	-0.200
-420.500	-200.000	0.019	-0.228
-419.486	-69.891	-0.123	-0.046
-418.471	-80.548	0.141	-0.047
-417.457	-64.078	0.330	0.133
-416.442	-81.928	0.125	0.040
-415.428	-200.000	0.024	0.300
-414.413	-92.927	0.235	0.065
-413.398	259.985	-0.112	0.191
-412.384	392.814	0.135	0.277
-411.369	-86.905	-0.381	-0.115
-410.355	-90.188	-0.154	0.044
-409.340	-23.843	-0.244	0.145
-408.325	58.970	0.152	-0.148
-407.311	-200.000	-0.068	0.000
-406.296	391.922	0.054	-0.112
-405.282	800.000	-0.008	0.024
-404.267	195.143	0.162	0.242
-403.252	282.718	-0.138	0.244
-402.238	-51.698	-0.096	0.044
-401.223	99.913	0.256	0.293
-400.209	139.520	0.236	0.308
-399.194	244.741	0.021	0.035
-398.179	-58.709	0.137	-0.059
-397.165	-190.801	0.263	0.003
-396.150	-17.284	0.188	-0.117
-395.136	250.657	0.191	-0.320
-394.121	216.164	-0.027	0.042
-393.106	13.215	-0.188	0.143
-392.092	-56.313	-0.057	0.025
-391.077	-129.153	0.224	-0.031
-390.063	-47.945	0.152	0.073
-389.048	59.138	0.195	0.190
-388.033	-140.240	-0.202	0.021
-387.019	-147.173	0.275	-0.023
-386.004	-110.786	-0.170	-0.035
-384.990	427.099	-0.108	-0.229
-383.975	83.541	0.172	0.185
-382.960	58.250	0.226	-0.219
-381.946	-116.337	-0.306	-0.056
-380.931	800.000	0.003	0.009
-379.917	18.533	0.089	-0.070
-378.902	50.464	-0.076	0.071
-377.888	14.326	0.317	-0.244
-376.873	201.008	-0.065	0.098
-375.858	-200.000	-0.034	0.179
-374.844	-150.345	0.229	0.017
-373.829	-45.905	0.540	-0.263
-372.815	-34.841	0.174	0.094
-371.800	-82.333	-0.136	-0.044
-370.785	-42.663	-0.146	-0.073
-369.771	-108.533	-0.306	-0.065
-368.756	-159.451	0.104	0.006
-367.742	-97.494	-0.289	0.074
-366.727	44.485	-0.190	0.173
-365.712	187.994	-0.133	0.196
-364.698	-57.045	0.255	0.111
-363.683	-62.357	-0.166	-0.068
-362.669	-139.707	0.327	-0.034
-361.654	633.618	-0.172	-0.431
-360.639	-200.000	0.039	-0.196
-359.625	-156.352	0.113	0.007
-358.610	-200.000	0.007	0.198
-357.596	800.000	0.010	-0.027
-356.581	-200.000	0.049	0.383
-355.566	-200.000	0.035	-0.153
-354.552	-200.000	-0.047	-0.383
-353.537	-200.000	-0.007	0.098
-352.523	-200.000	-0.019	0.274
-351.508	194.614	-0.083	0.125
-350.493	97.827	0.141	-0.159
-349.479	-19.935	-0.185	0.112
-348.464	35.188	0.030	0.026
-347.450	-86.555	0.122	-0.037
-346.435	629.321	0.105	0.261
-345.420	800.000	-0.058	0.161
-344.406	-41.767	0.158	0.080
-343.391	-73.862	0.113	-0.041
-342.377	-54.588	-0.391	0.174
-341.362	-163.692	-0.230	-0.011
-340.348	800.000	-0.044	-0.173
-339.333	-60.437	-0.149	-0.062
-338.318	-38.367	-0.039	-0.020
-337.304	65.445	-0.086	-0.085
-336.289	-88.053	-0.323	-0.096
-335.275	-84.550	0.331	0.103
-334.260	800.000	-0.017	-0.049
-333.245	-160.295	-0.137	0.007
-332.231	172.699	-0.122	0.173
-331.216	-78.013	0.304	-0.103
-330.202	18.985	-0.154	-0.122
-329.187	405.633	0.098	0.204
-328.172	394.278	-0.066	-0.135
-327.158	-41.154	-0.056	-0.028
-326.143	-89.041	0.242	0.071
-325.129	134.740	-0.180	-0.230
-324.114	68.053	0.203	0.205
-323.099	-140.991	-0.204	0.021
-322.085	429.091	0.072	0.153
-321.070	43.792	-0.168	-0.152
-320.056	289.702	0.213	-0.381
-319.041	-200.000	0.005	0.052
-318.026	-81.416	0.369	-0.120
-317.012	644.740	0.026	-0.064
-315.997	-176.726	0.310	0.008
-314.983	-19.613	-0.195	-0.119
-313.968	-200.000	0.104	-0.528
-312.953	-17.542	0.265	-0.164
-311.939	-15.861	0.123	-0.077
-310.924	131.376	0.111	0.140
-309.910	-200.000	0.003	0.126
-308.895	105.927	-0.176	-0.205
-307.880	-116.435	0.163	-0.030
-306.866	-37.437	-0.163	0.086
-305.851	548.323	-0.085	-0.200
-304.837	800.000	0.083	-0.331
-303.822	-200.000	0.047	-0.365
-302.807	358.779	0.166	-0.327
-301.793	-200.000	-0.007	-0.135
-300.778	185.402	0.057	0.083
-299.764	-139.317	0.224	-0.024
-298.749	-34.950	0.142	0.076
-297.735	227.315	0.094	0.151
-296.720	-200.000	-0.087	0.392
-295.705	800.000	0.134	0.487
-294.691	-72.059	0.460	-0.168
-293.676	-73.944	0.116	-0.042
-292.662	105.119	0.329	0.382
-291.647	223.803	-0.188	0.298
-290.632	55.445	-0.184	-0.176
-289.618	237.513	0.115	0.188
-288.603	-83.072	-0.289	-0.091
-287.589	639.100	0.114	-0.284
-286.574	-189.890	-0.198	-0.002
-285.559	133.189	-0.086	0.109
-284.545	138.360	-0.241	0.311
-283.530	-200.000	-0.041	-0.237
-282.516	800.000	0.049	0.140
-281.501	425.901	-0.079	0.168
-280.486	-99.443	0.109	0.027
-279.472	800.000	0.085	-0.267
-278.457	-92.332	0.127	-0.035
-277.443	-135.431	0.262	0.031
-276.428	800.000	0.106	0.369
-275.413	800.000	0.076	-0.274
-274.399	-200.000	0.012	0.107
-273.384	-186.649	-0.230	0.003
-272.370	16.879	0.111	0.086
-271.355	127.082	-0.265	0.330
-270.340	-200.000	0.002	0.056
-269.326	-123.240	-0.120	-0.019
-268.311	-149.616	0.185	-0.014
-267.297	-153.679	-0.483	-0.033
-266.282	373.411	-0.085	0.170
-265.267	32.963	-0.088	-0.075
-264.253	-52.778	0.210	-0.095
-263.238	15.777	-0.073	0.057
-262.224	-139.209	0.394	0.042
-261.209	647.225	0.038	-0.095
-260.195	-54.279	-0.193	0.086
-259.180	-133.844	-0.252	0.031
-258.165	287.993	0.029	-0.052
-257.151	-200.000	0.027	-0.120
-256.136	-98.161	-0.161	0.041
-255.122	-200.000	-0.006	-0.179
-254.107	-130.551	-0.133	0.018
-253.092	57.456	-0.136	0.130
-252.078	572.885	0.102	0.243
-251.063	-200.000	-0.062	0.332
-250.049	199.464	0.191	-0.288
-249.034	-154.569	-0.162	-0.011
-248.019	-46.636	-0.173	-0.083
-247.005	-42.223	-0.175	-0.088
-245.990	-90.741	0.192	-0.054
-244.976	-200.000	-0.001	-0.115
-243.961	51.267	0.200	-0.187
-242.946	121.614	0.228	0.279
-241.932	-102.355	-0.056	0.013
-240.917	800.000	0.050	0.146
-239.903	-200.000	-0.016	-0.256
-238.888	190.751	-0.132	0.195
-237.873	-200.000	0.014	-0.118
-236.859	-155.138	-0.098	0.006
-235.844	505.148	-0.145	-0.329
-234.830	-126.782	0.150	-0.022
-233.815	-89.559	-0.020	0.006
-232.800	-53.855	-0.524	0.234
-231.786	-148.462	-0.216	0.017
-230.771	-126.306	0.134	0.020
-229.757	82.410	-0.238	-0.253
-228.742	2.615	-0.094	-0.067
-227.727	800.000	0.018	-0.048
-226.713	427.483	0.044	0.092
-225.698	-16.283	-0.250	0.156
-224.684	502.666	-0.037	0.085
-223.669	326.768	-0.149	0.280
-222.655	5.896	-0.256	-0.186
-221.640	1.789	0.120	0.085
-220.625	114.708	-0.257	-0.308
-219.611	-18.832	-0.123	-0.075
-218.596	13.022	-0.092	0.070
-217.582	35.928	0.115	0.100
-216.567	366.591	0.052	0.102
-215.552	38.215	0.212	0.185
-214.538	-88.633	0.114	-0.033
-213.523	-91.742	-0.302	0.084
-212.509	-48.938	-0.209	-0.098
-211.494	9.589	-0.272	0.202
-210.479	-146.145	0.171	0.015
-209.465	336.859	0.077	0.146
-208.450	-63.492	-0.146	0.059
-207.436	-85.697	0.347	0.106
-206.421	-154.758	-0.257	-0.017
-205.406	5.404	0.241	-0.175
-204.392	0.394	0.079	0.055
-203.377	549.768	0.103	0.242
-202.363	-34.942	0.332	0.178
-201.348	529.578	0.029	-0.068
-200.333	-200.000	0.035	-0.153
-199.319	388.492	0.049	-0.099
-198.304	-164.544	-0.182	0.008
-197.290	-200.000	-0.026	0.384
-196.275	595.990	-0.085	-0.205
-195.260	-143.559	-0.332	0.031
-194.246	113.142	0.072	0.086
-193.231	-200.000	-0.031	-0.196
-192.217	640.096	0.038	0.096
-191.202	461.538	0.157	-0.344
-190.187	-111.734	-0.077	0.015
-189.173	-136.238	-0.161	0.018
-188.158	-29.078	-0.239	-0.134
-187.144	-200.000	0.007	0.106
-186.129	-138.394	0.297	0.032
-185.114	190.551	-0.151	-0.222
-184.100	142.436	-0.141	-0.183
-183.085	-69.827	0.228	-0.085
-182.071	-200.000	-0.014	0.318
-181.056	-200.000	-0.000	-0.118
-180.042	-200.000	0.017	0.201
-179.027	44.346	0.141	0.126
-178.012	800.000	0.060	0.207
-176.998	-164.538	-0.107	0.005
-175.983	410.539	0.102	-0.211
-174.969	174.421	-0.123	0.174
-173.954	98.144	-0.169	0.190
-172.939	135.436	0.099	0.126
-171.925	-109.104	0.107	0.022
-170.910	-68.588	0.186	0.070
-169.896	176.624	-0.198	0.282
-168.881	800.000	-0.073	-0.207
-167.866	0.819	0.180	-0.126
-166.852	461.854	-0.052	0.113
-165.837	800.000	0.043	0.127
-164.823	-54.077	0.392	-0.175
-163.808	76.549	0.036	0.037
-162.793	-143.388	0.117	0.011
-161.779	800.000	0.124	0.439
-160.764	-108.636	-0.197	-0.041
-159.750	800.000	-0.052	0.181
-158.735	283.634	0.088	0.155
-157.720	-149.123	-0.188	-0.015
-156.706	183.655	0.019	0.028
-155.691	81.764	-0.032	0.034
-154.677	81.923	0.229	0.242
-153.662	-116.509	0.228	-0.041
-152.647	-39.050	-0.341	0.175
-151.633	-116.678	0.203	-0.037
-150.618	-200.000	0.001	0.265
-149.604	74.684	0.217	-0.224
-148.589	581.943	-0.028	0.066
-147.574	-26.358	0.080	-0.046
-146.560	-69.520	-0.105	-0.039
-145.545	800.000	-0.063	0.264
-144.531	29.195	0.195	0.162
-143.516	-18.090	0.157	0.096
-142.502	-200.000	-0.023	-0.297
-141.487	52.817	0.114	-0.107
-140.472	-16.225	0.267	-0.166
-139.458	-200.000	0.085	0.428
-138.443	-200.000	-0.121	0.599
-137.429	800.000	0.063	0.179
-136.414	-105.582	-0.206	-0.046
-135.399	-75.508	0.092	0.032
-134.385	-16.333	-0.085	0.053
-133.370	-200.000	-0.025	0.233
-132.356	-21.791	0.295	0.175
-131.341	308.260	0.116	-0.212
-130.326	89.953	0.178	0.194
-129.312	-200.000	-0.003	-0.164
-128.297	10.180	0.263	-0.195
-127.283	800.000	-0.059	-0.190
-126.268	36.116	-0.155	0.133
-125.253	182.416	-0.083	-0.119
-124.239	17.619	-0.209	-0.162
-123.224	32.804	-0.146	0.124
-122.210	-200.000	0.036	0.179
-121.195	116.935	-0.179	0.214
