DTS Sentinel unit serial number:	SN413079Multiplexer serial number:	ORYXHardware model number:	OX4-SRSoftware version number:	ORYX F/W v4.00 Oryx Data Collector v3.7.2.0data status	okinstallation	princeton_trtdifferential loss correction	single-endedforward channel	channel 3reverse channel	N/Adate	2019/09/17time	21:08:35forward acquisition time	60.00reverse acquisition time	0.00gamma	496.2192k internal	0.2339k external	0.2339temperature offset calibration	0.9954default loss term (dB/km)	0.3790temperature slope calibration	1.0000multiplexer offset coefficient	1.0000multiplexer slope coefficient	1.0000fibre end	0.00T internal ref (°C)	28.20T ext. ref 1 (°C)	0.20T ext. ref 2 (°C)	19.80length (m)	temperature (°C)	Stokes	anti-Stokes-747.200	127.895	-0.040	-0.051
-746.185	-135.988	-0.121	-0.014
-745.171	101.113	-0.099	0.115
-744.156	-200.000	0.011	0.102
-743.142	-136.254	0.147	0.017
-742.127	-152.963	-0.218	-0.015
-741.112	800.000	-0.019	0.075
-740.098	352.777	0.167	0.331
-739.083	-200.000	0.006	-0.062
-738.069	-120.641	-0.373	0.063
-737.054	-109.338	0.169	-0.036
-736.039	-50.399	-0.159	0.075
-735.025	-153.649	-0.245	0.017
-734.010	-29.551	-0.156	0.089
-732.996	-106.449	-0.587	-0.132
-731.981	78.692	-0.113	-0.121
-730.966	-120.252	0.129	0.022
-729.952	-152.178	0.182	-0.013
-728.937	-195.055	0.373	0.003
-727.923	-13.324	0.089	0.058
-726.908	-122.895	0.342	-0.055
-725.894	145.193	0.129	0.173
-724.879	767.131	-0.109	-0.298
-723.864	-5.587	-0.128	0.088
-722.850	-7.374	0.116	0.079
-721.835	800.000	-0.099	0.304
-720.821	40.296	-0.057	0.051
-719.806	800.000	-0.064	-0.249
-718.791	286.899	0.025	-0.046
-717.777	800.000	-0.083	-0.245
-716.762	-200.000	-0.030	-0.149
-715.748	-200.000	0.156	-0.000
-714.733	19.544	-0.099	-0.079
-713.718	-113.947	-0.531	0.103
-712.704	29.522	-0.128	-0.109
-711.689	1.355	0.236	-0.170
-710.675	-120.458	0.182	0.031
-709.660	475.343	-0.112	-0.253
-708.645	-121.378	0.187	-0.031
-707.631	-94.476	-0.212	0.058
-706.616	-116.805	-0.140	-0.026
-705.602	631.415	0.079	-0.201
-704.587	143.869	0.007	-0.010
-703.572	-73.662	0.286	-0.104
-702.558	76.427	-0.415	0.440
-701.543	-73.810	0.319	-0.116
-700.529	-200.000	0.151	-0.001
-699.514	207.157	-0.073	-0.114
-698.499	-200.000	0.021	0.186
-697.485	-63.577	-0.162	0.067
-696.470	94.596	0.077	-0.088
-695.456	136.251	0.209	-0.273
-694.441	409.844	-0.064	0.136
-693.426	-58.831	-0.166	-0.072
-692.412	120.913	-0.152	0.189
-691.397	168.584	0.086	-0.123
-690.383	24.813	0.181	-0.150
-689.368	239.083	-0.031	0.052
-688.354	800.000	-0.044	-0.128
-687.339	-72.072	-0.099	-0.037
-686.324	527.547	-0.103	-0.242
-685.310	-68.605	-0.159	0.062
-684.295	-57.164	0.267	0.118
-683.281	161.084	-0.141	-0.197
-682.266	-63.130	-0.326	0.134
-681.251	-200.000	-0.014	0.261
-680.237	6.471	-0.073	0.054
-679.222	-98.550	0.050	0.013
-678.208	-85.758	0.122	-0.038
-677.193	-117.156	-0.163	-0.030
-676.178	-98.595	-0.097	-0.025
-675.164	-27.662	-0.319	0.185
-674.149	55.778	-0.211	-0.204
-673.135	-122.731	-0.258	0.042
-672.120	429.064	0.124	-0.269
-671.105	555.125	-0.040	0.097
-670.091	-81.161	-0.117	-0.039
-669.076	-152.051	-0.293	0.021
-668.062	58.456	0.105	-0.103
-667.047	-200.000	0.010	-0.068
-666.032	-151.790	-0.006	-0.000
-665.018	227.569	0.039	-0.063
-664.003	-102.255	-0.103	0.025
-662.989	-26.460	-0.520	0.305
-661.974	328.360	-0.052	-0.100
-660.959	-109.001	-0.297	0.063
-659.945	800.000	0.084	-0.235
-658.930	9.988	-0.235	-0.179
-657.916	742.554	-0.109	-0.292
-656.901	-44.173	-0.193	-0.097
-655.886	-120.948	0.333	0.056
-654.872	62.502	-0.123	-0.123
-653.857	-200.000	0.016	0.072
-652.843	-40.245	0.297	-0.155
-651.828	-161.055	-0.382	-0.020
-650.814	-200.000	0.040	0.316
-649.799	-163.598	0.192	0.009
-648.784	53.206	-0.066	-0.064
-647.770	-70.717	0.347	-0.131
-646.755	-17.070	0.017	-0.011
-645.741	-90.768	0.226	-0.065
-644.726	119.369	0.223	0.275
-643.711	328.304	-0.289	0.554
-642.697	97.780	-0.145	0.167
-641.682	-200.000	0.027	0.251
-640.668	-200.000	0.095	-0.558
-639.653	-114.117	-0.347	-0.067
-638.638	118.163	-0.207	-0.255
-637.624	297.891	-0.117	0.215
-636.609	-110.877	0.228	-0.047
-635.595	160.914	-0.166	0.232
-634.580	-200.000	0.025	-0.257
-633.565	-200.000	-0.037	0.417
-632.551	454.483	0.061	-0.134
-631.536	8.628	0.182	-0.137
-630.522	-51.730	-0.186	-0.086
-629.507	-180.688	0.321	0.007
-628.492	-6.147	-0.156	0.106
-627.478	800.000	0.109	-0.346
-626.463	-107.317	0.037	0.008
-625.449	-124.747	-0.081	-0.013
-624.434	-169.882	-0.220	-0.008
-623.419	800.000	-0.102	-0.306
-622.405	32.099	0.414	-0.356
-621.390	16.162	0.455	0.358
-620.376	-114.622	0.376	-0.072
-619.361	287.516	-0.049	0.089
-618.346	-91.342	0.211	-0.060
-617.332	-171.211	0.193	-0.006
-616.317	287.599	-0.171	-0.310
-615.303	476.071	-0.092	-0.208
-614.288	-200.000	-0.037	0.455
-613.273	299.097	-0.103	-0.189
-612.259	-1.360	0.150	-0.105
-611.244	176.106	0.120	-0.173
-610.230	132.429	-0.086	-0.111
-609.215	38.981	-0.140	-0.125
-608.201	228.622	-0.238	-0.387
-607.186	360.355	-0.123	-0.245
-606.171	-200.000	0.013	0.129
-605.157	692.744	-0.105	0.274
-604.142	3.612	-0.039	0.029
-603.128	15.516	-0.116	0.091
-602.113	-128.718	-0.249	0.035
-601.098	-85.140	0.157	0.049
-600.084	-47.294	-0.207	-0.100
-599.069	-36.605	-0.295	-0.158
-598.055	-200.000	-0.015	0.143
-597.040	800.000	0.132	0.463
-596.025	-127.388	-0.093	0.013
-595.011	-62.975	-0.185	-0.076
-593.996	800.000	-0.030	-0.113
-592.982	800.000	0.042	-0.140
-591.967	176.044	-0.133	0.193
-590.952	-120.640	0.255	-0.043
-589.938	-157.745	0.187	0.011
-588.923	-200.000	-0.072	-0.353
-587.909	186.844	-0.059	-0.087
-586.894	103.131	0.222	0.260
-585.879	714.315	-0.083	-0.218
-584.865	-90.144	0.059	0.017
-583.850	17.646	0.040	-0.031
-582.836	-135.092	-0.244	-0.029
-581.821	800.000	0.132	-0.462
-580.806	-200.000	-0.097	0.459
-579.792	-178.804	0.210	-0.005
-578.777	123.667	-0.077	0.096
-577.763	-50.539	0.193	-0.091
-576.748	-85.155	0.127	-0.040
-575.733	-172.250	-0.408	0.013
-574.719	800.000	-0.063	0.195
-573.704	-107.820	-0.417	0.090
-572.690	-90.554	0.284	-0.082
-571.675	-129.123	-0.374	-0.052
-570.661	-200.000	-0.004	0.110
-569.646	-33.978	0.126	0.069
-568.631	-135.950	-0.062	-0.007
-567.617	-67.965	0.315	0.122
-566.602	180.720	0.087	0.127
-565.588	430.434	0.065	-0.141
-564.573	-43.723	-0.221	-0.111
-563.558	751.145	-0.054	-0.146
-562.544	-23.065	-0.310	-0.186
-561.529	-33.595	0.293	0.161
-560.515	800.000	-0.053	-0.177
-559.500	-148.578	-0.242	0.020
-558.485	800.000	-0.034	0.108
-557.471	58.500	-0.108	0.105
-556.456	-200.000	0.039	-0.265
-555.442	15.685	-0.130	-0.102
-554.427	-48.767	0.052	-0.025
-553.412	-200.000	0.031	0.325
-552.398	77.369	0.164	0.174
-551.383	-104.820	0.169	-0.039
-550.369	52.120	-0.113	-0.107
-549.354	254.193	-0.092	-0.156
-548.339	89.393	0.099	0.110
-547.325	129.530	-0.174	0.221
-546.310	-200.000	-0.002	-0.332
-545.296	-200.000	-0.043	-0.290
-544.281	-106.863	0.131	-0.029
-543.266	216.571	-0.316	-0.501
-542.252	800.000	-0.150	-0.415
-541.237	-81.714	0.237	-0.077
-540.223	-200.000	0.025	0.246
-539.208	115.053	0.068	-0.083
-538.193	-160.589	-0.106	-0.006
-537.179	210.589	-0.085	0.134
-536.164	160.015	0.077	-0.107
-535.150	-141.751	0.162	-0.016
-534.135	-200.000	0.061	-0.389
-533.121	357.723	0.115	0.228
-532.106	625.159	-0.097	0.244
-531.091	358.996	-0.098	0.195
-530.077	-85.954	-0.213	0.065
-529.062	-200.000	0.021	0.172
-528.048	-48.458	-0.152	-0.073
-527.033	-66.590	-0.137	0.054
-526.018	-2.388	-0.367	-0.256
-525.004	439.776	-0.139	-0.302
-523.989	-38.139	0.241	-0.127
-522.975	380.887	0.116	0.236
-521.960	800.000	0.045	0.157
-520.945	93.567	-0.248	-0.280
-519.931	684.897	-0.136	-0.352
-518.916	-4.823	-0.291	-0.200
-517.902	111.667	-0.244	0.293
-516.887	61.082	0.302	-0.299
-515.872	89.891	0.095	-0.106
-514.858	305.998	-0.163	0.301
-513.843	-158.853	0.539	0.031
-512.829	-42.528	0.136	0.069
-511.814	231.502	-0.174	-0.283
-510.799	-89.579	-0.202	-0.059
-509.785	-36.045	-0.147	0.079
-508.770	-54.285	-0.077	-0.035
-507.756	118.731	0.226	0.278
-506.741	-30.617	0.409	-0.230
-505.726	-83.823	-0.405	0.128
-504.712	158.534	0.218	-0.301
-503.697	-92.139	0.476	0.134
-502.683	-78.458	-0.183	0.062
-501.668	-200.000	-0.002	-0.130
-500.653	151.181	0.130	-0.176
-499.639	-35.110	-0.071	0.038
-498.624	24.964	0.356	-0.293
-497.610	364.975	0.166	0.331
-496.595	542.464	0.100	0.237
-495.581	-31.404	-0.135	0.076
-494.566	-200.000	0.008	-0.078
-493.551	-4.469	0.161	0.111
-492.537	-200.000	-0.025	-0.145
-491.522	0.621	0.112	-0.080
-490.508	-123.559	0.137	-0.022
-489.493	32.737	-0.138	0.118
-488.478	89.510	-0.147	0.163
-487.464	246.952	-0.190	-0.318
-486.449	15.200	0.142	0.111
-485.435	800.000	0.075	0.247
-484.420	-26.645	0.065	-0.038
-483.405	-200.000	-0.023	-0.108
-482.391	800.000	0.029	0.113
-481.376	193.535	0.012	0.018
-480.362	-158.364	-0.089	0.005
-479.347	-91.946	0.228	0.064
-478.332	-131.257	-0.102	0.013
-477.318	-200.000	-0.001	0.024
-476.303	168.808	-0.068	-0.096
-475.289	89.071	-0.072	-0.079
-474.274	5.237	-0.027	-0.019
-473.259	221.756	-0.113	-0.180
-472.245	35.740	-0.124	0.108
-471.230	-200.000	-0.002	0.109
-470.216	-200.000	0.056	0.354
-469.201	32.063	0.021	0.018
-468.186	20.260	0.283	0.227
-467.172	-84.227	0.205	0.065
-466.157	-20.378	0.130	0.079
-465.143	-33.610	0.238	0.131
-464.128	-200.000	0.027	-0.181
-463.113	-8.787	-0.164	-0.109
-462.099	51.956	-0.121	-0.114
-461.084	-169.783	0.148	-0.005
-460.070	321.711	-0.182	0.343
-459.055	-78.659	-0.308	0.104
-458.040	207.701	0.132	0.205
-457.026	86.747	0.155	-0.169
-456.011	-89.150	0.123	-0.036
-454.997	-68.241	-0.292	0.113
-453.982	-32.314	0.081	-0.045
-452.968	-65.054	-0.462	0.185
-451.953	-22.875	0.017	0.010
-450.938	133.132	-0.168	-0.215
-449.924	-161.832	0.049	0.002
-448.909	447.883	0.163	-0.357
-447.895	800.000	0.068	0.189
-446.880	-51.528	-0.155	0.072
-445.865	-46.330	-0.344	-0.167
-444.851	48.184	0.178	-0.165
-443.836	86.389	-0.080	-0.087
-442.822	800.000	-0.065	0.196
-441.807	-143.033	-0.094	0.009
-440.792	-79.299	-0.366	-0.123
-439.778	-94.787	0.153	-0.041
-438.763	-8.292	0.208	-0.138
-437.749	-89.088	0.072	-0.021
-436.734	106.927	-0.304	-0.358
-435.719	-88.618	0.218	-0.064
-434.705	-22.275	0.118	0.071
-433.690	100.294	0.147	-0.169
-432.676	-200.000	-0.002	-0.013
-431.661	-18.022	-0.130	0.080
-430.646	-171.220	-0.212	-0.007
-429.632	-152.778	0.202	0.014
-428.617	-108.305	-0.273	0.058
-427.603	20.210	0.238	0.191
-426.588	-200.000	0.017	0.290
-425.573	526.288	-0.066	0.155
-424.559	225.044	-0.173	-0.277
-423.544	-142.374	0.243	0.024
-422.530	-200.000	-0.008	0.042
-421.515	11.451	-0.077	-0.058
-420.500	195.245	-0.128	-0.192
-419.486	-168.866	0.216	-0.008
-418.471	-97.545	-0.258	0.066
-417.457	170.448	-0.086	-0.122
-416.442	800.000	-0.053	0.154
-415.428	131.452	0.243	0.309
-414.413	-32.566	-0.330	-0.182
-413.398	584.454	0.039	0.095
-412.384	-123.485	0.181	0.029
-411.369	29.640	0.125	0.105
-410.355	-200.000	0.004	0.021
-409.340	-85.142	-0.260	0.080
-408.325	800.000	-0.083	-0.315
-407.311	-86.150	-0.116	-0.035
-406.296	11.235	0.245	-0.185
-405.282	668.410	0.121	-0.311
-404.267	-164.849	-0.487	-0.022
-403.252	800.000	-0.044	0.152
-402.238	-71.233	-0.029	-0.011
-401.223	-200.000	0.067	-0.321
-400.209	-200.000	0.087	-0.384
-399.194	-125.773	0.069	-0.010
-398.179	141.779	-0.030	-0.040
-397.165	12.387	0.228	-0.174
-396.150	-166.453	-0.280	0.012
-395.136	147.654	0.130	0.174
-394.121	86.999	-0.119	-0.130
-393.106	409.417	-0.120	-0.252
-392.092	41.983	0.226	0.203
-391.077	-200.000	0.040	0.241
-390.063	-200.000	0.007	-0.081
-389.048	-78.165	0.157	0.054
-388.033	800.000	0.070	-0.235
-387.019	-34.600	-0.176	0.095
-386.004	43.068	-0.222	-0.200
-384.990	578.325	-0.108	0.262
-383.975	-200.000	0.013	0.193
-382.960	-70.185	0.327	0.123
-381.946	800.000	-0.021	-0.073
-380.931	-200.000	-0.043	0.344
-379.917	-200.000	-0.009	0.198
-378.902	-200.000	0.033	0.215
-377.888	-200.000	0.022	0.189
-376.873	-25.318	-0.053	0.031
-375.858	-65.657	-0.130	-0.052
-374.844	73.584	-0.120	-0.125
-373.829	-200.000	0.024	-0.147
-372.815	-200.000	0.035	0.220
-371.800	21.890	0.374	-0.302
-370.785	-89.399	-0.124	-0.036
-369.771	-200.000	-0.008	0.253
-368.756	770.961	0.071	-0.191
-367.742	45.528	-0.206	-0.188
-366.727	101.791	-0.184	0.212
-365.712	126.794	0.175	0.220
-364.698	-83.586	0.225	-0.071
-363.683	72.465	-0.084	0.087
-362.669	684.336	-0.094	0.243
-361.654	-46.505	-0.155	0.075
-360.639	-33.524	-0.269	0.147
-359.625	-136.680	-0.104	0.012
-358.610	11.882	-0.118	0.090
-357.596	64.403	0.311	0.310
-356.581	187.653	0.169	-0.249
-355.566	10.736	-0.130	-0.098
-354.552	9.883	0.131	0.099
-353.537	-4.415	0.147	0.101
-352.523	-141.674	-0.054	-0.005
-351.508	-28.610	-0.062	0.035
-350.493	-22.264	-0.379	-0.227
-349.479	577.012	-0.074	0.178
-348.464	-0.263	0.442	-0.310
-347.450	-100.113	0.174	0.043
-346.435	-62.621	0.214	-0.088
-345.420	642.202	0.089	-0.223
-344.406	-97.090	-0.223	0.058
-343.391	800.000	0.062	0.210
-342.377	-20.250	-0.350	0.213
-341.362	-138.961	0.357	0.038
-340.348	-200.000	0.001	0.047
-339.333	12.078	0.315	0.239
-338.318	29.223	-0.326	-0.274
-337.304	140.991	-0.219	-0.286
-336.289	-200.000	-0.012	-0.112
-335.275	-200.000	0.012	0.214
-334.260	36.321	0.226	-0.196
-333.245	2.649	0.095	0.068
-332.231	-56.002	-0.172	-0.076
-331.216	-77.627	-0.261	0.089
-330.202	-159.330	0.332	0.018
-329.187	-149.405	0.438	-0.034
-328.172	203.500	-0.242	-0.370
-327.158	-78.285	0.222	0.075
-326.143	105.461	0.124	0.145
-325.129	-200.000	0.071	0.341
-324.114	-200.000	0.011	0.120
-323.099	-166.643	-0.272	0.011
-322.085	357.168	0.032	-0.064
-321.070	-84.651	-0.238	-0.074
-320.056	203.224	-0.188	-0.287
-319.041	45.968	-0.303	-0.277
-318.026	46.644	0.340	0.311
-317.012	190.306	0.135	-0.199
-315.997	86.569	0.080	-0.087
-314.983	202.582	-0.070	0.106
-313.968	567.439	0.150	0.359
-312.953	-190.304	0.120	-0.001
-311.939	71.276	0.222	-0.227
-310.924	-200.000	-0.015	0.276
-309.910	68.756	-0.030	0.030
-308.895	131.974	-0.129	0.164
-307.880	676.586	0.169	0.433
-306.866	-110.032	0.275	-0.057
-305.851	136.599	-0.176	0.226
-304.837	6.092	0.223	0.163
-303.822	800.000	-0.108	-0.310
-302.807	-200.000	-0.031	0.139
-301.793	-200.000	-0.060	0.355
-300.778	-93.343	0.207	0.057
-299.764	800.000	0.082	0.243
-298.749	-79.953	0.534	0.177
-297.735	-55.688	-0.236	0.104
-296.720	190.555	0.188	0.279
-295.705	-200.000	0.002	-0.179
-294.691	458.125	0.037	-0.081
-293.676	800.000	-0.053	0.146
-292.662	-28.662	0.200	0.113
-291.647	-200.000	-0.060	-0.382
-290.632	-146.593	0.265	0.023
-289.618	-200.000	0.008	0.133
-288.603	-62.558	-0.269	0.110
-287.589	371.340	-0.139	0.277
-286.574	-200.000	0.017	-0.274
-285.559	-56.830	0.115	-0.050
-284.545	800.000	0.068	-0.240
-283.530	34.167	-0.238	0.204
-282.516	-200.000	-0.020	0.316
-281.501	-5.390	-0.130	0.088
-280.486	-200.000	0.038	-0.355
-279.472	29.422	0.063	-0.053
-278.457	262.709	0.035	-0.060
-277.443	-200.000	0.037	0.285
-276.428	255.416	0.123	-0.207
-275.413	228.228	0.074	0.119
-274.399	-200.000	0.019	-0.275
-273.384	-68.602	0.160	0.061
-272.370	167.393	0.082	-0.115
-271.355	800.000	0.132	-0.428
-270.340	-117.656	-0.164	0.029
-269.326	235.175	-0.065	-0.105
-268.311	-152.857	-0.292	0.020
-267.297	-15.505	0.198	0.124
-266.282	-95.122	-0.109	-0.029
-265.267	313.733	-0.117	0.217
-264.253	-70.516	0.281	-0.105
-263.238	251.412	-0.108	0.180
-262.224	41.626	0.043	-0.038
-261.209	-200.000	0.056	-0.271
-260.195	-103.060	0.095	-0.022
-259.180	-146.005	-0.190	0.017
-258.165	-57.397	0.103	0.044
-257.151	800.000	-0.124	-0.422
-256.136	5.188	0.421	0.305
-255.122	49.119	0.057	0.052
-254.107	48.158	-0.258	0.238
-253.092	34.759	-0.144	-0.124
-252.078	-85.842	-0.150	-0.046
-251.063	112.603	0.033	-0.039
-250.049	800.000	0.039	0.108
-249.034	-104.478	-0.109	0.025
-248.019	28.645	-0.200	0.167
-247.005	-200.000	0.051	-0.234
-245.990	107.584	0.244	-0.285
-244.976	-200.000	0.006	-0.060
-243.961	202.949	0.173	0.262
-242.946	40.837	-0.381	0.338
-241.932	417.154	-0.082	0.172
-240.917	-105.640	-0.423	0.094
-239.903	-92.441	0.292	-0.081
-238.888	89.442	-0.279	-0.306
-237.873	68.253	-0.160	-0.161
-236.859	-147.079	-0.222	0.019
-235.844	-49.307	-0.305	0.143
-234.830	104.864	0.165	0.191
-233.815	235.015	0.205	0.332
-232.800	800.000	-0.103	0.313
-231.786	372.979	0.028	-0.055
-230.771	800.000	-0.134	0.397
-229.757	435.850	-0.036	0.078
-228.742	-36.026	0.111	0.059
-227.727	16.175	0.110	-0.085
-226.713	-6.466	-0.176	-0.118
-225.698	361.067	0.087	0.171
-224.684	-15.450	0.272	-0.171
-223.669	-53.992	-0.228	-0.102
-222.655	-182.507	0.204	0.004
-221.640	-109.365	0.059	0.012
-220.625	64.955	-0.100	-0.099
-219.611	171.769	-0.067	-0.095
-218.596	-150.408	-0.040	-0.003
-217.582	291.656	-0.066	0.117
-216.567	58.203	0.034	-0.033
-215.552	-24.950	-0.151	-0.088
-214.538	112.633	0.157	0.187
-213.523	99.972	0.218	-0.248
-212.509	800.000	0.114	-0.404
-211.494	191.025	-0.072	0.107
-210.479	-53.868	-0.130	0.058
-209.465	-118.191	-0.131	0.023
-208.450	800.000	-0.016	-0.058
-207.436	82.562	0.343	0.366
-206.421	800.000	0.047	-0.163
-205.406	44.142	0.037	0.033
-204.392	-94.175	0.204	0.055
-203.377	206.221	-0.111	0.170
-202.363	-91.369	0.190	-0.053
-201.348	-73.432	-0.161	-0.058
-200.333	-164.711	-0.307	0.014
-199.319	-28.389	-0.214	0.121
-198.304	-200.000	0.018	0.148
-197.290	800.000	-0.108	-0.306
-196.275	76.953	-0.305	0.318
-195.260	-200.000	0.000	-0.485
-194.246	-16.348	0.177	0.110
-193.231	-134.000	-0.316	0.038
-192.217	800.000	0.140	0.446
-191.202	-39.975	-0.309	0.158
-190.187	-128.894	-0.136	0.019
-189.173	800.000	0.091	-0.255
-188.158	226.452	0.125	-0.199
-187.144	-57.428	0.366	-0.158
-186.129	-0.938	0.287	0.200
-185.114	205.710	0.120	0.183
-184.100	166.738	-0.080	0.111
-183.085	52.459	-0.145	0.135
-182.071	-81.088	-0.191	-0.062
-181.056	-45.972	0.196	0.095
-180.042	99.626	-0.113	0.128
-179.027	4.806	0.072	-0.052
-178.012	-140.722	-0.284	-0.029
-176.998	-38.180	0.181	0.094
-175.983	-193.675	0.032	0.000
-174.969	8.407	-0.048	-0.035
-173.954	-12.630	0.191	0.122
-172.939	-84.994	-0.240	0.074
-171.925	-113.046	0.202	0.039
-170.910	59.129	-0.093	0.090
-169.896	-200.000	-0.020	0.187
-168.881	-9.639	0.348	0.228
-167.866	-34.669	0.411	-0.220
-166.852	19.440	0.121	-0.095
-165.837	-67.869	-0.238	0.091
-164.823	-40.135	0.401	-0.205
-163.808	-200.000	0.053	-0.366
-162.793	251.089	-0.123	-0.205
-161.779	63.420	-0.064	-0.063
-160.764	64.760	-0.066	0.065
-159.750	-200.000	0.023	0.192
-158.735	382.787	0.035	-0.070
-157.720	-122.992	0.279	-0.044
-156.706	-200.000	-0.013	-0.165
-155.691	441.110	0.025	-0.053
-154.677	800.000	-0.071	-0.277
-153.662	-60.867	0.157	0.065
-152.647	-65.926	-0.104	-0.041
-151.633	-45.805	-0.299	-0.145
-150.618	-79.880	0.544	0.179
-149.604	217.814	-0.124	-0.194
-148.589	-200.000	-0.024	-0.183
-147.574	91.790	0.139	0.154
-146.560	32.814	0.046	-0.039
-145.545	31.086	-0.110	0.093
-144.531	66.934	0.271	0.271
-143.516	800.000	-0.101	0.395
-142.502	392.788	0.146	0.298
-141.487	-110.882	-0.083	0.017
-140.472	-21.851	-0.079	-0.047
-139.458	60.013	-0.095	0.092
-138.443	223.246	0.134	0.211
-137.429	15.207	-0.025	0.019
-136.414	800.000	-0.061	0.219
-135.399	43.368	0.118	0.106
-134.385	1.358	0.171	-0.121
-133.370	-55.339	0.256	0.113
-132.356	-164.072	-0.122	0.006
-131.341	800.000	0.057	0.181
-130.326	-1.494	0.191	0.132
-129.312	50.323	-0.211	-0.195
-128.297	58.392	-0.108	0.104
-127.283	-119.240	-0.137	0.023
-126.268	-170.579	0.062	0.002
-125.253	269.710	0.037	-0.063
-124.239	-200.000	0.056	0.385
-123.224	800.000	-0.057	0.178
-122.210	-126.805	0.307	-0.044
-121.195	-31.600	0.083	0.046
-120.180	547.315	0.177	-0.414
