DTS Sentinel unit serial number:	SN413079Multiplexer serial number:	ORYXHardware model number:	OX4-SRSoftware version number:	ORYX F/W v4.00 Oryx Data Collector v3.7.2.0data status	okinstallation	princeton_trtdifferential loss correction	single-endedforward channel	channel 3reverse channel	N/Adate	2019/09/11time	00:18:11forward acquisition time	60.00reverse acquisition time	0.00gamma	496.2192k internal	0.2332k external	0.2332temperature offset calibration	0.9921default loss term (dB/km)	0.3790temperature slope calibration	1.0000multiplexer offset coefficient	1.0000multiplexer slope coefficient	1.0000fibre end	0.00T internal ref (°C)	29.30T ext. ref 1 (°C)	-0.31T ext. ref 2 (°C)	22.85length (m)	temperature (°C)	Stokes	anti-Stokes-747.200	-60.197	0.255	0.110
-746.185	233.925	-0.221	-0.366
-745.171	800.000	0.041	-0.160
-744.156	-15.977	-0.124	0.080
-743.142	202.435	0.107	0.166
-742.127	-136.618	-0.250	0.029
-741.112	164.930	0.057	0.081
-740.098	104.454	0.173	-0.205
-739.083	120.288	0.172	0.215
-738.069	-200.000	-0.049	0.238
-737.054	-200.000	-0.008	0.306
-736.039	681.916	-0.071	0.186
-735.025	-95.556	0.419	-0.113
-734.010	33.510	-0.174	0.152
-732.996	101.152	-0.220	0.258
-731.981	-200.000	-0.063	0.439
-730.966	-38.525	-0.173	-0.092
-729.952	-36.442	-0.092	0.050
-728.937	84.597	-0.127	-0.140
-727.923	-67.114	-0.164	-0.065
-726.908	-101.879	0.321	0.078
-725.894	50.233	0.198	0.188
-724.879	800.000	0.087	-0.381
-723.864	-134.582	0.355	0.043
-722.850	-130.335	-0.534	-0.073
-721.835	-200.000	0.010	-0.480
-720.821	-200.000	0.051	-0.268
-719.806	-144.988	-0.393	-0.036
-718.791	-121.840	0.150	0.025
-717.777	-141.542	-0.414	-0.042
-716.762	-81.292	0.215	-0.071
-715.748	306.051	-0.259	0.485
-714.733	-17.039	-0.174	-0.110
-713.718	-100.970	-0.328	-0.081
-712.704	-40.685	0.099	-0.051
-711.689	-24.638	0.234	0.140
-710.675	-200.000	-0.070	0.342
-709.660	-111.566	-0.360	-0.073
-708.645	-7.854	0.010	0.007
-707.631	56.433	0.180	0.176
-706.616	-200.000	-0.059	-0.270
-705.602	-8.362	-0.063	0.042
-704.587	800.000	-0.012	0.046
-703.572	-113.271	-0.052	-0.010
-702.558	13.403	-0.166	-0.129
-701.543	-18.921	0.242	-0.151
-700.529	-42.764	-0.164	-0.084
-699.514	-200.000	-0.091	-0.475
-698.499	800.000	-0.137	-0.436
-697.485	-200.000	0.042	0.401
-696.470	49.780	-0.055	-0.052
-695.456	800.000	0.033	0.117
-694.441	800.000	0.053	0.150
-693.426	800.000	-0.032	-0.094
-692.412	305.642	-0.167	0.312
-691.397	185.652	-0.242	-0.362
-690.383	800.000	-0.079	-0.246
-689.368	553.366	-0.036	-0.086
-688.354	203.537	0.151	0.234
-687.339	800.000	0.015	0.065
-686.324	-200.000	-0.001	-0.259
-685.310	192.137	0.113	-0.171
-684.295	15.734	0.044	0.035
-683.281	51.210	-0.131	-0.125
-682.266	75.190	-0.127	0.134
-681.251	34.187	-0.068	-0.059
-680.237	-133.981	0.159	0.020
-679.222	800.000	-0.086	-0.241
-678.208	-200.000	-0.045	0.224
-677.193	-200.000	-0.042	-0.183
-676.178	243.573	-0.061	0.103
-675.164	310.898	-0.075	-0.141
-674.149	800.000	-0.126	-0.424
-673.135	597.485	-0.113	-0.280
-672.120	-115.895	0.213	0.040
-671.105	-103.824	0.260	0.061
-670.091	-188.900	-0.178	-0.002
-669.076	-200.000	-0.001	0.238
-668.062	53.251	-0.099	-0.095
-667.047	44.333	0.241	-0.222
-666.032	-200.000	-0.004	-0.032
-665.018	-200.000	-0.005	0.069
-664.003	800.000	0.026	0.098
-662.989	404.553	0.068	-0.143
-661.974	-97.916	-0.054	0.014
-660.959	257.108	-0.122	-0.211
-659.945	-19.113	-0.264	0.164
-658.930	392.937	0.065	0.136
-657.916	-200.000	0.021	-0.113
-656.901	-158.636	-0.065	0.004
-655.886	-42.501	0.099	-0.051
-654.872	83.356	-0.325	-0.355
-653.857	-126.067	0.319	0.048
-652.843	616.580	0.168	-0.422
-651.828	6.224	0.086	0.064
-650.814	-200.000	0.030	0.193
-649.799	772.115	0.060	-0.163
-648.784	-161.257	-0.163	0.008
-647.770	198.314	0.152	-0.233
-646.755	-12.634	-0.311	-0.203
-645.741	-95.271	-0.351	-0.095
-644.726	-62.697	0.430	0.179
-643.711	-27.392	0.305	-0.178
-642.697	3.122	-0.217	0.158
-641.682	-31.117	-0.339	-0.192
-640.668	0.751	-0.287	0.206
-639.653	-64.105	0.223	0.091
-638.638	156.258	0.126	-0.174
-637.624	409.087	0.096	-0.204
-636.609	-95.508	-0.395	-0.106
-635.595	-165.325	-0.210	0.009
-634.580	-20.531	-0.073	0.045
-633.565	-171.001	0.084	0.003
-632.551	220.837	0.073	-0.117
-631.536	479.573	-0.017	0.039
-630.522	-148.933	-0.279	0.023
-629.507	-200.000	0.004	0.035
-628.492	800.000	0.018	0.061
-627.478	-200.000	0.016	-0.196
-626.463	296.556	-0.174	-0.320
-625.449	-200.000	-0.012	0.171
-624.434	-200.000	-0.022	0.287
-623.419	737.262	0.049	-0.131
-622.405	350.855	0.073	-0.145
-621.390	-14.839	-0.062	-0.040
-620.376	-116.336	-0.286	-0.053
-619.361	-200.000	0.008	0.224
-618.346	-160.220	-0.044	-0.002
-617.332	800.000	0.056	-0.173
-616.317	70.540	0.247	0.256
-615.303	285.706	0.046	0.083
-614.288	-14.789	-0.158	0.101
-613.273	-37.670	0.079	0.042
-612.259	448.986	0.077	-0.169
-611.244	-78.327	0.354	0.122
-610.230	51.463	0.131	-0.124
-609.215	73.664	-0.097	0.102
-608.201	-200.000	0.029	0.195
-607.186	-200.000	-0.006	0.117
-606.171	-161.428	-0.201	0.010
-605.157	-11.718	0.140	-0.092
-604.142	-147.620	0.190	-0.016
-603.128	278.108	0.124	0.222
-602.113	172.851	0.078	-0.112
-601.098	-200.000	-0.022	-0.295
-600.084	-99.523	-0.160	-0.040
-599.069	-200.000	-0.044	-0.241
-598.055	800.000	-0.016	0.054
-597.040	-79.702	-0.125	0.042
-596.025	21.334	0.185	0.150
-595.011	177.897	0.181	0.264
-593.996	-200.000	-0.001	0.163
-592.982	-200.000	-0.011	0.145
-591.967	-94.478	0.230	0.063
-590.952	-200.000	0.014	0.074
-589.938	-105.735	0.148	0.033
-588.923	220.084	0.081	0.129
-587.909	800.000	0.045	0.162
-586.894	-56.065	0.070	-0.031
-585.879	-134.122	-0.124	0.015
-584.865	-52.224	-0.251	-0.117
-583.850	-154.752	-0.313	-0.021
-582.836	117.026	-0.148	-0.182
-581.821	433.496	0.067	-0.145
-580.806	-91.717	0.349	-0.099
-579.792	-200.000	-0.076	0.532
-578.777	800.000	0.055	-0.160
-577.763	554.143	0.095	-0.229
-576.748	81.592	-0.290	0.313
-575.733	154.490	-0.166	-0.227
-574.719	-48.730	0.121	0.058
-573.704	-48.291	0.046	-0.022
-572.690	-200.000	0.015	-0.186
-571.675	800.000	0.053	-0.211
-570.661	28.608	0.116	0.098
-569.646	406.251	-0.007	0.015
-568.631	127.392	-0.187	-0.238
-567.617	13.077	-0.220	0.170
-566.602	11.838	-0.080	0.061
-565.588	-27.094	0.039	0.023
-564.573	188.142	-0.139	0.208
-563.558	205.642	0.135	-0.210
-562.544	-200.000	-0.010	0.084
-561.529	337.148	-0.138	0.268
-560.515	-59.168	0.187	-0.081
-559.500	17.148	0.235	-0.186
-558.485	-200.000	0.002	0.183
-557.471	-200.000	0.002	-0.092
-556.456	54.729	-0.138	-0.133
-555.442	79.907	0.028	-0.030
-554.427	185.239	0.093	-0.138
-553.412	800.000	0.038	0.131
-552.398	92.690	-0.119	0.134
-551.383	800.000	-0.083	-0.260
-550.369	-182.185	-0.219	-0.004
-549.354	-200.000	-0.007	-0.212
-548.339	800.000	0.106	-0.377
-547.325	58.276	-0.218	-0.213
-546.310	227.649	0.062	-0.101
-545.296	-82.018	0.209	-0.068
-544.281	207.410	0.127	0.197
-543.266	386.713	0.119	-0.245
-542.252	-66.642	0.089	0.035
-541.237	-200.000	-0.056	-0.482
-540.223	-200.000	0.058	-0.416
-539.208	-200.000	-0.012	-0.359
-538.193	44.846	-0.277	-0.254
-537.179	36.330	-0.234	-0.206
-536.164	-127.222	0.104	-0.015
-535.150	-200.000	0.041	-0.276
-534.135	117.375	-0.189	0.232
-533.121	-31.442	0.252	-0.141
-532.106	170.653	-0.188	-0.269
-531.091	-81.247	0.205	-0.068
-530.077	-89.401	0.228	-0.067
-529.062	156.680	0.219	0.302
-528.048	75.196	0.086	0.090
-527.033	18.934	0.111	-0.089
-526.018	-47.379	-0.230	-0.112
-525.004	-67.742	-0.127	0.050
-523.989	-200.000	0.080	0.373
-522.975	-42.819	-0.196	0.100
-521.960	-147.850	-0.346	0.029
-520.945	-39.315	-0.117	-0.061
-519.931	51.857	-0.153	0.145
-518.916	133.313	0.201	0.259
-517.902	-200.000	-0.034	0.234
-516.887	69.876	0.088	0.091
-515.872	117.207	0.210	-0.257
-514.858	237.587	0.214	-0.355
-513.843	-57.529	-0.222	0.097
-512.829	-48.845	-0.041	-0.020
-511.814	-115.038	-0.061	0.011
-510.799	35.495	-0.357	0.312
-509.785	-168.367	0.347	-0.013
-508.770	689.725	-0.113	0.296
-507.756	-187.395	0.447	0.006
-506.741	-200.000	-0.026	-0.173
-505.726	746.265	0.099	0.265
-504.712	-18.204	-0.219	0.137
-503.697	-52.132	0.424	0.196
-502.683	-200.000	-0.003	0.256
-501.668	-131.421	-0.101	0.013
-500.653	767.381	0.041	-0.112
-499.639	370.608	0.158	0.319
-498.624	324.226	-0.110	-0.209
-497.610	120.840	-0.215	0.266
-496.595	-200.000	-0.015	-0.335
-495.581	-200.000	0.083	-0.545
-494.566	-164.395	-0.303	-0.014
-493.551	-114.175	-0.391	-0.075
-492.537	-200.000	-0.008	0.146
-491.522	13.780	-0.269	-0.208
-490.508	-14.419	-0.157	0.101
-489.493	-154.240	-0.140	0.009
-488.478	-6.658	-0.236	0.160
-487.464	-200.000	0.025	-0.191
-486.449	-90.701	0.049	0.014
-485.435	54.695	0.061	0.058
-484.420	-48.018	0.122	-0.059
-483.405	800.000	0.008	0.031
-482.391	306.522	0.035	0.064
-481.376	-96.792	-0.136	0.036
-480.362	-130.042	-0.168	0.023
-479.347	-153.526	-0.118	-0.008
-478.332	800.000	0.090	0.301
-477.318	169.732	0.187	0.267
-476.303	174.647	0.098	-0.141
-475.289	60.002	-0.410	-0.404
-474.274	-200.000	0.032	-0.246
-473.259	800.000	0.017	-0.054
-472.245	-200.000	0.011	-0.095
-471.230	-115.854	-0.157	0.029
-470.216	-31.973	-0.180	0.100
-469.201	-28.265	0.136	-0.078
-468.186	42.203	0.075	-0.068
-467.172	800.000	-0.044	0.164
-466.157	116.466	-0.138	0.168
-465.143	-145.771	0.416	0.037
-464.128	-200.000	0.038	-0.182
-463.113	163.197	-0.060	0.084
-462.099	-18.564	-0.240	0.149
-461.084	32.811	0.092	0.079
-460.070	30.605	0.183	-0.156
-459.055	332.313	-0.109	0.209
-458.040	-117.628	-0.108	-0.019
-457.026	-111.550	0.194	-0.039
-456.011	77.139	-0.215	0.228
-454.997	202.380	0.184	-0.283
-453.982	313.919	-0.193	0.362
-452.968	37.950	-0.111	0.098
-451.953	-115.341	0.184	-0.035
-450.938	-144.141	-0.240	0.022
-449.924	-200.000	-0.010	0.089
-448.909	512.307	0.128	-0.297
-447.895	151.387	-0.164	0.221
-446.880	-200.000	0.044	0.209
-445.865	93.306	0.146	0.164
-444.851	-162.520	-0.162	-0.008
-443.836	-119.326	0.225	-0.039
-442.822	-79.540	-0.204	-0.069
-441.807	-6.309	-0.071	-0.048
-440.792	7.578	0.326	0.242
-439.778	-200.000	-0.025	0.272
-438.763	381.754	0.094	0.191
-437.749	-140.698	-0.173	0.018
-436.734	-191.511	-0.035	0.000
-435.719	-65.610	0.301	-0.120
-434.705	-108.327	-0.062	0.013
-433.690	-3.132	0.247	0.171
-432.676	191.365	-0.171	0.255
-431.661	800.000	-0.175	0.620
-430.646	186.319	-0.090	-0.133
-429.632	800.000	-0.029	0.088
-428.617	-200.000	0.012	0.159
-427.603	238.921	-0.235	0.388
-426.588	-200.000	0.005	-0.036
-425.573	-52.100	0.139	-0.064
-424.559	-12.280	0.250	-0.162
-423.544	271.582	-0.053	0.092
-422.530	150.179	-0.108	-0.145
-421.515	72.115	0.173	0.179
-420.500	-53.130	0.121	-0.055
-419.486	-108.810	0.162	-0.034
-418.471	-125.208	-0.170	0.026
-417.457	113.196	0.107	-0.129
-416.442	-105.439	0.190	0.043
-415.428	-200.000	-0.042	-0.355
-414.413	-89.785	-0.215	0.063
-413.398	-2.028	0.254	-0.177
-412.384	318.237	-0.069	0.130
-411.369	-200.000	-0.013	0.279
-410.355	-110.994	-0.263	-0.054
-409.340	480.650	0.053	0.119
-408.325	87.068	0.060	-0.066
-407.311	-200.000	0.019	0.171
-406.296	328.096	0.077	0.146
-405.282	-33.129	0.207	-0.114
-404.267	-138.099	0.260	-0.029
-403.252	213.606	-0.047	-0.074
-402.238	120.228	-0.080	0.098
-401.223	2.467	-0.128	-0.092
-400.209	692.434	0.117	-0.303
-399.194	-200.000	0.251	-0.001
-398.179	-93.877	-0.215	-0.059
-397.165	235.123	-0.275	0.451
-396.150	-200.000	0.048	-0.211
-395.136	-54.407	0.256	-0.115
-394.121	-45.527	-0.078	0.038
-393.106	-15.116	-0.263	0.167
-392.092	-101.321	-0.228	0.055
-391.077	427.670	0.109	0.232
-390.063	179.662	0.330	0.480
-389.048	489.372	-0.087	0.198
-388.033	-200.000	-0.004	0.093
-387.019	36.585	-0.358	-0.313
-386.004	652.645	0.129	-0.329
-384.990	64.177	-0.279	0.279
-383.975	59.378	0.178	0.174
-382.960	-136.680	0.156	0.018
-381.946	422.248	-0.022	-0.048
-380.931	-91.081	0.242	0.069
-379.917	-200.000	0.004	0.022
-378.902	-121.966	-0.165	-0.027
-377.888	-200.000	0.057	-0.368
-376.873	-130.983	-0.304	0.040
-375.858	-163.736	0.212	-0.010
-374.844	-99.426	0.072	-0.018
-373.829	-17.631	0.270	-0.168
-372.815	-200.000	0.010	0.313
-371.800	-85.558	-0.071	-0.022
-370.785	50.227	0.333	-0.312
-369.771	178.803	0.243	-0.352
-368.756	114.744	-0.277	-0.335
-367.742	-42.332	-0.256	0.130
-366.727	800.000	-0.085	0.345
-365.712	800.000	-0.024	-0.068
-364.698	5.062	-0.371	-0.271
-363.683	54.775	0.057	-0.055
-362.669	26.199	-0.120	-0.099
-361.654	107.085	0.094	0.111
-360.639	-200.000	0.017	0.162
-359.625	800.000	-0.061	0.261
-358.610	224.070	-0.165	-0.264
-357.596	361.223	-0.232	-0.462
-356.581	-30.929	-0.235	0.131
-355.566	96.774	0.143	-0.162
-354.552	-14.426	-0.213	-0.136
-353.537	237.650	0.141	0.232
-352.523	219.801	0.075	0.119
-351.508	-94.170	-0.149	-0.040
-350.493	54.151	0.213	-0.203
-349.479	104.306	0.145	-0.169
-348.464	103.934	0.198	-0.231
-347.450	-148.632	-0.113	-0.009
-346.435	800.000	0.008	-0.029
-345.420	-79.231	0.181	-0.061
-344.406	69.280	-0.181	0.184
-343.391	-200.000	-0.008	-0.033
-342.377	-200.000	-0.043	-0.301
-341.362	-24.518	-0.398	0.235
-340.348	-50.472	0.123	-0.058
-339.333	-138.945	-0.186	-0.020
-338.318	-46.874	0.241	-0.117
-337.304	-200.000	0.002	-0.153
-336.289	368.600	-0.128	-0.257
-335.275	406.094	-0.062	-0.130
-334.260	800.000	-0.086	0.316
-333.245	15.307	-0.111	-0.086
-332.231	-161.419	-0.264	-0.013
-331.216	-0.393	-0.026	0.018
-330.202	-60.823	0.226	-0.095
-329.187	125.799	-0.047	-0.059
-328.172	177.670	0.073	0.105
-327.158	800.000	0.021	0.066
-326.143	-82.644	-0.203	-0.065
-325.129	-66.106	0.170	0.067
-324.114	-200.000	-0.046	0.401
-323.099	-200.000	-0.031	-0.138
-322.085	249.943	0.070	-0.118
-321.070	800.000	0.050	-0.151
-320.056	-200.000	0.031	0.337
-319.041	-103.131	-0.258	-0.060
-318.026	102.203	0.130	0.151
-317.012	44.817	-0.116	0.106
-315.997	163.469	0.088	-0.122
-314.983	34.583	0.156	-0.135
-313.968	-129.897	-0.150	-0.020
-312.953	46.305	0.120	-0.110
-311.939	122.874	0.145	-0.180
-310.924	49.286	0.119	0.111
-309.910	-200.000	-0.080	-0.384
-308.895	-102.552	0.060	-0.014
-307.880	-200.000	-0.089	0.445
-306.866	800.000	0.050	0.208
-305.851	-55.814	0.392	-0.173
-304.837	-200.000	0.044	0.241
-303.822	-200.000	-0.034	0.264
-302.807	-200.000	-0.007	0.088
-301.793	800.000	-0.091	0.348
-300.778	23.443	0.158	0.129
-299.764	49.387	-0.160	-0.148
-298.749	800.000	0.022	0.086
-297.735	-95.129	0.260	-0.069
-296.720	-24.588	-0.318	0.187
-295.705	42.930	0.187	-0.168
-294.691	-122.700	0.171	-0.027
-293.676	-125.631	0.218	-0.033
-292.662	-67.903	0.030	0.011
-291.647	103.674	0.090	0.104
-290.632	245.726	-0.090	-0.151
-289.618	-200.000	-0.064	0.315
-288.603	-12.358	-0.244	0.158
-287.589	-46.493	0.135	-0.066
-286.574	-48.051	-0.211	-0.101
-285.559	356.365	0.097	-0.190
-284.545	-136.550	-0.136	-0.016
-283.530	275.737	-0.036	0.063
-282.516	40.582	-0.313	0.279
-281.501	78.344	0.174	-0.184
-280.486	670.403	0.042	0.108
-279.472	16.763	-0.106	0.083
-278.457	-98.330	-0.122	-0.031
-277.443	-200.000	0.022	-0.125
-276.428	420.091	0.042	-0.089
-275.413	180.805	-0.202	0.292
-274.399	459.932	0.192	0.423
-273.384	-194.265	0.168	0.001
-272.370	-162.578	-0.432	-0.021
-271.355	159.303	-0.237	-0.326
-270.340	25.609	0.028	0.023
-269.326	322.210	0.055	-0.104
-268.311	-200.000	-0.004	0.166
-267.297	-200.000	-0.077	-0.448
-266.282	-123.478	0.166	-0.026
-265.267	141.950	0.183	0.240
-264.253	-156.222	0.264	0.016
-263.238	-28.167	-0.132	-0.075
-262.224	-135.644	-0.279	-0.033
-261.209	463.955	0.107	-0.236
-260.195	-159.989	0.142	-0.008
-259.180	-200.000	0.036	0.284
-258.165	-24.784	-0.230	-0.135
-257.151	584.929	0.181	0.439
-256.136	-89.626	-0.122	-0.035
-255.122	4.303	0.023	-0.017
-254.107	52.590	0.134	-0.127
-253.092	17.719	-0.136	0.107
-252.078	-15.825	0.296	-0.186
-251.063	-129.549	0.096	0.013
-250.049	-57.318	0.209	-0.091
-249.034	80.554	0.147	-0.157
-248.019	-4.972	0.142	0.096
-247.005	153.178	0.201	-0.271
-245.990	-177.866	0.211	-0.005
-244.976	396.510	0.109	-0.225
-243.961	800.000	0.082	-0.237
-242.946	800.000	0.053	-0.223
-241.932	649.294	-0.094	0.237
-240.917	-80.305	0.328	-0.108
-239.903	-57.083	-0.208	-0.090
-238.888	36.107	0.146	0.127
-237.873	149.328	-0.204	-0.272
-236.859	-42.257	0.109	-0.055
-235.844	-145.176	0.256	0.023
-234.830	-200.000	-0.001	-0.140
-233.815	76.783	-0.054	-0.057
-232.800	-158.985	-0.233	-0.013
-231.786	800.000	-0.034	0.142
-230.771	139.051	-0.188	-0.243
-229.757	493.326	0.162	0.366
-228.742	545.822	-0.029	0.069
-227.727	-40.889	0.098	0.050
-226.713	4.844	-0.088	0.064
-225.698	-69.521	0.126	-0.048
-224.684	-84.806	-0.089	-0.028
-223.669	-200.000	0.006	0.246
-222.655	109.537	0.169	0.200
-221.640	-200.000	0.019	0.091
-220.625	800.000	-0.083	0.236
-219.611	22.794	0.177	-0.143
-218.596	640.786	-0.069	0.173
-217.582	-38.568	0.149	-0.078
-216.567	191.388	-0.087	-0.129
-215.552	-200.000	0.007	0.141
-214.538	-200.000	0.026	0.128
-213.523	10.953	-0.175	0.132
-212.509	385.472	0.094	-0.190
-211.494	-55.048	0.083	0.037
-210.479	-200.000	0.000	0.317
-209.465	-171.375	0.304	0.010
-208.450	800.000	-0.091	-0.376
-207.436	-134.055	-0.140	-0.017
-206.421	86.619	0.292	0.317
-205.406	210.028	0.116	0.179
-204.392	103.468	0.125	-0.145
-203.377	92.715	-0.205	-0.228
-202.363	1.482	0.019	-0.014
-201.348	-200.000	0.005	0.062
-200.333	593.172	-0.128	0.312
-199.319	81.314	-0.277	-0.295
-198.304	-109.619	0.197	-0.041
-197.290	-200.000	-0.037	-0.210
-196.275	-85.663	0.016	0.005
-195.260	-12.149	0.341	-0.220
-194.246	-146.241	0.086	0.007
-193.231	-7.809	0.086	-0.057
-192.217	-121.875	-0.178	0.029
-191.202	-114.822	-0.148	0.028
-190.187	-200.000	-0.010	-0.088
-189.173	-200.000	-0.091	-0.394
-188.158	-67.210	-0.169	0.065
-187.144	-78.822	-0.334	0.112
-186.129	-124.916	0.504	0.076
-185.114	4.165	-0.368	0.265
-184.100	13.505	-0.112	0.085
-183.085	-141.073	-0.211	0.021
-182.071	350.510	0.056	-0.110
-181.056	169.832	-0.120	0.169
-180.042	149.033	-0.128	0.170
-179.027	153.435	0.241	-0.325
-178.012	104.977	-0.227	-0.264
-176.998	800.000	0.047	0.202
-175.983	-41.799	0.210	-0.106
-174.969	464.635	0.052	0.115
-173.954	686.435	0.053	0.136
-172.939	132.072	0.168	0.213
-171.925	120.772	0.204	-0.249
-170.910	800.000	-0.026	0.093
-169.896	559.331	0.110	-0.261
-168.881	-200.000	-0.036	0.294
-167.866	-180.666	0.111	0.002
-166.852	-200.000	0.027	-0.126
-165.837	156.137	0.228	0.309
-164.823	188.830	0.044	0.065
-163.808	44.562	0.153	-0.139
-162.793	176.251	0.111	-0.159
-161.779	465.558	0.042	0.092
-160.764	-63.035	-0.463	0.188
-159.750	-52.737	-0.030	-0.014
-158.735	-37.593	0.222	0.116
-157.720	-12.689	-0.110	-0.071
-156.706	-125.571	-0.139	0.021
-155.691	183.125	-0.155	-0.225
-154.677	-63.737	0.123	0.049
-153.662	104.658	0.079	-0.092
-152.647	-26.058	0.159	0.092
-151.633	-200.000	-0.002	-0.217
-150.618	800.000	0.037	-0.142
-149.604	-6.198	-0.213	-0.143
-148.589	-200.000	-0.041	0.187
-147.574	800.000	-0.057	0.208
-146.560	-159.428	0.132	-0.007
-145.545	-143.332	0.123	-0.012
-144.531	-200.000	0.014	-0.475
-143.516	-200.000	0.026	0.115
-142.502	-47.507	0.262	-0.125
-141.487	-81.761	-0.160	-0.051
-140.472	-121.010	-0.110	0.018
-139.458	-100.264	-0.252	-0.061
-138.443	161.502	-0.210	0.289
-137.429	370.088	-0.170	-0.339
-136.414	-38.337	-0.308	0.160
-135.399	-62.571	0.049	0.020
-134.385	-6.516	0.035	-0.024
-133.370	800.000	0.073	0.252
-132.356	-122.624	0.328	-0.052
-131.341	-123.347	0.084	0.013
-130.326	-118.904	0.310	0.053
-129.312	-200.000	0.017	-0.282
-128.297	158.235	-0.122	-0.166
-127.283	76.570	-0.040	0.042
-126.268	-129.139	0.147	-0.020
-125.253	800.000	0.072	-0.200
-124.239	213.175	-0.076	-0.118
-123.224	92.253	0.178	0.197
-122.210	686.157	0.075	-0.193
