DTS Sentinel unit serial number:	SN413079Multiplexer serial number:	ORYXHardware model number:	OX4-SRSoftware version number:	ORYX F/W v4.00 Oryx Data Collector v3.7.2.0data status	okinstallation	princeton_trtdifferential loss correction	single-endedforward channel	channel 3reverse channel	N/Adate	2019/09/17time	19:24:34forward acquisition time	60.00reverse acquisition time	0.00gamma	496.2192k internal	0.2306k external	0.2306temperature offset calibration	0.9951default loss term (dB/km)	0.3790temperature slope calibration	1.0000multiplexer offset coefficient	1.0000multiplexer slope coefficient	1.0000fibre end	0.00T internal ref (°C)	37.41T ext. ref 1 (°C)	0.25T ext. ref 2 (°C)	25.60length (m)	temperature (°C)	Stokes	anti-Stokes-747.200	339.333	0.033	0.065
-746.185	-10.715	0.063	0.043
-745.171	-200.000	0.012	-0.414
-744.156	-17.818	0.384	0.245
-743.142	-153.241	-0.157	-0.011
-742.127	94.721	-0.098	0.113
-741.112	-200.000	-0.004	0.152
-740.098	100.307	-0.223	0.263
-739.083	-96.942	0.164	0.044
-738.069	-52.108	-0.251	-0.119
-737.054	800.000	0.079	-0.230
-736.039	-200.000	-0.009	0.180
-735.025	800.000	-0.044	0.127
-734.010	47.013	0.114	0.108
-732.996	54.332	-0.103	-0.101
-731.981	40.100	0.105	0.096
-730.966	-200.000	0.010	0.307
-729.952	-66.507	-0.459	-0.185
-728.937	5.106	-0.190	-0.143
-727.923	-93.165	0.531	-0.150
-726.908	299.014	0.094	-0.176
-725.894	155.325	0.209	-0.293
-724.879	-200.000	-0.000	0.019
-723.864	150.406	-0.148	0.204
-722.850	159.897	0.052	0.074
-721.835	800.000	-0.081	-0.258
-720.821	-33.152	-0.352	0.198
-719.806	329.287	-0.078	0.153
-718.791	390.204	-0.023	-0.049
-717.777	63.328	0.277	0.282
-716.762	-132.281	-0.198	-0.026
-715.748	800.000	0.058	-0.233
-714.733	-200.000	-0.010	-0.059
-713.718	-85.290	0.145	-0.046
-712.704	381.864	0.219	-0.457
-711.689	24.290	-0.364	-0.306
-710.675	-90.262	-0.401	0.118
-709.660	257.366	-0.089	-0.156
-708.645	19.962	0.116	-0.095
-707.631	158.853	-0.066	-0.094
-706.616	-95.809	-0.011	0.003
-705.602	-151.414	0.321	-0.024
-704.587	173.318	-0.077	-0.112
-703.572	-200.000	0.017	-0.130
-702.558	-20.352	0.232	0.145
-701.543	-200.000	-0.034	-0.263
-700.529	22.899	-0.181	0.151
-699.514	20.660	0.214	-0.176
-698.499	-95.114	0.270	-0.074
-697.485	-200.000	0.034	-0.266
-696.470	1.332	-0.129	-0.094
-695.456	-0.948	-0.065	0.047
-694.441	-15.503	0.255	0.166
-693.426	37.904	0.132	0.119
-692.412	192.476	0.025	0.038
-691.397	489.654	0.020	-0.047
-690.383	-121.155	-0.205	0.035
-689.368	40.962	0.235	0.216
-688.354	-200.000	0.014	0.092
-687.339	-68.545	0.221	-0.087
-686.324	5.185	-0.182	-0.136
-685.310	51.692	0.092	-0.089
-684.295	-198.036	0.295	0.002
-683.281	-90.226	-0.077	0.023
-682.266	-15.565	0.062	-0.040
-681.251	-150.911	-0.353	0.027
-680.237	-91.751	0.239	0.069
-679.222	111.795	0.280	0.343
-678.208	-200.000	0.063	-0.415
-677.193	-200.000	-0.001	-0.084
-676.178	80.459	-0.292	-0.319
-675.164	185.912	0.058	0.088
-674.149	-78.518	-0.151	-0.053
-673.135	-200.000	0.029	0.154
-672.120	662.524	0.117	0.305
-671.105	-200.000	0.017	-0.259
-670.091	-119.204	0.112	-0.020
-669.076	-200.000	-0.014	-0.140
-668.062	-200.000	-0.027	-0.392
-667.047	-101.182	0.049	0.012
-666.032	800.000	-0.035	0.142
-665.018	-84.791	0.017	0.005
-664.003	17.816	-0.040	-0.032
-662.989	-34.076	0.259	-0.145
-661.974	-94.919	0.178	-0.049
-660.959	153.041	0.069	-0.095
-659.945	19.063	0.140	-0.114
-658.930	290.243	0.073	-0.135
-657.916	258.728	-0.060	-0.105
-656.901	-169.669	-0.043	-0.002
-655.886	567.947	0.112	0.276
-654.872	2.558	-0.194	-0.143
-653.857	85.616	0.188	-0.210
-652.843	111.893	-0.249	0.304
-651.828	1.084	0.079	0.057
-650.814	-86.655	0.121	0.037
-649.799	-200.000	-0.064	-0.420
-648.784	63.864	-0.228	0.233
-647.770	-179.422	-0.026	0.001
-646.755	-90.131	0.337	0.099
-645.741	113.749	-0.056	0.069
-644.726	-25.310	0.228	0.137
-643.711	57.907	0.114	-0.113
-642.697	173.471	-0.212	0.309
-641.682	352.535	-0.049	-0.099
-640.668	152.201	-0.091	0.126
-639.653	800.000	0.110	-0.395
-638.638	350.409	-0.085	0.171
-637.624	59.937	-0.112	-0.112
-636.609	-132.439	0.275	-0.036
-635.595	-97.992	-0.084	0.022
-634.580	-76.112	-0.127	0.045
-633.565	429.954	0.054	-0.118
-632.551	34.798	0.266	-0.235
-631.536	696.462	-0.155	0.413
-630.522	-200.000	0.036	0.295
-629.507	42.945	0.227	-0.210
-628.492	-38.335	0.135	-0.073
-627.478	-72.493	-0.391	-0.146
-626.463	26.128	-0.215	-0.182
-625.449	162.179	0.067	0.095
-624.434	-200.000	-0.038	-0.218
-623.419	722.190	0.071	0.190
-622.405	230.533	0.173	0.287
-621.390	-92.463	-0.135	-0.038
-620.376	-200.000	0.012	0.547
-619.361	-200.000	-0.017	0.308
-618.346	800.000	0.020	0.088
-617.332	-33.868	-0.231	0.129
-616.317	-122.181	0.329	-0.055
-615.303	-62.477	-0.119	-0.050
-614.288	26.849	-0.260	-0.221
-613.273	800.000	-0.029	-0.098
-612.259	-81.405	0.204	0.068
-611.244	517.099	0.017	0.039
-610.230	174.233	0.098	0.143
-609.215	-200.000	0.028	0.146
-608.201	-56.641	0.248	0.111
-607.186	-5.504	-0.070	-0.048
-606.171	-200.000	-0.007	0.300
-605.157	455.889	-0.129	0.289
-604.142	-37.640	0.104	0.056
-603.128	162.512	-0.121	0.172
-602.113	377.482	-0.134	-0.277
-601.098	-36.085	0.308	-0.168
-600.084	-109.632	0.185	0.039
-599.069	134.281	-0.146	0.192
-598.055	-159.585	0.273	0.015
-597.040	-72.438	0.160	-0.060
-596.025	-82.097	-0.085	0.028
-595.011	-57.723	-0.262	-0.116
-593.996	-60.734	-0.275	0.118
-592.982	-87.541	0.114	0.035
-591.967	-91.597	-0.182	0.052
-590.952	43.956	-0.254	0.235
-589.938	-200.000	0.030	0.354
-588.923	9.652	-0.083	-0.064
-587.909	-3.821	0.260	-0.182
-586.894	-71.384	0.234	0.089
-585.879	-200.000	-0.005	0.198
-584.865	17.607	-0.228	0.183
-583.850	-69.781	-0.250	-0.097
-582.836	-87.448	-0.119	0.036
-581.821	-151.982	-0.154	-0.011
-580.806	0.296	-0.124	0.090
-579.792	532.733	-0.119	-0.286
-578.777	169.644	0.023	-0.033
-577.763	799.443	0.069	0.193
-576.748	443.531	0.011	-0.025
-575.733	-5.513	0.157	-0.109
-574.719	800.000	-0.039	0.114
-573.704	-151.398	-0.222	0.017
-572.690	208.220	0.057	-0.090
-571.675	-107.863	-0.276	-0.061
-570.661	37.739	-0.216	-0.194
-569.646	161.600	-0.071	-0.100
-568.631	360.170	0.095	0.193
-567.617	-131.152	-0.302	-0.041
-566.602	172.474	0.104	0.151
-565.588	800.000	0.034	-0.141
-564.573	157.828	-0.136	0.191
-563.558	-33.361	-0.194	0.109
-562.544	143.565	-0.164	-0.221
-561.529	-136.867	0.118	0.014
-560.515	11.624	-0.131	-0.101
-559.500	65.554	0.200	0.204
-558.485	89.229	-0.127	-0.143
-557.471	-106.813	0.177	-0.040
-556.456	-200.000	0.041	0.201
-555.442	-200.000	-0.066	0.354
-554.427	-159.823	0.326	-0.018
-553.412	-25.084	0.168	0.100
-552.398	13.887	0.214	-0.168
-551.383	-110.838	-0.145	0.030
-550.369	-31.089	0.219	-0.124
-549.354	283.214	0.105	0.190
-548.339	-117.421	-0.048	0.009
-547.325	5.694	-0.254	0.190
-546.310	-22.095	0.137	-0.084
-545.296	2.603	-0.132	0.096
-544.281	800.000	0.010	-0.036
-543.266	-200.000	0.008	-0.211
-542.252	-16.515	0.454	0.291
-541.237	-59.940	-0.173	-0.074
-540.223	-192.476	0.110	0.001
-539.208	219.112	-0.151	-0.244
-538.193	-41.850	-0.227	0.118
-537.179	-38.337	-0.316	0.169
-536.164	258.868	0.162	-0.282
-535.150	-114.330	0.038	0.007
-534.135	107.741	0.166	-0.200
-533.121	-97.744	0.278	-0.072
-532.106	247.335	0.223	0.380
-531.091	39.449	-0.289	-0.261
-530.077	267.227	0.013	0.023
-529.062	800.000	-0.065	0.267
-528.048	800.000	0.080	0.229
-527.033	-53.993	-0.209	-0.096
-526.018	-200.000	-0.095	-0.496
-525.004	135.250	-0.054	0.071
-523.989	-153.569	0.145	-0.010
-522.975	-67.813	-0.138	0.055
-521.960	505.533	-0.048	-0.113
-520.945	-51.582	0.247	-0.116
-519.931	-162.453	-0.333	-0.017
-518.916	526.919	0.091	-0.217
-517.902	800.000	0.050	0.172
-516.887	-200.000	-0.015	-0.417
-515.872	286.560	-0.015	0.027
-514.858	-51.877	-0.191	-0.090
-513.843	-200.000	-0.002	0.141
-512.829	770.304	-0.032	0.087
-511.814	-129.983	-0.330	0.046
-510.799	281.938	0.094	0.170
-509.785	-23.146	-0.270	0.164
-508.770	-111.084	-0.218	0.045
-507.756	-200.000	0.048	-0.285
-506.741	2.480	-0.397	-0.290
-505.726	32.030	0.223	-0.194
-504.712	-27.969	0.345	0.202
-503.697	487.587	0.137	0.314
-502.683	49.541	0.123	-0.117
-501.668	-200.000	-0.001	-0.406
-500.653	-174.894	-0.098	-0.003
-499.639	-200.000	-0.014	-0.207
-498.624	-76.214	0.058	-0.021
-497.610	-124.725	-0.062	0.010
-496.595	-35.389	-0.159	0.087
-495.581	-75.959	-0.282	-0.100
-494.566	160.095	0.154	0.216
-493.551	-95.105	0.187	0.051
-492.537	9.851	-0.225	-0.172
-491.522	-200.000	-0.227	-0.001
-490.508	107.055	-0.157	0.187
-489.493	-1.927	-0.106	0.075
-488.478	800.000	-0.009	0.033
-487.464	-118.498	-0.466	-0.083
-486.449	-31.223	0.369	-0.209
-485.435	800.000	-0.055	-0.204
-484.420	-102.569	-0.238	0.057
-483.405	126.624	0.022	-0.029
-482.391	-200.000	0.031	-0.219
-481.376	54.064	0.202	-0.196
-480.362	-200.000	-0.008	-0.050
-479.347	-200.000	-0.003	-0.199
-478.332	9.747	0.424	-0.323
-477.318	0.850	-0.134	-0.097
-476.303	-133.979	-0.125	0.016
-475.289	-106.618	-0.013	0.003
-474.274	102.154	0.119	-0.140
-473.259	291.972	-0.147	-0.270
-472.245	234.214	-0.116	-0.192
-471.230	800.000	0.046	0.135
-470.216	-90.999	-0.192	0.055
-469.201	-11.834	0.350	-0.231
-468.186	-200.000	0.014	0.143
-467.172	-92.055	-0.180	-0.051
-466.157	-200.000	0.003	0.163
-465.143	10.650	-0.185	0.142
-464.128	-200.000	0.006	-0.129
-463.113	17.909	0.056	-0.045
-462.099	-200.000	0.002	-0.309
-461.084	-138.172	-0.128	-0.014
-460.070	-128.697	0.264	0.037
-459.055	-52.002	-0.133	-0.062
-458.040	-161.901	-0.260	0.013
-457.026	138.657	0.189	0.250
-456.011	450.111	-0.075	-0.167
-454.997	-167.755	-0.209	0.008
-453.982	268.544	-0.174	0.306
-452.968	800.000	0.087	-0.267
-451.953	-21.970	0.440	-0.269
-450.938	48.271	-0.152	-0.143
-449.924	-79.760	-0.243	-0.082
-448.909	-98.412	0.092	0.024
-447.895	-200.000	0.018	-0.277
-446.880	800.000	0.033	0.115
-445.865	-90.960	-0.355	-0.103
-444.851	-200.000	-0.005	0.309
-443.836	800.000	-0.048	0.147
-442.822	-39.282	-0.038	0.020
-441.807	6.971	-0.182	0.136
-440.792	690.598	0.033	0.087
-439.778	-115.374	-0.410	0.078
-438.763	-200.000	-0.006	-0.204
-437.749	-109.962	0.274	-0.058
-436.734	-73.080	-0.208	-0.077
-435.719	-200.000	0.009	-0.222
-434.705	-102.129	-0.389	0.094
-433.690	97.963	0.130	0.151
-432.676	394.476	0.029	-0.060
-431.661	-124.452	0.546	0.085
-430.646	205.989	0.114	0.178
-429.632	242.115	-0.186	-0.313
-428.617	-200.000	0.006	-0.171
-427.603	74.292	0.068	0.071
-426.588	62.378	-0.158	0.158
-425.573	800.000	-0.066	-0.214
-424.559	-131.629	0.051	0.007
-423.544	-28.321	-0.110	0.064
-422.530	-3.570	0.322	-0.225
-421.515	800.000	0.039	0.112
-420.500	219.755	0.042	0.068
-419.486	-46.997	-0.184	-0.090
-418.471	-118.546	0.199	0.035
-417.457	-192.632	0.106	-0.001
-416.442	-47.563	-0.239	-0.116
-415.428	-59.103	-0.190	0.082
-414.413	-134.723	-0.038	0.005
-413.398	800.000	0.080	0.313
-412.384	-162.944	0.362	0.018
-411.369	125.774	-0.068	0.086
-410.355	57.917	0.150	0.147
-409.340	-131.496	0.266	-0.035
-408.325	257.036	-0.139	0.240
-407.311	-200.000	0.027	0.241
-406.296	800.000	-0.051	-0.217
-405.282	-116.721	0.230	0.042
-404.267	-134.331	-0.278	0.034
-403.252	210.299	0.158	0.249
-402.238	36.621	-0.300	0.265
-401.223	-62.018	0.121	-0.051
-400.209	-200.000	0.022	0.211
-399.194	-135.301	-0.361	0.043
-398.179	-200.000	0.000	0.054
-397.165	-200.000	0.007	-0.068
-396.150	87.690	0.284	-0.316
-395.136	-200.000	0.016	0.086
-394.121	205.678	-0.068	0.107
-393.106	800.000	-0.016	0.061
-392.092	-164.239	0.080	-0.004
-391.077	46.101	0.145	-0.135
-390.063	-200.000	-0.002	0.038
-389.048	-200.000	0.015	0.149
-388.033	77.690	-0.246	0.263
-387.019	656.386	0.029	-0.076
-386.004	-26.002	-0.217	-0.128
-384.990	800.000	-0.021	0.064
-383.975	-200.000	-0.028	0.409
-382.960	-100.469	0.100	-0.025
-381.946	-50.365	-0.200	-0.095
-380.931	-200.000	-0.005	-0.105
-379.917	-53.275	0.108	-0.050
-378.902	-73.458	0.162	-0.059
-377.888	-58.722	-0.369	0.160
-376.873	70.311	-0.262	0.271
-375.858	800.000	0.069	-0.203
-374.844	-200.000	0.016	0.138
-373.829	-42.702	-0.217	0.111
-372.815	107.423	0.246	0.293
-371.800	800.000	-0.121	0.346
-370.785	-58.238	-0.190	-0.083
-369.771	-200.000	-0.017	0.247
-368.756	126.043	-0.226	0.286
-367.742	-4.606	0.203	0.140
-366.727	-42.237	0.319	-0.163
-365.712	-187.998	0.206	0.003
-364.698	-200.000	0.004	-0.245
-363.683	410.134	-0.192	0.408
-362.669	-200.000	-0.024	0.201
-361.654	162.661	0.064	-0.090
-360.639	-97.056	-0.335	-0.088
-359.625	389.719	-0.143	-0.296
-358.610	121.322	0.306	-0.382
-357.596	-200.000	-0.008	-0.157
-356.581	563.507	-0.150	-0.365
-355.566	-200.000	-0.020	0.272
-354.552	-200.000	-0.040	-0.176
-353.537	245.245	-0.130	-0.219
-352.523	359.230	-0.215	-0.431
-351.508	-45.254	-0.219	-0.109
-350.493	-113.546	0.147	0.029
-349.479	194.612	-0.282	-0.429
-348.464	209.821	0.204	-0.321
-347.450	-200.000	-0.005	-0.146
-346.435	1.666	0.192	-0.139
-345.420	-47.748	-0.207	-0.101
-344.406	-37.149	0.180	-0.096
-343.391	383.588	0.049	0.101
-342.377	-90.891	-0.426	-0.123
-341.362	211.145	0.149	0.234
-340.348	40.929	0.138	0.125
-339.333	581.734	0.043	0.106
-338.318	-200.000	-0.013	0.127
-337.304	800.000	-0.100	0.278
-336.289	-64.355	0.233	-0.095
-335.275	-200.000	0.027	-0.119
-334.260	-49.995	0.215	0.102
-333.245	-18.064	-0.044	0.028
-332.231	113.606	0.142	-0.173
-331.216	747.963	0.120	-0.323
-330.202	-7.715	-0.316	0.214
-329.187	-17.060	-0.271	-0.171
-328.172	-79.995	-0.195	0.065
-327.158	77.285	0.140	0.149
-326.143	-6.657	-0.170	-0.116
-325.129	-20.410	-0.273	0.168
-324.114	47.710	0.347	0.324
-323.099	-12.866	-0.021	0.013
-322.085	177.829	-0.118	-0.172
-321.070	547.166	-0.071	-0.171
-320.056	800.000	0.088	0.306
-319.041	54.633	-0.132	-0.128
-318.026	800.000	-0.049	0.178
-317.012	-200.000	0.003	-0.207
-315.997	699.530	0.077	0.203
-314.983	800.000	0.136	0.426
-313.968	-200.000	-0.035	0.213
-312.953	-200.000	-0.006	0.234
-311.939	-200.000	-0.013	0.086
-310.924	-103.678	0.366	0.086
-309.910	293.199	-0.185	-0.338
-308.895	-167.145	0.325	-0.013
-307.880	40.457	-0.145	-0.131
-306.866	-124.651	0.172	-0.027
-305.851	-99.209	-0.158	-0.040
-304.837	-200.000	0.033	0.268
-303.822	-22.633	0.186	0.112
-302.807	-73.412	0.198	-0.072
-301.793	800.000	-0.053	-0.193
-300.778	143.520	0.062	-0.083
-299.764	-89.041	-0.016	-0.005
-298.749	800.000	0.172	-0.602
-297.735	-200.000	-0.001	-0.022
-296.720	301.491	-0.209	0.387
-295.705	-200.000	-0.007	0.241
-294.691	-27.267	0.310	0.180
-293.676	-200.000	-0.017	-0.119
-292.662	124.107	-0.234	-0.294
-291.647	156.891	0.001	-0.002
-290.632	160.990	0.067	-0.093
-289.618	-169.726	-0.352	-0.013
-288.603	27.071	-0.239	0.201
-287.589	-74.499	-0.321	-0.116
-286.574	266.450	-0.213	0.372
-285.559	-11.851	0.445	-0.292
-284.545	-139.903	0.305	0.032
-283.530	800.000	0.033	0.138
-282.516	800.000	0.071	-0.257
-281.501	113.478	-0.067	0.081
-280.486	-118.706	-0.286	0.050
-279.472	800.000	0.059	0.195
-278.457	16.144	-0.174	0.137
-277.443	-98.360	0.264	0.068
-276.428	-131.795	0.393	0.051
-275.413	-77.816	0.208	0.072
-274.399	-124.572	-0.211	0.033
-273.384	-54.520	0.531	-0.240
-272.370	-2.206	0.079	-0.055
-271.355	172.410	-0.082	0.117
-270.340	744.396	-0.126	0.339
-269.326	-2.424	0.052	-0.036
-268.311	88.739	0.099	-0.110
-267.297	-43.616	0.221	0.111
-266.282	280.771	-0.008	0.014
-265.267	15.340	-0.387	0.303
-264.253	26.891	0.239	0.200
-263.238	800.000	-0.084	0.332
-262.224	17.397	-0.134	0.106
-261.209	-200.000	-0.012	-0.249
-260.195	-200.000	-0.008	0.111
-259.180	-7.656	0.485	-0.328
-258.165	-75.029	0.230	-0.082
-257.151	-110.962	-0.191	0.039
-256.136	330.925	-0.095	0.183
-255.122	-134.091	0.406	0.050
-254.107	800.000	0.093	0.316
-253.092	13.907	0.149	-0.116
-252.078	-116.435	0.150	-0.028
-251.063	-200.000	0.012	-0.104
-250.049	452.106	0.089	0.196
-249.034	-37.117	-0.308	-0.164
-248.019	-200.000	0.003	0.019
-247.005	-34.506	0.087	0.048
-245.990	-200.000	-0.006	0.028
-244.976	-98.380	-0.204	-0.052
-243.961	50.419	0.043	0.040
-242.946	-200.000	-0.001	0.016
-241.932	-83.564	-0.095	-0.030
-240.917	-200.000	0.029	0.258
-239.903	138.885	-0.216	0.283
-238.888	-200.000	0.027	-0.230
-237.873	77.736	0.211	0.224
-236.859	800.000	0.032	-0.121
-235.844	16.552	-0.068	0.054
-234.830	800.000	-0.063	-0.184
-233.815	543.111	0.111	-0.265
-232.800	-200.000	-0.014	0.177
-231.786	77.444	0.175	-0.185
-230.771	-200.000	-0.022	-0.193
-229.757	-200.000	-0.035	0.265
-228.742	163.851	0.155	-0.218
-227.727	-200.000	0.023	0.167
-226.713	800.000	0.074	-0.255
-225.698	-139.263	0.321	-0.034
-224.684	-200.000	0.021	0.205
-223.669	800.000	0.052	-0.170
-222.655	-70.543	-0.236	0.089
-221.640	-53.555	0.048	-0.022
-220.625	-60.452	0.278	-0.118
-219.611	-110.887	-0.331	0.068
-218.596	-200.000	0.012	0.211
-217.582	-28.136	0.205	-0.118
-216.567	46.950	-0.212	-0.197
-215.552	73.249	0.203	0.211
-214.538	-200.000	0.015	-0.264
-213.523	-25.154	0.232	-0.137
-212.509	-131.036	-0.188	0.025
-211.494	-50.794	-0.124	-0.058
-210.479	273.817	0.298	0.526
-209.465	-32.904	0.142	-0.078
-208.450	800.000	0.082	-0.234
-207.436	-200.000	0.077	-0.383
-206.421	342.380	-0.047	-0.091
-205.406	-200.000	0.009	-0.061
-204.392	204.305	-0.150	0.232
-203.377	800.000	0.010	0.030
-202.363	407.051	0.182	0.382
-201.348	234.147	0.065	0.106
-200.333	42.505	-0.063	-0.058
-199.319	454.343	0.072	-0.158
-198.304	-200.000	0.010	-0.079
-197.290	-86.242	0.261	0.080
-196.275	67.163	-0.293	-0.298
-195.260	-200.000	0.000	-0.171
-194.246	-143.851	0.108	-0.010
-193.231	-200.000	0.003	0.145
-192.217	-200.000	0.004	-0.479
-191.202	292.195	0.335	-0.608
-190.187	169.870	-0.058	-0.083
-189.173	26.337	0.119	0.099
-188.158	63.259	0.162	-0.162
-187.144	290.299	0.104	-0.188
-186.129	-95.884	0.172	0.046
-185.114	800.000	-0.074	-0.319
-184.100	302.084	0.110	0.202
-183.085	-200.000	-0.005	0.038
-182.071	-23.770	-0.432	-0.258
-181.056	-18.685	0.269	-0.167
-180.042	-163.014	0.078	0.004
-179.027	198.497	0.053	-0.080
-178.012	-200.000	0.041	0.212
-176.998	-25.249	0.237	-0.139
-175.983	-9.504	-0.099	-0.066
-174.969	575.722	0.141	-0.342
-173.954	-77.341	0.190	-0.066
-172.939	800.000	0.054	-0.173
-171.925	671.799	-0.112	0.288
-170.910	-121.577	0.263	0.043
-169.896	-49.130	-0.220	0.105
-168.881	-38.384	-0.290	0.153
-167.866	-8.657	0.167	0.112
-166.852	147.777	0.092	0.124
-165.837	6.121	0.046	-0.034
-164.823	182.645	0.099	-0.145
-163.808	-41.032	0.198	0.102
-162.793	-200.000	0.040	0.200
-161.779	-200.000	-0.039	0.236
-160.764	-42.619	-0.171	0.087
-159.750	-200.000	0.006	0.173
-158.735	800.000	-0.025	0.080
-157.720	326.349	0.030	-0.058
-156.706	800.000	-0.025	-0.103
-155.691	-106.581	0.122	-0.027
-154.677	-54.153	0.161	0.073
-153.662	36.882	-0.188	-0.165
-152.647	-200.000	0.037	-0.283
-151.633	800.000	-0.076	-0.280
-150.618	-41.607	0.253	-0.129
-149.604	-17.278	0.035	-0.022
-148.589	205.900	-0.028	-0.043
-147.574	295.458	0.206	-0.374
-146.560	330.524	-0.142	0.271
-145.545	274.187	-0.028	-0.049
-144.531	-200.000	-0.008	-0.073
-143.516	-35.991	-0.092	0.049
-142.502	800.000	-0.084	0.266
-141.487	128.880	-0.178	0.225
-140.472	-107.790	0.312	-0.068
-139.458	-103.696	0.187	-0.044
-138.443	185.087	-0.125	0.184
-137.429	800.000	0.084	-0.298
-136.414	-151.299	-0.120	0.009
-135.399	294.001	-0.087	-0.158
-134.385	174.484	-0.074	-0.107
-133.370	-98.286	0.356	-0.091
-132.356	-105.225	0.230	-0.052
-131.341	800.000	-0.171	0.540
-130.326	-42.977	0.086	0.043
-129.312	800.000	0.035	0.096
-128.297	64.000	0.150	0.150
-127.283	-17.595	0.060	-0.037
-126.268	800.000	0.020	0.072
-125.253	536.377	-0.066	0.155
-124.239	800.000	-0.039	0.142
-123.224	-152.013	-0.385	-0.028
-122.210	-41.423	0.251	0.128
-121.195	2.205	0.315	-0.226
