DTS Sentinel unit serial number:	SN413079Multiplexer serial number:	ORYXHardware model number:	OX4-SRSoftware version number:	ORYX F/W v4.00 Oryx Data Collector v3.7.2.0data status	okinstallation	princeton_trtdifferential loss correction	single-endedforward channel	channel 3reverse channel	N/Adate	2019/09/15time	12:44:35forward acquisition time	60.00reverse acquisition time	0.00gamma	496.2192k internal	0.2297k external	0.2297temperature offset calibration	0.9972default loss term (dB/km)	0.3790temperature slope calibration	1.0000multiplexer offset coefficient	1.0000multiplexer slope coefficient	1.0000fibre end	0.00T internal ref (°C)	35.75T ext. ref 1 (°C)	5.05T ext. ref 2 (°C)	33.51length (m)	temperature (°C)	Stokes	anti-Stokes-747.200	528.727	-0.123	0.296
-746.185	407.413	-0.188	0.406
-745.171	-3.397	-0.244	0.174
-744.156	121.218	-0.328	0.418
-743.142	-200.000	0.001	-0.141
-742.127	-28.343	0.302	-0.178
-741.112	-55.879	-0.182	0.083
-740.098	177.037	0.252	0.374
-739.083	-142.648	-0.415	-0.041
-738.069	-136.211	-0.148	-0.018
-737.054	-125.159	0.320	0.050
-736.039	35.745	-0.084	-0.075
-735.025	791.229	-0.061	0.172
-734.010	-200.000	0.043	-0.235
-732.996	24.817	-0.211	0.179
-731.981	-142.356	-0.110	0.011
-730.966	615.828	-0.082	-0.210
-729.952	116.163	-0.113	-0.141
-728.937	228.918	-0.219	-0.365
-727.923	-200.000	-0.019	0.129
-726.908	-63.292	-0.297	-0.125
-725.894	47.916	-0.256	-0.244
-724.879	-123.739	-0.296	0.048
-723.864	-8.135	0.224	0.154
-722.850	-200.000	-0.000	-0.150
-721.835	-36.130	-0.199	-0.109
-720.821	-200.000	-0.009	0.099
-719.806	26.298	0.315	-0.268
-718.791	179.684	0.216	-0.324
-717.777	83.547	-0.247	-0.274
-716.762	-113.372	0.116	-0.023
-715.748	-87.739	0.085	0.026
-714.733	20.768	-0.222	-0.183
-713.718	-84.159	-0.155	0.050
-712.704	-101.693	-0.248	0.061
-711.689	-25.424	-0.136	0.082
-710.675	-124.948	0.135	-0.021
-709.660	-115.648	-0.508	-0.097
-708.645	800.000	-0.046	-0.189
-707.631	-200.000	-0.004	0.190
-706.616	800.000	0.054	0.203
-705.602	-37.049	-0.176	0.096
-704.587	377.235	0.017	0.036
-703.572	-80.990	0.279	-0.094
-702.558	325.414	-0.043	0.083
-701.543	-98.463	0.258	0.067
-700.529	175.244	-0.100	0.147
-699.514	-197.565	0.214	-0.001
-698.499	-200.000	0.012	-0.237
-697.485	-101.585	-0.372	-0.092
-696.470	-125.445	0.306	0.047
-695.456	-4.214	0.253	-0.179
-694.441	-200.000	0.042	-0.226
-693.426	289.353	0.021	-0.039
-692.412	-70.622	-0.095	-0.037
-691.397	52.927	-0.174	0.170
-690.383	69.705	0.147	-0.154
-689.368	-25.524	-0.126	-0.076
-688.354	418.046	-0.046	0.101
-687.339	-15.859	-0.335	-0.218
-686.324	557.538	-0.045	-0.110
-685.310	-5.428	0.056	-0.039
-684.295	-10.846	0.274	0.185
-683.281	249.597	0.310	-0.535
-682.266	160.367	-0.201	-0.286
-681.251	468.948	-0.073	0.167
-680.237	-200.000	-0.058	0.275
-679.222	-200.000	-0.010	0.063
-678.208	-12.537	-0.324	0.215
-677.193	-75.284	-0.080	0.029
-676.178	511.420	-0.011	-0.026
-675.164	80.393	-0.239	-0.262
-674.149	-95.524	-0.148	0.041
-673.135	258.369	-0.040	-0.070
-672.120	-72.909	-0.276	0.103
-671.105	710.105	0.167	-0.450
-670.091	-200.000	0.007	0.130
-669.076	-200.000	-0.012	0.162
-668.062	144.190	-0.167	0.227
-667.047	389.583	-0.067	-0.141
-666.032	-121.006	0.180	-0.031
-665.018	-94.959	0.374	0.103
-664.003	-55.927	-0.390	-0.177
-662.989	800.000	-0.127	-0.407
-661.974	-1.755	-0.268	-0.192
-660.959	-171.931	0.148	-0.005
-659.945	-127.746	-0.094	0.014
-658.930	-49.989	-0.297	-0.143
-657.916	800.000	0.042	0.135
-656.901	305.020	-0.101	-0.191
-655.886	-76.643	-0.164	0.058
-654.872	22.924	0.240	-0.200
-653.857	-200.000	0.005	0.108
-652.843	583.432	-0.104	-0.259
-651.828	91.998	0.118	-0.135
-650.814	45.873	0.121	-0.114
-649.799	-50.548	-0.069	-0.033
-648.784	-156.176	0.467	0.030
-647.770	-123.695	-0.242	0.039
-646.755	12.718	0.266	0.209
-645.741	800.000	0.062	-0.210
-644.726	198.272	0.088	-0.137
-643.711	98.791	0.076	0.089
-642.697	-200.000	0.009	0.219
-641.682	-200.000	-0.169	-0.001
-640.668	-1.487	0.035	0.025
-639.653	800.000	-0.037	0.123
-638.638	-2.213	-0.148	-0.106
-637.624	-200.000	0.002	0.207
-636.609	318.156	-0.057	0.109
-635.595	655.142	-0.092	-0.240
-634.580	105.847	0.234	-0.282
-633.565	56.886	-0.179	0.177
-632.551	800.000	-0.055	0.221
-631.536	-200.000	0.065	0.296
-630.522	172.524	-0.111	0.162
-629.507	19.730	0.058	0.047
-628.492	3.062	-0.159	0.117
-627.478	640.584	-0.102	-0.263
-626.463	-134.608	-0.231	0.029
-625.449	-46.172	-0.190	-0.095
-624.434	80.399	-0.218	-0.238
-623.419	-77.205	0.246	0.087
-622.405	758.651	0.069	-0.190
-621.390	37.623	-0.198	-0.179
-620.376	-124.788	0.141	-0.022
-619.361	-200.000	0.023	-0.198
-618.346	115.898	0.116	-0.144
-617.332	171.115	0.141	-0.206
-616.317	205.844	-0.060	0.095
-615.303	516.501	0.039	-0.092
-614.288	-127.039	-0.326	0.049
-613.273	800.000	-0.030	0.096
-612.259	-58.548	-0.248	-0.109
-611.244	118.106	-0.195	0.245
-610.230	-200.000	0.033	-0.252
-609.215	98.786	-0.189	-0.222
-608.201	-2.226	0.232	-0.165
-607.186	-155.654	-0.251	0.016
-606.171	69.510	0.087	0.091
-605.157	-172.493	0.183	-0.006
-604.142	800.000	-0.078	-0.218
-603.128	-200.000	-0.038	-0.237
-602.113	800.000	0.014	-0.055
-601.098	538.097	-0.114	0.275
-600.084	-10.959	-0.198	-0.133
-599.069	-161.397	-0.299	-0.016
-598.055	-57.093	-0.360	-0.161
-597.040	-39.007	0.197	0.105
-596.025	-200.000	-0.002	0.326
-595.011	-43.913	-0.325	0.166
-593.996	-200.000	0.022	0.152
-592.982	800.000	-0.095	-0.308
-591.967	800.000	0.044	0.154
-590.952	-38.104	0.177	-0.096
-589.938	156.115	-0.126	-0.176
-588.923	-10.925	0.191	-0.128
-587.909	107.184	-0.090	-0.109
-586.894	104.768	-0.112	-0.134
-585.879	388.656	0.120	0.252
-584.865	-200.000	-0.054	-0.298
-583.850	-102.926	-0.280	0.067
-582.836	377.574	-0.032	-0.067
-581.821	588.278	0.136	-0.341
-580.806	-100.321	-0.273	0.069
-579.792	-32.876	-0.065	0.036
-578.777	-200.000	0.002	0.013
-577.763	800.000	-0.025	-0.077
-576.748	-151.219	-0.061	0.005
-575.733	96.891	0.162	0.188
-574.719	-0.735	0.183	0.131
-573.704	67.819	-0.103	-0.107
-572.690	209.322	0.117	-0.186
-571.675	-7.314	0.228	0.157
-570.661	-123.829	-0.198	0.032
-569.646	-200.000	-0.013	-0.202
-568.631	141.150	-0.070	-0.095
-567.617	162.870	-0.116	-0.165
-566.602	17.746	-0.187	-0.151
-565.588	-172.834	0.249	-0.008
-564.573	12.405	0.092	-0.072
-563.558	215.391	-0.182	-0.293
-562.544	-150.890	0.125	-0.010
-561.529	800.000	0.036	-0.141
-560.515	-91.643	0.141	-0.041
-559.500	-161.200	0.326	-0.017
-558.485	74.007	0.126	0.134
-557.471	55.527	0.023	-0.022
-556.456	245.220	0.043	0.073
-555.442	479.555	0.104	0.238
-554.427	-163.886	0.046	-0.002
-553.412	800.000	0.021	0.064
-552.398	-106.920	0.107	0.024
-551.383	800.000	-0.067	-0.257
-550.369	-68.104	-0.167	0.066
-549.354	-18.045	-0.135	-0.085
-548.339	-66.452	-0.309	0.124
-547.325	800.000	0.059	-0.181
-546.310	-58.249	-0.043	-0.019
-545.296	48.173	0.145	0.138
-544.281	-200.000	-0.063	-0.360
-543.266	-200.000	-0.044	0.268
-542.252	127.096	-0.192	0.247
-541.237	79.472	0.303	0.330
-540.223	215.430	0.040	-0.064
-539.208	-169.645	0.194	-0.007
-538.193	-66.631	0.060	-0.024
-537.179	800.000	0.074	-0.251
-536.164	-200.000	-0.011	-0.254
-535.150	-43.373	-0.150	0.077
-534.135	684.367	0.094	-0.249
-533.121	-200.000	0.063	0.292
-532.106	-6.951	-0.067	0.046
-531.091	-127.900	-0.150	-0.022
-530.077	-65.289	-0.077	-0.031
-529.062	-200.000	0.047	-0.262
-528.048	-126.002	-0.180	-0.027
-527.033	146.664	-0.122	0.166
-526.018	-88.216	0.308	0.093
-525.004	-58.069	0.171	0.075
-523.989	-114.184	0.371	0.073
-522.975	126.175	0.050	0.064
-521.960	87.808	-0.095	0.106
-520.945	-200.000	-0.010	-0.184
-519.931	-88.042	-0.338	0.103
-518.916	291.351	0.125	0.229
-517.902	-122.337	0.191	-0.032
-516.887	34.925	-0.224	0.199
-515.872	465.339	-0.178	0.403
-514.858	4.128	-0.094	-0.070
-513.843	-3.495	0.332	-0.234
-512.829	-168.086	0.067	0.003
-511.814	-200.000	-0.004	0.049
-510.799	236.536	0.147	0.247
-509.785	-111.583	0.244	-0.050
-508.770	54.323	-0.350	0.341
-507.756	109.473	0.125	0.151
-506.741	-34.594	0.087	-0.048
-505.726	45.143	0.058	0.054
-504.712	800.000	0.054	0.177
-503.697	-78.331	-0.208	0.072
-502.683	-200.000	0.026	0.130
-501.668	-31.076	-0.237	-0.135
-500.653	6.417	0.190	0.143
-499.639	23.308	0.076	-0.063
-498.624	-147.004	0.268	0.023
-497.610	800.000	-0.075	-0.225
-496.595	-200.000	0.013	0.553
-495.581	-12.390	-0.403	-0.266
-494.566	-93.425	-0.170	0.048
-493.551	-195.356	0.044	0.000
-492.537	197.470	0.118	0.183
-491.522	-39.928	0.146	0.077
-490.508	-71.792	0.303	-0.114
-489.493	-68.239	0.123	0.048
-488.478	122.996	0.112	-0.142
-487.464	-200.000	0.008	-0.222
-486.449	-6.567	-0.109	-0.075
-485.435	487.615	-0.008	0.019
-484.420	96.653	-0.218	0.252
-483.405	-94.251	-0.135	-0.037
-482.391	-124.711	0.179	-0.028
-481.376	18.375	-0.095	0.077
-480.362	-75.499	0.079	-0.028
-479.347	384.719	-0.108	0.225
-478.332	-75.955	-0.200	0.072
-477.318	-114.967	0.129	0.025
-476.303	-109.023	-0.155	0.033
-475.289	40.178	-0.330	-0.300
-474.274	133.530	-0.217	-0.284
-473.259	215.608	-0.119	0.191
-472.245	-139.230	0.466	0.051
-471.230	-135.558	-0.114	0.014
-470.216	-200.000	0.022	0.261
-469.201	-103.318	0.235	0.056
-468.186	49.079	-0.115	0.109
-467.172	-200.000	-0.008	-0.042
-466.157	-64.649	0.108	-0.044
-465.143	-200.000	-0.001	-0.331
-464.128	213.991	-0.101	-0.161
-463.113	-8.552	-0.063	0.043
-462.099	71.734	0.122	-0.128
-461.084	-200.000	0.004	0.194
-460.070	117.119	-0.087	-0.108
-459.055	-43.507	-0.194	0.099
-458.040	704.154	-0.019	-0.051
-457.026	-5.237	-0.096	-0.067
-456.011	-79.635	-0.020	-0.007
-454.997	800.000	-0.099	0.287
-453.982	-140.085	0.239	-0.025
-452.968	-64.598	0.356	0.146
-451.953	16.625	0.127	-0.101
-450.938	98.092	-0.120	-0.140
-449.924	-200.000	0.019	0.204
-448.909	487.296	-0.089	0.205
-447.895	-46.753	-0.026	-0.013
-446.880	-36.287	0.205	0.111
-445.865	41.058	0.202	-0.184
-444.851	-108.160	-0.152	-0.033
-443.836	69.917	-0.233	-0.242
-442.822	-68.706	0.255	-0.100
-441.807	-200.000	-0.005	-0.170
-440.792	-140.216	-0.028	0.003
-439.778	10.806	0.336	-0.259
-438.763	800.000	-0.043	0.176
-437.749	347.986	-0.033	0.066
-436.734	603.090	0.043	-0.107
-435.719	-4.887	0.113	0.079
-434.705	-110.254	0.254	0.053
-433.690	-163.037	0.219	0.011
-432.676	-4.567	0.149	0.104
-431.661	7.313	-0.211	-0.159
-430.646	317.890	-0.024	-0.046
-429.632	-12.753	-0.160	0.105
-428.617	-157.625	0.099	0.006
-427.603	54.216	0.091	0.089
-426.588	-200.000	0.001	-0.114
-425.573	243.073	-0.082	-0.139
-424.559	-169.028	0.098	-0.004
-423.544	-62.554	-0.094	-0.039
-422.530	800.000	0.029	0.097
-421.515	800.000	0.043	-0.159
-420.500	-200.000	-0.116	0.000
-419.486	253.204	0.013	0.023
-418.471	454.972	-0.052	-0.116
-417.457	-59.701	-0.088	-0.038
-416.442	2.473	-0.138	0.101
-415.428	2.396	0.158	-0.115
-414.413	36.796	0.226	0.201
-413.398	-200.000	0.015	0.283
-412.384	-94.667	0.064	-0.017
-411.369	-24.152	-0.134	-0.081
-410.355	24.437	0.243	0.203
-409.340	363.839	0.056	0.114
-408.325	130.668	-0.259	0.335
-407.311	-84.025	-0.149	-0.048
-406.296	-132.280	0.169	0.022
-405.282	374.210	0.101	-0.207
-404.267	-200.000	0.017	0.082
-403.252	32.345	-0.104	0.091
-402.238	-133.450	-0.264	-0.033
-401.223	-43.316	0.245	-0.125
-400.209	136.721	-0.100	0.132
-399.194	-103.324	-0.328	-0.078
-398.179	-200.000	0.032	-0.252
-397.165	623.991	0.048	0.122
-396.150	202.233	0.218	-0.338
-395.136	206.019	-0.118	-0.186
-394.121	-64.700	0.243	0.099
-393.106	-96.262	0.044	-0.012
-392.092	-46.600	0.112	0.055
-391.077	-200.000	-0.004	-0.144
-390.063	772.913	0.036	0.100
-389.048	167.242	-0.153	0.219
-388.033	800.000	-0.116	0.346
-387.019	749.472	0.123	-0.334
-386.004	35.409	0.120	-0.106
-384.990	800.000	-0.018	0.066
-383.975	691.614	0.130	0.344
-382.960	-106.589	-0.188	0.042
-381.946	-200.000	-0.018	-0.214
-380.931	-161.703	0.020	0.001
-379.917	108.927	0.069	-0.083
-378.902	-200.000	-0.021	0.144
-377.888	-173.132	-0.088	0.003
-376.873	-112.768	0.300	-0.060
-375.858	-200.000	0.041	0.252
-374.844	-200.000	0.006	0.072
-373.829	-34.963	-0.456	-0.251
-372.815	-200.000	-0.004	0.205
-371.800	800.000	0.030	0.113
-370.785	-200.000	0.004	-0.056
-369.771	-37.246	-0.243	0.131
-368.756	-19.178	0.241	0.151
-367.742	800.000	-0.060	-0.205
-366.727	-200.000	0.010	-0.439
-365.712	-200.000	-0.036	-0.311
-364.698	6.445	-0.072	0.054
-363.683	20.500	-0.169	-0.138
-362.669	-200.000	-0.004	0.230
-361.654	-88.502	-0.582	0.175
-360.639	79.217	-0.149	-0.161
-359.625	-82.738	-0.170	-0.055
-358.610	-169.325	0.108	-0.004
-357.596	-200.000	0.016	0.082
-356.581	-200.000	0.010	0.209
-355.566	173.142	0.081	0.118
-354.552	-200.000	0.050	0.529
-353.537	-160.751	0.358	-0.019
-352.523	-47.023	-0.226	-0.111
-351.508	29.320	-0.042	-0.036
-350.493	-94.647	-0.190	-0.052
-349.479	-91.988	0.243	-0.069
-348.464	-200.000	0.042	0.195
-347.450	43.463	0.182	-0.167
-346.435	622.020	0.097	-0.245
-345.420	-200.000	0.032	-0.191
-344.406	-200.000	0.021	0.156
-343.391	-200.000	0.021	-0.123
-342.377	-200.000	0.019	0.095
-341.362	-74.429	0.110	-0.040
-340.348	800.000	0.152	-0.428
-339.333	-32.829	-0.166	-0.093
-338.318	5.289	-0.037	0.028
-337.304	-110.331	-0.240	-0.050
-336.289	41.944	-0.186	-0.169
-335.275	3.987	-0.190	0.140
-334.260	48.315	-0.090	-0.085
-333.245	-96.939	-0.155	-0.041
-332.231	-200.000	-0.031	0.254
-331.216	-200.000	-0.028	0.152
-330.202	800.000	0.014	-0.053
-329.187	296.631	0.073	0.135
-328.172	197.658	0.078	-0.120
-327.158	800.000	-0.154	-0.441
-326.143	348.861	0.024	0.047
-325.129	156.139	0.180	-0.249
-324.114	70.212	-0.070	-0.073
-323.099	800.000	-0.171	0.489
-322.085	473.409	-0.136	0.308
-321.070	-39.532	-0.379	-0.199
-320.056	-121.445	-0.176	0.029
-319.041	-2.664	0.236	-0.166
-318.026	-97.903	0.071	0.018
-317.012	-200.000	-0.083	-0.460
-315.997	72.242	0.052	-0.054
-314.983	-115.101	0.417	0.079
-313.968	-163.672	0.201	-0.010
-312.953	-128.260	0.387	-0.055
-311.939	235.180	0.130	-0.216
-310.924	-42.156	-0.023	-0.012
-309.910	365.340	-0.089	-0.180
-308.895	-196.368	0.308	0.002
-307.880	-119.503	-0.183	-0.032
-306.866	-200.000	0.007	-0.051
-305.851	800.000	0.100	0.294
-304.837	36.685	-0.146	0.129
-303.822	-200.000	0.011	0.106
-302.807	73.251	0.087	0.092
-301.793	-200.000	0.003	0.234
-300.778	-36.129	-0.103	-0.056
-299.764	800.000	-0.106	-0.409
-298.749	-200.000	0.181	-0.000
-297.735	-200.000	0.009	-0.248
-296.720	800.000	0.014	0.047
-295.705	151.754	-0.171	-0.234
-294.691	222.002	-0.030	-0.049
-293.676	-200.000	-0.010	-0.054
-292.662	-101.132	0.212	-0.052
-291.647	279.765	-0.192	0.345
-290.632	-30.551	0.169	0.096
-289.618	7.720	0.207	-0.156
-288.603	-118.436	0.175	0.031
-287.589	-22.493	-0.147	-0.089
-286.574	-57.488	0.468	0.206
-285.559	-52.182	0.212	0.099
-284.545	-200.000	0.002	0.120
-283.530	-84.177	-0.150	-0.048
-282.516	-200.000	-0.106	0.000
-281.501	-43.255	-0.402	0.204
-280.486	117.482	0.048	0.059
-279.472	-200.000	0.051	-0.454
-278.457	-92.914	-0.259	0.072
-277.443	635.762	-0.072	-0.182
-276.428	-200.000	0.054	0.262
-275.413	-22.623	-0.164	-0.099
-274.399	78.410	-0.206	0.221
-273.384	-68.716	-0.300	0.117
-272.370	-119.210	0.041	0.007
-271.355	-200.000	0.019	0.087
-270.340	55.850	-0.027	0.026
-269.326	-98.218	-0.113	-0.029
-268.311	-182.160	-0.302	0.006
-267.297	-120.495	0.212	-0.036
-266.282	-62.693	-0.119	0.049
-265.267	26.337	0.201	0.168
-264.253	-200.000	-0.017	0.239
-263.238	-200.000	-0.027	0.197
-262.224	800.000	0.051	0.151
-261.209	-108.591	-0.181	-0.039
-260.195	75.328	0.257	0.272
-259.180	-200.000	-0.074	0.580
-258.165	800.000	0.084	0.246
-257.151	-200.000	0.007	-0.105
-256.136	-38.007	0.225	-0.120
-255.122	12.107	-0.285	-0.220
-254.107	-120.129	0.205	-0.035
-253.092	124.688	0.031	0.039
-252.078	-19.094	0.156	0.097
-251.063	-200.000	-0.045	-0.221
-250.049	94.463	-0.253	-0.288
-249.034	154.808	-0.057	-0.079
-248.019	-62.295	-0.061	-0.025
-247.005	216.943	-0.068	-0.108
-245.990	800.000	-0.116	0.354
-244.976	221.679	0.047	0.075
-243.961	424.847	0.059	-0.128
-242.946	-131.651	0.131	-0.017
-241.932	-80.561	0.556	0.186
-240.917	-200.000	-0.021	0.148
-239.903	800.000	-0.049	0.136
-238.888	111.020	0.204	0.246
-237.873	-200.000	-0.034	0.168
-236.859	-117.925	0.288	-0.052
-235.844	34.806	-0.241	-0.211
-234.830	-36.169	-0.115	0.062
-233.815	-143.904	0.277	0.026
-232.800	-89.760	0.205	0.060
-231.786	-148.647	0.413	0.034
-230.771	-200.000	0.003	-0.165
-229.757	-200.000	-0.045	-0.225
-228.742	55.634	-0.075	0.072
-227.727	800.000	-0.041	-0.145
-226.713	-200.000	-0.009	-0.088
-225.698	800.000	0.023	-0.080
-224.684	-200.000	0.014	-0.186
-223.669	-25.962	0.156	-0.092
-222.655	8.145	0.098	-0.074
-221.640	70.774	0.232	0.241
-220.625	68.655	0.117	0.120
-219.611	248.870	-0.100	-0.169
-218.596	-36.945	0.185	-0.100
-217.582	327.173	0.088	-0.170
-216.567	-150.226	-0.161	-0.012
-215.552	-136.079	0.160	-0.019
-214.538	-13.751	0.247	0.160
-213.523	-94.372	0.255	-0.070
-212.509	108.645	-0.207	-0.247
-211.494	103.650	0.204	0.240
-210.479	-100.757	0.183	-0.045
-209.465	800.000	0.061	0.228
-208.450	-200.000	-0.043	-0.277
-207.436	58.752	0.142	0.139
-206.421	9.661	-0.072	-0.055
-205.406	800.000	0.097	-0.269
-204.392	-57.972	-0.172	-0.075
-203.377	37.171	0.142	0.126
-202.363	-17.948	-0.190	0.119
-201.348	-12.840	-0.089	0.058
-200.333	788.936	0.185	0.508
-199.319	-175.863	-0.099	-0.003
-198.304	-71.941	0.432	0.161
-197.290	-92.071	-0.303	0.086
-196.275	-10.761	-0.195	-0.129
-195.260	311.240	-0.073	-0.136
-194.246	53.503	0.194	-0.186
-193.231	-0.823	-0.357	0.253
-192.217	800.000	0.065	0.279
-191.202	-200.000	-0.063	-0.476
-190.187	419.805	-0.024	0.051
-189.173	-71.176	0.362	-0.136
-188.158	-115.339	-0.170	0.032
-187.144	223.468	-0.107	-0.173
-186.129	30.344	-0.212	-0.181
-185.114	582.110	-0.065	-0.160
-184.100	-103.517	0.411	0.097
-183.085	25.873	-0.261	-0.218
-182.071	800.000	-0.072	-0.234
-181.056	-142.410	0.259	-0.025
-180.042	-31.770	0.090	0.050
-179.027	800.000	0.047	0.160
-178.012	683.050	0.115	0.300
-176.998	800.000	0.047	0.145
-175.983	-15.151	-0.198	-0.126
-174.969	-14.238	0.145	0.093
-173.954	60.494	-0.015	-0.015
-172.939	737.849	0.098	0.264
-171.925	461.080	0.103	-0.229
-170.910	-72.402	-0.323	0.119
-169.896	294.330	0.138	0.252
-168.881	680.908	-0.049	-0.128
-167.866	-200.000	-0.010	0.199
-166.852	101.186	-0.159	0.185
-165.837	-9.279	-0.112	0.074
-164.823	-16.060	-0.163	-0.103
-163.808	-83.030	0.226	0.073
-162.793	-200.000	-0.005	-0.354
-161.779	-100.536	-0.735	-0.182
-160.764	168.771	0.107	0.152
-159.750	54.827	-0.183	-0.177
-158.735	-112.278	0.246	-0.049
-157.720	191.736	-0.144	0.217
-156.706	800.000	-0.109	-0.311
-155.691	-200.000	-0.000	0.034
-154.677	-19.397	-0.350	0.217
-153.662	-137.807	0.226	-0.025
-152.647	-132.256	0.077	-0.010
-151.633	-79.392	-0.170	-0.057
-150.618	48.297	0.163	0.152
-149.604	298.030	0.090	0.165
-148.589	800.000	-0.131	0.403
-147.574	168.439	-0.030	0.042
-146.560	22.035	0.046	-0.038
-145.545	241.998	-0.202	0.337
-144.531	85.038	0.103	-0.112
-143.516	-198.354	-0.256	0.001
-142.502	-200.000	0.011	-0.150
-141.487	99.438	0.138	-0.159
-140.472	212.128	-0.045	0.070
-139.458	108.956	0.240	-0.286
-138.443	672.488	-0.107	0.276
-137.429	-73.196	0.182	0.066
-136.414	35.866	0.274	-0.241
-135.399	-57.221	-0.085	-0.037
-134.385	-200.000	0.031	-0.213
-133.370	531.091	-0.078	0.183
-132.356	81.615	0.211	0.228
-131.341	800.000	0.080	-0.334
-130.326	800.000	0.055	-0.156
-129.312	66.366	0.307	-0.311
-128.297	-20.972	-0.170	0.104
-127.283	-6.907	-0.086	-0.058
-126.268	-53.720	-0.154	-0.070
-125.253	453.331	0.083	-0.183
-124.239	-19.911	0.182	0.112
-123.224	-67.997	0.156	-0.061
-122.210	-53.386	0.067	0.031
-121.195	-110.030	0.361	-0.075
