DTS Sentinel unit serial number:	SN413079Multiplexer serial number:	ORYXHardware model number:	OX4-SRSoftware version number:	ORYX F/W v4.00 Oryx Data Collector v3.7.2.0data status	okinstallation	princeton_trtdifferential loss correction	single-endedforward channel	channel 3reverse channel	N/Adate	2019/09/18time	23:24:35forward acquisition time	60.00reverse acquisition time	0.00gamma	496.2192k internal	0.2345k external	0.2345temperature offset calibration	0.9989default loss term (dB/km)	0.3790temperature slope calibration	1.0000multiplexer offset coefficient	1.0000multiplexer slope coefficient	1.0000fibre end	0.00T internal ref (°C)	23.75T ext. ref 1 (°C)	0.77T ext. ref 2 (°C)	16.85length (m)	temperature (°C)	Stokes	anti-Stokes-747.200	-8.366	-0.332	0.224
-746.185	705.524	-0.036	0.094
-745.171	179.651	-0.099	-0.145
-744.156	23.532	0.292	0.240
-743.142	-166.959	-0.132	-0.005
-742.127	-175.695	-0.167	0.005
-741.112	-109.114	-0.208	-0.044
-740.098	-45.354	0.118	0.059
-739.083	-165.514	-0.273	-0.012
-738.069	133.096	-0.135	0.175
-737.054	-105.312	-0.119	0.027
-736.039	-82.101	-0.139	-0.045
-735.025	411.698	0.210	0.446
-734.010	12.073	-0.079	0.061
-732.996	-92.508	-0.328	-0.092
-731.981	494.264	0.149	0.342
-730.966	-134.590	-0.358	-0.044
-729.952	381.489	0.026	0.054
-728.937	384.397	-0.077	-0.159
-727.923	-70.865	0.195	-0.073
-726.908	-39.537	0.278	0.146
-725.894	-134.225	-0.150	0.018
-724.879	-139.645	-0.245	0.026
-723.864	51.678	-0.019	0.018
-722.850	-200.000	0.014	0.289
-721.835	-82.203	-0.245	-0.080
-720.821	576.811	-0.115	-0.281
-719.806	74.179	-0.057	-0.060
-718.791	246.078	-0.209	-0.352
-717.777	142.870	-0.141	-0.188
-716.762	-186.786	-0.453	0.006
-715.748	-22.883	-0.027	-0.016
-714.733	-200.000	-0.051	-0.258
-713.718	141.242	-0.020	0.026
-712.704	-70.407	-0.127	-0.048
-711.689	-200.000	0.050	0.338
-710.675	149.828	-0.072	0.097
-709.660	-129.015	-0.115	0.016
-708.645	303.970	-0.137	-0.254
-707.631	-156.665	0.299	0.018
-706.616	-2.145	0.155	-0.109
-705.602	-130.297	0.396	0.054
-704.587	-200.000	-0.024	0.187
-703.572	-92.568	-0.117	-0.033
-702.558	313.963	-0.108	-0.204
-701.543	-134.965	0.309	0.037
-700.529	-15.409	-0.292	-0.186
-699.514	357.654	0.096	0.191
-698.499	64.720	0.095	-0.096
-697.485	-9.968	0.116	0.077
-696.470	-7.320	0.124	0.084
-695.456	157.486	0.085	-0.118
-694.441	-200.000	-0.007	0.164
-693.426	-123.946	-0.189	0.030
-692.412	-200.000	0.051	-0.348
-691.397	-51.701	0.146	-0.068
-690.383	-200.000	-0.203	-0.000
-689.368	-200.000	-0.010	-0.253
-688.354	2.794	0.076	-0.055
-687.339	-200.000	0.004	-0.137
-686.324	434.947	-0.135	0.292
-685.310	199.546	-0.293	-0.449
-684.295	476.479	0.089	-0.202
-683.281	-200.000	0.027	0.293
-682.266	-102.996	-0.270	-0.064
-681.251	800.000	-0.058	0.202
-680.237	-158.780	-0.503	-0.029
-679.222	800.000	0.042	-0.164
-678.208	8.622	-0.171	0.128
-677.193	-83.242	-0.185	-0.059
-676.178	72.075	0.207	-0.215
-675.164	582.434	-0.038	-0.093
-674.149	784.227	-0.084	-0.228
-673.135	104.249	-0.043	0.051
-672.120	242.534	0.137	0.228
-671.105	152.895	0.068	0.093
-670.091	800.000	0.058	0.211
-669.076	800.000	-0.035	-0.118
-668.062	599.231	0.076	-0.188
-667.047	231.547	-0.045	-0.074
-666.032	260.161	-0.118	-0.204
-665.018	-200.000	0.033	-0.272
-664.003	-23.514	0.216	0.129
-662.989	-42.540	-0.162	-0.082
-661.974	412.635	-0.081	-0.172
-660.959	800.000	-0.128	-0.383
-659.945	-200.000	0.037	0.310
-658.930	-200.000	-0.006	0.137
-657.916	-163.258	-0.232	0.011
-656.901	607.180	-0.063	0.156
-655.886	-114.356	0.244	-0.047
-654.872	-200.000	-0.008	-0.045
-653.857	165.265	-0.074	0.105
-652.843	-39.552	0.125	0.065
-651.828	71.738	-0.245	-0.254
-650.814	800.000	0.034	-0.104
-649.799	-132.657	-0.236	-0.030
-648.784	26.773	-0.186	-0.156
-647.770	-101.334	-0.311	0.076
-646.755	1.210	-0.160	-0.115
-645.741	-114.440	0.095	-0.018
-644.726	-23.531	-0.172	-0.103
-643.711	-167.448	-0.146	-0.006
-642.697	-3.727	-0.210	-0.146
-641.682	-36.331	-0.070	-0.038
-640.668	273.440	-0.113	-0.199
-639.653	8.874	0.265	0.199
-638.638	-155.177	0.050	-0.003
-637.624	-23.016	0.117	0.070
-636.609	-125.650	0.225	-0.034
-635.595	-200.000	-0.025	-0.151
-634.580	305.078	-0.041	0.075
-633.565	-200.000	-0.007	-0.168
-632.551	-31.527	0.119	-0.067
-631.536	233.859	0.134	0.220
-630.522	800.000	0.050	0.185
-629.507	-106.057	-0.094	0.021
-628.492	-200.000	-0.003	0.093
-627.478	-115.977	0.379	-0.070
-626.463	12.236	0.225	-0.172
-625.449	-200.000	0.007	-0.157
-624.434	-0.093	0.141	-0.100
-623.419	-200.000	0.022	-0.567
-622.405	38.311	0.100	0.089
-621.390	-127.072	-0.392	0.057
-620.376	-185.503	0.173	-0.003
-619.361	179.089	-0.170	0.248
-618.346	408.030	0.079	0.167
-617.332	42.105	-0.110	-0.100
-616.317	689.097	-0.012	-0.032
-615.303	-200.000	0.000	-0.107
-614.288	20.492	-0.133	0.107
-613.273	-44.814	-0.170	0.085
-612.259	-49.193	0.196	0.093
-611.244	8.691	-0.119	-0.089
-610.230	-120.549	-0.214	-0.036
-609.215	-34.459	0.113	-0.062
-608.201	-89.903	0.374	-0.109
-607.186	49.657	0.052	0.049
-606.171	317.900	-0.038	-0.071
-605.157	-53.368	-0.299	-0.136
-604.142	-50.998	-0.073	-0.034
-603.128	702.731	0.100	-0.262
-602.113	-200.000	-0.014	0.151
-601.098	-74.605	0.099	-0.035
-600.084	-110.550	-0.107	0.022
-599.069	-58.164	-0.138	0.060
-598.055	-37.663	-0.121	0.064
-597.040	-19.693	-0.220	0.135
-596.025	39.033	-0.234	0.208
-595.011	-3.949	-0.083	0.057
-593.996	-200.000	-0.023	0.108
-592.982	-30.143	-0.130	-0.074
-591.967	-200.000	0.040	0.391
-590.952	-65.616	0.474	-0.189
-589.938	208.819	-0.067	0.104
-588.923	218.059	-0.225	-0.357
-587.909	-22.884	-0.295	-0.177
-586.894	79.154	0.186	-0.198
-585.879	10.718	-0.084	0.064
-584.865	52.529	-0.121	-0.115
-583.850	-175.612	-0.477	0.013
-582.836	-135.195	0.252	-0.030
-581.821	-1.621	-0.099	-0.069
-580.806	-157.737	0.084	-0.005
-579.792	117.675	0.256	-0.314
-578.777	-200.000	-0.014	0.149
-577.763	52.320	-0.129	-0.122
-576.748	-61.310	0.130	0.055
-575.733	225.326	0.041	0.066
-574.719	171.893	-0.061	-0.087
-573.704	-10.942	-0.049	0.032
-572.690	-114.405	-0.097	-0.019
-571.675	399.862	-0.035	-0.073
-570.661	96.350	0.393	0.447
-569.646	-85.141	-0.386	-0.120
-568.631	-200.000	0.029	-0.240
-567.617	-111.055	-0.076	0.015
-566.602	-88.859	-0.417	-0.123
-565.588	427.397	-0.133	0.285
-564.573	-127.856	-0.292	0.042
-563.558	-2.674	-0.064	-0.045
-562.544	99.669	0.168	0.194
-561.529	-57.245	-0.278	0.121
-560.515	-61.062	0.307	-0.129
-559.500	-7.231	0.189	0.127
-558.485	694.056	-0.116	0.303
-557.471	731.241	-0.074	-0.196
-556.456	-18.681	0.194	-0.120
-555.442	77.870	-0.165	-0.175
-554.427	149.022	-0.147	0.198
-553.412	6.530	-0.092	0.068
-552.398	38.160	-0.159	-0.140
-551.383	-36.135	0.041	0.022
-550.369	441.482	0.136	0.294
-549.354	-82.623	-0.113	-0.036
-548.339	-74.910	-0.077	-0.028
-547.325	-108.720	0.109	-0.023
-546.310	-200.000	0.020	0.109
-545.296	-99.046	0.343	0.086
-544.281	-91.200	-0.154	-0.044
-543.266	-187.389	0.137	0.002
-542.252	800.000	0.063	0.272
-541.237	-62.409	0.255	-0.105
-540.223	-136.957	-0.311	-0.035
-539.208	126.730	0.175	0.220
-538.193	105.359	-0.097	-0.114
-537.179	-160.902	-0.415	0.022
-536.164	67.191	0.152	0.154
-535.150	193.866	-0.152	-0.229
-534.135	-200.000	-0.011	-0.085
-533.121	136.728	-0.167	0.216
-532.106	-100.789	-0.244	-0.060
-531.091	-200.000	0.012	-0.175
-530.077	-165.831	-0.048	0.002
-529.062	-30.353	-0.109	-0.061
-528.048	127.261	-0.037	0.047
-527.033	-16.040	-0.365	-0.230
-526.018	-200.000	-0.010	-0.146
-525.004	-200.000	-0.025	0.164
-523.989	381.681	0.158	0.323
-522.975	800.000	0.051	-0.197
-521.960	-106.218	0.179	-0.040
-520.945	-88.015	0.072	0.021
-519.931	-114.968	0.388	-0.073
-518.916	-61.248	0.225	-0.094
-517.902	45.606	0.093	0.086
-516.887	78.944	0.221	0.235
-515.872	-58.192	-0.380	0.164
-514.858	-27.606	0.112	0.064
-513.843	286.258	0.178	-0.318
-512.829	-137.814	-0.319	0.035
-511.814	299.876	-0.072	0.131
-510.799	593.271	-0.154	-0.378
-509.785	23.698	0.091	0.075
-508.770	-132.412	0.021	-0.003
-507.756	-53.453	-0.192	0.087
-506.741	733.621	0.091	-0.241
-505.726	52.137	-0.111	-0.105
-504.712	16.522	0.311	0.244
-503.697	166.087	0.222	0.312
-502.683	-129.669	0.319	0.044
-501.668	491.172	-0.057	0.129
-500.653	-96.028	0.063	-0.017
-499.639	114.861	-0.184	0.223
-498.624	-200.000	0.010	0.281
-497.610	-123.288	-0.037	0.006
-496.595	-26.359	-0.224	0.130
-495.581	-177.512	0.237	0.006
-494.566	-200.000	-0.019	0.151
-493.551	-6.172	0.113	-0.077
-492.537	800.000	-0.054	-0.197
-491.522	-94.750	0.520	-0.140
-490.508	39.584	-0.074	-0.066
-489.493	-15.786	0.187	0.118
-488.478	800.000	-0.073	0.308
-487.464	180.762	-0.116	-0.169
-486.449	-138.965	-0.181	-0.019
-485.435	0.536	-0.179	-0.127
-484.420	-107.069	0.340	0.074
-483.405	-200.000	0.219	-0.001
-482.391	-9.361	0.064	-0.042
-481.376	160.199	0.168	0.232
-480.362	-110.513	0.091	0.019
-479.347	13.381	-0.046	0.035
-478.332	383.057	-0.121	0.247
-477.318	43.800	0.093	0.085
-476.303	8.729	-0.187	0.139
-475.289	-122.882	0.221	-0.035
-474.274	-200.000	-0.037	-0.200
-473.259	800.000	0.052	-0.143
-472.245	-104.678	-0.156	0.036
-471.230	-59.793	0.170	-0.072
-470.216	-52.872	-0.133	-0.061
-469.201	-200.000	-0.012	-0.075
-468.186	19.807	-0.073	-0.058
-467.172	313.858	-0.101	0.188
-466.157	-104.462	-0.023	-0.005
-465.143	288.830	-0.133	0.238
-464.128	57.448	0.110	-0.106
-463.113	-15.423	0.143	-0.090
-462.099	-2.404	0.079	-0.055
-461.084	-200.000	0.048	0.289
-460.070	-63.812	-0.337	0.137
-459.055	800.000	-0.050	0.173
-458.040	357.737	0.148	0.293
-457.026	-93.209	-0.211	0.058
-456.011	680.444	0.100	-0.259
-454.997	90.170	-0.135	-0.150
-453.982	-200.000	0.023	0.243
-452.968	-167.515	-0.281	0.011
-451.953	-123.675	-0.122	0.019
-450.938	-178.437	0.121	0.003
-449.924	800.000	0.093	-0.354
-448.909	-200.000	-0.046	0.376
-447.895	77.111	-0.114	-0.120
-446.880	-103.104	-0.228	-0.053
-445.865	-2.147	-0.130	0.090
-444.851	51.323	-0.168	-0.158
-443.836	-23.723	-0.070	-0.041
-442.822	-3.907	0.046	0.032
-441.807	77.244	0.157	-0.165
-440.792	-200.000	0.014	-0.151
-439.778	499.858	0.281	-0.641
-438.763	-18.126	0.058	0.036
-437.749	12.158	0.240	-0.182
-436.734	800.000	0.091	-0.250
-435.719	-28.323	-0.310	-0.177
-434.705	10.624	0.163	0.123
-433.690	-135.874	0.124	0.014
-432.676	108.834	0.179	0.211
-431.661	-200.000	-0.042	0.201
-430.646	235.411	-0.168	-0.275
-429.632	47.487	-0.180	0.166
-428.617	-200.000	0.027	0.126
-427.603	-200.000	0.015	-0.133
-426.588	194.232	-0.102	0.153
-425.573	-96.313	0.298	0.078
-424.559	-200.000	0.019	-0.132
-423.544	276.405	-0.147	0.258
-422.530	-56.665	-0.237	-0.104
-421.515	344.711	0.082	0.159
-420.500	-149.039	0.135	-0.011
-419.486	-38.199	0.178	-0.093
-418.471	116.097	-0.155	0.188
-417.457	-200.000	0.032	-0.163
-416.442	224.909	-0.115	0.183
-415.428	204.827	0.032	-0.049
-414.413	91.629	0.140	0.156
-413.398	68.389	-0.166	0.168
-412.384	800.000	0.106	0.375
-411.369	-165.643	-0.320	0.014
-410.355	800.000	-0.121	-0.423
-409.340	67.517	0.112	-0.113
-408.325	-178.748	0.274	0.006
-407.311	-53.509	-0.168	0.076
-406.296	1.540	0.143	-0.102
-405.282	115.513	0.113	0.136
-404.267	-200.000	-0.013	0.511
-403.252	-180.476	0.194	-0.004
-402.238	-67.969	0.219	0.084
-401.223	-56.389	-0.294	-0.129
-400.209	-200.000	0.005	0.151
-399.194	251.156	0.060	0.101
-398.179	800.000	0.073	-0.227
-397.165	-200.000	-0.011	0.290
-396.150	-200.000	0.365	-0.000
-395.136	-97.268	0.336	-0.087
-394.121	20.790	-0.146	0.117
-393.106	-200.000	0.009	-0.048
-392.092	-129.227	0.382	-0.053
-391.077	800.000	0.058	0.216
-390.063	-144.922	-0.385	0.035
-389.048	-176.211	0.243	0.006
-388.033	96.538	-0.133	0.150
-387.019	-45.083	0.232	0.114
-386.004	44.614	-0.265	-0.241
-384.990	-124.795	0.180	-0.027
-383.975	502.705	0.140	-0.318
-382.960	239.076	0.143	-0.235
-381.946	16.490	-0.045	-0.035
-380.931	-200.000	0.052	0.272
-379.917	168.260	0.186	-0.261
-378.902	263.041	-0.098	0.168
-377.888	119.910	-0.047	-0.058
-376.873	800.000	0.106	0.317
-375.858	-70.709	0.206	0.077
-374.844	-128.584	0.361	0.050
-373.829	12.180	-0.247	-0.187
-372.815	179.326	-0.358	0.516
-371.800	179.185	0.043	0.062
-370.785	-15.447	-0.062	0.039
-369.771	185.601	0.036	0.053
-368.756	128.580	-0.130	-0.164
-367.742	-61.882	0.177	-0.073
-366.727	-200.000	-0.032	-0.246
-365.712	104.293	-0.181	-0.210
-364.698	43.483	0.015	0.014
-363.683	-87.624	-0.364	-0.108
-362.669	-200.000	-0.033	0.196
-361.654	-53.849	0.066	-0.030
-360.639	-122.367	-0.160	-0.026
-359.625	-200.000	-0.020	0.280
-358.610	-52.367	0.127	-0.058
-357.596	-31.099	0.234	0.130
-356.581	-39.045	-0.176	-0.091
-355.566	-200.000	0.025	0.149
-354.552	-53.691	-0.379	0.171
-353.537	800.000	-0.138	-0.454
-352.523	-67.519	0.076	-0.029
-351.508	-200.000	0.054	0.363
-350.493	-2.286	-0.271	-0.187
-349.479	-61.307	0.119	-0.050
-348.464	-200.000	0.037	0.186
-347.450	800.000	-0.003	0.008
-346.435	-79.311	-0.335	-0.112
-345.420	461.047	-0.144	-0.315
-344.406	151.229	0.119	-0.160
-343.391	112.697	-0.160	0.190
-342.377	-66.141	-0.051	-0.020
-341.362	-131.317	-0.377	0.049
-340.348	278.723	0.051	0.089
-339.333	-100.611	-0.127	-0.031
-338.318	208.971	0.107	0.166
-337.304	174.084	-0.068	0.096
-336.289	41.759	-0.394	-0.351
-335.275	262.285	-0.156	-0.267
-334.260	-124.249	0.371	0.057
-333.245	108.242	-0.190	-0.223
-332.231	800.000	0.029	-0.092
-331.216	-192.597	-0.054	-0.000
-330.202	-62.068	0.149	-0.061
-329.187	753.600	0.092	0.245
-328.172	94.242	0.045	0.051
-327.158	-74.734	-0.333	-0.118
-326.143	597.743	0.061	0.149
-325.129	-200.000	0.003	-0.109
-324.114	800.000	-0.020	-0.066
-323.099	-200.000	0.055	-0.303
-322.085	-157.174	-0.186	-0.011
-321.070	62.637	0.313	-0.308
-320.056	-200.000	-0.020	-0.145
-319.041	-200.000	0.068	-0.356
-318.026	61.475	-0.148	0.145
-317.012	-172.929	0.247	0.008
-315.997	435.951	-0.086	-0.183
-314.983	463.523	-0.167	-0.368
-313.968	25.526	0.166	0.136
-312.953	-137.675	-0.081	0.009
-311.939	23.982	-0.172	-0.139
-310.924	-36.072	0.142	-0.075
-309.910	-80.721	-0.052	0.017
-308.895	800.000	-0.064	-0.188
-307.880	-13.281	-0.208	-0.133
-306.866	-98.487	0.102	0.026
-305.851	529.506	0.045	-0.105
-304.837	-109.278	-0.079	0.016
-303.822	361.611	-0.119	-0.235
-302.807	-200.000	-0.169	-0.000
-301.793	-138.024	0.054	-0.006
-300.778	-108.396	0.194	-0.041
-299.764	-89.902	0.355	0.102
-298.749	-108.341	0.095	-0.020
-297.735	112.553	-0.018	0.021
-296.720	-167.955	0.222	0.009
-295.705	-86.766	-0.102	0.031
-294.691	800.000	0.164	-0.539
-293.676	58.222	-0.115	0.111
-292.662	215.763	0.038	0.059
-291.647	-200.000	-0.028	-0.177
-290.632	800.000	-0.126	-0.401
-289.618	-200.000	-0.015	0.192
-288.603	-37.852	-0.105	-0.055
-287.589	-200.000	-0.038	-0.565
-286.574	28.185	-0.088	-0.073
-285.559	557.191	0.088	-0.208
-284.545	87.534	-0.054	-0.058
-283.530	-155.412	-0.215	0.014
-282.516	-200.000	0.007	-0.188
-281.501	173.537	0.174	-0.247
-280.486	-200.000	-0.056	-0.353
-279.472	-87.206	0.361	0.108
-278.457	-200.000	0.104	0.450
-277.443	800.000	0.026	0.078
-276.428	-200.000	0.013	0.134
-275.413	-200.000	-0.018	-0.113
-274.399	127.656	0.133	-0.166
-273.384	-74.181	-0.422	-0.150
-272.370	-200.000	-0.061	-0.435
-271.355	-37.459	0.369	0.193
-270.340	44.876	0.316	0.285
-269.326	164.185	0.099	0.138
-268.311	591.132	-0.170	-0.412
-267.297	84.707	0.280	-0.301
-266.282	-200.000	0.052	0.239
-265.267	352.096	0.127	0.248
-264.253	-200.000	0.033	0.190
-263.238	-141.280	-0.325	0.032
-262.224	-72.938	-0.129	-0.046
-261.209	129.650	-0.117	-0.146
-260.195	60.367	-0.017	-0.016
-259.180	-200.000	-0.052	0.242
-258.165	-58.109	-0.230	0.099
-257.151	46.664	-0.132	-0.121
-256.136	-200.000	0.009	0.224
-255.122	44.984	-0.062	0.056
-254.107	-200.000	0.030	-0.221
-253.092	6.922	-0.024	-0.017
-252.078	61.155	0.187	0.182
-251.063	800.000	-0.051	0.174
-250.049	-200.000	-0.012	0.287
-249.034	-119.073	0.395	0.068
-248.019	82.124	0.063	0.067
-247.005	-200.000	0.030	-0.184
-245.990	-200.000	0.071	0.323
-244.976	-171.522	0.243	0.008
-243.961	7.965	-0.229	-0.168
-242.946	-200.000	-0.002	0.485
-241.932	-1.247	-0.165	0.114
-240.917	-148.939	-0.209	0.017
-239.903	-106.767	-0.117	-0.025
-238.888	260.272	-0.022	0.038
-237.873	590.948	0.076	0.183
-236.859	23.537	0.273	0.221
-235.844	-3.751	-0.285	0.194
-234.830	303.881	0.133	-0.242
-233.815	565.160	-0.086	-0.205
-232.800	181.712	-0.137	0.198
-231.786	87.357	-0.117	0.127
-230.771	8.785	-0.185	0.137
-229.757	-158.663	0.172	-0.010
-228.742	-65.179	-0.250	-0.099
-227.727	-46.780	0.144	0.069
-226.713	-200.000	0.026	-0.133
-225.698	-27.307	0.239	0.136
-224.684	-98.902	-0.288	0.072
-223.669	-146.347	-0.143	0.012
-222.655	-68.857	0.219	0.083
-221.640	547.906	0.114	0.268
-220.625	800.000	0.070	0.231
-219.611	-200.000	-0.030	0.313
-218.596	800.000	0.057	-0.163
-217.582	118.896	0.107	-0.130
-216.567	165.544	0.095	0.131
-215.552	-200.000	-0.017	0.282
-214.538	189.941	0.086	-0.126
-213.523	-86.088	-0.357	-0.108
-212.509	800.000	0.124	-0.451
-211.494	159.951	-0.026	0.036
-210.479	418.013	-0.116	-0.243
-209.465	-200.000	-0.006	-0.501
-208.450	44.011	0.290	-0.260
-207.436	-90.108	0.355	-0.101
-206.421	32.170	0.084	-0.071
-205.406	800.000	0.062	-0.257
-204.392	-119.532	0.299	0.051
-203.377	-103.678	-0.199	-0.046
-202.363	610.266	-0.016	0.039
-201.348	-126.219	0.189	-0.028
-200.333	-127.694	0.359	0.051
-199.319	-200.000	-0.018	0.077
-198.304	-113.864	0.284	-0.054
-197.290	800.000	-0.075	0.264
-196.275	800.000	-0.042	-0.142
-195.260	800.000	0.077	0.255
-194.246	106.486	0.117	0.136
-193.231	800.000	0.081	0.287
-192.217	313.243	0.068	-0.126
-191.202	301.598	0.175	-0.317
-190.187	-27.077	0.280	0.160
-189.173	-96.794	0.197	-0.051
-188.158	216.714	0.138	0.215
-187.144	-176.375	-0.422	-0.011
-186.129	50.470	-0.035	0.032
-185.114	800.000	0.044	-0.148
-184.100	-134.469	0.192	-0.023
-183.085	-74.358	0.235	-0.083
-182.071	101.676	0.151	0.173
-181.056	-37.532	0.254	-0.132
-180.042	800.000	0.074	-0.248
-179.027	-112.983	-0.240	0.046
-178.012	23.536	0.125	0.101
-176.998	405.154	0.249	0.513
-175.983	-83.513	0.080	-0.025
-174.969	-200.000	-0.022	0.106
-173.954	800.000	0.025	-0.104
-172.939	44.380	-0.278	0.249
-171.925	-200.000	-0.016	-0.137
-170.910	-200.000	0.000	0.047
-169.896	122.340	0.126	-0.154
-168.881	-200.000	-0.024	0.324
-167.866	349.892	0.125	0.242
-166.852	-0.878	0.053	-0.037
-165.837	-200.000	-0.016	-0.121
-164.823	-50.000	-0.434	-0.201
-163.808	110.337	-0.241	0.283
-162.793	-93.167	0.256	0.070
-161.779	89.409	-0.126	0.137
-160.764	-147.183	-0.245	-0.020
-159.750	-200.000	0.016	-0.212
-158.735	339.866	0.108	0.205
-157.720	-200.000	-0.045	0.209
-156.706	-42.555	0.362	0.180
-155.691	-75.223	-0.447	0.156
-154.677	11.535	0.129	-0.097
-153.662	-125.819	-0.145	0.021
-152.647	-200.000	0.010	0.081
-151.633	115.243	0.073	-0.087
-150.618	-200.000	0.041	-0.235
-149.604	308.581	0.063	-0.115
-148.589	-85.043	0.094	-0.029
-147.574	20.419	-0.269	-0.212
-146.560	800.000	-0.052	-0.144
-145.545	800.000	-0.046	-0.180
-144.531	711.139	-0.066	0.172
-143.516	-200.000	-0.007	-0.064
-142.502	46.443	0.335	-0.304
-141.487	32.218	0.346	0.292
-140.472	-200.000	0.071	0.324
-139.458	-163.875	-0.242	0.011
-138.443	800.000	0.031	-0.103
-137.429	800.000	-0.060	0.181
-136.414	154.042	0.061	-0.081
-135.399	-200.000	0.009	0.458
-134.385	-151.485	0.212	-0.015
-133.370	251.665	-0.146	0.243
-132.356	143.618	-0.137	0.178
-131.341	-200.000	-0.036	0.444
-130.326	434.353	-0.029	0.061
-129.312	-23.735	0.157	-0.092
-128.297	-200.000	-0.011	-0.070
-127.283	-200.000	-0.059	-0.282
-126.268	-109.716	0.147	-0.030
-125.253	-128.858	-0.314	0.043
-124.239	800.000	-0.063	0.211
-123.224	-200.000	-0.048	-0.280
-122.210	7.665	0.300	0.219
