DTS Sentinel unit serial number:	SN413079Multiplexer serial number:	ORYXHardware model number:	OX4-SRSoftware version number:	ORYX F/W v4.00 Oryx Data Collector v3.7.2.0data status	okinstallation	princeton_trtdifferential loss correction	single-endedforward channel	channel 3reverse channel	N/Adate	2019/09/12time	12:58:11forward acquisition time	60.00reverse acquisition time	0.00gamma	496.2192k internal	0.2292k external	0.2292temperature offset calibration	1.0035default loss term (dB/km)	0.3790temperature slope calibration	1.0000multiplexer offset coefficient	1.0000multiplexer slope coefficient	1.0000fibre end	0.00T internal ref (°C)	40.87T ext. ref 1 (°C)	2.06T ext. ref 2 (°C)	37.38length (m)	temperature (°C)	Stokes	anti-Stokes-747.200	800.000	0.040	0.119
-746.185	20.223	-0.086	0.071
-745.171	-182.564	0.199	-0.004
-744.156	-182.950	-0.087	-0.002
-743.142	-200.000	-0.001	0.229
-742.127	32.176	0.059	0.052
-741.112	-87.737	0.116	0.036
-740.098	-95.834	0.124	-0.034
-739.083	-0.620	-0.209	0.152
-738.069	88.988	0.123	0.140
-737.054	-37.488	-0.369	0.202
-736.039	-99.886	0.247	0.063
-735.025	-18.268	0.096	-0.061
-734.010	183.283	-0.126	-0.190
-732.996	800.000	-0.083	-0.241
-731.981	-123.745	-0.173	-0.028
-730.966	41.938	-0.175	0.162
-729.952	-6.508	-0.065	0.045
-728.937	68.546	-0.113	-0.119
-727.923	-25.581	-0.248	-0.150
-726.908	-93.164	-0.196	-0.056
-725.894	-170.991	-0.118	-0.004
-724.879	-161.690	-0.216	-0.011
-723.864	-90.364	0.180	-0.053
-722.850	-7.353	0.183	0.127
-721.835	165.800	-0.265	0.384
-720.821	96.915	-0.357	0.418
-719.806	31.140	-0.225	-0.198
-718.791	-75.973	-0.432	-0.156
-717.777	-123.042	-0.341	-0.056
-716.762	267.643	0.187	-0.335
-715.748	800.000	-0.122	-0.436
-714.733	-146.036	-0.061	-0.006
-713.718	-200.000	-0.053	-0.258
-712.704	53.464	0.077	-0.075
-711.689	-0.437	-0.076	0.055
-710.675	-54.554	0.304	-0.141
-709.660	28.589	0.119	0.103
-708.645	-92.297	-0.089	-0.026
-707.631	-200.000	0.041	-0.504
-706.616	-200.000	-0.009	-0.110
-705.602	-170.616	-0.179	-0.006
-704.587	-37.927	0.120	-0.065
-703.572	-59.822	0.116	-0.051
-702.558	-32.032	-0.137	-0.078
-701.543	-123.523	0.290	0.047
-700.529	800.000	0.057	-0.211
-699.514	-131.235	0.239	0.032
-698.499	-200.000	-0.012	0.099
-697.485	-200.000	-0.003	-0.191
-696.470	-200.000	-0.002	0.244
-695.456	40.420	-0.186	-0.171
-694.441	-127.347	-0.165	0.025
-693.426	-57.059	0.230	0.104
-692.412	-130.381	-0.239	-0.033
-691.397	359.152	0.042	0.086
-690.383	220.403	0.195	0.320
-689.368	-30.843	-0.284	-0.164
-688.354	122.739	-0.240	0.307
-687.339	0.853	0.053	0.039
-686.324	109.079	-0.037	0.045
-685.310	-100.584	-0.509	0.128
-684.295	196.098	-0.233	-0.363
-683.281	59.553	-0.226	-0.227
-682.266	-135.061	-0.306	0.038
-681.251	-5.767	-0.102	-0.072
-680.237	-95.791	-0.474	0.129
-679.222	-169.936	-0.137	-0.005
-678.208	-200.000	-0.013	0.249
-677.193	508.456	-0.116	-0.276
-676.178	756.578	0.106	0.292
-675.164	-89.318	-0.403	-0.121
-674.149	151.762	-0.063	0.088
-673.135	20.608	-0.047	0.039
-672.120	177.189	0.055	-0.082
-671.105	-107.742	-0.239	-0.053
-670.091	351.672	-0.125	-0.253
-669.076	346.094	-0.037	0.074
-668.062	4.815	-0.158	-0.118
-667.047	136.244	-0.213	-0.283
-666.032	-38.915	0.056	0.030
-665.018	800.000	-0.065	-0.204
-664.003	-20.818	-0.344	-0.215
-662.989	-142.291	0.291	-0.029
-661.974	-174.920	0.118	0.003
-660.959	-68.239	-0.384	-0.153
-659.945	5.409	0.197	-0.148
-658.930	451.097	0.048	-0.109
-657.916	-16.733	-0.197	-0.127
-656.901	390.187	0.119	0.252
-655.886	-77.179	-0.124	-0.044
-654.872	-149.077	0.143	-0.012
-653.857	-73.235	0.077	-0.029
-652.843	-200.000	-0.041	-0.278
-651.828	468.447	-0.132	-0.302
-650.814	-200.000	0.002	-0.220
-649.799	325.165	-0.104	-0.202
-648.784	-151.592	-0.187	0.014
-647.770	87.385	-0.061	-0.069
-646.755	-59.929	-0.077	0.034
-645.741	-76.502	-0.137	-0.049
-644.726	-200.000	0.000	-0.076
-643.711	104.819	-0.106	-0.128
-642.697	-75.515	0.323	0.117
-641.682	800.000	-0.044	-0.126
-640.668	-200.000	0.013	0.215
-639.653	93.185	-0.266	-0.306
-638.638	304.202	0.064	0.121
-637.624	-110.372	0.257	-0.054
-636.609	-112.406	0.159	0.032
-635.595	209.688	0.141	-0.225
-634.580	662.363	0.027	-0.070
-633.565	-89.477	0.453	0.136
-632.551	193.318	-0.113	0.173
-631.536	286.666	-0.019	0.035
-630.522	-63.907	-0.220	-0.092
-629.507	-200.000	-0.001	-0.064
-628.492	86.707	-0.026	0.029
-627.478	-200.000	-0.057	0.305
-626.463	143.474	0.048	0.066
-625.449	249.126	-0.091	-0.156
-624.434	-200.000	-0.017	0.121
-623.419	800.000	-0.030	0.115
-622.405	-16.941	-0.297	-0.191
-621.390	800.000	-0.032	0.105
-620.376	-74.521	-0.181	0.066
-619.361	-200.000	-0.022	-0.310
-618.346	-102.388	-0.304	0.074
-617.332	-24.581	-0.311	0.189
-616.317	87.295	0.065	-0.073
-615.303	203.017	-0.096	0.151
-614.288	-200.000	-0.001	-0.199
-613.273	-112.807	-0.363	-0.073
-612.259	800.000	-0.051	0.177
-611.244	42.752	-0.188	0.174
-610.230	800.000	-0.017	0.061
-609.215	-57.964	-0.105	-0.047
-608.201	532.755	0.035	0.084
-607.186	-33.987	0.084	0.047
-606.171	413.913	0.068	0.148
-605.157	128.919	-0.054	-0.070
-604.142	20.022	0.155	-0.127
-603.128	90.156	0.245	-0.278
-602.113	-102.020	0.350	-0.086
-601.098	266.826	0.055	-0.098
-600.084	244.432	-0.066	-0.113
-599.069	-200.000	0.015	-0.188
-598.055	-59.479	-0.333	-0.145
-597.040	800.000	0.045	-0.186
-596.025	-97.142	-0.066	0.018
-595.011	82.683	-0.111	0.123
-593.996	800.000	0.041	0.153
-592.982	-200.000	-0.024	-0.224
-591.967	-62.501	0.425	0.180
-590.952	-26.466	-0.091	-0.054
-589.938	-19.486	-0.476	0.300
-588.923	800.000	-0.071	-0.202
-587.909	167.480	-0.164	0.237
-586.894	106.717	-0.116	0.140
-585.879	183.812	-0.119	0.179
-584.865	274.672	-0.108	-0.195
-583.850	8.331	0.129	0.099
-582.836	-96.195	-0.119	0.032
-581.821	165.425	0.117	-0.168
-580.806	51.334	-0.123	-0.119
-579.792	-200.000	-0.012	0.155
-578.777	-86.463	0.117	-0.036
-577.763	-156.522	-0.330	-0.021
-576.748	800.000	-0.061	0.224
-575.733	249.151	-0.126	-0.217
-574.719	-9.218	0.335	0.228
-573.704	226.385	-0.112	-0.185
-572.690	800.000	0.049	0.196
-571.675	-18.746	0.183	0.116
-570.661	3.017	0.182	0.135
-569.646	-105.720	-0.139	-0.032
-568.631	190.325	0.084	-0.128
-567.617	-72.456	0.118	-0.044
-566.602	-90.596	0.015	-0.004
-565.588	-54.896	-0.285	-0.131
-564.573	189.815	0.167	0.254
-563.558	16.127	0.212	-0.170
-562.544	-200.000	0.039	0.000
-561.529	56.351	-0.223	-0.220
-560.515	269.129	-0.282	0.503
-559.500	-200.000	0.021	-0.233
-558.485	57.916	-0.178	-0.177
-557.471	124.424	0.084	0.107
-556.456	800.000	0.084	0.307
-555.442	106.060	0.283	0.341
-554.427	-200.000	0.043	0.220
-553.412	61.485	0.064	0.065
-552.398	-71.205	-0.336	-0.128
-551.383	110.727	-0.117	-0.143
-550.369	150.640	-0.154	0.212
-549.354	787.918	-0.068	0.191
-548.339	238.614	-0.016	0.028
-547.325	-101.599	-0.296	-0.073
-546.310	46.354	-0.147	0.138
-545.296	-89.211	-0.151	0.045
-544.281	317.973	0.113	-0.218
-543.266	800.000	-0.054	-0.205
-542.252	156.701	0.053	0.074
-541.237	-200.000	-0.018	-0.193
-540.223	-94.115	0.218	0.061
-539.208	57.720	-0.297	0.295
-538.193	134.964	-0.141	0.186
-537.179	-6.154	0.162	-0.112
-536.164	800.000	0.092	-0.272
-535.150	-8.536	0.098	0.067
-534.135	-200.000	0.011	0.148
-533.121	-97.542	0.483	-0.127
-532.106	-129.567	-0.198	-0.028
-531.091	800.000	-0.048	-0.200
-530.077	-125.545	0.124	0.019
-529.062	5.491	-0.102	-0.076
-528.048	29.675	-0.100	0.086
-527.033	-200.000	-0.031	-0.142
-526.018	-157.274	-0.364	0.022
-525.004	-186.003	0.309	0.005
-523.989	800.000	-0.074	-0.327
-522.975	-200.000	-0.039	-0.534
-521.960	-37.540	0.215	0.116
-520.945	-152.551	-0.080	0.006
-519.931	67.865	0.109	0.113
-518.916	-56.404	0.138	0.062
-517.902	8.293	-0.283	-0.216
-516.887	-135.235	-0.130	-0.016
-515.872	71.012	-0.094	-0.099
-514.858	-89.971	0.065	-0.019
-513.843	38.048	-0.387	0.349
-512.829	-200.000	0.002	0.207
-511.814	-200.000	0.017	-0.149
-510.799	263.540	0.152	-0.269
-509.785	800.000	0.032	0.106
-508.770	267.997	0.134	-0.239
-507.756	-44.226	-0.034	0.017
-506.741	332.579	-0.098	0.192
-505.726	-127.676	0.379	-0.056
-504.712	320.982	-0.042	0.080
-503.697	39.871	0.076	-0.069
-502.683	-18.573	-0.323	0.204
-501.668	-200.000	0.030	0.358
-500.653	-200.000	-0.010	-0.355
-499.639	800.000	-0.076	0.220
-498.624	-200.000	0.023	0.230
-497.610	800.000	0.048	-0.148
-496.595	147.832	0.078	-0.107
-495.581	-51.027	-0.248	-0.118
-494.566	-200.000	0.036	-0.273
-493.551	-142.405	0.099	0.010
-492.537	-92.203	-0.176	0.050
-491.522	-29.657	-0.361	-0.209
-490.508	43.914	-0.048	0.044
-489.493	-96.745	0.334	0.089
-488.478	-200.000	-0.038	-0.301
-487.464	120.947	0.184	-0.232
-486.449	-200.000	-0.009	-0.184
-485.435	173.388	-0.116	-0.170
-484.420	-36.729	0.278	-0.151
-483.405	787.945	-0.057	-0.160
-482.391	32.547	-0.338	-0.296
-481.376	83.153	0.331	-0.364
-480.362	-26.347	-0.242	0.144
-479.347	-123.003	0.214	0.035
-478.332	62.533	-0.128	-0.129
-477.318	800.000	-0.057	-0.192
-476.303	-200.000	-0.050	0.302
-475.289	-200.000	0.016	-0.093
-474.274	206.013	-0.091	0.143
-473.259	-77.802	-0.247	-0.086
-472.245	58.920	-0.019	-0.018
-471.230	663.250	0.074	0.194
-470.216	-200.000	0.008	0.172
-469.201	-200.000	0.014	0.214
-468.186	-200.000	-0.006	0.090
-467.172	-200.000	-0.018	-0.133
-466.157	309.494	0.137	0.260
-465.143	97.691	0.228	0.265
-464.128	507.160	-0.109	0.255
-463.113	400.073	-0.092	0.196
-462.099	32.341	0.313	-0.274
-461.084	-200.000	0.000	-0.374
-460.070	22.204	0.342	-0.283
-459.055	-200.000	0.031	0.300
-458.040	200.867	0.077	-0.121
-457.026	-200.000	-0.001	-0.181
-456.011	-200.000	0.036	0.209
-454.997	-37.539	-0.179	0.097
-453.982	-200.000	-0.011	-0.085
-452.968	-200.000	0.037	0.390
-451.953	-4.711	-0.167	-0.117
-450.938	-200.000	-0.036	-0.410
-449.924	-79.585	-0.190	0.065
-448.909	-170.625	-0.257	0.009
-447.895	61.152	-0.077	-0.077
-446.880	-93.985	-0.088	0.025
-445.865	-52.178	0.090	0.042
-444.851	-89.048	0.184	0.055
-443.836	-200.000	0.023	-0.330
-442.822	313.813	0.112	-0.214
-441.807	486.249	0.036	0.084
-440.792	800.000	0.077	0.273
-439.778	30.050	0.067	-0.058
-438.763	-200.000	0.023	-0.201
-437.749	141.031	-0.169	0.226
-436.734	276.693	-0.127	-0.227
-435.719	-83.151	0.205	-0.067
-434.705	-166.693	0.328	0.014
-433.690	-188.597	-0.097	0.001
-432.676	189.820	0.077	0.117
-431.661	800.000	-0.049	0.183
-430.646	159.106	0.031	0.043
-429.632	-65.245	0.171	0.070
-428.617	-200.000	-0.021	0.247
-427.603	800.000	0.025	-0.081
-426.588	-200.000	0.006	-0.121
-425.573	771.895	0.047	0.128
-424.559	-200.000	-0.028	0.317
-423.544	-128.322	0.131	0.019
-422.530	27.134	0.176	-0.149
-421.515	800.000	-0.047	-0.184
-420.500	-53.927	-0.124	0.057
-419.486	-156.271	0.059	0.004
-418.471	-137.660	0.453	-0.051
-417.457	-200.000	0.061	-0.365
-416.442	-200.000	0.156	-0.000
-415.428	-167.903	0.072	0.003
-414.413	24.173	0.090	-0.075
-413.398	-12.462	0.073	-0.048
-412.384	80.250	0.241	-0.262
-411.369	800.000	0.061	0.203
-410.355	-36.288	0.058	-0.032
-409.340	-6.522	0.141	-0.097
-408.325	319.150	0.120	-0.229
-407.311	129.062	-0.145	0.187
-406.296	-103.967	-0.326	0.077
-405.282	160.055	-0.206	-0.290
-404.267	-200.000	0.106	-0.485
-403.252	-22.289	-0.155	-0.095
-402.238	-121.850	-0.129	-0.022
-401.223	-200.000	-0.011	-0.241
-400.209	-66.361	-0.108	0.043
-399.194	-106.706	-0.225	0.051
-398.179	389.466	0.090	0.189
-397.165	70.860	-0.123	0.129
-396.150	-12.312	0.251	0.166
-395.136	54.028	0.073	0.071
-394.121	-16.104	0.133	-0.086
-393.106	-133.305	-0.113	-0.014
-392.092	-98.675	-0.203	0.052
-391.077	800.000	0.036	0.133
-390.063	403.129	0.115	0.245
-389.048	89.925	0.182	0.205
-388.033	-137.685	-0.299	0.034
-387.019	104.622	-0.149	-0.178
-386.004	800.000	0.055	-0.201
-384.990	-105.746	0.107	0.024
-383.975	10.912	0.178	0.137
-382.960	166.986	0.178	0.254
-381.946	31.938	0.115	-0.100
-380.931	-51.813	0.209	0.098
-379.917	117.439	0.212	-0.263
-378.902	-91.121	-0.124	0.036
-377.888	-51.327	-0.258	-0.122
-376.873	800.000	-0.082	0.283
-375.858	77.987	0.170	-0.183
-374.844	-200.000	-0.031	-0.312
-373.829	139.682	0.093	-0.124
-372.815	-200.000	-0.027	-0.332
-371.800	-175.217	0.207	0.006
-370.785	-200.000	0.026	-0.131
-369.771	-81.878	0.276	0.091
-368.756	218.650	-0.154	-0.248
-367.742	107.819	0.047	0.056
-366.727	-200.000	0.376	-0.002
-365.712	800.000	0.088	0.326
-364.698	-200.000	-0.004	0.138
-363.683	-200.000	-0.008	0.037
-362.669	-141.323	0.254	-0.026
-361.654	-128.975	-0.226	-0.032
-360.639	800.000	0.037	0.123
-359.625	150.586	-0.108	-0.149
-358.610	-34.382	0.052	0.028
-357.596	383.160	0.183	0.379
-356.581	339.716	0.128	-0.252
-355.566	-200.000	-0.006	0.093
-354.552	-83.630	0.240	-0.077
-353.537	-131.641	0.033	-0.004
-352.523	428.229	-0.062	0.134
-351.508	15.497	-0.157	-0.124
-350.493	-69.448	0.255	-0.099
-349.479	126.789	-0.099	-0.127
-348.464	35.524	0.051	-0.045
-347.450	26.412	-0.041	0.035
-346.435	-150.696	-0.155	0.012
-345.420	-200.000	-0.050	0.307
-344.406	800.000	0.056	-0.156
-343.391	170.867	0.143	-0.206
-342.377	-55.017	0.356	0.161
-341.362	485.490	-0.061	0.141
-340.348	-100.675	-0.365	0.091
-339.333	-97.543	-0.313	-0.082
-338.318	-200.000	0.029	-0.237
-337.304	203.446	-0.067	-0.104
-336.289	-13.629	-0.223	0.145
-335.275	-145.179	0.141	-0.013
-334.260	-74.633	0.191	-0.069
-333.245	590.334	-0.065	0.161
-332.231	-72.471	-0.080	-0.030
-331.216	-200.000	0.064	-0.280
-330.202	426.171	-0.116	-0.251
-329.187	-200.000	-0.024	0.130
-328.172	-143.465	-0.127	0.012
-327.158	-100.613	-0.165	-0.041
-326.143	-146.876	-0.246	-0.021
-325.129	27.886	0.122	-0.103
-324.114	800.000	0.068	0.215
-323.099	-104.648	0.247	-0.057
-322.085	8.875	-0.135	0.102
-321.070	-141.888	0.483	0.049
-320.056	-44.733	0.332	-0.167
-319.041	90.935	-0.036	0.040
-318.026	-120.575	0.224	-0.038
-317.012	-200.000	0.006	-0.044
-315.997	-200.000	0.003	-0.090
-314.983	59.981	0.092	0.092
-313.968	675.369	0.080	-0.210
-312.953	-144.749	-0.208	0.019
-311.939	691.708	0.063	-0.166
-310.924	-91.705	0.162	-0.046
-309.910	370.717	-0.152	-0.310
-308.895	320.789	0.078	-0.150
-307.880	800.000	-0.133	0.493
-306.866	-36.690	-0.226	0.122
-305.851	-45.292	-0.118	0.059
-304.837	396.068	-0.049	-0.102
-303.822	76.200	0.306	0.326
-302.807	252.571	0.086	0.148
-301.793	-121.573	-0.215	0.036
-300.778	-86.188	0.268	0.083
-299.764	-9.465	0.057	0.038
-298.749	-200.000	-0.082	0.427
-297.735	573.253	0.042	-0.102
-296.720	-39.445	0.202	0.107
-295.705	-24.945	0.188	0.112
-294.691	-200.000	0.093	-0.414
-293.676	-35.963	-0.122	0.066
-292.662	357.086	-0.071	0.143
-291.647	78.416	-0.063	-0.068
-290.632	76.713	-0.194	-0.207
-289.618	48.242	-0.147	-0.138
-288.603	-65.490	0.434	0.175
-287.589	76.277	0.076	-0.081
-286.574	-114.709	0.112	-0.022
-285.559	275.801	-0.049	0.087
-284.545	-113.931	0.094	-0.018
-283.530	-80.226	0.225	0.076
-282.516	45.958	-0.124	-0.116
-281.501	-141.851	0.579	-0.058
-280.486	-17.768	0.186	0.117
-279.472	115.048	0.170	0.209
-278.457	-119.107	-0.173	-0.030
-277.443	-200.000	-0.009	0.126
-276.428	-82.536	-0.297	-0.097
-275.413	-200.000	0.027	-0.327
-274.399	86.326	-0.050	0.055
-273.384	197.897	0.034	-0.053
-272.370	-11.025	-0.124	0.082
-271.355	-200.000	-0.010	0.206
-270.340	-91.796	-0.218	0.062
-269.326	-21.412	-0.023	0.014
-268.311	30.622	0.123	-0.105
-267.297	-200.000	-0.009	0.153
-266.282	-132.488	0.243	0.031
-265.267	-200.000	0.035	0.191
-264.253	64.640	-0.013	0.013
-263.238	-200.000	-0.017	0.310
-262.224	-200.000	-0.005	0.128
-261.209	576.576	0.117	-0.286
-260.195	100.503	0.107	-0.125
-259.180	-200.000	-0.024	-0.170
-258.165	-56.817	-0.142	0.063
-257.151	358.650	0.116	0.232
-256.136	-68.422	0.086	-0.034
-255.122	-133.425	-0.008	0.001
-254.107	-45.825	0.085	0.042
-253.092	-132.794	-0.074	-0.009
-252.078	-26.076	-0.130	-0.077
-251.063	-119.657	-0.408	-0.071
-250.049	33.560	-0.286	-0.250
-249.034	-86.615	0.143	-0.044
-248.019	-99.600	-0.098	0.025
-247.005	27.953	0.104	-0.088
-245.990	-85.236	-0.166	-0.052
-244.976	-200.000	-0.003	0.200
-243.961	116.372	-0.118	-0.145
-242.946	-62.305	0.157	0.065
-241.932	-124.906	-0.108	-0.017
-240.917	54.298	0.401	0.387
-239.903	800.000	-0.062	-0.231
-238.888	249.679	0.105	0.179
-237.873	55.168	0.205	0.199
-236.859	78.227	-0.202	0.217
-235.844	-64.118	-0.059	0.024
-234.830	39.095	-0.368	0.330
-233.815	800.000	0.062	0.215
-232.800	-200.000	-0.001	0.170
-231.786	800.000	-0.032	0.114
-230.771	70.244	0.045	-0.047
-229.757	50.622	0.174	0.165
-228.742	-163.777	0.283	-0.013
-227.727	-108.065	-0.176	0.038
-226.713	-39.851	-0.069	0.036
-225.698	-200.000	0.007	-0.324
-224.684	-142.774	0.132	0.013
-223.669	1.827	0.082	0.059
-222.655	479.060	0.049	-0.111
-221.640	81.675	-0.145	0.157
-220.625	118.750	-0.139	0.172
-219.611	-16.138	-0.240	-0.153
-218.596	-31.682	-0.102	0.057
-217.582	-200.000	0.003	0.303
-216.567	-52.061	-0.252	0.117
-215.552	-200.000	0.029	0.313
-214.538	800.000	0.138	0.389
-213.523	-200.000	0.005	-0.241
-212.509	108.608	-0.142	-0.170
-211.494	-7.190	-0.384	-0.261
-210.479	-137.597	0.299	-0.034
-209.465	-101.306	0.303	-0.074
-208.450	254.625	0.139	-0.239
-207.436	-3.104	-0.180	-0.126
-206.421	624.816	-0.137	0.346
-205.406	-200.000	0.001	0.063
-204.392	103.191	-0.161	-0.189
-203.377	-9.718	-0.067	-0.045
-202.363	-86.670	-0.095	-0.029
-201.348	-200.000	-0.001	0.017
-200.333	-200.000	-0.008	-0.155
-199.319	-51.907	0.037	-0.017
-198.304	-200.000	-0.043	-0.438
-197.290	526.425	-0.177	-0.418
-196.275	-51.598	-0.120	-0.056
-195.260	199.357	-0.081	-0.125
-194.246	5.848	0.081	-0.060
-193.231	-58.136	0.139	0.061
-192.217	29.559	-0.204	-0.174
-191.202	-33.256	-0.157	-0.087
-190.187	-200.000	0.048	-0.369
-189.173	-50.328	0.047	-0.022
-188.158	-6.711	0.194	0.132
-187.144	-163.446	-0.261	0.012
-186.129	383.826	-0.156	-0.323
-185.114	286.677	-0.120	0.216
-184.100	237.848	-0.160	0.266
-183.085	-27.831	-0.238	0.138
-182.071	116.350	-0.139	0.171
-181.056	727.472	0.182	0.485
-180.042	-200.000	-0.015	-0.073
-179.027	-200.000	-0.029	-0.141
-178.012	-41.549	0.124	0.064
-176.998	-28.126	-0.090	-0.052
-175.983	-23.126	0.169	-0.102
-174.969	336.981	0.205	-0.399
-173.954	6.745	-0.320	0.239
-172.939	-56.897	0.368	0.163
-171.925	101.486	0.306	0.357
-170.910	201.379	0.188	0.290
-169.896	-200.000	-0.017	0.160
-168.881	412.962	-0.051	-0.108
-167.866	-200.000	0.014	-0.088
-166.852	115.667	0.109	0.133
-165.837	-44.759	-0.180	-0.090
-164.823	360.645	0.121	0.242
-163.808	-200.000	-0.021	-0.205
-162.793	-91.987	0.216	-0.061
-161.779	-191.449	0.158	-0.002
-160.764	-155.959	0.152	-0.010
-159.750	-200.000	-0.056	0.346
-158.735	339.556	-0.213	0.415
-157.720	331.992	0.033	-0.064
-156.706	800.000	-0.064	0.239
-155.691	-200.000	-0.018	0.388
-154.677	800.000	0.078	0.266
-153.662	-200.000	-0.004	-0.279
-152.647	-200.000	-0.058	-0.264
-151.633	-2.748	-0.146	-0.102
-150.618	-200.000	0.009	-0.347
-149.604	680.726	-0.113	-0.294
-148.589	49.473	0.052	0.049
-147.574	-200.000	-0.001	0.065
-146.560	-14.543	-0.226	-0.145
-145.545	5.801	-0.071	-0.052
-144.531	111.408	-0.091	-0.110
-143.516	-61.017	-0.092	0.039
-142.502	177.483	-0.185	0.269
-141.487	99.044	0.094	-0.108
-140.472	-200.000	0.025	0.257
-139.458	-98.821	0.125	-0.032
-138.443	800.000	0.038	0.159
-137.429	53.788	0.191	0.183
-136.414	466.108	-0.174	-0.390
-135.399	-200.000	0.008	-0.343
-134.385	800.000	0.032	0.089
-133.370	-1.672	0.328	0.231
-132.356	-200.000	0.004	-0.123
-131.341	-14.895	-0.114	-0.073
-130.326	-200.000	0.041	-0.202
-129.312	-24.586	0.128	0.076
-128.297	142.705	-0.106	0.140
-127.283	36.034	0.202	-0.177
-126.268	-77.163	0.359	0.125
-125.253	800.000	-0.050	0.172
-124.239	-168.565	0.153	-0.006
-123.224	800.000	-0.113	0.371
-122.210	-200.000	-0.002	-0.032
