DTS Sentinel unit serial number:	SN413079Multiplexer serial number:	ORYXHardware model number:	OX4-SRSoftware version number:	ORYX F/W v4.00 Oryx Data Collector v3.7.2.0data status	okinstallation	princeton_trtdifferential loss correction	single-endedforward channel	channel 3reverse channel	N/Adate	2019/09/15time	03:40:35forward acquisition time	60.00reverse acquisition time	0.00gamma	496.2192k internal	0.2323k external	0.2323temperature offset calibration	0.9966default loss term (dB/km)	0.3790temperature slope calibration	1.0000multiplexer offset coefficient	1.0000multiplexer slope coefficient	1.0000fibre end	0.00T internal ref (°C)	30.98T ext. ref 1 (°C)	4.60T ext. ref 2 (°C)	25.88length (m)	temperature (°C)	Stokes	anti-Stokes-747.200	-43.212	-0.097	0.050
-746.185	-141.860	-0.121	0.012
-745.171	-42.083	-0.100	-0.052
-744.156	-137.881	-0.464	0.052
-743.142	-111.543	-0.048	-0.010
-742.127	133.058	-0.106	0.138
-741.112	-87.880	0.401	-0.122
-740.098	-200.000	-0.031	0.190
-739.083	-200.000	0.010	-0.175
-738.069	5.876	-0.058	0.043
-737.054	460.716	-0.031	0.069
-736.039	-200.000	-0.008	-0.165
-735.025	800.000	0.097	-0.288
-734.010	545.874	-0.050	-0.120
-732.996	-49.860	-0.166	-0.079
-731.981	-97.758	0.054	-0.014
-730.966	-28.862	-0.313	-0.182
-729.952	367.188	0.096	-0.195
-728.937	318.285	-0.136	-0.260
-727.923	-147.692	-0.050	0.004
-726.908	-200.000	0.002	0.117
-725.894	-143.962	0.140	0.013
-724.879	-149.336	-0.268	0.022
-723.864	-114.496	-0.185	-0.036
-722.850	69.802	0.239	0.249
-721.835	17.928	-0.106	0.085
-720.821	-125.069	0.145	0.022
-719.806	226.213	0.166	-0.271
-718.791	-21.616	-0.141	-0.086
-717.777	344.813	-0.033	-0.065
-716.762	152.231	-0.220	-0.303
-715.748	800.000	0.006	0.021
-714.733	-200.000	-0.017	-0.457
-713.718	-103.661	0.126	0.030
-712.704	800.000	-0.038	-0.151
-711.689	-200.000	-0.050	-0.231
-710.675	-52.426	0.120	-0.056
-709.660	209.251	0.153	-0.242
-708.645	177.033	-0.164	-0.241
-707.631	26.591	0.148	-0.125
-706.616	-61.641	0.370	0.156
-705.602	-87.754	-0.214	0.065
-704.587	-200.000	0.032	-0.216
-703.572	-110.049	-0.293	0.062
-702.558	12.142	-0.160	0.124
-701.543	450.309	0.092	0.206
-700.529	113.291	-0.060	0.074
-699.514	-52.491	0.229	0.107
-698.499	-200.000	0.007	0.060
-697.485	-30.843	-0.095	-0.054
-696.470	504.486	0.100	0.233
-695.456	367.386	0.277	-0.564
-694.441	-97.247	-0.126	0.033
-693.426	18.759	-0.331	-0.267
-692.412	4.396	-0.353	-0.261
-691.397	-118.651	-0.283	-0.050
-690.383	-62.236	0.418	-0.176
-689.368	800.000	-0.167	-0.591
-688.354	-200.000	0.014	-0.503
-687.339	-134.936	0.518	-0.063
-686.324	-75.147	-0.063	0.023
-685.310	147.509	-0.095	-0.129
-684.295	745.775	0.123	-0.334
-683.281	-160.520	-0.348	-0.019
-682.266	800.000	-0.059	-0.248
-681.251	-200.000	0.008	0.234
-680.237	800.000	0.023	0.086
-679.222	-161.912	-0.333	0.017
-678.208	-121.534	0.275	-0.046
-677.193	800.000	0.036	-0.131
-676.178	147.476	-0.069	-0.093
-675.164	-139.988	0.252	-0.027
-674.149	8.445	-0.138	-0.104
-673.135	-70.784	-0.073	-0.028
-672.120	108.742	0.093	-0.112
-671.105	111.967	-0.262	0.319
-670.091	-97.758	0.346	-0.090
-669.076	-15.552	-0.119	0.076
-668.062	-200.000	-0.005	0.117
-667.047	-48.586	-0.278	-0.134
-666.032	-88.188	-0.326	-0.098
-665.018	800.000	0.038	0.113
-664.003	-200.000	-0.038	-0.203
-662.989	-36.671	-0.077	0.042
-661.974	6.598	0.094	-0.070
-660.959	391.428	-0.099	0.208
-659.945	609.403	-0.072	0.181
-658.930	-200.000	-0.042	-0.283
-657.916	61.254	0.203	-0.203
-656.901	508.201	-0.132	0.309
-655.886	-200.000	0.043	-0.290
-654.872	-200.000	-0.006	-0.363
-653.857	-18.300	-0.189	0.119
-652.843	477.461	-0.067	0.153
-651.828	22.116	0.238	0.195
-650.814	-9.059	0.278	-0.187
-649.799	-150.605	0.150	-0.012
-648.784	286.698	0.118	0.215
-647.770	105.606	0.108	0.129
-646.755	-30.849	-0.164	0.093
-645.741	118.028	0.200	0.248
-644.726	26.928	-0.073	-0.061
-643.711	800.000	0.052	-0.163
-642.697	-171.723	0.123	-0.004
-641.682	-115.197	0.182	0.035
-640.668	-79.623	-0.224	0.076
-639.653	-111.219	-0.251	-0.052
-638.638	55.886	0.175	-0.171
-637.624	-54.187	-0.326	-0.149
-636.609	-151.175	0.209	0.016
-635.595	194.084	0.159	0.243
-634.580	48.538	-0.156	0.147
-633.565	107.815	-0.097	-0.116
-632.551	26.633	-0.206	-0.173
-631.536	47.790	-0.133	0.125
-630.522	109.445	-0.090	-0.108
-629.507	357.261	0.097	0.195
-628.492	92.927	-0.104	0.118
-627.478	7.109	0.304	-0.228
-626.463	-114.666	0.261	0.050
-625.449	248.495	-0.184	-0.313
-624.434	-131.646	-0.359	-0.047
-623.419	-128.238	-0.289	0.042
-622.405	-112.638	0.255	0.051
-621.390	12.405	0.176	0.137
-620.376	-200.000	0.055	0.363
-619.361	-64.167	0.190	-0.078
-618.346	190.323	-0.053	0.080
-617.332	-87.007	-0.084	0.026
-616.317	11.767	-0.249	-0.192
-615.303	126.901	-0.067	0.085
-614.288	-15.969	0.081	0.052
-613.273	370.809	0.141	0.286
-612.259	-172.826	-0.405	-0.013
-611.244	73.431	0.207	0.218
-610.230	-95.253	-0.091	-0.025
-609.215	-200.000	0.000	0.042
-608.201	-200.000	-0.036	0.221
-607.186	166.829	-0.176	0.251
-606.171	557.868	0.124	0.301
-605.157	-158.481	-0.355	-0.021
-604.142	53.530	-0.288	-0.278
-603.128	-89.857	-0.137	0.040
-602.113	-118.636	-0.205	-0.036
-601.098	-68.470	0.072	0.028
-600.084	-200.000	-0.001	-0.033
-599.069	-92.975	-0.144	0.040
-598.055	800.000	-0.014	0.053
-597.040	176.142	-0.171	-0.249
-596.025	55.077	0.110	0.107
-595.011	-141.156	0.165	0.017
-593.996	601.740	0.043	-0.108
-592.982	-200.000	-0.082	0.418
-591.967	666.949	0.099	0.258
-590.952	-105.071	0.239	-0.055
-589.938	-200.000	0.028	0.236
-588.923	-38.542	0.088	0.047
-587.909	109.793	-0.032	0.039
-586.894	64.805	-0.182	0.184
-585.879	192.702	-0.069	-0.105
-584.865	-159.925	0.157	0.009
-583.850	800.000	-0.027	0.086
-582.836	-200.000	-0.007	0.333
-581.821	-57.028	0.152	-0.067
-580.806	-200.000	-0.010	-0.279
-579.792	800.000	0.052	-0.173
-578.777	800.000	-0.058	-0.216
-577.763	241.575	-0.057	-0.096
-576.748	42.978	-0.256	0.235
-575.733	-200.000	-0.008	-0.243
-574.719	-200.000	0.036	-0.309
-573.704	330.783	-0.076	0.147
-572.690	800.000	0.031	0.136
-571.675	168.377	-0.170	0.242
-570.661	-83.611	-0.316	-0.101
-569.646	240.147	-0.045	-0.075
-568.631	-101.133	-0.349	0.086
-567.617	-59.613	-0.041	0.018
-566.602	29.069	-0.179	-0.152
-565.588	51.722	-0.232	0.221
-564.573	-37.660	0.184	-0.098
-563.558	205.552	0.255	-0.398
-562.544	-147.258	-0.294	-0.025
-561.529	800.000	0.031	0.135
-560.515	506.374	-0.125	0.290
-559.500	225.399	0.073	0.119
-558.485	-15.396	-0.159	0.102
-557.471	21.322	-0.240	0.195
-556.456	64.489	-0.197	-0.199
-555.442	-200.000	0.008	-0.289
-554.427	63.675	0.138	0.139
-553.412	260.840	-0.113	-0.196
-552.398	-200.000	0.016	-0.240
-551.383	185.362	-0.033	0.049
-550.369	60.158	-0.150	0.149
-549.354	43.202	-0.164	-0.150
-548.339	434.672	-0.148	0.322
-547.325	240.147	0.051	0.085
-546.310	-173.379	-0.235	0.007
-545.296	-116.166	-0.021	-0.004
-544.281	-41.159	-0.198	-0.102
-543.266	93.291	0.025	0.029
-542.252	330.714	0.206	0.397
-541.237	184.245	0.189	0.281
-540.223	255.430	0.096	0.165
-539.208	-57.861	-0.023	-0.010
-538.193	119.025	-0.021	0.026
-537.179	39.369	-0.071	0.063
-536.164	-200.000	0.051	-0.265
-535.150	147.964	0.166	0.224
-534.135	800.000	-0.021	-0.087
-533.121	-10.661	0.336	-0.223
-532.106	800.000	-0.021	-0.080
-531.091	135.918	0.122	-0.159
-530.077	294.768	0.057	0.104
-529.062	-57.906	0.180	0.079
-528.048	4.478	0.255	0.187
-527.033	-19.031	-0.292	-0.182
-526.018	288.605	-0.086	-0.157
-525.004	-200.000	-0.018	-0.148
-523.989	27.506	0.277	-0.233
-522.975	-56.143	-0.237	-0.106
-521.960	-137.637	0.154	0.017
-520.945	-45.498	-0.138	0.069
-519.931	-39.556	0.229	-0.120
-518.916	-27.055	0.297	-0.173
-517.902	-102.990	0.280	0.066
-516.887	-38.385	-0.196	0.104
-515.872	33.309	0.209	0.181
-514.858	245.658	0.105	0.178
-513.843	-69.609	-0.325	0.125
-512.829	-200.000	-0.070	-0.438
-511.814	-200.000	-0.020	0.138
-510.799	-137.185	0.283	0.032
-509.785	-13.297	0.400	0.260
-508.770	-68.024	-0.232	-0.091
-507.756	-101.292	0.157	-0.038
-506.741	-93.459	-0.082	-0.023
-505.726	9.032	-0.187	-0.142
-504.712	-126.973	0.270	-0.040
-503.697	6.131	-0.290	0.215
-502.683	31.323	0.098	-0.084
-501.668	-134.255	0.111	-0.014
-500.653	17.886	-0.175	0.139
-499.639	-200.000	-0.022	0.118
-498.624	-200.000	0.006	-0.156
-497.610	129.301	0.183	0.233
-496.595	382.132	0.065	-0.134
-495.581	-40.786	0.219	-0.114
-494.566	-112.556	-0.354	0.071
-493.551	-200.000	-0.018	0.145
-492.537	502.605	0.046	0.107
-491.522	-80.257	0.249	-0.083
-490.508	-97.874	-0.007	-0.002
-489.493	59.864	0.222	-0.219
-488.478	-37.350	0.107	-0.057
-487.464	-200.000	-0.010	-0.180
-486.449	-200.000	0.028	-0.234
-485.435	84.424	0.277	-0.303
-484.420	256.386	-0.177	0.304
-483.405	-140.628	-0.273	-0.028
-482.391	-29.860	0.125	-0.071
-481.376	-1.823	-0.133	0.094
-480.362	-3.095	-0.285	0.198
-479.347	-200.000	0.003	-0.021
-478.332	507.520	-0.097	0.225
-477.318	-60.904	0.293	0.124
-476.303	-79.714	0.231	-0.078
-475.289	470.389	0.169	0.380
-474.274	800.000	-0.067	-0.204
-473.259	-149.961	-0.260	-0.020
-472.245	800.000	0.029	0.100
-471.230	-149.132	-0.020	0.002
-470.216	104.064	-0.046	-0.054
-469.201	108.529	-0.231	0.276
-468.186	-10.092	-0.159	-0.105
-467.172	-117.853	0.395	-0.071
-466.157	34.817	-0.244	0.214
-465.143	-32.898	0.336	-0.187
-464.128	-200.000	0.018	-0.142
-463.113	-160.994	-0.204	0.011
-462.099	471.112	-0.069	0.155
-461.084	-9.062	-0.285	-0.191
-460.070	-195.854	0.551	-0.004
-459.055	-200.000	0.019	0.252
-458.040	-80.696	0.289	-0.096
-457.026	-200.000	-0.026	-0.252
-456.011	800.000	-0.042	0.183
-454.997	27.662	0.282	-0.237
-453.982	115.778	-0.167	-0.204
-452.968	505.118	-0.230	0.532
-451.953	41.028	-0.191	0.173
-450.938	20.449	0.288	-0.233
-449.924	69.150	0.156	-0.160
-448.909	-81.158	-0.102	0.034
-447.895	-200.000	-0.044	0.243
-446.880	800.000	-0.122	0.394
-445.865	-34.248	-0.111	-0.061
-444.851	-200.000	-0.039	-0.176
-443.836	-90.235	0.120	-0.035
-442.822	119.231	-0.069	0.086
-441.807	207.841	-0.141	0.220
-440.792	2.422	-0.236	-0.170
-439.778	-200.000	-0.060	0.370
-438.763	20.193	-0.111	0.089
-437.749	800.000	-0.022	-0.071
-436.734	-129.917	-0.223	0.031
-435.719	-103.828	-0.265	0.062
-434.705	62.296	-0.222	0.222
-433.690	-72.659	-0.056	0.021
-432.676	366.704	-0.146	0.293
-431.661	-86.926	-0.384	-0.117
-430.646	6.863	-0.057	-0.042
-429.632	-200.000	0.019	0.113
-428.617	-158.957	-0.244	0.014
-427.603	72.630	0.142	0.148
-426.588	800.000	-0.061	0.228
-425.573	-115.376	0.071	-0.013
-424.559	-200.000	0.121	-0.568
-423.544	193.536	-0.153	0.231
-422.530	-200.000	-0.006	0.053
-421.515	124.022	0.341	-0.428
-420.500	800.000	-0.129	-0.501
-419.486	510.659	-0.093	-0.217
-418.471	800.000	-0.141	-0.399
-417.457	775.658	-0.107	0.292
-416.442	800.000	0.111	-0.327
-415.428	-95.517	-0.202	0.054
-414.413	-58.291	-0.177	-0.077
-413.398	192.006	0.075	-0.112
-412.384	-64.463	0.132	-0.054
-411.369	733.988	-0.149	0.398
-410.355	58.313	0.098	-0.096
-409.340	27.873	0.208	0.175
-408.325	800.000	-0.134	-0.484
-407.311	4.578	0.307	-0.225
-406.296	-0.432	-0.104	0.074
-405.282	241.418	0.255	0.424
-404.267	-49.261	-0.220	-0.105
-403.252	562.166	-0.029	0.070
-402.238	24.737	0.202	-0.167
-401.223	-25.055	0.347	-0.205
-400.209	-28.951	-0.202	-0.116
-399.194	99.973	0.092	0.106
-398.179	-129.921	0.146	-0.020
-397.165	-52.115	0.289	0.134
-396.150	-136.088	-0.376	-0.044
-395.136	-200.000	0.014	-0.205
-394.121	-200.000	0.009	-0.200
-393.106	-161.239	-0.036	-0.002
-392.092	-200.000	0.100	-0.471
-391.077	132.488	-0.166	0.214
-390.063	-16.511	0.069	0.044
-389.048	-154.023	0.238	0.016
-388.033	-52.249	0.079	0.036
-387.019	-130.676	-0.188	0.025
-386.004	403.572	-0.088	0.184
-384.990	132.447	-0.181	-0.232
-383.975	28.663	-0.023	-0.019
-382.960	-140.698	0.574	0.059
-381.946	522.050	-0.094	0.219
-380.931	-200.000	0.034	0.578
-379.917	127.360	-0.184	0.233
-378.902	754.691	0.094	0.252
-377.888	-145.366	0.170	0.015
-376.873	-83.919	-0.237	0.075
-375.858	-200.000	0.041	0.187
-374.844	29.401	-0.068	-0.058
-373.829	-57.231	-0.394	-0.173
-372.815	-200.000	-0.061	-0.601
-371.800	-36.332	0.179	0.096
-370.785	-137.009	-0.059	-0.007
-369.771	-200.000	-0.002	0.238
-368.756	-101.513	0.190	0.046
-367.742	-58.229	0.311	-0.135
-366.727	-45.775	-0.443	-0.218
-365.712	-200.000	-0.043	-0.209
-364.698	634.998	-0.045	-0.114
-363.683	-200.000	0.046	0.420
-362.669	-7.999	-0.146	-0.098
-361.654	423.352	0.014	-0.030
-360.639	-146.257	0.290	0.025
-359.625	19.964	-0.425	0.341
-358.610	113.978	-0.021	0.026
-357.596	-188.453	0.166	-0.002
-356.581	126.382	0.160	-0.202
-355.566	-76.718	0.043	0.015
-354.552	290.687	0.106	-0.192
-353.537	800.000	0.131	0.465
-352.523	800.000	-0.033	-0.136
-351.508	-180.454	0.208	-0.004
-350.493	11.437	-0.082	0.063
-349.479	-9.711	-0.148	-0.098
-348.464	23.456	0.164	-0.134
-347.450	266.839	-0.278	-0.483
-346.435	527.668	0.107	-0.251
-345.420	800.000	-0.029	0.108
-344.406	-200.000	-0.002	-0.017
-343.391	-24.194	-0.084	0.050
-342.377	69.606	-0.056	-0.057
-341.362	-74.165	-0.304	-0.109
-340.348	31.852	0.157	-0.134
-339.333	-42.414	0.242	-0.122
-338.318	-12.336	-0.267	-0.174
-337.304	8.959	0.076	-0.057
-336.289	-200.000	-0.017	0.296
-335.275	-70.127	0.344	-0.130
-334.260	800.000	0.071	0.297
-333.245	-76.882	-0.224	0.078
-332.231	-97.430	-0.420	-0.108
-331.216	106.696	0.247	-0.291
-330.202	-157.086	0.045	-0.003
-329.187	-200.000	0.044	0.300
-328.172	-116.267	0.491	-0.090
-327.158	-134.467	0.323	-0.039
-326.143	-200.000	0.040	0.290
-325.129	306.430	-0.105	0.195
-324.114	94.379	0.043	0.048
-323.099	51.455	0.187	-0.177
-322.085	-101.442	0.435	0.105
-321.070	-11.451	-0.111	-0.073
-320.056	-137.652	-0.286	-0.032
-319.041	-117.994	0.183	-0.032
-318.026	800.000	-0.123	-0.375
-317.012	23.775	-0.176	-0.144
-315.997	-136.551	-0.154	-0.018
-314.983	-95.182	0.143	0.038
-313.968	-65.645	-0.103	0.041
-312.953	-200.000	0.009	-0.403
-311.939	-200.000	0.006	0.101
-310.924	332.098	-0.020	-0.039
-309.910	800.000	0.066	-0.219
-308.895	-200.000	0.014	-0.093
-307.880	800.000	0.090	-0.270
-306.866	800.000	-0.026	0.103
-305.851	501.414	-0.081	-0.186
-304.837	448.967	0.133	0.291
-303.822	-200.000	-0.031	-0.229
-302.807	495.282	0.063	-0.143
-301.793	-163.537	-0.285	-0.013
-300.778	126.336	-0.120	-0.151
-299.764	13.294	-0.191	-0.147
-298.749	59.115	0.082	-0.080
-297.735	-87.923	-0.156	-0.046
-296.720	-51.397	-0.211	-0.098
-295.705	-150.957	0.219	0.016
-294.691	-200.000	0.027	0.159
-293.676	642.122	0.045	-0.113
-292.662	-109.164	0.222	0.047
-291.647	132.849	-0.047	-0.060
-290.632	-97.217	-0.060	-0.016
-289.618	25.178	0.244	-0.201
-288.603	-28.111	-0.237	-0.136
-287.589	641.132	-0.076	-0.193
-286.574	-33.638	0.139	-0.076
-285.559	-157.617	0.136	-0.008
-284.545	423.537	0.047	-0.101
-283.530	800.000	-0.063	-0.240
-282.516	67.932	0.063	0.064
-281.501	-200.000	0.022	-0.319
-280.486	712.906	-0.060	0.158
-279.472	2.997	-0.410	0.295
-278.457	10.463	-0.112	-0.085
-277.443	14.280	0.090	-0.070
-276.428	-156.279	0.377	0.023
-275.413	220.670	0.086	0.137
-274.399	346.529	0.035	0.068
-273.384	43.920	-0.213	-0.194
-272.370	202.755	0.242	0.371
-271.355	-129.607	-0.054	0.007
-270.340	800.000	0.021	0.079
-269.326	-127.655	0.140	0.020
-268.311	171.349	0.086	-0.122
-267.297	191.025	0.100	-0.149
-266.282	70.685	0.173	-0.178
-265.267	37.761	-0.191	0.168
-264.253	85.301	0.161	0.175
-263.238	203.375	-0.069	-0.106
-262.224	-22.645	-0.087	-0.052
-261.209	34.594	0.240	0.208
-260.195	409.035	0.115	-0.242
-259.180	-83.040	-0.256	0.082
-258.165	-93.430	-0.168	0.046
-257.151	17.821	0.152	-0.120
-256.136	275.699	-0.034	0.059
-255.122	-6.118	-0.309	0.209
-254.107	-41.152	-0.208	-0.106
-253.092	58.191	0.174	-0.169
-252.078	96.985	0.068	-0.077
-251.063	189.299	-0.191	-0.284
-250.049	-3.246	0.050	-0.035
-249.034	-49.415	0.380	-0.180
-248.019	-176.325	0.219	0.006
-247.005	-72.162	-0.097	0.036
-245.990	-11.292	-0.471	-0.308
-244.976	800.000	0.061	0.221
-243.961	-200.000	-0.000	0.523
-242.946	127.898	0.171	0.215
-241.932	800.000	-0.057	-0.204
-240.917	800.000	0.074	0.259
-239.903	141.085	-0.132	0.172
-238.888	800.000	0.086	0.345
-237.873	-149.207	-0.120	0.010
-236.859	-199.209	0.154	0.001
-235.844	800.000	0.078	0.317
-234.830	-162.698	0.075	0.004
-233.815	-200.000	-0.049	0.235
-232.800	632.272	0.021	-0.052
-231.786	-200.000	0.003	-0.128
-230.771	-113.363	0.361	0.070
-229.757	-157.392	0.239	0.014
-228.742	-18.725	-0.274	0.169
-227.727	800.000	0.080	-0.233
-226.713	386.753	-0.016	-0.032
-225.698	86.484	0.216	-0.236
-224.684	-97.832	0.509	-0.130
-223.669	-128.237	-0.075	0.011
-222.655	240.542	0.077	-0.126
-221.640	-100.159	0.148	-0.036
-220.625	-159.166	-0.177	0.010
-219.611	114.295	-0.109	0.131
-218.596	-119.993	0.280	0.048
-217.582	566.588	-0.033	-0.079
-216.567	-200.000	-0.058	0.357
-215.552	-24.874	-0.028	-0.016
-214.538	-200.000	0.012	0.200
-213.523	-200.000	-0.044	0.242
-212.509	381.539	0.064	-0.129
-211.494	43.976	-0.102	-0.092
-210.479	90.103	-0.178	-0.197
-209.465	-176.211	0.194	-0.005
-208.450	-200.000	0.014	-0.123
-207.436	68.180	-0.197	-0.200
-206.421	557.920	0.039	-0.092
-205.406	-94.653	0.118	-0.032
-204.392	-24.270	0.072	-0.042
-203.377	-31.135	-0.098	0.055
-202.363	800.000	0.045	-0.127
-201.348	-98.643	0.174	0.044
-200.333	753.809	-0.057	0.152
-199.319	263.754	-0.292	-0.501
-198.304	371.592	-0.062	0.125
-197.290	-16.085	0.028	0.018
-196.275	99.780	-0.287	0.328
-195.260	-200.000	-0.131	-0.593
-194.246	-109.646	0.245	0.051
-193.231	800.000	-0.030	0.087
-192.217	255.157	0.319	0.540
-191.202	377.372	0.086	0.174
-190.187	-123.229	-0.222	0.035
-189.173	-70.428	0.184	0.069
-188.158	-113.282	0.198	-0.038
-187.144	-8.024	-0.173	-0.115
-186.129	200.766	0.027	0.042
-185.114	-200.000	-0.027	-0.180
-184.100	505.629	0.096	-0.220
-183.085	19.094	-0.150	-0.118
-182.071	-160.746	0.098	0.005
-181.056	285.862	-0.107	-0.191
-180.042	203.148	-0.051	-0.078
-179.027	-200.000	0.081	0.366
-178.012	-173.026	0.231	0.007
-176.998	-121.769	0.110	0.018
-175.983	800.000	0.019	0.052
-174.969	-191.349	0.060	0.001
-173.954	-124.741	0.151	0.023
-172.939	-50.510	0.376	-0.175
-171.925	-200.000	0.029	-0.195
-170.910	-25.677	0.053	0.031
-169.896	-33.560	-0.372	0.203
-168.881	-0.903	0.165	0.115
-167.866	46.488	-0.132	-0.121
-166.852	9.076	0.164	0.123
-165.837	-80.534	0.209	0.069
-164.823	565.394	-0.065	0.155
-163.808	309.333	-0.085	0.156
-162.793	-191.389	0.164	0.002
-161.779	800.000	-0.106	-0.340
-160.764	27.994	0.050	-0.042
-159.750	16.807	-0.056	0.043
-158.735	336.619	0.183	0.350
-157.720	340.720	0.087	-0.167
-156.706	-183.870	-0.161	0.003
-155.691	180.554	-0.088	-0.128
-154.677	-200.000	0.008	0.054
-153.662	-200.000	0.100	-0.000
-152.647	-54.323	-0.124	0.055
-151.633	-183.731	-0.225	-0.004
-150.618	-24.290	0.150	0.088
-149.604	441.124	-0.046	0.098
-148.589	-200.000	-0.019	0.391
-147.574	-60.233	0.027	0.011
-146.560	-8.897	0.123	-0.081
-145.545	130.327	0.122	-0.154
-144.531	-41.881	-0.256	-0.129
-143.516	127.348	-0.017	-0.021
-142.502	-54.742	0.272	-0.121
-141.487	20.501	-0.052	-0.041
-140.472	435.469	0.120	-0.258
-139.458	-200.000	0.002	-0.035
-138.443	-187.030	-0.283	-0.004
-137.429	-200.000	0.008	0.164
-136.414	-200.000	0.013	-0.073
-135.399	-200.000	-0.068	0.559
-134.385	478.960	-0.055	0.123
-133.370	246.174	0.086	0.143
-132.356	65.700	0.131	-0.130
-131.341	484.058	0.047	0.106
-130.326	495.194	0.025	-0.057
-129.312	-200.000	-0.005	0.050
-128.297	75.381	0.012	0.012
-127.283	115.586	-0.062	0.075
-126.268	800.000	0.102	0.328
-125.253	37.093	-0.135	0.118
-124.239	-200.000	-0.018	-0.083
-123.224	10.304	0.140	-0.105
-122.210	432.293	-0.037	-0.080
