DTS Sentinel unit serial number:	SN413079Multiplexer serial number:	ORYXHardware model number:	OX4-SRSoftware version number:	ORYX F/W v4.00 Oryx Data Collector v3.7.2.0data status	okinstallation	princeton_trtdifferential loss correction	single-endedforward channel	channel 3reverse channel	N/Adate	2019/09/15time	15:40:35forward acquisition time	60.00reverse acquisition time	0.00gamma	496.2192k internal	0.2290k external	0.2290temperature offset calibration	0.9940default loss term (dB/km)	0.3790temperature slope calibration	1.0000multiplexer offset coefficient	1.0000multiplexer slope coefficient	1.0000fibre end	0.00T internal ref (°C)	41.66T ext. ref 1 (°C)	5.16T ext. ref 2 (°C)	39.82length (m)	temperature (°C)	Stokes	anti-Stokes-747.200	120.106	0.234	0.297
-746.185	-200.000	-0.096	0.600
-745.171	94.833	-0.132	0.154
-744.156	-55.842	0.037	0.017
-743.142	15.850	0.291	-0.235
-742.127	126.278	-0.130	0.169
-741.112	-200.000	-0.003	-0.056
-740.098	-200.000	0.022	0.133
-739.083	-90.877	-0.092	-0.027
-738.069	92.000	-0.358	0.413
-737.054	-200.000	0.014	-0.326
-736.039	-200.000	-0.345	0.001
-735.025	-40.247	-0.126	0.067
-734.010	-200.000	0.015	0.082
-732.996	-200.000	0.006	-0.243
-731.981	355.236	-0.092	-0.187
-730.966	-200.000	-0.003	-0.239
-729.952	800.000	0.049	-0.196
-728.937	-132.675	-0.347	0.045
-727.923	-200.000	-0.015	-0.395
-726.908	316.965	-0.041	0.079
-725.894	94.399	-0.205	0.238
-724.879	36.376	-0.278	0.251
-723.864	163.089	0.061	-0.088
-722.850	205.587	-0.012	-0.018
-721.835	32.784	-0.081	0.072
-720.821	-59.694	0.108	-0.048
-719.806	42.680	0.158	-0.147
-718.791	516.851	-0.039	-0.093
-717.777	68.999	0.215	-0.226
-716.762	-134.781	-0.078	0.010
-715.748	-200.000	0.001	-0.156
-714.733	-92.239	0.217	0.063
-713.718	250.727	0.219	-0.381
-712.704	-195.345	-0.243	-0.002
-711.689	64.543	0.173	-0.178
-710.675	-16.742	0.172	-0.112
-709.660	11.030	-0.128	-0.100
-708.645	-32.766	-0.029	-0.016
-707.631	9.669	-0.180	-0.140
-706.616	245.799	0.043	-0.075
-705.602	-61.331	0.406	-0.175
-704.587	-200.000	0.029	-0.264
-703.572	485.415	0.144	0.335
-702.558	-62.542	0.142	-0.060
-701.543	-41.492	0.126	-0.066
-700.529	5.923	0.147	-0.111
-699.514	-119.757	0.271	0.048
-698.499	-101.177	0.363	-0.091
-697.485	156.039	0.180	-0.253
-696.470	-110.992	0.310	0.065
-695.456	-32.015	-0.358	-0.205
-694.441	-11.282	-0.292	0.197
-693.426	800.000	-0.071	-0.260
-692.412	110.153	0.134	-0.164
-691.397	-200.000	-0.020	0.139
-690.383	42.711	0.178	-0.166
-689.368	-24.602	0.216	-0.131
-688.354	800.000	-0.054	0.223
-687.339	-150.366	0.128	0.010
-686.324	377.185	-0.022	-0.046
-685.310	-200.000	0.015	-0.270
-684.295	-2.744	0.226	-0.161
-683.281	-200.000	0.070	-0.432
-682.266	-200.000	-0.051	-0.265
-681.251	-180.405	-0.188	-0.004
-680.237	-33.328	0.196	0.111
-679.222	566.101	0.156	-0.388
-678.208	147.276	-0.169	-0.233
-677.193	2.480	0.173	0.128
-676.178	800.000	-0.027	-0.080
-675.164	2.856	-0.062	-0.046
-674.149	126.282	0.170	0.220
-673.135	-55.756	-0.181	-0.083
-672.120	68.293	0.082	-0.086
-671.105	623.728	-0.087	0.223
-670.091	-200.000	-0.021	-0.167
-669.076	800.000	0.095	-0.317
-668.062	-101.084	0.204	0.051
-667.047	-33.665	-0.288	0.162
-666.032	760.999	-0.133	0.367
-665.018	212.883	-0.136	-0.220
-664.003	53.115	-0.078	-0.076
-662.989	-106.427	0.068	0.015
-661.974	-165.326	-0.249	0.011
-660.959	455.566	0.129	-0.292
-659.945	-200.000	-0.009	-0.291
-658.930	800.000	0.094	0.294
-657.916	-123.157	0.307	0.050
-656.901	-134.472	-0.088	-0.011
-655.886	-124.903	-0.211	0.033
-654.872	-107.786	-0.159	0.035
-653.857	-200.000	0.034	0.398
-652.843	678.169	0.045	0.120
-651.828	787.079	0.067	0.187
-650.814	-100.790	-0.201	-0.051
-649.799	762.435	-0.155	-0.430
-648.784	-200.000	-0.045	0.288
-647.770	98.821	-0.146	0.172
-646.755	-200.000	-0.024	-0.156
-645.741	8.440	0.220	0.169
-644.726	46.835	-0.208	-0.197
-643.711	-170.375	-0.238	0.009
-642.697	18.355	0.128	0.104
-641.682	-200.000	-0.009	-0.058
-640.668	800.000	0.030	-0.118
-639.653	-1.757	-0.034	-0.024
-638.638	-200.000	-0.026	-0.225
-637.624	-79.050	-0.274	-0.095
-636.609	151.662	0.022	0.030
-635.595	302.827	-0.154	-0.291
-634.580	-162.376	0.237	-0.012
-633.565	-37.527	-0.139	0.076
-632.551	625.168	0.087	-0.224
-631.536	800.000	-0.108	-0.352
-630.522	322.130	0.156	0.304
-629.507	-100.207	-0.249	-0.063
-628.492	-125.428	-0.224	0.035
-627.478	109.094	-0.151	0.184
-626.463	-200.000	0.023	-0.121
-625.449	-154.787	-0.157	-0.011
-624.434	800.000	0.065	0.221
-623.419	60.461	0.060	-0.060
-622.405	59.646	0.091	-0.091
-621.390	-70.745	-0.159	0.061
-620.376	-200.000	-0.008	0.157
-619.361	170.889	0.196	0.286
-618.346	-200.000	0.025	0.346
-617.332	-19.039	0.117	-0.074
-616.317	-170.003	-0.192	0.007
-615.303	-45.409	-0.148	-0.075
-614.288	-165.815	-0.065	0.003
-613.273	800.000	-0.134	0.558
-612.259	82.379	0.128	-0.142
-611.244	800.000	-0.041	-0.119
-610.230	751.531	0.110	-0.302
-609.215	280.601	-0.085	0.155
-608.201	76.696	0.201	0.217
-607.186	-200.000	0.006	-0.139
-606.171	-200.000	0.001	0.027
-605.157	-6.417	-0.033	0.023
-604.142	800.000	-0.162	-0.476
-603.128	12.404	-0.128	-0.100
-602.113	-11.154	-0.155	-0.104
-601.098	-42.632	0.233	-0.121
-600.084	785.705	-0.117	-0.326
-599.069	55.081	-0.269	-0.264
-598.055	50.686	0.093	-0.090
-597.040	800.000	-0.058	-0.222
-596.025	258.820	0.062	-0.110
-595.011	-200.000	-0.016	-0.117
-593.996	-118.820	0.173	0.031
-592.982	104.032	0.093	0.111
-591.967	-140.454	-0.090	0.010
-590.952	-68.510	-0.309	0.122
-589.938	65.252	0.044	0.045
-588.923	-200.000	0.018	-0.134
-587.909	800.000	0.066	0.218
-586.894	146.686	0.176	0.241
-585.879	-28.946	-0.173	-0.101
-584.865	800.000	0.018	-0.059
-583.850	-102.813	-0.290	-0.070
-582.836	-200.000	-0.058	-0.397
-581.821	0.858	0.124	-0.090
-580.806	-200.000	-0.002	-0.048
-579.792	457.403	-0.011	0.024
-578.777	-200.000	0.001	0.246
-577.763	1.657	-0.111	0.082
-576.748	617.382	0.161	-0.411
-575.733	-23.127	0.154	-0.094
-574.719	-5.941	0.265	-0.185
-573.704	-37.568	-0.227	-0.123
-572.690	-90.487	-0.106	0.031
-571.675	561.650	0.027	-0.066
-570.661	-200.000	-0.009	0.138
-569.646	-35.334	0.094	-0.052
-568.631	-43.781	-0.155	0.079
-567.617	-4.221	-0.264	0.186
-566.602	-200.000	-0.038	0.394
-565.588	800.000	0.076	0.252
-564.573	-200.000	0.020	0.170
-563.558	-200.000	0.009	-0.221
-562.544	1.638	-0.138	-0.101
-561.529	-146.581	0.168	-0.015
-560.515	-135.970	-0.227	0.027
-559.500	-97.663	-0.376	0.099
-558.485	106.598	0.400	0.483
-557.471	-86.660	0.282	0.088
-556.456	-89.337	0.341	0.102
-555.442	37.311	-0.128	-0.116
-554.427	-159.086	-0.316	-0.018
-553.412	-200.000	-0.028	0.318
-552.398	344.279	-0.079	-0.157
-551.383	159.120	-0.087	-0.123
-550.369	312.121	-0.126	0.240
-549.354	-200.000	0.008	-0.088
-548.339	800.000	0.046	-0.156
-547.325	-169.896	0.150	-0.005
-546.310	644.324	0.030	-0.077
-545.296	133.719	-0.043	-0.056
-544.281	-121.785	-0.159	0.027
-543.266	-77.345	0.161	0.057
-542.252	799.579	-0.113	-0.316
-541.237	738.855	0.131	-0.356
-540.223	89.180	-0.105	0.119
-539.208	-200.000	0.017	-0.172
-538.193	88.500	0.054	-0.061
-537.179	300.279	0.108	0.202
-536.164	149.619	0.096	-0.132
-535.150	-94.903	0.309	-0.085
-534.135	-200.000	0.021	0.125
-533.121	404.526	-0.166	-0.354
-532.106	-90.716	-0.183	-0.054
-531.091	-7.736	-0.130	-0.089
-530.077	82.206	-0.088	-0.097
-529.062	-112.321	0.130	0.026
-528.048	-79.242	-0.091	-0.031
-527.033	50.154	-0.075	-0.072
-526.018	-108.939	-0.112	-0.024
-525.004	-200.000	-0.003	0.053
-523.989	-126.734	0.171	-0.026
-522.975	800.000	0.092	-0.354
-521.960	-200.000	-0.001	-0.328
-520.945	-98.932	0.152	0.039
-519.931	12.902	-0.255	0.200
-518.916	250.178	-0.046	-0.079
-517.902	667.372	-0.099	0.260
-516.887	554.270	0.107	0.262
-515.872	46.056	-0.209	0.197
-514.858	37.406	0.232	0.209
-513.843	76.920	0.116	-0.125
-512.829	307.883	-0.113	-0.214
-511.814	-129.092	0.312	-0.044
-510.799	425.201	0.075	-0.164
-509.785	179.631	0.137	0.204
-508.770	-200.000	-0.017	-0.155
-507.756	-1.851	-0.237	-0.169
-506.741	173.605	-0.160	-0.235
-505.726	324.392	0.285	0.552
-504.712	78.410	0.222	-0.240
-503.697	31.770	-0.082	-0.071
-502.683	8.806	-0.130	0.100
-501.668	800.000	0.107	0.460
-500.653	-126.520	0.459	-0.069
-499.639	-156.123	0.291	0.019
-498.624	76.987	-0.122	0.131
-497.610	-200.000	-0.021	-0.236
-496.595	77.072	0.115	-0.124
-495.581	-45.430	0.287	-0.144
-494.566	126.155	-0.142	-0.182
-493.551	327.958	0.114	-0.222
-492.537	-200.000	-0.046	-0.572
-491.522	800.000	0.032	-0.100
-490.508	-4.431	-0.143	-0.100
-489.493	282.390	-0.100	-0.182
-488.478	-4.259	-0.100	-0.070
-487.464	-97.993	0.137	0.036
-486.449	-10.263	0.174	-0.117
-485.435	198.400	0.048	-0.074
-484.420	107.450	0.118	-0.143
-483.405	-59.781	-0.238	0.103
-482.391	800.000	0.057	0.204
-481.376	800.000	0.060	-0.198
-480.362	-200.000	0.021	-0.377
-479.347	-73.697	0.235	0.087
-478.332	9.084	-0.354	-0.271
-477.318	360.726	0.054	-0.110
-476.303	6.780	0.354	0.267
-475.289	-11.437	-0.184	0.123
-474.274	30.793	0.130	-0.113
-473.259	-73.320	-0.146	-0.054
-472.245	-83.346	-0.300	-0.098
-471.230	-122.137	-0.317	-0.053
-470.216	-197.885	-0.119	-0.001
-469.201	-200.000	0.003	0.166
-468.186	-5.311	0.306	0.213
-467.172	-56.924	-0.530	-0.237
-466.157	-86.907	0.270	0.084
-465.143	-105.147	0.034	0.008
-464.128	93.614	-0.152	0.175
-463.113	-200.000	-0.015	-0.316
-462.099	800.000	-0.076	-0.270
-461.084	-121.909	0.029	0.005
-460.070	-157.522	-0.279	0.017
-459.055	-200.000	0.016	0.181
-458.040	-200.000	-0.008	-0.071
-457.026	93.700	-0.143	-0.164
-456.011	-100.312	0.108	0.027
-454.997	-56.965	0.139	-0.062
-453.982	50.464	0.393	0.377
-452.968	13.988	0.328	-0.259
-451.953	-200.000	-0.020	-0.329
-450.938	-26.192	-0.224	0.133
-449.924	-68.940	0.080	0.031
-448.909	-2.799	-0.148	0.104
-447.895	76.166	-0.199	-0.213
-446.880	-200.000	0.013	-0.172
-445.865	-48.302	-0.224	-0.109
-444.851	248.760	0.114	-0.196
-443.836	218.848	-0.091	0.147
-442.822	97.867	-0.077	0.089
-441.807	-200.000	0.037	-0.228
-440.792	190.954	0.134	-0.204
-439.778	-103.075	0.155	-0.037
-438.763	-59.029	-0.164	-0.072
-437.749	-120.490	-0.179	-0.031
-436.734	4.285	-0.424	-0.314
-435.719	-159.639	0.458	0.026
-434.705	73.725	-0.280	0.296
-433.690	192.122	0.228	-0.347
-432.676	133.893	0.033	-0.043
-431.661	92.524	-0.121	-0.138
-430.646	44.724	-0.245	-0.228
-429.632	-142.172	0.216	0.022
-428.617	-200.000	0.056	-0.332
-427.603	-14.226	-0.280	0.183
-426.588	-156.508	-0.211	0.013
-425.573	109.435	0.051	0.062
-424.559	-80.647	0.086	0.029
-423.544	800.000	0.075	0.279
-422.530	800.000	-0.122	0.406
-421.515	81.356	-0.088	-0.096
-420.500	-44.324	0.080	0.040
-419.486	-200.000	-0.041	0.384
-418.471	-200.000	0.031	0.188
-417.457	-39.358	0.397	0.211
-416.442	-184.271	0.253	0.004
-415.428	24.486	-0.101	0.085
-414.413	-91.822	-0.092	0.026
-413.398	319.865	-0.046	-0.089
-412.384	-40.274	0.200	-0.105
-411.369	-200.000	0.014	-0.074
-410.355	-136.735	-0.190	0.022
-409.340	42.672	0.219	-0.202
-408.325	-119.601	0.270	-0.047
-407.311	-128.836	0.075	-0.011
-406.296	-47.393	0.285	0.140
-405.282	312.743	-0.053	0.100
-404.267	800.000	-0.099	0.300
-403.252	-166.953	-0.348	0.014
-402.238	30.584	0.125	-0.108
-401.223	54.294	-0.233	0.227
-400.209	-36.451	0.141	0.077
-399.194	-32.858	-0.309	0.174
-398.179	191.616	-0.206	0.314
-397.165	72.662	-0.091	-0.096
-396.150	-200.000	0.056	0.417
-395.136	800.000	-0.018	0.053
-394.121	-200.000	0.024	0.147
-393.106	242.438	-0.052	-0.089
-392.092	-200.000	-0.014	0.402
-391.077	37.975	0.059	-0.053
-390.063	-73.422	-0.183	0.068
-389.048	-200.000	0.046	0.365
-388.033	-111.840	0.429	0.088
-387.019	-46.779	0.355	0.176
-386.004	125.078	0.022	-0.028
-384.990	-194.155	-0.338	-0.003
-383.975	195.206	0.161	-0.247
-382.960	-200.000	0.095	0.422
-381.946	-188.296	-0.366	-0.005
-380.931	-200.000	-0.010	0.104
-379.917	-137.328	-0.180	-0.021
-378.902	10.234	-0.307	-0.236
-377.888	33.291	0.013	0.012
-376.873	63.737	0.174	0.176
-375.858	-200.000	0.036	0.214
-374.844	-13.920	0.160	0.105
-373.829	31.422	0.269	0.233
-372.815	-77.440	-0.216	0.076
-371.800	276.748	0.141	-0.253
-370.785	-200.000	-0.006	-0.040
-369.771	-35.074	0.068	0.038
-368.756	391.995	-0.150	-0.315
-367.742	21.217	0.243	-0.199
-366.727	622.404	-0.022	0.056
-365.712	-51.691	0.235	-0.111
-364.698	-166.272	-0.376	-0.016
-363.683	-132.929	-0.133	-0.017
-362.669	145.628	0.121	-0.164
-361.654	-126.983	0.057	-0.009
-360.639	25.654	-0.271	-0.228
-359.625	-86.161	0.168	-0.052
-358.610	-31.872	0.308	0.174
-357.596	-125.375	-0.020	-0.003
-356.581	-200.000	-0.124	-0.639
-355.566	-156.293	-0.317	-0.020
-354.552	19.600	0.125	0.102
-353.537	-87.263	-0.197	-0.060
-352.523	-41.307	-0.411	-0.214
-351.508	-7.507	0.429	0.293
-350.493	18.754	-0.164	-0.132
-349.479	125.268	0.134	0.170
-348.464	-129.191	-0.212	-0.030
-347.450	686.519	0.083	0.219
-346.435	26.750	-0.261	0.221
-345.420	-200.000	0.030	0.223
-344.406	-200.000	-0.018	-0.092
-343.391	800.000	-0.018	-0.077
-342.377	462.235	-0.073	0.165
-341.362	84.399	0.069	-0.076
-340.348	-14.040	0.039	0.026
-339.333	-17.698	-0.062	-0.039
-338.318	-11.952	-0.158	-0.104
-337.304	25.333	0.178	-0.149
-336.289	376.101	0.136	-0.279
-335.275	-200.000	0.003	-0.054
-334.260	748.319	0.055	0.148
-333.245	-200.000	-0.002	-0.065
-332.231	-112.834	0.283	0.057
-331.216	744.200	-0.150	-0.406
-330.202	509.972	-0.096	-0.224
-329.187	-81.125	0.098	-0.033
-328.172	5.183	-0.126	0.094
-327.158	339.753	-0.145	0.284
-326.143	-42.638	0.308	0.158
-325.129	800.000	0.054	-0.217
-324.114	-11.001	-0.201	-0.134
-323.099	-116.995	-0.111	-0.020
-322.085	-86.228	0.058	-0.018
-321.070	-200.000	-0.002	-0.238
-320.056	-126.384	-0.224	0.034
-319.041	633.199	-0.027	0.070
-318.026	31.168	-0.080	0.069
-317.012	275.849	0.072	-0.128
-315.997	26.474	-0.277	-0.234
-314.983	-200.000	0.043	-0.204
-313.968	78.233	0.129	-0.139
-312.953	86.330	-0.119	-0.132
-311.939	-14.399	0.248	0.161
-310.924	293.921	-0.036	0.066
-309.910	514.553	-0.115	0.270
-308.895	45.311	0.109	0.101
-307.880	-200.000	0.011	-0.161
-306.866	-60.304	-0.100	0.043
-305.851	-69.853	-0.495	-0.190
-304.837	-190.708	0.242	-0.003
-303.822	94.680	0.060	0.069
-302.807	-43.379	-0.188	0.096
-301.793	-119.287	0.208	0.036
-300.778	-200.000	-0.023	0.213
-299.764	-0.031	0.166	0.119
-298.749	59.929	0.109	-0.108
-297.735	59.505	-0.245	-0.244
-296.720	-196.955	0.238	-0.002
-295.705	143.829	0.093	0.125
-294.691	382.556	0.013	-0.027
-293.676	141.554	-0.184	0.246
-292.662	44.096	0.216	0.199
-291.647	555.982	-0.054	-0.132
-290.632	-137.162	-0.138	0.016
-289.618	524.144	0.100	0.236
-288.603	21.524	-0.137	0.112
-287.589	-68.963	0.274	-0.106
-286.574	-65.095	0.094	0.038
-285.559	800.000	0.080	-0.227
-284.545	149.780	-0.064	0.087
-283.530	800.000	-0.105	0.373
-282.516	800.000	-0.107	0.365
-281.501	-136.473	0.239	0.028
-280.486	142.842	0.327	-0.437
-279.472	-200.000	-0.020	0.567
-278.457	160.177	0.109	0.152
-277.443	580.077	0.132	0.326
-276.428	-83.256	0.275	-0.089
-275.413	332.962	-0.113	0.219
-274.399	1.831	0.063	-0.045
-273.384	-49.448	0.265	-0.127
-272.370	-84.684	0.063	0.020
-271.355	-166.563	-0.188	0.008
-270.340	56.895	-0.086	-0.084
-269.326	-104.801	0.336	-0.078
-268.311	-38.905	0.396	-0.210
-267.297	-21.945	0.097	-0.059
-266.282	-164.213	-0.146	0.007
-265.267	10.300	-0.202	0.155
-264.253	-13.280	0.130	0.085
-263.238	-147.489	-0.084	0.007
-262.224	-19.881	0.110	-0.068
-261.209	-57.728	0.137	-0.060
-260.195	-95.546	-0.545	-0.147
-259.180	173.395	0.167	-0.242
-258.165	71.106	-0.181	-0.189
-257.151	800.000	0.041	-0.120
-256.136	800.000	0.059	0.190
-255.122	-200.000	0.007	0.379
-254.107	-76.173	-0.354	0.126
-253.092	30.963	-0.009	-0.008
-252.078	245.861	0.138	-0.234
-251.063	-60.179	-0.097	0.041
-250.049	-114.196	-0.253	0.049
-249.034	-200.000	-0.019	0.108
-248.019	-30.362	0.279	-0.159
-247.005	185.225	0.103	-0.153
-245.990	144.451	0.224	-0.301
-244.976	-111.573	0.384	-0.078
-243.961	-200.000	0.036	0.569
-242.946	-200.000	-0.052	0.351
-241.932	71.400	0.156	-0.163
-240.917	-73.667	-0.441	0.161
-239.903	800.000	-0.066	0.233
-238.888	-172.588	-0.318	-0.010
-237.873	-112.140	-0.181	-0.037
-236.859	63.519	0.086	-0.086
-235.844	-141.204	0.227	0.023
-234.830	-45.326	0.159	-0.079
-233.815	-24.018	-0.345	-0.207
-232.800	115.202	-0.082	0.101
-231.786	-200.000	0.019	-0.222
-230.771	-200.000	-0.015	0.195
-229.757	316.701	-0.138	0.261
-228.742	-160.600	0.432	0.023
-227.727	-63.924	0.147	0.060
-226.713	-53.052	-0.210	0.097
-225.698	57.072	-0.270	-0.264
-224.684	-140.997	-0.331	-0.034
-223.669	-9.525	0.123	-0.082
-222.655	121.044	0.181	-0.227
-221.640	163.683	0.079	0.112
-220.625	-137.874	0.229	0.026
-219.611	-4.105	0.016	-0.011
-218.596	800.000	-0.062	-0.181
-217.582	-200.000	0.011	-0.089
-216.567	-200.000	-0.029	-0.479
-215.552	-7.174	0.093	-0.063
-214.538	31.814	0.295	-0.254
-213.523	-8.095	0.163	-0.110
-212.509	800.000	0.129	0.365
-211.494	800.000	0.035	-0.128
-210.479	52.316	-0.167	-0.160
-209.465	427.250	-0.037	0.080
-208.450	742.551	-0.177	0.476
-207.436	114.859	0.143	-0.174
-206.421	-200.000	0.020	0.336
-205.406	353.714	-0.120	-0.240
-204.392	-118.753	-0.215	-0.038
-203.377	800.000	0.066	0.187
-202.363	193.654	0.175	0.265
-201.348	-35.379	0.202	0.110
-200.333	800.000	0.052	0.213
-199.319	52.429	0.066	-0.063
-198.304	-128.887	0.155	-0.022
-197.290	-2.390	0.182	0.128
-196.275	194.327	-0.058	0.088
-195.260	507.504	-0.060	-0.140
-194.246	-162.128	0.065	0.003
-193.231	786.484	0.063	-0.174
-192.217	129.102	0.232	0.297
-191.202	-151.318	0.386	0.029
-190.187	-54.819	-0.110	0.050
-189.173	9.563	-0.266	-0.202
-188.158	-72.109	-0.145	-0.054
-187.144	-48.841	0.118	0.057
-186.129	-200.000	0.005	-0.129
-185.114	-164.149	0.319	-0.015
-184.100	800.000	-0.054	0.212
-183.085	503.957	-0.139	0.323
-182.071	183.053	-0.096	0.142
-181.056	800.000	-0.066	-0.266
-180.042	69.035	0.278	0.286
-179.027	54.217	-0.215	0.207
-178.012	11.172	-0.080	0.062
-176.998	-116.217	0.189	0.035
-175.983	-109.513	-0.208	0.044
-174.969	70.583	-0.292	0.302
-173.954	305.583	0.020	-0.038
-172.939	-85.439	0.182	0.057
-171.925	-62.652	-0.234	-0.097
-170.910	648.592	0.119	0.306
-169.896	147.967	-0.132	-0.178
-168.881	-155.690	0.408	0.026
-167.866	-122.674	-0.144	0.023
-166.852	235.596	-0.069	0.114
-165.837	800.000	0.032	-0.091
-164.823	-200.000	0.014	0.092
-163.808	422.565	0.186	0.400
-162.793	-100.286	-0.247	-0.061
-161.779	40.783	0.205	0.185
-160.764	114.706	0.204	0.249
-159.750	-200.000	-0.019	0.287
-158.735	-161.212	-0.144	-0.007
-157.720	-200.000	-0.004	0.233
-156.706	-55.055	0.201	0.091
-155.691	-10.461	-0.109	-0.072
-154.677	701.330	0.061	0.162
-153.662	760.671	-0.040	-0.108
-152.647	-131.486	-0.249	-0.033
-151.633	-25.155	0.201	0.119
-150.618	63.713	-0.120	0.121
-149.604	-47.568	0.181	0.088
-148.589	144.710	-0.168	-0.225
-147.574	-65.626	0.377	-0.151
-146.560	146.901	-0.046	-0.062
-145.545	-75.251	0.049	0.018
-144.531	-63.098	0.153	0.063
-143.516	98.247	0.062	-0.071
-142.502	113.478	0.265	0.322
-141.487	-66.583	-0.099	-0.039
-140.472	250.164	0.045	-0.077
-139.458	402.879	0.089	0.187
-138.443	33.722	-0.234	0.203
-137.429	406.999	-0.183	-0.387
-136.414	-9.347	-0.137	0.091
-135.399	-145.269	-0.488	-0.044
-134.385	-105.047	0.118	0.027
-133.370	-45.012	0.158	-0.078
-132.356	-84.661	-0.164	-0.052
-131.341	122.383	-0.184	-0.229
-130.326	-107.782	0.176	0.038
-129.312	-200.000	0.176	-0.001
-128.297	68.455	0.170	0.174
-127.283	-39.949	-0.144	-0.075
-126.268	63.071	-0.127	0.127
-125.253	-194.626	-0.058	0.000
-124.239	-200.000	0.013	-0.294
-123.224	98.289	-0.240	0.276
-122.210	-64.442	0.408	0.166
-121.195	82.168	0.190	-0.206
