DTS Sentinel unit serial number:	SN413079Multiplexer serial number:	ORYXHardware model number:	OX4-SRSoftware version number:	ORYX F/W v4.00 Oryx Data Collector v3.7.2.0data status	okinstallation	princeton_trtdifferential loss correction	single-endedforward channel	channel 3reverse channel	N/Adate	2019/09/12time	08:18:11forward acquisition time	60.00reverse acquisition time	0.00gamma	496.2192k internal	0.2312k external	0.2312temperature offset calibration	1.0031default loss term (dB/km)	0.3790temperature slope calibration	1.0000multiplexer offset coefficient	1.0000multiplexer slope coefficient	1.0000fibre end	0.00T internal ref (°C)	33.44T ext. ref 1 (°C)	1.70T ext. ref 2 (°C)	30.00length (m)	temperature (°C)	Stokes	anti-Stokes-747.200	62.154	0.158	0.160
-746.185	329.519	0.111	0.217
-745.171	-200.000	0.023	-0.364
-744.156	487.697	-0.199	0.460
-743.142	641.596	-0.044	0.113
-742.127	173.875	-0.224	0.328
-741.112	2.163	0.388	0.284
-740.098	447.585	0.095	0.211
-739.083	82.897	-0.176	-0.194
-738.069	207.632	-0.034	0.054
-737.054	-200.000	0.316	0.001
-736.039	-45.471	-0.278	-0.140
-735.025	455.017	-0.080	0.181
-734.010	-200.000	0.022	0.150
-732.996	-2.042	-0.220	0.157
-731.981	800.000	0.044	-0.138
-730.966	-141.437	-0.115	0.012
-729.952	-163.813	-0.241	0.011
-728.937	-32.862	-0.426	-0.240
-727.923	-200.000	-0.110	-0.518
-726.908	279.798	0.120	-0.218
-725.894	7.745	-0.463	-0.351
-724.879	-72.586	-0.132	-0.049
-723.864	-69.165	0.135	-0.053
-722.850	-5.488	0.104	-0.073
-721.835	-71.592	-0.203	0.077
-720.821	3.649	0.319	-0.236
-719.806	-42.027	-0.141	-0.073
-718.791	124.101	-0.056	0.072
-717.777	28.328	0.050	-0.043
-716.762	-72.493	0.150	-0.056
-715.748	-133.819	-0.094	0.012
-714.733	145.058	-0.235	0.318
-713.718	117.235	-0.138	-0.172
-712.704	62.363	0.226	-0.228
-711.689	-10.068	-0.097	-0.065
-710.675	-105.218	0.222	0.051
-709.660	492.927	-0.127	0.294
-708.645	255.892	0.099	0.172
-707.631	512.167	0.105	-0.248
-706.616	253.198	0.073	-0.127
-705.602	-200.000	-0.026	0.157
-704.587	-35.702	0.182	0.100
-703.572	-200.000	0.036	0.191
-702.558	57.577	-0.206	0.204
-701.543	296.079	0.215	-0.399
-700.529	712.541	-0.117	-0.313
-699.514	800.000	0.049	0.163
-698.499	-200.000	-0.009	-0.217
-697.485	148.260	0.081	-0.111
-696.470	23.463	0.099	-0.083
-695.456	-140.415	-0.200	0.021
-694.441	356.214	0.100	-0.202
-693.426	72.616	0.197	0.208
-692.412	92.673	0.266	-0.304
-691.397	800.000	0.048	-0.175
-690.383	647.159	-0.063	-0.162
-689.368	-20.943	0.154	0.096
-688.354	-200.000	-0.010	-0.372
-687.339	-76.462	0.132	-0.047
-686.324	281.162	-0.124	0.225
-685.310	38.110	-0.155	0.139
-684.295	249.898	-0.106	0.182
-683.281	185.474	0.082	0.124
-682.266	-12.657	-0.229	-0.151
-681.251	95.802	-0.027	-0.031
-680.237	-74.215	-0.278	0.102
-679.222	-80.296	-0.155	0.053
-678.208	23.116	0.274	-0.228
-677.193	-149.237	-0.277	-0.022
-676.178	-194.016	0.327	-0.003
-675.164	98.445	0.210	-0.245
-674.149	-96.902	-0.229	-0.061
-673.135	134.825	-0.077	-0.101
-672.120	39.603	-0.402	-0.365
-671.105	-108.448	-0.197	0.043
-670.091	-138.565	0.144	0.016
-669.076	-200.000	-0.046	0.213
-668.062	-110.403	0.308	0.065
-667.047	-8.149	-0.252	-0.172
-666.032	-118.368	-0.055	0.010
-665.018	-74.463	0.212	0.077
-664.003	800.000	-0.062	0.247
-662.989	251.005	-0.139	0.239
-661.974	-85.854	-0.313	-0.098
-660.959	-200.000	0.065	0.306
-659.945	244.441	0.093	-0.159
-658.930	-200.000	-0.040	-0.188
-657.916	726.037	0.047	0.127
-656.901	129.066	0.107	0.138
-655.886	-89.169	-0.293	-0.088
-654.872	386.027	-0.101	-0.212
-653.857	800.000	-0.133	-0.479
-652.843	16.619	-0.309	0.247
-651.828	800.000	-0.124	-0.361
-650.814	370.500	-0.059	-0.120
-649.799	800.000	0.023	-0.092
-648.784	800.000	0.110	0.311
-647.770	-200.000	-0.043	-0.204
-646.755	259.585	-0.185	-0.323
-645.741	-28.794	-0.265	-0.154
-644.726	-178.754	-0.245	0.006
-643.711	-200.000	0.077	0.444
-642.697	-144.106	0.150	-0.014
-641.682	-200.000	-0.018	-0.513
-640.668	128.107	0.218	0.280
-639.653	-200.000	0.034	0.291
-638.638	-1.917	0.109	0.078
-637.624	-200.000	0.007	-0.314
-636.609	27.134	0.167	0.142
-635.595	18.750	-0.134	-0.108
-634.580	-163.797	0.234	-0.011
-633.565	-67.982	0.151	-0.060
-632.551	-200.000	0.006	0.058
-631.536	-92.899	-0.216	-0.061
-630.522	292.990	0.039	0.072
-629.507	706.983	-0.040	-0.107
-628.492	-14.967	0.070	0.045
-627.478	1.076	-0.159	0.115
-626.463	-189.028	0.071	-0.001
-625.449	74.513	-0.250	-0.265
-624.434	306.620	-0.096	-0.181
-623.419	551.890	-0.046	0.111
-622.405	-115.486	0.202	0.038
-621.390	-164.717	0.213	-0.010
-620.376	-15.979	-0.327	0.210
-619.361	140.949	0.220	-0.293
-618.346	219.673	-0.038	0.062
-617.332	130.822	0.215	-0.278
-616.317	349.019	-0.110	-0.220
-615.303	-145.891	0.305	0.027
-614.288	800.000	-0.157	0.451
-613.273	-12.088	0.129	-0.085
-612.259	-117.874	-0.059	-0.011
-611.244	-200.000	-0.015	0.098
-610.230	-200.000	0.002	-0.056
-609.215	800.000	0.044	-0.138
-608.201	1.823	0.151	0.110
-607.186	-200.000	0.029	0.198
-606.171	-30.308	0.130	-0.075
-605.157	-133.347	-0.069	0.009
-604.142	-128.511	0.049	-0.007
-603.128	-200.000	0.018	-0.129
-602.113	-200.000	0.015	-0.343
-601.098	-142.154	0.023	-0.002
-600.084	-200.000	-0.011	-0.257
-599.069	625.893	0.020	-0.051
-598.055	496.594	0.016	-0.038
-597.040	-200.000	-0.020	0.217
-596.025	-200.000	-0.013	-0.405
-595.011	800.000	0.152	-0.471
-593.996	-170.249	-0.166	-0.006
-592.982	-104.076	0.355	0.083
-591.967	248.787	-0.066	-0.112
-590.952	119.653	0.096	0.120
-589.938	260.139	0.114	-0.199
-588.923	174.660	-0.071	0.104
-587.909	7.459	0.143	0.108
-586.894	-95.154	0.152	-0.041
-585.879	-175.061	-0.048	0.001
-584.865	12.008	-0.286	0.222
-583.850	193.249	-0.020	-0.030
-582.836	-200.000	0.005	0.029
-581.821	800.000	-0.123	-0.396
-580.806	-20.529	0.318	0.197
-579.792	126.644	-0.094	-0.120
-578.777	96.482	0.092	-0.106
-577.763	-30.670	0.166	-0.095
-576.748	111.564	-0.206	0.251
-575.733	442.160	0.152	0.336
-574.719	4.922	-0.346	0.257
-573.704	41.915	0.170	0.155
-572.690	39.642	-0.069	-0.063
-571.675	708.382	-0.051	-0.137
-570.661	-74.928	0.090	-0.033
-569.646	-87.811	0.086	-0.026
-568.631	-200.000	-0.010	0.257
-567.617	-200.000	-0.009	0.115
-566.602	-200.000	0.002	-0.155
-565.588	-67.903	0.352	-0.138
-564.573	-20.358	-0.209	-0.130
-563.558	48.059	-0.181	-0.170
-562.544	81.705	-0.146	0.159
-561.529	-65.696	-0.197	0.080
-560.515	33.587	-0.295	-0.259
-559.500	76.304	0.367	-0.392
-558.485	-124.379	-0.192	0.030
-557.471	162.600	0.088	0.124
-556.456	71.783	0.123	0.129
-555.442	-200.000	0.037	0.339
-554.427	-200.000	-0.017	0.146
-553.412	-53.559	0.171	0.079
-552.398	-82.418	0.122	-0.040
-551.383	174.562	-0.120	-0.175
-550.369	-200.000	-0.021	0.159
-549.354	-200.000	0.027	-0.222
-548.339	-52.889	-0.060	0.028
-547.325	-200.000	0.066	0.304
-546.310	-163.996	0.141	0.007
-545.296	-200.000	-0.142	0.001
-544.281	137.194	-0.175	0.230
-543.266	-60.868	0.289	-0.123
-542.252	-126.619	0.283	-0.042
-541.237	49.618	0.121	-0.115
-540.223	-42.856	-0.351	0.180
-539.208	800.000	0.062	-0.172
-538.193	17.902	0.162	-0.130
-537.179	-133.036	-0.281	0.036
-536.164	31.206	-0.157	0.135
-535.150	46.514	0.168	0.157
-534.135	800.000	-0.049	0.141
-533.121	-97.133	-0.145	0.038
-532.106	289.541	-0.154	0.281
-531.091	168.424	-0.073	-0.104
-530.077	125.698	-0.227	-0.288
-529.062	-200.000	0.003	0.080
-528.048	800.000	-0.082	-0.286
-527.033	-200.000	0.038	-0.269
-526.018	-45.841	0.240	0.119
-525.004	-200.000	-0.015	-0.305
-523.989	45.166	-0.112	-0.104
-522.975	-200.000	-0.024	-0.142
-521.960	-83.710	0.121	-0.039
-520.945	205.590	-0.173	0.270
-519.931	-110.136	-0.227	0.048
-518.916	-171.545	0.182	-0.006
-517.902	52.629	-0.132	0.127
-516.887	800.000	-0.062	0.231
-515.872	9.570	-0.182	-0.138
-514.858	-75.079	-0.209	0.075
-513.843	107.406	-0.104	0.125
-512.829	-86.294	-0.108	0.034
-511.814	97.038	-0.027	0.031
-510.799	-76.351	-0.086	-0.030
-509.785	-119.530	-0.133	0.023
-508.770	-200.000	0.024	-0.230
-507.756	32.831	-0.242	0.211
-506.741	668.653	0.122	-0.317
-505.726	-200.000	-0.053	-0.345
-504.712	161.819	-0.165	-0.232
-503.697	800.000	0.114	0.365
-502.683	1.302	-0.199	0.144
-501.668	-100.337	-0.018	0.005
-500.653	39.660	0.044	-0.040
-499.639	-164.052	0.479	-0.022
-498.624	366.449	-0.032	0.064
-497.610	-200.000	0.032	0.265
-496.595	70.233	-0.169	-0.175
-495.581	-112.999	0.180	-0.036
-494.566	-45.569	0.222	-0.110
-493.551	-134.468	0.084	0.010
-492.537	-54.968	-0.223	-0.101
-491.522	84.098	-0.032	-0.035
-490.508	-144.062	0.211	-0.020
-489.493	136.151	0.063	0.083
-488.478	800.000	-0.044	-0.131
-487.464	-61.876	-0.161	-0.068
-486.449	-69.058	0.160	-0.062
-485.435	-200.000	-0.025	0.382
-484.420	-49.783	0.210	-0.100
-483.405	226.687	-0.156	0.254
-482.391	-148.356	-0.225	0.019
-481.376	78.678	0.142	-0.153
-480.362	800.000	0.030	-0.091
-479.347	-67.380	0.161	0.063
-478.332	-200.000	0.014	-0.203
-477.318	-162.144	-0.334	-0.017
-476.303	-200.000	0.069	-0.433
-475.289	-200.000	0.027	0.149
-474.274	77.431	-0.229	0.245
-473.259	443.429	0.223	-0.491
-472.245	-63.892	0.169	-0.069
-471.230	-200.000	0.002	0.186
-470.216	-66.778	-0.347	0.138
-469.201	451.965	-0.071	-0.157
-468.186	206.130	-0.183	0.285
-467.172	44.579	-0.128	0.118
-466.157	-151.344	0.111	-0.008
-465.143	280.277	-0.143	0.256
-464.128	492.643	-0.078	0.180
-463.113	800.000	0.052	-0.203
-462.099	97.139	0.156	-0.180
-461.084	-63.387	-0.073	-0.030
-460.070	-62.330	0.583	0.244
-459.055	800.000	-0.065	-0.202
-458.040	-56.946	0.177	0.078
-457.026	128.738	-0.106	0.136
-456.011	-41.639	0.173	0.089
-454.997	21.009	-0.038	-0.031
-453.982	800.000	-0.099	0.294
-452.968	-200.000	-0.006	0.229
-451.953	492.974	-0.057	0.131
-450.938	-146.049	0.103	0.009
-449.924	81.509	-0.164	0.178
-448.909	210.608	0.181	-0.285
-447.895	4.177	-0.130	0.096
-446.880	242.176	-0.065	0.108
-445.865	-154.521	-0.133	0.009
-444.851	542.214	0.057	0.137
-443.836	-23.935	0.264	-0.158
-442.822	-5.071	0.224	0.155
-441.807	513.150	-0.079	-0.184
-440.792	10.523	0.145	0.110
-439.778	142.912	-0.046	0.061
-438.763	-200.000	-0.052	0.435
-437.749	64.801	0.088	0.089
-436.734	800.000	0.005	-0.016
-435.719	-175.150	0.289	0.008
-434.705	149.496	-0.170	-0.231
-433.690	-200.000	0.007	0.143
-432.676	497.055	0.040	0.092
-431.661	222.083	0.026	-0.042
-430.646	-108.551	-0.348	0.075
-429.632	-200.000	-0.002	-0.226
-428.617	-86.936	0.104	0.032
-427.603	1.607	-0.218	0.157
-426.588	-65.500	0.112	-0.045
-425.573	-66.155	-0.460	-0.184
-424.559	-28.982	0.028	-0.016
-423.544	-200.000	-0.005	-0.191
-422.530	-30.697	0.275	-0.156
-421.515	133.383	-0.195	0.253
-420.500	112.864	0.193	-0.235
-419.486	-93.934	0.255	0.070
-418.471	2.964	0.097	0.071
-417.457	-86.615	0.423	-0.130
-416.442	140.366	-0.176	-0.232
-415.428	800.000	-0.027	-0.113
-414.413	-200.000	0.054	0.312
-413.398	-21.883	-0.056	-0.034
-412.384	-178.281	0.237	0.006
-411.369	39.247	-0.285	0.256
-410.355	-53.715	0.308	0.141
-409.340	7.400	0.033	-0.025
-408.325	-127.695	0.058	0.008
-407.311	-42.749	0.162	0.083
-406.296	34.318	0.116	-0.102
-405.282	-176.699	-0.196	-0.005
-404.267	298.893	-0.045	-0.082
-403.252	30.394	0.170	-0.145
-402.238	-167.456	-0.165	0.007
-401.223	-200.000	0.012	0.112
-400.209	-69.866	0.299	0.114
-399.194	-67.507	0.137	-0.054
-398.179	-200.000	-0.029	0.199
-397.165	-135.940	-0.180	-0.021
-396.150	-200.000	0.027	-0.206
-395.136	-182.289	-0.126	-0.002
-394.121	373.009	-0.174	-0.354
-393.106	-25.081	0.127	0.076
-392.092	267.553	-0.182	0.319
-391.077	8.444	-0.062	0.046
-390.063	112.949	-0.130	-0.157
-389.048	566.221	-0.003	0.008
-388.033	284.411	0.059	0.106
-387.019	176.348	-0.295	0.429
-386.004	171.778	0.116	-0.167
-384.990	-167.934	-0.050	0.002
-383.975	113.157	-0.076	0.092
-382.960	94.945	-0.159	0.181
-381.946	-38.766	-0.216	-0.114
-380.931	60.377	0.051	-0.050
-379.917	-200.000	0.049	-0.240
-378.902	51.017	0.029	0.027
-377.888	-70.241	-0.179	0.068
-376.873	-75.460	0.150	-0.054
-375.858	-122.983	0.115	-0.018
-374.844	54.848	-0.434	-0.419
-373.829	177.933	-0.061	-0.090
-372.815	-57.880	0.416	0.182
-371.800	-15.312	0.041	-0.026
-370.785	216.175	0.105	0.167
-369.771	-35.987	-0.205	-0.111
-368.756	2.546	-0.424	-0.307
-367.742	-12.343	0.111	-0.073
-366.727	-87.118	0.288	-0.087
-365.712	800.000	0.075	-0.225
-364.698	77.019	-0.290	-0.308
-363.683	-200.000	-0.043	0.290
-362.669	31.078	0.060	-0.051
-361.654	52.517	0.052	0.050
-360.639	800.000	-0.055	-0.153
-359.625	-79.376	-0.019	-0.007
-358.610	99.042	0.073	-0.084
-357.596	-78.819	0.181	0.062
-356.581	-32.702	-0.033	0.018
-355.566	-142.690	0.156	0.015
-354.552	-118.218	-0.237	0.042
-353.537	-64.006	0.279	-0.114
-352.523	-190.163	-0.292	-0.003
-351.508	-30.921	0.120	-0.068
-350.493	-200.000	-0.022	0.178
-349.479	-44.244	0.203	0.102
-348.464	183.285	-0.106	-0.157
-347.450	77.544	-0.244	0.259
-346.435	-21.786	-0.108	0.065
-345.420	-156.509	0.392	-0.024
-344.406	-33.315	-0.128	-0.071
-343.391	-200.000	-0.015	-0.136
-342.377	800.000	0.084	-0.249
-341.362	198.838	-0.088	0.134
-340.348	144.880	0.091	0.121
-339.333	72.194	0.104	-0.108
-338.318	-111.021	-0.097	-0.020
-337.304	-200.000	-0.037	-0.202
-336.289	-148.613	-0.138	-0.011
-335.275	418.947	0.102	-0.217
-334.260	-93.900	0.058	0.016
-333.245	-13.949	0.125	-0.080
-332.231	-200.000	0.017	0.291
-331.216	35.266	0.055	-0.048
-330.202	-170.371	-0.208	0.007
-329.187	-93.479	0.357	-0.099
-328.172	-200.000	-0.057	-0.353
-327.158	-71.307	-0.151	0.057
-326.143	13.587	0.158	0.122
-325.129	800.000	-0.024	0.100
-324.114	800.000	-0.033	0.114
-323.099	193.368	0.074	0.111
-322.085	82.066	-0.039	0.042
-321.070	-98.052	-0.125	0.032
-320.056	-200.000	-0.039	-0.255
-319.041	800.000	-0.062	-0.248
-318.026	2.871	-0.018	0.013
-317.012	-134.480	0.112	-0.014
-315.997	10.294	0.200	-0.152
-314.983	-29.836	0.174	-0.099
-313.968	800.000	-0.039	0.148
-312.953	23.559	-0.174	-0.143
-311.939	-101.913	0.102	0.024
-310.924	3.262	0.344	-0.250
-309.910	-200.000	0.055	-0.319
-308.895	800.000	-0.052	-0.204
-307.880	-200.000	0.016	-0.121
-306.866	128.183	0.182	0.231
-305.851	-55.340	0.140	-0.063
-304.837	6.281	-0.498	0.369
-303.822	-46.055	-0.313	-0.154
-302.807	3.917	0.204	0.149
-301.793	2.156	-0.103	-0.074
-300.778	800.000	0.081	0.268
-299.764	-181.103	-0.143	0.003
-298.749	117.443	-0.142	0.174
-297.735	-161.540	-0.313	0.016
-296.720	800.000	0.068	0.188
-295.705	-200.000	0.018	0.115
-294.691	-55.037	-0.213	0.096
-293.676	-35.537	0.162	0.088
-292.662	102.356	0.087	0.102
-291.647	13.234	0.336	-0.260
-290.632	-109.732	-0.159	-0.033
-289.618	-200.000	-0.018	0.114
-288.603	11.415	-0.282	-0.215
-287.589	798.931	0.078	0.215
-286.574	-200.000	0.023	-0.202
-285.559	-117.303	-0.300	-0.054
-284.545	-200.000	0.036	0.228
-283.530	2.612	-0.409	0.295
-282.516	-82.873	-0.137	-0.044
-281.501	-200.000	-0.056	0.492
-280.486	-105.620	0.050	0.011
-279.472	-157.132	0.257	0.016
-278.457	-17.857	-0.054	0.034
-277.443	594.553	0.102	-0.252
-276.428	-114.203	-0.238	-0.046
-275.413	-15.015	-0.292	0.187
-274.399	-72.466	-0.339	0.125
-273.384	-21.479	0.137	-0.083
-272.370	-53.177	0.152	-0.070
-271.355	-200.000	-0.015	-0.137
-270.340	-26.980	-0.174	-0.101
-269.326	-159.780	-0.109	0.006
-268.311	441.865	0.023	0.049
-267.297	-129.779	0.181	0.025
-266.282	11.142	0.202	0.154
-265.267	78.050	0.297	-0.316
-264.253	-7.555	-0.170	0.114
-263.238	-200.000	0.041	0.222
-262.224	108.881	-0.073	0.087
-261.209	800.000	0.108	0.446
-260.195	-200.000	0.013	0.246
-259.180	209.878	0.224	-0.350
-258.165	-91.043	0.018	-0.005
-257.151	-166.250	-0.331	-0.014
-256.136	-200.000	0.019	-0.243
-255.122	-200.000	-0.060	0.271
-254.107	56.394	0.224	0.216
-253.092	43.357	0.094	-0.085
-252.078	-108.456	0.317	-0.068
-251.063	353.414	-0.211	0.416
-250.049	-96.650	0.151	0.040
-249.034	-67.073	0.230	0.090
-248.019	800.000	-0.099	0.411
-247.005	-91.005	-0.108	-0.031
-245.990	65.394	-0.067	-0.067
-244.976	-135.964	-0.104	0.012
-243.961	109.016	0.050	-0.059
-242.946	-108.689	-0.218	0.047
-241.932	50.671	-0.122	0.115
-240.917	-116.688	0.085	0.016
-239.903	39.929	0.081	-0.072
-238.888	598.556	-0.074	0.183
-237.873	139.799	0.042	0.056
-236.859	355.829	0.018	0.035
-235.844	34.922	-0.090	0.079
-234.830	-137.024	0.105	-0.012
-233.815	-200.000	0.068	-0.357
-232.800	445.973	0.088	-0.193
-231.786	13.946	-0.057	-0.044
-230.771	-17.167	-0.236	0.148
-229.757	562.670	0.193	0.464
-228.742	305.656	-0.008	0.015
-227.727	-16.935	0.148	-0.093
-226.713	-19.706	0.153	0.094
-225.698	61.564	-0.205	0.202
-224.684	-200.000	0.012	0.139
-223.669	-37.365	0.176	-0.093
-222.655	15.775	0.199	0.156
-221.640	-200.000	0.002	0.203
-220.625	273.882	-0.160	0.281
-219.611	119.786	-0.109	-0.135
-218.596	-200.000	0.004	-0.430
-217.582	89.824	0.264	-0.294
-216.567	-111.113	0.167	-0.034
-215.552	242.829	0.053	-0.088
-214.538	168.561	-0.074	0.105
-213.523	800.000	-0.078	-0.243
-212.509	-116.052	-0.262	0.049
-211.494	-143.890	-0.096	-0.009
-210.479	-200.000	0.029	0.160
-209.465	-39.328	0.074	-0.039
-208.450	-200.000	-0.004	-0.060
-207.436	136.931	-0.119	0.155
-206.421	253.353	0.131	-0.222
-205.406	190.573	-0.121	-0.180
-204.392	-74.164	-0.062	-0.022
-203.377	-110.018	-0.213	0.044
-202.363	238.749	-0.104	0.172
-201.348	-35.076	0.094	0.051
-200.333	-22.145	0.264	-0.159
-199.319	507.909	-0.102	0.236
-198.304	254.850	0.074	0.126
-197.290	30.139	-0.242	-0.205
-196.275	-69.521	0.107	0.041
-195.260	-40.753	-0.250	-0.128
-194.246	800.000	0.070	0.293
-193.231	-200.000	0.041	-0.447
-192.217	97.966	0.206	-0.235
-191.202	12.597	0.150	0.115
-190.187	5.743	-0.205	0.151
-189.173	-200.000	0.037	-0.390
-188.158	-120.658	-0.042	-0.007
-187.144	793.059	0.082	0.225
-186.129	-28.110	0.205	-0.117
-185.114	-99.894	-0.146	-0.036
-184.100	-200.000	-0.024	0.206
-183.085	-200.000	0.014	-0.212
-182.071	68.503	0.058	0.059
-181.056	98.770	-0.100	-0.115
-180.042	756.315	-0.033	0.090
-179.027	355.336	0.113	0.224
-178.012	28.219	0.255	0.213
-176.998	-106.833	0.079	0.017
-175.983	279.561	0.214	0.379
-174.969	307.601	-0.123	0.228
-173.954	-59.519	0.093	-0.040
-172.939	-200.000	-0.029	-0.258
-171.925	-136.352	-0.372	0.043
-170.910	-200.000	0.018	0.108
-169.896	-115.148	-0.062	0.012
-168.881	-33.511	-0.159	-0.087
-167.866	73.633	-0.224	-0.232
-166.852	-128.011	-0.129	-0.018
-165.837	-200.000	0.313	0.001
-164.823	-195.580	0.276	-0.002
-163.808	17.470	0.310	0.244
-162.793	232.362	-0.121	-0.197
-161.779	-200.000	0.033	-0.290
-160.764	36.569	-0.069	-0.060
-159.750	-134.984	-0.423	-0.051
-158.735	-200.000	-0.002	-0.106
-157.720	-200.000	0.007	0.123
-156.706	13.041	0.233	-0.178
-155.691	-39.036	0.032	-0.017
-154.677	-104.282	-0.127	0.029
-153.662	156.015	0.049	-0.067
-152.647	800.000	0.007	-0.025
-151.633	-99.848	0.179	-0.044
-150.618	-13.933	-0.366	0.235
-149.604	-118.211	-0.163	-0.029
-148.589	417.642	-0.094	0.199
-147.574	-129.832	0.166	-0.023
-146.560	103.816	-0.184	0.214
-145.545	302.993	-0.174	0.319
-144.531	-34.281	0.402	-0.219
-143.516	-39.985	-0.188	-0.097
-142.502	324.547	-0.142	-0.269
-141.487	-62.070	0.124	0.051
-140.472	-24.323	-0.124	0.073
-139.458	213.084	0.093	-0.145
-138.443	-200.000	-0.002	0.194
-137.429	663.304	0.089	0.228
-136.414	800.000	-0.085	0.257
-135.399	71.135	-0.061	-0.062
-134.385	359.550	-0.067	0.132
-133.370	-36.963	0.402	0.213
-132.356	800.000	0.037	-0.102
-131.341	-19.975	-0.064	0.039
-130.326	33.904	-0.090	0.078
-129.312	341.413	0.102	0.198
-128.297	-132.565	0.123	0.016
-127.283	451.968	-0.102	-0.224
-126.268	-89.195	-0.027	-0.008
-125.253	800.000	-0.071	-0.301
-124.239	241.202	0.058	-0.095
-123.224	64.167	0.105	-0.105
-122.210	800.000	0.054	-0.195
-121.195	-8.339	0.177	0.118
-120.180	29.625	0.112	0.094
