DTS Sentinel unit serial number:	SN413079Multiplexer serial number:	ORYXHardware model number:	OX4-SRSoftware version number:	ORYX F/W v4.00 Oryx Data Collector v3.7.2.0data status	okinstallation	princeton_trtdifferential loss correction	single-endedforward channel	channel 3reverse channel	N/Adate	2019/09/17time	05:52:34forward acquisition time	60.00reverse acquisition time	0.00gamma	496.2192k internal	0.2328k external	0.2328temperature offset calibration	0.9946default loss term (dB/km)	0.3790temperature slope calibration	1.0000multiplexer offset coefficient	1.0000multiplexer slope coefficient	1.0000fibre end	0.00T internal ref (°C)	28.94T ext. ref 1 (°C)	0.15T ext. ref 2 (°C)	22.67length (m)	temperature (°C)	Stokes	anti-Stokes-747.200	-72.957	0.154	0.057
-746.185	79.084	0.131	0.142
-745.171	427.187	0.024	-0.053
-744.156	-82.145	-0.238	0.078
-743.142	-155.440	0.197	0.013
-742.127	800.000	-0.038	0.131
-741.112	-33.929	0.047	-0.026
-740.098	-5.897	-0.286	0.197
-739.083	-200.000	0.012	-0.126
-738.069	519.670	-0.141	0.332
-737.054	464.165	0.071	0.160
-736.039	-160.570	0.127	-0.007
-735.025	49.458	0.196	-0.186
-734.010	-120.137	0.485	-0.084
-732.996	-200.000	-0.038	0.169
-731.981	470.422	-0.068	-0.154
-730.966	47.951	-0.163	-0.154
-729.952	-200.000	-0.029	-0.412
-728.937	-65.809	0.440	-0.177
-727.923	-27.737	-0.386	-0.225
-726.908	-64.061	-0.152	-0.063
-725.894	-200.000	0.029	-0.135
-724.879	-52.693	0.095	-0.044
-723.864	-25.712	0.053	0.032
-722.850	-69.041	-0.230	0.089
-721.835	800.000	-0.029	0.099
-720.821	650.284	0.154	0.397
-719.806	-14.748	0.143	0.093
-718.791	491.973	0.071	0.163
-717.777	-114.436	0.213	0.041
-716.762	157.684	-0.051	0.071
-715.748	350.044	0.118	-0.234
-714.733	-182.378	0.355	0.007
-713.718	1.071	0.290	-0.210
-712.704	-113.235	0.261	0.052
-711.689	800.000	-0.129	0.403
-710.675	-57.052	0.251	-0.111
-709.660	48.819	0.158	0.150
-708.645	38.313	0.086	0.077
-707.631	215.952	-0.107	0.172
-706.616	52.706	0.312	-0.300
-705.602	350.271	0.129	-0.257
-704.587	238.221	-0.123	-0.205
-703.572	8.459	0.018	0.014
-702.558	-176.397	-0.197	0.005
-701.543	-86.362	-0.331	-0.103
-700.529	-200.000	-0.009	0.099
-699.514	-77.181	-0.355	0.124
-698.499	-52.276	-0.133	0.062
-697.485	136.437	0.241	-0.316
-696.470	-200.000	-0.007	0.103
-695.456	-27.682	-0.208	-0.121
-694.441	2.063	-0.191	0.139
-693.426	-107.072	-0.232	-0.052
-692.412	174.719	0.228	-0.332
-691.397	50.371	0.101	0.096
-690.383	-200.000	0.012	-0.095
-689.368	-128.249	-0.123	-0.018
-688.354	159.915	0.150	-0.210
-687.339	89.060	-0.114	0.128
-686.324	128.681	0.090	0.116
-685.310	217.011	0.094	-0.150
-684.295	120.792	-0.176	0.220
-683.281	294.319	0.029	0.053
-682.266	-75.380	0.145	-0.052
-681.251	67.862	-0.298	-0.307
-680.237	-153.975	0.317	-0.022
-679.222	-200.000	-0.066	-0.308
-678.208	138.452	0.221	0.292
-677.193	11.872	0.069	0.053
-676.178	-200.000	0.031	-0.140
-675.164	-200.000	-0.018	-0.419
-674.149	-200.000	-0.008	0.204
-673.135	-200.000	-0.041	-0.245
-672.120	-123.143	0.222	-0.036
-671.105	263.968	0.159	-0.277
-670.091	-118.745	0.293	0.052
-669.076	-51.788	0.132	-0.062
-668.062	-32.897	0.027	0.015
-667.047	-117.654	0.268	-0.049
-666.032	-82.610	0.268	-0.087
-665.018	800.000	-0.067	-0.236
-664.003	8.701	-0.288	-0.218
-662.989	89.400	-0.172	0.192
-661.974	-115.989	-0.188	0.035
-660.959	347.459	-0.155	-0.307
-659.945	-9.564	-0.210	-0.141
-658.930	-134.966	0.358	-0.043
-657.916	-116.115	0.299	0.056
-656.901	-84.598	-0.164	-0.052
-655.886	46.448	0.133	0.124
-654.872	277.119	-0.100	0.178
-653.857	-200.000	0.005	-0.288
-652.843	800.000	0.112	0.371
-651.828	55.259	-0.326	0.316
-650.814	-89.670	0.176	-0.052
-649.799	-139.093	-0.381	-0.041
-648.784	-200.000	0.005	-0.064
-647.770	-112.839	0.171	-0.034
-646.755	27.495	-0.152	-0.128
-645.741	14.950	0.211	0.166
-644.726	800.000	0.047	-0.136
-643.711	-120.866	0.245	-0.041
-642.697	-200.000	-0.003	-0.057
-641.682	-200.000	-0.032	0.299
-640.668	329.592	0.057	0.111
-639.653	11.438	-0.074	-0.057
-638.638	-200.000	0.003	0.085
-637.624	-21.429	0.265	0.162
-636.609	-133.859	0.192	-0.024
-635.595	-200.000	0.016	0.169
-634.580	-200.000	0.008	0.111
-633.565	-200.000	0.005	0.043
-632.551	-200.000	-0.036	-0.346
-631.536	-184.982	-0.212	0.003
-630.522	135.185	0.024	-0.032
-629.507	-75.059	0.129	0.046
-628.492	12.598	0.121	0.094
-627.478	-200.000	0.054	-0.248
-626.463	559.509	0.077	0.187
-625.449	312.541	0.109	0.205
-624.434	12.479	0.035	-0.027
-623.419	32.789	0.314	-0.273
-622.405	145.616	-0.097	-0.130
-621.390	-3.447	0.147	0.102
-620.376	334.195	0.061	-0.119
-619.361	45.964	0.293	0.272
-618.346	94.932	-0.165	0.188
-617.332	206.509	-0.067	0.105
-616.317	65.806	-0.221	-0.224
-615.303	497.867	0.176	-0.407
-614.288	263.285	0.104	-0.182
-613.273	-81.223	0.151	-0.050
-612.259	-68.367	-0.308	0.120
-611.244	396.934	-0.011	-0.023
-610.230	-22.044	0.237	0.144
-609.215	-47.690	0.095	0.046
-608.201	290.086	0.119	0.216
-607.186	-48.598	-0.166	-0.080
-606.171	-101.495	0.082	-0.020
-605.157	-200.000	0.018	-0.128
-604.142	-200.000	-0.026	0.283
-603.128	192.528	0.275	0.416
-602.113	-36.238	-0.060	0.032
-601.098	69.269	0.136	-0.140
-600.084	150.177	0.133	-0.181
-599.069	-148.112	0.094	-0.008
-598.055	28.157	-0.072	-0.061
-597.040	-80.153	0.064	0.021
-596.025	53.062	0.234	0.225
-595.011	-94.484	-0.241	0.066
-593.996	609.779	-0.022	0.055
-592.982	-200.000	0.016	-0.170
-591.967	-122.140	0.340	-0.056
-590.952	-200.000	-0.009	-0.179
-589.938	267.719	0.091	0.160
-588.923	800.000	-0.032	0.115
-587.909	-19.984	0.205	0.127
-586.894	800.000	0.076	0.238
-585.879	40.696	-0.405	-0.365
-584.865	-200.000	0.045	-0.287
-583.850	225.390	0.225	-0.365
-582.836	526.445	-0.094	-0.221
-581.821	-41.132	-0.157	0.081
-580.806	800.000	-0.016	0.053
-579.792	83.826	-0.135	-0.147
-578.777	-20.491	-0.273	-0.168
-577.763	87.017	0.111	0.123
-576.748	-200.000	0.056	0.266
-575.733	-200.000	-0.051	-0.265
-574.719	800.000	0.113	0.383
-573.704	-200.000	0.077	0.338
-572.690	-58.000	-0.141	0.062
-571.675	-74.402	-0.352	0.127
-570.661	-49.031	-0.176	-0.084
-569.646	-127.985	-0.190	0.027
-568.631	398.578	-0.066	0.138
-567.617	-166.653	0.217	0.009
-566.602	-175.218	-0.148	0.004
-565.588	800.000	0.034	0.139
-564.573	-152.219	-0.326	-0.024
-563.558	-1.938	0.227	-0.160
-562.544	-108.769	-0.214	0.046
-561.529	355.159	-0.089	0.177
-560.515	-200.000	0.028	-0.166
-559.500	0.271	0.156	0.112
-558.485	-200.000	-0.043	-0.228
-557.471	542.310	0.052	0.123
-556.456	-200.000	-0.015	0.511
-555.442	77.713	0.281	0.300
-554.427	232.543	-0.106	-0.174
-553.412	461.944	-0.012	-0.027
-552.398	369.056	0.139	-0.282
-551.383	33.840	0.244	-0.212
-550.369	148.972	0.276	-0.373
-549.354	234.851	0.033	0.054
-548.339	-200.000	0.025	-0.118
-547.325	-32.605	0.045	-0.025
-546.310	-134.270	-0.263	-0.032
-545.296	800.000	0.047	-0.149
-544.281	264.389	0.031	-0.054
-543.266	352.910	-0.145	-0.288
-542.252	800.000	0.022	-0.065
-541.237	-200.000	0.008	0.226
-540.223	28.280	0.328	0.277
-539.208	-76.880	0.146	0.051
-538.193	-63.346	-0.265	0.109
-537.179	-125.240	0.185	-0.028
-536.164	-54.485	-0.229	-0.104
-535.150	61.437	0.210	0.209
-534.135	461.307	-0.160	-0.356
-533.121	17.528	0.187	-0.148
-532.106	127.300	-0.186	-0.236
-531.091	-173.156	-0.406	0.012
-530.077	-30.870	-0.170	-0.096
-529.062	778.169	-0.083	0.226
-528.048	168.473	-0.186	-0.265
-527.033	5.156	0.096	0.071
-526.018	83.549	0.023	0.025
-525.004	100.031	0.266	-0.308
-523.989	800.000	-0.124	-0.445
-522.975	163.157	0.039	0.054
-521.960	-112.513	0.199	-0.040
-520.945	-200.000	-0.041	-0.300
-519.931	800.000	0.161	-0.555
-518.916	-200.000	-0.030	0.144
-517.902	-86.380	-0.087	0.027
-516.887	800.000	0.034	-0.100
-515.872	86.222	0.151	0.166
-514.858	-60.666	-0.415	-0.176
-513.843	-200.000	0.006	-0.437
-512.829	5.458	0.249	-0.184
-511.814	-200.000	-0.020	-0.107
-510.799	-111.990	-0.346	-0.070
-509.785	-143.206	-0.237	0.023
-508.770	130.058	-0.112	-0.143
-507.756	-200.000	-0.063	-0.319
-506.741	99.052	0.123	-0.142
-505.726	31.826	0.058	0.050
-504.712	800.000	0.062	0.219
-503.697	-119.802	0.420	-0.072
-502.683	586.814	-0.072	0.177
-501.668	-200.000	-0.011	0.296
-500.653	49.202	-0.153	-0.143
-499.639	800.000	-0.035	0.105
-498.624	800.000	0.021	0.079
-497.610	134.545	0.095	0.123
-496.595	256.243	-0.125	-0.214
-495.581	65.137	0.195	-0.197
-494.566	-120.324	-0.199	-0.034
-493.551	-100.580	-0.050	0.012
-492.537	-119.909	0.174	0.030
-491.522	-200.000	-0.003	-0.203
-490.508	316.522	-0.133	-0.251
-489.493	6.763	0.123	-0.091
-488.478	-147.164	0.350	-0.030
-487.464	-114.091	0.115	0.022
-486.449	290.097	0.177	-0.320
-485.435	-158.764	-0.370	0.021
-484.420	-200.000	0.033	-0.182
-483.405	-200.000	-0.026	-0.321
-482.391	440.911	-0.080	-0.174
-481.376	166.329	-0.149	0.210
-480.362	-137.342	-0.370	-0.042
-479.347	-103.342	0.241	0.057
-478.332	-200.000	-0.021	-0.095
-477.318	800.000	0.089	-0.367
-476.303	-130.234	0.147	0.020
-475.289	-34.225	-0.329	0.180
-474.274	-186.341	0.183	0.003
-473.259	-121.071	0.222	-0.037
-472.245	-200.000	-0.176	-0.000
-471.230	800.000	-0.026	0.073
-470.216	-175.615	-0.337	-0.009
-469.201	-64.981	0.209	-0.084
-468.186	-3.117	0.111	0.077
-467.172	-200.000	0.039	0.201
-466.157	-186.236	-0.663	0.010
-465.143	53.249	-0.174	-0.166
-464.128	-200.000	0.050	-0.346
-463.113	-200.000	-0.054	0.488
-462.099	-119.165	-0.123	0.021
-461.084	-34.000	-0.284	-0.156
-460.070	-16.211	0.337	-0.213
-459.055	-164.814	-0.316	-0.014
-458.040	-200.000	-0.036	0.311
-457.026	161.434	-0.070	-0.097
-456.011	-173.978	-0.095	0.003
-454.997	-200.000	-0.001	-0.034
-453.982	7.067	-0.206	-0.153
-452.968	-46.341	-0.377	-0.185
-451.953	123.124	-0.188	0.235
-450.938	124.983	0.214	-0.269
-449.924	-127.498	-0.043	-0.006
-448.909	140.788	0.163	0.215
-447.895	-146.422	-0.097	0.008
-446.880	-68.678	0.119	-0.046
-445.865	-200.000	-0.026	-0.226
-444.851	-7.976	0.127	-0.085
-443.836	-200.000	0.026	-0.530
-442.822	149.346	0.079	0.107
-441.807	-138.141	0.285	0.032
-440.792	39.460	0.049	-0.044
-439.778	275.894	-0.050	-0.088
-438.763	800.000	0.073	-0.231
-437.749	-200.000	0.102	0.505
-436.734	265.778	-0.171	-0.297
-435.719	589.217	0.084	-0.206
-434.705	-105.302	0.065	-0.015
-433.690	738.272	-0.073	-0.195
-432.676	-200.000	0.027	-0.217
-431.661	800.000	0.061	0.253
-430.646	-200.000	0.010	-0.329
-429.632	-96.149	-0.179	0.047
-428.617	204.420	0.055	-0.085
-427.603	81.456	-0.069	-0.074
-426.588	-114.866	-0.190	0.036
-425.573	44.941	0.262	0.240
-424.559	313.092	0.131	0.245
-423.544	-19.744	-0.090	0.055
-422.530	-200.000	-0.018	0.118
-421.515	257.166	0.081	-0.139
-420.500	464.454	-0.161	0.358
-419.486	99.997	-0.169	0.195
-418.471	282.284	0.106	-0.188
-417.457	26.041	-0.211	-0.175
-416.442	79.331	-0.123	-0.131
-415.428	119.595	-0.126	-0.155
-414.413	-200.000	-0.013	0.119
-413.398	-167.997	0.237	-0.009
-412.384	339.310	0.030	-0.058
-411.369	-36.659	0.052	-0.028
-410.355	213.707	0.038	-0.059
-409.340	-139.177	-0.463	-0.050
-408.325	66.872	-0.234	-0.237
-407.311	-200.000	0.032	-0.187
-406.296	800.000	0.065	0.216
-405.282	-171.464	-0.162	-0.005
-404.267	121.123	-0.080	-0.099
-403.252	-200.000	-0.029	-0.260
-402.238	19.530	-0.214	0.171
-401.223	-178.482	-0.458	-0.011
-400.209	-200.000	0.021	-0.276
-399.194	800.000	0.026	0.097
-398.179	39.304	-0.292	0.260
-397.165	-200.000	-0.038	-0.191
-396.150	304.922	0.127	0.234
-395.136	-31.177	-0.072	-0.040
-394.121	-71.567	0.036	-0.014
-393.106	14.670	-0.091	0.071
-392.092	-128.234	-0.145	-0.021
-391.077	-200.000	-0.012	-0.076
-390.063	-184.238	0.123	0.002
-389.048	-200.000	0.016	0.197
-388.033	181.137	0.130	0.189
-387.019	-200.000	0.047	-0.266
-386.004	800.000	0.160	0.488
-384.990	134.846	0.113	-0.146
-383.975	645.035	0.064	-0.162
-382.960	202.429	0.208	-0.319
-381.946	-83.423	0.258	-0.082
-380.931	540.781	-0.152	0.360
-379.917	-142.433	-0.131	0.013
-378.902	-136.866	0.052	-0.006
-377.888	-49.693	0.146	-0.069
-376.873	-115.882	0.231	0.043
-375.858	-200.000	-0.024	0.379
-374.844	-200.000	0.040	0.272
-373.829	391.338	0.094	0.195
-372.815	93.275	0.183	0.206
-371.800	-200.000	-0.025	-0.156
-370.785	74.584	-0.259	0.271
-369.771	-13.114	-0.153	0.099
-368.756	-42.718	0.148	0.075
-367.742	-104.697	0.243	0.056
-366.727	-104.562	0.247	0.057
-365.712	-200.000	0.025	-0.179
-364.698	-200.000	0.029	0.226
-363.683	-200.000	-0.033	0.381
-362.669	-174.763	0.065	-0.002
-361.654	-200.000	-0.022	0.378
-360.639	137.066	-0.345	0.448
-359.625	651.952	-0.102	0.259
-358.610	-26.344	0.140	-0.082
-357.596	14.694	0.064	0.050
-356.581	800.000	0.044	0.164
-355.566	-6.544	0.105	-0.071
-354.552	800.000	0.122	0.516
-353.537	-93.189	-0.490	0.135
-352.523	508.706	0.057	0.132
-351.508	-200.000	0.018	0.309
-350.493	-99.698	0.234	-0.058
-349.479	58.775	0.043	0.042
-348.464	-68.221	-0.270	0.104
-347.450	12.667	0.179	0.137
-346.435	-9.109	-0.092	0.061
-345.420	-83.480	-0.295	0.094
-344.406	-200.000	-0.035	0.199
-343.391	-124.948	0.163	-0.025
-342.377	233.202	0.070	0.115
-341.362	544.967	0.062	-0.146
-340.348	83.229	0.261	-0.282
-339.333	-48.909	-0.184	0.087
-338.318	-156.415	0.216	-0.013
-337.304	800.000	0.070	-0.250
-336.289	-139.635	-0.157	-0.017
-335.275	-83.084	-0.205	-0.065
-334.260	192.097	0.127	0.189
-333.245	362.011	0.063	-0.125
-332.231	435.392	0.149	-0.321
-331.216	707.866	-0.029	0.075
-330.202	-100.168	0.193	0.048
-329.187	-6.461	-0.180	-0.122
-328.172	-76.891	0.172	-0.060
-327.158	-51.751	-0.191	0.088
-326.143	-38.517	0.360	-0.189
-325.129	800.000	-0.031	-0.125
-324.114	320.369	-0.122	-0.229
-323.099	-93.466	-0.211	0.058
-322.085	-42.300	-0.127	-0.064
-321.070	-44.372	0.159	0.079
-320.056	34.318	-0.328	-0.283
-319.041	-200.000	0.012	0.115
-318.026	-7.803	0.096	-0.064
-317.012	-124.013	0.099	0.015
-315.997	44.319	-0.097	0.088
-314.983	800.000	-0.045	-0.196
-313.968	-28.643	0.065	0.037
-312.953	247.918	0.066	-0.110
-311.939	5.846	-0.089	0.065
-310.924	199.998	0.033	0.051
-309.910	-5.981	-0.099	-0.067
-308.895	512.480	0.102	0.236
-307.880	13.159	0.050	-0.038
-306.866	-126.114	0.098	0.015
-305.851	-41.482	-0.301	-0.154
-304.837	77.964	0.143	-0.151
-303.822	-91.210	-0.510	0.145
-302.807	-13.875	-0.315	0.202
-301.793	84.692	-0.081	0.087
-300.778	-51.770	0.240	-0.111
-299.764	-200.000	0.026	0.168
-298.749	-134.534	-0.117	-0.014
-297.735	-108.622	0.216	-0.046
-296.720	800.000	-0.082	-0.339
-295.705	724.627	0.064	0.168
-294.691	-57.791	0.086	-0.037
-293.676	590.591	-0.025	0.061
-292.662	277.665	0.108	-0.190
-291.647	-147.162	0.376	-0.032
-290.632	-38.339	0.362	0.190
-289.618	-200.000	-0.019	-0.421
-288.603	-32.088	-0.145	0.080
-287.589	308.066	0.044	-0.081
-286.574	-5.887	-0.285	0.193
-285.559	-200.000	-0.000	0.113
-284.545	-200.000	-0.004	-0.417
-283.530	800.000	-0.073	-0.247
-282.516	-170.861	0.408	-0.014
-281.501	-49.731	0.073	-0.034
-280.486	800.000	-0.016	-0.046
-279.472	-3.211	0.091	0.063
-278.457	194.131	0.134	-0.201
-277.443	-125.816	-0.212	0.032
-276.428	-90.581	-0.098	-0.028
-275.413	108.259	-0.134	-0.159
-274.399	-102.531	-0.079	-0.019
-273.384	-186.586	-0.023	-0.000
-272.370	-113.309	0.142	0.028
-271.355	-200.000	-0.064	0.316
-270.340	258.987	0.076	0.129
-269.326	-200.000	-0.002	-0.358
-268.311	-200.000	0.048	-0.377
-267.297	186.068	0.055	-0.081
-266.282	-67.548	0.066	-0.026
-265.267	800.000	0.034	-0.130
-264.253	-26.976	0.199	0.115
-263.238	213.692	-0.050	-0.078
-262.224	68.557	-0.109	0.110
-261.209	67.043	-0.039	0.039
-260.195	-60.000	-0.134	-0.057
-259.180	-13.610	0.093	0.059
-258.165	383.687	-0.114	0.232
-257.151	97.110	-0.071	0.080
-256.136	-200.000	0.070	0.569
-255.122	11.150	-0.105	0.079
-254.107	-87.089	-0.272	0.082
-253.092	800.000	0.027	-0.097
-252.078	200.645	-0.221	-0.335
-251.063	556.245	0.225	0.535
-250.049	314.721	-0.024	0.045
-249.034	548.702	-0.090	0.212
-248.019	-41.212	0.063	0.032
-247.005	-140.312	0.287	0.030
-245.990	-12.010	-0.115	0.075
-244.976	444.565	0.093	0.202
-243.961	-63.382	0.123	0.050
-242.946	800.000	0.051	-0.187
-241.932	800.000	-0.070	0.257
-240.917	800.000	-0.028	-0.114
-239.903	800.000	-0.080	0.330
-238.888	-124.565	-0.277	-0.042
-237.873	-137.449	0.318	0.036
-236.859	800.000	0.106	0.347
-235.844	-28.470	0.013	0.008
-234.830	119.174	0.150	0.183
-233.815	-9.734	-0.024	-0.016
-232.800	325.766	0.069	0.130
-231.786	522.256	-0.096	-0.222
-230.771	800.000	-0.061	0.176
-229.757	-196.279	0.139	-0.001
-228.742	-37.405	-0.538	-0.284
-227.727	-19.004	0.335	0.206
-226.713	515.833	0.112	-0.259
-225.698	543.520	-0.103	0.242
-224.684	-118.428	0.244	0.043
-223.669	-21.120	-0.107	0.065
-222.655	-64.300	-0.277	0.111
-221.640	800.000	0.060	-0.208
-220.625	397.694	0.124	0.256
-219.611	-200.000	-0.003	0.057
-218.596	39.331	0.263	-0.233
-217.582	-200.000	0.033	-0.150
-216.567	800.000	0.108	0.429
-215.552	-73.388	-0.082	0.030
-214.538	125.700	-0.203	0.253
-213.523	-172.818	0.551	-0.017
-212.509	-128.129	-0.346	-0.049
-211.494	-200.000	-0.086	-0.488
-210.479	-77.554	0.339	-0.116
-209.465	800.000	-0.077	-0.235
-208.450	-200.000	0.049	0.345
-207.436	558.539	0.072	0.171
-206.421	800.000	0.039	-0.135
-205.406	-65.513	-0.107	-0.042
-204.392	-74.982	-0.217	0.077
-203.377	-86.728	-0.008	0.002
-202.363	321.475	-0.166	0.311
-201.348	14.768	0.033	0.025
-200.333	-51.668	-0.043	-0.020
-199.319	267.912	-0.104	-0.180
-198.304	-17.576	0.068	-0.042
-197.290	-200.000	-0.018	-0.132
-196.275	51.786	-0.249	0.234
-195.260	246.031	-0.081	0.135
-194.246	-145.727	-0.190	0.017
-193.231	-115.307	-0.254	0.047
-192.217	-80.420	-0.161	0.053
-191.202	-40.934	0.232	0.118
-190.187	31.665	-0.122	-0.103
-189.173	-200.000	-0.037	-0.308
-188.158	-120.465	-0.082	0.014
-187.144	-200.000	-0.019	0.131
-186.129	-79.006	0.172	0.058
-185.114	119.036	0.149	0.181
-184.100	125.136	-0.197	0.245
-183.085	322.538	-0.153	-0.288
-182.071	-200.000	-0.017	0.172
-181.056	-143.674	-0.454	0.043
-180.042	-200.000	0.019	-0.322
-179.027	-200.000	-0.031	-0.265
-178.012	-110.589	0.093	0.019
-176.998	10.356	0.307	0.231
-175.983	-12.870	-0.141	-0.090
-174.969	34.447	0.045	-0.039
-173.954	-62.140	0.269	0.110
-172.939	450.810	-0.064	0.140
-171.925	-200.000	0.049	-0.331
-170.910	800.000	0.233	0.644
-169.896	-93.369	-0.129	-0.035
-168.881	85.805	-0.187	0.203
-167.866	64.812	0.215	-0.214
-166.852	800.000	-0.077	-0.282
-165.837	-111.999	0.316	-0.063
-164.823	84.411	-0.146	0.157
-163.808	20.026	0.070	-0.056
-162.793	3.204	-0.087	-0.062
-161.779	662.836	0.162	-0.411
-160.764	476.373	0.153	0.341
-159.750	-200.000	-0.009	0.117
-158.735	16.724	-0.092	0.071
-157.720	-68.219	0.134	0.051
-156.706	103.612	-0.021	0.025
-155.691	-42.486	-0.065	0.033
-154.677	70.887	0.139	0.141
-153.662	81.024	0.225	0.239
-152.647	175.124	0.240	0.343
-151.633	-78.228	-0.193	0.065
-150.618	192.489	-0.159	0.236
-149.604	-20.956	0.135	-0.082
-148.589	28.610	-0.091	-0.076
-147.574	161.991	0.184	0.254
-146.560	71.644	-0.055	0.056
-145.545	-97.317	-0.226	-0.058
-144.531	-56.209	0.168	0.074
-143.516	800.000	0.070	0.197
-142.502	56.427	0.184	0.176
-141.487	-104.640	0.163	0.037
-140.472	-200.000	-0.009	0.048
-139.458	694.135	0.083	0.215
-138.443	-200.000	0.016	-0.090
-137.429	136.585	0.091	-0.116
-136.414	800.000	0.052	-0.179
-135.399	86.669	-0.116	0.126
-134.385	173.191	0.101	0.143
-133.370	-13.438	0.154	-0.098
-132.356	114.993	-0.153	0.184
-131.341	-70.786	0.211	0.078
-130.326	800.000	0.040	0.155
-129.312	402.490	0.032	-0.066
-128.297	-125.239	-0.070	-0.011
-127.283	206.418	0.090	-0.138
-126.268	800.000	-0.052	-0.220
-125.253	703.795	0.054	0.140
-124.239	148.534	0.168	-0.223
-123.224	601.345	0.060	-0.148
-122.210	-149.800	0.577	-0.045
-121.195	19.393	0.386	0.305
