DTS Sentinel unit serial number:	SN413079Multiplexer serial number:	ORYXHardware model number:	OX4-SRSoftware version number:	ORYX F/W v4.00 Oryx Data Collector v3.7.2.0data status	okinstallation	princeton_trtdifferential loss correction	single-endedforward channel	channel 3reverse channel	N/Adate	2019/09/17time	09:24:34forward acquisition time	60.00reverse acquisition time	0.00gamma	496.2192k internal	0.2326k external	0.2326temperature offset calibration	0.9936default loss term (dB/km)	0.3790temperature slope calibration	1.0000multiplexer offset coefficient	1.0000multiplexer slope coefficient	1.0000fibre end	0.00T internal ref (°C)	28.81T ext. ref 1 (°C)	0.14T ext. ref 2 (°C)	25.69length (m)	temperature (°C)	Stokes	anti-Stokes-747.200	261.957	-0.091	0.159
-746.185	-84.606	-0.015	0.005
-745.171	44.416	0.368	-0.341
-744.156	447.884	-0.092	0.205
-743.142	-200.000	0.033	-0.287
-742.127	42.455	-0.170	0.156
-741.112	-200.000	0.050	-0.333
-740.098	14.326	0.195	0.153
-739.083	-199.004	-0.154	0.001
-738.069	800.000	0.115	0.383
-737.054	-200.000	0.008	-0.217
-736.039	-89.992	-0.230	-0.068
-735.025	9.319	0.206	0.157
-734.010	119.939	0.067	-0.084
-732.996	-137.263	-0.367	0.042
-731.981	-23.521	-0.320	-0.194
-730.966	-200.000	0.008	0.101
-729.952	-19.781	-0.074	0.046
-728.937	344.273	-0.083	-0.165
-727.923	-200.000	-0.042	0.200
-726.908	23.233	-0.136	0.112
-725.894	-170.783	-0.471	0.016
-724.879	172.681	-0.019	0.028
-723.864	-135.969	0.151	-0.018
-722.850	643.507	0.078	-0.202
-721.835	-152.552	0.199	-0.014
-720.821	56.668	-0.190	-0.187
-719.806	-121.017	0.165	0.028
-718.791	135.820	-0.129	0.169
-717.777	6.211	0.144	0.107
-716.762	-156.402	-0.101	0.006
-715.748	232.493	-0.112	0.185
-714.733	-56.565	-0.253	0.113
-713.718	10.739	-0.149	0.114
-712.704	-200.000	0.059	-0.486
-711.689	800.000	0.083	-0.306
-710.675	124.649	0.093	-0.117
-709.660	189.772	-0.073	-0.111
-708.645	-200.000	-0.003	-0.299
-707.631	-54.610	-0.170	0.077
-706.616	277.089	-0.110	-0.197
-705.602	-30.179	-0.086	0.049
-704.587	97.930	-0.056	-0.065
-703.572	-200.000	0.024	-0.150
-702.558	-28.642	-0.145	-0.084
-701.543	-142.431	-0.284	-0.028
-700.529	-200.000	0.041	0.210
-699.514	800.000	0.040	-0.126
-698.499	246.114	-0.059	0.101
-697.485	-200.000	0.008	0.070
-696.470	-200.000	0.024	-0.324
-695.456	-50.102	0.142	-0.068
-694.441	34.626	-0.152	0.134
-693.426	92.658	-0.098	-0.111
-692.412	768.363	-0.082	0.225
-691.397	-143.982	-0.372	0.035
-690.383	-115.244	-0.252	-0.048
-689.368	-14.438	-0.190	0.123
-688.354	-115.704	0.356	-0.067
-687.339	-77.677	-0.187	-0.065
-686.324	-191.464	0.443	-0.004
-685.310	800.000	0.064	0.262
-684.295	-141.973	-0.164	0.016
-683.281	-149.704	0.304	0.024
-682.266	-88.020	-0.246	0.074
-681.251	-76.488	-0.094	0.033
-680.237	-2.358	-0.186	-0.131
-679.222	-122.470	-0.049	-0.008
-678.208	-200.000	-0.299	0.001
-677.193	-200.000	0.074	0.361
-676.178	-13.689	-0.358	-0.233
-675.164	-115.418	0.128	-0.024
-674.149	800.000	0.097	-0.297
-673.135	-195.264	-0.180	0.001
-672.120	-200.000	-0.006	-0.063
-671.105	-15.241	-0.141	-0.091
-670.091	528.731	-0.165	-0.392
-669.076	-89.366	-0.055	0.016
-668.062	-74.717	-0.077	0.028
-667.047	-200.000	0.009	0.119
-666.032	436.742	0.060	-0.131
-665.018	20.431	-0.405	0.329
-664.003	-200.000	-0.023	-0.185
-662.989	-153.899	-0.100	0.007
-661.974	-161.052	-0.253	0.013
-660.959	-53.239	0.296	0.137
-659.945	-125.941	0.334	0.051
-658.930	-108.852	0.134	-0.029
-657.916	-121.051	0.125	0.021
-656.901	-200.000	0.046	0.270
-655.886	-200.000	-0.028	-0.154
-654.872	198.308	0.127	-0.195
-653.857	-123.425	-0.174	0.028
-652.843	98.051	-0.127	0.147
-651.828	-107.652	0.350	0.077
-650.814	13.891	-0.154	-0.121
-649.799	-2.035	-0.189	-0.134
-648.784	-147.557	-0.311	-0.026
-647.770	-95.458	0.127	0.034
-646.755	-116.035	-0.331	0.062
-645.741	-200.000	0.003	0.136
-644.726	800.000	-0.066	-0.240
-643.711	3.826	-0.272	-0.200
-642.697	800.000	0.026	-0.094
-641.682	377.910	0.174	-0.357
-640.668	36.453	-0.100	0.089
-639.653	800.000	-0.085	0.244
-638.638	60.787	0.068	0.068
-637.624	-139.724	-0.167	-0.018
-636.609	-74.630	0.286	-0.103
-635.595	-98.464	0.234	0.060
-634.580	-200.000	0.008	-0.082
-633.565	16.342	0.074	0.059
-632.551	-80.717	-0.328	0.109
-631.536	194.887	-0.146	0.222
-630.522	-68.043	0.203	0.080
-629.507	8.078	0.187	0.141
-628.492	-149.784	-0.147	-0.012
-627.478	-92.502	-0.396	0.112
-626.463	-97.656	0.139	-0.036
-625.449	-200.000	-0.005	0.044
-624.434	27.669	0.061	-0.051
-623.419	385.652	-0.045	0.093
-622.405	-172.264	0.295	-0.009
-621.390	-119.074	-0.108	0.019
-620.376	9.118	-0.423	-0.321
-619.361	742.439	-0.118	-0.318
-618.346	157.127	-0.098	0.136
-617.332	514.743	0.082	-0.192
-616.317	-18.619	-0.204	-0.128
-615.303	582.334	-0.147	-0.361
-614.288	-200.000	-0.010	0.083
-613.273	44.468	0.289	0.266
-612.259	-82.212	0.113	0.037
-611.244	112.965	-0.076	0.092
-610.230	-52.829	0.085	-0.039
-609.215	-200.000	-0.015	0.138
-608.201	-39.468	0.315	-0.166
-607.186	-200.000	0.061	0.287
-606.171	33.453	-0.303	0.264
-605.157	-155.329	-0.549	-0.036
-604.142	-94.964	0.329	0.089
-603.128	-200.000	-0.051	-0.363
-602.113	-114.073	-0.215	0.042
-601.098	-74.654	0.171	0.062
-600.084	125.543	-0.055	-0.070
-599.069	-188.468	-0.252	-0.003
-598.055	800.000	-0.090	0.334
-597.040	800.000	0.073	0.234
-596.025	-26.559	0.048	0.028
-595.011	370.043	-0.086	-0.176
-593.996	-116.554	0.449	-0.083
-592.982	800.000	0.047	-0.208
-591.967	-200.000	-0.037	0.237
-590.952	292.906	0.047	-0.086
-589.938	-69.406	0.140	-0.054
-588.923	-68.848	-0.219	0.085
-587.909	243.941	0.101	-0.171
-586.894	-77.522	-0.114	-0.040
-585.879	165.913	-0.155	0.220
-584.865	-25.962	0.267	0.158
-583.850	-50.287	0.171	-0.081
-582.836	229.692	0.291	0.476
-581.821	7.014	-0.377	0.282
-580.806	244.666	0.121	-0.205
-579.792	58.394	0.150	-0.148
-578.777	-9.459	-0.207	-0.139
-577.763	17.576	-0.107	0.085
-576.748	800.000	0.032	0.095
-575.733	655.427	-0.113	-0.290
-574.719	62.191	-0.139	0.139
-573.704	800.000	0.075	0.231
-572.690	104.387	-0.488	-0.576
-571.675	93.458	0.132	-0.149
-570.661	-200.000	-0.037	0.185
-569.646	-89.398	0.304	-0.090
-568.631	253.761	0.074	0.127
-567.617	-200.000	-0.006	0.147
-566.602	-156.520	0.291	-0.018
-565.588	-17.607	-0.195	0.123
-564.573	-200.000	-0.014	-0.108
-563.558	117.669	0.397	-0.489
-562.544	-58.700	-0.103	0.045
-561.529	-200.000	0.016	0.294
-560.515	800.000	-0.018	-0.078
-559.500	800.000	-0.061	-0.238
-558.485	-181.786	-0.064	-0.001
-557.471	800.000	-0.073	0.304
-556.456	-200.000	-0.002	-0.210
-555.442	-33.352	0.120	0.066
-554.427	151.972	0.051	-0.070
-553.412	-15.588	-0.209	-0.133
-552.398	-200.000	-0.022	-0.190
-551.383	-179.040	-0.344	0.008
-550.369	65.778	-0.058	0.059
-549.354	-200.000	0.010	-0.063
-548.339	800.000	-0.057	-0.228
-547.325	800.000	-0.016	-0.055
-546.310	1.571	0.248	0.179
-545.296	-200.000	0.005	-0.198
-544.281	800.000	-0.039	0.128
-543.266	-113.015	-0.116	-0.023
-542.252	349.234	-0.186	-0.367
-541.237	80.331	0.194	-0.209
-540.223	-45.277	-0.269	0.134
-539.208	117.353	0.158	-0.194
-538.193	-57.733	0.121	0.053
-537.179	-61.270	0.113	0.048
-536.164	332.727	0.052	-0.100
-535.150	-86.073	-0.159	0.049
-534.135	-27.963	0.126	-0.073
-533.121	4.795	0.051	0.038
-532.106	69.538	-0.193	-0.199
-531.091	-35.495	0.169	0.092
-530.077	-28.675	-0.195	0.112
-529.062	-141.338	0.317	-0.032
-528.048	104.870	-0.120	0.141
-527.033	104.035	-0.229	-0.270
-526.018	-98.839	0.335	0.085
-525.004	-200.000	0.029	-0.152
-523.989	-180.500	0.127	0.003
-522.975	-79.243	0.186	0.063
-521.960	-96.618	0.134	0.035
-520.945	704.718	0.083	0.218
-519.931	-120.261	-0.182	0.031
-518.916	-73.902	-0.159	0.058
-517.902	253.164	0.081	0.139
-516.887	31.845	-0.117	0.101
-515.872	-154.052	-0.298	-0.020
-514.858	800.000	0.034	-0.128
-513.843	617.243	-0.115	0.289
-512.829	135.753	-0.164	0.214
-511.814	-72.922	0.475	0.174
-510.799	800.000	-0.050	-0.184
-509.785	320.783	0.052	0.098
-508.770	262.866	-0.033	-0.057
-507.756	-167.941	0.187	-0.007
-506.741	-36.855	0.376	0.201
-505.726	-200.000	0.009	0.132
-504.712	361.143	0.050	-0.099
-503.697	-16.292	0.392	-0.249
-502.683	-5.741	0.223	0.153
-501.668	672.464	0.106	-0.274
-500.653	-38.364	0.220	-0.116
-499.639	-200.000	0.040	0.224
-498.624	256.315	0.172	-0.294
-497.610	-127.071	0.268	-0.039
-496.595	87.375	-0.108	0.119
-495.581	353.494	0.138	0.274
-494.566	416.119	-0.094	-0.201
-493.551	-200.000	0.001	0.170
-492.537	800.000	0.070	0.209
-491.522	-99.424	-0.090	0.023
-490.508	800.000	0.085	-0.248
-489.493	66.871	-0.170	-0.173
-488.478	-96.316	-0.091	0.024
-487.464	-75.599	-0.268	0.095
-486.449	-184.633	-0.084	0.001
-485.435	-200.000	-0.046	0.204
-484.420	658.167	-0.082	-0.211
-483.405	-200.000	-0.017	-0.086
-482.391	-60.506	-0.245	0.104
-481.376	380.676	0.057	-0.117
-480.362	-200.000	0.010	-0.251
-479.347	-108.212	-0.061	-0.013
-478.332	46.389	0.080	-0.074
-477.318	-200.000	-0.003	0.170
-476.303	-200.000	0.028	0.214
-475.289	-109.761	-0.153	-0.032
-474.274	199.779	-0.120	-0.184
-473.259	57.766	-0.110	-0.108
-472.245	138.400	0.144	-0.189
-471.230	-120.871	0.051	-0.009
-470.216	14.014	-0.051	0.040
-469.201	-200.000	-0.009	-0.178
-468.186	-200.000	0.016	-0.344
-467.172	311.793	-0.051	-0.095
-466.157	800.000	0.096	-0.311
-465.143	305.045	0.069	-0.128
-464.128	22.929	0.188	-0.154
-463.113	-13.188	0.286	-0.186
-462.099	800.000	0.072	0.312
-461.084	178.784	-0.116	0.168
-460.070	-200.000	-0.012	-0.529
-459.055	-115.852	-0.427	0.080
-458.040	-36.800	-0.295	-0.158
-457.026	-62.935	-0.334	-0.138
-456.011	-200.000	-0.058	-0.256
-454.997	96.684	-0.035	-0.040
-453.982	180.772	-0.217	-0.318
-452.968	-200.000	0.024	-0.251
-451.953	-130.083	-0.225	0.031
-450.938	194.685	0.038	0.058
-449.924	800.000	0.138	0.406
-448.909	-200.000	0.075	-0.365
-447.895	234.114	0.091	0.150
-446.880	25.807	0.046	-0.038
-445.865	-200.000	0.048	0.428
-444.851	-133.469	-0.185	-0.023
-443.836	225.872	0.107	-0.172
-442.822	8.840	0.054	-0.041
-441.807	317.385	0.087	-0.163
-440.792	-71.619	-0.147	0.055
-439.778	-200.000	0.005	0.107
-438.763	-148.573	-0.342	-0.028
-437.749	-34.259	0.201	-0.110
-436.734	243.612	-0.070	0.117
-435.719	-2.073	0.106	0.074
-434.705	-69.357	0.269	0.103
-433.690	-1.626	-0.062	0.044
-432.676	191.022	0.087	-0.131
-431.661	-78.598	-0.192	-0.066
-430.646	68.686	-0.024	0.025
-429.632	-89.463	0.357	-0.105
-428.617	-120.386	-0.266	0.045
-427.603	-200.000	-0.028	-0.328
-426.588	186.735	0.211	-0.313
-425.573	265.230	0.065	0.112
-424.559	142.440	0.072	0.095
-423.544	401.891	0.056	-0.117
-422.530	-11.967	-0.207	0.135
-421.515	47.151	-0.048	0.045
-420.500	-155.526	-0.086	-0.006
-419.486	-146.913	-0.130	-0.011
-418.471	800.000	-0.007	-0.020
-417.457	-105.847	0.106	0.024
-416.442	-103.310	0.334	-0.078
-415.428	-200.000	0.034	-0.242
-414.413	-112.078	0.202	0.040
-413.398	-13.842	0.115	0.074
-412.384	-185.471	0.192	0.003
-411.369	76.335	0.196	0.207
-410.355	-41.337	0.255	0.131
-409.340	71.314	0.028	0.028
-408.325	113.924	0.109	-0.132
-407.311	292.603	-0.058	0.105
-406.296	182.368	0.184	-0.270
-405.282	34.250	0.221	0.192
-404.267	240.164	0.141	-0.233
-403.252	-200.000	-0.032	-0.171
-402.238	800.000	-0.052	0.174
-401.223	-15.538	0.050	-0.032
-400.209	-200.000	0.020	0.212
-399.194	-65.943	0.041	0.016
-398.179	-66.432	-0.125	0.049
-397.165	309.089	-0.189	-0.351
-396.150	-46.257	-0.095	0.047
-395.136	230.478	-0.042	0.069
-394.121	-160.257	0.187	0.010
-393.106	-74.057	0.086	-0.031
-392.092	-107.524	-0.343	-0.075
-391.077	-113.183	-0.428	0.084
-390.063	-111.388	-0.141	0.029
-389.048	800.000	0.112	0.328
-388.033	187.939	0.282	0.419
-387.019	-39.211	-0.186	0.097
-386.004	800.000	-0.024	0.082
-384.990	15.296	-0.187	-0.146
-383.975	800.000	-0.046	0.131
-382.960	7.048	-0.271	0.201
-381.946	-200.000	0.006	0.108
-380.931	-95.548	-0.205	0.055
-379.917	-143.839	0.238	0.022
-378.902	-37.864	-0.401	0.212
-377.888	-48.457	0.223	-0.107
-376.873	-195.465	0.381	-0.003
-375.858	-179.724	0.326	-0.007
-374.844	-200.000	-0.001	0.108
-373.829	46.805	0.162	0.149
-372.815	340.347	0.165	0.320
-371.800	-200.000	0.056	0.264
-370.785	800.000	-0.045	0.162
-369.771	180.852	-0.020	0.029
-368.756	-200.000	-0.047	-0.257
-367.742	-17.932	-0.105	-0.065
-366.727	800.000	0.092	-0.313
-365.712	800.000	-0.049	0.206
-364.698	139.323	0.038	0.049
-363.683	5.761	-0.303	0.223
-362.669	708.557	-0.054	0.143
-361.654	234.684	-0.121	-0.198
-360.639	800.000	-0.067	-0.224
-359.625	-200.000	0.262	-0.001
-358.610	-46.865	-0.147	-0.072
-357.596	-104.556	0.251	-0.058
-356.581	-21.278	0.293	0.178
-355.566	189.660	-0.119	-0.177
-354.552	143.170	0.154	-0.203
-353.537	-64.422	0.118	0.048
-352.523	-200.000	0.073	0.404
-351.508	-40.693	-0.107	0.055
-350.493	-101.971	0.186	0.045
-349.479	-76.036	-0.519	0.182
-348.464	-9.866	-0.166	0.109
-347.450	-200.000	-0.038	0.301
-346.435	34.501	0.242	0.210
-345.420	-200.000	0.014	-0.156
-344.406	800.000	-0.035	-0.152
-343.391	-155.992	0.317	0.020
-342.377	150.016	0.120	-0.162
-341.362	-200.000	0.057	0.275
-340.348	-200.000	-0.007	0.052
-339.333	-1.880	-0.150	-0.105
-338.318	112.864	-0.280	0.336
-337.304	-14.423	0.132	0.084
-336.289	56.343	-0.068	-0.065
-335.275	-31.408	0.153	0.085
-334.260	-200.000	0.060	0.287
-333.245	81.925	-0.104	0.112
-332.231	-34.840	0.297	0.161
-331.216	-200.000	0.051	-0.263
-330.202	335.604	0.090	0.174
-329.187	-43.889	-0.330	-0.165
-328.172	-84.602	0.312	0.098
-327.158	-61.951	0.309	0.128
-326.143	-32.134	0.216	-0.120
-325.129	81.224	0.214	0.230
-324.114	800.000	0.121	0.454
-323.099	-200.000	0.014	-0.131
-322.085	409.835	-0.094	-0.198
-321.070	-67.360	-0.060	-0.023
-320.056	714.839	-0.137	0.360
-319.041	-200.000	-0.037	-0.182
-318.026	28.982	0.232	0.195
-317.012	198.323	-0.115	-0.175
-315.997	87.968	-0.076	0.084
-314.983	800.000	-0.044	0.131
-313.968	223.295	0.120	0.192
-312.953	-200.000	0.073	-0.431
-311.939	-200.000	0.007	0.036
-310.924	-66.812	-0.213	0.084
-309.910	-14.898	-0.109	-0.069
-308.895	-54.896	-0.256	-0.115
-307.880	-200.000	-0.075	-0.390
-306.866	-116.850	-0.036	0.007
-305.851	-200.000	-0.040	0.188
-304.837	-25.179	-0.095	0.056
-303.822	577.011	0.085	0.206
-302.807	-127.098	-0.535	-0.078
-301.793	-40.089	0.057	-0.029
-300.778	-174.394	-0.199	-0.006
-299.764	-74.935	0.224	-0.080
-298.749	-200.000	0.021	-0.200
-297.735	36.838	0.098	0.086
-296.720	441.901	0.227	-0.492
-295.705	-31.457	-0.093	-0.052
-294.691	-52.367	-0.251	0.115
-293.676	774.828	-0.107	-0.290
-292.662	11.834	0.019	0.015
-291.647	-109.105	0.290	-0.061
-290.632	-97.769	-0.391	-0.100
-289.618	341.917	0.040	0.078
-288.603	17.779	-0.069	-0.055
-287.589	-155.486	-0.065	0.004
-286.574	-78.651	-0.105	0.036
-285.559	-200.000	-0.048	-0.373
-284.545	-153.703	-0.210	0.014
-283.530	61.902	0.071	-0.070
-282.516	42.847	-0.088	-0.079
-281.501	73.127	0.379	-0.393
-280.486	-200.000	-0.052	0.273
-279.472	-200.000	0.019	0.237
-278.457	399.048	0.095	0.198
-277.443	76.972	-0.160	-0.168
-276.428	-200.000	0.014	-0.088
-275.413	-33.261	-0.131	0.072
-274.399	7.715	0.150	-0.111
-273.384	-200.000	0.035	0.366
-272.370	-57.111	0.494	0.216
-271.355	211.834	-0.171	-0.266
-270.340	-200.000	-0.011	0.305
-269.326	291.860	0.167	-0.301
-268.311	159.278	-0.097	-0.134
-267.297	363.352	0.154	-0.306
-266.282	-31.085	-0.294	0.164
-265.267	-24.622	0.072	-0.043
-264.253	-200.000	-0.014	-0.142
-263.238	516.808	-0.057	0.132
-262.224	-59.860	-0.249	0.105
-261.209	-27.600	-0.158	-0.091
-260.195	-200.000	-0.050	-0.460
-259.180	118.129	0.117	0.142
-258.165	-200.000	0.049	0.261
-257.151	-115.407	-0.351	-0.066
-256.136	-200.000	0.008	0.127
-255.122	92.056	-0.203	0.226
-254.107	239.581	0.111	-0.182
-253.092	-130.838	-0.226	0.030
-252.078	-28.213	0.163	0.093
-251.063	-22.794	-0.324	-0.193
-250.049	-42.860	-0.135	-0.068
-249.034	62.554	0.115	0.114
-248.019	-151.664	-0.407	-0.030
-247.005	-95.828	-0.494	-0.130
-245.990	-91.999	0.130	-0.036
-244.976	-80.199	-0.300	-0.099
-243.961	800.000	-0.063	0.234
-242.946	-112.278	0.430	0.085
-241.932	-7.993	-0.186	0.124
-240.917	-200.000	0.071	0.388
-239.903	22.191	0.270	0.218
-238.888	-113.812	-0.156	-0.030
-237.873	26.177	0.070	-0.058
-236.859	800.000	0.073	-0.238
-235.844	-19.234	-0.288	-0.177
-234.830	-123.118	-0.401	-0.064
-233.815	-200.000	-0.032	-0.224
-232.800	345.276	0.141	-0.273
-231.786	800.000	0.064	-0.180
-230.771	130.086	-0.123	0.156
-229.757	77.472	-0.095	-0.100
-228.742	-19.816	-0.232	0.142
-227.727	-187.022	-0.112	-0.002
-226.713	-200.000	0.028	0.305
-225.698	-200.000	0.020	-0.298
-224.684	-200.000	0.014	-0.184
-223.669	133.821	0.023	0.029
-222.655	26.666	-0.156	-0.129
-221.640	287.138	-0.044	0.078
-220.625	376.377	-0.105	-0.212
-219.611	192.082	-0.154	-0.229
-218.596	437.907	-0.105	-0.225
-217.582	207.016	0.264	0.407
-216.567	-16.207	-0.159	-0.099
-215.552	-200.000	0.082	-0.385
-214.538	-200.000	0.027	0.178
-213.523	88.758	0.321	0.353
-212.509	-15.665	0.293	-0.185
-211.494	800.000	-0.053	0.213
-210.479	48.509	-0.088	-0.081
-209.465	-18.902	0.448	-0.275
-208.450	-21.553	0.292	-0.176
-207.436	721.217	0.084	-0.220
-206.421	95.106	-0.230	0.259
-205.406	53.512	-0.173	0.164
-204.392	-200.000	-0.007	0.121
-203.377	-12.389	-0.085	0.055
-202.363	522.376	-0.079	-0.182
-201.348	120.558	0.117	-0.144
-200.333	-175.432	-0.093	-0.002
-199.319	-200.000	-0.010	-0.220
-198.304	-27.821	0.419	-0.240
-197.290	231.749	0.073	-0.119
-196.275	-4.902	-0.421	0.286
-195.260	283.303	0.073	-0.129
-194.246	120.952	-0.192	-0.236
-193.231	800.000	0.047	-0.144
-192.217	-200.000	0.002	-0.014
-191.202	30.037	0.337	-0.284
-190.187	2.822	0.130	0.093
-189.173	-47.453	-0.282	0.135
-188.158	59.701	0.254	0.247
-187.144	-150.236	-0.129	-0.010
-186.129	27.882	-0.277	0.231
-185.114	25.533	0.220	-0.181
-184.100	800.000	0.035	0.106
-183.085	484.824	0.099	-0.222
-182.071	46.378	0.159	-0.145
-181.056	-88.257	0.194	-0.057
-180.042	-200.000	-0.019	-0.096
-179.027	273.931	-0.077	-0.134
-178.012	-200.000	0.011	-0.124
-176.998	515.021	0.065	-0.149
-175.983	-0.084	-0.031	0.022
-174.969	800.000	0.141	0.465
-173.954	43.486	0.133	-0.120
-172.939	-170.253	0.249	-0.009
-171.925	-170.670	0.139	-0.005
-170.910	-132.228	0.462	0.059
-169.896	-200.000	-0.015	0.251
-168.881	44.073	0.166	0.150
-167.866	800.000	-0.062	0.185
-166.852	-139.246	0.158	-0.017
-165.837	-200.000	0.038	0.392
-164.823	45.974	0.156	0.143
-163.808	-200.000	-0.054	0.317
-162.793	185.158	-0.122	0.178
-161.779	-200.000	0.043	0.218
-160.764	-200.000	-0.046	0.418
-159.750	-189.960	0.118	-0.001
-158.735	-200.000	-0.013	-0.069
-157.720	-82.742	-0.309	0.098
-156.706	800.000	0.116	0.364
-155.691	-75.282	-0.176	-0.062
-154.677	454.147	-0.045	0.098
-153.662	366.152	-0.147	0.293
-152.647	76.106	0.272	0.283
-151.633	-45.553	0.085	0.041
-150.618	-200.000	0.052	0.317
-149.604	-200.000	-0.025	0.179
-148.589	343.456	-0.102	-0.198
-147.574	-125.841	0.254	0.038
-146.560	800.000	0.091	-0.283
-145.545	-200.000	0.007	0.069
-144.531	-45.654	-0.016	0.008
-143.516	-22.510	-0.222	0.133
-142.502	-23.514	-0.215	0.127
-141.487	-38.761	0.273	0.142
-140.472	66.972	0.318	-0.319
-139.458	-200.000	-0.029	-0.139
-138.443	-200.000	0.018	0.139
-137.429	-200.000	-0.004	-0.078
-136.414	198.269	0.185	0.278
-135.399	-130.922	-0.376	0.050
-134.385	382.579	0.069	-0.139
-133.370	-51.244	-0.190	0.088
-132.356	685.395	-0.045	-0.116
-131.341	284.246	-0.100	-0.177
-130.326	-112.061	0.092	0.018
-129.312	340.897	0.154	-0.297
-128.297	217.293	-0.113	0.177
-127.283	-200.000	-0.004	-0.085
-126.268	8.177	-0.315	-0.233
-125.253	-200.000	0.017	0.099
-124.239	-14.188	0.156	0.099
-123.224	-137.837	-0.155	0.017
-122.210	-200.000	-0.031	0.253
