DTS Sentinel unit serial number:	SN413079Multiplexer serial number:	ORYXHardware model number:	OX4-SRSoftware version number:	ORYX F/W v4.00 Oryx Data Collector v3.7.2.0data status	okinstallation	princeton_trtdifferential loss correction	single-endedforward channel	channel 3reverse channel	N/Adate	2019/09/15time	03:56:34forward acquisition time	60.00reverse acquisition time	0.00gamma	496.2192k internal	0.2323k external	0.2323temperature offset calibration	0.9968default loss term (dB/km)	0.3790temperature slope calibration	1.0000multiplexer offset coefficient	1.0000multiplexer slope coefficient	1.0000fibre end	0.00T internal ref (°C)	30.94T ext. ref 1 (°C)	4.60T ext. ref 2 (°C)	25.92length (m)	temperature (°C)	Stokes	anti-Stokes-747.200	800.000	0.046	-0.135
-746.185	37.159	-0.086	0.077
-745.171	-49.584	0.129	0.062
-744.156	-200.000	-0.222	-0.001
-743.142	-12.626	0.277	0.183
-742.127	-101.813	-0.196	-0.048
-741.112	-124.112	-0.033	0.005
-740.098	-200.000	0.002	-0.083
-739.083	190.992	0.228	-0.347
-738.069	-200.000	0.052	0.296
-737.054	-77.750	0.283	-0.099
-736.039	194.736	-0.123	-0.188
-735.025	2.941	0.127	0.093
-734.010	726.245	-0.052	-0.140
-732.996	-28.658	-0.265	-0.154
-731.981	-25.495	-0.262	-0.157
-730.966	-89.790	0.065	-0.019
-729.952	114.273	-0.061	-0.075
-728.937	800.000	0.072	-0.262
-727.923	243.968	-0.145	-0.246
-726.908	-82.505	-0.148	-0.048
-725.894	28.947	0.176	0.151
-724.879	103.176	-0.063	0.074
-723.864	800.000	-0.026	0.092
-722.850	524.532	-0.145	-0.344
-721.835	-75.917	-0.345	0.123
-720.821	800.000	0.065	0.240
-719.806	-134.916	-0.172	-0.021
-718.791	-13.177	-0.347	-0.228
-717.777	-51.467	0.449	0.212
-716.762	17.312	-0.303	0.243
-715.748	800.000	-0.076	-0.232
-714.733	87.029	-0.183	0.204
-713.718	20.606	-0.038	0.031
-712.704	-200.000	0.028	-0.144
-711.689	-98.910	0.288	-0.074
-710.675	-5.301	-0.051	-0.035
-709.660	-200.000	-0.030	0.240
-708.645	74.808	0.244	-0.259
-707.631	-142.957	0.298	-0.029
-706.616	76.023	0.230	-0.245
-705.602	-48.260	-0.151	-0.074
-704.587	-117.458	0.314	0.057
-703.572	800.000	0.026	0.112
-702.558	-44.827	0.050	-0.025
-701.543	-55.377	0.058	-0.026
-700.529	-34.960	0.146	0.080
-699.514	-200.000	0.214	0.000
-698.499	229.676	-0.092	-0.151
-697.485	-200.000	-0.041	-0.221
-696.470	-149.741	-0.475	0.038
-695.456	-200.000	-0.055	0.498
-694.441	-168.267	-0.273	0.011
-693.426	-3.164	0.080	-0.056
-692.412	94.414	-0.272	0.311
-691.397	30.657	0.202	-0.174
-690.383	651.377	-0.113	-0.291
-689.368	-151.018	0.232	-0.018
-688.354	38.904	-0.225	-0.202
-687.339	-54.770	0.260	-0.118
-686.324	-72.357	-0.205	-0.077
-685.310	-200.000	0.078	-0.518
-684.295	-200.000	-0.001	-0.156
-683.281	-61.722	-0.225	-0.095
-682.266	63.411	0.210	0.212
-681.251	-67.853	-0.445	-0.175
-680.237	-134.816	0.173	-0.021
-679.222	-200.000	-0.020	-0.193
-678.208	-15.103	-0.302	0.195
-677.193	-200.000	0.016	0.157
-676.178	-0.274	-0.331	-0.237
-675.164	-75.407	-0.298	-0.107
-674.149	-200.000	0.052	0.249
-673.135	148.488	-0.017	-0.023
-672.120	-50.674	-0.158	-0.075
-671.105	800.000	-0.047	0.180
-670.091	96.612	0.224	-0.259
-669.076	800.000	0.071	-0.281
-668.062	800.000	0.021	-0.086
-667.047	-13.020	-0.094	0.061
-666.032	-68.788	-0.235	0.091
-665.018	-8.343	0.160	-0.108
-664.003	25.795	0.141	0.118
-662.989	150.756	0.181	-0.248
-661.974	239.253	0.232	-0.389
-660.959	-139.768	-0.112	-0.012
-659.945	125.133	0.051	0.065
-658.930	-111.770	-0.110	-0.022
-657.916	-123.151	-0.337	-0.054
-656.901	-82.280	0.377	-0.124
-655.886	35.450	0.081	0.072
-654.872	-30.482	0.233	-0.133
-653.857	-28.251	-0.115	0.067
-652.843	260.021	-0.023	0.040
-651.828	41.310	0.203	-0.185
-650.814	282.245	0.164	-0.295
-649.799	23.394	-0.218	0.181
-648.784	603.995	-0.051	0.128
-647.770	-114.800	0.216	-0.042
-646.755	-200.000	0.017	-0.139
-645.741	800.000	0.059	0.240
-644.726	628.441	0.063	0.161
-643.711	40.885	0.090	0.082
-642.697	149.469	0.039	0.053
-641.682	18.929	-0.076	-0.061
-640.668	-200.000	-0.057	0.423
-639.653	-200.000	-0.004	0.058
-638.638	-130.120	-0.112	0.015
-637.624	800.000	-0.036	0.156
-636.609	123.458	-0.193	0.243
-635.595	-200.000	-0.025	-0.199
-634.580	211.035	-0.175	-0.277
-633.565	50.729	0.240	-0.228
-632.551	129.901	-0.122	0.157
-631.536	121.594	-0.059	0.074
-630.522	652.363	-0.066	0.170
-629.507	-29.073	-0.204	-0.118
-628.492	0.922	0.129	0.093
-627.478	588.797	-0.028	-0.070
-626.463	-200.000	0.029	-0.137
-625.449	175.841	0.098	-0.143
-624.434	34.988	-0.057	0.050
-623.419	-200.000	0.013	-0.216
-622.405	-200.000	-0.043	-0.317
-621.390	-200.000	0.034	0.185
-620.376	57.055	-0.239	0.235
-619.361	-70.702	-0.124	-0.047
-618.346	777.818	0.021	0.058
-617.332	-33.380	0.030	0.017
-616.317	800.000	-0.072	-0.266
-615.303	401.989	-0.058	-0.123
-614.288	-60.269	-0.159	-0.068
-613.273	-52.551	-0.220	0.102
-612.259	133.397	0.099	-0.129
-611.244	800.000	0.045	-0.190
-610.230	286.406	-0.123	-0.224
-609.215	-200.000	-0.014	-0.411
-608.201	-200.000	0.016	0.123
-607.186	17.525	-0.159	0.127
-606.171	-149.336	0.147	0.012
-605.157	-200.000	0.002	0.167
-604.142	-16.106	-0.267	-0.170
-603.128	28.022	0.163	0.138
-602.113	-65.726	0.057	-0.023
-601.098	-106.038	0.212	-0.048
-600.084	137.945	0.098	0.129
-599.069	-103.258	-0.337	-0.080
-598.055	181.518	0.116	-0.171
-597.040	800.000	-0.037	-0.113
-596.025	-156.983	0.028	-0.002
-595.011	-29.976	-0.076	-0.043
-593.996	104.630	0.089	-0.105
-592.982	31.986	0.160	-0.138
-591.967	-184.016	-0.181	-0.003
-590.952	609.182	-0.092	-0.232
-589.938	-91.053	0.029	-0.008
-588.923	-16.329	-0.205	-0.130
-587.909	5.694	-0.094	-0.070
-586.894	205.943	0.091	0.142
-585.879	-200.000	-0.002	-0.119
-584.865	-104.211	0.149	0.035
-583.850	11.037	0.086	-0.066
-582.836	66.038	-0.204	-0.208
-581.821	-116.286	0.097	0.018
-580.806	-200.000	-0.071	-0.399
-579.792	78.742	-0.109	-0.117
-578.777	155.607	0.113	0.156
-577.763	740.192	-0.039	0.105
-576.748	291.675	-0.037	0.068
-575.733	-200.000	-0.016	-0.326
-574.719	-93.606	-0.262	-0.073
-573.704	-28.254	-0.091	-0.053
-572.690	-41.925	-0.244	-0.126
-571.675	153.206	-0.067	0.092
-570.661	-115.444	-0.210	0.040
-569.646	-200.000	-0.072	0.538
-568.631	-163.291	0.089	0.004
-567.617	-200.000	-0.024	0.396
-566.602	800.000	-0.049	-0.204
-565.588	90.942	-0.098	-0.111
-564.573	-200.000	-0.003	-0.337
-563.558	678.256	0.050	0.130
-562.544	-101.932	-0.193	0.047
-561.529	53.190	-0.099	0.095
-560.515	-200.000	-0.037	0.219
-559.500	369.034	-0.020	0.040
-558.485	342.747	0.111	0.217
-557.471	-200.000	-0.028	-0.160
-556.456	66.253	-0.049	-0.050
-555.442	-93.291	-0.257	-0.072
-554.427	800.000	0.110	0.340
-553.412	-86.290	-0.250	-0.077
-552.398	-115.552	0.245	-0.046
-551.383	23.468	0.208	-0.172
-550.369	-200.000	-0.040	-0.354
-549.354	-46.356	-0.224	-0.111
-548.339	182.140	0.203	0.299
-547.325	-38.252	-0.084	-0.045
-546.310	-80.030	0.125	0.042
-545.296	398.909	0.133	-0.279
-544.281	-57.981	-0.077	-0.034
-543.266	229.826	-0.115	0.188
-542.252	27.861	0.074	-0.062
-541.237	-19.388	0.135	-0.084
-540.223	366.593	0.183	0.371
-539.208	444.266	-0.104	-0.228
-538.193	-39.785	-0.190	-0.099
-537.179	-18.858	0.060	0.037
-536.164	-200.000	-0.005	0.056
-535.150	178.802	0.009	-0.013
-534.135	-44.633	0.124	0.062
-533.121	-128.080	0.258	-0.037
-532.106	-25.845	0.200	0.118
-531.091	-98.744	0.088	-0.022
-530.077	-21.981	-0.204	0.124
-529.062	52.702	0.026	-0.025
-528.048	-110.606	-0.227	0.047
-527.033	82.921	-0.161	0.175
-526.018	382.867	-0.099	-0.205
-525.004	-200.000	-0.005	-0.199
-523.989	192.915	-0.084	0.127
-522.975	451.321	-0.046	0.102
-521.960	92.282	0.150	0.169
-520.945	195.482	0.094	0.143
-519.931	-200.000	0.000	0.095
-518.916	-67.380	0.099	0.039
-517.902	499.397	-0.061	-0.141
-516.887	-86.922	-0.236	0.072
-515.872	-102.832	0.361	0.086
-514.858	-52.731	-0.363	-0.168
-513.843	-165.369	0.109	-0.005
-512.829	164.395	-0.153	-0.216
-511.814	-122.928	0.139	0.022
-510.799	702.928	0.076	-0.200
-509.785	663.085	-0.163	0.421
-508.770	-200.000	-0.008	-0.181
-507.756	-200.000	0.061	0.271
-506.741	195.058	0.121	0.184
-505.726	34.968	-0.234	-0.205
-504.712	-70.725	0.219	0.083
-503.697	117.192	0.141	0.174
-502.683	-124.809	0.355	-0.055
-501.668	800.000	-0.062	-0.261
-500.653	116.288	-0.091	0.112
-499.639	800.000	0.116	0.448
-498.624	-91.510	-0.305	-0.087
-497.610	-200.000	-0.013	-0.071
-496.595	760.993	0.090	-0.245
-495.581	-27.442	0.056	0.033
-494.566	-200.000	0.030	-0.189
-493.551	-5.260	-0.134	-0.092
-492.537	-28.154	0.247	0.143
-491.522	56.801	-0.238	-0.232
-490.508	-18.021	0.313	0.196
-489.493	2.344	0.323	-0.234
-488.478	88.615	0.112	0.125
-487.464	-119.457	-0.122	0.021
-486.449	-99.054	-0.321	0.081
-485.435	800.000	0.044	0.148
-484.420	-147.965	-0.204	0.017
-483.405	-200.000	-0.094	-0.482
-482.391	-141.236	-0.227	-0.023
-481.376	107.181	0.067	0.080
-480.362	-51.556	-0.055	-0.026
-479.347	-148.909	-0.467	-0.038
-478.332	-200.000	0.043	0.194
-477.318	-30.438	-0.079	-0.045
-476.303	800.000	-0.060	-0.181
-475.289	800.000	0.067	0.288
-474.274	614.517	0.224	0.560
-473.259	103.531	-0.110	0.129
-472.245	800.000	-0.141	0.403
-471.230	353.833	0.105	-0.208
-470.216	506.900	-0.094	-0.217
-469.201	-136.860	-0.222	0.025
-468.186	-200.000	0.048	0.230
-467.172	-59.230	0.178	-0.077
-466.157	-113.924	-0.202	-0.039
-465.143	-86.359	0.348	-0.107
-464.128	-170.088	0.115	0.004
-463.113	-200.000	0.000	0.266
-462.099	800.000	0.069	-0.253
-461.084	53.942	0.035	-0.034
-460.070	409.929	0.066	-0.141
-459.055	27.186	0.246	-0.206
-458.040	-62.491	0.170	0.070
-457.026	-200.000	0.018	-0.088
-456.011	8.706	0.073	-0.055
-454.997	800.000	0.050	-0.185
-453.982	-200.000	0.040	-0.300
-452.968	-200.000	0.010	0.242
-451.953	800.000	-0.016	0.064
-450.938	-174.725	0.159	-0.004
-449.924	-105.488	-0.099	0.022
-448.909	72.122	0.060	0.063
-447.895	-91.171	0.163	0.047
-446.880	800.000	0.030	-0.085
-445.865	-88.585	0.105	-0.031
-444.851	334.458	0.147	0.285
-443.836	-107.885	-0.127	0.028
-442.822	-111.283	-0.191	-0.039
-441.807	-46.790	0.275	-0.134
-440.792	-100.500	0.277	0.068
-439.778	800.000	0.067	-0.260
-438.763	87.322	-0.046	0.051
-437.749	800.000	0.007	-0.025
-436.734	296.602	-0.135	0.247
-435.719	487.294	0.091	0.206
-434.705	252.447	0.189	0.321
-433.690	255.756	-0.177	0.303
-432.676	-200.000	0.007	-0.123
-431.661	-116.402	0.133	0.025
-430.646	-125.783	0.149	-0.022
-429.632	435.514	0.038	0.083
-428.617	187.740	0.152	0.226
-427.603	24.775	0.199	-0.164
-426.588	8.892	0.117	0.088
-425.573	800.000	0.054	-0.153
-424.559	-55.175	0.045	0.020
-423.544	-200.000	-0.006	-0.230
-422.530	-182.678	0.194	0.004
-421.515	125.853	0.026	0.033
-420.500	-74.169	0.209	0.075
-419.486	800.000	0.057	0.210
-418.471	800.000	0.032	-0.111
-417.457	657.785	0.143	-0.367
-416.442	111.539	-0.097	-0.117
-415.428	-82.238	-0.035	-0.012
-414.413	20.623	-0.168	-0.136
-413.398	287.274	0.123	0.221
-412.384	736.864	0.102	0.273
-411.369	71.013	0.316	-0.326
-410.355	101.287	0.113	-0.131
-409.340	-8.945	0.016	-0.011
-408.325	332.602	0.020	-0.039
-407.311	-67.129	0.233	-0.092
-406.296	-200.000	0.038	-0.293
-405.282	15.283	0.173	-0.135
-404.267	626.957	-0.069	0.174
-403.252	36.115	-0.357	0.313
-402.238	-42.165	0.280	-0.143
-401.223	39.064	-0.090	-0.080
-400.209	-114.689	0.029	-0.006
-399.194	-9.873	0.362	-0.240
-398.179	81.866	0.031	-0.034
-397.165	-74.528	-0.179	-0.064
-396.150	-81.358	0.036	0.012
-395.136	-153.180	-0.301	-0.021
-394.121	79.667	0.122	0.130
-393.106	-120.590	0.152	-0.026
-392.092	107.068	0.039	-0.046
-391.077	-200.000	0.015	-0.234
-390.063	800.000	0.045	-0.185
-389.048	649.962	0.108	0.275
-388.033	36.002	-0.053	-0.046
-387.019	-78.129	-0.470	0.161
-386.004	427.497	0.050	0.107
-384.990	477.983	-0.041	0.093
-383.975	19.758	-0.204	-0.163
-382.960	-47.375	0.105	-0.051
-381.946	-200.000	0.030	-0.267
-380.931	-200.000	0.037	-0.220
-379.917	92.598	-0.046	-0.051
-378.902	-0.285	0.188	-0.133
-377.888	-98.811	-0.255	0.065
-376.873	164.754	-0.105	0.147
-375.858	800.000	0.069	0.241
-374.844	-200.000	0.012	0.086
-373.829	-200.000	-0.016	-0.342
-372.815	-98.848	0.321	0.081
-371.800	-200.000	-0.045	-0.201
-370.785	800.000	0.052	0.159
-369.771	173.013	0.112	-0.161
-368.756	240.601	-0.086	0.143
-367.742	800.000	0.108	-0.310
-366.727	47.608	-0.032	-0.029
-365.712	624.565	0.008	-0.020
-364.698	800.000	-0.056	0.166
-363.683	0.668	0.097	0.069
-362.669	-111.223	-0.240	0.049
-361.654	-200.000	-0.002	-0.041
-360.639	103.599	-0.270	-0.315
-359.625	83.234	0.182	0.197
-358.610	95.433	-0.095	0.107
-357.596	278.114	-0.042	0.075
-356.581	-200.000	0.001	-0.422
-355.566	53.116	-0.192	0.183
-354.552	118.951	-0.199	0.244
-353.537	-62.165	-0.236	0.098
-352.523	-164.144	-0.176	0.008
-351.508	-200.000	-0.030	0.205
-350.493	-122.508	0.431	-0.070
-349.479	-1.461	0.029	-0.020
-348.464	-200.000	0.000	0.304
-347.450	75.138	-0.142	-0.148
-346.435	50.162	0.155	0.145
-345.420	800.000	0.099	0.345
-344.406	496.839	-0.127	-0.291
-343.391	-200.000	-0.002	-0.093
-342.377	178.128	0.156	0.226
-341.362	209.130	-0.134	0.208
-340.348	800.000	0.019	-0.078
-339.333	-200.000	0.037	-0.165
-338.318	291.427	-0.057	-0.102
-337.304	380.620	-0.138	0.281
-336.289	310.094	0.042	-0.078
-335.275	-200.000	-0.054	-0.299
-334.260	800.000	-0.064	-0.249
-333.245	-56.490	0.136	0.060
-332.231	-141.370	0.379	0.038
-331.216	-200.000	0.027	0.129
-330.202	800.000	-0.099	0.358
-329.187	-85.618	-0.279	-0.086
-328.172	-44.125	0.378	0.189
-327.158	-18.682	0.205	0.127
-326.143	800.000	0.051	-0.219
-325.129	-77.401	-0.189	0.065
-324.114	-200.000	0.015	-0.112
-323.099	-200.000	-0.024	-0.208
-322.085	-133.512	0.292	0.036
-321.070	337.815	0.122	0.235
-320.056	14.577	-0.122	-0.095
-319.041	167.341	0.097	-0.137
-318.026	258.761	-0.098	0.168
-317.012	-100.214	0.281	-0.069
-315.997	-87.643	0.119	-0.036
-314.983	-200.000	0.028	-0.146
-313.968	85.087	0.155	0.169
-312.953	-200.000	-0.006	-0.215
-311.939	-120.606	-0.377	-0.063
-310.924	-200.000	-0.003	0.229
-309.910	-200.000	-0.023	0.343
-308.895	136.917	-0.060	-0.078
-307.880	243.711	0.071	0.119
-306.866	440.711	0.130	0.281
-305.851	131.191	0.139	0.178
-304.837	233.376	-0.110	-0.179
-303.822	-129.660	-0.158	-0.022
-302.807	-77.787	0.037	0.013
-301.793	168.046	0.086	0.122
-300.778	-200.000	-0.021	-0.301
-299.764	42.552	0.108	-0.098
-298.749	-200.000	0.047	-0.269
-297.735	8.696	-0.263	-0.197
-296.720	-200.000	0.004	0.138
-295.705	211.335	0.124	0.193
-294.691	151.947	-0.129	-0.175
-293.676	-154.185	-0.079	-0.005
-292.662	-131.142	0.100	0.013
-291.647	-200.000	-0.007	-0.184
-290.632	134.909	-0.102	-0.131
-289.618	-150.192	-0.258	0.020
-288.603	-5.496	0.166	0.113
-287.589	-4.751	0.182	0.125
-286.574	-200.000	0.025	0.162
-285.559	25.263	0.065	0.053
-284.545	-9.219	-0.163	-0.108
-283.530	-140.832	0.259	0.026
-282.516	-200.000	-0.044	-0.238
-281.501	-101.286	-0.193	-0.047
-280.486	-170.715	-0.367	0.013
-279.472	305.799	-0.076	0.141
-278.457	800.000	0.012	0.047
-277.443	31.625	0.210	0.180
-276.428	500.784	-0.124	-0.284
-275.413	-59.886	-0.366	0.155
-274.399	117.536	0.152	0.185
-273.384	-172.204	-0.356	-0.011
-272.370	800.000	-0.080	0.222
-271.355	800.000	0.059	0.199
-270.340	-86.194	-0.204	0.062
-269.326	115.269	-0.056	0.068
-268.311	113.607	0.016	-0.019
-267.297	-200.000	-0.030	-0.133
-266.282	-148.850	-0.069	-0.006
-265.267	35.661	0.079	0.069
-264.253	269.171	0.103	0.179
-263.238	800.000	0.056	-0.232
-262.224	-72.840	-0.126	0.046
-261.209	-200.000	0.002	-0.130
-260.195	-200.000	0.011	0.242
-259.180	44.926	-0.242	-0.221
-258.165	-42.992	0.126	0.063
-257.151	800.000	-0.094	0.300
-256.136	34.854	-0.186	-0.161
-255.122	45.045	-0.147	-0.134
-254.107	365.334	-0.165	0.329
-253.092	800.000	-0.041	0.161
-252.078	-200.000	0.018	0.115
-251.063	-200.000	-0.022	0.213
-250.049	0.712	0.187	0.132
-249.034	-167.472	0.189	0.007
-248.019	146.810	-0.059	-0.079
-247.005	-113.683	-0.231	0.045
-245.990	-107.831	0.335	0.072
-244.976	-87.325	0.417	0.125
-243.961	-6.919	0.248	-0.167
-242.946	214.194	-0.076	0.119
-241.932	-56.325	0.208	0.092
-240.917	-200.000	-0.016	-0.301
-239.903	-195.149	-0.390	0.003
-238.888	-200.000	-0.009	-0.068
-237.873	-116.978	0.132	-0.024
-236.859	119.329	0.125	-0.154
-235.844	-43.492	0.171	-0.085
-234.830	-79.826	0.097	-0.032
-233.815	-200.000	-0.026	-0.139
-232.800	256.249	0.032	-0.054
-231.786	-66.921	-0.146	-0.057
-230.771	104.447	-0.149	-0.173
-229.757	800.000	-0.010	0.040
-228.742	-29.072	0.229	0.130
-227.727	5.537	-0.146	0.107
-226.713	-115.737	0.160	0.030
-225.698	-62.227	0.045	0.019
-224.684	-99.423	0.511	0.127
-223.669	239.442	0.097	0.159
-222.655	363.206	-0.125	-0.248
-221.640	-95.749	0.032	-0.008
-220.625	-24.555	-0.304	0.179
-219.611	-100.932	-0.314	-0.076
-218.596	-94.571	0.304	-0.082
-217.582	-21.766	-0.092	0.055
-216.567	58.325	-0.156	0.151
-215.552	-169.552	-0.085	0.003
-214.538	-82.940	0.037	-0.012
-213.523	239.299	-0.117	0.192
-212.509	-107.359	0.198	-0.043
-211.494	-14.406	-0.110	-0.070
-210.479	296.748	-0.125	-0.226
-209.465	-41.922	-0.186	0.094
-208.450	282.730	0.120	0.214
-207.436	-63.956	0.084	0.034
-206.421	-45.378	-0.224	-0.110
-205.406	-79.580	-0.182	-0.061
-204.392	-124.778	0.256	-0.039
-203.377	-85.789	0.020	-0.006
-202.363	-60.567	0.112	-0.047
-201.348	800.000	0.086	0.237
-200.333	480.109	-0.051	-0.114
-199.319	189.173	-0.083	0.123
-198.304	32.953	0.100	0.085
-197.290	-200.000	0.035	-0.293
-196.275	-52.926	-0.505	0.230
-195.260	79.923	0.066	-0.070
-194.246	-169.726	0.292	0.010
-193.231	-137.323	0.061	-0.007
-192.217	-117.527	0.122	0.022
-191.202	67.065	-0.166	-0.167
-190.187	800.000	-0.089	-0.322
-189.173	-70.571	0.464	-0.173
-188.158	-200.000	0.034	0.233
-187.144	-53.694	-0.333	-0.150
-186.129	-200.000	0.053	0.444
-185.114	343.865	0.187	-0.362
-184.100	281.798	-0.244	-0.431
-183.085	324.796	0.048	-0.090
-182.071	-200.000	-0.004	-0.292
-181.056	-146.287	-0.128	0.011
-180.042	-58.267	-0.428	0.184
-179.027	-200.000	-0.004	0.097
-178.012	77.163	0.218	0.229
-176.998	-114.571	0.207	0.039
-175.983	93.311	-0.046	-0.052
-174.969	-100.720	-0.085	-0.021
-173.954	2.790	-0.192	-0.138
-172.939	800.000	0.072	-0.227
-171.925	27.319	0.151	-0.126
-170.910	800.000	0.047	-0.152
-169.896	-88.353	-0.064	0.019
-168.881	-177.196	0.016	0.000
-167.866	800.000	-0.075	-0.262
-166.852	572.746	-0.066	0.160
-165.837	-9.242	0.263	-0.173
-164.823	39.644	-0.182	0.161
-163.808	-88.456	0.171	0.050
-162.793	60.759	-0.206	0.202
-161.779	-200.000	0.027	-0.211
-160.764	506.665	0.113	0.259
-159.750	-135.667	-0.265	0.031
-158.735	-172.115	-0.054	0.002
-157.720	304.648	0.124	0.227
-156.706	686.951	0.103	-0.265
-155.691	199.204	0.097	0.147
-154.677	-200.000	-0.058	0.331
-153.662	185.173	-0.031	0.045
-152.647	460.407	0.084	0.184
-151.633	-110.257	-0.072	0.015
-150.618	800.000	-0.061	0.188
-149.604	680.262	0.047	0.121
-148.589	66.467	0.202	0.203
-147.574	-2.850	-0.234	-0.161
-146.560	-200.000	0.083	-0.427
-145.545	16.690	-0.115	-0.090
-144.531	800.000	0.021	-0.073
-143.516	-87.876	0.209	0.062
-142.502	50.529	0.174	-0.162
-141.487	-200.000	0.012	0.137
-140.472	-37.260	-0.381	-0.201
-139.458	-131.028	0.121	-0.016
-138.443	84.191	0.386	-0.416
-137.429	15.754	0.222	-0.172
-136.414	-4.534	0.249	0.170
-135.399	320.860	0.187	0.351
-134.385	-137.542	-0.150	-0.017
-133.370	509.719	0.075	0.171
-132.356	800.000	0.083	-0.260
-131.341	1.705	0.160	-0.114
-130.326	-58.220	0.124	0.053
-129.312	149.887	0.057	-0.076
-128.297	-200.000	0.010	0.220
-127.283	56.624	0.112	0.107
-126.268	-81.446	-0.063	0.020
-125.253	-14.562	0.112	0.071
-124.239	800.000	0.026	-0.086
-123.224	70.550	0.177	0.181
-122.210	609.816	0.169	0.415
-121.195	-200.000	-0.048	-0.479
