DTS Sentinel unit serial number:	SN413079Multiplexer serial number:	ORYXHardware model number:	OX4-SRSoftware version number:	ORYX F/W v4.00 Oryx Data Collector v3.7.2.0data status	okinstallation	princeton_trtdifferential loss correction	single-endedforward channel	channel 3reverse channel	N/Adate	2019/09/16time	15:08:34forward acquisition time	60.00reverse acquisition time	0.00gamma	496.2192k internal	0.2293k external	0.2293temperature offset calibration	0.9944default loss term (dB/km)	0.3790temperature slope calibration	1.0000multiplexer offset coefficient	1.0000multiplexer slope coefficient	1.0000fibre end	0.00T internal ref (°C)	41.11T ext. ref 1 (°C)	14.52T ext. ref 2 (°C)	36.46length (m)	temperature (°C)	Stokes	anti-Stokes-747.200	247.436	-0.183	-0.317
-746.185	51.369	-0.187	0.182
-745.171	220.184	-0.055	0.090
-744.156	-181.611	-0.339	-0.007
-743.142	240.841	0.040	-0.069
-742.127	74.492	0.259	0.279
-741.112	162.052	-0.063	0.090
-740.098	7.859	-0.201	0.154
-739.083	158.888	0.251	-0.357
-738.069	43.882	0.395	0.370
-737.054	-27.397	0.191	-0.114
-736.039	800.000	0.127	0.415
-735.025	-24.689	-0.223	-0.136
-734.010	-0.772	-0.206	-0.149
-732.996	-200.000	-0.014	-0.163
-731.981	-174.303	-0.212	-0.006
-730.966	110.739	-0.180	0.221
-729.952	-200.000	-0.003	0.142
-728.937	-103.416	-0.171	0.041
-727.923	-139.295	0.151	0.017
-726.908	165.210	-0.246	0.355
-725.894	-200.000	0.009	-0.069
-724.879	-69.571	-0.008	-0.003
-723.864	-200.000	-0.029	-0.148
-722.850	-1.020	-0.161	0.117
-721.835	-200.000	-0.027	-0.191
-720.821	215.342	-0.032	0.052
-719.806	321.583	0.132	0.257
-718.791	-117.219	0.309	-0.057
-717.777	800.000	-0.054	-0.236
-716.762	33.289	0.035	0.031
-715.748	-200.000	-0.019	0.123
-714.733	-112.900	-0.057	-0.012
-713.718	-200.000	0.027	-0.189
-712.704	-200.000	0.000	-0.388
-711.689	157.489	-0.040	-0.057
-710.675	-200.000	0.108	-0.513
-709.660	-200.000	-0.049	-0.351
-708.645	121.372	-0.122	0.156
-707.631	-200.000	0.023	-0.158
-706.616	17.330	-0.301	-0.244
-705.602	75.042	0.191	-0.206
-704.587	-164.789	-0.129	0.006
-703.572	190.901	-0.086	0.132
-702.558	483.526	0.091	0.211
-701.543	-0.659	0.055	-0.039
-700.529	-75.732	0.096	-0.035
-699.514	169.452	-0.143	0.208
-698.499	800.000	-0.030	-0.107
-697.485	69.980	-0.045	0.047
-696.470	187.301	-0.252	0.383
-695.456	-127.319	0.200	0.030
-694.441	-53.449	0.258	0.121
-693.426	172.298	-0.132	-0.193
-692.412	170.930	-0.133	0.195
-691.397	-32.559	-0.221	-0.126
-690.383	-200.000	0.004	0.059
-689.368	-200.000	0.014	-0.139
-688.354	-49.451	-0.132	0.064
-687.339	63.389	-0.120	0.123
-686.324	210.296	0.184	-0.296
-685.310	0.372	-0.130	-0.095
-684.295	800.000	-0.046	-0.181
-683.281	475.587	0.115	-0.265
-682.266	800.000	-0.039	-0.131
-681.251	-200.000	-0.014	-0.129
-680.237	290.223	-0.158	-0.292
-679.222	-64.386	-0.148	-0.062
-678.208	800.000	0.114	0.389
-677.193	-200.000	0.012	-0.107
-676.178	-156.631	0.387	-0.024
-675.164	-181.402	0.313	-0.006
-674.149	223.981	-0.131	0.215
-673.135	520.613	-0.074	0.176
-672.120	77.391	-0.276	-0.300
-671.105	800.000	-0.049	0.204
-670.091	-84.759	-0.074	0.024
-669.076	-200.000	0.030	-0.459
-668.062	175.371	0.252	0.373
-667.047	-45.462	0.053	-0.027
-666.032	800.000	-0.036	-0.101
-665.018	-87.275	-0.197	-0.061
-664.003	-200.000	0.005	0.156
-662.989	800.000	-0.018	0.056
-661.974	-200.000	-0.036	-0.297
-660.959	342.883	-0.023	-0.046
-659.945	94.380	-0.095	0.110
-658.930	-134.116	0.256	-0.032
-657.916	-4.270	-0.146	-0.103
-656.901	-57.360	-0.310	0.139
-655.886	-107.180	-0.206	0.046
-654.872	-118.636	0.067	-0.012
-653.857	-200.000	0.016	0.125
-652.843	-200.000	-0.051	-0.242
-651.828	48.860	-0.085	-0.082
-650.814	-99.017	-0.192	-0.050
-649.799	-84.961	-0.410	0.131
-648.784	-27.894	-0.307	-0.181
-647.770	261.678	-0.025	-0.043
-646.755	-190.040	0.269	0.003
-645.741	-200.000	0.009	0.104
-644.726	81.977	-0.097	0.107
-643.711	514.547	0.054	0.128
-642.697	-30.404	-0.064	0.037
-641.682	-78.144	-0.227	-0.079
-640.668	431.260	0.099	0.219
-639.653	-200.000	-0.001	-0.074
-638.638	140.819	0.107	-0.144
-637.624	44.019	0.144	-0.135
-636.609	-200.000	0.040	-0.182
-635.595	25.753	0.207	-0.176
-634.580	57.719	-0.164	-0.164
-633.565	135.038	-0.130	-0.172
-632.551	109.698	0.210	-0.256
-631.536	-200.000	0.046	-0.221
-630.522	-75.528	-0.334	-0.121
-629.507	-56.537	-0.486	-0.219
-628.492	257.889	0.079	0.138
-627.478	141.046	-0.128	0.172
-626.463	-37.510	0.224	0.122
-625.449	297.783	0.129	-0.242
-624.434	-30.666	0.228	-0.131
-623.419	800.000	0.016	-0.058
-622.405	316.699	-0.112	-0.215
-621.390	-114.089	0.149	0.029
-620.376	800.000	-0.034	-0.143
-619.361	-200.000	0.008	-0.385
-618.346	-200.000	-0.085	0.549
-617.332	-78.172	0.328	0.115
-616.317	-200.000	-0.067	-0.307
-615.303	-128.752	-0.140	-0.020
-614.288	-200.000	-0.008	0.068
-613.273	-32.263	-0.157	0.089
-612.259	-143.230	-0.356	0.035
-611.244	-200.000	0.028	0.155
-610.230	-7.298	-0.047	-0.033
-609.215	221.630	0.113	0.185
-608.201	-154.182	-0.242	-0.017
-607.186	-200.000	0.014	-0.129
-606.171	-94.579	-0.183	0.051
-605.157	353.858	-0.017	0.034
-604.142	-200.000	-0.013	-0.214
-603.128	92.592	-0.165	-0.190
-602.113	-106.649	0.239	-0.054
-601.098	49.994	-0.111	-0.106
-600.084	-200.000	-0.001	0.021
-599.069	-200.000	-0.046	0.252
-598.055	-200.000	0.002	-0.170
-597.040	-37.352	-0.188	-0.102
-596.025	-200.000	-0.004	0.449
-595.011	558.147	0.118	-0.290
-593.996	131.240	0.209	-0.273
-592.982	-67.477	0.142	-0.057
-591.967	617.947	0.197	-0.503
-590.952	-95.284	0.256	0.070
-589.938	-170.483	-0.131	-0.005
-588.923	128.258	-0.054	0.069
-587.909	-105.961	0.164	0.038
-586.894	800.000	0.119	-0.362
-585.879	495.667	0.115	-0.270
-584.865	411.281	-0.136	-0.292
-583.850	109.801	0.149	0.181
-582.836	2.207	0.168	-0.124
-581.821	-200.000	-0.068	-0.527
-580.806	-23.874	0.195	0.118
-579.792	668.633	-0.064	0.167
-578.777	-129.840	0.071	-0.010
-577.763	-45.033	0.288	0.146
-576.748	-0.749	0.257	0.185
-575.733	-17.401	0.085	-0.055
-574.719	-174.798	0.222	-0.006
-573.704	800.000	0.071	-0.214
-572.690	-141.387	0.023	0.002
-571.675	11.896	-0.185	0.145
-570.661	-200.000	0.024	-0.137
-569.646	-103.440	-0.119	0.028
-568.631	-61.495	-0.216	-0.092
-567.617	-49.888	-0.066	-0.032
-566.602	-78.841	-0.232	-0.080
-565.588	-200.000	0.021	0.263
-564.573	-160.493	0.338	0.018
-563.558	166.166	0.219	0.316
-562.544	62.247	0.085	0.086
-561.529	-50.748	0.396	-0.189
-560.515	-51.229	-0.309	-0.147
-559.500	-52.069	-0.212	-0.100
-558.485	-20.226	-0.052	-0.032
-557.471	142.244	-0.248	-0.334
-556.456	-130.328	-0.426	0.059
-555.442	93.793	-0.213	-0.245
-554.427	64.044	0.047	-0.048
-553.412	33.949	0.252	-0.222
-552.398	-200.000	0.260	-0.001
-551.383	-109.240	0.147	-0.032
-550.369	100.726	0.155	0.183
-549.354	800.000	-0.072	-0.244
-548.339	-81.776	-0.191	-0.064
-547.325	-200.000	-0.034	0.192
-546.310	48.471	0.203	-0.193
-545.296	56.810	0.136	-0.134
-544.281	-94.445	0.399	-0.111
-543.266	800.000	-0.026	0.098
-542.252	-200.000	0.050	-0.341
-541.237	-30.203	0.038	-0.022
-540.223	406.705	0.014	0.031
-539.208	800.000	0.076	-0.294
-538.193	800.000	0.052	-0.169
-537.179	-200.000	0.052	0.340
-536.164	-159.806	-0.079	-0.004
-535.150	-200.000	-0.010	-0.094
-534.135	675.257	0.012	0.032
-533.121	-109.491	0.241	-0.052
-532.106	-200.000	-0.330	-0.002
-531.091	-111.426	-0.115	-0.024
-530.077	92.037	0.229	-0.261
-529.062	-94.912	0.079	-0.022
-528.048	-45.735	0.327	-0.164
-527.033	-40.786	0.184	0.096
-526.018	-134.239	-0.166	0.021
-525.004	-200.000	-0.002	0.171
-523.989	91.695	-0.180	-0.206
-522.975	-101.422	-0.265	0.065
-521.960	201.584	0.124	-0.193
-520.945	710.570	-0.005	-0.014
-519.931	-200.000	0.076	-0.447
-518.916	-70.175	0.141	-0.054
-517.902	-70.005	0.430	0.166
-516.887	-24.928	0.135	-0.081
-515.872	-200.000	-0.000	0.318
-514.858	1.090	-0.555	-0.404
-513.843	100.973	-0.071	0.084
-512.829	-63.171	-0.153	0.064
-511.814	271.275	-0.157	0.281
-510.799	-54.180	0.316	0.145
-509.785	-135.824	0.191	-0.023
-508.770	218.865	-0.025	0.041
-507.756	-22.634	-0.109	0.067
-506.741	55.449	0.188	0.184
-505.726	-151.239	-0.307	0.023
-504.712	-169.977	-0.089	0.003
-503.697	137.707	-0.223	0.295
-502.683	-65.332	-0.124	-0.050
-501.668	-70.997	-0.240	0.092
-500.653	-177.791	0.166	-0.004
-499.639	60.612	-0.083	0.083
-498.624	-122.753	0.299	-0.049
-497.610	323.220	0.169	0.326
-496.595	800.000	0.037	-0.131
-495.581	282.909	0.120	0.218
-494.566	-200.000	0.034	0.172
-493.551	-200.000	-0.002	0.109
-492.537	45.288	0.188	-0.176
-491.522	800.000	-0.044	-0.158
-490.508	800.000	-0.027	-0.101
-489.493	-6.293	0.193	-0.134
-488.478	-74.643	-0.036	0.013
-487.464	-2.053	-0.468	0.333
-486.449	-144.392	0.309	-0.029
-485.435	172.674	0.194	0.282
-484.420	-108.253	-0.085	-0.019
-483.405	727.817	-0.058	-0.157
-482.391	51.561	-0.209	0.201
-481.376	163.621	0.234	-0.333
-480.362	-29.141	-0.171	-0.099
-479.347	-43.315	-0.148	0.076
-478.332	470.262	-0.136	-0.310
-477.318	-62.063	0.059	-0.025
-476.303	800.000	-0.074	-0.253
-475.289	-142.412	-0.085	-0.008
-474.274	300.329	-0.071	-0.132
-473.259	152.826	-0.085	0.118
-472.245	-200.000	0.012	0.146
-471.230	800.000	-0.096	0.296
-470.216	800.000	0.094	0.373
-469.201	800.000	0.073	-0.205
-468.186	468.674	-0.131	0.297
-467.172	-102.700	0.429	0.104
-466.157	-158.547	-0.252	-0.015
-465.143	800.000	0.172	0.623
-464.128	800.000	-0.017	0.072
-463.113	134.332	0.277	0.363
-462.099	-29.684	-0.249	-0.144
-461.084	-147.680	-0.351	-0.030
-460.070	-200.000	0.001	-0.149
-459.055	-200.000	0.065	-0.349
-458.040	800.000	-0.025	-0.109
-457.026	800.000	-0.114	-0.388
-456.011	27.313	-0.049	-0.041
-454.997	-144.762	-0.115	0.011
-453.982	-168.266	0.168	-0.007
-452.968	800.000	-0.048	-0.187
-451.953	110.810	0.140	-0.170
-450.938	800.000	0.093	-0.307
-449.924	-200.000	-0.026	0.199
-448.909	115.764	-0.098	0.122
-447.895	9.314	0.139	0.107
-446.880	-51.970	0.171	0.080
-445.865	-200.000	0.016	0.196
-444.851	599.245	0.071	0.178
-443.836	-70.969	-0.122	0.046
-442.822	-51.784	0.443	0.209
-441.807	47.458	-0.105	0.099
-440.792	-200.000	0.026	-0.275
-439.778	-103.521	0.272	-0.065
-438.763	-200.000	0.049	0.222
-437.749	547.289	0.176	0.426
-436.734	-200.000	-0.009	0.312
-435.719	-160.816	0.246	0.013
-434.705	-44.671	-0.191	0.096
-433.690	800.000	-0.067	0.243
-432.676	402.905	-0.064	-0.136
-431.661	-70.153	0.345	0.133
-430.646	83.848	-0.124	0.137
-429.632	-51.629	-0.181	-0.085
-428.617	-200.000	-0.028	-0.165
-427.603	573.727	-0.074	0.183
-426.588	15.958	0.210	0.167
-425.573	105.703	-0.214	-0.256
-424.559	-28.895	-0.031	0.018
-423.544	5.410	-0.154	0.115
-422.530	-34.632	-0.215	0.119
-421.515	-167.472	0.052	-0.002
-420.500	800.000	0.083	0.258
-419.486	-7.837	-0.081	0.056
-418.471	-10.029	-0.140	0.094
-417.457	-103.380	-0.301	-0.072
-416.442	173.670	-0.129	0.188
-415.428	149.571	-0.047	-0.064
-414.413	107.289	-0.075	0.091
-413.398	-106.827	0.199	-0.045
-412.384	800.000	0.049	0.183
-411.369	-18.827	-0.084	-0.053
-410.355	622.812	-0.089	0.227
-409.340	127.182	0.171	-0.219
-408.325	-160.860	0.083	-0.004
-407.311	273.628	0.170	-0.303
-406.296	-108.962	0.120	0.026
-405.282	-55.777	0.181	0.082
-404.267	800.000	0.044	-0.193
-403.252	345.991	-0.102	-0.203
-402.238	-74.543	0.324	-0.118
-401.223	-200.000	-0.007	0.172
-400.209	-118.934	-0.287	0.051
-399.194	340.216	-0.100	-0.197
-398.179	-16.824	0.096	0.061
-397.165	-200.000	-0.003	-0.436
-396.150	43.963	-0.057	0.053
-395.136	-200.000	0.012	0.308
-394.121	118.612	0.105	-0.130
-393.106	-71.624	-0.178	0.067
-392.092	-200.000	-0.015	-0.075
-391.077	299.223	-0.087	-0.162
-390.063	800.000	0.146	-0.478
-389.048	556.138	-0.128	0.312
-388.033	800.000	0.012	0.053
-387.019	-0.151	0.257	0.185
-386.004	38.121	0.253	-0.227
-384.990	-3.170	0.284	-0.200
-383.975	1.073	-0.187	0.135
-382.960	15.818	-0.137	-0.109
-381.946	800.000	0.089	0.271
-380.931	-200.000	0.012	-0.126
-379.917	-84.382	-0.145	-0.046
-378.902	-200.000	0.006	0.040
-377.888	198.934	-0.204	-0.315
-376.873	800.000	0.049	-0.147
-375.858	14.999	0.143	-0.113
-374.844	800.000	0.093	0.397
-373.829	-14.161	0.289	0.188
-372.815	1.311	0.210	0.152
-371.800	-200.000	-0.020	-0.457
-370.785	-200.000	0.017	0.345
-369.771	-200.000	-0.005	0.148
-368.756	20.587	0.157	0.128
-367.742	189.232	-0.167	0.253
-366.727	-200.000	0.013	-0.155
-365.712	102.680	-0.154	-0.181
-364.698	-200.000	0.045	0.200
-363.683	-116.859	0.163	0.030
-362.669	-200.000	-0.102	-0.000
-361.654	-167.548	-0.126	0.005
-360.639	-102.140	0.329	0.080
-359.625	-44.390	0.122	-0.062
-358.610	43.176	-0.307	0.282
-357.596	452.901	0.021	-0.047
-356.581	-200.000	0.044	-0.205
-355.566	-166.623	-0.248	0.010
-354.552	-117.409	-0.274	-0.050
-353.537	83.095	0.143	0.157
-352.523	-70.631	0.144	0.055
-351.508	528.594	0.090	0.214
-350.493	-200.000	-0.043	0.283
-349.479	-135.667	0.283	-0.034
-348.464	-5.492	0.103	-0.072
-347.450	-112.436	0.229	0.046
-346.435	421.190	0.069	0.149
-345.420	396.132	-0.083	0.174
-344.406	800.000	0.028	0.112
-343.391	373.420	-0.077	0.159
-342.377	-130.303	-0.033	0.005
-341.362	-19.177	0.422	-0.264
-340.348	-135.806	0.056	-0.007
-339.333	319.967	-0.075	-0.143
-338.318	24.751	-0.035	0.029
-337.304	176.067	-0.083	0.121
-336.289	-200.000	-0.187	0.001
-335.275	2.565	0.195	-0.142
-334.260	800.000	-0.060	0.172
-333.245	-200.000	-0.059	-0.396
-332.231	682.801	-0.022	-0.057
-331.216	800.000	-0.099	-0.282
-330.202	-115.712	-0.036	-0.007
-329.187	111.253	0.071	-0.087
-328.172	-64.454	0.208	0.085
-327.158	-200.000	-0.014	0.128
-326.143	6.761	-0.175	-0.131
-325.129	-200.000	0.003	0.085
-324.114	-90.783	0.182	0.053
-323.099	-139.563	-0.225	0.024
-322.085	-81.644	-0.299	-0.099
-321.070	-41.440	-0.342	-0.177
-320.056	800.000	-0.034	0.122
-319.041	51.283	-0.119	-0.114
-318.026	106.647	-0.180	0.215
-317.012	-200.000	0.030	0.262
-315.997	-39.313	-0.167	-0.088
-314.983	800.000	-0.007	0.028
-313.968	455.572	0.060	-0.133
-312.953	800.000	-0.041	0.121
-311.939	618.277	-0.095	-0.240
-310.924	50.091	0.065	0.062
-309.910	-200.000	0.010	-0.265
-308.895	23.428	-0.208	0.172
-307.880	114.835	-0.219	0.269
-306.866	-200.000	-0.011	-0.128
-305.851	-200.000	0.036	0.190
-304.837	-32.687	0.093	0.052
-303.822	152.239	-0.007	-0.009
-302.807	-200.000	-0.050	0.272
-301.793	-26.521	0.026	0.015
-300.778	-200.000	0.022	0.235
-299.764	2.445	0.062	0.045
-298.749	44.744	0.190	0.175
-297.735	-200.000	0.055	-0.335
-296.720	-22.595	-0.223	0.136
-295.705	-154.944	0.191	-0.013
-294.691	63.168	0.056	-0.056
-293.676	-44.815	0.450	-0.225
-292.662	761.468	0.122	-0.332
-291.647	192.062	-0.133	-0.202
-290.632	534.846	-0.102	-0.243
-289.618	-44.187	0.122	-0.062
-288.603	68.447	-0.109	0.112
-287.589	-144.761	-0.248	-0.023
-286.574	8.822	-0.168	-0.127
-285.559	-51.820	0.086	0.040
-284.545	-200.000	-0.032	0.143
-283.530	-81.537	-0.361	0.119
-282.516	-169.236	0.123	-0.005
-281.501	800.000	-0.061	0.185
-280.486	188.214	-0.011	-0.016
-279.472	325.079	-0.088	0.169
-278.457	-200.000	0.018	-0.292
-277.443	89.440	0.070	-0.078
-276.428	286.696	-0.179	0.324
-275.413	-136.758	-0.347	0.040
-274.399	87.972	0.146	0.162
-273.384	9.247	-0.253	-0.192
-272.370	-200.000	-0.131	0.000
-271.355	-130.629	-0.116	-0.016
-270.340	-88.413	0.225	0.067
-269.326	-76.429	0.147	-0.052
-268.311	-115.573	-0.104	0.020
-267.297	-200.000	0.007	0.193
-266.282	-95.755	-0.157	0.042
-265.267	800.000	0.071	0.235
-264.253	800.000	-0.074	0.226
-263.238	87.665	-0.142	0.158
-262.224	-120.881	-0.222	0.038
-261.209	-200.000	0.021	0.292
-260.195	-200.000	0.000	-0.090
-259.180	-81.997	0.213	-0.070
-258.165	94.538	-0.171	-0.195
-257.151	-113.857	0.326	-0.064
-256.136	229.583	0.132	0.216
-255.122	76.918	-0.228	0.243
-254.107	241.992	0.216	0.362
-253.092	800.000	0.051	-0.174
-252.078	-200.000	0.009	-0.098
-251.063	54.626	-0.221	-0.213
-250.049	-153.104	0.175	0.012
-249.034	-51.948	-0.470	0.219
-248.019	129.853	-0.351	-0.450
-247.005	-112.981	0.251	-0.050
-245.990	10.297	0.368	-0.281
-244.976	-148.309	0.327	-0.027
-243.961	-152.855	-0.119	-0.008
-242.946	-48.837	-0.323	0.156
-241.932	32.068	0.122	0.105
-240.917	-8.729	0.077	0.052
-239.903	-28.874	0.246	-0.142
-238.888	-200.000	0.058	-0.262
-237.873	185.777	0.029	-0.043
-236.859	92.908	0.191	-0.217
-235.844	406.712	0.136	-0.289
-234.830	140.992	-0.085	0.112
-233.815	-200.000	-0.039	-0.345
-232.800	25.784	-0.202	0.169
-231.786	-44.562	-0.132	0.066
-230.771	-95.396	-0.451	0.121
-229.757	168.326	-0.068	-0.097
-228.742	141.374	0.254	-0.337
-227.727	20.253	-0.129	-0.105
-226.713	-85.718	0.238	0.074
-225.698	309.951	-0.080	-0.150
-224.684	-13.476	-0.082	-0.053
-223.669	142.192	0.149	-0.199
-222.655	800.000	0.034	-0.104
-221.640	23.998	-0.141	0.117
-220.625	124.615	-0.115	0.145
-219.611	-22.956	-0.250	0.151
-218.596	-25.731	0.237	0.140
-217.582	-44.994	0.070	0.035
-216.567	-81.758	-0.337	-0.111
-215.552	-53.340	0.351	-0.161
-214.538	800.000	0.065	0.251
-213.523	96.406	0.144	0.165
-212.509	-200.000	0.028	0.286
-211.494	134.072	0.102	-0.133
-210.479	169.945	-0.129	0.184
-209.465	-200.000	-0.015	0.428
-208.450	-200.000	0.013	-0.100
-207.436	-200.000	0.025	0.409
-206.421	-33.515	-0.083	-0.046
-205.406	-48.169	0.100	0.048
-204.392	-200.000	0.001	-0.056
-203.377	-6.574	-0.297	-0.203
-202.363	286.826	0.108	0.195
-201.348	-200.000	-0.003	0.364
-200.333	-200.000	0.000	0.131
-199.319	228.399	-0.018	0.030
-198.304	-109.496	0.184	0.039
-197.290	-200.000	0.060	-0.297
-196.275	-124.370	-0.144	-0.022
-195.260	800.000	0.041	-0.150
-194.246	215.922	0.171	-0.271
-193.231	-12.518	0.230	-0.151
-192.217	19.124	-0.299	-0.240
-191.202	35.604	-0.127	-0.111
-190.187	-29.604	0.268	-0.153
-189.173	-138.644	0.089	-0.010
-188.158	-82.785	0.320	-0.104
-187.144	219.483	-0.159	-0.255
-186.129	-76.388	0.118	-0.042
-185.114	234.970	0.025	0.041
-184.100	-200.000	-0.002	-0.059
-183.085	154.414	0.151	-0.207
-182.071	-200.000	0.012	0.127
-181.056	-68.671	-0.359	-0.139
-180.042	-113.786	0.070	0.014
-179.027	531.810	0.140	0.331
-178.012	-200.000	0.034	-0.153
-176.998	800.000	-0.096	0.306
-175.983	616.388	-0.130	0.327
-174.969	-174.138	0.163	0.005
-173.954	-125.352	0.177	0.027
-172.939	-200.000	-0.014	0.095
-171.925	-96.590	0.045	-0.012
-170.910	159.557	-0.045	-0.063
-169.896	489.134	-0.026	0.059
-168.881	-118.780	-0.190	0.034
-167.866	-116.456	-0.190	-0.035
-166.852	-61.277	-0.164	0.069
-165.837	286.019	-0.185	0.334
-164.823	65.108	-0.280	0.283
-163.808	767.545	-0.087	0.237
-162.793	-200.000	-0.030	0.413
-161.779	28.819	-0.162	0.137
-160.764	-200.000	-0.079	0.384
-159.750	-80.299	-0.232	0.078
-158.735	309.689	-0.142	0.266
-157.720	305.851	0.002	-0.004
-156.706	-95.171	0.210	0.057
-155.691	-55.091	0.324	0.146
-154.677	-53.390	-0.313	-0.143
-153.662	6.040	0.210	-0.156
-152.647	-200.000	-0.005	-0.204
-151.633	301.616	-0.111	-0.206
-150.618	-200.000	0.053	0.246
-149.604	-200.000	-0.061	-0.315
-148.589	30.518	0.189	0.161
-147.574	-43.978	0.213	-0.107
-146.560	72.378	-0.150	0.157
-145.545	11.043	-0.254	-0.194
-144.531	-26.191	0.226	0.133
-143.516	-200.000	0.001	-0.019
-142.502	377.908	-0.196	0.401
-141.487	-61.688	0.071	0.030
-140.472	-200.000	0.078	0.402
-139.458	800.000	0.155	-0.454
-138.443	-30.181	0.244	0.139
-137.429	-39.666	0.208	0.109
-136.414	-100.924	0.273	-0.067
-135.399	-45.221	-0.280	0.139
-134.385	-55.955	-0.527	-0.235
-133.370	-200.000	-0.009	-0.153
-132.356	-28.036	0.191	-0.110
-131.341	-70.153	-0.210	0.080
-130.326	39.152	-0.125	0.112
-129.312	-60.154	0.144	0.061
-128.297	-77.266	0.175	0.061
-127.283	234.169	-0.171	-0.281
-126.268	-200.000	0.002	-0.225
-125.253	-200.000	-0.031	-0.288
-124.239	-200.000	0.019	0.251
-123.224	762.536	-0.085	0.229
-122.210	800.000	-0.036	-0.107
