DTS Sentinel unit serial number:	SN413079Multiplexer serial number:	ORYXHardware model number:	OX4-SRSoftware version number:	ORYX F/W v4.00 Oryx Data Collector v3.7.2.0data status	okinstallation	princeton_trtdifferential loss correction	single-endedforward channel	channel 3reverse channel	N/Adate	2019/09/12time	10:06:11forward acquisition time	60.00reverse acquisition time	0.00gamma	496.2192k internal	0.2299k external	0.2299temperature offset calibration	1.0030default loss term (dB/km)	0.3790temperature slope calibration	1.0000multiplexer offset coefficient	1.0000multiplexer slope coefficient	1.0000fibre end	0.00T internal ref (°C)	36.31T ext. ref 1 (°C)	1.87T ext. ref 2 (°C)	33.30length (m)	temperature (°C)	Stokes	anti-Stokes-747.200	-200.000	-0.016	0.091
-746.185	-200.000	0.097	0.576
-745.171	65.090	-0.047	-0.048
-744.156	101.147	-0.158	0.188
-743.142	28.519	-0.143	0.123
-742.127	-200.000	0.039	0.192
-741.112	272.417	-0.181	-0.326
-740.098	-132.828	-0.425	0.055
-739.083	-200.000	0.022	-0.271
-738.069	-32.689	-0.161	-0.091
-737.054	6.990	0.130	-0.099
-736.039	258.324	0.094	-0.165
-735.025	80.504	-0.096	-0.105
-734.010	-143.456	-0.113	0.011
-732.996	29.408	-0.184	0.159
-731.981	-34.634	-0.260	-0.145
-730.966	85.523	-0.316	-0.354
-729.952	800.000	0.071	-0.281
-728.937	-200.000	-0.034	-0.269
-727.923	-188.162	-0.364	-0.005
-726.908	330.815	-0.135	0.265
-725.894	800.000	0.096	-0.396
-724.879	-200.000	-0.012	-0.151
-723.864	800.000	-0.050	-0.150
-722.850	372.867	0.073	-0.151
-721.835	-60.299	-0.124	0.054
-720.821	428.665	0.109	0.240
-719.806	9.756	-0.276	-0.213
-718.791	225.903	-0.131	-0.216
-717.777	-56.920	0.146	-0.066
-716.762	800.000	0.046	0.146
-715.748	800.000	-0.150	-0.471
-714.733	-27.079	0.170	0.101
-713.718	180.455	-0.153	0.229
-712.704	-42.189	0.132	-0.069
-711.689	-88.103	-0.211	0.065
-710.675	800.000	0.054	-0.181
-709.660	-75.522	-0.198	-0.072
-708.645	-78.199	0.187	-0.066
-707.631	48.085	-0.223	0.212
-706.616	-200.000	-0.011	-0.115
-705.602	24.734	0.324	-0.273
-704.587	-200.000	-0.040	-0.204
-703.572	111.084	-0.384	-0.472
-702.558	-53.921	0.323	-0.150
-701.543	200.270	0.085	-0.133
-700.529	-200.000	0.234	-0.000
-699.514	-127.386	0.176	-0.026
-698.499	259.283	-0.173	-0.304
-697.485	-200.000	0.026	0.241
-696.470	70.435	-0.071	0.074
-695.456	800.000	-0.137	-0.399
-694.441	-30.230	-0.152	0.088
-693.426	258.909	-0.035	-0.061
-692.412	-85.172	0.424	-0.135
-691.397	13.286	0.251	0.198
-690.383	-200.000	-0.042	-0.253
-689.368	7.026	-0.049	-0.037
-688.354	-143.149	-0.025	-0.002
-687.339	-200.000	0.000	0.008
-686.324	-136.768	-0.151	-0.018
-685.310	152.644	-0.105	-0.146
-684.295	-71.599	0.245	0.093
-683.281	504.424	0.042	0.100
-682.266	-136.336	-0.120	0.014
-681.251	-200.000	0.023	-0.166
-680.237	-57.343	-0.231	-0.103
-679.222	-162.514	-0.189	-0.009
-678.208	132.662	-0.047	0.062
-677.193	800.000	0.110	-0.362
-676.178	3.982	0.214	-0.159
-675.164	-200.000	0.025	-0.179
-674.149	59.702	0.128	-0.129
-673.135	-24.498	-0.070	0.042
-672.120	6.657	-0.234	0.177
-671.105	800.000	0.069	0.241
-670.091	83.861	-0.154	-0.171
-669.076	493.723	-0.036	-0.084
-668.062	296.994	-0.114	-0.213
-667.047	-49.834	-0.146	-0.070
-666.032	-200.000	-0.030	0.391
-665.018	-200.000	0.005	0.046
-664.003	115.128	-0.146	-0.182
-662.989	-48.885	-0.380	0.185
-661.974	-200.000	0.001	0.265
-660.959	-29.806	-0.055	-0.032
-659.945	298.446	0.161	-0.302
-658.930	-121.527	-0.326	-0.055
-657.916	172.905	-0.148	0.217
-656.901	-200.000	-0.026	0.138
-655.886	75.476	0.189	-0.203
-654.872	50.555	0.228	-0.219
-653.857	-180.188	0.144	-0.003
-652.843	-92.126	0.157	-0.045
-651.828	313.816	0.177	-0.338
-650.814	42.027	-0.127	0.117
-649.799	-200.000	0.007	0.078
-648.784	800.000	-0.060	-0.192
-647.770	-200.000	-0.082	0.525
-646.755	-80.679	0.253	0.086
-645.741	43.040	0.260	-0.241
-644.726	639.615	0.148	-0.382
-643.711	-182.904	0.067	0.001
-642.697	143.316	-0.249	-0.337
-641.682	-161.850	-0.124	0.006
-640.668	153.517	0.272	0.379
-639.653	-161.790	-0.594	0.031
-638.638	800.000	-0.060	-0.239
-637.624	-75.368	-0.074	-0.027
-636.609	38.661	-0.138	-0.125
-635.595	-109.400	-0.187	-0.040
-634.580	-69.208	-0.366	0.143
-633.565	-114.983	-0.298	0.058
-632.551	-59.881	-0.600	0.261
-631.536	800.000	0.032	-0.140
-630.522	40.222	0.136	-0.125
-629.507	-12.792	0.141	0.093
-628.492	-40.504	-0.192	0.101
-627.478	-200.000	-0.011	-0.070
-626.463	30.965	-0.189	0.165
-625.449	-7.229	0.021	-0.014
-624.434	24.511	0.089	0.075
-623.419	-200.000	0.099	-0.000
-622.405	146.276	0.155	-0.211
-621.390	252.906	0.020	0.035
-620.376	5.694	0.282	-0.211
-619.361	-200.000	0.017	-0.203
-618.346	-80.233	-0.137	-0.047
-617.332	-129.717	-0.197	0.028
-616.317	375.616	0.152	-0.315
-615.303	-115.887	0.345	-0.065
-614.288	800.000	0.037	0.137
-613.273	581.903	0.029	0.072
-612.259	-83.961	0.383	-0.124
-611.244	-27.116	0.216	-0.128
-610.230	-95.180	-0.122	-0.033
-609.215	-116.380	0.094	0.018
-608.201	-72.609	0.224	-0.084
-607.186	-60.940	-0.162	0.069
-606.171	155.029	-0.100	0.140
-605.157	655.351	0.122	0.318
-604.142	-53.743	0.118	-0.055
-603.128	11.919	-0.204	-0.159
-602.113	-73.189	-0.207	0.077
-601.098	-200.000	-0.021	0.241
-600.084	755.868	0.096	0.263
-599.069	-129.635	-0.210	0.029
-598.055	162.604	-0.237	-0.338
-597.040	170.368	0.165	0.240
-596.025	-200.000	-0.002	0.061
-595.011	-8.564	-0.025	-0.017
-593.996	-22.949	0.034	0.021
-592.982	-165.521	0.241	-0.011
-591.967	-102.965	-0.297	-0.072
-590.952	-92.905	0.059	-0.017
-589.938	32.326	-0.143	0.125
-588.923	-30.145	-0.313	-0.181
-587.909	-25.349	-0.202	-0.121
-586.894	-200.000	0.000	-0.451
-585.879	-36.335	0.244	-0.133
-584.865	613.222	-0.097	-0.245
-583.850	491.803	-0.106	-0.247
-582.836	-161.432	0.164	-0.009
-581.821	800.000	0.043	-0.174
-580.806	160.984	0.174	0.246
-579.792	576.834	-0.025	-0.062
-578.777	729.953	-0.045	-0.122
-577.763	-10.248	0.266	-0.179
-576.748	-4.158	0.130	0.091
-575.733	-82.215	0.347	0.115
-574.719	-106.321	-0.253	-0.058
-573.704	266.706	-0.075	-0.132
-572.690	38.446	0.184	0.167
-571.675	328.777	-0.031	-0.059
-570.661	684.750	-0.038	0.100
-569.646	-98.906	-0.170	0.044
-568.631	173.087	-0.122	0.178
-567.617	415.591	0.063	-0.137
-566.602	800.000	-0.073	0.208
-565.588	800.000	0.079	-0.284
-564.573	247.483	-0.115	-0.197
-563.558	357.521	-0.165	-0.334
-562.544	-200.000	-0.010	-0.068
-561.529	192.104	0.088	-0.134
-560.515	-46.034	0.210	-0.105
-559.500	145.813	0.072	-0.098
-558.485	150.723	0.123	0.169
-557.471	179.332	0.037	-0.054
-556.456	-72.628	0.350	0.131
-555.442	5.326	-0.203	0.152
-554.427	82.791	-0.192	-0.211
-553.412	800.000	0.026	-0.073
-552.398	22.730	0.105	-0.087
-551.383	240.212	0.019	-0.032
-550.369	141.363	0.132	0.176
-549.354	-71.416	0.160	0.061
-548.339	800.000	-0.015	-0.057
-547.325	-200.000	0.006	0.205
-546.310	-0.873	0.355	-0.255
-545.296	-54.660	-0.017	-0.008
-544.281	-200.000	0.026	0.128
-543.266	117.358	0.384	-0.478
-542.252	-64.851	-0.287	-0.118
-541.237	248.326	0.085	0.146
-540.223	-113.593	-0.057	-0.011
-539.208	773.793	-0.075	0.207
-538.193	-53.859	-0.211	0.098
-537.179	-200.000	0.035	-0.382
-536.164	-200.000	0.014	-0.065
-535.150	-45.096	-0.047	0.024
-534.135	-200.000	0.094	-0.465
-533.121	-22.388	-0.210	0.129
-532.106	12.092	0.548	0.427
-531.091	15.128	0.265	-0.210
-530.077	-30.626	0.113	-0.065
-529.062	-75.349	-0.336	0.121
-528.048	89.800	-0.209	0.236
-527.033	278.283	0.054	-0.097
-526.018	-121.326	-0.214	0.036
-525.004	-19.542	0.186	0.116
-523.989	-200.000	-0.036	0.456
-522.975	204.845	-0.164	0.257
-521.960	120.635	0.125	-0.157
-520.945	9.456	0.156	0.119
-519.931	-200.000	0.016	-0.200
-518.916	-27.722	-0.244	0.143
-517.902	-36.224	-0.166	-0.091
-516.887	-200.000	-0.014	-0.320
-515.872	-112.266	-0.020	-0.004
-514.858	800.000	-0.049	0.149
-513.843	-200.000	-0.026	0.420
-512.829	545.712	0.111	0.269
-511.814	120.281	-0.062	0.078
-510.799	-200.000	0.039	0.402
-509.785	-200.000	0.004	-0.305
-508.770	22.571	0.083	0.068
-507.756	205.375	-0.036	-0.057
-506.741	2.312	0.241	0.176
-505.726	-90.757	-0.421	-0.123
-504.712	-200.000	0.001	-0.178
-503.697	800.000	-0.063	0.190
-502.683	79.793	-0.087	0.094
-501.668	-66.031	-0.167	-0.067
-500.653	509.260	0.062	0.146
-499.639	63.545	0.221	-0.224
-498.624	-200.000	0.004	0.148
-497.610	800.000	-0.051	-0.169
-496.595	800.000	-0.082	0.329
-495.581	-5.986	0.224	0.155
-494.566	530.448	-0.075	-0.178
-493.551	77.297	-0.283	-0.305
-492.537	-32.473	-0.163	-0.092
-491.522	800.000	-0.084	-0.294
-490.508	359.107	0.124	0.251
-489.493	-4.808	-0.273	-0.191
-488.478	-63.401	-0.381	-0.159
-487.464	-97.875	0.307	-0.080
-486.449	-200.000	-0.008	0.061
-485.435	220.247	0.226	-0.367
-484.420	285.044	-0.107	-0.194
-483.405	662.606	0.057	-0.148
-482.391	6.434	0.078	0.059
-481.376	-16.230	0.460	0.295
-480.362	384.292	-0.092	0.192
-479.347	-148.970	-0.212	0.017
-478.332	-14.037	-0.192	-0.125
-477.318	-200.000	-0.019	-0.217
-476.303	657.340	0.070	0.181
-475.289	-88.747	-0.278	-0.083
-474.274	-55.234	-0.209	-0.095
-473.259	-68.205	-0.055	-0.022
-472.245	-200.000	0.026	0.190
-471.230	123.398	-0.105	0.133
-470.216	-200.000	0.005	0.375
-469.201	-200.000	0.026	-0.126
-468.186	695.315	-0.035	0.094
-467.172	180.263	0.169	-0.250
-466.157	-32.384	0.385	-0.217
-465.143	-28.147	0.124	0.072
-464.128	-200.000	-0.008	-0.431
-463.113	-200.000	0.010	0.182
-462.099	-78.401	0.170	-0.059
-461.084	-129.336	-0.165	-0.023
-460.070	-200.000	0.037	-0.168
-459.055	-59.180	-0.293	0.127
-458.040	-14.248	-0.078	0.051
-457.026	-200.000	-0.001	0.028
-456.011	-43.223	-0.389	0.199
-454.997	-91.400	0.159	0.046
-453.982	26.307	0.024	0.020
-452.968	-200.000	0.011	-0.285
-451.953	42.107	-0.040	-0.037
-450.938	343.082	0.154	0.305
-449.924	359.770	-0.083	-0.167
-448.909	-154.212	-0.220	0.015
-447.895	69.498	0.133	0.139
-446.880	319.416	0.085	0.163
-445.865	574.165	0.153	0.377
-444.851	-177.714	0.086	0.002
-443.836	15.970	-0.140	-0.111
-442.822	-134.424	-0.023	-0.003
-441.807	57.478	0.213	0.210
-440.792	-93.924	-0.230	-0.064
-439.778	444.017	0.132	0.292
-438.763	-200.000	0.331	0.000
-437.749	-131.688	-0.193	-0.026
-436.734	-200.000	-0.052	-0.397
-435.719	-146.669	-0.131	-0.011
-434.705	-74.266	-0.298	0.109
-433.690	-200.000	0.047	-0.229
-432.676	-132.608	-0.301	0.039
-431.661	800.000	0.057	-0.247
-430.646	800.000	0.059	0.176
-429.632	-149.259	-0.149	0.012
-428.617	208.591	0.112	-0.177
-427.603	800.000	0.039	-0.150
-426.588	-19.278	0.128	0.080
-425.573	103.469	0.146	-0.173
-424.559	-83.489	0.053	0.017
-423.544	-94.930	-0.015	-0.004
-422.530	-129.713	-0.555	-0.077
-421.515	-56.210	-0.220	-0.098
-420.500	-39.603	-0.069	0.036
-419.486	429.851	-0.119	-0.259
-418.471	-200.000	-0.046	0.401
-417.457	800.000	-0.069	-0.293
-416.442	54.902	-0.088	-0.086
-415.428	-125.870	0.119	0.018
-414.413	-60.136	-0.266	0.115
-413.398	-83.368	0.397	-0.128
-412.384	-70.768	0.096	-0.037
-411.369	-177.155	-0.094	-0.002
-410.355	17.209	-0.164	0.131
-409.340	-200.000	0.022	0.195
-408.325	-2.446	0.368	0.260
-407.311	271.378	-0.156	0.277
-406.296	274.653	0.095	-0.169
-405.282	210.119	-0.124	-0.195
-404.267	-200.000	-0.097	-0.564
-403.252	800.000	0.090	-0.272
-402.238	34.498	0.048	0.042
-401.223	121.971	0.186	-0.234
-400.209	-7.883	-0.040	-0.027
-399.194	-200.000	-0.014	-0.112
-398.179	237.890	-0.154	0.258
-397.165	-51.282	-0.209	0.098
-396.150	-171.717	0.106	-0.004
-395.136	302.276	0.111	0.207
-394.121	-19.356	0.226	-0.141
-393.106	277.458	-0.047	-0.084
-392.092	800.000	0.028	-0.119
-391.077	-66.829	0.236	0.094
-390.063	-200.000	0.023	0.211
-389.048	26.321	0.156	-0.131
-388.033	128.951	-0.023	-0.030
-387.019	61.186	0.053	0.053
-386.004	340.636	-0.106	-0.208
-384.990	395.990	0.109	0.228
-383.975	-118.188	0.292	-0.052
-382.960	800.000	-0.028	0.101
-381.946	314.843	0.155	0.294
-380.931	-200.000	-0.001	0.273
-379.917	-121.841	-0.581	-0.097
-378.902	800.000	0.082	-0.232
-377.888	-200.000	0.025	0.212
-376.873	800.000	0.023	0.089
-375.858	-169.442	0.164	-0.006
-374.844	301.425	-0.143	0.266
-373.829	-144.621	-0.169	-0.016
-372.815	38.544	-0.302	-0.271
-371.800	-9.349	0.168	0.113
-370.785	800.000	0.070	0.203
-369.771	257.740	-0.145	0.251
-368.756	-101.293	0.409	0.100
-367.742	800.000	0.010	0.036
-366.727	-200.000	-0.006	-0.066
-365.712	-28.699	0.374	-0.217
-364.698	134.584	0.141	-0.184
-363.683	800.000	-0.079	0.237
-362.669	261.425	0.133	0.231
-361.654	-200.000	-0.002	0.226
-360.639	-126.863	0.286	0.042
-359.625	320.068	-0.144	0.274
-358.610	-43.438	0.130	0.066
-357.596	-116.622	-0.219	0.041
-356.581	155.103	0.069	-0.095
-355.566	800.000	-0.129	-0.370
-354.552	37.583	-0.169	0.150
-353.537	19.018	0.236	-0.190
-352.523	-1.654	-0.080	-0.057
-351.508	-149.089	-0.164	0.013
-350.493	491.732	0.077	-0.177
-349.479	-81.963	0.080	-0.026
-348.464	-100.009	0.386	0.097
-347.450	-17.832	0.143	0.090
-346.435	-200.000	0.001	-0.180
-345.420	126.883	-0.238	-0.304
-344.406	107.335	0.189	0.225
-343.391	800.000	-0.011	0.031
-342.377	-30.887	0.116	0.066
-341.362	-200.000	0.001	0.131
-340.348	485.580	0.225	0.516
-339.333	73.615	-0.148	0.156
-338.318	-157.060	-0.138	0.008
-337.304	-63.944	0.234	0.096
-336.289	67.739	-0.190	-0.195
-335.275	76.675	0.091	0.097
-334.260	-200.000	0.062	-0.314
-333.245	-57.069	-0.156	0.069
-332.231	-136.653	-0.183	-0.021
-331.216	-200.000	-0.015	0.431
-330.202	603.446	-0.091	0.227
-329.187	-61.932	0.363	0.153
-328.172	-130.685	-0.043	0.006
-327.158	-106.780	0.171	-0.038
-326.143	-14.749	0.123	-0.079
-325.129	338.966	-0.056	0.109
-324.114	-198.616	-0.237	0.001
-323.099	800.000	0.014	-0.054
-322.085	-96.623	0.244	0.065
-321.070	107.864	0.091	-0.108
-320.056	-176.691	-0.139	0.004
-319.041	-144.632	-0.250	-0.023
-318.026	800.000	-0.141	-0.414
-317.012	800.000	0.053	0.204
-315.997	581.208	0.074	-0.183
-314.983	-200.000	0.008	-0.091
-313.968	800.000	0.055	-0.217
-312.953	-46.610	0.243	-0.119
-311.939	-200.000	-0.024	0.155
-310.924	-64.738	0.354	0.144
-309.910	-135.629	0.101	0.012
-308.895	-53.390	0.330	0.152
-307.880	380.181	0.103	0.213
-306.866	183.143	-0.258	0.382
-305.851	27.871	-0.226	-0.191
-304.837	-95.431	-0.294	-0.079
-303.822	-200.000	0.339	0.001
-302.807	-108.274	0.168	0.037
-301.793	-97.663	-0.242	0.063
-300.778	-22.216	0.187	-0.114
-299.764	40.560	-0.151	-0.136
-298.749	406.052	-0.054	0.114
-297.735	-178.489	0.166	-0.004
-296.720	-29.251	0.193	0.111
-295.705	-104.671	0.220	0.051
-294.691	269.418	-0.165	0.290
-293.676	1.785	-0.049	-0.035
-292.662	235.407	0.133	0.221
-291.647	-200.000	-0.001	0.207
-290.632	-99.150	-0.244	-0.062
-289.618	800.000	-0.105	0.326
-288.603	800.000	-0.047	-0.140
-287.589	132.317	0.156	0.201
-286.574	434.762	-0.158	-0.344
-285.559	-5.094	-0.209	-0.144
-284.545	-108.456	0.329	0.071
-283.530	-200.000	-0.008	0.230
-282.516	-60.077	-0.423	0.181
-281.501	148.176	-0.156	-0.211
-280.486	800.000	-0.075	-0.277
-279.472	-104.474	0.071	0.016
-278.457	-200.000	-0.021	-0.138
-277.443	-134.204	0.132	0.016
-276.428	-200.000	0.001	0.201
-275.413	-1.467	-0.168	0.119
-274.399	-56.228	0.206	0.092
-273.384	800.000	0.057	-0.219
-272.370	-72.474	-0.221	-0.082
-271.355	-130.825	-0.457	-0.061
-270.340	-83.338	-0.160	-0.052
-269.326	-15.766	0.181	0.116
-268.311	-200.000	-0.001	-0.072
-267.297	-140.956	-0.140	-0.014
-266.282	497.208	0.137	-0.316
-265.267	231.680	-0.145	0.238
-264.253	454.507	-0.123	-0.273
-263.238	-7.886	0.287	0.194
-262.224	12.972	0.273	-0.212
-261.209	-200.000	0.173	0.000
-260.195	11.813	0.125	0.096
-259.180	-51.046	-0.076	0.036
-258.165	0.842	0.204	-0.146
-257.151	-61.534	-0.070	0.029
-256.136	35.865	0.248	-0.218
-255.122	800.000	-0.028	0.118
-254.107	-189.708	0.236	0.003
-253.092	-200.000	0.026	-0.327
-252.078	-200.000	-0.004	-0.206
-251.063	-57.086	-0.235	0.104
-250.049	202.461	-0.165	0.255
-249.034	465.828	-0.011	0.024
-248.019	45.571	-0.179	-0.166
-247.005	-200.000	-0.024	-0.352
-245.990	-200.000	0.059	-0.327
-244.976	142.313	-0.025	-0.033
-243.961	-200.000	0.011	-0.433
-242.946	-200.000	0.011	-0.061
-241.932	103.098	0.061	0.072
-240.917	-200.000	-0.009	0.076
-239.903	-106.104	0.158	0.035
-238.888	-200.000	-0.044	-0.243
-237.873	-86.476	-0.143	0.044
-236.859	-200.000	0.000	-0.206
-235.844	-123.877	-0.222	-0.035
-234.830	82.847	-0.224	0.243
-233.815	800.000	0.048	-0.145
-232.800	-136.141	-0.271	-0.032
-231.786	-88.036	-0.315	0.095
-230.771	58.714	0.207	-0.203
-229.757	-159.673	-0.343	-0.019
-228.742	-200.000	-0.066	-0.000
-227.727	-11.953	0.195	0.128
-226.713	-200.000	0.029	0.269
-225.698	-200.000	-0.011	0.103
-224.684	132.271	-0.136	0.176
-223.669	-14.639	-0.182	0.117
-222.655	-200.000	-0.007	-0.153
-221.640	-200.000	-0.002	0.145
-220.625	-200.000	0.042	0.194
-219.611	-200.000	0.140	0.662
-218.596	469.178	-0.162	-0.364
-217.582	237.877	-0.084	0.140
-216.567	-200.000	0.017	0.086
-215.552	800.000	0.146	-0.472
-214.538	-26.976	-0.418	-0.244
-213.523	-47.417	0.394	-0.192
-212.509	-108.427	0.245	0.053
-211.494	455.194	-0.071	-0.158
-210.479	800.000	-0.054	-0.154
-209.465	369.742	0.143	0.289
-208.450	223.908	0.272	0.438
-207.436	22.383	0.180	0.147
-206.421	-80.018	0.072	0.024
-205.406	-9.652	0.212	-0.141
-204.392	-144.865	0.147	-0.013
-203.377	-102.121	0.134	-0.032
-202.363	-97.856	-0.192	0.050
-201.348	800.000	0.070	0.294
-200.333	-95.906	0.059	0.016
-199.319	-136.326	-0.148	0.017
-198.304	800.000	-0.105	0.413
-197.290	-200.000	0.012	0.092
-196.275	-67.132	-0.450	-0.177
-195.260	290.664	0.105	-0.191
-194.246	-44.037	0.073	-0.036
-193.231	-200.000	-0.006	-0.216
-192.217	-200.000	0.007	-0.053
-191.202	-81.724	-0.011	0.004
-190.187	-200.000	0.044	0.208
-189.173	235.684	-0.104	-0.171
-188.158	742.100	0.125	0.336
-187.144	258.249	0.121	0.208
-186.129	-49.747	0.276	-0.131
-185.114	13.241	-0.299	0.231
-184.100	599.039	-0.094	-0.233
-183.085	-200.000	-0.053	-0.271
-182.071	207.502	0.082	-0.128
-181.056	147.145	0.081	0.109
-180.042	167.184	-0.221	0.314
-179.027	508.246	0.054	0.124
-178.012	48.724	0.281	0.263
-176.998	800.000	0.065	0.187
-175.983	169.567	0.203	0.290
-174.969	179.693	0.108	-0.158
-173.954	800.000	0.025	-0.073
-172.939	-200.000	-0.025	-0.172
-171.925	-84.785	0.165	-0.052
-170.910	24.786	0.289	-0.239
-169.896	-27.805	0.092	-0.053
-168.881	-104.089	0.233	0.054
-167.866	-90.875	-0.552	0.159
-166.852	384.194	0.043	0.089
-165.837	298.665	-0.194	-0.356
-164.823	800.000	-0.019	-0.060
-163.808	-129.704	0.138	0.019
-162.793	141.076	0.180	-0.238
-161.779	259.400	-0.040	0.069
-160.764	-135.290	-0.456	0.054
-159.750	227.488	-0.086	0.139
-158.735	-55.303	-0.121	0.054
-157.720	119.429	-0.094	-0.116
-156.706	-135.996	-0.115	-0.013
-155.691	479.835	0.097	0.219
-154.677	406.437	-0.173	0.365
-153.662	-101.678	0.226	-0.055
-152.647	364.950	-0.093	-0.186
-151.633	649.762	0.101	0.258
-150.618	-55.852	-0.383	-0.171
-149.604	307.522	0.092	-0.171
-148.589	-93.067	0.220	-0.061
-147.574	660.071	0.092	-0.236
-146.560	-52.553	0.252	-0.116
-145.545	800.000	-0.077	0.221
-144.531	22.470	0.098	-0.080
-143.516	709.855	-0.106	-0.278
-142.502	-158.652	0.161	0.009
-141.487	-115.601	0.391	-0.073
-140.472	-92.301	-0.397	-0.111
-139.458	338.628	0.086	0.166
-138.443	800.000	0.034	0.133
-137.429	-125.387	0.544	-0.083
-136.414	220.496	0.117	0.187
-135.399	-157.348	0.274	0.016
-134.385	491.832	0.207	-0.472
-133.370	66.865	-0.093	0.094
-132.356	-126.719	-0.153	-0.023
-131.341	125.327	-0.043	0.054
-130.326	800.000	-0.045	-0.146
-129.312	231.645	0.180	0.294
-128.297	679.350	0.094	0.245
-127.283	-38.097	0.173	0.092
-126.268	800.000	-0.068	-0.222
-125.253	23.739	0.222	0.182
-124.239	137.078	-0.124	-0.162
-123.224	315.542	0.020	0.037
-122.210	31.071	0.113	0.096
