DTS Sentinel unit serial number:	SN413079Multiplexer serial number:	ORYXHardware model number:	OX4-SRSoftware version number:	ORYX F/W v4.00 Oryx Data Collector v3.7.2.0data status	okinstallation	princeton_trtdifferential loss correction	single-endedforward channel	channel 3reverse channel	N/Adate	2019/09/11time	06:38:11forward acquisition time	60.00reverse acquisition time	0.00gamma	496.2192k internal	0.2330k external	0.2330temperature offset calibration	0.9913default loss term (dB/km)	0.3790temperature slope calibration	1.0000multiplexer offset coefficient	1.0000multiplexer slope coefficient	1.0000fibre end	0.00T internal ref (°C)	29.70T ext. ref 1 (°C)	-0.16T ext. ref 2 (°C)	24.52length (m)	temperature (°C)	Stokes	anti-Stokes-747.200	459.923	-0.117	-0.262
-746.185	-101.261	0.426	-0.105
-745.171	54.158	-0.080	0.078
-744.156	800.000	-0.047	0.135
-743.142	-131.475	0.399	-0.053
-742.127	-119.162	-0.186	0.033
-741.112	-95.628	0.332	-0.090
-740.098	-85.650	-0.422	0.132
-739.083	-114.821	-0.132	0.025
-738.069	800.000	0.054	0.207
-737.054	226.358	0.027	-0.044
-736.039	-53.917	-0.137	-0.063
-735.025	176.008	0.063	0.092
-734.010	-57.718	0.241	0.106
-732.996	66.698	-0.446	-0.457
-731.981	-4.275	-0.453	0.315
-730.966	47.308	-0.241	-0.226
-729.952	15.918	-0.145	0.115
-728.937	2.812	-0.155	0.113
-727.923	-75.356	-0.008	-0.003
-726.908	353.891	-0.112	-0.225
-725.894	-149.595	-0.287	0.023
-724.879	-156.726	0.107	0.007
-723.864	-19.918	-0.127	-0.079
-722.850	775.547	-0.056	0.153
-721.835	117.027	-0.098	-0.121
-720.821	-127.402	-0.286	-0.042
-719.806	673.832	-0.144	-0.377
-718.791	-90.955	-0.039	0.011
-717.777	511.565	0.019	0.043
-716.762	-7.749	-0.135	-0.092
-715.748	-200.000	0.005	-0.127
-714.733	-87.730	-0.261	-0.079
-713.718	-150.525	0.182	0.014
-712.704	406.306	-0.107	0.227
-711.689	145.978	0.044	-0.060
-710.675	97.868	0.232	-0.268
-709.660	-36.272	0.221	0.120
-708.645	-200.000	-0.034	-0.213
-707.631	-200.000	-0.026	-0.114
-706.616	-41.040	-0.151	-0.078
-705.602	605.185	-0.140	-0.350
-704.587	150.657	-0.128	0.175
-703.572	109.990	-0.284	0.343
-702.558	413.077	0.173	0.370
-701.543	-200.000	0.006	0.227
-700.529	800.000	-0.016	-0.070
-699.514	800.000	0.052	0.209
-698.499	-200.000	0.054	0.245
-697.485	-75.754	0.180	0.064
-696.470	-200.000	-0.020	-0.259
-695.456	-55.791	0.443	0.199
-694.441	-95.955	-0.398	0.107
-693.426	-200.000	0.030	0.268
-692.412	165.924	-0.060	-0.085
-691.397	423.176	0.018	0.040
-690.383	-86.970	0.463	-0.142
-689.368	454.630	-0.149	-0.332
-688.354	800.000	0.022	0.085
-687.339	-200.000	0.001	0.155
-686.324	-200.000	-0.025	0.130
-685.310	-15.655	-0.261	-0.167
-684.295	-200.000	0.009	0.302
-683.281	-86.012	0.193	0.060
-682.266	347.582	-0.177	-0.351
-681.251	-89.705	0.147	0.043
-680.237	-39.267	0.215	0.113
-679.222	-200.000	0.047	0.363
-678.208	-200.000	0.023	-0.405
-677.193	16.624	0.202	0.160
-676.178	-107.624	-0.040	0.009
-675.164	15.840	-0.336	0.266
-674.149	642.310	0.066	-0.170
-673.135	-200.000	-0.052	0.277
-672.120	49.256	0.168	0.159
-671.105	-200.000	-0.001	0.111
-670.091	-200.000	0.189	0.000
-669.076	-165.216	-0.219	-0.010
-668.062	-25.011	-0.298	-0.177
-667.047	67.666	-0.129	-0.133
-666.032	-14.152	-0.165	-0.107
-665.018	-18.903	0.229	-0.143
-664.003	-114.117	0.217	-0.042
-662.989	-80.102	-0.591	-0.199
-661.974	-200.000	-0.011	0.084
-660.959	-200.000	-0.025	0.155
-659.945	219.806	-0.121	-0.195
-658.930	-116.310	-0.205	-0.038
-657.916	10.959	0.143	-0.110
-656.901	48.179	-0.185	-0.174
-655.886	-13.660	-0.159	-0.104
-654.872	800.000	-0.115	0.338
-653.857	-97.603	-0.093	0.024
-652.843	-83.381	-0.215	-0.069
-651.828	-200.000	-0.000	-0.290
-650.814	10.605	0.058	0.045
-649.799	-200.000	0.004	0.117
-648.784	166.878	0.180	-0.257
-647.770	-200.000	0.000	-0.070
-646.755	-63.522	-0.127	0.052
-645.741	28.531	-0.054	-0.046
-644.726	-98.556	-0.143	0.037
-643.711	800.000	-0.074	-0.212
-642.697	-181.935	-0.315	-0.006
-641.682	-60.476	0.237	0.101
-640.668	217.242	-0.049	0.077
-639.653	-164.672	-0.409	0.019
-638.638	41.077	-0.239	-0.216
-637.624	219.121	-0.052	-0.083
-636.609	-65.298	0.153	0.062
-635.595	-35.396	-0.101	0.055
-634.580	-200.000	-0.027	0.154
-633.565	-123.435	0.123	-0.020
-632.551	-200.000	0.036	0.227
-631.536	1.743	-0.284	0.205
-630.522	-200.000	0.060	0.463
-629.507	251.993	0.014	0.023
-628.492	-200.000	-0.033	0.221
-627.478	-141.891	0.189	0.019
-626.463	-33.885	-0.316	-0.175
-625.449	3.693	-0.125	-0.092
-624.434	-0.526	-0.215	-0.153
-623.419	29.360	0.313	-0.266
-622.405	-200.000	0.062	-0.313
-621.390	800.000	0.105	-0.303
-620.376	-101.201	0.216	-0.053
-619.361	274.341	-0.099	-0.176
-618.346	738.313	-0.036	0.098
-617.332	-200.000	-0.009	0.149
-616.317	99.153	0.118	-0.137
-615.303	-179.266	0.108	-0.002
-614.288	-200.000	0.036	0.325
-613.273	-150.621	-0.114	0.009
-612.259	-12.124	-0.181	-0.119
-611.244	-61.643	-0.188	0.079
-610.230	200.655	0.228	-0.352
-609.215	-200.000	0.039	-0.312
-608.201	-113.551	-0.403	-0.079
-607.186	800.000	0.040	0.172
-606.171	-200.000	0.025	-0.140
-605.157	270.679	0.051	-0.089
-604.142	-82.720	0.268	0.087
-603.128	-125.664	-0.122	-0.019
-602.113	-200.000	0.037	-0.271
-601.098	-200.000	0.032	-0.281
-600.084	800.000	-0.064	-0.209
-599.069	-200.000	0.006	0.229
-598.055	215.908	-0.100	-0.159
-597.040	-122.521	-0.025	-0.004
-596.025	-79.620	-0.161	-0.054
-595.011	-125.329	-0.113	0.017
-593.996	134.839	-0.150	0.195
-592.982	-147.315	-0.124	0.011
-591.967	-146.704	-0.186	-0.016
-590.952	-200.000	0.048	-0.254
-589.938	-44.881	-0.195	-0.097
-588.923	-82.239	0.340	0.111
-587.909	-76.763	-0.108	0.038
-586.894	800.000	0.084	-0.260
-585.879	800.000	-0.108	-0.334
-584.865	171.699	-0.169	0.243
-583.850	619.365	0.038	0.096
-582.836	43.260	0.057	0.052
-581.821	-47.723	0.259	0.126
-580.806	189.743	0.087	0.130
-579.792	-161.964	0.163	-0.008
-578.777	46.122	-0.134	-0.124
-577.763	-52.927	0.141	0.065
-576.748	-200.000	-0.026	-0.168
-575.733	115.044	-0.177	-0.216
-574.719	256.811	-0.070	-0.120
-573.704	47.520	0.155	-0.145
-572.690	-133.349	-0.123	-0.015
-571.675	158.833	-0.138	0.191
-570.661	-137.491	0.048	0.005
-569.646	-25.304	-0.350	-0.207
-568.631	166.812	0.158	0.223
-567.617	45.133	0.237	0.219
-566.602	-76.674	0.136	0.048
-565.588	-200.000	0.013	0.288
-564.573	-37.720	-0.160	0.085
-563.558	25.094	-0.209	-0.173
-562.544	800.000	0.008	0.030
-561.529	-105.597	0.352	-0.080
-560.515	-200.000	0.032	0.274
-559.500	-144.190	-0.353	0.033
-558.485	-200.000	0.022	0.144
-557.471	125.766	0.259	0.327
-556.456	-44.344	-0.268	-0.134
-555.442	611.992	0.231	-0.577
-554.427	-116.781	-0.296	0.054
-553.412	-66.145	0.173	0.069
-552.398	-34.674	-0.447	0.244
-551.383	297.540	0.083	0.153
-550.369	400.822	-0.052	-0.108
-549.354	-200.000	0.051	0.243
-548.339	-79.605	0.130	-0.044
-547.325	-68.261	-0.106	-0.041
-546.310	-92.020	0.239	-0.067
-545.296	-200.000	-0.009	-0.163
-544.281	597.445	-0.051	0.127
-543.266	16.527	0.171	-0.135
-542.252	528.325	0.127	-0.299
-541.237	210.264	0.088	-0.139
-540.223	-115.882	0.252	0.047
-539.208	-200.000	0.000	-0.190
-538.193	24.538	0.119	0.098
-537.179	-39.670	0.270	0.141
-536.164	-3.690	-0.096	0.067
-535.150	-22.048	0.258	-0.156
-534.135	37.125	0.116	0.102
-533.121	179.775	-0.031	0.045
-532.106	-97.214	-0.041	0.011
-531.091	-70.250	-0.117	-0.044
-530.077	545.741	0.052	-0.124
-529.062	800.000	0.058	-0.185
-528.048	111.928	0.209	-0.252
-527.033	240.065	-0.078	0.130
-526.018	280.742	0.045	0.080
-525.004	-155.836	-0.215	0.014
-523.989	800.000	-0.040	0.129
-522.975	800.000	-0.012	0.040
-521.960	-200.000	0.040	-0.182
-520.945	-200.000	0.021	-0.127
-519.931	349.564	0.107	0.211
-518.916	-103.479	-0.020	-0.005
-517.902	125.763	-0.053	-0.066
-516.887	-75.907	0.380	0.134
-515.872	-167.130	0.275	-0.011
-514.858	-126.685	0.212	-0.031
-513.843	20.507	0.151	-0.122
-512.829	108.775	-0.091	-0.109
-511.814	-115.170	-0.180	0.034
-510.799	-140.244	0.226	-0.024
-509.785	-85.625	0.146	-0.045
-508.770	44.465	-0.088	-0.081
-507.756	-112.001	-0.138	-0.028
-506.741	-200.000	-0.008	-0.184
-505.726	-68.199	0.249	-0.097
-504.712	-156.639	-0.292	-0.018
-503.697	-200.000	0.011	-0.148
-502.683	-63.300	-0.056	-0.023
-501.668	40.721	-0.309	-0.278
-500.653	-22.832	0.043	0.026
-499.639	-68.558	-0.274	-0.106
-498.624	-90.621	0.112	-0.032
-497.610	59.862	0.118	-0.116
-496.595	800.000	0.056	-0.235
-495.581	-30.688	-0.154	-0.087
-494.566	800.000	0.055	-0.154
-493.551	48.875	0.220	0.206
-492.537	549.516	-0.124	0.296
-491.522	194.599	-0.119	0.180
-490.508	127.869	-0.031	-0.039
-489.493	-119.838	0.126	-0.022
-488.478	-76.703	-0.094	-0.033
-487.464	-102.535	0.066	-0.016
-486.449	123.393	-0.063	-0.079
-485.435	-61.610	-0.142	0.060
-484.420	-158.580	0.329	0.019
-483.405	599.865	0.046	-0.113
-482.391	800.000	0.051	0.179
-481.376	100.859	-0.106	-0.123
-480.362	122.859	-0.156	0.194
-479.347	-162.445	-0.262	-0.013
-478.332	800.000	0.096	-0.329
-477.318	734.789	-0.098	0.261
-476.303	-196.745	-0.258	-0.002
-475.289	-200.000	0.025	-0.152
-474.274	800.000	-0.107	0.372
-473.259	-34.033	0.225	-0.124
-472.245	-133.906	-0.173	-0.021
-471.230	-99.815	0.253	0.063
-470.216	14.238	0.305	0.237
-469.201	-74.294	0.182	-0.066
-468.186	-78.962	-0.302	0.102
-467.172	-200.000	-0.010	0.045
-466.157	386.817	0.182	0.374
-465.143	-17.865	0.532	0.332
-464.128	402.443	0.072	-0.151
-463.113	-126.244	0.476	0.071
-462.099	-53.911	0.022	-0.010
-461.084	-51.976	-0.309	0.143
-460.070	109.300	0.090	0.107
-459.055	-58.803	-0.134	-0.058
-458.040	48.467	-0.290	0.270
-457.026	-133.336	0.247	-0.031
-456.011	758.833	-0.046	-0.125
-454.997	145.152	0.103	0.137
-453.982	125.853	0.117	0.147
-452.968	390.157	0.088	0.182
-451.953	99.555	0.216	0.249
-450.938	-200.000	0.003	0.118
-449.924	-48.908	-0.308	-0.147
-448.909	280.040	0.253	0.450
-447.895	-200.000	0.039	0.224
-446.880	-200.000	0.036	0.209
-445.865	-200.000	-0.020	0.147
-444.851	-63.609	0.260	0.106
-443.836	68.173	0.302	0.308
-442.822	157.754	-0.114	0.157
-441.807	1.162	0.108	0.077
-440.792	-10.951	0.139	-0.092
-439.778	-200.000	0.016	0.173
-438.763	374.769	-0.102	0.206
-437.749	-74.623	-0.477	0.171
-436.734	140.572	0.252	-0.331
-435.719	790.000	0.087	-0.237
-434.705	3.740	0.139	0.101
-433.690	-52.449	0.290	-0.134
-432.676	-103.666	0.128	-0.030
-431.661	426.745	-0.181	-0.389
-430.646	129.636	0.248	-0.315
-429.632	-13.831	-0.230	0.148
-428.617	-200.000	-0.004	-0.140
-427.603	-5.139	-0.097	0.066
-426.588	-71.475	0.159	-0.059
-425.573	223.125	-0.165	-0.265
-424.559	0.417	-0.259	-0.184
-423.544	407.760	0.095	-0.200
-422.530	-74.644	-0.468	-0.167
-421.515	-166.883	0.260	-0.011
-420.500	-200.000	0.057	0.306
-419.486	-157.977	-0.282	-0.017
-418.471	-47.950	0.145	-0.070
-417.457	-200.000	0.018	-0.167
-416.442	101.616	0.098	0.113
-415.428	-200.000	0.011	0.256
-414.413	38.552	-0.269	0.238
-413.398	-116.271	0.206	-0.038
-412.384	-200.000	-0.012	0.099
-411.369	-60.906	-0.118	-0.050
-410.355	-128.893	0.134	0.019
-409.340	-49.127	-0.238	-0.113
-408.325	399.310	-0.095	-0.199
-407.311	-29.991	0.082	0.047
-406.296	383.402	-0.038	0.078
-405.282	101.612	0.262	0.303
-404.267	800.000	0.020	-0.078
-403.252	-200.000	-0.037	-0.216
-402.238	-37.653	-0.406	-0.215
-401.223	-57.826	-0.066	0.029
-400.209	-125.086	0.190	0.029
-399.194	601.660	0.093	0.229
-398.179	-200.000	0.033	0.232
-397.165	48.280	0.173	0.161
-396.150	-133.178	0.168	-0.021
-395.136	-11.391	-0.071	0.047
-394.121	-200.000	-0.221	0.001
-393.106	-200.000	0.034	-0.351
-392.092	-87.141	-0.326	-0.098
-391.077	21.477	0.183	-0.148
-390.063	-200.000	0.037	0.168
-389.048	128.032	0.189	0.238
-388.033	-200.000	0.110	-0.000
-387.019	-129.764	0.110	0.015
-386.004	-84.123	-0.147	0.046
-384.990	800.000	0.031	-0.124
-383.975	-125.580	0.161	0.024
-382.960	-80.981	0.172	-0.057
-381.946	211.984	-0.175	0.274
-380.931	-200.000	-0.060	0.353
-379.917	27.894	-0.183	-0.153
-378.902	32.951	-0.150	-0.129
-377.888	376.401	0.100	-0.203
-376.873	575.501	-0.072	0.175
-375.858	603.212	0.067	-0.165
-374.844	800.000	-0.073	-0.219
-373.829	562.118	0.087	-0.208
-372.815	297.038	-0.178	0.324
-371.800	-200.000	0.001	-0.049
-370.785	-200.000	-0.050	-0.411
-369.771	-83.249	-0.122	0.039
-368.756	-149.275	0.205	-0.016
-367.742	110.054	0.039	-0.047
-366.727	800.000	0.089	-0.256
-365.712	-200.000	0.003	-0.136
-364.698	-173.993	-0.359	0.010
-363.683	260.929	0.307	-0.527
-362.669	0.327	0.152	0.108
-361.654	-3.409	-0.052	0.036
-360.639	-14.654	-0.084	-0.054
-359.625	-111.072	-0.120	-0.024
-358.610	-141.535	0.116	0.012
-357.596	173.847	-0.066	-0.095
-356.581	-55.501	-0.239	0.106
-355.566	-200.000	-0.028	-0.137
-354.552	-32.933	0.114	0.063
-353.537	18.456	-0.163	0.129
-352.523	703.173	-0.070	0.183
-351.508	532.342	0.058	0.137
-350.493	-200.000	-0.004	0.121
-349.479	-53.678	0.163	0.074
-348.464	800.000	-0.029	-0.110
-347.450	27.358	0.054	0.045
-346.435	456.011	0.148	0.326
-345.420	-200.000	0.043	0.471
-344.406	439.510	0.068	0.147
-343.391	-20.432	-0.318	-0.194
-342.377	-46.695	0.285	0.138
-341.362	-123.571	0.364	0.057
-340.348	-103.605	-0.109	-0.025
-339.333	-200.000	-0.019	0.189
-338.318	100.708	0.117	0.135
-337.304	-200.000	-0.064	-0.377
-336.289	-127.954	-0.347	-0.049
-335.275	-145.327	-0.333	-0.030
-334.260	71.093	0.069	0.071
-333.245	-40.041	0.089	-0.046
-332.231	-200.000	-0.022	-0.143
-331.216	-68.290	0.263	0.101
-330.202	800.000	-0.104	0.335
-329.187	-112.089	0.302	0.060
-328.172	189.892	-0.095	-0.141
-327.158	101.101	-0.113	0.130
-326.143	-30.871	0.314	0.176
-325.129	-69.565	0.130	-0.049
-324.114	25.639	0.251	-0.207
-323.099	184.488	0.040	-0.059
-322.085	122.418	0.154	-0.191
-321.070	-200.000	0.065	-0.330
-320.056	-113.756	0.229	-0.044
-319.041	-83.034	-0.091	-0.029
-318.026	-165.677	-0.192	-0.008
-317.012	571.573	0.049	0.118
-315.997	-200.000	0.029	0.195
-314.983	-47.294	-0.236	0.114
-313.968	-121.637	-0.162	-0.027
-312.953	800.000	-0.017	-0.064
-311.939	-200.000	-0.021	0.139
-310.924	-103.552	-0.158	0.037
-309.910	-63.093	0.195	-0.080
-308.895	-200.000	-0.021	0.155
-307.880	64.450	-0.091	0.091
-306.866	800.000	-0.022	-0.061
-305.851	318.911	0.180	-0.337
-304.837	704.451	-0.063	0.163
-303.822	-200.000	0.018	0.236
-302.807	665.775	0.044	0.112
-301.793	800.000	-0.013	-0.043
-300.778	-200.000	-0.011	0.071
-299.764	-60.393	-0.124	-0.052
-298.749	351.373	0.099	-0.194
-297.735	-78.744	-0.254	-0.086
-296.720	-27.020	-0.215	0.124
-295.705	-36.803	0.191	0.101
-294.691	-200.000	-0.006	0.113
-293.676	21.345	-0.198	-0.159
-292.662	-52.576	0.044	0.020
-291.647	197.515	0.102	-0.154
-290.632	-200.000	0.001	0.168
-289.618	800.000	-0.064	0.236
-288.603	-200.000	0.009	0.125
-287.589	-128.312	-0.345	0.049
-286.574	63.440	-0.187	0.186
-285.559	-20.188	0.267	0.163
-284.545	-200.000	0.005	-0.075
-283.530	-55.139	0.363	0.162
-282.516	-70.235	-0.117	-0.044
-281.501	800.000	-0.065	-0.190
-280.486	46.677	-0.166	0.153
-279.472	6.825	0.121	-0.089
-278.457	288.576	0.147	-0.264
-277.443	-42.453	0.287	-0.145
-276.428	-160.598	0.115	0.006
-275.413	-102.263	0.059	-0.014
-274.399	4.764	0.201	-0.146
-273.384	183.641	0.147	-0.214
-272.370	-200.000	-0.068	-0.408
-271.355	-129.354	-0.096	-0.013
-270.340	-200.000	-0.006	0.171
-269.326	-18.129	0.120	0.074
-268.311	233.805	0.018	-0.029
-267.297	39.389	0.375	0.332
-266.282	-46.637	-0.241	0.117
-265.267	163.207	-0.193	0.268
-264.253	317.935	0.091	-0.170
-263.238	137.002	0.065	-0.084
-262.224	-32.918	-0.209	-0.115
-261.209	-42.579	-0.066	-0.033
-260.195	739.535	-0.031	0.082
-259.180	456.443	0.094	-0.207
-258.165	-117.725	0.266	-0.047
-257.151	800.000	0.059	0.230
-256.136	-120.625	-0.185	0.031
-255.122	-200.000	-0.005	-0.097
-254.107	748.898	0.078	-0.209
-253.092	-74.190	-0.321	-0.115
-252.078	-200.000	-0.002	0.064
-251.063	-97.003	0.175	0.045
-250.049	12.122	-0.079	-0.060
-249.034	-9.613	-0.058	0.038
-248.019	752.792	-0.132	0.352
-247.005	-107.583	0.361	0.078
-245.990	183.322	0.310	0.452
-244.976	-117.768	-0.218	-0.039
-243.961	44.247	0.247	0.224
-242.946	-46.197	-0.174	-0.085
-241.932	190.817	-0.260	-0.386
-240.917	-200.000	-0.011	-0.105
-239.903	-3.134	-0.149	0.103
-238.888	13.626	-0.238	-0.182
-237.873	114.371	0.244	-0.293
-236.859	-200.000	-0.029	-0.321
-235.844	-32.260	0.087	0.048
-234.830	6.101	-0.133	-0.098
-233.815	343.990	0.080	0.154
-232.800	406.995	-0.156	-0.325
-231.786	-68.963	-0.224	0.085
-230.771	-87.926	0.260	0.077
-229.757	-98.000	0.289	-0.074
-228.742	-200.000	-0.012	0.314
-227.727	204.295	-0.157	-0.241
-226.713	47.992	0.186	-0.171
-225.698	-200.000	-0.019	0.132
-224.684	-35.794	-0.129	0.069
-223.669	-134.439	0.215	0.026
-222.655	800.000	-0.079	-0.226
-221.640	-140.736	-0.364	0.037
-220.625	16.735	0.139	0.109
-219.611	-185.337	0.135	0.002
-218.596	83.013	0.161	-0.173
-217.582	273.250	-0.028	-0.050
-216.567	-44.980	0.175	-0.086
-215.552	-200.000	-0.064	0.370
-214.538	-64.608	0.102	-0.041
-213.523	-200.000	-0.047	0.227
-212.509	-200.000	0.059	0.284
-211.494	-177.534	-0.129	0.003
-210.479	-200.000	-0.009	-0.216
-209.465	-200.000	0.049	-0.214
-208.450	331.440	0.169	-0.321
-207.436	107.071	-0.208	0.243
-206.421	-200.000	-0.009	-0.138
-205.406	-5.053	-0.310	0.210
-204.392	700.777	-0.061	0.159
-203.377	28.035	-0.220	0.183
-202.363	-200.000	0.036	0.339
-201.348	190.612	0.087	-0.129
-200.333	-79.123	-0.330	-0.111
-199.319	41.563	0.090	-0.080
-198.304	119.423	-0.100	-0.122
-197.290	-112.353	0.205	-0.040
-196.275	62.541	-0.230	0.227
-195.260	157.306	-0.158	-0.215
-194.246	154.910	-0.225	0.304
-193.231	-200.000	0.017	-0.137
-192.217	576.785	0.232	-0.558
-191.202	-74.909	-0.425	-0.150
-190.187	252.376	-0.027	-0.046
-189.173	-200.000	-0.033	-0.507
-188.158	-63.642	-0.514	-0.208
-187.144	199.138	-0.220	0.333
-186.129	-200.000	0.024	0.286
-185.114	-200.000	-0.075	-0.420
-184.100	-200.000	0.003	-0.227
-183.085	-108.224	-0.259	0.055
-182.071	-77.003	0.134	-0.046
-181.056	-200.000	0.009	0.211
-180.042	-155.686	0.147	0.009
-179.027	256.867	-0.054	-0.092
-178.012	45.598	-0.057	0.052
-176.998	-51.289	0.508	0.234
-175.983	437.550	-0.159	0.342
-174.969	211.578	0.202	0.314
-173.954	114.028	-0.090	0.107
-172.939	82.972	0.115	-0.123
-171.925	-61.198	0.247	0.103
-170.910	-70.015	-0.083	0.031
-169.896	53.645	-0.266	0.251
-168.881	-106.585	0.100	0.022
-167.866	-200.000	-0.027	0.127
-166.852	-200.000	-0.030	-0.207
-165.837	-50.380	0.099	-0.046
-164.823	463.368	0.099	0.219
-163.808	-53.407	0.279	0.126
-162.793	307.790	-0.016	0.029
-161.779	-80.363	-0.213	-0.070
-160.764	-79.724	-0.149	-0.050
-159.750	275.306	-0.099	0.173
-158.735	800.000	-0.091	-0.293
-157.720	31.144	-0.117	-0.099
-156.706	-67.851	0.127	-0.049
-155.691	-90.645	-0.242	-0.069
-154.677	800.000	-0.025	0.088
-153.662	431.341	-0.120	0.255
-152.647	-85.202	-0.152	0.047
-151.633	290.239	0.086	-0.154
-150.618	26.690	0.266	-0.219
-149.604	156.882	0.092	0.125
-148.589	244.965	-0.027	0.045
-147.574	-200.000	-0.037	0.290
-146.560	20.745	0.247	0.197
-145.545	557.974	-0.073	0.174
-144.531	800.000	-0.044	-0.181
-143.516	-128.587	-0.265	0.037
-142.502	91.779	0.206	0.228
-141.487	-200.000	0.054	0.335
-140.472	-27.714	-0.043	0.025
-139.458	-66.619	-0.107	0.042
-138.443	-116.620	0.175	-0.032
-137.429	-200.000	0.008	-0.211
-136.414	311.449	0.094	0.173
-135.399	436.744	-0.201	0.429
-134.385	261.127	-0.152	0.259
-133.370	-121.297	-0.163	0.027
-132.356	-1.320	-0.056	0.039
-131.341	114.307	0.111	-0.133
-130.326	56.162	-0.051	-0.049
-129.312	-19.858	0.195	-0.118
-128.297	788.845	0.200	-0.540
-127.283	5.930	0.044	0.032
-126.268	30.095	0.122	-0.102
-125.253	-31.640	-0.132	0.073
-124.239	-88.541	0.316	0.093
-123.224	-154.545	0.177	-0.012
-122.210	-10.669	-0.255	-0.166
