DTS Sentinel unit serial number:	SN413079Multiplexer serial number:	ORYXHardware model number:	OX4-SRSoftware version number:	ORYX F/W v4.00 Oryx Data Collector v3.7.2.0data status	okinstallation	princeton_trtdifferential loss correction	single-endedforward channel	channel 3reverse channel	N/Adate	2019/09/12time	08:46:10forward acquisition time	60.00reverse acquisition time	0.00gamma	496.2192k internal	0.2310k external	0.2310temperature offset calibration	1.0031default loss term (dB/km)	0.3790temperature slope calibration	1.0000multiplexer offset coefficient	1.0000multiplexer slope coefficient	1.0000fibre end	0.00T internal ref (°C)	33.94T ext. ref 1 (°C)	1.74T ext. ref 2 (°C)	30.39length (m)	temperature (°C)	Stokes	anti-Stokes-747.200	243.369	0.188	0.320
-746.185	134.394	0.168	0.221
-745.171	37.345	0.286	0.257
-744.156	800.000	-0.075	0.216
-743.142	13.025	0.128	-0.100
-742.127	775.418	0.103	0.285
-741.112	-200.000	-0.021	0.348
-740.098	43.269	-0.082	0.076
-739.083	-200.000	0.051	0.292
-738.069	26.930	0.160	0.136
-737.054	-200.000	0.010	0.197
-736.039	252.950	0.019	0.033
-735.025	246.453	0.046	-0.079
-734.010	-123.140	0.234	-0.038
-732.996	-107.977	-0.238	0.053
-731.981	-101.056	0.370	0.092
-730.966	52.150	-0.258	-0.250
-729.952	53.471	0.054	-0.053
-728.937	-200.000	0.076	0.439
-727.923	152.320	-0.097	0.134
-726.908	100.745	0.110	0.129
-725.894	441.410	-0.136	-0.303
-724.879	-104.241	-0.310	0.073
-723.864	34.303	-0.194	-0.172
-722.850	-44.625	-0.100	-0.051
-721.835	-108.163	-0.336	0.074
-720.821	276.810	-0.128	-0.230
-719.806	103.898	-0.084	-0.100
-718.791	705.345	0.180	-0.483
-717.777	-89.916	0.248	-0.073
-716.762	-200.000	0.032	0.396
-715.748	-29.237	-0.312	0.181
-714.733	136.460	-0.346	-0.458
-713.718	-70.424	0.295	0.113
-712.704	28.406	-0.117	-0.100
-711.689	-155.622	0.182	-0.012
-710.675	-119.975	0.155	0.027
-709.660	-126.097	0.250	0.038
-708.645	-200.000	-0.036	-0.164
-707.631	61.336	-0.168	-0.169
-706.616	211.919	0.130	0.207
-705.602	-200.000	-0.003	0.056
-704.587	-200.000	0.011	0.145
-703.572	14.190	0.122	-0.096
-702.558	-157.995	-0.206	-0.012
-701.543	-65.477	0.195	-0.079
-700.529	-200.000	-0.026	-0.181
-699.514	-33.827	0.223	0.125
-698.499	566.715	-0.104	0.255
-697.485	509.558	-0.094	0.221
-696.470	19.712	-0.101	-0.083
-695.456	-167.413	-0.291	0.012
-694.441	-114.032	-0.097	-0.019
-693.426	-62.582	0.116	-0.049
-692.412	24.944	-0.133	0.112
-691.397	-178.996	-0.391	-0.009
-690.383	-200.000	-0.025	-0.119
-689.368	-55.514	0.096	-0.044
-688.354	-200.000	-0.008	0.103
-687.339	161.966	-0.054	0.077
-686.324	-200.000	0.032	-0.255
-685.310	418.184	0.058	-0.127
-684.295	33.985	0.050	0.044
-683.281	-90.872	-0.143	-0.042
-682.266	258.407	0.159	-0.278
-681.251	-144.578	0.056	-0.005
-680.237	800.000	-0.075	-0.236
-679.222	447.172	-0.068	0.151
-678.208	-75.630	0.200	0.072
-677.193	35.096	-0.177	0.157
-676.178	-200.000	0.017	-0.215
-675.164	-111.896	0.144	-0.029
-674.149	-26.254	-0.190	-0.113
-673.135	92.499	-0.159	0.182
-672.120	-91.267	-0.228	0.066
-671.105	94.374	-0.055	0.063
-670.091	87.940	-0.176	-0.197
-669.076	800.000	-0.106	-0.396
-668.062	-141.575	0.367	-0.038
-667.047	22.091	-0.255	0.210
-666.032	-70.350	-0.170	-0.065
-665.018	-99.629	-0.020	0.005
-664.003	800.000	0.039	-0.120
-662.989	-200.000	0.005	-0.194
-661.974	6.759	-0.189	0.143
-660.959	149.588	-0.153	0.210
-659.945	720.568	0.035	-0.094
-658.930	6.161	-0.423	0.318
-657.916	-98.101	-0.321	0.083
-656.901	146.853	0.092	0.125
-655.886	-200.000	0.015	0.217
-654.872	-200.000	0.055	-0.388
-653.857	800.000	-0.074	-0.237
-652.843	-200.000	-0.010	-0.053
-651.828	58.732	-0.266	0.264
-650.814	16.531	0.379	-0.303
-649.799	54.525	0.158	0.154
-648.784	795.907	0.038	0.107
-647.770	-200.000	-0.023	0.104
-646.755	337.791	-0.098	0.194
-645.741	-200.000	-0.017	0.137
-644.726	-123.737	0.495	-0.079
-643.711	-33.853	-0.311	-0.173
-642.697	-28.866	-0.163	0.095
-641.682	-96.245	-0.207	0.056
-640.668	259.463	0.044	0.077
-639.653	587.157	0.088	-0.219
-638.638	120.973	-0.057	0.072
-637.624	-113.350	-0.059	-0.012
-636.609	242.062	0.042	0.071
-635.595	800.000	0.067	0.213
-634.580	-116.315	-0.166	-0.031
-633.565	77.084	0.083	0.089
-632.551	800.000	-0.035	0.108
-631.536	179.816	0.098	0.144
-630.522	-200.000	-0.063	0.288
-629.507	-112.577	0.180	-0.036
-628.492	84.431	0.158	0.175
-627.478	8.236	-0.267	-0.203
-626.463	-76.846	-0.405	-0.143
-625.449	-3.684	0.164	-0.115
-624.434	81.541	0.135	0.148
-623.419	800.000	0.016	0.049
-622.405	-200.000	0.011	0.218
-621.390	800.000	0.063	-0.238
-620.376	-200.000	0.028	-0.180
-619.361	-104.078	0.221	-0.052
-618.346	123.592	-0.066	0.084
-617.332	-161.113	-0.337	0.018
-616.317	22.516	-0.231	0.191
-615.303	-200.000	0.042	0.503
-614.288	127.575	-0.178	0.229
-613.273	-200.000	-0.011	0.138
-612.259	-55.602	0.317	0.143
-611.244	-34.360	-0.153	-0.085
-610.230	-60.808	-0.342	-0.146
-609.215	-6.054	0.163	-0.112
-608.201	-77.440	-0.323	0.113
-607.186	-200.000	-0.001	-0.246
-606.171	188.782	0.092	-0.139
-605.157	-143.129	-0.205	-0.020
-604.142	17.235	-0.178	-0.142
-603.128	60.828	-0.221	-0.222
-602.113	124.233	-0.243	-0.309
-601.098	166.470	-0.136	-0.194
-600.084	800.000	0.203	-0.596
-599.069	236.625	0.085	0.143
-598.055	800.000	-0.102	0.366
-597.040	292.469	0.059	-0.108
-596.025	81.813	-0.181	0.198
-595.011	202.350	-0.028	0.043
-593.996	-78.619	0.241	0.083
-592.982	123.509	0.116	0.147
-591.967	71.891	0.089	0.093
-590.952	-46.547	-0.266	0.132
-589.938	-23.282	-0.141	0.086
-588.923	-35.489	-0.261	0.143
-587.909	-64.891	0.090	-0.037
-586.894	416.583	0.150	-0.323
-585.879	149.826	-0.062	0.085
-584.865	593.532	-0.075	0.188
-583.850	518.882	-0.064	-0.150
-582.836	-200.000	0.007	-0.034
-581.821	-34.984	-0.153	-0.084
-580.806	-86.768	-0.029	-0.009
-579.792	800.000	-0.110	-0.369
-578.777	800.000	0.098	0.272
-577.763	800.000	-0.041	0.143
-576.748	348.984	-0.033	0.066
-575.733	-154.189	-0.187	-0.013
-574.719	207.758	-0.048	0.075
-573.704	-92.869	-0.105	-0.030
-572.690	-200.000	-0.002	-0.518
-571.675	-40.243	-0.150	0.079
-570.661	800.000	0.048	-0.204
-569.646	-146.535	-0.315	-0.028
-568.631	-27.455	0.200	0.117
-567.617	-46.990	-0.328	-0.161
-566.602	-200.000	-0.024	0.121
-565.588	-143.005	-0.314	0.031
-564.573	-200.000	-0.005	-0.275
-563.558	-39.291	0.115	-0.061
-562.544	-149.364	0.166	0.013
-561.529	-200.000	-0.067	0.378
-560.515	17.184	0.190	-0.152
-559.500	-44.228	0.207	0.105
-558.485	45.896	0.140	-0.131
-557.471	-4.867	-0.134	-0.093
-556.456	82.447	-0.235	0.257
-555.442	24.689	-0.172	0.143
-554.427	-71.424	0.152	0.057
-553.412	-69.036	-0.175	-0.068
-552.398	-200.000	0.008	0.074
-551.383	800.000	0.081	0.327
-550.369	-113.621	0.211	0.042
-549.354	-20.098	0.260	-0.161
-548.339	-146.457	0.113	-0.010
-547.325	-200.000	0.027	-0.275
-546.310	-69.327	0.049	0.019
-545.296	-121.163	0.369	-0.062
-544.281	208.102	-0.080	-0.126
-543.266	120.099	0.066	-0.082
-542.252	-92.533	0.167	-0.047
-541.237	800.000	-0.044	0.145
-540.223	-165.798	0.219	-0.009
-539.208	47.718	-0.054	-0.051
-538.193	800.000	0.074	0.225
-537.179	-164.706	-0.130	0.006
-536.164	-53.998	-0.496	-0.227
-535.150	-169.044	0.098	0.004
-534.135	-130.973	-0.116	0.016
-533.121	-96.502	-0.210	0.056
-532.106	-44.583	0.161	-0.081
-531.091	211.689	0.122	-0.194
-530.077	800.000	0.110	0.404
-529.062	-112.925	-0.350	-0.070
-528.048	367.979	0.026	0.052
-527.033	-105.957	-0.230	-0.052
-526.018	-140.782	0.228	-0.024
-525.004	-15.238	-0.072	0.047
-523.989	-24.073	-0.207	-0.124
-522.975	135.622	-0.209	0.274
-521.960	800.000	-0.101	-0.304
-520.945	-200.000	-0.003	0.078
-519.931	-200.000	0.015	0.125
-518.916	323.932	-0.042	-0.080
-517.902	-83.026	-0.332	0.108
-516.887	-38.953	0.201	-0.107
-515.872	-200.000	0.007	-0.554
-514.858	314.921	0.055	0.103
-513.843	-200.000	0.016	0.117
-512.829	800.000	0.079	-0.240
-511.814	-200.000	-0.053	0.242
-510.799	-3.947	-0.275	0.192
-509.785	60.192	-0.170	-0.169
-508.770	-46.984	-0.187	0.092
-507.756	-103.563	-0.292	0.069
-506.741	-200.000	0.031	-0.246
-505.726	557.174	0.051	-0.124
-504.712	-136.672	0.102	-0.012
-503.697	-23.601	-0.325	0.196
-502.683	-200.000	0.032	-0.446
-501.668	-52.511	0.169	-0.079
-500.653	396.370	-0.027	0.058
-499.639	644.457	0.058	-0.150
-498.624	49.644	-0.317	0.300
-497.610	4.701	-0.108	0.079
-496.595	-200.000	0.007	-0.152
-495.581	800.000	-0.070	-0.245
-494.566	-27.741	-0.058	-0.034
-493.551	-47.371	-0.311	-0.152
-492.537	-90.994	0.340	0.098
-491.522	-61.492	0.282	-0.119
-490.508	-27.448	0.262	-0.153
-489.493	-140.121	0.216	-0.023
-488.478	95.132	-0.032	-0.036
-487.464	-44.253	-0.174	0.088
-486.449	-181.173	0.157	-0.003
-485.435	-96.396	-0.081	0.022
-484.420	349.893	0.131	0.259
-483.405	186.800	0.229	0.343
-482.391	213.664	0.049	-0.077
-481.376	-200.000	0.034	0.180
-480.362	52.457	-0.179	-0.172
-479.347	45.206	0.094	0.087
-478.332	63.853	0.160	0.161
-477.318	-200.000	0.021	0.097
-476.303	643.432	0.091	0.234
-475.289	135.604	0.124	0.162
-474.274	-101.404	0.300	-0.073
-473.259	108.890	0.017	-0.020
-472.245	-136.249	0.122	0.014
-471.230	14.732	-0.117	-0.092
-470.216	-31.520	0.167	0.094
-469.201	800.000	-0.088	-0.305
-468.186	800.000	0.073	0.239
-467.172	102.902	0.040	0.047
-466.157	36.290	-0.124	-0.110
-465.143	-200.000	-0.014	-0.126
-464.128	800.000	-0.054	-0.187
-463.113	78.859	-0.197	0.212
-462.099	-111.105	-0.065	0.013
-461.084	-200.000	0.001	-0.149
-460.070	-126.766	-0.095	0.014
-459.055	-85.039	-0.116	-0.036
-458.040	-200.000	-0.033	0.387
-457.026	3.121	-0.132	0.096
-456.011	-200.000	-0.008	0.293
-454.997	-172.886	0.224	0.007
-453.982	-85.705	-0.136	-0.042
-452.968	-58.423	0.145	0.063
-451.953	-149.369	-0.072	0.006
-450.938	-184.958	-0.216	0.003
-449.924	17.643	0.292	-0.233
-448.909	337.779	-0.078	-0.153
-447.895	13.131	-0.071	0.055
-446.880	-177.481	0.181	0.004
-445.865	-91.371	0.200	-0.057
-444.851	218.009	-0.074	-0.119
-443.836	70.851	-0.151	-0.157
-442.822	96.799	-0.019	-0.022
-441.807	7.270	0.090	0.067
-440.792	-63.757	-0.009	0.004
-439.778	54.799	0.052	0.050
-438.763	-200.000	-0.026	0.127
-437.749	-101.594	-0.133	-0.033
-436.734	49.738	-0.072	-0.069
-435.719	-144.861	0.071	0.006
-434.705	365.720	-0.068	0.137
-433.690	-101.258	-0.117	-0.029
-432.676	133.726	0.237	-0.307
-431.661	800.000	-0.037	-0.126
-430.646	-200.000	0.041	0.247
-429.632	102.410	0.223	-0.261
-428.617	-18.784	0.258	-0.161
-427.603	-18.277	-0.286	-0.179
-426.588	-25.163	-0.169	-0.100
-425.573	-65.030	-0.164	-0.066
-424.559	112.877	-0.252	-0.306
-423.544	800.000	-0.035	-0.118
-422.530	-135.103	0.122	0.015
-421.515	-30.925	0.062	-0.035
-420.500	150.667	0.024	0.033
-419.486	381.733	-0.041	0.085
-418.471	-200.000	-0.037	-0.475
-417.457	800.000	-0.050	-0.185
-416.442	-156.024	0.170	-0.011
-415.428	58.546	-0.224	-0.221
-414.413	800.000	-0.080	0.266
-413.398	-67.944	0.144	-0.056
-412.384	-125.106	0.197	0.030
-411.369	-108.689	0.155	-0.033
-410.355	800.000	0.066	-0.223
-409.340	-141.731	0.335	-0.034
-408.325	-111.953	0.206	-0.042
-407.311	-38.974	0.223	-0.118
-406.296	-73.155	0.337	0.124
-405.282	-26.019	-0.224	-0.132
-404.267	236.500	0.194	-0.322
-403.252	7.929	-0.133	0.100
-402.238	101.529	-0.106	-0.124
-401.223	-71.668	0.358	0.134
-400.209	584.977	0.076	0.187
-399.194	68.144	0.126	0.129
-398.179	95.537	0.205	0.234
-397.165	-157.350	0.214	-0.013
-396.150	-200.000	0.055	0.299
-395.136	19.162	0.193	-0.155
-394.121	-54.045	0.141	-0.064
-393.106	140.597	0.177	0.234
-392.092	156.442	-0.232	0.321
-391.077	-78.631	0.075	-0.026
-390.063	165.296	-0.034	0.049
-389.048	-0.963	-0.170	-0.121
-388.033	93.886	0.078	-0.089
-387.019	-80.751	0.424	0.141
-386.004	-105.032	-0.178	0.041
-384.990	25.495	-0.202	0.168
-383.975	24.885	0.076	-0.063
-382.960	-96.775	-0.096	0.025
-381.946	-160.148	-0.322	0.018
-380.931	-200.000	0.436	-0.000
-379.917	-121.486	-0.305	-0.051
-378.902	54.479	-0.054	-0.052
-377.888	-200.000	-0.056	0.295
-376.873	-111.983	-0.472	0.095
-375.858	-120.539	0.211	0.036
-374.844	-114.968	0.154	0.029
-373.829	-106.661	0.166	0.037
-372.815	-200.000	-0.550	0.002
-371.800	-200.000	-0.007	-0.184
-370.785	800.000	-0.098	-0.304
-369.771	218.968	0.215	0.344
-368.756	-200.000	0.019	-0.216
-367.742	-94.663	0.109	0.030
-366.727	-19.476	-0.370	0.229
-365.712	2.926	-0.032	0.023
-364.698	71.394	0.138	0.143
-363.683	631.434	0.039	-0.099
-362.669	-48.395	0.266	-0.128
-361.654	-173.034	-0.168	-0.005
-360.639	-200.000	0.016	0.182
-359.625	145.727	-0.152	-0.203
-358.610	398.969	0.070	0.147
-357.596	800.000	0.118	-0.384
-356.581	-200.000	0.048	-0.285
-355.566	800.000	-0.086	-0.242
-354.552	187.614	0.063	0.095
-353.537	46.534	-0.364	0.338
-352.523	96.920	0.122	-0.140
-351.508	-105.121	-0.119	-0.027
-350.493	-166.609	0.385	0.016
-349.479	-101.208	0.394	0.096
-348.464	397.583	0.067	0.140
-347.450	-33.669	-0.091	0.050
-346.435	-73.854	0.112	-0.041
-345.420	-141.132	0.083	-0.008
-344.406	563.755	-0.076	-0.183
-343.391	95.231	0.209	-0.239
-342.377	-200.000	0.018	0.110
-341.362	-200.000	-0.021	0.246
-340.348	-200.000	-0.002	0.066
-339.333	188.582	0.090	-0.135
-338.318	73.978	-0.089	-0.093
-337.304	-200.000	-0.035	0.529
-336.289	-54.250	-0.152	0.069
-335.275	575.265	0.070	-0.171
-334.260	137.351	-0.183	0.239
-333.245	800.000	0.021	0.078
-332.231	-104.984	0.319	0.073
-331.216	-200.000	-0.060	-0.499
-330.202	15.550	0.199	-0.156
-329.187	-120.266	0.259	-0.044
-328.172	-200.000	0.018	-0.132
-327.158	380.313	-0.097	-0.199
-326.143	-65.643	0.197	-0.079
-325.129	-123.167	0.338	-0.054
-324.114	9.747	-0.031	-0.024
-323.099	800.000	0.017	-0.058
-322.085	66.757	0.213	0.216
-321.070	-200.000	-0.005	0.034
-320.056	319.325	-0.071	0.134
-319.041	-19.853	-0.045	0.028
-318.026	-134.474	-0.116	0.014
-317.012	64.775	-0.046	-0.047
-315.997	91.478	-0.246	0.276
-314.983	-200.000	0.005	0.022
-313.968	647.455	0.078	0.199
-312.953	-54.073	0.173	-0.079
-311.939	-200.000	-0.028	-0.256
-310.924	-20.349	0.149	0.091
-309.910	199.860	0.128	0.196
-308.895	-200.000	-0.067	0.414
-307.880	795.219	-0.089	-0.246
-306.866	-50.686	-0.327	-0.154
-305.851	19.831	-0.180	-0.145
-304.837	-85.470	0.243	0.076
-303.822	-200.000	-0.038	0.297
-302.807	-200.000	-0.019	0.299
-301.793	-140.782	0.240	0.025
-300.778	321.808	0.072	-0.137
-299.764	1.397	0.210	-0.151
-298.749	800.000	0.065	0.237
-297.735	38.395	-0.186	-0.166
-296.720	43.406	0.176	0.160
-295.705	-200.000	0.020	-0.195
-294.691	145.291	-0.037	-0.050
-293.676	78.464	-0.078	0.083
-292.662	23.872	-0.320	0.264
-291.647	-200.000	0.011	-0.138
-290.632	800.000	0.061	0.265
-289.618	237.495	-0.040	-0.066
-288.603	-72.633	-0.247	0.091
-287.589	-55.123	-0.224	0.101
-286.574	425.785	-0.006	0.013
-285.559	-200.000	0.004	0.061
-284.545	116.884	0.147	0.180
-283.530	316.674	0.172	0.324
-282.516	-200.000	-0.021	-0.250
-281.501	-50.944	-0.122	-0.057
-280.486	-82.153	-0.138	-0.045
-279.472	215.786	-0.104	-0.165
-278.457	208.486	0.112	-0.175
-277.443	489.775	-0.037	0.085
-276.428	-107.591	-0.273	0.059
-275.413	-142.868	-0.178	-0.017
-274.399	-147.046	-0.181	0.015
-273.384	637.097	-0.140	0.355
-272.370	-200.000	-0.028	0.142
-271.355	-104.080	-0.102	-0.024
-270.340	364.616	0.022	-0.045
-269.326	223.515	0.076	-0.123
-268.311	-147.337	-0.177	0.015
-267.297	64.197	0.280	-0.280
-266.282	74.084	0.184	-0.193
-265.267	216.207	-0.234	0.371
-264.253	-76.073	0.064	-0.023
-263.238	800.000	0.028	0.116
-262.224	-200.000	0.036	0.286
-261.209	800.000	0.070	-0.289
-260.195	-169.877	0.108	-0.004
-259.180	800.000	0.040	0.144
-258.165	-51.070	-0.094	0.044
-257.151	598.785	0.046	0.114
-256.136	-134.339	-0.537	0.066
-255.122	499.383	0.210	-0.483
-254.107	800.000	-0.038	0.128
-253.092	51.581	0.103	-0.097
-252.078	800.000	-0.018	0.056
-251.063	-200.000	-0.023	-0.129
-250.049	-116.936	-0.015	-0.003
-249.034	-55.474	0.220	-0.098
-248.019	89.059	0.060	-0.067
-247.005	-200.000	0.019	0.237
-245.990	-200.000	0.029	0.133
-244.976	-135.794	-0.252	-0.030
-243.961	-90.572	-0.066	0.019
-242.946	219.520	0.048	0.077
-241.932	82.552	0.165	-0.178
-240.917	-200.000	0.006	-0.031
-239.903	-200.000	0.029	-0.223
-238.888	-200.000	0.015	0.155
-237.873	-11.277	0.045	0.030
-236.859	15.911	0.164	0.129
-235.844	-115.227	0.189	-0.036
-234.830	-154.735	0.162	-0.011
-233.815	11.466	-0.364	0.278
-232.800	34.844	-0.091	0.079
-231.786	-155.739	-0.081	-0.005
-230.771	-24.738	0.243	-0.144
-229.757	-200.000	0.011	-0.106
-228.742	-200.000	0.024	-0.177
-227.727	122.260	0.153	-0.191
-226.713	-200.000	-0.080	-0.419
-225.698	-200.000	-0.019	0.140
-224.684	-200.000	0.047	0.249
-223.669	-110.972	0.159	-0.033
-222.655	267.694	0.148	0.258
-221.640	-154.897	0.165	-0.011
-220.625	1.989	-0.314	0.226
-219.611	51.654	0.070	-0.067
-218.596	-200.000	-0.009	-0.149
-217.582	70.944	-0.249	-0.256
-216.567	800.000	-0.057	0.171
-215.552	34.208	-0.176	-0.153
-214.538	97.160	0.270	0.308
-213.523	224.786	-0.167	-0.269
-212.509	-200.000	0.052	0.307
-211.494	-77.572	0.086	0.030
-210.479	54.856	0.136	-0.131
-209.465	-187.637	0.237	0.003
-208.450	-83.061	0.081	-0.026
-207.436	-40.750	-0.443	0.228
-206.421	-200.000	-0.005	-0.312
-205.406	-52.718	0.229	0.105
-204.392	-149.199	0.117	0.009
-203.377	213.461	-0.005	-0.007
-202.363	299.960	0.048	-0.089
-201.348	-169.033	0.100	0.004
-200.333	-88.997	0.089	-0.026
-199.319	800.000	-0.098	0.313
-198.304	59.196	0.179	-0.175
-197.290	-49.175	-0.079	0.038
-196.275	-35.023	-0.297	0.161
-195.260	332.393	0.110	-0.212
-194.246	800.000	-0.021	-0.071
-193.231	28.697	0.128	-0.108
-192.217	-200.000	-0.017	-0.281
-191.202	-200.000	-0.001	-0.065
-190.187	-116.482	-0.125	-0.023
-189.173	-182.318	0.184	-0.003
-188.158	110.062	-0.118	-0.140
-187.144	468.739	-0.069	0.155
-186.129	-166.942	0.476	0.019
-185.114	-66.837	-0.301	0.118
-184.100	784.076	0.039	0.106
-183.085	-200.000	0.003	-0.098
-182.071	200.071	-0.122	-0.186
-181.056	-200.000	0.023	0.155
-180.042	201.356	0.042	0.065
-179.027	-45.401	-0.077	-0.038
-178.012	-104.774	-0.075	-0.017
-176.998	-200.000	-0.005	-0.076
-175.983	800.000	-0.033	0.121
-174.969	-143.786	0.085	0.008
-173.954	-141.491	-0.110	0.011
-172.939	-159.419	0.243	-0.013
-171.925	-17.043	0.140	0.087
-170.910	-200.000	0.029	0.234
-169.896	-113.775	0.175	-0.034
-168.881	727.480	0.068	-0.180
-167.866	258.289	0.095	0.163
-166.852	800.000	0.034	0.120
-165.837	73.853	0.037	-0.039
-164.823	-74.083	0.121	0.044
-163.808	109.030	0.122	-0.145
-162.793	716.075	-0.152	0.400
-161.779	423.297	-0.072	0.153
-160.764	-46.006	0.088	-0.043
-159.750	-200.000	0.001	-0.100
-158.735	20.513	-0.214	-0.172
-157.720	49.630	-0.103	0.096
-156.706	552.592	-0.068	-0.162
-155.691	-200.000	0.016	-0.199
-154.677	-115.554	0.129	0.024
-153.662	149.752	-0.207	-0.278
-152.647	284.965	-0.086	-0.153
-151.633	-200.000	0.026	-0.170
-150.618	86.195	-0.050	-0.055
-149.604	-103.712	0.197	-0.046
-148.589	-90.660	-0.192	0.055
-147.574	-200.000	0.001	0.039
-146.560	-71.943	-0.107	-0.039
-145.545	800.000	-0.066	-0.261
-144.531	-200.000	0.052	-0.228
-143.516	-179.028	-0.112	0.002
-142.502	800.000	-0.108	-0.323
-141.487	611.042	0.025	0.062
-140.472	-24.374	0.291	-0.172
-139.458	-171.555	0.153	0.005
-138.443	-79.277	-0.201	-0.067
-137.429	-68.204	-0.300	0.116
-136.414	-69.859	0.315	0.119
-135.399	-111.599	-0.250	-0.050
-134.385	359.550	0.168	0.334
-133.370	800.000	0.045	0.193
-132.356	-86.423	-0.060	-0.018
-131.341	46.428	-0.170	0.157
-130.326	-200.000	0.004	-0.080
-129.312	-30.242	0.106	0.060
-128.297	-95.236	-0.253	-0.067
-127.283	175.549	-0.117	-0.169
-126.268	-102.868	0.144	-0.034
-125.253	-0.454	0.157	-0.111
-124.239	352.756	-0.009	-0.018
-123.224	-156.000	0.089	0.006
-122.210	-200.000	0.013	0.343
