DTS Sentinel unit serial number:	SN413079Multiplexer serial number:	ORYXHardware model number:	OX4-SRSoftware version number:	ORYX F/W v4.00 Oryx Data Collector v3.7.2.0data status	okinstallation	princeton_trtdifferential loss correction	single-endedforward channel	channel 3reverse channel	N/Adate	2019/09/17time	10:28:35forward acquisition time	60.00reverse acquisition time	0.00gamma	496.2192k internal	0.2322k external	0.2322temperature offset calibration	0.9944default loss term (dB/km)	0.3790temperature slope calibration	1.0000multiplexer offset coefficient	1.0000multiplexer slope coefficient	1.0000fibre end	0.00T internal ref (°C)	29.95T ext. ref 1 (°C)	0.17T ext. ref 2 (°C)	25.53length (m)	temperature (°C)	Stokes	anti-Stokes-747.200	-200.000	0.014	0.388
-746.185	-133.831	0.105	-0.013
-745.171	-85.182	-0.205	0.065
-744.156	122.821	-0.113	0.143
-743.142	-136.867	0.177	0.020
-742.127	50.417	-0.167	-0.160
-741.112	-5.844	0.105	-0.073
-740.098	-14.257	-0.142	0.092
-739.083	97.747	0.135	0.157
-738.069	-120.511	0.153	0.026
-737.054	-136.451	-0.174	-0.020
-736.039	219.598	-0.103	-0.166
-735.025	-31.575	-0.110	0.062
-734.010	800.000	-0.057	0.177
-732.996	-200.000	0.050	0.357
-731.981	-88.474	0.294	0.088
-730.966	-116.130	0.070	-0.013
-729.952	-200.000	-0.054	0.306
-728.937	-130.117	-0.253	-0.035
-727.923	-90.227	-0.371	-0.109
-726.908	272.124	-0.110	-0.197
-725.894	86.015	-0.079	0.087
-724.879	-106.048	0.082	0.019
-723.864	-200.000	-0.001	0.011
-722.850	800.000	-0.045	0.172
-721.835	-184.005	-0.129	-0.002
-720.821	-19.601	-0.335	-0.209
-719.806	-131.226	-0.160	-0.021
-718.791	118.194	-0.026	-0.032
-717.777	-200.000	0.005	0.139
-716.762	800.000	0.104	-0.409
-715.748	57.537	-0.231	-0.228
-714.733	-60.545	-0.148	0.063
-713.718	-71.117	-0.050	0.019
-712.704	40.592	0.120	-0.109
-711.689	202.637	0.048	-0.075
-710.675	-200.000	-0.048	-0.225
-709.660	-200.000	0.012	0.167
-708.645	-200.000	-0.012	0.332
-707.631	800.000	-0.083	-0.292
-706.616	-52.550	-0.151	-0.070
-705.602	70.077	0.104	0.108
-704.587	-27.481	-0.100	0.059
-703.572	97.982	-0.160	-0.186
-702.558	65.395	0.163	-0.166
-701.543	-3.825	0.236	-0.165
-700.529	-200.000	-0.026	0.123
-699.514	331.027	-0.058	-0.113
-698.499	-28.115	0.344	-0.200
-697.485	176.691	0.095	-0.139
-696.470	41.067	0.184	-0.167
-695.456	563.021	-0.028	0.069
-694.441	-191.119	0.187	0.002
-693.426	-113.291	0.032	0.006
-692.412	-29.353	-0.314	0.181
-691.397	-91.384	-0.262	0.075
-690.383	120.258	-0.323	-0.404
-689.368	40.509	-0.102	0.092
-688.354	19.670	0.076	-0.062
-687.339	-200.000	0.008	0.054
-686.324	-134.774	0.226	0.028
-685.310	-200.000	0.014	-0.183
-684.295	800.000	0.061	-0.251
-683.281	-119.568	0.197	0.034
-682.266	426.484	-0.128	-0.277
-681.251	-200.000	0.016	-0.083
-680.237	102.274	0.143	-0.169
-679.222	-200.000	0.013	-0.140
-678.208	-200.000	-0.016	-0.265
-677.193	-84.716	-0.310	0.098
-676.178	604.155	-0.063	-0.158
-675.164	-85.833	0.102	0.032
-674.149	767.811	0.029	0.078
-673.135	-105.032	0.047	0.011
-672.120	-66.769	0.244	0.097
-671.105	255.336	0.222	0.383
-670.091	289.502	0.088	0.161
-669.076	-66.628	0.281	-0.112
-668.062	800.000	0.034	-0.140
-667.047	800.000	0.094	0.317
-666.032	28.801	-0.101	-0.086
-665.018	-64.407	-0.113	-0.046
-664.003	-46.909	0.162	0.080
-662.989	-153.061	0.158	-0.011
-661.974	148.012	-0.063	-0.086
-660.959	-200.000	-0.005	0.206
-659.945	-94.707	0.139	0.038
-658.930	54.687	0.191	0.185
-657.916	800.000	-0.034	0.095
-656.901	188.299	-0.132	-0.199
-655.886	800.000	0.058	-0.197
-654.872	-0.763	-0.216	-0.154
-653.857	-200.000	-0.028	0.220
-652.843	16.646	0.065	-0.051
-651.828	125.837	-0.168	-0.214
-650.814	186.142	-0.076	-0.114
-649.799	-49.996	0.237	-0.113
-648.784	17.702	-0.106	-0.084
-647.770	-161.506	0.238	0.012
-646.755	-19.834	-0.149	0.092
-645.741	-113.292	-0.061	-0.012
-644.726	236.100	-0.100	-0.166
-643.711	-141.439	-0.329	0.034
-642.697	-200.000	0.020	-0.129
-641.682	33.817	-0.040	-0.035
-640.668	45.636	0.128	-0.119
-639.653	566.254	0.149	-0.365
-638.638	156.421	-0.023	-0.031
-637.624	800.000	-0.014	0.056
-636.609	-119.557	-0.175	-0.031
-635.595	118.847	-0.325	-0.404
-634.580	199.615	0.157	0.242
-633.565	74.364	0.044	0.046
-632.551	-9.086	-0.272	-0.183
-631.536	-200.000	-0.043	-0.434
-630.522	-24.867	0.290	0.173
-629.507	800.000	0.092	-0.270
-628.492	242.583	0.161	-0.272
-627.478	-73.917	-0.135	-0.049
-626.463	-172.720	0.074	-0.002
-625.449	68.013	-0.337	0.346
-624.434	-147.971	0.216	-0.018
-623.419	-67.507	0.161	0.063
-622.405	-121.529	0.114	0.019
-621.390	-129.196	-0.436	0.061
-620.376	382.006	-0.126	0.260
-619.361	-38.471	0.162	0.086
-618.346	276.551	0.094	0.168
-617.332	135.985	-0.151	0.197
-616.317	197.453	-0.072	0.110
-615.303	-55.881	0.243	-0.109
-614.288	94.422	0.108	-0.123
-613.273	82.384	-0.043	0.047
-612.259	800.000	-0.045	-0.183
-611.244	-26.038	-0.187	-0.111
-610.230	-200.000	-0.089	-0.502
-609.215	4.378	0.134	0.099
-608.201	30.763	0.197	-0.170
-607.186	-26.713	0.285	-0.167
-606.171	-34.928	0.204	-0.112
-605.157	330.341	0.040	0.077
-604.142	248.209	-0.080	-0.135
-603.128	-200.000	-0.013	-0.134
-602.113	-28.101	-0.194	-0.113
-601.098	-161.396	-0.263	0.014
-600.084	-200.000	-0.028	0.275
-599.069	109.050	0.149	0.179
-598.055	152.471	-0.365	0.501
-597.040	-113.317	-0.345	0.068
-596.025	202.367	-0.024	-0.037
-595.011	-200.000	-0.005	0.040
-593.996	63.676	0.089	-0.089
-592.982	340.709	-0.066	-0.129
-591.967	-175.317	0.353	-0.010
-590.952	-81.882	-0.329	-0.108
-589.938	-200.000	0.003	-0.218
-588.923	-78.509	-0.213	0.073
-587.909	90.540	-0.177	-0.199
-586.894	-46.736	0.471	-0.231
-585.879	26.416	-0.256	-0.215
-584.865	-103.495	-0.253	0.060
-583.850	-200.000	0.011	-0.060
-582.836	-145.581	-0.333	0.030
-581.821	518.436	-0.075	-0.175
-580.806	-200.000	0.068	-0.410
-579.792	35.270	0.123	0.108
-578.777	160.930	0.132	0.185
-577.763	-200.000	0.012	0.072
-576.748	60.214	-0.189	0.187
-575.733	-126.576	0.151	-0.022
-574.719	-90.390	0.340	-0.099
-573.704	-144.023	-0.344	-0.032
-572.690	275.620	-0.283	0.503
-571.675	-14.049	-0.169	-0.110
-570.661	11.152	0.119	-0.091
-569.646	5.472	-0.114	-0.084
-568.631	6.762	-0.166	-0.124
-567.617	-200.000	-0.065	-0.327
-566.602	-57.900	0.239	-0.105
-565.588	-76.089	0.175	0.062
-564.573	51.693	-0.115	0.109
-563.558	116.368	0.111	-0.136
-562.544	193.933	0.153	0.232
-561.529	-162.350	0.319	0.016
-560.515	397.403	-0.065	-0.137
-559.500	-120.704	-0.323	0.055
-558.485	-76.629	0.308	0.108
-557.471	349.545	-0.063	-0.124
-556.456	-5.536	-0.353	0.243
-555.442	146.915	-0.047	0.063
-554.427	-109.197	-0.112	0.024
-553.412	-43.150	0.112	0.057
-552.398	21.843	-0.131	0.107
-551.383	58.123	0.142	-0.139
-550.369	-200.000	0.008	-0.295
-549.354	-3.025	-0.079	-0.056
-548.339	800.000	0.047	0.185
-547.325	800.000	-0.088	0.364
-546.310	-113.063	-0.284	0.056
-545.296	-200.000	-0.012	-0.288
-544.281	86.659	0.082	0.091
-543.266	193.800	-0.093	-0.142
-542.252	800.000	0.064	-0.218
-541.237	-105.585	-0.135	-0.031
-540.223	-32.188	0.222	0.124
-539.208	-53.618	0.137	-0.063
-538.193	800.000	-0.082	-0.294
-537.179	168.080	0.036	0.052
-536.164	76.647	-0.121	-0.129
-535.150	-62.249	-0.202	-0.084
-534.135	574.856	0.161	-0.393
-533.121	-92.199	0.311	-0.088
-532.106	-18.591	0.205	-0.128
-531.091	-200.000	-0.032	-0.302
-530.077	274.279	-0.110	-0.195
-529.062	53.540	-0.194	0.187
-528.048	-110.752	-0.104	-0.021
-527.033	-183.626	0.075	-0.001
-526.018	269.401	-0.152	-0.267
-525.004	-77.905	-0.490	0.169
-523.989	800.000	0.038	-0.124
-522.975	-200.000	-0.041	-0.181
-521.960	23.189	-0.104	0.085
-520.945	-12.362	0.114	-0.075
-519.931	800.000	0.044	0.151
-518.916	182.523	0.032	0.047
-517.902	351.161	-0.219	0.434
-516.887	-14.969	0.088	-0.057
-515.872	-49.988	-0.168	0.080
-514.858	-88.987	0.151	-0.045
-513.843	-115.272	0.148	0.028
-512.829	-156.905	-0.324	0.020
-511.814	-12.029	-0.090	-0.059
-510.799	-4.997	0.137	0.095
-509.785	245.602	-0.092	-0.154
-508.770	198.400	-0.159	-0.244
-507.756	37.238	-0.105	0.093
-506.741	-118.874	0.060	-0.011
-505.726	-200.000	-0.028	-0.414
-504.712	-124.101	-0.331	-0.052
-503.697	180.858	0.054	0.079
-502.683	298.920	0.166	0.305
-501.668	-200.000	0.038	0.309
-500.653	82.485	0.103	0.112
-499.639	65.442	0.069	0.069
-498.624	-156.165	0.103	-0.006
-497.610	11.527	0.114	0.088
-496.595	-80.079	-0.129	0.043
-495.581	-129.516	0.212	-0.029
-494.566	800.000	-0.034	-0.110
-493.551	67.152	-0.131	0.134
-492.537	-156.974	0.095	0.006
-491.522	-127.280	0.133	0.019
-490.508	43.992	-0.165	-0.151
-489.493	-200.000	-0.026	-0.328
-488.478	176.205	-0.197	-0.286
-487.464	-28.049	0.095	-0.055
-486.449	-127.021	0.014	0.002
-485.435	191.607	0.072	0.108
-484.420	800.000	-0.065	-0.251
-483.405	-200.000	0.014	-0.153
-482.391	-200.000	0.013	-0.159
-481.376	-19.962	-0.133	0.082
-480.362	88.801	-0.103	0.115
-479.347	514.132	-0.060	-0.140
-478.332	800.000	-0.081	0.229
-477.318	57.543	-0.183	0.178
-476.303	-51.444	0.436	-0.204
-475.289	-200.000	-0.015	0.118
-474.274	407.887	-0.148	0.313
-473.259	-120.314	0.311	-0.053
-472.245	-131.571	0.241	-0.032
-471.230	383.779	0.019	0.039
-470.216	-61.057	0.220	0.093
-469.201	117.986	0.060	0.074
-468.186	800.000	-0.039	-0.130
-467.172	55.115	-0.076	0.073
-466.157	-14.247	-0.254	0.163
-465.143	29.221	0.173	-0.146
-464.128	-57.233	-0.224	0.098
-463.113	294.568	-0.087	0.158
-462.099	61.509	0.198	0.197
-461.084	-52.544	0.141	0.065
-460.070	-200.000	0.029	0.340
-459.055	461.685	0.104	0.232
-458.040	165.167	0.060	-0.085
-457.026	102.851	0.013	0.015
-456.011	257.664	0.047	0.080
-454.997	409.228	-0.088	-0.187
-453.982	196.489	-0.112	0.170
-452.968	-46.184	0.141	0.069
-451.953	-200.000	-0.015	-0.208
-450.938	40.079	0.100	0.090
-449.924	-61.316	-0.253	0.107
-448.909	-198.085	0.071	-0.000
-447.895	-19.879	-0.146	0.090
-446.880	-149.049	0.070	-0.006
-445.865	-94.573	0.267	0.073
-444.851	49.048	0.182	-0.171
-443.836	-51.576	-0.277	-0.129
-442.822	-24.511	0.021	-0.013
-441.807	800.000	0.056	0.234
-440.792	25.225	0.171	-0.141
-439.778	-184.516	-0.143	-0.002
-438.763	295.863	0.168	0.308
-437.749	95.615	0.010	-0.011
-436.734	374.761	-0.109	-0.222
-435.719	-200.000	0.009	-0.076
-434.705	-147.021	-0.148	0.013
-433.690	31.816	0.109	0.093
-432.676	-78.912	0.176	-0.060
-431.661	183.326	0.052	0.077
-430.646	-137.206	0.086	0.010
-429.632	120.082	0.090	0.112
-428.617	29.888	0.070	0.060
-427.603	-26.993	0.229	-0.134
-426.588	93.212	-0.233	0.263
-425.573	-187.382	-0.280	0.004
-424.559	-56.176	0.037	-0.016
-423.544	-200.000	0.024	0.125
-422.530	341.200	-0.039	-0.076
-421.515	140.605	0.128	-0.169
-420.500	188.778	0.202	-0.301
-419.486	-177.421	0.331	-0.008
-418.471	164.421	0.177	0.248
-417.457	-50.948	0.101	0.047
-416.442	-200.000	-0.027	-0.179
-415.428	1.031	0.331	0.237
-414.413	-200.000	0.027	0.280
-413.398	45.322	-0.122	0.113
-412.384	-200.000	-0.029	0.158
-411.369	-200.000	-0.007	-0.228
-410.355	-139.050	-0.027	-0.003
-409.340	800.000	-0.081	-0.287
-408.325	114.918	-0.241	0.293
-407.311	-179.493	0.668	0.015
-406.296	-200.000	-0.090	-0.417
-405.282	-134.227	0.214	0.026
-404.267	-200.000	0.027	0.159
-403.252	-200.000	-0.055	0.331
-402.238	20.209	-0.084	0.067
-401.223	-19.662	-0.086	0.053
-400.209	-28.577	-0.273	0.156
-399.194	138.989	0.118	0.154
-398.179	30.083	-0.154	-0.131
-397.165	-200.000	0.003	-0.088
-396.150	-200.000	0.005	-0.095
-395.136	11.630	0.043	-0.033
-394.121	-97.348	-0.188	-0.049
-393.106	-123.288	0.055	0.009
-392.092	-120.572	-0.302	0.051
-391.077	-91.831	-0.184	-0.052
-390.063	301.204	-0.040	-0.074
-389.048	186.999	0.088	0.131
-388.033	-43.043	-0.252	0.128
-387.019	-158.773	-0.095	-0.005
-386.004	-80.365	0.241	0.080
-384.990	-60.032	0.352	0.150
-383.975	578.948	0.112	-0.274
-382.960	-53.577	-0.096	0.044
-381.946	35.804	0.258	-0.226
-380.931	-150.284	-0.293	-0.022
-379.917	202.041	-0.057	-0.088
-378.902	-200.000	0.042	-0.222
-377.888	-20.977	0.259	-0.158
-376.873	51.459	0.144	0.136
-375.858	59.318	0.148	0.146
-374.844	-27.096	-0.219	0.127
-373.829	-46.273	0.227	-0.111
-372.815	-6.471	0.032	0.022
-371.800	-200.000	0.004	0.110
-370.785	222.653	0.148	0.237
-369.771	25.701	0.201	0.166
-368.756	-6.817	-0.218	-0.148
-367.742	-93.110	0.122	0.034
-366.727	800.000	-0.040	-0.141
-365.712	-50.320	0.163	0.077
-364.698	572.845	0.095	-0.229
-363.683	-21.674	0.156	0.095
-362.669	10.280	0.205	-0.155
-361.654	21.833	0.127	-0.103
-360.639	335.585	0.102	-0.198
-359.625	644.314	-0.020	-0.051
-358.610	-186.242	0.137	0.002
-357.596	-112.628	-0.246	-0.049
-356.581	-101.290	0.243	0.059
-355.566	78.394	0.046	-0.049
-354.552	-200.000	0.014	0.213
-353.537	-200.000	0.000	-0.369
-352.523	800.000	0.089	0.306
-351.508	-166.859	0.028	-0.001
-350.493	242.800	-0.164	0.273
-349.479	-164.543	-0.321	-0.015
-348.464	-152.552	0.211	0.015
-347.450	-200.000	0.011	-0.192
-346.435	800.000	0.047	-0.198
-345.420	24.832	-0.322	0.265
-344.406	244.553	0.160	0.267
-343.391	-62.995	-0.132	-0.054
-342.377	800.000	-0.078	-0.256
-341.362	800.000	-0.028	0.099
-340.348	185.311	-0.046	-0.069
-339.333	-38.415	0.293	-0.154
-338.318	800.000	0.044	0.173
-337.304	800.000	0.033	-0.114
-336.289	-200.000	-0.012	-0.232
-335.275	5.853	0.242	0.178
-334.260	335.079	0.133	0.256
-333.245	-200.000	-0.008	-0.270
-332.231	448.015	0.059	-0.128
-331.216	182.891	-0.166	0.244
-330.202	205.656	0.092	0.142
-329.187	-200.000	-0.047	0.420
-328.172	8.740	-0.208	-0.156
-327.158	56.937	0.045	-0.043
-326.143	392.806	-0.096	0.199
-325.129	-26.156	0.336	-0.196
-324.114	-17.784	-0.082	0.051
-323.099	-169.490	-0.344	0.012
-322.085	7.176	-0.174	0.129
-321.070	800.000	-0.047	0.157
-320.056	-5.733	-0.370	0.252
-319.041	-68.941	0.111	-0.043
-318.026	-90.457	-0.331	-0.095
-317.012	17.654	0.120	0.094
-315.997	-200.000	0.005	0.073
-314.983	-43.520	0.312	-0.156
-313.968	-66.277	-0.170	-0.067
-312.953	-96.339	0.175	0.046
-311.939	-117.971	0.220	0.039
-310.924	-123.565	-0.010	-0.002
-309.910	-165.124	0.129	0.006
-308.895	-124.985	-0.094	-0.014
-307.880	-110.393	-0.206	-0.043
-306.866	101.959	-0.044	-0.051
-305.851	37.794	-0.077	0.068
-304.837	111.015	-0.156	-0.187
-303.822	-49.726	0.128	-0.060
-302.807	99.652	0.048	-0.055
-301.793	-200.000	0.001	0.166
-300.778	-82.883	-0.062	-0.020
-299.764	-126.229	0.046	-0.007
-298.749	-200.000	0.017	-0.253
-297.735	-200.000	0.022	0.283
-296.720	131.402	-0.122	0.155
-295.705	715.267	-0.071	-0.186
-294.691	539.969	0.101	-0.240
-293.676	-130.296	0.248	-0.033
-292.662	-23.399	0.276	-0.164
-291.647	-200.000	-0.014	0.087
-290.632	304.620	0.133	0.245
-289.618	-200.000	-0.004	0.088
-288.603	-84.703	-0.100	-0.031
-287.589	41.572	0.190	-0.171
-286.574	-200.000	-0.026	0.310
-285.559	-103.809	0.321	-0.074
-284.545	259.056	0.071	0.121
-283.530	-27.555	-0.161	-0.093
-282.516	800.000	-0.054	0.178
-281.501	443.344	-0.126	-0.275
-280.486	-43.038	-0.137	0.069
-279.472	-29.244	0.168	-0.095
-278.457	60.935	0.133	0.131
-277.443	-5.381	-0.173	-0.118
-276.428	-35.180	0.338	0.183
-275.413	-117.006	-0.061	0.011
-274.399	-49.363	0.208	0.098
-273.384	-181.168	0.266	0.005
-272.370	322.298	0.109	-0.206
-271.355	-35.780	-0.030	-0.016
-270.340	-61.858	-0.421	-0.175
-269.326	-93.146	-0.260	0.072
-268.311	-200.000	0.012	-0.243
-267.297	-98.501	0.254	-0.064
-266.282	-110.906	-0.179	0.037
-265.267	800.000	0.102	0.300
-264.253	-200.000	-0.000	-0.003
-263.238	92.328	0.152	-0.169
-262.224	224.548	-0.117	0.187
-261.209	-200.000	-0.020	-0.113
-260.195	239.508	-0.156	0.257
-259.180	-92.056	0.185	-0.052
-258.165	-57.648	-0.437	-0.190
-257.151	-200.000	0.023	-0.287
-256.136	63.330	0.084	-0.084
-255.122	800.000	0.071	0.214
-254.107	5.583	0.115	0.084
-253.092	263.008	0.017	0.030
-252.078	-51.540	-0.145	-0.067
-251.063	-200.000	0.001	0.040
-250.049	-47.516	0.207	-0.099
-249.034	117.840	-0.159	-0.194
-248.019	800.000	0.023	0.092
-247.005	800.000	-0.093	0.293
-245.990	70.140	0.077	0.078
-244.976	-200.000	-0.040	0.305
-243.961	432.224	-0.108	-0.231
-242.946	24.590	-0.158	-0.129
-241.932	476.952	-0.086	-0.192
-240.917	62.679	-0.140	0.139
-239.903	258.570	-0.115	0.196
-238.888	-200.000	0.049	0.217
-237.873	-43.440	0.200	0.100
-236.859	37.357	0.124	0.109
-235.844	41.193	0.197	-0.176
-234.830	25.332	-0.120	0.099
-233.815	92.932	-0.194	0.217
-232.800	-72.787	0.216	-0.079
-231.786	389.473	-0.062	-0.127
-230.771	475.143	0.060	0.134
-229.757	335.572	0.144	0.276
-228.742	-49.848	0.209	-0.098
-227.727	-145.181	0.280	-0.025
-226.713	-13.892	-0.180	-0.115
-225.698	-200.000	-0.008	0.056
-224.684	-128.834	-0.314	-0.044
-223.669	800.000	0.094	-0.265
-222.655	12.040	0.188	-0.143
-221.640	-41.889	-0.081	-0.041
-220.625	800.000	0.125	0.426
-219.611	-200.000	-0.010	-0.064
-218.596	-200.000	0.025	-0.165
-217.582	-189.803	-0.235	-0.003
-216.567	92.564	0.154	0.172
-215.552	-25.302	0.086	-0.050
-214.538	586.181	-0.095	0.230
-213.523	-115.128	-0.222	0.042
-212.509	-138.434	-0.512	0.056
-211.494	-119.414	0.426	0.073
-210.479	-73.019	0.277	0.101
-209.465	-89.539	0.207	0.060
-208.450	-200.000	0.015	-0.130
-207.436	-59.422	0.113	0.048
-206.421	-200.000	-0.026	0.336
-205.406	101.005	0.053	0.061
-204.392	140.450	0.076	0.099
-203.377	178.970	0.067	0.097
-202.363	-83.180	-0.159	-0.051
-201.348	372.946	0.173	-0.348
-200.333	-200.000	0.022	-0.195
-199.319	574.521	-0.033	-0.079
-198.304	-200.000	-0.070	-0.380
-197.290	-54.458	-0.310	0.139
-196.275	534.177	-0.080	0.188
-195.260	208.866	-0.019	0.030
-194.246	118.155	0.091	-0.111
-193.231	-120.384	-0.129	-0.022
-192.217	-28.679	-0.072	-0.041
-191.202	22.422	-0.041	0.033
-190.187	36.238	-0.160	0.139
-189.173	800.000	-0.086	0.345
-188.158	-200.000	-0.008	0.153
-187.144	152.137	-0.149	-0.202
-186.129	226.884	-0.103	-0.166
-185.114	-200.000	0.007	0.041
-184.100	-141.947	0.133	0.013
-183.085	96.361	-0.149	-0.168
-182.071	800.000	-0.103	0.426
-181.056	792.136	0.047	0.128
-180.042	800.000	-0.170	-0.473
-179.027	131.968	0.097	0.124
-178.012	800.000	-0.159	0.501
-176.998	-53.886	-0.100	-0.045
-175.983	-72.841	-0.279	-0.102
-174.969	-200.000	-0.004	0.353
-173.954	381.869	0.109	-0.221
-172.939	800.000	-0.059	-0.207
-171.925	202.441	0.218	-0.332
-170.910	177.526	-0.072	-0.104
-169.896	-64.974	-0.371	0.148
-168.881	-19.237	0.149	0.091
-167.866	185.999	-0.202	0.297
-166.852	-200.000	-0.002	0.020
-165.837	19.061	-0.141	0.112
-164.823	172.913	0.069	0.098
-163.808	-200.000	0.024	-0.219
-162.793	-200.000	-0.044	-0.204
-161.779	-83.784	0.200	-0.063
-160.764	-94.238	-0.105	0.028
-159.750	140.320	0.158	0.206
-158.735	800.000	0.085	0.317
-157.720	77.888	0.088	-0.093
-156.706	185.923	-0.226	0.332
-155.691	-95.767	0.152	-0.040
-154.677	-200.000	0.018	0.135
-153.662	24.946	-0.266	-0.217
-152.647	-145.198	0.307	0.027
-151.633	-94.338	0.176	-0.047
-150.618	600.471	-0.054	0.132
-149.604	285.958	-0.103	0.183
-148.589	110.337	0.120	-0.142
-147.574	800.000	0.024	0.088
-146.560	-18.629	-0.015	0.009
-145.545	-200.000	-0.002	-0.413
-144.531	223.945	0.099	0.158
-143.516	-43.633	-0.210	0.105
-142.502	-33.563	0.188	0.102
-141.487	-200.000	0.011	0.189
-140.472	110.646	0.093	-0.110
-139.458	110.250	-0.156	-0.185
-138.443	800.000	0.058	-0.228
-137.429	-49.305	-0.133	-0.063
-136.414	252.790	-0.054	0.090
-135.399	-51.588	0.200	-0.092
-134.385	-186.306	0.303	0.004
-133.370	75.500	0.155	-0.161
-132.356	257.379	0.089	0.150
-131.341	112.089	0.110	-0.131
-130.326	164.060	-0.169	-0.234
-129.312	-200.000	-0.026	0.267
-128.297	170.745	-0.107	0.151
-127.283	-106.427	-0.262	0.058
-126.268	47.592	0.215	0.197
-125.253	-26.531	-0.274	-0.158
-124.239	-180.362	-0.117	0.002
-123.224	800.000	-0.091	0.294
-122.210	565.006	0.121	0.289
-121.195	-87.270	0.104	-0.031
