DTS Sentinel unit serial number:	SN413079Multiplexer serial number:	ORYXHardware model number:	OX4-SRSoftware version number:	ORYX F/W v4.00 Oryx Data Collector v3.7.2.0data status	okinstallation	princeton_trtdifferential loss correction	single-endedforward channel	channel 3reverse channel	N/Adate	2019/09/12time	07:54:11forward acquisition time	60.00reverse acquisition time	0.00gamma	496.2192k internal	0.2314k external	0.2314temperature offset calibration	1.0032default loss term (dB/km)	0.3790temperature slope calibration	1.0000multiplexer offset coefficient	1.0000multiplexer slope coefficient	1.0000fibre end	0.00T internal ref (°C)	32.94T ext. ref 1 (°C)	1.64T ext. ref 2 (°C)	29.12length (m)	temperature (°C)	Stokes	anti-Stokes-747.200	-200.000	0.016	-0.331
-746.185	-123.371	0.202	-0.033
-745.171	-129.203	-0.304	0.043
-744.156	301.297	0.073	-0.137
-743.142	800.000	0.047	-0.166
-742.127	-8.096	-0.227	0.155
-741.112	71.943	0.082	-0.087
-740.098	274.723	-0.132	-0.236
-739.083	-116.044	-0.184	0.035
-738.069	567.254	-0.124	0.306
-737.054	-200.000	-0.027	0.250
-736.039	-135.992	-0.227	0.027
-735.025	-200.000	0.014	0.099
-734.010	797.942	-0.066	0.185
-732.996	107.498	-0.099	-0.119
-731.981	-123.547	0.286	-0.046
-730.966	126.848	0.111	-0.142
-729.952	-34.085	-0.148	-0.082
-728.937	-200.000	0.014	0.143
-727.923	425.797	-0.092	-0.201
-726.908	-200.000	0.030	0.173
-725.894	342.402	0.050	-0.099
-724.879	-164.265	-0.305	0.014
-723.864	201.199	0.180	-0.281
-722.850	-50.241	-0.107	-0.051
-721.835	27.339	0.141	-0.120
-720.821	-190.529	-0.196	-0.002
-719.806	36.460	0.093	0.083
-718.791	-26.120	-0.131	-0.078
-717.777	-123.944	-0.376	0.060
-716.762	-43.949	0.296	-0.151
-715.748	-200.000	-0.007	-0.230
-714.733	-56.952	0.325	-0.145
-713.718	-200.000	0.006	0.160
-712.704	62.296	-0.105	-0.106
-711.689	99.552	-0.218	0.255
-710.675	800.000	0.070	-0.305
-709.660	-137.948	0.308	0.035
-708.645	-200.000	0.020	0.184
-707.631	18.653	0.497	-0.403
-706.616	-144.110	-0.203	-0.019
-705.602	2.132	0.120	0.088
-704.587	-62.130	0.273	0.115
-703.572	-200.000	-0.008	0.197
-702.558	33.656	0.238	0.209
-701.543	-103.657	-0.105	-0.025
-700.529	96.699	0.184	0.213
-699.514	-200.000	-0.013	-0.123
-698.499	148.509	-0.171	-0.234
-697.485	-150.144	-0.425	0.033
-696.470	569.382	-0.036	-0.089
-695.456	-200.000	-0.006	0.081
-694.441	-118.592	-0.113	0.020
-693.426	-200.000	-0.046	-0.384
-692.412	-114.102	-0.230	-0.045
-691.397	-96.759	0.205	0.055
-690.383	-13.824	0.231	0.151
-689.368	110.297	-0.128	-0.155
-688.354	-200.000	0.020	-0.383
-687.339	-70.504	-0.107	-0.041
-686.324	-40.736	0.224	-0.118
-685.310	97.102	0.043	-0.050
-684.295	110.161	-0.109	0.133
-683.281	-200.000	-0.013	0.185
-682.266	-126.870	-0.485	0.072
-681.251	-74.114	-0.253	-0.093
-680.237	585.127	0.066	-0.164
-679.222	-106.969	0.272	-0.061
-678.208	-89.151	-0.371	-0.111
-677.193	-200.000	-0.033	0.183
-676.178	175.200	0.225	-0.329
-675.164	639.929	0.026	-0.068
-674.149	513.079	0.136	-0.321
-673.135	-200.000	-0.033	-0.363
-672.120	-200.000	0.012	0.139
-671.105	-181.890	-0.272	-0.005
-670.091	68.776	-0.235	0.244
-669.076	-94.764	-0.066	-0.018
-668.062	32.064	-0.065	-0.057
-667.047	-200.000	0.002	-0.124
-666.032	800.000	0.047	0.165
-665.018	196.857	0.197	-0.304
-664.003	800.000	-0.025	0.106
-662.989	800.000	0.022	0.095
-661.974	800.000	-0.083	0.254
-660.959	-45.533	-0.240	0.120
-659.945	-84.036	0.072	-0.023
-658.930	-86.908	0.006	-0.002
-657.916	-42.072	-0.463	0.240
-656.901	14.535	0.248	-0.196
-655.886	168.641	-0.115	0.166
-654.872	-62.479	-0.340	-0.143
-653.857	-17.969	-0.236	-0.149
-652.843	-93.095	-0.113	-0.032
-651.828	-71.954	0.229	0.086
-650.814	63.911	-0.158	-0.161
-649.799	-200.000	0.008	0.092
-648.784	-47.418	-0.046	0.023
-647.770	-4.531	0.013	-0.009
-646.755	-162.610	-0.120	-0.006
-645.741	68.268	0.054	0.055
-644.726	-68.935	-0.206	0.080
-643.711	-200.000	-0.080	-0.375
-642.697	48.297	0.232	-0.219
-641.682	40.958	0.045	-0.041
-640.668	-87.504	-0.312	0.095
-639.653	98.756	0.085	0.099
-638.638	-64.487	-0.113	0.046
-637.624	-97.284	-0.123	-0.032
-636.609	-97.469	-0.209	-0.055
-635.595	-200.000	0.013	-0.123
-634.580	-120.528	-0.273	-0.047
-633.565	-95.537	-0.257	-0.070
-632.551	-99.918	-0.437	-0.110
-631.536	-200.000	-0.014	0.081
-630.522	10.760	0.117	0.090
-629.507	-94.642	-0.412	-0.113
-628.492	-200.000	-0.059	0.284
-627.478	-200.000	0.007	0.064
-626.463	-23.932	-0.102	-0.062
-625.449	143.212	-0.060	0.081
-624.434	-104.670	-0.114	-0.026
-623.419	-5.186	0.207	-0.144
-622.405	-14.149	0.066	0.043
-621.390	-28.173	0.241	0.140
-620.376	139.398	0.191	-0.253
-619.361	504.610	-0.098	-0.228
-618.346	-146.947	0.184	-0.016
-617.332	-200.000	0.009	-0.095
-616.317	-75.881	-0.399	-0.143
-615.303	-200.000	-0.011	-0.148
-614.288	169.374	-0.176	-0.253
-613.273	-200.000	-0.036	-0.167
-612.259	61.418	0.062	-0.062
-611.244	800.000	0.062	-0.178
-610.230	126.859	0.065	0.083
-609.215	745.129	0.124	-0.336
-608.201	-200.000	-0.098	-0.495
-607.186	179.040	0.050	0.074
-606.171	43.297	-0.081	0.075
-605.157	-37.135	-0.127	-0.069
-604.142	800.000	0.120	0.405
-603.128	170.607	0.121	0.174
-602.113	-50.969	-0.160	-0.076
-601.098	30.318	0.111	0.095
-600.084	-168.092	0.203	0.008
-599.069	800.000	0.114	-0.321
-598.055	-95.961	0.166	0.045
-597.040	155.142	-0.094	0.131
-596.025	800.000	0.012	-0.040
-595.011	-153.161	-0.228	-0.016
-593.996	-85.156	0.277	-0.087
-592.982	-200.000	0.034	-0.200
-591.967	-160.109	0.155	-0.009
-590.952	-84.505	-0.228	0.073
-589.938	-115.498	0.151	-0.029
-588.923	-52.615	-0.212	-0.099
-587.909	-193.448	0.267	0.002
-586.894	339.203	-0.049	0.096
-585.879	27.492	0.228	0.193
-584.865	113.885	0.134	-0.164
-583.850	-64.979	0.068	0.028
-582.836	80.377	-0.119	-0.129
-581.821	-80.235	0.357	0.120
-580.806	341.337	-0.086	-0.169
-579.792	328.450	-0.071	-0.138
-578.777	6.136	0.046	0.034
-577.763	-1.455	-0.171	0.121
-576.748	800.000	-0.031	-0.106
-575.733	-80.730	-0.242	-0.081
-574.719	70.826	0.168	0.175
-573.704	-12.795	-0.331	-0.217
-572.690	181.079	-0.038	0.057
-571.675	-200.000	0.008	-0.044
-570.661	-74.581	0.368	-0.133
-569.646	180.180	-0.057	-0.084
-568.631	71.213	-0.052	-0.055
-567.617	-117.245	-0.072	0.013
-566.602	318.492	0.058	0.112
-565.588	-33.637	0.344	0.191
-564.573	-75.591	0.280	0.100
-563.558	-86.197	-0.330	0.103
-562.544	150.166	0.237	-0.323
-561.529	4.136	0.168	-0.124
-560.515	313.301	-0.197	0.373
-559.500	95.614	0.230	0.264
-558.485	-200.000	-0.107	0.472
-557.471	-54.698	0.261	-0.119
-556.456	729.906	-0.174	-0.467
-555.442	401.913	0.027	-0.058
-554.427	800.000	0.108	0.320
-553.412	800.000	0.084	0.334
-552.398	-79.723	-0.108	-0.037
-551.383	50.544	0.180	0.171
-550.369	-35.123	0.028	0.015
-549.354	-151.548	0.183	0.014
-548.339	118.073	0.207	-0.257
-547.325	800.000	0.066	0.246
-546.310	-28.670	0.151	0.088
-545.296	800.000	-0.046	-0.193
-544.281	-200.000	0.025	-0.129
-543.266	-5.900	-0.083	-0.057
-542.252	-47.688	-0.264	-0.129
-541.237	-1.061	0.013	0.009
-540.223	800.000	0.050	0.196
-539.208	-84.029	-0.064	0.020
-538.193	-168.465	0.221	-0.009
-537.179	-99.944	0.359	0.090
-536.164	266.868	0.064	-0.113
-535.150	216.018	0.058	-0.093
-534.135	286.460	-0.190	0.346
-533.121	-74.373	0.331	0.120
-532.106	106.366	-0.206	-0.245
-531.091	-172.647	0.086	-0.003
-530.077	800.000	-0.133	-0.467
-529.062	85.372	-0.099	-0.110
-528.048	3.408	0.268	0.196
-527.033	-158.147	0.405	0.024
-526.018	325.718	0.084	0.162
-525.004	-156.733	0.305	0.019
-523.989	173.330	-0.127	-0.184
-522.975	47.633	0.103	0.097
-521.960	159.753	0.147	0.205
-520.945	-55.819	0.114	-0.051
-519.931	-77.711	-0.069	0.024
-518.916	40.253	0.200	0.181
-517.902	220.859	-0.205	-0.330
-516.887	800.000	-0.055	-0.182
-515.872	-200.000	0.002	-0.204
-514.858	42.893	-0.070	-0.064
-513.843	-200.000	0.006	-0.185
-512.829	56.697	0.211	0.207
-511.814	166.477	0.174	0.247
-510.799	553.650	-0.093	-0.226
-509.785	66.889	0.118	-0.121
-508.770	132.638	-0.281	-0.364
-507.756	253.463	-0.182	-0.312
-506.741	63.615	0.222	0.224
-505.726	-190.683	-0.089	-0.001
-504.712	73.051	-0.079	-0.083
-503.697	800.000	0.049	0.147
-502.683	229.328	-0.031	0.051
-501.668	-200.000	-0.034	0.410
-500.653	-146.225	0.163	0.014
-499.639	-200.000	-0.001	0.153
-498.624	-139.572	-0.151	-0.016
-497.610	-47.038	-0.248	-0.122
-496.595	-7.634	-0.230	0.156
-495.581	-7.119	-0.131	-0.089
-494.566	800.000	-0.055	-0.227
-493.551	569.792	0.040	0.098
-492.537	-38.453	-0.191	-0.101
-491.522	278.486	0.063	-0.113
-490.508	65.368	-0.119	-0.121
-489.493	47.172	-0.127	-0.119
-488.478	137.625	-0.124	-0.164
-487.464	61.833	-0.155	0.155
-486.449	-61.784	-0.221	0.093
-485.435	800.000	0.078	-0.330
-484.420	186.042	-0.038	-0.057
-483.405	-95.632	-0.195	-0.052
-482.391	-120.209	-0.298	0.051
-481.376	-200.000	0.004	0.021
-480.362	-72.728	-0.357	0.132
-479.347	-91.033	0.282	-0.081
-478.332	240.598	-0.072	0.121
-477.318	-112.801	0.139	0.028
-476.303	-120.718	0.182	0.031
-475.289	221.738	0.135	-0.218
-474.274	-200.000	-0.003	0.162
-473.259	800.000	0.121	0.428
-472.245	-200.000	-0.038	-0.270
-471.230	285.327	-0.133	0.240
-470.216	-200.000	0.003	0.248
-469.201	800.000	0.034	0.105
-468.186	800.000	0.054	-0.202
-467.172	-46.282	0.173	0.085
-466.157	-200.000	0.005	-0.404
-465.143	270.542	-0.154	-0.272
-464.128	-128.640	-0.034	-0.005
-463.113	234.595	-0.060	-0.099
-462.099	800.000	-0.010	0.029
-461.084	433.495	-0.154	0.334
-460.070	-22.974	-0.127	0.077
-459.055	625.560	0.091	0.229
-458.040	-48.823	-0.261	-0.126
-457.026	-200.000	-0.006	0.052
-456.011	-65.939	-0.202	0.081
-454.997	209.008	0.025	0.040
-453.982	649.224	0.147	0.376
-452.968	-33.691	0.160	0.088
-451.953	800.000	-0.118	-0.346
-450.938	65.435	-0.259	0.263
-449.924	555.061	0.052	-0.124
-448.909	-68.699	0.351	0.136
-447.895	-200.000	-0.002	-0.044
-446.880	-118.560	-0.194	-0.034
-445.865	80.027	0.103	0.111
-444.851	56.279	-0.193	-0.188
-443.836	26.884	-0.344	0.289
-442.822	-77.908	-0.134	-0.046
-441.807	258.868	-0.076	0.131
-440.792	111.490	0.076	0.092
-439.778	-84.456	0.438	-0.139
-438.763	7.213	0.260	0.195
-437.749	-128.733	-0.244	0.035
-436.734	800.000	0.018	-0.074
-435.719	7.891	-0.010	0.007
-434.705	104.948	0.163	0.193
-433.690	-200.000	0.009	0.123
-432.676	192.712	-0.013	-0.020
-431.661	-100.910	0.354	0.087
-430.646	-200.000	0.028	0.428
-429.632	800.000	-0.053	-0.169
-428.617	-33.745	-0.211	-0.116
-427.603	800.000	0.149	0.505
-426.588	17.976	0.247	-0.197
-425.573	99.383	0.134	-0.155
-424.559	-200.000	-0.067	0.413
-423.544	255.067	0.100	0.171
-422.530	-97.751	-0.169	0.044
-421.515	-200.000	0.028	0.132
-420.500	51.592	-0.078	-0.074
-419.486	-200.000	0.004	0.026
-418.471	172.453	0.185	0.267
-417.457	512.316	-0.087	0.203
-416.442	-103.328	0.039	0.009
-415.428	551.317	-0.096	-0.231
-414.413	-44.799	0.085	0.043
-413.398	-200.000	-0.031	0.219
-412.384	51.203	0.099	-0.094
-411.369	-176.774	0.290	0.007
-410.355	-190.752	0.301	0.003
-409.340	132.468	-0.183	0.236
-408.325	-15.109	-0.053	0.034
-407.311	-112.136	0.250	-0.050
-406.296	476.554	0.072	-0.163
-405.282	281.365	0.047	0.085
-404.267	800.000	0.086	0.370
-403.252	78.072	-0.177	0.188
-402.238	-141.923	0.175	0.017
-401.223	-42.087	-0.180	0.092
-400.209	215.289	0.167	-0.265
-399.194	-126.779	0.270	0.040
-398.179	-153.588	0.251	0.017
-397.165	-32.349	0.408	0.227
-396.150	800.000	-0.033	0.111
-395.136	172.647	0.165	0.237
-394.121	20.037	-0.292	-0.235
-393.106	107.681	-0.121	-0.144
-392.092	5.010	-0.211	-0.155
-391.077	107.424	0.102	0.121
-390.063	57.106	-0.251	0.245
-389.048	56.731	0.053	0.051
-388.033	19.260	-0.206	0.166
-387.019	568.551	0.110	-0.268
-386.004	-200.000	-0.008	0.208
-384.990	264.032	-0.145	-0.252
-383.975	-169.663	0.076	0.003
-382.960	-181.912	0.068	0.001
-381.946	266.122	-0.139	0.243
-380.931	800.000	-0.107	-0.432
-379.917	-18.251	0.198	0.124
-378.902	178.490	-0.219	0.319
-377.888	667.556	-0.105	-0.271
-376.873	-79.276	-0.188	0.064
-375.858	471.616	-0.033	-0.075
-374.844	-200.000	0.002	0.048
-373.829	229.951	0.039	-0.063
-372.815	-113.774	-0.363	-0.071
-371.800	459.192	0.172	-0.381
-370.785	96.978	-0.146	-0.168
-369.771	-165.498	0.383	0.017
-368.756	-200.000	0.053	0.536
-367.742	-29.374	0.209	0.120
-366.727	800.000	0.084	-0.346
-365.712	212.705	-0.193	0.304
-364.698	-200.000	0.014	0.105
-363.683	778.904	0.106	-0.289
-362.669	-200.000	-0.008	-0.361
-361.654	2.635	0.229	0.166
-360.639	-57.358	-0.083	-0.036
-359.625	9.653	-0.282	-0.213
-358.610	-132.738	0.188	0.024
-357.596	-159.341	0.317	0.018
-356.581	-134.048	0.172	-0.021
-355.566	-200.000	0.032	-0.158
-354.552	614.408	0.054	-0.136
-353.537	82.022	-0.224	-0.242
-352.523	-200.000	-0.058	-0.282
-351.508	-48.997	0.105	0.050
-350.493	190.263	-0.108	0.162
-349.479	387.015	0.168	-0.347
-348.464	32.536	0.202	0.174
-347.450	-110.443	-0.054	0.011
-346.435	800.000	-0.073	-0.242
-345.420	-19.320	-0.024	0.015
-344.406	-198.196	0.033	-0.000
-343.391	-200.000	-0.008	-0.252
-342.377	800.000	0.115	-0.339
-341.362	-56.798	-0.031	0.014
-340.348	22.231	-0.218	0.178
-339.333	-58.168	-0.117	-0.051
-338.318	-200.000	-0.042	0.215
-337.304	53.441	-0.098	-0.093
-336.289	800.000	0.062	-0.208
-335.275	283.409	-0.154	-0.276
-334.260	-21.011	-0.142	-0.087
-333.245	111.418	0.012	-0.014
-332.231	-167.371	0.125	0.005
-331.216	-54.229	0.397	0.180
-330.202	22.647	-0.435	0.356
-329.187	-5.715	-0.158	-0.108
-328.172	-200.000	0.015	-0.217
-327.158	-158.410	0.145	-0.008
-326.143	-200.000	-0.000	0.014
-325.129	17.220	0.049	0.039
-324.114	-106.885	-0.187	0.041
-323.099	54.523	-0.313	0.301
-322.085	-200.000	-0.039	0.289
-321.070	-200.000	-0.025	-0.124
-320.056	-147.216	0.180	-0.015
-319.041	12.287	-0.223	-0.171
-318.026	-200.000	0.017	-0.125
-317.012	-200.000	-0.011	0.208
-315.997	-66.896	-0.173	0.068
-314.983	15.885	0.228	0.179
-313.968	-200.000	0.071	-0.364
-312.953	13.221	-0.055	0.042
-311.939	-190.788	0.150	0.002
-310.924	-50.506	0.073	-0.034
-309.910	548.871	-0.121	-0.289
-308.895	85.603	0.208	0.228
-307.880	800.000	-0.099	0.275
-306.866	-12.591	0.158	0.103
-305.851	645.588	0.147	-0.375
-304.837	24.934	-0.282	-0.233
-303.822	143.854	0.184	-0.245
-302.807	800.000	0.072	-0.217
-301.793	481.253	-0.117	-0.265
-300.778	800.000	0.059	0.190
-299.764	725.980	-0.015	-0.039
-298.749	53.346	-0.117	-0.111
-297.735	150.029	0.042	-0.057
-296.720	70.941	-0.044	-0.046
-295.705	-83.201	-0.195	0.062
-294.691	458.885	0.088	0.195
-293.676	57.265	0.316	0.307
-292.662	258.042	0.172	-0.295
-291.647	-118.456	-0.056	0.010
-290.632	14.982	-0.406	-0.316
-289.618	711.278	0.100	-0.265
-288.603	800.000	0.059	-0.205
-287.589	800.000	0.039	0.153
-286.574	-200.000	0.005	0.397
-285.559	30.318	0.110	-0.094
-284.545	299.369	-0.161	0.295
-283.530	-59.957	-0.294	-0.125
-282.516	800.000	-0.079	-0.251
-281.501	-71.496	0.273	-0.102
-280.486	-76.073	0.242	-0.085
-279.472	-200.000	0.006	-0.087
-278.457	-200.000	-0.019	0.143
-277.443	-177.535	-0.407	0.010
-276.428	16.807	-0.072	0.056
-275.413	513.325	0.043	-0.100
-274.399	40.918	-0.066	-0.060
-273.384	28.173	0.272	0.228
-272.370	-200.000	-0.058	0.303
-271.355	-200.000	0.001	-0.311
-270.340	353.735	0.054	0.106
-269.326	-61.110	0.114	-0.048
-268.311	-200.000	-0.004	-0.166
-267.297	76.133	-0.215	0.226
-266.282	-54.086	-0.136	-0.062
-265.267	-113.643	0.091	-0.018
-264.253	297.222	-0.245	0.448
-263.238	-173.202	-0.155	0.005
-262.224	-68.070	0.231	-0.090
-261.209	-161.932	-0.122	-0.006
-260.195	48.235	0.121	0.113
-259.180	311.513	-0.054	-0.102
-258.165	-38.255	0.386	-0.203
-257.151	-102.812	-0.144	-0.034
-256.136	145.817	-0.127	-0.170
-255.122	-200.000	0.074	-0.402
-254.107	-171.251	0.051	-0.002
-253.092	29.835	-0.143	0.121
-252.078	433.021	0.058	-0.126
-251.063	449.466	0.061	-0.133
-250.049	-200.000	-0.046	0.287
-249.034	583.673	0.141	-0.344
-248.019	-38.729	0.114	-0.060
-247.005	61.556	-0.131	-0.130
-245.990	-119.048	-0.304	0.053
-244.976	-82.002	0.159	-0.052
-243.961	-200.000	-0.022	-0.304
-242.946	-200.000	-0.067	-0.343
-241.932	134.132	-0.152	0.196
-240.917	-126.274	-0.338	-0.050
-239.903	-200.000	-0.024	-0.135
-238.888	586.728	0.094	0.231
-237.873	-200.000	0.038	0.242
-236.859	800.000	-0.036	-0.105
-235.844	800.000	-0.031	-0.124
-234.830	800.000	0.142	0.392
-233.815	800.000	0.017	0.061
-232.800	-99.760	-0.289	-0.072
-231.786	-156.343	0.313	-0.020
-230.771	203.285	0.120	0.184
-229.757	667.515	-0.136	-0.350
-228.742	-174.324	-0.105	-0.003
-227.727	800.000	-0.065	0.269
-226.713	-200.000	0.040	0.358
-225.698	-16.290	-0.123	0.078
-224.684	-45.714	-0.314	0.154
-223.669	800.000	-0.087	0.301
-222.655	-163.098	0.264	-0.013
-221.640	-108.889	0.090	-0.019
-220.625	800.000	-0.037	-0.109
-219.611	-200.000	-0.040	0.271
-218.596	22.694	-0.110	-0.090
-217.582	800.000	0.079	0.247
-216.567	-103.674	0.125	-0.029
-215.552	-51.423	0.220	-0.102
-214.538	95.013	0.111	-0.125
-213.523	458.869	0.108	0.239
-212.509	800.000	-0.085	0.325
-211.494	29.482	-0.058	-0.049
-210.479	-200.000	-0.050	0.222
-209.465	-200.000	-0.031	0.306
-208.450	15.277	0.240	-0.187
-207.436	572.869	-0.100	-0.242
-206.421	-200.000	0.049	-0.220
-205.406	-179.640	-0.244	-0.005
-204.392	68.012	-0.131	0.134
-203.377	604.801	-0.075	0.186
-202.363	-189.220	-0.349	0.004
-201.348	78.709	-0.111	0.117
-200.333	71.454	0.106	0.109
-199.319	-113.704	-0.274	-0.053
-198.304	-200.000	-0.000	0.080
-197.290	1.314	0.111	0.079
-196.275	-40.659	0.084	0.043
-195.260	-200.000	-0.021	0.392
-194.246	-95.525	0.197	-0.052
-193.231	-200.000	-0.000	0.027
-192.217	167.790	0.111	0.157
-191.202	-200.000	0.019	-0.289
-190.187	800.000	0.031	0.090
-189.173	-200.000	0.098	-0.503
-188.158	-200.000	-0.010	-0.132
-187.144	71.069	-0.156	-0.160
-186.129	-73.380	-0.155	0.056
-185.114	60.091	0.163	0.160
-184.100	-106.015	-0.206	-0.046
-183.085	121.336	-0.158	0.195
-182.071	-200.000	-0.054	0.252
-181.056	-125.884	0.389	-0.058
-180.042	-119.748	0.073	0.013
-179.027	-0.088	-0.142	0.101
-178.012	-101.560	0.128	-0.031
-176.998	-200.000	-0.004	-0.551
-175.983	-19.531	0.292	0.179
-174.969	-92.835	-0.118	0.033
-173.954	27.181	-0.243	0.202
-172.939	800.000	0.098	0.308
-171.925	-55.816	0.180	0.080
-170.910	97.846	0.104	-0.119
-169.896	468.962	-0.045	0.101
-168.881	30.427	-0.141	0.119
-167.866	-165.694	0.316	-0.014
-166.852	-8.473	-0.084	0.056
-165.837	-124.027	-0.367	-0.057
-164.823	415.139	-0.032	0.067
-163.808	-200.000	0.006	0.131
-162.793	-200.000	-0.012	0.120
-161.779	-47.194	0.216	-0.104
-160.764	-14.081	0.223	0.143
-159.750	-200.000	0.004	-0.223
-158.735	-28.490	-0.252	-0.144
-157.720	-67.523	0.274	0.107
-156.706	-55.619	0.095	0.042
-155.691	-17.734	-0.188	0.117
-154.677	-166.862	-0.071	0.003
-153.662	-56.295	0.181	0.080
-152.647	800.000	-0.070	-0.270
-151.633	78.132	-0.143	0.151
-150.618	-133.915	-0.556	-0.068
-149.604	65.355	0.349	0.350
-148.589	-70.054	0.321	-0.121
-147.574	-200.000	0.046	-0.281
-146.560	69.548	-0.049	-0.050
-145.545	-131.562	-0.313	-0.041
-144.531	10.600	0.228	-0.172
-143.516	-200.000	-0.012	-0.070
-142.502	-158.903	0.225	-0.013
-141.487	165.057	0.216	-0.301
-140.472	66.556	-0.257	0.258
-139.458	43.273	-0.162	-0.146
-138.443	274.024	0.053	0.093
-137.429	126.182	0.131	0.164
-136.414	800.000	0.062	0.169
-135.399	800.000	-0.047	-0.180
-134.385	604.613	0.079	-0.195
-133.370	-182.484	-0.165	-0.003
-132.356	144.679	-0.184	-0.244
-131.341	6.852	0.177	0.130
-130.326	10.671	0.076	0.057
-129.312	-161.842	-0.286	0.014
-128.297	-81.103	-0.066	0.022
-127.283	46.765	0.163	-0.150
-126.268	-16.948	0.137	-0.086
-125.253	354.468	-0.117	-0.230
-124.239	-75.558	-0.304	0.107
-123.224	-174.644	0.310	0.009
-122.210	543.485	0.105	0.247
-121.195	-124.528	0.380	-0.058
