DTS Sentinel unit serial number:	SN413079Multiplexer serial number:	ORYXHardware model number:	OX4-SRSoftware version number:	ORYX F/W v4.00 Oryx Data Collector v3.7.2.0data status	okinstallation	princeton_trtdifferential loss correction	single-endedforward channel	channel 3reverse channel	N/Adate	2019/09/12time	20:24:35forward acquisition time	60.00reverse acquisition time	0.00gamma	496.2192k internal	0.2323k external	0.2323temperature offset calibration	1.0122default loss term (dB/km)	0.3790temperature slope calibration	1.0000multiplexer offset coefficient	1.0000multiplexer slope coefficient	1.0000fibre end	0.00T internal ref (°C)	31.37T ext. ref 1 (°C)	3.49T ext. ref 2 (°C)	25.96length (m)	temperature (°C)	Stokes	anti-Stokes-747.200	-200.000	-0.014	0.105
-746.185	-128.110	-0.165	0.024
-745.171	-70.621	0.105	0.040
-744.156	-200.000	0.033	0.151
-743.142	-200.000	-0.011	-0.209
-742.127	-99.760	0.143	0.036
-741.112	59.107	0.048	0.048
-740.098	-58.490	-0.192	0.084
-739.083	800.000	-0.102	-0.391
-738.069	11.849	0.173	0.134
-737.054	800.000	-0.047	0.169
-736.039	-119.932	-0.213	0.037
-735.025	-103.149	-0.160	0.038
-734.010	-70.071	-0.167	0.064
-732.996	4.422	-0.222	0.164
-731.981	-67.221	-0.358	0.142
-730.966	-139.206	-0.454	0.049
-729.952	800.000	0.086	-0.271
-728.937	-108.836	0.256	-0.055
-727.923	-200.000	-0.003	-0.074
-726.908	-73.342	-0.088	0.033
-725.894	166.153	-0.162	-0.232
-724.879	-200.000	-0.013	-0.221
-723.864	234.148	-0.153	-0.254
-722.850	800.000	0.165	-0.468
-721.835	22.696	0.154	0.127
-720.821	199.129	0.053	0.082
-719.806	-200.000	0.024	-0.135
-718.791	-200.000	0.050	-0.393
-717.777	17.365	0.095	0.076
-716.762	258.920	-0.059	0.102
-715.748	-123.191	-0.029	0.005
-714.733	800.000	0.076	-0.215
-713.718	-17.082	0.207	0.132
-712.704	800.000	-0.057	-0.160
-711.689	-200.000	-0.009	0.243
-710.675	-179.278	0.298	0.007
-709.660	800.000	-0.029	0.126
-708.645	178.938	-0.196	0.290
-707.631	236.582	0.017	0.028
-706.616	422.114	-0.190	0.411
-705.602	-65.009	0.330	-0.135
-704.587	-150.793	-0.188	-0.014
-703.572	-145.568	-0.140	-0.013
-702.558	442.518	-0.117	-0.259
-701.543	187.914	-0.149	0.225
-700.529	589.633	0.120	-0.297
-699.514	-54.097	-0.348	-0.160
-698.499	41.310	0.030	0.028
-697.485	-59.135	0.297	0.129
-696.470	-133.246	-0.177	0.023
-695.456	-132.656	-0.403	-0.052
-694.441	55.873	0.159	0.155
-693.426	225.412	-0.010	-0.017
-692.412	800.000	0.023	-0.088
-691.397	-82.752	0.185	-0.060
-690.383	800.000	-0.093	0.284
-689.368	-33.967	-0.235	-0.131
-688.354	-200.000	-0.055	-0.250
-687.339	-79.606	0.301	0.102
-686.324	-151.357	-0.359	-0.027
-685.310	-51.219	-0.231	-0.109
-684.295	32.044	-0.178	-0.155
-683.281	-81.403	-0.304	0.101
-682.266	-52.204	-0.381	-0.178
-681.251	-51.383	-0.335	-0.158
-680.237	10.378	0.535	-0.411
-679.222	-200.000	0.002	0.017
-678.208	-200.000	-0.028	-0.292
-677.193	304.196	0.138	-0.258
-676.178	-200.000	0.032	-0.399
-675.164	164.067	-0.088	0.125
-674.149	56.581	-0.193	-0.189
-673.135	-17.370	-0.252	-0.160
-672.120	632.217	-0.088	0.225
-671.105	-10.081	-0.237	0.159
-670.091	153.734	0.232	-0.320
-669.076	228.116	-0.177	-0.290
-668.062	-124.506	0.283	-0.044
-667.047	-200.000	-0.015	0.156
-666.032	-55.493	-0.358	-0.162
-665.018	28.153	-0.131	-0.112
-664.003	-50.856	0.081	-0.038
-662.989	-3.084	0.234	-0.165
-661.974	-67.749	-0.151	-0.059
-660.959	-151.480	0.457	-0.034
-659.945	423.946	-0.031	0.066
-658.930	800.000	0.022	-0.096
-657.916	57.872	-0.070	0.069
-656.901	102.317	-0.142	-0.167
-655.886	-41.316	0.103	-0.054
-654.872	119.458	0.129	0.161
-653.857	302.232	0.168	-0.313
-652.843	-200.000	0.012	-0.095
-651.828	-17.966	-0.203	0.128
-650.814	-200.000	-0.027	-0.174
-649.799	471.969	0.055	0.125
-648.784	-117.137	-0.316	0.058
-647.770	-200.000	0.056	-0.343
-646.755	224.798	0.077	0.126
-645.741	800.000	0.059	-0.194
-644.726	138.507	-0.302	0.399
-643.711	-103.186	0.113	-0.027
-642.697	143.807	-0.151	-0.202
-641.682	-9.182	0.204	-0.137
-640.668	-200.000	-0.020	0.129
-639.653	-200.000	-0.041	-0.375
-638.638	-33.534	0.179	0.099
-637.624	91.431	0.245	0.277
-636.609	-177.966	-0.251	0.006
-635.595	-92.369	-0.075	-0.021
-634.580	-150.405	-0.080	0.006
-633.565	91.822	0.089	0.101
-632.551	800.000	-0.094	0.413
-631.536	-7.034	0.341	0.233
-630.522	228.134	-0.068	-0.111
-629.507	-122.933	-0.336	-0.054
-628.492	-50.344	0.268	-0.127
-627.478	89.433	0.071	0.080
-626.463	-200.000	0.047	-0.286
-625.449	-106.065	-0.073	0.016
-624.434	790.655	-0.101	0.279
-623.419	-55.276	-0.034	0.015
-622.405	188.485	-0.024	-0.036
-621.390	800.000	0.102	-0.345
-620.376	-200.000	-0.016	-0.242
-619.361	-29.442	-0.037	-0.021
-618.346	-79.688	0.187	-0.063
-617.332	159.815	-0.054	0.076
-616.317	121.554	-0.237	0.297
-615.303	-0.446	0.310	-0.221
-614.288	22.788	-0.185	0.153
-613.273	288.024	0.203	-0.369
-612.259	800.000	0.054	0.220
-611.244	-106.649	-0.450	0.101
-610.230	40.528	-0.140	-0.127
-609.215	79.619	-0.185	-0.200
-608.201	683.043	0.126	0.331
-607.186	-174.293	0.061	-0.002
-606.171	66.455	-0.121	0.124
-605.157	800.000	0.090	0.330
-604.142	-200.000	-0.015	0.222
-603.128	-33.583	-0.111	-0.062
-602.113	-200.000	0.017	0.509
-601.098	-50.944	0.160	-0.075
-600.084	73.356	0.174	-0.182
-599.069	800.000	0.072	0.245
-598.055	-200.000	0.010	0.055
-597.040	115.093	0.154	-0.189
-596.025	205.182	0.147	-0.229
-595.011	800.000	0.031	-0.111
-593.996	-99.659	0.144	0.036
-592.982	402.058	-0.098	0.208
-591.967	-128.545	0.247	0.035
-590.952	-9.987	0.229	-0.153
-589.938	-87.915	-0.315	-0.095
-588.923	-155.975	0.163	-0.010
-587.909	800.000	0.008	0.025
-586.894	-114.075	0.142	0.028
-585.879	-25.656	0.036	0.022
-584.865	-200.000	-0.063	-0.277
-583.850	-102.658	0.225	-0.054
-582.836	-96.475	-0.137	0.036
-581.821	-200.000	-0.024	-0.529
-580.806	303.931	-0.073	0.135
-579.792	-105.206	-0.174	0.040
-578.777	-200.000	-0.004	0.034
-577.763	28.598	0.218	-0.185
-576.748	481.290	0.042	0.095
-575.733	-200.000	-0.013	-0.153
-574.719	-44.616	0.114	-0.057
-573.704	800.000	-0.100	-0.423
-572.690	-48.182	0.269	-0.131
-571.675	659.040	-0.047	-0.121
-570.661	-75.670	-0.095	-0.034
-569.646	-95.470	0.249	-0.067
-568.631	-200.000	0.008	0.048
-567.617	-99.490	-0.250	0.063
-566.602	153.646	0.041	0.057
-565.588	800.000	-0.134	-0.376
-564.573	-93.759	-0.108	0.030
-563.558	23.972	-0.111	-0.092
-562.544	143.247	-0.075	-0.101
-561.529	23.551	-0.105	-0.087
-560.515	-200.000	0.035	-0.154
-559.500	800.000	-0.057	-0.171
-558.485	344.090	0.097	-0.191
-557.471	69.694	0.128	0.133
-556.456	467.245	0.014	0.031
-555.442	6.671	0.310	0.231
-554.427	211.399	-0.162	0.256
-553.412	-42.763	0.055	-0.028
-552.398	-200.000	-0.040	-0.283
-551.383	534.652	-0.082	-0.195
-550.369	-35.389	0.307	0.167
-549.354	800.000	-0.032	-0.128
-548.339	181.128	0.108	-0.159
-547.325	-113.832	-0.227	0.044
-546.310	91.934	-0.101	0.114
-545.296	55.834	0.133	-0.129
-544.281	-200.000	-0.024	-0.316
-543.266	66.444	0.039	0.039
-542.252	38.688	-0.115	0.103
-541.237	2.922	-0.271	-0.197
-540.223	-92.375	0.199	-0.056
-539.208	-89.655	0.176	0.052
-538.193	-200.000	0.011	-0.235
-537.179	151.592	0.098	0.134
-536.164	-200.000	-0.001	0.153
-535.150	91.480	-0.056	0.063
-534.135	-193.990	-0.285	-0.002
-533.121	-200.000	-0.046	0.244
-532.106	-91.944	-0.287	0.081
-531.091	-146.597	0.141	-0.012
-530.077	800.000	-0.007	0.021
-529.062	539.570	0.042	-0.100
-528.048	-3.599	0.250	-0.174
-527.033	-119.839	0.088	0.015
-526.018	64.478	0.305	0.308
-525.004	8.878	-0.208	-0.157
-523.989	-94.273	-0.218	0.060
-522.975	16.972	0.276	-0.219
-521.960	-71.731	-0.233	-0.087
-520.945	-91.557	0.172	0.049
-519.931	37.550	-0.094	0.084
-518.916	-121.450	0.460	-0.077
-517.902	-92.918	-0.113	-0.032
-516.887	-200.000	0.090	0.543
-515.872	-200.000	0.006	-0.342
-514.858	96.339	0.163	-0.187
-513.843	70.731	0.210	0.217
-512.829	-17.751	0.058	0.036
-511.814	-200.000	0.001	0.167
-510.799	141.678	-0.051	-0.068
-509.785	450.310	-0.123	-0.272
-508.770	115.377	-0.179	-0.218
-507.756	-63.867	-0.103	-0.042
-506.741	-4.222	-0.104	-0.072
-505.726	-200.000	0.022	0.309
-504.712	325.459	-0.091	-0.175
-503.697	28.243	0.091	0.077
-502.683	-24.240	-0.173	-0.103
-501.668	536.284	0.067	0.159
-500.653	470.466	0.043	-0.098
-499.639	-112.300	0.321	-0.064
-498.624	116.364	0.104	-0.128
-497.610	301.040	-0.122	-0.226
-496.595	-133.714	0.394	-0.049
-495.581	-97.523	-0.053	0.014
-494.566	-200.000	-0.003	0.342
-493.551	-42.106	0.369	-0.189
-492.537	154.385	-0.103	0.142
-491.522	-134.894	0.149	-0.018
-490.508	15.732	-0.123	0.097
-489.493	-51.553	-0.425	0.198
-488.478	-132.283	0.293	-0.038
-487.464	-172.035	-0.211	0.007
-486.449	-200.000	0.072	-0.321
-485.435	168.034	0.264	-0.375
-484.420	-200.000	-0.012	-0.181
-483.405	-157.650	0.127	-0.008
-482.391	-38.776	-0.135	0.071
-481.376	-200.000	0.001	0.055
-480.362	148.214	-0.158	0.213
-479.347	-200.000	-0.002	0.254
-478.332	-200.000	-0.020	0.104
-477.318	3.108	0.170	0.124
-476.303	-200.000	-0.009	0.138
-475.289	18.596	-0.095	-0.076
-474.274	-200.000	0.020	-0.232
-473.259	800.000	0.081	-0.264
-472.245	-93.728	-0.077	0.021
-471.230	-117.787	0.073	0.013
-470.216	-200.000	-0.002	-0.368
-469.201	611.780	0.075	-0.187
-468.186	-125.398	0.332	-0.051
-467.172	800.000	-0.063	0.264
-466.157	800.000	0.100	-0.346
-465.143	-200.000	-0.030	-0.231
-464.128	-96.779	-0.175	-0.046
-463.113	720.434	-0.010	-0.028
-462.099	800.000	-0.019	-0.060
-461.084	-200.000	0.035	0.000
-460.070	-6.674	-0.202	0.138
-459.055	800.000	-0.177	0.533
-458.040	-200.000	0.014	0.204
-457.026	-46.812	-0.098	0.048
-456.011	-158.089	0.151	0.009
-454.997	-97.111	-0.097	-0.025
-453.982	-67.303	0.159	0.062
-452.968	-157.737	-0.260	-0.015
-451.953	-22.556	-0.125	0.076
-450.938	-200.000	0.013	-0.231
-449.924	563.679	0.063	-0.153
-448.909	800.000	0.073	-0.299
-447.895	-132.716	0.273	0.035
-446.880	-46.937	-0.250	-0.122
-445.865	-200.000	0.011	0.059
-444.851	-132.917	-0.335	0.043
-443.836	-200.000	0.035	-0.378
-442.822	-200.000	-0.003	-0.187
-441.807	1.042	-0.099	-0.071
-440.792	575.927	0.125	-0.305
-439.778	-32.006	0.177	0.099
-438.763	174.631	0.046	-0.067
-437.749	-47.019	0.261	-0.127
-436.734	-18.123	0.072	-0.045
-435.719	-33.469	-0.234	-0.129
-434.705	28.399	0.100	-0.085
-433.690	-42.837	0.192	-0.097
-432.676	0.067	0.171	-0.122
-431.661	-7.249	-0.351	0.237
-430.646	-200.000	-0.114	0.513
-429.632	250.395	0.114	0.193
-428.617	-200.000	-0.001	0.383
-427.603	9.602	-0.053	0.040
-426.588	12.821	0.186	-0.144
-425.573	129.511	0.394	-0.502
-424.559	-47.081	-0.352	-0.171
-423.544	-110.654	0.048	0.010
-422.530	570.371	0.007	-0.017
-421.515	303.170	-0.095	0.176
-420.500	-143.052	-0.131	-0.013
-419.486	-200.000	-0.017	-0.144
-418.471	32.948	-0.076	-0.066
-417.457	800.000	0.009	0.034
-416.442	40.739	-0.449	0.404
-415.428	-200.000	-0.101	-0.564
-414.413	16.267	0.226	-0.178
-413.398	37.883	-0.103	0.091
-412.384	288.941	0.014	-0.025
-411.369	58.249	0.283	0.276
-410.355	-21.185	0.264	-0.161
-409.340	31.298	0.164	-0.140
-408.325	35.348	0.190	0.166
-407.311	129.979	0.207	0.264
-406.296	186.490	-0.175	-0.259
-405.282	-200.000	-0.011	0.145
-404.267	-200.000	-0.006	0.186
-403.252	-20.563	0.290	-0.178
-402.238	157.225	-0.219	0.302
-401.223	248.322	0.164	-0.276
-400.209	125.630	0.078	0.098
-399.194	-87.941	0.214	0.064
-398.179	-113.240	-0.084	0.016
-397.165	-200.000	-0.001	-0.041
-396.150	800.000	-0.078	0.238
-395.136	0.315	-0.319	-0.227
-394.121	-99.417	-0.233	-0.058
-393.106	-91.406	-0.148	0.042
-392.092	323.736	0.058	-0.111
-391.077	-145.825	-0.125	-0.011
-390.063	-147.062	-0.177	0.015
-389.048	-200.000	0.001	-0.011
-388.033	655.128	0.051	0.129
-387.019	-123.516	0.388	-0.061
-386.004	-72.736	-0.074	-0.027
-384.990	800.000	0.048	-0.171
-383.975	314.365	0.233	0.437
-382.960	42.084	0.177	-0.160
-381.946	167.528	-0.135	0.191
-380.931	-200.000	-0.044	0.192
-379.917	52.148	0.259	-0.246
-378.902	-56.101	0.103	-0.046
-377.888	126.712	-0.032	0.041
-376.873	111.466	-0.027	-0.033
-375.858	62.197	0.155	-0.154
-374.844	-90.206	-0.201	0.058
-373.829	-11.369	0.362	0.237
-372.815	800.000	-0.030	-0.119
-371.800	743.240	-0.067	-0.179
-370.785	-170.369	0.257	-0.009
-369.771	31.716	-0.070	-0.060
-368.756	-18.329	0.313	-0.195
-367.742	-200.000	-0.025	0.286
-366.727	-134.127	0.185	0.023
-365.712	-144.912	-0.161	-0.015
-364.698	-50.560	-0.157	0.074
-363.683	66.788	0.081	-0.082
-362.669	438.238	0.083	-0.181
-361.654	59.356	-0.098	0.096
-360.639	-200.000	0.037	-0.303
-359.625	-118.389	-0.366	0.065
-358.610	-182.789	-0.112	0.002
-357.596	272.896	-0.186	0.327
-356.581	427.732	-0.092	0.197
-355.566	332.959	0.160	-0.308
-354.552	3.014	-0.093	0.068
-353.537	-128.704	0.148	0.021
-352.523	-48.466	0.304	-0.146
-351.508	-75.280	-0.224	-0.079
-350.493	-171.515	-0.226	-0.007
-349.479	800.000	-0.042	0.180
-348.464	466.343	-0.100	0.222
-347.450	-162.271	-0.093	-0.005
-346.435	800.000	0.085	0.268
-345.420	-200.000	0.077	0.382
-344.406	-101.066	-0.130	0.032
-343.391	166.019	0.087	0.122
-342.377	46.126	0.049	0.045
-341.362	48.236	0.142	-0.132
-340.348	-200.000	-0.018	-0.131
-339.333	-200.000	-0.028	0.176
-338.318	185.390	0.081	0.119
-337.304	416.488	0.018	0.039
-336.289	53.472	0.220	-0.210
-335.275	-26.921	-0.154	-0.089
-334.260	-200.000	0.012	0.290
-333.245	800.000	0.090	0.305
-332.231	332.768	-0.139	0.267
-331.216	-200.000	0.029	0.451
-330.202	-10.862	-0.211	0.139
-329.187	-28.199	-0.162	-0.093
-328.172	-148.323	0.211	0.017
-327.158	66.149	0.137	-0.138
-326.143	-91.232	0.122	-0.035
-325.129	159.638	-0.233	0.323
-324.114	-200.000	0.035	-0.190
-323.099	338.707	0.034	-0.066
-322.085	-193.728	-0.202	-0.002
-321.070	800.000	-0.025	0.083
-320.056	-135.230	0.135	0.016
-319.041	-200.000	0.005	-0.031
-318.026	97.255	-0.193	0.220
-317.012	-200.000	-0.049	-0.285
-315.997	-77.238	-0.113	0.039
-314.983	402.824	0.040	-0.084
-313.968	172.263	0.056	0.080
-312.953	202.771	0.076	-0.117
-311.939	-130.822	0.352	-0.047
-310.924	67.536	-0.031	0.032
-309.910	241.612	-0.212	-0.351
-308.895	-131.600	0.302	-0.039
-307.880	71.651	-0.385	0.397
-306.866	133.897	-0.087	0.112
-305.851	106.880	-0.102	0.121
-304.837	290.962	-0.122	-0.220
-303.822	800.000	-0.105	-0.362
-302.807	383.188	0.102	-0.207
-301.793	-23.152	-0.114	0.068
-300.778	-187.184	0.241	0.003
-299.764	800.000	0.089	-0.348
-298.749	4.935	0.193	-0.141
-297.735	-138.481	-0.275	-0.030
-296.720	6.023	-0.317	-0.233
-295.705	-187.845	0.098	0.001
-294.691	-54.151	0.300	0.136
-293.676	-14.211	0.205	-0.131
-292.662	11.724	0.258	0.197
-291.647	10.570	-0.201	0.152
-290.632	800.000	0.097	-0.362
-289.618	657.039	-0.041	-0.104
-288.603	627.024	-0.055	0.138
-287.589	757.214	0.180	0.484
-286.574	-200.000	0.009	0.079
-285.559	-35.922	-0.157	0.084
-284.545	-141.156	0.360	0.036
-283.530	386.682	0.127	0.261
-282.516	42.402	-0.112	-0.101
-281.501	141.884	-0.068	0.089
-280.486	-14.009	0.306	0.196
-279.472	17.701	0.101	0.080
-278.457	-44.878	-0.261	-0.129
-277.443	-19.120	-0.237	-0.146
-276.428	800.000	-0.048	-0.142
-275.413	7.299	-0.326	0.242
-274.399	238.350	0.022	-0.037
-273.384	-42.067	0.041	-0.021
-272.370	215.982	-0.111	0.175
-271.355	-115.501	0.035	0.007
-270.340	-159.174	-0.234	0.013
-269.326	-64.057	-0.232	-0.094
-268.311	-68.039	-0.053	-0.020
-267.297	150.811	-0.082	0.110
-266.282	-154.812	0.120	0.008
-265.267	21.249	-0.106	-0.086
-264.253	-32.906	0.138	-0.076
-263.238	800.000	-0.082	-0.229
-262.224	100.034	-0.069	-0.079
-261.209	-95.069	0.158	0.042
-260.195	114.783	-0.227	-0.274
-259.180	-200.000	-0.002	-0.077
-258.165	-200.000	0.052	0.256
-257.151	-52.197	0.249	-0.115
-256.136	477.171	-0.098	0.219
-255.122	-200.000	0.041	0.361
-254.107	-46.029	0.115	-0.056
-253.092	11.793	0.136	0.103
-252.078	-105.404	-0.266	-0.060
-251.063	-13.918	0.302	0.193
-250.049	-65.506	0.403	0.160
-249.034	800.000	0.079	0.340
-248.019	-69.940	-0.057	-0.022
-247.005	184.190	-0.055	-0.081
-245.990	767.809	0.013	0.034
-244.976	-3.996	-0.302	-0.207
-243.961	-189.726	0.196	-0.002
-242.946	-66.440	0.106	-0.042
-241.932	-18.950	-0.061	-0.037
-240.917	349.788	0.096	-0.187
-239.903	-148.904	-0.063	0.005
-238.888	800.000	0.037	-0.103
-237.873	-98.629	0.224	-0.057
-236.859	-76.009	0.305	-0.107
-235.844	-138.877	-0.103	0.011
-234.830	57.087	0.302	0.291
-233.815	800.000	0.064	0.268
-232.800	22.267	-0.143	-0.116
-231.786	-102.869	-0.142	0.033
-230.771	-118.890	-0.293	-0.051
-229.757	-200.000	0.004	0.077
-228.742	-137.193	-0.358	0.040
-227.727	-200.000	-0.034	-0.183
-226.713	-200.000	0.002	-0.103
-225.698	-200.000	-0.019	-0.188
-224.684	800.000	-0.034	-0.132
-223.669	77.813	-0.149	0.157
-222.655	-103.370	0.197	-0.046
-221.640	-200.000	0.027	0.135
-220.625	-200.000	-0.027	0.211
-219.611	-135.349	0.023	0.003
-218.596	-153.279	0.394	0.027
-217.582	45.111	0.091	-0.083
-216.567	-136.331	-0.292	-0.034
-215.552	-5.641	0.017	0.012
-214.538	191.557	-0.134	0.199
-213.523	91.226	-0.268	0.298
-212.509	570.213	-0.065	0.155
-211.494	-200.000	-0.014	0.143
-210.479	75.663	-0.239	0.249
-209.465	-113.360	-0.220	0.043
-208.450	182.845	-0.085	-0.123
-207.436	-20.177	-0.043	0.026
-206.421	-124.452	-0.244	0.038
-205.406	-200.000	-0.011	0.133
-204.392	146.097	-0.258	0.342
-203.377	800.000	0.122	-0.462
-202.363	-168.106	0.325	-0.013
-201.348	-118.111	-0.188	0.033
-200.333	733.755	-0.081	0.214
-199.319	-200.000	-0.050	-0.215
-198.304	-200.000	0.052	-0.373
-197.290	-200.000	-0.020	-0.222
-196.275	62.544	-0.107	0.105
-195.260	-200.000	0.009	-0.105
-194.246	-132.081	0.177	0.023
-193.231	25.954	0.046	-0.038
-192.217	800.000	0.031	-0.088
-191.202	-107.830	0.062	0.013
-190.187	308.323	-0.262	-0.483
-189.173	537.370	-0.037	-0.087
-188.158	155.957	0.079	0.108
-187.144	800.000	0.137	0.442
-186.129	333.988	0.142	0.271
-185.114	594.538	-0.077	0.188
-184.100	-200.000	-0.011	-0.268
-183.085	90.168	0.078	-0.086
-182.071	800.000	-0.064	0.212
-181.056	39.608	-0.208	-0.184
-180.042	-49.259	0.242	0.114
-179.027	62.770	0.238	-0.236
-178.012	139.396	-0.121	0.158
-176.998	-142.538	-0.087	0.008
-175.983	800.000	-0.059	0.244
-174.969	260.284	-0.193	0.330
-173.954	-200.000	-0.007	-0.127
-172.939	-20.558	-0.116	0.070
-171.925	-72.033	0.254	0.093
-170.910	-2.913	-0.270	0.186
-169.896	-130.793	-0.416	-0.055
-168.881	410.184	0.059	-0.123
-167.866	500.011	-0.060	0.138
-166.852	56.803	-0.078	0.075
-165.837	260.777	0.174	0.297
-164.823	462.064	0.118	0.261
-163.808	-10.165	-0.369	-0.242
-162.793	-38.717	0.191	-0.099
-161.779	-25.724	-0.172	0.100
-160.764	-39.370	-0.070	-0.036
-159.750	455.595	0.043	0.094
-158.735	800.000	0.037	-0.108
-157.720	-98.367	-0.301	0.076
-156.706	-151.664	-0.187	-0.014
-155.691	164.406	-0.101	0.140
-154.677	800.000	-0.018	0.070
-153.662	335.871	-0.028	0.053
-152.647	127.049	-0.021	0.026
-151.633	-176.464	-0.189	0.005
-150.618	-19.087	0.261	0.160
-149.604	-44.728	-0.222	-0.109
-148.589	54.111	-0.260	-0.247
-147.574	-81.577	0.232	-0.075
-146.560	-200.000	0.020	0.340
-145.545	800.000	0.104	0.297
-144.531	-39.778	0.152	0.078
-143.516	-115.957	0.171	0.031
-142.502	-92.132	0.244	-0.068
-141.487	53.057	0.081	-0.076
-140.472	99.840	0.184	0.210
-139.458	-108.320	0.360	0.077
-138.443	134.340	-0.032	0.041
-137.429	-79.791	-0.097	0.032
-136.414	-64.905	0.179	0.071
-135.399	118.106	0.071	-0.087
-134.385	141.495	-0.151	0.198
-133.370	60.232	0.273	-0.266
-132.356	51.667	-0.181	0.170
-131.341	525.015	0.067	0.156
-130.326	-200.000	0.018	-0.292
-129.312	-97.449	0.225	-0.058
-128.297	180.702	0.116	0.168
-127.283	800.000	-0.023	-0.079
-126.268	-49.495	0.091	0.043
-125.253	-26.309	0.174	-0.100
-124.239	22.841	0.314	0.254
-123.224	-200.000	0.012	0.419
-122.210	800.000	0.019	0.058
-121.195	-86.102	0.206	0.063
