DTS Sentinel unit serial number:	SN413079Multiplexer serial number:	ORYXHardware model number:	OX4-SRSoftware version number:	ORYX F/W v4.00 Oryx Data Collector v3.7.2.0data status	okinstallation	princeton_trtdifferential loss correction	single-endedforward channel	channel 3reverse channel	N/Adate	2019/09/13time	21:04:35forward acquisition time	60.00reverse acquisition time	0.00gamma	496.2192k internal	0.2333k external	0.2333temperature offset calibration	1.0065default loss term (dB/km)	0.3790temperature slope calibration	1.0000multiplexer offset coefficient	1.0000multiplexer slope coefficient	1.0000fibre end	0.00T internal ref (°C)	28.58T ext. ref 1 (°C)	3.16T ext. ref 2 (°C)	23.18length (m)	temperature (°C)	Stokes	anti-Stokes-747.200	21.423	0.035	0.028
-746.185	48.127	-0.212	0.199
-745.171	-200.000	-0.008	-0.189
-744.156	2.396	-0.026	-0.019
-743.142	-73.116	0.280	-0.103
-742.127	-138.055	-0.489	-0.055
-741.112	502.935	-0.111	0.259
-740.098	-200.000	0.016	0.135
-739.083	763.484	0.108	-0.295
-738.069	649.932	0.079	0.204
-737.054	-93.308	-0.170	-0.047
-736.039	-71.039	-0.085	-0.032
-735.025	-149.457	0.380	0.030
-734.010	-86.793	0.028	0.009
-732.996	245.730	-0.118	0.200
-731.981	-71.133	-0.314	-0.118
-730.966	-200.000	-0.075	-0.344
-729.952	25.927	0.069	0.058
-728.937	58.064	-0.251	-0.247
-727.923	22.238	-0.070	-0.058
-726.908	74.848	-0.035	0.037
-725.894	184.052	0.018	-0.027
-724.879	313.671	-0.070	0.132
-723.864	-200.000	0.047	-0.266
-722.850	84.938	-0.158	0.174
-721.835	-72.307	0.110	0.041
-720.821	37.565	0.252	-0.225
-719.806	-200.000	-0.015	-0.295
-718.791	-166.294	-0.085	0.004
-717.777	-73.751	0.248	-0.091
-716.762	800.000	0.059	0.198
-715.748	655.750	-0.064	-0.166
-714.733	-145.315	-0.123	0.011
-713.718	32.361	0.135	0.117
-712.704	-58.535	-0.075	0.033
-711.689	-106.429	-0.238	0.053
-710.675	23.671	0.141	0.116
-709.660	-23.534	0.092	-0.056
-708.645	-87.697	-0.107	0.033
-707.631	464.855	0.087	-0.195
-706.616	-37.821	0.242	-0.129
-705.602	-200.000	0.018	0.100
-704.587	212.513	-0.110	-0.174
-703.572	-8.137	0.209	0.141
-702.558	52.634	0.099	0.095
-701.543	-200.000	-0.019	0.174
-700.529	178.259	-0.074	0.109
-699.514	-22.969	0.053	0.032
-698.499	-40.135	0.093	0.049
-697.485	20.095	-0.037	0.030
-696.470	-31.380	-0.227	-0.128
-695.456	-200.000	0.088	-0.465
-694.441	-200.000	-0.000	-0.357
-693.426	800.000	-0.015	-0.061
-692.412	21.082	0.199	-0.162
-691.397	-99.077	-0.209	-0.053
-690.383	-41.021	-0.094	-0.048
-689.368	-113.179	-0.243	-0.048
-688.354	-200.000	-0.054	-0.249
-687.339	-200.000	-0.037	-0.336
-686.324	800.000	-0.066	-0.223
-685.310	745.180	-0.036	0.098
-684.295	800.000	-0.025	0.099
-683.281	-99.827	-0.244	0.061
-682.266	-65.206	-0.235	-0.095
-681.251	800.000	0.065	-0.191
-680.237	-125.713	0.062	-0.009
-679.222	666.167	-0.068	-0.177
-678.208	435.058	-0.158	-0.344
-677.193	-73.950	-0.304	0.110
-676.178	-47.108	-0.225	-0.110
-675.164	32.000	0.222	0.192
-674.149	-164.649	-0.478	0.022
-673.135	239.374	0.014	-0.024
-672.120	651.341	0.067	-0.171
-671.105	-200.000	-0.028	-0.516
-670.091	-200.000	-0.060	-0.293
-669.076	175.877	-0.042	-0.062
-668.062	-154.175	0.066	0.004
-667.047	174.316	-0.214	-0.310
-666.032	-200.000	-0.033	-0.232
-665.018	-80.366	-0.295	-0.099
-664.003	3.089	0.077	0.056
-662.989	-168.637	-0.353	0.013
-661.974	-93.661	0.200	-0.055
-660.959	-93.270	-0.220	0.061
-659.945	-200.000	-0.038	0.212
-658.930	-50.575	0.270	0.128
-657.916	800.000	-0.081	0.293
-656.901	-200.000	-0.018	-0.216
-655.886	800.000	-0.044	-0.137
-654.872	-103.566	-0.181	-0.043
-653.857	800.000	0.141	-0.436
-652.843	209.895	-0.128	-0.201
-651.828	60.909	-0.274	0.272
-650.814	-200.000	0.027	-0.176
-649.799	-95.363	-0.144	0.039
-648.784	766.895	0.184	0.502
-647.770	-17.770	0.057	-0.036
-646.755	190.666	-0.224	-0.337
-645.741	-127.528	-0.200	0.029
-644.726	178.141	-0.110	0.160
-643.711	-200.000	0.027	-0.147
-642.697	-200.000	0.019	-0.141
-641.682	-153.591	-0.410	0.028
-640.668	-123.484	-0.303	0.048
-639.653	121.462	0.060	-0.075
-638.638	15.303	-0.247	0.194
-637.624	-139.101	-0.477	-0.052
-636.609	-200.000	0.055	0.252
-635.595	-9.109	-0.241	0.161
-634.580	800.000	-0.058	0.241
-633.565	800.000	0.048	0.200
-632.551	-182.602	-0.272	0.005
-631.536	76.038	-0.089	-0.094
-630.522	800.000	-0.031	-0.125
-629.507	-79.435	0.133	-0.045
-628.492	800.000	-0.035	0.141
-627.478	652.226	0.063	0.161
-626.463	72.264	-0.118	-0.123
-625.449	-26.226	0.250	-0.147
-624.434	-200.000	0.002	0.068
-623.419	-200.000	0.052	0.245
-622.405	-107.602	-0.229	-0.050
-621.390	-200.000	-0.059	-0.349
-620.376	676.279	-0.048	-0.126
-619.361	-151.107	-0.166	0.012
-618.346	-125.164	0.186	0.029
-617.332	301.983	0.058	0.108
-616.317	213.867	-0.118	0.187
-615.303	-160.734	0.294	0.016
-614.288	800.000	0.049	0.137
-613.273	-96.587	0.390	-0.103
-612.259	221.970	-0.076	-0.122
-611.244	-200.000	0.045	-0.213
-610.230	-200.000	-0.008	0.057
-609.215	137.342	-0.165	-0.216
-608.201	-200.000	0.032	-0.152
-607.186	800.000	-0.127	-0.409
-606.171	-54.001	0.114	0.052
-605.157	42.712	0.212	0.193
-604.142	-13.109	-0.103	0.067
-603.128	800.000	0.032	-0.088
-602.113	426.592	-0.030	0.064
-601.098	-40.472	-0.365	0.190
-600.084	800.000	-0.073	0.309
-599.069	-114.263	0.211	0.041
-598.055	-60.971	0.192	-0.081
-597.040	386.237	-0.079	-0.163
-596.025	126.090	0.213	0.269
-595.011	-25.278	-0.254	0.150
-593.996	78.339	0.112	0.120
-592.982	-28.846	0.065	0.038
-591.967	-107.390	0.156	-0.034
-590.952	800.000	-0.041	-0.118
-589.938	-150.701	0.391	-0.030
-588.923	-97.747	0.401	-0.104
-587.909	46.213	0.168	-0.156
-586.894	-58.417	-0.230	0.100
-585.879	99.640	0.112	-0.129
-584.865	800.000	-0.126	-0.425
-583.850	-200.000	0.029	-0.198
-582.836	-123.870	-0.335	-0.053
-581.821	92.942	-0.225	-0.253
-580.806	-190.298	-0.282	-0.003
-579.792	111.627	-0.053	0.064
-578.777	800.000	-0.102	-0.340
-577.763	279.369	-0.075	-0.134
-576.748	677.693	-0.045	-0.116
-575.733	-200.000	0.018	0.272
-574.719	-49.488	-0.384	0.183
-573.704	-200.000	0.087	-0.000
-572.690	82.033	0.251	0.272
-571.675	67.206	-0.233	-0.237
-570.661	-88.920	-0.126	-0.037
-569.646	-152.576	-0.228	-0.016
-568.631	-65.273	-0.203	-0.082
-567.617	144.005	-0.122	0.163
-566.602	-108.677	-0.246	0.053
-565.588	55.382	0.135	-0.131
-564.573	27.567	0.135	-0.114
-563.558	92.680	-0.136	-0.153
-562.544	785.484	-0.125	0.342
-561.529	-200.000	0.024	-0.213
-560.515	155.742	-0.105	-0.144
-559.500	522.442	0.089	-0.209
-558.485	-104.125	0.136	-0.032
-557.471	-47.411	0.166	0.080
-556.456	800.000	-0.070	0.269
-555.442	136.234	-0.043	0.056
-554.427	-31.917	0.072	0.041
-553.412	-200.000	-0.015	-0.068
-552.398	800.000	-0.039	-0.136
-551.383	800.000	-0.104	-0.287
-550.369	-200.000	-0.019	-0.117
-549.354	88.972	0.015	-0.017
-548.339	-105.939	-0.268	0.060
-547.325	-185.082	-0.033	-0.001
-546.310	800.000	0.135	-0.536
-545.296	357.736	0.119	-0.237
-544.281	93.862	-0.153	-0.174
-543.266	800.000	0.036	-0.140
-542.252	800.000	-0.034	0.126
-541.237	139.186	0.188	-0.247
-540.223	361.458	0.201	-0.402
-539.208	10.955	-0.105	0.080
-538.193	-200.000	-0.041	0.218
-537.179	800.000	0.080	-0.223
-536.164	95.340	-0.118	0.134
-535.150	41.723	0.274	-0.248
-534.135	348.536	-0.135	-0.265
-533.121	-200.000	0.052	0.312
-532.106	-11.213	0.082	-0.054
-531.091	-147.817	0.250	0.021
-530.077	300.491	-0.070	0.129
-529.062	-39.550	-0.148	-0.078
-528.048	65.757	0.262	-0.264
-527.033	-150.918	0.324	-0.024
-526.018	14.548	0.079	-0.061
-525.004	254.356	-0.169	-0.288
-523.989	-200.000	0.033	-0.360
-522.975	800.000	0.090	0.293
-521.960	-200.000	-0.054	0.379
-520.945	469.952	-0.112	-0.250
-519.931	-200.000	0.017	0.220
-518.916	-159.782	0.264	-0.014
-517.902	-200.000	-0.039	-0.435
-516.887	129.298	-0.232	-0.295
-515.872	-112.915	-0.353	0.070
-514.858	85.631	0.123	0.135
-513.843	323.901	0.042	0.081
-512.829	316.776	-0.101	-0.190
-511.814	-90.910	0.178	0.051
-510.799	-200.000	0.026	-0.384
-509.785	-2.007	0.407	-0.285
-508.770	-122.947	-0.181	0.029
-507.756	-81.405	0.518	0.170
-506.741	-186.430	0.078	0.001
-505.726	141.515	0.038	0.050
-504.712	758.156	0.056	0.152
-503.697	453.312	-0.131	0.289
-502.683	44.672	0.217	-0.199
-501.668	10.392	0.084	0.064
-500.653	800.000	0.070	-0.202
-499.639	3.110	0.292	0.212
-498.624	252.204	0.032	0.054
-497.610	3.757	-0.195	-0.142
-496.595	-44.037	0.165	-0.083
-495.581	40.028	0.243	-0.218
-494.566	329.395	-0.054	0.102
-493.551	635.136	-0.092	-0.232
-492.537	37.065	0.185	-0.163
-491.522	800.000	-0.082	0.304
-490.508	-185.999	0.217	-0.003
-489.493	138.976	0.199	0.261
-488.478	-20.411	-0.167	0.102
-487.464	-200.000	-0.010	-0.056
-486.449	-100.448	-0.049	0.012
-485.435	292.742	-0.034	-0.061
-484.420	112.295	0.074	-0.090
-483.405	800.000	0.042	0.169
-482.391	-200.000	-0.011	0.056
-481.376	37.436	-0.365	-0.323
-480.362	124.558	-0.051	-0.063
-479.347	800.000	-0.157	0.545
-478.332	-80.609	-0.124	-0.041
-477.318	287.793	0.074	0.132
-476.303	-133.621	-0.282	-0.035
-475.289	-104.322	0.089	-0.020
-474.274	385.510	-0.111	-0.229
-473.259	223.439	0.121	0.193
-472.245	-19.676	0.377	-0.232
-471.230	-200.000	-0.232	0.000
-470.216	267.190	-0.019	-0.033
-469.201	-200.000	0.027	0.341
-468.186	-67.504	0.136	0.053
-467.172	-66.267	-0.187	-0.074
-466.157	-200.000	-0.004	0.032
-465.143	214.194	0.152	0.240
-464.128	-153.932	-0.183	-0.012
-463.113	-141.257	0.252	0.026
-462.099	800.000	-0.159	0.481
-461.084	83.766	-0.186	0.202
-460.070	200.300	-0.017	0.025
-459.055	-200.000	-0.025	0.156
-458.040	212.953	-0.128	-0.201
-457.026	10.542	0.139	0.105
-456.011	-68.021	-0.377	0.146
-454.997	341.192	-0.131	-0.255
-453.982	-88.196	-0.341	-0.102
-452.968	12.704	-0.095	0.073
-451.953	115.202	-0.441	0.536
-450.938	126.452	0.115	-0.145
-449.924	800.000	-0.075	0.289
-448.909	-96.017	-0.238	-0.063
-447.895	427.340	-0.078	0.168
-446.880	436.344	-0.037	0.081
-445.865	339.925	-0.043	0.083
-444.851	5.220	-0.217	-0.159
-443.836	704.890	0.129	-0.339
-442.822	-200.000	-0.006	-0.060
-441.807	800.000	-0.052	-0.176
-440.792	-79.290	0.072	0.024
-439.778	-200.000	0.004	-0.182
-438.763	800.000	-0.092	0.287
-437.749	109.615	0.051	0.060
-436.734	787.959	0.174	-0.474
-435.719	-29.607	-0.222	-0.126
-434.705	382.061	0.064	-0.130
-433.690	-80.621	0.259	-0.086
-432.676	-152.562	-0.330	-0.023
-431.661	-66.526	-0.096	-0.038
-430.646	9.716	0.131	0.098
-429.632	-55.286	0.152	-0.068
-428.617	-200.000	0.004	0.191
-427.603	21.715	0.140	0.113
-426.588	140.334	-0.046	0.060
-425.573	651.251	-0.151	0.383
-424.559	-35.019	0.261	-0.141
-423.544	-170.546	-0.277	0.010
-422.530	-200.000	0.023	0.206
-421.515	-107.354	0.311	-0.068
-420.500	-22.835	-0.113	-0.068
-419.486	135.986	-0.073	0.095
-418.471	102.843	-0.152	-0.177
-417.457	-102.089	0.285	0.068
-416.442	-92.523	0.176	0.049
-415.428	350.100	0.052	0.101
-414.413	438.651	0.034	0.073
-413.398	-35.321	-0.358	-0.193
-412.384	258.176	0.088	0.150
-411.369	132.027	-0.152	0.194
-410.355	-170.356	-0.468	-0.016
-409.340	-27.180	-0.447	0.259
-408.325	-64.342	0.380	0.153
-407.311	47.289	0.231	-0.213
-406.296	-135.402	-0.245	-0.029
-405.282	39.964	0.184	-0.164
-404.267	800.000	-0.063	0.205
-403.252	206.779	0.132	-0.204
-402.238	800.000	0.076	-0.292
-401.223	-200.000	0.004	0.038
-400.209	-132.064	-0.312	0.040
-399.194	160.426	0.150	0.208
-398.179	152.543	0.110	-0.150
-397.165	612.049	0.071	-0.176
-396.150	-83.385	-0.187	-0.059
-395.136	-130.751	0.055	0.007
-394.121	86.179	0.054	0.059
-393.106	-98.539	-0.405	-0.103
-392.092	-39.722	0.032	-0.017
-391.077	37.550	-0.026	-0.023
-390.063	123.034	-0.216	-0.268
-389.048	-200.000	-0.013	-0.123
-388.033	-200.000	-0.018	-0.103
-387.019	568.853	0.175	0.421
-386.004	77.392	-0.167	0.176
-384.990	-200.000	-0.062	-0.336
-383.975	-1.888	0.060	-0.042
-382.960	-200.000	0.067	0.391
-381.946	-54.809	-0.221	0.099
-380.931	78.895	-0.051	0.054
-379.917	14.305	-0.195	0.151
-378.902	219.139	0.101	0.160
-377.888	-161.478	0.200	-0.010
-376.873	-65.995	-0.181	-0.072
-375.858	28.796	-0.199	-0.167
-374.844	-138.849	0.181	0.020
-373.829	-168.203	-0.204	-0.008
-372.815	-152.364	0.236	-0.017
-371.800	-134.583	0.258	-0.031
-370.785	800.000	0.072	-0.269
-369.771	-200.000	0.060	0.402
-368.756	-96.281	0.182	-0.048
-367.742	26.771	0.112	-0.093
-366.727	460.034	-0.060	-0.132
-365.712	-63.629	0.151	-0.062
-364.698	319.048	-0.128	-0.241
-363.683	119.463	0.124	-0.152
-362.669	657.494	0.124	0.316
-361.654	57.447	0.186	-0.180
-360.639	-27.207	-0.194	0.112
-359.625	-200.000	0.076	-0.000
-358.610	-26.435	0.146	-0.085
-357.596	-64.430	0.195	0.079
-356.581	-145.959	-0.246	0.022
-355.566	-144.227	0.130	-0.012
-354.552	96.815	-0.155	-0.176
-353.537	716.707	0.060	0.157
-352.523	-177.487	-0.285	0.007
-351.508	-200.000	-0.033	0.261
-350.493	-200.000	-0.014	-0.138
-349.479	12.722	-0.145	-0.111
-348.464	-104.439	-0.334	-0.076
-347.450	14.213	0.270	-0.208
-346.435	800.000	-0.105	0.296
-345.420	-10.684	-0.165	0.108
-344.406	126.292	0.129	-0.161
-343.391	264.772	0.030	0.051
-342.377	94.643	-0.043	-0.048
-341.362	-39.621	-0.236	-0.122
-340.348	-2.274	-0.145	0.101
-339.333	-200.000	-0.032	-0.327
-338.318	80.170	0.200	0.213
-337.304	269.711	0.132	0.230
-336.289	404.409	0.038	0.079
-335.275	56.991	0.002	0.002
-334.260	84.229	0.200	-0.217
-333.245	33.583	-0.211	0.181
-332.231	-89.157	0.217	-0.063
-331.216	-147.443	0.124	-0.010
-330.202	69.286	0.334	-0.340
-329.187	-27.956	-0.169	0.097
-328.172	325.330	0.188	-0.356
-327.158	800.000	-0.022	0.068
-326.143	69.483	0.234	-0.238
-325.129	-109.520	-0.192	0.040
-324.114	-137.775	-0.085	-0.009
-323.099	2.291	-0.067	0.048
-322.085	-35.471	-0.063	0.034
-321.070	800.000	-0.080	-0.259
-320.056	800.000	0.040	-0.128
-319.041	-200.000	-0.189	0.000
-318.026	-51.208	0.190	0.088
-317.012	-119.892	-0.340	-0.058
-315.997	-7.249	-0.181	-0.121
-314.983	51.881	-0.130	-0.123
-313.968	67.126	-0.263	-0.265
-312.953	148.616	0.123	-0.165
-311.939	340.818	-0.113	-0.217
-310.924	-45.876	0.272	-0.133
-309.910	564.791	-0.091	-0.218
-308.895	1.193	0.307	0.218
-307.880	-200.000	-0.029	-0.200
-306.866	315.148	0.202	0.376
-305.851	-56.528	0.053	-0.023
-304.837	0.845	0.108	-0.077
-303.822	-200.000	0.059	0.345
-302.807	-84.765	-0.229	0.071
-301.793	-40.193	-0.252	0.130
-300.778	258.162	-0.156	0.265
-299.764	635.259	0.060	0.149
-298.749	-23.157	-0.132	-0.079
-297.735	-200.000	-0.010	0.042
-296.720	-75.289	-0.041	0.015
-295.705	8.007	-0.272	-0.201
-294.691	248.740	0.076	0.127
-293.676	178.170	0.064	0.092
-292.662	9.300	0.056	-0.042
-291.647	76.073	-0.193	-0.202
-290.632	-200.000	-0.032	-0.204
-289.618	236.740	-0.117	0.191
-288.603	351.971	0.189	0.370
-287.589	23.006	0.174	0.141
-286.574	9.353	-0.050	-0.037
-285.559	108.607	0.081	-0.096
-284.545	286.703	0.089	-0.158
-283.530	74.956	-0.191	0.199
-282.516	140.011	-0.120	0.156
-281.501	-200.000	-0.014	-0.186
-280.486	81.903	0.259	-0.277
-279.472	-40.129	0.142	-0.073
-278.457	-74.340	0.306	0.109
-277.443	87.606	-0.098	0.108
-276.428	16.801	0.137	-0.107
-275.413	-200.000	-0.065	-0.288
-274.399	800.000	0.104	-0.330
-273.384	-200.000	-0.008	0.055
-272.370	58.136	0.174	0.168
-271.355	-122.253	0.221	-0.036
-270.340	1.725	-0.276	0.197
-269.326	-89.776	0.265	0.076
-268.311	-106.511	-0.051	0.011
-267.297	800.000	-0.059	0.229
-266.282	48.064	0.248	0.229
-265.267	12.116	-0.096	-0.073
-264.253	-114.081	0.005	-0.001
-263.238	472.032	-0.133	-0.297
-262.224	215.312	-0.133	-0.208
-261.209	192.669	-0.147	0.219
-260.195	-200.000	0.040	-0.177
-259.180	-191.486	0.232	0.002
-258.165	85.588	0.334	-0.362
-257.151	-135.995	0.215	0.025
-256.136	-103.579	0.389	-0.090
-255.122	-104.539	-0.407	-0.093
-254.107	-200.000	0.025	0.379
-253.092	-73.852	0.067	0.024
-252.078	800.000	0.026	0.099
-251.063	-200.000	-0.024	0.346
-250.049	249.050	0.017	0.029
-249.034	198.309	-0.117	-0.176
-248.019	497.613	0.062	0.141
-247.005	-68.148	-0.163	0.063
-245.990	320.617	0.224	-0.420
-244.976	174.018	-0.187	-0.266
-243.961	13.290	-0.206	0.157
-242.946	800.000	-0.025	-0.083
-241.932	-109.612	-0.289	0.060
-240.917	143.717	0.154	0.203
-239.903	-65.857	-0.350	0.138
-238.888	93.105	-0.233	0.260
-237.873	-105.892	0.267	-0.059
-236.859	800.000	0.130	0.368
-235.844	502.679	0.134	-0.304
-234.830	-12.490	0.303	-0.195
-233.815	-45.751	-0.166	-0.081
-232.800	-56.732	0.456	-0.199
-231.786	-154.456	0.295	0.019
-230.771	-124.332	0.250	-0.039
-229.757	-34.960	-0.215	-0.116
-228.742	354.601	0.224	0.438
-227.727	301.953	0.257	0.468
-226.713	-128.071	0.379	-0.053
-225.698	467.459	0.094	0.208
-224.684	-114.586	-0.051	-0.010
-223.669	726.107	-0.127	0.333
-222.655	206.369	0.193	0.296
-221.640	52.060	0.139	0.130
-220.625	-141.542	-0.372	-0.037
-219.611	479.453	0.076	-0.169
-218.596	261.417	0.104	-0.178
-217.582	36.790	0.150	-0.130
-216.567	301.801	-0.115	0.209
-215.552	121.572	0.043	-0.052
-214.538	-19.210	-0.439	0.268
-213.523	1.924	0.275	-0.195
-212.509	-43.362	-0.093	0.046
-211.494	800.000	0.049	0.182
-210.479	800.000	-0.086	0.250
-209.465	800.000	-0.042	-0.120
-208.450	48.323	0.182	-0.167
-207.436	64.852	-0.206	-0.205
-206.421	23.987	0.196	0.159
-205.406	551.833	0.118	0.279
-204.392	800.000	0.065	0.205
-203.377	49.359	-0.071	0.065
-202.363	735.352	0.162	0.427
-201.348	800.000	-0.054	0.216
-200.333	17.853	0.154	0.121
-199.319	-88.526	0.172	-0.051
-198.304	12.339	-0.275	0.209
-197.290	-200.000	-0.016	-0.184
-196.275	394.954	0.111	-0.227
-195.260	-59.957	-0.218	-0.092
-194.246	442.799	-0.037	0.080
-193.231	-37.393	0.293	0.154
-192.217	-127.994	0.277	0.039
-191.202	-126.155	0.364	0.054
-190.187	-200.000	0.017	0.165
-189.173	-49.888	-0.276	-0.129
-188.158	-66.191	0.197	-0.077
-187.144	-90.417	-0.218	-0.062
-186.129	415.750	0.142	0.299
-185.114	-1.958	0.106	-0.073
-184.100	199.347	-0.122	-0.184
-183.085	6.374	0.185	0.135
-182.071	-109.399	0.044	0.009
-181.056	357.423	0.056	-0.110
-180.042	11.807	0.158	-0.119
-179.027	237.347	-0.133	0.216
-178.012	800.000	-0.057	-0.216
-176.998	89.235	-0.097	-0.106
-175.983	173.858	0.055	-0.078
-174.969	-94.086	0.332	0.089
-173.954	169.721	0.182	0.256
-172.939	263.652	0.106	0.181
-171.925	513.150	0.114	0.262
-170.910	195.182	0.177	-0.264
-169.896	-44.061	-0.115	-0.057
-168.881	-80.701	0.225	0.073
-167.866	4.938	-0.082	0.059
-166.852	-107.796	-0.106	-0.023
-165.837	40.227	-0.305	-0.270
-164.823	-143.815	0.309	0.029
-163.808	385.775	0.041	0.082
-162.793	-112.903	-0.224	-0.044
-161.779	-79.608	-0.206	0.068
-160.764	800.000	0.056	0.187
-159.750	-200.000	-0.054	0.263
-158.735	-200.000	-0.033	0.379
-157.720	-200.000	0.067	0.346
-156.706	-65.614	-0.321	-0.127
-155.691	309.350	0.027	-0.049
-154.677	-200.000	0.018	-0.224
-153.662	83.186	0.103	0.110
-152.647	736.489	0.038	-0.099
-151.633	5.832	0.066	0.048
-150.618	45.234	-0.081	0.073
-149.604	-200.000	-0.026	-0.166
-148.589	18.839	0.164	-0.129
-147.574	94.159	-0.171	-0.190
-146.560	-200.000	-0.052	0.272
-145.545	800.000	0.030	0.116
-144.531	148.489	-0.146	-0.194
-143.516	-81.041	-0.229	0.075
-142.502	-200.000	0.022	0.124
-141.487	-52.818	-0.236	-0.107
-140.472	-200.000	0.056	0.288
-139.458	-138.352	0.309	-0.033
-138.443	717.139	-0.057	-0.148
-137.429	12.132	-0.180	-0.136
-136.414	-110.162	-0.048	-0.010
-135.399	77.049	-0.237	0.248
-134.385	139.189	-0.249	0.322
-133.370	-69.762	-0.140	-0.052
-132.356	800.000	-0.048	0.155
-131.341	662.425	0.070	0.177
-130.326	149.797	-0.113	0.150
-129.312	-200.000	-0.109	0.000
-128.297	800.000	-0.047	0.132
-127.283	-103.732	0.126	0.029
-126.268	-200.000	-0.029	-0.163
-125.253	800.000	0.101	-0.387
-124.239	-148.098	-0.173	-0.014
-123.224	-148.369	-0.179	-0.014
-122.210	-145.721	0.154	-0.013
-121.195	-200.000	-0.003	-0.068
