DTS Sentinel unit serial number:	SN413079Multiplexer serial number:	ORYXHardware model number:	OX4-SRSoftware version number:	ORYX F/W v4.00 Oryx Data Collector v3.7.2.0data status	okinstallation	princeton_trtdifferential loss correction	single-endedforward channel	channel 3reverse channel	N/Adate	2019/09/16time	17:40:35forward acquisition time	60.00reverse acquisition time	0.00gamma	496.2192k internal	0.2298k external	0.2298temperature offset calibration	0.9945default loss term (dB/km)	0.3790temperature slope calibration	1.0000multiplexer offset coefficient	1.0000multiplexer slope coefficient	1.0000fibre end	0.00T internal ref (°C)	38.19T ext. ref 1 (°C)	15.53T ext. ref 2 (°C)	32.20length (m)	temperature (°C)	Stokes	anti-Stokes-747.200	-86.581	-0.044	-0.014
-746.185	-181.535	-0.094	0.002
-745.171	-46.999	0.081	0.040
-744.156	-100.406	-0.235	0.060
-743.142	-75.829	0.260	-0.094
-742.127	325.584	-0.217	0.424
-741.112	-65.168	-0.100	0.041
-740.098	197.569	0.186	0.290
-739.083	-200.000	0.050	0.238
-738.069	-50.471	0.287	-0.138
-737.054	15.430	-0.201	0.161
-736.039	-14.744	-0.257	-0.168
-735.025	800.000	0.079	0.233
-734.010	104.166	-0.088	0.106
-732.996	700.448	-0.114	0.307
-731.981	800.000	0.087	-0.246
-730.966	-17.363	-0.130	-0.083
-729.952	200.982	-0.156	-0.245
-728.937	-200.000	0.005	-0.208
-727.923	-55.406	-0.064	-0.029
-726.908	64.835	0.209	0.215
-725.894	29.651	0.250	-0.217
-724.879	800.000	0.114	0.362
-723.864	800.000	-0.060	-0.228
-722.850	800.000	0.005	0.018
-721.835	-85.482	-0.243	-0.077
-720.821	150.142	0.148	-0.205
-719.806	-84.331	-0.187	-0.060
-718.791	-168.556	-0.116	-0.005
-717.777	173.504	-0.228	-0.335
-716.762	-2.707	-0.189	0.135
-715.748	800.000	-0.172	-0.508
-714.733	-163.708	-0.264	-0.013
-713.718	-111.617	-0.425	0.088
-712.704	-63.152	-0.068	0.028
-711.689	-200.000	-0.015	-0.104
-710.675	415.550	0.062	0.134
-709.660	800.000	-0.056	-0.226
-708.645	4.643	0.182	0.136
-707.631	-37.544	-0.344	0.187
-706.616	224.873	0.058	0.096
-705.602	-105.051	-0.150	-0.035
-704.587	244.542	-0.099	-0.170
-703.572	352.553	0.064	-0.129
-702.558	-181.018	0.380	-0.008
-701.543	-74.143	-0.276	-0.102
-700.529	448.725	-0.040	-0.089
-699.514	-128.476	-0.412	0.060
-698.499	-178.679	-0.136	-0.003
-697.485	-118.682	0.504	-0.091
-696.470	-82.962	0.463	0.152
-695.456	-113.615	-0.193	-0.038
-694.441	119.081	0.100	0.126
-693.426	-62.705	0.083	-0.035
-692.412	-58.519	0.294	0.130
-691.397	-193.698	-0.453	-0.004
-690.383	-1.084	0.151	-0.109
-689.368	775.953	-0.065	0.180
-688.354	-200.000	-0.038	-0.247
-687.339	731.858	0.043	-0.118
-686.324	-200.000	-0.038	0.276
-685.310	66.415	0.024	-0.025
-684.295	135.210	-0.201	0.266
-683.281	81.549	-0.129	-0.142
-682.266	800.000	0.045	-0.173
-681.251	800.000	0.093	0.340
-680.237	-7.655	-0.127	0.087
-679.222	535.678	0.068	-0.164
-678.208	-16.653	0.262	0.169
-677.193	-200.000	0.042	0.271
-676.178	-200.000	0.011	0.204
-675.164	422.401	0.120	-0.262
-674.149	557.031	0.178	-0.436
-673.135	-70.709	0.227	0.087
-672.120	-75.361	-0.145	-0.053
-671.105	125.510	-0.080	-0.103
-670.091	-200.000	0.015	0.075
-669.076	-61.405	0.059	-0.025
-668.062	99.978	-0.193	-0.228
-667.047	16.874	0.097	-0.078
-666.032	-52.203	0.044	0.021
-665.018	-200.000	0.025	0.209
-664.003	-200.000	-0.004	-0.240
-662.989	432.172	0.177	-0.390
-661.974	-121.007	-0.223	-0.038
-660.959	529.094	-0.175	-0.420
-659.945	-64.651	-0.283	0.117
-658.930	119.500	0.198	-0.250
-657.916	-200.000	-0.023	-0.277
-656.901	72.658	0.223	-0.237
-655.886	800.000	-0.061	-0.181
-654.872	-200.000	0.005	0.038
-653.857	800.000	-0.067	-0.274
-652.843	-200.000	0.032	-0.198
-651.828	-51.226	-0.118	-0.056
-650.814	-196.303	-0.161	0.001
-649.799	148.060	-0.143	0.196
-648.784	177.218	-0.015	-0.023
-647.770	800.000	-0.033	-0.107
-646.755	-95.057	-0.140	-0.038
-645.741	256.986	-0.204	-0.357
-644.726	135.734	0.083	-0.110
-643.711	434.304	-0.073	0.161
-642.697	159.114	0.082	0.115
-641.682	313.673	-0.096	0.183
-640.668	118.782	-0.260	0.326
-639.653	-56.646	0.420	-0.189
-638.638	-42.260	0.215	-0.112
-637.624	-23.909	0.132	-0.080
-636.609	280.817	-0.206	-0.374
-635.595	800.000	-0.064	0.243
-634.580	421.514	-0.157	0.342
-633.565	8.098	-0.080	0.061
-632.551	750.201	0.058	0.159
-631.536	36.584	0.296	0.266
-630.522	384.336	-0.068	0.142
-629.507	374.760	-0.109	0.226
-628.492	222.397	0.110	0.179
-627.478	-12.759	-0.139	-0.092
-626.463	43.465	-0.120	0.112
-625.449	176.591	0.201	0.298
-624.434	-71.825	0.203	0.077
-623.419	18.437	0.267	0.217
-622.405	-160.226	0.290	0.016
-621.390	-111.812	0.243	0.050
-620.376	800.000	-0.061	-0.226
-619.361	33.848	0.045	-0.040
-618.346	137.560	-0.096	-0.128
-617.332	-147.405	-0.142	0.012
-616.317	-200.000	-0.038	0.173
-615.303	800.000	-0.162	-0.464
-614.288	-38.995	0.095	0.051
-613.273	-20.053	-0.227	-0.142
-612.259	800.000	0.055	-0.203
-611.244	-96.611	-0.137	-0.037
-610.230	54.554	-0.075	0.074
-609.215	-173.266	0.151	0.005
-608.201	-142.400	-0.229	0.023
-607.186	32.068	-0.119	-0.104
-606.171	-150.014	0.136	-0.011
-605.157	-148.878	-0.048	0.004
-604.142	264.301	0.146	-0.258
-603.128	155.664	-0.082	0.115
-602.113	800.000	0.127	0.399
-601.098	800.000	-0.053	-0.169
-600.084	179.256	0.097	0.143
-599.069	-200.000	0.018	0.400
-598.055	-200.000	-0.068	-0.321
-597.040	-200.000	0.050	-0.386
-596.025	128.369	-0.153	-0.198
-595.011	66.038	-0.075	-0.077
-593.996	-96.640	0.157	0.042
-592.982	-60.372	0.098	0.043
-591.967	-138.296	-0.179	0.020
-590.952	584.104	-0.169	-0.422
-589.938	70.259	-0.148	-0.155
-588.923	-91.811	0.337	0.097
-587.909	3.674	-0.006	0.005
-586.894	-184.157	0.215	-0.004
-585.879	8.649	0.085	-0.065
-584.865	-200.000	0.067	-0.472
-583.850	0.779	-0.081	0.059
-582.836	7.637	0.061	0.046
-581.821	-33.013	0.142	0.080
-580.806	31.586	-0.194	-0.169
-579.792	28.848	0.239	-0.205
-578.777	-31.213	0.166	0.095
-577.763	278.629	0.077	0.140
-576.748	-200.000	-0.019	-0.238
-575.733	-200.000	0.025	-0.234
-574.719	34.913	0.151	-0.134
-573.704	81.011	0.037	-0.041
-572.690	294.366	0.064	-0.118
-571.675	-102.369	0.218	0.053
-570.661	138.204	0.058	-0.078
-569.646	-200.000	-0.010	-0.217
-568.631	-149.133	-0.083	-0.007
-567.617	800.000	-0.016	-0.045
-566.602	-97.102	0.245	-0.065
-565.588	94.407	-0.075	0.086
-564.573	-196.976	0.418	0.003
-563.558	-200.000	-0.027	0.183
-562.544	365.530	0.074	-0.152
-561.529	324.819	0.044	0.086
-560.515	-200.000	0.002	0.067
-559.500	159.974	-0.100	0.142
-558.485	543.564	-0.125	-0.303
-557.471	62.804	0.093	-0.094
-556.456	-77.342	-0.170	-0.060
-555.442	15.604	-0.157	0.125
-554.427	10.608	-0.110	-0.085
-553.412	-200.000	0.017	-0.202
-552.398	297.264	0.041	-0.077
-551.383	-91.773	0.123	-0.036
-550.369	-200.000	-0.073	0.365
-549.354	-48.296	0.256	0.125
-548.339	16.597	0.148	0.118
-547.325	-47.303	0.194	0.096
-546.310	356.994	-0.149	0.301
-545.296	635.288	-0.134	-0.344
-544.281	-127.011	0.161	0.024
-543.266	104.597	-0.253	-0.301
-542.252	-91.547	0.327	-0.095
-541.237	154.210	-0.142	0.197
-540.223	36.752	-0.110	-0.098
-539.208	598.000	0.095	0.238
-538.193	800.000	-0.069	0.211
-537.179	-200.000	0.087	-0.456
-536.164	129.229	-0.100	0.129
-535.150	-144.143	-0.505	0.048
-534.135	226.973	0.109	0.179
-533.121	-37.464	0.249	0.134
-532.106	-161.786	-0.036	0.002
-531.091	12.669	0.042	-0.033
-530.077	200.051	0.147	-0.229
-529.062	584.654	-0.085	0.210
-528.048	-200.000	0.022	-0.323
-527.033	-11.529	-0.248	-0.165
-526.018	-111.471	-0.073	-0.015
-525.004	-33.444	0.251	0.140
-523.989	218.381	0.062	0.100
-522.975	-200.000	0.006	-0.218
-521.960	174.942	0.049	0.071
-520.945	-105.512	0.274	0.063
-519.931	165.747	0.176	-0.251
-518.916	527.731	0.016	-0.038
-517.902	103.470	-0.119	0.141
-516.887	-73.750	0.051	-0.019
-515.872	521.400	-0.100	0.238
-514.858	-59.887	0.406	-0.176
-513.843	-63.185	-0.222	0.093
-512.829	254.704	0.046	0.079
-511.814	144.106	-0.164	0.222
-510.799	205.792	0.210	-0.331
-509.785	-69.051	0.216	0.084
-508.770	-55.679	0.214	0.097
-507.756	-200.000	0.030	-0.310
-506.741	137.106	-0.106	-0.141
-505.726	-200.000	-0.319	0.000
-504.712	-96.514	-0.070	0.019
-503.697	-107.152	-0.149	0.033
-502.683	575.423	-0.059	-0.147
-501.668	-200.000	0.003	-0.118
-500.653	-75.387	0.197	-0.071
-499.639	-16.727	0.088	0.056
-498.624	-191.037	-0.262	0.003
-497.610	-200.000	0.084	-0.396
-496.595	-50.239	-0.045	0.021
-495.581	-200.000	0.056	-0.284
-494.566	800.000	-0.098	0.357
-493.551	-200.000	0.002	-0.190
-492.537	-48.188	0.164	0.080
-491.522	204.049	-0.212	-0.331
-490.508	71.990	-0.221	-0.232
-489.493	208.146	-0.046	0.072
-488.478	-200.000	-0.057	0.286
-487.464	57.934	-0.376	0.372
-486.449	-22.097	-0.311	-0.191
-485.435	-79.996	-0.102	0.035
-484.420	-81.953	0.342	0.113
-483.405	7.588	0.178	0.135
-482.391	37.797	-0.031	0.028
-481.376	-200.000	0.003	-0.128
-480.362	53.046	0.114	0.110
-479.347	-73.906	-0.177	-0.065
-478.332	-34.952	-0.270	-0.149
-477.318	309.479	0.040	0.075
-476.303	-66.817	-0.208	0.083
-475.289	-200.000	0.057	-0.259
-474.274	4.457	0.079	-0.059
-473.259	171.002	0.064	0.093
-472.245	-200.000	0.031	-0.141
-471.230	-200.000	-0.037	0.271
-470.216	-151.489	-0.330	-0.025
-469.201	-200.000	-0.015	-0.204
-468.186	-200.000	0.008	0.137
-467.172	202.134	0.194	-0.302
-466.157	-12.456	0.193	0.127
-465.143	-60.113	0.116	-0.050
-464.128	41.173	-0.205	-0.187
-463.113	453.396	-0.067	-0.151
-462.099	800.000	-0.033	-0.135
-461.084	-27.654	-0.264	0.155
-460.070	-96.594	-0.312	-0.083
-459.055	155.160	-0.120	-0.167
-458.040	-38.119	-0.191	0.102
-457.026	-130.834	-0.143	0.019
-456.011	-200.000	0.005	0.125
-454.997	-32.756	-0.416	-0.234
-453.982	145.292	-0.124	0.167
-452.968	287.853	-0.150	-0.275
-451.953	-37.515	-0.106	0.057
-450.938	25.960	0.087	-0.073
-449.924	268.785	-0.152	0.269
-448.909	-200.000	0.012	-0.211
-447.895	-60.672	0.167	-0.071
-446.880	-55.671	-0.181	-0.082
-445.865	800.000	-0.053	-0.162
-444.851	211.493	0.092	-0.146
-443.836	394.810	0.092	0.194
-442.822	800.000	-0.065	0.201
-441.807	-107.744	0.291	-0.064
-440.792	-35.643	0.301	-0.165
-439.778	-200.000	-0.017	0.108
-438.763	253.689	-0.061	0.105
-437.749	88.158	-0.136	-0.152
-436.734	-68.977	-0.105	0.041
-435.719	-103.684	-0.404	-0.095
-434.705	-76.025	0.030	0.011
-433.690	-51.613	0.175	0.082
-432.676	-62.402	-0.097	0.041
-431.661	-49.168	-0.188	0.090
-430.646	39.202	-0.451	-0.407
-429.632	-200.000	0.023	-0.234
-428.617	97.402	0.129	0.149
-427.603	-53.326	0.189	-0.087
-426.588	-200.000	-0.014	-0.085
-425.573	-74.309	-0.109	0.040
-424.559	800.000	0.067	0.270
-423.544	-200.000	0.134	-0.001
-422.530	-107.374	-0.303	0.067
-421.515	-93.077	-0.322	0.090
-420.500	6.367	0.119	-0.089
-419.486	64.883	-0.297	0.302
-418.471	90.724	0.080	-0.090
-417.457	-200.000	-0.029	-0.158
-416.442	179.940	-0.124	0.183
-415.428	14.326	0.128	-0.101
-414.413	333.563	0.022	0.044
-413.398	800.000	0.114	0.468
-412.384	-43.651	0.203	-0.103
-411.369	-200.000	0.002	-0.039
-410.355	-69.331	-0.168	0.065
-409.340	-200.000	-0.008	-0.242
-408.325	-111.663	0.461	0.094
-407.311	67.302	-0.236	0.243
-406.296	-58.481	0.330	-0.144
-405.282	-6.869	-0.145	0.099
-404.267	1.855	0.326	0.237
-403.252	800.000	0.028	0.102
-402.238	34.795	0.180	0.158
-401.223	27.275	0.282	0.238
-400.209	800.000	-0.052	0.152
-399.194	-93.405	-0.099	-0.028
-398.179	800.000	0.107	0.298
-397.165	-69.054	0.171	-0.067
-396.150	-101.285	0.180	-0.044
-395.136	460.332	0.116	-0.260
-394.121	151.182	0.217	0.297
-393.106	-99.119	0.156	0.040
-392.092	-200.000	-0.006	0.054
-391.077	-200.000	0.004	0.091
-390.063	-151.001	-0.107	0.008
-389.048	-200.000	0.023	0.162
-388.033	800.000	0.086	0.252
-387.019	86.025	-0.114	-0.126
-386.004	567.068	-0.054	-0.132
-384.990	-200.000	-0.018	0.082
-383.975	159.762	0.108	-0.152
-382.960	266.281	-0.191	-0.335
-381.946	202.329	0.130	0.202
-380.931	-89.487	-0.393	-0.116
-379.917	-131.176	-0.288	0.039
-378.902	-12.662	0.044	-0.029
-377.888	127.083	0.098	-0.125
-376.873	-200.000	-0.040	-0.193
-375.858	-200.000	0.035	-0.202
-374.844	800.000	-0.075	-0.223
-373.829	-200.000	0.028	-0.370
-372.815	-200.000	-0.013	0.223
-371.800	-105.535	-0.156	0.036
-370.785	447.420	-0.134	-0.296
-369.771	-170.569	-0.044	-0.002
-368.756	-37.504	-0.127	0.068
-367.742	-200.000	0.022	-0.146
-366.727	-37.264	-0.204	0.110
-365.712	149.203	-0.173	0.236
-364.698	207.017	0.147	-0.230
-363.683	329.139	-0.045	0.087
-362.669	-74.403	0.362	0.132
-361.654	-83.150	-0.171	-0.055
-360.639	-56.312	0.159	0.071
-359.625	119.407	-0.136	0.169
-358.610	-2.843	-0.073	0.051
-357.596	-107.189	-0.465	0.103
-356.581	195.003	-0.109	-0.166
-355.566	370.573	-0.108	0.220
-354.552	800.000	-0.029	0.109
-353.537	552.330	0.045	0.110
-352.523	-200.000	-0.044	-0.195
-351.508	-200.000	0.041	-0.220
-350.493	5.798	-0.080	0.059
-349.479	-172.481	-0.128	0.004
-348.464	-200.000	-0.059	0.304
-347.450	378.728	-0.178	0.366
-346.435	-27.820	0.256	-0.149
-345.420	-70.029	-0.090	-0.034
-344.406	-152.556	0.115	0.008
-343.391	-200.000	-0.007	0.096
-342.377	131.335	-0.074	-0.095
-341.362	-92.460	0.178	0.050
-340.348	714.590	0.044	0.117
-339.333	-116.875	0.062	-0.011
-338.318	453.011	-0.112	0.250
-337.304	603.550	0.028	0.071
-336.289	-200.000	0.002	-0.136
-335.275	149.519	-0.176	0.240
-334.260	287.398	0.090	-0.163
-333.245	-200.000	0.033	-0.277
-332.231	-55.048	0.327	0.148
-331.216	-55.711	-0.115	-0.052
-330.202	-137.220	0.098	-0.011
-329.187	-200.000	-0.014	0.157
-328.172	-60.103	-0.277	-0.119
-327.158	-174.345	0.228	0.007
-326.143	-30.631	0.094	-0.053
-325.129	150.194	-0.120	-0.164
-324.114	800.000	0.068	-0.274
-323.099	208.519	0.123	-0.193
-322.085	-18.372	-0.172	0.108
-321.070	-61.157	-0.262	0.111
-320.056	95.615	-0.167	-0.192
-319.041	-116.224	0.272	0.051
-318.026	-122.885	-0.176	0.028
-317.012	-52.005	0.334	0.156
-315.997	648.371	0.091	0.233
-314.983	137.593	-0.316	-0.416
-313.968	-125.067	0.272	0.042
-312.953	-200.000	-0.011	-0.061
-311.939	80.140	-0.134	-0.145
-310.924	-200.000	-0.017	0.184
-309.910	65.703	0.278	-0.283
-308.895	-78.981	-0.231	-0.079
-307.880	92.790	0.255	0.289
-306.866	800.000	-0.090	0.262
-305.851	-200.000	0.001	0.360
-304.837	62.486	-0.005	-0.005
-303.822	-200.000	-0.008	-0.178
-302.807	-63.940	-0.078	0.032
-301.793	-155.367	-0.179	0.012
-300.778	96.479	-0.211	0.242
-299.764	-108.476	-0.088	0.019
-298.749	178.028	-0.165	-0.242
-297.735	-200.000	0.040	-0.268
-296.720	276.121	0.148	0.263
-295.705	270.838	-0.122	-0.215
-294.691	83.396	-0.181	-0.197
-293.676	479.868	-0.068	-0.155
-292.662	-81.395	-0.206	-0.068
-291.647	144.697	-0.136	-0.182
-290.632	-147.058	0.092	-0.008
-289.618	-22.267	0.207	-0.126
-288.603	-200.000	-0.009	-0.105
-287.589	-142.869	0.162	0.016
-286.574	-138.057	0.259	-0.029
-285.559	-173.781	0.087	0.003
-284.545	-62.753	-0.182	0.076
-283.530	71.052	-0.167	-0.173
-282.516	-191.294	0.196	0.002
-281.501	60.634	0.048	0.048
-280.486	-41.245	-0.164	-0.085
-279.472	-200.000	0.006	0.107
-278.457	-25.644	-0.217	0.128
-277.443	-200.000	0.023	-0.151
-276.428	-200.000	-0.007	-0.142
-275.413	236.128	-0.165	0.273
-274.399	41.127	0.195	0.177
-273.384	-200.000	-0.022	-0.302
-272.370	387.274	0.073	-0.151
-271.355	-131.226	-0.207	0.028
-270.340	800.000	0.034	0.138
-269.326	-156.753	-0.261	0.016
-268.311	-200.000	0.043	0.326
-267.297	-39.033	-0.106	0.056
-266.282	88.616	0.089	0.099
-265.267	194.302	-0.068	0.104
-264.253	-200.000	-0.004	0.157
-263.238	-200.000	-0.035	0.377
-262.224	-65.738	-0.248	-0.100
-261.209	-67.693	-0.110	0.043
-260.195	140.406	0.160	0.212
-259.180	-48.503	-0.105	-0.051
-258.165	-45.459	-0.196	0.097
-257.151	169.906	-0.086	-0.123
-256.136	-73.384	-0.330	0.121
-255.122	33.977	0.200	0.174
-254.107	800.000	0.057	-0.190
-253.092	439.465	-0.052	0.113
-252.078	-71.249	0.258	0.097
-251.063	34.066	-0.042	-0.036
-250.049	-200.000	0.050	-0.356
-249.034	-44.159	0.393	-0.198
-248.019	-200.000	0.018	0.098
-247.005	-22.475	0.077	0.047
-245.990	282.786	0.096	0.173
-244.976	-154.914	0.194	-0.013
-243.961	-100.114	0.197	-0.049
-242.946	-119.983	0.152	-0.026
-241.932	134.589	0.033	-0.043
-240.917	190.753	0.085	-0.127
-239.903	-42.401	-0.151	0.077
-238.888	173.975	0.051	0.073
-237.873	800.000	-0.034	-0.128
-236.859	652.209	0.117	0.299
-235.844	-82.416	0.129	-0.042
-234.830	259.678	-0.127	-0.219
-233.815	155.043	-0.227	-0.313
-232.800	307.708	0.117	0.219
-231.786	-70.954	-0.156	0.059
-230.771	800.000	0.129	-0.394
-229.757	211.693	-0.113	0.178
-228.742	-48.863	-0.136	0.065
-227.727	60.338	-0.265	0.263
-226.713	-133.198	-0.154	0.020
-225.698	-200.000	-0.021	-0.258
-224.684	-24.855	-0.086	0.051
-223.669	44.494	-0.311	-0.286
-222.655	-14.866	0.277	-0.178
-221.640	-32.845	0.256	0.142
-220.625	-76.656	0.332	0.117
-219.611	-200.000	-0.003	-0.034
-218.596	112.047	0.143	-0.173
-217.582	197.663	0.098	0.149
-216.567	-2.631	0.203	0.142
-215.552	24.548	-0.192	0.159
-214.538	-128.834	-0.221	0.031
-213.523	-88.620	0.215	0.064
-212.509	-130.272	0.299	0.041
-211.494	-200.000	0.007	-0.043
-210.479	-103.114	0.188	0.044
-209.465	-200.000	0.037	-0.226
-208.450	9.581	0.091	0.069
-207.436	309.269	0.224	0.419
-206.421	-167.944	0.294	0.012
-205.406	-105.325	0.249	-0.057
-204.392	-38.371	-0.275	0.145
-203.377	-64.449	0.339	-0.138
-202.363	-200.000	-0.010	0.171
-201.348	28.735	-0.107	0.091
-200.333	-31.941	-0.158	0.088
-199.319	57.313	0.134	-0.131
-198.304	-127.211	0.197	-0.029
-197.290	-109.982	0.224	-0.047
-196.275	0.775	-0.187	-0.134
-195.260	-147.244	-0.245	0.021
-194.246	200.394	-0.162	0.249
-193.231	800.000	0.086	-0.297
-192.217	-99.930	0.117	0.029
-191.202	172.786	0.098	-0.141
-190.187	138.833	-0.099	0.130
-189.173	27.073	0.075	0.063
-188.158	108.911	0.011	-0.013
-187.144	-200.000	0.051	0.372
-186.129	-6.719	-0.273	-0.185
-185.114	800.000	0.039	-0.132
-184.100	-200.000	0.122	0.000
-183.085	-200.000	0.092	0.473
-182.071	-200.000	0.010	0.076
-181.056	-200.000	-0.003	0.134
-180.042	207.591	0.160	0.250
-179.027	-23.355	0.111	0.066
-178.012	800.000	-0.120	-0.385
-176.998	-154.029	0.148	0.010
-175.983	487.025	0.086	0.195
-174.969	119.767	0.262	-0.324
-173.954	664.847	0.119	-0.307
-172.939	-96.793	-0.119	0.031
-171.925	-80.071	-0.204	-0.068
-170.910	-120.668	0.263	0.044
-169.896	-74.911	0.170	-0.061
-168.881	-54.480	-0.236	0.107
-167.866	-200.000	-0.035	-0.176
-166.852	96.914	0.241	0.275
-165.837	16.951	0.150	-0.119
-164.823	-81.557	-0.450	0.148
-163.808	50.321	0.376	0.354
-162.793	800.000	0.084	0.234
-161.779	-33.263	-0.244	0.135
-160.764	-200.000	-0.008	-0.123
-159.750	-40.009	-0.086	-0.045
-158.735	-200.000	-0.031	-0.155
-157.720	-41.540	0.086	-0.044
-156.706	-200.000	-0.010	0.114
-155.691	210.156	-0.265	0.415
-154.677	-21.730	0.283	-0.172
-153.662	282.588	-0.099	0.177
-152.647	-200.000	-0.004	0.056
-151.633	-26.923	0.067	0.039
-150.618	-28.837	-0.173	0.099
-149.604	800.000	-0.072	0.296
-148.589	-200.000	0.038	-0.277
-147.574	800.000	0.045	-0.156
-146.560	559.258	0.160	0.385
-145.545	-200.000	0.007	0.146
-144.531	-142.062	0.183	-0.018
-143.516	-10.851	-0.063	0.041
-142.502	4.760	0.260	0.190
-141.487	8.582	0.375	0.281
-140.472	800.000	0.055	0.170
-139.458	9.708	0.232	0.176
-138.443	-200.000	-0.036	-0.344
-137.429	196.818	0.190	-0.289
-136.414	14.801	0.170	0.133
-135.399	-97.068	0.215	-0.056
-134.385	341.130	-0.142	0.276
-133.370	14.749	0.194	0.151
-132.356	-67.430	-0.174	0.068
-131.341	-71.850	0.211	-0.078
-130.326	51.367	0.203	0.192
-129.312	-96.039	0.230	0.061
-128.297	98.897	0.182	0.210
-127.283	65.428	0.120	0.121
-126.268	8.938	-0.385	0.289
-125.253	-45.111	0.143	0.071
-124.239	372.284	0.125	0.254
-123.224	146.566	0.340	0.455
-122.210	400.931	0.041	0.086
-121.195	151.200	0.167	0.226
-120.180	-200.000	0.000	-0.093
