DTS Sentinel unit serial number:	SN413079Multiplexer serial number:	ORYXHardware model number:	OX4-SRSoftware version number:	ORYX F/W v4.00 Oryx Data Collector v3.7.2.0data status	okinstallation	princeton_trtdifferential loss correction	single-endedforward channel	channel 3reverse channel	N/Adate	2019/09/12time	03:42:10forward acquisition time	60.00reverse acquisition time	0.00gamma	496.2192k internal	0.2322k external	0.2322temperature offset calibration	1.0063default loss term (dB/km)	0.3790temperature slope calibration	1.0000multiplexer offset coefficient	1.0000multiplexer slope coefficient	1.0000fibre end	0.00T internal ref (°C)	32.19T ext. ref 1 (°C)	2.12T ext. ref 2 (°C)	27.32length (m)	temperature (°C)	Stokes	anti-Stokes-747.200	359.477	-0.032	-0.066
-746.185	-70.861	-0.233	0.089
-745.171	-94.663	-0.273	0.075
-744.156	419.438	-0.063	0.136
-743.142	800.000	0.041	0.153
-742.127	-155.238	0.134	-0.009
-741.112	70.314	0.049	-0.051
-740.098	-34.360	0.232	0.129
-739.083	-168.894	-0.296	-0.011
-738.069	239.154	0.085	-0.143
-737.054	159.097	0.200	-0.281
-736.039	90.561	-0.158	-0.179
-735.025	-158.288	-0.405	-0.024
-734.010	800.000	0.039	-0.148
-732.996	216.008	-0.177	-0.284
-731.981	-63.072	-0.341	-0.142
-730.966	-111.549	-0.368	0.076
-729.952	-77.521	-0.241	-0.084
-728.937	-102.138	-0.152	-0.037
-727.923	-113.600	-0.078	0.015
-726.908	-70.465	0.096	0.037
-725.894	-200.000	-0.017	-0.210
-724.879	-123.571	0.121	0.019
-723.864	-200.000	-0.004	0.027
-722.850	800.000	0.039	-0.118
-721.835	-144.445	-0.184	0.017
-720.821	-200.000	-0.035	0.274
-719.806	-200.000	0.024	0.213
-718.791	-200.000	0.032	0.173
-717.777	10.934	0.096	-0.074
-716.762	153.790	-0.128	0.177
-715.748	91.989	0.243	0.276
-714.733	-112.653	-0.486	-0.098
-713.718	579.213	0.028	-0.069
-712.704	-125.597	-0.229	0.035
-711.689	-200.000	-0.012	0.121
-710.675	-118.451	-0.336	0.060
-709.660	-18.960	-0.125	0.078
-708.645	-71.972	-0.222	0.083
-707.631	-83.964	0.192	0.062
-706.616	97.328	-0.165	0.191
-705.602	69.472	-0.117	0.122
-704.587	55.639	0.295	0.288
-703.572	288.684	-0.055	0.101
-702.558	-26.150	-0.160	0.095
-701.543	-163.747	-0.314	0.015
-700.529	-112.516	-0.213	-0.043
-699.514	36.987	-0.228	0.203
-698.499	58.233	-0.110	0.108
-697.485	800.000	-0.034	-0.149
-696.470	100.493	-0.199	0.233
-695.456	-200.000	0.038	0.349
-694.441	-200.000	-0.019	-0.301
-693.426	-200.000	-0.001	0.066
-692.412	-10.982	0.025	-0.016
-691.397	-100.094	-0.189	-0.047
-690.383	-38.293	-0.213	-0.114
-689.368	-94.138	0.395	-0.109
-688.354	-200.000	-0.032	-0.157
-687.339	197.679	-0.215	-0.330
-686.324	-25.033	-0.194	-0.116
-685.310	-72.481	0.070	0.026
-684.295	-32.490	-0.117	0.066
-683.281	135.947	-0.036	-0.048
-682.266	-22.213	-0.076	-0.046
-681.251	109.445	-0.149	0.179
-680.237	800.000	-0.029	-0.113
-679.222	99.698	-0.184	-0.215
-678.208	-147.389	-0.325	0.028
-677.193	-59.613	0.422	0.183
-676.178	-93.985	-0.320	-0.089
-675.164	-71.165	0.138	0.052
-674.149	98.858	-0.168	-0.196
-673.135	-77.857	-0.205	0.071
-672.120	-200.000	-0.012	-0.099
-671.105	-12.725	0.157	0.103
-670.091	-123.821	-0.177	-0.028
-669.076	-200.000	0.011	-0.273
-668.062	-15.390	0.023	-0.015
-667.047	-200.000	0.004	-0.136
-666.032	-200.000	0.026	-0.196
-665.018	-200.000	0.076	-0.346
-664.003	800.000	-0.096	-0.342
-662.989	-200.000	-0.038	0.257
-661.974	-109.703	-0.050	-0.011
-660.959	479.546	-0.132	-0.302
-659.945	-200.000	-0.023	0.195
-658.930	-200.000	0.011	0.050
-657.916	-163.955	-0.189	-0.009
-656.901	194.542	0.065	0.099
-655.886	82.828	0.159	-0.174
-654.872	-200.000	0.000	-0.061
-653.857	349.944	-0.056	0.112
-652.843	-130.052	-0.122	0.017
-651.828	318.123	0.068	-0.129
-650.814	-60.040	-0.169	0.073
-649.799	-200.000	-0.009	0.327
-648.784	-91.938	-0.102	0.029
-647.770	44.092	0.270	0.249
-646.755	-143.941	-0.284	0.027
-645.741	-23.734	0.287	-0.173
-644.726	73.135	-0.078	0.083
-643.711	-200.000	0.005	0.446
-642.697	-71.774	0.134	-0.050
-641.682	-68.973	-0.260	-0.101
-640.668	-78.436	0.171	-0.059
-639.653	-24.814	-0.177	-0.106
-638.638	-181.779	-0.102	0.002
-637.624	800.000	0.043	0.152
-636.609	-85.529	-0.134	0.042
-635.595	-73.888	0.128	0.047
-634.580	-200.000	-0.025	-0.391
-633.565	-113.209	-0.255	0.051
-632.551	71.033	0.185	0.193
-631.536	-200.000	-0.052	-0.235
-630.522	661.447	0.094	-0.244
-629.507	85.981	0.052	-0.057
-628.492	475.003	-0.071	-0.161
-627.478	290.759	0.136	-0.249
-626.463	12.390	0.219	-0.170
-625.449	-45.993	-0.056	-0.028
-624.434	-68.685	0.191	0.074
-623.419	513.276	0.325	0.761
-622.405	88.045	-0.168	-0.188
-621.390	-48.475	0.209	0.101
-620.376	800.000	-0.023	-0.074
-619.361	-200.000	-0.046	-0.213
-618.346	137.916	-0.118	-0.156
-617.332	-200.000	0.035	0.254
-616.317	-101.987	-0.246	-0.060
-615.303	-74.117	0.177	-0.064
-614.288	-200.000	0.009	-0.178
-613.273	-134.377	-0.271	0.033
-612.259	98.270	-0.136	0.157
-611.244	0.577	-0.205	-0.147
-610.230	-67.948	-0.065	0.025
-609.215	-5.014	-0.286	-0.198
-608.201	98.695	-0.125	-0.144
-607.186	5.034	0.132	0.098
-606.171	800.000	-0.081	-0.244
-605.157	-78.593	-0.053	0.018
-604.142	344.521	0.017	0.034
-603.128	-69.896	-0.075	-0.029
-602.113	-200.000	0.033	-0.308
-601.098	-143.698	0.013	0.001
-600.084	189.744	-0.058	0.088
-599.069	7.819	-0.402	-0.302
-598.055	17.257	-0.145	-0.115
-597.040	-134.839	-0.324	-0.039
-596.025	34.137	0.068	-0.059
-595.011	-3.210	0.427	-0.299
-593.996	-58.262	-0.274	0.120
-592.982	800.000	-0.039	-0.155
-591.967	-200.000	-0.019	0.204
-590.952	-180.485	-0.205	-0.004
-589.938	174.412	0.028	0.041
-588.923	-97.887	0.276	-0.072
-587.909	-20.721	0.053	0.032
-586.894	-28.080	-0.107	-0.062
-585.879	63.670	0.124	0.125
-584.865	67.599	-0.348	-0.357
-583.850	-200.000	0.006	0.041
-582.836	-146.422	0.071	-0.006
-581.821	-109.025	-0.406	0.087
-580.806	-200.000	0.024	0.266
-579.792	800.000	0.070	0.223
-578.777	800.000	-0.027	-0.117
-577.763	-97.469	-0.202	-0.053
-576.748	-200.000	0.248	-0.000
-575.733	49.478	0.137	0.129
-574.719	-200.000	0.001	-0.013
-573.704	-151.793	0.665	0.049
-572.690	113.511	0.015	0.019
-571.675	-28.788	-0.287	-0.166
-570.661	-200.000	0.001	0.083
-569.646	132.180	-0.070	-0.091
-568.631	-33.986	-0.260	-0.144
-567.617	85.713	-0.235	0.260
-566.602	323.016	-0.146	0.279
-565.588	-42.405	-0.144	0.073
-564.573	74.754	0.010	0.011
-563.558	46.474	-0.168	0.156
-562.544	-109.030	-0.389	0.083
-561.529	426.007	-0.071	0.154
-560.515	393.745	0.005	-0.010
-559.500	-47.027	0.253	-0.124
-558.485	-14.977	0.178	0.115
-557.471	483.592	0.073	-0.167
-556.456	-92.511	0.295	-0.083
-555.442	-80.422	0.127	-0.042
-554.427	168.152	0.135	-0.192
-553.412	35.315	-0.206	0.181
-552.398	-13.170	-0.268	-0.175
-551.383	134.452	0.112	-0.146
-550.369	134.533	-0.163	-0.212
-549.354	332.962	-0.183	-0.354
-548.339	-48.466	-0.326	-0.157
-547.325	-179.690	-0.264	-0.006
-546.310	-120.061	-0.234	0.040
-545.296	800.000	-0.067	-0.200
-544.281	255.628	0.123	-0.211
-543.266	29.933	0.248	0.212
-542.252	75.511	-0.050	0.053
-541.237	-162.290	-0.141	-0.007
-540.223	-200.000	0.028	-0.200
-539.208	30.543	0.288	-0.247
-538.193	343.188	0.186	-0.366
-537.179	-200.000	0.007	-0.202
-536.164	174.734	0.053	0.077
-535.150	73.242	0.302	0.316
-534.135	402.864	0.088	-0.186
-533.121	100.133	-0.097	0.112
-532.106	-29.003	0.205	0.118
-531.091	-200.000	-0.005	-0.031
-530.077	-48.827	-0.062	0.030
-529.062	-200.000	-0.199	0.000
-528.048	129.689	-0.175	-0.225
-527.033	421.550	0.111	-0.238
-526.018	416.693	-0.152	-0.325
-525.004	800.000	0.079	0.231
-523.989	-124.717	-0.203	-0.031
-522.975	-134.280	-0.340	-0.042
-521.960	-99.009	-0.281	0.071
-520.945	143.441	-0.171	-0.228
-519.931	7.900	0.388	-0.292
-518.916	-80.913	-0.230	0.076
-517.902	177.037	0.005	-0.007
-516.887	-173.935	0.318	0.009
-515.872	-158.265	0.300	0.018
-514.858	163.722	-0.273	-0.385
-513.843	-119.574	0.099	0.017
-512.829	-200.000	0.013	-0.392
-511.814	-118.201	-0.164	-0.029
-510.799	-83.446	-0.290	0.093
-509.785	304.588	-0.145	0.269
-508.770	-48.635	-0.218	-0.105
-507.756	800.000	-0.048	-0.156
-506.741	335.219	0.067	-0.130
-505.726	-61.772	0.017	0.007
-504.712	258.789	-0.140	-0.242
-503.697	-76.957	0.051	-0.018
-502.683	320.951	0.062	-0.118
-501.668	33.686	-0.329	-0.286
-500.653	-148.464	0.039	-0.003
-499.639	189.871	0.058	0.086
-498.624	165.621	-0.237	-0.335
-497.610	495.706	-0.150	0.346
-496.595	-200.000	0.009	0.042
-495.581	198.026	-0.178	-0.272
-494.566	404.133	0.118	-0.248
-493.551	-26.106	0.155	-0.091
-492.537	323.635	-0.146	0.280
-491.522	800.000	0.112	0.367
-490.508	-117.533	0.292	0.053
-489.493	366.549	0.098	-0.198
-488.478	126.461	-0.032	0.040
-487.464	-48.089	-0.116	-0.056
-486.449	365.427	-0.078	0.157
-485.435	20.031	0.108	-0.087
-484.420	96.350	-0.079	-0.091
-483.405	14.427	0.145	0.113
-482.391	105.275	-0.043	-0.051
-481.376	108.045	-0.154	-0.184
-480.362	-200.000	-0.003	-0.030
-479.347	800.000	-0.021	0.077
-478.332	-12.439	0.284	-0.186
-477.318	13.455	0.085	0.066
-476.303	-95.606	0.370	-0.099
-475.289	-74.681	0.619	-0.222
-474.274	155.712	-0.051	-0.070
-473.259	-50.418	-0.258	0.122
-472.245	-200.000	0.005	0.088
-471.230	-109.002	-0.019	-0.004
-470.216	0.432	-0.423	0.302
-469.201	89.544	0.268	0.299
-468.186	-74.510	-0.148	-0.053
-467.172	-9.082	-0.303	0.203
-466.157	-171.720	0.277	0.009
-465.143	189.906	0.172	-0.258
-464.128	328.052	0.053	-0.101
-463.113	-106.792	-0.310	0.069
-462.099	-55.436	-0.375	0.168
-461.084	-122.389	0.150	0.025
-460.070	125.208	0.370	0.467
-459.055	9.496	0.101	-0.076
-458.040	287.515	-0.122	-0.220
-457.026	80.476	-0.157	0.169
-456.011	143.914	-0.111	0.148
-454.997	-61.597	0.220	-0.092
-453.982	278.692	0.233	0.414
-452.968	232.001	-0.176	-0.289
-451.953	-147.693	0.238	-0.020
-450.938	800.000	-0.056	-0.186
-449.924	-200.000	0.048	0.345
-448.909	-132.887	0.209	0.027
-447.895	89.226	0.188	0.209
-446.880	-200.000	0.011	0.119
-445.865	-200.000	0.020	0.096
-444.851	-140.091	-0.329	-0.035
-443.836	-155.963	-0.038	0.002
-442.822	-123.550	0.266	0.042
-441.807	75.657	-0.280	0.296
-440.792	-83.869	0.189	0.060
-439.778	9.537	0.328	-0.248
-438.763	-76.202	0.126	-0.044
-437.749	800.000	-0.069	0.246
-436.734	-200.000	0.026	-0.119
-435.719	-62.011	-0.311	0.130
-434.705	248.530	-0.158	-0.267
-433.690	-11.393	-0.104	0.069
-432.676	-69.808	0.240	-0.091
-431.661	800.000	0.037	0.134
-430.646	-155.286	-0.125	-0.008
-429.632	-6.696	0.309	0.210
-428.617	-200.000	0.022	0.372
-427.603	-34.416	0.217	-0.119
-426.588	-23.940	0.193	-0.115
-425.573	235.367	0.070	-0.115
-424.559	-33.489	-0.326	-0.180
-423.544	-124.191	0.404	0.063
-422.530	93.117	0.028	-0.032
-421.515	-71.863	-0.161	-0.060
-420.500	-51.273	-0.189	-0.088
-419.486	11.383	-0.363	0.277
-418.471	800.000	0.040	-0.141
-417.457	391.487	-0.077	-0.159
-416.442	-76.103	-0.263	-0.093
-415.428	-21.735	0.248	0.150
-414.413	-106.799	-0.561	0.124
-413.398	17.523	0.137	0.108
-412.384	800.000	-0.024	-0.074
-411.369	53.411	-0.157	0.150
-410.355	717.446	-0.046	-0.123
-409.340	-89.652	-0.224	-0.066
-408.325	-200.000	-0.005	0.161
-407.311	-83.042	0.005	0.002
-406.296	-30.130	-0.165	-0.093
-405.282	-76.227	-0.128	-0.045
-404.267	-113.091	0.112	0.022
-403.252	800.000	-0.132	-0.423
-402.238	-56.046	0.094	-0.042
-401.223	5.445	0.336	0.247
-400.209	29.356	-0.265	-0.224
-399.194	800.000	0.025	-0.087
-398.179	-113.518	-0.041	-0.008
-397.165	-15.022	0.304	-0.195
-396.150	-200.000	-0.015	-0.159
-395.136	-200.000	0.018	0.204
-394.121	265.175	-0.085	-0.148
-393.106	79.578	0.018	-0.019
-392.092	-200.000	0.037	0.295
-391.077	800.000	0.043	0.158
-390.063	135.597	-0.123	-0.160
-389.048	428.988	-0.109	0.235
-388.033	-161.543	-0.088	0.004
-387.019	-200.000	0.035	0.348
-386.004	800.000	-0.069	-0.193
-384.990	379.110	-0.042	-0.085
-383.975	363.237	0.038	0.077
-382.960	-0.572	-0.116	0.082
-381.946	-108.693	-0.016	-0.003
-380.931	29.411	-0.175	0.148
-379.917	-78.498	-0.609	0.208
-378.902	-14.707	0.173	0.110
-377.888	4.251	-0.182	-0.133
-376.873	144.508	0.097	0.130
-375.858	-94.596	-0.351	-0.095
-374.844	153.719	0.178	0.243
-373.829	-200.000	0.009	0.152
-372.815	680.132	-0.068	0.176
-371.800	-133.375	-0.264	-0.033
-370.785	-3.683	-0.140	-0.097
-369.771	90.222	-0.229	0.255
-368.756	-200.000	0.012	-0.059
-367.742	78.487	0.254	-0.270
-366.727	-200.000	0.019	0.115
-365.712	-139.064	0.407	-0.044
-364.698	246.420	0.178	0.298
-363.683	49.552	-0.191	-0.179
-362.669	-156.029	0.244	-0.015
-361.654	-53.277	0.256	0.117
-360.639	50.715	-0.118	-0.112
-359.625	800.000	-0.012	0.036
-358.610	-200.000	-0.002	0.303
-357.596	35.463	-0.230	0.201
-356.581	-142.146	-0.241	0.024
-355.566	-131.106	0.267	-0.035
-354.552	303.198	0.108	-0.199
-353.537	24.525	0.124	-0.102
-352.523	-99.712	0.190	0.047
-351.508	800.000	-0.054	-0.179
-350.493	-200.000	0.005	-0.061
-349.479	-34.162	-0.375	-0.205
-348.464	-119.887	0.486	0.083
-347.450	386.954	-0.027	0.055
-346.435	-100.578	-0.195	-0.048
-345.420	-200.000	-0.051	0.401
-344.406	611.077	0.055	0.136
-343.391	-200.000	-0.015	0.078
-342.377	372.279	-0.067	-0.136
-341.362	-97.403	0.149	0.038
-340.348	-6.781	-0.149	-0.101
-339.333	-200.000	0.003	0.379
-338.318	-104.055	0.405	0.094
-337.304	800.000	-0.014	0.060
-336.289	662.378	0.045	-0.116
-335.275	-29.794	-0.082	0.046
-334.260	49.565	-0.119	-0.111
-333.245	65.788	-0.119	-0.119
-332.231	192.470	-0.118	-0.176
-331.216	800.000	0.070	0.216
-330.202	-108.584	-0.119	-0.025
-329.187	-200.000	0.002	0.087
-328.172	-38.881	0.257	0.134
-327.158	151.014	0.061	0.082
-326.143	85.751	0.069	0.075
-325.129	672.922	0.064	-0.166
-324.114	89.210	-0.201	0.223
-323.099	207.030	0.045	-0.070
-322.085	96.524	-0.098	-0.111
-321.070	89.778	-0.163	-0.180
-320.056	800.000	0.073	-0.245
-319.041	420.454	-0.047	0.100
-318.026	800.000	0.052	0.162
-317.012	7.613	0.104	-0.078
-315.997	-200.000	0.018	-0.124
-314.983	-200.000	0.018	-0.151
-313.968	22.430	0.137	-0.111
-312.953	-93.636	0.266	-0.073
-311.939	800.000	0.097	-0.285
-310.924	800.000	-0.037	0.118
-309.910	-0.616	0.152	-0.107
-308.895	-200.000	0.035	0.485
-307.880	-10.480	-0.135	0.089
-306.866	82.855	-0.200	0.216
-305.851	800.000	-0.062	0.203
-304.837	413.432	0.088	0.185
-303.822	-200.000	0.014	-0.103
-302.807	800.000	0.127	0.364
-301.793	-108.050	-0.207	0.045
-300.778	41.176	0.036	0.033
-299.764	800.000	-0.108	-0.305
-298.749	800.000	-0.074	0.226
-297.735	-6.211	0.267	-0.181
-296.720	-179.520	0.183	-0.004
-295.705	182.987	-0.140	-0.206
-294.691	-200.000	-0.053	0.239
-293.676	188.361	-0.121	0.179
-292.662	800.000	-0.102	-0.352
-291.647	-200.000	-0.004	-0.402
-290.632	56.269	-0.095	-0.092
-289.618	-116.560	0.128	0.023
-288.603	-129.316	-0.138	-0.019
-287.589	27.785	0.022	-0.019
-286.574	-200.000	0.025	0.118
-285.559	-90.447	0.310	0.089
-284.545	-104.183	-0.064	-0.015
-283.530	-39.404	0.138	-0.072
-282.516	-54.004	0.570	0.258
-281.501	119.136	-0.083	-0.102
-280.486	1.693	-0.117	0.083
-279.472	312.968	-0.073	-0.136
-278.457	-200.000	0.029	-0.421
-277.443	-200.000	-0.004	-0.053
-276.428	-25.755	0.369	-0.216
-275.413	800.000	0.045	-0.171
-274.399	275.050	0.151	0.266
-273.384	-143.941	-0.371	0.035
-272.370	22.649	0.099	-0.080
-271.355	-28.759	-0.085	0.049
-270.340	-200.000	0.011	-0.119
-269.326	-127.116	0.149	-0.022
-268.311	-127.779	0.202	0.029
-267.297	-32.193	0.079	-0.044
-266.282	-89.785	0.290	0.084
-265.267	135.567	0.036	-0.046
-264.253	464.306	-0.066	0.146
-263.238	-125.728	0.334	0.050
-262.224	-162.348	-0.184	0.009
-261.209	-88.135	-0.145	0.043
-260.195	-14.789	0.369	0.235
-259.180	638.468	0.050	-0.126
-258.165	70.589	0.063	0.065
-257.151	-80.014	0.254	0.085
-256.136	155.725	-0.055	-0.075
-255.122	170.355	0.099	0.140
-254.107	69.706	-0.108	0.110
-253.092	800.000	0.056	0.167
-252.078	-44.189	-0.108	-0.054
-251.063	-198.142	0.264	0.002
-250.049	-200.000	-0.036	0.303
-249.034	-20.781	-0.255	0.155
-248.019	25.389	0.066	-0.055
-247.005	255.143	0.030	-0.051
-245.990	-126.457	0.233	0.034
-244.976	21.585	-0.084	0.068
-243.961	-200.000	0.007	-0.446
-242.946	20.807	-0.130	-0.104
-241.932	-25.925	0.338	0.197
-240.917	-51.908	-0.123	0.057
-239.903	12.528	0.284	-0.217
-238.888	800.000	0.029	-0.107
-237.873	-141.160	-0.135	-0.014
-236.859	24.838	0.175	0.143
-235.844	293.613	0.106	0.191
-234.830	-72.604	0.184	0.067
-233.815	150.240	-0.065	0.087
-232.800	13.730	0.286	-0.220
-231.786	18.476	-0.163	-0.129
-230.771	78.532	0.048	0.051
-229.757	1.345	-0.127	0.090
-228.742	424.003	-0.045	0.095
-227.727	-51.937	0.191	0.088
-226.713	3.055	0.127	-0.092
-225.698	-200.000	-0.027	-0.191
-224.684	-140.236	0.220	-0.023
-223.669	-86.635	0.056	-0.017
-222.655	8.733	-0.297	0.222
-221.640	-90.012	0.312	0.090
-220.625	-200.000	-0.067	0.311
-219.611	-193.904	-0.157	-0.001
-218.596	-200.000	-0.028	0.284
-217.582	800.000	0.049	-0.166
-216.567	-17.260	-0.268	-0.167
-215.552	800.000	-0.060	0.242
-214.538	634.175	0.055	0.138
-213.523	-163.985	0.360	-0.017
-212.509	-76.080	0.151	0.053
-211.494	14.041	0.238	-0.183
-210.479	-32.170	0.049	0.027
-209.465	-84.006	0.528	0.166
-208.450	-30.687	-0.064	0.036
-207.436	770.038	-0.157	0.424
-206.421	-37.171	-0.182	0.096
-205.406	-200.000	0.037	0.271
-204.392	-200.000	0.000	-0.191
-203.377	386.021	0.101	0.206
-202.363	-99.266	0.166	0.042
-201.348	86.573	0.072	-0.079
-200.333	-200.000	-0.043	-0.463
-199.319	-200.000	-0.007	-0.058
-198.304	490.345	0.056	-0.127
-197.290	-147.471	-0.157	0.013
-196.275	-200.000	-0.044	-0.472
-195.260	-30.715	-0.296	0.166
-194.246	-200.000	-0.018	-0.145
-193.231	-38.611	-0.173	-0.090
-192.217	-200.000	0.036	-0.263
-191.202	-0.933	0.076	-0.054
-190.187	-156.245	-0.128	-0.008
-189.173	81.566	0.219	-0.234
-188.158	99.530	0.163	0.186
-187.144	145.354	-0.091	-0.121
-186.129	123.731	-0.072	0.090
-185.114	-94.770	-0.478	0.128
-184.100	-200.000	0.011	-0.263
-183.085	9.872	0.146	0.110
-182.071	193.560	0.130	-0.194
-181.056	-200.000	0.061	0.292
-180.042	95.888	0.028	-0.032
-179.027	-200.000	0.002	-0.109
-178.012	-134.392	-0.364	0.044
-176.998	-80.206	0.471	-0.156
-175.983	14.455	0.146	0.112
-174.969	249.731	0.232	0.389
-173.954	-160.288	-0.233	-0.012
-172.939	-30.365	0.034	-0.019
-171.925	-12.768	0.045	0.029
-170.910	125.762	-0.068	-0.085
-169.896	569.207	-0.066	0.159
-168.881	-45.234	0.255	0.125
-167.866	8.998	-0.212	0.158
-166.852	132.797	-0.115	0.146
-165.837	-200.000	-0.018	0.259
-164.823	-200.000	0.028	-0.171
-163.808	-200.000	-0.010	0.065
-162.793	393.276	0.124	0.256
-161.779	800.000	-0.064	-0.259
-160.764	-14.649	0.148	-0.094
-159.750	-64.501	0.192	-0.077
-158.735	-127.725	-0.131	-0.019
-157.720	86.102	0.039	0.043
-156.706	-73.746	-0.268	-0.096
-155.691	-200.000	0.089	0.445
-154.677	-133.409	0.165	0.020
-153.662	60.444	-0.138	-0.135
-152.647	-135.322	-0.146	0.017
-151.633	-200.000	0.037	0.333
-150.618	-41.061	0.187	0.095
-149.604	-200.000	-0.007	-0.123
-148.589	-20.517	-0.195	-0.118
-147.574	-18.032	0.144	-0.089
-146.560	-83.263	0.102	0.032
-145.545	403.859	-0.116	0.241
-144.531	-103.305	-0.034	-0.008
-143.516	800.000	0.064	-0.246
-142.502	702.968	-0.061	-0.158
-141.487	-52.832	-0.209	-0.095
-140.472	68.348	0.157	0.159
-139.458	-65.010	0.333	-0.133
-138.443	-200.000	0.006	0.046
-137.429	-73.398	0.384	-0.139
-136.414	-200.000	-0.025	0.167
-135.399	157.396	0.132	0.181
-134.385	218.669	0.019	0.030
-133.370	-200.000	-0.082	0.417
-132.356	385.163	0.167	0.339
-131.341	-84.646	-0.214	0.067
-130.326	-68.017	-0.208	0.080
-129.312	357.941	-0.129	0.254
-128.297	-200.000	-0.020	-0.184
-127.283	98.335	0.109	0.124
-126.268	36.793	0.293	0.255
-125.253	-66.062	-0.123	0.048
-124.239	-64.619	0.106	0.042
-123.224	152.067	-0.038	-0.051
-122.210	800.000	0.103	0.408
-121.195	-200.000	0.017	-0.087
