DTS Sentinel unit serial number:	SN413079Multiplexer serial number:	ORYXHardware model number:	OX4-SRSoftware version number:	ORYX F/W v4.00 Oryx Data Collector v3.7.2.0data status	okinstallation	princeton_trtdifferential loss correction	single-endedforward channel	channel 3reverse channel	N/Adate	2019/09/16time	13:08:35forward acquisition time	60.00reverse acquisition time	0.00gamma	496.2192k internal	0.2294k external	0.2294temperature offset calibration	0.9940default loss term (dB/km)	0.3790temperature slope calibration	1.0000multiplexer offset coefficient	1.0000multiplexer slope coefficient	1.0000fibre end	0.00T internal ref (°C)	40.87T ext. ref 1 (°C)	13.65T ext. ref 2 (°C)	38.81length (m)	temperature (°C)	Stokes	anti-Stokes-747.200	82.931	-0.301	0.335
-746.185	-23.146	-0.124	0.076
-745.171	150.855	-0.153	0.213
-744.156	-200.000	0.023	0.374
-743.142	-48.440	0.386	0.190
-742.127	-103.092	0.150	0.036
-741.112	-33.833	0.104	-0.059
-740.098	-184.348	-0.166	-0.003
-739.083	800.000	-0.024	-0.069
-738.069	-48.837	-0.129	-0.063
-737.054	233.747	0.110	-0.185
-736.039	-200.000	-0.027	-0.129
-735.025	165.697	0.183	-0.265
-734.010	-200.000	-0.121	-0.614
-732.996	433.855	0.108	-0.239
-731.981	-200.000	-0.009	-0.083
-730.966	-46.977	-0.289	0.144
-729.952	-200.000	-0.017	0.169
-728.937	-167.789	0.222	0.009
-727.923	-46.722	-0.033	-0.016
-726.908	-84.836	-0.379	0.122
-725.894	-77.734	-0.185	0.065
-724.879	-9.510	0.136	-0.093
-723.864	424.198	0.075	-0.164
-722.850	19.514	-0.118	0.097
-721.835	202.028	-0.102	0.161
-720.821	-32.665	0.125	-0.071
-719.806	61.008	0.364	-0.370
-718.791	800.000	0.061	-0.190
-717.777	-44.022	-0.145	0.074
-716.762	120.933	-0.097	0.123
-715.748	-29.725	-0.186	0.108
-714.733	-41.212	-0.304	0.160
-713.718	-200.000	0.049	-0.276
-712.704	177.953	-0.105	-0.156
-711.689	11.217	-0.198	0.155
-710.675	-81.578	0.447	-0.150
-709.660	-43.238	0.078	0.040
-708.645	-200.000	-0.001	0.252
-707.631	-44.654	-0.268	-0.137
-706.616	-33.009	-0.280	0.159
-705.602	43.275	-0.243	-0.227
-704.587	800.000	-0.048	-0.179
-703.572	-125.337	0.207	0.032
-702.558	-124.649	0.299	-0.047
-701.543	568.115	0.063	-0.157
-700.529	-42.106	0.198	0.103
-699.514	-109.658	0.189	-0.041
-698.499	-96.284	-0.229	0.062
-697.485	-40.223	0.083	-0.044
-696.470	271.761	0.049	0.088
-695.456	-108.680	0.423	-0.093
-694.441	-200.000	-0.029	0.202
-693.426	-66.170	-0.220	0.090
-692.412	-74.266	0.141	-0.052
-691.397	118.484	0.102	0.129
-690.383	19.584	0.332	0.273
-689.368	594.130	0.061	-0.154
-688.354	151.602	-0.176	0.245
-687.339	-130.530	0.168	-0.023
-686.324	-20.841	0.282	0.176
-685.310	123.440	-0.123	-0.157
-684.295	71.607	-0.109	-0.116
-683.281	6.457	-0.302	-0.229
-682.266	-200.000	-0.040	-0.214
-681.251	21.667	0.185	-0.154
-680.237	-17.058	-0.344	-0.222
-679.222	-49.262	-0.186	0.091
-678.208	-75.260	0.150	0.055
-677.193	-52.761	0.098	0.046
-676.178	-86.197	-0.229	0.072
-675.164	678.165	-0.105	-0.279
-674.149	-200.000	0.061	0.330
-673.135	16.665	-0.191	-0.154
-672.120	627.375	-0.116	-0.300
-671.105	-56.532	-0.218	-0.099
-670.091	330.511	-0.142	-0.279
-669.076	-159.920	-0.286	-0.016
-668.062	-47.300	-0.214	-0.106
-667.047	608.590	0.119	-0.304
-666.032	322.403	-0.051	0.099
-665.018	-200.000	0.313	-0.001
-664.003	-69.596	-0.102	0.040
-662.989	11.998	-0.203	-0.159
-661.974	-159.650	0.502	-0.028
-660.959	-42.951	-0.279	-0.144
-659.945	91.619	0.171	-0.196
-658.930	-200.000	0.030	0.141
-657.916	-62.030	-0.154	0.065
-656.901	800.000	0.069	-0.234
-655.886	-104.730	-0.306	0.072
-654.872	800.000	-0.013	-0.041
-653.857	154.572	0.227	0.317
-652.843	76.601	-0.215	0.232
-651.828	-200.000	-0.001	-0.012
-650.814	-200.000	-0.002	0.198
-649.799	-141.108	-0.094	-0.010
-648.784	800.000	0.034	0.115
-647.770	800.000	0.106	-0.311
-646.755	800.000	0.049	0.182
-645.741	-181.050	-0.325	-0.007
-644.726	-102.600	0.208	0.051
-643.711	-171.879	0.199	-0.007
-642.697	15.063	0.217	-0.173
-641.682	114.514	0.085	-0.105
-640.668	-200.000	-0.044	-0.205
-639.653	218.574	0.163	0.265
-638.638	-62.442	-0.368	0.156
-637.624	-19.402	-0.150	0.095
-636.609	-40.041	-0.062	0.033
-635.595	800.000	-0.051	0.147
-634.580	800.000	0.096	0.328
-633.565	340.212	0.160	0.317
-632.551	0.157	-0.115	0.084
-631.536	-20.458	0.193	0.121
-630.522	147.845	0.071	0.098
-629.507	11.884	-0.106	-0.083
-628.492	800.000	-0.007	-0.022
-627.478	800.000	-0.027	-0.115
-626.463	-174.432	-0.275	0.008
-625.449	-13.090	0.316	0.209
-624.434	242.721	0.253	0.431
-623.419	33.215	-0.121	0.107
-622.405	86.709	-0.165	0.185
-621.390	800.000	0.052	0.149
-620.376	588.552	-0.032	0.080
-619.361	800.000	-0.100	-0.333
-618.346	-71.959	0.196	-0.074
-617.332	166.461	-0.053	0.076
-616.317	187.658	0.086	0.130
-615.303	-200.000	0.029	-0.166
-614.288	481.637	0.094	-0.217
-613.273	225.196	0.097	-0.160
-612.259	-72.247	0.061	0.023
-611.244	-200.000	-0.004	-0.320
-610.230	-79.371	-0.315	0.109
-609.215	-18.760	-0.567	0.359
-608.201	-18.455	0.067	0.042
-607.186	-34.900	0.195	-0.108
-606.171	-104.832	-0.126	-0.029
-605.157	800.000	-0.081	0.258
-604.142	-45.194	-0.197	-0.099
-603.128	800.000	0.110	-0.367
-602.113	672.215	0.034	-0.089
-601.098	-200.000	0.012	0.329
-600.084	-200.000	-0.016	0.150
-599.069	-68.572	-0.108	-0.043
-598.055	64.898	-0.147	-0.151
-597.040	6.582	0.260	0.197
-596.025	-51.956	-0.228	0.108
-595.011	-200.000	-0.002	-0.065
-593.996	-200.000	-0.048	-0.352
-592.982	363.731	0.121	0.247
-591.967	-200.000	-0.023	0.287
-590.952	-136.411	-0.301	0.036
-589.938	160.625	0.110	-0.155
-588.923	90.233	-0.064	-0.073
-587.909	144.760	-0.056	-0.077
-586.894	-200.000	0.130	-0.000
-585.879	16.321	0.041	0.033
-584.865	-200.000	0.019	-0.114
-583.850	800.000	0.095	-0.286
-582.836	800.000	0.018	-0.077
-581.821	-200.000	-0.011	-0.055
-580.806	776.197	-0.028	-0.077
-579.792	-112.036	0.177	-0.036
-578.777	-200.000	-0.027	-0.126
-577.763	10.883	0.159	-0.123
-576.748	495.330	0.052	0.121
-575.733	118.449	-0.219	0.274
-574.719	800.000	-0.078	0.243
-573.704	126.787	0.208	0.268
-572.690	54.580	0.150	0.147
-571.675	800.000	0.050	-0.213
-570.661	-183.632	0.321	-0.006
-569.646	-132.201	0.114	0.015
-568.631	-200.000	-0.002	0.147
-567.617	215.845	-0.122	-0.196
-566.602	-200.000	0.033	0.370
-565.588	-88.784	-0.293	0.088
-564.573	18.872	-0.271	-0.221
-563.558	-97.720	0.044	0.011
-562.544	800.000	0.120	-0.390
-561.529	-136.854	0.344	-0.040
-560.515	518.323	0.131	-0.312
-559.500	-17.867	0.231	0.147
-558.485	56.575	-0.088	0.087
-557.471	-94.580	-0.113	-0.031
-556.456	77.780	-0.112	0.121
-555.442	340.207	0.162	-0.321
-554.427	-76.260	-0.142	0.051
-553.412	800.000	-0.069	0.200
-552.398	-149.594	0.169	0.014
-551.383	9.502	0.291	0.224
-550.369	800.000	0.031	0.097
-549.354	-200.000	-0.010	-0.057
-548.339	-200.000	0.034	-0.254
-547.325	-45.873	-0.169	-0.085
-546.310	-200.000	0.055	-0.255
-545.296	-54.635	0.170	0.078
-544.281	-200.000	0.019	-0.100
-543.266	-183.917	-0.106	0.002
-542.252	396.360	0.121	-0.257
-541.237	-200.000	-0.009	-0.165
-540.223	-112.407	0.281	-0.057
-539.208	-200.000	0.036	0.242
-538.193	-200.000	0.004	0.039
-537.179	50.715	-0.171	-0.164
-536.164	20.392	-0.137	0.112
-535.150	384.297	0.037	0.077
-534.135	-65.885	-0.108	-0.044
-533.121	-130.458	0.118	0.016
-532.106	-200.000	0.018	0.150
-531.091	21.787	-0.179	0.148
-530.077	196.509	0.140	-0.216
-529.062	-41.343	0.278	-0.145
-528.048	-200.000	-0.020	-0.192
-527.033	-200.000	-0.037	-0.279
-526.018	56.977	-0.180	0.178
-525.004	368.171	0.052	0.106
-523.989	-110.072	-0.344	0.073
-522.975	100.487	-0.132	-0.155
-521.960	-192.065	-0.162	-0.002
-520.945	-24.945	0.155	0.093
-519.931	-31.955	-0.463	0.263
-518.916	800.000	-0.090	-0.285
-517.902	563.690	-0.133	0.328
-516.887	800.000	-0.055	0.175
-515.872	53.360	-0.083	-0.081
-514.858	171.653	-0.044	-0.065
-513.843	-124.971	-0.200	-0.031
-512.829	15.694	-0.254	-0.202
-511.814	800.000	0.084	-0.316
-510.799	-163.159	-0.539	0.026
-509.785	62.687	0.229	-0.233
-508.770	800.000	0.077	0.223
-507.756	81.764	-0.123	-0.134
-506.741	-69.837	-0.207	-0.080
-505.726	581.117	-0.013	-0.032
-504.712	-121.099	0.255	-0.043
-503.697	-200.000	-0.020	0.154
-502.683	-200.000	0.003	0.229
-501.668	-154.870	0.262	0.018
-500.653	109.773	0.091	0.111
-499.639	259.265	-0.035	0.062
-498.624	32.396	0.084	0.074
-497.610	44.100	-0.179	-0.166
-496.595	420.416	0.087	0.190
-495.581	800.000	-0.057	-0.209
-494.566	386.130	-0.152	-0.319
-493.551	97.794	0.206	-0.240
-492.537	-200.000	0.005	-0.173
-491.522	15.866	0.095	-0.076
-490.508	135.065	0.066	-0.087
-489.493	-133.641	0.241	0.030
-488.478	-200.000	0.031	-0.183
-487.464	496.811	0.150	-0.350
-486.449	-6.390	-0.222	0.153
-485.435	-123.047	0.094	-0.015
-484.420	50.786	-0.141	0.135
-483.405	800.000	0.022	0.072
-482.391	-200.000	-0.001	0.073
-481.376	-49.068	-0.172	-0.083
-480.362	94.242	-0.117	0.135
-479.347	68.467	0.136	-0.141
-478.332	98.166	-0.152	0.177
-477.318	-200.000	0.010	0.049
-476.303	-68.954	-0.165	-0.064
-475.289	800.000	0.078	-0.222
-474.274	-19.514	0.421	-0.264
-473.259	-143.260	-0.103	0.010
-472.245	-129.135	0.110	-0.016
-471.230	48.013	-0.178	0.168
-470.216	-86.223	-0.325	-0.101
-469.201	473.258	0.080	0.183
-468.186	800.000	-0.014	-0.044
-467.172	-200.000	0.020	-0.129
-466.157	128.482	0.169	0.218
-465.143	800.000	-0.062	0.272
-464.128	-200.000	0.052	-0.296
-463.113	-27.590	-0.077	-0.045
-462.099	-200.000	-0.031	0.143
-461.084	-51.003	0.082	-0.039
-460.070	370.848	0.149	-0.305
-459.055	800.000	0.018	0.050
-458.040	-200.000	0.027	-0.283
-457.026	97.380	0.161	0.187
-456.011	201.797	-0.201	0.314
-454.997	-122.496	-0.108	0.018
-453.982	-95.734	0.160	0.043
-452.968	162.639	0.172	0.244
-451.953	-23.203	0.217	0.132
-450.938	-51.826	-0.140	-0.066
-449.924	-161.142	-0.293	0.015
-448.909	-200.000	-0.025	-0.146
-447.895	-68.182	-0.086	-0.034
-446.880	-200.000	-0.059	-0.452
-445.865	-120.169	-0.135	-0.023
-444.851	371.768	-0.118	0.242
-443.836	-39.405	0.193	-0.102
-442.822	-51.806	-0.232	0.109
-441.807	-21.537	-0.252	-0.155
-440.792	-54.906	0.097	0.044
-439.778	542.549	0.084	-0.202
-438.763	-3.348	-0.176	-0.124
-437.749	-108.546	0.068	-0.015
-436.734	182.429	-0.110	0.164
-435.719	96.750	-0.105	0.122
-434.705	-200.000	0.004	-0.116
-433.690	-200.000	-0.007	-0.071
-432.676	-48.617	0.293	-0.142
-431.661	-200.000	0.013	-0.140
-430.646	-185.303	-0.320	-0.005
-429.632	505.780	0.080	0.187
-428.617	385.310	-0.102	-0.213
-427.603	-27.912	0.100	-0.059
-426.588	59.635	-0.118	-0.118
-425.573	-133.869	-0.444	-0.056
-424.559	20.203	0.113	0.092
-423.544	25.988	-0.216	-0.182
-422.530	0.542	-0.218	-0.157
-421.515	-192.932	-0.361	0.003
-420.500	88.864	0.246	0.277
-419.486	-130.602	0.145	-0.020
-418.471	-136.907	0.144	-0.017
-417.457	-200.000	0.011	0.118
-416.442	-184.309	-0.060	-0.001
-415.428	12.987	-0.063	-0.050
-414.413	-200.000	-0.003	0.056
-413.398	109.488	0.121	-0.147
-412.384	10.765	-0.056	-0.043
-411.369	383.474	0.031	0.064
-410.355	-184.388	0.165	0.003
-409.340	295.592	0.009	0.016
-408.325	-200.000	0.001	-0.072
-407.311	437.215	-0.182	0.400
-406.296	-21.419	-0.318	-0.196
-405.282	47.407	-0.228	-0.214
-404.267	319.065	0.116	0.223
-403.252	2.487	0.091	-0.066
-402.238	-200.000	-0.028	0.332
-401.223	110.047	-0.219	0.265
-400.209	-106.769	0.189	-0.042
-399.194	-163.435	0.078	0.004
-398.179	-200.000	-0.016	-0.177
-397.165	-200.000	0.047	0.263
-396.150	-200.000	0.043	0.297
-395.136	800.000	-0.088	-0.271
-394.121	244.038	-0.104	-0.176
-393.106	319.504	-0.070	0.133
-392.092	-65.664	-0.126	0.051
-391.077	387.897	0.043	0.090
-390.063	-32.174	-0.268	-0.151
-389.048	800.000	-0.137	-0.384
-388.033	-48.263	-0.040	-0.019
-387.019	-136.651	-0.158	-0.018
-386.004	800.000	-0.042	0.151
-384.990	-35.043	-0.264	-0.145
-383.975	265.248	0.069	-0.121
-382.960	-144.600	-0.160	0.015
-381.946	44.313	-0.072	-0.066
-380.931	-200.000	0.021	0.195
-379.917	-7.582	-0.110	0.075
-378.902	28.716	0.224	0.191
-377.888	-200.000	0.003	0.122
-376.873	800.000	0.072	0.259
-375.858	-76.753	-0.182	-0.064
-374.844	-6.720	-0.079	0.054
-373.829	-200.000	0.016	-0.133
-372.815	-79.682	0.155	0.053
-371.800	-73.981	-0.364	-0.133
-370.785	544.691	-0.072	0.173
-369.771	-200.000	0.069	0.357
-368.756	48.609	-0.143	-0.135
-367.742	64.807	-0.190	0.193
-366.727	-111.972	-0.296	-0.060
-365.712	187.773	-0.107	-0.161
-364.698	-23.267	-0.102	-0.062
-363.683	-200.000	0.007	0.034
-362.669	-170.792	-0.164	0.006
-361.654	-200.000	0.042	-0.326
-360.639	-56.250	-0.352	0.158
-359.625	106.022	0.153	-0.182
-358.610	-200.000	-0.010	0.384
-357.596	99.430	-0.107	0.124
-356.581	-200.000	-0.011	-0.059
-355.566	448.241	-0.046	-0.102
-354.552	-119.918	0.235	-0.041
-353.537	-141.558	-0.295	0.030
-352.523	778.283	0.057	0.156
-351.508	-69.740	0.080	-0.031
-350.493	-85.546	0.338	-0.106
-349.479	636.991	-0.072	0.185
-348.464	-60.421	0.185	-0.079
-347.450	-200.000	-0.060	0.279
-346.435	700.567	-0.034	-0.089
-345.420	-200.000	-0.004	0.111
-344.406	-37.734	-0.172	-0.092
-343.391	-200.000	0.043	-0.236
-342.377	-102.746	0.110	-0.026
-341.362	226.784	0.119	0.194
-340.348	-20.046	-0.168	0.104
-339.333	800.000	0.083	0.343
-338.318	418.324	0.058	0.124
-337.304	-200.000	0.023	0.239
-336.289	-1.883	0.261	0.185
-335.275	-59.531	-0.107	-0.046
-334.260	531.413	0.099	0.235
-333.245	-200.000	-0.025	-0.225
-332.231	-46.262	-0.133	0.066
-331.216	-164.529	-0.359	-0.016
-330.202	265.861	0.085	-0.150
-329.187	-56.671	-0.238	-0.106
-328.172	-200.000	-0.030	-0.298
-327.158	-5.603	-0.123	-0.085
-326.143	8.183	-0.053	-0.040
-325.129	-18.256	0.039	-0.025
-324.114	800.000	-0.133	0.500
-323.099	-87.889	0.202	0.061
-322.085	-200.000	0.020	0.229
-321.070	101.020	-0.280	0.327
-320.056	-99.649	-0.044	-0.011
-319.041	-70.459	-0.088	0.034
-318.026	800.000	-0.157	-0.448
-317.012	-80.162	-0.034	-0.011
-315.997	228.709	0.217	0.356
-314.983	-200.000	0.035	0.328
-313.968	107.288	-0.167	0.199
-312.953	336.630	-0.049	-0.095
-311.939	269.902	0.284	0.502
-310.924	-181.106	0.190	-0.004
-309.910	461.925	-0.137	0.307
-308.895	-141.971	0.143	-0.014
-307.880	193.780	0.132	-0.201
-306.866	128.711	-0.178	-0.228
-305.851	50.437	0.149	-0.141
-304.837	203.246	0.162	0.252
-303.822	-143.057	0.261	0.025
-302.807	93.995	0.194	-0.222
-301.793	74.851	0.314	-0.333
-300.778	59.630	-0.291	-0.288
-299.764	550.058	0.106	0.255
-298.749	83.578	0.153	-0.167
-297.735	51.351	-0.248	-0.237
-296.720	-150.911	-0.092	0.007
-295.705	800.000	0.019	-0.071
-294.691	-110.855	0.232	0.048
-293.676	-200.000	0.056	-0.351
-292.662	71.325	0.091	0.095
-291.647	59.683	-0.208	0.206
-290.632	562.799	-0.130	0.317
-289.618	-200.000	-0.032	0.232
-288.603	800.000	0.025	-0.100
-287.589	-139.070	-0.130	0.014
-286.574	-108.875	0.161	0.034
-285.559	205.130	0.123	0.192
-284.545	87.515	-0.031	0.035
-283.530	-51.493	-0.264	0.124
-282.516	-75.081	0.277	0.100
-281.501	210.703	0.097	-0.153
-280.486	313.060	0.115	0.217
-279.472	-200.000	0.017	-0.082
-278.457	-200.000	0.015	0.223
-277.443	77.631	-0.050	-0.054
-276.428	-124.025	0.217	0.034
-275.413	-20.908	0.104	-0.064
-274.399	135.479	0.122	-0.160
-273.384	-31.148	0.151	-0.085
-272.370	-84.160	0.094	-0.030
-271.355	-29.839	-0.060	0.035
-270.340	171.299	0.159	-0.230
-269.326	16.969	-0.006	0.005
-268.311	-200.000	0.010	0.169
-267.297	-187.243	0.111	0.002
-266.282	-27.076	0.176	0.103
-265.267	318.704	-0.033	-0.063
-264.253	-200.000	-0.017	0.142
-263.238	-49.797	-0.182	0.087
-262.224	551.850	-0.125	-0.302
-261.209	-72.362	0.031	-0.012
-260.195	-200.000	-0.029	-0.202
-259.180	617.424	-0.114	-0.287
-258.165	-200.000	-0.013	0.198
-257.151	83.066	0.065	-0.071
-256.136	24.852	-0.114	-0.094
-255.122	-200.000	-0.011	0.136
-254.107	-200.000	-0.044	-0.352
-253.092	73.778	0.093	-0.098
-252.078	-58.543	-0.057	0.025
-251.063	-72.227	0.160	-0.060
-250.049	800.000	-0.062	-0.232
-249.034	271.828	0.133	-0.234
-248.019	-200.000	-0.016	0.099
-247.005	47.736	-0.213	-0.199
-245.990	294.463	0.145	-0.266
-244.976	197.314	0.300	-0.460
-243.961	247.154	-0.153	-0.260
-242.946	171.928	0.081	0.116
-241.932	-66.336	0.185	-0.074
-240.917	-24.060	0.308	-0.184
-239.903	-200.000	0.031	0.186
-238.888	-200.000	-0.038	0.246
-237.873	-107.219	-0.060	-0.013
-236.859	47.151	-0.103	0.096
-235.844	-32.121	0.090	0.050
-234.830	-200.000	-0.021	-0.297
-233.815	-150.350	0.287	-0.022
-232.800	-131.581	0.069	-0.009
-231.786	751.655	0.053	0.143
-230.771	784.019	-0.067	0.185
-229.757	-101.779	-0.315	-0.076
-228.742	199.279	0.117	-0.180
-227.727	17.512	0.289	0.230
-226.713	-56.404	0.051	0.023
-225.698	-60.550	0.269	-0.114
-224.684	346.326	0.121	0.239
-223.669	-97.037	0.322	0.084
-222.655	-52.034	-0.225	-0.105
-221.640	-200.000	-0.028	0.386
-220.625	330.558	0.030	-0.058
-219.611	-72.739	0.042	-0.016
-218.596	-161.385	0.232	0.012
-217.582	566.985	-0.078	0.189
-216.567	165.546	0.150	0.212
-215.552	14.797	0.188	0.147
-214.538	585.205	-0.144	0.355
-213.523	-200.000	-0.052	0.242
-212.509	-24.732	-0.086	-0.051
-211.494	102.572	0.034	0.039
-210.479	142.955	-0.151	0.201
-209.465	-121.795	-0.203	0.034
-208.450	-18.411	0.064	-0.040
-207.436	-65.772	-0.239	0.096
-206.421	154.368	-0.152	-0.209
-205.406	110.399	-0.145	-0.175
-204.392	-180.755	0.333	-0.007
-203.377	699.939	0.067	-0.177
-202.363	800.000	0.039	0.137
-201.348	-121.223	-0.617	0.103
-200.333	-40.248	0.276	-0.144
-199.319	-200.000	0.044	0.194
-198.304	-36.961	0.216	0.116
-197.290	-118.419	0.218	-0.039
-196.275	202.104	0.122	0.188
-195.260	-200.000	0.027	-0.212
-194.246	87.973	0.121	0.134
-193.231	60.933	-0.133	0.132
-192.217	46.459	-0.185	0.171
-191.202	60.289	-0.139	0.137
-190.187	-200.000	0.030	-0.144
-189.173	109.507	-0.110	-0.132
-188.158	434.947	0.095	-0.207
-187.144	-139.877	0.352	0.037
-186.129	-64.880	0.240	-0.097
-185.114	-65.118	0.081	-0.033
-184.100	-200.000	0.020	-0.096
-183.085	800.000	-0.058	0.162
-182.071	-123.190	0.063	0.010
-181.056	-51.766	0.296	0.138
-180.042	-46.587	-0.169	-0.083
-179.027	800.000	0.005	0.018
-178.012	-177.800	-0.094	0.002
-176.998	-56.146	-0.212	-0.094
-175.983	-138.472	-0.078	-0.009
-174.969	-200.000	-0.020	-0.164
-173.954	12.734	0.123	0.095
-172.939	-22.312	0.066	-0.040
-171.925	65.806	0.157	-0.159
-170.910	-81.175	0.310	0.102
-169.896	222.005	-0.116	-0.186
-168.881	372.381	0.134	-0.271
-167.866	-31.518	0.108	-0.061
-166.852	692.569	0.073	0.190
-165.837	-104.692	-0.186	0.043
-164.823	25.584	-0.131	-0.109
-163.808	210.577	-0.099	-0.156
-162.793	305.164	0.163	-0.303
-161.779	26.348	0.158	-0.132
-160.764	-200.000	-0.029	0.130
-159.750	53.358	-0.087	-0.083
-158.735	105.497	-0.185	-0.219
-157.720	-83.842	0.209	-0.067
-156.706	99.187	0.261	0.302
-155.691	-27.238	0.326	0.190
-154.677	-64.771	0.238	-0.096
-153.662	800.000	-0.085	-0.309
-152.647	-141.105	0.275	0.028
-151.633	-200.000	-0.021	-0.200
-150.618	-200.000	0.003	0.144
-149.604	-200.000	0.006	-0.166
-148.589	21.357	0.065	-0.053
-147.574	-82.431	0.185	0.060
-146.560	-87.656	-0.171	0.052
-145.545	-200.000	-0.000	0.210
-144.531	-134.565	0.138	-0.017
-143.516	-99.636	-0.228	0.057
-142.502	800.000	-0.105	-0.328
-141.487	-200.000	-0.012	0.270
-140.472	-121.427	-0.267	0.044
-139.458	800.000	-0.111	0.325
-138.443	-200.000	-0.046	0.273
-137.429	-200.000	0.003	0.173
-136.414	-171.172	-0.155	0.005
-135.399	62.110	0.121	0.120
-134.385	800.000	-0.027	0.087
-133.370	232.817	-0.082	0.134
-132.356	800.000	-0.035	-0.117
-131.341	235.995	-0.043	-0.071
-130.326	-1.158	-0.253	0.179
-129.312	197.940	-0.064	-0.098
-128.297	185.425	0.039	0.058
-127.283	800.000	-0.053	-0.191
-126.268	59.249	0.084	-0.082
-125.253	-200.000	0.013	0.109
-124.239	-73.433	0.178	0.065
-123.224	-147.562	-0.235	0.020
-122.210	-75.740	-0.208	0.074
