DTS Sentinel unit serial number:	SN413079Multiplexer serial number:	ORYXHardware model number:	OX4-SRSoftware version number:	ORYX F/W v4.00 Oryx Data Collector v3.7.2.0data status	okinstallation	princeton_trtdifferential loss correction	single-endedforward channel	channel 3reverse channel	N/Adate	2019/09/17time	03:04:35forward acquisition time	60.00reverse acquisition time	0.00gamma	496.2192k internal	0.2323k external	0.2323temperature offset calibration	0.9942default loss term (dB/km)	0.3790temperature slope calibration	1.0000multiplexer offset coefficient	1.0000multiplexer slope coefficient	1.0000fibre end	0.00T internal ref (°C)	29.94T ext. ref 1 (°C)	0.13T ext. ref 2 (°C)	24.86length (m)	temperature (°C)	Stokes	anti-Stokes-747.200	1.428	-0.311	-0.226
-746.185	800.000	-0.052	0.211
-745.171	-34.294	-0.076	0.042
-744.156	-200.000	-0.010	0.292
-743.142	-37.892	-0.167	-0.090
-742.127	215.079	0.118	0.188
-741.112	-200.000	-0.013	0.069
-740.098	-48.249	-0.321	0.156
-739.083	-93.360	0.409	0.115
-738.069	-200.000	-0.008	0.307
-737.054	734.067	0.146	0.395
-736.039	-59.831	-0.057	-0.024
-735.025	-93.849	0.081	0.023
-734.010	590.380	-0.091	0.226
-732.996	800.000	0.058	-0.175
-731.981	-200.000	0.012	0.166
-730.966	-84.464	-0.259	-0.082
-729.952	-111.809	-0.065	0.013
-728.937	-10.503	-0.159	0.106
-727.923	513.395	-0.109	-0.257
-726.908	-113.744	-0.152	-0.030
-725.894	24.662	0.127	-0.106
-724.879	-58.345	0.294	0.129
-723.864	378.258	-0.112	-0.230
-722.850	-76.281	0.286	-0.102
-721.835	-200.000	-0.001	-0.037
-720.821	697.114	0.049	-0.129
-719.806	704.576	-0.119	-0.318
-718.791	-117.572	-0.393	0.072
-717.777	264.227	0.160	-0.280
-716.762	171.140	-0.158	0.229
-715.748	-68.471	-0.287	-0.112
-714.733	9.824	-0.179	-0.137
-713.718	405.190	-0.020	-0.043
-712.704	-3.307	0.035	0.025
-711.689	292.001	-0.149	-0.273
-710.675	686.647	0.025	0.065
-709.660	800.000	-0.063	-0.256
-708.645	118.412	0.172	-0.214
-707.631	-0.738	-0.061	-0.043
-706.616	63.645	-0.075	-0.075
-705.602	119.359	-0.191	0.239
-704.587	800.000	0.117	0.341
-703.572	-200.000	-0.011	-0.063
-702.558	54.252	0.138	-0.134
-701.543	420.116	0.059	-0.128
-700.529	-200.000	-0.013	0.068
-699.514	410.502	0.204	0.435
-698.499	15.710	-0.379	-0.300
-697.485	-183.072	0.174	0.003
-696.470	308.531	-0.108	0.204
-695.456	-141.616	0.038	0.004
-694.441	603.613	-0.065	-0.164
-693.426	714.899	0.059	-0.158
-692.412	-59.803	0.367	0.158
-691.397	404.488	-0.115	-0.243
-690.383	-125.507	-0.129	0.020
-689.368	290.501	0.110	-0.201
-688.354	-200.000	-0.017	0.089
-687.339	320.775	-0.139	0.266
-686.324	800.000	-0.104	-0.307
-685.310	-109.363	-0.216	0.046
-684.295	0.298	-0.214	0.154
-683.281	0.129	0.232	0.166
-682.266	-200.000	-0.056	0.348
-681.251	164.104	-0.164	-0.232
-680.237	-200.000	0.013	-0.110
-679.222	-95.248	0.444	0.120
-678.208	800.000	-0.071	-0.225
-677.193	294.997	-0.127	0.234
-676.178	800.000	0.044	-0.178
-675.164	-181.396	-0.263	-0.005
-674.149	-163.494	0.342	0.016
-673.135	-183.235	0.226	-0.004
-672.120	-34.308	0.143	-0.079
-671.105	800.000	-0.018	-0.080
-670.091	69.206	0.140	-0.145
-669.076	800.000	-0.047	-0.145
-668.062	-152.196	-0.055	0.004
-667.047	-44.956	0.411	-0.206
-666.032	-50.698	0.209	0.099
-665.018	-13.382	-0.083	-0.054
-664.003	800.000	0.010	0.029
-662.989	800.000	-0.059	-0.196
-661.974	-170.136	0.104	0.004
-660.959	798.015	0.058	-0.162
-659.945	-95.767	0.067	0.018
-658.930	148.737	0.036	-0.049
-657.916	800.000	-0.182	-0.518
-656.901	125.565	-0.128	-0.163
-655.886	61.533	0.091	0.092
-654.872	-92.610	-0.223	-0.063
-653.857	-90.210	-0.525	-0.154
-652.843	-154.580	0.480	-0.032
-651.828	156.621	0.135	0.188
-650.814	-4.545	0.080	0.055
-649.799	-35.017	-0.118	-0.065
-648.784	800.000	0.074	-0.225
-647.770	-75.165	0.300	0.108
-646.755	-70.732	0.228	-0.087
-645.741	-151.275	-0.565	0.042
-644.726	-42.618	0.189	0.097
-643.711	-200.000	0.050	0.265
-642.697	-121.429	-0.268	-0.045
-641.682	121.765	-0.079	-0.099
-640.668	-107.711	0.272	0.060
-639.653	-3.696	-0.334	0.233
-638.638	800.000	0.033	-0.110
-637.624	-200.000	0.034	-0.185
-636.609	404.808	-0.066	0.140
-635.595	76.765	0.187	0.200
-634.580	-14.612	-0.195	-0.126
-633.565	-148.496	0.060	0.005
-632.551	-45.170	0.034	-0.017
-631.536	-117.989	0.248	-0.045
-630.522	41.100	0.066	-0.060
-629.507	542.670	-0.037	-0.089
-628.492	14.231	-0.433	0.339
-627.478	56.101	-0.120	0.117
-626.463	-184.399	-0.099	0.002
-625.449	800.000	-0.051	-0.146
-624.434	54.346	0.098	-0.094
-623.419	-43.638	0.301	0.153
-622.405	77.948	-0.164	0.176
-621.390	-112.063	-0.436	0.088
-620.376	-120.333	-0.379	-0.065
-619.361	-0.106	0.305	-0.218
-618.346	-200.000	0.003	-0.168
-617.332	-73.037	0.472	-0.174
-616.317	159.618	-0.109	-0.152
-615.303	-200.000	0.080	-0.366
-614.288	-121.448	-0.155	-0.026
-613.273	-200.000	0.051	-0.241
-612.259	-200.000	-0.022	-0.177
-611.244	-19.173	0.133	-0.083
-610.230	-121.847	-0.301	0.050
-609.215	-90.178	-0.121	0.035
-608.201	-200.000	-0.017	-0.093
-607.186	-123.967	0.025	0.004
-606.171	593.579	-0.169	-0.420
-605.157	-166.956	-0.371	-0.015
-604.142	-97.075	-0.238	-0.063
-603.128	176.789	0.138	-0.202
-602.113	-83.129	0.214	-0.069
-601.098	-141.257	-0.083	0.008
-600.084	383.015	-0.116	0.240
-599.069	371.194	0.113	-0.230
-598.055	-79.239	0.173	-0.059
-597.040	244.183	0.070	0.118
-596.025	100.344	0.097	-0.113
-595.011	458.836	-0.125	0.279
-593.996	-95.885	0.285	-0.076
-592.982	239.349	0.108	0.181
-591.967	800.000	-0.089	-0.267
-590.952	27.492	0.175	-0.148
-589.938	-146.610	0.266	-0.023
-588.923	-122.938	-0.194	-0.031
-587.909	-26.368	-0.251	0.148
-586.894	-108.226	0.066	0.014
-585.879	-200.000	0.058	-0.444
-584.865	86.986	0.162	0.180
-583.850	800.000	-0.101	0.349
-582.836	426.872	-0.055	0.119
-581.821	166.286	-0.229	0.326
-580.806	-126.420	-0.036	0.005
-579.792	-160.512	0.119	0.006
-578.777	-5.508	0.197	-0.136
-577.763	-82.855	0.043	0.014
-576.748	-104.198	-0.107	-0.025
-575.733	-145.657	0.518	0.046
-574.719	-200.000	-0.070	0.543
-573.704	24.511	-0.261	0.216
-572.690	127.901	0.048	-0.061
-571.675	-200.000	-0.088	-0.489
-570.661	-200.000	-0.007	-0.416
-569.646	-200.000	0.011	0.199
-568.631	-200.000	-0.003	-0.088
-567.617	-200.000	-0.018	0.342
-566.602	-36.590	0.318	0.171
-565.588	-66.600	-0.149	0.059
-564.573	-200.000	0.052	0.269
-563.558	246.385	-0.084	-0.142
-562.544	800.000	0.068	0.195
-561.529	-200.000	-0.021	0.169
-560.515	-61.638	-0.391	-0.165
-559.500	-112.538	0.278	-0.056
-558.485	-200.000	0.030	-0.167
-557.471	-94.598	-0.111	-0.030
-556.456	-40.864	-0.040	-0.021
-555.442	301.828	-0.217	0.402
-554.427	56.410	0.112	0.109
-553.412	-86.740	0.278	0.085
-552.398	-149.255	-0.076	0.006
-551.383	-200.000	-0.020	0.108
-550.369	586.012	-0.149	0.368
-549.354	-49.458	0.180	-0.086
-548.339	115.357	-0.051	-0.063
-547.325	51.470	0.028	0.027
-546.310	-42.236	0.083	-0.042
-545.296	-200.000	-0.001	-0.104
-544.281	800.000	0.073	-0.277
-543.266	-91.395	-0.342	0.098
-542.252	800.000	-0.089	0.322
-541.237	-66.595	0.311	-0.124
-540.223	45.939	-0.229	0.212
-539.208	228.883	0.059	0.097
-538.193	15.650	0.189	0.148
-537.179	-200.000	-0.023	-0.433
-536.164	-84.018	0.366	-0.116
-535.150	-123.933	0.558	-0.088
-534.135	-32.002	-0.169	-0.095
-533.121	-155.815	0.137	0.009
-532.106	395.165	0.138	-0.287
-531.091	576.038	-0.093	0.228
-530.077	-200.000	0.007	-0.055
-529.062	135.072	0.158	0.205
-528.048	-200.000	-0.091	-0.410
-527.033	-81.227	0.350	-0.116
-526.018	-22.547	-0.191	-0.116
-525.004	-200.000	0.057	-0.270
-523.989	-88.396	-0.228	0.068
-522.975	-93.547	-0.122	-0.034
-521.960	-200.000	-0.039	0.270
-520.945	-103.522	-0.209	0.049
-519.931	-123.113	-0.257	0.041
-518.916	52.500	-0.227	-0.217
-517.902	50.875	0.242	0.230
-516.887	800.000	-0.059	0.206
-515.872	-13.729	0.453	0.293
-514.858	-200.000	0.225	-0.000
-513.843	-60.365	-0.058	-0.025
-512.829	-200.000	0.079	-0.353
-511.814	136.781	0.034	0.045
-510.799	-25.356	0.305	0.181
-509.785	492.631	-0.204	-0.469
-508.770	211.344	0.157	-0.248
-507.756	245.851	0.057	0.096
-506.741	-95.060	-0.535	-0.144
-505.726	-200.000	-0.068	0.367
-504.712	-128.100	-0.215	-0.031
-503.697	535.258	-0.100	-0.237
-502.683	800.000	0.087	-0.294
-501.668	-56.633	-0.064	-0.028
-500.653	-95.603	0.277	0.074
-499.639	-23.933	-0.102	-0.061
-498.624	-200.000	-0.011	0.353
-497.610	800.000	-0.039	-0.123
-496.595	-131.724	0.314	0.041
-495.581	0.983	0.297	0.213
-494.566	301.498	0.046	0.085
-493.551	-126.229	0.140	0.021
-492.537	7.171	-0.182	-0.136
-491.522	-200.000	-0.001	-0.015
-490.508	13.496	0.152	0.118
-489.493	800.000	-0.056	-0.178
-488.478	-107.649	-0.220	-0.048
-487.464	-200.000	-0.000	-0.058
-486.449	-200.000	0.036	0.191
-485.435	-77.034	0.102	0.035
-484.420	71.997	-0.155	-0.162
-483.405	478.141	-0.041	0.092
-482.391	314.712	0.116	0.218
-481.376	188.010	-0.084	0.125
-480.362	5.719	0.146	-0.108
-479.347	-81.320	0.346	0.114
-478.332	-119.863	-0.159	0.027
-477.318	-177.929	0.242	-0.006
-476.303	-89.813	0.427	-0.125
-475.289	690.472	-0.112	0.292
-474.274	-200.000	-0.035	-0.237
-473.259	-200.000	0.008	-0.242
-472.245	200.291	-0.081	-0.125
-471.230	800.000	0.087	0.276
-470.216	-200.000	0.001	-0.126
-469.201	179.024	0.231	-0.337
-468.186	-103.788	-0.082	0.019
-467.172	12.324	0.383	0.295
-466.157	54.865	-0.033	-0.032
-465.143	112.206	-0.062	-0.074
-464.128	800.000	0.068	0.273
-463.113	800.000	-0.059	0.222
-462.099	-74.832	0.059	-0.021
-461.084	788.099	0.120	-0.330
-460.070	24.475	-0.198	0.163
-459.055	75.376	0.087	-0.092
-458.040	-28.741	0.038	-0.022
-457.026	-12.634	0.055	-0.036
-456.011	70.871	0.143	-0.148
-454.997	205.451	0.119	-0.185
-453.982	-139.298	-0.318	0.034
-452.968	-148.213	0.097	0.008
-451.953	167.538	0.157	-0.222
-450.938	-56.326	0.073	0.032
-449.924	-200.000	-0.013	0.194
-448.909	800.000	-0.107	-0.403
-447.895	-46.074	-0.263	-0.129
-446.880	258.926	-0.056	0.097
-445.865	-63.706	-0.072	-0.029
-444.851	632.793	0.010	-0.025
-443.836	260.485	0.042	0.073
-442.822	-200.000	-0.019	0.112
-441.807	-76.023	0.302	0.107
-440.792	44.467	0.259	-0.238
-439.778	-75.340	-0.112	-0.040
-438.763	-49.036	-0.252	-0.120
-437.749	61.228	-0.271	-0.269
-436.734	246.789	-0.067	-0.112
-435.719	800.000	0.060	0.248
-434.705	251.276	0.081	-0.137
-433.690	84.471	0.196	-0.214
-432.676	764.190	-0.036	-0.097
-431.661	-59.749	0.241	-0.103
-430.646	-12.483	-0.323	0.210
-429.632	19.078	-0.395	-0.316
-428.617	183.251	-0.053	-0.079
-427.603	60.216	-0.152	-0.150
-426.588	-37.580	0.212	0.113
-425.573	248.767	-0.140	-0.236
-424.559	-189.681	0.180	-0.002
-423.544	-200.000	-0.041	-0.386
-422.530	118.209	-0.107	0.131
-421.515	-106.117	-0.244	-0.055
-420.500	-121.881	0.445	0.073
-419.486	-102.213	-0.147	-0.035
-418.471	800.000	-0.060	0.255
-417.457	800.000	-0.101	0.323
-416.442	652.824	-0.118	-0.302
-415.428	27.427	0.200	-0.168
-414.413	-128.472	0.479	0.068
-413.398	62.195	-0.079	0.079
-412.384	31.908	-0.326	-0.280
-411.369	69.934	-0.315	0.324
-410.355	138.570	-0.041	-0.054
-409.340	-200.000	-0.032	-0.188
-408.325	698.459	0.029	-0.077
-407.311	106.377	-0.115	0.135
-406.296	114.417	-0.259	-0.314
-405.282	-109.071	0.387	-0.082
-404.267	-200.000	0.000	0.058
-403.252	31.987	0.070	-0.061
-402.238	-39.941	0.220	-0.114
-401.223	18.801	0.173	-0.138
-400.209	-95.470	0.066	0.018
-399.194	576.341	-0.188	0.457
-398.179	135.729	0.178	0.230
-397.165	-100.395	-0.384	-0.095
-396.150	-18.312	-0.325	-0.202
-395.136	55.593	-0.096	0.093
-394.121	220.849	-0.126	-0.202
-393.106	-200.000	0.021	0.110
-392.092	-200.000	0.010	-0.109
-391.077	-112.388	0.280	-0.056
-390.063	88.566	-0.106	0.117
-389.048	-200.000	0.002	-0.117
-388.033	35.996	-0.085	-0.074
-387.019	573.464	-0.134	-0.325
-386.004	-69.474	-0.120	-0.046
-384.990	800.000	0.054	-0.150
-383.975	310.009	0.240	0.448
-382.960	648.113	-0.033	0.085
-381.946	-51.439	0.279	-0.130
-380.931	-57.320	0.225	0.099
-379.917	61.979	-0.344	-0.341
-378.902	-97.642	0.415	-0.107
-377.888	30.108	0.151	-0.128
-376.873	-200.000	0.012	0.076
-375.858	800.000	0.108	-0.387
-374.844	-11.905	-0.304	0.198
-373.829	-84.129	-0.341	0.108
-372.815	22.972	-0.199	-0.163
-371.800	-200.000	0.042	0.221
-370.785	-42.741	-0.208	0.105
-369.771	700.050	-0.228	0.597
-368.756	191.332	-0.107	0.161
-367.742	-59.850	-0.394	0.168
-366.727	406.267	-0.231	-0.485
-365.712	77.706	-0.221	-0.234
-364.698	-127.988	0.113	0.016
-363.683	140.311	0.165	0.216
-362.669	-95.951	0.227	0.060
-361.654	-98.031	-0.528	-0.135
-360.639	-92.976	0.174	0.048
-359.625	13.714	-0.163	-0.126
-358.610	800.000	-0.106	0.325
-357.596	62.847	0.078	-0.078
-356.581	800.000	0.139	0.449
-355.566	-200.000	-0.010	0.191
-354.552	-113.721	-0.145	-0.028
-353.537	-115.601	0.133	-0.025
-352.523	7.687	-0.248	0.185
-351.508	-79.645	0.225	-0.075
-350.493	363.477	-0.178	-0.356
-349.479	249.416	-0.028	-0.046
-348.464	-200.000	0.024	-0.113
-347.450	-115.820	-0.199	0.037
-346.435	-6.967	-0.252	0.170
-345.420	185.178	-0.047	0.070
-344.406	118.892	0.206	-0.253
-343.391	-136.549	-0.207	-0.024
-342.377	-169.631	0.456	-0.016
-341.362	83.750	0.122	-0.132
-340.348	739.253	-0.111	0.295
-339.333	-162.557	0.215	0.011
-338.318	800.000	0.087	-0.314
-337.304	121.880	0.095	-0.118
-336.289	-3.753	0.240	0.166
-335.275	-37.119	-0.197	-0.105
-334.260	800.000	0.085	-0.303
-333.245	-112.136	0.348	0.069
-332.231	75.361	-0.065	0.068
-331.216	-200.000	-0.013	-0.094
-330.202	144.776	0.183	-0.243
-329.187	-67.107	0.169	0.066
-328.172	-29.378	-0.160	0.091
-327.158	-127.707	0.301	0.043
-326.143	-13.853	0.201	0.129
-325.129	-7.113	-0.090	-0.060
-324.114	126.382	-0.065	-0.082
-323.099	-60.259	-0.655	0.277
-322.085	-200.000	0.053	0.386
-321.070	623.391	-0.037	0.092
-320.056	800.000	-0.029	0.085
-319.041	-200.000	0.002	0.113
-318.026	800.000	-0.053	0.174
-317.012	-11.174	-0.048	-0.031
-315.997	-136.065	-0.242	-0.028
-314.983	-40.337	0.441	-0.228
-313.968	-98.587	0.197	-0.050
-312.953	415.587	-0.100	-0.212
-311.939	180.528	-0.161	-0.235
-310.924	607.916	0.096	0.239
-309.910	338.926	0.151	0.292
-308.895	244.820	0.114	0.190
-307.880	-177.154	0.174	0.004
-306.866	244.540	0.140	-0.233
-305.851	96.462	0.087	-0.099
-304.837	-102.865	0.280	0.066
-303.822	-70.481	-0.208	-0.078
-302.807	-25.542	0.156	0.092
-301.793	128.791	0.242	0.306
-300.778	333.174	-0.100	0.192
-299.764	-122.163	-0.072	-0.012
-298.749	185.407	0.297	0.438
-297.735	-117.735	-0.317	0.057
-296.720	85.229	0.163	-0.177
-295.705	62.726	0.254	-0.252
-294.691	10.037	0.247	-0.186
-293.676	-39.005	0.197	0.103
-292.662	257.705	0.098	0.167
-291.647	28.260	-0.221	-0.186
-290.632	192.138	0.211	-0.316
-289.618	5.438	-0.247	0.181
-288.603	-200.000	0.011	-0.170
-287.589	-79.282	0.260	-0.088
-286.574	45.253	0.286	-0.262
-285.559	-107.509	-0.100	0.022
-284.545	479.927	-0.082	-0.185
-283.530	-200.000	-0.019	0.092
-282.516	-70.798	-0.323	-0.121
-281.501	233.486	0.167	0.272
-280.486	36.873	0.217	0.190
-279.472	800.000	-0.058	0.178
-278.457	328.654	-0.135	-0.257
-277.443	-129.650	0.169	0.023
-276.428	-75.663	-0.131	0.046
-275.413	-69.329	-0.228	-0.087
-274.399	-48.177	-0.169	-0.081
-273.384	509.663	0.065	0.150
-272.370	-79.088	-0.072	-0.024
-271.355	-200.000	0.035	0.311
-270.340	699.073	0.075	0.195
-269.326	-200.000	0.006	0.159
-268.311	1.862	0.069	0.050
-267.297	271.855	0.039	-0.069
-266.282	-200.000	0.362	-0.002
-265.267	392.036	-0.050	-0.104
-264.253	800.000	-0.042	0.166
-263.238	-121.032	0.084	0.014
-262.224	49.386	0.288	-0.269
-261.209	88.328	-0.104	0.114
-260.195	-27.552	-0.241	-0.139
-259.180	-200.000	-0.061	0.295
-258.165	-119.573	-0.192	0.033
-257.151	800.000	0.108	0.307
-256.136	-98.252	-0.152	0.039
-255.122	-137.529	0.182	0.020
-254.107	800.000	-0.160	0.451
-253.092	359.613	0.114	-0.225
-252.078	-61.918	-0.077	0.032
-251.063	-156.747	-0.233	0.014
-250.049	-200.000	-0.026	0.153
-249.034	-117.955	-0.014	0.003
-248.019	-200.000	-0.002	0.331
-247.005	-169.533	0.156	-0.006
-245.990	-156.402	-0.209	0.013
-244.976	-200.000	0.007	0.246
-243.961	203.907	-0.045	0.069
-242.946	800.000	0.127	-0.436
-241.932	86.235	-0.097	0.106
-240.917	-35.314	-0.167	-0.090
-239.903	109.329	-0.125	-0.148
-238.888	149.469	-0.271	-0.364
-237.873	-107.856	-0.132	0.028
-236.859	755.052	-0.144	0.386
-235.844	-70.366	-0.100	-0.038
-234.830	-188.575	-0.097	-0.001
-233.815	147.183	0.050	0.066
-232.800	-200.000	-0.031	-0.307
-231.786	639.055	-0.080	-0.201
-230.771	-18.718	-0.226	0.139
-229.757	290.796	0.029	0.053
-228.742	111.939	0.206	-0.246
-227.727	546.040	0.056	-0.131
-226.713	315.102	-0.137	-0.256
-225.698	320.118	0.152	0.286
-224.684	-200.000	0.027	0.193
-223.669	218.173	-0.079	0.125
-222.655	14.143	0.074	0.057
-221.640	-77.386	0.214	0.074
-220.625	270.794	-0.038	0.067
-219.611	-11.034	-0.172	0.112
-218.596	736.990	-0.097	0.258
-217.582	-113.001	-0.429	0.084
-216.567	5.926	-0.081	-0.060
-215.552	-35.740	0.122	-0.066
-214.538	98.709	0.037	0.042
-213.523	800.000	-0.096	-0.325
-212.509	-44.644	-0.074	-0.036
-211.494	-102.803	0.400	-0.094
-210.479	-109.830	0.466	0.097
-209.465	-200.000	-0.302	0.001
-208.450	-200.000	-0.028	0.192
-207.436	-49.437	-0.091	-0.043
-206.421	-107.491	0.309	-0.067
-205.406	-167.249	-0.259	-0.010
-204.392	37.399	0.227	-0.199
-203.377	600.055	-0.107	0.262
-202.363	-0.228	-0.077	-0.054
-201.348	-41.282	0.145	0.074
-200.333	800.000	0.032	-0.109
-199.319	-200.000	0.036	0.495
-198.304	64.619	-0.226	0.225
-197.290	-200.000	0.033	-0.230
-196.275	151.930	-0.118	-0.159
-195.260	-200.000	0.012	0.231
-194.246	644.992	-0.114	0.287
-193.231	-78.256	-0.574	-0.195
-192.217	-200.000	-0.004	0.046
-191.202	140.659	-0.097	0.127
-190.187	3.614	0.167	0.120
-189.173	120.972	0.048	0.059
-188.158	663.039	-0.038	0.096
-187.144	-49.822	-0.090	0.042
-186.129	52.640	0.127	-0.120
-185.114	566.615	-0.122	0.293
-184.100	560.588	0.003	0.007
-183.085	159.527	0.106	-0.145
-182.071	2.203	0.122	-0.087
-181.056	-200.000	-0.079	-0.357
-180.042	-145.179	0.084	-0.008
-179.027	223.284	0.057	-0.091
-178.012	-200.000	-0.075	-0.427
-176.998	-119.828	-0.166	0.028
-175.983	-200.000	-0.019	-0.129
-174.969	-200.000	-0.008	-0.047
-173.954	-200.000	0.010	-0.135
-172.939	-200.000	-0.036	-0.245
-171.925	76.644	-0.088	0.092
-170.910	-1.611	-0.091	-0.063
-169.896	-200.000	-0.039	0.301
-168.881	-10.837	-0.310	0.202
-167.866	195.615	0.051	0.076
-166.852	800.000	0.084	-0.231
-165.837	-200.000	-0.046	0.306
-164.823	56.689	-0.025	0.024
-163.808	-134.316	0.215	-0.026
-162.793	-138.438	0.148	0.016
-161.779	212.579	0.138	0.216
-160.764	-200.000	-0.004	0.042
-159.750	233.197	-0.088	-0.143
-158.735	-200.000	0.018	0.253
-157.720	105.390	0.257	0.299
-156.706	-200.000	-0.015	-0.161
-155.691	-194.069	-0.201	0.002
-154.677	-181.194	0.129	0.003
-153.662	800.000	-0.023	0.070
-152.647	800.000	0.076	0.228
-151.633	-128.056	0.090	0.013
-150.618	637.390	0.217	0.544
-149.604	-200.000	0.050	0.320
-148.589	-5.974	-0.086	0.058
-147.574	-200.000	0.020	-0.296
-146.560	800.000	-0.018	0.069
-145.545	63.686	-0.142	0.140
-144.531	127.933	0.158	0.199
-143.516	800.000	-0.048	0.137
-142.502	-200.000	0.002	-0.068
-141.487	-32.935	0.263	0.144
-140.472	-143.277	-0.069	-0.007
-139.458	-95.876	0.037	-0.010
-138.443	203.004	0.079	-0.120
-137.429	294.929	-0.089	0.161
-136.414	-200.000	-0.017	-0.125
-135.399	-200.000	-0.017	0.236
-134.385	3.583	-0.003	0.002
-133.370	136.861	0.212	-0.273
-132.356	-200.000	-0.016	-0.130
-131.341	37.740	-0.209	-0.183
-130.326	800.000	-0.067	0.202
-129.312	338.052	0.040	0.077
-128.297	-84.048	0.205	-0.064
-127.283	-189.032	-0.351	0.004
-126.268	-200.000	0.003	0.293
-125.253	-200.000	-0.020	-0.427
-124.239	-79.392	0.231	0.077
-123.224	-74.851	0.124	-0.044
-122.210	339.131	-0.129	-0.248
