DTS Sentinel unit serial number:	SN413079Multiplexer serial number:	ORYXHardware model number:	OX4-SRSoftware version number:	ORYX F/W v4.00 Oryx Data Collector v3.7.2.0data status	okinstallation	princeton_trtdifferential loss correction	single-endedforward channel	channel 3reverse channel	N/Adate	2019/09/18time	04:32:35forward acquisition time	60.00reverse acquisition time	0.00gamma	496.2192k internal	0.2342k external	0.2342temperature offset calibration	0.9946default loss term (dB/km)	0.3790temperature slope calibration	1.0000multiplexer offset coefficient	1.0000multiplexer slope coefficient	1.0000fibre end	0.00T internal ref (°C)	23.39T ext. ref 1 (°C)	0.19T ext. ref 2 (°C)	17.62length (m)	temperature (°C)	Stokes	anti-Stokes-747.200	800.000	0.078	0.250
-746.185	352.604	-0.041	0.081
-745.171	-200.000	-0.040	-0.262
-744.156	800.000	0.125	0.435
-743.142	-81.130	0.121	0.040
-742.127	-200.000	-0.029	0.162
-741.112	614.906	-0.148	-0.372
-740.098	-38.187	-0.252	0.134
-739.083	84.282	-0.163	0.178
-738.069	-128.988	-0.298	-0.042
-737.054	73.984	-0.253	0.265
-736.039	-200.000	-0.057	-0.365
-735.025	15.434	-0.272	-0.214
-734.010	25.296	0.206	0.171
-732.996	-146.713	0.340	-0.029
-731.981	-200.000	0.047	-0.403
-730.966	-122.485	0.270	0.044
-729.952	-200.000	-0.006	-0.292
-728.937	126.290	0.085	-0.108
-727.923	800.000	-0.029	0.087
-726.908	84.369	-0.074	-0.081
-725.894	800.000	0.043	0.123
-724.879	-160.505	0.072	0.004
-723.864	-65.171	0.158	0.064
-722.850	-136.395	-0.369	-0.043
-721.835	-43.931	0.110	0.055
-720.821	40.665	-0.150	-0.135
-719.806	49.308	-0.110	0.103
-718.791	347.020	0.133	0.262
-717.777	-146.220	-0.426	-0.037
-716.762	-200.000	-0.007	-0.114
-715.748	-35.354	-0.308	0.167
-714.733	-97.754	-0.135	-0.035
-713.718	-29.212	0.102	-0.059
-712.704	244.395	0.060	0.102
-711.689	102.809	0.197	-0.230
-710.675	15.076	-0.191	0.150
-709.660	88.527	-0.105	-0.117
-708.645	-103.078	-0.390	-0.092
-707.631	59.149	0.104	0.103
-706.616	-117.833	-0.532	-0.096
-705.602	-200.000	-0.054	-0.282
-704.587	97.273	0.086	-0.098
-703.572	159.504	0.263	-0.366
-702.558	-200.000	0.010	-0.145
-701.543	120.168	0.086	0.107
-700.529	-200.000	-0.001	0.211
-699.514	-200.000	0.009	-0.137
-698.499	31.872	-0.129	-0.111
-697.485	674.374	-0.199	0.517
-696.470	-200.000	-0.022	-0.180
-695.456	-42.580	-0.375	0.191
-694.441	-149.730	0.526	-0.041
-693.426	-200.000	-0.051	0.228
-692.412	112.638	0.108	-0.130
-691.397	106.797	0.105	-0.124
-690.383	-16.254	-0.329	-0.209
-689.368	485.044	0.091	0.207
-688.354	163.550	-0.136	0.192
-687.339	58.502	-0.252	0.247
-686.324	214.265	-0.184	-0.291
-685.310	-1.773	0.211	0.149
-684.295	-75.941	0.255	0.090
-683.281	-7.218	-0.154	0.104
-682.266	-131.636	-0.070	-0.009
-681.251	-125.082	0.219	0.034
-680.237	14.207	-0.228	0.178
-679.222	146.361	0.152	0.204
-678.208	-126.145	0.313	-0.047
-677.193	800.000	-0.016	0.066
-676.178	-200.000	-0.005	0.118
-675.164	480.314	0.171	0.387
-674.149	102.779	-0.115	-0.135
-673.135	67.420	0.169	0.172
-672.120	413.210	-0.069	0.147
-671.105	-133.670	-0.166	0.021
-670.091	800.000	0.104	-0.366
-669.076	800.000	0.086	0.259
-668.062	93.539	-0.105	-0.118
-667.047	36.993	-0.097	-0.086
-666.032	-106.916	-0.087	-0.019
-665.018	-165.700	-0.243	0.011
-664.003	291.302	0.063	0.115
-662.989	537.811	0.122	0.289
-661.974	71.556	-0.097	-0.101
-660.959	67.884	-0.212	-0.217
-659.945	-200.000	0.025	0.282
-658.930	52.516	-0.282	-0.269
-657.916	320.279	-0.098	-0.186
-656.901	-10.526	-0.292	-0.193
-655.886	-53.406	0.160	0.073
-654.872	203.350	-0.122	-0.188
-653.857	-200.000	0.004	-0.172
-652.843	0.370	0.219	-0.156
-651.828	163.707	-0.164	-0.230
-650.814	131.428	0.222	0.285
-649.799	-200.000	-0.063	0.335
-648.784	40.230	-0.131	0.118
-647.770	335.764	-0.069	0.134
-646.755	-104.744	0.072	0.017
-645.741	76.832	-0.272	0.288
-644.726	-28.138	0.264	0.152
-643.711	-58.439	0.210	0.091
-642.697	-14.522	-0.336	0.216
-641.682	800.000	0.094	-0.266
-640.668	-106.566	-0.181	-0.040
-639.653	61.410	0.232	-0.230
-638.638	462.364	-0.207	-0.462
-637.624	-30.132	-0.356	0.202
-636.609	233.057	-0.073	-0.120
-635.595	-200.000	-0.012	-0.074
-634.580	301.967	-0.026	-0.048
-633.565	397.765	-0.092	-0.192
-632.551	-200.000	-0.127	0.000
-631.536	-200.000	0.012	0.226
-630.522	119.723	0.037	0.046
-629.507	-114.418	0.214	0.041
-628.492	296.478	-0.170	-0.310
-627.478	-155.353	-0.236	0.015
-626.463	-99.924	0.066	-0.016
-625.449	136.432	0.249	-0.324
-624.434	-200.000	0.026	0.290
-623.419	88.279	-0.167	-0.185
-622.405	219.915	0.076	0.122
-621.390	800.000	0.021	0.091
-620.376	-102.479	-0.292	-0.070
-619.361	-200.000	0.001	-0.079
-618.346	150.839	0.061	0.082
-617.332	-82.280	-0.192	-0.062
-616.317	800.000	-0.059	-0.179
-615.303	103.701	-0.287	-0.336
-614.288	123.131	0.117	-0.146
-613.273	-109.936	0.056	-0.012
-612.259	-7.006	-0.224	-0.152
-611.244	300.896	-0.056	-0.104
-610.230	-46.979	0.057	0.028
-609.215	-144.814	0.189	-0.017
-608.201	-73.807	0.061	0.022
-607.186	191.337	-0.124	0.186
-606.171	-46.898	-0.181	-0.088
-605.157	-200.000	0.018	0.186
-604.142	78.506	-0.215	0.229
-603.128	-171.933	-0.179	-0.006
-602.113	-140.484	0.130	0.013
-601.098	85.448	-0.176	0.192
-600.084	800.000	-0.122	0.490
-599.069	-200.000	-0.063	-0.409
-598.055	-39.545	0.244	-0.127
-597.040	280.154	0.157	0.280
-596.025	800.000	-0.131	-0.533
-595.011	-128.478	0.232	0.033
-593.996	-200.000	-0.001	0.252
-592.982	-15.133	0.041	0.026
-591.967	-81.681	0.236	0.077
-590.952	-200.000	0.020	-0.157
-589.938	18.987	-0.128	0.102
-588.923	72.838	-0.166	-0.172
-587.909	-144.324	0.396	-0.037
-586.894	136.642	0.239	-0.311
-585.879	68.557	-0.146	0.149
-584.865	-145.511	0.304	-0.027
-583.850	584.110	0.068	-0.167
-582.836	-200.000	-0.008	-0.096
-581.821	-200.000	-0.020	0.149
-580.806	-200.000	0.022	-0.235
-579.792	-200.000	0.022	0.225
-578.777	800.000	0.058	0.233
-577.763	316.293	0.031	0.059
-576.748	-137.940	-0.095	0.011
-575.733	276.805	-0.090	-0.159
-574.719	800.000	-0.036	-0.144
-573.704	-21.175	-0.526	-0.320
-572.690	-134.603	-0.207	-0.025
-571.675	-99.368	-0.269	0.068
-570.661	530.734	0.079	-0.185
-569.646	11.120	-0.238	-0.181
-568.631	-122.631	-0.047	-0.008
-567.617	-146.704	0.171	-0.015
-566.602	218.763	-0.157	-0.250
-565.588	225.136	0.095	-0.153
-564.573	-168.075	0.027	-0.001
-563.558	800.000	-0.089	-0.252
-562.544	800.000	-0.142	-0.432
-561.529	1.850	0.290	-0.208
-560.515	30.177	0.080	0.068
-559.500	98.317	-0.068	0.078
-558.485	-200.000	0.023	0.111
-557.471	-200.000	-0.027	0.294
-556.456	-200.000	0.050	-0.240
-555.442	81.990	-0.099	0.107
-554.427	-200.000	0.061	-0.313
-553.412	419.854	0.056	0.119
-552.398	442.396	-0.113	0.246
-551.383	-29.531	-0.322	0.183
-550.369	-34.732	0.215	0.117
-549.354	8.994	-0.462	-0.346
-548.339	-200.000	-0.038	-0.426
-547.325	-119.363	0.240	0.041
-546.310	15.260	-0.248	-0.194
-545.296	-200.000	-0.012	-0.265
-544.281	-41.383	0.247	-0.127
-543.266	-200.000	0.002	-0.020
-542.252	-17.866	-0.034	-0.021
-541.237	-91.210	0.024	0.007
-540.223	679.336	0.024	0.062
-539.208	-13.223	0.054	0.035
-538.193	1.037	-0.179	-0.128
-537.179	274.021	0.192	-0.337
-536.164	166.635	0.180	-0.254
-535.150	800.000	-0.069	0.241
-534.135	40.869	-0.185	0.166
-533.121	-117.564	0.139	-0.025
-532.106	-200.000	0.017	-0.479
-531.091	-200.000	-0.016	-0.152
-530.077	-200.000	0.040	-0.405
-529.062	688.442	0.034	-0.089
-528.048	279.475	0.226	-0.401
-527.033	-8.796	-0.289	0.192
-526.018	-200.000	-0.033	-0.345
-525.004	-200.000	-0.050	-0.219
-523.989	-200.000	-0.022	0.271
-522.975	800.000	-0.096	0.332
-521.960	-200.000	0.005	-0.353
-520.945	-200.000	-0.029	-0.602
-519.931	279.976	-0.085	0.150
-518.916	-55.690	-0.319	0.142
-517.902	96.443	0.264	0.300
-516.887	-48.018	-0.151	-0.073
-515.872	134.542	-0.161	0.208
-514.858	-61.763	0.038	0.016
-513.843	256.821	0.179	0.306
-512.829	-49.687	-0.085	0.040
-511.814	-200.000	-0.025	0.168
-510.799	-48.757	0.161	0.077
-509.785	-142.310	-0.062	0.006
-508.770	-200.000	0.004	0.223
-507.756	295.525	0.125	0.227
-506.741	-51.899	0.113	0.052
-505.726	590.523	-0.094	0.230
-504.712	117.318	-0.066	-0.081
-503.697	16.375	-0.047	0.037
-502.683	800.000	0.036	-0.144
-501.668	-56.606	0.145	0.064
-500.653	-126.838	-0.110	0.016
-499.639	24.827	-0.069	-0.057
-498.624	131.816	0.225	-0.288
-497.610	-65.632	0.330	0.131
-496.595	-97.333	0.168	0.043
-495.581	224.335	-0.124	0.199
-494.566	-92.365	0.182	0.051
-493.551	800.000	-0.038	-0.145
-492.537	-200.000	-0.146	-0.000
-491.522	51.157	-0.123	0.116
-490.508	52.722	-0.066	-0.062
-489.493	399.790	-0.116	-0.240
-488.478	-200.000	-0.032	0.261
-487.464	-200.000	0.011	-0.383
-486.449	-200.000	0.059	-0.286
-485.435	-62.510	0.295	0.121
-484.420	800.000	-0.020	0.080
-483.405	-200.000	-0.019	-0.262
-482.391	116.226	-0.173	0.211
-481.376	83.359	0.116	-0.125
-480.362	451.360	-0.010	0.023
-479.347	-200.000	-0.023	-0.349
-478.332	-182.309	0.405	-0.007
-477.318	404.229	-0.122	0.254
-476.303	148.646	0.105	0.140
-475.289	-49.782	0.302	0.142
-474.274	-200.000	0.021	0.417
-473.259	-56.067	0.201	0.089
-472.245	76.807	-0.037	-0.039
-471.230	-200.000	0.034	-0.308
-470.216	-96.549	-0.213	-0.056
-469.201	-1.430	0.036	0.025
-468.186	-99.659	-0.270	-0.067
-467.172	-128.276	0.136	-0.019
-466.157	2.588	0.375	-0.269
-465.143	39.365	-0.213	0.189
-464.128	800.000	0.081	0.330
-463.113	51.603	0.063	-0.060
-462.099	568.244	0.181	0.436
-461.084	800.000	0.066	-0.203
-460.070	59.531	0.120	0.117
-459.055	-200.000	-0.002	0.209
-458.040	800.000	-0.087	-0.298
-457.026	12.279	-0.100	0.076
-456.011	44.326	-0.105	0.096
-454.997	5.426	-0.206	0.151
-453.982	-200.000	0.011	-0.246
-452.968	-90.447	0.201	-0.058
-451.953	145.912	-0.105	0.140
-450.938	800.000	0.068	-0.236
-449.924	-26.185	0.382	0.222
-448.909	-200.000	-0.007	-0.104
-447.895	-200.000	-0.037	0.296
-446.880	-29.722	-0.153	0.086
-445.865	62.755	-0.038	0.038
-444.851	-54.645	-0.259	0.116
-443.836	52.828	0.219	0.207
-442.822	800.000	-0.081	0.318
-441.807	-77.322	0.131	0.045
-440.792	-4.619	0.201	0.137
-439.778	670.420	-0.107	0.275
-438.763	164.104	0.222	0.310
-437.749	197.786	-0.229	-0.347
-436.734	42.198	-0.169	0.152
-435.719	-200.000	-0.031	-0.528
-434.705	800.000	-0.140	-0.386
-433.690	-200.000	0.004	0.143
-432.676	-200.000	-0.009	-0.108
-431.661	-94.557	0.158	-0.043
-430.646	243.583	-0.173	0.287
-429.632	-71.801	0.274	-0.101
-428.617	-10.592	0.254	0.166
-427.603	-5.959	-0.092	0.062
-426.588	37.393	0.068	0.059
-425.573	132.827	-0.154	0.196
-424.559	76.078	0.165	0.173
-423.544	-104.774	-0.090	-0.020
-422.530	123.458	0.218	0.270
-421.515	-200.000	0.047	0.291
-420.500	197.117	0.081	-0.122
-419.486	-3.764	-0.148	-0.102
-418.471	199.458	-0.067	0.101
-417.457	411.049	-0.080	-0.167
-416.442	30.768	-0.440	-0.373
-415.428	-167.519	0.230	-0.009
-414.413	800.000	-0.042	-0.123
-413.398	-108.875	-0.481	0.102
-412.384	522.107	0.043	-0.099
-411.369	-200.000	-0.015	0.137
-410.355	17.242	-0.237	-0.186
-409.340	204.733	0.041	-0.063
-408.325	-119.332	0.263	-0.045
-407.311	-132.265	-0.271	0.035
-406.296	-136.625	-0.252	0.029
-405.282	-200.000	-0.007	-0.104
-404.267	272.016	0.224	0.391
-403.252	126.476	-0.126	0.158
-402.238	-107.689	0.183	0.039
-401.223	48.661	-0.225	0.209
-400.209	-77.878	0.149	-0.051
-399.194	-200.000	0.019	0.370
-398.179	-12.734	0.211	0.136
-397.165	509.478	0.122	0.280
-396.150	113.796	-0.093	-0.112
-395.136	800.000	-0.076	0.268
-394.121	8.271	0.157	-0.117
-393.106	-145.304	0.255	-0.023
-392.092	-200.000	-0.015	-0.146
-391.077	-1.027	-0.475	-0.332
-390.063	94.340	-0.086	-0.096
-389.048	16.786	-0.252	-0.197
-388.033	-87.198	-0.119	-0.036
-387.019	-131.455	-0.095	-0.012
-386.004	44.564	0.140	-0.127
-384.990	92.425	0.114	-0.127
-383.975	41.132	0.128	-0.114
-382.960	-200.000	-0.309	-0.000
-381.946	12.674	-0.226	-0.172
-380.931	276.798	0.082	0.143
-379.917	-200.000	-0.010	0.156
-378.902	800.000	-0.044	0.153
-377.888	-177.386	-0.245	-0.006
-376.873	-200.000	-0.107	0.506
-375.858	38.244	0.116	0.102
-374.844	228.589	0.154	0.247
-373.829	526.045	-0.039	-0.090
-372.815	551.031	-0.057	-0.134
-371.800	278.245	-0.088	0.155
-370.785	-15.598	-0.189	-0.119
-369.771	103.553	0.231	0.268
-368.756	86.906	0.060	0.065
-367.742	236.850	0.128	0.209
-366.727	243.991	-0.057	-0.095
-365.712	430.618	0.164	-0.349
-364.698	-200.000	-0.017	-0.263
-363.683	-200.000	-0.032	0.168
-362.669	22.054	-0.171	-0.137
-361.654	800.000	-0.113	0.376
-360.639	95.710	0.134	0.151
-359.625	255.198	0.067	-0.112
-358.610	-200.000	-0.035	-0.369
-357.596	204.758	-0.202	0.308
-356.581	-115.575	0.411	0.076
-355.566	-200.000	-0.018	0.116
-354.552	-110.758	0.244	0.050
-353.537	398.200	-0.016	0.033
-352.523	115.375	0.118	-0.143
-351.508	358.190	-0.136	0.268
-350.493	-200.000	0.046	0.202
-349.479	-200.000	0.034	0.252
-348.464	800.000	-0.117	0.331
-347.450	-111.934	-0.108	0.022
-346.435	394.372	-0.022	0.046
-345.420	-54.395	-0.094	-0.042
-344.406	-200.000	-0.003	0.035
-343.391	-49.611	-0.139	0.065
-342.377	-100.510	-0.178	0.043
-341.362	-200.000	-0.035	0.531
-340.348	-19.874	-0.145	0.088
-339.333	-170.405	0.310	-0.011
-338.318	290.274	-0.155	-0.278
-337.304	320.427	-0.101	0.190
-336.289	91.141	-0.133	-0.147
-335.275	-47.049	0.386	0.186
-334.260	-163.608	-0.050	0.002
-333.245	176.541	-0.147	-0.211
-332.231	28.580	0.233	-0.194
-331.216	744.074	-0.050	0.132
-330.202	66.955	-0.057	0.057
-329.187	396.117	0.071	-0.145
-328.172	514.966	-0.019	0.045
-327.158	-138.366	0.105	0.011
-326.143	-200.000	0.001	0.081
-325.129	77.472	0.065	-0.068
-324.114	-16.752	-0.284	0.177
-323.099	487.237	-0.028	0.063
-322.085	-113.188	0.382	-0.074
-321.070	-39.139	0.213	-0.110
-320.056	800.000	0.062	-0.198
-319.041	2.424	-0.049	0.035
-318.026	-200.000	0.026	0.162
-317.012	800.000	0.057	-0.223
-315.997	-200.000	-0.054	-0.334
-314.983	-200.000	0.015	-0.082
-313.968	-173.043	-0.043	0.001
-312.953	-111.268	-0.173	0.035
-311.939	47.763	0.187	-0.172
-310.924	25.889	-0.051	-0.041
-309.910	158.870	-0.146	-0.200
-308.895	-7.219	0.122	-0.081
-307.880	-200.000	-0.041	0.488
-306.866	-30.113	-0.193	0.108
-305.851	-82.450	0.102	-0.033
-304.837	-200.000	-0.013	-0.152
-303.822	-53.869	0.045	0.020
-302.807	-22.866	-0.165	-0.098
-301.793	-112.324	0.204	-0.040
-300.778	16.075	0.092	-0.071
-299.764	75.676	-0.084	0.087
-298.749	-200.000	-0.008	0.072
-297.735	800.000	-0.036	0.122
-296.720	52.381	-0.166	0.156
-295.705	-61.766	-0.101	-0.041
-294.691	348.440	-0.060	-0.116
-293.676	-29.334	0.245	-0.138
-292.662	800.000	0.116	0.345
-291.647	-200.000	0.037	0.398
-290.632	114.367	0.167	0.200
-289.618	-85.792	0.210	-0.064
-288.603	242.467	0.039	-0.064
-287.589	9.105	-0.107	0.080
-286.574	-21.729	0.276	0.165
-285.559	353.497	-0.034	0.067
-284.545	99.218	-0.125	-0.142
-283.530	50.992	0.066	0.061
-282.516	147.421	0.103	0.137
-281.501	43.718	-0.113	-0.102
-280.486	203.402	-0.060	-0.091
-279.472	-147.653	0.157	-0.013
-278.457	-97.647	0.213	-0.054
-277.443	-40.452	0.204	0.104
-276.428	-7.153	-0.374	-0.249
-275.413	-13.127	0.392	0.250
-274.399	-101.821	0.137	0.033
-273.384	221.291	-0.098	-0.155
-272.370	800.000	0.158	0.432
-271.355	-149.263	0.173	-0.014
-270.340	715.139	0.031	-0.082
-269.326	-108.267	0.216	-0.046
-268.311	-54.726	-0.317	0.141
-267.297	468.946	0.101	0.222
-266.282	-200.000	-0.021	-0.124
-265.267	-110.356	-0.085	0.017
-264.253	91.532	-0.064	-0.071
-263.238	-128.523	0.087	0.012
-262.224	12.357	-0.248	-0.188
-261.209	73.252	0.223	0.229
-260.195	-151.847	-0.120	-0.009
-259.180	503.801	0.044	0.099
-258.165	-200.000	-0.056	-0.255
-257.151	109.507	0.081	-0.095
-256.136	231.560	-0.023	0.036
-255.122	301.857	-0.089	-0.162
-254.107	-200.000	0.035	-0.256
-253.092	-65.644	0.104	-0.041
-252.078	-200.000	0.115	-0.000
-251.063	-114.211	0.050	-0.010
-250.049	357.511	0.066	-0.129
-249.034	21.372	-0.081	0.064
-248.019	-95.661	0.340	-0.089
-247.005	-200.000	0.062	-0.462
-245.990	61.478	-0.040	0.039
-244.976	800.000	-0.038	-0.151
-243.961	800.000	0.067	0.263
-242.946	592.028	-0.126	0.305
-241.932	11.322	-0.156	-0.117
-240.917	255.753	0.054	0.091
-239.903	649.015	-0.065	0.162
-238.888	2.453	0.095	0.068
-237.873	-120.408	0.187	-0.031
-236.859	29.363	-0.281	0.234
-235.844	429.091	0.095	0.201
-234.830	800.000	-0.060	-0.232
-233.815	-200.000	0.026	0.230
-232.800	-180.804	-0.043	0.001
-231.786	800.000	-0.119	0.400
-230.771	62.261	-0.128	0.126
-229.757	-200.000	0.010	0.139
-228.742	191.839	0.096	-0.142
-227.727	-122.467	-0.220	0.035
-226.713	118.986	0.303	0.368
-225.698	-200.000	-0.003	0.101
-224.684	-200.000	0.008	-0.407
-223.669	-127.175	-0.537	-0.077
-222.655	-169.943	0.242	-0.009
-221.640	2.508	-0.188	-0.134
-220.625	-200.000	-0.038	-0.211
-219.611	-123.938	0.090	-0.014
-218.596	161.188	-0.056	-0.077
-217.582	-12.894	0.281	-0.180
-216.567	47.559	0.034	-0.031
-215.552	-125.805	-0.120	0.018
-214.538	-152.942	-0.043	-0.003
-213.523	-65.113	-0.291	0.115
-212.509	112.900	0.054	0.064
-211.494	631.469	-0.084	-0.209
-210.479	-7.240	-0.172	-0.115
-209.465	-200.000	0.016	-0.172
-208.450	-146.979	0.092	-0.008
-207.436	-200.000	0.041	0.334
-206.421	250.543	-0.133	-0.222
-205.406	485.970	-0.046	-0.103
-204.392	-69.893	0.078	-0.029
-203.377	-200.000	-0.023	-0.098
-202.363	-107.317	-0.194	-0.042
-201.348	-30.299	0.328	0.183
-200.333	800.000	0.225	-0.701
-199.319	-115.634	-0.051	-0.009
-198.304	19.336	0.196	-0.154
-197.290	271.046	-0.038	0.066
-196.275	-119.475	0.281	0.048
-195.260	-200.000	0.007	0.046
-194.246	488.801	-0.077	-0.172
-193.231	23.744	-0.161	0.130
-192.217	53.599	0.301	-0.283
-191.202	-106.833	0.201	0.044
-190.187	-200.000	-0.046	-0.305
-189.173	-51.718	0.188	-0.086
-188.158	-200.000	-0.016	-0.223
-187.144	61.040	0.077	0.075
-186.129	19.790	-0.242	-0.191
-185.114	104.001	-0.255	0.294
-184.100	61.608	0.286	0.279
-183.085	-14.728	-0.168	-0.106
-182.071	-84.180	0.324	-0.101
-181.056	55.348	-0.160	0.151
-180.042	-200.000	-0.005	-0.240
-179.027	800.000	0.097	-0.302
-178.012	800.000	0.046	-0.180
-176.998	-136.553	0.187	-0.021
-175.983	-200.000	-0.023	-0.128
-174.969	11.060	0.112	0.084
-173.954	-2.716	0.311	0.213
-172.939	-138.139	-0.250	-0.027
-171.925	309.358	-0.145	0.265
-170.910	-71.677	0.145	-0.053
-169.896	-105.824	0.174	0.039
-168.881	-36.311	0.241	0.127
-167.866	304.962	-0.045	-0.082
-166.852	35.818	0.087	-0.075
-165.837	800.000	-0.052	0.206
-164.823	-200.000	-0.011	0.086
-163.808	25.256	-0.133	0.108
-162.793	52.215	-0.139	0.129
-161.779	389.636	0.068	0.139
-160.764	800.000	-0.017	-0.061
-159.750	566.054	-0.089	-0.212
-158.735	-200.000	-0.019	-0.243
-157.720	128.002	0.113	0.141
-156.706	-154.797	0.089	0.006
-155.691	-1.556	-0.088	0.061
-154.677	462.241	-0.055	-0.120
-153.662	-181.172	0.151	0.003
-152.647	667.731	-0.116	0.292
-151.633	-200.000	0.067	0.336
-150.618	-115.368	-0.220	0.041
-149.604	10.124	0.240	-0.179
-148.589	-200.000	-0.025	0.325
-147.574	-148.538	0.127	-0.010
-146.560	-200.000	-0.016	-0.159
-145.545	-72.353	0.156	-0.057
-144.531	-19.305	-0.083	-0.051
-143.516	11.806	0.245	0.184
-142.502	380.948	0.098	0.198
-141.487	-200.000	-0.061	0.263
-140.472	92.520	-0.095	0.104
-139.458	-94.733	-0.130	-0.035
-138.443	-73.684	-0.183	-0.065
-137.429	800.000	-0.103	-0.310
-136.414	57.023	0.211	0.201
-135.399	-92.918	0.166	0.045
-134.385	-89.252	-0.170	0.049
-133.370	-180.399	-0.199	-0.004
-132.356	54.433	0.103	0.097
-131.341	800.000	0.028	0.085
-130.326	279.637	-0.228	-0.398
-129.312	-25.805	-0.210	-0.121
-128.297	-71.460	-0.241	-0.088
-127.283	-18.962	-0.036	0.022
-126.268	-200.000	0.026	0.140
-125.253	168.299	0.128	-0.179
-124.239	-59.305	-0.123	-0.052
-123.224	-105.719	0.266	0.059
-122.210	-200.000	0.063	-0.274
