DTS Sentinel unit serial number:	SN413079Multiplexer serial number:	ORYXHardware model number:	OX4-SRSoftware version number:	ORYX F/W v4.00 Oryx Data Collector v3.7.2.0data status	okinstallation	princeton_trtdifferential loss correction	single-endedforward channel	channel 3reverse channel	N/Adate	2019/09/13time	23:16:34forward acquisition time	60.00reverse acquisition time	0.00gamma	496.2192k internal	0.2339k external	0.2339temperature offset calibration	1.0061default loss term (dB/km)	0.3790temperature slope calibration	1.0000multiplexer offset coefficient	1.0000multiplexer slope coefficient	1.0000fibre end	0.00T internal ref (°C)	27.06T ext. ref 1 (°C)	3.19T ext. ref 2 (°C)	20.95length (m)	temperature (°C)	Stokes	anti-Stokes-747.200	-140.963	0.473	0.049
-746.185	142.808	-0.118	0.158
-745.171	302.055	0.082	-0.152
-744.156	320.960	0.169	-0.323
-743.142	-139.543	0.238	-0.025
-742.127	234.758	0.061	-0.101
-741.112	800.000	0.059	-0.248
-740.098	9.708	0.090	-0.069
-739.083	58.874	-0.112	-0.111
-738.069	800.000	0.076	0.249
-737.054	-43.711	0.090	-0.046
-736.039	36.709	-0.072	-0.064
-735.025	96.291	0.045	-0.052
-734.010	193.921	-0.162	-0.246
-732.996	255.204	0.119	-0.204
-731.981	-200.000	-0.049	-0.384
-730.966	-86.986	-0.494	0.151
-729.952	174.471	0.203	-0.294
-728.937	16.907	-0.152	0.120
-727.923	-85.004	-0.073	-0.023
-726.908	-16.714	-0.059	0.037
-725.894	-156.498	0.104	0.006
-724.879	259.710	0.213	0.369
-723.864	-21.762	-0.183	0.112
-722.850	-200.000	0.011	0.195
-721.835	129.466	-0.134	0.171
-720.821	437.425	0.185	-0.405
-719.806	130.151	-0.141	-0.180
-718.791	315.257	-0.200	0.378
-717.777	-200.000	-0.032	0.208
-716.762	90.543	0.237	0.266
-715.748	-115.528	-0.187	0.035
-714.733	5.992	-0.279	-0.207
-713.718	107.857	0.169	0.202
-712.704	38.985	-0.159	0.142
-711.689	-62.193	0.156	0.065
-710.675	-13.269	-0.071	0.046
-709.660	800.000	-0.098	0.324
-708.645	-99.459	0.237	0.060
-707.631	-75.449	0.229	0.082
-706.616	-96.610	-0.474	0.125
-705.602	800.000	0.037	-0.143
-704.587	-0.296	-0.234	0.166
-703.572	-132.080	0.169	-0.022
-702.558	-32.476	-0.138	0.077
-701.543	730.891	-0.106	0.283
-700.529	-41.424	0.186	0.096
-699.514	-77.790	0.276	-0.096
-698.499	-200.000	-0.002	-0.084
-697.485	73.626	-0.102	0.107
-696.470	772.542	0.064	-0.176
-695.456	-79.820	0.127	0.043
-694.441	318.207	-0.122	-0.231
-693.426	-200.000	-0.004	0.048
-692.412	-200.000	0.000	0.241
-691.397	-82.244	-0.183	-0.060
-690.383	260.186	0.032	0.056
-689.368	-115.216	-0.320	0.061
-688.354	-120.982	-0.121	-0.020
-687.339	800.000	-0.062	0.185
-686.324	441.541	0.214	-0.468
-685.310	130.252	0.105	0.135
-684.295	98.805	0.041	-0.047
-683.281	-6.584	0.073	0.050
-682.266	221.723	-0.243	-0.390
-681.251	-127.834	0.067	-0.010
-680.237	-97.910	0.151	-0.039
-679.222	-117.238	-0.375	-0.068
-678.208	602.910	-0.023	0.057
-677.193	-36.872	0.140	0.075
-676.178	-9.254	0.085	-0.057
-675.164	112.227	0.185	0.224
-674.149	-173.640	-0.127	-0.004
-673.135	-106.333	-0.196	0.044
-672.120	-94.222	-0.280	-0.077
-671.105	613.048	0.116	-0.289
-670.091	-102.991	0.140	-0.033
-669.076	-200.000	-0.045	0.345
-668.062	-200.000	-0.001	0.157
-667.047	138.922	0.213	-0.280
-666.032	-152.053	0.019	0.001
-665.018	40.947	-0.065	0.058
-664.003	-181.052	0.277	0.006
-662.989	-200.000	-0.031	-0.299
-661.974	-64.787	-0.154	0.062
-660.959	-200.000	-0.001	0.237
-659.945	-29.547	-0.203	-0.116
-658.930	-200.000	-0.042	-0.241
-657.916	234.553	0.183	0.301
-656.901	541.053	0.052	0.123
-655.886	188.600	-0.190	-0.284
-654.872	183.105	0.091	-0.135
-653.857	47.372	0.171	0.160
-652.843	90.033	-0.109	0.121
-651.828	-200.000	-0.071	-0.566
-650.814	-117.068	-0.104	-0.019
-649.799	108.543	0.187	0.223
-648.784	27.654	-0.251	-0.211
-647.770	-58.592	-0.176	-0.076
-646.755	800.000	0.048	0.152
-645.741	800.000	-0.121	-0.391
-644.726	56.210	-0.225	-0.218
-643.711	233.874	-0.077	0.127
-642.697	664.325	-0.023	-0.060
-641.682	-70.850	0.284	-0.107
-640.668	307.490	0.167	0.312
-639.653	-200.000	0.006	-0.116
-638.638	-200.000	-0.001	0.061
-637.624	-46.559	-0.320	0.157
-636.609	-50.198	0.023	-0.011
-635.595	-17.669	0.253	0.159
-634.580	-20.574	0.162	0.099
-633.565	-49.392	0.322	-0.154
-632.551	800.000	0.037	0.119
-631.536	-33.061	0.175	-0.097
-630.522	132.466	-0.058	-0.075
-629.507	-200.000	0.015	0.074
-628.492	129.112	0.194	-0.247
-627.478	-200.000	0.004	-0.283
-626.463	-200.000	-0.017	-0.210
-625.449	-196.193	0.158	0.001
-624.434	800.000	-0.049	0.179
-623.419	800.000	-0.038	-0.136
-622.405	-200.000	0.012	0.237
-621.390	-32.107	-0.177	-0.099
-620.376	-120.165	0.110	-0.019
-619.361	-200.000	0.010	-0.221
-618.346	800.000	-0.091	0.260
-617.332	-189.848	-0.218	-0.002
-616.317	233.519	-0.167	0.275
-615.303	2.019	-0.171	0.123
-614.288	-22.588	0.442	-0.267
-613.273	-41.063	0.113	-0.058
-612.259	-200.000	-0.000	0.233
-611.244	289.483	-0.093	-0.168
-610.230	2.918	-0.119	-0.087
-609.215	-70.057	0.145	0.055
-608.201	-22.110	-0.196	-0.119
-607.186	-200.000	0.039	-0.259
-606.171	-173.172	-0.375	-0.011
-605.157	-40.125	0.261	-0.135
-604.142	-200.000	-0.019	0.292
-603.128	-104.728	-0.071	0.016
-602.113	95.500	-0.130	-0.147
-601.098	-109.889	0.117	-0.025
-600.084	-84.456	0.320	-0.101
-599.069	65.410	-0.066	0.066
-598.055	163.025	0.050	-0.071
-597.040	49.396	0.188	0.177
-596.025	57.266	0.046	0.045
-595.011	-35.313	-0.155	-0.084
-593.996	800.000	-0.018	0.080
-592.982	12.027	0.178	0.137
-591.967	29.850	0.360	-0.306
-590.952	188.895	0.076	0.113
-589.938	-111.452	-0.237	0.048
-588.923	-200.000	-0.008	-0.328
-587.909	622.509	-0.033	-0.082
-586.894	800.000	0.039	-0.109
-585.879	350.224	-0.160	-0.315
-584.865	598.786	0.111	-0.276
-583.850	314.331	-0.090	-0.169
-582.836	-44.041	-0.338	0.169
-581.821	126.490	0.032	-0.041
-580.806	135.785	-0.068	0.089
-579.792	441.594	-0.204	0.446
-578.777	162.815	0.150	0.210
-577.763	-200.000	0.029	0.260
-576.748	-169.133	0.355	-0.013
-575.733	-9.404	-0.036	0.024
-574.719	-8.927	-0.359	0.240
-573.704	-59.018	0.153	0.066
-572.690	-200.000	0.049	-0.279
-571.675	20.711	0.122	-0.099
-570.661	-89.611	-0.140	-0.041
-569.646	-22.560	-0.244	-0.147
-568.631	800.000	-0.123	0.431
-567.617	-53.231	0.086	0.039
-566.602	172.444	0.148	-0.212
-565.588	-200.000	0.026	-0.274
-564.573	-72.061	0.105	-0.039
-563.558	-103.873	0.415	0.096
-562.544	800.000	-0.047	-0.148
-561.529	-139.397	-0.105	-0.011
-560.515	-73.952	-0.170	0.062
-559.500	323.619	0.122	-0.233
-558.485	-200.000	-0.009	-0.182
-557.471	800.000	-0.144	0.427
-556.456	-130.399	0.234	-0.032
-555.442	196.454	-0.100	0.151
-554.427	-200.000	0.005	0.124
-553.412	-200.000	0.069	-0.558
-552.398	358.360	-0.180	0.357
-551.383	211.154	-0.125	-0.195
-550.369	-0.750	-0.229	0.162
-549.354	-85.277	0.253	0.079
-548.339	0.078	-0.123	-0.087
-547.325	168.950	-0.180	0.255
-546.310	-114.188	-0.324	0.062
-545.296	-97.614	0.078	-0.020
-544.281	-75.548	-0.150	-0.053
-543.266	-27.608	0.055	0.032
-542.252	-200.000	0.025	0.262
-541.237	-154.648	-0.192	0.013
-540.223	-55.650	-0.119	-0.053
-539.208	128.844	-0.073	-0.093
-538.193	800.000	-0.124	0.401
-537.179	-200.000	0.020	0.270
-536.164	800.000	0.101	0.313
-535.150	64.598	0.033	0.033
-534.135	72.490	-0.108	0.112
-533.121	800.000	-0.063	-0.270
-532.106	-91.700	-0.392	-0.111
-531.091	45.399	0.286	0.263
-530.077	7.586	0.230	0.171
-529.062	-130.578	-0.301	-0.040
-528.048	-200.000	0.005	-0.121
-527.033	228.134	-0.122	-0.197
-526.018	183.683	0.174	0.256
-525.004	-165.888	-0.169	0.007
-523.989	152.525	-0.103	0.140
-522.975	-92.560	0.108	0.030
-521.960	-105.072	0.109	-0.025
-520.945	382.740	0.031	-0.063
-519.931	528.038	0.054	0.126
-518.916	626.885	0.075	0.189
-517.902	800.000	0.021	0.081
-516.887	-200.000	-0.017	-0.089
-515.872	-68.327	0.183	-0.071
-514.858	209.624	-0.143	-0.222
-513.843	137.941	0.097	-0.126
-512.829	-200.000	0.026	0.178
-511.814	-200.000	0.015	0.161
-510.799	-51.266	0.117	0.054
-509.785	-200.000	0.017	-0.108
-508.770	-200.000	0.154	0.000
-507.756	-200.000	0.035	-0.217
-506.741	-74.194	-0.151	0.054
-505.726	244.976	0.271	0.452
-504.712	-31.936	0.087	0.048
-503.697	192.776	0.116	0.174
-502.683	-85.994	-0.420	0.129
-501.668	-32.014	-0.156	-0.087
-500.653	-90.313	-0.285	0.082
-499.639	415.084	-0.128	-0.271
-498.624	-108.925	0.104	0.022
-497.610	236.618	0.243	0.399
-496.595	-79.036	0.281	0.095
-495.581	-38.370	-0.149	-0.078
-494.566	691.647	-0.100	-0.261
-493.551	-23.917	0.201	-0.119
-492.537	-200.000	-0.001	0.045
-491.522	800.000	0.081	0.293
-490.508	800.000	0.106	0.454
-489.493	220.853	-0.072	-0.114
-488.478	-152.275	-0.249	-0.018
-487.464	-106.160	0.297	-0.066
-486.449	-88.838	-0.394	-0.116
-485.435	-1.025	-0.319	-0.224
-484.420	-200.000	-0.018	-0.217
-483.405	-9.054	0.061	-0.041
-482.391	119.382	-0.127	-0.155
-481.376	426.739	0.029	-0.061
-480.362	264.511	-0.105	0.181
-479.347	638.707	0.085	0.216
-478.332	-200.000	-0.003	0.208
-477.318	54.105	-0.091	-0.087
-476.303	-19.280	-0.151	0.093
-475.289	-76.896	0.207	-0.072
-474.274	294.974	-0.104	-0.188
-473.259	28.654	-0.056	-0.047
-472.245	-26.364	-0.185	0.108
-471.230	52.818	-0.080	-0.076
-470.216	10.572	-0.087	-0.066
-469.201	52.463	0.192	-0.181
-468.186	63.660	0.154	-0.154
-467.172	-123.003	-0.098	0.016
-466.157	422.971	-0.114	-0.243
-465.143	-200.000	0.008	-0.308
-464.128	-200.000	-0.049	0.356
-463.113	-186.069	0.218	0.003
-462.099	248.560	-0.106	0.177
-461.084	89.956	-0.180	-0.199
-460.070	-200.000	-0.046	-0.382
-459.055	-200.000	0.017	-0.077
-458.040	-59.719	-0.169	0.072
-457.026	-43.351	-0.142	-0.071
-456.011	72.331	-0.108	-0.111
-454.997	76.767	-0.114	-0.120
-453.982	122.476	-0.172	0.213
-452.968	27.315	-0.169	0.141
-451.953	602.388	0.037	-0.091
-450.938	-200.000	0.009	0.156
-449.924	97.454	-0.156	-0.178
-448.909	-145.616	-0.183	0.016
-447.895	79.188	0.222	-0.235
-446.880	-98.595	0.270	-0.068
-445.865	-119.618	0.275	-0.047
-444.851	490.318	0.043	-0.098
-443.836	-82.124	-0.338	0.109
-442.822	-148.190	-0.282	-0.023
-441.807	-89.910	-0.269	-0.078
-440.792	-56.631	0.332	0.146
-439.778	800.000	-0.074	0.241
-438.763	220.941	-0.248	-0.394
-437.749	312.235	0.058	-0.108
-436.734	-200.000	-0.043	0.256
-435.719	493.055	-0.227	-0.515
-434.705	800.000	0.199	-0.617
-433.690	-200.000	-0.026	0.116
-432.676	-29.176	-0.066	0.037
-431.661	800.000	0.045	0.186
-430.646	-200.000	0.004	-0.191
-429.632	-172.829	0.109	0.003
-428.617	-75.366	0.140	-0.049
-427.603	800.000	0.069	-0.273
-426.588	-200.000	0.051	0.321
-425.573	-89.931	0.452	0.131
-424.559	-14.768	0.188	0.120
-423.544	-90.379	0.202	0.058
-422.530	-95.116	-0.184	0.049
-421.515	-137.878	-0.150	-0.017
-420.500	-113.215	-0.210	0.041
-419.486	-200.000	0.019	0.268
-418.471	800.000	-0.095	0.315
-417.457	-50.013	0.166	-0.078
-416.442	207.802	0.062	0.095
-415.428	286.145	-0.110	-0.196
-414.413	-71.297	0.193	0.072
-413.398	800.000	0.110	-0.473
-412.384	-200.000	0.018	-0.133
-411.369	537.485	0.050	0.118
-410.355	47.466	-0.292	-0.269
-409.340	51.348	0.078	-0.074
-408.325	-200.000	-0.001	-0.149
-407.311	-66.555	0.067	-0.026
-406.296	-193.552	-0.163	0.001
-405.282	286.134	0.046	-0.081
-404.267	158.463	0.168	0.230
-403.252	-200.000	-0.005	-0.042
-402.238	-73.076	0.102	0.037
-401.223	241.740	-0.053	-0.087
-400.209	24.943	0.039	-0.032
-399.194	-75.019	-0.124	-0.044
-398.179	-155.782	0.418	0.026
-397.165	522.796	-0.080	-0.186
-396.150	-35.958	-0.140	0.075
-395.136	-58.372	-0.463	0.199
-394.121	-20.554	0.363	0.221
-393.106	-16.102	0.054	-0.034
-392.092	66.386	-0.225	0.227
-391.077	-200.000	-0.066	0.325
-390.063	51.371	0.060	0.056
-389.048	140.114	0.119	0.155
-388.033	149.978	0.066	-0.088
-387.019	-200.000	-0.010	-0.350
-386.004	82.274	0.093	0.100
-384.990	137.190	-0.116	0.150
-383.975	375.964	0.110	-0.222
-382.960	303.273	-0.048	0.088
-381.946	4.682	-0.202	0.146
-380.931	-200.000	-0.003	0.791
-379.917	800.000	0.006	-0.023
-378.902	800.000	-0.061	-0.170
-377.888	-200.000	-0.033	-0.209
-376.873	81.713	-0.127	-0.136
-375.858	-153.472	-0.159	0.011
-374.844	-200.000	0.035	0.153
-373.829	41.678	0.198	0.178
-372.815	113.105	-0.066	0.079
-371.800	-85.880	-0.271	0.083
-370.785	800.000	0.020	-0.071
-369.771	-128.849	0.074	-0.010
-368.756	171.852	-0.179	-0.254
-367.742	-79.313	-0.320	-0.107
-366.727	256.203	0.178	0.302
-365.712	-87.033	0.168	-0.051
-364.698	800.000	0.058	-0.171
-363.683	114.458	-0.059	-0.071
-362.669	115.410	-0.081	-0.098
-361.654	800.000	-0.014	-0.052
-360.639	-17.339	-0.137	0.085
-359.625	-139.254	0.380	0.040
-358.610	-153.962	0.329	-0.022
-357.596	546.510	-0.071	-0.168
-356.581	-110.224	-0.283	0.058
-355.566	6.638	0.031	-0.023
-354.552	-135.479	0.255	-0.030
-353.537	-115.945	-0.156	0.029
-352.523	800.000	-0.045	0.167
-351.508	800.000	-0.084	0.307
-350.493	-64.007	0.357	-0.144
-349.479	-200.000	0.011	-0.093
-348.464	175.668	0.080	0.114
-347.450	800.000	0.100	-0.371
-346.435	160.069	0.045	-0.061
-345.420	-102.910	0.229	-0.054
-344.406	-200.000	0.002	-0.035
-343.391	800.000	0.115	0.446
-342.377	61.617	0.097	0.095
-341.362	153.901	-0.279	-0.378
-340.348	76.083	-0.061	-0.063
-339.333	-13.065	0.297	-0.191
-338.318	521.456	0.113	-0.263
-337.304	77.241	-0.165	-0.174
-336.289	-118.842	-0.261	-0.045
-335.275	800.000	0.033	-0.127
-334.260	-39.474	0.403	0.209
-333.245	-9.482	0.251	-0.165
-332.231	135.206	0.070	-0.090
-331.216	416.685	-0.090	0.190
-330.202	-200.000	0.010	0.280
-329.187	-50.649	-0.263	0.122
-328.172	-76.280	-0.082	-0.029
-327.158	-200.000	0.008	-0.425
-326.143	-131.563	0.289	0.038
-325.129	-200.000	-0.020	0.314
-324.114	-16.704	-0.157	0.098
-323.099	-2.531	-0.315	-0.218
-322.085	-49.968	-0.221	0.104
-321.070	-200.000	0.020	-0.166
-320.056	-162.637	0.268	0.013
-319.041	-165.514	-0.150	0.006
-318.026	-200.000	-0.016	-0.121
-317.012	-79.279	-0.133	-0.044
-315.997	17.979	0.185	0.145
-314.983	-48.073	-0.202	0.096
-313.968	96.057	0.177	0.199
-312.953	-172.832	-0.124	-0.004
-311.939	152.044	0.170	-0.228
-310.924	648.294	-0.055	0.139
-309.910	103.254	0.177	-0.204
-308.895	-103.423	0.409	0.095
-307.880	-177.900	-0.190	-0.004
-306.866	-98.007	-0.439	-0.111
-305.851	495.262	0.062	-0.141
-304.837	-62.010	-0.197	0.081
-303.822	-6.955	0.206	-0.138
-302.807	-10.948	-0.197	0.128
-301.793	229.030	0.187	0.300
-300.778	481.833	-0.089	0.200
-299.764	800.000	-0.087	-0.260
-298.749	-138.247	-0.479	-0.052
-297.735	-77.875	0.378	-0.129
-296.720	-200.000	0.007	0.334
-295.705	-88.234	0.124	0.037
-294.691	-200.000	0.009	-0.074
-293.676	361.779	0.084	0.166
-292.662	101.279	-0.173	-0.199
-291.647	6.163	-0.134	-0.098
-290.632	-35.579	-0.222	-0.119
-289.618	-200.000	-0.027	-0.287
-288.603	-200.000	0.000	0.310
-287.589	374.178	0.083	-0.167
-286.574	-41.294	-0.113	-0.057
-285.559	19.288	-0.200	-0.158
-284.545	246.746	-0.082	-0.136
-283.530	800.000	-0.031	0.103
-282.516	-2.952	0.240	-0.165
-281.501	264.384	0.055	-0.095
-280.486	28.789	-0.112	0.093
-279.472	40.046	0.197	0.174
-278.457	-200.000	0.007	-0.223
-277.443	800.000	0.116	-0.380
-276.428	-200.000	-0.041	-0.289
-275.413	800.000	0.052	-0.197
-274.399	-200.000	0.003	0.298
-273.384	-20.405	-0.054	-0.033
-272.370	740.067	0.066	-0.174
-271.355	132.085	-0.151	0.191
-270.340	204.159	0.088	0.135
-269.326	-92.582	-0.397	-0.110
-268.311	-200.000	-0.001	0.074
-267.297	-70.866	0.386	0.143
-266.282	54.215	-0.143	-0.135
-265.267	-200.000	0.014	0.215
-264.253	-200.000	0.004	-0.034
-263.238	102.805	0.178	-0.206
-262.224	-200.000	-0.023	0.516
-261.209	-200.000	0.017	-0.243
-260.195	800.000	-0.059	-0.171
-259.180	10.163	0.304	-0.227
-258.165	800.000	-0.024	-0.087
-257.151	-117.314	-0.301	0.054
-256.136	-49.471	-0.314	-0.147
-255.122	30.045	0.151	0.126
-254.107	496.219	-0.036	-0.082
-253.092	-200.000	0.017	0.096
-252.078	-145.323	-0.213	-0.019
-251.063	-168.049	0.157	0.006
-250.049	13.902	-0.081	0.062
-249.034	-200.000	-0.549	0.000
-248.019	-114.534	-0.178	0.034
-247.005	0.458	0.091	0.064
-245.990	-200.000	0.012	0.304
-244.976	138.868	0.140	-0.180
-243.961	199.271	0.116	-0.175
-242.946	110.371	-0.087	-0.103
-241.932	-136.983	0.327	-0.037
-240.917	-200.000	-0.008	0.125
-239.903	34.821	0.073	-0.063
-238.888	53.551	0.233	-0.220
-237.873	-133.021	-0.186	-0.023
-236.859	800.000	0.078	0.258
-235.844	-81.758	-0.317	0.102
-234.830	75.156	-0.217	0.225
-233.815	63.624	0.109	0.107
-232.800	-39.402	-0.187	0.096
-231.786	-129.377	0.119	-0.016
-230.771	30.112	0.009	-0.007
-229.757	-119.600	0.161	0.027
-228.742	-200.000	0.037	0.213
-227.727	-71.061	-0.174	-0.064
-226.713	-122.329	0.159	-0.026
-225.698	-52.250	0.141	-0.064
-224.684	-126.920	-0.148	0.021
-223.669	-86.555	0.155	-0.047
-222.655	-200.000	-0.030	0.131
-221.640	-121.150	-0.240	-0.040
-220.625	66.915	-0.220	-0.221
-219.611	86.749	0.066	0.072
-218.596	-0.476	0.307	-0.214
-217.582	407.355	-0.087	-0.181
-216.567	354.957	-0.095	0.185
-215.552	305.318	-0.082	0.150
-214.538	-58.785	-0.323	0.137
-213.523	78.441	0.214	0.225
-212.509	592.329	0.038	0.092
-211.494	468.108	-0.177	0.389
-210.479	-61.047	-0.277	0.115
-209.465	-200.000	-0.047	0.267
-208.450	-36.711	0.207	-0.109
-207.436	-65.577	0.093	-0.037
-206.421	33.533	0.186	-0.159
-205.406	800.000	0.085	-0.327
-204.392	711.949	0.046	-0.120
-203.377	-33.168	0.262	-0.143
-202.363	-200.000	-0.032	0.179
-201.348	161.272	-0.077	-0.106
-200.333	36.634	0.310	-0.269
-199.319	128.590	-0.233	-0.291
-198.304	48.380	0.139	-0.128
-197.290	-32.030	0.063	0.035
-196.275	203.312	0.151	0.229
-195.260	85.261	0.274	-0.295
-194.246	-149.716	0.233	-0.018
-193.231	-200.000	-0.033	-0.461
-192.217	-106.024	-0.229	0.051
-191.202	-138.428	-0.232	0.025
-190.187	-200.000	-0.003	0.064
-189.173	-200.000	0.042	0.264
-188.158	439.817	0.141	-0.303
-187.144	62.305	-0.167	0.164
-186.129	-200.000	0.000	0.186
-185.114	800.000	0.028	0.101
-184.100	-116.039	-0.421	-0.077
-183.085	-111.114	-0.146	0.029
-182.071	465.175	0.091	0.199
-181.056	800.000	-0.022	0.074
-180.042	492.771	-0.020	0.045
-179.027	22.144	-0.121	0.097
-178.012	-4.878	0.156	0.106
-176.998	1.214	0.228	-0.161
-175.983	800.000	-0.016	0.047
-174.969	520.791	0.233	0.535
-173.954	-200.000	-0.029	0.182
-172.939	800.000	0.138	0.531
-171.925	234.536	0.255	0.413
-170.910	129.255	-0.131	-0.164
-169.896	335.980	-0.062	0.117
-168.881	200.656	-0.102	0.154
-167.866	664.914	0.020	-0.051
-166.852	-106.924	0.453	-0.098
-165.837	800.000	0.106	0.323
-164.823	-86.961	0.128	0.038
-163.808	65.895	-0.122	-0.121
-162.793	-62.255	0.072	-0.029
-161.779	558.910	0.048	0.114
-160.764	81.803	0.277	-0.294
-159.750	222.793	0.182	-0.287
-158.735	-101.067	0.767	0.184
-157.720	800.000	0.076	-0.283
-156.706	5.593	0.079	0.057
-155.691	-2.696	-0.197	0.135
-154.677	-94.995	0.278	-0.074
-153.662	-73.118	-0.187	-0.067
-152.647	176.661	0.150	0.214
-151.633	329.884	0.050	0.094
-150.618	148.325	-0.040	-0.052
-149.604	544.555	-0.208	0.488
-148.589	93.693	-0.170	-0.189
-147.574	-73.111	-0.116	-0.042
-146.560	240.553	0.059	-0.097
-145.545	525.854	-0.074	0.171
-144.531	-200.000	0.031	0.177
-143.516	-165.013	0.111	0.005
-142.502	800.000	-0.035	-0.104
-141.487	-44.443	-0.133	-0.065
-140.472	4.916	-0.187	0.135
-139.458	-54.737	0.597	-0.264
-138.443	-116.106	0.226	0.041
-137.429	105.103	0.104	-0.120
-136.414	-23.200	-0.349	-0.206
-135.399	270.003	-0.039	-0.067
-134.385	-48.651	0.237	0.112
-133.370	-200.000	-0.056	0.357
-132.356	-32.449	0.035	0.019
-131.341	800.000	0.128	0.438
-130.326	174.609	-0.100	-0.142
-129.312	-68.980	0.032	0.012
-128.297	-136.749	0.174	0.020
-127.283	-200.000	-0.012	0.071
-126.268	-14.294	0.102	-0.064
-125.253	341.309	-0.057	0.109
-124.239	800.000	-0.037	0.106
-123.224	-90.289	-0.100	0.028
-122.210	-155.518	0.074	0.005
-121.195	29.431	0.179	0.149
