DTS Sentinel unit serial number:	SN413079Multiplexer serial number:	ORYXHardware model number:	OX4-SRSoftware version number:	ORYX F/W v4.00 Oryx Data Collector v3.7.2.0data status	okinstallation	princeton_trtdifferential loss correction	single-endedforward channel	channel 3reverse channel	N/Adate	2019/09/18time	14:16:35forward acquisition time	60.00reverse acquisition time	0.00gamma	496.2192k internal	0.2311k external	0.2311temperature offset calibration	0.9977default loss term (dB/km)	0.3790temperature slope calibration	1.0000multiplexer offset coefficient	1.0000multiplexer slope coefficient	1.0000fibre end	0.00T internal ref (°C)	34.31T ext. ref 1 (°C)	0.68T ext. ref 2 (°C)	29.05length (m)	temperature (°C)	Stokes	anti-Stokes-747.200	116.549	-0.101	-0.126
-746.185	324.410	-0.031	-0.060
-745.171	-58.021	-0.198	-0.088
-744.156	-200.000	-0.034	0.273
-743.142	27.059	-0.157	-0.133
-742.127	242.836	0.181	0.308
-741.112	45.349	0.086	0.080
-740.098	9.731	-0.069	-0.053
-739.083	22.944	-0.037	-0.031
-738.069	367.431	-0.153	0.314
-737.054	-200.000	0.027	0.246
-736.039	708.414	-0.030	0.080
-735.025	-131.044	0.086	0.012
-734.010	-200.000	-0.042	-0.265
-732.996	64.123	-0.170	0.174
-731.981	-200.000	-0.016	0.080
-730.966	-35.126	-0.248	-0.137
-729.952	-3.535	0.224	0.158
-728.937	34.935	-0.032	-0.029
-727.923	320.746	0.039	0.076
-726.908	71.424	0.110	0.116
-725.894	-81.967	0.324	0.108
-724.879	800.000	0.114	-0.339
-723.864	53.278	-0.455	-0.442
-722.850	800.000	0.081	-0.270
-721.835	-104.753	-0.149	-0.035
-720.821	-200.000	0.040	-0.328
-719.806	638.991	0.055	-0.142
-718.791	-55.793	0.285	-0.129
-717.777	95.022	-0.104	-0.120
-716.762	63.314	-0.148	-0.150
-715.748	-18.626	-0.248	-0.157
-714.733	-200.000	0.014	0.222
-713.718	-92.952	-0.256	0.072
-712.704	-71.768	0.214	-0.081
-711.689	-200.000	-0.001	-0.186
-710.675	10.849	-0.234	0.181
-709.660	-17.890	-0.120	-0.076
-708.645	-200.000	0.002	0.231
-707.631	82.993	-0.164	-0.181
-706.616	-61.567	-0.287	0.122
-705.602	-200.000	0.003	-0.029
-704.587	15.046	0.393	-0.312
-703.572	-97.182	0.118	0.031
-702.558	60.630	-0.177	0.178
-701.543	-23.599	0.107	0.065
-700.529	34.843	0.105	-0.093
-699.514	2.152	-0.206	0.151
-698.499	-171.738	0.324	0.011
-697.485	-200.000	-0.023	0.149
-696.470	-148.180	-0.187	-0.016
-695.456	-158.841	-0.051	0.003
-694.441	-200.000	0.034	0.216
-693.426	-174.272	0.177	0.005
-692.412	-17.511	-0.138	0.088
-691.397	635.426	-0.012	0.030
-690.383	-16.670	-0.310	0.199
-689.368	-200.000	0.017	-0.125
-688.354	-200.000	0.008	0.039
-687.339	-200.000	0.030	-0.273
-686.324	390.452	0.195	-0.410
-685.310	107.608	0.069	-0.084
-684.295	-101.801	0.296	0.073
-683.281	-173.686	-0.241	0.007
-682.266	800.000	0.069	0.227
-681.251	-200.000	0.017	-0.102
-680.237	282.850	0.011	0.021
-679.222	-102.777	-0.170	-0.041
-678.208	0.595	0.200	-0.145
-677.193	-200.000	-0.008	-0.106
-676.178	-20.371	0.129	0.080
-675.164	-161.538	-0.051	0.003
-674.149	-52.904	-0.139	0.065
-673.135	-200.000	0.045	-0.377
-672.120	800.000	0.113	-0.320
-671.105	-34.225	0.243	0.135
-670.091	-200.000	-0.030	-0.220
-669.076	-40.331	0.186	0.098
-668.062	235.082	-0.122	-0.204
-667.047	293.247	-0.044	0.080
-666.032	-200.000	0.024	-0.166
-665.018	-54.585	-0.323	0.148
-664.003	7.402	-0.239	-0.181
-662.989	-120.292	0.103	0.018
-661.974	-120.799	-0.124	-0.021
-660.959	-200.000	-0.026	-0.138
-659.945	-52.339	-0.333	-0.156
-658.930	800.000	-0.052	-0.163
-657.916	-200.000	0.047	-0.416
-656.901	-194.090	-0.463	0.004
-655.886	65.069	0.056	0.058
-654.872	270.045	0.057	-0.101
-653.857	70.096	-0.168	0.175
-652.843	-9.749	0.090	0.060
-651.828	107.352	0.129	0.155
-650.814	187.923	0.081	0.123
-649.799	135.837	-0.128	-0.169
-648.784	338.597	0.077	-0.152
-647.770	28.827	-0.086	0.074
-646.755	-200.000	0.025	0.243
-645.741	-38.287	-0.185	-0.099
-644.726	-96.509	-0.013	0.003
-643.711	800.000	0.054	0.227
-642.697	-200.000	-0.000	0.242
-641.682	133.214	0.087	0.114
-640.668	-200.000	0.018	0.175
-639.653	-200.000	-0.003	0.284
-638.638	-200.000	0.024	-0.225
-637.624	-78.499	-0.303	-0.105
-636.609	-70.364	0.340	0.130
-635.595	3.532	0.140	0.103
-634.580	24.731	-0.108	0.090
-633.565	88.798	-0.182	0.204
-632.551	-200.000	0.004	-0.220
-631.536	70.484	-0.032	-0.033
-630.522	-162.019	0.254	-0.013
-629.507	-39.458	-0.069	0.037
-628.492	641.265	0.127	0.327
-627.478	111.813	-0.250	-0.305
-626.463	-119.617	-0.161	0.028
-625.449	722.334	-0.127	0.342
-624.434	800.000	0.048	0.173
-623.419	800.000	0.041	0.169
-622.405	800.000	0.033	-0.131
-621.390	-130.011	-0.212	-0.029
-620.376	-17.988	-0.288	0.182
-619.361	-88.471	-0.415	0.125
-618.346	-200.000	-0.034	-0.224
-617.332	-200.000	-0.012	-0.183
-616.317	-200.000	-0.054	-0.366
-615.303	15.471	-0.241	-0.191
-614.288	800.000	-0.144	0.419
-613.273	-123.894	-0.126	-0.020
-612.259	357.981	0.064	0.129
-611.244	-78.461	-0.398	0.138
-610.230	89.202	-0.098	-0.110
-609.215	41.462	0.111	0.102
-608.201	-85.838	0.174	-0.054
-607.186	419.998	0.109	0.236
-606.171	-200.000	0.018	-0.318
-605.157	800.000	-0.022	-0.063
-604.142	404.994	-0.050	-0.107
-603.128	-200.000	-0.031	-0.221
-602.113	349.493	-0.045	0.090
-601.098	169.296	-0.157	0.226
-600.084	-51.448	0.176	0.083
-599.069	40.270	-0.306	-0.278
-598.055	39.865	-0.198	0.179
-597.040	53.183	0.248	0.240
-596.025	-63.112	-0.259	0.108
-595.011	-8.796	-0.205	0.139
-593.996	39.018	0.076	0.069
-592.982	800.000	0.042	-0.135
-591.967	-135.306	0.052	-0.006
-590.952	-200.000	-0.065	-0.317
-589.938	-200.000	-0.001	-0.039
-588.923	-149.334	-0.097	0.008
-587.909	456.888	0.136	-0.305
-586.894	-114.875	0.249	0.048
-585.879	-140.227	-0.087	-0.009
-584.865	-200.000	0.016	-0.249
-583.850	124.730	-0.033	-0.041
-582.836	90.226	-0.197	-0.222
-581.821	-175.406	-0.103	-0.003
-580.806	-200.000	-0.005	0.357
-579.792	-45.132	-0.198	0.099
-578.777	96.810	0.157	-0.181
-577.763	610.171	-0.122	-0.306
-576.748	-66.644	-0.097	0.039
-575.733	-200.000	0.011	-0.192
-574.719	-39.426	0.226	-0.119
-573.704	-200.000	-0.002	-0.138
-572.690	-148.643	0.339	-0.028
-571.675	23.683	0.305	0.253
-570.661	60.851	-0.126	0.126
-569.646	278.735	-0.053	-0.096
-568.631	192.096	0.053	-0.081
-567.617	-200.000	0.001	-0.256
-566.602	-131.433	0.134	-0.018
-565.588	-200.000	0.006	-0.270
-564.573	-114.988	-0.182	-0.035
-563.558	-92.929	0.180	0.051
-562.544	-200.000	-0.001	0.400
-561.529	21.910	-0.280	0.230
-560.515	800.000	-0.099	-0.353
-559.500	-116.307	0.133	-0.025
-558.485	-200.000	-0.011	-0.154
-557.471	-136.488	0.182	0.021
-556.456	66.684	-0.253	0.259
-555.442	-139.093	0.457	0.050
-554.427	180.404	-0.092	0.136
-553.412	32.064	-0.278	0.242
-552.398	-200.000	0.037	0.223
-551.383	79.972	-0.049	-0.053
-550.369	45.061	0.231	0.214
-549.354	-1.006	-0.134	-0.096
-548.339	-200.000	-0.013	-0.115
-547.325	430.898	0.123	0.268
-546.310	-112.053	-0.316	0.064
-545.296	-86.998	-0.327	0.100
-544.281	228.347	-0.049	-0.080
-543.266	12.988	-0.159	0.124
-542.252	384.891	0.042	-0.088
-541.237	203.802	-0.191	0.298
-540.223	-106.789	-0.164	0.037
-539.208	-0.192	-0.079	0.056
-538.193	193.469	-0.182	-0.278
-537.179	299.253	0.097	-0.180
-536.164	-175.319	0.224	0.006
-535.150	-90.091	0.093	0.027
-534.135	57.735	-0.120	-0.118
-533.121	-136.257	0.142	-0.017
-532.106	-200.000	-0.068	0.378
-531.091	27.699	0.141	0.119
-530.077	-78.864	0.116	-0.040
-529.062	-22.928	0.051	-0.031
-528.048	-155.598	0.148	-0.010
-527.033	47.911	0.134	-0.126
-526.018	429.569	0.070	0.152
-525.004	-153.609	-0.199	-0.014
-523.989	257.731	-0.055	0.096
-522.975	-10.524	0.122	0.081
-521.960	-200.000	-0.016	-0.116
-520.945	-59.373	0.132	-0.057
-519.931	-200.000	0.009	-0.229
-518.916	-72.200	0.078	-0.029
-517.902	-42.705	-0.238	-0.122
-516.887	-200.000	-0.018	0.160
-515.872	800.000	-0.105	-0.296
-514.858	78.017	0.036	0.039
-513.843	-139.252	0.161	0.017
-512.829	404.800	-0.146	0.310
-511.814	230.474	-0.282	0.465
-510.799	800.000	-0.039	-0.122
-509.785	37.344	-0.163	0.145
-508.770	-29.519	-0.259	-0.149
-507.756	-200.000	-0.021	0.416
-506.741	-98.628	0.152	-0.039
-505.726	800.000	0.090	0.271
-504.712	65.739	-0.173	-0.176
-503.697	-146.465	0.343	0.030
-502.683	13.238	0.155	0.121
-501.668	-131.714	-0.305	0.040
-500.653	-2.641	0.097	0.068
-499.639	346.157	-0.039	-0.078
-498.624	-16.413	-0.269	-0.172
-497.610	295.986	0.049	-0.091
-496.595	800.000	-0.063	-0.211
-495.581	332.959	0.086	-0.168
-494.566	38.649	0.014	-0.013
-493.551	-118.824	-0.043	0.008
-492.537	65.646	-0.033	0.033
-491.522	-76.141	-0.282	-0.100
-490.508	253.444	0.199	-0.342
-489.493	800.000	-0.122	-0.389
-488.478	-128.061	0.135	0.019
-487.464	-200.000	0.054	0.369
-486.449	800.000	-0.154	0.535
-485.435	-200.000	0.029	0.223
-484.420	47.661	-0.140	0.132
-483.405	242.781	0.244	0.411
-482.391	159.992	-0.126	-0.177
-481.376	388.197	0.038	0.079
-480.362	10.158	-0.228	0.174
-479.347	-200.000	0.010	-0.148
-478.332	-77.676	0.221	-0.077
-477.318	-200.000	-0.020	0.087
-476.303	-200.000	0.099	0.459
-475.289	-38.889	-0.251	0.133
-474.274	-200.000	0.075	0.346
-473.259	-124.975	0.314	0.049
-472.245	-1.139	-0.235	0.167
-471.230	-68.069	-0.114	-0.045
-470.216	195.170	0.111	0.169
-469.201	800.000	0.060	0.201
-468.186	-200.000	0.003	-0.177
-467.172	326.719	0.090	0.173
-466.157	-134.383	0.217	-0.027
-465.143	0.008	-0.196	0.140
-464.128	800.000	0.128	0.453
-463.113	-200.000	-0.060	-0.394
-462.099	-84.991	-0.400	-0.126
-461.084	-148.392	-0.120	-0.010
-460.070	-200.000	0.011	-0.126
-459.055	-19.776	-0.171	-0.106
-458.040	-33.678	-0.301	-0.167
-457.026	69.472	0.397	0.410
-456.011	-35.753	-0.254	-0.138
-454.997	673.659	0.116	-0.302
-453.982	-120.482	-0.122	0.021
-452.968	-200.000	0.013	0.063
-451.953	-200.000	-0.013	-0.515
-450.938	-29.880	0.209	0.119
-449.924	-200.000	0.005	0.084
-448.909	121.056	0.125	-0.156
-447.895	-161.029	0.401	0.021
-446.880	124.374	0.166	-0.209
-445.865	-36.440	0.068	-0.037
-444.851	33.971	0.084	-0.073
-443.836	128.465	-0.102	-0.131
-442.822	-200.000	0.012	0.432
-441.807	112.807	0.190	0.231
-440.792	4.894	-0.289	-0.213
-439.778	-97.027	0.238	-0.063
-438.763	-93.309	-0.225	0.063
-437.749	-46.222	-0.321	0.159
-436.734	-200.000	-0.042	-0.185
-435.719	56.774	-0.114	0.112
-434.705	38.753	0.065	-0.058
-433.690	-72.509	0.222	0.082
-432.676	-89.910	0.151	-0.044
-431.661	-200.000	0.047	0.287
-430.646	331.801	-0.064	-0.124
-429.632	-115.947	-0.100	-0.019
-428.617	76.835	-0.127	0.135
-427.603	-45.506	0.361	-0.179
-426.588	-36.192	-0.274	-0.148
-425.573	224.360	0.123	-0.199
-424.559	-1.957	0.250	-0.176
-423.544	72.150	-0.167	-0.174
-422.530	342.257	0.120	-0.235
-421.515	-133.898	0.089	0.011
-420.500	-109.456	0.450	-0.095
-419.486	-90.231	-0.360	0.105
-418.471	674.418	0.053	0.139
-417.457	800.000	-0.079	-0.329
-416.442	-136.604	0.078	0.009
-415.428	573.567	-0.079	0.193
-414.413	-36.261	0.279	0.151
-413.398	229.242	-0.212	-0.347
-412.384	37.411	0.042	0.037
-411.369	29.107	0.040	-0.034
-410.355	-11.514	-0.309	-0.203
-409.340	-86.555	-0.381	0.117
-408.325	-160.402	0.147	-0.008
-407.311	579.763	-0.093	-0.229
-406.296	-115.007	0.335	0.064
-405.282	41.879	-0.232	0.211
-404.267	154.710	0.089	0.122
-403.252	23.576	-0.141	-0.116
-402.238	280.440	-0.140	0.250
-401.223	350.728	0.111	-0.219
-400.209	83.767	-0.213	0.233
-399.194	-84.900	-0.078	-0.025
-398.179	40.367	-0.190	0.171
-397.165	-200.000	0.082	-0.576
-396.150	10.592	0.180	0.137
-395.136	83.307	-0.038	0.041
-394.121	-91.424	0.126	-0.036
-393.106	-93.333	0.267	-0.074
-392.092	-16.393	-0.123	-0.078
-391.077	-200.000	0.034	-0.230
-390.063	216.425	0.112	-0.178
-389.048	-90.562	-0.036	0.011
-388.033	191.275	-0.135	-0.203
-387.019	-24.259	-0.350	0.209
-386.004	800.000	-0.043	0.180
-384.990	457.478	-0.048	0.106
-383.975	495.925	-0.057	-0.132
-382.960	682.990	-0.082	0.214
-381.946	148.552	0.127	-0.171
-380.931	108.261	0.223	0.266
-379.917	-200.000	-0.005	0.342
-378.902	20.543	-0.219	-0.177
-377.888	-31.461	0.285	-0.160
-376.873	-112.235	-0.092	-0.018
-375.858	-68.011	-0.177	-0.069
-374.844	-200.000	-0.013	-0.077
-373.829	-77.757	0.173	0.060
-372.815	328.547	0.019	0.037
-371.800	-173.938	0.396	0.012
-370.785	-43.810	0.143	-0.072
-369.771	-200.000	-0.007	0.111
-368.756	-200.000	-0.053	0.266
-367.742	133.446	-0.111	0.144
-366.727	-200.000	-0.041	0.287
-365.712	76.650	0.147	0.156
-364.698	800.000	-0.013	-0.052
-363.683	800.000	-0.073	-0.227
-362.669	-169.221	0.306	-0.011
-361.654	47.849	0.092	-0.086
-360.639	355.074	0.148	-0.294
-359.625	231.369	-0.167	0.273
-358.610	800.000	-0.032	-0.106
-357.596	232.574	-0.117	-0.192
-356.581	-83.715	0.156	-0.050
-355.566	-153.978	-0.062	-0.004
-354.552	41.665	0.435	0.394
-353.537	537.597	-0.018	0.043
-352.523	-96.532	0.194	-0.051
-351.508	330.911	0.166	-0.320
-350.493	-200.000	0.006	-0.047
-349.479	117.012	0.136	-0.167
-348.464	-13.474	0.337	0.218
-347.450	181.491	-0.089	0.131
-346.435	567.764	0.008	0.018
-345.420	-200.000	-0.022	0.102
-344.406	-23.000	-0.099	0.059
-343.391	154.800	0.010	-0.013
-342.377	-83.560	0.384	0.123
-341.362	267.897	-0.204	-0.358
-340.348	-138.507	0.330	-0.036
-339.333	-97.512	-0.190	0.049
-338.318	-200.000	0.007	-0.220
-337.304	-200.000	0.038	0.185
-336.289	48.413	0.178	0.166
-335.275	-36.146	-0.120	0.065
-334.260	18.346	0.237	0.189
-333.245	-170.122	0.395	-0.014
-332.231	7.650	0.085	0.064
-331.216	-200.000	-0.025	-0.127
-330.202	93.913	-0.127	-0.144
-329.187	800.000	0.087	-0.274
-328.172	594.318	0.030	-0.074
-327.158	18.126	-0.227	0.181
-326.143	-168.873	-0.328	0.012
-325.129	-177.187	0.193	-0.005
-324.114	-200.000	0.065	-0.383
-323.099	14.005	-0.188	0.146
-322.085	-110.890	-0.209	0.043
-321.070	52.259	0.190	-0.180
-320.056	301.254	0.301	-0.555
-319.041	23.218	0.136	0.111
-318.026	197.675	0.126	-0.192
-317.012	-7.288	0.306	-0.207
-315.997	-158.450	0.044	0.003
-314.983	-200.000	0.036	0.351
-313.968	-47.332	0.601	0.292
-312.953	-85.264	-0.211	-0.066
-311.939	121.678	0.180	0.224
-310.924	-138.575	0.268	0.029
-309.910	-63.758	-0.053	0.022
-308.895	-129.147	0.276	-0.039
-307.880	116.785	0.093	-0.114
-306.866	-72.522	0.191	0.070
-305.851	49.812	-0.175	0.165
-304.837	-200.000	0.022	-0.193
-303.822	-200.000	0.023	0.175
-302.807	-200.000	0.051	-0.276
-301.793	-57.352	-0.031	0.014
-300.778	-71.399	0.211	0.079
-299.764	238.178	0.073	-0.120
-298.749	-138.270	0.447	0.049
-297.735	71.359	0.122	-0.127
-296.720	-200.000	-0.048	-0.357
-295.705	800.000	0.045	-0.168
-294.691	49.932	-0.089	-0.084
-293.676	508.106	-0.064	0.147
-292.662	-20.225	0.210	-0.129
-291.647	-134.450	-0.394	-0.048
-290.632	-200.000	-0.016	-0.231
-289.618	283.437	0.072	-0.129
-288.603	23.659	-0.144	-0.118
-287.589	-94.321	-0.427	-0.116
-286.574	800.000	-0.049	0.181
-285.559	25.496	-0.223	-0.185
-284.545	-14.554	0.264	-0.169
-283.530	68.052	-0.241	0.246
-282.516	163.166	-0.120	0.169
-281.501	-200.000	0.075	0.383
-280.486	41.189	-0.169	-0.152
-279.472	507.581	-0.090	-0.209
-278.457	-40.269	0.152	0.079
-277.443	800.000	-0.104	0.438
-276.428	-80.979	-0.248	0.082
-275.413	-123.363	0.581	0.092
-274.399	-2.913	-0.263	-0.183
-273.384	-47.383	0.050	0.024
-272.370	177.391	-0.052	0.075
-271.355	65.772	-0.165	0.167
-270.340	-132.347	-0.150	0.019
-269.326	-70.572	0.289	0.109
-268.311	-72.081	0.156	0.058
-267.297	144.811	-0.251	-0.335
-266.282	171.328	0.201	-0.287
-265.267	-36.121	-0.168	-0.091
-264.253	109.540	0.385	-0.460
-263.238	140.732	0.170	-0.224
-262.224	-91.057	0.069	0.020
-261.209	628.460	0.089	-0.225
-260.195	76.608	-0.179	0.190
-259.180	-49.955	0.211	0.100
-258.165	5.718	0.132	0.097
-257.151	416.502	-0.120	-0.255
-256.136	14.680	0.064	0.050
-255.122	137.113	0.069	-0.090
-254.107	-151.775	0.049	-0.004
-253.092	-200.000	0.011	0.222
-252.078	800.000	0.018	0.061
-251.063	9.550	-0.066	-0.050
-250.049	-7.542	-0.176	0.119
-249.034	-200.000	0.016	-0.413
-248.019	-200.000	-0.065	-0.360
-247.005	-200.000	0.047	-0.346
-245.990	-200.000	0.030	0.267
-244.976	607.427	0.066	-0.163
-243.961	155.196	-0.007	0.010
-242.946	211.089	0.210	-0.329
-241.932	531.881	-0.014	0.034
-240.917	-69.404	-0.240	-0.092
-239.903	-121.416	0.362	0.060
-238.888	423.151	0.059	-0.126
-237.873	-121.878	-0.260	0.043
-236.859	800.000	0.034	-0.107
-235.844	-200.000	0.015	0.548
-234.830	-115.224	-0.091	-0.017
-233.815	-200.000	0.061	-0.349
-232.800	800.000	0.055	0.233
-231.786	-132.043	-0.264	-0.034
-230.771	183.191	-0.144	0.212
-229.757	-63.033	0.323	0.133
-228.742	17.424	0.167	-0.132
-227.727	-169.348	0.180	-0.007
-226.713	-149.251	-0.024	0.002
-225.698	232.042	-0.117	-0.191
-224.684	800.000	0.049	0.196
-223.669	-24.999	0.055	-0.032
-222.655	9.051	0.132	0.099
-221.640	275.548	0.148	-0.260
-220.625	-200.000	-0.013	-0.141
-219.611	-18.225	0.409	0.254
-218.596	-98.773	0.085	-0.021
-217.582	629.221	0.073	0.182
-216.567	281.258	0.083	0.147
-215.552	-60.401	0.432	-0.183
-214.538	-96.593	0.402	0.105
-213.523	68.649	-0.115	-0.118
-212.509	-63.050	-0.182	0.075
-211.494	-152.940	0.258	0.018
-210.479	94.978	-0.226	0.256
-209.465	-200.000	-0.045	0.298
-208.450	705.383	0.141	0.370
-207.436	94.661	-0.225	0.254
-206.421	-36.009	-0.221	0.119
-205.406	41.235	-0.112	-0.100
-204.392	17.791	-0.197	-0.156
-203.377	428.065	-0.082	0.175
-202.363	348.151	-0.080	-0.156
-201.348	199.241	-0.188	-0.286
-200.333	800.000	-0.007	0.023
-199.319	241.675	-0.156	-0.258
-198.304	240.436	-0.105	0.174
-197.290	-200.000	0.014	-0.156
-196.275	-6.300	-0.280	-0.190
-195.260	800.000	-0.024	-0.098
-194.246	142.334	0.173	-0.228
-193.231	-104.126	-0.267	0.062
-192.217	109.774	-0.137	-0.163
-191.202	222.194	-0.098	-0.156
-190.187	800.000	0.018	0.065
-189.173	-137.291	0.360	0.041
-188.158	-20.951	-0.192	-0.117
-187.144	-118.645	-0.223	-0.039
-186.129	-200.000	-0.006	0.058
-185.114	163.956	-0.024	-0.034
-184.100	60.475	0.098	-0.096
-183.085	-116.326	0.106	0.020
-182.071	-35.203	-0.102	0.055
-181.056	99.691	0.134	0.154
-180.042	639.249	-0.013	-0.032
-179.027	-59.893	-0.086	-0.036
-178.012	515.366	-0.121	0.280
-176.998	304.522	-0.104	0.191
-175.983	-200.000	0.017	-0.192
-174.969	70.425	-0.173	-0.178
-173.954	-92.639	0.235	0.066
-172.939	-27.959	0.294	-0.169
-171.925	-98.941	-0.258	0.065
-170.910	-37.862	-0.159	0.084
-169.896	317.366	0.155	0.291
-168.881	144.021	0.229	-0.303
-167.866	109.063	-0.133	0.157
-166.852	301.215	0.078	0.143
-165.837	235.533	0.108	0.177
-164.823	-171.575	0.207	0.007
-163.808	-18.857	-0.235	-0.145
-162.793	-200.000	0.002	0.015
-161.779	-97.538	-0.159	0.041
-160.764	47.186	-0.113	0.104
-159.750	-12.082	0.062	0.041
-158.735	-151.703	-0.213	0.016
-157.720	-200.000	0.028	0.134
-156.706	-181.340	-0.279	0.005
-155.691	-55.960	-0.019	-0.008
-154.677	11.346	0.034	0.026
-153.662	-27.494	-0.147	-0.085
-152.647	-38.061	-0.336	-0.177
-151.633	40.476	-0.061	-0.055
-150.618	800.000	-0.015	-0.045
-149.604	-75.372	-0.108	-0.038
-148.589	251.496	-0.079	-0.133
-147.574	-151.135	-0.160	0.012
-146.560	-200.000	-0.037	-0.171
-145.545	-10.481	0.112	-0.074
-144.531	104.110	0.089	0.104
-143.516	-200.000	0.026	0.159
-142.502	180.229	0.218	0.317
-141.487	-168.692	0.087	0.003
-140.472	650.118	0.052	0.133
-139.458	-44.055	0.190	0.095
-138.443	85.697	-0.380	-0.414
-137.429	-114.385	-0.243	-0.046
-136.414	1.393	-0.030	-0.021
-135.399	-127.771	0.040	-0.006
-134.385	-144.330	0.370	0.034
-133.370	800.000	-0.039	-0.139
-132.356	-81.537	0.135	0.044
-131.341	-160.791	0.343	-0.018
-130.326	-33.634	0.288	0.157
-129.312	84.505	0.085	-0.092
-128.297	53.112	0.074	0.071
-127.283	-138.618	0.246	0.027
-126.268	-68.619	0.082	-0.032
-125.253	386.986	-0.164	-0.335
-124.239	-53.269	-0.531	0.241
-123.224	-129.430	-0.174	0.024
-122.210	-110.245	-0.106	0.022
-121.195	39.508	0.391	0.347
