DTS Sentinel unit serial number:	SN413079Multiplexer serial number:	ORYXHardware model number:	OX4-SRSoftware version number:	ORYX F/W v4.00 Oryx Data Collector v3.7.2.0data status	okinstallation	princeton_trtdifferential loss correction	single-endedforward channel	channel 3reverse channel	N/Adate	2019/09/13time	18:28:35forward acquisition time	60.00reverse acquisition time	0.00gamma	496.2192k internal	0.2315k external	0.2315temperature offset calibration	1.0115default loss term (dB/km)	0.3790temperature slope calibration	1.0000multiplexer offset coefficient	1.0000multiplexer slope coefficient	1.0000fibre end	0.00T internal ref (°C)	33.48T ext. ref 1 (°C)	4.28T ext. ref 2 (°C)	26.46length (m)	temperature (°C)	Stokes	anti-Stokes-747.200	-200.000	-0.090	0.428
-746.185	315.503	0.045	0.085
-745.171	378.882	0.101	0.209
-744.156	-107.781	0.022	0.005
-743.142	76.842	0.241	-0.260
-742.127	-127.181	0.156	-0.023
-741.112	-41.474	-0.197	0.103
-740.098	68.624	-0.113	0.118
-739.083	734.610	0.148	0.402
-738.069	-57.748	-0.696	0.309
-737.054	-200.000	-0.060	-0.294
-736.039	72.810	0.264	0.279
-735.025	-51.906	0.154	0.072
-734.010	-117.646	0.163	0.030
-732.996	-8.305	-0.227	-0.155
-731.981	-96.319	0.109	0.029
-730.966	180.706	-0.155	-0.230
-729.952	-200.000	0.008	-0.128
-728.937	96.408	-0.101	0.117
-727.923	-44.328	0.345	0.175
-726.908	16.537	-0.180	-0.144
-725.894	-107.741	-0.206	0.045
-724.879	6.441	0.086	-0.065
-723.864	-120.060	-0.284	0.049
-722.850	54.757	0.256	0.250
-721.835	-200.000	-0.005	0.417
-720.821	163.662	-0.038	0.054
-719.806	-12.919	0.239	0.157
-718.791	-140.507	-0.203	-0.021
-717.777	-106.430	0.462	0.104
-716.762	-106.492	0.331	0.075
-715.748	424.406	0.071	0.155
-714.733	-86.270	-0.449	0.140
-713.718	180.635	-0.307	-0.456
-712.704	800.000	0.098	-0.282
-711.689	-36.673	-0.216	0.118
-710.675	-18.442	-0.099	-0.063
-709.660	320.698	-0.080	-0.154
-708.645	-7.576	0.260	-0.178
-707.631	123.668	0.052	0.065
-706.616	193.660	0.127	0.194
-705.602	37.346	0.136	-0.122
-704.587	800.000	-0.035	-0.099
-703.572	-34.259	0.151	0.084
-702.558	134.623	0.045	-0.059
-701.543	-33.332	0.188	-0.105
-700.529	16.777	0.091	0.072
-699.514	-128.091	0.557	-0.081
-698.499	-133.477	-0.335	0.042
-697.485	-200.000	-0.035	0.195
-696.470	-159.735	0.216	0.012
-695.456	-2.752	-0.323	-0.228
-694.441	-11.448	-0.090	-0.060
-693.426	179.705	0.132	-0.196
-692.412	-200.000	0.015	-0.275
-691.397	-61.412	0.193	0.082
-690.383	-84.062	0.152	-0.049
-689.368	-68.914	0.188	-0.073
-688.354	800.000	-0.069	-0.234
-687.339	-85.148	0.129	-0.041
-686.324	-67.849	-0.354	-0.140
-685.310	135.089	-0.262	0.344
-684.295	-73.649	-0.393	-0.145
-683.281	118.987	0.062	-0.077
-682.266	-4.939	-0.252	-0.175
-681.251	539.457	-0.128	-0.308
-680.237	27.607	0.139	0.118
-679.222	-82.076	-0.146	0.048
-678.208	22.421	0.151	0.125
-677.193	-200.000	-0.008	0.220
-676.178	-57.259	-0.290	-0.129
-675.164	800.000	0.110	0.358
-674.149	-200.000	0.013	0.063
-673.135	-78.912	0.304	0.105
-672.120	-22.217	-0.311	0.191
-671.105	-16.236	-0.296	-0.190
-670.091	-72.589	-0.327	-0.122
-669.076	-200.000	-0.032	-0.418
-668.062	800.000	0.038	-0.133
-667.047	-200.000	-0.031	0.190
-666.032	800.000	-0.107	-0.315
-665.018	-134.407	-0.144	0.018
-664.003	78.981	-0.184	-0.200
-662.989	-79.009	0.096	-0.033
-661.974	357.827	0.104	-0.210
-660.959	2.447	-0.273	-0.200
-659.945	322.050	0.146	-0.280
-658.930	800.000	0.081	0.312
-657.916	-51.133	0.181	0.086
-656.901	-200.000	0.022	-0.220
-655.886	349.887	0.054	-0.107
-654.872	800.000	0.027	0.094
-653.857	800.000	0.064	0.198
-652.843	373.757	0.061	0.125
-651.828	143.224	-0.138	-0.186
-650.814	-141.470	-0.483	-0.049
-649.799	134.332	-0.082	0.107
-648.784	-98.737	-0.162	-0.042
-647.770	91.280	-0.122	-0.138
-646.755	116.603	-0.191	0.236
-645.741	-144.107	-0.207	0.020
-644.726	-114.149	-0.129	0.025
-643.711	-98.511	0.251	-0.065
-642.697	175.778	-0.135	0.198
-641.682	101.842	0.159	-0.187
-640.668	121.453	-0.030	-0.038
-639.653	-83.968	0.098	0.031
-638.638	369.439	0.026	0.053
-637.624	445.639	0.172	-0.382
-636.609	54.793	-0.203	-0.198
-635.595	-38.547	0.178	-0.095
-634.580	-37.241	0.340	-0.184
-633.565	34.103	-0.271	0.239
-632.551	4.077	0.237	-0.175
-631.536	-200.000	-0.013	-0.152
-630.522	-200.000	-0.009	0.219
-629.507	587.926	0.083	0.207
-628.492	-145.876	-0.108	-0.010
-627.478	-38.353	0.188	0.101
-626.463	497.299	-0.014	-0.032
-625.449	-115.882	-0.175	-0.033
-624.434	-83.281	0.227	-0.074
-623.419	20.455	-0.195	-0.159
-622.405	90.998	-0.139	0.158
-621.390	-61.350	-0.298	0.127
-620.376	425.277	-0.076	0.166
-619.361	-83.567	-0.266	0.086
-618.346	340.847	-0.236	-0.466
-617.332	-90.109	-0.044	0.013
-616.317	657.215	-0.085	0.219
-615.303	-200.000	-0.033	0.186
-614.288	52.365	-0.101	-0.097
-613.273	-200.000	0.058	-0.356
-612.259	119.712	-0.162	-0.203
-611.244	16.133	-0.086	-0.068
-610.230	-123.768	0.142	0.023
-609.215	66.836	-0.078	0.080
-608.201	-147.074	0.177	-0.015
-607.186	-200.000	-0.045	0.247
-606.171	-60.766	-0.225	0.096
-605.157	24.086	0.223	-0.185
-604.142	77.096	-0.260	-0.278
-603.128	-200.000	-0.020	-0.117
-602.113	25.692	0.106	0.089
-601.098	-46.683	-0.090	-0.044
-600.084	-200.000	0.006	-0.274
-599.069	220.834	-0.030	0.049
-598.055	-146.291	0.259	-0.023
-597.040	-200.000	-0.001	0.203
-596.025	20.446	0.108	0.088
-595.011	26.231	-0.160	0.134
-593.996	-91.519	-0.312	0.090
-592.982	-5.088	-0.066	0.046
-591.967	-174.894	0.215	-0.006
-590.952	-5.258	-0.069	-0.048
-589.938	693.564	-0.117	-0.308
-588.923	-200.000	-0.033	-0.340
-587.909	-123.300	0.084	0.014
-586.894	115.839	-0.098	-0.121
-585.879	-200.000	0.024	0.181
-584.865	-114.738	0.187	-0.036
-583.850	393.434	0.062	0.131
-582.836	-111.931	-0.096	0.019
-581.821	44.220	-0.301	0.278
-580.806	153.374	0.051	-0.070
-579.792	-82.609	-0.056	0.018
-578.777	-84.464	0.163	-0.052
-577.763	-179.930	-0.324	0.007
-576.748	-200.000	0.009	-0.163
-575.733	800.000	-0.058	-0.190
-574.719	-137.563	-0.090	-0.010
-573.704	800.000	-0.055	0.165
-572.690	-54.478	-0.054	0.025
-571.675	338.378	0.027	-0.054
-570.661	139.434	-0.289	0.383
-569.646	-200.000	0.003	-0.024
-568.631	297.330	-0.106	-0.197
-567.617	143.535	0.068	0.091
-566.602	800.000	0.067	0.187
-565.588	211.341	0.172	-0.272
-564.573	200.561	0.141	0.218
-563.558	-136.289	0.206	-0.024
-562.544	176.820	0.086	0.125
-561.529	100.484	0.157	0.183
-560.515	198.509	0.060	0.093
-559.500	92.631	0.090	0.102
-558.485	800.000	-0.090	0.258
-557.471	-200.000	0.016	0.189
-556.456	437.449	0.099	-0.217
-555.442	-87.440	0.154	-0.047
-554.427	-77.362	-0.290	-0.101
-553.412	-96.433	0.058	0.015
-552.398	-53.423	0.214	0.099
-551.383	-82.504	-0.192	-0.063
-550.369	800.000	0.039	-0.165
-549.354	-115.790	-0.284	-0.053
-548.339	-84.288	0.144	0.046
-547.325	519.658	0.161	-0.380
-546.310	367.754	0.138	-0.280
-545.296	47.381	-0.323	-0.302
-544.281	-124.718	-0.253	0.039
-543.266	-200.000	-0.045	-0.351
-542.252	-43.705	0.094	0.048
-541.237	-160.924	0.418	0.022
-540.223	800.000	0.037	-0.139
-539.208	74.510	0.020	-0.021
-538.193	-200.000	0.004	-0.248
-537.179	247.587	-0.031	-0.053
-536.164	-156.014	-0.079	-0.005
-535.150	-74.831	-0.107	0.038
-534.135	-200.000	0.097	-0.431
-533.121	147.183	-0.074	-0.100
-532.106	476.390	0.090	-0.205
-531.091	84.110	0.047	0.051
-530.077	-154.329	-0.123	0.008
-529.062	-200.000	0.002	-0.412
-528.048	-6.397	-0.288	0.197
-527.033	-200.000	0.030	0.283
-526.018	5.851	0.260	0.193
-525.004	-200.000	-0.011	0.235
-523.989	-41.750	-0.120	-0.062
-522.975	-200.000	-0.025	-0.158
-521.960	-114.668	0.347	-0.067
-520.945	-200.000	-0.020	-0.258
-519.931	800.000	-0.007	0.031
-518.916	-22.378	-0.385	-0.234
-517.902	-106.860	-0.181	-0.040
-516.887	-30.637	0.072	-0.041
-515.872	-45.327	-0.330	-0.165
-514.858	-129.027	-0.137	0.019
-513.843	-154.201	0.315	-0.021
-512.829	-153.780	-0.287	-0.020
-511.814	-67.298	0.211	-0.083
-510.799	-37.905	-0.158	0.084
-509.785	30.973	-0.183	0.157
-508.770	130.670	-0.116	0.150
-507.756	407.044	0.091	-0.193
-506.741	-10.927	-0.204	-0.135
-505.726	-182.915	-0.274	0.005
-504.712	-64.678	0.325	0.132
-503.697	-63.825	0.508	-0.209
-502.683	74.104	-0.249	0.262
-501.668	167.071	0.090	0.128
-500.653	800.000	0.020	-0.062
-499.639	-60.954	-0.101	-0.043
-498.624	-38.300	-0.047	-0.025
-497.610	-23.808	0.193	0.116
-496.595	-142.098	-0.170	0.017
-495.581	-200.000	0.048	-0.270
-494.566	329.697	-0.117	0.226
-493.551	77.366	-0.159	-0.170
-492.537	-106.189	0.123	-0.028
-491.522	-26.552	-0.183	-0.107
-490.508	74.514	0.142	-0.150
-489.493	-82.009	-0.260	-0.085
-488.478	-164.228	0.312	-0.014
-487.464	-155.976	-0.161	-0.010
-486.449	711.762	-0.073	-0.193
-485.435	-78.736	0.368	-0.126
-484.420	409.487	0.138	0.294
-483.405	8.929	0.012	-0.009
-482.391	800.000	0.122	-0.350
-481.376	436.663	0.024	-0.053
-480.362	-64.163	-0.413	0.169
-479.347	725.025	0.236	0.631
-478.332	29.425	0.085	-0.072
-477.318	592.284	0.117	0.290
-476.303	88.964	0.061	0.068
-475.289	-200.000	-0.031	0.401
-474.274	800.000	0.076	-0.311
-473.259	-200.000	-0.007	-0.195
-472.245	-118.463	0.091	0.016
-471.230	800.000	-0.107	-0.395
-470.216	-49.227	0.260	0.125
-469.201	264.368	0.035	0.060
-468.186	-200.000	-0.057	0.362
-467.172	-194.805	-0.308	0.002
-466.157	15.986	0.149	0.118
-465.143	226.553	-0.205	-0.334
-464.128	-188.520	-0.286	-0.004
-463.113	-5.864	0.213	0.146
-462.099	39.044	-0.115	-0.104
-461.084	252.064	-0.033	0.056
-460.070	67.883	-0.274	0.281
-459.055	109.620	0.110	0.132
-458.040	-14.223	0.086	0.055
-457.026	-163.527	-0.126	0.006
-456.011	800.000	-0.062	0.181
-454.997	31.324	0.129	-0.111
-453.982	268.249	0.127	0.223
-452.968	52.864	-0.194	-0.186
-451.953	130.964	-0.216	0.277
-450.938	-61.966	-0.231	0.097
-449.924	-166.943	0.181	0.007
-448.909	-92.266	0.256	0.072
-447.895	-94.616	-0.033	0.009
-446.880	742.147	0.013	-0.035
-445.865	-39.193	0.174	-0.092
-444.851	255.853	0.078	0.134
-443.836	95.846	0.273	-0.313
-442.822	800.000	0.007	0.023
-441.807	31.314	0.223	-0.192
-440.792	587.346	-0.058	-0.142
-439.778	497.124	0.032	0.074
-438.763	800.000	-0.040	0.157
-437.749	-36.809	0.167	0.090
-436.734	-58.588	0.200	-0.087
-435.719	24.966	0.283	-0.235
-434.705	445.525	-0.104	-0.229
-433.690	-200.000	0.003	0.150
-432.676	21.397	-0.224	0.183
-431.661	-98.782	0.097	0.025
-430.646	-107.156	-0.212	-0.047
-429.632	-200.000	-0.059	0.441
-428.617	-200.000	-0.028	0.161
-427.603	17.351	0.172	0.137
-426.588	607.109	0.074	-0.184
-425.573	67.485	0.195	-0.199
-424.559	111.785	-0.011	0.013
-423.544	-123.394	0.152	0.024
-422.530	145.558	0.011	0.015
-421.515	-38.168	-0.174	0.093
-420.500	217.387	0.074	-0.118
-419.486	9.397	-0.356	0.270
-418.471	2.706	-0.201	-0.146
-417.457	-200.000	-0.028	-0.191
-416.442	128.330	0.191	0.243
-415.428	-66.782	-0.259	-0.102
-414.413	3.293	-0.090	-0.065
-413.398	549.914	0.023	-0.055
-412.384	-191.051	-0.169	-0.002
-411.369	42.450	-0.222	0.202
-410.355	-120.240	0.218	0.037
-409.340	-21.941	0.327	-0.199
-408.325	-200.000	0.004	-0.077
-407.311	98.686	0.069	-0.080
-406.296	40.853	0.380	-0.343
-405.282	-146.828	-0.127	0.011
-404.267	-200.000	0.044	-0.293
-403.252	241.721	-0.083	-0.139
-402.238	371.215	-0.146	-0.296
-401.223	-160.511	-0.408	0.022
-400.209	-41.315	0.110	0.056
-399.194	-200.000	-0.011	0.214
-398.179	-22.793	0.371	-0.224
-397.165	-200.000	-0.020	0.088
-396.150	538.570	-0.098	-0.234
-395.136	74.665	-0.038	-0.040
-394.121	386.698	-0.056	0.116
-393.106	158.339	-0.238	-0.330
-392.092	225.888	0.171	0.277
-391.077	-55.940	0.380	0.169
-390.063	32.206	0.188	-0.162
-389.048	37.885	0.191	0.169
-388.033	-17.614	0.045	0.028
-387.019	-139.482	0.065	0.007
-386.004	-65.633	0.242	0.097
-384.990	-125.346	-0.054	-0.008
-383.975	-200.000	-0.011	-0.066
-382.960	800.000	-0.163	0.509
-381.946	-200.000	0.081	-0.425
-380.931	-200.000	-0.076	0.389
-379.917	479.017	-0.071	-0.160
-378.902	800.000	-0.013	-0.039
-377.888	95.473	-0.044	0.050
-376.873	310.298	-0.275	0.515
-375.858	178.830	-0.129	-0.189
-374.844	475.479	0.091	0.205
-373.829	31.243	0.183	-0.157
-372.815	-200.000	0.032	0.286
-371.800	567.392	0.078	0.189
-370.785	190.180	-0.069	-0.104
-369.771	800.000	0.016	0.060
-368.756	-63.117	0.248	0.102
-367.742	-84.908	-0.109	0.034
-366.727	89.846	0.082	-0.092
-365.712	-99.545	-0.194	0.049
-364.698	-80.383	0.217	0.072
-363.683	257.842	0.146	-0.251
-362.669	-76.644	-0.226	0.079
-361.654	233.468	-0.139	0.229
-360.639	128.963	-0.093	0.118
-359.625	-42.386	-0.035	-0.018
-358.610	800.000	0.106	0.391
-357.596	-80.357	0.210	0.070
-356.581	-29.706	0.109	-0.062
-355.566	295.706	0.009	0.016
-354.552	-16.000	0.154	0.098
-353.537	-200.000	0.033	0.160
-352.523	-63.732	-0.047	0.019
-351.508	-39.537	-0.166	0.087
-350.493	-200.000	0.045	-0.276
-349.479	176.686	0.136	0.198
-348.464	800.000	0.044	-0.145
-347.450	691.411	0.079	0.207
-346.435	-200.000	-0.010	-0.074
-345.420	-200.000	-0.020	-0.223
-344.406	106.205	0.050	0.060
-343.391	800.000	0.062	0.191
-342.377	-200.000	-0.036	-0.162
-341.362	81.904	0.114	-0.124
-340.348	-43.186	-0.089	-0.045
-339.333	-161.149	-0.263	0.014
-338.318	-45.173	0.146	0.072
-337.304	408.294	-0.078	0.164
-336.289	800.000	0.031	0.099
-335.275	202.042	-0.104	-0.161
-334.260	800.000	0.038	-0.162
-333.245	-101.093	0.081	-0.020
-332.231	800.000	0.007	-0.023
-331.216	-24.353	-0.087	-0.052
-330.202	800.000	0.067	0.256
-329.187	-200.000	-0.037	-0.318
-328.172	-200.000	0.040	-0.277
-327.158	158.924	-0.268	0.372
-326.143	-4.212	-0.212	-0.147
-325.129	-200.000	-0.010	-0.208
-324.114	91.364	-0.168	0.188
-323.099	152.541	0.244	0.332
-322.085	-78.014	0.408	-0.140
-321.070	19.032	0.070	-0.056
-320.056	44.801	0.087	0.079
-319.041	-113.344	-0.347	0.068
-318.026	800.000	-0.122	-0.497
-317.012	13.425	-0.045	0.034
-315.997	613.932	-0.055	0.138
-314.983	692.255	0.080	-0.208
-313.968	499.886	-0.006	0.014
-312.953	-200.000	0.008	0.089
-311.939	173.713	-0.167	0.240
-310.924	-200.000	-0.020	0.168
-309.910	-126.452	-0.227	0.034
-308.895	-152.846	-0.255	0.018
-307.880	-200.000	-0.045	-0.252
-306.866	14.209	0.289	0.224
-305.851	-112.649	0.392	0.078
-304.837	-200.000	0.004	0.236
-303.822	101.358	-0.032	-0.037
-302.807	-115.895	-0.109	0.020
-301.793	-137.701	0.356	0.040
-300.778	-200.000	0.156	0.000
-299.764	378.393	-0.120	-0.244
-298.749	-125.607	-0.349	0.053
-297.735	-110.591	-0.344	-0.071
-296.720	14.944	0.144	0.112
-295.705	583.917	0.036	-0.088
-294.691	-38.786	-0.410	0.215
-293.676	-126.411	0.266	0.039
-292.662	-32.771	0.260	-0.144
-291.647	-23.471	-0.137	0.082
-290.632	25.976	-0.247	-0.205
-289.618	-7.440	0.130	0.088
-288.603	800.000	-0.103	0.298
-287.589	-200.000	0.001	-0.421
-286.574	-7.819	-0.151	0.101
-285.559	125.651	-0.065	0.082
-284.545	137.098	-0.182	0.237
-283.530	-125.477	-0.249	0.038
-282.516	23.883	0.036	0.030
-281.501	-200.000	0.093	-0.465
-280.486	-200.000	0.010	0.191
-279.472	-35.631	0.104	-0.056
-278.457	32.603	0.203	0.175
-277.443	-37.670	0.150	-0.079
-276.428	154.220	-0.073	-0.100
-275.413	-200.000	0.011	0.105
-274.399	-200.000	0.021	-0.189
-273.384	531.845	0.068	0.161
-272.370	-200.000	0.042	-0.276
-271.355	390.616	0.098	-0.203
-270.340	-42.320	-0.116	-0.059
-269.326	272.818	-0.208	0.366
-268.311	-155.447	-0.173	-0.011
-267.297	-73.746	-0.070	-0.025
-266.282	-200.000	-0.015	0.315
-265.267	79.970	0.019	0.020
-264.253	449.733	0.087	0.191
-263.238	-92.136	0.496	-0.139
-262.224	-137.346	-0.147	-0.017
-261.209	148.496	-0.099	0.133
-260.195	-123.898	-0.063	-0.010
-259.180	-65.910	0.184	-0.073
-258.165	134.198	0.164	0.211
-257.151	49.542	0.182	-0.170
-256.136	15.764	0.123	0.096
-255.122	115.834	-0.108	0.131
-254.107	800.000	-0.105	-0.340
-253.092	-19.928	0.261	0.160
-252.078	-105.663	0.314	-0.071
-251.063	40.373	0.287	-0.257
-250.049	-26.643	-0.245	0.142
-249.034	617.180	0.044	-0.110
-248.019	-170.987	0.312	0.011
-247.005	118.717	-0.251	0.308
-245.990	140.379	0.061	-0.079
-244.976	-200.000	-0.012	0.129
-243.961	5.813	0.166	-0.122
-242.946	98.817	-0.220	-0.253
-241.932	-200.000	0.013	0.257
-240.917	800.000	0.033	0.108
-239.903	800.000	-0.043	-0.175
-238.888	22.806	0.132	-0.108
-237.873	-23.815	0.348	-0.207
-236.859	462.572	-0.092	-0.205
-235.844	-200.000	-0.070	-0.374
-234.830	79.199	0.101	-0.107
-233.815	160.957	-0.159	0.220
-232.800	-200.000	0.031	-0.250
-231.786	-122.696	-0.294	-0.047
-230.771	-100.930	-0.043	0.010
-229.757	800.000	0.127	0.352
-228.742	90.816	0.255	0.284
-227.727	800.000	-0.075	-0.246
-226.713	384.424	-0.117	-0.240
-225.698	289.395	0.066	-0.119
-224.684	800.000	-0.066	0.231
-223.669	99.893	0.056	0.064
-222.655	-153.785	0.297	-0.020
-221.640	-10.181	-0.169	-0.111
-220.625	-113.864	-0.374	-0.072
-219.611	-200.000	0.017	0.534
-218.596	-95.727	-0.058	0.015
-217.582	-85.038	0.174	0.054
-216.567	360.563	0.169	-0.336
-215.552	-200.000	-0.014	0.184
-214.538	-115.454	-0.268	0.050
-213.523	101.812	-0.170	-0.196
-212.509	-200.000	0.033	-0.164
-211.494	13.818	-0.138	-0.106
-210.479	-166.413	0.107	-0.004
-209.465	415.795	0.116	0.245
-208.450	39.253	-0.226	0.200
-207.436	179.530	-0.151	0.220
-206.421	93.568	0.284	0.319
-205.406	85.446	0.065	-0.071
-204.392	-200.000	-0.018	-0.277
-203.377	164.364	0.085	-0.119
-202.363	-21.673	0.097	-0.059
-201.348	-153.671	-0.056	-0.004
-200.333	155.361	-0.129	-0.176
-199.319	-9.101	-0.071	-0.047
-198.304	-106.563	-0.228	0.050
-197.290	126.194	0.064	0.080
-196.275	-200.000	0.020	-0.178
-195.260	-9.798	-0.065	0.043
-194.246	-10.417	0.180	-0.119
-193.231	151.896	0.074	0.101
-192.217	251.163	0.134	-0.227
-191.202	-200.000	0.047	-0.272
-190.187	800.000	-0.075	-0.316
-189.173	-200.000	-0.060	-0.300
-188.158	198.798	-0.111	0.169
-187.144	131.004	0.035	-0.045
-186.129	-200.000	0.024	0.209
-185.114	-52.813	-0.236	-0.108
-184.100	86.420	0.169	-0.185
-183.085	800.000	-0.128	0.476
-182.071	-200.000	-0.002	0.448
-181.056	161.974	0.085	0.119
-180.042	533.520	0.037	0.088
-179.027	756.547	0.073	0.196
-178.012	-68.890	0.180	-0.069
-176.998	-22.276	0.162	-0.097
-175.983	158.315	-0.090	-0.124
-174.969	800.000	-0.077	0.303
-173.954	-4.613	0.184	-0.126
-172.939	92.713	-0.059	-0.067
-171.925	232.745	-0.075	0.122
-170.910	80.737	0.228	-0.244
-169.896	-200.000	-0.020	0.443
-168.881	-155.015	0.171	0.011
-167.866	-96.460	-0.148	0.039
-166.852	-56.856	0.311	0.136
-165.837	254.733	0.174	0.294
-164.823	-29.627	0.139	0.079
-163.808	-71.224	-0.062	0.023
-162.793	-84.771	0.281	0.087
-161.779	345.486	-0.184	-0.359
-160.764	800.000	0.009	0.033
-159.750	57.126	-0.118	0.114
-158.735	186.730	0.063	0.093
-157.720	-200.000	-0.005	-0.101
-156.706	64.107	-0.049	0.049
-155.691	800.000	0.041	0.123
-154.677	-200.000	0.012	0.109
-153.662	698.368	-0.053	0.138
-152.647	800.000	-0.075	0.253
-151.633	-200.000	-0.047	-0.210
-150.618	-25.174	0.072	0.042
-149.604	-200.000	-0.031	0.294
-148.589	-60.833	-0.424	0.178
-147.574	432.407	0.101	-0.218
-146.560	-200.000	-0.028	0.373
-145.545	-161.708	-0.123	0.006
-144.531	-110.579	-0.057	0.012
-143.516	59.615	0.040	0.039
-142.502	-71.576	0.051	0.019
-141.487	-67.471	-0.492	-0.191
-140.472	50.816	0.183	-0.171
-139.458	-117.780	-0.338	-0.060
-138.443	332.100	-0.061	-0.116
-137.429	83.888	0.151	-0.163
-136.414	-31.433	-0.191	0.106
-135.399	233.032	-0.095	-0.154
-134.385	-40.484	-0.141	-0.072
-133.370	-200.000	-0.003	-0.201
-132.356	-76.645	0.068	0.023
-131.341	317.389	0.027	-0.051
-130.326	-200.000	-0.030	-0.159
-129.312	800.000	-0.081	0.259
-128.297	40.969	-0.145	0.129
-127.283	136.610	0.208	-0.268
-126.268	-30.155	-0.153	-0.086
-125.253	9.817	0.162	-0.122
-124.239	25.481	0.302	-0.249
-123.224	707.054	0.028	-0.074
-122.210	-100.213	-0.162	-0.040
-121.195	-200.000	0.060	-0.311
-120.180	-52.925	0.540	-0.246
