DTS Sentinel unit serial number:	SN413079Multiplexer serial number:	ORYXHardware model number:	OX4-SRSoftware version number:	ORYX F/W v4.00 Oryx Data Collector v3.7.2.0data status	okinstallation	princeton_trtdifferential loss correction	single-endedforward channel	channel 3reverse channel	N/Adate	2019/09/14time	02:32:34forward acquisition time	60.00reverse acquisition time	0.00gamma	496.2192k internal	0.2339k external	0.2339temperature offset calibration	1.0053default loss term (dB/km)	0.3790temperature slope calibration	1.0000multiplexer offset coefficient	1.0000multiplexer slope coefficient	1.0000fibre end	0.00T internal ref (°C)	26.53T ext. ref 1 (°C)	3.22T ext. ref 2 (°C)	21.51length (m)	temperature (°C)	Stokes	anti-Stokes-747.200	-37.994	0.249	0.133
-746.185	-200.000	-0.003	0.159
-745.171	-97.380	-0.313	-0.082
-744.156	20.694	0.161	-0.130
-743.142	337.331	-0.109	0.213
-742.127	741.615	-0.088	-0.237
-741.112	-103.259	0.515	-0.122
-740.098	-111.451	-0.673	-0.137
-739.083	-59.585	0.247	-0.106
-738.069	109.489	-0.172	0.207
-737.054	-118.369	-0.140	-0.025
-736.039	58.804	-0.186	0.183
-735.025	-132.820	0.230	0.029
-734.010	56.010	-0.166	0.161
-732.996	-69.483	-0.249	0.096
-731.981	29.692	0.151	0.129
-730.966	-3.329	-0.240	-0.167
-729.952	25.126	-0.183	0.152
-728.937	743.539	0.085	-0.229
-727.923	130.565	-0.318	-0.409
-726.908	-27.727	-0.316	-0.184
-725.894	-44.432	-0.190	-0.096
-724.879	-48.716	-0.191	-0.092
-723.864	-42.544	0.368	-0.188
-722.850	5.847	-0.296	-0.220
-721.835	89.908	0.068	0.076
-720.821	-200.000	0.079	-0.403
-719.806	-200.000	0.026	-0.315
-718.791	-26.629	-0.152	-0.089
-717.777	-200.000	-0.028	-0.198
-716.762	-126.954	-0.305	-0.045
-715.748	-69.920	0.292	0.112
-714.733	29.618	-0.133	-0.114
-713.718	800.000	-0.117	0.338
-712.704	800.000	-0.067	0.248
-711.689	-104.318	0.288	-0.067
-710.675	800.000	0.068	-0.227
-709.660	800.000	-0.103	-0.385
-708.645	22.059	0.104	-0.085
-707.631	425.500	-0.136	0.294
-706.616	-72.754	0.204	-0.075
-705.602	30.913	0.226	0.194
-704.587	10.199	-0.094	-0.072
-703.572	-200.000	-0.003	-0.175
-702.558	51.834	-0.189	0.180
-701.543	800.000	0.057	0.186
-700.529	388.407	-0.135	0.280
-699.514	69.343	-0.116	0.119
-698.499	130.649	0.115	-0.148
-697.485	13.609	0.091	0.070
-696.470	-77.192	-0.182	-0.064
-695.456	-200.000	-0.019	-0.183
-694.441	-200.000	-0.005	-0.307
-693.426	749.128	0.114	-0.307
-692.412	-200.000	-0.027	-0.248
-691.397	-200.000	-0.013	-0.096
-690.383	49.619	0.326	-0.307
-689.368	-100.200	0.067	-0.017
-688.354	-36.416	0.069	-0.037
-687.339	46.295	-0.246	-0.228
-686.324	-155.578	-0.595	-0.038
-685.310	17.630	-0.160	-0.128
-684.295	83.967	-0.226	0.247
-683.281	-200.000	0.000	0.066
-682.266	-176.357	0.186	-0.005
-681.251	13.740	0.160	-0.124
-680.237	-13.157	0.340	0.221
-679.222	-10.293	0.120	0.079
-678.208	266.008	-0.074	0.129
-677.193	52.107	0.138	-0.132
-676.178	-107.730	0.244	0.053
-675.164	-200.000	-0.073	-0.397
-674.149	800.000	-0.080	-0.276
-673.135	102.508	0.303	0.354
-672.120	-63.812	0.180	-0.074
-671.105	-200.000	-0.007	0.132
-670.091	-200.000	0.007	-0.317
-669.076	-200.000	0.050	-0.231
-668.062	-120.949	-0.318	-0.053
-667.047	67.438	-0.201	-0.205
-666.032	63.902	-0.235	0.236
-665.018	-102.868	-0.376	0.089
-664.003	57.876	-0.088	-0.086
-662.989	-58.879	0.158	-0.068
-661.974	-200.000	-0.028	-0.270
-660.959	566.917	-0.136	0.331
-659.945	599.644	-0.152	-0.376
-658.930	56.435	-0.260	0.253
-657.916	189.981	0.049	-0.074
-656.901	790.059	-0.098	0.269
-655.886	49.912	0.037	0.035
-654.872	-177.443	0.350	0.009
-653.857	-58.192	-0.091	-0.040
-652.843	-189.612	0.384	0.004
-651.828	-5.855	-0.385	0.263
-650.814	15.652	-0.018	-0.014
-649.799	34.979	-0.173	-0.151
-648.784	140.716	0.185	-0.244
-647.770	-163.866	0.198	0.009
-646.755	-200.000	-0.016	-0.208
-645.741	-68.641	-0.444	-0.172
-644.726	-132.635	0.386	0.050
-643.711	-200.000	0.019	0.186
-642.697	271.300	0.182	0.321
-641.682	-28.206	-0.275	-0.159
-640.668	-126.798	-0.171	-0.025
-639.653	205.209	-0.119	-0.185
-638.638	192.368	-0.049	-0.074
-637.624	-10.937	0.133	0.087
-636.609	-13.645	0.096	-0.062
-635.595	139.745	0.063	0.083
-634.580	-116.816	0.016	-0.003
-633.565	800.000	0.025	0.091
-632.551	477.235	-0.139	-0.313
-631.536	-126.994	-0.146	-0.021
-630.522	212.862	-0.079	-0.124
-629.507	-200.000	-0.011	-0.174
-628.492	-200.000	0.022	0.269
-627.478	91.274	-0.330	-0.370
-626.463	45.053	-0.160	0.147
-625.449	271.223	-0.177	0.312
-624.434	-66.357	0.407	0.162
-623.419	-200.000	0.032	-0.407
-622.405	-47.571	0.011	0.005
-621.390	-58.954	0.150	0.065
-620.376	-142.776	-0.238	-0.023
-619.361	800.000	0.092	0.334
-618.346	-200.000	-0.076	-0.334
-617.332	227.000	0.270	0.438
-616.317	53.757	-0.073	0.070
-615.303	221.430	-0.142	0.228
-614.288	-77.578	-0.327	-0.113
-613.273	800.000	-0.022	-0.071
-612.259	106.711	-0.102	-0.121
-611.244	90.465	0.372	-0.415
-610.230	-155.038	-0.339	0.022
-609.215	397.895	0.067	-0.140
-608.201	94.309	0.134	0.152
-607.186	-26.610	-0.192	-0.112
-606.171	800.000	-0.047	0.142
-605.157	800.000	0.096	-0.392
-604.142	-32.768	-0.290	0.161
-603.128	-125.889	0.287	-0.043
-602.113	-184.336	-0.361	0.006
-601.098	-23.395	0.295	-0.177
-600.084	500.359	0.081	-0.186
-599.069	346.573	-0.126	0.247
-598.055	-30.493	0.070	-0.039
-597.040	-200.000	0.002	-0.081
-596.025	-147.833	-0.645	-0.054
-595.011	-5.398	-0.103	0.071
-593.996	-113.741	-0.272	-0.053
-592.982	-73.285	0.063	-0.023
-591.967	-17.052	-0.332	0.209
-590.952	-200.000	-0.017	-0.256
-589.938	-43.365	0.416	-0.210
-588.923	-35.223	0.171	0.093
-587.909	-200.000	-0.030	0.340
-586.894	-21.720	-0.103	-0.062
-585.879	-56.518	0.346	0.153
-584.865	-38.908	0.173	-0.091
-583.850	-200.000	0.028	0.186
-582.836	-79.686	0.239	0.080
-581.821	-61.739	-0.062	0.026
-580.806	526.643	-0.135	0.317
-579.792	800.000	0.022	-0.061
-578.777	86.599	-0.177	-0.194
-577.763	-164.350	0.328	0.015
-576.748	-116.378	-0.281	0.052
-575.733	-105.333	-0.199	0.045
-574.719	-108.491	-0.180	-0.039
-573.704	-77.818	0.241	-0.083
-572.690	-200.000	0.015	0.111
-571.675	-200.000	-0.002	-0.113
-570.661	40.600	0.154	-0.138
-569.646	-81.990	-0.049	0.016
-568.631	36.823	0.204	-0.179
-567.617	800.000	-0.037	0.135
-566.602	800.000	0.056	0.165
-565.588	-137.875	-0.338	-0.038
-564.573	-102.830	-0.443	0.105
-563.558	-29.902	0.201	-0.114
-562.544	118.054	0.254	-0.311
-561.529	-52.248	0.362	-0.167
-560.515	-148.461	-0.183	0.015
-559.500	-33.278	-0.143	-0.079
-558.485	800.000	0.060	-0.214
-557.471	64.466	0.268	0.269
-556.456	-122.067	-0.106	-0.017
-555.442	86.729	0.045	0.050
-554.427	246.053	-0.045	0.075
-553.412	-149.521	-0.148	0.012
-552.398	540.777	-0.108	-0.255
-551.383	660.947	-0.071	0.183
-550.369	166.521	-0.052	0.073
-549.354	239.049	-0.084	-0.139
-548.339	-105.628	0.160	-0.036
-547.325	-112.354	0.262	-0.052
-546.310	70.941	0.095	-0.098
-545.296	91.944	-0.149	-0.167
-544.281	800.000	0.110	-0.428
-543.266	89.120	-0.250	0.277
-542.252	67.506	0.129	-0.131
-541.237	80.570	0.139	-0.149
-540.223	75.946	-0.100	-0.105
-539.208	34.426	0.324	-0.282
-538.193	-11.503	0.220	0.144
-537.179	55.064	0.344	0.331
-536.164	377.838	-0.122	-0.248
-535.150	392.304	0.126	-0.260
-534.135	-9.527	-0.189	-0.126
-533.121	150.350	-0.083	-0.113
-532.106	183.169	0.189	-0.278
-531.091	48.043	-0.270	-0.251
-530.077	-200.000	0.010	-0.141
-529.062	-165.335	0.313	-0.014
-528.048	142.319	-0.144	0.190
-527.033	800.000	-0.059	0.220
-526.018	36.749	-0.225	0.197
-525.004	-200.000	-0.012	-0.302
-523.989	-200.000	-0.006	-0.198
-522.975	-123.065	0.265	0.042
-521.960	375.557	0.012	-0.024
-520.945	-63.409	-0.105	-0.043
-519.931	284.128	0.160	0.287
-518.916	194.161	-0.126	-0.189
-517.902	-11.539	-0.081	0.053
-516.887	-60.077	-0.039	0.016
-515.872	800.000	0.055	-0.170
-514.858	736.208	-0.018	0.049
-513.843	4.635	0.281	-0.205
-512.829	-18.509	0.269	-0.167
-511.814	-200.000	0.013	-0.263
-510.799	-200.000	-0.011	-0.079
-509.785	800.000	0.052	0.148
-508.770	595.897	-0.042	-0.103
-507.756	515.762	-0.111	0.258
-506.741	-82.343	0.108	-0.035
-505.726	37.086	-0.129	0.114
-504.712	33.191	-0.307	0.265
-503.697	-23.594	-0.464	0.277
-502.683	-116.184	0.120	-0.022
-501.668	800.000	-0.035	0.145
-500.653	-200.000	0.060	-0.296
-499.639	453.116	0.082	0.181
-498.624	800.000	-0.111	-0.386
-497.610	31.933	0.123	-0.106
-496.595	-200.000	-0.037	0.188
-495.581	-79.183	-0.267	0.090
-494.566	-200.000	-0.015	-0.091
-493.551	800.000	0.094	-0.292
-492.537	144.788	-0.144	-0.191
-491.522	764.962	-0.039	0.105
-490.508	-200.000	0.008	0.081
-489.493	209.117	-0.258	-0.401
-488.478	760.845	-0.107	-0.289
-487.464	60.005	-0.217	-0.213
-486.449	76.434	-0.085	-0.090
-485.435	-57.657	0.179	-0.078
-484.420	-200.000	0.039	0.311
-483.405	15.940	-0.070	0.055
-482.391	-82.914	-0.182	-0.058
-481.376	494.075	0.125	0.284
-480.362	8.420	-0.106	-0.079
-479.347	-121.850	0.160	0.026
-478.332	101.143	-0.076	-0.087
-477.318	-200.000	-0.018	0.469
-476.303	-103.598	0.031	-0.007
-475.289	98.903	0.203	-0.233
-474.274	-128.889	0.097	-0.014
-473.259	-102.903	-0.366	0.086
-472.245	-100.960	0.271	0.066
-471.230	-116.298	0.170	-0.031
-470.216	-119.434	0.124	-0.021
-469.201	-8.769	-0.178	0.119
-468.186	228.567	0.067	-0.109
-467.172	800.000	-0.061	-0.235
-466.157	-59.689	-0.312	-0.133
-465.143	-88.077	0.353	-0.105
-464.128	122.144	0.178	0.220
-463.113	-84.697	-0.198	0.062
-462.099	-73.553	0.146	-0.053
-461.084	-83.850	-0.382	0.121
-460.070	-79.547	0.296	0.099
-459.055	598.776	0.037	-0.092
-458.040	-45.872	-0.284	-0.139
-457.026	47.228	-0.135	-0.125
-456.011	-200.000	0.015	0.081
-454.997	6.558	-0.123	-0.091
-453.982	160.994	-0.107	-0.148
-452.968	30.782	0.091	-0.078
-451.953	-121.960	0.140	0.023
-450.938	800.000	0.067	-0.271
-449.924	-200.000	0.057	-0.414
-448.909	-200.000	-0.031	0.264
-447.895	2.942	-0.047	0.034
-446.880	80.650	-0.081	-0.086
-445.865	-10.092	0.338	0.223
-444.851	-96.731	0.182	0.048
-443.836	-139.942	-0.113	0.012
-442.822	-115.038	-0.175	0.033
-441.807	456.115	-0.163	-0.358
-440.792	-122.488	0.240	0.039
-439.778	59.091	-0.146	0.142
-438.763	-138.329	0.105	-0.012
-437.749	-70.673	-0.459	-0.172
-436.734	-200.000	0.042	0.208
-435.719	120.045	-0.197	-0.243
-434.705	18.803	0.121	-0.096
-433.690	310.823	-0.144	0.267
-432.676	-86.148	0.035	0.011
-431.661	-146.949	-0.338	0.029
-430.646	20.660	-0.061	0.049
-429.632	56.321	0.142	-0.136
-428.617	800.000	-0.105	0.294
-427.603	-59.622	0.237	-0.101
-426.588	-63.171	-0.158	0.065
-425.573	-18.765	0.114	0.070
-424.559	-200.000	-0.001	0.122
-423.544	-28.800	-0.224	0.128
-422.530	111.597	0.175	0.209
-421.515	-148.349	0.279	-0.023
-420.500	137.139	0.219	-0.283
-419.486	-57.869	0.270	-0.117
-418.471	-14.352	-0.039	-0.025
-417.457	759.014	0.049	-0.132
-416.442	13.335	-0.374	-0.287
-415.428	-116.743	-0.277	-0.050
-414.413	-156.865	-0.050	-0.003
-413.398	75.984	-0.018	0.019
-412.384	31.308	0.093	0.079
-411.369	38.123	0.128	-0.113
-410.355	-21.015	0.087	-0.053
-409.340	67.376	0.059	0.059
-408.325	-43.016	-0.136	-0.068
-407.311	-80.656	0.028	-0.009
-406.296	423.463	0.041	-0.087
-405.282	-21.325	0.327	-0.198
-404.267	-200.000	-0.006	0.364
-403.252	187.514	-0.207	0.306
-402.238	-200.000	0.019	0.113
-401.223	136.051	-0.234	-0.302
-400.209	-65.914	-0.288	0.114
-399.194	800.000	0.051	-0.176
-398.179	555.973	-0.073	-0.174
-397.165	-127.697	0.312	-0.045
-396.150	800.000	-0.035	0.147
-395.136	10.850	-0.036	-0.027
-394.121	145.329	-0.124	-0.164
-393.106	152.704	-0.332	0.448
-392.092	277.737	0.149	0.262
-391.077	274.391	0.124	-0.218
-390.063	624.750	0.056	0.141
-389.048	-30.480	0.157	0.088
-388.033	219.365	0.038	0.060
-387.019	800.000	-0.074	-0.218
-386.004	-24.687	-0.280	0.165
-384.990	147.693	0.067	0.090
-383.975	-200.000	0.014	0.352
-382.960	239.709	-0.181	-0.297
-381.946	285.293	-0.101	0.180
-380.931	-119.607	0.187	-0.032
-379.917	800.000	-0.062	0.228
-378.902	568.379	-0.075	0.181
-377.888	-125.624	0.067	0.010
-376.873	266.712	0.139	-0.240
-375.858	800.000	0.059	0.227
-374.844	-200.000	0.024	-0.125
-373.829	449.035	0.113	-0.246
-372.815	-58.605	0.420	0.180
-371.800	336.679	-0.070	-0.135
-370.785	800.000	0.033	0.127
-369.771	-98.327	0.141	0.036
-368.756	-67.872	0.162	-0.062
-367.742	800.000	-0.042	0.137
-366.727	-200.000	-0.016	-0.073
-365.712	-148.315	0.280	-0.023
-364.698	702.716	0.092	0.241
-363.683	-200.000	0.016	0.121
-362.669	87.606	-0.104	-0.114
-361.654	-175.211	-0.339	0.009
-360.639	-200.000	0.032	0.209
-359.625	338.307	0.125	-0.239
-358.610	231.838	-0.068	0.110
-357.596	-200.000	0.077	0.369
-356.581	-200.000	-0.015	0.258
-355.566	48.538	0.301	-0.279
-354.552	216.820	0.091	0.143
-353.537	-200.000	0.004	0.087
-352.523	7.866	-0.275	0.204
-351.508	-114.699	-0.046	0.009
-350.493	-200.000	0.016	0.179
-349.479	-79.978	0.197	-0.065
-348.464	-200.000	-0.016	-0.068
-347.450	-173.624	-0.229	-0.007
-346.435	-78.476	-0.318	0.108
-345.420	-79.791	0.021	0.007
-344.406	800.000	-0.119	-0.384
-343.391	376.662	0.131	0.264
-342.377	-152.307	0.310	0.022
-341.362	-119.210	0.203	-0.035
-340.348	-13.871	-0.183	0.117
-339.333	-53.316	-0.107	-0.048
-338.318	442.577	-0.151	-0.326
-337.304	-74.913	0.320	-0.113
-336.289	99.934	0.017	-0.019
-335.275	800.000	-0.031	-0.105
-334.260	226.529	0.081	0.129
-333.245	-132.146	-0.197	0.025
-332.231	234.885	-0.131	0.213
-331.216	208.865	-0.032	-0.049
-330.202	-107.865	-0.180	0.039
-329.187	-200.000	0.052	-0.289
-328.172	-200.000	0.035	-0.200
-327.158	-118.586	0.105	0.018
-326.143	122.990	-0.164	0.203
-325.129	-155.711	0.395	0.025
-324.114	-200.000	-0.005	0.220
-323.099	-65.700	0.155	-0.061
-322.085	-53.675	-0.190	0.086
-321.070	53.613	0.123	-0.116
-320.056	-200.000	0.014	-0.317
-319.041	123.584	-0.177	-0.219
-318.026	-89.222	0.252	-0.073
-317.012	-106.664	-0.017	0.004
-315.997	800.000	-0.094	-0.332
-314.983	-185.965	0.228	0.003
-313.968	232.561	0.201	0.326
-312.953	-200.000	0.076	0.335
-311.939	11.190	0.307	-0.231
-310.924	191.494	0.213	-0.317
-309.910	-71.562	0.276	-0.102
-308.895	-44.286	0.292	0.144
-307.880	-65.905	-0.143	0.056
-306.866	338.064	-0.084	0.161
-305.851	-181.531	-0.225	-0.004
-304.837	-200.000	0.004	-0.115
-303.822	55.191	-0.117	-0.111
-302.807	-105.741	0.298	0.067
-301.793	-200.000	-0.022	-0.120
-300.778	-103.113	-0.118	-0.028
-299.764	-138.934	-0.194	-0.021
-298.749	-111.740	-0.331	0.066
-297.735	-38.332	-0.089	-0.046
-296.720	-200.000	0.010	-0.091
-295.705	23.603	-0.192	-0.156
-294.691	95.426	-0.155	-0.174
-293.676	4.325	0.362	0.261
-292.662	-94.983	0.287	-0.076
-291.647	-170.103	-0.560	-0.020
-290.632	800.000	0.039	0.128
-289.618	371.275	0.108	0.215
-288.603	-48.123	0.292	0.139
-287.589	46.286	0.114	-0.104
-286.574	108.129	-0.139	0.164
-285.559	-200.000	0.072	0.000
-284.545	190.043	-0.111	0.165
-283.530	-53.838	-0.192	0.086
-282.516	-172.948	0.231	-0.007
-281.501	-200.000	0.079	0.480
-280.486	141.813	-0.213	0.278
-279.472	-59.526	0.324	-0.137
-278.457	-138.827	-0.418	0.045
-277.443	-144.604	-0.082	-0.007
-276.428	614.996	0.019	-0.047
-275.413	-3.572	-0.241	0.165
-274.399	396.006	0.113	-0.232
-273.384	-128.328	-0.069	0.010
-272.370	-67.326	0.303	-0.117
-271.355	-65.395	0.358	0.142
-270.340	103.177	0.140	-0.161
-269.326	-113.915	-0.159	-0.030
-268.311	524.154	-0.028	-0.065
-267.297	-134.555	0.217	-0.026
-266.282	-75.144	-0.098	0.035
-265.267	-38.900	-0.168	-0.087
-264.253	-58.290	0.256	0.110
-263.238	-200.000	0.049	0.292
-262.224	-179.021	0.070	0.002
-261.209	-95.531	0.069	-0.018
-260.195	542.519	-0.099	0.232
-259.180	37.233	0.124	-0.108
-258.165	326.538	-0.091	0.171
-257.151	-73.147	0.180	0.065
-256.136	-138.306	-0.162	-0.018
-255.122	-10.677	-0.362	0.235
-254.107	202.897	-0.137	-0.208
-253.092	800.000	-0.111	-0.351
-252.078	-62.952	0.302	-0.123
-251.063	-78.802	0.200	-0.067
-250.049	290.381	-0.220	-0.393
-249.034	-200.000	0.006	-0.258
-248.019	267.145	0.034	0.058
-247.005	-200.000	0.032	-0.208
-245.990	-187.276	-0.073	-0.001
-244.976	6.254	-0.081	0.059
-243.961	-193.733	0.221	0.002
-242.946	561.706	0.134	0.318
-241.932	-18.306	-0.184	0.113
-240.917	-68.698	0.394	-0.150
-239.903	-72.827	-0.435	0.157
-238.888	-200.000	0.017	0.358
-237.873	-200.000	0.082	0.480
-236.859	-134.815	-0.057	0.007
-235.844	609.502	-0.123	0.301
-234.830	-200.000	-0.041	0.280
-233.815	-11.756	0.130	0.084
-232.800	800.000	0.022	0.074
-231.786	-128.861	0.049	-0.007
-230.771	-89.808	-0.203	-0.058
-229.757	-184.737	0.164	0.003
-228.742	-53.401	-0.126	0.057
-227.727	-97.118	-0.207	-0.053
-226.713	-200.000	-0.025	0.166
-225.698	112.244	0.072	-0.085
-224.684	148.785	0.079	0.105
-223.669	122.651	0.240	-0.295
-222.655	-76.067	0.216	0.075
-221.640	-77.997	-0.376	-0.127
-220.625	184.416	-0.027	-0.039
-219.611	291.531	0.171	-0.306
-218.596	-67.346	0.284	-0.110
-217.582	800.000	-0.077	0.248
-216.567	13.235	0.136	0.103
-215.552	512.158	0.049	0.112
-214.538	406.476	0.079	-0.164
-213.523	43.117	-0.308	0.276
-212.509	-200.000	0.014	0.140
-211.494	-9.483	-0.024	0.015
-210.479	-200.000	0.009	-0.552
-209.465	800.000	-0.051	-0.147
-208.450	24.855	-0.300	0.244
-207.436	-99.345	-0.058	0.014
-206.421	189.792	0.077	0.114
-205.406	218.256	0.188	-0.294
-204.392	800.000	-0.084	-0.357
-203.377	-200.000	-0.002	-0.109
-202.363	-193.730	0.253	-0.002
-201.348	800.000	-0.021	-0.081
-200.333	-157.525	0.293	-0.017
-199.319	-200.000	0.016	-0.149
-198.304	-200.000	-0.025	0.127
-197.290	-130.826	0.128	-0.017
-196.275	602.985	0.074	0.181
-195.260	76.379	-0.153	-0.159
-194.246	72.812	0.274	0.281
-193.231	265.759	-0.153	0.263
-192.217	800.000	-0.070	0.253
-191.202	4.123	-0.156	0.112
-190.187	144.126	-0.017	0.022
-189.173	800.000	0.017	-0.058
-188.158	800.000	0.036	0.114
-187.144	-96.355	0.178	-0.046
-186.129	193.374	0.168	0.250
-185.114	-26.439	-0.042	0.024
-184.100	-200.000	0.007	0.245
-183.085	-200.000	0.083	0.467
-182.071	-71.933	0.063	0.023
-181.056	84.826	-0.175	0.188
-180.042	-52.337	0.192	-0.087
-179.027	-200.000	0.031	-0.135
-178.012	-47.751	-0.284	0.135
-176.998	19.456	-0.130	-0.102
-175.983	-200.000	-0.039	-0.179
-174.969	126.213	0.105	0.131
-173.954	61.138	-0.327	0.319
-172.939	-49.959	-0.250	0.116
-171.925	-200.000	-0.010	0.314
-170.910	-64.876	0.137	0.054
-169.896	-150.728	-0.068	-0.005
-168.881	-17.890	0.217	-0.133
-167.866	770.605	-0.070	0.186
-166.852	-200.000	0.018	0.171
-165.837	800.000	0.052	-0.167
-164.823	-82.239	-0.035	0.011
-163.808	-96.944	-0.055	-0.014
-162.793	48.673	0.067	0.061
-161.779	-200.000	-0.040	-0.194
-160.764	161.373	-0.178	0.244
-159.750	-200.000	-0.002	0.484
-158.735	170.040	-0.108	0.152
-157.720	-55.042	0.340	-0.150
-156.706	-16.055	0.099	0.062
-155.691	93.606	-0.195	-0.217
-154.677	114.089	0.298	-0.355
-153.662	114.177	-0.104	0.125
-152.647	464.409	0.072	0.158
-151.633	-190.085	-0.133	0.001
-150.618	-200.000	0.035	-0.210
-149.604	102.967	-0.118	0.136
-148.589	-200.000	0.044	0.333
-147.574	-42.540	0.135	-0.068
-146.560	174.277	0.114	-0.161
-145.545	800.000	-0.037	0.105
-144.531	800.000	0.058	0.205
-143.516	287.452	0.124	-0.219
-142.502	11.702	0.144	-0.108
-141.487	55.889	0.198	-0.188
-140.472	135.825	-0.065	-0.083
-139.458	222.215	-0.025	0.040
-138.443	-63.318	0.188	0.076
-137.429	-188.382	0.323	0.004
-136.414	-47.101	-0.044	-0.021
-135.399	-200.000	-0.006	-0.056
-134.385	-40.129	0.205	0.105
-133.370	742.260	0.149	0.392
-132.356	-200.000	0.002	-0.074
-131.341	-200.000	-0.289	-0.001
-130.326	-74.808	-0.167	-0.059
-129.312	-200.000	-0.006	-0.148
-128.297	84.668	0.053	0.057
-127.283	-133.270	-0.097	-0.012
-126.268	109.411	0.106	0.124
-125.253	77.060	0.101	-0.105
-124.239	-128.574	-0.136	0.019
-123.224	9.685	-0.125	-0.093
-122.210	-149.737	-0.150	-0.012
