DTS Sentinel unit serial number:	SN413079Multiplexer serial number:	ORYXHardware model number:	OX4-SRSoftware version number:	ORYX F/W v4.00 Oryx Data Collector v3.7.2.0data status	okinstallation	princeton_trtdifferential loss correction	single-endedforward channel	channel 3reverse channel	N/Adate	2019/09/15time	20:32:35forward acquisition time	60.00reverse acquisition time	0.00gamma	496.2192k internal	0.2324k external	0.2324temperature offset calibration	0.9938default loss term (dB/km)	0.3790temperature slope calibration	1.0000multiplexer offset coefficient	1.0000multiplexer slope coefficient	1.0000fibre end	0.00T internal ref (°C)	33.30T ext. ref 1 (°C)	7.82T ext. ref 2 (°C)	25.05length (m)	temperature (°C)	Stokes	anti-Stokes-747.200	27.790	-0.067	-0.057
-746.185	-200.000	-0.024	0.150
-745.171	-200.000	-0.013	-0.268
-744.156	-94.885	-0.104	-0.028
-743.142	-111.228	0.161	-0.033
-742.127	165.721	-0.072	0.102
-741.112	-157.153	-0.183	0.011
-740.098	159.017	0.046	-0.065
-739.083	-113.628	0.246	-0.048
-738.069	-69.106	0.217	-0.084
-737.054	112.530	-0.081	-0.099
-736.039	-30.659	-0.051	0.029
-735.025	157.357	0.148	-0.207
-734.010	-178.723	-0.144	0.003
-732.996	-200.000	-0.023	-0.151
-731.981	-200.000	0.021	0.267
-730.966	18.798	0.171	-0.138
-729.952	101.912	-0.192	0.226
-728.937	-200.000	0.029	0.151
-727.923	281.320	-0.082	-0.149
-726.908	-61.683	-0.753	0.318
-725.894	502.958	-0.130	-0.304
-724.879	-115.902	-0.363	0.068
-723.864	-200.000	-0.008	-0.178
-722.850	373.185	-0.073	-0.150
-721.835	513.963	0.091	-0.214
-720.821	-57.711	-0.245	-0.108
-719.806	-171.732	-0.360	0.012
-718.791	105.974	0.110	0.131
-717.777	438.340	-0.062	0.136
-716.762	0.913	0.293	-0.211
-715.748	-148.032	-0.292	-0.024
-714.733	247.312	-0.238	-0.404
-713.718	-29.489	0.216	0.125
-712.704	-28.582	0.093	0.054
-711.689	-200.000	-0.026	0.186
-710.675	-200.000	-0.108	-0.628
-709.660	323.973	0.039	-0.076
-708.645	-24.615	-0.169	0.101
-707.631	598.517	0.113	0.283
-706.616	-200.000	-0.039	0.193
-705.602	800.000	0.070	-0.203
-704.587	-200.000	-0.016	-0.219
-703.572	135.897	0.146	0.192
-702.558	23.083	0.110	0.091
-701.543	167.045	0.124	0.177
-700.529	-55.228	-0.266	-0.121
-699.514	-17.528	0.224	-0.142
-698.499	214.023	0.166	-0.265
-697.485	422.142	0.235	0.509
-696.470	7.930	-0.097	0.073
-695.456	525.319	-0.013	-0.032
-694.441	-114.110	0.247	0.048
-693.426	-200.000	-0.041	0.351
-692.412	369.041	-0.051	-0.103
-691.397	-200.000	-0.104	-0.000
-690.383	-35.350	-0.072	0.040
-689.368	-98.924	-0.268	-0.068
-688.354	-83.074	-0.165	0.053
-687.339	527.919	-0.041	0.098
-686.324	-34.361	-0.085	-0.047
-685.310	-27.325	0.044	-0.026
-684.295	-37.054	-0.047	-0.026
-683.281	-200.000	-0.001	-0.100
-682.266	-125.546	-0.114	-0.017
-681.251	-200.000	-0.012	-0.227
-680.237	8.468	0.123	-0.094
-679.222	-24.438	-0.283	0.170
-678.208	-89.762	-0.013	-0.004
-677.193	240.160	0.164	0.274
-676.178	-128.383	-0.282	-0.040
-675.164	673.606	-0.058	-0.151
-674.149	-200.000	0.064	-0.330
-673.135	-200.000	0.026	0.200
-672.120	-31.433	-0.199	0.113
-671.105	-90.912	0.104	0.030
-670.091	71.278	0.155	-0.162
-669.076	-39.797	0.337	-0.177
-668.062	-200.000	-0.018	-0.237
-667.047	366.022	-0.198	-0.401
-666.032	-148.406	0.161	-0.013
-665.018	-200.000	-0.090	0.403
-664.003	-7.016	-0.388	-0.265
-662.989	-1.751	0.321	0.227
-661.974	-134.780	-0.364	0.044
-660.959	702.230	-0.044	-0.117
-659.945	-26.121	-0.060	0.035
-658.930	800.000	-0.065	0.212
-657.916	-200.000	-0.039	0.254
-656.901	-78.736	-0.084	-0.029
-655.886	152.123	0.169	0.233
-654.872	800.000	-0.065	0.233
-653.857	-45.918	0.351	-0.174
-652.843	800.000	-0.066	-0.279
-651.828	-83.270	-0.274	-0.089
-650.814	89.409	0.178	-0.199
-649.799	-163.107	0.225	-0.011
-648.784	-200.000	-0.041	-0.321
-647.770	800.000	-0.039	-0.141
-646.755	-141.214	0.253	0.026
-645.741	-200.000	-0.007	0.114
-644.726	-56.361	-0.072	-0.032
-643.711	-185.852	0.272	-0.004
-642.697	149.326	-0.096	0.131
-641.682	62.009	0.085	0.085
-640.668	800.000	-0.030	0.109
-639.653	-8.308	0.115	-0.078
-638.638	-179.119	0.333	-0.008
-637.624	800.000	-0.021	0.090
-636.609	-200.000	-0.035	-0.271
-635.595	-90.341	0.220	-0.064
-634.580	-37.593	0.041	0.022
-633.565	-200.000	0.015	0.066
-632.551	-101.726	-0.303	-0.074
-631.536	92.373	0.175	-0.199
-630.522	100.589	0.179	-0.209
-629.507	-200.000	-0.016	0.190
-628.492	-200.000	0.016	0.306
-627.478	268.138	0.095	0.167
-626.463	-82.813	-0.240	-0.078
-625.449	-69.678	0.151	-0.058
-624.434	800.000	-0.027	-0.088
-623.419	-82.605	0.083	-0.027
-622.405	126.879	-0.088	-0.112
-621.390	800.000	-0.134	-0.409
-620.376	-14.206	-0.216	0.140
-619.361	38.429	-0.231	-0.207
-618.346	-128.407	0.416	-0.059
-617.332	-152.045	-0.153	-0.011
-616.317	658.555	0.079	-0.205
-615.303	-191.675	0.008	0.000
-614.288	-200.000	-0.015	-0.099
-613.273	139.052	-0.197	0.260
-612.259	386.474	0.143	-0.296
-611.244	499.565	0.061	-0.142
-610.230	-200.000	0.058	0.296
-609.215	-167.993	-0.111	-0.004
-608.201	-100.031	0.154	0.039
-607.186	209.885	0.234	-0.369
-606.171	800.000	-0.131	0.456
-605.157	-200.000	0.004	0.028
-604.142	800.000	0.033	0.121
-603.128	-68.880	0.078	0.030
-602.113	-0.957	-0.311	0.221
-601.098	-136.449	-0.186	0.022
-600.084	-68.398	0.200	0.078
-599.069	-126.264	-0.274	-0.041
-598.055	800.000	-0.055	-0.185
-597.040	627.324	0.003	-0.008
-596.025	302.224	-0.026	0.048
-595.011	-137.677	-0.282	-0.032
-593.996	781.841	0.027	0.075
-592.982	16.716	-0.250	0.198
-591.967	-18.373	0.299	0.188
-590.952	-11.457	0.209	0.138
-589.938	-100.888	-0.236	-0.058
-588.923	-200.000	-0.066	0.322
-587.909	-38.262	-0.142	0.075
-586.894	-131.864	0.185	0.024
-585.879	-200.000	0.002	0.064
-584.865	162.784	-0.124	0.175
-583.850	39.170	-0.068	-0.061
-582.836	-200.000	-0.031	0.296
-581.821	-17.221	0.060	-0.038
-580.806	-69.263	-0.254	0.098
-579.792	-200.000	0.035	0.308
-578.777	19.450	-0.095	-0.077
-577.763	-89.061	0.055	0.016
-576.748	-70.826	0.138	-0.052
-575.733	800.000	-0.142	0.394
-574.719	-25.070	-0.176	-0.105
-573.704	-200.000	0.012	-0.158
-572.690	-48.359	-0.180	-0.087
-571.675	107.913	0.071	0.085
-570.661	-99.660	0.537	0.135
-569.646	-74.379	0.200	-0.072
-568.631	-200.000	-0.005	-0.239
-567.617	-101.440	-0.186	-0.045
-566.602	-38.425	0.215	0.114
-565.588	-82.098	0.317	0.104
-564.573	-23.427	-0.313	-0.189
-563.558	-63.533	-0.248	-0.102
-562.544	800.000	-0.032	-0.109
-561.529	-44.536	-0.031	-0.016
-560.515	67.450	-0.083	0.085
-559.500	-76.888	-0.075	0.026
-558.485	-119.030	-0.333	0.058
-557.471	-31.417	-0.152	-0.086
-556.456	-115.903	0.258	0.048
-555.442	114.917	-0.073	0.089
-554.427	28.762	0.130	0.110
-553.412	-38.234	0.062	-0.033
-552.398	800.000	-0.123	-0.507
-551.383	-157.005	0.212	0.013
-550.369	163.506	-0.201	0.283
-549.354	158.255	0.138	0.192
-548.339	165.613	0.148	-0.210
-547.325	-67.821	-0.076	-0.030
-546.310	157.560	0.096	-0.133
-545.296	7.253	-0.078	-0.058
-544.281	773.599	0.089	0.242
-543.266	70.946	-0.272	0.283
-542.252	-45.661	-0.318	-0.158
-541.237	-199.424	0.129	-0.001
-540.223	-200.000	-0.042	-0.187
-539.208	12.926	-0.350	0.271
-538.193	4.764	0.227	-0.167
-537.179	34.425	-0.053	0.047
-536.164	-200.000	-0.046	0.246
-535.150	-200.000	-0.078	-0.438
-534.135	788.284	-0.048	-0.131
-533.121	-18.498	0.111	-0.070
-532.106	-200.000	-0.014	0.091
-531.091	-200.000	-0.008	0.210
-530.077	73.859	-0.176	-0.185
-529.062	-200.000	-0.041	0.207
-528.048	-23.587	-0.070	-0.042
-527.033	800.000	0.060	-0.221
-526.018	189.412	0.093	-0.139
-525.004	574.997	-0.030	-0.073
-523.989	566.086	0.042	0.103
-522.975	-10.143	-0.133	-0.088
-521.960	800.000	-0.046	-0.170
-520.945	-132.202	0.170	-0.022
-519.931	800.000	-0.114	-0.332
-518.916	131.223	0.210	-0.270
-517.902	-200.000	-0.000	0.054
-516.887	98.654	-0.166	0.191
-515.872	800.000	-0.075	-0.250
-514.858	800.000	0.077	0.259
-513.843	91.373	-0.110	0.124
-512.829	73.852	0.234	-0.246
-511.814	800.000	0.077	0.250
-510.799	332.369	0.093	-0.180
-509.785	800.000	-0.120	0.371
-508.770	-20.031	-0.301	0.186
-507.756	198.353	0.108	0.165
-506.741	-100.842	0.024	0.006
-505.726	224.313	0.029	-0.048
-504.712	-200.000	0.022	0.105
-503.697	-83.666	0.151	0.048
-502.683	-149.635	-0.114	0.009
-501.668	-200.000	0.003	-0.306
-500.653	-33.556	-0.324	0.179
-499.639	-9.089	0.280	0.187
-498.624	8.853	0.096	-0.072
-497.610	800.000	0.005	-0.023
-496.595	9.689	0.189	0.143
-495.581	-78.502	0.214	0.073
-494.566	-121.689	-0.087	-0.014
-493.551	-200.000	0.076	0.340
-492.537	375.336	-0.108	-0.220
-491.522	-4.754	-0.277	0.191
-490.508	-200.000	-0.010	0.058
-489.493	-119.130	-0.194	0.034
-488.478	-200.000	0.054	0.257
-487.464	373.889	-0.208	0.424
-486.449	-49.412	0.274	0.130
-485.435	-48.289	0.160	0.077
-484.420	-0.376	-0.231	-0.164
-483.405	49.607	-0.025	0.024
-482.391	77.167	-0.170	0.180
-481.376	295.952	-0.052	-0.094
-480.362	-200.000	-0.028	0.225
-479.347	77.542	-0.351	0.373
-478.332	-44.381	0.264	-0.132
-477.318	749.717	-0.009	0.024
-476.303	15.784	0.204	0.160
-475.289	-200.000	-0.001	-0.233
-474.274	800.000	0.065	0.227
-473.259	612.395	-0.085	0.211
-472.245	-78.985	-0.231	-0.079
-471.230	-200.000	-0.026	-0.146
-470.216	800.000	-0.062	-0.204
-469.201	-123.471	0.394	0.063
-468.186	800.000	-0.103	0.436
-467.172	-77.955	0.142	0.049
-466.157	-167.991	-0.340	0.013
-465.143	349.952	-0.087	-0.172
-464.128	-40.381	0.121	-0.063
-463.113	338.613	0.077	0.149
-462.099	-35.299	0.243	-0.132
-461.084	41.954	-0.011	0.010
-460.070	25.588	0.068	0.057
-459.055	52.236	-0.318	-0.302
-458.040	-200.000	-0.042	-0.295
-457.026	-6.978	0.291	0.197
-456.011	103.481	0.160	-0.187
-454.997	-107.645	-0.130	0.028
-453.982	-98.153	-0.132	-0.034
-452.968	-84.671	-0.187	0.059
-451.953	-179.204	-0.331	-0.007
-450.938	-48.633	0.102	0.049
-449.924	-49.185	0.065	-0.031
-448.909	174.695	-0.025	-0.037
-447.895	-140.246	0.208	0.022
-446.880	-114.424	-0.465	0.089
-445.865	-81.692	-0.308	0.101
-444.851	386.023	-0.138	-0.285
-443.836	-102.087	-0.271	0.065
-442.822	-56.080	0.437	0.194
-441.807	-153.096	-0.228	0.016
-440.792	-200.000	-0.027	-0.211
-439.778	-200.000	0.014	-0.309
-438.763	-180.779	-0.033	0.001
-437.749	800.000	0.037	0.104
-436.734	-79.714	-0.110	0.037
-435.719	122.691	-0.102	-0.127
-434.705	-25.353	0.245	-0.144
-433.690	800.000	-0.081	0.234
-432.676	-66.560	0.570	0.225
-431.661	119.695	0.068	-0.083
-430.646	-200.000	0.012	0.215
-429.632	-8.872	-0.100	0.067
-428.617	-53.087	0.231	-0.106
-427.603	16.156	-0.178	0.140
-426.588	-4.080	-0.123	0.085
-425.573	-61.847	-0.073	-0.030
-424.559	-51.038	0.272	-0.127
-423.544	-200.000	-0.052	-0.276
-422.530	-88.301	-0.256	0.076
-421.515	-30.044	0.214	-0.121
-420.500	89.937	0.216	0.241
-419.486	-38.691	0.193	0.101
-418.471	59.526	0.271	-0.266
-417.457	-200.000	0.012	-0.238
-416.442	-200.000	-0.007	-0.362
-415.428	-145.979	-0.527	0.047
-414.413	-200.000	0.028	-0.337
-413.398	-200.000	-0.063	-0.319
-412.384	445.813	0.075	-0.164
-411.369	217.383	0.187	-0.298
-410.355	-87.630	-0.039	-0.012
-409.340	-8.601	0.129	-0.086
-408.325	73.741	0.075	-0.078
-407.311	-118.357	0.609	0.108
-406.296	549.807	-0.080	0.191
-405.282	-200.000	0.018	-0.253
-404.267	205.980	-0.057	0.089
-403.252	-103.454	-0.475	0.111
-402.238	-103.219	0.287	-0.068
-401.223	-200.000	0.039	0.339
-400.209	-61.300	-0.143	0.060
-399.194	763.793	-0.113	-0.307
-398.179	-200.000	-0.001	0.013
-397.165	-52.460	0.175	-0.081
-396.150	123.178	-0.105	0.132
-395.136	169.258	0.150	0.213
-394.121	360.123	-0.040	-0.079
-393.106	452.618	-0.091	-0.201
-392.092	-200.000	0.007	-0.136
-391.077	-51.281	-0.047	-0.022
-390.063	-75.233	0.182	0.065
-389.048	-199.210	-0.152	0.001
-388.033	-105.897	-0.233	0.052
-387.019	-82.987	0.223	0.071
-386.004	-81.287	0.080	-0.026
-384.990	162.507	-0.101	0.141
-383.975	-200.000	0.003	0.125
-382.960	133.939	0.041	0.053
-381.946	-200.000	0.021	0.113
-380.931	-187.087	-0.092	0.001
-379.917	264.006	0.069	-0.120
-378.902	126.593	-0.158	0.199
-377.888	-93.011	0.152	-0.042
-376.873	-200.000	-0.006	-0.123
-375.858	-200.000	0.014	-0.175
-374.844	42.949	-0.184	-0.167
-373.829	221.521	-0.060	0.096
-372.815	-200.000	-0.014	0.383
-371.800	44.905	-0.159	-0.146
-370.785	-6.807	0.324	-0.219
-369.771	-56.156	0.260	-0.115
-368.756	-90.378	0.203	-0.059
-367.742	-135.923	0.151	0.018
-366.727	13.612	-0.342	-0.264
-365.712	267.858	0.119	-0.207
-364.698	64.832	-0.112	0.112
-363.683	-200.000	0.078	0.543
-362.669	-200.000	-0.008	0.355
-361.654	-88.953	0.111	-0.033
-360.639	-13.681	-0.356	0.229
-359.625	800.000	-0.061	0.262
-358.610	800.000	-0.092	0.254
-357.596	380.172	0.116	0.237
-356.581	-200.000	0.081	-0.393
-355.566	227.753	-0.213	-0.344
-354.552	-200.000	-0.012	-0.178
-353.537	-6.487	0.031	-0.021
-352.523	800.000	-0.086	0.245
-351.508	-200.000	-0.028	-0.179
-350.493	-149.204	0.109	0.009
-349.479	-3.951	0.129	0.089
-348.464	-71.725	0.246	-0.091
-347.450	115.373	0.066	-0.080
-346.435	91.050	0.095	-0.105
-345.420	764.064	0.047	0.127
-344.406	-200.000	-0.053	0.274
-343.391	-200.000	0.008	0.194
-342.377	-49.152	-0.243	0.116
-341.362	-90.581	-0.301	0.087
-340.348	-200.000	-0.019	-0.196
-339.333	384.759	-0.097	-0.198
-338.318	800.000	0.070	-0.204
-337.304	-96.403	-0.474	0.125
-336.289	585.873	-0.110	-0.270
-335.275	-29.461	-0.163	0.093
-334.260	654.299	-0.074	-0.189
-333.245	-200.000	-0.038	-0.351
-332.231	-88.002	0.176	-0.053
-331.216	800.000	0.088	0.304
-330.202	-41.305	0.173	0.088
-329.187	-191.737	-0.205	0.002
-328.172	800.000	-0.131	-0.447
-327.158	-200.000	-0.042	-0.197
-326.143	-29.423	-0.042	-0.024
-325.129	392.295	0.056	0.115
-324.114	800.000	0.082	-0.255
-323.099	800.000	-0.075	-0.207
-322.085	149.136	0.125	-0.167
-321.070	-200.000	-0.007	-0.142
-320.056	-113.561	-0.164	0.032
-319.041	-200.000	-0.010	-0.131
-318.026	327.522	0.057	-0.109
-317.012	-20.450	0.098	-0.060
-315.997	-39.172	-0.193	0.101
-314.983	-200.000	0.074	0.380
-313.968	-137.699	-0.172	-0.019
-312.953	116.933	-0.173	-0.211
-311.939	-80.345	0.191	-0.063
-310.924	37.423	0.085	0.075
-309.910	210.248	0.173	0.270
-308.895	-200.000	0.046	-0.249
-307.880	-144.228	-0.493	0.046
-306.866	-13.117	0.104	0.067
-305.851	-200.000	-0.002	-0.121
-304.837	800.000	-0.085	-0.332
-303.822	-72.311	0.183	-0.067
-302.807	-200.000	0.025	0.124
-301.793	59.890	-0.213	0.209
-300.778	-200.000	0.046	0.274
-299.764	-37.424	0.346	-0.183
-298.749	68.429	0.143	-0.145
-297.735	-189.683	0.190	-0.002
-296.720	137.850	-0.215	-0.279
-295.705	174.744	0.116	-0.166
-294.691	-43.937	0.197	-0.098
-293.676	-85.411	0.274	0.085
-292.662	800.000	0.032	-0.088
-291.647	257.517	-0.078	0.132
-290.632	-200.000	0.015	-0.117
-289.618	-200.000	0.010	-0.072
-288.603	-130.604	-0.279	-0.037
-287.589	800.000	0.047	0.162
-286.574	677.287	0.052	0.135
-285.559	-140.175	-0.069	0.007
-284.545	-2.716	-0.165	0.114
-283.530	293.961	-0.025	-0.045
-282.516	-200.000	-0.024	-0.360
-281.501	-200.000	0.015	-0.090
-280.486	198.292	0.136	0.206
-279.472	-48.999	-0.350	0.166
-278.457	-121.643	-0.364	0.060
-277.443	167.968	-0.176	-0.248
-276.428	68.744	-0.197	0.200
-275.413	-120.292	-0.340	0.057
-274.399	221.623	-0.077	0.122
-273.384	-62.971	-0.221	-0.091
-272.370	-200.000	-0.033	0.200
-271.355	-129.813	0.087	0.012
-270.340	527.183	0.100	-0.233
-269.326	-200.000	-0.062	0.543
-268.311	-57.906	-0.171	-0.074
-267.297	397.242	0.033	0.068
-266.282	800.000	-0.040	0.158
-265.267	706.815	-0.094	0.247
-264.253	-200.000	-0.020	-0.182
-263.238	-161.478	0.231	0.012
-262.224	156.889	0.093	-0.128
-261.209	-200.000	0.010	0.059
-260.195	-106.484	0.118	-0.026
-259.180	-174.782	-0.374	-0.010
-258.165	-181.887	0.272	0.005
-257.151	624.704	0.064	-0.159
-256.136	571.971	-0.120	-0.288
-255.122	-149.763	0.024	-0.002
-254.107	-35.082	-0.111	-0.060
-253.092	-93.181	-0.422	-0.116
-252.078	658.159	0.122	-0.311
-251.063	-100.135	0.371	0.091
-250.049	-95.451	-0.172	-0.046
-249.034	-200.000	-0.002	-0.160
-248.019	196.296	0.153	-0.230
-247.005	-97.631	-0.200	0.051
-245.990	-150.957	0.150	-0.011
-244.976	-200.000	-0.010	0.068
-243.961	-61.005	-0.155	-0.065
-242.946	-148.179	0.344	-0.028
-241.932	-31.784	0.226	-0.125
-240.917	113.647	-0.079	-0.095
-239.903	-7.173	0.098	0.066
-238.888	-128.095	0.301	0.043
-237.873	800.000	-0.118	0.481
-236.859	-200.000	0.001	0.022
-235.844	16.385	-0.030	0.023
-234.830	800.000	-0.017	0.068
-233.815	-200.000	0.020	-0.091
-232.800	-128.377	0.136	-0.019
-231.786	236.146	-0.070	-0.115
-230.771	-200.000	-0.015	0.277
-229.757	-184.852	0.099	-0.002
-228.742	29.040	0.095	0.080
-227.727	-56.110	-0.058	0.026
-226.713	132.089	0.062	0.079
-225.698	800.000	0.015	0.060
-224.684	-99.257	0.201	-0.050
-223.669	47.756	-0.188	0.173
-222.655	45.926	0.181	-0.166
-221.640	171.469	-0.113	-0.161
-220.625	-200.000	0.009	0.103
-219.611	-30.588	0.237	-0.133
-218.596	-96.810	-0.337	0.088
-217.582	-200.000	-0.063	0.277
-216.567	800.000	0.014	0.043
-215.552	800.000	0.148	-0.426
-214.538	-200.000	-0.011	0.100
-213.523	800.000	0.141	0.571
-212.509	-149.974	0.407	0.031
-211.494	-36.126	-0.189	-0.101
-210.479	149.335	0.123	-0.165
-209.465	180.334	-0.144	0.209
-208.450	244.995	-0.170	-0.282
-207.436	259.724	-0.237	-0.405
-206.421	26.712	-0.175	-0.145
-205.406	-200.000	-0.036	-0.161
-204.392	-29.692	0.169	-0.095
-203.377	-200.000	-0.012	0.079
-202.363	-200.000	0.008	-0.035
-201.348	-150.132	-0.227	-0.017
-200.333	-200.000	0.031	0.159
-199.319	12.962	0.163	0.124
-198.304	-81.744	0.211	0.068
-197.290	-58.739	0.146	0.063
-196.275	91.141	-0.186	-0.206
-195.260	566.779	0.080	-0.192
-194.246	201.636	0.067	0.101
-193.231	800.000	0.079	0.243
-192.217	-53.112	-0.178	0.081
-191.202	-200.000	0.034	0.205
-190.187	330.485	-0.089	-0.170
-189.173	-112.729	0.307	0.060
-188.158	-127.755	0.459	0.066
-187.144	-56.928	0.103	-0.045
-186.129	132.218	0.059	-0.075
-185.114	-94.295	0.155	-0.042
-184.100	705.314	0.204	-0.531
-183.085	-17.501	0.163	0.101
-182.071	420.756	-0.067	-0.141
-181.056	-200.000	-0.014	-0.070
-180.042	344.592	0.043	0.084
-179.027	-200.000	0.048	-0.322
-178.012	-19.515	0.102	-0.063
-176.998	731.074	0.023	0.060
-175.983	98.478	-0.079	-0.090
-174.969	252.646	0.203	0.342
-173.954	-51.157	-0.257	-0.119
-172.939	-158.593	-0.174	0.010
-171.925	-200.000	0.025	0.233
-170.910	800.000	0.054	0.146
-169.896	-16.401	0.217	-0.136
-168.881	-86.503	-0.192	0.058
-167.866	128.795	0.132	0.166
-166.852	800.000	0.113	0.424
-165.837	-54.503	0.410	0.183
-164.823	-109.571	-0.220	-0.046
-163.808	69.112	0.167	0.169
-162.793	14.191	-0.150	0.116
-161.779	-51.615	0.048	0.022
-160.764	247.749	0.052	-0.086
-159.750	-19.708	-0.148	-0.091
-158.735	229.713	0.174	0.281
-157.720	17.773	0.356	0.280
-156.706	800.000	0.007	-0.027
-155.691	-200.000	-0.003	0.123
-154.677	-47.711	-0.273	0.130
-153.662	48.843	0.151	-0.140
-152.647	-200.000	0.025	-0.216
-151.633	0.052	0.021	0.015
-150.618	-41.080	-0.257	-0.131
-149.604	800.000	0.128	0.420
-148.589	-148.023	0.220	0.018
-147.574	85.295	0.127	-0.137
-146.560	-102.201	0.148	-0.035
-145.545	273.707	-0.194	0.338
-144.531	27.428	-0.157	-0.130
-143.516	139.293	-0.178	0.231
-142.502	-164.398	0.051	0.002
-141.487	-68.730	0.013	0.005
-140.472	-200.000	-0.006	-0.116
-139.458	-75.834	-0.049	0.017
-138.443	343.491	0.148	0.285
-137.429	-200.000	-0.002	0.014
-136.414	453.634	-0.114	-0.249
-135.399	800.000	0.154	0.472
-134.385	-44.158	-0.185	0.092
-133.370	420.325	0.113	0.239
-132.356	-164.347	-0.153	-0.007
-131.341	-15.344	-0.146	0.092
-130.326	10.249	-0.123	-0.093
-129.312	18.210	0.152	0.120
-128.297	694.292	0.099	0.256
-127.283	-32.692	0.241	-0.132
-126.268	399.884	-0.062	0.127
-125.253	496.545	-0.032	-0.072
-124.239	77.777	-0.188	0.197
-123.224	140.742	0.230	0.300
