DTS Sentinel unit serial number:	SN413079Multiplexer serial number:	ORYXHardware model number:	OX4-SRSoftware version number:	ORYX F/W v4.00 Oryx Data Collector v3.7.2.0data status	okinstallation	princeton_trtdifferential loss correction	single-endedforward channel	channel 3reverse channel	N/Adate	2019/09/11time	10:10:11forward acquisition time	60.00reverse acquisition time	0.00gamma	496.2192k internal	0.2299k external	0.2299temperature offset calibration	0.9942default loss term (dB/km)	0.3790temperature slope calibration	1.0000multiplexer offset coefficient	1.0000multiplexer slope coefficient	1.0000fibre end	0.00T internal ref (°C)	35.69T ext. ref 1 (°C)	0.14T ext. ref 2 (°C)	33.40length (m)	temperature (°C)	Stokes	anti-Stokes-747.200	-32.189	0.333	0.190
-746.185	-104.725	0.138	-0.032
-745.171	-93.602	0.024	-0.007
-744.156	-42.891	-0.366	0.190
-743.142	343.768	-0.024	-0.047
-742.127	96.993	-0.095	0.111
-741.112	-200.000	-0.021	0.123
-740.098	34.603	-0.199	0.177
-739.083	800.000	-0.067	0.256
-738.069	107.933	0.036	-0.043
-737.054	-200.000	0.016	-0.110
-736.039	-81.322	-0.205	-0.069
-735.025	-40.083	-0.255	-0.135
-734.010	126.870	-0.046	-0.060
-732.996	122.134	-0.138	-0.176
-731.981	800.000	-0.108	-0.435
-730.966	141.855	-0.163	0.220
-729.952	224.263	0.102	0.168
-728.937	800.000	0.081	-0.279
-727.923	-159.439	-0.086	-0.005
-726.908	-27.822	0.284	-0.168
-725.894	106.823	0.079	-0.096
-724.879	299.249	0.254	-0.476
-723.864	-1.908	-0.332	0.238
-722.850	-76.803	0.063	0.023
-721.835	-4.913	0.162	0.114
-720.821	3.942	-0.023	-0.017
-719.806	800.000	-0.041	0.119
-718.791	-55.686	0.120	0.055
-717.777	319.225	0.074	0.144
-716.762	-125.051	-0.337	-0.053
-715.748	-200.000	0.042	-0.200
-714.733	-200.000	0.046	0.237
-713.718	-25.505	-0.061	0.037
-712.704	-200.000	0.018	0.163
-711.689	299.761	0.085	-0.159
-710.675	-38.907	0.019	0.010
-709.660	-128.689	0.119	-0.017
-708.645	13.233	-0.225	0.177
-707.631	-200.000	-0.014	0.112
-706.616	435.986	-0.069	-0.153
-705.602	309.649	0.126	0.241
-704.587	-200.000	-0.031	-0.196
-703.572	-27.766	-0.111	-0.066
-702.558	-98.844	0.351	-0.091
-701.543	-108.176	0.402	0.089
-700.529	32.075	0.089	0.078
-699.514	800.000	0.105	-0.295
-698.499	172.728	0.189	0.278
-697.485	-200.000	0.064	0.300
-696.470	800.000	0.022	-0.070
-695.456	800.000	0.131	-0.376
-694.441	496.201	0.041	-0.095
-693.426	-200.000	-0.027	0.173
-692.412	-200.000	0.009	-0.119
-691.397	34.459	-0.070	0.062
-690.383	153.880	-0.066	-0.092
-689.368	-200.000	0.057	-0.298
-688.354	-26.679	0.100	0.060
-687.339	352.217	-0.084	0.169
-686.324	-200.000	0.033	-0.327
-685.310	800.000	-0.058	0.187
-684.295	26.347	-0.147	0.125
-683.281	-63.876	-0.162	0.067
-682.266	103.865	-0.180	-0.215
-681.251	303.524	0.031	-0.059
-680.237	-104.240	-0.425	-0.100
-679.222	-20.973	-0.157	-0.098
-678.208	-75.923	0.107	0.038
-677.193	800.000	0.067	-0.212
-676.178	-200.000	-0.385	-0.000
-675.164	641.254	-0.015	-0.038
-674.149	-85.197	-0.200	0.064
-673.135	129.193	0.150	0.194
-672.120	-35.890	-0.163	0.090
-671.105	-200.000	-0.046	0.208
-670.091	-200.000	-0.047	-0.461
-669.076	-31.663	0.321	0.183
-668.062	98.119	0.266	0.312
-667.047	-63.095	-0.230	-0.097
-666.032	-25.870	0.119	0.072
-665.018	132.418	-0.103	0.135
-664.003	119.580	-0.074	-0.093
-662.989	-57.208	-0.416	0.186
-661.974	12.456	0.206	-0.161
-660.959	-151.850	-0.173	-0.013
-659.945	-123.677	-0.260	-0.042
-658.930	-115.209	0.188	0.036
-657.916	550.664	0.201	0.491
-656.901	90.297	-0.065	0.074
-655.886	-92.779	0.250	0.071
-654.872	254.558	-0.251	0.436
-653.857	142.737	0.234	0.316
-652.843	-99.021	0.501	0.129
-651.828	-200.000	-0.028	-0.160
-650.814	44.996	0.101	0.095
-649.799	6.730	0.183	-0.138
-648.784	355.001	-0.096	-0.194
-647.770	-178.974	0.210	0.005
-646.755	-200.000	0.017	0.274
-645.741	-159.022	0.163	0.009
-644.726	587.065	-0.075	-0.187
-643.711	52.029	-0.308	-0.298
-642.697	-31.513	0.225	-0.128
-641.682	-53.074	-0.070	0.033
-640.668	-118.757	0.459	0.082
-639.653	-200.000	-0.011	-0.313
-638.638	784.846	0.060	-0.168
-637.624	-78.717	-0.071	0.025
-636.609	-103.193	0.130	-0.031
-635.595	-200.000	0.029	0.338
-634.580	-100.555	-0.182	-0.046
-633.565	-49.441	0.048	-0.023
-632.551	-67.048	-0.080	-0.032
-631.536	800.000	0.090	-0.370
-630.522	90.642	0.142	-0.161
-629.507	-8.565	-0.155	0.106
-628.492	-109.353	0.081	0.017
-627.478	116.962	-0.165	0.206
-626.463	-74.232	-0.286	-0.105
-625.449	-200.000	-0.023	0.115
-624.434	-145.448	-0.247	0.023
-623.419	-6.297	-0.294	0.204
-622.405	157.689	0.305	-0.429
-621.390	31.891	0.086	0.075
-620.376	511.411	0.060	0.143
-619.361	274.101	-0.189	0.339
-618.346	-200.000	0.005	-0.130
-617.332	-21.259	-0.266	-0.165
-616.317	19.991	0.055	-0.045
-615.303	-18.060	-0.124	0.079
-614.288	-63.752	0.069	0.029
-613.273	-61.524	0.229	-0.098
-612.259	-200.000	-0.027	-0.335
-611.244	375.279	0.132	-0.272
-610.230	-114.160	0.088	-0.017
-609.215	-70.573	0.108	-0.041
-608.201	-6.185	-0.151	0.105
-607.186	-154.585	0.102	-0.007
-606.171	49.477	-0.193	-0.185
-605.157	-92.752	0.094	0.027
-604.142	800.000	0.041	0.114
-603.128	255.613	0.049	-0.086
-602.113	-200.000	-0.020	-0.093
-601.098	-115.258	0.337	-0.065
-600.084	281.408	-0.108	-0.196
-599.069	102.624	-0.256	0.304
-598.055	-126.447	0.391	-0.059
-597.040	516.461	-0.114	0.270
-596.025	-66.280	0.304	-0.123
-595.011	-200.000	0.016	-0.123
-593.996	-2.907	-0.224	0.159
-592.982	1.820	0.166	-0.122
-591.967	-200.000	-0.025	0.256
-590.952	-5.539	0.177	-0.123
-589.938	-47.668	0.115	-0.057
-588.923	-200.000	-0.008	0.069
-587.909	-3.775	0.132	-0.093
-586.894	-200.000	0.011	-0.051
-585.879	-200.000	0.000	0.186
-584.865	-79.380	-0.408	-0.140
-583.850	172.005	-0.107	-0.156
-582.836	-47.922	0.088	-0.043
-581.821	-173.910	0.213	-0.006
-580.806	-106.508	-0.167	-0.038
-579.792	493.543	-0.067	-0.157
-578.777	-59.464	0.205	-0.089
-577.763	-200.000	-0.011	0.049
-576.748	-200.000	0.352	0.001
-575.733	-65.152	0.225	0.092
-574.719	800.000	-0.047	-0.189
-573.704	-56.090	-0.048	0.022
-572.690	77.660	-0.055	0.060
-571.675	-200.000	0.074	-0.460
-570.661	-200.000	-0.009	0.264
-569.646	164.978	0.070	0.100
-568.631	60.010	-0.221	-0.221
-567.617	301.241	0.053	-0.099
-566.602	800.000	-0.055	-0.238
-565.588	12.804	-0.052	-0.041
-564.573	-144.918	-0.390	-0.036
-563.558	-169.218	0.162	-0.006
-562.544	-200.000	0.022	-0.176
-561.529	135.625	-0.021	-0.027
-560.515	-119.101	-0.587	-0.104
-559.500	800.000	0.038	-0.106
-558.485	800.000	0.030	0.127
-557.471	-4.948	0.097	0.068
-556.456	570.325	0.051	-0.127
-555.442	607.523	0.065	-0.165
-554.427	-200.000	-0.015	-0.321
-553.412	-98.809	-0.211	0.054
-552.398	-150.144	-0.358	0.028
-551.383	399.483	-0.224	-0.475
-550.369	-22.439	0.176	-0.108
-549.354	490.015	-0.111	-0.258
-548.339	-120.101	-0.220	-0.038
-547.325	521.647	-0.067	0.159
-546.310	195.313	0.016	0.025
-545.296	-5.369	0.166	0.115
-544.281	19.327	-0.283	0.231
-543.266	-200.000	-0.020	-0.170
-542.252	-25.765	-0.239	0.143
-541.237	194.227	-0.057	0.088
-540.223	-45.462	0.358	-0.180
-539.208	140.214	0.089	0.118
-538.193	40.266	0.132	-0.120
-537.179	-200.000	0.002	0.183
-536.164	-200.000	0.029	0.130
-535.150	-102.261	-0.084	0.020
-534.135	-200.000	0.068	-0.389
-533.121	593.087	-0.029	0.073
-532.106	36.717	0.203	-0.182
-531.091	-103.872	0.418	0.099
-530.077	64.412	0.164	-0.167
-529.062	107.460	-0.177	-0.213
-528.048	-188.439	-0.311	-0.004
-527.033	40.226	0.155	-0.141
-526.018	-200.000	-0.004	0.206
-525.004	212.800	-0.190	0.303
-523.989	-143.771	-0.083	-0.008
-522.975	-179.297	0.423	0.009
-521.960	-100.837	0.208	0.052
-520.945	330.458	0.113	-0.220
-519.931	425.088	0.018	0.040
-518.916	99.067	-0.014	0.016
-517.902	31.531	0.220	0.191
-516.887	406.196	-0.009	-0.019
-515.872	53.335	-0.079	0.076
-514.858	-58.009	0.338	0.149
-513.843	98.318	0.055	0.064
-512.829	-22.135	-0.271	-0.166
-511.814	-200.000	-0.052	0.325
-510.799	40.338	-0.116	0.106
-509.785	295.684	-0.147	0.272
-508.770	188.220	-0.076	-0.116
-507.756	800.000	-0.016	0.049
-506.741	399.680	-0.054	0.114
-505.726	105.153	-0.127	-0.151
-504.712	-82.813	-0.203	-0.066
-503.697	67.581	0.195	-0.201
-502.683	-57.583	-0.216	-0.096
-501.668	-167.346	-0.217	0.009
-500.653	-200.000	-0.015	-0.206
-499.639	-123.603	0.243	-0.039
-498.624	205.212	-0.136	0.214
-497.610	330.975	0.158	0.307
-496.595	-129.763	0.081	0.011
-495.581	621.546	-0.066	0.168
-494.566	151.646	-0.163	-0.225
-493.551	-114.848	-0.258	-0.050
-492.537	92.763	-0.100	0.114
-491.522	-200.000	0.010	-0.144
-490.508	800.000	-0.019	0.082
-489.493	-142.765	-0.186	0.018
-488.478	57.540	-0.201	-0.198
-487.464	59.793	-0.169	0.169
-486.449	60.497	-0.397	0.397
-485.435	-11.080	0.322	-0.215
-484.420	115.489	0.069	-0.085
-483.405	-38.259	0.314	-0.168
-482.391	-200.000	-0.111	-0.000
-481.376	-200.000	-0.016	-0.455
-480.362	373.390	-0.044	0.090
-479.347	-61.730	-0.234	0.099
-478.332	423.131	0.079	-0.171
-477.318	-32.329	0.183	0.103
-476.303	369.068	0.070	-0.143
-475.289	105.461	-0.090	0.107
-474.274	37.693	-0.231	-0.207
-473.259	148.693	-0.111	0.151
-472.245	-41.460	0.059	0.031
-471.230	4.457	-0.123	-0.091
-470.216	-41.714	-0.148	0.077
-469.201	800.000	0.057	0.178
-468.186	258.554	0.096	-0.167
-467.172	630.349	-0.024	-0.061
-466.157	-55.505	-0.122	0.055
-465.143	800.000	-0.110	-0.310
-464.128	800.000	-0.056	-0.236
-463.113	158.694	-0.051	-0.072
-462.099	-109.865	0.116	-0.024
-461.084	215.191	0.144	-0.231
-460.070	-200.000	-0.079	-0.000
-459.055	459.385	-0.024	-0.053
-458.040	-200.000	0.015	0.080
-457.026	120.894	-0.215	0.270
-456.011	126.266	0.146	-0.186
-454.997	-200.000	-0.005	-0.291
-453.982	-200.000	0.023	-0.163
-452.968	-200.000	0.069	0.312
-451.953	-78.158	-0.089	0.031
-450.938	131.667	-0.145	0.188
-449.924	-109.323	-0.228	-0.049
-448.909	87.368	0.089	-0.099
-447.895	-66.264	0.343	0.138
-446.880	800.000	-0.054	0.188
-445.865	254.855	-0.041	-0.070
-444.851	-200.000	0.005	0.261
-443.836	-200.000	0.077	0.381
-442.822	30.312	0.110	0.095
-441.807	40.992	0.269	-0.245
-440.792	534.601	0.112	-0.267
-439.778	800.000	-0.089	-0.248
-438.763	-200.000	0.017	0.295
-437.749	52.908	0.226	0.218
-436.734	-41.466	-0.431	0.224
-435.719	-168.162	0.277	0.011
-434.705	-79.192	0.240	0.082
-433.690	-121.094	-0.339	-0.057
-432.676	621.637	-0.108	-0.275
-431.661	800.000	0.073	0.226
-430.646	-200.000	0.057	0.291
-429.632	-200.000	0.023	-0.114
-428.617	720.253	0.031	-0.083
-427.603	498.792	0.017	0.040
-426.588	800.000	0.015	0.050
-425.573	-60.231	0.100	0.043
-424.559	4.717	0.285	-0.211
-423.544	282.194	0.083	-0.149
-422.530	128.442	-0.082	-0.105
-421.515	220.694	-0.118	-0.191
-420.500	4.498	0.103	-0.076
-419.486	-72.128	0.508	0.190
-418.471	800.000	0.033	0.125
-417.457	-78.299	-0.117	0.040
-416.442	-200.000	0.038	0.335
-415.428	166.421	0.185	0.264
-414.413	-109.023	-0.256	0.055
-413.398	-20.010	-0.110	0.068
-412.384	-200.000	-0.021	-0.185
-411.369	-200.000	-0.040	0.186
-410.355	697.364	-0.052	-0.138
-409.340	-140.316	-0.241	-0.025
-408.325	-102.570	0.051	-0.012
-407.311	81.486	0.083	-0.090
-406.296	-19.704	0.226	-0.141
-405.282	-10.543	0.126	-0.084
-404.267	800.000	-0.041	0.134
-403.252	-62.477	0.285	0.119
-402.238	-150.538	-0.130	0.010
-401.223	800.000	-0.083	0.364
-400.209	-112.283	0.066	0.013
-399.194	2.729	-0.072	-0.052
-398.179	-191.351	0.226	-0.002
-397.165	5.099	0.292	-0.217
-396.150	50.154	0.223	0.212
-395.136	-59.089	0.150	-0.065
-394.121	-200.000	0.024	0.174
-393.106	346.837	0.106	-0.209
-392.092	-92.237	0.296	-0.084
-391.077	-46.542	-0.030	0.015
-390.063	-27.221	0.111	0.065
-389.048	800.000	0.071	0.258
-388.033	28.317	0.135	0.115
-387.019	-200.000	0.040	0.203
-386.004	12.566	-0.137	0.107
-384.990	439.913	0.053	-0.117
-383.975	-53.344	-0.087	-0.040
-382.960	-68.859	0.215	-0.083
-381.946	109.432	0.099	0.119
-380.931	-150.592	-0.320	-0.025
-379.917	-136.403	0.215	-0.025
-378.902	-108.771	-0.237	-0.051
-377.888	-60.952	-0.089	0.038
-376.873	320.441	-0.028	-0.054
-375.858	151.090	0.150	0.205
-374.844	-71.915	0.177	-0.066
-373.829	-200.000	0.042	-0.314
-372.815	48.208	-0.169	-0.159
-371.800	-54.197	-0.197	0.090
-370.785	-35.297	0.050	-0.027
-369.771	-29.309	0.080	-0.046
-368.756	147.950	-0.179	0.243
-367.742	-96.365	-0.288	-0.077
-366.727	-75.754	-0.222	0.079
-365.712	800.000	0.106	-0.355
-364.698	-29.953	-0.291	0.167
-363.683	-60.487	0.066	-0.028
-362.669	-200.000	-0.017	0.218
-361.654	345.227	0.176	-0.348
-360.639	-85.921	0.161	0.050
-359.625	-200.000	0.043	0.270
-358.610	531.840	0.181	0.430
-357.596	-60.224	0.037	-0.016
-356.581	208.547	0.098	-0.154
-355.566	517.759	0.086	0.202
-354.552	-82.489	-0.286	-0.093
-353.537	108.205	-0.187	-0.224
-352.523	73.424	-0.153	0.161
-351.508	66.650	-0.132	0.135
-350.493	800.000	0.074	-0.290
-349.479	-112.220	-0.245	0.049
-348.464	-64.045	-0.061	-0.025
-347.450	120.265	0.040	0.050
-346.435	-55.881	0.441	0.198
-345.420	38.375	0.161	0.144
-344.406	-132.302	-0.264	0.034
-343.391	-128.328	-0.358	0.051
-342.377	-70.015	-0.181	-0.069
-341.362	-200.000	-0.028	-0.233
-340.348	-152.550	-0.221	0.016
-339.333	-21.770	0.036	0.022
-338.318	208.298	-0.169	-0.266
-337.304	-91.074	0.103	0.030
-336.289	20.750	-0.180	0.146
-335.275	-200.000	0.027	0.209
-334.260	453.234	-0.024	0.053
-333.245	-109.511	0.248	-0.053
-332.231	-200.000	-0.040	-0.268
-331.216	79.453	0.064	-0.069
-330.202	-200.000	-0.014	-0.174
-329.187	800.000	0.106	-0.367
-328.172	-52.163	0.068	-0.032
-327.158	9.828	0.150	-0.114
-326.143	9.811	0.018	0.014
-325.129	-200.000	0.007	0.218
-324.114	136.922	0.131	-0.172
-323.099	-119.448	0.426	-0.074
-322.085	531.847	0.092	0.219
-321.070	519.533	0.095	-0.223
-320.056	190.308	-0.169	0.254
-319.041	-94.616	-0.223	0.061
-318.026	-137.707	0.168	0.019
-317.012	-200.000	-0.078	-0.405
-315.997	21.915	0.138	-0.113
-314.983	666.692	-0.035	-0.090
-313.968	201.416	0.044	0.068
-312.953	-126.543	0.065	-0.010
-311.939	337.546	0.167	0.326
-310.924	158.312	0.034	-0.047
-309.910	-144.045	0.208	-0.020
-308.895	-200.000	0.060	0.327
-307.880	90.705	-0.279	0.313
-306.866	218.020	0.039	-0.062
-305.851	-123.857	0.196	0.031
-304.837	277.095	-0.182	-0.325
-303.822	-173.560	-0.207	0.006
-302.807	131.274	-0.263	0.338
-301.793	-113.069	-0.068	0.013
-300.778	-106.854	-0.335	0.074
-299.764	-200.000	0.013	0.170
-298.749	-164.931	-0.130	0.006
-297.735	-100.929	-0.186	0.046
-296.720	-80.324	-0.112	-0.037
-295.705	-25.084	0.328	0.195
-294.691	-171.250	0.239	0.008
-293.676	-159.728	0.161	-0.009
-292.662	-111.621	0.076	0.015
-291.647	-17.907	-0.017	-0.011
-290.632	-146.249	0.267	-0.024
-289.618	-120.495	0.334	0.057
-288.603	15.074	0.154	0.121
-287.589	-48.279	0.255	-0.123
-286.574	800.000	-0.044	0.179
-285.559	-41.722	-0.299	0.154
-284.545	-200.000	0.045	-0.204
-283.530	-105.176	-0.148	0.034
-282.516	560.556	-0.149	-0.361
-281.501	-26.429	-0.180	0.106
-280.486	49.651	0.197	-0.186
-279.472	-64.794	0.184	0.075
-278.457	-117.181	-0.199	-0.036
-277.443	-200.000	-0.030	0.156
-276.428	445.973	-0.022	-0.049
-275.413	235.188	-0.095	0.157
-274.399	-200.000	-0.002	-0.162
-273.384	332.299	-0.056	-0.109
-272.370	103.959	-0.161	0.190
-271.355	441.806	0.110	0.242
-270.340	206.162	0.150	-0.234
-269.326	-135.051	-0.098	0.012
-268.311	-139.238	0.317	-0.034
-267.297	-200.000	-0.007	-0.171
-266.282	-100.811	0.236	0.058
-265.267	98.341	-0.186	0.214
-264.253	-55.036	-0.063	-0.028
-263.238	8.527	0.217	0.163
-262.224	-200.000	-0.053	0.464
-261.209	-79.803	-0.309	-0.104
-260.195	-98.283	-0.148	-0.038
-259.180	272.491	0.116	0.204
-258.165	52.285	0.271	0.259
-257.151	-53.262	-0.179	0.082
-256.136	-18.648	0.162	-0.101
-255.122	308.787	-0.085	-0.160
-254.107	-133.897	0.330	-0.041
-253.092	-105.143	0.030	0.007
-252.078	10.636	-0.232	0.177
-251.063	-157.265	-0.108	-0.007
-250.049	-200.000	0.013	0.084
-249.034	-121.246	-0.153	0.026
-248.019	800.000	0.072	-0.228
-247.005	-77.443	-0.185	-0.064
-245.990	57.672	0.155	-0.151
-244.976	800.000	-0.071	-0.280
-243.961	-200.000	-0.013	-0.204
-242.946	-53.148	-0.118	-0.054
-241.932	272.850	-0.029	-0.051
-240.917	-200.000	0.007	-0.072
-239.903	-200.000	0.035	0.389
-238.888	-6.971	0.326	0.221
-237.873	-119.126	-0.233	0.041
-236.859	-200.000	0.010	0.077
-235.844	-13.160	-0.244	-0.158
-234.830	-200.000	0.024	0.476
-233.815	800.000	-0.031	0.099
-232.800	-116.332	0.407	-0.075
-231.786	-28.092	-0.145	-0.084
-230.771	436.836	0.089	-0.194
-229.757	62.016	-0.158	0.158
-228.742	-200.000	0.000	0.053
-227.727	335.341	-0.007	-0.014
-226.713	800.000	0.064	0.205
-225.698	480.982	0.119	0.269
-224.684	625.089	0.083	0.210
-223.669	155.863	-0.185	0.255
-222.655	800.000	0.076	0.270
-221.640	-200.000	0.015	0.068
-220.625	800.000	-0.078	-0.298
-219.611	-200.000	0.012	-0.256
-218.596	272.961	0.253	-0.447
-217.582	800.000	-0.102	-0.389
-216.567	-200.000	0.003	0.267
-215.552	-200.000	0.048	0.275
-214.538	-90.925	-0.138	-0.040
-213.523	62.204	0.039	0.039
-212.509	-50.392	-0.118	0.056
-211.494	-82.040	-0.145	0.047
-210.479	800.000	-0.022	-0.095
-209.465	105.157	0.086	-0.102
-208.450	-200.000	-0.023	-0.244
-207.436	-200.000	-0.013	-0.056
-206.421	800.000	-0.081	0.317
-205.406	-200.000	0.001	0.202
-204.392	-27.252	0.370	-0.215
-203.377	239.877	0.184	0.307
-202.363	-115.778	-0.222	0.042
-201.348	14.225	0.271	-0.211
-200.333	-78.214	-0.476	0.163
-199.319	-50.648	-0.329	0.155
-198.304	-103.951	-0.263	0.061
-197.290	30.910	0.089	-0.076
-196.275	142.320	0.079	-0.104
-195.260	-200.000	-0.000	-0.138
-194.246	-200.000	0.013	-0.317
-193.231	-43.096	-0.208	0.105
-192.217	-132.207	-0.144	0.019
-191.202	-64.213	0.136	0.055
-190.187	-139.253	-0.226	-0.024
-189.173	-143.558	0.205	-0.020
-188.158	-200.000	-0.039	-0.202
-187.144	132.680	0.280	0.360
-186.129	-61.802	-0.291	0.122
-185.114	-83.414	-0.490	-0.157
-184.100	537.723	-0.040	0.094
-183.085	25.721	-0.273	-0.227
-182.071	-159.654	0.193	-0.011
-181.056	-60.156	-0.173	0.074
-180.042	-65.031	-0.239	-0.096
-179.027	375.322	0.095	0.193
-178.012	4.834	0.173	-0.127
-176.998	800.000	-0.158	-0.473
-175.983	77.748	0.079	0.084
-174.969	-153.627	0.219	-0.015
-173.954	-67.099	-0.282	0.111
-172.939	-37.151	-0.103	-0.055
-171.925	102.351	-0.116	-0.135
-170.910	47.414	0.097	0.090
-169.896	-55.489	0.133	0.059
-168.881	50.577	-0.140	-0.133
-167.866	221.205	0.198	0.318
-166.852	-66.141	-0.384	0.153
-165.837	79.697	0.369	-0.395
-164.823	-85.140	0.270	0.084
-163.808	19.451	-0.157	0.126
-162.793	-15.427	-0.034	0.022
-161.779	800.000	-0.055	0.216
-160.764	10.168	-0.399	0.302
-159.750	-46.062	-0.177	-0.087
-158.735	800.000	0.051	0.182
-157.720	231.684	0.186	-0.303
-156.706	-19.222	0.202	-0.125
-155.691	-79.468	0.167	0.056
-154.677	70.952	0.172	0.178
-153.662	-200.000	-0.006	0.181
-152.647	-85.318	0.434	0.135
-151.633	800.000	-0.153	0.452
-150.618	43.947	-0.220	0.201
-149.604	227.441	0.127	-0.207
-148.589	152.552	-0.020	0.027
-147.574	-200.000	-0.029	0.307
-146.560	8.591	0.194	0.145
-145.545	305.541	0.091	0.169
-144.531	175.820	0.069	-0.100
-143.516	-126.127	0.481	-0.072
-142.502	584.942	-0.010	-0.024
-141.487	-107.812	0.296	-0.064
-140.472	41.261	0.024	0.021
-139.458	-193.495	0.104	-0.001
-138.443	-109.495	0.194	-0.041
-137.429	-27.367	0.248	0.144
-136.414	138.978	-0.174	0.228
-135.399	-77.003	0.187	-0.065
-134.385	155.245	0.085	-0.116
-133.370	-82.852	0.279	-0.090
-132.356	-63.105	0.116	-0.048
-131.341	564.092	0.048	0.115
-130.326	-95.506	0.206	0.055
-129.312	-130.891	0.152	-0.020
-128.297	221.509	0.173	-0.277
-127.283	506.671	-0.114	-0.263
-126.268	-200.000	-0.014	0.434
-125.253	-200.000	0.025	-0.244
-124.239	-118.115	-0.120	-0.021
-123.224	43.394	0.476	0.433
-122.210	-97.215	0.259	0.067
-121.195	-79.938	-0.362	-0.121
