DTS Sentinel unit serial number:	SN413079Multiplexer serial number:	ORYXHardware model number:	OX4-SRSoftware version number:	ORYX F/W v4.00 Oryx Data Collector v3.7.2.0data status	okinstallation	princeton_trtdifferential loss correction	single-endedforward channel	channel 3reverse channel	N/Adate	2019/09/14time	00:40:35forward acquisition time	60.00reverse acquisition time	0.00gamma	496.2192k internal	0.2340k external	0.2340temperature offset calibration	1.0057default loss term (dB/km)	0.3790temperature slope calibration	1.0000multiplexer offset coefficient	1.0000multiplexer slope coefficient	1.0000fibre end	0.00T internal ref (°C)	26.44T ext. ref 1 (°C)	3.17T ext. ref 2 (°C)	21.03length (m)	temperature (°C)	Stokes	anti-Stokes-747.200	226.207	-0.076	0.124
-746.185	-137.558	-0.250	-0.028
-745.171	-131.137	0.147	-0.020
-744.156	10.699	0.115	-0.088
-743.142	-170.961	-0.269	-0.009
-742.127	-86.571	-0.305	0.094
-741.112	800.000	0.030	0.087
-740.098	-126.574	-0.314	0.047
-739.083	240.480	0.077	0.129
-738.069	56.608	0.079	-0.077
-737.054	49.988	-0.093	0.088
-736.039	-72.271	-0.202	-0.075
-735.025	-63.540	-0.299	0.123
-734.010	-64.051	0.147	0.060
-732.996	-49.263	-0.446	-0.214
-731.981	510.213	-0.128	-0.299
-730.966	-31.553	-0.359	0.202
-729.952	159.938	0.035	-0.049
-728.937	-36.987	0.145	0.078
-727.923	102.677	-0.085	-0.099
-726.908	800.000	0.024	0.080
-725.894	-143.945	-0.158	-0.015
-724.879	52.529	-0.096	-0.092
-723.864	781.614	0.028	-0.077
-722.850	-4.357	-0.175	0.121
-721.835	77.016	0.148	0.158
-720.821	-116.574	-0.240	0.044
-719.806	-72.148	0.125	-0.046
-718.791	31.587	-0.465	-0.400
-717.777	12.220	-0.228	-0.176
-716.762	800.000	-0.121	-0.467
-715.748	476.298	0.072	0.162
-714.733	160.574	-0.098	0.137
-713.718	271.283	0.247	-0.436
-712.704	483.643	0.075	0.171
-711.689	-6.553	0.071	-0.048
-710.675	15.525	-0.060	-0.047
-709.660	800.000	-0.028	-0.115
-708.645	-42.470	-0.178	-0.091
-707.631	-200.000	-0.015	0.139
-706.616	-103.550	-0.111	0.026
-705.602	-131.067	0.006	-0.001
-704.587	-200.000	0.000	0.100
-703.572	708.205	0.062	-0.164
-702.558	800.000	-0.083	-0.257
-701.543	27.183	0.337	-0.283
-700.529	-200.000	0.004	0.192
-699.514	155.305	0.079	-0.108
-698.499	-200.000	0.035	-0.442
-697.485	160.720	0.115	-0.161
-696.470	116.013	-0.173	-0.211
-695.456	-200.000	0.015	-0.279
-694.441	388.528	-0.160	-0.332
-693.426	800.000	0.015	0.060
-692.412	-4.736	-0.106	0.073
-691.397	800.000	0.020	-0.084
-690.383	800.000	-0.105	-0.356
-689.368	-200.000	0.040	-0.299
-688.354	800.000	0.090	-0.329
-687.339	-200.000	-0.064	-0.297
-686.324	588.660	0.133	-0.328
-685.310	9.138	-0.070	0.053
-684.295	18.110	-0.182	0.145
-683.281	161.368	-0.115	-0.161
-682.266	275.756	-0.210	-0.373
-681.251	-58.030	0.270	0.118
-680.237	497.750	0.106	-0.245
-679.222	16.420	-0.231	-0.182
-678.208	-97.189	-0.206	0.054
-677.193	243.177	-0.102	0.172
-676.178	-2.366	-0.146	0.103
-675.164	-68.072	-0.144	-0.056
-674.149	-60.116	-0.175	-0.074
-673.135	586.219	0.008	0.020
-672.120	-200.000	0.024	-0.304
-671.105	800.000	0.097	-0.323
-670.091	-200.000	-0.002	-0.012
-669.076	-13.078	0.166	0.108
-668.062	-7.848	0.101	0.068
-667.047	-125.352	-0.294	-0.045
-666.032	60.913	0.169	0.167
-665.018	-200.000	0.014	0.122
-664.003	-52.164	0.101	-0.047
-662.989	800.000	0.054	0.198
-661.974	-134.309	-0.157	-0.019
-660.959	-200.000	-0.010	-0.077
-659.945	-66.554	-0.240	-0.095
-658.930	-19.492	0.293	-0.181
-657.916	-105.557	-0.370	-0.084
-656.901	-72.751	0.084	-0.031
-655.886	-85.277	-0.160	-0.050
-654.872	800.000	-0.086	0.307
-653.857	155.454	-0.252	0.347
-652.843	-120.333	0.217	-0.037
-651.828	41.017	-0.155	0.139
-650.814	103.731	-0.054	-0.064
-649.799	261.817	-0.059	0.102
-648.784	491.504	-0.076	0.173
-647.770	283.735	-0.289	0.519
-646.755	-124.577	0.105	-0.016
-645.741	105.316	0.085	-0.100
-644.726	800.000	0.072	0.208
-643.711	521.036	-0.164	0.385
-642.697	43.109	0.090	0.082
-641.682	298.702	0.156	0.287
-640.668	242.029	-0.085	-0.142
-639.653	800.000	0.032	-0.111
-638.638	201.147	0.095	-0.146
-637.624	-166.909	-0.170	0.007
-636.609	-106.458	0.253	0.056
-635.595	124.838	-0.243	-0.306
-634.580	800.000	-0.038	-0.157
-633.565	710.496	-0.079	-0.209
-632.551	-19.907	-0.168	-0.104
-631.536	-125.853	-0.097	-0.015
-630.522	-28.352	0.094	-0.054
-629.507	-13.062	0.129	-0.083
-628.492	6.396	0.422	0.313
-627.478	-200.000	0.019	0.299
-626.463	25.176	-0.168	0.139
-625.449	63.355	-0.201	0.201
-624.434	-29.081	-0.203	0.116
-623.419	-200.000	-0.062	0.287
-622.405	345.399	0.106	0.209
-621.390	-47.871	0.152	0.074
-620.376	41.596	0.091	-0.082
-619.361	-158.030	-0.094	-0.005
-618.346	167.733	0.047	-0.067
-617.332	-200.000	0.063	-0.352
-616.317	-76.510	-0.175	0.061
-615.303	-154.068	-0.020	0.001
-614.288	285.195	-0.061	0.109
-613.273	445.498	0.066	0.144
-612.259	-40.163	-0.290	-0.150
-611.244	-176.829	-0.176	0.004
-610.230	-192.976	-0.173	-0.002
-609.215	11.478	-0.191	-0.146
-608.201	-3.382	0.312	0.217
-607.186	800.000	0.195	0.575
-606.171	-200.000	0.019	-0.114
-605.157	-5.970	0.131	0.089
-604.142	47.899	0.054	0.051
-603.128	237.050	0.090	-0.149
-602.113	800.000	-0.130	-0.363
-601.098	1.767	0.087	0.063
-600.084	-26.971	0.095	0.056
-599.069	-45.021	-0.097	-0.048
-598.055	-92.289	0.447	-0.126
-597.040	46.641	-0.133	-0.123
-596.025	-71.152	-0.384	-0.144
-595.011	-82.616	0.112	-0.036
-593.996	103.392	-0.201	0.235
-592.982	-200.000	-0.004	0.140
-591.967	204.300	0.126	0.194
-590.952	28.870	-0.088	-0.074
-589.938	180.801	-0.157	-0.230
-588.923	-136.557	0.235	-0.027
-587.909	-131.891	-0.127	0.017
-586.894	159.647	0.228	-0.316
-585.879	-91.770	0.209	-0.059
-584.865	-142.787	-0.054	-0.005
-583.850	-42.486	0.250	-0.127
-582.836	192.486	0.097	0.145
-581.821	-96.697	-0.283	0.074
-580.806	-34.684	-0.202	-0.110
-579.792	16.285	-0.138	0.109
-578.777	175.719	-0.136	-0.196
-577.763	-42.455	0.213	0.108
-576.748	201.932	0.140	0.214
-575.733	18.951	0.225	-0.180
-574.719	-200.000	-0.001	-0.141
-573.704	324.264	-0.123	0.234
-572.690	113.225	-0.053	-0.064
-571.675	-172.111	-0.136	-0.004
-570.661	611.907	-0.024	0.061
-569.646	-155.857	-0.116	0.007
-568.631	-22.581	-0.051	-0.031
-567.617	-200.000	-0.002	0.071
-566.602	-122.002	0.191	-0.031
-565.588	-200.000	0.020	-0.389
-564.573	-187.244	-0.131	0.002
-563.558	-107.196	0.256	-0.056
-562.544	-143.635	-0.394	-0.037
-561.529	22.552	0.117	-0.095
-560.515	34.128	0.200	-0.173
-559.500	-54.905	-0.138	-0.062
-558.485	-200.000	0.030	-0.294
-557.471	-26.732	0.222	0.129
-556.456	-49.808	0.227	-0.107
-555.442	-28.086	-0.179	0.103
-554.427	800.000	0.077	0.325
-553.412	-73.620	-0.264	-0.096
-552.398	-57.886	0.099	-0.043
-551.383	800.000	-0.055	0.161
-550.369	-33.707	0.268	0.147
-549.354	20.963	-0.185	0.149
-548.339	293.588	0.187	-0.340
-547.325	103.389	0.244	0.285
-546.310	-146.784	-0.345	0.030
-545.296	-200.000	-0.010	-0.265
-544.281	60.363	-0.134	0.132
-543.266	190.554	-0.036	0.054
-542.252	217.247	-0.080	0.127
-541.237	-39.400	0.235	-0.122
-540.223	-15.751	0.164	0.104
-539.208	6.069	-0.058	0.043
-538.193	-22.064	-0.189	0.114
-537.179	206.240	0.159	-0.246
-536.164	61.131	0.045	0.044
-535.150	105.959	-0.159	0.187
-534.135	-200.000	-0.005	0.111
-533.121	427.125	0.099	0.211
-532.106	-200.000	0.012	-0.213
-531.091	-74.614	-0.136	-0.049
-530.077	-114.017	0.097	0.019
-529.062	148.558	-0.170	-0.228
-528.048	188.772	0.228	0.339
-527.033	363.217	-0.045	0.090
-526.018	-99.887	0.060	-0.015
-525.004	26.657	0.076	-0.063
-523.989	203.508	-0.222	-0.342
-522.975	-138.291	-0.152	-0.017
-521.960	161.897	0.113	0.157
-520.945	95.852	0.190	0.216
-519.931	-200.000	-0.025	-0.259
-518.916	-151.788	0.113	-0.008
-517.902	123.669	-0.099	-0.124
-516.887	-200.000	0.020	-0.254
-515.872	-86.940	0.070	0.021
-514.858	-79.998	-0.166	0.055
-513.843	-200.000	0.070	0.420
-512.829	-200.000	0.059	-0.347
-511.814	-200.000	-0.050	0.343
-510.799	800.000	0.079	-0.283
-509.785	89.967	-0.207	-0.229
-508.770	183.182	0.189	0.277
-507.756	62.089	0.166	-0.164
-506.741	-200.000	-0.128	0.000
-505.726	-70.897	-0.070	0.026
-504.712	-136.112	0.374	0.044
-503.697	173.183	-0.289	-0.414
-502.683	-31.023	-0.216	0.121
-501.668	800.000	0.058	-0.226
-500.653	-65.591	-0.113	-0.045
-499.639	-109.563	0.335	0.070
-498.624	286.037	0.019	0.034
-497.610	-105.612	-0.225	-0.051
-496.595	-200.000	0.087	-0.417
-495.581	-130.004	0.152	-0.021
-494.566	429.797	0.030	-0.065
-493.551	521.134	-0.005	-0.011
-492.537	-200.000	-0.024	0.175
-491.522	-71.171	-0.241	-0.090
-490.508	93.666	0.123	0.138
-489.493	-185.643	0.197	0.003
-488.478	-84.487	-0.178	-0.056
-487.464	-111.903	0.164	0.033
-486.449	190.347	-0.062	-0.092
-485.435	85.867	0.078	-0.085
-484.420	-200.000	-0.024	0.204
-483.405	435.246	-0.273	0.589
-482.391	-119.461	0.303	0.052
-481.376	-83.293	-0.345	0.110
-480.362	25.210	-0.167	-0.138
-479.347	72.451	0.196	-0.203
-478.332	-200.000	-0.038	0.200
-477.318	-200.000	-0.014	0.481
-476.303	-128.707	-0.166	0.023
-475.289	5.677	0.106	-0.078
-474.274	-27.071	0.221	-0.128
-473.259	-200.000	-0.000	-0.038
-472.245	-167.848	-0.390	0.015
-471.230	-200.000	-0.019	-0.220
-470.216	-95.638	-0.167	-0.044
-469.201	-200.000	0.082	-0.517
-468.186	-21.825	0.073	-0.044
-467.172	-104.117	0.274	0.063
-466.157	-1.639	-0.362	-0.253
-465.143	22.993	-0.357	-0.290
-464.128	-2.857	0.094	-0.065
-463.113	60.839	-0.178	-0.175
-462.099	-200.000	-0.026	-0.256
-461.084	-45.121	0.323	0.159
-460.070	61.453	-0.101	0.100
-459.055	-10.834	0.146	-0.096
-458.040	-200.000	0.015	0.107
-457.026	-1.302	0.176	-0.123
-456.011	-171.407	0.374	-0.012
-454.997	-96.592	-0.182	0.048
-453.982	-9.265	-0.055	0.037
-452.968	-8.205	0.256	0.171
-451.953	-130.838	0.146	0.019
-450.938	255.735	-0.137	-0.233
-449.924	6.766	0.154	0.114
-448.909	800.000	-0.022	-0.065
-447.895	-39.117	-0.159	0.083
-446.880	-121.939	-0.121	0.020
-445.865	325.053	0.059	0.111
-444.851	197.936	0.157	0.238
-443.836	10.690	-0.282	-0.213
-442.822	111.620	0.190	-0.227
-441.807	331.239	0.085	0.163
-440.792	-200.000	0.012	0.148
-439.778	-66.109	0.242	0.096
-438.763	291.341	0.258	0.465
-437.749	81.333	-0.184	-0.197
-436.734	-102.566	-0.318	0.075
-435.719	432.151	0.073	0.156
-434.705	-79.171	0.344	0.116
-433.690	108.251	0.070	-0.083
-432.676	91.363	0.185	-0.206
-431.661	-75.013	0.098	0.035
-430.646	26.412	-0.195	0.161
-429.632	-52.475	0.075	0.034
-428.617	142.597	0.166	0.218
-427.603	-78.153	-0.175	0.060
-426.588	162.518	0.185	-0.257
-425.573	-62.631	0.151	-0.062
-424.559	78.654	-0.134	0.142
-423.544	-200.000	0.002	0.104
-422.530	-200.000	0.040	-0.192
-421.515	374.309	-0.154	-0.311
-420.500	-78.394	0.316	-0.107
-419.486	-13.134	-0.118	-0.076
-418.471	138.113	0.101	-0.131
-417.457	275.432	0.127	0.223
-416.442	-3.474	-0.240	0.165
-415.428	-92.925	-0.143	0.039
-414.413	-52.076	0.111	0.051
-413.398	-200.000	-0.002	0.045
-412.384	-137.602	-0.008	-0.001
-411.369	-160.571	-0.212	-0.011
-410.355	135.967	-0.171	-0.221
-409.340	-22.261	-0.098	-0.059
-408.325	-122.884	0.076	0.012
-407.311	68.590	0.118	-0.120
-406.296	48.001	-0.073	-0.067
-405.282	734.774	-0.066	0.175
-404.267	-200.000	0.000	-0.072
-403.252	-37.986	-0.145	-0.076
-402.238	-28.589	-0.164	0.094
-401.223	306.664	-0.068	0.126
-400.209	663.883	0.028	-0.070
-399.194	237.367	0.236	-0.387
-398.179	-65.064	-0.148	-0.059
-397.165	-84.521	0.037	0.012
-396.150	-105.021	-0.149	0.034
-395.136	-97.751	0.160	0.041
-394.121	-134.909	-0.213	-0.026
-393.106	800.000	0.050	-0.191
-392.092	-185.968	0.305	-0.004
-391.077	300.843	0.101	0.184
-390.063	-20.693	0.153	-0.093
-389.048	161.228	0.104	0.144
-388.033	-200.000	-0.021	-0.218
-387.019	-200.000	0.012	-0.112
-386.004	-54.366	0.048	-0.022
-384.990	-131.422	-0.248	0.032
-383.975	800.000	0.115	0.322
-382.960	-33.954	0.301	0.164
-381.946	210.118	-0.175	0.272
-380.931	44.149	-0.082	0.074
-379.917	189.398	0.092	0.136
-378.902	390.616	-0.095	0.194
-377.888	72.509	0.128	0.132
-376.873	214.071	-0.100	0.156
-375.858	-200.000	-0.010	-0.170
-374.844	296.544	-0.076	0.138
-373.829	295.396	-0.063	-0.114
-372.815	-117.265	-0.386	0.069
-371.800	34.605	-0.033	0.028
-370.785	137.380	-0.209	0.270
-369.771	186.899	-0.328	-0.483
-368.756	-200.000	0.010	-0.246
-367.742	135.227	-0.193	-0.248
-366.727	800.000	0.086	-0.266
-365.712	12.457	-0.088	-0.067
-364.698	800.000	-0.089	0.274
-363.683	800.000	0.133	0.377
-362.669	25.815	-0.284	-0.233
-361.654	117.912	-0.077	-0.094
-360.639	-103.542	0.357	-0.083
-359.625	800.000	0.072	-0.196
-358.610	-200.000	0.008	0.133
-357.596	800.000	-0.080	0.227
-356.581	4.802	-0.161	0.117
-355.566	-112.961	-0.165	-0.032
-354.552	140.522	0.199	0.259
-353.537	79.696	-0.126	-0.133
-352.523	562.100	0.082	-0.195
-351.508	239.172	-0.033	0.053
-350.493	800.000	0.078	0.262
-349.479	-70.908	-0.026	-0.009
-348.464	66.282	-0.318	-0.319
-347.450	-80.712	0.161	0.053
-346.435	-136.620	-0.287	0.033
-345.420	-95.218	0.097	-0.026
-344.406	554.181	0.043	0.101
-343.391	227.772	-0.016	0.025
-342.377	222.557	-0.135	0.214
-341.362	-73.462	-0.293	0.106
-340.348	151.431	-0.154	0.207
-339.333	187.643	0.150	0.221
-338.318	314.020	-0.130	0.242
-337.304	-69.466	-0.300	-0.113
-336.289	619.734	0.079	-0.196
-335.275	-75.404	-0.196	-0.069
-334.260	800.000	0.059	-0.249
-333.245	-38.919	0.225	-0.117
-332.231	90.179	0.187	-0.206
-331.216	800.000	0.005	0.016
-330.202	800.000	-0.100	0.303
-329.187	121.774	0.179	0.220
-328.172	-82.844	-0.067	-0.021
-327.158	706.666	0.080	0.208
-326.143	-133.502	0.274	-0.034
-325.129	403.326	-0.041	-0.085
-324.114	-5.998	0.209	0.141
-323.099	-200.000	-0.014	-0.428
-322.085	121.114	-0.087	-0.107
-321.070	41.657	-0.049	-0.044
-320.056	-200.000	-0.022	-0.287
-319.041	-32.430	-0.193	-0.106
-318.026	-52.244	0.182	0.083
-317.012	45.993	0.083	0.075
-315.997	184.922	0.160	-0.235
-314.983	-200.000	-0.061	-0.325
-313.968	171.990	-0.330	-0.468
-312.953	-200.000	-0.003	-0.103
-311.939	127.200	0.114	-0.142
-310.924	-88.880	-0.175	0.051
-309.910	174.821	-0.101	-0.143
-308.895	800.000	0.045	-0.154
-307.880	-138.745	-0.170	0.018
-306.866	-200.000	-0.012	0.469
-305.851	-165.264	-0.142	0.006
-304.837	-88.229	-0.211	0.062
-303.822	-109.121	0.172	-0.036
-302.807	-38.166	-0.161	-0.084
-301.793	41.159	0.295	-0.263
-300.778	103.738	-0.286	0.331
-299.764	-65.845	0.043	0.017
-298.749	-58.451	0.253	-0.108
-297.735	-81.670	0.239	-0.077
-296.720	86.289	0.143	-0.155
-295.705	-113.012	0.192	-0.037
-294.691	106.924	0.161	-0.188
-293.676	800.000	0.049	-0.188
-292.662	335.859	-0.137	0.261
-291.647	-200.000	0.141	-0.649
-290.632	-200.000	0.014	-0.179
-289.618	477.228	0.185	0.413
-288.603	80.035	-0.189	0.200
-287.589	-200.000	0.014	0.065
-286.574	-92.189	0.186	0.052
-285.559	-43.223	-0.101	0.050
-284.545	-97.344	-0.687	-0.176
-283.530	-65.827	0.278	-0.110
-282.516	297.235	0.100	-0.181
-281.501	-200.000	0.008	-0.133
-280.486	521.136	-0.063	0.146
-279.472	-200.000	0.004	-0.104
-278.457	176.628	-0.085	0.121
-277.443	-200.000	-0.020	-0.153
-276.428	-27.294	-0.072	-0.041
-275.413	218.037	0.107	0.167
-274.399	616.542	0.024	0.058
-273.384	-65.562	0.185	0.073
-272.370	96.940	0.188	-0.212
-271.355	84.979	0.047	0.051
-270.340	-200.000	0.070	-0.316
-269.326	355.213	-0.056	-0.109
-268.311	-200.000	0.037	-0.403
-267.297	-95.062	-0.124	-0.033
-266.282	93.381	0.169	0.188
-265.267	494.804	0.071	-0.160
-264.253	-54.544	-0.064	-0.028
-263.238	4.673	-0.173	0.125
-262.224	231.738	0.148	-0.239
-261.209	-71.624	-0.086	-0.032
-260.195	-133.793	-0.299	-0.037
-259.180	-81.932	-0.148	-0.048
-258.165	-66.019	0.365	0.143
-257.151	800.000	-0.076	0.234
-256.136	132.959	0.259	0.329
-255.122	777.252	0.082	0.219
-254.107	-200.000	-0.046	-0.552
-253.092	-176.838	-0.200	0.005
-252.078	-200.000	0.028	-0.396
-251.063	-200.000	-0.016	0.189
-250.049	441.456	0.068	0.146
-249.034	-48.193	-0.495	0.235
-248.019	100.925	0.084	0.096
-247.005	564.499	-0.167	0.399
-245.990	34.504	0.337	0.289
-244.976	336.585	0.081	0.155
-243.961	-109.758	0.332	-0.069
-242.946	75.721	0.095	-0.099
-241.932	-200.000	0.015	-0.202
-240.917	-186.705	-0.294	-0.004
-239.903	94.496	0.195	-0.218
-238.888	-200.000	-0.065	0.347
-237.873	398.304	-0.099	-0.203
-236.859	-63.393	0.100	0.041
-235.844	-72.098	-0.159	0.058
-234.830	7.157	-0.245	0.180
-233.815	61.762	-0.132	0.130
-232.800	-59.528	-0.132	0.056
-231.786	406.211	-0.094	-0.194
-230.771	-7.366	-0.075	0.050
-229.757	-119.348	-0.143	0.024
-228.742	100.017	0.183	0.208
-227.727	423.998	-0.082	0.174
-226.713	-86.680	-0.032	-0.010
-225.698	201.262	-0.039	-0.059
-224.684	-200.000	-0.019	-0.219
-223.669	700.733	-0.072	0.186
-222.655	800.000	-0.016	0.051
-221.640	9.146	0.079	-0.059
-220.625	-200.000	-0.086	0.441
-219.611	14.227	-0.137	-0.105
-218.596	-55.836	0.329	-0.145
-217.582	-44.034	-0.081	0.040
-216.567	-200.000	-0.006	-0.073
-215.552	-46.119	0.139	0.067
-214.538	286.191	0.186	-0.329
-213.523	395.071	-0.112	0.229
-212.509	145.604	-0.171	-0.225
-211.494	800.000	0.060	-0.231
-210.479	51.155	0.294	-0.274
-209.465	-200.000	0.017	-0.114
-208.450	-200.000	0.030	-0.154
-207.436	-200.000	-0.003	-0.096
-206.421	100.556	-0.165	-0.188
-205.406	-200.000	-0.004	0.176
-204.392	7.301	-0.215	-0.158
-203.377	52.560	-0.234	-0.219
-202.363	-200.000	0.004	0.095
-201.348	719.588	0.042	0.109
-200.333	46.856	0.203	-0.185
-199.319	-90.081	0.298	-0.085
-198.304	800.000	0.090	-0.259
-197.290	-26.800	-0.137	0.078
-196.275	800.000	0.068	0.231
-195.260	-33.293	-0.079	-0.043
-194.246	-200.000	0.052	0.264
-193.231	-92.762	0.031	-0.008
-192.217	752.189	-0.130	-0.343
-191.202	580.341	0.119	0.287
-190.187	-47.399	0.269	-0.128
-189.173	-200.000	0.026	0.533
-188.158	-14.700	-0.620	0.390
-187.144	408.015	-0.059	0.122
-186.129	-79.573	0.523	0.173
-185.114	108.580	-0.209	0.245
-184.100	290.021	0.260	0.462
-183.085	14.372	0.009	0.007
-182.071	132.324	-0.061	-0.077
-181.056	-53.374	0.358	-0.161
-180.042	95.531	-0.210	-0.234
-179.027	19.180	0.040	-0.032
-178.012	260.963	-0.163	0.276
-176.998	511.125	-0.047	0.106
-175.983	-149.996	0.075	0.006
-174.969	-4.180	0.222	-0.150
-173.954	-102.548	0.275	0.064
-172.939	-152.233	0.232	0.016
-171.925	-69.562	0.130	-0.049
-170.910	75.605	0.043	0.044
-169.896	-75.578	0.198	-0.069
-168.881	207.060	0.097	0.148
-167.866	179.808	0.104	0.149
-166.852	-173.617	-0.293	0.009
-165.837	-200.000	0.011	-0.268
-164.823	-142.323	-0.230	0.022
-163.808	-68.546	0.028	-0.011
-162.793	-44.335	0.072	0.035
-161.779	-88.133	-0.336	-0.099
-160.764	337.128	0.135	0.257
-159.750	-58.586	-0.210	-0.089
-158.735	800.000	0.058	0.202
-157.720	-200.000	0.057	-0.299
-156.706	368.339	-0.132	0.261
-155.691	341.761	0.196	0.375
-154.677	7.126	0.182	0.133
-153.662	800.000	0.072	0.285
-152.647	-200.000	-0.030	-0.247
-151.633	-200.000	0.026	-0.134
-150.618	-105.902	-0.351	0.078
-149.604	-30.677	-0.129	-0.072
-148.589	-186.546	0.351	0.005
-147.574	475.013	-0.070	0.156
-146.560	517.873	-0.083	-0.190
-145.545	-41.110	0.179	0.091
-144.531	544.027	-0.038	0.090
-143.516	387.430	-0.116	-0.236
-142.502	233.183	-0.033	0.052
-141.487	-200.000	0.003	0.398
-140.472	-2.991	0.158	-0.108
-139.458	-200.000	-0.075	0.351
-138.443	126.369	0.249	0.309
-137.429	-20.336	0.104	0.063
-136.414	-56.109	-0.324	-0.141
-135.399	543.798	0.053	-0.124
-134.385	-18.912	0.273	0.167
-133.370	-200.000	-0.062	0.429
-132.356	-200.000	0.054	0.458
-131.341	-200.000	0.009	0.131
-130.326	-88.997	0.268	-0.078
-129.312	-134.588	-0.111	0.013
-128.297	-16.632	-0.056	0.035
-127.283	-69.241	0.206	0.077
-126.268	-91.525	-0.244	-0.068
-125.253	-164.032	-0.136	0.006
-124.239	-127.247	-0.030	-0.004
-123.224	-100.116	-0.408	-0.099
-122.210	156.378	-0.059	0.079
-121.195	530.951	0.233	0.539
