DTS Sentinel unit serial number:	SN413079Multiplexer serial number:	ORYXHardware model number:	OX4-SRSoftware version number:	ORYX F/W v4.00 Oryx Data Collector v3.7.2.0data status	okinstallation	princeton_trtdifferential loss correction	single-endedforward channel	channel 3reverse channel	N/Adate	2019/09/10time	21:50:11forward acquisition time	60.00reverse acquisition time	0.00gamma	496.2192k internal	0.2329k external	0.2329temperature offset calibration	0.9917default loss term (dB/km)	0.3790temperature slope calibration	1.0000multiplexer offset coefficient	1.0000multiplexer slope coefficient	1.0000fibre end	0.00T internal ref (°C)	30.81T ext. ref 1 (°C)	-0.32T ext. ref 2 (°C)	24.03length (m)	temperature (°C)	Stokes	anti-Stokes-747.200	-91.048	0.097	-0.028
-746.185	-121.766	-0.075	0.013
-745.171	-29.218	-0.276	0.159
-744.156	289.722	0.214	0.392
-743.142	800.000	0.051	0.154
-742.127	124.342	-0.268	0.340
-741.112	360.641	-0.096	0.193
-740.098	-200.000	0.020	0.198
-739.083	44.212	0.189	-0.175
-738.069	400.097	-0.122	0.258
-737.054	490.690	0.076	0.176
-736.039	679.398	0.025	0.065
-735.025	40.789	0.220	-0.199
-734.010	-106.110	-0.090	0.020
-732.996	137.935	-0.241	-0.318
-731.981	-6.793	-0.146	-0.100
-730.966	-85.113	-0.224	0.071
-729.952	-200.000	-0.001	0.135
-728.937	766.010	0.020	0.054
-727.923	222.213	-0.150	-0.243
-726.908	-36.197	0.234	0.127
-725.894	-200.000	0.008	-0.135
-724.879	-200.000	0.014	0.128
-723.864	-200.000	-0.017	0.222
-722.850	-66.763	0.068	0.027
-721.835	-111.214	-0.225	-0.046
-720.821	29.447	-0.354	0.303
-719.806	-169.810	0.417	0.015
-718.791	-200.000	-0.035	-0.326
-717.777	800.000	-0.047	0.149
-716.762	23.690	-0.276	-0.229
-715.748	166.540	-0.158	-0.226
-714.733	221.958	0.065	0.105
-713.718	1.577	-0.125	0.090
-712.704	-24.791	-0.062	0.037
-711.689	78.102	0.134	-0.144
-710.675	256.009	-0.107	0.184
-709.660	-84.631	-0.258	-0.082
-708.645	800.000	-0.101	-0.377
-707.631	47.279	0.145	-0.136
-706.616	306.370	0.073	0.137
-705.602	-200.000	0.007	-0.090
-704.587	-9.896	-0.235	0.157
-703.572	141.656	0.026	0.034
-702.558	14.597	0.131	0.103
-701.543	337.758	0.037	0.073
-700.529	-151.085	0.237	-0.018
-699.514	-200.000	0.044	-0.485
-698.499	125.480	0.234	0.297
-697.485	-200.000	0.017	0.319
-696.470	776.855	-0.145	-0.399
-695.456	244.904	0.144	-0.243
-694.441	-200.000	-0.008	-0.249
-693.426	-197.426	-0.576	-0.004
-692.412	-57.419	0.412	-0.182
-691.397	-200.000	0.042	-0.244
-690.383	-96.867	-0.162	0.043
-689.368	-200.000	-0.039	-0.261
-688.354	83.423	0.299	-0.327
-687.339	5.854	-0.124	-0.092
-686.324	84.377	0.204	-0.224
-685.310	-200.000	0.019	0.095
-684.295	800.000	-0.004	0.017
-683.281	128.197	-0.098	0.125
-682.266	-50.171	-0.248	0.118
-681.251	8.370	0.133	-0.101
-680.237	800.000	0.052	-0.175
-679.222	-27.182	0.335	-0.196
-678.208	-200.000	-0.010	-0.216
-677.193	192.307	-0.197	0.299
-676.178	74.050	0.097	0.102
-675.164	-164.971	-0.134	-0.006
-674.149	-162.669	-0.171	-0.008
-673.135	-5.069	0.165	0.114
-672.120	22.881	-0.361	-0.297
-671.105	-200.000	0.014	-0.327
-670.091	157.510	-0.174	-0.242
-669.076	50.223	0.055	-0.052
-668.062	317.543	0.154	-0.293
-667.047	108.749	-0.123	-0.148
-666.032	-118.658	0.249	0.044
-665.018	800.000	-0.020	-0.072
-664.003	-200.000	-0.053	0.293
-662.989	331.208	-0.105	0.202
-661.974	-200.000	0.037	-0.191
-660.959	-200.000	0.030	0.280
-659.945	-45.804	0.082	0.041
-658.930	-29.597	-0.133	-0.076
-657.916	-108.411	0.206	-0.045
-656.901	-98.973	-0.135	0.034
-655.886	7.084	-0.152	-0.114
-654.872	432.221	0.097	-0.210
-653.857	-123.120	-0.393	0.063
-652.843	-139.454	0.143	0.015
-651.828	-82.542	-0.238	0.078
-650.814	318.535	-0.022	0.041
-649.799	284.476	0.072	-0.129
-648.784	-160.447	0.128	-0.007
-647.770	-200.000	0.067	-0.343
-646.755	33.077	-0.265	0.231
-645.741	-98.064	0.430	-0.111
-644.726	-132.904	0.258	-0.033
-643.711	550.854	-0.082	-0.196
-642.697	800.000	-0.117	-0.341
-641.682	-51.314	0.209	-0.098
-640.668	800.000	-0.007	-0.028
-639.653	113.098	0.210	0.256
-638.638	1.294	0.170	-0.123
-637.624	800.000	-0.031	0.097
-636.609	-159.618	-0.257	-0.014
-635.595	800.000	0.106	0.340
-634.580	-200.000	0.013	-0.093
-633.565	371.208	-0.142	0.290
-632.551	168.136	-0.231	0.329
-631.536	116.191	0.124	-0.153
-630.522	-200.000	0.013	-0.216
-629.507	-200.000	0.015	-0.202
-628.492	-108.357	0.264	0.057
-627.478	53.714	-0.275	-0.264
-626.463	348.338	-0.080	0.159
-625.449	175.458	0.117	-0.170
-624.434	221.937	-0.106	0.171
-623.419	170.369	-0.232	-0.332
-622.405	191.567	0.345	-0.520
-621.390	235.651	0.208	-0.345
-620.376	51.619	-0.151	0.144
-619.361	800.000	-0.080	-0.223
-618.346	-68.122	0.131	0.051
-617.332	624.912	0.076	-0.192
-616.317	-130.725	0.219	-0.029
-615.303	800.000	-0.090	0.285
-614.288	-101.267	-0.163	0.040
-613.273	25.174	0.110	-0.091
-612.259	180.895	0.109	-0.161
-611.244	96.809	0.165	-0.190
-610.230	-54.298	0.077	-0.035
-609.215	-151.100	-0.258	-0.019
-608.201	-86.506	-0.149	0.046
-607.186	-200.000	-0.020	0.164
-606.171	-200.000	0.006	-0.194
-605.157	265.613	0.099	0.173
-604.142	15.017	0.109	-0.086
-603.128	677.297	-0.069	0.180
-602.113	58.650	0.151	0.149
-601.098	29.427	0.205	0.175
-600.084	45.940	0.413	-0.382
-599.069	88.898	0.102	0.113
-598.055	800.000	0.070	-0.261
-597.040	172.820	0.050	-0.072
-596.025	121.545	-0.044	0.055
-595.011	-150.724	0.156	0.012
-593.996	800.000	-0.109	-0.306
-592.982	102.815	0.176	-0.206
-591.967	325.087	-0.053	0.101
-590.952	373.806	-0.094	-0.192
-589.938	800.000	0.062	-0.194
-588.923	28.736	-0.098	0.083
-587.909	-200.000	0.257	0.000
-586.894	-91.359	0.261	-0.075
-585.879	-200.000	0.041	-0.180
-584.865	-120.934	0.107	-0.018
-583.850	-200.000	0.020	-0.107
-582.836	-63.920	0.609	-0.249
-581.821	29.058	0.082	0.070
-580.806	-103.948	0.127	0.030
-579.792	-200.000	-0.078	0.373
-578.777	800.000	-0.094	0.271
-577.763	-2.909	0.146	0.102
-576.748	-20.347	-0.224	0.138
-575.733	-42.590	0.221	-0.113
-574.719	800.000	-0.036	0.154
-573.704	-56.174	0.269	0.120
-572.690	64.140	0.202	-0.203
-571.675	-31.280	-0.047	-0.026
-570.661	-86.534	-0.321	0.099
-569.646	-79.326	-0.086	-0.029
-568.631	461.028	-0.024	-0.053
-567.617	-200.000	-0.038	-0.264
-566.602	266.031	-0.042	0.073
-565.588	-178.022	-0.183	-0.004
-564.573	-200.000	-0.036	-0.212
-563.558	-21.078	0.050	0.030
-562.544	-131.929	0.065	0.008
-561.529	-200.000	0.068	0.389
-560.515	-127.904	0.262	0.038
-559.500	522.287	-0.133	-0.313
-558.485	-105.868	-0.071	-0.016
-557.471	-81.706	0.208	0.068
-556.456	172.985	-0.112	-0.161
-555.442	-55.443	0.504	-0.226
-554.427	140.188	-0.172	0.227
-553.412	-48.106	-0.373	-0.180
-552.398	-200.000	-0.007	0.274
-551.383	800.000	-0.055	0.175
-550.369	-200.000	-0.025	0.277
-549.354	-106.489	0.051	-0.011
-548.339	800.000	-0.019	0.065
-547.325	322.606	0.110	-0.210
-546.310	-91.714	0.327	0.093
-545.296	56.943	-0.142	0.138
-544.281	-53.043	-0.181	0.083
-543.266	165.771	-0.168	-0.237
-542.252	-92.150	-0.266	-0.075
-541.237	-88.583	0.117	0.035
-540.223	-200.000	-0.206	0.000
-539.208	-200.000	0.002	0.123
-538.193	271.311	0.072	-0.127
-537.179	-51.180	0.074	-0.034
-536.164	800.000	0.009	-0.031
-535.150	-132.629	0.226	0.029
-534.135	-158.345	0.225	-0.013
-533.121	106.301	0.298	-0.352
-532.106	-200.000	-0.029	-0.198
-531.091	-200.000	-0.004	-0.320
-530.077	-91.221	-0.143	0.041
-529.062	800.000	0.086	0.254
-528.048	184.890	0.087	0.129
-527.033	-128.118	-0.286	-0.041
-526.018	199.661	-0.207	0.317
-525.004	-75.401	-0.190	0.068
-523.989	-68.978	0.260	-0.100
-522.975	49.452	0.081	0.076
-521.960	21.802	-0.110	-0.089
-520.945	-48.556	-0.061	0.029
-519.931	-100.545	0.214	-0.053
-518.916	56.144	-0.045	-0.043
-517.902	-65.238	-0.112	-0.045
-516.887	-152.223	-0.216	-0.016
-515.872	-154.698	0.024	-0.002
-514.858	800.000	-0.082	0.249
-513.843	-200.000	0.044	0.249
-512.829	9.874	-0.243	0.184
-511.814	283.385	-0.120	0.215
-510.799	87.454	-0.182	-0.201
-509.785	555.499	0.195	0.468
-508.770	91.385	-0.157	0.176
-507.756	-200.000	-0.450	-0.002
-506.741	612.988	0.066	-0.164
-505.726	-163.216	-0.173	-0.008
-504.712	-81.137	0.134	0.044
-503.697	190.025	0.111	-0.166
-502.683	800.000	0.021	0.089
-501.668	-159.279	-0.141	0.008
-500.653	-200.000	0.023	-0.440
-499.639	682.386	-0.043	0.112
-498.624	547.757	0.052	-0.124
-497.610	-200.000	-0.011	-0.070
-496.595	28.749	0.105	-0.089
-495.581	-200.000	-0.014	-0.230
-494.566	38.223	-0.286	0.254
-493.551	286.223	0.119	-0.214
-492.537	311.381	-0.098	-0.183
-491.522	-200.000	-0.019	-0.142
-490.508	142.750	-0.116	-0.154
-489.493	16.110	-0.338	-0.266
-488.478	153.588	-0.160	-0.218
-487.464	-102.224	-0.267	-0.064
-486.449	-121.621	-0.182	-0.030
-485.435	412.067	0.018	-0.038
-484.420	-102.439	0.138	0.033
-483.405	92.468	-0.109	0.122
-482.391	488.481	0.033	0.075
-481.376	204.187	0.231	-0.356
-480.362	-61.953	-0.355	-0.148
-479.347	-83.552	0.227	0.072
-478.332	-122.699	0.367	0.059
-477.318	117.166	0.139	-0.171
-476.303	6.481	0.181	0.134
-475.289	433.187	0.067	0.145
-474.274	-76.859	0.363	-0.127
-473.259	-155.271	0.222	0.014
-472.245	-200.000	-0.021	-0.122
-471.230	-200.000	-0.004	0.347
-470.216	365.207	0.130	0.261
-469.201	52.988	-0.201	0.191
-468.186	-107.493	-0.142	0.031
-467.172	26.395	-0.261	0.217
-466.157	216.675	0.086	-0.136
-465.143	111.816	-0.212	0.255
-464.128	3.011	-0.307	-0.223
-463.113	-21.684	-0.268	0.163
-462.099	-68.833	-0.153	-0.059
-461.084	-112.775	0.255	0.050
-460.070	71.173	-0.153	-0.158
-459.055	800.000	0.008	-0.030
-458.040	-200.000	-0.011	0.051
-457.026	-200.000	0.014	-0.223
-456.011	19.625	0.063	0.051
-454.997	-47.507	0.143	-0.069
-453.982	530.510	-0.062	0.146
-452.968	24.633	0.175	-0.144
-451.953	800.000	0.041	0.173
-450.938	607.220	0.060	0.149
-449.924	1.495	0.245	0.175
-448.909	29.547	-0.218	-0.185
-447.895	-134.480	-0.200	-0.024
-446.880	-120.815	-0.102	-0.017
-445.865	-13.828	-0.164	0.105
-444.851	-28.528	0.281	-0.161
-443.836	-149.684	-0.139	0.011
-442.822	30.976	0.162	0.139
-441.807	25.083	0.161	-0.133
-440.792	-40.508	0.171	0.088
-439.778	-200.000	0.024	-0.181
-438.763	-200.000	0.054	-0.312
-437.749	186.401	-0.033	0.049
-436.734	-189.020	-0.101	0.001
-435.719	0.639	-0.029	-0.021
-434.705	-76.316	-0.250	0.087
-433.690	800.000	-0.046	0.157
-432.676	59.023	-0.042	0.041
-431.661	-200.000	-0.036	-0.311
-430.646	131.103	-0.042	-0.053
-429.632	681.370	0.045	-0.117
-428.617	31.436	-0.070	-0.060
-427.603	10.097	-0.285	0.215
-426.588	280.078	-0.082	-0.145
-425.573	7.613	-0.047	0.035
-424.559	137.710	-0.182	0.236
-423.544	-200.000	-0.033	-0.205
-422.530	-117.223	0.028	0.005
-421.515	-60.485	0.228	0.096
-420.500	-52.036	0.165	0.076
-419.486	146.021	0.054	-0.072
-418.471	-79.268	0.426	-0.144
-417.457	78.471	-0.226	0.240
-416.442	-65.404	-0.206	0.082
-415.428	-89.994	0.417	-0.121
-414.413	-200.000	-0.017	-0.089
-413.398	-129.542	0.255	-0.035
-412.384	275.132	-0.151	-0.267
-411.369	-96.955	0.140	-0.037
-410.355	-195.265	-0.361	0.003
-409.340	-31.481	0.111	-0.062
-408.325	-200.000	-0.015	-0.187
-407.311	-200.000	0.031	0.283
-406.296	800.000	0.092	-0.285
-405.282	290.914	-0.153	0.276
-404.267	263.707	-0.193	0.333
-403.252	-126.584	-0.213	0.031
-402.238	-38.225	-0.268	-0.141
-401.223	151.497	0.113	-0.152
-400.209	171.885	0.057	0.081
-399.194	-36.933	-0.218	-0.116
-398.179	800.000	0.133	-0.401
-397.165	772.265	-0.104	-0.282
-396.150	215.829	-0.108	0.171
-395.136	800.000	-0.100	-0.302
-394.121	-200.000	0.039	0.238
-393.106	90.073	-0.097	-0.107
-392.092	-200.000	-0.012	0.354
-391.077	-47.696	0.110	0.053
-390.063	115.413	0.004	0.004
-389.048	800.000	-0.025	-0.069
-388.033	109.381	-0.099	-0.118
-387.019	47.944	-0.103	-0.096
-386.004	-26.080	0.113	0.066
-384.990	-200.000	0.003	-0.310
-383.975	-61.761	0.107	0.045
-382.960	-19.497	0.233	0.143
-381.946	800.000	0.019	0.079
-380.931	276.152	-0.096	0.169
-379.917	-200.000	-0.013	0.173
-378.902	33.802	0.181	0.156
-377.888	1.898	-0.095	-0.068
-376.873	325.272	-0.238	-0.451
-375.858	-200.000	0.018	0.083
-374.844	157.218	-0.036	-0.049
-373.829	45.522	0.108	-0.099
-372.815	-200.000	-0.061	-0.267
-371.800	156.613	0.208	-0.285
-370.785	509.109	-0.038	-0.089
-369.771	-200.000	-0.003	-0.168
-368.756	52.354	-0.160	-0.151
-367.742	167.440	-0.112	0.158
-366.727	-43.957	0.420	0.210
-365.712	800.000	0.103	0.311
-364.698	-56.821	-0.289	-0.127
-363.683	-106.142	0.272	-0.061
-362.669	-84.135	0.078	-0.025
-361.654	-88.409	0.099	-0.029
-360.639	163.141	-0.069	0.096
-359.625	-200.000	-0.004	0.082
-358.610	-57.007	0.281	0.123
-357.596	22.015	-0.362	-0.293
-356.581	-138.100	0.252	-0.028
-355.566	-88.807	-0.270	0.079
-354.552	800.000	-0.090	-0.259
-353.537	-109.404	-0.274	-0.057
-352.523	-93.381	-0.116	-0.032
-351.508	-200.000	-0.014	0.190
-350.493	800.000	0.102	0.386
-349.479	-200.000	-0.027	0.190
-348.464	150.099	0.018	-0.025
-347.450	-122.465	-0.434	-0.070
-346.435	81.454	-0.146	0.157
-345.420	34.319	-0.265	0.229
-344.406	-200.000	0.007	0.172
-343.391	-122.760	-0.095	0.015
-342.377	-81.553	0.122	-0.040
-341.362	-200.000	0.005	-0.111
-340.348	800.000	0.045	-0.187
-339.333	-53.861	-0.069	0.031
-338.318	587.207	0.077	0.188
-337.304	458.336	-0.128	0.282
-336.289	-80.035	-0.168	0.056
-335.275	-200.000	-0.017	-0.366
-334.260	-85.699	0.194	0.060
-333.245	357.233	-0.041	-0.080
-332.231	-158.073	0.289	-0.017
-331.216	-48.102	-0.150	0.072
-330.202	-67.161	0.037	-0.014
-329.187	-167.624	-0.204	0.008
-328.172	2.440	0.189	0.135
-327.158	-200.000	-0.015	-0.112
-326.143	-68.590	0.179	0.069
-325.129	-200.000	0.024	0.107
-324.114	59.940	-0.117	0.115
-323.099	-19.281	-0.159	-0.098
-322.085	-33.192	-0.073	-0.040
-321.070	-126.014	0.155	-0.023
-320.056	-78.972	0.209	-0.071
-319.041	36.433	0.114	0.099
-318.026	-200.000	-0.026	0.281
-317.012	332.755	0.271	0.519
-315.997	315.872	0.087	0.163
-314.983	54.614	0.200	-0.191
-313.968	800.000	0.044	0.159
-312.953	-86.414	0.231	-0.070
-311.939	128.553	0.108	0.136
-310.924	271.589	-0.097	0.170
-309.910	-114.583	0.226	-0.043
-308.895	800.000	0.039	-0.167
-307.880	50.963	-0.058	-0.055
-306.866	75.952	-0.201	-0.210
-305.851	488.871	0.103	0.233
-304.837	-200.000	-0.031	-0.374
-303.822	363.728	0.141	-0.280
-302.807	144.887	-0.290	-0.384
-301.793	-200.000	0.015	-0.281
-300.778	465.905	-0.029	-0.063
-299.764	-186.965	0.134	-0.002
-298.749	667.042	0.056	0.144
-297.735	-146.587	0.291	0.025
-296.720	737.838	0.013	0.035
-295.705	255.431	-0.125	0.212
-294.691	-3.059	0.259	-0.179
-293.676	-100.570	-0.171	-0.042
-292.662	49.585	0.167	0.155
-291.647	47.132	0.086	-0.079
-290.632	-17.894	0.107	0.067
-289.618	184.605	0.034	-0.050
-288.603	120.113	-0.288	0.353
-287.589	-33.907	0.325	0.177
-286.574	175.945	0.138	0.198
-285.559	76.045	-0.150	0.157
-284.545	15.378	-0.192	0.149
-283.530	800.000	0.043	0.150
-282.516	-180.136	0.134	-0.003
-281.501	-131.284	-0.094	-0.012
-280.486	-200.000	0.024	0.303
-279.472	107.354	-0.080	0.094
-278.457	-73.702	0.103	0.037
-277.443	-6.955	-0.153	0.103
-276.428	366.839	0.082	0.164
-275.413	-200.000	-0.016	0.196
-274.399	606.981	0.037	-0.092
-273.384	62.415	-0.106	0.104
-272.370	800.000	0.018	0.069
-271.355	-200.000	-0.030	0.214
-270.340	490.866	-0.088	-0.200
-269.326	-146.874	-0.146	0.012
-268.311	27.059	0.415	0.344
-267.297	800.000	0.055	0.200
-266.282	800.000	0.043	0.122
-265.267	-97.075	-0.211	0.055
-264.253	120.398	0.132	0.162
-263.238	74.800	0.071	0.074
-262.224	-67.714	-0.059	-0.023
-261.209	42.169	0.336	0.301
-260.195	21.082	0.115	-0.092
-259.180	-142.755	0.141	-0.014
-258.165	388.897	0.104	0.213
-257.151	101.655	-0.228	-0.263
-256.136	-28.625	-0.145	-0.082
-255.122	-121.525	-0.226	-0.037
-254.107	13.760	0.075	-0.057
-253.092	127.379	0.022	-0.028
-252.078	-35.942	-0.300	0.160
-251.063	91.917	-0.079	-0.088
-250.049	-200.000	-0.002	-0.057
-249.034	57.550	-0.044	-0.042
-248.019	-162.647	-0.322	0.016
-247.005	77.075	-0.237	-0.248
-245.990	800.000	-0.077	-0.223
-244.976	153.340	-0.194	-0.262
-243.961	800.000	-0.030	-0.126
-242.946	10.006	0.128	0.096
-241.932	619.836	0.123	-0.306
-240.917	-56.797	0.104	-0.045
-239.903	192.881	-0.129	0.193
-238.888	-28.492	0.253	0.144
-237.873	609.525	-0.086	0.212
-236.859	376.542	-0.068	-0.138
-235.844	88.311	0.083	-0.091
-234.830	519.772	-0.098	0.227
-233.815	800.000	-0.052	-0.149
-232.800	-200.000	-0.036	0.214
-231.786	-46.353	-0.039	0.019
-230.771	-200.000	0.006	0.269
-229.757	-39.902	0.077	-0.040
-228.742	-37.325	0.351	-0.185
-227.727	3.981	-0.177	0.127
-226.713	197.603	-0.110	0.165
-225.698	-200.000	-0.008	0.266
-224.684	8.036	-0.191	-0.142
-223.669	-200.000	0.001	0.095
-222.655	319.611	-0.146	0.272
-221.640	66.966	-0.086	0.087
-220.625	38.133	0.283	0.249
-219.611	-158.445	0.081	0.005
-218.596	-53.483	0.214	-0.097
-217.582	-29.351	0.102	-0.058
-216.567	53.242	0.105	0.099
-215.552	130.183	0.055	-0.069
-214.538	101.899	-0.182	0.209
-213.523	-200.000	-0.015	0.234
-212.509	800.000	-0.075	0.295
-211.494	-200.000	0.064	0.438
-210.479	-60.117	-0.186	0.078
-209.465	-10.519	-0.172	-0.112
-208.450	-32.035	-0.035	-0.019
-207.436	537.073	-0.029	0.069
-206.421	-147.571	-0.353	-0.029
-205.406	-200.000	0.020	0.096
-204.392	118.500	0.191	-0.232
-203.377	226.809	0.125	-0.200
-202.363	30.895	0.239	-0.202
-201.348	-5.869	0.252	0.170
-200.333	-8.987	0.083	0.055
-199.319	359.075	0.053	0.105
-198.304	67.554	-0.243	0.245
-197.290	-14.840	0.124	-0.078
-196.275	-200.000	-0.001	0.377
-195.260	800.000	-0.019	-0.062
-194.246	102.650	-0.273	0.315
-193.231	41.238	0.094	-0.084
-192.217	297.814	0.087	-0.158
-191.202	-200.000	0.026	-0.249
-190.187	36.486	-0.148	-0.129
-189.173	-90.835	-0.196	-0.056
-188.158	-200.000	0.011	-0.173
-187.144	800.000	0.121	-0.465
-186.129	176.536	-0.208	-0.298
-185.114	111.400	-0.108	-0.128
-184.100	74.896	-0.291	-0.302
-183.085	-8.320	-0.546	-0.362
-182.071	-36.707	-0.154	0.081
-181.056	-143.588	0.123	-0.012
-180.042	-200.000	-0.015	0.239
-179.027	-130.402	0.083	-0.011
-178.012	800.000	-0.036	-0.122
-176.998	99.942	-0.187	-0.214
-175.983	-105.676	0.184	-0.041
-174.969	-167.664	0.296	-0.012
-173.954	16.681	-0.097	0.076
-172.939	-78.379	0.424	0.143
-171.925	235.976	0.027	-0.044
-170.910	-23.180	0.224	0.133
-169.896	60.444	-0.023	0.023
-168.881	187.131	-0.175	0.257
-167.866	-7.877	0.135	-0.089
-166.852	-102.970	0.371	-0.087
-165.837	-75.592	-0.164	0.058
-164.823	208.524	-0.118	-0.182
-163.808	-69.253	-0.209	-0.079
-162.793	87.156	-0.225	-0.245
-161.779	-200.000	0.011	0.373
-160.764	-135.589	0.166	0.019
-159.750	11.565	-0.272	0.206
-158.735	-29.772	0.020	0.011
-157.720	54.857	0.231	0.219
-156.706	-200.000	-0.045	0.301
-155.691	-200.000	-0.009	0.173
-154.677	-200.000	-0.017	-0.177
-153.662	-134.636	-0.315	0.038
-152.647	-200.000	-0.011	0.105
-151.633	6.763	-0.203	-0.149
-150.618	126.648	0.075	0.093
-149.604	185.986	0.122	0.179
-148.589	800.000	0.088	0.313
-147.574	800.000	0.072	-0.225
-146.560	29.780	0.071	-0.060
-145.545	-41.630	-0.191	-0.096
-144.531	-200.000	0.014	0.167
-143.516	51.380	-0.274	-0.256
-142.502	800.000	0.078	-0.235
-141.487	-30.836	-0.274	-0.152
-140.472	-23.116	-0.229	-0.135
-139.458	-31.437	0.197	0.109
-138.443	-189.753	0.121	0.001
-137.429	-105.667	0.034	0.008
-136.414	-73.421	0.184	0.066
-135.399	-60.966	-0.153	-0.064
-134.385	-88.111	0.178	-0.053
-133.370	-146.216	0.100	-0.009
-132.356	748.171	0.114	0.301
-131.341	42.256	0.139	-0.124
-130.326	-56.724	-0.083	0.036
-129.312	-55.332	0.267	-0.118
-128.297	800.000	-0.044	-0.145
-127.283	-93.422	0.317	0.086
-126.268	-67.572	0.086	-0.033
-125.253	-122.690	0.265	-0.042
-124.239	108.926	0.104	-0.122
-123.224	105.531	-0.118	-0.137
-122.210	204.544	0.030	0.046
-121.195	35.088	0.173	0.149
-120.180	-129.096	0.316	-0.043
