DTS Sentinel unit serial number:	SN413079Multiplexer serial number:	ORYXHardware model number:	OX4-SRSoftware version number:	ORYX F/W v4.00 Oryx Data Collector v3.7.2.0data status	okinstallation	princeton_trtdifferential loss correction	single-endedforward channel	channel 3reverse channel	N/Adate	2019/09/14time	03:04:35forward acquisition time	60.00reverse acquisition time	0.00gamma	496.2192k internal	0.2339k external	0.2339temperature offset calibration	1.0056default loss term (dB/km)	0.3790temperature slope calibration	1.0000multiplexer offset coefficient	1.0000multiplexer slope coefficient	1.0000fibre end	0.00T internal ref (°C)	26.56T ext. ref 1 (°C)	3.25T ext. ref 2 (°C)	21.67length (m)	temperature (°C)	Stokes	anti-Stokes-747.200	63.882	-0.177	0.179
-746.185	-73.200	0.127	0.047
-745.171	-123.291	-0.312	0.050
-744.156	539.593	0.080	0.191
-743.142	6.470	-0.292	-0.218
-742.127	-90.896	-0.092	0.026
-741.112	-200.000	0.015	0.113
-740.098	195.988	-0.122	0.187
-739.083	-13.534	-0.202	-0.132
-738.069	84.271	-0.170	0.186
-737.054	296.778	-0.024	-0.044
-736.039	-200.000	0.005	-0.116
-735.025	614.264	0.152	0.381
-734.010	105.536	0.187	0.222
-732.996	630.381	-0.093	-0.237
-731.981	359.716	0.080	-0.161
-730.966	-9.859	-0.094	0.062
-729.952	-200.000	0.075	0.331
-728.937	-200.000	0.035	0.325
-727.923	-46.565	-0.057	-0.028
-726.908	193.042	-0.105	-0.158
-725.894	-28.772	0.311	-0.179
-724.879	183.583	-0.053	0.078
-723.864	93.541	-0.152	0.172
-722.850	-181.346	-0.195	0.004
-721.835	-34.044	0.184	-0.102
-720.821	-71.696	-0.138	-0.051
-719.806	-200.000	-0.501	0.000
-718.791	8.907	-0.175	-0.132
-717.777	-114.285	0.185	-0.036
-716.762	-88.052	-0.558	0.168
-715.748	85.773	0.100	-0.110
-714.733	-170.465	0.144	0.005
-713.718	-41.695	0.222	0.114
-712.704	800.000	-0.026	0.077
-711.689	56.096	0.050	-0.048
-710.675	47.739	0.219	-0.205
-709.660	127.470	-0.115	-0.146
-708.645	334.063	-0.123	0.238
-707.631	-200.000	0.085	-0.413
-706.616	-200.000	0.032	-0.246
-705.602	224.291	0.101	-0.163
-704.587	-155.504	-0.232	0.015
-703.572	-28.553	0.054	-0.031
-702.558	318.018	-0.099	-0.188
-701.543	151.816	0.144	-0.197
-700.529	-200.000	-0.021	-0.254
-699.514	800.000	-0.072	0.298
-698.499	291.585	-0.101	-0.184
-697.485	-47.791	-0.187	0.091
-696.470	-137.078	0.346	-0.040
-695.456	-168.403	-0.206	-0.008
-694.441	32.245	0.124	0.108
-693.426	-96.562	-0.139	0.037
-692.412	-99.413	0.187	-0.047
-691.397	800.000	-0.038	0.147
-690.383	49.384	-0.165	0.156
-689.368	156.811	-0.138	0.191
-688.354	-49.020	-0.078	-0.037
-687.339	-19.579	-0.335	-0.208
-686.324	71.667	-0.126	0.131
-685.310	-69.231	0.195	-0.075
-684.295	254.183	0.162	-0.278
-683.281	800.000	0.038	-0.156
-682.266	484.647	0.112	-0.256
-681.251	-200.000	-0.007	-0.090
-680.237	-200.000	-0.006	0.131
-679.222	202.151	0.077	-0.118
-678.208	203.876	0.173	-0.268
-677.193	-200.000	0.008	0.175
-676.178	-87.228	-0.184	-0.056
-675.164	-171.178	-0.287	-0.010
-674.149	800.000	-0.051	0.156
-673.135	-111.055	0.328	0.067
-672.120	28.123	-0.051	-0.043
-671.105	-200.000	0.036	-0.181
-670.091	-114.695	-0.439	-0.084
-669.076	153.662	0.027	0.037
-668.062	-126.203	-0.234	-0.035
-667.047	800.000	0.058	-0.183
-666.032	-11.364	-0.338	-0.223
-665.018	-17.864	-0.117	0.073
-664.003	-109.643	-0.086	0.018
-662.989	239.309	0.097	0.161
-661.974	-81.924	-0.292	0.096
-660.959	-178.521	-0.144	-0.003
-659.945	11.650	-0.197	0.151
-658.930	-107.705	0.314	0.068
-657.916	-124.346	-0.235	-0.037
-656.901	-167.512	0.054	-0.002
-655.886	-200.000	-0.022	0.115
-654.872	4.691	-0.165	0.121
-653.857	2.816	-0.292	-0.211
-652.843	-124.917	0.230	0.035
-651.828	800.000	-0.081	0.313
-650.814	800.000	-0.125	0.467
-649.799	-13.404	-0.219	-0.142
-648.784	800.000	0.066	0.233
-647.770	-70.902	-0.311	0.117
-646.755	-80.493	0.175	-0.058
-645.741	-25.273	-0.165	-0.098
-644.726	-96.746	-0.401	0.106
-643.711	800.000	0.057	-0.163
-642.697	800.000	0.136	0.586
-641.682	-43.939	-0.158	-0.079
-640.668	35.416	0.022	-0.019
-639.653	-79.569	0.148	0.050
-638.638	-200.000	0.019	-0.219
-637.624	241.341	0.150	-0.250
-636.609	800.000	-0.025	0.096
-635.595	800.000	-0.098	0.285
-634.580	-30.336	0.239	-0.136
-633.565	800.000	-0.070	-0.240
-632.551	-200.000	-0.017	0.302
-631.536	167.009	0.203	0.288
-630.522	800.000	-0.071	-0.240
-629.507	-106.482	0.131	-0.029
-628.492	-200.000	-0.010	0.316
-627.478	482.255	0.044	0.100
-626.463	52.182	0.037	0.036
-625.449	333.116	-0.137	0.265
-624.434	-200.000	0.014	0.236
-623.419	-167.226	-0.282	0.011
-622.405	36.221	0.027	-0.024
-621.390	245.483	-0.096	-0.161
-620.376	-108.718	-0.103	0.022
-619.361	-200.000	0.009	-0.065
-618.346	-200.000	0.017	0.323
-617.332	-41.582	-0.052	-0.027
-616.317	-137.165	0.564	0.064
-615.303	-68.247	0.050	-0.020
-614.288	-133.672	-0.266	0.033
-613.273	-200.000	0.039	-0.196
-612.259	-20.815	-0.079	0.048
-611.244	-104.405	0.189	-0.044
-610.230	-53.360	-0.359	-0.164
-609.215	800.000	0.057	0.174
-608.201	374.955	-0.120	0.244
-607.186	-200.000	0.048	-0.259
-606.171	-200.000	-0.008	-0.135
-605.157	637.811	-0.022	-0.056
-604.142	800.000	0.086	-0.251
-603.128	-200.000	-0.021	0.275
-602.113	-101.971	0.252	0.061
-601.098	800.000	-0.060	-0.233
-600.084	-200.000	0.022	0.284
-599.069	-126.391	0.199	-0.030
-598.055	-200.000	-0.012	-0.196
-597.040	767.232	-0.077	0.210
-596.025	-200.000	0.033	0.147
-595.011	800.000	0.035	-0.126
-593.996	-28.893	-0.219	0.126
-592.982	-117.698	-0.136	0.024
-591.967	-100.166	-0.225	-0.056
-590.952	286.579	-0.100	0.180
-589.938	622.884	0.077	-0.193
-588.923	136.215	-0.078	0.102
-587.909	84.357	-0.048	0.052
-586.894	-94.047	-0.450	-0.123
-585.879	85.285	0.175	0.191
-584.865	-120.864	-0.133	0.022
-583.850	-123.317	-0.216	0.034
-582.836	800.000	-0.095	-0.388
-581.821	-95.852	-0.115	-0.031
-580.806	-149.828	-0.150	0.012
-579.792	72.143	0.278	0.289
-578.777	93.071	-0.218	-0.246
-577.763	-173.067	-0.287	-0.009
-576.748	-16.999	0.373	0.235
-575.733	-122.700	0.056	-0.009
-574.719	87.501	-0.246	-0.272
-573.704	-200.000	-0.004	-0.259
-572.690	-69.505	-0.237	0.090
-571.675	39.375	0.225	-0.201
-570.661	-200.000	-0.050	0.290
-569.646	-169.460	-0.124	-0.005
-568.631	-29.656	0.370	0.211
-567.617	59.208	0.187	-0.184
-566.602	-130.619	0.087	0.012
-565.588	-42.787	-0.218	0.110
-564.573	112.280	0.093	0.112
-563.558	-200.000	-0.022	0.114
-562.544	318.217	-0.071	-0.134
-561.529	-126.003	-0.491	0.073
-560.515	-24.957	0.272	0.161
-559.500	37.958	-0.264	0.234
-558.485	-68.262	0.290	0.112
-557.471	-110.172	-0.227	0.047
-556.456	61.952	-0.057	-0.056
-555.442	-200.000	-0.032	0.160
-554.427	-13.333	-0.091	-0.059
-553.412	-153.403	0.211	-0.015
-552.398	150.721	-0.141	-0.191
-551.383	280.944	-0.071	0.127
-550.369	154.487	0.212	0.290
-549.354	211.860	0.211	0.332
-548.339	800.000	-0.087	0.302
-547.325	800.000	0.166	-0.481
-546.310	125.671	-0.143	-0.180
-545.296	800.000	0.038	-0.116
-544.281	-119.161	-0.153	-0.027
-543.266	18.373	-0.397	-0.316
-542.252	-200.000	0.007	0.047
-541.237	104.948	0.107	0.125
-540.223	382.292	0.058	-0.120
-539.208	800.000	0.024	-0.092
-538.193	87.926	0.125	-0.138
-537.179	-42.471	0.134	-0.068
-536.164	61.024	0.109	0.108
-535.150	452.879	-0.138	0.303
-534.135	-200.000	0.000	0.105
-533.121	-72.418	-0.411	-0.151
-532.106	-111.919	-0.071	0.014
-531.091	-200.000	-0.068	0.435
-530.077	33.220	-0.279	-0.241
-529.062	-5.628	0.178	0.122
-528.048	47.595	-0.166	0.154
-527.033	-77.481	0.121	-0.042
-526.018	-145.781	0.276	-0.024
-525.004	-200.000	-0.017	-0.208
-523.989	-200.000	0.029	0.489
-522.975	-200.000	-0.015	0.106
-521.960	142.258	0.164	0.217
-520.945	-113.724	-0.321	0.062
-519.931	669.427	-0.072	-0.185
-518.916	130.640	-0.069	-0.087
-517.902	120.626	-0.117	-0.145
-516.887	-133.594	0.106	0.013
-515.872	115.774	0.150	0.183
-514.858	-64.784	0.201	0.081
-513.843	800.000	-0.091	-0.268
-512.829	-45.616	0.146	-0.072
-511.814	-200.000	0.013	0.068
-510.799	-200.000	-0.028	-0.181
-509.785	-152.269	-0.258	-0.019
-508.770	50.193	0.344	0.323
-507.756	7.783	-0.142	0.105
-506.741	800.000	0.016	0.052
-505.726	168.183	0.217	0.307
-504.712	9.162	0.239	-0.179
-503.697	-200.000	0.016	-0.133
-502.683	800.000	-0.015	-0.042
-501.668	43.200	-0.279	-0.253
-500.653	800.000	0.020	0.079
-499.639	-92.037	0.098	-0.027
-498.624	-63.012	0.082	-0.034
-497.610	-200.000	0.054	-0.262
-496.595	-13.417	0.315	0.203
-495.581	-189.549	-0.232	-0.003
-494.566	-79.259	0.232	0.078
-493.551	800.000	0.038	0.150
-492.537	24.589	0.237	-0.195
-491.522	-182.300	-0.241	0.004
-490.508	-181.980	0.193	0.004
-489.493	635.356	-0.190	0.479
-488.478	-170.346	0.313	0.011
-487.464	-200.000	0.004	0.044
-486.449	729.626	0.046	-0.123
-485.435	-30.506	0.375	-0.211
-484.420	-150.201	-0.383	-0.029
-483.405	-109.831	0.333	-0.069
-482.391	-200.000	0.003	-0.076
-481.376	-200.000	-0.014	0.143
-480.362	-200.000	-0.026	-0.298
-479.347	-108.318	-0.170	-0.036
-478.332	212.038	0.114	0.179
-477.318	-55.819	0.166	0.073
-476.303	-26.350	0.027	0.016
-475.289	800.000	0.102	-0.353
-474.274	432.449	-0.053	-0.114
-473.259	-200.000	-0.016	-0.085
-472.245	197.888	0.191	-0.290
-471.230	504.859	-0.098	0.224
-470.216	-200.000	-0.009	-0.257
-469.201	-120.730	-0.121	0.020
-468.186	-200.000	-0.036	0.188
-467.172	-200.000	0.049	-0.236
-466.157	228.615	-0.062	-0.101
-465.143	-200.000	0.004	-0.031
-464.128	19.835	0.077	0.061
-463.113	779.825	-0.059	0.161
-462.099	128.430	0.041	0.052
-461.084	193.926	0.139	0.209
-460.070	57.891	-0.122	-0.118
-459.055	-200.000	-0.025	0.121
-458.040	57.258	0.345	-0.334
-457.026	19.083	-0.191	-0.152
-456.011	-158.444	0.461	-0.026
-454.997	89.559	0.150	0.166
-453.982	-106.063	0.268	0.060
-452.968	458.413	-0.043	0.096
-451.953	-28.577	-0.064	-0.037
-450.938	-200.000	0.021	-0.093
-449.924	-200.000	0.080	0.491
-448.909	664.036	-0.004	0.011
-447.895	800.000	0.041	-0.159
-446.880	800.000	-0.022	0.073
-445.865	-36.995	-0.240	-0.128
-444.851	534.264	-0.081	-0.190
-443.836	-200.000	0.030	-0.237
-442.822	24.056	-0.319	-0.261
-441.807	800.000	0.039	0.113
-440.792	177.093	0.162	-0.234
-439.778	579.220	-0.111	0.269
-438.763	-200.000	0.040	-0.318
-437.749	-109.174	0.121	-0.026
-436.734	351.237	-0.104	-0.204
-435.719	62.845	0.073	0.073
-434.705	-200.000	-0.069	0.317
-433.690	-39.850	-0.078	-0.040
-432.676	-200.000	-0.040	0.250
-431.661	61.769	0.059	-0.058
-430.646	800.000	-0.112	0.307
-429.632	-164.565	-0.163	-0.007
-428.617	178.899	-0.089	0.129
-427.603	-139.251	-0.102	-0.011
-426.588	54.258	0.234	-0.223
-425.573	31.655	0.190	-0.162
-424.559	-51.384	0.067	0.031
-423.544	220.593	-0.207	-0.329
-422.530	-10.526	0.225	-0.147
-421.515	-29.433	-0.376	0.213
-420.500	83.667	0.260	-0.281
-419.486	-10.370	0.304	-0.200
-418.471	66.176	-0.084	-0.085
-417.457	-167.917	0.292	0.011
-416.442	364.318	0.063	0.125
-415.428	298.851	-0.103	-0.188
-414.413	181.962	-0.065	-0.095
-413.398	-19.039	-0.115	0.071
-412.384	-200.000	0.016	-0.334
-411.369	74.569	-0.090	-0.094
-410.355	800.000	0.091	-0.251
-409.340	-95.503	0.113	0.030
-408.325	-64.147	0.090	0.036
-407.311	285.036	-0.138	-0.245
-406.296	486.255	0.084	-0.189
-405.282	-109.898	-0.520	-0.108
-404.267	-198.292	0.284	0.002
-403.252	63.668	0.104	-0.104
-402.238	40.850	-0.144	0.129
-401.223	800.000	0.045	0.128
-400.209	-200.000	-0.031	0.372
-399.194	240.175	-0.166	0.274
-398.179	-32.692	-0.199	0.110
-397.165	-200.000	-0.008	-0.087
-396.150	-121.145	0.256	-0.042
-395.136	-103.963	-0.444	-0.103
-394.121	189.830	0.078	-0.115
-393.106	227.168	-0.101	-0.162
-392.092	-9.872	0.150	-0.099
-391.077	-200.000	0.026	-0.136
-390.063	75.254	-0.034	0.036
-389.048	56.240	0.126	0.121
-388.033	-44.449	0.303	0.150
-387.019	-200.000	-0.005	0.089
-386.004	-131.447	0.106	-0.014
-384.990	-85.805	-0.097	0.030
-383.975	-5.753	-0.323	-0.219
-382.960	-132.122	0.438	0.056
-381.946	38.878	0.257	-0.227
-380.931	324.565	0.128	0.242
-379.917	185.029	0.073	0.107
-378.902	-156.574	-0.359	0.022
-377.888	226.754	-0.071	-0.114
-376.873	102.425	0.146	-0.169
-375.858	107.875	0.020	0.023
-374.844	-200.000	-0.018	0.146
-373.829	462.640	-0.063	-0.139
-372.815	-200.000	0.007	0.281
-371.800	267.926	0.071	-0.122
-370.785	397.378	-0.164	-0.339
-369.771	-73.278	0.135	0.049
-368.756	-14.487	0.143	0.091
-367.742	-200.000	0.019	-0.086
-366.727	72.115	0.214	0.220
-365.712	443.065	-0.046	0.099
-364.698	-200.000	0.056	0.437
-363.683	-76.655	0.108	-0.038
-362.669	-44.813	0.099	0.049
-361.654	29.932	-0.167	-0.141
-360.639	144.251	0.320	0.423
-359.625	58.937	0.273	-0.265
-358.610	81.738	0.183	0.196
-357.596	-119.685	-0.116	0.020
-356.581	213.415	-0.096	-0.151
-355.566	-30.451	0.118	0.066
-354.552	800.000	-0.046	0.193
-353.537	38.120	0.168	0.148
-352.523	800.000	0.054	-0.225
-351.508	-130.685	-0.108	-0.014
-350.493	151.727	-0.104	-0.140
-349.479	-200.000	0.017	-0.235
-348.464	55.481	0.095	0.091
-347.450	800.000	-0.044	0.130
-346.435	16.921	-0.323	-0.253
-345.420	-17.444	0.070	-0.044
-344.406	165.124	0.127	-0.177
-343.391	-49.931	0.408	-0.191
-342.377	3.462	0.166	0.119
-341.362	212.746	0.008	0.013
-340.348	-57.671	0.181	0.078
-339.333	190.560	0.075	0.111
-338.318	-69.238	-0.071	0.027
-337.304	-95.598	0.236	0.062
-336.289	-78.662	-0.478	0.161
-335.275	-200.000	0.017	-0.252
-334.260	-18.190	0.117	0.072
-333.245	-200.000	-0.008	0.203
-332.231	800.000	0.115	0.337
-331.216	-13.183	0.350	-0.225
-330.202	800.000	-0.083	-0.240
-329.187	33.794	0.149	0.128
-328.172	800.000	0.049	0.210
-327.158	66.669	-0.115	-0.115
-326.143	302.743	-0.089	0.163
-325.129	-116.229	-0.171	-0.031
-324.114	-111.166	-0.201	-0.041
-323.099	-200.000	-0.002	0.153
-322.085	124.477	0.350	-0.434
-321.070	243.374	-0.261	0.432
-320.056	-0.496	-0.212	0.148
-319.041	291.674	0.144	-0.258
-318.026	17.042	-0.123	-0.096
-317.012	-166.904	-0.135	0.005
-315.997	57.893	0.220	0.212
-314.983	-45.006	-0.090	-0.044
-313.968	41.139	-0.071	0.063
-312.953	7.562	-0.158	0.117
-311.939	93.005	0.059	0.066
-310.924	-136.568	-0.152	0.017
-309.910	98.117	-0.208	-0.236
-308.895	249.234	0.059	-0.099
-307.880	-200.000	-0.021	0.175
-306.866	-200.000	0.026	-0.199
-305.851	57.182	0.278	-0.267
-304.837	117.433	-0.056	0.069
-303.822	-142.267	-0.200	0.020
-302.807	-173.018	-0.107	0.003
-301.793	-96.017	0.179	0.047
-300.778	517.527	0.076	0.176
-299.764	-116.311	0.469	0.086
-298.749	-22.872	-0.060	-0.036
-297.735	-200.000	-0.016	0.141
-296.720	-200.000	0.020	0.092
-295.705	-7.223	-0.049	-0.033
-294.691	-96.631	-0.066	-0.017
-293.676	-140.875	-0.023	0.002
-292.662	-147.764	0.180	-0.015
-291.647	-106.892	0.069	-0.015
-290.632	-85.055	0.123	0.038
-289.618	-86.994	0.193	0.058
-288.603	-91.822	0.245	-0.069
-287.589	-192.223	-0.213	-0.002
-286.574	85.391	0.125	-0.135
-285.559	-13.258	-0.062	0.040
-284.545	66.411	0.104	0.104
-283.530	248.627	-0.162	0.270
-282.516	-77.256	0.177	-0.061
-281.501	307.973	0.039	0.072
-280.486	-200.000	0.020	0.110
-279.472	-200.000	0.008	-0.346
-278.457	18.024	-0.508	0.399
-277.443	-200.000	-0.020	0.316
-276.428	406.969	-0.055	0.115
-275.413	-200.000	-0.066	-0.305
-274.399	92.445	0.141	0.156
-273.384	159.280	-0.100	-0.137
-272.370	-10.455	-0.252	0.165
-271.355	800.000	-0.044	0.161
-270.340	-130.108	0.190	-0.026
-269.326	319.315	-0.071	-0.132
-268.311	-57.635	0.134	0.058
-267.297	800.000	0.034	-0.132
-266.282	800.000	-0.083	0.291
-265.267	45.142	-0.141	-0.128
-264.253	-41.396	-0.022	0.011
-263.238	-200.000	-0.006	-0.334
-262.224	8.749	0.152	-0.113
-261.209	-144.261	-0.088	0.008
-260.195	-147.926	0.181	0.015
-259.180	-200.000	0.037	-0.370
-258.165	-122.495	0.134	-0.022
-257.151	800.000	0.093	0.377
-256.136	209.989	-0.243	-0.375
-255.122	-200.000	-0.004	-0.227
-254.107	-134.000	0.157	0.019
-253.092	-117.248	0.243	-0.043
-252.078	73.309	0.090	-0.093
-251.063	-70.380	0.092	-0.034
-250.049	202.154	-0.077	-0.116
-249.034	-200.000	-0.006	-0.140
-248.019	29.559	0.149	0.125
-247.005	-31.288	-0.008	-0.004
-245.990	-200.000	0.011	-0.544
-244.976	198.240	-0.099	-0.149
-243.961	174.173	-0.070	0.099
-242.946	-152.037	-0.434	0.031
-241.932	-152.025	-0.393	0.028
-240.917	-53.402	0.117	-0.053
-239.903	71.175	-0.172	0.175
-238.888	-30.114	-0.415	-0.232
-237.873	-200.000	0.050	0.274
-236.859	25.631	-0.133	-0.109
-235.844	24.050	0.180	0.146
-234.830	21.539	0.200	-0.160
-233.815	800.000	0.086	0.326
-232.800	156.506	0.065	0.089
-231.786	105.817	-0.342	0.398
-230.771	138.571	-0.161	0.208
-229.757	231.783	0.108	0.174
-228.742	283.655	0.186	0.328
-227.727	-137.968	-0.354	0.039
-226.713	374.947	0.108	0.217
-225.698	-140.967	0.360	0.036
-224.684	-101.750	0.134	-0.032
-223.669	-200.000	0.035	0.378
-222.655	126.046	-0.107	0.132
-221.640	-87.526	-0.453	-0.135
-220.625	-109.823	0.319	-0.066
-219.611	-120.589	0.173	-0.029
-218.596	-36.765	-0.122	-0.064
-217.582	10.614	-0.218	-0.163
-216.567	-200.000	-0.025	-0.158
-215.552	-200.000	0.017	-0.264
-214.538	800.000	0.102	-0.431
-213.523	-116.209	0.112	-0.020
-212.509	335.990	0.043	-0.081
-211.494	-200.000	0.018	0.138
-210.479	-97.951	-0.192	0.049
-209.465	66.497	0.231	-0.231
-208.450	428.594	0.066	-0.139
-207.436	-68.569	-0.231	0.088
-206.421	308.646	-0.149	0.273
-205.406	55.374	0.171	0.162
-204.392	800.000	-0.042	0.153
-203.377	-200.000	0.004	0.226
-202.363	792.986	0.015	0.040
-201.348	-200.000	0.007	0.095
-200.333	-40.595	-0.303	-0.154
-199.319	77.991	-0.204	0.214
-198.304	323.459	0.047	-0.087
-197.290	-200.000	-0.014	-0.110
-196.275	-114.295	-0.051	0.010
-195.260	98.859	0.143	0.162
-194.246	-90.951	-0.259	-0.073
-193.231	-73.476	0.161	0.058
-192.217	33.343	0.143	0.122
-191.202	169.965	-0.103	-0.144
-190.187	22.673	0.029	-0.023
-189.173	-200.000	0.065	-0.320
-188.158	800.000	0.178	-0.536
-187.144	-55.932	-0.105	-0.046
-186.129	719.933	-0.127	-0.331
-185.114	-200.000	-0.040	-0.190
-184.100	12.278	-0.058	0.044
-183.085	132.944	-0.007	0.009
-182.071	445.629	0.097	0.210
-181.056	301.139	-0.139	0.252
-180.042	34.697	-0.067	-0.057
-179.027	454.958	-0.059	-0.128
-178.012	-92.091	0.261	-0.072
-176.998	265.356	-0.141	-0.241
-175.983	-78.372	-0.110	-0.037
-174.969	124.296	-0.189	0.234
-173.954	-40.638	-0.167	-0.085
-172.939	-139.764	0.174	0.018
-171.925	-98.547	-0.085	-0.021
-170.910	-200.000	0.072	-0.372
-169.896	-55.645	0.122	-0.054
-168.881	381.722	0.152	-0.307
-167.866	800.000	-0.043	-0.121
-166.852	87.896	0.065	-0.070
-165.837	79.100	-0.153	0.161
-164.823	-200.000	-0.006	0.117
-163.808	239.877	0.067	-0.109
-162.793	800.000	-0.027	0.087
-161.779	-4.144	-0.338	-0.229
-160.764	800.000	-0.053	-0.217
-159.750	-69.926	0.055	0.021
-158.735	-77.581	-0.265	-0.090
-157.720	-99.976	0.094	0.023
-156.706	-200.000	-0.040	0.199
-155.691	-94.310	-0.182	0.049
-154.677	-103.495	0.236	-0.054
-153.662	396.204	0.119	0.243
-152.647	51.667	-0.229	0.214
-151.633	800.000	-0.024	0.100
-150.618	-200.000	-0.040	0.195
-149.604	-77.395	-0.363	-0.123
-148.589	567.507	-0.138	0.328
-147.574	781.783	0.077	-0.206
-146.560	-200.000	-0.043	0.193
-145.545	142.707	-0.081	-0.105
-144.531	-95.443	-0.125	-0.033
-143.516	-153.087	0.307	0.021
-142.502	521.725	0.085	-0.194
-141.487	338.950	-0.096	0.183
-140.472	-30.446	-0.108	-0.060
-139.458	-200.000	-0.064	0.274
-138.443	77.749	-0.150	0.156
-137.429	800.000	0.094	-0.359
-136.414	-90.015	-0.431	0.123
-135.399	-185.799	0.207	-0.003
-134.385	-30.204	0.210	0.117
-133.370	172.440	0.036	0.051
-132.356	800.000	-0.026	-0.087
-131.341	-200.000	0.009	-0.049
-130.326	40.105	-0.296	0.261
-129.312	362.339	-0.095	-0.187
-128.297	1.034	-0.147	0.103
-127.283	800.000	0.046	0.194
-126.268	-200.000	-0.088	-0.442
-125.253	-152.090	0.291	0.021
-124.239	-48.054	0.128	-0.060
-123.224	-200.000	0.007	0.064
-122.210	138.058	0.171	-0.219
