DTS Sentinel unit serial number:	SN413079Multiplexer serial number:	ORYXHardware model number:	OX4-SRSoftware version number:	ORYX F/W v4.00 Oryx Data Collector v3.7.2.0data status	okinstallation	princeton_trtdifferential loss correction	single-endedforward channel	channel 3reverse channel	N/Adate	2019/09/17time	15:52:35forward acquisition time	60.00reverse acquisition time	0.00gamma	496.2192k internal	0.2292k external	0.2292temperature offset calibration	0.9949default loss term (dB/km)	0.3790temperature slope calibration	1.0000multiplexer offset coefficient	1.0000multiplexer slope coefficient	1.0000fibre end	0.00T internal ref (°C)	39.37T ext. ref 1 (°C)	0.38T ext. ref 2 (°C)	38.06length (m)	temperature (°C)	Stokes	anti-Stokes-747.200	-200.000	-0.030	0.218
-746.185	-21.063	0.152	0.095
-745.171	-50.570	0.261	-0.126
-744.156	-177.253	-0.127	0.003
-743.142	-113.696	0.233	0.046
-742.127	-200.000	-0.049	0.446
-741.112	-153.759	-0.180	-0.013
-740.098	800.000	0.105	0.318
-739.083	794.613	-0.094	0.265
-738.069	589.972	0.069	0.175
-737.054	-200.000	-0.006	0.220
-736.039	50.789	-0.185	0.180
-735.025	-85.343	0.120	0.038
-734.010	578.242	-0.048	-0.119
-732.996	402.503	-0.140	0.302
-731.981	-200.000	-0.005	-0.264
-730.966	-200.000	0.004	-0.384
-729.952	-14.942	-0.051	-0.033
-728.937	314.540	-0.083	-0.159
-727.923	-135.777	-0.145	0.017
-726.908	237.295	0.146	0.247
-725.894	256.190	-0.091	0.160
-724.879	21.482	-0.055	0.046
-723.864	-80.602	-0.222	-0.075
-722.850	223.472	0.095	0.156
-721.835	413.773	-0.062	-0.135
-720.821	620.794	0.081	-0.209
-719.806	79.780	-0.044	-0.048
-718.791	-165.391	-0.171	0.008
-717.777	-95.936	0.070	-0.019
-716.762	-18.403	0.151	0.096
-715.748	-45.092	-0.063	0.032
-714.733	-122.016	-0.440	-0.074
-713.718	-200.000	0.009	-0.119
-712.704	-170.401	-0.205	-0.007
-711.689	800.000	-0.090	0.261
-710.675	224.135	0.152	0.251
-709.660	-80.955	0.241	0.082
-708.645	-57.652	0.036	-0.016
-707.631	-200.000	-0.007	-0.038
-706.616	-115.683	0.293	-0.056
-705.602	-118.244	0.022	-0.004
-704.587	47.435	-0.115	-0.109
-703.572	43.958	-0.111	0.104
-702.558	113.586	0.111	-0.138
-701.543	-15.220	0.275	-0.180
-700.529	162.298	-0.131	-0.187
-699.514	71.567	0.207	-0.220
-698.499	-127.850	0.287	0.042
-697.485	-65.425	-0.167	0.069
-696.470	-93.299	-0.330	-0.093
-695.456	-9.735	0.205	-0.139
-694.441	355.617	-0.065	0.132
-693.426	53.903	0.260	0.255
-692.412	-2.237	-0.184	-0.132
-691.397	-160.024	-0.113	-0.006
-690.383	-86.732	-0.110	0.034
-689.368	-200.000	-0.021	0.203
-688.354	-167.479	0.158	-0.006
-687.339	-67.766	0.164	0.066
-686.324	68.193	0.287	0.300
-685.310	409.878	-0.078	0.169
-684.295	-200.000	0.012	-0.109
-683.281	-79.320	0.067	-0.023
-682.266	800.000	-0.021	0.062
-681.251	-20.771	0.210	-0.131
-680.237	15.575	0.106	-0.085
-679.222	-200.000	0.061	0.279
-678.208	-200.000	0.067	0.344
-677.193	-79.253	-0.161	-0.056
-676.178	30.568	0.156	-0.137
-675.164	292.699	0.142	-0.265
-674.149	100.334	0.189	-0.224
-673.135	30.521	0.126	0.110
-672.120	-22.130	-0.156	-0.097
-671.105	62.409	0.092	0.094
-670.091	-53.572	-0.293	-0.137
-669.076	453.040	0.084	-0.191
-668.062	-143.996	-0.075	0.007
-667.047	518.011	-0.090	0.216
-666.032	251.998	-0.087	0.151
-665.018	284.216	-0.089	0.164
-664.003	-51.821	-0.273	0.130
-662.989	-200.000	0.019	-0.094
-661.974	204.844	0.185	-0.294
-660.959	66.560	0.166	0.173
-659.945	-200.000	0.015	-0.251
-658.930	133.798	-0.093	0.123
-657.916	90.449	-0.170	-0.194
-656.901	-196.920	0.173	0.001
-655.886	-113.408	0.313	-0.063
-654.872	86.466	-0.121	0.136
-653.857	195.363	-0.097	0.151
-652.843	48.292	-0.134	-0.128
-651.828	-90.421	-0.160	-0.047
-650.814	114.192	0.045	-0.055
-649.799	-110.358	-0.370	-0.078
-648.784	-70.589	0.138	0.053
-647.770	270.399	-0.171	0.307
-646.755	800.000	-0.077	0.322
-645.741	-200.000	-0.015	0.131
-644.726	88.709	-0.209	0.237
-643.711	-200.000	0.012	0.062
-642.697	-142.371	0.049	-0.005
-641.682	42.339	-0.119	-0.110
-640.668	229.912	-0.232	-0.386
-639.653	114.101	-0.105	0.131
-638.638	157.456	0.206	-0.290
-637.624	-200.000	0.023	0.154
-636.609	229.815	0.067	-0.112
-635.595	-25.405	-0.067	0.041
-634.580	-97.554	0.285	0.075
-633.565	12.320	0.080	0.063
-632.551	-47.118	-0.200	0.100
-631.536	-165.444	-0.389	0.017
-630.522	0.557	-0.205	-0.149
-629.507	800.000	-0.064	0.201
-628.492	419.204	-0.064	-0.139
-627.478	-121.329	-0.212	-0.036
-626.463	324.721	-0.108	0.211
-625.449	-200.000	-0.000	0.135
-624.434	-110.444	0.055	0.012
-623.419	-80.429	-0.110	0.037
-622.405	37.134	-0.106	-0.096
-621.390	-88.101	0.141	-0.043
-620.376	56.992	0.041	0.041
-619.361	-200.000	-0.001	-0.174
-618.346	138.094	-0.075	0.100
-617.332	211.622	-0.049	0.078
-616.317	-72.566	-0.163	-0.061
-615.303	-72.532	-0.221	0.083
-614.288	649.526	-0.039	0.100
-613.273	26.999	0.118	0.101
-612.259	-200.000	-0.104	-0.498
-611.244	-100.500	0.334	-0.084
-610.230	48.388	0.162	0.155
-609.215	800.000	-0.070	-0.216
-608.201	-68.647	-0.146	0.058
-607.186	-200.000	-0.011	-0.062
-606.171	-78.013	0.214	0.075
-605.157	-142.237	-0.381	0.038
-604.142	800.000	0.146	0.440
-603.128	-5.327	0.316	0.221
-602.113	-53.754	-0.333	0.155
-601.098	-200.000	-0.016	0.232
-600.084	-200.000	-0.033	-0.152
-599.069	-35.404	-0.122	0.067
-598.055	-50.455	-0.071	0.034
-597.040	244.788	0.049	0.085
-596.025	-92.574	-0.309	-0.088
-595.011	-61.689	-0.280	0.120
-593.996	410.235	-0.068	0.147
-592.982	622.575	-0.063	0.162
-591.967	-200.000	0.007	-0.176
-590.952	-200.000	-0.031	-0.373
-589.938	53.855	0.142	-0.139
-588.923	309.113	-0.108	-0.205
-587.909	356.539	-0.127	0.257
-586.894	-190.162	-0.245	0.003
-585.879	-70.215	0.195	0.075
-584.865	97.944	0.128	-0.149
-583.850	-28.424	-0.231	0.136
-582.836	200.488	-0.248	-0.388
-581.821	26.826	0.261	0.223
-580.806	-200.000	-0.044	0.251
-579.792	-133.440	0.128	-0.016
-578.777	193.643	-0.021	0.032
-577.763	40.049	-0.169	-0.154
-576.748	-38.892	-0.118	-0.063
-575.733	57.748	0.274	0.273
-574.719	409.415	-0.127	0.274
-573.704	155.439	0.181	0.254
-572.690	-117.578	0.081	-0.015
-571.675	220.700	0.060	0.098
-570.661	-76.198	0.045	-0.016
-569.646	131.411	0.105	0.137
-568.631	-96.256	-0.142	-0.038
-567.617	119.376	-0.142	0.179
-566.602	800.000	-0.057	0.200
-565.588	-59.027	0.350	0.154
-564.573	6.058	0.206	-0.155
-563.558	-200.000	0.012	-0.106
-562.544	-97.200	0.119	-0.032
-561.529	587.866	0.083	-0.207
-560.515	95.123	0.132	-0.153
-559.500	800.000	0.062	0.208
-558.485	-102.690	-0.336	0.081
-557.471	4.643	-0.251	-0.187
-556.456	58.265	-0.221	-0.220
-555.442	56.667	0.281	0.278
-554.427	-200.000	0.060	-0.341
-553.412	-67.309	0.114	0.046
-552.398	800.000	-0.108	0.410
-551.383	152.040	-0.146	0.202
-550.369	4.847	-0.044	-0.033
-549.354	126.579	0.241	0.310
-548.339	708.754	-0.090	-0.242
-547.325	-48.164	0.219	0.107
-546.310	282.765	0.099	0.181
-545.296	800.000	0.066	-0.207
-544.281	800.000	0.018	0.077
-543.266	699.430	-0.049	0.131
-542.252	-76.574	0.308	-0.110
-541.237	38.035	-0.110	0.099
-540.223	-39.594	-0.086	-0.046
-539.208	177.304	-0.096	-0.141
-538.193	237.455	-0.172	0.290
-537.179	-133.409	-0.150	-0.019
-536.164	19.736	0.157	0.129
-535.150	46.407	0.124	0.117
-534.135	-40.864	-0.333	-0.175
-533.121	-200.000	-0.024	-0.123
-532.106	-200.000	0.011	0.146
-531.091	262.699	0.093	0.164
-530.077	800.000	-0.119	0.350
-529.062	80.633	-0.046	-0.050
-528.048	-128.452	-0.291	-0.042
-527.033	800.000	0.029	-0.092
-526.018	800.000	-0.042	-0.183
-525.004	41.899	0.065	0.060
-523.989	-87.333	-0.267	-0.082
-522.975	-87.064	0.073	-0.023
-521.960	-79.599	-0.135	0.046
-520.945	-2.301	0.108	-0.077
-519.931	800.000	-0.172	0.583
-518.916	-40.451	-0.113	0.060
-517.902	84.129	-0.169	-0.187
-516.887	-101.369	-0.418	-0.103
-515.872	800.000	-0.063	0.231
-514.858	19.734	-0.143	0.117
-513.843	392.290	-0.093	-0.197
-512.829	-200.000	-0.021	0.317
-511.814	-200.000	-0.004	0.112
-510.799	46.029	0.111	-0.104
-509.785	214.927	-0.084	-0.136
-508.770	14.999	-0.172	-0.136
-507.756	-8.852	-0.290	-0.197
-506.741	572.857	0.069	0.170
-505.726	247.320	-0.093	0.160
-504.712	57.454	0.384	-0.380
-503.697	122.700	-0.139	0.177
-502.683	-200.000	-0.085	-0.391
-501.668	60.326	0.199	-0.199
-500.653	151.594	0.077	-0.107
-499.639	161.071	0.080	0.113
-498.624	-200.000	0.013	0.192
-497.610	-73.657	0.142	-0.052
-496.595	-156.602	0.076	-0.005
-495.581	-121.988	0.252	-0.042
-494.566	-162.597	0.127	0.006
-493.551	-42.978	0.380	0.195
-492.537	53.557	-0.184	-0.179
-491.522	446.787	0.090	-0.200
-490.508	-89.373	-0.200	0.060
-489.493	272.435	0.047	0.084
-488.478	-6.140	-0.244	0.169
-487.464	-200.000	0.008	0.214
-486.449	-10.178	-0.113	-0.076
-485.435	-177.140	-0.203	0.005
-484.420	364.039	0.066	-0.135
-483.405	0.326	0.136	-0.098
-482.391	-200.000	0.001	-0.081
-481.376	59.005	0.199	-0.199
-480.362	202.012	-0.090	0.141
-479.347	-27.422	-0.251	0.148
-478.332	-176.660	-0.276	-0.007
-477.318	351.264	0.080	0.161
-476.303	800.000	-0.027	0.112
-475.289	-200.000	-0.067	-0.376
-474.274	-200.000	0.021	-0.223
-473.259	-71.263	0.120	-0.046
-472.245	-138.389	-0.369	-0.041
-471.230	194.313	-0.170	-0.262
-470.216	87.017	0.350	-0.392
-469.201	143.014	-0.192	-0.259
-468.186	26.494	-0.092	-0.078
-467.172	198.871	-0.213	0.330
-466.157	140.683	-0.030	-0.041
-465.143	-42.003	-0.264	-0.137
-464.128	76.553	0.046	-0.049
-463.113	-131.695	0.078	0.010
-462.099	255.205	-0.066	-0.115
-461.084	-1.624	-0.308	0.220
-460.070	10.158	0.217	0.167
-459.055	138.966	0.157	0.208
-458.040	800.000	0.018	-0.057
-457.026	117.006	-0.124	0.155
-456.011	165.444	-0.324	-0.463
-454.997	800.000	0.057	-0.171
-453.982	-25.904	-0.355	0.212
-452.968	-133.226	0.111	-0.014
-451.953	-113.024	-0.102	-0.020
-450.938	117.153	-0.078	0.098
-449.924	-129.788	0.087	-0.012
-448.909	384.873	0.063	-0.132
-447.895	109.752	-0.161	-0.195
-446.880	16.076	0.121	-0.097
-445.865	-110.555	-0.077	-0.016
-444.851	71.517	-0.054	-0.056
-443.836	-85.239	0.274	0.087
-442.822	-73.073	0.207	0.077
-441.807	71.292	0.072	0.076
-440.792	45.076	0.030	-0.028
-439.778	-130.127	-0.081	-0.011
-438.763	60.798	-0.421	-0.423
-437.749	-200.000	0.021	-0.385
-436.734	-190.172	-0.194	0.002
-435.719	800.000	-0.052	0.161
-434.705	645.239	0.089	0.229
-433.690	-157.557	0.213	0.013
-432.676	-76.764	-0.291	-0.103
-431.661	-193.578	0.304	0.003
-430.646	800.000	0.020	0.069
-429.632	800.000	-0.015	0.047
-428.617	-9.919	0.153	-0.103
-427.603	-131.892	0.195	0.026
-426.588	-69.377	-0.253	-0.098
-425.573	-55.769	-0.381	-0.172
-424.559	-200.000	-0.063	-0.305
-423.544	256.132	-0.129	-0.224
-422.530	-44.469	-0.319	-0.161
-421.515	-200.000	-0.011	0.238
-420.500	37.698	0.268	0.241
-419.486	-200.000	-0.009	-0.366
-418.471	151.058	0.054	-0.074
-417.457	-41.011	0.379	-0.198
-416.442	800.000	0.077	-0.226
-415.428	167.542	-0.162	0.232
-414.413	-115.604	-0.580	-0.110
-413.398	672.941	-0.017	-0.044
-412.384	305.175	0.038	-0.072
-411.369	42.115	-0.212	-0.195
-410.355	19.542	0.347	-0.282
-409.340	-72.497	-0.229	0.085
-408.325	-200.000	0.015	-0.115
-407.311	-200.000	-0.091	0.597
-406.296	-200.000	0.054	0.324
-405.282	368.363	0.115	-0.236
-404.267	-125.463	-0.453	0.070
-403.252	-73.928	-0.157	0.058
-402.238	-38.830	0.224	-0.119
-401.223	231.367	-0.175	0.290
-400.209	183.286	-0.214	0.320
-399.194	-98.528	0.518	-0.134
-398.179	46.508	0.185	0.173
-397.165	-200.000	-0.003	0.238
-396.150	-200.000	0.050	0.233
-395.136	-136.920	0.134	-0.015
-394.121	800.000	-0.030	-0.108
-393.106	-78.063	0.327	0.114
-392.092	-13.374	0.224	0.147
-391.077	-116.929	0.169	-0.031
-390.063	-106.173	0.089	-0.020
-389.048	-157.760	0.181	-0.011
-388.033	44.658	0.092	-0.086
-387.019	-163.142	0.238	0.012
-386.004	-38.787	0.031	0.016
-384.990	-200.000	0.025	0.430
-383.975	27.040	0.387	-0.328
-382.960	33.182	0.127	-0.111
-381.946	-200.000	0.022	0.313
-380.931	78.483	0.100	-0.107
-379.917	-130.300	0.086	-0.012
-378.902	-58.945	-0.263	0.115
-377.888	289.969	0.182	0.333
-376.873	51.962	0.064	0.062
-375.858	8.464	0.224	0.170
-374.844	410.200	-0.147	0.314
-373.829	-200.000	0.024	-0.229
-372.815	-120.309	-0.229	0.039
-371.800	30.204	0.133	-0.115
-370.785	-90.424	-0.223	0.065
-369.771	-200.000	0.008	0.167
-368.756	-116.159	-0.275	-0.052
-367.742	75.243	0.207	0.220
-366.727	-110.523	-0.192	0.040
-365.712	101.262	0.082	0.096
-364.698	-200.000	0.006	-0.176
-363.683	-60.151	0.164	-0.070
-362.669	-200.000	0.030	0.229
-361.654	80.733	-0.264	-0.288
-360.639	124.194	-0.196	0.248
-359.625	-78.849	-0.057	0.020
-358.610	67.495	-0.060	-0.062
-357.596	-30.884	0.293	-0.167
-356.581	800.000	0.037	0.164
-355.566	800.000	-0.076	-0.261
-354.552	-48.128	0.132	0.064
-353.537	75.890	0.290	0.309
-352.523	-86.568	-0.127	0.039
-351.508	-141.239	0.237	0.024
-350.493	-3.178	0.150	0.106
-349.479	-200.000	0.051	0.000
-348.464	-54.328	-0.146	0.067
-347.450	800.000	0.018	-0.071
-346.435	-106.567	0.172	0.039
-345.420	-63.804	0.177	0.073
-344.406	574.421	0.085	0.209
-343.391	800.000	0.049	-0.176
-342.377	659.855	-0.122	-0.318
-341.362	-48.467	-0.138	0.067
-340.348	182.735	-0.269	-0.400
-339.333	-97.476	0.176	-0.046
-338.318	750.035	0.087	0.237
-337.304	-199.555	0.161	0.001
-336.289	89.129	0.257	-0.289
-335.275	-200.000	0.041	-0.215
-334.260	129.913	-0.171	-0.221
-333.245	-136.987	-0.278	0.032
-332.231	-8.647	0.237	-0.160
-331.216	682.983	0.121	-0.319
-330.202	-70.967	0.083	-0.032
-329.187	-123.657	0.184	0.029
-328.172	800.000	0.042	0.182
-327.158	-48.974	-0.146	0.071
-326.143	-187.227	0.128	0.002
-325.129	-40.659	-0.199	0.104
-324.114	-151.212	0.088	0.007
-323.099	-110.075	-0.183	0.038
-322.085	-200.000	0.037	-0.333
-321.070	-200.000	0.028	-0.134
-320.056	329.073	-0.102	-0.197
-319.041	-147.303	0.201	0.017
-318.026	-93.530	0.062	0.017
-317.012	483.127	-0.116	0.264
-315.997	-109.626	-0.021	0.004
-314.983	457.300	0.143	-0.320
-313.968	-200.000	-0.014	0.141
-312.953	-200.000	-0.030	0.263
-311.939	800.000	0.036	0.157
-310.924	33.636	0.357	-0.312
-309.910	-73.095	0.238	-0.088
-308.895	59.351	0.109	0.108
-307.880	-125.710	0.218	-0.033
-306.866	-200.000	-0.014	-0.292
-305.851	-200.000	0.010	0.178
-304.837	496.680	0.089	-0.206
-303.822	230.025	0.020	-0.032
-302.807	-99.321	0.218	-0.055
-301.793	-86.064	0.477	-0.148
-300.778	169.584	-0.194	-0.279
-299.764	-10.194	-0.195	0.130
-298.749	482.854	-0.086	-0.196
-297.735	-160.759	0.115	-0.006
-296.720	-200.000	0.043	0.211
-295.705	-200.000	0.027	-0.129
-294.691	120.003	-0.338	-0.421
-293.676	800.000	0.110	-0.328
-292.662	800.000	-0.053	0.190
-291.647	117.735	0.068	-0.084
-290.632	800.000	-0.046	0.166
-289.618	-200.000	-0.036	-0.227
-288.603	-94.458	-0.203	0.056
-287.589	-200.000	0.004	-0.268
-286.574	-155.268	-0.053	-0.003
-285.559	800.000	0.108	0.379
-284.545	26.879	0.132	0.111
-283.530	268.761	0.113	0.200
-282.516	-200.000	-0.001	-0.018
-281.501	54.231	-0.181	0.175
-280.486	738.181	-0.069	0.185
-279.472	-160.951	-0.312	-0.017
-278.457	18.083	0.047	0.037
-277.443	463.719	0.077	-0.173
-276.428	232.552	0.308	0.508
-275.413	313.934	0.049	-0.093
-274.399	-200.000	-0.006	-0.055
-273.384	-19.267	0.090	0.056
-272.370	-28.992	0.169	-0.097
-271.355	-137.766	0.232	-0.026
-270.340	112.052	0.095	-0.115
-269.326	800.000	-0.081	0.238
-268.311	-77.771	0.171	-0.059
-267.297	800.000	-0.068	0.259
-266.282	-96.151	0.185	0.049
-265.267	-200.000	0.008	-0.101
-264.253	64.392	0.352	-0.356
-263.238	246.241	0.073	-0.124
-262.224	-200.000	-0.056	-0.410
-261.209	-23.822	0.120	-0.072
-260.195	392.099	0.098	-0.204
-259.180	765.998	-0.036	-0.097
-258.165	-117.382	0.256	-0.047
-257.151	123.376	-0.175	-0.221
-256.136	-200.000	0.028	-0.256
-255.122	-52.788	-0.102	-0.047
-254.107	-13.694	-0.485	0.315
-253.092	-168.152	0.087	0.003
-252.078	-200.000	-0.000	-0.011
-251.063	-161.887	0.064	0.003
-250.049	289.715	0.094	0.172
-249.034	-189.890	-0.160	-0.002
-248.019	567.569	-0.158	-0.386
-247.005	548.638	-0.180	-0.434
-245.990	18.800	0.140	-0.112
-244.976	800.000	0.021	-0.078
-243.961	78.301	-0.048	-0.052
-242.946	353.174	-0.129	-0.256
-241.932	-52.172	0.124	-0.058
-240.917	233.733	0.192	-0.317
-239.903	22.056	0.109	0.089
-238.888	282.944	-0.168	0.303
-237.873	105.446	-0.111	-0.131
-236.859	-61.886	-0.134	-0.056
-235.844	-40.869	0.559	-0.290
-234.830	17.219	-0.199	0.159
-233.815	-84.162	-0.345	-0.110
-232.800	-154.115	-0.579	-0.039
-231.786	410.090	0.097	0.206
-230.771	-136.938	-0.090	0.010
-229.757	-46.856	-0.034	-0.017
-228.742	-92.259	0.221	0.063
-227.727	376.582	0.066	-0.136
-226.713	52.850	-0.038	0.037
-225.698	82.274	0.176	-0.192
-224.684	-200.000	-0.000	0.242
-223.669	73.871	0.102	0.108
-222.655	521.710	0.098	-0.230
-221.640	491.463	0.057	0.132
-220.625	-200.000	0.017	0.296
-219.611	176.228	-0.065	0.094
-218.596	58.634	0.126	0.124
-217.582	394.387	0.051	0.107
-216.567	-141.178	-0.266	-0.027
-215.552	-200.000	0.000	-0.161
-214.538	800.000	0.081	0.312
-213.523	-41.918	-0.308	0.158
-212.509	-200.000	-0.038	0.374
-211.494	-109.386	0.195	0.041
-210.479	9.481	-0.254	0.192
-209.465	-94.754	0.347	0.095
-208.450	-125.228	0.064	0.010
-207.436	41.283	0.140	0.127
-206.421	-200.000	0.037	-0.228
-205.406	140.227	0.039	-0.051
-204.392	-190.956	0.266	0.003
-203.377	38.865	0.210	0.188
-202.363	-200.000	0.002	-0.043
-201.348	800.000	-0.108	0.309
-200.333	-125.630	0.327	-0.050
-199.319	-43.018	0.142	-0.072
-198.304	329.430	-0.191	0.367
-197.290	11.738	-0.053	0.041
-196.275	84.273	0.185	-0.202
-195.260	800.000	-0.053	-0.171
-194.246	-200.000	0.004	-0.153
-193.231	144.894	0.074	0.099
-192.217	165.844	0.126	-0.179
-191.202	-108.064	0.115	-0.025
-190.187	49.511	-0.017	0.016
-189.173	372.525	-0.166	-0.338
-188.158	-60.121	0.254	-0.109
-187.144	800.000	0.094	0.276
-186.129	-33.583	-0.180	0.099
-185.114	-200.000	-0.021	0.250
-184.100	82.798	0.078	-0.085
-183.085	12.309	-0.136	-0.105
-182.071	337.011	0.201	0.391
-181.056	-154.944	-0.290	0.019
-180.042	-33.829	0.186	-0.103
-179.027	-200.000	-0.015	-0.124
-178.012	157.142	0.246	0.340
-176.998	233.098	-0.049	0.080
-175.983	-106.268	-0.204	0.046
-174.969	-15.917	0.270	0.172
-173.954	-200.000	0.027	-0.246
-172.939	-200.000	-0.038	0.000
-171.925	289.284	0.112	-0.203
-170.910	-62.523	0.049	-0.020
-169.896	-200.000	0.030	-0.199
-168.881	-40.775	0.216	0.112
-167.866	800.000	0.101	-0.303
-166.852	-6.790	0.153	-0.104
-165.837	-181.969	-0.197	-0.004
-164.823	-32.716	-0.260	-0.145
-163.808	-97.663	-0.217	-0.056
-162.793	168.024	0.044	0.063
-161.779	50.657	-0.186	0.177
-160.764	25.855	0.208	0.173
-159.750	-200.000	-0.001	-0.175
-158.735	-87.445	0.185	-0.056
-157.720	-100.803	-0.262	-0.064
-156.706	-18.222	0.166	0.104
-155.691	-9.778	0.316	-0.210
-154.677	174.053	-0.150	0.216
-153.662	119.606	-0.072	0.089
-152.647	-200.000	-0.002	0.332
-151.633	203.999	-0.078	-0.121
-150.618	-73.529	-0.108	0.039
-149.604	800.000	0.017	0.055
-148.589	-45.575	0.102	0.050
-147.574	68.508	-0.146	-0.150
-146.560	43.450	-0.167	-0.153
-145.545	800.000	-0.064	-0.193
-144.531	-200.000	-0.044	0.195
-143.516	617.562	-0.069	-0.173
-142.502	11.037	-0.131	0.100
-141.487	136.691	0.305	0.398
-140.472	47.167	-0.018	0.017
-139.458	-200.000	-0.011	-0.272
-138.443	-104.831	-0.350	0.080
-137.429	51.185	-0.138	-0.131
-136.414	-26.940	0.143	0.084
-135.399	-44.029	0.128	-0.064
-134.385	3.151	0.224	-0.163
-133.370	-24.536	-0.121	0.072
-132.356	530.560	-0.121	0.285
-131.341	-41.784	0.307	-0.157
-130.326	-140.385	-0.416	-0.043
-129.312	84.245	-0.076	0.083
-128.297	-55.074	0.295	-0.133
-127.283	191.325	-0.011	-0.016
-126.268	-63.631	0.195	0.080
-125.253	607.775	0.060	-0.150
-124.239	-96.222	0.219	-0.058
-123.224	68.988	0.160	-0.164
-122.210	-41.590	-0.163	-0.084
-121.195	-70.811	-0.072	-0.027
-120.180	-8.473	0.160	-0.107
