DTS Sentinel unit serial number:	SN413079Multiplexer serial number:	ORYXHardware model number:	OX4-SRSoftware version number:	ORYX F/W v4.00 Oryx Data Collector v3.7.2.0data status	okinstallation	princeton_trtdifferential loss correction	single-endedforward channel	channel 3reverse channel	N/Adate	2019/09/15time	14:00:35forward acquisition time	60.00reverse acquisition time	0.00gamma	496.2192k internal	0.2292k external	0.2292temperature offset calibration	0.9956default loss term (dB/km)	0.3790temperature slope calibration	1.0000multiplexer offset coefficient	1.0000multiplexer slope coefficient	1.0000fibre end	0.00T internal ref (°C)	38.47T ext. ref 1 (°C)	4.96T ext. ref 2 (°C)	35.19length (m)	temperature (°C)	Stokes	anti-Stokes-747.200	1.295	-0.278	-0.204
-746.185	295.763	-0.185	0.347
-745.171	26.705	0.179	0.154
-744.156	237.533	-0.145	0.246
-743.142	-200.000	-0.019	0.123
-742.127	112.814	0.229	0.283
-741.112	86.031	0.213	0.240
-740.098	21.200	-0.169	0.140
-739.083	123.782	-0.243	0.312
-738.069	504.552	0.050	-0.119
-737.054	212.839	0.061	0.098
-736.039	800.000	-0.026	0.087
-735.025	-200.000	-0.019	-0.176
-734.010	-83.661	-0.175	-0.057
-732.996	-41.144	0.041	0.022
-731.981	18.156	0.151	0.123
-730.966	-200.000	-0.037	0.293
-729.952	-47.185	0.067	0.033
-728.937	-68.062	-0.178	0.071
-727.923	190.846	0.069	0.106
-726.908	800.000	-0.090	0.300
-725.894	-200.000	-0.008	0.110
-724.879	70.313	-0.365	0.386
-723.864	396.314	0.067	-0.143
-722.850	800.000	0.043	-0.174
-721.835	-171.654	-0.279	-0.009
-720.821	-80.346	-0.169	0.058
-719.806	-129.090	-0.087	0.012
-718.791	85.272	0.053	0.059
-717.777	65.933	-0.156	0.162
-716.762	800.000	-0.017	0.070
-715.748	39.783	0.123	-0.113
-714.733	13.077	-0.313	-0.248
-713.718	379.885	-0.108	0.225
-712.704	6.835	0.089	-0.068
-711.689	-200.000	0.014	-0.189
-710.675	81.440	-0.014	-0.015
-709.660	-48.534	-0.258	0.127
-708.645	111.544	-0.212	-0.261
-707.631	-200.000	-0.055	-0.277
-706.616	-72.481	-0.344	-0.130
-705.602	-93.293	0.349	0.099
-704.587	-84.881	-0.112	-0.036
-703.572	-200.000	-0.006	-0.325
-702.558	213.254	0.225	0.363
-701.543	39.523	-0.312	0.286
-700.529	-103.940	-0.068	0.016
-699.514	721.812	-0.117	-0.318
-698.499	374.617	-0.098	0.205
-697.485	-200.000	-0.024	0.250
-696.470	800.000	-0.099	0.305
-695.456	-138.784	0.223	-0.025
-694.441	-43.749	0.192	0.099
-693.426	-102.556	0.354	-0.086
-692.412	146.078	0.041	0.056
-691.397	-200.000	-0.025	0.143
-690.383	-53.780	-0.174	-0.081
-689.368	216.008	0.031	0.050
-688.354	-117.592	0.234	-0.043
-687.339	581.495	-0.080	-0.200
-686.324	24.930	0.110	-0.093
-685.310	-200.000	-0.025	0.240
-684.295	-52.337	-0.147	-0.069
-683.281	315.285	-0.169	-0.324
-682.266	-36.456	-0.185	-0.102
-681.251	-200.000	0.004	-0.070
-680.237	-101.082	0.053	-0.013
-679.222	-200.000	0.002	0.072
-678.208	-120.203	-0.219	0.038
-677.193	-118.767	0.293	-0.053
-676.178	15.270	0.186	-0.149
-675.164	92.045	-0.185	-0.212
-674.149	606.176	-0.015	0.037
-673.135	82.350	0.199	-0.221
-672.120	-15.777	-0.076	-0.049
-671.105	95.655	0.018	0.021
-670.091	-200.000	0.017	0.177
-669.076	-200.000	0.032	0.158
-668.062	33.666	-0.140	0.124
-667.047	25.650	-0.056	0.048
-666.032	69.485	0.059	0.062
-665.018	160.106	0.072	-0.103
-664.003	258.870	0.135	-0.238
-662.989	34.223	-0.007	-0.006
-661.974	-200.000	-0.019	0.178
-660.959	-200.000	0.013	-0.139
-659.945	-140.444	-0.209	-0.022
-658.930	-94.325	-0.082	-0.023
-657.916	-60.641	-0.462	0.200
-656.901	-184.623	0.158	-0.003
-655.886	-71.583	-0.185	-0.071
-654.872	-178.915	-0.196	-0.005
-653.857	-74.228	-0.123	-0.045
-652.843	-12.660	-0.465	-0.309
-651.828	-200.000	-0.023	0.220
-650.814	-149.767	0.138	0.011
-649.799	-200.000	0.008	0.199
-648.784	366.736	-0.129	0.266
-647.770	61.380	-0.226	-0.229
-646.755	-47.350	0.258	-0.128
-645.741	-200.000	-0.024	-0.152
-644.726	-86.597	-0.193	0.060
-643.711	-79.411	-0.319	0.110
-642.697	-200.000	-0.005	0.317
-641.682	174.346	-0.277	-0.408
-640.668	-79.335	-0.203	0.070
-639.653	211.376	0.166	0.266
-638.638	-23.645	-0.011	0.007
-637.624	-200.000	0.227	-0.001
-636.609	-132.395	0.203	0.027
-635.595	-81.297	0.304	-0.102
-634.580	17.633	-0.162	0.132
-633.565	43.193	-0.003	-0.002
-632.551	-118.636	0.143	0.026
-631.536	-56.248	0.090	-0.041
-630.522	71.685	0.167	-0.177
-629.507	-200.000	-0.010	-0.057
-628.492	-200.000	-0.029	0.159
-627.478	-200.000	0.028	0.265
-626.463	-144.974	0.152	-0.014
-625.449	-200.000	-0.007	0.092
-624.434	-68.327	0.064	-0.025
-623.419	-149.720	-0.379	-0.030
-622.405	380.454	0.145	0.303
-621.390	-160.802	-0.062	0.003
-620.376	38.361	0.338	-0.306
-619.361	43.716	-0.057	-0.054
-618.346	-74.223	0.116	0.043
-617.332	-200.000	0.002	0.208
-616.317	6.098	-0.160	0.121
-615.303	-197.981	-0.063	-0.000
-614.288	-200.000	-0.029	0.230
-613.273	134.897	-0.046	0.061
-612.259	-46.271	-0.124	-0.062
-611.244	-200.000	-0.082	-0.589
-610.230	67.355	-0.152	-0.158
-609.215	-43.102	0.147	0.076
-608.201	-112.832	-0.306	-0.062
-607.186	-87.513	0.236	0.073
-606.171	41.248	-0.216	-0.199
-605.157	-98.356	-0.220	-0.057
-604.142	-123.137	-0.085	0.014
-603.128	-139.958	-0.238	-0.026
-602.113	800.000	-0.053	-0.175
-601.098	-200.000	-0.003	-0.312
-600.084	-200.000	0.029	-0.335
-599.069	190.917	-0.200	-0.306
-598.055	800.000	0.040	0.126
-597.040	-100.609	0.211	0.053
-596.025	-21.382	-0.039	0.024
-595.011	212.890	0.128	-0.205
-593.996	-17.344	-0.155	0.099
-592.982	-121.313	0.106	0.018
-591.967	-200.000	-0.009	-0.113
-590.952	61.013	0.098	-0.099
-589.938	-200.000	-0.003	-0.095
-588.923	-50.653	-0.029	0.014
-587.909	81.170	-0.105	0.115
-586.894	800.000	-0.074	-0.274
-585.879	-9.673	-0.057	0.039
-584.865	-61.021	0.093	-0.040
-583.850	-141.979	-0.320	-0.032
-582.836	20.822	0.183	-0.150
-581.821	594.173	0.110	-0.278
-580.806	-61.418	-0.416	-0.178
-579.792	91.682	0.129	-0.147
-578.777	800.000	0.066	0.231
-577.763	-0.385	-0.100	-0.072
-576.748	293.948	-0.066	-0.122
-575.733	134.144	0.029	-0.038
-574.719	-200.000	-0.014	-0.106
-573.704	10.015	0.257	-0.199
-572.690	-127.689	-0.120	-0.018
-571.675	-51.575	0.279	0.133
-570.661	-200.000	-0.015	-0.172
-569.646	7.437	0.092	0.070
-568.631	226.194	-0.113	0.187
-567.617	2.288	0.277	0.204
-566.602	15.794	-0.102	-0.081
-565.588	-200.000	0.068	-0.459
-564.573	220.585	-0.129	-0.210
-563.558	2.015	-0.268	0.197
-562.544	12.668	-0.128	0.100
-561.529	-70.749	0.087	0.033
-560.515	-200.000	0.042	-0.250
-559.500	-171.800	0.087	-0.003
-558.485	84.640	0.212	0.235
-557.471	-23.153	0.094	0.057
-556.456	-77.415	0.428	-0.151
-555.442	-200.000	0.038	0.261
-554.427	-200.000	0.018	0.086
-553.412	84.891	-0.194	-0.216
-552.398	-128.892	0.063	0.009
-551.383	122.784	-0.193	-0.245
-550.369	-64.252	-0.222	0.092
-549.354	800.000	-0.079	-0.243
-548.339	800.000	0.138	-0.423
-547.325	250.724	-0.141	0.243
-546.310	-80.394	-0.354	0.120
-545.296	448.401	0.080	0.179
-544.281	-33.173	0.121	-0.068
-543.266	119.601	-0.124	0.156
-542.252	513.324	0.068	0.162
-541.237	-126.183	-0.131	-0.020
-540.223	-200.000	0.037	-0.175
-539.208	31.374	0.278	0.243
-538.193	-160.458	-0.077	0.004
-537.179	800.000	-0.033	0.141
-536.164	-105.317	-0.138	-0.032
-535.150	208.039	0.081	0.129
-534.135	-200.000	-0.050	0.335
-533.121	401.575	0.124	0.264
-532.106	22.965	-0.207	-0.173
-531.091	-200.000	-0.004	-0.121
-530.077	277.929	0.031	-0.055
-529.062	758.789	-0.040	0.110
-528.048	-200.000	-0.004	0.087
-527.033	245.034	0.023	0.039
-526.018	-160.505	0.323	0.018
-525.004	-135.892	-0.225	0.027
-523.989	135.568	-0.150	0.198
-522.975	27.009	-0.085	-0.072
-521.960	483.195	0.048	0.112
-520.945	-200.000	0.002	0.170
-519.931	153.942	-0.214	-0.298
-518.916	55.164	0.097	-0.095
-517.902	47.409	-0.120	-0.114
-516.887	800.000	-0.061	0.265
-515.872	336.291	-0.101	-0.198
-514.858	-132.595	0.170	0.022
-513.843	182.689	-0.048	-0.071
-512.829	120.291	-0.156	0.196
-511.814	800.000	-0.086	0.336
-510.799	24.571	0.279	-0.234
-509.785	157.406	-0.077	-0.108
-508.770	-200.000	0.059	0.315
-507.756	317.848	0.121	0.232
-506.741	-200.000	0.076	0.345
-505.726	49.553	-0.220	-0.210
-504.712	101.154	0.224	-0.265
-503.697	2.280	0.236	-0.173
-502.683	71.135	-0.196	-0.206
-501.668	-197.504	0.245	0.002
-500.653	-200.000	-0.012	0.169
-499.639	-80.222	0.059	0.020
-498.624	68.550	-0.231	-0.240
-497.610	88.397	-0.152	0.171
-496.595	-23.733	-0.225	0.136
-495.581	81.517	-0.179	-0.196
-494.566	37.706	-0.272	-0.245
-493.551	-182.403	0.225	0.004
-492.537	-159.622	-0.186	0.010
-491.522	-83.826	0.114	0.037
-490.508	218.945	-0.091	0.148
-489.493	-67.106	0.242	-0.097
-488.478	20.404	0.242	-0.198
-487.464	290.664	0.092	0.169
-486.449	120.812	-0.192	-0.242
-485.435	-200.000	-0.001	-0.149
-484.420	-39.313	-0.141	-0.075
-483.405	3.361	-0.216	-0.159
-482.391	390.620	-0.013	-0.027
-481.376	-17.299	0.313	0.200
-480.362	-30.402	-0.304	-0.175
-479.347	-200.000	-0.001	-0.004
-478.332	123.158	0.131	-0.167
-477.318	-200.000	0.021	-0.258
-476.303	232.727	-0.160	0.267
-475.289	13.566	-0.048	-0.038
-474.274	0.439	-0.013	-0.009
-473.259	295.771	0.066	-0.123
-472.245	-200.000	0.002	-0.077
-471.230	-127.451	-0.346	-0.051
-470.216	-13.788	0.331	0.217
-469.201	-135.794	0.245	0.029
-468.186	75.302	-0.222	0.237
-467.172	800.000	-0.086	-0.294
-466.157	-200.000	-0.039	0.290
-465.143	-66.543	0.203	0.082
-464.128	-120.483	0.276	0.047
-463.113	-69.775	0.079	-0.030
-462.099	-200.000	-0.016	-0.170
-461.084	-200.000	0.015	-0.151
-460.070	-128.263	0.184	0.027
-459.055	34.244	-0.144	-0.128
-458.040	683.526	-0.081	0.214
-457.026	5.458	0.051	-0.038
-456.011	144.129	0.117	0.157
-454.997	-114.400	0.173	0.034
-453.982	219.872	0.152	0.247
-452.968	13.585	0.333	0.261
-451.953	161.658	-0.084	-0.120
-450.938	28.884	-0.500	-0.429
-449.924	162.969	-0.154	0.219
-448.909	-200.000	-0.004	-0.026
-447.895	-135.277	0.297	0.036
-446.880	-200.000	-0.031	0.239
-445.865	-65.703	0.278	0.113
-444.851	-200.000	0.058	0.362
-443.836	156.506	0.289	-0.403
-442.822	800.000	0.032	0.131
-441.807	208.614	-0.106	-0.168
-440.792	-200.000	0.019	-0.111
-439.778	-73.172	0.040	-0.015
-438.763	-87.369	-0.231	-0.071
-437.749	-96.765	-0.201	-0.053
-436.734	-128.089	-0.367	-0.053
-435.719	-200.000	-0.027	0.279
-434.705	-107.545	0.255	-0.056
-433.690	56.627	0.099	0.097
-432.676	-78.345	0.207	-0.072
-431.661	-200.000	-0.244	0.000
-430.646	162.491	0.206	0.293
-429.632	92.508	0.034	-0.039
-428.617	71.509	-0.241	-0.253
-427.603	81.709	-0.129	-0.141
-426.588	-200.000	-0.033	0.243
-425.573	150.232	-0.057	0.078
-424.559	-85.865	-0.022	-0.007
-423.544	143.410	-0.102	-0.137
-422.530	-75.642	-0.337	-0.121
-421.515	-16.137	0.270	0.173
-420.500	-200.000	-0.001	0.166
-419.486	23.863	-0.412	0.344
-418.471	310.763	-0.097	0.184
-417.457	-200.000	-0.057	-0.264
-416.442	-52.753	-0.252	-0.117
-415.428	-200.000	-0.015	0.171
-414.413	-147.640	-0.078	0.007
-413.398	-26.079	0.217	0.129
-412.384	-103.264	-0.196	-0.047
-411.369	277.517	0.313	-0.563
-410.355	161.978	-0.073	0.103
-409.340	97.266	-0.200	0.232
-408.325	311.069	0.044	0.084
-407.311	256.744	0.034	0.058
-406.296	96.152	-0.356	0.411
-405.282	-133.449	-0.270	0.034
-404.267	159.480	0.108	-0.151
-403.252	53.977	0.146	0.142
-402.238	800.000	0.018	0.051
-401.223	800.000	-0.120	-0.486
-400.209	-99.367	0.288	0.073
-399.194	337.146	0.114	-0.223
-398.179	35.883	0.135	-0.120
-397.165	524.419	-0.086	0.204
-396.150	800.000	-0.124	0.494
-395.136	-200.000	-0.040	-0.262
-394.121	89.350	0.160	0.180
-393.106	-58.381	0.199	0.087
-392.092	3.826	-0.405	-0.299
-391.077	-200.000	-0.001	0.174
-390.063	129.474	0.144	0.186
-389.048	419.743	-0.075	-0.163
-388.033	127.320	-0.173	0.222
-387.019	-157.795	0.259	0.016
-386.004	800.000	0.127	-0.444
-384.990	355.605	-0.156	-0.314
-383.975	800.000	-0.108	0.399
-382.960	-100.980	-0.045	0.011
-381.946	800.000	0.077	0.321
-380.931	-200.000	-0.007	-0.128
-379.917	-18.001	-0.427	-0.270
-378.902	208.328	-0.208	-0.328
-377.888	-60.285	0.227	0.098
-376.873	1.319	0.211	0.153
-375.858	-70.633	0.249	-0.095
-374.844	-200.000	-0.006	-0.071
-373.829	0.769	0.101	0.073
-372.815	-127.584	0.345	-0.050
-371.800	210.418	-0.040	0.063
-370.785	-11.412	0.051	0.034
-369.771	-5.798	-0.158	0.109
-368.756	-94.931	0.216	-0.059
-367.742	-170.842	0.182	0.006
-366.727	340.658	-0.043	-0.085
-365.712	-49.285	-0.284	-0.137
-364.698	-200.000	0.024	0.255
-363.683	-200.000	0.082	-0.000
-362.669	-200.000	0.022	0.212
-361.654	-105.824	0.282	-0.064
-360.639	-29.113	-0.067	-0.039
-359.625	77.714	0.212	-0.227
-358.610	-200.000	-0.002	-0.025
-357.596	-1.955	-0.136	0.096
-356.581	-200.000	-0.039	-0.241
-355.566	-105.445	-0.274	0.063
-354.552	-8.095	-0.282	-0.192
-353.537	23.402	0.235	0.195
-352.523	-200.000	-0.017	-0.288
-351.508	-108.811	-0.148	-0.032
-350.493	-72.908	0.403	-0.149
-349.479	183.390	-0.129	0.193
-348.464	800.000	0.046	-0.139
-347.450	-16.503	-0.114	0.073
-346.435	391.588	0.172	-0.361
-345.420	658.753	0.078	0.202
-344.406	79.367	-0.230	-0.249
-343.391	-76.287	-0.167	-0.059
-342.377	-103.853	0.274	-0.064
-341.362	-200.000	0.023	-0.283
-340.348	152.094	-0.098	0.135
-339.333	-56.272	0.319	-0.143
-338.318	57.268	-0.205	-0.201
-337.304	315.174	-0.013	-0.025
-336.289	-71.839	0.277	0.104
-335.275	-200.000	-0.027	0.274
-334.260	16.436	0.349	-0.277
-333.245	-125.183	0.105	0.016
-332.231	213.878	-0.119	-0.189
-331.216	49.597	-0.225	-0.213
-330.202	215.060	-0.141	0.225
-329.187	52.836	-0.166	0.160
-328.172	550.691	-0.073	0.177
-327.158	-75.313	0.189	-0.068
-326.143	-58.872	-0.249	-0.108
-325.129	318.434	0.024	0.045
-324.114	61.405	0.044	-0.044
-323.099	-142.568	0.136	0.013
-322.085	209.238	-0.112	0.176
-321.070	-200.000	-0.006	0.131
-320.056	596.858	0.058	-0.144
-319.041	-145.159	0.282	-0.026
-318.026	66.995	-0.243	-0.249
-317.012	86.048	-0.165	-0.182
-315.997	800.000	0.086	-0.325
-314.983	680.134	-0.039	-0.103
-313.968	658.904	-0.024	-0.063
-312.953	138.440	0.186	0.245
-311.939	-154.470	0.182	0.012
-310.924	43.429	-0.019	0.018
-309.910	-128.093	-0.200	-0.029
-308.895	222.489	0.108	0.175
-307.880	340.253	0.101	0.198
-306.866	-75.698	-0.377	0.134
-305.851	800.000	0.088	0.296
-304.837	-161.379	-0.504	-0.026
-303.822	-200.000	0.000	0.306
-302.807	-31.501	-0.137	0.078
-301.793	11.664	0.040	0.030
-300.778	-23.955	0.287	-0.173
-299.764	42.871	-0.115	-0.105
-298.749	-27.002	-0.202	0.119
-297.735	-33.915	-0.189	0.105
-296.720	-127.072	0.408	0.060
-295.705	-104.336	0.077	0.018
-294.691	47.305	-0.090	0.084
-293.676	-200.000	0.035	-0.242
-292.662	-31.197	-0.115	0.065
-291.647	29.402	-0.075	-0.064
-290.632	-106.049	0.245	-0.055
-289.618	800.000	0.043	-0.143
-288.603	-200.000	-0.054	-0.302
-287.589	79.535	0.129	-0.139
-286.574	-200.000	-0.006	-0.348
-285.559	150.470	0.088	-0.120
-284.545	595.264	-0.126	0.314
-283.530	750.615	0.122	-0.332
-282.516	800.000	-0.069	-0.234
-281.501	-127.368	-0.206	0.030
-280.486	800.000	-0.081	-0.265
-279.472	800.000	-0.031	0.135
-278.457	-77.824	-0.355	-0.123
-277.443	-75.637	-0.189	0.068
-276.428	-200.000	-0.034	0.342
-275.413	252.318	-0.132	0.226
-274.399	94.132	-0.028	-0.032
-273.384	577.579	-0.040	0.097
-272.370	98.154	0.007	0.008
-271.355	-200.000	0.007	0.080
-270.340	-200.000	-0.042	0.238
-269.326	-200.000	0.014	-0.416
-268.311	-151.341	-0.177	0.013
-267.297	60.107	0.037	0.036
-266.282	-200.000	-0.023	0.148
-265.267	294.704	0.060	0.110
-264.253	800.000	-0.071	0.283
-263.238	-32.589	-0.107	-0.060
-262.224	552.511	0.102	0.246
-261.209	22.120	-0.038	0.031
-260.195	338.592	0.166	0.324
-259.180	50.945	0.153	0.146
-258.165	-72.873	-0.211	0.078
-257.151	140.091	0.180	-0.238
-256.136	-95.719	-0.261	0.070
-255.122	-78.682	-0.158	-0.054
-254.107	-49.449	0.217	0.104
-253.092	147.651	-0.150	0.203
-252.078	-61.166	0.206	-0.087
-251.063	-9.987	-0.119	-0.080
-250.049	34.056	0.296	0.259
-249.034	553.578	-0.069	0.165
-248.019	800.000	-0.060	0.222
-247.005	-12.202	0.220	0.144
-245.990	-125.930	0.293	0.044
-244.976	-62.565	-0.140	0.058
-243.961	-28.684	0.272	0.157
-242.946	-200.000	0.081	0.395
-241.932	-104.848	0.056	0.013
-240.917	800.000	-0.034	0.131
-239.903	-20.590	0.149	-0.092
-238.888	-58.846	-0.283	0.123
-237.873	314.616	0.115	0.217
-236.859	-200.000	0.059	0.396
-235.844	-36.794	-0.088	0.048
-234.830	-13.939	0.123	-0.079
-233.815	-200.000	-0.026	0.235
-232.800	-116.744	-0.062	0.011
-231.786	-23.495	-0.110	-0.066
-230.771	-29.504	0.425	0.244
-229.757	-72.987	0.372	0.137
-228.742	-61.548	-0.152	-0.064
-227.727	800.000	-0.063	0.198
-226.713	95.229	0.235	-0.269
-225.698	-142.472	0.565	-0.056
-224.684	-200.000	-0.016	-0.144
-223.669	275.961	-0.182	0.323
-222.655	15.237	-0.207	0.163
-221.640	-132.711	0.184	0.024
-220.625	-18.360	0.226	0.142
-219.611	269.856	0.160	0.282
-218.596	-200.000	-0.003	0.132
-217.582	-114.115	-0.019	0.004
-216.567	38.344	0.038	-0.034
-215.552	-80.595	-0.090	-0.030
-214.538	800.000	-0.031	-0.106
-213.523	-90.501	0.100	0.029
-212.509	-200.000	0.049	0.286
-211.494	29.303	0.048	-0.040
-210.479	-200.000	-0.016	0.354
-209.465	-30.867	0.402	-0.228
-208.450	-0.211	0.242	-0.172
-207.436	72.563	-0.136	0.142
-206.421	800.000	0.088	0.301
-205.406	111.271	-0.230	0.278
-204.392	5.641	0.151	-0.112
-203.377	-61.406	0.100	0.042
-202.363	41.250	-0.136	0.123
-201.348	258.507	0.075	0.129
-200.333	-200.000	0.015	0.177
-199.319	531.229	0.031	-0.075
-198.304	-200.000	-0.003	0.056
-197.290	356.926	-0.106	-0.212
-196.275	53.936	-0.209	0.201
-195.260	-154.485	0.287	-0.019
-194.246	54.352	0.108	-0.104
-193.231	180.604	-0.216	-0.318
-192.217	-200.000	0.039	-0.307
-191.202	-47.702	-0.078	0.038
-190.187	-76.196	-0.274	0.097
-189.173	-178.740	0.393	-0.009
-188.158	-200.000	0.005	0.057
-187.144	4.214	0.242	-0.178
-186.129	-172.573	0.139	-0.004
-185.114	-200.000	0.006	0.085
-184.100	-200.000	0.002	-0.311
-183.085	124.095	0.104	-0.131
-182.071	800.000	-0.051	-0.220
-181.056	-117.997	0.340	-0.061
-180.042	-15.803	-0.046	-0.030
-179.027	-53.863	-0.355	-0.162
-178.012	-62.260	0.183	-0.076
-176.998	-117.160	-0.277	-0.050
-175.983	700.551	-0.043	-0.113
-174.969	19.219	0.133	-0.106
-173.954	-108.870	0.374	-0.080
-172.939	-200.000	0.006	0.109
-171.925	-200.000	-0.022	0.120
-170.910	-107.046	0.261	-0.058
-169.896	613.956	0.011	-0.028
-168.881	281.619	-0.139	-0.249
-167.866	418.163	0.112	0.240
-166.852	281.787	0.023	0.041
-165.837	-74.645	-0.325	-0.117
-164.823	-200.000	-0.022	-0.480
-163.808	-200.000	-0.002	0.055
-162.793	339.098	-0.062	-0.120
-161.779	144.216	0.137	0.183
-160.764	393.957	-0.112	-0.233
-159.750	9.092	-0.307	0.232
-158.735	-200.000	-0.023	-0.191
-157.720	361.517	-0.053	0.106
-156.706	-35.013	0.316	0.172
-155.691	800.000	-0.098	-0.357
-154.677	-49.272	-0.151	-0.072
-153.662	53.275	0.067	-0.064
-152.647	-200.000	0.017	0.109
-151.633	-200.000	0.070	-0.376
-150.618	59.484	0.141	-0.139
-149.604	-87.358	0.062	0.019
-148.589	496.950	0.017	-0.039
-147.574	800.000	0.054	-0.159
-146.560	421.146	-0.158	-0.338
-145.545	-165.934	0.217	-0.009
-144.531	-144.624	-0.484	-0.045
-143.516	-143.443	0.139	-0.013
-142.502	-68.334	-0.063	0.025
-141.487	-94.493	0.357	0.097
-140.472	-99.562	0.140	0.035
-139.458	800.000	-0.042	0.173
-138.443	53.509	0.136	0.130
-137.429	-119.931	0.048	-0.008
-136.414	-187.740	-0.389	0.005
-135.399	-42.458	-0.242	-0.123
-134.385	-153.233	-0.109	0.008
-133.370	-130.059	-0.222	-0.030
-132.356	-25.810	0.154	-0.090
-131.341	-63.275	-0.371	-0.153
-130.326	381.730	-0.102	0.209
-129.312	465.964	0.107	0.239
-128.297	-115.195	-0.077	-0.014
-127.283	-53.656	0.355	-0.162
-126.268	-11.083	-0.174	-0.114
-125.253	180.042	-0.170	0.249
-124.239	214.850	0.022	-0.035
-123.224	-58.413	0.160	0.070
-122.210	-200.000	-0.001	0.340
-121.195	-12.158	-0.112	0.073
