DTS Sentinel unit serial number:	SN413079Multiplexer serial number:	ORYXHardware model number:	OX4-SRSoftware version number:	ORYX F/W v4.00 Oryx Data Collector v3.7.2.0data status	okinstallation	princeton_trtdifferential loss correction	single-endedforward channel	channel 3reverse channel	N/Adate	2019/09/12time	10:22:10forward acquisition time	60.00reverse acquisition time	0.00gamma	496.2192k internal	0.2298k external	0.2298temperature offset calibration	1.0034default loss term (dB/km)	0.3790temperature slope calibration	1.0000multiplexer offset coefficient	1.0000multiplexer slope coefficient	1.0000fibre end	0.00T internal ref (°C)	36.77T ext. ref 1 (°C)	1.86T ext. ref 2 (°C)	34.84length (m)	temperature (°C)	Stokes	anti-Stokes-747.200	-157.020	-0.349	0.022
-746.185	800.000	-0.092	0.398
-745.171	696.798	0.041	0.109
-744.156	52.087	0.149	0.145
-743.142	-64.895	-0.276	0.114
-742.127	-134.838	-0.296	-0.037
-741.112	7.804	-0.318	0.243
-740.098	-21.651	0.334	0.208
-739.083	800.000	-0.091	-0.307
-738.069	-200.000	0.018	0.173
-737.054	14.144	-0.112	0.089
-736.039	27.757	-0.145	-0.125
-735.025	800.000	-0.073	0.239
-734.010	-99.878	-0.227	-0.058
-732.996	-44.633	0.131	0.067
-731.981	800.000	-0.049	0.149
-730.966	-109.527	-0.142	-0.031
-729.952	-200.000	-0.029	-0.261
-728.937	800.000	0.156	-0.441
-727.923	-64.951	-0.422	-0.174
-726.908	-26.430	-0.290	-0.173
-725.894	99.146	-0.337	-0.397
-724.879	197.693	-0.154	0.240
-723.864	118.431	-0.153	-0.192
-722.850	168.778	0.149	-0.216
-721.835	29.440	-0.088	-0.076
-720.821	157.656	0.141	-0.200
-719.806	70.928	0.051	-0.054
-718.791	-150.748	0.138	-0.011
-717.777	171.494	-0.016	0.024
-716.762	-133.269	-0.148	0.019
-715.748	-200.000	-0.019	-0.372
-714.733	467.722	-0.166	-0.380
-713.718	-132.566	-0.233	0.030
-712.704	800.000	0.114	0.351
-711.689	-67.337	-0.058	-0.023
-710.675	800.000	0.110	-0.349
-709.660	462.962	0.107	-0.243
-708.645	-200.000	-0.006	-0.137
-707.631	65.762	-0.086	-0.089
-706.616	-56.814	-0.128	-0.058
-705.602	-28.632	0.054	0.032
-704.587	-95.245	-0.416	-0.114
-703.572	-200.000	0.018	0.100
-702.558	-110.561	0.241	-0.051
-701.543	-57.832	-0.060	0.027
-700.529	-28.203	0.188	0.111
-699.514	110.193	-0.117	0.143
-698.499	53.863	0.181	-0.177
-697.485	315.506	0.033	-0.064
-696.470	178.549	0.127	-0.189
-695.456	222.433	-0.129	-0.211
-694.441	47.657	0.040	-0.038
-693.426	-200.000	-0.022	0.111
-692.412	800.000	0.017	0.060
-691.397	-73.975	-0.153	-0.056
-690.383	124.923	0.155	-0.198
-689.368	-99.837	-0.018	-0.005
-688.354	-121.510	0.312	-0.053
-687.339	-17.146	0.227	-0.146
-686.324	455.578	-0.100	-0.227
-685.310	133.870	0.085	0.111
-684.295	4.329	-0.151	-0.113
-683.281	13.493	-0.087	-0.069
-682.266	73.738	0.120	-0.128
-681.251	-118.473	0.126	-0.023
-680.237	-139.034	0.120	0.013
-679.222	-200.000	-0.045	-0.244
-678.208	-84.836	-0.203	-0.065
-677.193	30.940	0.022	-0.019
-676.178	184.649	-0.052	-0.079
-675.164	800.000	-0.071	-0.232
-674.149	-200.000	-0.003	-0.192
-673.135	-200.000	-0.004	0.083
-672.120	-4.020	-0.206	-0.145
-671.105	-86.318	-0.101	-0.032
-670.091	86.831	0.106	0.119
-669.076	77.013	-0.136	0.147
-668.062	-200.000	-0.021	-0.144
-667.047	98.159	-0.108	0.127
-666.032	-155.457	0.269	-0.018
-665.018	-77.732	-0.130	0.046
-664.003	-40.613	0.162	-0.086
-662.989	-193.271	0.338	-0.003
-661.974	70.259	0.210	0.221
-660.959	-140.736	0.157	0.017
-659.945	257.498	-0.072	0.125
-658.930	-155.052	0.054	-0.004
-657.916	62.454	0.233	0.237
-656.901	-65.210	0.368	-0.151
-655.886	91.030	0.068	-0.077
-654.872	-23.390	0.293	-0.179
-653.857	-200.000	0.013	0.201
-652.843	-166.628	0.100	-0.004
-651.828	252.920	-0.157	0.273
-650.814	-150.148	0.159	0.013
-649.799	-145.562	0.084	-0.008
-648.784	319.293	0.023	0.045
-647.770	800.000	0.068	-0.228
-646.755	302.087	-0.089	-0.168
-645.741	20.842	-0.282	0.232
-644.726	-200.000	0.037	0.300
-643.711	212.900	0.152	-0.243
-642.697	-34.654	0.206	-0.115
-641.682	-200.000	-0.034	-0.189
-640.668	472.659	0.063	0.145
-639.653	130.516	0.044	0.057
-638.638	95.470	-0.157	-0.182
-637.624	227.125	0.120	-0.198
-636.609	-200.000	-0.032	0.188
-635.595	329.292	0.259	0.507
-634.580	-184.192	-0.314	0.005
-633.565	-200.000	0.002	0.069
-632.551	-66.141	0.209	-0.085
-631.536	-76.537	0.095	-0.034
-630.522	-200.000	0.013	0.210
-629.507	667.735	-0.112	0.294
-628.492	-9.508	0.122	-0.083
-627.478	-60.937	-0.185	0.079
-626.463	140.967	-0.140	-0.188
-625.449	-200.000	0.012	0.126
-624.434	-110.912	-0.027	0.006
-623.419	106.132	-0.089	0.107
-622.405	84.048	0.189	0.209
-621.390	109.043	-0.163	0.198
-620.376	43.096	0.167	0.155
-619.361	30.815	-0.065	0.056
-618.346	800.000	0.035	-0.135
-617.332	-38.581	-0.095	0.051
-616.317	70.710	0.050	-0.053
-615.303	252.898	0.090	-0.156
-614.288	482.970	0.069	0.158
-613.273	798.760	0.013	0.036
-612.259	-42.911	-0.110	0.057
-611.244	133.341	0.080	-0.106
-610.230	225.800	0.158	0.260
-609.215	800.000	-0.039	-0.164
-608.201	11.806	0.279	-0.218
-607.186	18.798	-0.175	0.142
-606.171	-200.000	0.005	0.204
-605.157	-200.000	-0.020	0.101
-604.142	-135.053	0.339	0.041
-603.128	51.016	0.192	-0.185
-602.113	800.000	0.042	0.175
-601.098	9.600	-0.246	-0.189
-600.084	-138.233	0.211	0.024
-599.069	-126.314	-0.276	0.042
-598.055	800.000	-0.071	0.272
-597.040	77.061	0.147	0.158
-596.025	-200.000	-0.009	0.054
-595.011	-23.515	0.128	0.078
-593.996	-62.712	0.185	0.078
-592.982	185.420	-0.016	-0.023
-591.967	-75.269	0.171	0.062
-590.952	2.905	-0.172	0.127
-589.938	15.445	-0.138	-0.110
-588.923	800.000	0.015	0.061
-587.909	-200.000	-0.006	-0.139
-586.894	-200.000	-0.465	-0.001
-585.879	255.834	-0.115	-0.200
-584.865	-54.872	0.211	-0.096
-583.850	142.340	-0.145	-0.195
-582.836	-200.000	0.005	-0.394
-581.821	-104.659	0.022	-0.005
-580.806	248.863	-0.138	-0.237
-579.792	-122.936	-0.325	0.053
-578.777	29.466	0.186	0.160
-577.763	800.000	0.055	0.189
-576.748	1.029	-0.292	-0.212
-575.733	712.237	0.197	-0.529
-574.719	115.376	-0.152	-0.189
-573.704	-143.522	0.429	0.041
-572.690	81.143	-0.163	0.178
-571.675	-96.578	0.216	0.058
-570.661	-80.844	0.274	0.092
-569.646	473.590	-0.046	0.106
-568.631	-50.945	0.068	0.032
-567.617	-130.011	-0.156	0.022
-566.602	175.914	-0.056	-0.082
-565.588	-26.284	0.043	-0.026
-564.573	43.586	-0.134	-0.124
-563.558	-200.000	-0.026	0.131
-562.544	-69.558	-0.076	0.030
-561.529	800.000	0.079	0.239
-560.515	291.489	-0.074	-0.137
-559.500	-106.730	-0.081	0.018
-558.485	9.732	-0.062	0.048
-557.471	123.513	0.191	0.243
-556.456	-90.660	-0.122	0.036
-555.442	-112.048	-0.221	0.045
-554.427	110.095	0.111	-0.135
-553.412	362.246	-0.011	0.023
-552.398	-102.290	0.106	-0.026
-551.383	-26.715	0.171	0.101
-550.369	-72.949	0.234	0.087
-549.354	-62.202	-0.339	0.143
-548.339	-20.997	0.147	0.091
-547.325	61.162	-0.254	0.256
-546.310	102.692	0.089	0.105
-545.296	-19.160	-0.221	0.139
-544.281	-31.432	0.069	0.040
-543.266	-147.005	-0.436	0.038
-542.252	-13.128	0.148	0.097
-541.237	114.810	0.208	-0.257
-540.223	800.000	0.060	0.176
-539.208	-200.000	-0.070	-0.350
-538.193	-5.767	-0.086	-0.060
-537.179	-52.724	-0.460	0.215
-536.164	-144.587	0.137	0.013
-535.150	-111.692	0.083	-0.017
-534.135	800.000	0.033	0.118
-533.121	800.000	-0.034	-0.114
-532.106	-117.810	0.318	-0.058
-531.091	-151.690	-0.180	0.013
-530.077	48.255	0.125	0.118
-529.062	800.000	0.022	0.083
-528.048	-84.391	-0.100	-0.032
-527.033	6.687	0.163	-0.123
-526.018	326.406	-0.069	0.134
-525.004	-47.168	0.231	-0.114
-523.989	-68.704	-0.162	-0.064
-522.975	-200.000	0.009	-0.144
-521.960	-40.031	0.061	-0.032
-520.945	507.539	0.050	-0.117
-519.931	27.689	0.236	-0.201
-518.916	800.000	-0.104	-0.408
-517.902	800.000	-0.034	-0.117
-516.887	-82.869	-0.294	0.096
-515.872	96.763	-0.145	0.168
-514.858	-75.621	-0.375	-0.135
-513.843	800.000	0.060	0.186
-512.829	-200.000	0.002	-0.145
-511.814	201.466	-0.095	0.148
-510.799	800.000	-0.097	-0.323
-509.785	800.000	-0.066	-0.215
-508.770	-88.947	-0.344	-0.103
-507.756	419.525	-0.122	-0.265
-506.741	-25.704	0.250	0.149
-505.726	174.730	-0.007	0.010
-504.712	800.000	-0.083	-0.273
-503.697	65.599	0.090	0.092
-502.683	3.293	-0.240	-0.177
-501.668	-200.000	0.114	-0.561
-500.653	800.000	-0.042	0.130
-499.639	-51.445	-0.201	-0.095
-498.624	-144.897	0.094	0.009
-497.610	-7.444	0.089	0.061
-496.595	-110.331	-0.245	0.052
-495.581	43.238	0.395	-0.364
-494.566	312.756	0.152	-0.290
-493.551	800.000	0.042	-0.176
-492.537	290.891	0.136	0.249
-491.522	-14.231	-0.102	-0.066
-490.508	240.103	0.121	-0.203
-489.493	800.000	-0.021	0.064
-488.478	-135.128	-0.223	0.027
-487.464	-154.388	0.423	-0.029
-486.449	-58.305	-0.192	-0.085
-485.435	-157.004	-0.316	0.020
-484.420	-174.050	-0.252	-0.007
-483.405	-87.502	-0.177	-0.054
-482.391	48.474	0.060	-0.057
-481.376	-137.731	0.049	-0.006
-480.362	-13.996	-0.238	-0.155
-479.347	361.164	0.153	-0.310
-478.332	-87.558	-0.401	-0.122
-477.318	125.543	-0.158	-0.201
-476.303	-141.144	0.372	0.038
-475.289	800.000	-0.047	0.166
-474.274	800.000	-0.060	-0.195
-473.259	-166.165	-0.196	0.008
-472.245	800.000	0.069	-0.210
-471.230	153.128	-0.134	0.185
-470.216	248.773	0.134	0.229
-469.201	-200.000	0.048	0.223
-468.186	800.000	0.025	0.082
-467.172	-14.008	0.221	0.144
-466.157	737.334	-0.109	0.296
-465.143	-137.641	0.331	-0.038
-464.128	-200.000	0.053	-0.235
-463.113	-31.968	-0.093	-0.052
-462.099	800.000	0.037	-0.136
-461.084	-165.604	0.093	0.004
-460.070	77.422	-0.282	-0.303
-459.055	25.560	-0.233	-0.195
-458.040	385.662	-0.101	0.211
-457.026	286.890	0.129	-0.235
-456.011	-51.702	0.092	0.043
-454.997	-200.000	0.004	0.183
-453.982	-158.322	-0.335	0.020
-452.968	-181.079	-0.128	-0.003
-451.953	-3.834	-0.097	0.068
-450.938	329.256	-0.124	0.240
-449.924	-200.000	-0.017	0.162
-448.909	615.383	0.047	0.118
-447.895	-52.388	0.132	0.062
-446.880	-200.000	0.060	0.335
-445.865	70.963	0.129	0.135
-444.851	165.232	0.226	-0.322
-443.836	121.244	-0.240	-0.301
-442.822	-200.000	-0.018	0.230
-441.807	-113.595	0.159	-0.031
-440.792	230.710	0.043	0.072
-439.778	800.000	0.078	0.235
-438.763	51.692	0.236	-0.226
-437.749	-183.076	-0.171	0.003
-436.734	52.627	0.287	-0.277
-435.719	-200.000	0.006	0.119
-434.705	-74.972	-0.219	-0.079
-433.690	-26.594	-0.270	-0.159
-432.676	61.849	0.111	-0.112
-431.661	254.975	0.119	0.206
-430.646	800.000	0.043	0.119
-429.632	-30.407	-0.305	-0.174
-428.617	-91.274	0.218	0.063
-427.603	-151.704	-0.183	0.014
-426.588	102.680	-0.048	-0.057
-425.573	-45.333	-0.141	-0.071
-424.559	800.000	0.080	0.265
-423.544	-158.518	0.312	-0.018
-422.530	-66.363	-0.055	0.022
-421.515	357.064	0.095	-0.192
-420.500	-200.000	0.116	0.571
-419.486	686.892	0.191	0.504
-418.471	35.569	-0.156	0.138
-417.457	329.064	-0.096	0.186
-416.442	109.539	0.123	0.148
-415.428	-62.277	0.054	0.023
-414.413	210.844	0.038	0.059
-413.398	-97.036	0.226	-0.060
-412.384	-118.463	0.300	-0.054
-411.369	7.170	0.217	-0.163
-410.355	-200.000	-0.053	0.281
-409.340	-131.524	0.301	0.040
-408.325	-116.748	-0.207	0.038
-407.311	-1.800	-0.139	-0.098
-406.296	800.000	0.068	0.294
-405.282	-138.738	0.095	0.010
-404.267	-39.869	-0.187	-0.098
-403.252	-104.358	-0.180	-0.042
-402.238	-176.502	-0.213	-0.006
-401.223	-200.000	-0.033	0.165
-400.209	31.578	0.091	0.079
-399.194	107.032	-0.139	0.166
-398.179	-104.982	-0.256	-0.059
-397.165	636.628	0.228	-0.584
-396.150	-107.735	0.044	0.010
-395.136	-15.372	-0.117	0.075
-394.121	800.000	0.060	-0.192
-393.106	49.860	-0.107	0.102
-392.092	218.978	0.060	0.097
-391.077	495.733	-0.103	0.239
-390.063	137.917	-0.033	-0.043
-389.048	-84.143	0.267	0.085
-388.033	435.593	0.126	0.276
-387.019	-10.161	0.159	0.106
-386.004	-200.000	-0.071	0.459
-384.990	-17.031	-0.084	-0.053
-383.975	7.457	-0.063	-0.048
-382.960	-69.032	0.325	0.126
-381.946	-83.125	-0.109	-0.035
-380.931	-62.063	0.221	-0.093
-379.917	216.650	0.118	-0.189
-378.902	-200.000	0.056	-0.255
-377.888	800.000	0.043	0.157
-376.873	60.799	0.161	0.161
-375.858	-79.476	-0.302	0.103
-374.844	87.578	0.020	-0.022
-373.829	10.461	-0.073	-0.056
-372.815	67.119	-0.129	-0.132
-371.800	108.270	-0.202	-0.243
-370.785	-121.237	0.120	-0.020
-369.771	-67.901	0.113	0.044
-368.756	89.112	0.092	-0.103
-367.742	92.353	-0.168	-0.191
-366.727	-193.248	0.174	-0.002
-365.712	269.603	0.096	0.170
-364.698	4.559	-0.071	0.052
-363.683	262.192	0.133	-0.232
-362.669	-200.000	0.004	-0.231
-361.654	184.969	-0.105	-0.157
-360.639	800.000	0.010	0.032
-359.625	415.445	0.079	-0.170
-358.610	-35.502	-0.144	0.078
-357.596	800.000	-0.003	-0.010
-356.581	56.686	-0.089	-0.087
-355.566	-114.527	0.041	-0.008
-354.552	800.000	-0.048	0.209
-353.537	-58.779	0.087	-0.038
-352.523	-50.653	0.033	0.016
-351.508	219.045	0.156	0.250
-350.493	104.767	0.106	0.125
-349.479	800.000	0.109	0.312
-348.464	-50.200	0.232	-0.111
-347.450	-23.454	-0.206	-0.124
-346.435	203.774	0.204	-0.317
-345.420	-10.305	0.263	-0.175
-344.406	53.283	-0.272	-0.262
-343.391	-200.000	0.020	-0.134
-342.377	18.195	-0.062	0.050
-341.362	-115.125	-0.330	-0.063
-340.348	15.307	0.187	-0.148
-339.333	-157.403	0.146	-0.009
-338.318	34.546	0.125	0.110
-337.304	-66.704	0.086	0.034
-336.289	-200.000	-0.099	0.506
-335.275	205.987	0.088	0.137
-334.260	-200.000	0.016	-0.311
-333.245	-126.628	-0.298	0.044
-332.231	-91.488	0.105	-0.030
-331.216	-41.344	-0.254	0.131
-330.202	40.849	0.183	0.165
-329.187	-60.094	-0.178	-0.076
-328.172	-47.281	-0.119	-0.058
-327.158	-200.000	-0.033	0.155
-326.143	65.608	0.099	-0.100
-325.129	-113.846	0.089	0.017
-324.114	-200.000	-0.287	0.001
-323.099	-116.933	-0.238	0.044
-322.085	-62.970	-0.215	0.089
-321.070	-103.245	0.294	0.070
-320.056	190.790	-0.190	0.287
-319.041	156.644	0.110	-0.152
-318.026	-91.679	0.161	-0.046
-317.012	89.517	-0.156	0.175
-315.997	180.851	0.119	0.175
-314.983	-200.000	-0.012	-0.315
-313.968	-37.892	-0.354	-0.189
-312.953	-127.200	0.065	0.010
-311.939	614.740	0.039	-0.097
-310.924	800.000	-0.057	-0.192
-309.910	-38.524	-0.233	0.124
-308.895	-200.000	-0.052	0.278
-307.880	-200.000	-0.008	0.164
-306.866	-200.000	-0.017	0.239
-305.851	27.721	-0.155	-0.131
-304.837	-14.226	-0.461	-0.298
-303.822	-129.054	0.360	0.051
-302.807	800.000	-0.042	-0.139
-301.793	800.000	0.085	0.241
-300.778	-107.525	0.158	0.035
-299.764	800.000	-0.077	-0.217
-298.749	-200.000	-0.015	0.076
-297.735	60.089	0.082	-0.081
-296.720	100.997	-0.146	0.170
-295.705	-120.754	-0.098	0.017
-294.691	-60.908	0.205	-0.087
-293.676	-101.766	-0.155	0.038
-292.662	-77.298	-0.085	0.030
-291.647	-18.835	0.076	-0.048
-290.632	236.223	-0.080	-0.133
-289.618	28.885	-0.200	-0.170
-288.603	-200.000	0.018	0.085
-287.589	50.607	0.030	0.028
-286.574	-87.654	-0.134	-0.041
-285.559	300.109	-0.101	-0.186
-284.545	141.237	0.099	-0.131
-283.530	-46.718	-0.118	-0.058
-282.516	-118.070	-0.404	-0.072
-281.501	272.580	0.232	0.410
-280.486	625.762	0.027	0.069
-279.472	800.000	-0.004	-0.017
-278.457	169.073	0.131	0.188
-277.443	-97.493	0.284	0.074
-276.428	218.727	0.070	0.112
-275.413	800.000	0.081	0.301
-274.399	-200.000	-0.017	0.098
-273.384	289.623	0.048	0.087
-272.370	-200.000	0.051	0.267
-271.355	14.194	0.227	-0.177
-270.340	-200.000	-0.025	0.133
-269.326	-127.057	-0.316	-0.046
-268.311	-100.269	0.340	-0.085
-267.297	-181.693	-0.128	0.002
-266.282	486.630	0.059	-0.135
-265.267	179.762	-0.138	0.203
-264.253	541.655	0.108	-0.258
-263.238	-43.604	-0.380	-0.192
-262.224	-121.586	-0.235	0.039
-261.209	-121.754	-0.139	0.023
-260.195	116.711	-0.170	-0.209
-259.180	-200.000	-0.003	0.058
-258.165	-200.000	0.028	0.208
-257.151	-98.276	-0.323	0.083
-256.136	-2.168	0.270	-0.190
-255.122	-92.302	-0.103	-0.029
-254.107	-27.312	0.172	-0.100
-253.092	-158.290	-0.243	0.014
-252.078	119.660	0.146	-0.181
-251.063	800.000	0.078	-0.300
-250.049	-67.060	-0.071	-0.028
-249.034	-30.894	-0.115	0.065
-248.019	581.060	0.054	-0.134
-247.005	95.319	-0.193	-0.220
-245.990	-200.000	0.022	-0.147
-244.976	34.222	-0.071	-0.062
-243.961	800.000	-0.096	-0.337
-242.946	41.839	-0.135	-0.122
-241.932	710.292	0.152	0.402
-240.917	133.688	-0.057	-0.074
-239.903	112.234	-0.081	0.099
-238.888	-34.256	0.038	0.021
-237.873	39.482	0.380	0.341
-236.859	-200.000	0.050	-0.219
-235.844	-128.128	-0.352	0.050
-234.830	-200.000	0.011	0.246
-233.815	-136.682	0.012	0.001
-232.800	10.916	-0.253	-0.194
-231.786	-83.900	-0.189	0.060
-230.771	46.981	0.159	0.148
-229.757	-68.194	-0.315	-0.123
-228.742	-80.820	-0.344	-0.114
-227.727	800.000	0.106	-0.353
-226.713	-200.000	0.000	-0.107
-225.698	-200.000	0.114	-0.523
-224.684	-200.000	-0.003	-0.057
-223.669	23.145	-0.333	0.274
-222.655	-200.000	0.031	0.184
-221.640	162.200	0.056	0.078
-220.625	45.109	0.273	0.252
-219.611	-99.183	-0.173	-0.044
-218.596	-8.579	0.286	0.192
-217.582	46.521	-0.086	-0.080
-216.567	-50.408	-0.055	0.026
-215.552	-138.431	0.173	-0.019
-214.538	-81.421	0.297	0.098
-213.523	-200.000	0.078	0.418
-212.509	155.518	0.249	-0.343
-211.494	-200.000	-0.019	0.236
-210.479	240.730	0.079	0.131
-209.465	90.366	-0.138	-0.154
-208.450	-95.009	0.312	-0.084
-207.436	-9.982	-0.089	0.059
-206.421	-200.000	-0.026	0.298
-205.406	-105.875	0.067	0.015
-204.392	376.270	0.159	0.323
-203.377	223.591	0.222	0.359
-202.363	30.812	-0.262	0.224
-201.348	-5.008	-0.038	0.026
-200.333	-32.350	0.083	0.046
-199.319	195.894	0.107	-0.162
-198.304	333.375	0.167	0.322
-197.290	44.604	0.161	-0.148
-196.275	-111.076	0.451	0.092
-195.260	194.015	-0.075	0.114
-194.246	22.977	-0.138	-0.113
-193.231	-45.328	0.209	0.104
-192.217	-77.860	-0.213	-0.073
-191.202	800.000	-0.136	-0.453
-190.187	-99.237	0.225	-0.057
-189.173	-38.668	0.196	0.103
-188.158	433.413	-0.140	0.304
-187.144	-54.144	0.156	0.071
-186.129	-119.323	0.324	-0.056
-185.114	26.620	-0.098	0.082
-184.100	-130.313	0.333	-0.045
-183.085	800.000	0.109	0.323
-182.071	217.011	-0.134	-0.213
-181.056	-128.633	0.192	-0.027
-180.042	215.836	-0.112	-0.178
-179.027	49.752	-0.090	-0.085
-178.012	-137.976	0.251	0.028
-176.998	-152.461	0.216	-0.015
-175.983	-23.761	-0.115	0.069
-174.969	217.511	0.185	0.294
-173.954	193.596	-0.079	-0.119
-172.939	-199.856	-0.283	0.001
-171.925	35.866	0.128	-0.113
-170.910	646.564	0.110	-0.280
-169.896	4.854	-0.027	-0.020
-168.881	-62.743	0.083	-0.034
-167.866	428.203	0.101	-0.219
-166.852	-91.148	0.367	0.105
-165.837	-200.000	0.024	0.130
-164.823	373.189	0.019	0.039
-163.808	5.185	0.067	-0.049
-162.793	287.528	-0.126	0.227
-161.779	-9.718	0.310	-0.206
-160.764	-200.000	0.019	-0.168
-159.750	-177.973	0.202	-0.005
-158.735	-200.000	-0.026	-0.411
-157.720	-58.096	0.100	-0.043
-156.706	-29.782	-0.280	-0.159
-155.691	800.000	0.023	-0.072
-154.677	372.999	-0.275	-0.557
-153.662	3.472	0.036	-0.026
-152.647	-177.777	-0.244	0.006
-151.633	250.358	-0.122	0.207
-150.618	-200.000	0.022	-0.275
-149.604	-61.430	0.441	-0.185
-148.589	-161.671	-0.246	-0.013
-147.574	-100.044	0.069	-0.017
-146.560	191.574	-0.122	0.183
-145.545	-200.000	-0.024	0.256
-144.531	-200.000	-0.052	-0.403
-143.516	123.508	0.097	-0.122
-142.502	-155.325	-0.143	0.009
-141.487	133.154	-0.261	-0.336
-140.472	-11.695	0.059	0.038
-139.458	219.892	-0.068	0.109
-138.443	316.122	0.159	0.299
-137.429	54.928	0.248	-0.239
-136.414	-83.266	0.365	0.117
-135.399	31.906	0.172	-0.147
-134.385	-200.000	0.001	-0.213
-133.370	15.372	0.269	-0.210
-132.356	287.762	-0.065	-0.118
-131.341	800.000	-0.098	-0.352
-130.326	60.587	-0.184	-0.182
-129.312	255.956	0.018	-0.030
-128.297	-69.472	0.150	0.057
-127.283	16.299	0.090	0.071
-126.268	618.119	0.046	-0.116
-125.253	800.000	-0.069	-0.197
-124.239	105.038	-0.148	-0.174
-123.224	81.165	-0.075	0.081
-122.210	-101.752	0.179	0.043
-121.195	800.000	-0.022	0.079
-120.180	-159.435	-0.103	0.006
