DTS Sentinel unit serial number:	SN413079Multiplexer serial number:	ORYXHardware model number:	OX4-SRSoftware version number:	ORYX F/W v4.00 Oryx Data Collector v3.7.2.0data status	okinstallation	princeton_trtdifferential loss correction	single-endedforward channel	channel 3reverse channel	N/Adate	2019/09/18time	03:44:35forward acquisition time	60.00reverse acquisition time	0.00gamma	496.2192k internal	0.2343k external	0.2343temperature offset calibration	0.9947default loss term (dB/km)	0.3790temperature slope calibration	1.0000multiplexer offset coefficient	1.0000multiplexer slope coefficient	1.0000fibre end	0.00T internal ref (°C)	22.94T ext. ref 1 (°C)	0.17T ext. ref 2 (°C)	18.05length (m)	temperature (°C)	Stokes	anti-Stokes-747.200	-89.132	-0.259	0.076
-746.185	800.000	0.046	-0.131
-745.171	85.059	-0.157	-0.172
-744.156	-31.967	-0.073	-0.041
-743.142	173.194	0.156	0.226
-742.127	800.000	-0.064	0.219
-741.112	84.176	-0.226	-0.248
-740.098	11.955	-0.195	-0.150
-739.083	-200.000	0.014	-0.092
-738.069	-200.000	-0.008	-0.066
-737.054	-200.000	-0.007	-0.351
-736.039	-130.589	-0.649	0.088
-735.025	157.525	0.244	0.338
-734.010	533.773	0.040	-0.094
-732.996	-96.773	0.073	-0.019
-731.981	-57.400	0.243	-0.107
-730.966	162.521	-0.099	-0.140
-729.952	-144.188	0.109	0.010
-728.937	-200.000	-0.150	0.000
-727.923	-0.167	-0.056	-0.040
-726.908	-200.000	-0.068	-0.369
-725.894	796.911	-0.052	-0.143
-724.879	800.000	-0.125	-0.481
-723.864	-200.000	-0.019	-0.260
-722.850	-123.599	0.261	-0.041
-721.835	800.000	0.069	0.206
-720.821	647.044	-0.027	-0.069
-719.806	-47.127	0.046	0.023
-718.791	-141.514	0.221	0.022
-717.777	301.832	-0.164	-0.303
-716.762	800.000	0.021	-0.064
-715.748	64.690	-0.179	0.181
-714.733	29.452	-0.166	0.141
-713.718	66.136	-0.218	-0.221
-712.704	-56.707	-0.409	0.181
-711.689	-53.222	0.350	0.161
-710.675	58.432	-0.033	-0.032
-709.660	800.000	-0.038	0.145
-708.645	-27.054	-0.074	-0.043
-707.631	-31.874	0.293	0.164
-706.616	-12.661	-0.088	0.057
-705.602	-200.000	-0.001	-0.162
-704.587	-200.000	-0.006	-0.063
-703.572	161.969	-0.178	-0.250
-702.558	-94.131	0.187	-0.051
-701.543	-48.902	-0.315	0.151
-700.529	77.579	-0.039	-0.041
-699.514	239.748	-0.130	0.216
-698.499	-140.350	0.073	-0.008
-697.485	32.188	0.180	-0.155
-696.470	-200.000	-0.037	-0.421
-695.456	800.000	-0.022	-0.080
-694.441	290.780	0.143	0.259
-693.426	-88.408	-0.212	0.063
-692.412	-200.000	-0.058	-0.384
-691.397	800.000	-0.006	0.023
-690.383	178.962	0.222	-0.324
-689.368	-200.000	-0.027	-0.334
-688.354	47.211	-0.141	0.131
-687.339	-200.000	0.030	0.149
-686.324	-200.000	0.005	0.187
-685.310	291.639	-0.143	0.260
-684.295	-200.000	-0.018	-0.235
-683.281	450.837	0.136	-0.299
-682.266	-120.364	0.048	0.008
-681.251	674.685	0.200	-0.518
-680.237	698.230	-0.079	0.207
-679.222	-71.872	-0.120	0.044
-678.208	-28.026	0.177	-0.102
-677.193	-87.999	0.200	0.060
-676.178	800.000	-0.071	0.271
-675.164	-25.786	0.260	0.153
-674.149	136.705	0.113	-0.147
-673.135	-55.267	0.228	0.102
-672.120	26.677	-0.078	0.065
-671.105	181.014	0.139	0.204
-670.091	800.000	0.077	-0.319
-669.076	27.424	-0.165	0.139
-668.062	-200.000	-0.036	-0.178
-667.047	407.529	-0.146	0.309
-666.032	318.009	0.089	0.169
-665.018	-200.000	0.004	0.040
-664.003	-200.000	0.007	0.136
-662.989	-123.473	0.072	0.011
-661.974	-2.608	0.143	0.100
-660.959	211.103	0.137	-0.215
-659.945	-110.921	0.172	0.035
-658.930	137.444	-0.148	-0.193
-657.916	-2.430	-0.060	0.042
-656.901	-174.138	0.340	0.010
-655.886	-200.000	0.041	-0.300
-654.872	-119.072	-0.285	0.050
-653.857	485.826	-0.167	0.381
-652.843	64.958	0.043	-0.043
-651.828	37.774	-0.097	-0.086
-650.814	-200.000	0.060	-0.300
-649.799	800.000	0.104	-0.289
-648.784	-93.785	-0.128	0.035
-647.770	-119.414	0.253	-0.044
-646.755	251.182	0.109	0.185
-645.741	-32.750	-0.306	-0.170
-644.726	189.651	0.154	-0.230
-643.711	212.585	0.119	-0.188
-642.697	800.000	-0.115	0.369
-641.682	106.492	-0.018	-0.021
-640.668	106.412	-0.183	-0.216
-639.653	490.979	0.139	0.318
-638.638	800.000	-0.041	0.120
-637.624	-200.000	0.012	0.057
-636.609	-110.231	-0.239	0.050
-635.595	-74.591	-0.232	0.083
-634.580	-117.231	-0.152	0.028
-633.565	800.000	0.060	-0.221
-632.551	153.213	0.126	0.173
-631.536	81.404	-0.087	-0.094
-630.522	-200.000	-0.045	0.320
-629.507	168.428	0.147	0.209
-628.492	800.000	-0.116	0.396
-627.478	26.847	0.112	-0.094
-626.463	800.000	0.024	-0.074
-625.449	800.000	0.026	-0.072
-624.434	-121.786	-0.221	0.036
-623.419	-83.301	0.317	0.101
-622.405	-200.000	0.010	-0.120
-621.390	-200.000	0.002	-0.077
-620.376	-200.000	-0.037	0.252
-619.361	-6.279	0.129	-0.088
-618.346	800.000	0.087	0.291
-617.332	-200.000	0.033	0.219
-616.317	-105.647	0.302	-0.068
-615.303	25.594	-0.303	0.251
-614.288	471.431	0.070	0.156
-613.273	-200.000	-0.037	-0.173
-612.259	-200.000	0.030	-0.186
-611.244	190.335	-0.094	-0.141
-610.230	-200.000	0.042	-0.337
-609.215	254.218	-0.070	-0.119
-608.201	-8.017	-0.154	0.103
-607.186	146.643	0.140	0.187
-606.171	-104.204	0.354	0.082
-605.157	-195.002	-0.348	0.003
-604.142	700.377	-0.038	-0.099
-603.128	48.789	-0.134	0.125
-602.113	164.523	0.169	-0.238
-601.098	29.272	-0.428	0.362
-600.084	193.900	0.126	-0.190
-599.069	-155.025	0.118	0.008
-598.055	62.280	-0.206	-0.205
-597.040	-200.000	0.041	-0.292
-596.025	-158.832	-0.108	-0.006
-595.011	-86.009	-0.251	-0.077
-593.996	129.652	-0.073	0.093
-592.982	-109.356	0.388	-0.082
-591.967	-81.777	0.215	0.070
-590.952	546.205	-0.100	0.237
-589.938	-200.000	0.005	-0.169
-588.923	163.187	0.113	0.158
-587.909	-24.296	0.127	-0.075
-586.894	283.225	-0.095	0.171
-585.879	-181.173	-0.125	0.002
-584.865	-60.356	-0.407	0.172
-583.850	136.521	0.083	-0.108
-582.836	-52.920	-0.044	-0.020
-581.821	482.531	-0.049	0.110
-580.806	38.840	0.135	-0.120
-579.792	-152.112	-0.134	-0.010
-578.777	-79.572	-0.203	0.068
-577.763	-81.258	-0.250	-0.082
-576.748	-200.000	-0.013	0.244
-575.733	-60.778	-0.423	0.178
-574.719	106.977	-0.191	-0.226
-573.704	54.130	0.175	-0.167
-572.690	-200.000	0.011	-0.130
-571.675	-200.000	0.004	-0.124
-570.661	800.000	-0.064	-0.208
-569.646	-21.792	0.180	0.109
-568.631	-71.780	0.070	-0.026
-567.617	800.000	-0.120	0.427
-566.602	694.828	-0.059	0.154
-565.588	-200.000	-0.040	0.196
-564.573	800.000	0.053	0.163
-563.558	-200.000	-0.019	0.220
-562.544	800.000	-0.083	0.237
-561.529	-200.000	0.008	-0.184
-560.515	126.820	-0.324	0.409
-559.500	312.572	0.060	-0.112
-558.485	119.951	0.135	-0.166
-557.471	19.333	-0.192	0.153
-556.456	-200.000	-0.058	0.261
-555.442	759.171	0.073	-0.198
-554.427	-35.243	0.122	-0.066
-553.412	89.143	-0.053	-0.059
-552.398	61.779	-0.035	0.035
-551.383	-200.000	0.009	-0.194
-550.369	91.694	0.129	0.144
-549.354	800.000	0.052	-0.190
-548.339	-200.000	0.015	0.441
-547.325	-200.000	0.028	0.361
-546.310	622.613	-0.079	0.197
-545.296	40.226	-0.136	0.121
-544.281	-91.066	0.125	-0.036
-543.266	-50.670	0.094	0.044
-542.252	-91.255	0.273	0.078
-541.237	-40.473	0.361	-0.186
-540.223	-200.000	0.035	0.156
-539.208	22.617	-0.335	-0.273
-538.193	564.831	0.066	-0.158
-537.179	544.079	-0.115	0.273
-536.164	-124.803	0.289	0.044
-535.150	209.596	-0.097	-0.151
-534.135	-175.329	0.180	-0.005
-533.121	442.990	0.107	0.234
-532.106	-140.561	0.168	0.017
-531.091	8.278	-0.106	-0.079
-530.077	-64.534	0.238	0.096
-529.062	-200.000	-0.009	-0.042
-528.048	800.000	-0.066	-0.238
-527.033	800.000	-0.020	-0.086
-526.018	-51.072	-0.094	0.044
-525.004	-40.020	0.320	0.165
-523.989	103.907	-0.031	0.036
-522.975	-200.000	-0.008	-0.183
-521.960	-200.000	0.010	-0.092
-520.945	55.246	-0.054	-0.052
-519.931	-200.000	0.011	-0.332
-518.916	-32.943	-0.272	-0.150
-517.902	47.055	0.104	0.096
-516.887	-143.750	0.168	0.016
-515.872	800.000	0.072	0.205
-514.858	15.353	0.373	0.291
-513.843	603.047	-0.240	-0.593
-512.829	70.153	0.122	-0.125
-511.814	-200.000	0.013	-0.180
-510.799	116.376	0.097	-0.118
-509.785	-111.522	0.178	0.036
-508.770	-84.937	-0.093	-0.029
-507.756	-4.171	0.052	0.035
-506.741	-159.661	-0.230	-0.013
-505.726	-49.671	-0.168	0.079
-504.712	-22.609	0.206	0.124
-503.697	800.000	-0.065	-0.192
-502.683	800.000	-0.050	0.189
-501.668	-55.624	-0.317	-0.141
-500.653	-99.100	0.226	0.057
-499.639	-200.000	-0.039	-0.432
-498.624	374.594	-0.091	-0.185
-497.610	-144.938	0.198	-0.018
-496.595	-200.000	0.008	-0.126
-495.581	-200.000	-0.023	0.285
-494.566	-70.010	0.303	0.115
-493.551	-121.886	0.136	-0.022
-492.537	-127.312	0.320	-0.046
-491.522	141.839	0.217	-0.285
-490.508	-26.468	0.265	0.154
-489.493	-39.847	-0.324	-0.168
-488.478	85.505	0.047	-0.051
-487.464	55.184	-0.246	-0.236
-486.449	-154.790	-0.258	-0.017
-485.435	800.000	0.064	-0.179
-484.420	152.212	0.259	0.350
-483.405	-86.098	0.201	0.061
-482.391	800.000	-0.063	-0.229
-481.376	415.844	-0.135	-0.286
-480.362	-20.919	-0.106	0.064
-479.347	57.636	0.218	0.211
-478.332	-200.000	-0.058	0.332
-477.318	56.899	0.063	-0.060
-476.303	-200.000	-0.002	-0.185
-475.289	800.000	-0.077	-0.276
-474.274	8.905	-0.216	-0.162
-473.259	-200.000	0.010	-0.093
-472.245	-200.000	-0.080	0.359
-471.230	-84.574	-0.355	-0.111
-470.216	-200.000	-0.029	-0.128
-469.201	-108.109	-0.261	-0.056
-468.186	-100.445	0.182	0.045
-467.172	8.833	-0.042	-0.032
-466.157	-36.444	0.192	0.102
-465.143	446.069	-0.139	0.303
-464.128	800.000	0.039	-0.139
-463.113	221.706	0.186	-0.296
-462.099	680.239	-0.049	-0.126
-461.084	800.000	-0.037	-0.150
-460.070	-74.457	-0.080	0.028
-459.055	99.714	-0.065	0.075
-458.040	209.971	0.089	-0.139
-457.026	-200.000	0.012	-0.086
-456.011	-200.000	0.069	-0.438
-454.997	401.575	0.059	-0.124
-453.982	-200.000	-0.053	-0.424
-452.968	557.940	0.055	0.130
-451.953	-71.449	0.291	0.108
-450.938	-18.267	-0.074	0.046
-449.924	-82.605	-0.141	0.045
-448.909	-75.426	0.462	0.163
-447.895	-81.742	-0.438	0.142
-446.880	800.000	-0.012	-0.034
-445.865	-9.714	-0.217	-0.143
-444.851	63.881	0.136	0.135
-443.836	369.989	-0.154	0.308
-442.822	-173.155	-0.221	-0.007
-441.807	22.634	0.287	-0.233
-440.792	-47.303	-0.379	-0.183
-439.778	-71.550	0.237	0.088
-438.763	1.472	0.054	-0.038
-437.749	35.933	0.068	0.059
-436.734	256.997	0.096	0.164
-435.719	-66.920	-0.109	-0.043
-434.705	-200.000	0.027	0.226
-433.690	-200.000	-0.013	0.204
-432.676	-35.281	0.148	0.079
-431.661	-84.847	-0.059	0.018
-430.646	-103.712	0.332	-0.077
-429.632	-143.085	-0.179	-0.017
-428.617	-131.098	-0.257	-0.034
-427.603	510.466	-0.095	-0.218
-426.588	56.949	0.175	0.169
-425.573	75.797	-0.311	0.325
-424.559	-135.318	0.044	0.005
-423.544	800.000	0.091	0.263
-422.530	42.741	0.213	-0.192
-421.515	-200.000	0.009	0.069
-420.500	69.069	-0.171	-0.174
-419.486	-200.000	-0.036	0.271
-418.471	-1.990	-0.220	-0.153
-417.457	-150.498	0.054	0.004
-416.442	-81.461	0.158	-0.051
-415.428	-200.000	0.014	-0.196
-414.413	-33.692	0.179	-0.098
-413.398	-17.601	0.021	-0.013
-412.384	34.995	0.052	0.045
-411.369	47.073	0.036	0.033
-410.355	262.336	0.235	0.404
-409.340	-115.156	-0.219	-0.041
-408.325	113.618	-0.339	-0.407
-407.311	-107.932	0.323	0.069
-406.296	-27.930	-0.089	0.051
-405.282	34.685	-0.155	0.134
-404.267	-53.083	-0.011	-0.005
-403.252	800.000	0.039	0.106
-402.238	1.587	-0.246	0.175
-401.223	-123.239	-0.090	-0.014
-400.209	-66.651	0.259	0.101
-399.194	688.694	-0.056	-0.145
-398.179	-65.633	-0.040	0.016
-397.165	-133.636	0.062	-0.008
-396.150	-4.992	0.187	0.127
-395.136	165.460	-0.200	-0.280
-394.121	-38.746	-0.277	-0.145
-393.106	-48.109	0.368	-0.176
-392.092	-112.486	0.151	0.030
-391.077	190.734	-0.197	0.292
-390.063	47.026	0.142	0.130
-389.048	125.049	0.164	0.204
-388.033	-102.116	-0.090	0.021
-387.019	46.379	0.240	-0.220
-386.004	161.866	-0.199	-0.275
-384.990	-63.472	0.123	-0.050
-383.975	800.000	0.124	-0.340
-382.960	383.682	0.060	-0.123
-381.946	-146.349	0.112	-0.010
-380.931	-200.000	0.049	0.290
-379.917	800.000	-0.029	-0.120
-378.902	675.173	-0.044	-0.114
-377.888	252.338	-0.135	-0.227
-376.873	29.035	-0.177	0.148
-375.858	-33.636	-0.111	-0.060
-374.844	-57.872	-0.268	-0.115
-373.829	-38.589	0.220	-0.115
-372.815	20.256	-0.150	-0.120
-371.800	14.594	0.049	-0.038
-370.785	252.313	0.039	0.066
-369.771	135.469	0.041	0.052
-368.756	-47.000	-0.157	0.076
-367.742	800.000	0.065	0.279
-366.727	303.820	0.094	-0.171
-365.712	-29.676	0.027	0.015
-364.698	-200.000	-0.063	0.523
-363.683	184.551	0.145	0.211
-362.669	-200.000	-0.045	-0.262
-361.654	-112.158	-0.263	0.052
-360.639	-23.363	-0.277	-0.164
-359.625	175.576	-0.216	0.309
-358.610	-4.390	-0.165	0.112
-357.596	595.304	0.104	-0.254
-356.581	-3.363	0.034	-0.023
-355.566	-42.125	-0.191	0.097
-354.552	-120.184	0.202	-0.034
-353.537	800.000	0.140	0.409
-352.523	-89.938	0.267	0.077
-351.508	-167.600	-0.381	0.015
-350.493	625.567	-0.160	-0.399
-349.479	24.788	0.273	-0.223
-348.464	-108.961	0.237	0.050
-347.450	-174.698	0.170	-0.005
-346.435	-200.000	-0.028	0.189
-345.420	21.732	0.072	-0.058
-344.406	800.000	-0.038	-0.140
-343.391	800.000	0.036	-0.128
-342.377	-85.071	0.364	-0.112
-341.362	-11.704	0.060	0.039
-340.348	-34.303	0.128	-0.069
-339.333	800.000	0.024	-0.084
-338.318	86.231	0.034	0.037
-337.304	360.351	-0.043	0.084
-336.289	-53.520	0.251	0.113
-335.275	-94.721	0.377	0.101
-334.260	63.741	-0.156	-0.155
-333.245	111.777	0.110	0.130
-332.231	-27.139	0.089	-0.051
-331.216	-200.000	-0.005	-0.151
-330.202	-169.253	-0.109	0.004
-329.187	-17.294	0.178	0.111
-328.172	22.597	-0.201	-0.162
-327.158	-200.000	-0.013	-0.279
-326.143	-56.198	0.167	-0.073
-325.129	47.125	-0.216	-0.198
-324.114	-200.000	0.012	-0.225
-323.099	-200.000	-0.004	-0.490
-322.085	-30.654	-0.125	0.070
-321.070	-200.000	-0.035	0.196
-320.056	-52.919	-0.058	-0.026
-319.041	15.027	-0.184	-0.142
-318.026	721.143	-0.139	-0.363
-317.012	116.744	0.186	0.225
-315.997	-34.001	0.180	0.098
-314.983	6.950	0.245	-0.180
-313.968	165.413	-0.065	-0.091
-312.953	-200.000	-0.036	0.200
-311.939	-200.000	-0.005	-0.111
-310.924	-129.492	-0.242	0.033
-309.910	-21.504	-0.059	0.035
-308.895	-69.788	-0.179	0.067
-307.880	-200.000	0.002	-0.119
-306.866	-200.000	0.061	0.305
-305.851	-45.509	0.219	-0.107
-304.837	3.488	-0.072	0.052
-303.822	800.000	0.038	0.148
-302.807	566.310	0.048	0.115
-301.793	-31.814	-0.260	0.144
-300.778	-200.000	0.013	0.076
-299.764	40.329	-0.303	-0.268
-298.749	245.322	-0.073	0.120
-297.735	-0.879	-0.254	-0.177
-296.720	800.000	0.049	-0.206
-295.705	394.583	-0.071	-0.147
-294.691	1.632	0.088	0.062
-293.676	800.000	-0.006	0.023
-292.662	-200.000	0.008	0.236
-291.647	-178.411	-0.183	-0.004
-290.632	-2.458	0.186	0.129
-289.618	139.296	0.067	0.087
-288.603	-36.489	-0.331	-0.175
-287.589	-200.000	0.001	0.052
-286.574	-127.746	0.147	-0.021
-285.559	487.435	0.062	0.140
-284.545	-200.000	-0.014	-0.233
-283.530	225.932	-0.097	-0.155
-282.516	358.767	0.015	0.029
-281.501	476.657	0.131	0.292
-280.486	-67.998	-0.170	-0.065
-279.472	-78.641	0.259	0.087
-278.457	21.902	0.095	-0.076
-277.443	-200.000	-0.041	-0.181
-276.428	314.366	-0.084	0.155
-275.413	-55.426	0.081	-0.036
-274.399	-85.613	0.377	0.115
-273.384	634.875	0.021	-0.053
-272.370	187.636	0.162	0.237
-271.355	800.000	-0.038	-0.162
-270.340	793.524	0.016	-0.042
-269.326	-155.946	-0.271	-0.017
-268.311	124.097	0.125	0.154
-267.297	62.745	0.151	0.148
-266.282	-129.430	0.133	-0.018
-265.267	-200.000	-0.019	0.352
-264.253	97.370	-0.133	-0.150
-263.238	82.344	0.151	-0.160
-262.224	457.563	0.065	-0.143
-261.209	-149.493	0.176	-0.014
-260.195	-200.000	-0.006	-0.048
-259.180	-13.326	0.321	0.205
-258.165	-200.000	0.036	-0.163
-257.151	-26.653	0.210	-0.121
-256.136	371.196	0.093	0.185
-255.122	-200.000	-0.028	-0.203
-254.107	-137.683	-0.033	0.004
-253.092	117.116	-0.165	-0.199
-252.078	203.966	-0.167	0.254
-251.063	-36.298	0.324	0.172
-250.049	41.223	-0.118	0.105
-249.034	-109.407	-0.120	0.025
-248.019	-110.945	-0.358	-0.072
-247.005	-71.542	-0.151	0.055
-245.990	-200.000	-0.008	-0.109
-244.976	-136.709	0.227	-0.026
-243.961	62.551	0.109	0.107
-242.946	-11.365	-0.237	-0.153
-241.932	0.833	-0.084	0.059
-240.917	409.955	0.139	0.289
-239.903	-132.791	-0.407	-0.051
-238.888	-200.000	0.014	0.070
-237.873	-36.505	0.265	-0.140
-236.859	-28.965	-0.370	0.208
-235.844	-61.312	-0.184	0.076
-234.830	2.270	-0.168	-0.120
-233.815	-189.307	-0.127	0.001
-232.800	93.597	-0.184	-0.204
-231.786	-161.341	-0.218	0.011
-230.771	106.161	-0.163	-0.189
-229.757	-200.000	-0.002	0.054
-228.742	-198.049	-0.121	0.001
-227.727	77.789	0.170	0.177
-226.713	-169.107	0.241	-0.009
-225.698	213.058	0.099	0.153
-224.684	-65.277	-0.182	0.072
-223.669	-108.077	-0.140	-0.030
-222.655	-127.273	-0.125	0.018
-221.640	-102.259	-0.064	-0.015
-220.625	-200.000	-0.029	-0.138
-219.611	8.227	0.143	0.105
-218.596	-82.040	0.198	0.063
-217.582	259.617	-0.228	-0.386
-216.567	800.000	0.079	0.247
-215.552	221.317	0.140	0.221
-214.538	-6.116	0.178	-0.119
-213.523	-148.584	0.320	0.026
-212.509	78.701	-0.296	-0.310
-211.494	-139.504	0.102	-0.011
-210.479	-124.116	0.119	-0.018
-209.465	-200.000	0.022	0.205
-208.450	103.998	0.150	0.173
-207.436	40.151	-0.154	-0.136
-206.421	177.421	0.104	-0.148
-205.406	6.596	0.145	0.106
-204.392	376.979	-0.080	-0.160
-203.377	-102.876	-0.316	0.074
-202.363	11.884	0.214	-0.161
-201.348	-49.487	0.108	0.051
-200.333	39.197	-0.246	-0.215
-199.319	-200.000	0.032	-0.199
-198.304	-200.000	0.003	-0.088
-197.290	25.480	-0.199	0.162
-196.275	319.462	0.101	0.188
-195.260	-50.220	0.035	0.016
-194.246	-167.414	0.352	-0.014
-193.231	113.550	0.283	0.336
-192.217	32.644	-0.241	0.204
-191.202	7.622	-0.345	-0.253
-190.187	-109.160	0.221	0.046
-189.173	-109.329	0.058	-0.012
-188.158	76.691	-0.124	0.128
-187.144	-131.511	-0.184	-0.024
-186.129	-53.503	-0.358	-0.160
-185.114	73.159	0.160	0.164
-184.100	132.489	-0.088	0.112
-183.085	800.000	0.064	0.223
-182.071	-200.000	-0.043	0.358
-181.056	-15.273	0.173	-0.108
-180.042	126.412	0.122	0.152
-179.027	-200.000	0.025	-0.112
-178.012	-27.844	0.104	-0.059
-176.998	-62.708	-0.399	0.162
-175.983	-200.000	0.005	-0.058
-174.969	-58.988	-0.324	-0.137
-173.954	-134.775	0.088	0.010
-172.939	-55.147	0.163	-0.072
-171.925	800.000	-0.087	-0.255
-170.910	-7.270	-0.214	0.142
-169.896	446.496	0.041	0.089
-168.881	-96.124	-0.196	-0.051
-167.866	-142.770	0.327	-0.031
-166.852	270.507	0.056	0.096
-165.837	437.846	0.028	-0.059
-164.823	-200.000	0.002	0.059
-163.808	73.330	-0.045	-0.046
-162.793	-70.683	0.391	-0.145
-161.779	186.751	0.077	0.112
-160.764	126.416	0.154	0.190
-159.750	108.475	-0.353	0.412
-158.735	-85.237	0.376	-0.115
-157.720	5.899	0.242	-0.175
-156.706	-139.352	-0.110	-0.012
-155.691	12.679	0.066	0.050
-154.677	800.000	-0.095	-0.327
-153.662	230.229	0.124	0.198
-152.647	-200.000	-0.017	-0.116
-151.633	-65.453	-0.308	0.121
-150.618	-127.915	-0.405	0.057
-149.604	64.968	0.220	-0.217
-148.589	-193.318	-0.037	-0.000
-147.574	-23.144	0.254	0.149
-146.560	800.000	0.015	-0.054
-145.545	-74.262	0.417	-0.147
-144.531	-89.873	-0.144	-0.041
-143.516	-200.000	0.054	0.279
-142.502	193.616	0.167	-0.248
-141.487	141.447	0.071	-0.092
-140.472	-200.000	-0.056	0.394
-139.458	30.782	-0.172	0.144
-138.443	-200.000	-0.007	-0.121
-137.429	583.528	-0.068	-0.164
-136.414	-48.120	0.186	-0.088
-135.399	800.000	-0.043	-0.122
-134.385	-48.038	0.290	0.137
-133.370	-53.801	0.311	-0.139
-132.356	-89.591	-0.400	-0.115
-131.341	43.288	0.263	0.235
-130.326	223.282	-0.185	-0.292
-129.312	-130.750	-0.313	-0.041
-128.297	-200.000	-0.071	-0.427
-127.283	-140.438	0.157	0.016
-126.268	-139.653	0.124	0.013
-125.253	-200.000	0.011	-0.102
-124.239	-87.719	0.074	-0.022
-123.224	142.261	-0.184	-0.239
-122.210	-88.114	0.197	-0.058
-121.195	800.000	-0.034	0.105
