DTS Sentinel unit serial number:	SN413079Multiplexer serial number:	ORYXHardware model number:	OX4-SRSoftware version number:	ORYX F/W v4.00 Oryx Data Collector v3.7.2.0data status	okinstallation	princeton_trtdifferential loss correction	single-endedforward channel	channel 3reverse channel	N/Adate	2019/09/18time	20:16:35forward acquisition time	60.00reverse acquisition time	0.00gamma	496.2192k internal	0.2334k external	0.2334temperature offset calibration	1.0004default loss term (dB/km)	0.3790temperature slope calibration	1.0000multiplexer offset coefficient	1.0000multiplexer slope coefficient	1.0000fibre end	0.00T internal ref (°C)	29.19T ext. ref 1 (°C)	0.93T ext. ref 2 (°C)	19.85length (m)	temperature (°C)	Stokes	anti-Stokes-747.200	-59.251	0.204	-0.088
-746.185	-103.704	-0.306	0.072
-745.171	-134.652	-0.247	-0.030
-744.156	-104.108	-0.330	0.077
-743.142	-171.476	0.288	-0.010
-742.127	-200.000	-0.009	0.191
-741.112	-186.594	-0.074	0.001
-740.098	-81.476	0.341	-0.113
-739.083	-200.000	0.015	0.208
-738.069	800.000	-0.086	0.247
-737.054	285.381	-0.015	0.028
-736.039	3.891	-0.213	-0.156
-735.025	-109.891	0.181	0.038
-734.010	-200.000	0.007	0.033
-732.996	-60.191	-0.154	-0.066
-731.981	-200.000	0.026	-0.223
-730.966	38.406	-0.082	0.073
-729.952	-59.895	-0.156	-0.067
-728.937	-11.292	0.270	0.179
-727.923	-14.214	0.314	0.204
-726.908	271.912	0.137	0.244
-725.894	72.323	0.248	-0.260
-724.879	40.612	0.094	-0.085
-723.864	-119.331	-0.257	0.045
-722.850	-200.000	0.007	0.081
-721.835	144.642	0.119	0.160
-720.821	-21.995	0.129	0.078
-719.806	-77.120	-0.220	0.077
-718.791	-57.623	-0.434	-0.191
-717.777	-47.139	-0.213	-0.104
-716.762	370.251	0.049	-0.101
-715.748	-106.057	-0.396	-0.089
-714.733	-70.391	0.276	0.105
-713.718	-63.070	0.176	0.073
-712.704	-200.000	0.001	-0.059
-711.689	491.279	-0.055	0.126
-710.675	-200.000	-0.010	-0.100
-709.660	-200.000	-0.051	-0.356
-708.645	-55.544	-0.056	-0.025
-707.631	-200.000	0.014	0.139
-706.616	-200.000	0.018	-0.178
-705.602	280.643	0.141	-0.252
-704.587	-149.983	-0.178	0.014
-703.572	100.450	0.138	-0.160
-702.558	22.724	0.114	-0.094
-701.543	-42.831	-0.202	0.103
-700.529	-82.713	0.402	0.131
-699.514	-31.494	-0.043	0.024
-698.499	800.000	-0.086	0.269
-697.485	-29.659	-0.118	0.068
-696.470	318.986	-0.047	-0.089
-695.456	-200.000	-0.016	0.266
-694.441	14.941	0.285	-0.224
-693.426	64.879	-0.080	-0.081
-692.412	-64.203	0.147	0.060
-691.397	-64.786	-0.094	0.038
-690.383	60.426	-0.123	0.122
-689.368	-83.198	-0.054	-0.017
-688.354	-134.063	0.160	-0.020
-687.339	-60.748	-0.278	0.118
-686.324	-200.000	-0.054	0.337
-685.310	593.833	-0.071	0.175
-684.295	-104.698	0.091	-0.021
-683.281	568.779	-0.057	-0.139
-682.266	-51.790	-0.021	-0.010
-681.251	-84.404	-0.295	0.094
-680.237	57.318	-0.246	-0.241
-679.222	-200.000	-0.016	-0.115
-678.208	-182.925	0.307	0.006
-677.193	-112.120	-0.189	-0.038
-676.178	92.966	-0.053	0.060
-675.164	-139.107	0.473	0.051
-674.149	-178.244	0.522	-0.012
-673.135	90.666	0.163	-0.183
-672.120	-139.175	-0.480	-0.052
-671.105	800.000	-0.052	-0.148
-670.091	-92.881	-0.350	-0.098
-669.076	218.720	0.279	0.447
-668.062	196.793	0.120	0.183
-667.047	340.973	-0.118	-0.231
-666.032	152.718	-0.101	-0.138
-665.018	800.000	-0.062	0.251
-664.003	-81.929	0.281	-0.092
-662.989	53.136	0.202	0.193
-661.974	40.663	-0.125	0.113
-660.959	-123.933	0.213	-0.034
-659.945	-169.465	-0.165	-0.006
-658.930	21.770	-0.069	0.056
-657.916	71.288	0.161	-0.167
-656.901	-87.158	0.159	-0.049
-655.886	800.000	0.079	0.220
-654.872	-60.074	0.041	-0.018
-653.857	85.925	-0.137	0.151
-652.843	-66.456	0.081	-0.032
-651.828	-200.000	-0.001	0.150
-650.814	73.894	0.183	-0.192
-649.799	-131.922	-0.120	0.016
-648.784	276.815	0.056	0.099
-647.770	36.554	0.255	-0.225
-646.755	-200.000	0.010	0.244
-645.741	-200.000	-0.059	0.314
-644.726	-22.985	0.185	-0.112
-643.711	13.693	-0.188	-0.146
-642.697	18.339	0.198	-0.158
-641.682	37.925	-0.121	-0.108
-640.668	-148.051	0.258	-0.021
-639.653	-101.406	-0.329	-0.080
-638.638	-200.000	0.054	0.327
-637.624	775.790	-0.098	0.267
-636.609	12.041	0.320	-0.247
-635.595	-200.000	0.022	0.207
-634.580	-119.916	-0.402	-0.069
-633.565	-20.714	-0.432	0.266
-632.551	-164.737	-0.185	0.008
-631.536	-80.016	-0.168	-0.056
-630.522	490.401	-0.159	-0.365
-629.507	-109.043	-0.163	-0.035
-628.492	-72.926	0.016	-0.006
-627.478	-79.750	-0.331	-0.111
-626.463	-16.933	0.170	-0.108
-625.449	414.465	0.156	-0.333
-624.434	-137.731	0.180	0.020
-623.419	-13.003	0.090	-0.058
-622.405	12.529	-0.096	0.074
-621.390	-200.000	-0.016	-0.220
-620.376	134.255	0.155	-0.201
-619.361	-65.632	0.138	0.055
-618.346	-198.220	-0.142	-0.001
-617.332	800.000	0.076	-0.316
-616.317	77.517	0.196	-0.208
-615.303	149.058	-0.075	0.101
-614.288	-123.044	0.111	-0.018
-613.273	189.836	0.258	0.387
-612.259	-90.397	-0.183	0.053
-611.244	-2.381	0.208	0.146
-610.230	20.517	-0.370	0.299
-609.215	-109.230	0.476	0.101
-608.201	39.135	-0.153	0.137
-607.186	130.630	-0.148	0.190
-606.171	11.062	-0.212	0.162
-605.157	440.537	-0.052	0.114
-604.142	-15.938	0.117	-0.075
-603.128	290.203	-0.076	0.138
-602.113	-8.770	-0.058	-0.039
-601.098	800.000	-0.088	-0.363
-600.084	99.865	0.075	0.087
-599.069	91.350	-0.157	-0.176
-598.055	800.000	-0.068	-0.209
-597.040	-95.148	-0.256	0.069
-596.025	-160.397	-0.647	0.035
-595.011	-200.000	0.016	0.249
-593.996	-200.000	-0.044	-0.192
-592.982	-157.566	0.161	-0.010
-591.967	-114.536	0.170	-0.033
-590.952	311.494	-0.142	0.266
-589.938	106.363	0.097	0.114
-588.923	-134.653	0.248	-0.030
-587.909	313.342	-0.030	-0.057
-586.894	-102.850	-0.285	0.068
-585.879	800.000	0.055	-0.173
-584.865	-70.953	0.162	-0.061
-583.850	32.612	-0.166	0.143
-582.836	93.908	0.056	0.063
-581.821	158.549	-0.052	0.073
-580.806	273.259	0.203	0.359
-579.792	109.709	-0.082	-0.098
-578.777	-200.000	0.047	0.267
-577.763	-146.520	0.255	0.022
-576.748	237.248	-0.177	0.294
-575.733	-116.688	-0.151	-0.028
-574.719	-80.353	-0.249	0.083
-573.704	-67.252	0.185	-0.073
-572.690	-164.209	-0.210	0.010
-571.675	-200.000	-0.005	-0.047
-570.661	800.000	0.045	-0.140
-569.646	-132.877	-0.112	0.014
-568.631	-200.000	-0.003	-0.127
-567.617	21.272	0.118	-0.096
-566.602	328.092	-0.041	-0.078
-565.588	-49.797	-0.339	-0.161
-564.573	-24.453	0.276	0.164
-563.558	-26.705	0.174	0.102
-562.544	-86.329	-0.337	0.103
-561.529	445.112	0.072	-0.157
-560.515	600.455	0.047	-0.117
-559.500	-200.000	0.028	0.263
-558.485	-10.525	0.121	0.080
-557.471	-35.760	-0.316	-0.171
-556.456	-200.000	-0.037	-0.395
-555.442	800.000	0.102	-0.359
-554.427	-200.000	-0.036	0.335
-553.412	-102.039	-0.138	0.033
-552.398	-144.409	-0.153	-0.014
-551.383	36.728	-0.269	-0.237
-550.369	92.695	0.198	0.222
-549.354	-62.597	0.230	-0.095
-548.339	256.583	0.103	0.176
-547.325	-200.000	-0.073	-0.384
-546.310	-115.911	0.279	-0.052
-545.296	288.377	-0.105	-0.189
-544.281	-200.000	0.029	-0.198
-543.266	-30.542	-0.171	0.096
-542.252	-200.000	0.010	-0.085
-541.237	116.354	0.234	-0.286
-540.223	-137.014	-0.230	0.026
-539.208	-200.000	-0.109	0.477
-538.193	117.663	0.048	-0.059
-537.179	277.198	-0.069	0.123
-536.164	-16.256	-0.040	0.026
-535.150	325.449	-0.212	-0.404
-534.135	-104.040	0.418	0.097
-533.121	-45.648	-0.141	0.070
-532.106	-131.976	-0.176	-0.023
-531.091	-102.844	-0.385	0.091
-530.077	422.525	-0.139	0.297
-529.062	274.724	0.174	0.308
-528.048	800.000	-0.153	0.627
-527.033	182.357	-0.194	0.285
-526.018	213.530	-0.043	-0.068
-525.004	14.705	-0.271	-0.211
-523.989	789.498	-0.155	-0.425
-522.975	-200.000	0.026	-0.133
-521.960	-200.000	0.013	0.240
-520.945	-163.909	-0.126	0.006
-519.931	-200.000	0.003	-0.090
-518.916	418.980	0.162	0.345
-517.902	413.127	0.024	-0.052
-516.887	102.469	0.090	-0.105
-515.872	800.000	0.060	-0.232
-514.858	-99.413	0.163	0.041
-513.843	-200.000	0.033	-0.152
-512.829	173.656	0.230	-0.330
-511.814	284.524	0.121	-0.216
-510.799	671.637	-0.097	-0.251
-509.785	-40.451	0.260	0.135
-508.770	-45.382	0.206	0.102
-507.756	800.000	0.090	-0.264
-506.741	-94.671	0.214	0.058
-505.726	107.511	0.188	-0.223
-504.712	188.299	-0.147	0.219
-503.697	800.000	-0.076	-0.294
-502.683	135.947	0.104	-0.135
-501.668	-73.739	-0.134	0.049
-500.653	-44.863	0.173	0.086
-499.639	264.682	-0.060	-0.104
-498.624	32.430	0.065	-0.056
-497.610	18.193	0.089	0.071
-496.595	115.389	0.204	0.248
-495.581	-89.021	0.225	0.066
-494.566	-200.000	-0.063	0.341
-493.551	444.193	0.118	0.259
-492.537	201.157	-0.155	-0.237
-491.522	-69.158	0.117	-0.045
-490.508	-11.677	0.113	0.074
-489.493	-56.512	0.018	0.008
-488.478	800.000	-0.060	-0.183
-487.464	800.000	0.043	-0.160
-486.449	12.103	-0.251	0.193
-485.435	-200.000	-0.037	-0.266
-484.420	-52.564	-0.049	0.023
-483.405	800.000	-0.037	-0.108
-482.391	674.866	-0.045	-0.117
-481.376	-95.618	0.098	0.026
-480.362	-130.099	0.374	-0.051
-479.347	-200.000	-0.034	0.325
-478.332	-121.965	-0.448	0.073
-477.318	211.071	0.071	-0.110
-476.303	77.927	-0.139	0.147
-475.289	800.000	-0.088	-0.243
-474.274	62.015	0.210	-0.208
-473.259	-11.564	0.211	-0.138
-472.245	-73.577	-0.248	-0.090
-471.230	-3.496	0.227	-0.157
-470.216	31.253	0.120	0.102
-469.201	119.638	-0.164	0.203
-468.186	158.936	-0.109	0.151
-467.172	-79.762	-0.313	-0.105
-466.157	-17.788	0.187	0.116
-465.143	-33.558	0.114	-0.063
-464.128	-82.024	-0.333	0.108
-463.113	190.292	-0.188	-0.281
-462.099	781.960	0.124	-0.338
-461.084	-149.839	-0.307	0.024
-460.070	-200.000	0.004	0.174
-459.055	-91.807	-0.241	-0.068
-458.040	-155.548	0.251	0.016
-457.026	82.961	0.166	0.180
-456.011	800.000	-0.032	-0.091
-454.997	-56.694	-0.188	0.083
-453.982	241.929	0.083	-0.139
-452.968	-8.664	0.020	0.014
-451.953	-200.000	0.003	0.111
-450.938	800.000	0.071	0.274
-449.924	800.000	0.043	0.136
-448.909	800.000	0.009	0.027
-447.895	-200.000	0.003	-0.043
-446.880	-181.705	0.063	0.001
-445.865	119.341	-0.084	-0.103
-444.851	800.000	0.060	0.212
-443.836	168.742	0.127	0.180
-442.822	-101.862	-0.427	0.103
-441.807	414.801	-0.032	-0.068
-440.792	-47.372	0.292	-0.141
-439.778	800.000	-0.092	-0.378
-438.763	83.983	-0.181	0.196
-437.749	-94.020	-0.157	0.043
-436.734	16.848	0.245	-0.193
-435.719	-35.260	-0.088	0.048
-434.705	-133.517	-0.151	0.019
-433.690	-116.225	0.234	0.043
-432.676	105.555	-0.016	0.019
-431.661	-200.000	0.003	-0.044
-430.646	-19.702	0.340	-0.209
-429.632	-200.000	-0.016	-0.211
-428.617	800.000	0.122	0.359
-427.603	-200.000	0.009	0.190
-426.588	-107.778	-0.366	-0.079
-425.573	1.862	-0.272	-0.195
-424.559	363.699	0.190	-0.380
-423.544	-200.000	-0.022	-0.137
-422.530	-68.109	-0.084	-0.032
-421.515	142.201	-0.079	-0.103
-420.500	-200.000	0.013	0.116
-419.486	434.804	-0.081	-0.175
-418.471	-5.289	-0.220	0.150
-417.457	-200.000	0.033	0.336
-416.442	232.071	0.114	-0.186
-415.428	-97.707	-0.147	0.038
-414.413	-161.983	0.165	-0.008
-413.398	315.721	-0.137	0.256
-412.384	-200.000	-0.001	-0.035
-411.369	-37.328	0.509	0.270
-410.355	-168.820	0.314	0.012
-409.340	800.000	-0.084	0.288
-408.325	-23.638	-0.327	0.194
-407.311	-152.544	0.106	-0.008
-406.296	800.000	0.027	-0.091
-405.282	70.135	-0.206	0.211
-404.267	800.000	0.037	0.119
-403.252	800.000	0.079	0.241
-402.238	-200.000	0.024	0.236
-401.223	-200.000	-0.023	0.099
-400.209	-186.031	-0.263	-0.004
-399.194	-138.298	-0.281	0.031
-398.179	-113.328	0.097	-0.019
-397.165	-200.000	0.037	-0.205
-396.150	541.010	-0.062	-0.147
-395.136	186.394	0.145	0.214
-394.121	200.160	0.040	-0.061
-393.106	82.166	-0.157	0.169
-392.092	-69.929	0.200	-0.075
-391.077	192.530	0.260	0.390
-390.063	368.691	0.167	0.335
-389.048	-111.198	-0.374	-0.076
-388.033	800.000	0.063	-0.221
-387.019	-196.178	0.228	-0.002
-386.004	51.468	0.291	0.274
-384.990	45.346	0.255	0.233
-383.975	503.789	0.051	-0.117
-382.960	382.037	-0.070	-0.143
-381.946	18.903	-0.155	0.123
-380.931	-163.230	-0.251	-0.012
-379.917	-200.000	0.003	-0.204
-378.902	62.044	0.184	-0.182
-377.888	195.361	-0.223	-0.335
-376.873	-200.000	0.018	-0.093
-375.858	-89.912	-0.567	-0.164
-374.844	-200.000	-0.046	-0.384
-373.829	800.000	0.040	-0.121
-372.815	43.113	-0.116	0.105
-371.800	460.825	-0.051	-0.112
-370.785	527.023	0.042	-0.098
-369.771	-71.011	0.230	-0.086
-368.756	-109.336	0.140	-0.029
-367.742	78.109	0.057	0.061
-366.727	-77.520	-0.455	0.156
-365.712	4.105	0.162	0.117
-364.698	-140.947	0.292	0.030
-363.683	-200.000	-0.011	0.103
-362.669	43.687	0.267	-0.242
-361.654	-122.949	0.244	-0.039
-360.639	198.075	0.234	0.354
-359.625	-42.856	-0.287	-0.144
-358.610	432.689	0.151	-0.324
-357.596	-200.000	0.048	-0.289
-356.581	-88.606	0.233	-0.069
-355.566	-200.000	0.017	0.089
-354.552	-114.226	0.158	0.030
-353.537	-41.731	-0.251	-0.127
-352.523	-109.337	0.114	-0.024
-351.508	-114.797	-0.141	-0.027
-350.493	800.000	0.083	-0.239
-349.479	-33.667	0.192	-0.105
-348.464	-200.000	-0.035	-0.164
-347.450	75.616	0.202	-0.211
-346.435	-171.561	-0.400	0.013
-345.420	216.684	-0.054	-0.085
-344.406	-19.343	0.328	0.201
-343.391	-200.000	0.069	-0.306
-342.377	-70.342	-0.261	-0.098
-341.362	344.948	0.138	0.268
-340.348	-143.087	-0.297	0.028
-339.333	-93.672	0.042	0.012
-338.318	-15.298	0.144	0.091
-337.304	198.302	0.186	-0.282
-336.289	-31.086	-0.337	0.188
-335.275	-200.000	0.036	-0.197
-334.260	800.000	-0.076	-0.276
-333.245	-64.733	-0.129	-0.052
-332.231	-148.295	0.474	-0.039
-331.216	14.322	-0.048	0.037
-330.202	-40.435	0.174	0.089
-329.187	187.695	-0.161	-0.238
-328.172	48.943	-0.060	-0.056
-327.158	-39.928	0.225	0.116
-326.143	497.964	0.126	0.286
-325.129	-160.645	-0.425	-0.022
-324.114	-194.142	-0.011	0.000
-323.099	-200.000	0.033	0.216
-322.085	-48.003	-0.216	-0.103
-321.070	-200.000	-0.058	-0.476
-320.056	-18.649	-0.011	0.007
-319.041	800.000	-0.070	0.241
-318.026	-94.029	0.245	0.066
-317.012	800.000	0.025	-0.099
-315.997	-35.993	0.154	0.082
-314.983	-200.000	-0.051	-0.500
-313.968	-76.182	-0.141	-0.049
-312.953	352.036	-0.091	0.179
-311.939	-200.000	0.024	-0.257
-310.924	800.000	0.103	-0.282
-309.910	-112.978	0.133	0.026
-308.895	800.000	-0.019	0.060
-307.880	343.818	-0.118	0.229
-306.866	-200.000	0.013	0.123
-305.851	-25.423	0.252	-0.147
-304.837	470.748	0.077	0.170
-303.822	-60.351	0.251	-0.106
-302.807	195.097	0.065	-0.098
-301.793	800.000	0.053	-0.184
-300.778	11.643	0.148	0.112
-299.764	-200.000	0.019	-0.213
-298.749	-49.547	-0.212	-0.100
-297.735	-200.000	0.033	-0.272
-296.720	-36.570	-0.241	-0.128
-295.705	-200.000	-0.063	-0.333
-294.691	800.000	-0.131	-0.431
-293.676	-18.099	-0.228	0.141
-292.662	-200.000	0.048	-0.210
-291.647	-20.394	-0.296	-0.180
-290.632	-55.341	0.285	-0.126
-289.618	265.086	-0.132	0.228
-288.603	-200.000	-0.015	-0.074
-287.589	800.000	0.134	0.520
-286.574	433.108	0.141	-0.301
-285.559	315.978	0.186	0.347
-284.545	83.149	0.205	0.220
-283.530	-119.686	0.166	0.028
-282.516	-136.005	0.359	0.042
-281.501	-200.000	0.001	-0.366
-280.486	-111.966	-0.168	0.033
-279.472	120.783	0.037	-0.045
-278.457	-114.741	-0.245	0.046
-277.443	-171.255	-0.244	-0.008
-276.428	652.920	0.040	0.101
-275.413	92.307	0.052	0.057
-274.399	-10.416	-0.140	0.092
-273.384	-200.000	0.050	-0.373
-272.370	128.601	-0.114	-0.143
-271.355	800.000	-0.015	0.057
-270.340	76.814	0.319	0.335
-269.326	-70.905	0.010	0.004
-268.311	800.000	0.054	-0.208
-267.297	800.000	-0.019	0.068
-266.282	52.604	0.160	0.151
-265.267	-200.000	0.033	0.347
-264.253	-200.000	-0.022	-0.107
-263.238	-148.897	0.364	0.029
-262.224	180.499	-0.118	0.171
-261.209	378.433	-0.051	-0.103
-260.195	52.076	-0.120	0.113
-259.180	194.004	-0.077	0.116
-258.165	-200.000	-0.050	-0.272
-257.151	-65.747	-0.097	-0.038
-256.136	-200.000	-0.057	0.287
-255.122	-140.665	0.302	-0.031
-254.107	100.528	-0.089	-0.102
-253.092	70.168	0.065	0.066
-252.078	-200.000	-0.003	-0.072
-251.063	487.421	-0.107	-0.240
-250.049	-120.680	0.177	0.030
-249.034	-166.633	-0.335	-0.014
-248.019	167.192	0.067	0.093
-247.005	-200.000	-0.027	0.212
-245.990	-200.000	-0.044	0.398
-244.976	32.501	0.117	-0.100
-243.961	-200.000	-0.061	0.337
-242.946	-65.320	0.387	-0.154
-241.932	458.088	-0.089	-0.196
-240.917	23.321	0.026	0.021
-239.903	-33.307	-0.270	-0.147
-238.888	-13.861	-0.034	-0.022
-237.873	-200.000	0.018	-0.095
-236.859	56.453	-0.082	-0.079
-235.844	-100.508	0.309	-0.075
-234.830	278.364	-0.179	0.314
-233.815	2.880	0.182	0.130
-232.800	-46.782	-0.412	0.199
-231.786	493.355	-0.017	-0.039
-230.771	-200.000	-0.045	0.317
-229.757	25.987	-0.203	0.167
-228.742	208.638	-0.099	0.152
-227.727	-200.000	-0.003	-0.157
-226.713	-8.097	0.299	-0.199
-225.698	-117.055	-0.287	-0.052
-224.684	799.324	0.056	-0.153
-223.669	-69.116	-0.129	-0.049
-222.655	-63.036	0.218	0.089
-221.640	-200.000	-0.059	0.330
-220.625	-200.000	0.032	0.195
-219.611	639.525	-0.026	0.064
-218.596	-200.000	-0.029	-0.260
-217.582	-200.000	0.038	-0.239
-216.567	84.136	0.270	0.290
-215.552	521.610	-0.099	0.229
-214.538	-20.710	0.103	-0.062
-213.523	-57.768	0.245	-0.106
-212.509	-56.586	0.093	-0.041
-211.494	289.430	-0.311	0.555
-210.479	45.478	-0.074	0.067
-209.465	-65.398	0.411	0.163
-208.450	73.506	0.025	-0.026
-207.436	-200.000	-0.028	0.222
-206.421	60.922	-0.095	-0.093
-205.406	800.000	0.040	-0.159
-204.392	-64.291	0.159	0.064
-203.377	-88.779	0.329	0.096
-202.363	-88.976	-0.193	0.056
-201.348	-193.835	0.164	0.001
-200.333	-145.217	-0.156	-0.014
-199.319	-78.697	0.153	-0.051
-198.304	-200.000	0.067	0.298
-197.290	-200.000	-0.030	0.443
-196.275	203.956	0.112	-0.171
-195.260	427.551	-0.071	0.151
-194.246	-44.638	0.150	-0.073
-193.231	-15.775	0.098	0.062
-192.217	65.998	-0.018	0.018
-191.202	190.144	-0.059	0.087
-190.187	251.796	0.138	-0.231
-189.173	-39.130	-0.444	-0.230
-188.158	181.433	0.105	0.152
-187.144	192.830	0.151	-0.224
-186.129	800.000	0.024	0.081
-185.114	227.069	-0.091	-0.146
-184.100	174.004	-0.172	0.244
-183.085	-53.567	-0.331	0.149
-182.071	-127.444	-0.324	0.046
-181.056	-176.286	0.151	0.004
-180.042	541.020	-0.110	-0.258
-179.027	-200.000	0.013	0.216
-178.012	168.233	0.072	-0.101
-176.998	-200.000	-0.017	0.145
-175.983	-45.967	0.148	-0.072
-174.969	-72.765	0.269	0.097
-173.954	-200.000	-0.045	0.498
-172.939	786.599	0.053	-0.143
-171.925	800.000	0.093	-0.390
-170.910	-200.000	0.019	-0.205
-169.896	500.994	0.038	0.087
-168.881	-43.489	0.335	-0.166
-167.866	-200.000	0.069	0.312
-166.852	208.886	0.174	0.267
-165.837	739.228	0.089	-0.235
-164.823	-137.360	0.057	0.006
-163.808	-74.761	-0.222	0.079
-162.793	211.217	-0.079	0.122
-161.779	-200.000	0.022	0.221
-160.764	-200.000	-0.016	0.163
-159.750	224.077	-0.124	0.197
-158.735	24.642	-0.080	0.065
-157.720	800.000	0.055	0.158
-156.706	-63.683	-0.136	0.055
-155.691	-200.000	-0.041	-0.288
-154.677	136.119	-0.060	-0.077
-153.662	-98.700	-0.175	-0.044
-152.647	-57.102	0.140	-0.060
-151.633	269.291	0.101	-0.173
-150.618	-183.304	-0.226	0.004
-149.604	-200.000	-0.005	0.236
-148.589	124.016	-0.093	0.115
-147.574	321.973	-0.092	-0.171
-146.560	-27.603	0.262	-0.149
-145.545	-35.123	0.319	-0.171
-144.531	447.450	0.107	0.230
-143.516	378.633	-0.113	-0.228
-142.502	-45.238	-0.299	0.146
-141.487	800.000	-0.114	0.402
-140.472	180.820	-0.086	-0.123
-139.458	-35.684	-0.189	0.100
-138.443	286.857	-0.056	0.099
-137.429	-21.364	-0.246	0.147
-136.414	108.029	-0.050	-0.058
-135.399	-59.762	-0.049	-0.021
-134.385	-200.000	-0.018	-0.081
-133.370	-158.159	-0.327	-0.019
-132.356	-82.699	-0.080	0.026
-131.341	-200.000	-0.008	0.235
-130.326	-93.291	0.095	0.026
-129.312	800.000	0.041	-0.172
-128.297	-146.132	-0.462	0.040
-127.283	10.369	0.109	-0.081
-126.268	-97.478	-0.179	-0.046
-125.253	-200.000	0.048	0.238
-124.239	642.055	-0.141	0.353
-123.224	66.232	-0.043	-0.043
