DTS Sentinel unit serial number:	SN413079Multiplexer serial number:	ORYXHardware model number:	OX4-SRSoftware version number:	ORYX F/W v4.00 Oryx Data Collector v3.7.2.0data status	okinstallation	princeton_trtdifferential loss correction	single-endedforward channel	channel 3reverse channel	N/Adate	2019/09/15time	05:32:35forward acquisition time	60.00reverse acquisition time	0.00gamma	496.2192k internal	0.2324k external	0.2324temperature offset calibration	0.9978default loss term (dB/km)	0.3790temperature slope calibration	1.0000multiplexer offset coefficient	1.0000multiplexer slope coefficient	1.0000fibre end	0.00T internal ref (°C)	30.58T ext. ref 1 (°C)	4.75T ext. ref 2 (°C)	25.73length (m)	temperature (°C)	Stokes	anti-Stokes-747.200	-200.000	-0.028	0.299
-746.185	94.558	-0.171	0.197
-745.171	-25.994	-0.279	-0.166
-744.156	-103.325	-0.084	0.020
-743.142	196.016	-0.251	-0.386
-742.127	-93.448	-0.319	-0.089
-741.112	-165.748	0.376	0.016
-740.098	-200.000	-0.060	0.283
-739.083	38.187	-0.210	-0.188
-738.069	-65.128	-0.175	-0.071
-737.054	335.673	-0.021	-0.040
-736.039	-30.330	-0.336	-0.193
-735.025	135.154	0.146	0.192
-734.010	131.111	-0.215	-0.279
-732.996	86.060	-0.172	-0.191
-731.981	43.009	0.217	0.200
-730.966	13.626	0.099	-0.077
-729.952	-200.000	0.016	-0.072
-728.937	800.000	-0.069	-0.295
-727.923	-40.220	-0.094	0.049
-726.908	171.535	0.115	0.166
-725.894	-121.627	-0.169	-0.028
-724.879	-137.485	-0.677	-0.077
-723.864	69.910	-0.162	0.169
-722.850	-200.000	0.009	0.229
-721.835	-92.128	0.158	-0.045
-720.821	-147.117	0.047	0.004
-719.806	146.387	0.071	-0.096
-718.791	-118.876	0.178	-0.032
-717.777	-8.866	-0.318	-0.215
-716.762	225.738	-0.047	0.076
-715.748	800.000	0.039	-0.113
-714.733	50.634	0.144	0.137
-713.718	122.359	0.079	0.100
-712.704	-106.321	-0.174	0.039
-711.689	800.000	0.045	-0.135
-710.675	89.484	0.182	0.205
-709.660	-200.000	-0.296	0.001
-708.645	-55.804	0.139	0.063
-707.631	37.671	0.053	0.048
-706.616	-154.148	-0.031	0.002
-705.602	-35.465	-0.066	-0.036
-704.587	91.985	-0.096	-0.109
-703.572	-127.518	0.327	-0.048
-702.558	-175.263	0.250	-0.007
-701.543	373.362	0.140	-0.287
-700.529	-200.000	0.045	-0.416
-699.514	-200.000	0.029	0.270
-698.499	-43.334	0.091	-0.047
-697.485	148.160	-0.165	-0.224
-696.470	269.040	0.021	-0.038
-695.456	-40.957	-0.336	0.175
-694.441	6.120	0.101	0.075
-693.426	-108.479	-0.111	-0.024
-692.412	260.019	-0.043	0.075
-691.397	105.247	-0.377	-0.448
-690.383	18.931	0.024	0.019
-689.368	-98.201	0.089	-0.023
-688.354	-200.000	-0.008	-0.293
-687.339	2.579	-0.219	-0.160
-686.324	1.987	0.145	-0.105
-685.310	-43.744	-0.230	0.116
-684.295	-200.000	-0.010	0.078
-683.281	139.704	-0.254	-0.337
-682.266	800.000	-0.018	-0.060
-681.251	198.596	0.211	-0.325
-680.237	800.000	0.045	-0.138
-679.222	-26.229	-0.162	-0.096
-678.208	-200.000	0.014	0.154
-677.193	43.174	-0.202	-0.186
-676.178	104.973	-0.183	-0.218
-675.164	38.380	-0.035	0.031
-674.149	-116.706	-0.228	0.042
-673.135	484.590	0.198	-0.455
-672.120	800.000	0.063	-0.207
-671.105	-114.844	0.188	0.036
-670.091	800.000	-0.142	0.494
-669.076	-200.000	0.031	-0.344
-668.062	-200.000	-0.013	-0.320
-667.047	-160.367	-0.379	-0.021
-666.032	17.103	-0.079	-0.063
-665.018	57.461	0.102	0.100
-664.003	80.350	0.086	-0.093
-662.989	-200.000	0.058	0.335
-661.974	182.678	0.107	-0.158
-660.959	-200.000	-0.010	-0.143
-659.945	-59.612	0.233	0.101
-658.930	120.852	0.155	-0.194
-657.916	-200.000	0.020	0.288
-656.901	379.716	0.120	-0.248
-655.886	194.121	0.233	0.356
-654.872	-200.000	0.012	-0.215
-653.857	-200.000	-0.000	-0.139
-652.843	127.778	0.091	-0.117
-651.828	-200.000	0.063	-0.332
-650.814	-53.975	0.199	-0.091
-649.799	153.652	-0.037	0.051
-648.784	143.031	-0.042	-0.056
-647.770	25.513	0.307	-0.257
-646.755	306.989	0.047	-0.089
-645.741	634.067	-0.063	0.159
-644.726	-200.000	0.000	-0.122
-643.711	-200.000	-0.009	-0.218
-642.697	302.049	0.187	-0.348
-641.682	-200.000	-0.023	0.464
-640.668	-56.110	-0.062	-0.028
-639.653	-200.000	-0.006	-0.153
-638.638	-134.061	-0.240	-0.030
-637.624	800.000	0.091	-0.263
-636.609	800.000	-0.067	-0.190
-635.595	263.856	-0.161	-0.281
-634.580	-200.000	0.037	-0.168
-633.565	-200.000	-0.023	-0.181
-632.551	-78.651	0.313	0.107
-631.536	-91.863	-0.168	0.048
-630.522	-11.625	-0.258	-0.171
-629.507	-117.078	-0.228	0.042
-628.492	-200.000	0.050	-0.270
-627.478	163.620	0.109	-0.155
-626.463	1.650	0.329	0.238
-625.449	-101.344	0.344	0.084
-624.434	163.094	-0.057	0.080
-623.419	169.512	0.086	0.123
-622.405	-116.253	0.286	-0.053
-621.390	-16.073	-0.065	-0.041
-620.376	800.000	-0.127	0.436
-619.361	56.436	0.088	-0.086
-618.346	74.205	-0.062	0.066
-617.332	-200.000	-0.041	0.193
-616.317	28.592	0.135	-0.115
-615.303	409.920	0.153	-0.326
-614.288	-111.870	-0.215	-0.044
-613.273	-30.456	-0.259	0.147
-612.259	-73.725	0.203	-0.074
-611.244	74.668	0.081	0.085
-610.230	18.206	0.198	-0.159
-609.215	-59.003	0.352	0.153
-608.201	30.266	0.223	0.191
-607.186	-86.630	-0.403	0.124
-606.171	139.097	-0.095	-0.126
-605.157	-200.000	0.006	0.038
-604.142	771.634	-0.051	-0.139
-603.128	-119.629	-0.146	-0.025
-602.113	-200.000	0.010	-0.063
-601.098	-200.000	0.004	0.191
-600.084	-97.193	0.323	0.085
-599.069	-106.704	-0.241	-0.054
-598.055	-127.728	0.113	0.016
-597.040	-91.702	-0.205	-0.058
-596.025	-200.000	-0.013	-0.170
-595.011	-200.000	-0.048	-0.281
-593.996	-139.145	0.189	-0.021
-592.982	800.000	0.070	0.259
-591.967	-200.000	-0.013	0.179
-590.952	127.000	-0.185	-0.235
-589.938	-200.000	0.006	-0.234
-588.923	800.000	-0.033	-0.140
-587.909	-36.907	-0.201	-0.108
-586.894	20.678	-0.271	0.220
-585.879	-17.123	0.182	-0.115
-584.865	-28.796	-0.045	-0.026
-583.850	485.357	0.026	0.059
-582.836	670.435	0.123	0.321
-581.821	-104.039	0.495	0.116
-580.806	-200.000	-0.052	0.281
-579.792	525.086	-0.047	0.111
-578.777	-98.946	-0.340	0.086
-577.763	-200.000	0.030	-0.158
-576.748	-60.139	0.367	0.157
-575.733	-138.014	-0.392	-0.044
-574.719	119.535	-0.049	-0.061
-573.704	519.491	-0.064	0.150
-572.690	86.584	-0.076	0.084
-571.675	-103.482	0.256	0.060
-570.661	-82.060	0.105	0.034
-569.646	-71.593	-0.311	-0.117
-568.631	-151.296	-0.179	0.013
-567.617	-94.804	-0.330	-0.090
-566.602	57.345	-0.234	-0.229
-565.588	78.744	0.095	-0.101
-564.573	21.735	-0.059	-0.048
-563.558	4.793	0.199	0.146
-562.544	701.563	-0.074	0.196
-561.529	-200.000	0.037	0.199
-560.515	-166.716	-0.402	0.017
-559.500	-151.130	-0.345	0.026
-558.485	204.950	0.037	-0.057
-557.471	-21.394	-0.088	0.054
-556.456	800.000	0.036	0.151
-555.442	269.365	-0.096	0.169
-554.427	-54.150	0.219	-0.100
-553.412	-32.935	0.155	0.086
-552.398	302.269	-0.159	-0.294
-551.383	414.219	0.070	-0.150
-550.369	411.973	-0.057	0.120
-549.354	91.877	0.188	-0.212
-548.339	30.411	0.318	-0.272
-547.325	-117.277	0.360	0.066
-546.310	-200.000	0.086	0.442
-545.296	800.000	-0.075	0.300
-544.281	189.539	0.070	-0.106
-543.266	-105.303	0.185	0.042
-542.252	16.243	0.012	-0.009
-541.237	-107.878	-0.170	0.037
-540.223	800.000	0.030	-0.098
-539.208	-22.835	0.118	0.071
-538.193	-109.015	-0.317	-0.068
-537.179	-159.018	0.177	0.010
-536.164	-81.821	-0.115	0.038
-535.150	50.002	0.260	-0.246
-534.135	-79.587	0.288	-0.097
-533.121	800.000	-0.073	-0.206
-532.106	34.599	0.067	0.058
-531.091	229.045	-0.059	0.096
-530.077	-112.571	-0.121	0.024
-529.062	800.000	-0.133	0.544
-528.048	-200.000	-0.004	-0.091
-527.033	-24.792	0.237	-0.141
-526.018	-168.279	-0.133	-0.005
-525.004	137.550	0.176	0.231
-523.989	-92.526	0.148	-0.042
-522.975	-139.416	0.092	-0.010
-521.960	-73.883	0.101	0.037
-520.945	54.587	0.357	-0.344
-519.931	-192.167	0.197	-0.002
-518.916	11.519	-0.199	0.153
-517.902	-61.409	-0.197	0.083
-516.887	-111.063	-0.259	0.053
-515.872	-130.747	0.082	0.011
-514.858	119.588	-0.209	-0.259
-513.843	6.449	-0.218	0.162
-512.829	-200.000	0.012	0.598
-511.814	-200.000	-0.017	0.262
-510.799	-87.759	-0.211	-0.064
-509.785	454.107	-0.096	-0.213
-508.770	-48.474	0.051	-0.024
-507.756	-83.965	0.259	0.082
-506.741	399.509	-0.020	-0.042
-505.726	113.587	0.167	-0.203
-504.712	80.398	-0.162	-0.174
-503.697	-200.000	0.017	0.100
-502.683	-110.089	0.310	0.065
-501.668	-200.000	0.010	-0.113
-500.653	353.991	0.056	-0.112
-499.639	-12.319	0.112	0.073
-498.624	19.236	-0.199	-0.160
-497.610	-200.000	0.043	-0.274
-496.595	-162.325	0.160	0.008
-495.581	-44.080	0.222	0.111
-494.566	800.000	0.066	-0.218
-493.551	-200.000	0.010	0.253
-492.537	53.417	0.181	0.173
-491.522	6.689	-0.087	-0.065
-490.508	131.726	0.129	0.166
-489.493	613.273	0.088	-0.221
-488.478	-200.000	0.002	0.279
-487.464	236.297	0.108	0.178
-486.449	342.441	-0.013	-0.026
-485.435	527.293	-0.201	-0.473
-484.420	-173.742	0.236	-0.007
-483.405	135.583	0.108	-0.141
-482.391	-105.320	-0.508	-0.116
-481.376	133.701	0.179	-0.231
-480.362	-92.383	0.082	-0.023
-479.347	-151.682	-0.563	0.041
-478.332	-35.828	0.109	0.059
-477.318	800.000	-0.077	0.335
-476.303	-110.722	0.254	-0.052
-475.289	800.000	0.060	0.174
-474.274	-200.000	0.013	0.131
-473.259	-183.584	0.365	0.006
-472.245	-200.000	0.047	-0.390
-471.230	118.990	0.279	-0.345
-470.216	-90.287	0.470	0.136
-469.201	-200.000	-0.035	-0.275
-468.186	33.154	0.142	-0.123
-467.172	-16.994	-0.012	0.008
-466.157	-200.000	-0.005	0.332
-465.143	-86.523	0.177	0.054
-464.128	308.386	-0.082	-0.152
-463.113	124.675	0.154	-0.193
-462.099	-200.000	0.025	0.323
-461.084	-172.352	0.234	0.007
-460.070	-60.723	-0.225	-0.095
-459.055	-200.000	0.065	0.303
-458.040	-38.921	-0.120	0.063
-457.026	205.859	0.012	0.019
-456.011	-108.587	-0.552	0.118
-454.997	610.088	0.042	0.103
-453.982	-188.016	0.200	-0.003
-452.968	-97.863	0.234	-0.060
-451.953	105.260	-0.108	-0.127
-450.938	800.000	0.056	-0.234
-449.924	-74.863	0.200	-0.072
-448.909	179.855	-0.189	0.276
-447.895	-200.000	-0.020	0.283
-446.880	326.650	-0.116	0.222
-445.865	-38.160	0.143	0.075
-444.851	-138.718	-0.039	-0.004
-443.836	-84.004	-0.249	0.079
-442.822	229.653	-0.050	-0.081
-441.807	12.480	-0.115	0.089
-440.792	-200.000	-0.016	-0.089
-439.778	-83.994	-0.222	0.070
-438.763	-4.449	0.253	0.175
-437.749	-200.000	-0.010	0.088
-436.734	800.000	-0.038	-0.116
-435.719	-110.865	-0.325	0.067
-434.705	95.581	-0.217	0.247
-433.690	-200.000	-0.086	-0.566
-432.676	-123.432	-0.379	0.060
-431.661	-161.936	-0.187	0.009
-430.646	-102.035	0.308	0.074
-429.632	-181.851	-0.254	0.005
-428.617	101.491	-0.179	0.208
-427.603	504.748	0.100	0.230
-426.588	-200.000	0.029	0.254
-425.573	-106.724	0.385	0.085
-424.559	-200.000	0.001	-0.049
-423.544	-200.000	-0.017	-0.155
-422.530	-200.000	-0.024	-0.226
-421.515	-87.816	-0.053	0.016
-420.500	-122.879	0.231	-0.037
-419.486	-200.000	-0.003	-0.420
-418.471	-52.257	0.320	-0.148
-417.457	800.000	-0.085	-0.236
-416.442	-53.850	0.189	0.086
-415.428	-129.994	-0.328	-0.045
-414.413	10.871	0.258	-0.196
-413.398	506.848	0.101	-0.232
-412.384	314.109	0.088	-0.164
-411.369	-200.000	-0.019	-0.218
-410.355	436.520	-0.095	-0.205
-409.340	800.000	-0.074	-0.222
-408.325	-103.355	0.107	-0.025
-407.311	-97.583	0.219	0.057
-406.296	-200.000	0.029	-0.236
-405.282	37.124	-0.128	-0.113
-404.267	-200.000	-0.058	0.257
-403.252	635.102	0.089	0.225
-402.238	-90.118	-0.368	-0.107
-401.223	-88.019	-0.173	-0.052
-400.209	800.000	0.023	-0.085
-399.194	-91.094	0.360	0.103
-398.179	565.853	0.048	0.116
-397.165	-200.000	0.004	0.114
-396.150	800.000	0.084	0.339
-395.136	32.182	-0.151	0.130
-394.121	-64.409	0.020	-0.008
-393.106	270.409	0.048	0.084
-392.092	157.050	0.068	-0.094
-391.077	771.629	-0.098	0.267
-390.063	800.000	0.024	-0.089
-389.048	153.513	-0.065	-0.089
-388.033	173.400	-0.062	0.089
-387.019	-134.254	0.147	0.018
-386.004	-127.366	0.251	0.036
-384.990	-12.635	0.339	0.220
-383.975	652.178	-0.162	0.413
-382.960	-95.250	-0.127	-0.034
-381.946	651.370	-0.090	0.229
-380.931	515.425	-0.130	0.303
-379.917	-200.000	0.018	-0.094
-378.902	100.693	0.079	0.092
-377.888	800.000	0.076	-0.317
-376.873	-43.183	-0.229	-0.115
-375.858	-200.000	0.011	-0.307
-374.844	-129.737	-0.366	0.050
-373.829	-56.529	0.318	0.140
-372.815	-200.000	0.074	-0.333
-371.800	-53.856	-0.193	-0.088
-370.785	-200.000	-0.019	-0.117
-369.771	-200.000	-0.008	0.396
-368.756	227.518	0.117	0.189
-367.742	-200.000	0.074	0.346
-366.727	580.157	-0.112	0.272
-365.712	-200.000	0.006	0.175
-364.698	-200.000	-0.021	0.193
-363.683	-6.113	0.334	-0.227
-362.669	80.756	0.327	-0.350
-361.654	231.902	-0.081	0.132
-360.639	487.600	-0.085	-0.194
-359.625	32.809	-0.245	-0.210
-358.610	118.017	-0.131	0.161
-357.596	-173.434	-0.288	0.009
-356.581	-106.623	-0.294	-0.065
-355.566	-200.000	0.065	-0.431
-354.552	-200.000	-0.040	0.175
-353.537	344.201	0.070	-0.136
-352.523	303.048	0.131	-0.241
-351.508	-108.941	0.307	0.065
-350.493	800.000	-0.005	-0.016
-349.479	-200.000	-0.349	0.000
-348.464	-95.822	0.258	-0.068
-347.450	-0.443	-0.346	0.244
-346.435	34.838	0.059	-0.051
-345.420	-104.705	-0.221	0.051
-344.406	-103.205	-0.270	0.063
-343.391	155.638	0.177	-0.242
-342.377	-85.725	0.361	-0.111
-341.362	782.775	0.121	0.330
-340.348	-5.958	-0.159	-0.108
-339.333	800.000	-0.009	0.036
-338.318	800.000	-0.048	-0.175
-337.304	-151.583	0.148	0.011
-336.289	553.458	0.015	0.036
-335.275	61.417	-0.116	-0.115
-334.260	-200.000	0.015	0.318
-333.245	-113.053	-0.208	0.041
-332.231	800.000	0.044	-0.186
-331.216	394.106	0.063	-0.131
-330.202	-34.528	0.154	-0.084
-329.187	-65.104	-0.297	0.119
-328.172	-147.777	-0.271	0.023
-327.158	-18.022	-0.053	-0.033
-326.143	-76.604	-0.204	-0.071
-325.129	-200.000	0.027	0.227
-324.114	702.970	-0.144	0.377
-323.099	-127.912	-0.128	0.018
-322.085	-200.000	-0.018	0.324
-321.070	-200.000	-0.000	0.251
-320.056	225.945	-0.076	-0.123
-319.041	800.000	0.089	0.303
-318.026	-166.850	0.220	0.009
-317.012	-200.000	-0.019	0.251
-315.997	-200.000	-0.004	-0.074
-314.983	-200.000	-0.034	0.190
-313.968	-200.000	0.012	0.127
-312.953	-173.909	0.224	0.007
-311.939	-100.534	-0.503	-0.124
-310.924	-87.240	0.296	0.089
-309.910	800.000	0.029	-0.107
-308.895	166.268	0.264	-0.371
-307.880	31.931	-0.123	0.105
-306.866	28.496	0.187	-0.157
-305.851	39.773	0.114	-0.101
-304.837	-17.699	-0.385	-0.240
-303.822	65.706	-0.116	0.116
-302.807	30.380	-0.136	-0.115
-301.793	800.000	-0.067	-0.204
-300.778	269.355	0.047	-0.082
-299.764	-138.333	-0.124	-0.014
-298.749	36.009	0.057	-0.050
-297.735	-146.064	-0.234	-0.021
-296.720	-136.295	-0.094	0.011
-295.705	-31.675	0.089	-0.050
-294.691	-89.327	0.218	0.064
-293.676	80.175	-0.189	0.201
-292.662	-200.000	0.050	-0.331
-291.647	-105.113	0.333	-0.076
-290.632	136.944	0.169	-0.219
-289.618	-20.536	-0.217	0.132
-288.603	-45.873	0.101	-0.049
-287.589	800.000	-0.084	-0.249
-286.574	-154.339	-0.124	-0.008
-285.559	76.223	0.176	-0.185
-284.545	83.185	0.123	0.133
-283.530	-41.938	0.150	0.076
-282.516	19.825	0.083	0.066
-281.501	-65.225	-0.140	0.056
-280.486	-134.410	0.047	-0.006
-279.472	656.179	0.086	0.219
-278.457	800.000	0.077	0.285
-277.443	353.431	-0.113	-0.222
-276.428	8.024	-0.368	-0.274
-275.413	-200.000	0.029	0.177
-274.399	-38.894	0.067	0.035
-273.384	-123.547	-0.367	0.058
-272.370	800.000	0.083	-0.313
-271.355	-104.018	-0.339	0.078
-270.340	-200.000	-0.021	0.493
-269.326	-200.000	-0.002	0.163
-268.311	635.072	-0.037	0.093
-267.297	-200.000	-0.012	0.225
-266.282	-140.944	0.377	0.038
-265.267	398.174	-0.025	-0.051
-264.253	-152.143	-0.250	0.018
-263.238	125.703	-0.090	-0.113
-262.224	177.405	-0.216	0.311
-261.209	800.000	-0.052	-0.164
-260.195	157.056	0.105	-0.144
-259.180	247.998	0.155	-0.260
-258.165	51.538	-0.041	0.038
-257.151	32.854	-0.172	0.147
-256.136	-127.263	0.126	0.018
-255.122	8.139	-0.071	-0.053
-254.107	800.000	-0.095	-0.343
-253.092	800.000	0.106	-0.392
-252.078	387.800	-0.055	0.112
-251.063	66.854	-0.166	0.168
-250.049	151.387	0.112	0.152
-249.034	-53.127	0.318	-0.145
-248.019	17.991	-0.210	0.165
-247.005	-173.774	0.436	-0.013
-245.990	228.141	0.358	0.577
-244.976	-162.691	-0.366	0.018
-243.961	52.281	0.085	-0.080
-242.946	81.062	0.191	-0.204
-241.932	138.086	0.137	0.177
-240.917	800.000	0.036	0.110
-239.903	800.000	-0.088	0.311
-238.888	-125.690	-0.385	0.058
-237.873	759.335	-0.037	0.100
-236.859	405.250	-0.111	0.231
-235.844	800.000	-0.122	-0.364
-234.830	-75.611	0.337	-0.118
-233.815	-6.196	0.063	0.043
-232.800	40.558	-0.100	0.089
-231.786	-200.000	0.002	0.100
-230.771	128.279	-0.161	0.203
-229.757	-200.000	0.015	0.116
-228.742	23.701	0.190	0.155
-227.727	-200.000	-0.002	-0.156
-226.713	123.881	-0.183	0.227
-225.698	623.625	0.035	0.087
-224.684	-29.300	0.209	0.118
-223.669	362.682	-0.046	0.091
-222.655	-200.000	0.053	-0.376
-221.640	-200.000	0.062	-0.351
-220.625	-200.000	-0.011	0.052
-219.611	-200.000	-0.059	-0.344
-218.596	800.000	-0.096	0.265
-217.582	5.521	0.131	0.095
-216.567	-85.711	-0.147	-0.045
-215.552	-53.599	-0.212	-0.096
-214.538	310.152	0.112	-0.208
-213.523	800.000	0.030	-0.107
-212.509	-200.000	0.014	-0.176
-211.494	800.000	0.060	0.218
-210.479	800.000	-0.079	-0.279
-209.465	-89.211	-0.381	-0.111
-208.450	-146.887	0.168	-0.014
-207.436	244.160	-0.041	0.068
-206.421	-150.816	0.274	0.021
-205.406	800.000	-0.053	0.157
-204.392	-200.000	-0.032	-0.265
-203.377	211.224	-0.114	0.177
-202.363	-200.000	0.021	0.130
-201.348	-141.468	-0.343	0.034
-200.333	-37.787	0.152	0.080
-199.319	-133.990	-0.158	0.019
-198.304	800.000	0.053	-0.150
-197.290	-200.000	0.000	-0.314
-196.275	-50.805	0.226	-0.105
-195.260	800.000	-0.121	-0.358
-194.246	302.671	0.271	0.495
-193.231	-94.002	0.118	0.032
-192.217	385.544	-0.061	0.123
-191.202	800.000	0.030	-0.114
-190.187	-55.568	0.166	-0.073
-189.173	-32.931	-0.131	0.072
-188.158	800.000	-0.047	0.193
-187.144	218.337	-0.105	0.166
-186.129	800.000	0.015	-0.047
-185.114	-126.358	0.502	0.074
-184.100	168.988	0.140	-0.197
-183.085	252.993	-0.099	-0.167
-182.071	-108.693	-0.212	0.045
-181.056	57.555	0.198	-0.191
-180.042	-101.765	0.108	0.026
-179.027	545.567	-0.043	-0.100
-178.012	249.746	0.131	0.219
-176.998	-200.000	0.013	-0.210
-175.983	800.000	0.022	-0.089
-174.969	800.000	0.027	0.089
-173.954	-100.208	-0.065	0.016
-172.939	-91.928	-0.245	0.069
-171.925	158.394	0.016	0.022
-170.910	-200.000	-0.002	0.217
-169.896	541.124	-0.107	-0.251
-168.881	-66.251	0.058	0.023
-167.866	800.000	-0.076	-0.227
-166.852	800.000	-0.061	-0.255
-165.837	-74.751	-0.052	0.019
-164.823	-165.463	-0.084	0.004
-163.808	-139.635	-0.220	0.023
-162.793	-129.878	-0.272	-0.037
-161.779	449.538	-0.108	0.236
-160.764	800.000	-0.061	-0.217
-159.750	-57.823	0.208	-0.090
-158.735	-50.428	0.139	-0.065
-157.720	187.216	-0.173	0.255
-156.706	-24.487	0.113	0.067
-155.691	-200.000	0.066	0.306
-154.677	-17.683	-0.111	0.069
-153.662	46.317	-0.068	-0.062
-152.647	-200.000	0.020	-0.574
-151.633	-65.401	-0.051	0.020
-150.618	-200.000	0.041	0.277
-149.604	800.000	-0.063	0.267
-148.589	217.199	-0.078	-0.123
-147.574	-200.000	-0.026	0.129
-146.560	131.608	0.210	0.267
-145.545	-200.000	0.032	-0.145
-144.531	49.075	0.159	-0.147
-143.516	-83.317	-0.294	-0.093
-142.502	-79.861	-0.089	-0.029
-141.487	800.000	-0.101	0.304
-140.472	180.138	0.126	-0.182
-139.458	-200.000	0.001	-0.049
-138.443	-4.261	0.135	0.092
-137.429	-179.175	0.117	-0.003
-136.414	111.877	0.016	-0.020
-135.399	31.288	-0.148	0.125
-134.385	22.989	0.138	-0.111
-133.370	-0.918	0.301	0.210
-132.356	-6.066	0.198	-0.133
-131.341	-86.998	-0.167	0.050
-130.326	-46.297	0.139	0.067
-129.312	253.563	0.115	-0.194
-128.297	146.792	-0.298	-0.395
-127.283	225.577	0.097	-0.155
-126.268	-200.000	0.150	0.000
-125.253	-127.144	-0.221	-0.032
-124.239	327.012	-0.015	-0.028
-123.224	235.789	0.178	0.291
-122.210	-200.000	-0.002	-0.268
