DTS Sentinel unit serial number:	SN413079Multiplexer serial number:	ORYXHardware model number:	OX4-SRSoftware version number:	ORYX F/W v4.00 Oryx Data Collector v3.7.2.0data status	okinstallation	princeton_trtdifferential loss correction	single-endedforward channel	channel 3reverse channel	N/Adate	2019/09/13time	20:20:35forward acquisition time	60.00reverse acquisition time	0.00gamma	496.2192k internal	0.2331k external	0.2331temperature offset calibration	1.0057default loss term (dB/km)	0.3790temperature slope calibration	1.0000multiplexer offset coefficient	1.0000multiplexer slope coefficient	1.0000fibre end	0.00T internal ref (°C)	29.31T ext. ref 1 (°C)	3.21T ext. ref 2 (°C)	23.84length (m)	temperature (°C)	Stokes	anti-Stokes-747.200	9.076	-0.155	-0.118
-746.185	-13.864	-0.123	0.080
-745.171	-164.950	-0.299	-0.013
-744.156	-23.447	-0.179	0.108
-743.142	-42.409	0.199	-0.102
-742.127	-71.310	0.138	-0.052
-741.112	-69.365	0.603	0.233
-740.098	-200.000	-0.063	0.411
-739.083	-78.023	0.073	-0.025
-738.069	-0.632	-0.132	0.094
-737.054	-75.760	-0.170	0.061
-736.039	16.271	-0.267	0.212
-735.025	100.792	0.174	0.203
-734.010	-149.398	-0.422	-0.034
-732.996	-175.389	-0.132	0.004
-731.981	-128.506	-0.073	0.010
-730.966	381.568	0.004	-0.008
-729.952	131.859	0.185	-0.239
-728.937	163.199	-0.168	0.237
-727.923	91.041	0.276	-0.312
-726.908	-200.000	-0.033	0.309
-725.894	291.195	0.030	-0.056
-724.879	57.610	-0.111	-0.109
-723.864	-102.839	0.250	0.060
-722.850	-200.000	0.012	-0.094
-721.835	136.880	-0.132	-0.173
-720.821	34.538	0.127	0.112
-719.806	-156.357	0.350	0.022
-718.791	99.762	-0.071	0.083
-717.777	136.544	-0.157	-0.207
-716.762	-200.000	0.001	-0.117
-715.748	-50.153	-0.099	-0.047
-714.733	-180.708	0.148	-0.003
-713.718	800.000	-0.148	0.435
-712.704	800.000	-0.054	0.203
-711.689	144.900	0.075	-0.101
-710.675	225.822	0.089	0.145
-709.660	24.198	0.098	-0.081
-708.645	-15.151	-0.316	0.204
-707.631	264.121	0.128	-0.223
-706.616	93.703	-0.264	0.301
-705.602	-113.895	0.365	-0.071
-704.587	291.317	-0.032	0.058
-703.572	-143.214	-0.075	0.007
-702.558	247.449	-0.107	0.181
-701.543	43.249	0.014	0.013
-700.529	-6.119	-0.062	0.043
-699.514	21.351	-0.184	0.151
-698.499	-200.000	-0.016	0.125
-697.485	20.515	0.126	-0.102
-696.470	8.640	0.151	0.114
-695.456	36.594	0.130	-0.115
-694.441	138.545	0.188	0.248
-693.426	61.945	0.175	0.175
-692.412	-41.540	-0.205	-0.106
-691.397	87.535	-0.047	-0.052
-690.383	-88.741	-0.407	-0.121
-689.368	370.829	0.190	-0.387
-688.354	-41.044	-0.101	0.053
-687.339	-53.156	-0.182	-0.084
-686.324	-126.146	-0.131	0.020
-685.310	-49.891	-0.081	0.039
-684.295	112.429	-0.084	0.103
-683.281	-200.000	0.007	-0.032
-682.266	34.329	0.188	0.165
-681.251	221.403	0.229	0.370
-680.237	-44.543	-0.286	0.144
-679.222	185.699	-0.160	-0.239
-678.208	474.162	-0.018	-0.041
-677.193	800.000	-0.037	0.143
-676.178	100.794	-0.048	-0.056
-675.164	-138.778	-0.210	-0.023
-674.149	286.930	-0.079	0.144
-673.135	-180.004	-0.218	-0.005
-672.120	348.503	0.126	-0.250
-671.105	27.253	-0.182	0.153
-670.091	614.159	0.056	0.140
-669.076	20.771	0.238	0.194
-668.062	800.000	-0.083	0.328
-667.047	-76.990	0.123	0.043
-666.032	-17.057	-0.170	-0.108
-665.018	-114.996	-0.572	-0.109
-664.003	-46.062	-0.322	-0.159
-662.989	800.000	-0.086	-0.263
-661.974	112.128	0.228	-0.276
-660.959	32.015	-0.162	-0.140
-659.945	143.754	0.201	-0.269
-658.930	-51.841	-0.359	-0.168
-657.916	379.248	0.168	-0.345
-656.901	39.774	-0.067	0.060
-655.886	299.599	0.062	0.114
-654.872	-200.000	0.000	0.237
-653.857	76.225	-0.176	-0.186
-652.843	395.751	0.064	-0.134
-651.828	178.324	-0.143	-0.210
-650.814	25.238	-0.126	0.105
-649.799	-181.027	-0.255	-0.005
-648.784	74.346	-0.101	-0.107
-647.770	800.000	-0.050	0.197
-646.755	-132.529	0.185	-0.024
-645.741	-200.000	-0.091	-0.415
-644.726	50.154	0.252	0.239
-643.711	-44.530	0.229	-0.115
-642.697	427.499	-0.050	-0.107
-641.682	567.670	-0.093	-0.225
-640.668	-142.980	-0.137	-0.013
-639.653	79.779	0.026	0.028
-638.638	-115.636	-0.212	0.040
-637.624	-200.000	-0.006	0.056
-636.609	233.078	-0.035	0.058
-635.595	-113.449	-0.082	0.016
-634.580	685.101	0.047	0.123
-633.565	800.000	-0.039	-0.163
-632.551	35.651	-0.116	0.102
-631.536	-84.053	-0.229	-0.073
-630.522	-22.167	0.101	-0.062
-629.507	-94.238	-0.250	0.068
-628.492	-76.819	-0.374	0.131
-627.478	34.486	-0.089	0.077
-626.463	146.860	0.083	0.111
-625.449	-192.422	0.133	0.001
-624.434	-120.311	-0.149	0.025
-623.419	-101.010	-0.484	0.119
-622.405	-105.032	-0.260	0.060
-621.390	53.133	0.129	-0.123
-620.376	-140.718	-0.231	0.024
-619.361	-71.988	0.395	-0.147
-618.346	-200.000	-0.002	-0.241
-617.332	-87.749	-0.205	0.062
-616.317	1.635	0.215	0.155
-615.303	-161.595	-0.065	-0.003
-614.288	800.000	-0.027	-0.114
-613.273	-173.696	0.350	0.010
-612.259	-123.935	0.182	0.029
-611.244	-177.355	-0.483	0.012
-610.230	38.294	-0.149	-0.132
-609.215	68.117	-0.311	0.318
-608.201	-162.812	-0.084	0.004
-607.186	-5.765	0.144	0.099
-606.171	-50.245	0.120	0.057
-605.157	100.185	0.175	-0.203
-604.142	774.911	-0.085	-0.233
-603.128	-44.105	-0.051	0.026
-602.113	-200.000	-0.029	-0.181
-601.098	-43.392	0.227	-0.115
-600.084	-198.438	0.119	0.001
-599.069	-101.863	-0.183	0.044
-598.055	-200.000	-0.078	-0.607
-597.040	-78.375	-0.248	-0.085
-596.025	800.000	0.149	0.448
-595.011	-37.439	0.232	0.124
-593.996	-4.398	0.391	-0.270
-592.982	-200.000	0.009	-0.098
-591.967	800.000	-0.075	0.323
-590.952	800.000	-0.031	-0.103
-589.938	36.166	-0.175	0.154
-588.923	-64.250	0.267	0.109
-587.909	221.308	0.173	-0.278
-586.894	-84.918	-0.270	0.085
-585.879	1.314	-0.163	-0.117
-584.865	-200.000	-0.020	0.435
-583.850	-36.260	-0.168	0.090
-582.836	-200.000	-0.014	0.123
-581.821	-38.622	-0.147	-0.078
-580.806	-162.006	-0.166	-0.008
-579.792	702.667	0.035	-0.093
-578.777	-179.537	0.274	0.006
-577.763	800.000	-0.051	-0.194
-576.748	589.407	0.062	0.154
-575.733	800.000	0.014	-0.042
-574.719	-43.381	-0.214	0.108
-573.704	-26.649	-0.304	-0.178
-572.690	84.361	0.190	0.208
-571.675	39.247	-0.325	-0.291
-570.661	-16.230	-0.075	0.047
-569.646	130.266	-0.160	-0.204
-568.631	-39.210	0.301	-0.158
-567.617	132.452	0.114	0.147
-566.602	603.976	0.069	0.171
-565.588	404.175	0.140	0.294
-564.573	800.000	0.009	0.029
-563.558	81.999	0.013	0.014
-562.544	10.000	0.116	-0.088
-561.529	800.000	-0.033	-0.100
-560.515	-49.463	-0.239	-0.114
-559.500	-200.000	0.009	0.211
-558.485	-191.647	0.216	0.002
-557.471	18.063	0.088	-0.070
-556.456	-200.000	-0.031	-0.248
-555.442	-136.233	0.149	0.017
-554.427	179.016	-0.164	-0.240
-553.412	-122.611	-0.169	-0.027
-552.398	629.727	-0.093	0.234
-551.383	-35.128	-0.188	-0.102
-550.369	-15.946	-0.043	0.027
-549.354	357.963	-0.079	-0.157
-548.339	-200.000	0.009	0.093
-547.325	247.727	-0.109	-0.183
-546.310	-36.568	-0.195	-0.105
-545.296	-97.790	0.242	-0.062
-544.281	318.494	0.083	0.156
-543.266	-59.886	-0.240	0.102
-542.252	340.537	0.141	-0.275
-541.237	-104.890	0.264	0.060
-540.223	-200.000	-0.012	-0.118
-539.208	533.609	-0.061	-0.145
-538.193	283.864	0.044	-0.080
-537.179	-160.304	0.288	0.016
-536.164	-127.864	-0.189	0.027
-535.150	50.452	0.031	0.029
-534.135	115.481	-0.136	-0.166
-533.121	-56.137	-0.094	0.042
-532.106	-50.695	-0.208	0.098
-531.091	157.894	0.089	-0.124
-530.077	419.272	-0.086	0.184
-529.062	-0.519	0.341	-0.241
-528.048	-200.000	0.006	0.082
-527.033	32.549	0.098	-0.085
-526.018	53.401	-0.078	0.075
-525.004	28.819	-0.247	-0.209
-523.989	-200.000	0.001	0.048
-522.975	-90.743	-0.159	0.046
-521.960	59.774	0.172	0.169
-520.945	-79.178	-0.122	0.041
-519.931	-108.412	0.038	0.008
-518.916	88.561	0.135	0.150
-517.902	551.238	0.132	-0.316
-516.887	-200.000	0.004	-0.095
-515.872	-116.010	0.164	-0.030
-514.858	800.000	0.047	0.191
-513.843	-36.780	-0.052	0.028
-512.829	-84.248	-0.025	-0.008
-511.814	15.471	-0.289	-0.226
-510.799	37.349	0.194	0.171
-509.785	-99.545	0.226	-0.057
-508.770	-200.000	-0.008	0.074
-507.756	800.000	-0.078	-0.284
-506.741	-36.576	0.288	-0.155
-505.726	-200.000	-0.024	0.149
-504.712	-200.000	-0.013	0.165
-503.697	127.408	0.160	-0.203
-502.683	-148.772	-0.265	-0.021
-501.668	289.061	-0.149	0.270
-500.653	-126.900	0.350	-0.051
-499.639	-30.846	0.222	0.125
-498.624	-200.000	-0.005	-0.190
-497.610	-133.626	0.286	0.036
-496.595	-115.116	0.193	-0.037
-495.581	-38.247	0.047	0.025
-494.566	-39.498	0.251	-0.131
-493.551	118.947	0.127	0.156
-492.537	-130.137	0.272	0.037
-491.522	247.514	-0.060	0.101
-490.508	800.000	-0.027	0.081
-489.493	-105.298	0.021	-0.005
-488.478	275.730	-0.038	0.068
-487.464	-129.950	0.097	-0.013
-486.449	238.414	-0.042	-0.070
-485.435	35.980	-0.095	0.083
-484.420	-150.388	0.106	0.008
-483.405	408.773	-0.088	-0.185
-482.391	-161.722	-0.075	0.004
-481.376	-127.186	-0.166	-0.024
-480.362	-5.592	-0.141	0.096
-479.347	-46.205	-0.199	0.097
-478.332	-200.000	-0.019	0.091
-477.318	-172.712	0.520	0.016
-476.303	42.713	-0.243	0.220
-475.289	800.000	-0.118	0.382
-474.274	-130.827	0.234	-0.031
-473.259	23.021	0.179	-0.147
-472.245	136.749	0.263	-0.342
-471.230	17.657	0.201	0.159
-470.216	-26.998	0.183	0.106
-469.201	-61.750	-0.083	-0.035
-468.186	268.482	-0.010	0.017
-467.172	800.000	0.083	-0.359
-466.157	738.391	0.124	-0.330
-465.143	-65.233	-0.350	0.141
-464.128	-17.244	-0.140	0.088
-463.113	405.569	-0.149	-0.313
-462.099	93.977	0.056	0.063
-461.084	-111.530	-0.258	0.052
-460.070	-91.675	0.232	0.066
-459.055	-34.472	0.159	-0.087
-458.040	800.000	-0.164	-0.488
-457.026	-183.484	0.417	0.007
-456.011	-160.845	-0.490	0.026
-454.997	-71.652	0.196	0.073
-453.982	-200.000	-0.009	-0.294
-452.968	-94.861	-0.453	-0.122
-451.953	-12.358	0.233	0.151
-450.938	-200.000	0.003	0.203
-449.924	-200.000	-0.022	0.217
-448.909	-200.000	0.010	0.168
-447.895	356.992	-0.172	0.342
-446.880	-119.205	0.210	0.036
-445.865	-82.254	0.277	0.090
-444.851	123.237	0.145	-0.181
-443.836	-46.663	-0.203	0.099
-442.822	-200.000	-0.003	-0.059
-441.807	800.000	0.029	0.118
-440.792	-200.000	0.014	-0.158
-439.778	304.231	0.069	0.127
-438.763	-200.000	0.039	0.232
-437.749	451.490	-0.075	-0.165
-436.734	139.401	-0.137	-0.179
-435.719	264.147	-0.085	-0.148
-434.705	379.576	0.205	-0.418
-433.690	211.029	0.065	0.101
-432.676	-64.570	-0.277	0.112
-431.661	260.485	0.155	-0.267
-430.646	-90.626	0.182	0.052
-429.632	-200.000	-0.008	-0.327
-428.617	-200.000	-0.002	0.091
-427.603	-64.761	0.162	0.065
-426.588	144.912	-0.025	0.034
-425.573	102.599	0.184	-0.214
-424.559	-73.662	0.141	-0.051
-423.544	-3.528	-0.199	-0.137
-422.530	-3.215	0.077	0.053
-421.515	800.000	0.051	-0.206
-420.500	-163.792	0.196	0.009
-419.486	-1.703	-0.153	0.107
-418.471	-85.189	0.110	-0.034
-417.457	160.364	0.123	0.171
-416.442	56.484	-0.161	-0.156
-415.428	-200.000	0.004	0.066
-414.413	-200.000	-0.017	-0.305
-413.398	-79.660	0.290	-0.097
-412.384	636.943	-0.126	-0.318
-411.369	100.372	0.117	0.134
-410.355	-94.126	-0.104	0.028
-409.340	378.649	-0.026	-0.053
-408.325	445.833	-0.131	0.285
-407.311	82.176	0.296	-0.319
-406.296	-101.457	-0.152	0.037
-405.282	-4.667	0.120	-0.082
-404.267	-41.292	0.112	0.057
-403.252	43.538	-0.185	-0.168
-402.238	-102.136	-0.218	0.052
-401.223	-200.000	-0.029	-0.270
-400.209	339.063	-0.097	0.188
-399.194	-200.000	-0.041	0.315
-398.179	-49.842	0.054	-0.026
-397.165	110.553	0.078	-0.093
-396.150	-101.941	0.327	0.079
-395.136	800.000	-0.023	0.092
-394.121	800.000	0.029	0.109
-393.106	-200.000	0.040	-0.200
-392.092	-46.905	-0.066	0.032
-391.077	-104.680	-0.218	-0.050
-390.063	436.284	0.031	0.067
-389.048	321.603	-0.090	0.171
-388.033	800.000	0.053	-0.192
-387.019	607.034	0.029	0.072
-386.004	-59.644	0.105	0.045
-384.990	666.546	0.025	-0.064
-383.975	-144.782	-0.195	-0.018
-382.960	800.000	0.016	-0.063
-381.946	-139.883	0.253	0.027
-380.931	-200.000	0.001	0.207
-379.917	162.820	-0.084	0.117
-378.902	135.705	0.268	-0.347
-377.888	-87.899	0.219	0.065
-376.873	-114.069	0.159	0.030
-375.858	198.975	0.260	0.395
-374.844	-170.632	-0.226	-0.008
-373.829	-200.000	0.050	0.000
-372.815	385.430	-0.045	0.092
-371.800	-6.071	0.250	0.169
-370.785	-200.000	0.009	0.044
-369.771	-200.000	-0.007	0.047
-368.756	-65.367	0.215	-0.086
-367.742	212.651	-0.221	0.346
-366.727	-29.442	-0.058	-0.033
-365.712	-200.000	-0.002	-0.271
-364.698	39.274	0.315	-0.280
-363.683	-200.000	-0.053	-0.312
-362.669	150.966	0.224	0.301
-361.654	13.347	0.256	-0.197
-360.639	194.967	0.051	0.077
-359.625	-200.000	-0.006	-0.030
-358.610	100.266	-0.214	-0.246
-357.596	150.963	0.106	-0.143
-356.581	322.484	-0.036	-0.068
-355.566	-200.000	-0.003	-0.099
-354.552	800.000	0.073	-0.221
-353.537	457.769	-0.070	0.153
-352.523	-84.638	0.295	-0.092
-351.508	231.179	-0.113	0.184
-350.493	157.685	0.086	0.119
-349.479	-43.602	-0.207	-0.103
-348.464	-70.930	0.437	0.163
-347.450	800.000	0.122	-0.348
-346.435	51.018	-0.099	-0.093
-345.420	275.228	-0.076	0.134
-344.406	800.000	-0.063	0.183
-343.391	-200.000	0.067	-0.303
-342.377	105.364	0.080	-0.094
-341.362	-200.000	0.022	0.162
-340.348	223.800	-0.246	-0.393
-339.333	29.231	-0.182	0.153
-338.318	-59.846	0.090	-0.038
-337.304	72.537	-0.109	0.112
-336.289	201.065	-0.150	-0.228
-335.275	-200.000	-0.032	0.183
-334.260	26.410	-0.238	-0.197
-333.245	-200.000	0.046	-0.538
-332.231	-99.167	-0.258	0.065
-331.216	66.778	-0.209	-0.211
-330.202	416.549	0.060	0.128
-329.187	32.114	-0.188	0.160
-328.172	422.081	-0.025	-0.052
-327.158	-200.000	0.020	0.108
-326.143	-200.000	-0.051	-0.271
-325.129	172.479	0.160	-0.229
-324.114	89.124	-0.236	-0.260
-323.099	-118.186	-0.099	-0.017
-322.085	-42.097	0.159	0.080
-321.070	-200.000	0.017	-0.209
-320.056	-82.305	0.095	0.030
-319.041	800.000	0.087	0.294
-318.026	800.000	0.007	0.022
-317.012	44.460	0.069	-0.063
-315.997	-200.000	-0.048	0.304
-314.983	101.001	0.144	-0.165
-313.968	112.583	-0.075	0.090
-312.953	34.289	0.221	0.191
-311.939	242.017	0.009	0.016
-310.924	91.577	-0.114	0.127
-309.910	340.745	0.109	0.211
-308.895	-106.773	-0.406	-0.089
-307.880	-200.000	-0.016	-0.207
-306.866	34.316	-0.250	0.216
-305.851	-61.376	-0.204	0.085
-304.837	17.807	0.296	-0.233
-303.822	-131.984	-0.085	0.011
-302.807	-156.285	0.223	-0.014
-301.793	275.874	-0.018	0.032
-300.778	-14.303	0.249	0.159
-299.764	62.167	0.255	0.251
-298.749	-110.703	-0.238	-0.049
-297.735	-45.236	-0.213	-0.105
-296.720	-60.235	0.382	-0.161
-295.705	-114.729	0.095	-0.018
-294.691	-109.484	-0.269	-0.056
-293.676	3.563	-0.075	0.054
-292.662	18.305	0.425	-0.335
-291.647	-96.941	-0.094	0.024
-290.632	-89.229	0.206	-0.060
-289.618	-49.421	-0.171	0.081
-288.603	-200.000	-0.015	0.099
-287.589	20.287	0.246	0.196
-286.574	-200.000	-0.002	0.328
-285.559	-200.000	-0.051	0.317
-284.545	500.739	-0.142	0.325
-283.530	55.270	0.124	-0.119
-282.516	800.000	-0.081	0.254
-281.501	-45.466	-0.240	0.117
-280.486	162.062	-0.195	-0.271
-279.472	31.381	-0.075	0.064
-278.457	24.991	-0.143	0.117
-277.443	62.007	0.137	0.135
-276.428	309.388	-0.059	-0.109
-275.413	-200.000	-0.014	0.100
-274.399	643.577	-0.090	-0.227
-273.384	-197.119	-0.103	-0.001
-272.370	-81.966	0.262	0.085
-271.355	-111.427	-0.094	0.019
-270.340	-200.000	0.007	0.082
-269.326	-200.000	-0.004	-0.155
-268.311	61.444	0.121	-0.119
-267.297	-39.254	-0.319	-0.166
-266.282	12.575	0.163	0.124
-265.267	800.000	0.065	-0.263
-264.253	716.607	-0.023	-0.061
-263.238	-13.134	-0.080	0.051
-262.224	13.974	0.282	0.217
-261.209	545.168	-0.089	0.210
-260.195	547.448	-0.075	0.177
-259.180	-102.936	-0.228	-0.053
-258.165	800.000	-0.037	0.151
-257.151	-91.860	-0.323	-0.090
-256.136	-69.138	0.252	0.096
-255.122	420.489	-0.107	0.227
-254.107	-102.583	0.188	-0.044
-253.092	-200.000	0.010	0.179
-252.078	-169.051	-0.248	-0.009
-251.063	-200.000	-0.012	-0.057
-250.049	96.069	-0.037	0.042
-249.034	-140.082	0.232	-0.024
-248.019	158.692	0.139	-0.191
-247.005	183.408	0.039	0.056
-245.990	-40.421	-0.211	0.108
-244.976	72.406	-0.045	0.047
-243.961	-76.833	-0.339	0.117
-242.946	-200.000	0.007	-0.076
-241.932	-68.161	0.226	0.087
-240.917	204.562	-0.187	0.286
-239.903	444.732	-0.133	0.288
-238.888	40.541	-0.135	0.120
-237.873	350.570	-0.116	0.225
-236.859	-18.112	0.275	0.170
-235.844	-54.481	0.241	0.108
-234.830	-39.910	-0.211	-0.109
-233.815	-200.000	0.016	-0.207
-232.800	-136.135	-0.297	-0.034
-231.786	-200.000	0.003	-0.128
-230.771	523.235	0.163	0.377
-229.757	-52.123	-0.120	-0.055
-228.742	-126.603	0.434	0.063
-227.727	336.951	-0.197	0.377
-226.713	-200.000	0.031	0.153
-225.698	0.014	0.162	-0.114
-224.684	800.000	0.062	-0.230
-223.669	72.695	0.120	-0.123
-222.655	60.989	0.228	0.223
-221.640	-200.000	0.012	-0.162
-220.625	168.849	-0.186	0.261
-219.611	-200.000	-0.012	0.154
-218.596	800.000	-0.071	0.290
-217.582	-121.783	-0.129	-0.021
-216.567	24.112	0.094	0.077
-215.552	-200.000	0.091	-0.446
-214.538	-18.232	-0.242	-0.149
-213.523	514.100	0.072	-0.166
-212.509	-132.460	-0.173	-0.022
-211.494	29.697	-0.141	0.118
-210.479	-130.342	0.149	0.020
-209.465	307.790	-0.124	0.227
-208.450	54.771	0.065	0.062
-207.436	10.749	0.150	-0.113
-206.421	56.959	0.161	-0.155
-205.406	34.597	0.175	0.150
-204.392	-175.394	0.256	0.007
-203.377	800.000	-0.061	0.209
-202.363	6.138	-0.196	-0.143
-201.348	150.353	-0.101	-0.135
-200.333	-135.707	-0.195	-0.023
-199.319	-134.145	-0.258	0.031
-198.304	-161.266	0.282	-0.014
-197.290	-55.246	-0.236	-0.104
-196.275	76.996	-0.089	0.093
-195.260	337.408	0.128	-0.245
-194.246	-103.642	-0.260	0.060
-193.231	-10.411	0.081	0.053
-192.217	-200.000	0.026	0.165
-191.202	800.000	0.071	0.245
-190.187	-82.899	0.139	0.044
-189.173	366.824	-0.139	-0.277
-188.158	391.089	0.063	-0.129
-187.144	-200.000	0.001	-0.045
-186.129	72.314	-0.220	0.226
-185.114	-159.295	-0.353	0.019
-184.100	-159.682	-0.130	0.007
-183.085	-200.000	-0.024	0.125
-182.071	800.000	-0.059	0.248
-181.056	-146.586	0.188	-0.016
-180.042	-74.395	-0.113	-0.040
-179.027	-131.541	0.241	-0.031
-178.012	313.106	0.162	0.301
-176.998	183.443	-0.205	0.298
-175.983	197.542	0.029	-0.043
-174.969	179.825	-0.174	0.251
-173.954	-95.749	-0.090	-0.024
-172.939	167.210	0.221	-0.309
-171.925	-49.377	0.212	0.100
-170.910	-200.000	-0.007	-0.072
-169.896	27.842	-0.179	-0.148
-168.881	-98.084	-0.263	0.067
-167.866	-147.256	0.093	0.008
-166.852	166.135	0.134	-0.187
-165.837	149.693	0.241	0.322
-164.823	494.947	0.060	0.135
-163.808	33.881	-0.284	0.244
-162.793	-94.897	-0.108	-0.029
-161.779	-200.000	-0.032	-0.271
-160.764	-200.000	0.027	-0.282
-159.750	-111.314	0.296	-0.060
-158.735	-112.172	0.238	-0.047
-157.720	-62.293	0.054	-0.022
-156.706	-167.613	-0.120	-0.005
-155.691	-200.000	-0.037	0.220
-154.677	196.522	0.129	0.193
-153.662	-7.661	0.016	0.011
-152.647	360.460	-0.221	-0.435
-151.633	208.518	-0.172	0.265
-150.618	800.000	-0.071	-0.203
-149.604	-22.949	0.134	0.079
-148.589	-200.000	-0.007	0.081
-147.574	-200.000	0.010	-0.150
-146.560	-29.908	-0.417	-0.234
-145.545	-75.963	-0.100	-0.035
-144.531	-114.331	-0.361	0.068
-143.516	93.377	0.165	0.184
-142.502	97.893	0.098	0.111
-141.487	-92.885	-0.141	-0.039
-140.472	-200.000	-0.020	-0.231
-139.458	794.274	0.007	0.018
-138.443	-86.884	0.167	-0.050
-137.429	507.516	0.045	0.103
-136.414	120.883	0.086	0.105
-135.399	-194.784	0.205	0.002
-134.385	-110.355	-0.421	-0.086
-133.370	355.011	-0.258	0.503
-132.356	-46.119	-0.437	0.212
-131.341	10.581	-0.082	0.061
-130.326	38.642	0.203	-0.178
-129.312	-65.628	0.087	-0.034
-128.297	-111.232	-0.240	-0.048
-127.283	800.000	-0.101	0.353
-126.268	227.598	0.192	0.307
-125.253	-185.444	0.312	0.005
-124.239	142.898	-0.070	-0.092
-123.224	-69.821	0.193	0.072
-122.210	75.496	0.162	0.168
-121.195	49.539	0.029	0.027
