DTS Sentinel unit serial number:	SN413079Multiplexer serial number:	ORYXHardware model number:	OX4-SRSoftware version number:	ORYX F/W v4.00 Oryx Data Collector v3.7.2.0data status	okinstallation	princeton_trtdifferential loss correction	single-endedforward channel	channel 3reverse channel	N/Adate	2019/09/18time	15:00:35forward acquisition time	60.00reverse acquisition time	0.00gamma	496.2192k internal	0.2306k external	0.2306temperature offset calibration	0.9980default loss term (dB/km)	0.3790temperature slope calibration	1.0000multiplexer offset coefficient	1.0000multiplexer slope coefficient	1.0000fibre end	0.00T internal ref (°C)	35.19T ext. ref 1 (°C)	0.73T ext. ref 2 (°C)	30.65length (m)	temperature (°C)	Stokes	anti-Stokes-747.200	800.000	0.024	-0.104
-746.185	800.000	-0.114	0.325
-745.171	220.344	-0.278	0.454
-744.156	800.000	0.078	0.326
-743.142	-173.602	-0.339	-0.010
-742.127	-162.691	-0.091	-0.005
-741.112	800.000	0.072	-0.249
-740.098	455.873	-0.133	0.301
-739.083	800.000	0.052	-0.155
-738.069	-21.662	0.115	0.071
-737.054	294.067	-0.080	-0.149
-736.039	-200.000	0.026	-0.124
-735.025	-183.258	0.392	0.007
-734.010	27.874	-0.162	0.139
-732.996	-153.209	-0.237	-0.017
-731.981	241.166	-0.039	-0.066
-730.966	739.206	0.088	-0.241
-729.952	522.140	0.027	-0.065
-728.937	-28.252	0.395	-0.232
-727.923	207.841	0.043	-0.069
-726.908	-109.170	0.077	-0.017
-725.894	-112.595	0.277	0.056
-724.879	23.417	-0.339	0.283
-723.864	800.000	-0.055	0.201
-722.850	328.506	-0.158	-0.308
-721.835	334.828	-0.075	-0.149
-720.821	363.668	-0.099	0.203
-719.806	-97.388	-0.268	0.071
-718.791	31.571	0.172	-0.150
-717.777	63.363	-0.076	-0.078
-716.762	-200.000	0.005	0.071
-715.748	-52.857	-0.197	-0.092
-714.733	218.268	-0.252	0.408
-713.718	377.594	0.030	0.062
-712.704	18.017	0.140	0.114
-711.689	486.350	0.065	0.150
-710.675	-152.504	0.098	0.007
-709.660	77.366	-0.180	-0.194
-708.645	-38.362	0.489	-0.263
-707.631	-138.962	0.317	0.035
-706.616	239.712	0.028	0.047
-705.602	21.035	0.196	0.161
-704.587	-167.722	0.132	-0.005
-703.572	-146.785	0.364	-0.032
-702.558	-108.747	0.110	0.024
-701.543	-102.849	0.152	-0.037
-700.529	15.889	-0.091	-0.072
-699.514	-200.000	-0.026	0.141
-698.499	-61.532	-0.277	-0.118
-697.485	-115.977	-0.413	-0.078
-696.470	-158.665	0.331	0.019
-695.456	-200.000	0.041	-0.247
-694.441	-200.000	0.015	0.130
-693.426	-94.243	0.320	0.089
-692.412	476.646	-0.007	-0.016
-691.397	-200.000	0.003	-0.155
-690.383	406.774	0.121	-0.260
-689.368	175.190	-0.134	-0.197
-688.354	344.242	-0.197	-0.393
-687.339	242.249	0.222	0.377
-686.324	-200.000	0.001	0.117
-685.310	-200.000	-0.004	-0.265
-684.295	-151.962	-0.229	0.017
-683.281	-31.899	-0.152	-0.086
-682.266	-48.323	0.176	-0.086
-681.251	-29.812	0.314	-0.182
-680.237	168.369	-0.069	-0.100
-679.222	-135.974	0.301	-0.036
-678.208	10.847	0.290	-0.225
-677.193	800.000	-0.091	-0.335
-676.178	-200.000	0.051	-0.243
-675.164	-78.775	-0.058	0.020
-674.149	-200.000	0.024	-0.279
-673.135	-200.000	0.005	0.045
-672.120	258.174	-0.273	-0.477
-671.105	139.158	0.075	-0.101
-670.091	607.784	0.103	-0.261
-669.076	-44.800	-0.277	-0.140
-668.062	222.304	0.133	-0.217
-667.047	800.000	-0.062	0.220
-666.032	-70.274	0.117	0.045
-665.018	-147.182	-0.332	-0.029
-664.003	84.432	0.055	0.061
-662.989	301.234	-0.107	-0.201
-661.974	290.651	-0.130	0.240
-660.959	800.000	0.008	-0.037
-659.945	-200.000	0.004	-0.023
-658.930	-42.873	0.233	-0.120
-657.916	-87.146	0.124	-0.038
-656.901	-143.729	0.561	0.054
-655.886	-200.000	-0.060	-0.579
-654.872	337.946	-0.030	0.058
-653.857	-59.812	0.261	-0.113
-652.843	61.188	-0.231	-0.232
-651.828	15.157	-0.192	0.153
-650.814	362.265	0.045	-0.092
-649.799	800.000	0.049	0.143
-648.784	-200.000	0.173	0.001
-647.770	-107.197	-0.041	0.009
-646.755	-67.666	0.130	0.052
-645.741	-43.780	-0.373	-0.190
-644.726	-200.000	-0.017	-0.175
-643.711	351.777	0.100	-0.202
-642.697	209.563	0.051	-0.080
-641.682	-200.000	-0.046	-0.225
-640.668	-175.147	0.225	0.006
-639.653	125.010	-0.092	0.117
-638.638	92.504	0.169	-0.193
-637.624	-118.219	-0.075	-0.013
-636.609	-200.000	0.046	-0.218
-635.595	800.000	-0.046	-0.177
-634.580	-200.000	0.018	0.093
-633.565	339.315	0.110	-0.218
-632.551	-160.070	0.182	-0.010
-631.536	-57.294	-0.099	0.044
-630.522	668.730	0.097	0.255
-629.507	483.412	0.104	0.239
-628.492	-200.000	0.036	0.259
-627.478	-22.022	-0.226	0.139
-626.463	432.983	0.168	0.370
-625.449	-141.701	-0.216	0.022
-624.434	-90.730	-0.172	-0.050
-623.419	69.800	0.077	-0.080
-622.405	-200.000	0.018	-0.228
-621.390	206.906	0.048	0.076
-620.376	-51.655	0.044	-0.021
-619.361	94.236	0.069	0.079
-618.346	1.377	-0.073	-0.053
-617.332	200.789	-0.086	-0.134
-616.317	39.319	-0.100	-0.091
-615.303	49.423	0.116	-0.111
-614.288	-139.507	0.539	0.058
-613.273	800.000	0.018	-0.059
-612.259	738.870	-0.009	0.026
-611.244	800.000	-0.014	-0.061
-610.230	-200.000	-0.017	-0.229
-609.215	134.073	-0.174	-0.229
-608.201	178.082	0.052	0.077
-607.186	496.937	0.057	-0.133
-606.171	43.439	-0.030	-0.028
-605.157	800.000	-0.064	0.230
-604.142	800.000	0.025	-0.096
-603.128	747.484	-0.048	0.130
-602.113	-200.000	-0.039	-0.233
-601.098	-99.249	0.453	0.116
-600.084	-127.019	-0.306	-0.045
-599.069	122.555	0.109	0.138
-598.055	-39.809	-0.115	-0.061
-597.040	-112.906	-0.162	0.033
-596.025	761.092	-0.072	-0.197
-595.011	-69.818	-0.146	-0.056
-593.996	240.274	-0.206	0.348
-592.982	-87.202	0.343	0.106
-591.967	86.136	-0.144	0.160
-590.952	-200.000	0.011	-0.225
-589.938	-19.271	-0.125	0.078
-588.923	-174.227	-0.034	-0.001
-587.909	-55.868	-0.236	0.107
-586.894	236.987	-0.065	0.109
-585.879	-3.321	0.238	-0.168
-584.865	107.526	-0.114	-0.137
-583.850	-61.233	0.290	0.123
-582.836	187.821	-0.168	-0.254
-581.821	106.830	-0.158	-0.189
-580.806	-200.000	-0.048	-0.234
-579.792	89.955	0.295	0.333
-578.777	-10.021	0.166	0.111
-577.763	85.073	0.167	0.185
-576.748	303.159	-0.133	-0.249
-575.733	800.000	0.060	-0.220
-574.719	-26.886	-0.331	-0.195
-573.704	323.450	0.126	0.243
-572.690	423.605	-0.043	0.094
-571.675	78.486	-0.234	0.253
-570.661	-200.000	-0.036	0.242
-569.646	-200.000	0.013	0.202
-568.631	-176.092	0.138	-0.004
-567.617	13.453	-0.271	0.213
-566.602	-67.297	0.358	-0.142
-565.588	-72.836	-0.210	0.078
-564.573	-200.000	0.023	0.108
-563.558	78.000	0.048	0.052
-562.544	-83.784	-0.289	0.093
-561.529	308.017	0.129	0.244
-560.515	-1.323	0.022	-0.016
-559.500	-58.276	0.182	0.080
-558.485	-187.490	0.514	-0.007
-557.471	-48.153	0.294	-0.143
-556.456	14.338	-0.032	-0.025
-555.442	-47.702	-0.237	0.116
-554.427	-17.357	0.207	-0.132
-553.412	-200.000	0.052	-0.237
-552.398	-200.000	-0.016	0.098
-551.383	-12.932	0.149	0.098
-550.369	-195.153	-0.257	0.002
-549.354	55.685	-0.131	-0.128
-548.339	-88.456	-0.235	0.071
-547.325	10.689	-0.220	0.170
-546.310	-40.193	-0.134	0.070
-545.296	435.356	-0.066	0.145
-544.281	-10.944	0.256	0.171
-543.266	34.458	-0.236	0.208
-542.252	-146.160	0.140	-0.012
-541.237	152.683	-0.020	0.028
-540.223	-85.005	-0.259	0.082
-539.208	-63.070	-0.299	0.125
-538.193	-6.491	-0.220	-0.151
-537.179	178.691	-0.180	0.266
-536.164	111.412	0.198	0.241
-535.150	-63.295	-0.306	-0.127
-534.135	104.656	-0.072	0.085
-533.121	118.033	-0.085	-0.106
-532.106	-5.412	-0.249	-0.173
-531.091	99.071	-0.096	-0.112
-530.077	-15.382	-0.204	-0.132
-529.062	167.441	-0.100	-0.143
-528.048	278.652	0.163	-0.293
-527.033	-46.551	0.137	-0.068
-526.018	-65.805	-0.197	0.080
-525.004	-17.683	-0.241	0.152
-523.989	-3.795	0.234	-0.164
-522.975	800.000	-0.063	-0.224
-521.960	-200.000	0.021	-0.525
-520.945	5.553	-0.055	0.041
-519.931	-69.824	0.376	-0.145
-518.916	172.671	0.120	0.174
-517.902	151.343	0.196	-0.269
-516.887	-171.645	-0.051	0.002
-515.872	647.900	-0.084	0.218
-514.858	-36.879	0.263	-0.143
-513.843	16.438	-0.203	0.162
-512.829	-68.201	-0.150	0.059
-511.814	800.000	0.034	0.137
-510.799	-29.854	0.041	-0.024
-509.785	-67.681	-0.081	-0.032
-508.770	35.705	0.207	-0.183
-507.756	35.274	-0.149	-0.131
-506.741	248.531	0.074	0.126
-505.726	-95.402	0.164	-0.044
-504.712	-200.000	-0.051	0.251
-503.697	-200.000	-0.048	0.246
-502.683	-200.000	-0.021	-0.332
-501.668	134.587	0.129	0.169
-500.653	-200.000	-0.019	-0.430
-499.639	80.411	0.256	-0.278
-498.624	-173.908	0.292	0.009
-497.610	423.633	0.084	0.183
-496.595	-143.741	0.159	0.015
-495.581	-127.070	0.208	0.031
-494.566	800.000	0.077	0.234
-493.551	82.882	0.036	0.040
-492.537	-34.683	-0.142	0.078
-491.522	-156.090	-0.347	-0.022
-490.508	302.904	-0.040	-0.075
-489.493	-200.000	0.017	-0.305
-488.478	139.525	0.080	-0.106
-487.464	38.305	0.139	-0.124
-486.449	429.446	0.134	-0.291
-485.435	85.831	-0.044	0.049
-484.420	80.587	0.130	-0.142
-483.405	-88.955	-0.156	0.047
-482.391	330.912	0.134	0.260
-481.376	59.225	-0.199	-0.197
-480.362	800.000	0.006	0.018
-479.347	18.626	0.196	0.158
-478.332	-200.000	-0.038	0.216
-477.318	9.468	-0.103	-0.078
-476.303	-31.755	0.254	-0.143
-475.289	305.638	0.204	0.383
-474.274	-200.000	0.005	0.050
-473.259	10.241	-0.044	0.033
-472.245	148.068	0.115	0.156
-471.230	263.551	0.056	-0.098
-470.216	-200.000	-0.011	0.108
-469.201	-200.000	-0.005	0.406
-468.186	-1.247	0.080	-0.057
-467.172	-25.439	-0.113	0.067
-466.157	83.317	-0.017	0.019
-465.143	-89.611	-0.184	-0.054
-464.128	122.264	0.095	-0.120
-463.113	-64.152	0.052	0.021
-462.099	-200.000	-0.027	-0.320
-461.084	97.498	-0.035	0.041
-460.070	55.979	0.068	0.067
-459.055	-20.351	-0.247	0.153
-458.040	800.000	0.093	0.267
-457.026	-98.343	-0.261	0.067
-456.011	-20.725	-0.323	0.200
-454.997	399.264	-0.080	-0.168
-453.982	-58.729	-0.124	-0.054
-452.968	375.438	0.115	0.235
-451.953	-200.000	-0.029	-0.266
-450.938	671.617	-0.035	-0.091
-449.924	206.935	0.073	0.114
-448.909	127.854	0.116	0.148
-447.895	-200.000	0.011	-0.129
-446.880	-77.568	0.158	0.055
-445.865	-92.804	-0.308	0.087
-444.851	299.976	0.105	-0.194
-443.836	-38.078	0.292	0.156
-442.822	130.846	-0.076	0.098
-441.807	-70.560	0.381	0.145
-440.792	5.733	0.085	0.063
-439.778	1.736	-0.058	-0.042
-438.763	249.717	-0.173	0.295
-437.749	179.048	0.053	0.078
-436.734	-46.175	0.265	-0.131
-435.719	385.635	-0.077	-0.160
-434.705	-94.679	0.242	0.066
-433.690	-200.000	0.071	-0.359
-432.676	-200.000	0.030	-0.183
-431.661	9.987	-0.095	-0.073
-430.646	-120.899	-0.315	0.053
-429.632	800.000	-0.052	0.175
-428.617	188.249	-0.138	0.207
-427.603	390.615	-0.160	0.333
-426.588	5.119	-0.193	-0.143
-425.573	398.809	0.268	0.563
-424.559	327.045	-0.066	0.127
-423.544	-200.000	-0.035	0.225
-422.530	75.254	-0.042	-0.044
-421.515	127.205	0.028	0.036
-420.500	37.743	-0.124	-0.111
-419.486	800.000	-0.128	-0.392
-418.471	800.000	0.022	0.093
-417.457	-200.000	0.000	-0.068
-416.442	-54.057	-0.053	0.024
-415.428	-96.098	-0.445	-0.119
-414.413	-122.941	-0.185	0.030
-413.398	-99.498	-0.117	-0.029
-412.384	-200.000	-0.001	-0.108
-411.369	-200.000	-0.010	-0.050
-410.355	172.368	0.187	0.270
-409.340	-115.692	0.048	0.009
-408.325	157.384	-0.102	0.142
-407.311	662.554	-0.104	-0.268
-406.296	181.667	-0.149	-0.220
-405.282	519.628	0.110	0.259
-404.267	800.000	0.068	-0.223
-403.252	-80.829	0.102	-0.034
-402.238	48.120	-0.266	0.250
-401.223	-35.553	-0.222	-0.121
-400.209	-93.663	0.190	-0.053
-399.194	305.342	-0.068	-0.127
-398.179	142.785	-0.160	0.213
-397.165	-200.000	0.006	0.142
-396.150	97.415	-0.168	0.194
-395.136	-200.000	-0.029	0.126
-394.121	60.962	-0.119	-0.119
-393.106	-67.042	0.046	0.018
-392.092	-194.299	0.160	-0.001
-391.077	355.552	-0.079	-0.158
-390.063	204.504	0.160	-0.250
-389.048	-164.033	0.174	-0.008
-388.033	41.931	0.322	0.293
-387.019	-103.566	-0.206	0.048
-386.004	-200.000	0.046	0.224
-384.990	280.617	0.084	-0.151
-383.975	800.000	0.094	0.276
-382.960	262.465	0.135	-0.235
-381.946	583.176	0.048	0.117
-380.931	359.221	-0.068	0.137
-379.917	729.049	0.099	0.264
-378.902	-28.100	-0.139	-0.081
-377.888	800.000	0.017	0.053
-376.873	-84.847	0.383	-0.121
-375.858	-14.151	0.086	0.055
-374.844	572.495	-0.073	-0.179
-373.829	166.450	-0.107	-0.152
-372.815	133.354	-0.042	0.055
-371.800	800.000	0.104	-0.437
-370.785	-142.825	0.037	0.004
-369.771	30.263	0.125	-0.107
-368.756	-200.000	-0.002	0.109
-367.742	800.000	0.103	-0.301
-366.727	-30.188	-0.294	-0.167
-365.712	276.507	0.067	0.120
-364.698	-2.193	0.447	0.315
-363.683	-59.977	0.102	-0.044
-362.669	26.487	0.191	-0.160
-361.654	250.996	0.190	0.324
-360.639	602.457	-0.087	0.218
-359.625	-46.068	-0.297	-0.147
-358.610	316.478	0.066	-0.125
-357.596	-183.512	-0.195	-0.003
-356.581	152.015	0.134	0.183
-355.566	-55.633	-0.231	-0.104
-354.552	-110.710	0.133	0.028
-353.537	43.183	-0.009	-0.008
-352.523	-74.887	0.295	0.106
-351.508	-116.727	0.130	-0.024
-350.493	7.976	0.221	0.166
-349.479	-200.000	0.037	0.341
-348.464	-200.000	-0.019	0.181
-347.450	42.967	0.100	-0.091
-346.435	-200.000	0.012	0.108
-345.420	-200.000	-0.010	0.091
-344.406	92.377	0.067	-0.075
-343.391	-200.000	0.040	0.208
-342.377	-67.590	0.368	-0.144
-341.362	800.000	0.026	0.101
-340.348	406.133	0.156	-0.329
-339.333	-200.000	-0.061	-0.372
-338.318	-137.635	-0.048	-0.005
-337.304	157.115	-0.099	-0.137
-336.289	-200.000	-0.005	-0.174
-335.275	800.000	-0.021	-0.071
-334.260	-128.822	-0.424	-0.060
-333.245	800.000	0.032	-0.112
-332.231	-60.168	0.237	0.101
-331.216	357.560	0.093	0.185
-330.202	800.000	0.057	0.231
-329.187	800.000	0.125	-0.420
-328.172	-10.600	-0.193	-0.128
-327.158	743.795	0.090	-0.242
-326.143	-2.523	-0.222	0.156
-325.129	-200.000	-0.515	-0.001
-324.114	74.402	-0.254	-0.268
-323.099	98.802	-0.143	-0.165
-322.085	-200.000	0.009	-0.323
-321.070	-178.388	0.262	0.006
-320.056	43.052	-0.244	0.222
-319.041	633.273	-0.039	-0.099
-318.026	-164.422	-0.174	0.008
-317.012	-200.000	0.052	-0.370
-315.997	-200.000	-0.024	-0.111
-314.983	-181.313	-0.197	0.004
-313.968	-92.557	-0.138	0.039
-312.953	259.714	-0.044	0.076
-311.939	-114.928	0.299	-0.057
-310.924	-30.767	0.054	-0.030
-309.910	131.767	0.107	0.138
-308.895	-110.474	-0.324	-0.067
-307.880	-128.399	0.040	-0.006
-306.866	-200.000	0.017	-0.106
-305.851	789.757	0.072	-0.199
-304.837	-66.332	-0.166	0.066
-303.822	-7.170	0.027	-0.018
-302.807	-74.919	-0.317	0.114
-301.793	-200.000	-0.010	-0.147
-300.778	-200.000	-0.021	0.180
-299.764	52.089	-0.189	0.180
-298.749	-69.414	-0.051	0.019
-297.735	-29.793	0.142	0.081
-296.720	44.946	0.092	-0.085
-295.705	-131.196	0.295	-0.039
-294.691	-77.617	0.190	0.066
-293.676	-7.107	-0.280	-0.190
-292.662	120.547	0.054	0.067
-291.647	-62.889	-0.327	0.135
-290.632	101.236	0.206	-0.239
-289.618	800.000	0.044	-0.191
-288.603	694.648	-0.042	0.109
-287.589	82.341	-0.056	-0.061
-286.574	201.617	-0.058	0.089
-285.559	-200.000	-0.028	0.194
-284.545	-177.771	0.174	0.004
-283.530	-200.000	0.050	0.245
-282.516	-91.823	-0.132	-0.038
-281.501	184.811	-0.119	0.176
-280.486	704.426	0.085	0.224
-279.472	84.560	-0.219	-0.239
-278.457	-154.014	0.165	-0.011
-277.443	-52.578	0.265	0.122
-276.428	-101.538	0.208	-0.051
-275.413	47.006	0.172	0.159
-274.399	186.581	-0.216	-0.321
-273.384	534.125	0.087	0.205
-272.370	-69.055	0.271	-0.104
-271.355	76.721	-0.298	-0.316
-270.340	8.144	0.198	-0.149
-269.326	-87.499	0.175	0.053
-268.311	-36.308	0.182	0.098
-267.297	-33.415	-0.119	0.066
-266.282	464.290	0.109	-0.243
-265.267	91.852	0.239	0.268
-264.253	-110.887	0.306	0.063
-263.238	-135.379	-0.047	0.006
-262.224	-36.329	-0.270	0.145
-261.209	511.158	0.067	-0.156
-260.195	800.000	-0.126	-0.366
-259.180	-200.000	0.017	-0.123
-258.165	-38.823	0.081	-0.043
-257.151	-200.000	0.008	0.196
-256.136	-200.000	-0.002	0.044
-255.122	98.486	-0.135	-0.155
-254.107	618.929	-0.116	0.292
-253.092	-200.000	0.034	0.404
-252.078	73.570	0.147	-0.154
-251.063	-200.000	-0.030	0.307
-250.049	16.206	-0.120	0.094
-249.034	-133.262	0.083	-0.010
-248.019	800.000	0.112	-0.399
-247.005	-200.000	0.017	-0.267
-245.990	24.930	-0.258	-0.214
-244.976	-114.502	-0.201	-0.038
-243.961	-94.653	0.157	0.043
-242.946	-10.314	-0.088	-0.058
-241.932	800.000	-0.084	-0.314
-240.917	-200.000	0.017	-0.144
-239.903	-42.052	-0.072	0.037
-238.888	10.370	-0.265	-0.201
-237.873	-109.031	-0.191	0.041
-236.859	800.000	0.065	0.208
-235.844	47.918	-0.154	0.144
-234.830	-68.158	-0.096	-0.037
-233.815	-200.000	-0.028	0.247
-232.800	124.026	0.151	-0.189
-231.786	-18.687	0.373	0.232
-230.771	117.161	0.103	0.127
-229.757	-48.031	-0.148	0.071
-228.742	-76.867	-0.447	0.156
-227.727	-188.826	0.112	0.001
-226.713	-19.334	0.238	-0.147
-225.698	327.873	-0.151	-0.290
-224.684	25.960	0.195	-0.163
-223.669	369.200	-0.157	-0.317
-222.655	-160.388	-0.126	0.007
-221.640	674.611	-0.048	0.125
-220.625	-120.487	0.280	0.047
-219.611	-101.131	-0.182	0.044
-218.596	73.215	-0.248	0.259
-217.582	-114.590	0.204	0.039
-216.567	172.551	0.236	-0.338
-215.552	22.008	0.037	-0.030
-214.538	-200.000	-0.025	0.149
-213.523	88.763	0.109	-0.121
-212.509	-200.000	0.021	-0.109
-211.494	137.480	-0.182	0.237
-210.479	462.020	0.075	0.166
-209.465	290.330	-0.083	0.150
-208.450	34.180	-0.523	-0.454
-207.436	613.367	0.068	0.169
-206.421	-145.666	0.089	-0.008
-205.406	-200.000	-0.013	0.133
-204.392	-95.147	0.211	0.057
-203.377	18.456	0.171	0.136
-202.363	-200.000	0.021	-0.350
-201.348	240.310	-0.150	0.250
-200.333	-47.321	0.179	-0.087
-199.319	40.415	0.135	0.121
-198.304	-200.000	-0.001	0.075
-197.290	-60.764	0.251	0.106
-196.275	800.000	0.069	0.221
-195.260	-78.113	0.014	0.005
-194.246	800.000	0.048	-0.142
-193.231	101.347	-0.235	-0.272
-192.217	10.522	-0.095	-0.072
-191.202	52.751	0.085	0.081
-190.187	-85.618	-0.052	-0.016
-189.173	-134.731	0.038	0.005
-188.158	-36.307	-0.430	-0.231
-187.144	228.183	0.099	0.160
-186.129	-41.074	-0.144	0.074
-185.114	41.417	-0.169	-0.152
-184.100	-200.000	-0.013	-0.195
-183.085	-171.683	0.275	-0.009
-182.071	164.772	-0.060	0.084
-181.056	-151.837	-0.102	0.007
-180.042	800.000	-0.061	-0.168
-179.027	77.415	0.086	0.092
-178.012	800.000	-0.053	0.150
-176.998	800.000	0.056	-0.209
-175.983	-55.874	0.120	0.053
-174.969	800.000	0.059	0.165
-173.954	-7.479	-0.185	-0.125
-172.939	29.119	0.132	0.112
-171.925	-200.000	0.001	0.044
-170.910	17.989	0.311	0.247
-169.896	688.195	-0.036	0.094
-168.881	-200.000	-0.066	0.476
-167.866	-200.000	-0.269	-0.001
-166.852	-183.673	0.246	0.004
-165.837	-200.000	-0.030	-0.195
-164.823	114.380	0.133	-0.162
-163.808	9.116	0.264	-0.199
-162.793	-86.429	-0.225	0.069
-161.779	111.382	0.206	-0.247
-160.764	3.075	0.236	-0.171
-159.750	29.424	0.042	-0.036
-158.735	186.421	0.024	0.035
-157.720	-158.549	-0.286	0.016
-156.706	363.540	-0.038	-0.077
-155.691	-200.000	-0.063	0.338
-154.677	800.000	0.025	0.085
-153.662	-111.026	0.319	0.065
-152.647	90.551	-0.172	0.191
-151.633	-66.322	-0.255	-0.101
-150.618	9.083	-0.218	0.164
-149.604	-200.000	-0.005	-0.184
-148.589	177.507	0.095	0.138
-147.574	-200.000	-0.025	-0.312
-146.560	277.726	-0.139	-0.246
-145.545	233.155	0.067	0.110
-144.531	-200.000	0.021	-0.105
-143.516	20.355	0.212	-0.170
-142.502	-144.808	0.149	-0.014
-141.487	-105.530	0.150	-0.034
-140.472	450.709	-0.076	0.166
-139.458	-102.985	-0.171	-0.040
-138.443	-200.000	0.147	-0.000
-137.429	118.387	-0.167	0.205
-136.414	-200.000	-0.048	0.234
-135.399	159.087	0.061	-0.085
-134.385	87.623	-0.175	0.192
-133.370	-44.845	-0.243	0.120
-132.356	-200.000	0.026	-0.233
-131.341	187.344	-0.193	0.286
-130.326	45.289	0.116	0.107
-129.312	-97.522	-0.206	0.053
-128.297	-4.273	0.143	0.098
-127.283	-3.576	0.210	0.145
-126.268	-139.631	0.153	0.016
-125.253	218.117	0.095	-0.150
-124.239	-188.309	-0.080	-0.001
-123.224	39.047	-0.005	0.005
-122.210	92.770	0.300	0.337
-121.195	62.594	-0.177	0.175
-120.180	-56.333	0.079	-0.035
