DTS Sentinel unit serial number:	SN413079Multiplexer serial number:	ORYXHardware model number:	OX4-SRSoftware version number:	ORYX F/W v4.00 Oryx Data Collector v3.7.2.0data status	okinstallation	princeton_trtdifferential loss correction	single-endedforward channel	channel 3reverse channel	N/Adate	2019/09/13time	00:36:35forward acquisition time	60.00reverse acquisition time	0.00gamma	496.2192k internal	0.2331k external	0.2331temperature offset calibration	1.0122default loss term (dB/km)	0.3790temperature slope calibration	1.0000multiplexer offset coefficient	1.0000multiplexer slope coefficient	1.0000fibre end	0.00T internal ref (°C)	28.31T ext. ref 1 (°C)	3.70T ext. ref 2 (°C)	22.90length (m)	temperature (°C)	Stokes	anti-Stokes-747.200	-200.000	-0.023	0.180
-746.185	48.372	-0.055	0.052
-745.171	-200.000	0.043	-0.272
-744.156	7.194	0.308	0.232
-743.142	480.725	0.139	0.317
-742.127	-25.604	-0.159	0.094
-741.112	-93.166	0.246	-0.069
-740.098	-151.385	-0.207	0.016
-739.083	316.513	0.125	0.238
-738.069	561.280	-0.060	0.145
-737.054	-138.540	-0.371	0.041
-736.039	126.803	-0.189	-0.241
-735.025	18.413	-0.176	-0.142
-734.010	181.831	0.068	-0.100
-732.996	-117.939	-0.066	0.012
-731.981	145.535	-0.068	0.092
-730.966	-132.548	0.262	-0.034
-729.952	-200.000	-0.009	0.141
-728.937	-14.125	-0.219	0.142
-727.923	-133.707	-0.179	0.022
-726.908	-180.039	-0.464	0.010
-725.894	360.238	-0.173	-0.348
-724.879	-161.192	-0.280	0.015
-723.864	800.000	0.016	0.050
-722.850	-60.907	0.178	0.076
-721.835	-26.322	-0.262	-0.154
-720.821	22.748	0.032	0.026
-719.806	-200.000	0.244	0.000
-718.791	620.609	0.025	0.062
-717.777	-19.344	-0.067	-0.042
-716.762	582.490	-0.109	-0.268
-715.748	-173.775	0.315	-0.009
-714.733	358.045	-0.035	-0.069
-713.718	219.786	-0.053	-0.086
-712.704	-200.000	0.023	-0.450
-711.689	114.190	-0.142	-0.174
-710.675	-110.504	0.483	-0.101
-709.660	-78.637	-0.444	-0.153
-708.645	177.224	0.045	0.065
-707.631	-200.000	0.056	0.313
-706.616	-46.728	-0.171	0.084
-705.602	-200.000	-0.006	0.174
-704.587	-61.310	0.518	-0.219
-703.572	-62.651	0.113	-0.047
-702.558	52.511	-0.157	0.151
-701.543	183.689	0.196	0.292
-700.529	86.349	-0.165	-0.183
-699.514	-71.876	-0.251	0.094
-698.499	-2.536	0.031	0.022
-697.485	613.718	0.164	-0.412
-696.470	800.000	0.013	-0.041
-695.456	50.940	0.126	0.120
-694.441	-156.111	-0.422	-0.027
-693.426	-78.761	-0.407	0.140
-692.412	800.000	0.059	-0.167
-691.397	384.114	0.113	0.235
-690.383	800.000	0.038	0.156
-689.368	800.000	-0.035	-0.153
-688.354	-15.180	-0.241	-0.155
-687.339	-200.000	0.032	-0.197
-686.324	-16.747	-0.289	-0.184
-685.310	119.699	0.097	0.121
-684.295	-200.000	-0.008	-0.146
-683.281	800.000	-0.004	-0.019
-682.266	-1.395	-0.020	0.014
-681.251	-21.979	-0.128	0.078
-680.237	-78.614	-0.274	-0.094
-679.222	155.282	0.184	-0.255
-678.208	800.000	-0.039	0.156
-677.193	209.573	-0.094	-0.148
-676.178	162.042	-0.155	0.217
-675.164	-137.034	-0.299	-0.034
-674.149	-134.374	-0.141	-0.017
-673.135	-138.486	0.080	0.009
-672.120	39.863	-0.151	-0.136
-671.105	65.065	-0.260	0.263
-670.091	-132.405	-0.141	0.018
-669.076	800.000	0.035	0.144
-668.062	36.192	-0.203	-0.180
-667.047	562.079	-0.113	-0.275
-666.032	20.411	0.162	-0.131
-665.018	378.751	0.126	0.258
-664.003	-137.476	0.521	0.059
-662.989	800.000	-0.034	-0.097
-661.974	-174.307	-0.216	-0.006
-660.959	-200.000	-0.048	-0.361
-659.945	10.767	0.097	0.074
-658.930	158.711	-0.041	-0.057
-657.916	151.999	-0.083	-0.114
-656.901	-200.000	-0.001	-0.052
-655.886	800.000	-0.056	-0.242
-654.872	-79.746	0.325	-0.110
-653.857	-182.742	0.342	0.006
-652.843	195.664	0.125	0.191
-651.828	703.054	0.130	0.343
-650.814	800.000	-0.058	-0.213
-649.799	800.000	-0.088	0.347
-648.784	729.685	0.095	-0.253
-647.770	-49.224	-0.097	0.046
-646.755	-57.443	0.142	-0.062
-645.741	-122.870	-0.168	-0.027
-644.726	-62.882	0.433	-0.180
-643.711	-200.000	0.104	-0.000
-642.697	134.307	0.058	0.076
-641.682	159.544	-0.092	0.128
-640.668	112.473	0.110	-0.134
-639.653	106.540	-0.084	0.100
-638.638	-154.835	-0.422	-0.028
-637.624	800.000	-0.025	-0.070
-636.609	-61.829	0.079	-0.033
-635.595	-200.000	0.177	0.000
-634.580	3.927	0.096	-0.070
-633.565	-151.526	-0.150	-0.011
-632.551	-49.793	0.068	0.033
-631.536	800.000	-0.008	-0.024
-630.522	-37.293	-0.200	-0.107
-629.507	800.000	-0.036	-0.107
-628.492	79.657	-0.121	-0.130
-627.478	-58.431	0.203	-0.088
-626.463	800.000	-0.119	-0.375
-625.449	-68.460	0.175	-0.068
-624.434	727.172	0.065	-0.174
-623.419	344.256	-0.137	-0.270
-622.405	-200.000	-0.012	-0.238
-621.390	-200.000	-0.055	-0.256
-620.376	-12.931	0.304	0.198
-619.361	212.789	-0.093	0.147
-618.346	-190.827	-0.231	-0.002
-617.332	259.824	-0.088	0.153
-616.317	64.850	-0.279	0.282
-615.303	-155.823	-0.471	0.030
-614.288	155.175	0.218	0.301
-613.273	-11.879	-0.306	0.201
-612.259	85.685	-0.244	-0.269
-611.244	77.101	0.192	0.204
-610.230	301.656	0.154	-0.286
-609.215	582.715	0.082	0.201
-608.201	-200.000	0.035	-0.191
-607.186	-105.923	0.136	-0.031
-606.171	105.225	0.076	0.090
-605.157	-200.000	-0.022	0.125
-604.142	-200.000	-0.019	-0.132
-603.128	-26.143	-0.176	-0.104
-602.113	158.442	-0.216	-0.300
-601.098	64.335	-0.266	-0.268
-600.084	468.772	0.150	-0.337
-599.069	-200.000	-0.001	-0.048
-598.055	-124.503	-0.041	-0.006
-597.040	6.756	-0.248	-0.184
-596.025	800.000	0.045	0.187
-595.011	-86.825	0.094	-0.029
-593.996	-90.585	-0.297	-0.086
-592.982	755.797	0.081	0.219
-591.967	141.513	-0.114	0.150
-590.952	66.264	-0.194	0.197
-589.938	-130.713	-0.412	-0.055
-588.923	-107.391	0.322	0.071
-587.909	101.866	0.126	0.147
-586.894	-200.000	-0.021	0.137
-585.879	21.361	0.130	-0.105
-584.865	-22.268	0.242	-0.147
-583.850	-200.000	-0.029	0.274
-582.836	-132.036	-0.127	0.017
-581.821	373.594	0.216	-0.440
-580.806	-200.000	-0.030	0.187
-579.792	-7.864	-0.169	0.114
-578.777	720.481	-0.087	0.231
-577.763	-122.234	0.128	-0.021
-576.748	800.000	0.023	0.100
-575.733	-63.146	-0.151	-0.062
-574.719	123.465	0.212	-0.265
-573.704	107.630	0.299	-0.355
-572.690	-105.602	-0.215	0.049
-571.675	-57.026	-0.196	0.086
-570.661	800.000	0.058	-0.190
-569.646	800.000	-0.076	-0.218
-568.631	800.000	-0.098	-0.412
-567.617	115.722	0.095	-0.116
-566.602	800.000	-0.042	-0.115
-565.588	54.036	-0.063	-0.060
-564.573	800.000	-0.047	0.179
-563.558	370.636	-0.123	0.248
-562.544	-118.468	0.254	-0.045
-561.529	-80.334	-0.358	0.120
-560.515	-200.000	-0.034	0.207
-559.500	228.559	-0.102	0.166
-558.485	-200.000	0.029	-0.296
-557.471	164.387	-0.121	-0.170
-556.456	-42.051	0.302	0.155
-555.442	-134.580	-0.216	0.026
-554.427	433.364	0.190	-0.412
-553.412	-121.247	-0.284	-0.047
-552.398	283.268	-0.147	0.264
-551.383	13.990	0.178	0.139
-550.369	76.909	0.107	0.113
-549.354	149.876	0.234	0.317
-548.339	-50.161	-0.072	0.034
-547.325	-175.596	-0.096	-0.003
-546.310	-53.651	0.072	0.033
-545.296	-56.684	-0.201	-0.089
-544.281	112.129	-0.178	-0.215
-543.266	263.135	0.167	-0.290
-542.252	50.257	0.124	0.117
-541.237	-200.000	-0.058	0.341
-540.223	341.114	-0.224	-0.436
-539.208	12.020	0.197	-0.152
-538.193	-200.000	0.009	0.239
-537.179	81.125	0.239	0.257
-536.164	-76.714	-0.425	-0.149
-535.150	-188.447	-0.339	-0.004
-534.135	213.457	0.017	-0.027
-533.121	-19.453	-0.122	-0.075
-532.106	-63.140	-0.333	-0.137
-531.091	800.000	0.137	-0.398
-530.077	-96.679	-0.226	-0.059
-529.062	-145.028	0.198	0.018
-528.048	-82.780	-0.122	-0.039
-527.033	-48.825	-0.157	-0.075
-526.018	-112.146	0.252	0.050
-525.004	-200.000	-0.010	0.225
-523.989	326.235	-0.123	0.234
-522.975	5.778	0.065	-0.048
-521.960	387.941	-0.150	-0.309
-520.945	9.154	0.086	0.065
-519.931	800.000	-0.100	0.341
-518.916	-41.633	0.112	0.057
-517.902	-132.337	-0.328	0.042
-516.887	-200.000	-0.000	0.058
-515.872	68.520	0.065	-0.066
-514.858	-133.543	-0.260	0.032
-513.843	-200.000	0.007	0.042
-512.829	-47.098	0.172	-0.084
-511.814	10.549	0.039	0.029
-510.799	199.610	0.094	0.144
-509.785	13.374	0.315	0.243
-508.770	144.240	-0.214	0.285
-507.756	74.323	-0.204	-0.213
-506.741	426.651	0.079	0.169
-505.726	68.702	-0.054	-0.055
-504.712	-57.654	0.075	0.033
-503.697	-200.000	-0.024	-0.359
-502.683	118.875	0.071	-0.087
-501.668	-173.517	0.120	-0.004
-500.653	-200.000	-0.003	0.159
-499.639	-160.916	0.361	0.019
-498.624	-200.000	0.005	-0.078
-497.610	-91.202	0.325	0.093
-496.595	26.915	0.236	0.198
-495.581	-76.157	0.186	0.065
-494.566	193.004	0.151	-0.228
-493.551	800.000	-0.048	0.187
-492.537	-125.636	-0.169	0.025
-491.522	-76.053	-0.039	-0.014
-490.508	-107.950	-0.336	0.073
-489.493	800.000	-0.085	-0.242
-488.478	-200.000	0.026	-0.165
-487.464	90.252	-0.339	-0.378
-486.449	-200.000	-0.003	0.162
-485.435	-200.000	-0.013	-0.181
-484.420	-25.805	-0.036	0.021
-483.405	186.152	-0.048	0.072
-482.391	800.000	0.048	-0.193
-481.376	-200.000	0.014	-0.197
-480.362	-73.094	-0.319	-0.116
-479.347	91.981	-0.086	0.096
-478.332	205.344	0.141	-0.218
-477.318	63.942	0.101	-0.101
-476.303	47.578	-0.231	0.214
-475.289	17.613	0.364	0.288
-474.274	-61.330	0.400	0.168
-473.259	180.228	-0.164	-0.239
-472.245	551.040	-0.250	0.597
-471.230	-28.343	0.298	-0.171
-470.216	12.126	0.118	0.091
-469.201	477.901	-0.082	-0.184
-468.186	276.441	0.087	0.154
-467.172	-80.768	0.172	0.057
-466.157	65.024	0.168	0.169
-465.143	-35.335	-0.193	-0.104
-464.128	282.195	-0.076	-0.136
-463.113	397.731	-0.133	0.276
-462.099	49.113	0.212	-0.199
-461.084	539.704	0.038	-0.089
-460.070	-28.523	-0.080	-0.046
-459.055	-65.278	0.212	0.085
-458.040	-200.000	0.041	0.319
-457.026	-34.931	-0.240	-0.130
-456.011	-47.469	0.183	-0.089
-454.997	-126.522	0.261	0.039
-453.982	196.638	0.109	0.165
-452.968	14.993	-0.125	-0.098
-451.953	363.899	-0.092	0.184
-450.938	-51.182	-0.240	0.112
-449.924	-44.013	0.062	0.031
-448.909	-200.000	0.162	-0.001
-447.895	-200.000	-0.055	0.273
-446.880	-200.000	-0.021	0.148
-445.865	320.261	-0.090	-0.171
-444.851	47.025	0.090	0.084
-443.836	-10.411	-0.132	0.087
-442.822	-39.188	0.089	-0.046
-441.807	39.954	0.034	-0.031
-440.792	800.000	-0.062	-0.233
-439.778	266.445	-0.154	0.267
-438.763	523.551	-0.024	-0.056
-437.749	-200.000	-0.004	-0.044
-436.734	-200.000	-0.013	0.162
-435.719	-154.637	0.432	-0.029
-434.705	-28.091	-0.176	-0.101
-433.690	-164.099	-0.379	0.017
-432.676	-45.171	0.123	0.061
-431.661	39.708	-0.084	-0.075
-430.646	135.618	0.163	0.211
-429.632	-30.200	0.391	-0.221
-428.617	-200.000	-0.072	-0.409
-427.603	122.081	-0.092	-0.114
-426.588	-30.339	-0.178	-0.101
-425.573	651.897	-0.135	0.344
-424.559	-71.814	0.371	0.138
-423.544	286.969	-0.067	-0.121
-422.530	169.760	-0.069	0.098
-421.515	-200.000	0.019	-0.385
-420.500	-31.522	0.146	-0.082
-419.486	-123.718	0.458	-0.072
-418.471	47.814	-0.222	0.206
-417.457	-38.577	-0.151	-0.079
-416.442	233.826	-0.117	-0.192
-415.428	-171.446	-0.267	-0.009
-414.413	117.265	-0.223	0.273
-413.398	-194.747	0.086	0.001
-412.384	-74.828	-0.121	-0.043
-411.369	-200.000	0.025	0.258
-410.355	505.869	0.097	0.224
-409.340	507.511	-0.085	0.197
-408.325	-36.760	-0.124	0.066
-407.311	-114.827	0.089	0.017
-406.296	-12.244	0.193	0.125
-405.282	133.586	0.227	-0.292
-404.267	-87.029	0.239	0.072
-403.252	800.000	0.041	0.117
-402.238	-70.738	-0.342	0.128
-401.223	391.628	0.150	0.309
-400.209	-71.510	-0.108	-0.040
-399.194	208.093	-0.078	-0.120
-398.179	361.821	-0.130	-0.259
-397.165	-187.801	0.143	-0.002
-396.150	-200.000	0.016	-0.076
-395.136	209.946	-0.146	0.227
-394.121	-0.396	0.239	-0.169
-393.106	800.000	-0.116	0.332
-392.092	196.972	-0.241	-0.365
-391.077	-87.963	0.147	-0.044
-390.063	800.000	0.011	0.031
-389.048	-25.122	0.337	0.198
-388.033	-49.153	-0.147	0.070
-387.019	-14.100	0.143	-0.091
-386.004	-35.034	-0.484	-0.262
-384.990	800.000	0.055	-0.161
-383.975	800.000	0.015	0.047
-382.960	209.555	-0.159	0.248
-381.946	-22.034	-0.203	-0.122
-380.931	-114.627	0.237	-0.045
-379.917	-17.447	-0.179	0.112
-378.902	-101.004	-0.141	0.034
-377.888	303.947	-0.042	0.076
-376.873	-150.099	0.199	0.015
-375.858	8.225	-0.200	-0.149
-374.844	-169.263	-0.128	-0.005
-373.829	-200.000	-0.022	0.229
-372.815	-56.973	-0.229	0.100
-371.800	141.869	-0.331	-0.435
-370.785	92.254	-0.064	0.071
-369.771	-26.773	-0.092	-0.054
-368.756	-69.705	0.152	-0.058
-367.742	-68.505	-0.205	-0.079
-366.727	248.354	0.145	-0.243
-365.712	-30.385	-0.200	0.112
-364.698	-200.000	0.019	-0.212
-363.683	800.000	0.070	0.244
-362.669	6.880	-0.208	0.154
-361.654	-177.425	0.123	-0.003
-360.639	-148.607	0.183	0.015
-359.625	800.000	-0.028	-0.117
-358.610	-57.672	0.198	-0.086
-357.596	-15.617	-0.232	0.147
-356.581	7.535	-0.192	-0.142
-355.566	800.000	-0.047	0.154
-354.552	-40.422	-0.281	0.145
-353.537	59.739	-0.072	-0.071
-352.523	-200.000	-0.016	0.230
-351.508	-134.490	0.219	-0.027
-350.493	139.091	-0.107	0.140
-349.479	-144.976	0.119	-0.011
-348.464	323.227	0.067	-0.126
-347.450	151.063	-0.132	-0.178
-346.435	-47.019	0.225	0.109
-345.420	-151.870	0.083	0.006
-344.406	-65.989	-0.274	0.108
-343.391	-3.700	-0.161	0.111
-342.377	723.508	0.038	0.101
-341.362	-18.458	0.185	0.114
-340.348	800.000	-0.016	0.058
-339.333	-193.365	0.124	-0.001
-338.318	345.818	-0.159	-0.309
-337.304	-109.680	0.030	0.006
-336.289	40.105	0.408	-0.364
-335.275	-110.339	0.083	-0.017
-334.260	431.847	-0.076	-0.164
-333.245	-49.756	-0.270	0.127
-332.231	-102.510	0.161	0.038
-331.216	46.903	-0.199	-0.184
-330.202	63.878	0.244	-0.243
-329.187	-200.000	0.025	-0.154
-328.172	-100.144	-0.178	0.044
-327.158	-168.194	-0.204	0.008
-326.143	81.143	-0.048	0.052
-325.129	-200.000	0.009	-0.111
-324.114	800.000	0.068	0.209
-323.099	-200.000	-0.016	-0.114
-322.085	35.491	-0.109	-0.095
-321.070	360.271	0.030	0.059
-320.056	800.000	0.092	-0.268
-319.041	36.705	-0.279	0.244
-318.026	800.000	-0.010	0.038
-317.012	299.945	-0.130	0.238
-315.997	245.753	-0.215	0.358
-314.983	-39.193	0.027	0.014
-313.968	395.685	-0.051	0.106
-312.953	-31.002	0.357	-0.199
-311.939	92.775	-0.128	-0.143
-310.924	178.112	0.179	0.258
-309.910	75.594	0.196	0.205
-308.895	1.908	0.021	0.015
-307.880	-121.692	-0.305	0.050
-306.866	640.703	-0.131	-0.331
-305.851	-168.990	0.395	-0.015
-304.837	-200.000	0.002	-0.025
-303.822	13.204	0.127	0.098
-302.807	61.146	0.232	0.228
-301.793	52.598	-0.171	-0.162
-300.778	-40.549	0.245	-0.126
-299.764	240.706	-0.070	0.116
-298.749	-109.934	0.048	-0.010
-297.735	34.587	-0.135	0.117
-296.720	-124.702	0.264	-0.040
-295.705	-200.000	-0.003	-0.157
-294.691	-69.759	-0.298	0.113
-293.676	3.962	0.311	0.225
-292.662	268.870	-0.114	0.198
-291.647	554.226	-0.043	-0.103
-290.632	185.321	0.102	-0.150
-289.618	3.977	0.295	-0.213
-288.603	-121.466	0.170	0.028
-287.589	199.475	0.235	0.356
-286.574	800.000	0.067	0.246
-285.559	-200.000	0.055	-0.493
-284.545	140.082	-0.061	-0.079
-283.530	10.760	0.144	-0.109
-282.516	-25.304	0.068	-0.040
-281.501	-200.000	0.014	0.171
-280.486	-87.108	0.222	0.067
-279.472	-55.457	0.157	-0.070
-278.457	43.074	0.211	0.190
-277.443	143.669	0.094	-0.124
-276.428	-161.697	-0.020	0.001
-275.413	-39.552	-0.212	0.109
-274.399	-101.193	0.229	-0.055
-273.384	279.094	0.054	-0.096
-272.370	-200.000	-0.067	-0.340
-271.355	800.000	-0.094	0.339
-270.340	211.262	0.090	0.140
-269.326	-82.776	0.262	-0.084
-268.311	168.128	-0.061	-0.086
-267.297	-80.564	0.253	0.083
-266.282	800.000	0.090	-0.264
-265.267	701.793	0.052	-0.134
-264.253	-54.617	0.307	-0.137
-263.238	136.890	0.119	0.154
-262.224	800.000	0.096	0.393
-261.209	-134.010	-0.461	-0.056
-260.195	82.451	-0.069	-0.074
-259.180	614.269	0.131	-0.324
-258.165	800.000	0.069	0.216
-257.151	150.962	-0.142	-0.190
-256.136	800.000	0.027	0.087
-255.122	25.461	-0.282	0.232
-254.107	111.978	0.208	-0.248
-253.092	-36.156	-0.534	-0.285
-252.078	220.410	0.092	-0.146
-251.063	739.667	0.057	-0.150
-250.049	-139.507	0.071	0.008
-249.034	689.721	-0.086	-0.222
-248.019	180.181	-0.202	0.293
-247.005	-200.000	-0.012	0.083
-245.990	26.713	0.200	-0.165
-244.976	94.815	-0.171	-0.192
-243.961	800.000	-0.036	0.121
-242.946	312.356	0.138	0.256
-241.932	-45.244	0.057	0.028
-240.917	55.225	-0.015	-0.014
-239.903	422.398	0.141	-0.299
-238.888	11.713	0.079	-0.060
-237.873	-46.675	0.114	0.055
-236.859	-57.339	-0.169	-0.073
-235.844	-69.290	0.104	0.039
-234.830	158.383	-0.211	0.289
-233.815	9.109	-0.113	-0.085
-232.800	-78.160	-0.195	-0.066
-231.786	776.091	0.142	0.381
-230.771	-63.415	0.506	0.205
-229.757	100.500	0.065	0.074
-228.742	-112.454	-0.269	-0.053
-227.727	-11.543	0.104	0.067
-226.713	65.060	-0.063	0.063
-225.698	352.584	0.089	0.174
-224.684	102.497	-0.048	0.055
-223.669	-140.977	-0.377	0.038
-222.655	-60.468	0.425	0.178
-221.640	-109.094	0.495	0.104
-220.625	360.364	0.107	0.211
-219.611	-19.830	0.260	0.158
-218.596	5.358	-0.098	0.071
-217.582	-46.904	-0.133	-0.064
-216.567	7.004	0.099	-0.073
-215.552	-120.584	0.210	0.035
-214.538	-109.553	-0.267	-0.056
-213.523	-200.000	-0.016	0.170
-212.509	151.560	-0.060	0.081
-211.494	-93.054	0.227	-0.062
-210.479	60.717	0.075	-0.073
-209.465	57.245	0.238	-0.229
-208.450	108.913	-0.105	-0.124
-207.436	30.808	0.240	0.203
-206.421	-200.000	-0.016	0.105
-205.406	-200.000	0.048	-0.409
-204.392	292.245	-0.078	0.140
-203.377	-200.000	0.047	0.385
-202.363	-95.219	-0.278	0.074
-201.348	299.766	0.107	-0.194
-200.333	75.763	-0.081	-0.084
-199.319	43.752	-0.084	-0.076
-198.304	-146.658	0.143	0.012
-197.290	-47.778	-0.208	0.099
-196.275	-120.982	-0.110	0.018
-195.260	2.722	-0.210	-0.150
-194.246	344.537	0.061	-0.118
-193.231	431.866	-0.048	-0.102
-192.217	166.730	0.112	0.156
-191.202	304.602	0.103	0.188
-190.187	-200.000	0.011	-0.049
-189.173	52.199	0.088	-0.082
-188.158	-56.986	-0.267	-0.116
-187.144	166.182	-0.142	0.198
-186.129	8.220	0.155	0.115
-185.114	205.835	0.062	0.094
-184.100	-85.568	-0.451	-0.138
-183.085	-200.000	0.011	-0.296
-182.071	-89.605	-0.043	-0.012
-181.056	142.173	-0.208	0.271
-180.042	-51.963	-0.209	0.096
-179.027	273.131	-0.179	-0.311
-178.012	494.127	-0.128	-0.289
-176.998	-132.627	-0.131	-0.017
-175.983	181.947	0.086	-0.124
-174.969	551.300	0.090	-0.212
-173.954	46.895	0.291	-0.266
-172.939	278.938	0.018	0.032
-171.925	115.842	-0.032	-0.038
-170.910	158.492	0.145	0.198
-169.896	-102.965	-0.063	-0.015
-168.881	-107.721	0.349	-0.075
-167.866	-6.744	-0.220	0.147
-166.852	569.028	0.058	0.139
-165.837	-45.667	0.118	0.057
-164.823	93.629	0.117	-0.130
-163.808	-31.955	0.052	-0.029
-162.793	154.196	-0.159	0.215
-161.779	249.180	-0.147	-0.244
-160.764	-200.000	0.072	0.326
-159.750	800.000	0.017	0.071
-158.735	611.727	0.055	-0.136
-157.720	-200.000	-0.008	0.156
-156.706	425.207	-0.057	0.121
-155.691	-33.724	0.446	0.242
-154.677	-74.020	0.347	0.124
-153.662	-76.543	0.150	0.052
-152.647	-200.000	0.010	0.105
-151.633	-96.476	0.395	0.103
-150.618	-200.000	0.034	0.185
-149.604	-55.798	0.107	-0.047
-148.589	228.234	0.085	0.136
-147.574	-200.000	-0.003	-0.032
-146.560	203.041	-0.053	-0.080
-145.545	800.000	-0.125	-0.453
-144.531	-136.674	0.220	-0.025
-143.516	325.212	0.034	-0.064
-142.502	-200.000	0.015	0.274
-141.487	-200.000	-0.086	-0.408
-140.472	692.582	-0.139	-0.358
-139.458	800.000	0.083	0.239
-138.443	-200.000	0.028	0.207
-137.429	-127.787	0.109	-0.016
-136.414	-85.856	0.318	-0.097
-135.399	145.235	0.048	0.063
-134.385	163.351	0.112	-0.155
-133.370	240.591	0.100	0.164
-132.356	420.769	0.137	-0.288
-131.341	-5.239	-0.008	-0.006
-130.326	21.046	-0.135	0.107
-129.312	-28.197	-0.056	0.032
-128.297	659.282	0.053	-0.133
-127.283	800.000	0.034	-0.119
-126.268	-200.000	-0.017	-0.079
-125.253	-71.924	0.093	-0.034
-124.239	-66.888	0.403	-0.157
-123.224	800.000	0.004	-0.018
-122.210	-22.681	-0.257	-0.152
-121.195	-180.104	0.211	-0.004
