DTS Sentinel unit serial number:	SN413079Multiplexer serial number:	ORYXHardware model number:	OX4-SRSoftware version number:	ORYX F/W v4.00 Oryx Data Collector v3.7.2.0data status	okinstallation	princeton_trtdifferential loss correction	single-endedforward channel	channel 3reverse channel	N/Adate	2019/09/16time	17:48:35forward acquisition time	60.00reverse acquisition time	0.00gamma	496.2192k internal	0.2298k external	0.2298temperature offset calibration	0.9946default loss term (dB/km)	0.3790temperature slope calibration	1.0000multiplexer offset coefficient	1.0000multiplexer slope coefficient	1.0000fibre end	0.00T internal ref (°C)	37.94T ext. ref 1 (°C)	15.59T ext. ref 2 (°C)	31.87length (m)	temperature (°C)	Stokes	anti-Stokes-747.200	98.065	0.130	-0.152
-746.185	40.770	0.145	0.134
-745.171	-115.643	0.344	-0.066
-744.156	-106.104	-0.176	0.040
-743.142	4.283	-0.273	-0.204
-742.127	-200.000	-0.005	0.107
-741.112	97.623	-0.234	-0.274
-740.098	-13.368	-0.301	0.199
-739.083	-156.134	0.287	-0.018
-738.069	-21.545	-0.155	0.097
-737.054	-55.718	-0.240	-0.109
-736.039	479.965	0.126	-0.292
-735.025	800.000	0.077	-0.217
-734.010	643.190	0.071	0.184
-732.996	4.326	-0.215	-0.161
-731.981	-141.694	0.224	0.023
-730.966	-173.453	0.046	-0.001
-729.952	-125.257	0.257	0.040
-728.937	-33.331	-0.027	-0.016
-727.923	-10.219	-0.438	-0.296
-726.908	-200.000	0.026	0.201
-725.894	-200.000	-0.010	0.114
-724.879	-87.506	0.211	-0.065
-723.864	64.933	0.096	0.099
-722.850	-36.425	-0.271	-0.149
-721.835	-104.773	0.049	0.011
-720.821	142.074	0.066	0.089
-719.806	152.935	-0.236	-0.329
-718.791	-200.000	-0.008	-0.145
-717.777	-200.000	-0.045	-0.341
-716.762	-200.000	0.021	0.137
-715.748	175.794	-0.233	0.345
-714.733	-35.214	-0.114	0.063
-713.718	-159.213	-0.160	0.009
-712.704	571.591	-0.013	0.032
-711.689	-129.995	-0.101	0.014
-710.675	800.000	0.068	-0.239
-709.660	-123.652	-0.017	-0.003
-708.645	-130.800	0.524	0.072
-707.631	-22.407	-0.121	-0.075
-706.616	82.512	-0.056	0.062
-705.602	-116.101	-0.197	0.037
-704.587	90.349	-0.345	0.393
-703.572	-3.465	-0.393	0.279
-702.558	-12.058	0.152	-0.101
-701.543	9.170	-0.171	0.132
-700.529	278.333	0.116	-0.210
-699.514	-107.699	-0.370	-0.082
-698.499	-41.099	0.108	0.057
-697.485	231.747	0.111	-0.185
-696.470	-200.000	0.010	0.060
-695.456	-200.000	-0.043	-0.309
-694.441	-94.528	0.074	0.021
-693.426	182.323	0.142	-0.214
-692.412	-49.627	-0.110	0.053
-691.397	-200.000	-0.014	-0.082
-690.383	-52.814	-0.065	0.030
-689.368	-69.914	-0.287	-0.111
-688.354	28.965	-0.233	0.201
-687.339	-200.000	-0.010	-0.101
-686.324	-89.325	0.245	-0.074
-685.310	800.000	-0.070	-0.208
-684.295	-154.133	-0.107	-0.007
-683.281	61.181	0.023	-0.023
-682.266	607.187	-0.032	0.082
-681.251	7.155	-0.259	-0.197
-680.237	800.000	-0.071	-0.291
-679.222	327.638	-0.130	-0.254
-678.208	800.000	0.097	0.426
-677.193	-200.000	0.046	-0.230
-676.178	-103.044	0.103	0.025
-675.164	-4.558	0.218	0.153
-674.149	-172.982	-0.248	-0.008
-673.135	-200.000	0.048	-0.242
-672.120	-123.378	0.077	0.013
-671.105	-200.000	-0.030	0.169
-670.091	-126.349	-0.187	-0.028
-669.076	-200.000	-0.017	-0.480
-668.062	-148.611	-0.391	0.032
-667.047	-47.418	0.085	0.042
-666.032	391.306	-0.105	-0.222
-665.018	-89.135	0.213	-0.064
-664.003	242.191	-0.124	0.211
-662.989	389.658	0.120	-0.254
-661.974	800.000	-0.056	-0.217
-660.959	800.000	-0.069	-0.278
-659.945	371.895	-0.083	0.171
-658.930	-107.303	0.259	0.058
-657.916	-200.000	0.011	-0.170
-656.901	-200.000	-0.014	-0.372
-655.886	-24.834	-0.252	0.152
-654.872	800.000	-0.093	-0.398
-653.857	800.000	0.025	-0.092
-652.843	800.000	0.032	0.098
-651.828	-200.000	-0.019	-0.312
-650.814	-200.000	0.013	-0.084
-649.799	86.318	0.198	0.222
-648.784	163.701	-0.177	0.254
-647.770	800.000	-0.063	0.252
-646.755	20.673	0.276	0.228
-645.741	-200.000	-0.014	0.210
-644.726	-177.025	0.356	-0.009
-643.711	-136.177	-0.335	0.040
-642.697	-200.000	0.022	0.315
-641.682	-94.561	0.284	-0.079
-640.668	57.769	-0.037	-0.036
-639.653	800.000	0.008	0.032
-638.638	800.000	-0.055	-0.166
-637.624	-95.222	0.105	-0.029
-636.609	772.662	-0.064	-0.177
-635.595	-119.827	0.164	0.029
-634.580	-200.000	-0.008	-0.040
-633.565	-127.559	-0.169	-0.025
-632.551	-30.045	-0.220	-0.127
-631.536	149.764	0.052	-0.071
-630.522	800.000	0.047	-0.159
-629.507	369.732	0.172	0.354
-628.492	427.351	0.027	0.059
-627.478	-81.485	-0.271	-0.091
-626.463	90.146	-0.006	0.006
-625.449	209.886	0.218	0.347
-624.434	-200.000	0.001	0.224
-623.419	-81.026	0.040	0.013
-622.405	800.000	0.042	0.125
-621.390	800.000	-0.038	-0.159
-620.376	-142.731	-0.188	0.019
-619.361	-21.354	-0.151	-0.094
-618.346	-200.000	0.011	0.088
-617.332	-127.905	0.123	0.018
-616.317	-18.855	0.130	0.082
-615.303	-127.724	0.394	-0.058
-614.288	326.073	-0.077	-0.149
-613.273	-16.224	0.135	0.087
-612.259	-138.887	0.157	0.017
-611.244	93.338	-0.175	-0.201
-610.230	-67.979	0.163	0.065
-609.215	-200.000	0.025	-0.272
-608.201	721.075	-0.174	-0.469
-607.186	-25.812	-0.234	0.140
-606.171	183.630	0.197	-0.296
-605.157	638.460	-0.033	-0.086
-604.142	604.808	-0.066	-0.166
-603.128	86.936	0.175	-0.196
-602.113	18.227	-0.272	0.221
-601.098	273.006	0.078	-0.140
-600.084	-54.105	0.137	-0.063
-599.069	117.377	0.115	-0.143
-598.055	-17.449	-0.210	0.134
-597.040	-94.382	-0.150	0.041
-596.025	-20.816	0.149	-0.092
-595.011	-147.853	0.174	0.015
-593.996	5.552	0.184	-0.138
-592.982	-200.000	0.004	-0.384
-591.967	101.071	-0.091	-0.107
-590.952	-124.836	0.157	0.025
-589.938	800.000	0.051	-0.219
-588.923	800.000	-0.104	0.371
-587.909	-125.775	0.096	0.015
-586.894	800.000	-0.074	-0.262
-585.879	-99.965	0.188	-0.048
-584.865	800.000	-0.023	-0.085
-583.850	-200.000	0.001	-0.354
-582.836	800.000	-0.071	-0.222
-581.821	-115.595	-0.381	0.073
-580.806	-200.000	-0.032	-0.285
-579.792	-52.182	0.253	0.119
-578.777	102.690	-0.095	0.112
-577.763	80.786	-0.274	-0.299
-576.748	-117.166	0.205	0.038
-575.733	212.826	-0.147	-0.236
-574.719	85.859	0.172	-0.192
-573.704	-200.000	-0.019	-0.115
-572.690	-103.698	0.111	0.026
-571.675	-154.120	0.244	0.017
-570.661	127.732	-0.060	0.077
-569.646	-121.893	-0.169	-0.028
-568.631	89.307	0.154	-0.174
-567.617	47.481	-0.041	-0.039
-566.602	89.847	-0.287	0.324
-565.588	76.868	-0.175	-0.188
-564.573	-69.061	-0.195	0.076
-563.558	-162.644	0.340	-0.017
-562.544	359.777	-0.118	-0.239
-561.529	-96.597	-0.067	-0.018
-560.515	110.201	-0.111	0.136
-559.500	-28.914	-0.254	-0.148
-558.485	800.000	-0.152	0.499
-557.471	-91.376	-0.408	-0.118
-556.456	-8.693	0.226	0.154
-555.442	75.304	-0.182	0.194
-554.427	-65.363	0.524	0.214
-553.412	-102.459	0.210	0.051
-552.398	-200.000	0.038	0.330
-551.383	-200.000	-0.037	0.346
-550.369	219.769	0.111	0.180
-549.354	219.528	0.030	0.049
-548.339	436.284	-0.193	-0.425
-547.325	800.000	-0.064	0.192
-546.310	-5.416	0.180	0.125
-545.296	-140.504	-0.163	0.017
-544.281	256.082	-0.150	0.261
-543.266	-56.851	-0.278	0.125
-542.252	-62.070	0.368	-0.155
-541.237	92.756	-0.092	-0.105
-540.223	-110.747	-0.124	0.026
-539.208	5.811	-0.039	-0.029
-538.193	489.219	0.143	-0.332
-537.179	90.336	-0.091	-0.103
-536.164	-75.042	0.084	0.030
-535.150	207.947	-0.030	-0.047
-534.135	21.261	-0.258	0.212
-533.121	97.050	-0.137	0.159
-532.106	576.279	-0.050	0.123
-531.091	-0.610	0.370	0.266
-530.077	496.121	-0.097	-0.225
-529.062	-110.707	0.294	0.061
-528.048	282.040	0.064	0.116
-527.033	-79.011	0.237	-0.082
-526.018	-37.928	0.306	0.164
-525.004	-9.145	0.248	0.168
-523.989	0.293	-0.305	0.220
-522.975	145.054	-0.088	0.119
-521.960	-17.041	0.139	0.088
-520.945	48.196	0.107	0.101
-519.931	32.088	0.120	0.105
-518.916	-200.000	-0.012	-0.263
-517.902	800.000	0.141	-0.423
-516.887	800.000	-0.048	-0.168
-515.872	-200.000	0.041	-0.337
-514.858	48.302	0.060	0.057
-513.843	-200.000	0.035	0.493
-512.829	137.127	0.210	0.277
-511.814	233.084	0.157	-0.260
-510.799	-161.770	0.101	-0.005
-509.785	-98.561	-0.284	0.073
-508.770	319.093	-0.158	0.304
-507.756	61.210	-0.105	-0.105
-506.741	-119.081	0.195	-0.034
-505.726	800.000	-0.100	-0.359
-504.712	-200.000	0.008	0.043
-503.697	-75.892	0.052	-0.019
-502.683	612.579	0.109	-0.275
-501.668	15.973	-0.212	0.169
-500.653	245.951	0.072	0.123
-499.639	205.766	-0.127	0.199
-498.624	296.754	-0.116	-0.216
-497.610	-200.000	-0.006	-0.154
-496.595	-166.399	0.213	0.009
-495.581	-72.759	-0.408	-0.152
-494.566	301.185	0.054	-0.101
-493.551	30.764	-0.153	-0.132
-492.537	251.135	0.172	-0.295
-491.522	44.232	-0.077	-0.071
-490.508	-200.000	-0.279	0.000
-489.493	-57.762	-0.165	-0.073
-488.478	800.000	0.111	-0.377
-487.464	-200.000	0.013	0.227
-486.449	105.090	-0.029	0.034
-485.435	-100.560	-0.271	-0.068
-484.420	-76.373	-0.266	0.095
-483.405	-104.363	-0.374	-0.088
-482.391	598.512	0.099	-0.247
-481.376	-200.000	0.017	-0.252
-480.362	42.101	0.164	-0.150
-479.347	-73.354	-0.266	0.098
-478.332	159.497	0.030	0.043
-477.318	-200.000	-0.008	-0.156
-476.303	52.722	-0.149	0.144
-475.289	-200.000	-0.005	-0.072
-474.274	145.344	-0.090	0.121
-473.259	188.772	0.185	0.280
-472.245	14.172	0.042	0.033
-471.230	800.000	0.034	-0.133
-470.216	34.217	-0.078	0.069
-469.201	245.082	-0.161	0.274
-468.186	-200.000	-0.021	-0.199
-467.172	-156.434	-0.189	0.012
-466.157	-79.974	-0.139	-0.047
-465.143	-200.000	-0.023	-0.530
-464.128	-200.000	-0.007	0.162
-463.113	-200.000	0.024	0.137
-462.099	-200.000	-0.042	-0.332
-461.084	66.153	-0.194	-0.198
-460.070	58.695	-0.182	-0.181
-459.055	-134.076	-0.447	-0.056
-458.040	148.484	0.162	-0.220
-457.026	-32.584	-0.242	-0.136
-456.011	-107.517	-0.195	-0.043
-454.997	269.631	-0.079	-0.140
-453.982	-17.470	-0.293	0.186
-452.968	800.000	-0.032	0.093
-451.953	-144.836	-0.268	0.025
-450.938	-200.000	-0.062	-0.358
-449.924	-200.000	0.050	0.360
-448.909	374.353	-0.135	0.278
-447.895	-64.567	0.205	0.084
-446.880	-133.608	0.128	-0.016
-445.865	800.000	-0.027	-0.085
-444.851	800.000	0.052	-0.198
-443.836	-200.000	-0.003	0.189
-442.822	-118.264	0.217	0.039
-441.807	-40.793	0.210	0.110
-440.792	-107.820	-0.153	-0.034
-439.778	-119.763	0.128	-0.022
-438.763	-200.000	-0.010	0.154
-437.749	283.629	0.267	-0.483
-436.734	10.684	0.280	-0.216
-435.719	123.593	0.245	0.310
-434.705	800.000	0.047	-0.208
-433.690	-200.000	0.020	0.458
-432.676	116.636	-0.233	0.288
-431.661	-68.693	0.189	0.074
-430.646	-73.770	-0.155	-0.057
-429.632	-200.000	0.007	0.218
-428.617	346.041	0.075	0.148
-427.603	12.700	0.071	0.056
-426.588	-49.991	0.163	-0.078
-425.573	-45.661	0.341	-0.170
-424.559	6.145	-0.092	0.069
-423.544	359.347	-0.048	-0.097
-422.530	-79.586	0.196	-0.067
-421.515	-101.281	0.079	0.019
-420.500	-97.721	-0.139	-0.036
-419.486	0.213	0.207	0.149
-418.471	208.914	-0.141	0.223
-417.457	-71.302	-0.295	-0.112
-416.442	175.037	-0.105	-0.154
-415.428	-113.037	0.562	-0.112
-414.413	-148.505	0.152	0.013
-413.398	800.000	0.040	0.121
-412.384	-200.000	-0.026	0.121
-411.369	-15.277	-0.224	0.145
-410.355	-200.000	0.068	-0.364
-409.340	-137.421	0.100	0.011
-408.325	-200.000	-0.080	-0.389
-407.311	51.473	-0.200	0.191
-406.296	-74.419	0.165	0.060
-405.282	721.604	-0.084	0.225
-404.267	-200.000	0.041	-0.192
-403.252	4.152	-0.103	0.076
-402.238	80.042	-0.088	0.095
-401.223	269.798	0.124	-0.219
-400.209	-33.602	0.088	-0.049
-399.194	609.992	-0.046	0.116
-398.179	27.086	0.164	0.139
-397.165	-116.898	0.150	-0.028
-396.150	442.615	0.080	0.177
-395.136	200.034	0.123	0.190
-394.121	-116.297	0.400	0.075
-393.106	11.746	0.123	0.095
-392.092	325.285	-0.190	-0.367
-391.077	662.609	-0.086	-0.224
-390.063	800.000	0.049	0.152
-389.048	-3.467	-0.227	-0.159
-388.033	800.000	-0.072	-0.231
-387.019	96.719	-0.154	-0.177
-386.004	-128.393	0.148	0.021
-384.990	-200.000	-0.015	0.109
-383.975	208.345	-0.058	-0.091
-382.960	355.411	0.079	-0.158
-381.946	10.484	-0.070	0.054
-380.931	-52.902	-0.532	0.247
-379.917	-76.713	-0.142	-0.050
-378.902	270.096	-0.010	0.019
-377.888	80.107	-0.116	0.125
-376.873	-200.000	-0.072	-0.375
-375.858	-200.000	0.063	0.312
-374.844	130.412	0.059	-0.077
-373.829	800.000	0.031	-0.138
-372.815	-200.000	-0.073	-0.320
-371.800	35.638	-0.148	-0.131
-370.785	119.121	-0.144	-0.179
-369.771	-200.000	0.020	-0.542
-368.756	135.263	0.029	-0.038
-367.742	-84.901	-0.057	0.018
-366.727	24.457	-0.291	0.242
-365.712	43.851	0.271	0.250
-364.698	-57.081	0.207	-0.092
-363.683	8.482	0.371	-0.281
-362.669	-143.860	0.059	0.006
-361.654	-200.000	-0.033	-0.290
-360.639	-96.235	0.176	0.047
-359.625	-95.741	0.188	0.051
-358.610	200.147	-0.180	0.278
-357.596	800.000	-0.019	-0.068
-356.581	440.523	-0.102	0.224
-355.566	-96.116	0.163	-0.043
-354.552	-37.515	-0.199	0.107
-353.537	258.150	0.067	0.115
-352.523	212.428	0.146	0.231
-351.508	-112.824	-0.156	-0.031
-350.493	-72.326	-0.094	0.035
-349.479	-200.000	0.073	-0.348
-348.464	-155.362	-0.321	-0.021
-347.450	-86.141	0.312	-0.097
-346.435	-15.622	0.313	0.201
-345.420	-5.053	0.137	-0.095
-344.406	800.000	0.050	-0.184
-343.391	403.508	0.091	-0.192
-342.377	304.090	0.104	-0.194
-341.362	-200.000	-0.004	0.117
-340.348	-190.772	-0.281	-0.003
-339.333	79.791	-0.222	-0.239
-338.318	-79.801	0.310	0.105
-337.304	-57.026	0.209	-0.093
-336.289	521.308	0.128	0.302
-335.275	119.083	0.160	-0.199
-334.260	-200.000	-0.062	-0.295
-333.245	-185.031	-0.079	0.001
-332.231	-29.630	0.176	0.101
-331.216	800.000	0.088	-0.327
-330.202	-38.572	0.274	0.145
-329.187	74.726	0.145	0.154
-328.172	83.018	-0.104	-0.113
-327.158	-200.000	0.062	-0.495
-326.143	-29.144	-0.318	0.183
-325.129	694.051	0.082	0.216
-324.114	58.253	0.034	0.034
-323.099	138.233	-0.094	0.124
-322.085	-13.766	-0.085	0.055
-321.070	-93.174	-0.164	0.046
-320.056	-200.000	-0.035	0.158
-319.041	39.368	0.360	0.324
-318.026	-161.748	-0.159	0.008
-317.012	713.615	-0.119	0.317
-315.997	216.743	0.103	0.165
-314.983	-200.000	0.085	-0.448
-313.968	103.237	-0.135	0.158
-312.953	-167.608	0.073	-0.003
-311.939	-93.141	0.239	-0.067
-310.924	147.717	0.169	0.228
-309.910	658.864	0.054	0.139
-308.895	3.751	0.181	0.132
-307.880	5.289	0.103	0.076
-306.866	800.000	-0.100	0.393
-305.851	-189.273	-0.123	0.001
-304.837	131.856	0.231	0.298
-303.822	800.000	0.068	-0.267
-302.807	-107.739	-0.214	0.047
-301.793	-149.318	-0.454	0.036
-300.778	-43.791	-0.200	-0.101
-299.764	-200.000	0.045	-0.258
-298.749	-194.156	0.354	-0.003
-297.735	-42.759	0.207	-0.106
-296.720	-72.569	0.276	0.102
-295.705	-73.238	0.193	-0.071
-294.691	-2.254	-0.271	-0.191
-293.676	-200.000	-0.024	-0.138
-292.662	120.328	-0.100	0.124
-291.647	463.505	-0.017	-0.037
-290.632	-9.279	0.126	0.084
-289.618	-123.662	0.226	0.036
-288.603	257.560	-0.053	0.091
-287.589	-174.088	0.052	-0.002
-286.574	81.718	0.061	-0.066
-285.559	-76.621	-0.167	-0.059
-284.545	40.507	-0.156	-0.140
-283.530	322.722	-0.066	-0.126
-282.516	485.786	-0.199	0.455
-281.501	272.990	-0.093	0.164
-280.486	-200.000	-0.006	0.207
-279.472	800.000	-0.047	-0.167
-278.457	-65.296	-0.293	-0.118
-277.443	800.000	0.075	-0.296
-276.428	-171.623	-0.253	0.008
-275.413	-27.640	0.148	-0.086
-274.399	-94.921	0.197	-0.053
-273.384	-132.524	-0.163	0.021
-272.370	-139.667	-0.151	-0.016
-271.355	-67.296	-0.289	0.114
-270.340	2.676	-0.224	-0.163
-269.326	-19.505	-0.395	-0.245
-268.311	-150.411	-0.043	0.003
-267.297	27.293	-0.295	0.248
-266.282	-123.145	-0.471	0.076
-265.267	-23.398	0.226	0.136
-264.253	800.000	-0.094	0.279
-263.238	-161.635	-0.218	-0.011
-262.224	800.000	-0.041	-0.151
-261.209	226.773	0.138	0.224
-260.195	-15.104	-0.086	0.055
-259.180	29.293	0.299	0.254
-258.165	46.350	0.322	0.299
-257.151	800.000	0.094	0.274
-256.136	-148.229	0.110	0.009
-255.122	240.821	0.026	0.044
-254.107	-39.560	0.140	0.073
-253.092	-200.000	0.019	0.299
-252.078	-148.199	-0.212	0.018
-251.063	-87.586	-0.278	-0.084
-250.049	-50.675	0.316	-0.149
-249.034	-25.229	0.063	-0.037
-248.019	-79.485	-0.244	0.083
-247.005	504.867	0.063	0.147
-245.990	414.360	0.127	0.270
-244.976	-200.000	0.001	0.108
-243.961	-20.746	0.157	0.097
-242.946	-50.719	-0.160	-0.075
-241.932	152.958	0.093	-0.127
-240.917	-200.000	0.015	0.137
-239.903	-16.503	0.069	-0.044
-238.888	-191.168	0.118	-0.001
-237.873	667.748	-0.090	-0.233
-236.859	-200.000	-0.068	0.304
-235.844	-200.000	0.012	0.284
-234.830	62.789	0.279	-0.280
-233.815	-200.000	0.017	0.414
-232.800	70.196	0.216	0.223
-231.786	259.953	0.091	0.157
-230.771	336.365	0.167	0.324
-229.757	311.886	0.068	-0.128
-228.742	690.705	-0.031	-0.082
-227.727	-53.777	0.194	0.089
-226.713	-19.428	0.314	0.195
-225.698	75.348	-0.089	0.094
-224.684	-200.000	0.025	-0.242
-223.669	-200.000	-0.068	-0.320
-222.655	-200.000	-0.008	-0.436
-221.640	-27.385	-0.116	0.068
-220.625	-16.896	-0.186	-0.118
-219.611	206.561	0.075	-0.117
-218.596	64.562	0.142	-0.144
-217.582	468.560	0.034	-0.077
-216.567	735.465	0.094	0.252
-215.552	-200.000	-0.026	0.126
-214.538	-200.000	-0.014	-0.404
-213.523	109.077	-0.096	-0.114
-212.509	-25.907	-0.417	0.245
-211.494	-10.504	-0.007	0.004
-210.479	598.369	-0.039	0.097
-209.465	-200.000	0.021	0.131
-208.450	-130.313	-0.254	-0.034
-207.436	192.832	-0.128	-0.194
-206.421	436.346	0.161	-0.351
-205.406	483.666	0.039	-0.089
-204.392	17.252	0.046	0.036
-203.377	161.833	-0.221	0.310
-202.363	488.825	0.060	0.136
-201.348	59.184	0.212	0.209
-200.333	-12.326	0.145	-0.095
-199.319	115.306	0.174	-0.213
-198.304	-120.109	-0.306	0.052
-197.290	-114.998	0.202	-0.038
-196.275	407.138	-0.075	-0.158
-195.260	146.826	0.084	0.113
-194.246	-5.862	-0.056	-0.038
-193.231	-34.703	-0.130	0.071
-192.217	-54.458	0.078	-0.035
-191.202	-163.486	0.367	0.017
-190.187	-49.678	0.166	0.079
-189.173	429.760	0.053	0.114
-188.158	5.649	0.141	0.104
-187.144	-96.537	0.032	0.009
-186.129	-3.450	0.189	0.131
-185.114	-87.296	0.269	-0.082
-184.100	-200.000	-0.011	-0.050
-183.085	-146.392	-0.217	0.019
-182.071	135.720	-0.222	-0.288
-181.056	800.000	0.027	0.097
-180.042	-159.544	-0.181	0.010
-179.027	328.702	-0.086	0.165
-178.012	-200.000	-0.044	-0.343
-176.998	-8.933	-0.145	-0.097
-175.983	-134.533	0.207	-0.025
-174.969	184.603	-0.243	0.359
-173.954	-124.951	-0.137	0.021
-172.939	-200.000	-0.050	0.265
-171.925	76.011	0.099	0.105
-170.910	-12.925	0.064	0.042
-169.896	-174.290	0.153	0.004
-168.881	-60.735	-0.137	-0.058
-167.866	345.556	0.097	-0.191
-166.852	-110.523	-0.047	-0.010
-165.837	-200.000	0.010	-0.474
-164.823	-107.109	-0.142	0.031
-163.808	-200.000	-0.002	0.042
-162.793	-13.926	-0.334	0.215
-161.779	197.543	-0.073	0.111
-160.764	214.280	0.158	0.250
-159.750	800.000	-0.026	0.097
-158.735	-126.617	-0.068	-0.010
-157.720	439.868	0.112	0.245
-156.706	115.446	0.125	-0.153
-155.691	-29.641	-0.260	0.148
-154.677	-32.124	-0.072	0.040
-153.662	45.334	-0.099	-0.091
-152.647	800.000	0.066	-0.272
-151.633	138.566	-0.068	0.089
-150.618	53.912	-0.327	-0.314
-149.604	73.439	-0.102	0.107
-148.589	-200.000	0.007	-0.134
-147.574	252.204	0.037	0.063
-146.560	310.663	-0.043	0.080
-145.545	800.000	0.076	0.214
-144.531	-6.051	-0.455	0.310
-143.516	-133.440	-0.206	-0.026
-142.502	-174.126	-0.431	-0.013
-141.487	-182.958	-0.426	-0.008
-140.472	139.456	-0.258	0.339
-139.458	800.000	-0.070	0.239
-138.443	131.111	-0.167	-0.214
-137.429	-177.687	0.165	0.004
-136.414	-105.289	0.199	0.045
-135.399	83.717	-0.159	0.172
-134.385	362.039	-0.096	0.193
-133.370	-146.608	0.199	0.017
-132.356	-200.000	-0.009	-0.157
-131.341	-200.000	0.001	-0.024
-130.326	-37.925	-0.070	-0.037
-129.312	-200.000	-0.008	0.127
-128.297	-142.033	0.171	-0.017
-127.283	1.879	0.186	-0.134
-126.268	-24.769	0.272	0.161
-125.253	-22.563	-0.264	-0.159
-124.239	-200.000	0.005	-0.059
-123.224	800.000	-0.071	0.224
-122.210	239.001	0.144	-0.238
-121.195	117.275	0.158	-0.194
