DTS Sentinel unit serial number:	SN413079Multiplexer serial number:	ORYXHardware model number:	OX4-SRSoftware version number:	ORYX F/W v4.00 Oryx Data Collector v3.7.2.0data status	okinstallation	princeton_trtdifferential loss correction	single-endedforward channel	channel 3reverse channel	N/Adate	2019/09/10time	19:50:11forward acquisition time	60.00reverse acquisition time	0.00gamma	496.2192k internal	0.2322k external	0.2322temperature offset calibration	0.9921default loss term (dB/km)	0.3790temperature slope calibration	1.0000multiplexer offset coefficient	1.0000multiplexer slope coefficient	1.0000fibre end	0.00T internal ref (°C)	32.91T ext. ref 1 (°C)	-0.31T ext. ref 2 (°C)	25.72length (m)	temperature (°C)	Stokes	anti-Stokes-747.200	-88.916	0.218	0.065
-746.185	-72.353	-0.149	0.056
-745.171	800.000	-0.080	0.297
-744.156	639.483	-0.062	0.158
-743.142	-86.265	0.155	-0.048
-742.127	-6.609	0.100	0.069
-741.112	-39.235	0.169	-0.090
-740.098	24.232	0.197	0.165
-739.083	800.000	-0.078	0.270
-738.069	-44.414	0.243	0.123
-737.054	13.953	-0.248	0.195
-736.039	-111.391	-0.099	-0.020
-735.025	518.592	-0.100	-0.237
-734.010	-21.651	-0.259	-0.159
-732.996	772.277	0.152	-0.419
-731.981	319.553	-0.152	-0.291
-730.966	-17.918	-0.403	0.255
-729.952	140.916	0.014	0.019
-728.937	27.450	0.280	-0.238
-727.923	-49.535	-0.304	-0.146
-726.908	-180.654	-0.518	0.011
-725.894	124.576	0.189	-0.240
-724.879	265.472	0.090	-0.158
-723.864	-156.925	0.117	-0.007
-722.850	-200.000	-0.018	-0.391
-721.835	225.364	-0.196	-0.321
-720.821	134.279	0.107	-0.140
-719.806	126.131	0.148	-0.189
-718.791	171.730	0.100	-0.145
-717.777	-79.957	-0.322	-0.109
-716.762	-80.571	0.181	-0.061
-715.748	569.785	-0.100	-0.246
-714.733	194.529	-0.189	-0.290
-713.718	-200.000	0.017	-0.332
-712.704	128.973	0.083	0.107
-711.689	800.000	0.153	-0.436
-710.675	-185.779	-0.180	0.003
-709.660	-65.942	-0.328	0.132
-708.645	-200.000	0.022	0.378
-707.631	-200.000	-0.029	-0.215
-706.616	800.000	-0.041	0.142
-705.602	-47.663	0.431	-0.211
-704.587	-113.862	-0.372	-0.073
-703.572	-85.939	-0.035	0.011
-702.558	-107.554	-0.253	0.056
-701.543	-62.503	0.229	0.096
-700.529	-27.283	-0.214	-0.125
-699.514	-164.053	0.130	-0.006
-698.499	-113.071	-0.222	-0.044
-697.485	-200.000	0.095	-0.451
-696.470	278.179	-0.145	-0.261
-695.456	68.204	0.268	-0.277
-694.441	-117.239	0.141	0.026
-693.426	748.387	0.067	0.182
-692.412	-200.000	-0.011	-0.340
-691.397	-144.471	-0.224	-0.021
-690.383	213.087	0.172	-0.274
-689.368	-26.477	-0.337	-0.199
-688.354	151.138	0.036	-0.049
-687.339	-199.015	-0.248	0.001
-686.324	-25.776	0.084	0.050
-685.310	-126.851	0.178	0.026
-684.295	-83.791	0.097	0.031
-683.281	-25.797	-0.219	-0.130
-682.266	61.627	0.094	0.095
-681.251	86.074	-0.197	-0.218
-680.237	171.790	-0.005	0.007
-679.222	-155.990	-0.232	0.015
-678.208	299.093	0.030	-0.055
-677.193	-200.000	-0.030	-0.164
-676.178	-110.885	0.187	-0.039
-675.164	800.000	-0.128	-0.503
-674.149	588.722	-0.078	-0.195
-673.135	800.000	0.017	-0.073
-672.120	27.092	-0.178	0.151
-671.105	-142.645	0.049	-0.005
-670.091	229.008	0.146	-0.240
-669.076	231.660	0.034	0.055
-668.062	-200.000	-0.005	-0.152
-667.047	101.524	0.156	0.183
-666.032	-78.241	-0.261	0.090
-665.018	-69.302	0.426	-0.165
-664.003	-105.883	-0.415	-0.094
-662.989	-146.063	0.095	0.008
-661.974	129.052	0.131	0.168
-660.959	97.545	-0.189	-0.219
-659.945	-200.000	0.016	-0.273
-658.930	-190.526	0.056	0.001
-657.916	-170.388	-0.078	-0.003
-656.901	800.000	0.095	0.283
-655.886	800.000	0.042	0.176
-654.872	-108.755	0.036	-0.008
-653.857	-68.729	-0.138	-0.054
-652.843	-52.170	0.130	-0.061
-651.828	127.135	0.148	-0.189
-650.814	-101.025	-0.385	0.095
-649.799	800.000	0.073	0.296
-648.784	-200.000	0.270	0.001
-647.770	216.955	0.147	-0.236
-646.755	-118.349	-0.190	0.034
-645.741	-200.000	0.001	0.141
-644.726	-200.000	-0.006	-0.170
-643.711	62.977	0.045	-0.046
-642.697	592.919	0.115	-0.286
-641.682	-150.142	-0.148	-0.012
-640.668	-129.042	0.028	0.004
-639.653	-86.188	-0.145	-0.045
-638.638	49.156	-0.018	-0.017
-637.624	38.546	-0.370	-0.332
-636.609	-151.976	-0.352	0.026
-635.595	-86.901	0.291	-0.089
-634.580	170.420	-0.215	0.310
-633.565	-139.797	-0.242	0.026
-632.551	47.717	-0.086	0.081
-631.536	-27.731	0.228	-0.133
-630.522	101.560	0.130	-0.153
-629.507	489.574	-0.088	-0.203
-628.492	100.907	-0.075	0.088
-627.478	50.230	-0.247	-0.235
-626.463	-200.000	-0.012	0.066
-625.449	-103.977	0.098	-0.023
-624.434	37.395	0.117	0.104
-623.419	268.780	-0.120	-0.211
-622.405	-200.000	0.001	0.162
-621.390	-108.181	-0.087	0.019
-620.376	-33.095	0.210	-0.117
-619.361	-55.639	-0.314	-0.141
-618.346	24.019	0.256	-0.213
-617.332	106.640	-0.025	-0.029
-616.317	-110.968	-0.202	0.042
-615.303	31.323	0.078	-0.067
-614.288	-112.007	-0.426	0.086
-613.273	-200.000	0.011	-0.244
-612.259	-109.624	-0.090	0.019
-611.244	-79.894	-0.069	0.023
-610.230	800.000	-0.028	-0.107
-609.215	-147.880	-0.144	-0.012
-608.201	-107.389	-0.249	-0.055
-607.186	22.385	0.054	-0.044
-606.171	-80.435	-0.165	0.055
-605.157	800.000	0.099	0.333
-604.142	-124.115	0.181	0.028
-603.128	-97.322	0.179	-0.047
-602.113	-200.000	-0.030	-0.131
-601.098	800.000	-0.061	-0.223
-600.084	25.712	-0.301	-0.251
-599.069	-125.184	-0.402	-0.062
-598.055	-118.735	-0.303	0.054
-597.040	15.519	-0.161	0.127
-596.025	-16.084	0.119	-0.076
-595.011	471.443	-0.124	-0.281
-593.996	-99.276	0.164	0.042
-592.982	-200.000	0.028	0.191
-591.967	-125.474	0.151	0.023
-590.952	661.328	0.131	0.339
-589.938	-121.728	-0.101	-0.017
-588.923	-109.321	-0.149	-0.032
-587.909	-41.135	0.077	-0.040
-586.894	23.988	0.127	0.105
-585.879	732.041	-0.134	0.361
-584.865	-200.000	-0.021	-0.254
-583.850	-200.000	0.002	0.312
-582.836	696.097	-0.024	-0.064
-581.821	-170.424	0.237	0.008
-580.806	-10.934	-0.074	-0.049
-579.792	-147.269	0.374	0.032
-578.777	55.814	0.089	0.086
-577.763	-139.061	0.015	0.002
-576.748	-200.000	0.008	-0.116
-575.733	406.170	-0.130	-0.275
-574.719	800.000	0.010	0.032
-573.704	67.870	0.154	-0.158
-572.690	24.960	-0.238	-0.198
-571.675	23.442	-0.163	0.135
-570.661	-25.115	0.269	0.160
-569.646	-74.257	0.106	0.038
-568.631	507.640	0.106	-0.247
-567.617	46.442	-0.314	-0.293
-566.602	311.241	-0.104	-0.196
-565.588	94.374	-0.146	0.167
-564.573	114.301	-0.184	0.225
-563.558	-200.000	0.013	-0.237
-562.544	-101.769	-0.377	-0.092
-561.529	176.836	0.072	-0.106
-560.515	-200.000	0.008	-0.109
-559.500	-56.274	0.359	0.160
-558.485	-200.000	-0.035	-0.165
-557.471	410.134	-0.048	-0.102
-556.456	800.000	-0.044	0.168
-555.442	-30.983	0.091	-0.051
-554.427	-56.743	0.048	0.021
-553.412	67.370	0.300	-0.307
-552.398	-112.819	-0.560	-0.111
-551.383	762.657	0.068	-0.185
-550.369	294.704	0.072	-0.133
-549.354	800.000	-0.105	-0.313
-548.339	-200.000	-0.066	-0.343
-547.325	-67.547	0.187	-0.074
-546.310	-127.989	0.177	0.025
-545.296	-84.720	0.131	-0.041
-544.281	800.000	0.065	-0.179
-543.266	-200.000	-0.005	0.172
-542.252	-200.000	-0.024	-0.442
-541.237	-11.350	0.159	-0.105
-540.223	-197.462	0.229	-0.001
-539.208	800.000	0.053	-0.172
-538.193	-200.000	0.025	-0.131
-537.179	-200.000	-0.015	-0.183
-536.164	-200.000	-0.001	0.209
-535.150	27.588	-0.296	-0.250
-534.135	-87.623	0.047	-0.014
-533.121	-200.000	-0.199	-0.001
-532.106	-93.031	-0.142	0.040
-531.091	-124.836	-0.142	0.022
-530.077	39.407	-0.089	0.080
-529.062	-19.869	-0.321	0.199
-528.048	-54.462	0.131	-0.059
-527.033	133.360	0.102	-0.132
-526.018	-41.260	0.246	-0.127
-525.004	483.079	-0.074	-0.168
-523.989	-142.158	0.159	-0.016
-522.975	-100.438	0.136	0.034
-521.960	-200.000	0.052	0.302
-520.945	18.841	-0.333	0.267
-519.931	120.063	0.272	-0.338
-518.916	-111.181	-0.247	-0.051
-517.902	143.829	0.050	-0.067
-516.887	-200.000	-0.032	0.203
-515.872	-30.672	-0.289	0.164
-514.858	43.621	-0.123	-0.113
-513.843	800.000	-0.040	-0.145
-512.829	-46.992	0.164	0.080
-511.814	-144.920	-0.216	0.020
-510.799	-152.653	-0.270	0.019
-509.785	18.787	0.161	-0.129
-508.770	800.000	0.044	-0.180
-507.756	24.034	0.222	0.183
-506.741	-124.046	-0.181	-0.028
-505.726	-33.055	0.248	-0.138
-504.712	-41.264	0.165	0.085
-503.697	628.675	0.102	0.257
-502.683	537.748	-0.201	0.478
-501.668	124.009	0.077	-0.097
-500.653	357.849	-0.116	0.232
-499.639	247.232	0.120	0.202
-498.624	-200.000	0.039	-0.288
-497.610	-83.323	0.123	-0.040
-496.595	-34.656	0.091	-0.050
-495.581	-153.334	0.256	0.018
-494.566	-90.191	-0.240	-0.070
-493.551	22.400	0.202	0.165
-492.537	75.761	0.170	0.179
-491.522	2.368	-0.140	0.102
-490.508	-141.062	0.307	0.031
-489.493	-200.000	-0.010	-0.321
-488.478	-102.443	-0.327	-0.078
-487.464	221.110	-0.121	0.194
-486.449	177.696	0.245	0.357
-485.435	-69.810	-0.303	0.116
-484.420	800.000	0.048	0.144
-483.405	198.022	-0.035	0.053
-482.391	-100.538	-0.178	0.044
-481.376	20.006	-0.082	0.066
-480.362	-200.000	0.059	-0.279
-479.347	-200.000	-0.000	-0.261
-478.332	-164.699	0.032	-0.001
-477.318	131.643	-0.203	0.260
-476.303	-72.725	0.301	0.111
-475.289	800.000	0.059	0.170
-474.274	55.668	0.177	0.171
-473.259	800.000	-0.064	0.199
-472.245	-121.075	-0.361	-0.060
-471.230	345.470	0.030	0.059
-470.216	-200.000	0.012	0.123
-469.201	183.310	-0.208	0.307
-468.186	339.499	-0.231	0.449
-467.172	-54.337	0.204	0.092
-466.157	-33.030	0.162	-0.090
-465.143	800.000	-0.051	0.220
-464.128	540.320	0.036	-0.085
-463.113	55.745	0.236	0.229
-462.099	-104.620	-0.030	0.007
-461.084	3.249	0.216	0.157
-460.070	-200.000	-0.059	-0.372
-459.055	-200.000	-0.002	-0.100
-458.040	300.833	0.100	-0.185
-457.026	-200.000	0.025	0.584
-456.011	-72.532	-0.203	0.075
-454.997	-5.590	-0.250	0.171
-453.982	-6.498	0.092	0.063
-452.968	800.000	-0.052	0.175
-451.953	-32.149	0.191	0.107
-450.938	167.463	-0.020	0.028
-449.924	-200.000	0.027	-0.226
-448.909	800.000	-0.100	-0.324
-447.895	-27.200	0.343	-0.200
-446.880	297.950	0.184	-0.338
-445.865	-133.435	0.237	-0.030
-444.851	-47.198	0.233	0.113
-443.836	105.921	0.110	0.130
-442.822	61.371	-0.327	-0.325
-441.807	374.925	-0.033	-0.068
-440.792	2.534	-0.219	0.158
-439.778	10.959	-0.252	-0.193
-438.763	64.185	0.242	0.243
-437.749	-200.000	0.002	0.062
-436.734	-55.448	0.333	0.149
-435.719	-200.000	0.048	-0.240
-434.705	109.035	0.098	-0.117
-433.690	7.143	0.227	0.169
-432.676	800.000	0.089	0.272
-431.661	58.351	-0.230	-0.226
-430.646	-200.000	-0.049	-0.257
-429.632	115.152	0.152	0.185
-428.617	800.000	0.135	0.454
-427.603	17.279	0.166	0.131
-426.588	-37.822	0.120	-0.064
-425.573	89.641	0.209	-0.233
-424.559	800.000	-0.058	0.186
-423.544	91.100	0.088	0.098
-422.530	800.000	-0.060	-0.261
-421.515	161.984	-0.030	-0.042
-420.500	-130.491	-0.216	-0.029
-419.486	101.420	0.071	0.082
-418.471	-123.984	0.188	-0.029
-417.457	125.003	0.063	-0.079
-416.442	-63.486	0.145	-0.059
-415.428	-52.453	0.184	-0.085
-414.413	-112.207	-0.070	-0.014
-413.398	-128.635	0.122	0.017
-412.384	136.240	0.201	0.261
-411.369	118.961	0.071	0.088
-410.355	521.662	-0.047	0.111
-409.340	16.754	0.109	0.086
-408.325	-61.687	-0.233	-0.098
-407.311	110.012	0.116	-0.138
-406.296	214.970	-0.055	-0.087
-405.282	438.696	-0.082	0.178
-404.267	18.001	0.121	0.096
-403.252	128.863	-0.139	-0.177
-402.238	-6.458	-0.169	-0.115
-401.223	-52.039	0.157	0.073
-400.209	-137.691	-0.250	-0.028
-399.194	231.567	-0.096	-0.157
-398.179	-127.312	0.252	-0.037
-397.165	-95.304	-0.138	0.037
-396.150	626.690	0.144	-0.364
-395.136	-200.000	0.025	0.261
-394.121	-200.000	-0.001	-0.087
-393.106	800.000	0.108	-0.403
-392.092	-57.638	0.142	-0.062
-391.077	-156.475	0.194	0.012
-390.063	800.000	-0.063	-0.180
-389.048	70.574	0.132	-0.136
-388.033	29.142	0.121	0.102
-387.019	118.217	-0.079	-0.097
-386.004	39.988	0.070	-0.063
-384.990	-100.577	0.155	0.038
-383.975	236.414	-0.045	0.074
-382.960	-89.001	-0.309	0.091
-381.946	-84.216	-0.407	-0.129
-380.931	57.986	0.354	-0.345
-379.917	110.406	-0.137	0.164
-378.902	-200.000	0.011	0.073
-377.888	162.073	0.164	-0.229
-376.873	83.971	-0.089	0.097
-375.858	-200.000	-0.010	0.067
-374.844	-73.607	0.368	-0.134
-373.829	-200.000	-0.020	-0.418
-372.815	679.522	-0.038	0.097
-371.800	-37.497	-0.348	0.185
-370.785	-15.306	0.145	0.092
-369.771	-200.000	-0.041	0.291
-368.756	-7.112	0.063	0.042
-367.742	-53.494	0.208	-0.095
-366.727	-47.385	0.122	-0.059
-365.712	-59.659	0.169	0.072
-364.698	3.420	0.092	-0.066
-363.683	-88.038	-0.142	-0.042
-362.669	2.891	-0.136	0.098
-361.654	382.887	0.066	-0.135
-360.639	-95.746	-0.076	-0.020
-359.625	-112.156	-0.111	0.022
-358.610	90.703	0.065	-0.072
-357.596	-4.307	0.082	-0.056
-356.581	-70.697	-0.228	0.086
-355.566	-91.349	0.224	0.064
-354.552	9.588	-0.103	0.078
-353.537	48.495	0.183	-0.171
-352.523	102.493	-0.170	0.198
-351.508	11.237	0.139	0.106
-350.493	167.411	0.095	0.134
-349.479	800.000	-0.025	0.071
-348.464	18.746	-0.212	0.168
-347.450	6.979	-0.178	0.132
-346.435	-101.568	0.338	0.082
-345.420	800.000	0.124	0.517
-344.406	-28.730	-0.020	0.012
-343.391	800.000	0.032	-0.099
-342.377	19.212	0.116	0.093
-341.362	754.682	-0.118	-0.318
-340.348	-187.307	0.178	0.002
-339.333	-200.000	0.056	0.453
-338.318	-89.850	0.209	-0.061
-337.304	-14.729	0.097	-0.062
-336.289	633.298	-0.044	-0.110
-335.275	77.963	-0.311	0.330
-334.260	-8.857	-0.190	0.126
-333.245	-42.173	0.261	0.132
-332.231	-200.000	-0.001	-0.127
-331.216	55.543	-0.116	-0.111
-330.202	800.000	0.105	0.328
-329.187	-200.000	0.009	0.354
-328.172	800.000	-0.067	0.191
-327.158	746.040	-0.127	-0.340
-326.143	-200.000	-0.020	0.136
-325.129	370.069	-0.057	-0.114
-324.114	-78.069	0.332	0.114
-323.099	3.862	0.183	0.133
-322.085	-80.458	0.168	-0.056
-321.070	126.484	-0.250	0.315
-320.056	-39.327	-0.291	0.152
-319.041	-133.179	-0.350	0.044
-318.026	-71.597	-0.262	0.097
-317.012	-99.863	-0.196	-0.049
-315.997	-68.413	-0.113	0.044
-314.983	-21.418	-0.017	0.010
-313.968	155.169	-0.108	0.148
-312.953	637.767	-0.048	0.121
-311.939	-80.317	0.161	0.054
-310.924	-64.618	0.423	-0.170
-309.910	-6.271	-0.219	-0.148
-308.895	-91.290	-0.340	-0.097
-307.880	-134.578	-0.204	-0.025
-306.866	47.048	-0.082	-0.076
-305.851	-51.157	-0.172	-0.080
-304.837	-21.357	-0.140	0.085
-303.822	-18.645	-0.224	0.139
-302.807	-168.830	-0.101	0.004
-301.793	800.000	0.015	-0.050
-300.778	337.784	-0.113	0.218
-299.764	-147.214	-0.066	-0.006
-298.749	67.657	-0.071	-0.072
-297.735	116.140	0.255	-0.311
-296.720	-200.000	-0.040	-0.311
-295.705	8.715	0.337	0.252
-294.691	-70.520	0.142	-0.053
-293.676	36.374	0.053	-0.047
-292.662	800.000	-0.023	-0.062
-291.647	-124.792	-0.113	0.017
-290.632	277.637	0.097	0.172
-289.618	-100.115	-0.263	-0.065
-288.603	-22.078	-0.035	-0.021
-287.589	-45.064	0.201	-0.099
-286.574	16.387	0.182	0.142
-285.559	-20.878	-0.283	0.172
-284.545	-200.000	-0.014	0.186
-283.530	-156.101	-0.161	-0.010
-282.516	800.000	-0.101	-0.376
-281.501	-113.635	-0.096	-0.019
-280.486	51.293	-0.172	0.162
-279.472	-200.000	-0.003	-0.159
-278.457	800.000	0.052	0.184
-277.443	-200.000	0.001	-0.164
-276.428	800.000	0.040	-0.137
-275.413	-200.000	0.052	-0.409
-274.399	107.392	0.148	0.175
-273.384	800.000	-0.051	0.179
-272.370	100.599	0.036	0.042
-271.355	-116.289	0.356	0.065
-270.340	43.773	0.091	-0.083
-269.326	-200.000	-0.025	0.202
-268.311	463.442	-0.134	0.297
-267.297	-200.000	0.004	0.211
-266.282	-134.040	-0.336	-0.041
-265.267	157.544	0.094	0.129
-264.253	221.024	0.019	-0.030
-263.238	107.612	0.054	-0.063
-262.224	-200.000	0.007	0.116
-261.209	-159.819	-0.180	0.010
-260.195	222.531	-0.123	-0.196
-259.180	257.574	-0.180	-0.308
-258.165	-94.949	0.185	0.050
-257.151	-200.000	0.001	0.291
-256.136	124.029	-0.166	-0.207
-255.122	-200.000	0.000	-0.047
-254.107	157.330	0.139	0.191
-253.092	146.281	-0.170	0.226
-252.078	416.315	-0.083	0.175
-251.063	800.000	0.130	-0.407
-250.049	800.000	0.088	0.322
-249.034	-121.131	-0.215	0.036
-248.019	22.192	0.142	-0.115
-247.005	395.824	0.081	0.167
-245.990	800.000	0.035	0.148
-244.976	-200.000	0.036	-0.332
-243.961	577.230	-0.087	-0.211
-242.946	292.631	-0.085	-0.154
-241.932	385.492	-0.062	-0.126
-240.917	87.946	-0.101	-0.111
-239.903	87.520	-0.136	0.149
-238.888	150.078	-0.049	-0.066
-237.873	347.629	0.148	0.289
-236.859	-65.429	-0.142	-0.056
-235.844	34.103	0.148	-0.128
-234.830	-74.380	0.120	0.043
-233.815	-95.410	0.434	-0.115
-232.800	800.000	-0.048	-0.168
-231.786	-69.762	-0.189	-0.072
-230.771	109.871	-0.129	0.153
-229.757	175.527	0.248	-0.356
-228.742	800.000	-0.017	-0.050
-227.727	123.044	-0.041	-0.051
-226.713	-196.450	-0.217	-0.001
-225.698	100.477	-0.109	-0.125
-224.684	-45.272	0.073	0.036
-223.669	-200.000	-0.019	0.208
-222.655	2.381	-0.064	-0.046
-221.640	800.000	0.034	0.143
-220.625	-132.283	0.075	-0.010
-219.611	123.441	-0.182	-0.226
-218.596	178.209	0.120	0.173
-217.582	-200.000	0.035	-0.374
-216.567	-6.184	0.192	0.130
-215.552	-200.000	-0.090	0.399
-214.538	428.195	0.075	-0.161
-213.523	800.000	0.067	0.200
-212.509	149.768	0.119	0.159
-211.494	800.000	-0.067	-0.199
-210.479	-200.000	-0.012	0.064
-209.465	-177.730	0.252	-0.006
-208.450	-128.446	-0.124	0.017
-207.436	-200.000	0.049	0.249
-206.421	-108.236	0.304	-0.065
-205.406	294.679	-0.124	0.224
-204.392	191.417	-0.187	-0.278
-203.377	-124.970	0.219	-0.033
-202.363	-79.994	0.162	0.054
-201.348	-143.273	0.079	-0.008
-200.333	200.045	0.064	-0.097
-199.319	503.560	0.119	-0.272
-198.304	-170.986	-0.023	0.001
-197.290	-200.000	0.065	0.368
-196.275	26.907	0.301	0.249
-195.260	-81.603	0.131	0.042
-194.246	-194.439	0.166	-0.001
-193.231	-200.000	0.019	-0.192
-192.217	-200.000	-0.060	0.299
-191.202	-46.250	0.104	-0.050
-190.187	-81.320	0.130	0.042
-189.173	235.629	0.142	-0.231
-188.158	-142.184	0.304	0.030
-187.144	526.810	-0.137	-0.320
-186.129	11.594	0.045	-0.034
-185.114	-105.058	-0.019	0.004
-184.100	42.584	0.202	0.181
-183.085	28.188	0.070	0.058
-182.071	-200.000	-0.024	-0.112
-181.056	-103.905	-0.097	-0.022
-180.042	-200.000	-0.032	0.170
-179.027	-18.094	-0.455	-0.282
-178.012	-200.000	0.081	-0.382
-176.998	39.309	0.121	0.107
-175.983	191.776	-0.057	0.086
-174.969	-39.653	0.323	0.167
-173.954	118.679	-0.303	0.369
-172.939	800.000	0.126	-0.355
-171.925	-200.000	0.000	0.194
-170.910	83.425	0.132	0.142
-169.896	48.463	-0.120	0.111
-168.881	106.133	0.161	0.188
-167.866	-200.000	-0.004	-0.023
-166.852	-77.572	0.031	-0.011
-165.837	-53.064	0.059	-0.027
-164.823	705.926	-0.098	0.256
-163.808	-200.000	-0.358	0.002
-162.793	20.200	0.224	-0.179
-161.779	221.329	-0.080	0.127
-160.764	-200.000	0.004	0.205
-159.750	-48.983	-0.332	-0.157
-158.735	342.319	-0.100	-0.194
-157.720	-200.000	-0.007	-0.286
-156.706	177.340	0.120	0.173
-155.691	197.666	-0.193	-0.291
-154.677	21.402	-0.186	-0.149
-153.662	109.178	0.171	0.202
-152.647	800.000	0.032	-0.118
-151.633	65.590	-0.256	0.256
-150.618	-42.496	0.046	-0.023
-149.604	-200.000	0.028	0.199
-148.589	-30.070	0.284	0.160
-147.574	-165.698	0.097	-0.004
-146.560	10.353	-0.041	-0.030
-145.545	-51.000	0.335	-0.155
-144.531	105.719	0.034	-0.040
-143.516	800.000	0.067	-0.192
-142.502	540.222	0.097	0.228
-141.487	800.000	0.083	0.271
-140.472	-107.844	0.206	0.044
-139.458	180.322	0.123	0.179
-138.443	-146.015	0.096	-0.008
-137.429	-77.925	0.204	-0.069
-136.414	-127.435	-0.313	0.045
-135.399	178.890	0.057	0.082
-134.385	-190.490	0.078	-0.001
-133.370	13.132	0.350	-0.268
-132.356	-34.651	0.146	0.079
-131.341	-200.000	-0.009	-0.101
-130.326	-200.000	-0.023	0.186
-129.312	-84.288	0.144	0.045
-128.297	474.933	0.092	0.205
-127.283	-113.944	0.160	-0.031
-126.268	-200.000	-0.017	-0.168
-125.253	-100.903	-0.088	-0.021
-124.239	-200.000	-0.033	-0.145
-123.224	-165.041	0.071	-0.003
-122.210	70.147	0.052	-0.053
-121.195	-26.812	-0.237	-0.137
