DTS Sentinel unit serial number:	SN413079Multiplexer serial number:	ORYXHardware model number:	OX4-SRSoftware version number:	ORYX F/W v4.00 Oryx Data Collector v3.7.2.0data status	okinstallation	princeton_trtdifferential loss correction	single-endedforward channel	channel 3reverse channel	N/Adate	2019/09/12time	09:14:11forward acquisition time	60.00reverse acquisition time	0.00gamma	496.2192k internal	0.2305k external	0.2305temperature offset calibration	1.0026default loss term (dB/km)	0.3790temperature slope calibration	1.0000multiplexer offset coefficient	1.0000multiplexer slope coefficient	1.0000fibre end	0.00T internal ref (°C)	34.75T ext. ref 1 (°C)	1.78T ext. ref 2 (°C)	33.14length (m)	temperature (°C)	Stokes	anti-Stokes-747.200	140.277	-0.075	0.101
-746.185	800.000	0.091	0.345
-745.171	277.520	0.024	-0.044
-744.156	383.935	-0.199	0.416
-743.142	-200.000	-0.002	0.113
-742.127	212.409	-0.066	0.106
-741.112	-200.000	-0.009	-0.054
-740.098	14.703	0.132	-0.105
-739.083	-170.873	-0.345	0.012
-738.069	35.065	-0.274	0.245
-737.054	-200.000	-0.034	0.334
-736.039	-155.153	-0.098	-0.006
-735.025	388.607	-0.099	0.209
-734.010	-66.425	-0.335	-0.135
-732.996	689.094	0.018	-0.048
-731.981	-200.000	0.044	-0.250
-730.966	-154.639	-0.055	0.004
-729.952	231.850	0.059	-0.099
-728.937	-200.000	-0.007	-0.330
-727.923	-31.394	0.172	0.099
-726.908	-200.000	0.011	0.347
-725.894	-85.009	-0.345	-0.110
-724.879	334.251	0.100	-0.196
-723.864	-119.536	0.212	0.037
-722.850	-97.955	0.273	0.072
-721.835	776.206	-0.085	0.235
-720.821	-47.730	-0.247	-0.122
-719.806	47.751	-0.235	-0.223
-718.791	-200.000	-0.001	-0.113
-717.777	800.000	-0.044	0.172
-716.762	-50.475	-0.191	-0.092
-715.748	-200.000	-0.063	0.290
-714.733	132.994	0.140	-0.184
-713.718	511.287	-0.029	0.069
-712.704	-15.261	-0.213	0.138
-711.689	-47.341	-0.024	-0.012
-710.675	367.674	0.153	-0.314
-709.660	83.640	-0.151	0.167
-708.645	103.278	0.087	0.104
-707.631	34.989	0.092	-0.082
-706.616	-157.862	0.331	-0.020
-705.602	800.000	-0.007	0.024
-704.587	163.398	-0.038	0.054
-703.572	40.469	0.459	-0.420
-702.558	-189.831	0.154	0.002
-701.543	-200.000	0.031	-0.547
-700.529	-58.214	0.388	-0.172
-699.514	800.000	0.030	0.114
-698.499	-128.047	0.180	0.026
-697.485	-108.971	0.203	-0.044
-696.470	80.715	-0.101	-0.111
-695.456	-37.007	-0.134	-0.073
-694.441	652.414	-0.055	0.143
-693.426	-55.781	-0.219	0.099
-692.412	-125.092	0.104	0.016
-691.397	-36.407	-0.131	0.072
-690.383	-66.645	-0.056	0.023
-689.368	-70.277	-0.078	0.030
-688.354	750.247	-0.028	-0.077
-687.339	123.725	-0.092	0.117
-686.324	-97.225	0.187	0.050
-685.310	120.984	0.214	0.270
-684.295	800.000	0.047	-0.200
-683.281	-200.000	-0.012	0.174
-682.266	800.000	-0.069	0.253
-681.251	589.903	0.136	-0.340
-680.237	-200.000	0.053	-0.446
-679.222	-51.894	0.135	0.064
-678.208	334.587	-0.114	0.225
-677.193	-200.000	-0.007	-0.211
-676.178	504.653	-0.172	-0.405
-675.164	-200.000	0.058	-0.315
-674.149	135.073	0.131	0.173
-673.135	800.000	-0.047	0.175
-672.120	-200.000	0.012	0.234
-671.105	54.180	-0.059	-0.058
-670.091	-200.000	-0.015	0.223
-669.076	0.000	-0.183	-0.132
-668.062	76.964	-0.214	0.231
-667.047	-70.248	-0.156	0.060
-666.032	94.354	-0.202	-0.232
-665.018	-200.000	0.009	0.093
-664.003	-0.691	-0.257	0.185
-662.989	-59.851	-0.251	-0.109
-661.974	800.000	-0.055	-0.238
-660.959	239.654	0.146	-0.246
-659.945	-155.474	-0.179	0.012
-658.930	-134.556	-0.157	0.020
-657.916	800.000	-0.033	0.119
-656.901	-11.756	0.064	0.043
-655.886	-65.335	-0.342	-0.140
-654.872	179.331	-0.150	0.223
-653.857	-132.540	-0.034	0.004
-652.843	-200.000	0.017	0.246
-651.828	-22.110	-0.135	-0.083
-650.814	49.067	0.255	-0.243
-649.799	245.667	-0.011	0.018
-648.784	-36.688	0.131	-0.072
-647.770	63.446	-0.240	-0.244
-646.755	-80.970	0.171	-0.057
-645.741	120.989	-0.154	-0.195
-644.726	-132.696	-0.094	0.012
-643.711	-200.000	0.005	-0.212
-642.697	619.585	0.045	0.114
-641.682	117.918	-0.071	-0.089
-640.668	-200.000	-0.005	0.055
-639.653	20.170	0.250	0.205
-638.638	-200.000	-0.033	0.250
-637.624	-68.385	-0.056	-0.022
-636.609	288.759	-0.029	-0.052
-635.595	-112.822	0.138	0.028
-634.580	-188.339	-0.171	-0.002
-633.565	-187.152	0.161	0.002
-632.551	7.870	-0.107	-0.081
-631.536	-128.413	-0.342	-0.049
-630.522	99.255	0.161	0.189
-629.507	19.678	-0.053	0.043
-628.492	-200.000	0.023	-0.186
-627.478	-200.000	0.012	-0.239
-626.463	375.911	0.046	-0.095
-625.449	-106.184	-0.120	0.027
-624.434	800.000	-0.080	0.335
-623.419	-96.087	0.320	0.086
-622.405	46.720	-0.157	-0.147
-621.390	-15.324	0.131	0.085
-620.376	300.540	-0.178	0.332
-619.361	-200.000	0.049	-0.311
-618.346	-94.505	-0.155	0.043
-617.332	528.173	0.029	0.070
-616.317	-99.538	0.136	-0.035
-615.303	508.968	0.048	0.114
-614.288	0.812	-0.089	0.064
-613.273	163.565	-0.068	-0.097
-612.259	519.181	0.113	-0.269
-611.244	-139.315	-0.109	-0.012
-610.230	-200.000	-0.030	-0.280
-609.215	18.690	-0.038	-0.030
-608.201	-200.000	0.021	0.189
-607.186	-200.000	0.061	0.318
-606.171	-53.392	-0.149	0.069
-605.157	422.526	-0.139	0.303
-604.142	377.497	-0.079	-0.163
-603.128	-200.000	-0.002	0.364
-602.113	10.585	-0.340	-0.262
-601.098	-99.036	-0.238	-0.061
-600.084	-49.517	-0.148	0.071
-599.069	3.007	-0.239	-0.175
-598.055	-10.653	-0.095	0.064
-597.040	-161.407	-0.006	0.000
-596.025	134.094	-0.181	-0.237
-595.011	-4.277	0.243	0.170
-593.996	2.220	0.142	-0.104
-592.982	100.557	0.105	0.124
-591.967	-129.867	0.449	0.062
-590.952	170.793	-0.318	-0.461
-589.938	-13.283	0.075	0.049
-588.923	-200.000	0.041	0.337
-587.909	234.230	-0.093	0.155
-586.894	-16.908	-0.280	-0.179
-585.879	-71.729	0.379	-0.143
-584.865	83.315	0.253	0.278
-583.850	259.604	0.048	-0.084
-582.836	34.995	-0.191	-0.169
-581.821	16.634	0.286	0.229
-580.806	36.995	-0.207	-0.186
-579.792	-58.903	0.167	-0.073
-578.777	800.000	0.037	0.133
-577.763	103.624	0.068	-0.081
-576.748	302.534	0.123	-0.231
-575.733	-106.219	-0.252	0.057
-574.719	304.655	-0.048	0.091
-573.704	699.417	0.098	-0.262
-572.690	40.224	0.164	0.149
-571.675	-200.000	0.015	0.185
-570.661	-118.280	0.284	-0.051
-569.646	585.843	0.017	0.041
-568.631	181.810	0.075	-0.112
-567.617	247.363	0.130	-0.221
-566.602	-200.000	-0.024	0.250
-565.588	179.484	-0.053	0.079
-564.573	-130.655	0.431	-0.059
-563.558	-178.454	0.293	0.007
-562.544	-20.089	0.095	0.059
-561.529	-135.532	-0.302	-0.036
-560.515	-200.000	-0.008	-0.435
-559.500	2.943	-0.085	0.063
-558.485	59.239	-0.210	0.209
-557.471	268.497	0.061	-0.108
-556.456	-200.000	0.014	0.221
-555.442	165.046	-0.128	0.183
-554.427	182.279	0.231	-0.344
-553.412	-154.720	0.247	0.017
-552.398	265.420	0.026	-0.046
-551.383	86.246	-0.189	-0.210
-550.369	-21.695	-0.244	-0.150
-549.354	-200.000	-0.001	-0.328
-548.339	800.000	0.026	0.090
-547.325	220.273	-0.179	-0.289
-546.310	-200.000	-0.001	-0.012
-545.296	-168.746	-0.201	-0.008
-544.281	-200.000	-0.031	0.142
-543.266	567.085	0.068	-0.167
-542.252	76.937	-0.172	-0.185
-541.237	800.000	-0.024	-0.104
-540.223	363.249	-0.010	0.020
-539.208	-200.000	0.041	0.321
-538.193	800.000	-0.068	0.194
-537.179	-200.000	-0.013	-0.189
-536.164	211.714	0.209	-0.332
-535.150	-101.421	-0.072	0.018
-534.135	304.286	0.113	0.213
-533.121	137.058	0.088	-0.116
-532.106	683.995	0.116	-0.304
-531.091	800.000	0.101	0.413
-530.077	-52.121	-0.207	-0.097
-529.062	46.365	0.233	0.218
-528.048	-200.000	0.027	-0.141
-527.033	258.601	-0.118	0.206
-526.018	800.000	0.051	-0.169
-525.004	-88.084	-0.212	-0.064
-523.989	-11.114	-0.091	0.061
-522.975	-32.762	0.163	-0.092
-521.960	-79.944	-0.131	0.045
-520.945	800.000	-0.090	0.284
-519.931	800.000	0.109	0.467
-518.916	800.000	0.068	0.201
-517.902	-200.000	0.005	0.223
-516.887	-28.219	0.194	-0.113
-515.872	-200.000	-0.006	0.168
-514.858	-155.639	0.044	0.003
-513.843	47.968	0.233	0.219
-512.829	283.537	-0.123	0.224
-511.814	34.891	0.121	0.107
-510.799	-4.952	0.280	0.195
-509.785	800.000	0.094	-0.276
-508.770	146.279	0.166	-0.224
-507.756	-68.287	-0.195	0.077
-506.741	77.071	0.007	0.007
-505.726	-200.000	0.156	-0.001
-504.712	-67.418	0.101	0.040
-503.697	-147.322	0.239	-0.020
-502.683	-200.000	0.094	0.453
-501.668	31.069	0.295	0.255
-500.653	567.941	-0.158	-0.388
-499.639	458.244	-0.045	0.101
-498.624	18.693	-0.151	0.122
-497.610	-200.000	0.020	-0.283
-496.595	181.738	-0.123	-0.182
-495.581	158.509	-0.150	0.209
-494.566	438.087	-0.072	0.158
-493.551	65.066	-0.065	-0.066
-492.537	-128.096	0.089	0.013
-491.522	587.594	-0.032	0.080
-490.508	100.047	-0.130	-0.152
-489.493	-158.540	0.388	0.023
-488.478	-116.561	0.391	0.073
-487.464	73.921	0.008	0.008
-486.449	-138.817	-0.042	0.005
-485.435	7.826	-0.148	-0.112
-484.420	81.693	-0.148	0.162
-483.405	259.073	-0.104	-0.180
-482.391	392.984	0.102	-0.214
-481.376	800.000	0.093	-0.350
-480.362	-200.000	0.040	0.248
-479.347	167.032	-0.103	0.147
-478.332	-57.740	0.127	0.056
-477.318	12.422	-0.269	0.209
-476.303	46.879	0.336	-0.315
-475.289	-200.000	0.016	0.333
-474.274	800.000	-0.030	-0.117
-473.259	-18.404	0.254	0.160
-472.245	246.944	0.094	-0.159
-471.230	-156.480	-0.220	0.014
-470.216	-200.000	-0.051	0.235
-469.201	-56.399	-0.104	0.046
-468.186	11.003	0.160	0.123
-467.172	-23.415	-0.217	-0.131
-466.157	0.323	0.190	-0.137
-465.143	-152.037	-0.083	0.006
-464.128	232.427	0.183	0.303
-463.113	77.977	0.154	0.165
-462.099	-200.000	-0.013	0.100
-461.084	-155.776	0.178	-0.011
-460.070	-122.808	0.162	-0.026
-459.055	107.690	-0.120	0.144
-458.040	-156.214	-0.431	-0.027
-457.026	-200.000	0.036	-0.232
-456.011	-94.758	0.241	0.066
-454.997	321.254	0.150	-0.286
-453.982	-51.344	0.289	-0.136
-452.968	357.531	0.196	-0.393
-451.953	11.080	-0.213	-0.164
-450.938	28.013	-0.422	-0.358
-449.924	-31.053	0.302	-0.171
-448.909	124.055	-0.066	-0.083
-447.895	800.000	-0.152	0.430
-446.880	-200.000	-0.072	0.325
-445.865	-143.632	-0.151	0.014
-444.851	-31.195	0.109	-0.062
-443.836	278.769	0.086	0.155
-442.822	-98.928	-0.123	0.031
-441.807	-78.136	0.024	-0.008
-440.792	-200.000	-0.054	0.337
-439.778	13.364	-0.284	0.221
-438.763	637.033	-0.071	0.183
-437.749	369.247	0.094	0.191
-436.734	-25.115	0.208	-0.124
-435.719	106.446	-0.203	-0.242
-434.705	614.064	0.036	-0.092
-433.690	-160.950	-0.496	-0.026
-432.676	800.000	-0.058	-0.195
-431.661	62.451	-0.077	0.078
-430.646	41.235	0.210	-0.191
-429.632	273.918	0.151	-0.269
-428.617	140.772	0.231	0.306
-427.603	-43.398	0.262	0.133
-426.588	-150.903	0.180	-0.014
-425.573	270.093	-0.046	0.081
-424.559	139.930	-0.196	0.260
-423.544	97.265	-0.146	0.169
-422.530	800.000	0.043	-0.183
-421.515	800.000	-0.047	-0.189
-420.500	-200.000	-0.031	0.441
-419.486	-62.072	-0.223	-0.094
-418.471	422.752	0.032	0.069
-417.457	462.666	0.123	-0.275
-416.442	-86.762	0.106	-0.033
-415.428	-101.968	-0.149	0.036
-414.413	-13.193	0.266	-0.174
-413.398	-141.656	-0.426	0.043
-412.384	-37.180	-0.383	0.206
-411.369	-56.975	0.553	-0.245
-410.355	-47.239	-0.198	-0.097
-409.340	192.160	0.143	-0.217
-408.325	367.789	0.186	-0.378
-407.311	800.000	-0.015	-0.047
-406.296	-200.000	0.007	0.300
-405.282	-45.798	0.070	-0.035
-404.267	800.000	0.068	0.194
-403.252	-127.300	0.122	0.018
-402.238	257.768	0.155	-0.268
-401.223	-200.000	-0.021	-0.287
-400.209	533.913	-0.074	-0.176
-399.194	-200.000	0.053	0.253
-398.179	176.267	0.224	0.327
-397.165	256.620	-0.044	-0.077
-396.150	-40.109	0.093	0.049
-395.136	759.101	0.101	0.274
-394.121	-200.000	-0.020	0.114
-393.106	45.810	-0.206	-0.191
-392.092	-92.414	-0.354	0.100
-391.077	288.791	0.108	-0.196
-390.063	75.293	-0.066	0.069
-389.048	16.395	-0.154	0.122
-388.033	-129.727	0.074	0.010
-387.019	796.764	0.057	-0.156
-386.004	-37.126	-0.411	-0.221
-384.990	545.760	-0.121	-0.290
-383.975	32.360	-0.248	0.215
-382.960	28.759	-0.128	-0.109
-381.946	-65.296	-0.156	-0.063
-380.931	348.160	-0.099	-0.196
-379.917	-32.587	-0.188	0.105
-378.902	-101.177	0.072	0.018
-377.888	539.612	0.083	0.199
-376.873	78.038	-0.075	-0.081
-375.858	132.167	0.190	-0.245
-374.844	163.734	-0.126	0.178
-373.829	122.847	-0.093	-0.117
-372.815	11.033	-0.149	-0.114
-371.800	800.000	-0.023	-0.097
-370.785	91.071	-0.141	0.159
-369.771	67.377	0.107	0.110
-368.756	-200.000	-0.063	-0.339
-367.742	-94.734	0.218	-0.059
-366.727	-136.006	0.098	-0.012
-365.712	312.152	-0.057	-0.107
-364.698	78.847	0.121	-0.130
-363.683	61.822	-0.270	-0.270
-362.669	-64.768	-0.075	0.030
-361.654	-67.172	-0.096	0.038
-360.639	71.681	-0.165	-0.172
-359.625	800.000	-0.056	-0.179
-358.610	51.373	-0.123	0.118
-357.596	800.000	0.062	0.194
-356.581	-120.871	0.351	-0.059
-355.566	-122.485	-0.275	-0.045
-354.552	198.995	0.156	0.239
-353.537	800.000	-0.093	-0.268
-352.523	800.000	0.025	-0.103
-351.508	117.326	-0.237	0.292
-350.493	800.000	0.046	-0.135
-349.479	-25.426	0.348	0.206
-348.464	-104.547	-0.239	-0.055
-347.450	-163.894	0.159	-0.007
-346.435	355.444	-0.095	0.190
-345.420	-107.818	-0.224	-0.049
-344.406	-53.871	-0.386	-0.177
-343.391	-200.000	0.038	-0.491
-342.377	18.241	-0.070	0.056
-341.362	-68.644	0.157	0.061
-340.348	16.012	0.285	-0.225
-339.333	-176.847	0.205	0.005
-338.318	347.497	0.107	-0.212
-337.304	-14.810	0.501	0.322
-336.289	-24.752	0.197	-0.117
-335.275	-64.736	0.107	-0.044
-334.260	800.000	0.030	0.128
-333.245	-141.149	-0.163	0.017
-332.231	170.651	-0.030	0.043
-331.216	-200.000	0.047	0.272
-330.202	-200.000	-0.064	0.459
-329.187	125.362	-0.028	-0.035
-328.172	-74.062	0.209	-0.076
-327.158	114.652	-0.120	0.146
-326.143	-70.526	-0.292	0.111
-325.129	-40.023	0.047	0.025
-324.114	800.000	-0.090	-0.257
-323.099	169.606	0.289	-0.413
-322.085	-85.393	-0.112	-0.035
-321.070	686.076	0.066	-0.172
-320.056	666.383	0.036	-0.092
-319.041	763.766	0.024	0.066
-318.026	-35.536	-0.139	0.076
-317.012	-200.000	-0.000	0.152
-315.997	-200.000	0.025	0.164
-314.983	618.738	-0.051	0.128
-313.968	800.000	0.041	0.115
-312.953	-111.796	-0.287	-0.058
-311.939	764.849	0.109	0.295
-310.924	-200.000	0.000	0.070
-309.910	-200.000	-0.024	0.128
-308.895	307.530	-0.070	-0.130
-307.880	48.913	-0.113	-0.106
-306.866	-102.668	0.357	-0.085
-305.851	102.468	0.080	-0.094
-304.837	55.539	0.124	0.120
-303.822	5.399	-0.168	-0.124
-302.807	-200.000	-0.026	-0.124
-301.793	800.000	-0.029	0.118
-300.778	18.381	0.221	0.177
-299.764	695.456	-0.103	-0.270
-298.749	171.740	0.095	-0.136
-297.735	-182.633	-0.307	-0.006
-296.720	800.000	-0.017	-0.068
-295.705	437.685	0.041	-0.089
-294.691	-128.306	-0.367	-0.052
-293.676	345.832	0.094	0.184
-292.662	-70.093	0.341	-0.130
-291.647	144.313	0.076	-0.102
-290.632	39.824	0.120	0.108
-289.618	-124.981	-0.408	-0.063
-288.603	-200.000	-0.031	0.212
-287.589	-200.000	-0.017	-0.365
-286.574	-113.689	-0.299	-0.058
-285.559	-43.976	-0.271	-0.136
-284.545	62.262	0.457	-0.456
-283.530	172.634	-0.154	-0.222
-282.516	-100.983	0.128	0.031
-281.501	173.050	-0.160	0.231
-280.486	-10.508	0.140	-0.093
-279.472	93.204	0.038	-0.043
-278.457	55.465	-0.151	-0.146
-277.443	-8.760	0.271	-0.182
-276.428	-200.000	0.024	0.381
-275.413	-200.000	0.072	-0.408
-274.399	800.000	0.098	0.363
-273.384	86.430	0.194	-0.214
-272.370	563.014	-0.066	0.160
-271.355	800.000	0.036	-0.109
-270.340	800.000	-0.086	-0.254
-269.326	-7.345	-0.160	-0.108
-268.311	-6.221	0.106	-0.072
-267.297	648.433	0.048	-0.123
-266.282	-125.863	-0.133	-0.020
-265.267	47.092	0.282	0.262
-264.253	-18.070	-0.309	0.193
-263.238	-14.724	0.118	0.076
-262.224	55.050	-0.144	0.139
-261.209	415.804	-0.041	0.088
-260.195	-110.079	-0.034	-0.007
-259.180	-106.692	0.204	0.045
-258.165	-1.459	0.182	0.128
-257.151	-200.000	-0.054	0.321
-256.136	60.154	0.246	-0.243
-255.122	357.317	-0.032	0.063
-254.107	78.184	0.174	0.186
-253.092	411.235	0.035	0.075
-252.078	-118.428	-0.188	0.033
-251.063	151.851	-0.283	0.385
-250.049	287.959	-0.106	0.192
-249.034	-48.202	-0.288	0.139
-248.019	430.224	-0.052	-0.112
-247.005	-51.343	0.376	0.176
-245.990	800.000	-0.055	-0.217
-244.976	-200.000	-0.022	0.261
-243.961	-93.057	0.100	0.028
-242.946	208.059	0.141	0.220
-241.932	-63.439	0.379	-0.155
-240.917	-200.000	-0.044	0.219
-239.903	32.868	-0.172	-0.148
-238.888	361.016	-0.124	-0.249
-237.873	-83.594	-0.530	-0.169
-236.859	441.307	0.067	0.146
-235.844	-134.959	0.134	0.016
-234.830	85.878	-0.070	0.077
-233.815	8.599	0.091	0.068
-232.800	-43.416	0.083	0.042
-231.786	19.105	0.216	0.173
-230.771	164.161	0.152	0.213
-229.757	-20.931	-0.306	-0.187
-228.742	618.610	0.091	0.227
-227.727	-148.987	0.078	-0.006
-226.713	191.153	0.053	0.080
-225.698	-109.666	0.175	-0.037
-224.684	7.364	-0.176	0.131
-223.669	-65.286	0.212	0.085
-222.655	-128.199	-0.340	-0.048
-221.640	-200.000	-0.004	0.028
-220.625	61.945	0.209	0.208
-219.611	94.602	0.110	-0.125
-218.596	432.839	0.203	-0.440
-217.582	218.994	0.063	-0.101
-216.567	85.302	0.262	0.287
-215.552	1.615	-0.297	0.213
-214.538	-112.393	0.227	0.045
-213.523	127.436	-0.200	0.253
-212.509	47.062	-0.142	-0.132
-211.494	11.825	-0.179	0.137
-210.479	800.000	-0.038	-0.139
-209.465	-200.000	0.051	-0.307
-208.450	259.672	-0.046	0.080
-207.436	-95.871	0.176	0.047
-206.421	-200.000	-0.059	0.277
-205.406	-84.945	-0.144	-0.045
-204.392	-200.000	0.019	-0.094
-203.377	-53.223	0.299	-0.137
-202.363	633.690	-0.071	-0.179
-201.348	164.242	-0.258	-0.362
-200.333	800.000	0.076	0.249
-199.319	-200.000	-0.014	-0.177
-198.304	800.000	-0.049	-0.174
-197.290	7.969	0.093	0.069
-196.275	-22.992	0.305	-0.183
-195.260	151.976	0.186	0.253
-194.246	-200.000	0.010	-0.122
-193.231	-114.543	0.143	-0.027
-192.217	-16.015	-0.095	0.060
-191.202	-200.000	0.062	-0.285
-190.187	46.334	0.099	-0.092
-189.173	-89.063	-0.217	-0.064
-188.158	141.799	0.150	-0.198
-187.144	800.000	-0.050	-0.179
-186.129	-102.208	-0.315	0.075
-185.114	-120.780	0.179	-0.030
-184.100	-63.682	-0.333	-0.136
-183.085	-76.479	-0.268	-0.094
-182.071	-55.356	-0.189	-0.084
-181.056	-60.687	0.109	0.046
-180.042	-63.436	0.268	-0.110
-179.027	23.276	0.090	-0.073
-178.012	251.087	0.021	-0.036
-176.998	296.501	-0.216	-0.395
-175.983	-48.848	0.080	0.038
-174.969	-200.000	0.001	0.116
-173.954	-200.000	-0.062	0.313
-172.939	800.000	-0.110	0.375
-171.925	-190.598	0.282	0.003
-170.910	-64.621	-0.337	0.136
-169.896	-14.134	0.354	0.227
-168.881	-101.227	-0.066	-0.016
-167.866	-200.000	-0.075	-0.339
-166.852	322.350	-0.139	0.263
-165.837	-200.000	-0.051	0.336
-164.823	18.308	-0.243	-0.193
-163.808	-64.632	0.038	0.015
-162.793	-114.296	-0.315	0.060
-161.779	-200.000	-0.020	-0.218
-160.764	65.182	0.027	0.027
-159.750	800.000	-0.076	0.262
-158.735	55.148	0.135	0.130
-157.720	-12.631	0.100	0.065
-156.706	-200.000	0.054	0.286
-155.691	800.000	0.017	0.048
-154.677	-122.261	0.243	0.040
-153.662	-127.953	-0.311	-0.045
-152.647	-199.446	-0.257	0.001
-151.633	-200.000	-0.041	0.215
-150.618	-61.629	0.103	0.043
-149.604	-97.672	0.389	-0.100
-148.589	-4.415	-0.285	-0.196
-147.574	-200.000	-0.014	0.234
-146.560	383.728	-0.104	-0.213
-145.545	-200.000	-0.026	-0.185
-144.531	62.972	-0.066	0.065
-143.516	76.426	-0.076	0.080
-142.502	-10.670	0.155	-0.102
-141.487	-200.000	-0.000	0.163
-140.472	117.092	0.130	0.158
-139.458	800.000	-0.053	0.166
-138.443	-59.921	0.177	0.075
-137.429	-5.898	-0.127	0.086
-136.414	-34.970	0.164	-0.089
-135.399	7.721	0.149	-0.111
-134.385	99.365	0.066	0.075
-133.370	41.974	0.149	0.134
-132.356	158.896	0.186	0.256
-131.341	-63.604	0.165	0.067
-130.326	-29.910	-0.209	-0.118
-129.312	8.662	0.137	0.102
-128.297	-200.000	-0.012	0.137
-127.283	99.740	0.141	0.163
-126.268	800.000	-0.056	0.186
-125.253	-190.219	-0.240	-0.003
-124.239	-138.464	0.196	0.021
-123.224	171.808	-0.139	-0.199
-122.210	230.660	0.289	-0.470
-121.195	-7.513	0.135	0.091
-120.180	161.650	-0.110	0.153
