DTS Sentinel unit serial number:	SN413079Multiplexer serial number:	ORYXHardware model number:	OX4-SRSoftware version number:	ORYX F/W v4.00 Oryx Data Collector v3.7.2.0data status	okinstallation	princeton_trtdifferential loss correction	single-endedforward channel	channel 3reverse channel	N/Adate	2019/09/17time	22:44:35forward acquisition time	60.00reverse acquisition time	0.00gamma	496.2192k internal	0.2344k external	0.2344temperature offset calibration	0.9948default loss term (dB/km)	0.3790temperature slope calibration	1.0000multiplexer offset coefficient	1.0000multiplexer slope coefficient	1.0000fibre end	0.00T internal ref (°C)	25.06T ext. ref 1 (°C)	0.17T ext. ref 2 (°C)	18.40length (m)	temperature (°C)	Stokes	anti-Stokes-747.200	-120.171	-0.268	0.046
-746.185	-93.943	-0.355	0.098
-745.171	14.642	-0.169	0.132
-744.156	-12.129	-0.169	0.111
-743.142	46.629	0.256	-0.238
-742.127	305.455	0.225	0.418
-741.112	-99.103	-0.293	0.074
-740.098	-26.016	-0.274	0.161
-739.083	-200.000	-0.043	-0.297
-738.069	501.091	-0.139	0.321
-737.054	-161.943	-0.032	0.002
-736.039	-117.733	-0.348	-0.063
-735.025	-57.997	0.114	0.050
-734.010	16.453	-0.206	0.163
-732.996	123.590	-0.177	-0.222
-731.981	-53.989	-0.223	0.102
-730.966	-60.256	-0.435	-0.185
-729.952	205.188	0.055	0.086
-728.937	-121.920	0.196	-0.032
-727.923	-200.000	0.001	0.044
-726.908	5.708	0.132	0.097
-725.894	-178.913	-0.273	-0.006
-724.879	27.460	-0.216	-0.182
-723.864	-34.106	-0.262	-0.144
-722.850	-103.599	-0.173	-0.041
-721.835	800.000	-0.036	-0.148
-720.821	-32.325	0.128	0.071
-719.806	800.000	0.045	-0.177
-718.791	-200.000	0.019	-0.195
-717.777	307.377	0.090	-0.167
-716.762	-31.694	-0.121	-0.068
-715.748	-0.276	-0.205	-0.146
-714.733	766.168	0.096	0.260
-713.718	20.665	0.078	-0.063
-712.704	-67.374	-0.276	-0.109
-711.689	-200.000	0.001	-0.069
-710.675	-135.281	0.266	-0.032
-709.660	-39.992	0.246	-0.128
-708.645	-200.000	-0.046	-0.226
-707.631	800.000	-0.087	-0.310
-706.616	-82.687	0.413	-0.133
-705.602	703.110	-0.055	-0.145
-704.587	285.737	0.032	-0.057
-703.572	121.856	-0.194	-0.242
-702.558	800.000	-0.077	-0.248
-701.543	133.018	0.112	-0.144
-700.529	-72.248	-0.160	0.059
-699.514	579.638	-0.087	0.212
-698.499	-118.824	0.049	0.009
-697.485	56.960	-0.091	0.088
-696.470	-200.000	-0.011	0.309
-695.456	39.607	-0.277	-0.248
-694.441	-112.310	0.007	0.001
-693.426	528.600	-0.125	0.294
-692.412	130.113	0.058	0.075
-691.397	-200.000	0.005	0.175
-690.383	475.065	-0.071	0.159
-689.368	-200.000	-0.015	-0.312
-688.354	132.442	0.327	0.421
-687.339	125.821	-0.032	0.041
-686.324	288.586	0.006	0.011
-685.310	273.122	-0.037	-0.064
-684.295	-200.000	-0.040	-0.235
-683.281	800.000	-0.046	-0.147
-682.266	-69.718	0.115	0.044
-681.251	800.000	-0.061	-0.175
-680.237	-200.000	-0.065	-0.324
-679.222	-200.000	-0.024	-0.000
-678.208	-200.000	0.038	-0.229
-677.193	-200.000	0.018	0.401
-676.178	800.000	-0.107	0.297
-675.164	-74.126	-0.219	0.079
-674.149	-166.723	0.312	0.013
-673.135	-154.772	0.107	-0.007
-672.120	-200.000	0.008	0.090
-671.105	-51.053	-0.317	0.148
-670.091	-200.000	0.006	0.072
-669.076	-138.970	0.160	-0.017
-668.062	359.051	-0.036	-0.071
-667.047	-200.000	-0.038	0.200
-666.032	-200.000	0.006	-0.116
-665.018	-45.699	-0.079	-0.039
-664.003	-200.000	-0.054	-0.273
-662.989	184.789	0.094	0.139
-661.974	-102.870	-0.390	-0.093
-660.959	-86.634	0.309	-0.095
-659.945	264.669	0.063	-0.109
-658.930	-132.437	-0.242	-0.031
-657.916	88.925	0.059	-0.066
-656.901	335.415	-0.190	0.367
-655.886	168.476	-0.069	-0.098
-654.872	800.000	0.098	-0.277
-653.857	-138.017	0.094	-0.010
-652.843	-77.822	-0.145	-0.050
-651.828	-200.000	-0.001	0.013
-650.814	78.252	-0.136	-0.145
-649.799	-200.000	0.000	0.061
-648.784	13.601	-0.150	0.116
-647.770	690.049	0.077	-0.200
-646.755	176.811	-0.198	0.287
-645.741	-24.522	0.097	0.058
-644.726	-48.511	-0.205	-0.098
-643.711	-29.186	-0.125	-0.071
-642.697	-52.513	-0.337	-0.155
-641.682	-200.000	-0.012	-0.057
-640.668	-200.000	0.034	-0.445
-639.653	-60.472	-0.244	0.103
-638.638	-200.000	0.000	-0.012
-637.624	-200.000	-0.006	-0.130
-636.609	-200.000	-0.006	0.050
-635.595	757.859	0.070	0.189
-634.580	800.000	0.061	0.240
-633.565	-98.374	-0.166	-0.042
-632.551	-123.136	-0.054	-0.009
-631.536	370.905	0.174	0.351
-630.522	165.478	-0.109	-0.154
-629.507	-132.382	0.072	-0.009
-628.492	-200.000	0.002	0.260
-627.478	91.594	-0.340	-0.381
-626.463	800.000	-0.088	0.271
-625.449	-13.309	-0.261	-0.169
-624.434	-49.045	0.100	-0.048
-623.419	800.000	-0.052	-0.151
-622.405	8.218	0.076	0.057
-621.390	-29.673	-0.173	0.098
-620.376	771.147	0.038	-0.104
-619.361	490.368	0.022	0.050
-618.346	-200.000	-0.102	-0.518
-617.332	104.485	-0.272	-0.319
-616.317	-106.545	0.201	-0.045
-615.303	-200.000	-0.023	0.146
-614.288	188.791	-0.169	-0.251
-613.273	71.221	-0.183	-0.189
-612.259	12.966	0.215	-0.166
-611.244	-34.727	-0.084	-0.046
-610.230	800.000	-0.066	-0.286
-609.215	-88.182	-0.154	-0.046
-608.201	-54.101	-0.114	0.052
-607.186	18.998	-0.209	0.167
-606.171	15.022	0.188	-0.147
-605.157	4.165	-0.186	-0.135
-604.142	-37.724	-0.247	-0.131
-603.128	40.364	-0.133	-0.119
-602.113	-36.994	-0.258	0.138
-601.098	-81.629	0.274	-0.090
-600.084	65.898	0.060	0.061
-599.069	290.118	-0.219	0.395
-598.055	787.229	0.075	-0.205
-597.040	792.689	0.101	-0.278
-596.025	-135.832	-0.123	-0.014
-595.011	-200.000	-0.000	-0.178
-593.996	65.210	0.128	-0.129
-592.982	111.358	-0.057	0.068
-591.967	-168.678	0.257	0.010
-590.952	-200.000	-0.000	0.043
-589.938	-119.834	-0.225	0.039
-588.923	-200.000	0.025	0.161
-587.909	26.703	0.189	0.158
-586.894	800.000	-0.031	0.119
-585.879	-200.000	0.026	-0.146
-584.865	-106.031	0.216	0.048
-583.850	-135.054	-0.207	0.025
-582.836	-90.582	-0.169	-0.049
-581.821	-200.000	0.000	0.182
-580.806	163.665	0.146	0.204
-579.792	-200.000	0.030	0.282
-578.777	-200.000	-0.014	0.140
-577.763	-15.156	0.038	-0.024
-576.748	52.035	0.116	0.110
-575.733	-150.851	-0.218	-0.016
-574.719	452.395	0.106	-0.233
-573.704	800.000	-0.118	0.330
-572.690	221.755	0.105	0.169
-571.675	800.000	-0.058	0.210
-570.661	800.000	-0.049	0.212
-569.646	-116.115	-0.092	0.017
-568.631	79.505	0.022	-0.023
-567.617	58.267	-0.208	-0.202
-566.602	11.439	0.212	0.161
-565.588	150.098	-0.169	-0.227
-564.573	-51.362	0.308	-0.143
-563.558	33.297	-0.142	0.123
-562.544	169.988	0.124	0.176
-561.529	33.997	0.178	0.154
-560.515	-5.207	-0.178	-0.122
-559.500	658.916	-0.116	0.296
-558.485	88.292	0.138	-0.152
-557.471	-200.000	-0.060	-0.294
-556.456	148.629	0.116	-0.155
-555.442	157.863	-0.091	-0.125
-554.427	294.479	-0.170	-0.308
-553.412	25.144	0.119	0.098
-552.398	-13.420	-0.235	0.152
-551.383	24.733	0.472	0.389
-550.369	-200.000	-0.018	0.119
-549.354	-35.093	0.239	0.129
-548.339	168.819	0.182	-0.257
-547.325	381.688	0.157	0.320
-546.310	-200.000	0.026	0.352
-545.296	-99.925	-0.318	-0.079
-544.281	195.010	-0.069	-0.104
-543.266	266.404	0.149	0.259
-542.252	512.845	-0.079	0.183
-541.237	-23.397	-0.060	0.036
-540.223	-200.000	0.034	-0.179
-539.208	-114.815	-0.230	-0.044
-538.193	-123.208	-0.048	-0.008
-537.179	-36.390	0.144	-0.077
-536.164	69.567	-0.167	-0.171
-535.150	149.232	-0.126	0.170
-534.135	-105.471	-0.068	-0.015
-533.121	51.532	0.160	-0.150
-532.106	97.559	-0.212	0.242
-531.091	57.218	-0.173	-0.167
-530.077	-148.125	-0.195	0.016
-529.062	800.000	0.024	-0.084
-528.048	61.216	0.120	0.118
-527.033	56.649	-0.113	0.109
-526.018	-200.000	-0.026	0.124
-525.004	-69.530	0.031	0.012
-523.989	49.245	0.179	-0.167
-522.975	44.442	-0.225	-0.205
-521.960	-139.412	-0.064	-0.007
-520.945	-63.490	0.313	0.127
-519.931	146.604	-0.037	0.049
-518.916	-30.681	0.168	-0.095
-517.902	167.150	0.087	-0.123
-516.887	-200.000	-0.028	0.232
-515.872	56.403	0.059	-0.057
-514.858	322.912	-0.174	-0.328
-513.843	-0.762	0.241	-0.169
-512.829	800.000	0.039	-0.112
-511.814	25.505	-0.239	-0.197
-510.799	43.820	0.207	-0.188
-509.785	-109.011	-0.165	0.035
-508.770	-200.000	-0.014	-0.062
-507.756	31.625	-0.067	-0.057
-506.741	52.397	0.241	0.228
-505.726	-140.723	-0.327	-0.034
-504.712	0.283	-0.134	-0.095
-503.697	-57.882	-0.207	-0.090
-502.683	-39.527	0.322	0.167
-501.668	18.973	-0.185	-0.147
-500.653	-200.000	-0.003	-0.027
-499.639	-111.622	-0.047	-0.010
-498.624	-83.480	0.301	0.095
-497.610	421.823	-0.048	-0.101
-496.595	800.000	-0.059	-0.172
-495.581	665.825	-0.067	0.170
-494.566	6.803	-0.271	-0.200
-493.551	-41.107	-0.278	0.142
-492.537	260.297	0.084	-0.145
-491.522	-39.733	0.247	0.128
-490.508	752.516	0.071	-0.190
-489.493	-57.097	0.275	0.120
-488.478	-200.000	-0.017	-0.386
-487.464	-173.667	-0.280	0.008
-486.449	220.160	-0.043	-0.069
-485.435	79.294	0.145	0.154
-484.420	35.879	-0.292	0.255
-483.405	-48.351	0.107	0.051
-482.391	414.565	-0.061	0.130
-481.376	-98.481	0.013	0.003
-480.362	-66.304	0.273	-0.107
-479.347	-116.964	-0.320	-0.058
-478.332	187.888	0.044	-0.066
-477.318	-28.032	-0.218	0.125
-476.303	13.276	0.172	0.132
-475.289	-200.000	-0.018	0.313
-474.274	-200.000	0.040	-0.390
-473.259	119.021	0.013	0.016
-472.245	270.548	-0.068	0.119
-471.230	-200.000	0.042	0.203
-470.216	-31.487	-0.080	0.045
-469.201	-99.126	-0.173	-0.043
-468.186	-200.000	-0.041	-0.284
-467.172	-113.320	0.198	-0.039
-466.157	95.495	0.119	0.135
-465.143	-200.000	-0.010	0.081
-464.128	101.399	0.128	-0.148
-463.113	-200.000	0.007	-0.194
-462.099	-96.668	-0.239	0.062
-461.084	25.728	-0.180	-0.149
-460.070	2.852	-0.178	-0.128
-459.055	-129.172	-0.157	-0.022
-458.040	-200.000	-0.003	0.381
-457.026	552.213	0.051	-0.122
-456.011	125.653	-0.262	-0.328
-454.997	-124.226	-0.124	-0.019
-453.982	-126.070	0.322	0.048
-452.968	-62.241	-0.153	0.063
-451.953	-129.244	-0.151	0.021
-450.938	7.476	0.150	0.111
-449.924	800.000	0.027	0.090
-448.909	-135.264	-0.283	-0.034
-447.895	-64.098	0.373	0.151
-446.880	-84.691	-0.329	-0.102
-445.865	28.056	0.181	-0.151
-444.851	-64.388	0.408	0.164
-443.836	287.203	-0.130	-0.233
-442.822	81.911	0.133	-0.142
-441.807	-118.938	0.403	0.070
-440.792	-82.853	0.223	0.071
-439.778	254.489	0.028	-0.047
-438.763	15.012	0.021	0.016
-437.749	-107.570	-0.558	-0.121
-436.734	142.802	0.108	-0.143
-435.719	800.000	-0.092	0.305
-434.705	-200.000	-0.042	0.618
-433.690	-77.372	0.166	0.057
-432.676	-40.294	0.331	-0.170
-431.661	800.000	-0.042	-0.158
-430.646	-200.000	0.006	-0.071
-429.632	-200.000	0.084	-0.496
-428.617	474.617	0.116	-0.259
-427.603	800.000	0.114	-0.387
-426.588	535.062	0.130	-0.305
-425.573	-200.000	0.053	0.255
-424.559	-200.000	0.002	0.379
-423.544	-142.532	0.076	-0.007
-422.530	-179.826	-0.141	-0.003
-421.515	544.417	-0.070	0.165
-420.500	-137.753	0.184	0.020
-419.486	800.000	0.057	-0.187
-418.471	-47.334	0.225	0.108
-417.457	136.523	-0.157	0.202
-416.442	800.000	-0.031	0.085
-415.428	-197.092	0.343	-0.002
-414.413	126.242	0.179	0.224
-413.398	622.677	-0.139	-0.347
-412.384	-200.000	0.004	0.118
-411.369	99.589	-0.176	0.201
-410.355	800.000	0.037	0.124
-409.340	-155.437	-0.085	-0.005
-408.325	-21.352	0.209	0.126
-407.311	179.820	0.065	0.094
-406.296	244.937	-0.009	0.014
-405.282	-200.000	0.019	0.202
-404.267	-200.000	-0.031	-0.227
-403.252	-123.913	0.120	-0.019
-402.238	225.670	-0.112	-0.179
-401.223	-12.522	0.110	-0.071
-400.209	-162.326	0.283	0.014
-399.194	57.179	0.141	-0.136
-398.179	-97.844	-0.135	-0.034
-397.165	694.981	-0.082	-0.213
-396.150	155.060	0.245	0.333
-395.136	-28.110	-0.223	0.127
-394.121	-186.514	0.202	-0.003
-393.106	-57.960	0.127	0.055
-392.092	-200.000	0.012	0.212
-391.077	-200.000	0.015	0.359
-390.063	-116.884	0.167	-0.030
-389.048	22.177	0.056	0.045
-388.033	-188.660	-0.376	0.005
-387.019	101.731	-0.304	0.350
-386.004	260.827	-0.183	-0.312
-384.990	145.498	0.220	0.291
-383.975	-200.000	-0.054	0.412
-382.960	-13.155	-0.161	-0.103
-381.946	-200.000	-0.033	-0.154
-380.931	-200.000	0.004	0.064
-379.917	502.096	-0.064	-0.146
-378.902	-120.407	0.128	0.022
-377.888	-200.000	0.004	-0.144
-376.873	-59.462	0.299	0.127
-375.858	-200.000	-0.025	-0.167
-374.844	29.076	-0.132	-0.110
-373.829	-65.730	-0.359	-0.142
-372.815	36.195	0.109	0.095
-371.800	-80.665	0.103	0.034
-370.785	444.021	0.081	0.175
-369.771	163.182	-0.093	0.128
-368.756	-200.000	-0.000	-0.155
-367.742	-200.000	-0.037	0.252
-366.727	800.000	0.041	-0.115
-365.712	800.000	-0.053	0.159
-364.698	800.000	0.040	-0.165
-363.683	-140.675	0.459	0.047
-362.669	-97.633	0.191	-0.049
-361.654	800.000	0.091	0.384
-360.639	-75.130	0.117	-0.041
-359.625	-144.250	-0.240	-0.022
-358.610	-43.767	-0.237	-0.118
-357.596	467.383	-0.077	-0.171
-356.581	231.162	-0.211	0.340
-355.566	-200.000	0.010	-0.144
-354.552	51.639	0.053	0.049
-353.537	55.871	0.189	-0.180
-352.523	-124.019	0.559	-0.087
-351.508	800.000	0.054	-0.192
-350.493	-200.000	0.052	-0.260
-349.479	-106.409	0.184	-0.041
-348.464	-100.188	0.278	-0.068
-347.450	-7.726	-0.176	-0.117
-346.435	-65.118	0.234	0.093
-345.420	-54.056	0.080	-0.036
-344.406	-50.411	0.211	0.098
-343.391	800.000	0.087	-0.259
-342.377	111.676	-0.143	0.171
-341.362	-200.000	-0.032	-0.233
-340.348	264.905	-0.202	-0.348
-339.333	-200.000	-0.026	0.187
-338.318	800.000	0.019	-0.064
-337.304	-70.084	-0.252	-0.094
-336.289	-52.351	0.502	0.229
-335.275	292.375	0.044	-0.080
-334.260	259.026	0.045	0.076
-333.245	117.088	-0.118	0.143
-332.231	-31.312	0.163	0.091
-331.216	-51.009	0.177	-0.082
-330.202	-200.000	-0.009	-0.060
-329.187	-68.782	-0.201	-0.077
-328.172	41.980	-0.225	-0.201
-327.158	-160.460	-0.373	0.020
-326.143	80.499	0.250	-0.265
-325.129	-174.697	-0.036	0.001
-324.114	-41.201	-0.236	0.120
-323.099	278.199	0.301	-0.528
-322.085	739.626	-0.132	0.348
-321.070	93.557	0.224	0.250
-320.056	800.000	0.066	-0.274
-319.041	287.559	-0.057	0.102
-318.026	-39.036	-0.025	-0.013
-317.012	-200.000	-0.048	0.577
-315.997	-93.194	0.223	0.061
-314.983	-82.980	0.426	-0.135
-313.968	4.095	0.113	-0.081
-312.953	3.743	0.125	0.090
-311.939	800.000	-0.060	-0.193
-310.924	-137.659	-0.255	-0.028
-309.910	-200.000	0.007	-0.101
-308.895	84.041	0.305	0.328
-307.880	-63.981	0.217	0.087
-306.866	-200.000	0.007	-0.312
-305.851	-169.025	0.249	-0.009
-304.837	-200.000	-0.006	-0.077
-303.822	222.283	0.167	0.265
-302.807	-36.774	0.215	-0.114
-301.793	800.000	-0.041	-0.168
-300.778	67.408	0.337	-0.338
-299.764	446.456	-0.101	-0.219
-298.749	111.433	0.060	0.071
-297.735	-200.000	-0.023	-0.249
-296.720	-172.635	-0.134	0.004
-295.705	-200.000	-0.010	0.191
-294.691	-69.372	0.063	-0.024
-293.676	195.124	0.113	0.169
-292.662	800.000	-0.090	-0.368
-291.647	-83.882	0.231	-0.072
-290.632	-72.113	0.013	0.005
-289.618	-200.000	0.012	-0.102
-288.603	198.449	0.068	0.102
-287.589	-81.603	-0.136	0.044
-286.574	267.171	0.092	-0.158
-285.559	193.813	-0.197	0.293
-284.545	214.846	-0.103	-0.161
-283.530	4.985	0.068	0.049
-282.516	-169.069	-0.078	-0.003
-281.501	-88.750	-0.204	-0.060
-280.486	182.796	-0.007	0.010
-279.472	293.371	0.032	0.057
-278.457	-200.000	-0.028	0.138
-277.443	-130.418	-0.053	-0.007
-276.428	75.975	0.160	0.166
-275.413	76.490	0.388	0.404
-274.399	-64.805	-0.336	-0.133
-273.384	-71.667	0.287	-0.105
-272.370	800.000	0.154	-0.418
-271.355	-23.253	-0.165	-0.097
-270.340	-200.000	-0.026	0.123
-269.326	-9.356	0.132	-0.087
-268.311	-200.000	-0.028	-0.161
-267.297	101.457	-0.232	0.265
-266.282	11.839	0.143	-0.108
-265.267	-76.971	-0.080	-0.027
-264.253	-27.209	0.288	-0.165
-263.238	106.015	-0.121	0.141
-262.224	800.000	0.104	0.338
-261.209	-33.069	-0.212	0.116
-260.195	-65.933	0.208	-0.082
-259.180	42.303	-0.271	-0.242
-258.165	-24.789	-0.105	-0.061
-257.151	23.280	0.128	0.103
-256.136	82.444	-0.221	0.236
-255.122	-200.000	-0.081	0.391
-254.107	-38.566	0.118	-0.061
-253.092	-12.473	0.076	0.049
-252.078	59.182	0.214	0.207
-251.063	800.000	-0.126	0.511
-250.049	800.000	0.061	-0.218
-249.034	431.051	-0.244	-0.520
-248.019	-103.755	-0.192	0.044
-247.005	2.237	0.140	0.099
-245.990	-130.558	0.220	-0.029
-244.976	800.000	-0.043	-0.149
-243.961	800.000	0.052	-0.203
-242.946	77.179	0.055	-0.058
-241.932	-94.508	0.082	-0.022
-240.917	-200.000	-0.010	0.056
-239.903	219.459	0.151	-0.238
-238.888	22.437	-0.199	0.160
-237.873	-161.598	0.548	0.028
-236.859	-59.647	-0.231	-0.097
-235.844	800.000	0.006	-0.018
-234.830	-200.000	-0.016	0.462
-233.815	-200.000	-0.025	-0.145
-232.800	477.671	-0.135	-0.299
-231.786	800.000	-0.040	0.137
-230.771	-110.752	-0.221	-0.045
-229.757	-200.000	0.015	0.169
-228.742	147.058	0.237	-0.312
-227.727	800.000	-0.046	0.167
-226.713	542.012	0.032	-0.074
-225.698	633.218	-0.103	0.256
-224.684	-144.695	-0.180	-0.016
-223.669	267.176	0.056	0.096
-222.655	137.757	0.052	0.067
-221.640	560.621	-0.092	0.218
-220.625	107.507	-0.287	-0.335
-219.611	-200.000	-0.011	0.281
-218.596	-167.395	0.210	-0.008
-217.582	-127.794	-0.113	-0.016
-216.567	118.111	-0.225	0.272
-215.552	-67.400	-0.098	0.038
-214.538	-67.003	0.169	-0.066
-213.523	-104.837	-0.147	-0.033
-212.509	55.992	-0.093	-0.089
-211.494	213.282	-0.112	0.174
-210.479	-90.747	-0.123	-0.035
-209.465	-9.256	0.154	-0.101
-208.450	503.607	-0.206	0.467
-207.436	-42.940	-0.236	0.117
-206.421	-131.081	-0.331	-0.043
-205.406	-178.031	-0.311	0.007
-204.392	72.789	-0.218	0.223
-203.377	137.305	0.136	0.174
-202.363	-200.000	0.021	0.102
-201.348	800.000	-0.025	0.086
-200.333	22.749	-0.101	0.081
-199.319	34.467	0.136	-0.116
-198.304	583.752	0.095	0.228
-197.290	263.702	0.043	0.074
-196.275	-88.908	-0.109	-0.032
-195.260	-114.312	0.200	-0.038
-194.246	282.831	-0.131	-0.230
-193.231	162.351	0.111	0.153
-192.217	184.599	-0.138	-0.200
-191.202	88.851	0.066	-0.072
-190.187	158.332	0.083	0.112
-189.173	224.194	0.195	-0.309
-188.158	233.302	-0.077	-0.124
-187.144	275.675	0.090	0.156
-186.129	800.000	0.028	-0.115
-185.114	-119.673	0.338	-0.057
-184.100	-65.797	-0.020	0.008
-183.085	-115.090	-0.153	-0.028
-182.071	41.088	0.197	0.174
-181.056	-58.488	-0.328	-0.140
-180.042	190.110	0.059	0.087
-179.027	67.396	-0.255	-0.254
-178.012	-200.000	-0.004	0.222
-176.998	-145.769	-0.263	0.023
-175.983	-91.165	-0.431	-0.121
-174.969	-22.035	0.147	-0.087
-173.954	688.700	-0.069	-0.177
-172.939	226.816	-0.087	0.138
-171.925	800.000	0.102	-0.361
-170.910	-67.823	-0.019	0.007
-169.896	613.192	0.058	0.142
-168.881	-55.112	0.304	0.134
-167.866	343.139	0.064	0.122
-166.852	-134.114	-0.319	-0.039
-165.837	-109.373	0.284	0.059
-164.823	44.459	0.146	0.131
-163.808	-200.000	0.012	-0.199
-162.793	-53.169	0.252	0.113
-161.779	-200.000	0.114	0.530
-160.764	-7.277	0.013	0.009
-159.750	637.233	-0.023	0.057
-158.735	800.000	-0.092	0.372
-157.720	-57.256	0.213	0.092
-156.706	-55.168	-0.186	-0.082
-155.691	277.104	-0.065	0.113
-154.677	128.565	-0.161	-0.201
-153.662	-185.580	-0.197	-0.003
-152.647	-122.281	0.300	-0.048
-151.633	501.660	0.186	-0.421
-150.618	135.914	0.153	-0.194
-149.604	800.000	-0.052	0.169
-148.589	34.923	-0.116	0.099
-147.574	307.275	-0.140	0.255
-146.560	28.794	-0.224	0.186
-145.545	137.591	-0.171	-0.219
-144.531	-102.627	0.298	-0.070
-143.516	800.000	0.034	-0.125
-142.502	-200.000	0.027	-0.165
-141.487	-37.822	0.233	0.121
-140.472	-200.000	-0.031	0.269
-139.458	800.000	0.099	-0.282
-138.443	-130.212	0.163	-0.022
-137.429	-142.468	0.075	0.007
-136.414	74.892	0.025	-0.025
-135.399	97.317	0.130	-0.146
-134.385	-200.000	-0.027	-0.221
-133.370	-102.983	0.305	0.071
-132.356	-22.187	-0.031	-0.018
-131.341	-127.147	0.230	-0.033
-130.326	-200.000	-0.043	-0.207
-129.312	-67.169	-0.317	0.122
-128.297	800.000	-0.051	0.163
-127.283	-47.239	-0.114	0.054
-126.268	398.580	-0.074	0.151
-125.253	-41.100	-0.435	-0.219
-124.239	-127.218	-0.266	0.038
-123.224	232.891	0.248	-0.398
-122.210	54.990	-0.030	-0.029
