DTS Sentinel unit serial number:	SN413079Multiplexer serial number:	ORYXHardware model number:	OX4-SRSoftware version number:	ORYX F/W v4.00 Oryx Data Collector v3.7.2.0data status	okinstallation	princeton_trtdifferential loss correction	single-endedforward channel	channel 3reverse channel	N/Adate	2019/09/18time	20:08:35forward acquisition time	60.00reverse acquisition time	0.00gamma	496.2192k internal	0.2331k external	0.2331temperature offset calibration	1.0009default loss term (dB/km)	0.3790temperature slope calibration	1.0000multiplexer offset coefficient	1.0000multiplexer slope coefficient	1.0000fibre end	0.00T internal ref (°C)	29.75T ext. ref 1 (°C)	1.03T ext. ref 2 (°C)	20.35length (m)	temperature (°C)	Stokes	anti-Stokes-747.200	-43.696	0.290	-0.147
-746.185	184.650	0.161	-0.240
-745.171	246.964	0.054	0.092
-744.156	170.424	0.164	0.237
-743.142	-136.754	-0.149	-0.017
-742.127	-59.926	-0.383	0.165
-741.112	-200.000	0.003	0.099
-740.098	-15.338	0.068	0.044
-739.083	534.645	0.059	0.141
-738.069	265.905	-0.222	0.390
-737.054	-31.881	0.009	0.005
-736.039	-42.013	-0.185	-0.096
-735.025	-200.000	0.041	0.185
-734.010	-200.000	0.003	-0.263
-732.996	-95.720	0.059	-0.016
-731.981	-200.000	0.025	-0.311
-730.966	800.000	0.010	0.043
-729.952	410.720	0.206	-0.440
-728.937	449.473	-0.072	-0.160
-727.923	-144.972	-0.194	0.018
-726.908	-187.423	-0.136	-0.002
-725.894	630.985	-0.065	-0.165
-724.879	34.657	-0.147	-0.129
-723.864	204.768	0.046	-0.071
-722.850	103.447	0.030	-0.035
-721.835	59.573	-0.112	-0.111
-720.821	88.171	-0.129	0.144
-719.806	800.000	0.065	0.245
-718.791	216.572	0.076	0.122
-717.777	-200.000	0.012	0.250
-716.762	-200.000	0.061	-0.287
-715.748	29.267	-0.230	0.196
-714.733	240.375	-0.122	0.205
-713.718	37.135	-0.233	0.207
-712.704	-200.000	0.004	-0.196
-711.689	208.404	0.074	-0.116
-710.675	415.684	0.084	0.180
-709.660	206.506	-0.172	0.270
-708.645	-86.047	0.200	0.062
-707.631	-121.386	0.117	-0.020
-706.616	-87.609	0.112	-0.034
-705.602	-65.218	-0.128	0.052
-704.587	800.000	-0.087	-0.274
-703.572	485.062	-0.116	-0.266
-702.558	137.264	0.208	-0.273
-701.543	12.815	0.086	0.067
-700.529	12.981	0.051	-0.040
-699.514	0.941	-0.290	-0.209
-698.499	-200.000	-0.018	-0.267
-697.485	7.283	0.105	-0.079
-696.470	16.858	0.121	0.096
-695.456	-38.836	-0.051	0.027
-694.441	-94.061	0.288	-0.079
-693.426	-200.000	0.001	0.376
-692.412	-106.188	-0.408	-0.092
-691.397	-183.578	-0.230	0.004
-690.383	-200.000	0.012	-0.275
-689.368	-200.000	-0.014	-0.280
-688.354	-63.823	0.076	-0.031
-687.339	471.669	0.138	-0.311
-686.324	490.343	0.172	0.396
-685.310	229.881	-0.118	0.193
-684.295	204.547	-0.090	-0.140
-683.281	-15.580	-0.140	0.090
-682.266	-139.218	0.283	-0.031
-681.251	-45.444	0.054	0.027
-680.237	151.832	-0.159	-0.217
-679.222	-17.739	-0.285	0.179
-678.208	-43.380	-0.192	-0.097
-677.193	103.919	0.128	0.151
-676.178	235.812	-0.152	-0.252
-675.164	-84.714	-0.162	-0.051
-674.149	272.141	0.142	-0.252
-673.135	438.389	0.097	-0.213
-672.120	-200.000	-0.044	-0.204
-671.105	82.924	0.178	-0.195
-670.091	377.509	-0.100	0.206
-669.076	-126.724	-0.236	0.035
-668.062	-200.000	0.034	-0.158
-667.047	275.527	0.032	-0.057
-666.032	363.635	-0.046	-0.093
-665.018	4.540	0.059	0.043
-664.003	231.362	-0.034	-0.057
-662.989	-91.366	0.086	-0.025
-661.974	-115.725	-0.260	0.049
-660.959	-82.266	0.219	-0.072
-659.945	-58.725	-0.238	-0.104
-658.930	-118.223	-0.276	-0.049
-657.916	-200.000	0.019	0.199
-656.901	-159.623	0.444	-0.025
-655.886	329.285	0.026	-0.049
-654.872	-139.717	0.453	0.048
-653.857	158.895	-0.068	-0.095
-652.843	-0.488	-0.118	0.084
-651.828	-195.536	0.048	-0.000
-650.814	231.521	-0.043	0.071
-649.799	-150.056	-0.391	-0.030
-648.784	-6.696	0.150	-0.103
-647.770	5.140	-0.204	-0.151
-646.755	-126.019	-0.058	0.009
-645.741	-106.011	-0.133	0.030
-644.726	99.923	0.219	0.254
-643.711	-11.398	0.139	-0.092
-642.697	800.000	-0.040	-0.139
-641.682	-57.114	-0.167	0.074
-640.668	-11.090	-0.192	0.127
-639.653	18.755	-0.097	0.078
-638.638	800.000	0.093	0.341
-637.624	148.391	-0.163	0.220
-636.609	-150.584	-0.311	0.024
-635.595	-46.591	-0.387	0.190
-634.580	267.659	0.095	0.166
-633.565	13.404	0.139	-0.108
-632.551	30.943	0.120	-0.103
-631.536	-119.091	-0.012	0.002
-630.522	800.000	0.009	0.038
-629.507	-193.337	-0.261	-0.002
-628.492	-118.082	0.157	0.028
-627.478	-200.000	-0.048	0.342
-626.463	-166.859	-0.209	-0.009
-625.449	10.214	-0.348	-0.265
-624.434	-56.523	-0.037	0.016
-623.419	-200.000	0.045	0.276
-622.405	-92.159	-0.301	-0.085
-621.390	-23.362	-0.140	0.084
-620.376	-170.857	0.310	0.011
-619.361	-150.437	-0.288	0.022
-618.346	82.248	0.179	-0.194
-617.332	225.269	0.153	-0.248
-616.317	-200.000	0.015	-0.142
-615.303	800.000	0.089	-0.384
-614.288	-157.075	0.126	0.008
-613.273	-175.976	0.103	-0.003
-612.259	664.475	-0.043	0.111
-611.244	-45.344	0.218	-0.108
-610.230	-7.183	0.184	0.125
-609.215	63.586	-0.084	-0.085
-608.201	-120.387	-0.190	-0.032
-607.186	-34.137	0.206	0.113
-606.171	-40.191	0.383	0.200
-605.157	-21.666	0.076	0.047
-604.142	121.462	0.146	-0.182
-603.128	-63.370	-0.153	0.063
-602.113	25.933	-0.194	-0.162
-601.098	-200.000	0.009	0.158
-600.084	-94.240	-0.213	0.058
-599.069	-200.000	0.001	-0.199
-598.055	-65.045	0.115	0.046
-597.040	800.000	-0.049	-0.208
-596.025	306.604	-0.180	-0.336
-595.011	-52.939	-0.402	0.185
-593.996	-96.071	0.191	-0.051
-592.982	-39.092	0.171	-0.090
-591.967	16.978	-0.224	-0.178
-590.952	313.211	-0.138	0.260
-589.938	-200.000	0.013	0.066
-588.923	-73.067	0.348	-0.128
-587.909	-62.688	-0.145	0.060
-586.894	-150.180	-0.309	0.024
-585.879	-113.098	0.075	-0.015
-584.865	-78.340	-0.200	-0.069
-583.850	800.000	-0.037	0.142
-582.836	252.847	-0.037	-0.063
-581.821	-76.049	-0.256	-0.090
-580.806	-139.180	0.148	-0.016
-579.792	247.224	-0.024	-0.041
-578.777	145.641	-0.131	-0.175
-577.763	-200.000	-0.016	-0.205
-576.748	-200.000	-0.048	-0.249
-575.733	23.365	-0.192	-0.158
-574.719	-33.463	0.235	-0.130
-573.704	511.194	0.086	-0.200
-572.690	-115.257	-0.278	0.053
-571.675	-10.450	-0.319	0.211
-570.661	-114.719	-0.228	0.044
-569.646	62.407	0.127	0.127
-568.631	20.912	-0.069	-0.056
-567.617	-71.142	-0.258	-0.097
-566.602	-31.564	-0.243	0.137
-565.588	580.285	-0.072	0.176
-564.573	-142.899	-0.305	0.030
-563.558	-182.097	0.085	0.002
-562.544	19.967	-0.110	-0.089
-561.529	-200.000	0.003	-0.119
-560.515	-135.893	-0.425	0.050
-559.500	-75.880	0.125	-0.044
-558.485	384.995	-0.162	-0.334
-557.471	-200.000	0.009	-0.335
-556.456	-100.441	0.211	-0.052
-555.442	-200.000	-0.005	-0.027
-554.427	10.102	0.316	0.240
-553.412	-200.000	0.011	-0.355
-552.398	800.000	0.068	0.231
-551.383	-200.000	-0.023	-0.106
-550.369	-107.270	-0.251	-0.055
-549.354	60.549	0.278	-0.275
-548.339	207.440	0.109	0.171
-547.325	-32.183	-0.271	0.151
-546.310	75.720	-0.113	0.119
-545.296	800.000	-0.012	0.051
-544.281	224.420	0.068	-0.110
-543.266	-200.000	-0.041	0.234
-542.252	-200.000	0.102	0.585
-541.237	658.283	0.046	-0.118
-540.223	-200.000	0.022	0.126
-539.208	-95.620	0.469	0.125
-538.193	800.000	0.082	-0.294
-537.179	128.257	-0.083	-0.105
-536.164	95.991	0.102	0.116
-535.150	800.000	-0.037	-0.139
-534.135	377.975	0.079	0.161
-533.121	-86.006	-0.151	0.047
-532.106	-200.000	0.004	0.024
-531.091	467.414	-0.121	0.271
-530.077	216.823	-0.232	0.369
-529.062	785.820	-0.152	-0.417
-528.048	-200.000	0.024	0.246
-527.033	-105.756	-0.311	-0.070
-526.018	54.280	0.323	-0.310
-525.004	-26.419	-0.303	0.177
-523.989	-131.674	0.136	0.018
-522.975	-87.654	0.226	-0.068
-521.960	-100.203	-0.475	-0.118
-520.945	-200.000	-0.031	0.254
-519.931	-200.000	0.035	-0.222
-518.916	800.000	0.110	-0.448
-517.902	-200.000	-0.049	-0.311
-516.887	235.078	-0.260	-0.428
-515.872	38.110	0.122	0.108
-514.858	-121.476	0.250	-0.041
-513.843	-177.430	0.208	-0.005
-512.829	-11.607	-0.047	-0.031
-511.814	-200.000	0.010	-0.075
-510.799	-200.000	0.045	-0.240
-509.785	-77.915	0.166	-0.057
-508.770	-1.129	-0.032	0.022
-507.756	800.000	0.064	0.236
-506.741	-134.961	-0.044	0.005
-505.726	47.458	0.107	0.099
-504.712	-73.554	-0.170	-0.062
-503.697	-200.000	-0.004	-0.460
-502.683	-50.258	-0.264	0.125
-501.668	159.106	0.200	-0.278
-500.653	-200.000	0.069	0.385
-499.639	-200.000	-0.001	-0.161
-498.624	800.000	-0.034	0.136
-497.610	-200.000	0.029	-0.147
-496.595	-51.809	0.166	0.077
-495.581	-200.000	0.005	-0.116
-494.566	-50.623	-0.042	-0.020
-493.551	110.746	-0.174	-0.209
-492.537	800.000	-0.039	-0.166
-491.522	-75.415	0.339	0.120
-490.508	-200.000	0.002	-0.421
-489.493	221.998	-0.035	-0.056
-488.478	-104.520	-0.227	0.052
-487.464	293.248	0.078	-0.141
-486.449	-200.000	-0.002	-0.191
-485.435	271.299	0.194	-0.341
-484.420	167.894	-0.116	0.164
-483.405	800.000	0.070	0.242
-482.391	-132.583	0.288	-0.037
-481.376	800.000	-0.067	-0.208
-480.362	800.000	0.062	-0.205
-479.347	-21.102	0.180	0.110
-478.332	106.560	0.214	-0.253
-477.318	-19.972	-0.176	-0.108
-476.303	137.444	0.085	0.111
-475.289	135.733	0.155	0.201
-474.274	624.733	-0.080	-0.201
-473.259	800.000	0.090	-0.317
-472.245	-125.830	-0.061	-0.009
-471.230	147.510	-0.069	-0.092
-470.216	33.137	0.182	-0.158
-469.201	-12.431	0.289	-0.188
-468.186	800.000	0.060	0.215
-467.172	-200.000	0.003	-0.112
-466.157	71.075	-0.236	-0.243
-465.143	-146.376	-0.488	0.042
-464.128	-200.000	0.006	0.400
-463.113	-17.536	-0.022	-0.014
-462.099	63.849	-0.160	0.160
-461.084	800.000	0.078	0.336
-460.070	631.569	0.166	-0.417
-459.055	-172.540	0.187	0.006
-458.040	-44.874	-0.153	-0.076
-457.026	-200.000	-0.032	-0.151
-456.011	325.814	0.141	0.268
-454.997	57.511	-0.181	0.176
-453.982	448.683	0.070	-0.153
-452.968	-200.000	0.003	0.273
-451.953	-200.000	0.060	-0.344
-450.938	27.990	-0.146	0.122
-449.924	800.000	0.065	0.271
-448.909	-80.269	0.256	-0.085
-447.895	-121.342	0.047	-0.008
-446.880	-200.000	-0.019	0.192
-445.865	72.599	0.030	-0.032
-444.851	-19.930	0.216	0.133
-443.836	102.348	0.187	0.217
-442.822	-200.000	0.001	0.083
-441.807	-1.886	-0.202	0.141
-440.792	177.981	0.079	0.115
-439.778	223.919	-0.048	-0.077
-438.763	-200.000	-0.013	-0.182
-437.749	-173.412	0.178	-0.005
-436.734	67.298	0.177	-0.179
-435.719	250.562	0.151	0.255
-434.705	714.079	0.009	-0.024
-433.690	99.619	0.143	-0.165
-432.676	-14.095	-0.055	-0.035
-431.661	-200.000	0.010	-0.182
-430.646	-138.630	-0.166	0.018
-429.632	57.508	0.073	-0.071
-428.617	-200.000	-0.001	-0.296
-427.603	131.807	0.168	0.215
-426.588	26.507	-0.084	0.069
-425.573	-70.910	0.434	-0.163
-424.559	-185.477	0.424	-0.006
-423.544	-200.000	0.003	-0.191
-422.530	-200.000	0.050	-0.279
-421.515	-200.000	0.020	0.188
-420.500	125.549	-0.311	0.391
-419.486	-200.000	0.023	0.221
-418.471	26.949	0.086	-0.072
-417.457	19.668	-0.292	0.234
-416.442	-140.854	0.114	-0.012
-415.428	-185.162	-0.116	-0.002
-414.413	35.642	0.086	-0.075
-413.398	-200.000	-0.027	-0.122
-412.384	-114.916	-0.272	-0.052
-411.369	800.000	-0.035	0.113
-410.355	-149.930	-0.148	-0.011
-409.340	-200.000	-0.054	0.380
-408.325	-162.213	-0.127	-0.006
-407.311	-69.450	-0.335	0.128
-406.296	-200.000	0.015	-0.133
-405.282	-184.213	-0.372	-0.006
-404.267	-67.855	-0.219	0.085
-403.252	-98.998	-0.141	-0.036
-402.238	611.763	-0.113	-0.280
-401.223	-34.099	-0.139	0.076
-400.209	261.996	-0.103	0.177
-399.194	-149.525	0.397	-0.031
-398.179	-51.386	0.271	-0.126
-397.165	-110.468	-0.016	-0.003
-396.150	266.728	0.107	0.186
-395.136	308.696	-0.266	-0.493
-394.121	-200.000	-0.008	0.123
-393.106	-121.524	-0.295	0.049
-392.092	800.000	0.066	-0.191
-391.077	331.281	-0.081	-0.154
-390.063	800.000	-0.044	0.189
-389.048	-200.000	-0.034	0.344
-388.033	-122.016	0.495	0.081
-387.019	-200.000	0.020	-0.201
-386.004	18.929	0.176	0.140
-384.990	-51.402	-0.286	-0.133
-383.975	224.991	-0.063	0.102
-382.960	-92.023	-0.135	-0.038
-381.946	16.488	-0.121	0.095
-380.931	784.833	0.034	-0.094
-379.917	-130.290	0.163	0.022
-378.902	6.017	0.348	0.256
-377.888	-200.000	0.016	-0.449
-376.873	356.273	-0.051	0.101
-375.858	590.564	-0.119	0.290
-374.844	800.000	0.104	0.438
-373.829	-200.000	0.021	0.259
-372.815	-24.786	-0.286	0.168
-371.800	-86.527	0.317	-0.096
-370.785	-82.859	-0.254	-0.081
-369.771	145.422	0.021	-0.028
-368.756	54.745	-0.235	0.225
-367.742	-9.867	-0.059	-0.039
-366.727	-54.829	0.355	-0.159
-365.712	-14.712	-0.080	0.051
-364.698	800.000	-0.065	0.259
-363.683	50.324	0.291	-0.273
-362.669	-200.000	0.032	-0.282
-361.654	148.594	0.079	-0.106
-360.639	475.390	-0.048	0.107
-359.625	-200.000	0.010	-0.113
-358.610	-102.589	-0.107	0.025
-357.596	-39.683	0.055	0.029
-356.581	-98.504	-0.196	-0.050
-355.566	95.366	0.135	-0.152
-354.552	-145.547	-0.559	0.050
-353.537	-12.161	0.089	-0.058
-352.523	-80.906	-0.455	-0.149
-351.508	-102.485	-0.309	0.073
-350.493	-19.596	0.119	0.073
-349.479	-140.462	-0.278	0.029
-348.464	53.977	0.113	-0.108
-347.450	-79.182	0.134	-0.045
-346.435	572.794	0.150	-0.361
-345.420	-92.592	0.282	0.078
-344.406	6.180	-0.380	-0.279
-343.391	57.988	-0.045	0.043
-342.377	-200.000	-0.024	0.208
-341.362	704.787	0.126	-0.328
-340.348	6.499	-0.154	-0.113
-339.333	800.000	-0.105	0.336
-338.318	234.240	-0.076	0.125
-337.304	-51.000	-0.133	-0.062
-336.289	380.675	0.089	0.181
-335.275	-80.993	0.245	-0.080
-334.260	245.899	-0.193	0.321
-333.245	-200.000	-0.028	0.164
-332.231	-200.000	0.090	0.482
-331.216	460.534	0.100	0.220
-330.202	30.000	-0.157	-0.132
-329.187	455.413	0.114	0.251
-328.172	70.844	-0.131	0.134
-327.158	-139.222	0.145	-0.015
-326.143	-114.220	-0.230	-0.044
-325.129	-87.962	-0.096	-0.029
-324.114	-137.167	-0.161	-0.018
-323.099	-200.000	0.029	-0.265
-322.085	28.236	-0.164	0.137
-321.070	-111.372	-0.180	0.036
-320.056	-200.000	-0.011	-0.215
-319.041	-92.996	-0.285	-0.079
-318.026	-29.021	0.074	0.042
-317.012	-31.419	-0.019	0.011
-315.997	333.687	0.031	-0.059
-314.983	155.530	0.095	0.129
-313.968	-21.470	0.410	0.247
-312.953	-2.064	0.057	0.040
-311.939	-11.398	0.276	0.180
-310.924	95.289	0.092	0.104
-309.910	-200.000	0.049	0.344
-308.895	-200.000	-0.015	-0.097
-307.880	185.462	-0.132	0.194
-306.866	-7.385	-0.335	0.225
-305.851	800.000	-0.120	0.418
-304.837	-200.000	-0.078	-0.424
-303.822	-57.985	0.127	0.055
-302.807	-109.863	0.250	-0.052
-301.793	-59.148	-0.047	0.020
-300.778	69.789	-0.143	0.146
-299.764	107.685	0.084	-0.099
-298.749	-30.178	0.245	0.138
-297.735	-100.844	0.055	0.013
-296.720	800.000	-0.048	0.149
-295.705	-105.650	-0.164	-0.037
-294.691	-200.000	0.024	-0.138
-293.676	-35.271	0.101	-0.054
-292.662	71.266	-0.156	0.160
-291.647	-200.000	0.047	0.238
-290.632	-75.648	-0.212	-0.074
-289.618	-84.042	0.123	0.039
-288.603	-43.158	-0.211	-0.106
-287.589	-84.383	-0.069	0.022
-286.574	164.762	0.252	-0.351
-285.559	-200.000	0.053	-0.373
-284.545	232.236	0.142	-0.230
-283.530	33.488	0.141	0.121
-282.516	-15.484	0.251	0.158
-281.501	-63.115	0.232	0.095
-280.486	-89.001	0.040	-0.012
-279.472	-135.032	0.306	-0.037
-278.457	704.081	0.041	0.106
-277.443	-200.000	0.051	-0.264
-276.428	-200.000	0.065	0.308
-275.413	-200.000	-0.036	0.268
-274.399	-119.066	0.207	0.036
-273.384	24.585	0.134	-0.110
-272.370	-93.684	0.217	-0.059
-271.355	159.208	0.188	-0.258
-270.340	42.441	-0.210	0.189
-269.326	-200.000	0.011	0.149
-268.311	20.423	-0.139	0.111
-267.297	-55.317	0.117	0.052
-266.282	800.000	-0.130	0.368
-265.267	270.007	-0.154	-0.268
-264.253	-19.689	-0.112	-0.068
-263.238	-2.726	-0.180	0.124
-262.224	298.237	0.016	0.029
-261.209	147.170	0.091	-0.120
-260.195	-44.585	-0.250	-0.123
-259.180	-21.466	0.215	-0.129
-258.165	66.251	-0.098	-0.098
-257.151	-167.392	-0.259	-0.010
-256.136	-2.051	-0.055	-0.038
-255.122	800.000	0.058	-0.228
-254.107	-57.183	-0.205	0.089
-253.092	-200.000	-0.020	-0.118
-252.078	-188.828	-0.377	0.005
-251.063	474.615	-0.143	0.318
-250.049	391.530	-0.075	-0.153
-249.034	-200.000	0.029	0.413
-248.019	-36.430	-0.175	0.093
-247.005	-66.937	-0.077	-0.030
-245.990	-200.000	0.014	0.167
-244.976	293.528	-0.036	-0.065
-243.961	-88.958	0.202	-0.059
-242.946	-61.168	0.509	-0.212
-241.932	74.112	0.134	0.138
-240.917	-170.193	-0.251	-0.009
-239.903	800.000	-0.083	0.321
-238.888	-57.539	0.143	0.062
-237.873	-200.000	0.025	-0.169
-236.859	800.000	0.115	0.330
-235.844	-122.695	0.188	0.030
-234.830	-23.842	0.274	-0.162
-233.815	39.321	-0.334	-0.295
-232.800	155.574	0.074	-0.101
-231.786	-14.666	-0.141	0.089
-230.771	-65.294	0.219	0.087
-229.757	-15.418	-0.182	-0.115
-228.742	800.000	0.073	0.297
-227.727	-131.888	0.316	0.041
-226.713	-137.852	-0.086	0.009
-225.698	-200.000	-0.249	0.001
-224.684	800.000	-0.082	-0.278
-223.669	800.000	-0.104	-0.319
-222.655	-55.969	0.213	0.094
-221.640	559.505	0.140	0.334
-220.625	20.156	-0.048	0.039
-219.611	13.888	-0.390	-0.299
-218.596	-27.230	-0.153	0.088
-217.582	-113.313	0.408	-0.079
-216.567	-86.534	-0.213	0.064
-215.552	190.592	0.056	0.083
-214.538	-25.031	0.162	0.094
-213.523	683.546	-0.107	0.274
-212.509	230.257	0.109	0.176
-211.494	800.000	-0.025	0.072
-210.479	800.000	-0.068	0.188
-209.465	-151.094	-0.055	0.004
-208.450	89.171	0.151	-0.166
-207.436	37.702	-0.094	-0.082
-206.421	76.434	-0.388	-0.405
-205.406	-200.000	-0.015	0.239
-204.392	18.422	0.154	0.122
-203.377	117.682	-0.144	-0.175
-202.363	-200.000	0.060	-0.285
-201.348	-200.000	-0.026	0.197
-200.333	-1.141	0.280	0.195
-199.319	-200.000	0.003	-0.016
-198.304	-0.872	0.159	-0.111
-197.290	89.371	0.233	-0.256
-196.275	-200.000	-0.010	-0.119
-195.260	-200.000	-0.097	0.461
-194.246	447.282	0.018	0.038
-193.231	-200.000	0.001	-0.243
-192.217	800.000	-0.079	0.216
-191.202	-44.902	-0.102	-0.050
-190.187	-28.743	0.190	0.107
-189.173	-200.000	-0.011	0.065
-188.158	400.635	-0.022	0.045
-187.144	8.952	0.417	-0.310
-186.129	-200.000	0.000	-0.004
-185.114	12.006	0.143	0.108
-184.100	-112.482	0.145	-0.028
-183.085	26.193	0.223	-0.184
-182.071	-40.524	0.372	0.190
-181.056	-146.295	0.064	-0.006
-180.042	-36.443	-0.019	-0.010
-179.027	-200.000	0.023	-0.165
-178.012	103.117	0.119	-0.137
-176.998	-131.894	0.080	0.010
-175.983	501.715	0.112	-0.255
-174.969	800.000	-0.022	-0.061
-173.954	-1.103	0.128	-0.089
-172.939	99.027	0.161	0.183
-171.925	-57.313	0.096	-0.042
-170.910	-183.999	0.176	0.003
-169.896	-128.671	0.233	-0.032
-168.881	53.152	0.226	-0.213
-167.866	637.358	0.190	0.475
-166.852	140.210	0.235	0.305
-165.837	-81.794	0.049	0.016
-164.823	604.260	0.208	0.508
-163.808	-28.923	-0.329	-0.186
-162.793	800.000	-0.022	-0.062
-161.779	-200.000	-0.006	-0.085
-160.764	423.668	0.128	0.271
-159.750	-200.000	-0.065	-0.291
-158.735	29.525	-0.185	-0.155
-157.720	800.000	0.061	0.183
-156.706	-70.913	0.261	0.097
-155.691	-40.686	-0.062	0.032
-154.677	-20.475	0.153	-0.093
-153.662	800.000	0.069	-0.247
-152.647	800.000	-0.016	0.065
-151.633	-27.094	0.267	0.153
-150.618	800.000	0.048	-0.147
-149.604	243.017	-0.271	0.447
-148.589	800.000	0.019	-0.068
-147.574	-200.000	-0.013	0.128
-146.560	134.530	-0.228	-0.290
-145.545	-200.000	0.002	-0.237
-144.531	-84.554	0.369	0.115
-143.516	65.691	-0.297	-0.296
-142.502	-200.000	-0.017	-0.243
-141.487	-200.000	-0.040	-0.452
-140.472	-96.130	0.068	-0.018
-139.458	-200.000	0.022	-0.111
-138.443	286.633	0.045	-0.080
-137.429	744.278	-0.055	0.144
-136.414	340.984	0.190	-0.365
-135.399	163.362	-0.266	-0.368
-134.385	87.739	-0.110	0.120
-133.370	800.000	0.068	0.245
-132.356	-91.632	-0.076	-0.021
-131.341	254.835	0.079	-0.132
-130.326	800.000	-0.087	-0.237
-129.312	-200.000	-0.022	-0.262
-128.297	110.941	0.193	-0.229
-127.283	246.548	0.127	-0.210
-126.268	-82.390	0.074	-0.024
-125.253	-66.579	-0.335	-0.130
-124.239	383.066	-0.030	-0.061
-123.224	85.322	0.164	0.177
-122.210	13.448	0.241	0.184
