DTS Sentinel unit serial number:	SN413079Multiplexer serial number:	ORYXHardware model number:	OX4-SRSoftware version number:	ORYX F/W v4.00 Oryx Data Collector v3.7.2.0data status	okinstallation	princeton_trtdifferential loss correction	single-endedforward channel	channel 3reverse channel	N/Adate	2019/09/18time	22:40:35forward acquisition time	60.00reverse acquisition time	0.00gamma	496.2192k internal	0.2345k external	0.2345temperature offset calibration	0.9991default loss term (dB/km)	0.3790temperature slope calibration	1.0000multiplexer offset coefficient	1.0000multiplexer slope coefficient	1.0000fibre end	0.00T internal ref (°C)	24.12T ext. ref 1 (°C)	0.79T ext. ref 2 (°C)	17.98length (m)	temperature (°C)	Stokes	anti-Stokes-747.200	271.230	0.053	0.094
-746.185	-200.000	0.024	0.216
-745.171	-92.609	0.305	0.086
-744.156	119.671	0.114	-0.141
-743.142	-169.419	0.358	0.013
-742.127	-3.252	-0.271	0.189
-741.112	188.660	0.239	0.357
-740.098	104.895	0.076	0.090
-739.083	-166.361	0.082	0.003
-738.069	334.664	-0.104	-0.201
-737.054	800.000	0.118	0.400
-736.039	-178.256	-0.143	0.003
-735.025	225.795	0.211	0.342
-734.010	-13.687	-0.363	-0.235
-732.996	-137.032	-0.317	0.036
-731.981	-200.000	0.048	-0.473
-730.966	405.604	-0.148	0.313
-729.952	-200.000	-0.030	-0.240
-728.937	-59.548	-0.082	0.035
-727.923	-123.265	-0.252	0.040
-726.908	-145.436	-0.105	-0.009
-725.894	60.488	0.222	-0.220
-724.879	-197.368	-0.487	-0.003
-723.864	421.347	-0.114	-0.245
-722.850	-200.000	-0.001	-0.152
-721.835	-115.326	0.136	0.026
-720.821	800.000	-0.065	-0.209
-719.806	-200.000	0.015	-0.208
-718.791	-106.358	-0.264	0.059
-717.777	-10.287	0.132	-0.087
-716.762	705.729	0.036	-0.095
-715.748	399.692	0.031	-0.065
-714.733	800.000	0.104	-0.311
-713.718	1.665	-0.279	0.201
-712.704	-200.000	-0.044	-0.251
-711.689	314.049	-0.078	0.147
-710.675	-27.234	0.121	0.070
-709.660	110.931	-0.161	-0.193
-708.645	-82.107	-0.553	0.180
-707.631	-94.390	0.355	-0.097
-706.616	423.407	-0.061	-0.131
-705.602	-163.304	-0.212	-0.010
-704.587	800.000	0.055	-0.155
-703.572	-200.000	-0.545	0.003
-702.558	-200.000	0.043	-0.299
-701.543	9.565	0.294	-0.223
-700.529	528.412	0.062	0.146
-699.514	-10.465	0.187	-0.124
-698.499	-75.250	-0.264	-0.094
-697.485	-200.000	-0.006	0.076
-696.470	-52.608	0.142	0.065
-695.456	91.511	0.265	-0.297
-694.441	-200.000	0.003	-0.333
-693.426	217.713	-0.061	0.098
-692.412	-78.354	0.222	0.076
-691.397	-82.016	0.125	-0.041
-690.383	682.687	-0.132	-0.343
-689.368	93.698	-0.155	0.175
-688.354	298.274	0.083	-0.153
-687.339	-97.929	-0.125	0.032
-686.324	-141.366	-0.117	-0.012
-685.310	11.598	-0.212	-0.163
-684.295	-102.542	0.233	-0.056
-683.281	-97.274	-0.207	0.054
-682.266	-98.259	0.224	-0.057
-681.251	-146.406	-0.145	-0.013
-680.237	-200.000	0.017	-0.166
-679.222	-36.759	-0.023	-0.012
-678.208	800.000	0.082	-0.250
-677.193	-50.547	0.296	-0.139
-676.178	-47.825	-0.224	0.109
-675.164	-21.061	-0.131	-0.080
-674.149	144.607	0.295	-0.394
-673.135	800.000	-0.094	0.313
-672.120	-200.000	-0.010	0.171
-671.105	75.754	-0.112	0.118
-670.091	-200.000	-0.019	0.167
-669.076	-200.000	0.037	-0.501
-668.062	79.577	0.199	-0.213
-667.047	524.963	0.047	0.111
-666.032	-18.294	0.110	0.069
-665.018	-53.537	-0.251	-0.114
-664.003	-200.000	0.031	-0.438
-662.989	-111.075	0.044	-0.009
-661.974	-200.000	-0.014	0.130
-660.959	113.050	-0.121	0.147
-659.945	303.310	-0.104	-0.191
-658.930	646.042	-0.071	-0.180
-657.916	-165.934	0.485	-0.021
-656.901	-200.000	0.015	-0.179
-655.886	14.233	0.109	-0.085
-654.872	12.984	0.220	0.170
-653.857	-188.469	-0.186	-0.002
-652.843	30.573	-0.302	0.258
-651.828	-113.062	-0.310	-0.061
-650.814	800.000	-0.097	0.346
-649.799	-107.102	0.167	0.037
-648.784	28.168	-0.143	-0.121
-647.770	-200.000	-0.035	0.277
-646.755	90.534	-0.118	0.131
-645.741	-44.556	-0.182	0.091
-644.726	-14.829	0.214	0.137
-643.711	73.062	0.165	0.172
-642.697	-162.248	0.184	0.009
-641.682	84.913	-0.086	-0.094
-640.668	-178.253	-0.275	-0.006
-639.653	117.682	-0.107	0.131
-638.638	-200.000	0.001	0.162
-637.624	-98.882	-0.204	-0.052
-636.609	-200.000	0.033	-0.173
-635.595	8.550	0.224	-0.168
-634.580	-143.069	0.150	-0.014
-633.565	83.169	-0.414	0.449
-632.551	132.901	0.126	-0.161
-631.536	393.222	-0.145	0.301
-630.522	-200.000	0.018	0.192
-629.507	-13.924	-0.064	0.041
-628.492	346.268	0.120	-0.235
-627.478	800.000	0.116	0.351
-626.463	-67.522	0.360	0.141
-625.449	163.382	-0.141	0.198
-624.434	-1.708	0.274	0.192
-623.419	272.773	-0.079	-0.139
-622.405	57.519	-0.336	-0.326
-621.390	-85.486	-0.087	-0.027
-620.376	95.561	-0.129	0.146
-619.361	315.949	0.056	0.105
-618.346	8.015	-0.211	0.158
-617.332	51.714	0.035	0.033
-616.317	-93.724	0.100	-0.028
-615.303	109.040	-0.077	-0.091
-614.288	11.160	0.247	-0.188
-613.273	-200.000	-0.032	-0.323
-612.259	383.675	-0.143	-0.293
-611.244	-29.301	0.179	0.102
-610.230	9.835	-0.055	-0.042
-609.215	-113.715	-0.368	-0.071
-608.201	-200.000	0.008	-0.092
-607.186	-200.000	-0.015	-0.139
-606.171	22.421	0.165	0.134
-605.157	-46.108	0.152	0.075
-604.142	-16.381	-0.346	0.218
-603.128	138.080	-0.272	0.355
-602.113	101.751	-0.128	0.148
-601.098	-65.939	-0.099	0.040
-600.084	-200.000	0.075	-0.357
-599.069	0.878	-0.269	-0.192
-598.055	-200.000	-0.024	-0.212
-597.040	-200.000	0.002	-0.359
-596.025	-200.000	0.016	0.243
-595.011	66.128	0.176	0.177
-593.996	-200.000	-0.024	0.251
-592.982	201.641	-0.031	0.048
-591.967	800.000	-0.017	0.063
-590.952	159.534	-0.209	0.289
-589.938	10.282	-0.085	0.065
-588.923	68.459	0.155	0.158
-587.909	-200.000	-0.015	-0.257
-586.894	-147.035	0.210	0.018
-585.879	-49.631	-0.141	-0.067
-584.865	-86.456	0.083	-0.025
-583.850	-101.975	0.185	0.044
-582.836	37.137	0.142	0.125
-581.821	49.372	0.130	-0.122
-580.806	-181.670	0.260	-0.005
-579.792	800.000	0.049	-0.165
-578.777	495.364	0.120	0.275
-577.763	-100.356	0.307	-0.076
-576.748	184.793	-0.210	0.310
-575.733	24.749	-0.051	-0.042
-574.719	800.000	0.057	0.162
-573.704	-47.380	-0.446	-0.215
-572.690	-196.313	-0.226	0.002
-571.675	-200.000	-0.035	0.550
-570.661	-200.000	-0.035	0.427
-569.646	-41.526	0.173	0.088
-568.631	571.246	-0.181	-0.437
-567.617	800.000	0.065	-0.218
-566.602	22.706	0.167	-0.136
-565.588	431.580	0.058	0.125
-564.573	-200.000	0.063	-0.521
-563.558	102.508	0.208	-0.242
-562.544	-140.048	0.060	0.006
-561.529	58.069	-0.205	-0.199
-560.515	196.169	-0.103	0.156
-559.500	18.023	-0.190	-0.150
-558.485	-48.372	-0.088	0.042
-557.471	800.000	-0.052	-0.168
-556.456	396.783	-0.082	0.170
-555.442	192.234	-0.121	0.182
-554.427	-200.000	0.025	-0.264
-553.412	-200.000	-0.007	-0.201
-552.398	20.369	0.173	-0.139
-551.383	-2.061	0.086	0.060
-550.369	214.064	-0.076	0.119
-549.354	392.521	-0.132	0.272
-548.339	-200.000	0.055	0.382
-547.325	-200.000	-0.009	-0.184
-546.310	-200.000	-0.089	0.603
-545.296	-18.744	-0.225	-0.139
-544.281	800.000	0.061	-0.201
-543.266	167.108	-0.150	0.212
-542.252	800.000	-0.062	0.190
-541.237	-118.004	0.252	0.045
-540.223	-21.452	0.395	0.239
-539.208	301.086	0.058	-0.106
-538.193	4.537	-0.148	0.108
-537.179	396.210	-0.138	-0.286
-536.164	35.958	0.302	0.263
-535.150	29.157	0.060	-0.051
-534.135	-200.000	-0.015	-0.136
-533.121	416.110	-0.224	0.475
-532.106	-200.000	0.017	-0.100
-531.091	91.139	-0.139	0.154
-530.077	-116.435	-0.110	-0.020
-529.062	265.252	-0.071	-0.122
-528.048	422.873	-0.058	-0.125
-527.033	-84.245	-0.532	-0.167
-526.018	173.321	0.293	-0.419
-525.004	-34.799	0.471	0.255
-523.989	-116.335	-0.188	-0.035
-522.975	244.164	0.082	0.137
-521.960	436.881	0.072	0.156
-520.945	-200.000	-0.008	0.114
-519.931	-200.000	0.057	-0.273
-518.916	355.796	-0.039	0.076
-517.902	-120.053	-0.286	0.049
-516.887	-200.000	0.062	0.380
-515.872	108.691	0.179	0.212
-514.858	-10.846	-0.340	0.222
-513.843	102.928	0.197	-0.229
-512.829	96.241	-0.176	-0.200
-511.814	-101.072	-0.298	-0.072
-510.799	-157.253	0.500	-0.030
-509.785	574.444	-0.012	0.029
-508.770	29.743	0.124	-0.104
-507.756	-163.145	0.254	-0.012
-506.741	-200.000	-0.000	0.053
-505.726	28.619	0.187	-0.157
-504.712	-59.403	-0.088	-0.038
-503.697	-121.838	-0.327	0.053
-502.683	601.998	-0.057	0.140
-501.668	-45.822	0.150	0.073
-500.653	271.845	0.129	0.225
-499.639	-67.237	-0.236	0.092
-498.624	-200.000	0.067	-0.314
-497.610	-5.343	-0.243	0.165
-496.595	165.243	0.130	0.181
-495.581	258.107	-0.053	0.090
-494.566	-200.000	-0.004	0.382
-493.551	-200.000	-0.010	0.115
-492.537	86.183	0.244	-0.267
-491.522	-45.018	0.083	-0.041
-490.508	-128.733	0.098	-0.014
-489.493	-96.564	0.536	-0.140
-488.478	86.965	-0.052	0.057
-487.464	-200.000	-0.002	-0.155
-486.449	132.861	-0.206	-0.263
-485.435	-186.804	0.111	0.002
-484.420	-120.564	0.239	0.040
-483.405	-200.000	-0.018	-0.111
-482.391	-200.000	-0.034	0.166
-481.376	38.689	-0.172	-0.152
-480.362	-200.000	-0.047	-0.228
-479.347	42.561	-0.191	-0.172
-478.332	-67.508	0.105	-0.041
-477.318	-200.000	-0.034	-0.171
-476.303	800.000	-0.103	0.343
-475.289	-200.000	-0.014	-0.488
-474.274	-39.414	0.042	0.022
-473.259	-76.627	0.288	0.100
-472.245	-200.000	0.127	-0.595
-471.230	-41.990	-0.088	-0.045
-470.216	299.708	0.131	-0.239
-469.201	113.186	0.050	0.060
-468.186	78.596	-0.250	0.265
-467.172	146.940	0.080	0.107
-466.157	215.871	0.145	0.228
-465.143	800.000	-0.102	-0.384
-464.128	-27.537	-0.220	0.126
-463.113	76.729	-0.058	0.060
-462.099	144.365	0.202	-0.267
-461.084	-101.752	-0.475	-0.114
-460.070	-129.919	-0.247	-0.033
-459.055	-132.415	0.274	-0.035
-458.040	-88.717	0.252	-0.074
-457.026	800.000	0.010	0.033
-456.011	-12.737	-0.264	0.170
-454.997	39.497	-0.039	0.034
-453.982	41.041	-0.132	0.118
-452.968	-117.983	0.178	-0.032
-451.953	279.786	0.143	-0.252
-450.938	-200.000	-0.036	0.251
-449.924	800.000	-0.027	0.115
-448.909	800.000	0.050	-0.146
-447.895	-200.000	0.010	0.075
-446.880	-200.000	-0.015	-0.432
-445.865	64.995	0.118	-0.118
-444.851	261.184	-0.109	0.187
-443.836	268.962	-0.141	-0.244
-442.822	186.684	-0.172	0.253
-441.807	-154.371	-0.144	-0.010
-440.792	138.762	-0.126	0.163
-439.778	-13.133	-0.022	0.014
-438.763	-68.475	0.113	0.044
-437.749	-200.000	-0.054	0.417
-436.734	-134.543	-0.187	0.023
-435.719	-200.000	-0.025	0.112
-434.705	800.000	0.018	-0.074
-433.690	-200.000	0.000	-0.085
-432.676	-130.198	-0.278	0.037
-431.661	-200.000	0.020	0.290
-430.646	-165.645	0.366	-0.016
-429.632	367.936	-0.182	0.364
-428.617	-118.947	0.145	0.025
-427.603	-91.512	-0.535	0.151
-426.588	140.074	-0.152	-0.198
-425.573	-66.614	-0.063	0.025
-424.559	-139.021	0.342	-0.037
-423.544	58.844	0.164	-0.160
-422.530	158.105	0.102	0.139
-421.515	-92.460	-0.236	0.066
-420.500	800.000	0.081	-0.243
-419.486	-141.096	-0.153	-0.015
-418.471	-156.960	-0.431	-0.026
-417.457	-200.000	-0.021	0.222
-416.442	-46.930	0.070	0.034
-415.428	-117.188	0.544	-0.098
-414.413	-161.466	-0.410	-0.021
-413.398	-200.000	-0.032	0.152
-412.384	475.130	0.039	0.087
-411.369	-110.796	0.094	0.019
-410.355	-47.217	-0.252	-0.121
-409.340	-168.513	0.438	-0.017
-408.325	-161.773	-0.270	0.014
-407.311	-73.495	0.145	0.052
-406.296	160.324	-0.104	0.143
-405.282	-116.717	-0.133	-0.024
-404.267	-41.874	-0.340	-0.172
-403.252	287.640	-0.132	0.236
-402.238	-29.444	0.276	0.156
-401.223	-105.773	-0.187	0.042
-400.209	-154.420	0.290	0.019
-399.194	101.261	-0.243	-0.280
-398.179	40.435	-0.142	-0.126
-397.165	508.742	-0.231	-0.529
-396.150	110.463	-0.219	0.259
-395.136	11.576	0.199	0.151
-394.121	-160.070	0.181	0.010
-393.106	75.945	-0.193	-0.201
-392.092	-20.184	-0.113	0.069
-391.077	800.000	0.029	-0.107
-390.063	-200.000	0.011	-0.185
-389.048	-128.557	-0.238	-0.033
-388.033	-81.239	-0.273	0.089
-387.019	133.488	0.257	0.327
-386.004	800.000	0.014	0.053
-384.990	-21.464	-0.174	-0.105
-383.975	-62.647	0.308	0.126
-382.960	-143.097	-0.364	-0.035
-381.946	-126.851	-0.318	0.046
-380.931	-79.005	-0.094	0.032
-379.917	-200.000	0.016	-0.088
-378.902	-154.249	-0.084	0.006
-377.888	800.000	-0.115	-0.328
-376.873	-200.000	-0.002	0.040
-375.858	800.000	0.042	-0.133
-374.844	-200.000	-0.003	-0.024
-373.829	344.526	-0.079	0.153
-372.815	-91.796	-0.189	-0.053
-371.800	314.314	0.233	-0.433
-370.785	-58.775	0.134	0.057
-369.771	800.000	0.062	-0.181
-368.756	-142.186	0.228	-0.022
-367.742	107.442	-0.175	-0.205
-366.727	148.274	0.060	-0.079
-365.712	285.302	0.064	-0.114
-364.698	800.000	0.071	0.241
-363.683	518.916	0.145	0.335
-362.669	122.660	0.117	-0.145
-361.654	122.922	0.111	-0.137
-360.639	-200.000	0.014	0.116
-359.625	148.139	-0.069	0.092
-358.610	800.000	-0.154	-0.444
-357.596	-139.469	0.403	-0.043
-356.581	-166.449	-0.211	0.009
-355.566	-136.958	0.354	-0.040
-354.552	560.704	-0.145	-0.346
-353.537	144.313	0.263	-0.346
-352.523	-75.999	0.335	0.117
-351.508	4.526	-0.336	-0.243
-350.493	-15.874	-0.112	0.070
-349.479	-145.117	-0.139	-0.012
-348.464	-172.711	-0.113	-0.003
-347.450	229.567	0.107	-0.173
-346.435	-24.016	-0.194	0.114
-345.420	49.151	0.199	0.184
-344.406	57.254	0.115	-0.110
-343.391	47.677	-0.074	0.068
-342.377	800.000	0.047	0.176
-341.362	152.082	-0.093	0.125
-340.348	13.292	0.181	-0.138
-339.333	40.292	0.187	-0.165
-338.318	-200.000	0.061	-0.277
-337.304	-200.000	-0.001	-0.018
-336.289	-180.247	-0.327	0.007
-335.275	79.559	-0.234	0.247
-334.260	-200.000	-0.003	0.025
-333.245	-54.270	-0.389	0.174
-332.231	51.979	0.083	-0.078
-331.216	753.681	0.107	-0.284
-330.202	61.189	-0.229	-0.224
-329.187	800.000	-0.106	0.373
-328.172	-100.054	-0.183	-0.045
-327.158	-147.604	-0.214	-0.018
-326.143	800.000	-0.068	0.229
-325.129	293.317	0.083	0.148
-324.114	19.847	-0.165	-0.131
-323.099	-80.776	0.092	0.030
-322.085	-126.999	0.311	-0.045
-321.070	-200.000	-0.010	0.106
-320.056	-200.000	0.008	0.041
-319.041	800.000	0.059	0.242
-318.026	-168.610	-0.505	-0.019
-317.012	3.998	-0.269	-0.194
-315.997	-18.027	-0.188	-0.116
-314.983	-159.090	0.175	-0.010
-313.968	-115.418	0.187	0.035
-312.953	377.760	0.193	-0.389
-311.939	-34.828	-0.270	-0.145
-310.924	-135.558	0.146	0.017
-309.910	61.704	0.107	-0.105
-308.895	-200.000	0.061	0.264
-307.880	729.068	0.073	0.193
-306.866	800.000	-0.059	-0.175
-305.851	696.527	0.085	0.219
-304.837	222.952	0.183	0.290
-303.822	800.000	0.084	0.281
-302.807	153.103	0.109	0.146
-301.793	-200.000	-0.013	-0.314
-300.778	35.738	0.102	-0.088
-299.764	83.635	-0.234	0.251
-298.749	-200.000	0.025	-0.175
-297.735	-133.409	0.284	-0.035
-296.720	17.673	0.140	-0.110
-295.705	-200.000	-0.005	0.151
-294.691	547.070	0.086	0.203
-293.676	-7.355	0.197	0.131
-292.662	14.903	-0.028	-0.021
-291.647	438.806	-0.168	0.360
-290.632	-200.000	0.002	0.557
-289.618	-98.408	-0.286	-0.072
-288.603	-24.083	-0.332	-0.195
-287.589	247.014	0.067	-0.111
-286.574	-200.000	0.034	0.196
-285.559	135.124	0.097	-0.124
-284.545	-50.227	-0.184	0.086
-283.530	-200.000	-0.012	-0.191
-282.516	-130.110	0.522	-0.070
-281.501	-13.487	-0.380	-0.242
-280.486	-46.519	0.156	-0.075
-279.472	-48.206	-0.114	-0.054
-278.457	-104.645	0.428	-0.097
-277.443	-144.234	-0.240	0.022
-276.428	-200.000	-0.070	-0.429
-275.413	123.926	-0.354	-0.437
-274.399	-200.000	0.005	0.127
-273.384	318.014	0.128	0.237
-272.370	-200.000	0.013	0.090
-271.355	9.952	-0.169	-0.126
-270.340	-200.000	-0.001	0.081
-269.326	-198.865	-0.071	0.000
-268.311	800.000	-0.058	-0.215
-267.297	-132.307	0.227	-0.029
-266.282	-44.774	0.380	-0.186
-265.267	196.884	0.235	-0.351
-264.253	13.759	-0.233	-0.178
-263.238	-115.890	0.165	-0.030
-262.224	800.000	-0.041	0.164
-261.209	800.000	-0.009	0.033
-260.195	179.898	-0.269	0.387
-259.180	-115.113	0.285	0.053
-258.165	-116.165	0.238	-0.043
-257.151	142.845	0.248	-0.324
-256.136	31.030	-0.035	-0.029
-255.122	128.572	0.166	0.207
-254.107	-200.000	0.029	-0.162
-253.092	76.386	0.079	0.082
-252.078	-55.067	-0.120	-0.053
-251.063	-200.000	-0.021	0.161
-250.049	727.235	0.085	-0.223
-249.034	800.000	0.105	0.296
-248.019	456.840	0.018	-0.039
-247.005	-93.598	0.218	0.059
-245.990	800.000	-0.115	-0.412
-244.976	201.775	0.128	0.193
-243.961	-132.411	-0.111	0.014
-242.946	44.710	-0.167	-0.151
-241.932	-200.000	-0.024	0.198
-240.917	501.577	0.006	-0.014
-239.903	800.000	0.029	0.090
-238.888	124.175	0.072	0.089
-237.873	196.109	0.153	-0.229
-236.859	-63.554	0.195	0.078
-235.844	96.201	-0.186	0.209
-234.830	-16.952	0.292	-0.181
-233.815	-25.427	-0.172	0.100
-232.800	500.215	-0.014	0.031
-231.786	-200.000	-0.032	-0.146
-230.771	-94.516	0.277	0.074
-229.757	-200.000	-0.050	-0.230
-228.742	224.161	-0.114	-0.180
-227.727	137.802	0.084	0.107
-226.713	110.559	-0.259	-0.305
-225.698	108.121	0.086	0.101
-224.684	300.011	0.088	-0.159
-223.669	41.331	-0.108	0.096
-222.655	-171.346	0.125	0.004
-221.640	-179.939	-0.082	-0.002
-220.625	231.915	0.042	-0.067
-219.611	65.036	-0.172	-0.171
-218.596	-49.972	0.094	-0.044
-217.582	81.014	-0.061	-0.064
-216.567	-10.266	0.045	0.029
-215.552	-126.987	-0.137	0.020
-214.538	-86.907	0.193	0.058
-213.523	-142.194	0.122	-0.012
-212.509	547.117	0.051	-0.119
-211.494	-46.075	0.120	-0.058
-210.479	23.463	0.124	0.100
-209.465	308.488	-0.017	0.031
-208.450	-135.902	0.052	0.006
-207.436	-133.111	-0.317	0.039
-206.421	-200.000	-0.040	0.316
-205.406	800.000	0.021	0.084
-204.392	55.822	0.041	-0.039
-203.377	-200.000	-0.029	0.207
-202.363	521.286	0.237	-0.545
-201.348	-37.775	0.212	0.110
-200.333	129.948	-0.075	-0.095
-199.319	-180.226	0.536	0.011
-198.304	-1.039	-0.236	-0.164
-197.290	754.454	-0.060	-0.160
-196.275	-125.937	0.220	0.032
-195.260	22.742	-0.172	-0.138
-194.246	315.913	0.123	0.227
-193.231	-8.089	0.291	0.192
-192.217	-105.474	0.108	0.024
-191.202	328.757	-0.137	0.258
-190.187	-134.797	0.062	0.007
-189.173	20.182	0.091	-0.072
-188.158	800.000	-0.050	-0.192
-187.144	-91.526	-0.096	-0.027
-186.129	-60.982	0.049	-0.020
-185.114	800.000	-0.083	-0.239
-184.100	-128.019	-0.224	-0.032
-183.085	-121.677	-0.188	-0.031
-182.071	330.570	-0.053	0.099
-181.056	-126.221	0.189	0.028
-180.042	-4.896	0.109	0.073
-179.027	800.000	0.122	-0.439
-178.012	125.801	0.116	0.144
-176.998	-117.586	-0.123	0.022
-175.983	-200.000	0.003	-0.179
-174.969	-79.971	0.185	0.061
-173.954	-200.000	0.037	0.234
-172.939	-13.633	0.133	-0.084
-171.925	41.023	-0.085	0.075
-170.910	800.000	-0.080	0.245
-169.896	800.000	-0.023	-0.085
-168.881	426.648	0.078	0.164
-167.866	-112.972	-0.080	-0.015
-166.852	-51.640	0.379	-0.173
-165.837	222.109	0.154	0.243
-164.823	76.803	-0.033	0.034
-163.808	248.122	-0.054	0.089
-162.793	774.014	0.033	-0.089
-161.779	81.121	0.157	0.166
-160.764	800.000	-0.058	0.229
-159.750	-200.000	0.023	0.244
-158.735	17.677	-0.084	-0.066
-157.720	-100.187	0.205	-0.050
-156.706	8.909	0.185	-0.136
-155.691	6.881	-0.127	-0.092
-154.677	193.967	-0.038	-0.056
-153.662	131.388	0.271	0.340
-152.647	-200.000	-0.038	-0.271
-151.633	-158.945	0.098	0.005
-150.618	-17.944	0.252	0.154
-149.604	-200.000	0.035	0.226
-148.589	-54.048	0.533	-0.237
-147.574	250.008	-0.047	0.078
-146.560	-78.774	-0.060	0.020
-145.545	257.664	0.224	-0.377
-144.531	-38.232	0.337	0.175
-143.516	800.000	0.049	-0.155
-142.502	120.655	0.188	0.228
-141.487	43.096	-0.043	0.038
-140.472	-200.000	-0.018	0.186
-139.458	2.791	0.071	-0.050
-138.443	236.183	-0.108	0.175
-137.429	800.000	0.125	-0.377
-136.414	-32.844	-0.140	-0.076
-135.399	800.000	0.022	0.080
-134.385	-200.000	-0.007	-0.390
-133.370	-143.444	-0.028	-0.003
-132.356	97.917	-0.113	-0.127
-131.341	-200.000	0.086	0.444
-130.326	369.092	-0.181	0.357
-129.312	-173.584	0.215	-0.006
-128.297	-74.148	-0.188	-0.066
-127.283	3.983	-0.259	0.185
-126.268	126.007	-0.140	-0.172
-125.253	-200.000	0.032	0.322
-124.239	-20.460	-0.257	-0.154
-123.224	-122.893	0.152	-0.024
-122.210	-200.000	0.003	0.389
