DTS Sentinel unit serial number:	SN413079Multiplexer serial number:	ORYXHardware model number:	OX4-SRSoftware version number:	ORYX F/W v4.00 Oryx Data Collector v3.7.2.0data status	okinstallation	princeton_trtdifferential loss correction	single-endedforward channel	channel 3reverse channel	N/Adate	2019/09/13time	01:00:34forward acquisition time	60.00reverse acquisition time	0.00gamma	496.2192k internal	0.2332k external	0.2332temperature offset calibration	1.0119default loss term (dB/km)	0.3790temperature slope calibration	1.0000multiplexer offset coefficient	1.0000multiplexer slope coefficient	1.0000fibre end	0.00T internal ref (°C)	28.06T ext. ref 1 (°C)	3.68T ext. ref 2 (°C)	22.61length (m)	temperature (°C)	Stokes	anti-Stokes-747.200	-200.000	-0.022	0.371
-746.185	212.487	0.216	-0.343
-745.171	-200.000	-0.015	-0.218
-744.156	1.640	-0.261	0.189
-743.142	-200.000	0.002	-0.050
-742.127	-118.215	-0.048	-0.009
-741.112	-200.000	-0.037	-0.219
-740.098	-49.680	-0.458	0.219
-739.083	-129.152	-0.147	-0.021
-738.069	-31.803	0.236	0.133
-737.054	62.428	-0.149	0.149
-736.039	19.295	-0.329	-0.265
-735.025	-200.000	-0.020	0.272
-734.010	-200.000	-0.012	0.113
-732.996	-97.375	-0.091	0.024
-731.981	-200.000	0.006	0.144
-730.966	49.880	-0.190	-0.180
-729.952	-146.838	-0.036	0.003
-728.937	-141.181	-0.205	0.021
-727.923	-200.000	0.006	0.137
-726.908	5.887	-0.137	-0.102
-725.894	-17.975	0.162	-0.102
-724.879	-200.000	-0.080	0.587
-723.864	162.247	-0.062	-0.087
-722.850	-200.000	0.001	-0.020
-721.835	-41.618	0.088	0.046
-720.821	423.394	-0.060	-0.131
-719.806	-117.271	0.245	0.045
-718.791	-187.741	0.167	0.002
-717.777	143.645	-0.024	0.032
-716.762	-200.000	0.002	-0.098
-715.748	138.756	-0.119	-0.157
-714.733	-1.677	-0.222	-0.157
-713.718	800.000	-0.024	-0.093
-712.704	20.954	0.272	-0.222
-711.689	800.000	0.158	-0.455
-710.675	-58.864	-0.044	-0.019
-709.660	710.354	0.139	-0.369
-708.645	293.874	0.160	-0.294
-707.631	-121.347	-0.252	-0.042
-706.616	-200.000	-0.052	-0.251
-705.602	102.649	0.056	0.066
-704.587	-103.400	0.243	-0.058
-703.572	-24.219	0.200	-0.120
-702.558	-49.529	-0.104	-0.050
-701.543	-200.000	0.007	-0.097
-700.529	-200.000	0.010	0.240
-699.514	-200.000	-0.000	0.093
-698.499	-8.148	-0.029	0.019
-697.485	-200.000	0.004	0.088
-696.470	96.886	0.207	-0.238
-695.456	-200.000	0.022	-0.264
-694.441	8.203	-0.156	0.118
-693.426	22.406	0.118	-0.097
-692.412	95.271	0.119	-0.136
-691.397	13.351	-0.343	-0.267
-690.383	-200.000	0.006	0.292
-689.368	498.876	0.091	0.210
-688.354	133.349	0.087	0.113
-687.339	-76.014	-0.026	0.009
-686.324	-200.000	0.003	-0.295
-685.310	800.000	0.064	0.194
-684.295	78.534	-0.076	0.082
-683.281	-9.248	-0.299	-0.201
-682.266	-200.000	-0.021	-0.175
-681.251	16.920	-0.158	0.125
-680.237	292.993	0.014	-0.025
-679.222	800.000	0.053	-0.221
-678.208	279.048	-0.070	-0.125
-677.193	-34.896	-0.201	0.110
-676.178	-200.000	-0.039	-0.448
-675.164	-200.000	-0.010	-0.233
-674.149	-200.000	-0.011	-0.102
-673.135	800.000	-0.117	-0.363
-672.120	133.824	0.128	0.167
-671.105	386.261	-0.033	-0.068
-670.091	294.488	-0.092	0.168
-669.076	108.266	-0.108	-0.129
-668.062	-54.434	-0.192	0.087
-667.047	-168.398	-0.116	0.004
-666.032	150.600	-0.245	-0.334
-665.018	-200.000	0.024	-0.202
-664.003	-44.562	0.422	0.211
-662.989	55.410	0.022	0.021
-661.974	498.370	-0.018	0.042
-660.959	-122.369	-0.342	-0.056
-659.945	-200.000	-0.034	0.151
-658.930	100.867	0.120	-0.139
-657.916	-200.000	0.001	-0.302
-656.901	-200.000	-0.037	-0.224
-655.886	-200.000	0.011	-0.109
-654.872	-49.562	-0.143	-0.068
-653.857	237.537	-0.057	-0.094
-652.843	800.000	0.076	0.253
-651.828	-25.990	0.061	-0.036
-650.814	18.190	-0.141	-0.113
-649.799	-35.231	-0.277	-0.151
-648.784	45.800	0.223	-0.207
-647.770	424.140	0.129	0.278
-646.755	161.198	-0.093	-0.130
-645.741	-200.000	-0.010	-0.195
-644.726	-15.744	0.155	-0.099
-643.711	-43.538	-0.339	0.171
-642.697	39.534	0.179	0.161
-641.682	424.607	-0.073	0.158
-640.668	-200.000	0.056	0.272
-639.653	130.712	-0.314	0.403
-638.638	320.735	-0.062	-0.118
-637.624	71.674	-0.115	-0.119
-636.609	-64.963	-0.419	-0.170
-635.595	-71.568	0.303	0.113
-634.580	362.956	-0.049	0.098
-633.565	87.075	0.031	0.034
-632.551	521.867	-0.154	-0.361
-631.536	-22.396	-0.037	-0.022
-630.522	3.279	0.150	0.109
-629.507	-200.000	-0.008	0.152
-628.492	-200.000	0.051	-0.416
-627.478	179.119	0.137	-0.200
-626.463	-200.000	0.033	-0.402
-625.449	52.935	0.075	-0.072
-624.434	505.567	0.104	-0.242
-623.419	175.955	0.233	-0.338
-622.405	-200.000	0.076	0.366
-621.390	-2.500	-0.100	0.070
-620.376	-158.119	0.202	-0.012
-619.361	531.859	0.044	-0.104
-618.346	-200.000	-0.002	0.114
-617.332	-65.655	0.149	0.060
-616.317	800.000	-0.118	0.379
-615.303	-91.535	-0.174	0.050
-614.288	-127.273	0.213	0.031
-613.273	-33.994	0.287	0.158
-612.259	81.376	-0.175	0.189
-611.244	-200.000	0.013	0.083
-610.230	89.843	-0.213	0.238
-609.215	-200.000	-0.008	-0.189
-608.201	-13.578	0.189	-0.122
-607.186	800.000	-0.033	0.109
-606.171	147.374	0.077	-0.103
-605.157	-5.178	0.377	-0.260
-604.142	268.358	0.148	-0.259
-603.128	118.141	-0.053	-0.066
-602.113	-150.530	0.172	-0.013
-601.098	608.520	0.212	0.529
-600.084	574.901	0.022	-0.053
-599.069	654.677	0.030	0.077
-598.055	78.908	-0.112	0.120
-597.040	-70.559	0.176	-0.067
-596.025	-99.622	-0.150	-0.038
-595.011	-102.661	0.205	-0.049
-593.996	-39.044	-0.072	0.038
-592.982	-140.632	-0.093	-0.010
-591.967	48.264	-0.262	-0.245
-590.952	-200.000	0.016	0.311
-589.938	-200.000	0.027	0.238
-588.923	23.644	0.250	0.205
-587.909	-128.966	-0.036	0.005
-586.894	386.014	-0.133	0.274
-585.879	157.737	0.043	-0.059
-584.865	-200.000	-0.007	0.158
-583.850	-145.615	-0.413	-0.037
-582.836	-103.809	-0.199	0.047
-581.821	-107.130	0.280	0.062
-580.806	-153.603	0.152	0.011
-579.792	167.275	-0.200	0.284
-578.777	526.343	-0.064	-0.150
-577.763	-70.651	-0.014	-0.005
-576.748	510.155	-0.218	-0.506
-575.733	56.802	-0.197	0.192
-574.719	664.949	0.029	-0.076
-573.704	-71.645	0.493	-0.184
-572.690	-199.757	0.201	0.001
-571.675	-115.723	-0.080	0.015
-570.661	-129.692	-0.301	-0.041
-569.646	356.019	-0.031	-0.062
-568.631	360.284	-0.141	0.283
-567.617	-200.000	-0.078	-0.463
-566.602	-71.340	-0.108	-0.041
-565.588	-130.805	0.164	0.022
-564.573	101.175	0.123	0.144
-563.558	-200.000	0.015	-0.279
-562.544	-19.900	-0.282	-0.174
-561.529	-122.657	0.398	-0.064
-560.515	29.266	0.394	-0.334
-559.500	-159.053	0.094	-0.005
-558.485	-200.000	0.040	-0.246
-557.471	-200.000	-0.001	0.268
-556.456	40.136	0.159	0.143
-555.442	592.095	0.071	0.175
-554.427	17.815	0.078	-0.062
-553.412	-200.000	0.010	-0.154
-552.398	-16.282	0.217	0.138
-551.383	-104.481	0.148	-0.034
-550.369	-200.000	-0.010	-0.175
-549.354	-14.069	-0.190	0.123
-548.339	-91.361	0.113	0.032
-547.325	-156.328	0.251	0.016
-546.310	481.573	-0.057	0.130
-545.296	-147.637	0.168	0.014
-544.281	-74.263	-0.155	-0.056
-543.266	-71.168	-0.291	0.109
-542.252	570.079	0.070	-0.170
-541.237	-136.503	-0.154	0.018
-540.223	800.000	-0.044	-0.160
-539.208	-185.127	-0.419	0.007
-538.193	-169.467	-0.094	-0.003
-537.179	-45.577	-0.366	-0.181
-536.164	256.557	0.083	0.142
-535.150	-70.019	-0.329	-0.125
-534.135	-200.000	0.000	0.013
-533.121	-107.552	-0.254	0.055
-532.106	-200.000	-0.038	0.273
-531.091	679.684	0.100	-0.259
-530.077	-21.199	0.009	-0.006
-529.062	-200.000	0.014	-0.189
-528.048	291.375	-0.042	0.077
-527.033	172.565	0.116	0.167
-526.018	-48.101	-0.193	-0.093
-525.004	296.488	-0.075	-0.137
-523.989	308.236	0.143	-0.266
-522.975	-98.311	-0.215	0.055
-521.960	-200.000	-0.211	-0.000
-520.945	-200.000	-0.003	-0.164
-519.931	800.000	-0.080	-0.272
-518.916	87.521	-0.036	-0.040
-517.902	6.880	-0.242	0.180
-516.887	-40.012	-0.224	0.117
-515.872	-200.000	-0.023	-0.481
-514.858	-57.858	-0.188	0.082
-513.843	45.140	0.273	0.251
-512.829	-139.146	-0.313	0.034
-511.814	-102.884	-0.147	0.035
-510.799	107.872	-0.073	-0.087
-509.785	96.749	0.232	0.265
-508.770	800.000	-0.084	-0.284
-507.756	-41.051	0.141	0.073
-506.741	-200.000	0.019	-0.289
-505.726	-36.176	0.316	-0.170
-504.712	15.750	0.142	0.111
-503.697	168.095	0.144	0.204
-502.683	-58.802	0.088	0.038
-501.668	177.010	-0.112	0.163
-500.653	-96.557	-0.221	0.058
-499.639	800.000	0.088	0.358
-498.624	150.565	-0.147	0.199
-497.610	-200.000	-0.021	-0.530
-496.595	86.619	-0.215	-0.236
-495.581	-200.000	-0.015	-0.161
-494.566	10.322	-0.075	0.057
-493.551	17.586	-0.216	-0.171
-492.537	800.000	0.055	0.217
-491.522	90.720	0.102	-0.114
-490.508	609.443	0.111	-0.276
-489.493	-137.448	-0.175	-0.020
-488.478	-67.164	0.296	0.116
-487.464	259.770	0.055	0.095
-486.449	-200.000	0.015	0.174
-485.435	-200.000	-0.071	0.346
-484.420	-200.000	-0.010	0.293
-483.405	-21.827	-0.227	0.137
-482.391	-23.996	-0.219	-0.130
-481.376	800.000	-0.032	-0.099
-480.362	-69.915	0.173	0.066
-479.347	56.829	0.129	-0.125
-478.332	-200.000	-0.047	-0.233
-477.318	11.519	0.112	-0.086
-476.303	67.133	0.158	0.160
-475.289	-15.027	-0.140	-0.089
-474.274	-107.579	0.286	-0.062
-473.259	93.721	-0.169	-0.191
-472.245	234.971	-0.091	0.150
-471.230	-200.000	0.009	-0.091
-470.216	63.985	-0.074	-0.074
-469.201	206.950	-0.206	0.320
-468.186	-200.000	0.004	0.209
-467.172	66.295	0.227	0.229
-466.157	-200.000	0.050	-0.344
-465.143	290.920	-0.124	-0.224
-464.128	-92.521	-0.146	0.041
-463.113	-93.218	-0.159	-0.044
-462.099	-73.868	-0.113	-0.041
-461.084	-55.873	-0.365	0.162
-460.070	-132.535	-0.139	0.018
-459.055	-177.435	0.175	0.004
-458.040	-95.120	0.218	-0.059
-457.026	800.000	0.117	0.381
-456.011	-169.698	0.231	-0.008
-454.997	19.357	0.188	-0.150
-453.982	310.036	-0.046	0.086
-452.968	-119.763	0.264	0.045
-451.953	-200.000	-0.037	0.177
-450.938	-22.569	0.080	0.048
-449.924	-14.045	-0.334	-0.214
-448.909	314.769	-0.145	-0.272
-447.895	55.428	0.485	-0.467
-446.880	-179.059	-0.039	0.001
-445.865	-23.869	0.161	-0.096
-444.851	-75.499	0.227	0.080
-443.836	26.567	0.054	-0.045
-442.822	-138.726	-0.248	0.027
-441.807	-148.457	0.219	-0.018
-440.792	-66.552	0.082	-0.032
-439.778	183.490	-0.120	-0.177
-438.763	463.680	-0.037	-0.082
-437.749	-152.790	0.153	-0.011
-436.734	299.632	0.142	0.261
-435.719	-7.687	0.062	0.042
-434.705	-2.089	-0.156	-0.109
-433.690	-200.000	0.064	0.308
-432.676	7.113	0.306	-0.227
-431.661	641.852	-0.080	-0.203
-430.646	-154.627	-0.112	-0.007
-429.632	800.000	-0.066	0.219
-428.617	139.864	0.076	-0.099
-427.603	137.041	0.164	-0.213
-426.588	424.801	-0.084	-0.179
-425.573	248.253	-0.106	0.179
-424.559	225.251	-0.094	0.151
-423.544	72.097	0.120	-0.124
-422.530	298.162	-0.114	0.207
-421.515	33.827	0.287	0.248
-420.500	2.756	0.172	-0.124
-419.486	519.567	0.231	0.537
-418.471	-4.988	0.056	0.038
-417.457	68.092	-0.039	-0.040
-416.442	-72.589	0.391	-0.143
-415.428	742.486	0.065	-0.174
-414.413	281.621	-0.076	0.135
-413.398	117.117	0.085	0.104
-412.384	126.714	0.085	0.107
-411.369	800.000	-0.028	-0.117
-410.355	-69.775	0.173	-0.066
-409.340	-93.267	0.344	-0.095
-408.325	-200.000	-0.029	-0.270
-407.311	44.566	0.150	-0.137
-406.296	-200.000	0.064	-0.368
-405.282	-126.412	0.095	-0.014
-404.267	62.419	0.182	0.180
-403.252	-75.757	0.059	-0.021
-402.238	-200.000	0.068	0.371
-401.223	-7.954	-0.117	-0.079
-400.209	-103.677	0.150	0.035
-399.194	346.374	0.036	0.071
-398.179	288.896	0.132	-0.237
-397.165	92.273	-0.259	0.289
-396.150	-198.091	-0.174	0.001
-395.136	-200.000	0.003	-0.077
-394.121	800.000	0.028	0.081
-393.106	-41.232	0.226	0.116
-392.092	-200.000	0.035	0.260
-391.077	-94.977	-0.126	-0.034
-390.063	-70.396	0.075	-0.028
-389.048	-124.210	0.184	-0.029
-388.033	-148.125	-0.358	-0.029
-387.019	-10.156	0.236	-0.155
-386.004	694.008	0.078	-0.202
-384.990	-200.000	-0.036	-0.294
-383.975	139.982	0.191	-0.249
-382.960	335.622	0.027	-0.051
-381.946	-0.820	0.232	-0.163
-380.931	-50.212	0.278	0.130
-379.917	-161.940	0.112	0.006
-378.902	-75.815	-0.230	-0.081
-377.888	88.607	-0.366	0.404
-376.873	-200.000	-0.071	0.343
-375.858	800.000	-0.076	0.231
-374.844	-61.627	0.069	0.029
-373.829	-4.822	0.151	0.103
-372.815	-4.684	-0.059	-0.040
-371.800	800.000	0.051	0.188
-370.785	800.000	-0.101	0.311
-369.771	18.832	-0.167	-0.133
-368.756	134.542	0.196	-0.252
-367.742	109.051	-0.131	0.156
-366.727	-50.995	0.159	-0.074
-365.712	648.733	0.098	0.247
-364.698	43.038	-0.115	-0.104
-363.683	-200.000	-0.011	-0.331
-362.669	-108.676	0.460	-0.098
-361.654	800.000	-0.157	-0.516
-360.639	-200.000	0.012	-0.103
-359.625	-99.084	-0.350	0.088
-358.610	-56.415	0.187	-0.082
-357.596	97.206	-0.089	0.101
-356.581	800.000	-0.139	-0.541
-355.566	-57.902	-0.094	-0.041
-354.552	-200.000	0.064	0.340
-353.537	509.710	-0.037	0.086
-352.523	325.913	-0.087	0.165
-351.508	-200.000	-0.013	0.059
-350.493	189.205	-0.055	-0.081
-349.479	-65.179	0.303	-0.121
-348.464	39.793	0.382	-0.340
-347.450	-61.156	0.126	-0.053
-346.435	102.282	-0.237	-0.274
-345.420	-11.662	-0.217	-0.141
-344.406	-62.831	-0.169	0.069
-343.391	-200.000	0.020	0.358
-342.377	-200.000	0.002	0.211
-341.362	70.281	-0.054	0.055
-340.348	-200.000	-0.022	0.240
-339.333	-50.829	-0.078	-0.036
-338.318	11.472	0.087	-0.066
-337.304	800.000	-0.024	0.089
-336.289	33.669	-0.030	-0.026
-335.275	800.000	0.023	0.071
-334.260	-200.000	-0.016	0.080
-333.245	-3.592	0.082	0.056
-332.231	-177.673	0.284	0.007
-331.216	273.171	0.088	-0.155
-330.202	-25.882	-0.266	-0.155
-329.187	-200.000	0.002	-0.017
-328.172	-197.851	0.374	0.002
-327.158	-200.000	0.070	-0.357
-326.143	118.922	-0.232	0.284
-325.129	-200.000	-0.007	-0.089
-324.114	-200.000	0.029	0.148
-323.099	84.096	-0.103	0.112
-322.085	7.677	0.176	-0.131
-321.070	-92.646	0.231	0.064
-320.056	-200.000	-0.034	-0.355
-319.041	-200.000	0.002	0.034
-318.026	800.000	0.069	-0.197
-317.012	-102.290	0.270	0.064
-315.997	50.101	-0.181	-0.169
-314.983	-82.065	-0.303	0.098
-313.968	-200.000	0.017	0.078
-312.953	-15.023	0.242	0.153
-311.939	-49.513	-0.202	0.095
-310.924	516.325	0.063	-0.147
-309.910	-200.000	0.011	0.249
-308.895	302.450	0.163	0.298
-307.880	78.181	-0.269	0.284
-306.866	162.072	0.107	0.148
-305.851	159.432	0.183	-0.252
-304.837	202.612	0.082	-0.126
-303.822	172.962	-0.210	0.299
-302.807	-200.000	-0.013	-0.081
-301.793	-47.025	-0.234	-0.113
-300.778	3.139	0.141	0.101
-299.764	-190.110	0.243	0.003
-298.749	-155.413	-0.334	-0.021
-297.735	-56.444	-0.204	0.089
-296.720	-200.000	0.026	-0.282
-295.705	-200.000	-0.009	-0.194
-294.691	-84.284	-0.027	-0.008
-293.676	179.674	-0.042	-0.061
-292.662	-10.907	0.161	0.105
-291.647	37.376	-0.236	0.207
-290.632	307.502	-0.042	-0.078
-289.618	-200.000	-0.046	0.373
-288.603	-132.008	0.267	-0.034
-287.589	-151.341	0.272	-0.020
-286.574	-200.000	-0.025	-0.111
-285.559	646.715	-0.092	0.232
-284.545	-200.000	-0.008	0.128
-283.530	339.284	0.113	-0.217
-282.516	-61.481	0.315	0.131
-281.501	3.819	-0.087	-0.063
-280.486	-200.000	0.004	-0.179
-279.472	-200.000	-0.012	-0.171
-278.457	57.601	0.319	-0.308
-277.443	800.000	-0.150	0.467
-276.428	-154.640	-0.268	0.018
-275.413	43.878	-0.156	0.141
-274.399	800.000	0.028	0.083
-273.384	237.328	-0.065	-0.106
-272.370	800.000	-0.063	0.228
-271.355	194.604	-0.025	0.038
-270.340	-200.000	-0.008	0.235
-269.326	-3.373	0.344	0.236
-268.311	468.715	0.058	-0.129
-267.297	-200.000	-0.007	0.269
-266.282	-121.623	-0.559	-0.092
-265.267	-122.956	0.189	0.030
-264.253	123.003	-0.267	-0.330
-263.238	-161.297	-0.171	0.009
-262.224	59.547	-0.042	0.041
-261.209	-200.000	-0.262	-0.001
-260.195	48.741	-0.205	0.190
-259.180	58.264	0.121	0.117
-258.165	-82.534	0.106	-0.034
-257.151	-167.167	0.163	0.007
-256.136	19.869	0.095	0.076
-255.122	-112.293	-0.126	0.025
-254.107	-200.000	-0.236	-0.000
-253.092	454.075	0.041	0.090
-252.078	62.526	-0.354	0.349
-251.063	30.968	0.274	-0.232
-250.049	20.325	-0.205	-0.163
-249.034	-142.614	-0.302	-0.029
-248.019	221.929	-0.128	0.203
-247.005	205.341	-0.096	-0.148
-245.990	626.181	-0.090	0.223
-244.976	15.430	0.239	0.185
-243.961	-135.954	-0.452	0.052
-242.946	-66.547	0.344	-0.135
-241.932	800.000	0.066	-0.190
-240.917	-161.566	-0.202	0.010
-239.903	-98.157	-0.207	-0.052
-238.888	-200.000	0.001	-0.157
-237.873	-62.789	-0.075	0.031
-236.859	81.404	-0.169	0.181
-235.844	63.828	0.076	0.075
-234.830	-68.171	-0.098	-0.038
-233.815	133.363	-0.240	0.307
-232.800	84.397	-0.218	-0.235
-231.786	580.670	0.149	-0.361
-230.771	347.654	0.030	0.059
-229.757	133.129	0.311	0.397
-228.742	-109.050	-0.286	-0.060
-227.727	-83.084	0.143	-0.045
-226.713	-200.000	-0.005	0.058
-225.698	-200.000	0.027	-0.179
-224.684	-131.767	0.377	-0.049
-223.669	-41.486	0.128	0.065
-222.655	800.000	0.066	0.261
-221.640	-200.000	0.018	-0.254
-220.625	800.000	0.061	0.260
-219.611	-200.000	-0.014	-0.229
-218.596	-95.403	-0.252	-0.067
-217.582	147.875	-0.160	0.213
-216.567	125.329	-0.171	0.212
-215.552	-87.364	0.331	0.099
-214.538	41.260	0.295	0.263
-213.523	800.000	0.151	0.412
-212.509	800.000	-0.124	0.366
-211.494	73.976	-0.077	0.079
-210.479	-200.000	-0.029	0.183
-209.465	-9.970	-0.069	0.046
-208.450	329.057	-0.094	-0.177
-207.436	-67.357	0.175	0.068
-206.421	-103.662	0.139	-0.032
-205.406	800.000	-0.081	-0.269
-204.392	800.000	0.012	-0.036
-203.377	51.957	0.066	0.062
-202.363	-97.053	-0.079	0.020
-201.348	239.260	0.038	0.063
-200.333	-80.452	0.315	-0.104
-199.319	392.667	0.109	-0.223
-198.304	-100.524	-0.387	-0.094
-197.290	-200.000	-0.298	-0.001
-196.275	-200.000	-0.016	-0.152
-195.260	-86.704	-0.290	-0.088
-194.246	276.673	-0.214	0.375
-193.231	-200.000	-0.038	0.200
-192.217	-119.428	-0.278	-0.047
-191.202	27.941	-0.240	-0.199
-190.187	-81.069	-0.120	0.039
-189.173	42.606	-0.227	0.204
-188.158	348.000	0.143	0.277
-187.144	73.615	0.164	0.169
-186.129	-200.000	0.005	-0.134
-185.114	-84.319	0.299	-0.093
-184.100	-38.658	0.165	0.086
-183.085	4.824	-0.332	-0.240
-182.071	9.223	-0.245	-0.182
-181.056	153.458	0.051	-0.068
-180.042	50.745	0.279	-0.260
-179.027	280.998	0.189	-0.333
-178.012	167.910	-0.125	0.175
-176.998	-2.275	-0.070	-0.048
-175.983	-200.000	-0.002	0.166
-174.969	-62.169	-0.180	0.074
-173.954	705.524	-0.090	-0.232
-172.939	-54.417	-0.257	0.115
-171.925	40.869	0.537	-0.477
-170.910	-200.000	-0.013	-0.219
-169.896	-200.000	0.063	0.327
-168.881	-104.377	-0.275	-0.063
-167.866	-106.620	0.085	-0.019
-166.852	724.805	0.088	-0.231
-165.837	397.823	-0.088	-0.181
-164.823	446.364	0.088	-0.190
-163.808	23.422	-0.257	0.208
-162.793	-200.000	0.021	-0.102
-161.779	224.190	0.021	0.033
-160.764	61.304	-0.100	-0.097
-159.750	-57.669	0.200	0.086
-158.735	-29.360	0.213	0.120
-157.720	-27.559	0.320	0.183
-156.706	677.611	-0.063	0.160
-155.691	45.620	-0.046	-0.042
-154.677	-85.502	0.226	-0.069
-153.662	-123.819	-0.378	-0.059
-152.647	-200.000	0.021	-0.181
-151.633	-154.562	-0.233	0.015
-150.618	-109.615	-0.049	0.010
-149.604	434.084	0.105	-0.223
-148.589	-200.000	0.063	-0.279
-147.574	-200.000	-0.002	0.060
-146.560	456.405	0.006	0.014
-145.545	-122.674	0.167	-0.027
-144.531	-35.773	-0.207	0.110
-143.516	695.061	-0.092	-0.238
-142.502	-46.827	0.301	0.145
-141.487	-23.415	0.107	0.063
-140.472	-28.495	0.162	0.092
-139.458	419.432	-0.032	0.066
-138.443	-112.944	-0.318	-0.062
-137.429	-54.781	0.036	-0.016
-136.414	800.000	-0.078	0.251
-135.399	-18.298	0.264	-0.162
-134.385	524.167	-0.130	-0.300
-133.370	-11.916	-0.238	-0.153
-132.356	-92.261	0.117	-0.032
-131.341	432.323	-0.034	-0.073
-130.326	800.000	-0.066	0.193
-129.312	-40.106	0.416	0.213
-128.297	29.737	0.143	0.120
-127.283	-72.410	0.188	-0.068
-126.268	299.991	0.121	-0.219
-125.253	222.459	0.196	0.309
-124.239	-123.053	-0.078	0.012
-123.224	661.592	0.080	0.201
-122.210	-75.414	-0.148	0.052
