DTS Sentinel unit serial number:	SN413079Multiplexer serial number:	ORYXHardware model number:	OX4-SRSoftware version number:	ORYX F/W v4.00 Oryx Data Collector v3.7.2.0data status	okinstallation	princeton_trtdifferential loss correction	single-endedforward channel	channel 3reverse channel	N/Adate	2019/09/18time	10:16:35forward acquisition time	60.00reverse acquisition time	0.00gamma	496.2192k internal	0.2332k external	0.2332temperature offset calibration	0.9952default loss term (dB/km)	0.3790temperature slope calibration	1.0000multiplexer offset coefficient	1.0000multiplexer slope coefficient	1.0000fibre end	0.00T internal ref (°C)	27.94T ext. ref 1 (°C)	0.33T ext. ref 2 (°C)	24.34length (m)	temperature (°C)	Stokes	anti-Stokes-747.200	-21.546	0.078	0.048
-746.185	98.753	-0.115	0.134
-745.171	800.000	0.123	0.382
-744.156	-21.890	-0.101	-0.062
-743.142	5.973	0.237	0.177
-742.127	-177.009	-0.280	-0.007
-741.112	-200.000	-0.043	-0.198
-740.098	296.735	-0.030	0.056
-739.083	800.000	0.088	-0.342
-738.069	-101.264	-0.147	0.036
-737.054	-171.649	-0.176	-0.006
-736.039	-200.000	-0.002	-0.459
-735.025	148.566	0.103	0.140
-734.010	-200.000	-0.003	0.153
-732.996	-200.000	0.000	0.195
-731.981	-100.348	-0.178	-0.044
-730.966	25.232	-0.107	-0.089
-729.952	800.000	-0.169	-0.487
-728.937	-200.000	0.073	-0.453
-727.923	-200.000	0.003	-0.173
-726.908	-46.237	-0.340	0.168
-725.894	-79.448	-0.078	-0.027
-724.879	800.000	-0.067	0.213
-723.864	-147.172	-0.299	-0.026
-722.850	-7.178	-0.160	0.109
-721.835	-19.108	-0.133	0.083
-720.821	800.000	-0.114	-0.412
-719.806	56.185	-0.044	-0.043
-718.791	-145.166	-0.237	-0.022
-717.777	-200.000	-0.036	-0.196
-716.762	142.534	0.056	0.075
-715.748	-65.920	0.108	0.043
-714.733	-188.574	-0.233	0.003
-713.718	-200.000	-0.000	-0.186
-712.704	-46.797	-0.124	-0.061
-711.689	617.097	0.109	-0.276
-710.675	-148.776	0.188	0.015
-709.660	-166.945	0.172	-0.007
-708.645	144.621	-0.132	-0.177
-707.631	134.192	-0.112	0.146
-706.616	299.976	-0.125	0.232
-705.602	-73.738	-0.262	0.096
-704.587	-4.588	0.123	-0.085
-703.572	331.793	-0.089	-0.172
-702.558	-102.798	0.098	0.023
-701.543	-43.163	-0.243	-0.124
-700.529	83.150	-0.162	0.177
-699.514	-81.563	0.083	0.027
-698.499	-200.000	0.052	-0.340
-697.485	-41.052	0.299	-0.155
-696.470	32.464	-0.237	0.205
-695.456	-20.631	-0.277	-0.171
-694.441	37.395	-0.314	-0.279
-693.426	-72.587	-0.246	-0.091
-692.412	-105.591	0.316	0.072
-691.397	-200.000	-0.014	-0.094
-690.383	310.633	-0.132	-0.248
-689.368	800.000	-0.083	-0.305
-688.354	95.510	-0.167	-0.192
-687.339	210.346	-0.118	0.187
-686.324	-56.319	-0.360	0.161
-685.310	-1.896	0.281	0.199
-684.295	138.646	0.202	-0.266
-683.281	-34.895	-0.396	-0.217
-682.266	800.000	-0.163	-0.558
-681.251	-16.551	-0.422	-0.269
-680.237	154.354	0.323	-0.445
-679.222	67.117	-0.274	0.280
-678.208	-153.008	-0.267	-0.019
-677.193	-38.335	0.075	-0.040
-676.178	800.000	0.079	0.220
-675.164	-200.000	0.049	0.244
-674.149	-82.903	-0.413	-0.134
-673.135	74.521	-0.283	-0.299
-672.120	-87.924	-0.182	-0.055
-671.105	-78.980	0.171	0.058
-670.091	312.219	0.147	-0.276
-669.076	65.546	0.160	-0.163
-668.062	165.755	-0.156	-0.222
-667.047	189.989	0.202	-0.305
-666.032	-200.000	-0.002	0.060
-665.018	-200.000	-0.013	-0.256
-664.003	-200.000	0.007	-0.031
-662.989	253.720	0.106	-0.182
-661.974	656.225	-0.112	-0.289
-660.959	-200.000	-0.007	-0.104
-659.945	-200.000	0.002	-0.233
-658.930	-69.938	0.109	-0.041
-657.916	282.930	-0.069	-0.123
-656.901	-112.059	-0.292	-0.059
-655.886	21.989	0.062	-0.051
-654.872	147.900	0.181	0.245
-653.857	-32.096	-0.323	0.181
-652.843	97.612	0.179	-0.207
-651.828	-130.444	-0.299	0.041
-650.814	-21.384	-0.194	0.119
-649.799	69.275	-0.089	0.091
-648.784	3.388	0.204	-0.149
-647.770	160.422	-0.072	-0.101
-646.755	157.502	-0.054	-0.074
-645.741	355.454	-0.059	0.118
-644.726	696.217	0.157	0.412
-643.711	-200.000	0.007	-0.258
-642.697	-97.959	0.145	-0.037
-641.682	-183.640	0.592	0.010
-640.668	-76.918	-0.307	-0.107
-639.653	-26.135	-0.182	0.107
-638.638	159.477	-0.117	0.163
-637.624	-80.785	0.149	-0.050
-636.609	-109.285	0.105	-0.022
-635.595	429.903	-0.051	0.111
-634.580	48.268	0.071	0.066
-633.565	-100.384	-0.156	-0.039
-632.551	7.035	0.288	-0.215
-631.536	-200.000	0.003	-0.427
-630.522	-200.000	-0.022	-0.228
-629.507	64.965	-0.253	-0.256
-628.492	-200.000	0.033	0.391
-627.478	197.470	-0.150	0.229
-626.463	-44.648	-0.249	-0.124
-625.449	85.624	0.138	-0.152
-624.434	222.519	-0.172	0.277
-623.419	24.279	-0.234	0.193
-622.405	-3.627	0.141	0.098
-621.390	633.830	0.083	0.210
-620.376	253.859	0.036	-0.062
-619.361	-141.096	-0.060	-0.006
-618.346	121.071	0.177	-0.220
-617.332	-56.721	-0.174	-0.077
-616.317	-54.108	0.201	0.092
-615.303	169.289	0.060	-0.085
-614.288	274.918	0.056	0.100
-613.273	183.696	0.034	0.050
-612.259	-90.570	0.141	0.041
-611.244	474.676	0.076	-0.172
-610.230	-122.979	-0.391	-0.063
-609.215	-28.216	0.123	0.071
-608.201	4.587	0.278	-0.204
-607.186	-200.000	-0.034	-0.183
-606.171	-25.352	-0.146	-0.086
-605.157	-200.000	0.052	0.318
-604.142	-102.149	-0.236	-0.057
-603.128	30.081	-0.073	0.063
-602.113	-76.736	0.189	-0.066
-601.098	-32.939	0.299	0.166
-600.084	-89.262	0.415	-0.122
-599.069	623.600	-0.147	0.370
-598.055	638.048	0.166	0.423
-597.040	-90.692	0.407	0.118
-596.025	75.234	-0.105	-0.111
-595.011	-200.000	0.020	-0.198
-593.996	81.113	0.082	0.089
-592.982	131.146	0.161	-0.207
-591.967	-142.063	0.253	-0.025
-590.952	298.112	-0.024	0.044
-589.938	13.963	0.202	-0.157
-588.923	-129.027	-0.324	-0.045
-587.909	33.160	0.249	-0.216
-586.894	-81.805	-0.237	-0.078
-585.879	222.808	0.140	-0.225
-584.865	-200.000	-0.026	0.274
-583.850	600.750	-0.130	-0.323
-582.836	649.987	-0.025	-0.065
-581.821	22.075	-0.233	-0.190
-580.806	269.647	0.088	-0.154
-579.792	-200.000	0.001	0.257
-578.777	5.116	0.263	0.193
-577.763	-10.347	-0.136	-0.090
-576.748	-101.939	0.169	-0.041
-575.733	-200.000	0.022	0.345
-574.719	68.186	0.263	-0.269
-573.704	247.194	0.099	-0.167
-572.690	-66.300	-0.285	-0.113
-571.675	-61.513	-0.204	-0.086
-570.661	-99.302	0.122	0.031
-569.646	-62.679	-0.269	-0.111
-568.631	800.000	-0.079	0.290
-567.617	111.222	0.129	-0.155
-566.602	800.000	-0.071	0.210
-565.588	94.074	-0.110	-0.125
-564.573	-200.000	-0.036	0.164
-563.558	335.050	-0.162	-0.313
-562.544	135.254	0.089	0.116
-561.529	800.000	-0.090	0.255
-560.515	-200.000	-0.012	-0.195
-559.500	-174.583	-0.389	-0.011
-558.485	-200.000	0.026	-0.199
-557.471	-27.430	0.161	0.093
-556.456	800.000	-0.045	-0.133
-555.442	683.054	0.040	-0.105
-554.427	-47.806	0.284	0.137
-553.412	156.746	0.220	-0.303
-552.398	-95.915	-0.124	-0.033
-551.383	106.498	0.072	-0.086
-550.369	-200.000	-0.039	0.229
-549.354	-200.000	0.051	0.378
-548.339	-75.894	-0.182	-0.064
-547.325	183.476	-0.162	-0.239
-546.310	-200.000	0.006	-0.282
-545.296	800.000	-0.083	-0.279
-544.281	-200.000	0.029	0.135
-543.266	317.016	-0.077	0.145
-542.252	23.451	0.096	-0.079
-541.237	800.000	0.120	-0.334
-540.223	203.730	-0.238	-0.368
-539.208	-114.917	-0.431	-0.082
-538.193	-30.747	0.269	-0.152
-537.179	-26.153	-0.133	-0.078
-536.164	-44.731	0.299	0.149
-535.150	-102.759	-0.165	0.039
-534.135	-99.270	0.359	-0.091
-533.121	-111.470	0.209	-0.042
-532.106	-123.319	0.278	-0.044
-531.091	-200.000	-0.044	0.213
-530.077	612.172	0.089	0.222
-529.062	226.347	-0.067	0.109
-528.048	180.439	-0.067	0.098
-527.033	-97.458	-0.238	-0.062
-526.018	-81.410	-0.416	0.137
-525.004	-200.000	0.013	-0.275
-523.989	-20.784	-0.187	0.114
-522.975	-145.386	-0.323	-0.029
-521.960	14.989	-0.212	0.166
-520.945	-118.237	-0.174	-0.031
-519.931	-22.360	0.234	0.141
-518.916	-200.000	-0.013	-0.078
-517.902	743.820	0.179	0.479
-516.887	72.427	-0.044	-0.046
-515.872	135.270	0.093	-0.121
-514.858	-200.000	0.012	0.260
-513.843	249.214	0.156	-0.263
-512.829	-21.996	-0.245	-0.148
-511.814	-135.267	0.419	-0.050
-510.799	-119.285	0.119	-0.021
-509.785	-104.937	-0.201	0.046
-508.770	109.320	0.050	-0.060
-507.756	152.093	-0.173	-0.236
-506.741	-200.000	-0.050	0.238
-505.726	-96.742	0.185	-0.049
-504.712	75.078	0.251	0.264
-503.697	62.886	0.084	0.084
-502.683	248.063	0.080	-0.135
-501.668	-30.607	-0.121	0.068
-500.653	-59.468	0.176	0.075
-499.639	341.253	0.088	0.172
-498.624	262.037	0.211	0.365
-497.610	800.000	-0.029	0.114
-496.595	-81.881	-0.343	0.112
-495.581	301.258	-0.130	0.240
-494.566	5.722	0.141	-0.104
-493.551	91.254	-0.231	0.259
-492.537	-166.039	-0.179	0.008
-491.522	154.336	-0.157	0.215
-490.508	-200.000	-0.043	0.195
-489.493	270.583	0.144	-0.252
-488.478	101.375	0.143	0.166
-487.464	-200.000	0.049	-0.453
-486.449	150.727	-0.048	0.065
-485.435	-2.484	-0.116	0.081
-484.420	103.818	0.164	-0.192
-483.405	800.000	0.024	-0.087
-482.391	800.000	0.051	-0.199
-481.376	-144.902	0.481	-0.044
-480.362	12.851	-0.082	-0.063
-479.347	579.027	-0.118	-0.287
-478.332	-95.733	-0.141	-0.037
-477.318	218.031	0.089	0.141
-476.303	-54.780	0.092	0.041
-475.289	-28.358	-0.340	0.196
-474.274	94.086	-0.191	0.215
-473.259	-134.861	-0.077	-0.009
-472.245	800.000	-0.047	-0.144
-471.230	584.478	0.097	-0.236
-470.216	-104.535	0.352	0.081
-469.201	-200.000	0.028	0.174
-468.186	-34.728	0.134	-0.073
-467.172	-19.745	0.253	0.155
-466.157	-200.000	0.023	-0.208
-465.143	-167.055	0.068	0.003
-464.128	73.916	-0.101	-0.106
-463.113	36.410	-0.076	0.066
-462.099	-187.318	-0.421	0.006
-461.084	16.065	0.135	-0.106
-460.070	-200.000	-0.097	0.451
-459.055	800.000	0.029	0.083
-458.040	73.730	-0.272	0.284
-457.026	158.789	-0.224	-0.309
-456.011	4.685	-0.233	-0.170
-454.997	-118.463	0.165	0.029
-453.982	263.952	0.142	-0.246
-452.968	138.857	0.142	-0.185
-451.953	-200.000	0.021	0.128
-450.938	800.000	0.034	-0.134
-449.924	20.430	0.106	-0.085
-448.909	554.774	-0.117	0.280
-447.895	421.018	0.239	-0.510
-446.880	-57.437	0.187	0.082
-445.865	-123.437	0.140	0.022
-444.851	38.244	0.155	0.137
-443.836	800.000	0.037	0.127
-442.822	-147.350	0.214	0.018
-441.807	-106.611	0.283	-0.063
-440.792	284.502	-0.110	-0.197
-439.778	253.817	0.099	-0.168
-438.763	-116.948	-0.123	-0.022
-437.749	319.015	-0.079	0.149
-436.734	-124.176	-0.216	-0.034
-435.719	-5.581	-0.170	0.116
-434.705	681.695	0.063	-0.164
-433.690	-81.288	0.149	0.049
-432.676	800.000	-0.133	-0.489
-431.661	-137.699	0.182	-0.020
-430.646	-5.597	-0.026	0.018
-429.632	160.254	-0.213	0.295
-428.617	-57.276	-0.033	-0.014
-427.603	800.000	0.045	0.150
-426.588	-75.047	0.145	0.052
-425.573	-200.000	0.028	0.273
-424.559	-119.930	-0.084	-0.014
-423.544	-35.530	0.092	-0.049
-422.530	37.466	-0.102	-0.089
-421.515	-155.703	-0.086	-0.005
-420.500	165.339	-0.152	0.214
-419.486	800.000	0.030	-0.094
-418.471	-95.355	0.315	-0.084
-417.457	800.000	0.027	0.110
-416.442	-200.000	-0.011	-0.308
-415.428	800.000	-0.036	0.106
-414.413	-30.852	0.185	-0.104
-413.398	-43.049	-0.113	0.057
-412.384	-200.000	0.020	0.462
-411.369	14.974	0.127	-0.099
-410.355	-200.000	-0.033	-0.388
-409.340	800.000	0.059	0.215
-408.325	800.000	-0.110	-0.438
-407.311	27.176	-0.224	0.187
-406.296	-200.000	0.023	0.273
-405.282	-176.827	-0.502	0.013
-404.267	158.201	0.146	-0.201
-403.252	229.923	0.158	0.256
-402.238	-81.567	0.166	-0.054
-401.223	318.878	0.009	-0.017
-400.209	299.225	0.186	-0.341
-399.194	-73.970	-0.176	-0.063
-398.179	-200.000	0.016	0.291
-397.165	800.000	0.035	-0.104
-396.150	-200.000	-0.002	-0.088
-395.136	216.831	-0.331	-0.523
-394.121	-157.412	-0.088	0.005
-393.106	-200.000	-0.001	-0.015
-392.092	800.000	-0.060	-0.181
-391.077	800.000	0.071	-0.195
-390.063	368.348	-0.014	-0.028
-389.048	-109.132	-0.116	-0.024
-388.033	647.930	0.129	-0.328
-387.019	800.000	-0.051	0.180
-386.004	442.429	0.064	0.139
-384.990	-117.214	-0.048	-0.009
-383.975	-51.550	-0.145	-0.067
-382.960	-200.000	-0.046	0.223
-381.946	7.526	0.246	-0.182
-380.931	-96.558	0.203	0.053
-379.917	-200.000	-0.023	-0.243
-378.902	-104.797	0.194	-0.044
-377.888	252.550	-0.156	0.263
-376.873	-101.442	0.261	-0.063
-375.858	-96.749	-0.114	0.030
-374.844	56.464	-0.086	0.083
-373.829	23.503	0.103	0.084
-372.815	800.000	0.029	0.120
-371.800	175.504	-0.142	0.204
-370.785	-59.921	-0.214	0.091
-369.771	-200.000	-0.042	-0.424
-368.756	448.742	0.014	0.030
-367.742	-75.039	0.435	-0.154
-366.727	800.000	-0.073	-0.261
-365.712	-139.214	-0.058	-0.006
-364.698	-75.649	0.300	0.105
-363.683	-200.000	-0.066	0.454
-362.669	800.000	-0.084	0.279
-361.654	-200.000	0.029	-0.131
-360.639	-176.759	0.083	0.002
-359.625	-22.257	0.180	-0.108
-358.610	193.642	-0.112	-0.167
-357.596	666.937	-0.047	-0.122
-356.581	800.000	0.037	0.127
-355.566	93.010	-0.147	0.165
-354.552	33.711	0.072	0.062
-353.537	-180.206	0.032	0.001
-352.523	-30.551	0.227	0.128
-351.508	74.923	0.159	0.166
-350.493	428.101	0.039	-0.084
-349.479	-165.560	-0.180	-0.008
-348.464	52.288	0.059	0.055
-347.450	-105.738	0.196	-0.044
-346.435	-31.061	0.474	-0.265
-345.420	-53.642	-0.047	0.021
-344.406	-58.289	-0.119	0.051
-343.391	464.805	-0.105	-0.233
-342.377	173.210	0.129	-0.184
-341.362	-32.984	-0.200	-0.110
-340.348	800.000	0.030	-0.126
-339.333	92.899	0.054	0.061
-338.318	68.764	0.228	0.232
-337.304	461.009	0.265	0.584
-336.289	3.202	0.313	-0.225
-335.275	-102.030	0.464	0.111
-334.260	-93.073	0.065	-0.018
-333.245	-200.000	-0.090	0.456
-332.231	-105.564	0.246	0.055
-331.216	124.153	0.009	-0.011
-330.202	-136.324	0.293	-0.034
-329.187	763.293	-0.100	0.268
-328.172	-95.119	0.219	-0.059
-327.158	-76.302	-0.196	0.068
-326.143	121.423	0.239	0.294
-325.129	-64.019	0.151	0.061
-324.114	800.000	0.043	-0.167
-323.099	-168.187	0.071	-0.003
-322.085	539.462	-0.155	0.364
-321.070	-170.085	-0.141	0.005
-320.056	-109.195	0.288	0.061
-319.041	-200.000	0.012	0.313
-318.026	-200.000	0.021	-0.272
-317.012	162.113	-0.104	0.145
-315.997	59.503	0.085	-0.083
-314.983	16.974	-0.073	0.057
-313.968	152.342	-0.010	-0.014
-312.953	800.000	0.010	0.040
-311.939	-200.000	0.013	-0.125
-310.924	800.000	0.124	-0.452
-309.910	-85.059	-0.077	-0.024
-308.895	-200.000	-0.020	-0.419
-307.880	-200.000	0.040	0.273
-306.866	150.929	-0.107	0.144
-305.851	221.186	-0.148	-0.235
-304.837	-32.783	-0.143	0.079
-303.822	-73.681	-0.102	-0.037
-302.807	-101.343	-0.169	-0.041
-301.793	-56.759	-0.313	-0.137
-300.778	-159.590	0.218	0.012
-299.764	-82.944	-0.160	-0.051
-298.749	-200.000	-0.035	-0.192
-297.735	800.000	0.090	0.280
-296.720	-73.294	0.203	-0.073
-295.705	800.000	0.080	0.248
-294.691	800.000	-0.018	-0.069
-293.676	95.230	0.205	0.231
-292.662	148.692	-0.116	-0.155
-291.647	-200.000	0.026	-0.138
-290.632	63.527	-0.082	-0.081
-289.618	-200.000	0.024	-0.242
-288.603	-52.974	-0.198	-0.090
-287.589	120.572	-0.197	0.242
-286.574	321.448	0.052	0.098
-285.559	208.837	-0.082	-0.128
-284.545	800.000	0.083	-0.233
-283.530	800.000	0.027	-0.112
-282.516	242.685	-0.126	-0.208
-281.501	107.338	0.176	-0.207
-280.486	-149.851	-0.106	0.008
-279.472	710.629	0.072	0.188
-278.457	-200.000	-0.000	0.148
-277.443	6.470	-0.326	-0.239
-276.428	-197.463	0.228	-0.001
-275.413	20.886	-0.122	-0.098
-274.399	51.622	-0.038	0.035
-273.384	-6.998	0.065	-0.044
-272.370	-200.000	0.055	0.252
-271.355	800.000	0.112	0.404
-270.340	-113.519	0.147	0.028
-269.326	800.000	-0.068	-0.278
-268.311	-143.284	0.226	0.021
-267.297	3.976	-0.206	0.149
-266.282	-200.000	-0.008	0.318
-265.267	-200.000	-0.029	0.445
-264.253	1.069	-0.261	0.185
-263.238	-200.000	0.039	-0.382
-262.224	-124.900	-0.061	0.009
-261.209	800.000	-0.007	0.019
-260.195	382.320	-0.121	-0.246
-259.180	174.703	0.120	-0.172
-258.165	800.000	-0.121	-0.370
-257.151	-80.615	-0.338	0.111
-256.136	-65.506	-0.144	-0.057
-255.122	-79.838	-0.050	0.017
-254.107	180.009	-0.208	-0.301
-253.092	-37.718	0.240	-0.126
-252.078	800.000	-0.097	0.357
-251.063	508.876	-0.163	0.375
-250.049	-39.024	-0.265	-0.138
-249.034	29.005	0.159	0.133
-248.019	800.000	0.034	0.094
-247.005	665.613	0.105	0.268
-245.990	668.410	0.078	0.199
-244.976	120.211	0.105	0.128
-243.961	210.618	0.053	-0.083
-242.946	-86.079	-0.287	-0.087
-241.932	-72.865	-0.286	0.104
-240.917	154.943	0.166	-0.225
-239.903	276.491	0.063	0.111
-238.888	-45.738	-0.242	0.118
-237.873	-200.000	0.010	-0.054
-236.859	5.814	0.191	-0.139
-235.844	484.142	-0.086	-0.193
-234.830	-147.985	-0.330	0.027
-233.815	-48.287	-0.252	-0.120
-232.800	-23.989	-0.432	0.255
-231.786	-200.000	0.033	0.371
-230.771	531.105	-0.117	0.274
-229.757	800.000	-0.030	0.099
-228.742	-200.000	-0.058	-0.434
-227.727	800.000	-0.110	-0.324
-226.713	17.632	-0.219	0.172
-225.698	40.393	0.138	0.122
-224.684	108.978	0.007	-0.009
-223.669	-29.966	-0.289	-0.162
-222.655	79.846	0.182	0.192
-221.640	-200.000	0.002	-0.254
-220.625	-200.000	0.004	-0.218
-219.611	-63.581	-0.041	-0.017
-218.596	-117.702	0.022	-0.004
-217.582	194.438	0.090	0.135
-216.567	800.000	-0.061	-0.183
-215.552	-22.953	0.196	0.116
-214.538	-141.963	-0.018	-0.002
-213.523	-160.374	-0.245	-0.013
-212.509	-20.936	0.295	0.178
-211.494	-17.092	0.184	0.114
-210.479	-6.074	0.135	-0.091
-209.465	250.033	-0.026	0.044
-208.450	800.000	0.121	0.409
-207.436	-124.445	-0.078	0.012
-206.421	-51.059	0.157	-0.073
-205.406	170.048	0.098	-0.138
-204.392	-139.248	-0.049	-0.005
-203.377	29.897	-0.188	0.158
-202.363	-120.465	0.100	-0.017
-201.348	-200.000	-0.071	0.389
-200.333	122.644	-0.130	0.160
-199.319	-200.000	0.048	-0.234
-198.304	608.310	0.102	-0.251
-197.290	746.573	-0.090	-0.239
-196.275	800.000	0.038	0.110
-195.260	-200.000	-0.063	0.284
-194.246	312.920	-0.066	-0.123
-193.231	272.266	-0.093	-0.161
-192.217	800.000	-0.104	-0.393
-191.202	133.701	-0.137	0.174
-190.187	-124.741	-0.584	-0.089
-189.173	-173.826	-0.160	-0.005
-188.158	-56.925	-0.069	-0.030
-187.144	-170.931	0.099	-0.003
-186.129	-200.000	-0.005	0.271
-185.114	797.621	-0.058	-0.158
-184.100	202.415	0.146	-0.222
-183.085	316.408	-0.141	0.262
-182.071	-103.261	-0.091	0.021
-181.056	183.796	-0.167	0.243
-180.042	65.953	0.137	0.137
-179.027	258.006	-0.128	0.217
-178.012	-60.968	-0.131	-0.054
-176.998	-86.471	0.232	-0.070
-175.983	7.789	-0.081	0.059
-174.969	287.943	-0.116	-0.207
-173.954	-185.439	-0.126	-0.002
-172.939	137.827	0.149	0.192
-171.925	800.000	0.048	0.140
-170.910	38.067	0.231	0.202
-169.896	160.534	0.101	0.139
-168.881	282.969	-0.085	-0.149
-167.866	54.860	-0.078	0.074
-166.852	383.112	-0.106	0.215
-165.837	-200.000	-0.011	-0.118
-164.823	-105.985	-0.145	0.032
-163.808	557.129	0.066	-0.155
-162.793	309.637	0.005	-0.010
-161.779	-28.095	-0.067	0.038
-160.764	800.000	-0.061	-0.180
-159.750	-200.000	0.039	-0.348
-158.735	-39.535	-0.104	-0.053
-157.720	44.210	0.304	0.274
-156.706	-35.136	-0.217	0.116
-155.691	-200.000	-0.009	-0.061
-154.677	9.823	0.107	0.080
-153.662	-200.000	-0.065	0.374
-152.647	11.809	0.244	-0.184
-151.633	2.676	-0.365	-0.260
-150.618	-109.185	0.225	-0.047
-149.604	-200.000	-0.013	0.094
-148.589	375.484	-0.096	-0.193
-147.574	245.350	-0.051	0.084
-146.560	-140.690	0.290	0.029
-145.545	27.403	-0.275	-0.227
-144.531	-98.251	0.499	-0.126
-143.516	-143.984	-0.226	-0.021
-142.502	603.073	0.056	-0.137
-141.487	-200.000	-0.032	0.351
-140.472	800.000	0.048	-0.134
-139.458	236.344	0.107	-0.173
-138.443	208.811	0.117	0.179
-137.429	505.617	-0.127	0.290
-136.414	-116.116	-0.168	0.031
-135.399	-114.910	0.147	0.027
-134.385	-62.820	-0.194	0.079
-133.370	-140.836	0.163	0.016
-132.356	152.754	-0.014	-0.019
-131.341	200.245	-0.277	0.418
-130.326	15.279	0.104	0.080
-129.312	-63.199	0.242	0.098
-128.297	245.056	0.173	0.286
-127.283	254.545	0.041	-0.069
-126.268	-0.338	-0.251	-0.175
-125.253	-165.325	-0.116	-0.005
-124.239	800.000	0.029	-0.098
-123.224	130.503	-0.054	-0.068
-122.210	28.999	-0.170	-0.141
