DTS Sentinel unit serial number:	SN413079Multiplexer serial number:	ORYXHardware model number:	OX4-SRSoftware version number:	ORYX F/W v4.00 Oryx Data Collector v3.7.2.0data status	okinstallation	princeton_trtdifferential loss correction	single-endedforward channel	channel 3reverse channel	N/Adate	2019/09/12time	18:43:03forward acquisition time	15.00reverse acquisition time	0.00gamma	496.2192k internal	0.2318k external	0.2318temperature offset calibration	1.0098default loss term (dB/km)	0.3790temperature slope calibration	1.0000multiplexer offset coefficient	1.0000multiplexer slope coefficient	1.0000fibre end	0.00T internal ref (°C)	33.00T ext. ref 1 (°C)	2.93T ext. ref 2 (°C)	27.60length (m)	temperature (°C)	Stokes	anti-Stokes-747.200	-26.510	0.295	0.175
-746.185	-90.616	0.377	-0.110
-745.171	-46.654	0.652	-0.323
-744.156	35.106	0.337	0.298
-743.142	2.735	0.499	-0.366
-742.127	50.049	-0.338	-0.323
-741.112	24.318	-0.421	0.352
-740.098	454.559	0.143	0.320
-739.083	-200.000	0.105	0.736
-738.069	115.456	-0.087	-0.107
-737.054	-200.000	-0.101	-0.972
-736.039	369.102	0.420	-0.860
-735.025	-200.000	0.009	0.368
-734.010	-24.914	-0.386	-0.232
-732.996	-75.642	0.224	0.081
-731.981	10.477	0.598	-0.461
-730.966	-104.952	0.823	-0.191
-729.952	-134.246	-0.029	0.004
-728.937	-57.008	0.795	-0.355
-727.923	800.000	0.162	-0.500
-726.908	55.978	-0.407	-0.399
-725.894	-51.545	0.398	0.188
-724.879	-63.765	0.387	0.161
-723.864	106.108	0.133	0.159
-722.850	-52.638	-0.626	0.292
-721.835	-175.171	-0.530	-0.015
-720.821	-200.000	-0.108	-0.662
-719.806	-30.713	0.343	0.196
-718.791	24.122	0.240	0.200
-717.777	106.323	-0.537	0.643
-716.762	79.726	-0.510	0.554
-715.748	-44.809	-0.129	0.065
-714.733	-108.149	-0.484	0.106
-713.718	597.525	-0.120	0.300
-712.704	-126.556	-0.197	-0.030
-711.689	-188.611	0.336	0.004
-710.675	-14.543	-0.292	0.190
-709.660	440.307	0.296	0.654
-708.645	-99.584	-0.756	-0.192
-707.631	-55.089	0.469	0.214
-706.616	20.772	0.307	-0.251
-705.602	7.449	-0.196	-0.148
-704.587	-31.270	-0.685	-0.390
-703.572	-136.366	0.349	0.041
-702.558	57.574	-0.485	-0.479
-701.543	-0.887	-0.402	-0.288
-700.529	13.644	-0.353	0.277
-699.514	-200.000	-0.006	-0.338
-698.499	-200.000	0.088	-0.507
-697.485	711.062	-0.142	0.379
-696.470	-140.616	0.927	0.097
-695.456	-200.000	0.040	-0.437
-694.441	590.084	0.116	-0.288
-693.426	-23.089	0.205	-0.125
-692.412	-96.980	1.204	-0.319
-691.397	-200.000	0.121	0.643
-690.383	-5.851	0.695	0.480
-689.368	-145.979	-0.650	0.058
-688.354	56.261	0.134	-0.131
-687.339	800.000	0.069	0.278
-686.324	800.000	0.055	-0.194
-685.310	-173.247	0.236	-0.007
-684.295	-0.295	-0.566	-0.406
-683.281	-200.000	0.102	-0.556
-682.266	-183.804	0.462	0.008
-681.251	-154.367	-0.219	0.015
-680.237	126.738	0.359	-0.459
-679.222	446.547	-0.209	0.463
-678.208	-200.000	0.067	-0.419
-677.193	315.853	0.219	0.416
-676.178	-43.903	0.713	0.362
-675.164	-200.000	-0.019	0.332
-674.149	-69.050	0.729	-0.283
-673.135	-200.000	-0.251	-1.147
-672.120	234.169	0.201	-0.335
-671.105	21.037	0.059	0.048
-670.091	22.182	-0.529	0.436
-669.076	-56.545	-0.326	-0.146
-668.062	150.374	0.414	-0.568
-667.047	-200.000	-0.098	0.582
-666.032	-142.585	-0.404	0.040
-665.018	-200.000	0.095	1.159
-664.003	-61.821	0.542	0.229
-662.989	-200.000	0.088	-0.508
-661.974	28.297	0.529	-0.451
-660.959	-60.477	0.294	-0.126
-659.945	101.715	-0.297	-0.349
-658.930	39.355	-0.324	0.293
-657.916	800.000	-0.257	-0.895
-656.901	264.272	0.380	0.666
-655.886	-36.749	-0.476	-0.258
-654.872	-122.627	-0.302	-0.049
-653.857	-15.429	0.070	0.045
-652.843	-55.945	0.165	-0.074
-651.828	-200.000	-0.075	0.402
-650.814	-125.679	0.291	0.044
-649.799	583.901	0.261	-0.645
-648.784	65.616	-0.195	0.199
-647.770	205.210	-0.296	0.464
-646.755	-129.992	-1.064	0.147
-645.741	-200.000	0.025	-0.217
-644.726	70.106	-0.456	0.475
-643.711	158.301	0.177	0.248
-642.697	-14.332	-0.826	0.537
-641.682	486.899	0.457	1.051
-640.668	0.990	0.432	-0.312
-639.653	-200.000	0.080	-0.399
-638.638	-141.115	-0.482	0.050
-637.624	120.570	-0.448	0.561
-636.609	14.476	-0.249	0.196
-635.595	-153.660	-0.946	-0.066
-634.580	38.032	0.340	-0.305
-633.565	800.000	0.161	0.695
-632.551	-74.639	-0.615	-0.223
-631.536	342.963	0.168	-0.332
-630.522	-52.382	0.329	-0.154
-629.507	-11.671	0.273	-0.181
-628.492	-60.211	-0.696	0.299
-627.478	800.000	0.308	1.068
-626.463	280.397	0.237	-0.427
-625.449	6.987	-0.362	0.272
-624.434	-36.933	0.955	0.516
-623.419	549.514	0.052	-0.125
-622.405	-109.495	0.708	0.151
-621.390	40.654	0.307	0.278
-620.376	-173.525	-1.005	0.030
-619.361	-200.000	0.052	0.548
-618.346	-77.931	-0.497	0.173
-617.332	58.289	-0.543	-0.536
-616.317	-32.399	-0.210	-0.118
-615.303	77.468	0.590	0.632
-614.288	-64.040	0.420	0.173
-613.273	-87.507	-0.753	0.229
-612.259	-25.767	-0.286	0.170
-611.244	-200.000	0.017	-0.315
-610.230	356.439	-0.533	-1.069
-609.215	-38.801	0.597	-0.317
-608.201	445.584	-0.136	-0.301
-607.186	-200.000	-0.045	0.336
-606.171	16.063	0.461	0.366
-605.157	21.909	-0.196	-0.161
-604.142	-27.335	0.566	0.332
-603.128	-77.905	0.758	0.263
-602.113	-104.694	-0.650	0.151
-601.098	-200.000	0.134	0.636
-600.084	-87.726	0.297	-0.090
-599.069	-28.684	-0.358	0.207
-598.055	-200.000	0.066	0.572
-597.040	-75.845	0.839	-0.299
-596.025	-200.000	0.034	-1.377
-595.011	130.095	0.212	0.272
-593.996	-4.350	0.021	-0.014
-592.982	800.000	-0.109	0.422
-591.967	-67.417	0.291	-0.115
-590.952	-200.000	0.073	0.507
-589.938	-166.259	0.204	0.009
-588.923	260.000	0.161	-0.280
-587.909	70.930	-0.437	0.455
-586.894	800.000	0.152	0.618
-585.879	429.442	0.277	0.602
-584.865	-200.000	0.035	-0.195
-583.850	77.629	0.521	-0.557
-582.836	-200.000	-0.053	-0.386
-581.821	180.686	0.291	-0.430
-580.806	-200.000	-0.041	0.229
-579.792	-68.766	-0.298	-0.116
-578.777	127.028	0.062	-0.080
-577.763	46.617	-0.590	0.551
-576.748	-200.000	-0.104	-0.487
-575.733	-200.000	-0.132	-0.874
-574.719	-200.000	-0.035	0.440
-573.704	-51.433	0.857	-0.403
-572.690	-123.602	-0.769	0.123
-571.675	-200.000	-0.044	-0.545
-570.661	537.691	0.373	0.891
-569.646	-46.380	0.396	0.196
-568.631	-200.000	-0.008	-0.130
-567.617	93.033	0.202	0.229
-566.602	-200.000	0.075	0.402
-565.588	-112.608	0.235	-0.047
-564.573	-139.687	-0.118	0.013
-563.558	800.000	0.200	-0.772
-562.544	-30.659	-0.515	-0.293
-561.529	-110.237	-0.232	0.049
-560.515	-200.000	0.121	-0.742
-559.500	-125.453	1.000	0.153
-558.485	315.498	-0.290	0.550
-557.471	-177.601	-0.463	0.011
-556.456	-114.096	-0.352	0.068
-555.442	-118.680	0.587	-0.104
-554.427	292.022	-0.153	-0.280
-553.412	51.207	0.626	0.596
-552.398	-66.705	0.571	0.227
-551.383	-167.449	-0.548	-0.022
-550.369	-52.711	0.547	-0.254
-549.354	-116.877	0.185	-0.034
-548.339	-150.844	-0.611	-0.047
-547.325	29.422	-0.950	-0.811
-546.310	46.404	-0.420	0.391
-545.296	-200.000	0.159	0.798
-544.281	57.055	-0.689	-0.675
-543.266	-105.758	-0.915	-0.208
-542.252	-152.410	-0.624	-0.045
-541.237	-106.232	0.446	-0.100
-540.223	800.000	0.039	0.116
-539.208	-61.110	-0.364	-0.154
-538.193	-19.580	0.453	0.282
-537.179	6.878	0.090	0.068
-536.164	72.761	0.136	0.142
-535.150	-141.713	0.501	-0.051
-534.135	-92.070	-0.132	-0.038
-533.121	800.000	0.224	-0.743
-532.106	-16.276	0.642	-0.409
-531.091	-113.719	-0.109	-0.021
-530.077	54.926	-0.314	0.304
-529.062	-200.000	-0.140	0.704
-528.048	-97.181	-0.803	0.210
-527.033	-150.827	0.474	-0.036
-526.018	-164.256	-0.806	0.037
-525.004	51.354	-0.863	-0.822
-523.989	-52.878	0.310	0.143
-522.975	-134.917	-1.046	0.127
-521.960	494.586	-0.186	0.430
-520.945	-200.000	-0.022	-0.100
-519.931	-82.616	0.562	-0.183
-518.916	800.000	0.188	0.567
-517.902	-104.789	-0.819	-0.189
-516.887	45.664	-0.298	0.277
-515.872	-111.316	0.593	-0.121
-514.858	-25.806	0.474	-0.280
-513.843	160.727	0.094	-0.132
-512.829	11.169	0.255	0.196
-511.814	-189.280	0.808	-0.010
-510.799	800.000	0.092	0.328
-509.785	250.267	0.054	-0.091
-508.770	-47.770	0.642	0.312
-507.756	-194.955	-0.678	-0.005
-506.741	800.000	0.192	-0.733
-505.726	715.274	0.074	0.197
-504.712	70.969	0.415	-0.432
-503.697	-38.317	-0.396	-0.210
-502.683	49.698	-0.430	0.406
-501.668	800.000	-0.085	-0.256
-500.653	-200.000	-0.016	-0.262
-499.639	-70.540	-0.212	0.080
-498.624	29.568	0.287	0.245
-497.610	361.041	-0.282	0.566
-496.595	167.588	-0.260	0.370
-495.581	800.000	-0.169	0.668
-494.566	-198.770	-0.406	-0.002
-493.551	-34.498	-0.152	-0.083
-492.537	227.043	-0.387	0.629
-491.522	-200.000	-0.005	-0.331
-490.508	29.601	-0.348	-0.296
-489.493	-200.000	-0.070	0.722
-488.478	534.376	-0.176	0.418
-487.464	70.343	0.120	-0.124
-486.449	-200.000	0.095	-0.683
-485.435	17.666	0.213	-0.170
-484.420	120.203	-0.280	-0.348
-483.405	-200.000	-0.105	0.486
-482.391	172.759	-0.092	0.132
-481.376	191.686	0.101	0.153
-480.362	529.020	0.247	-0.585
-479.347	595.227	0.189	-0.467
-478.332	145.892	0.053	0.071
-477.318	319.251	-0.203	-0.385
-476.303	-137.667	-0.422	-0.048
-475.289	-200.000	-0.107	-1.101
-474.274	-200.000	0.144	-0.652
-473.259	-113.375	0.374	-0.073
-472.245	20.317	0.372	-0.301
-471.230	-93.693	1.032	0.285
-470.216	260.880	-0.681	1.180
-469.201	598.782	0.259	0.643
-468.186	800.000	-0.116	0.446
-467.172	150.228	-0.452	-0.614
-466.157	685.055	0.291	0.761
-465.143	722.771	0.285	-0.759
-464.128	800.000	-0.014	-0.053
-463.113	-91.745	-0.309	0.088
-462.099	140.456	0.229	-0.302
-461.084	-100.716	0.438	-0.108
-460.070	113.453	0.691	0.840
-459.055	800.000	0.016	0.046
-458.040	-144.677	0.631	0.058
-457.026	78.688	-0.526	0.563
-456.011	133.763	0.150	-0.194
-454.997	-200.000	-0.007	0.212
-453.982	-200.000	-0.086	0.446
-452.968	-2.640	-0.233	-0.163
-451.953	-200.000	-0.176	-1.257
-450.938	402.432	0.428	-0.901
-449.924	-157.281	0.471	-0.029
-448.909	-7.756	-0.246	0.166
-447.895	800.000	-0.140	-0.504
-446.880	-167.520	-0.098	0.004
-445.865	-3.129	-0.062	0.043
-444.851	-129.002	-0.957	-0.134
-443.836	-77.130	-0.071	-0.025
-442.822	800.000	-0.193	-0.552
-441.807	-200.000	-0.060	-0.463
-440.792	-200.000	-0.005	-0.048
-439.778	-118.543	0.282	0.050
-438.763	-200.000	0.006	-0.584
-437.749	42.901	-0.170	-0.155
-436.734	29.737	0.374	-0.318
-435.719	-200.000	-0.103	-0.937
-434.705	-170.516	0.518	0.018
-433.690	-20.881	-0.545	0.334
-432.676	11.306	-0.307	0.235
-431.661	-200.000	0.033	-0.632
-430.646	105.940	0.592	-0.700
-429.632	-102.145	0.617	0.149
-428.617	-105.047	-0.116	0.026
-427.603	-58.831	-0.392	0.169
-426.588	-200.000	-0.016	0.083
-425.573	362.255	-0.287	-0.575
-424.559	101.831	0.145	0.169
-423.544	317.936	0.267	0.505
-422.530	401.219	0.207	-0.434
-421.515	282.047	0.167	-0.300
-420.500	549.669	-0.151	0.361
-419.486	114.420	-0.061	-0.074
-418.471	-59.102	-0.236	-0.102
-417.457	-105.631	0.284	0.064
-416.442	-28.781	-0.837	-0.481
-415.428	800.000	-0.103	0.450
-414.413	522.152	-0.163	-0.382
-413.398	-200.000	0.004	0.262
-412.384	488.412	-0.091	-0.207
-411.369	-71.161	-0.516	-0.193
-410.355	210.778	0.190	0.299
-409.340	-147.159	-0.551	-0.047
-408.325	-69.621	-0.756	-0.289
-407.311	-11.681	-0.483	0.317
-406.296	-200.000	0.017	0.306
-405.282	-92.464	0.721	0.203
-404.267	-200.000	-0.071	-0.544
-403.252	-112.529	-0.912	0.182
-402.238	800.000	-0.131	-0.467
-401.223	371.284	-0.339	-0.686
-400.209	-125.434	0.367	-0.056
-399.194	368.980	0.301	-0.608
-398.179	-200.000	-0.081	-0.418
-397.165	483.000	0.269	-0.609
-396.150	-47.579	0.417	-0.202
-395.136	128.435	0.139	-0.177
-394.121	-63.426	0.293	0.120
-393.106	-142.404	0.571	-0.056
-392.092	-118.341	-0.114	-0.020
-391.077	275.082	0.288	-0.510
-390.063	265.896	-0.078	-0.136
-389.048	575.549	-0.193	-0.471
-388.033	18.616	0.217	-0.174
-387.019	-103.690	1.171	0.274
-386.004	-43.141	0.189	-0.096
-384.990	-36.746	-0.573	-0.307
-383.975	229.607	0.629	1.025
-382.960	-42.738	-0.169	0.086
-381.946	-45.847	0.221	-0.109
-380.931	-200.000	-0.153	0.713
-379.917	-200.000	-0.005	-0.098
-378.902	-100.626	0.282	-0.069
-377.888	-200.000	0.099	-0.533
-376.873	123.123	0.421	0.527
-375.858	592.330	0.164	-0.404
-374.844	161.881	-0.627	-0.876
-373.829	-200.000	-0.024	-1.021
-372.815	-200.000	0.118	0.771
-371.800	-200.000	0.044	0.249
-370.785	396.695	-0.250	0.520
-369.771	-27.816	-0.385	-0.223
-368.756	-200.000	-0.014	-0.172
-367.742	60.448	0.498	0.492
-366.727	-103.486	0.176	0.041
-365.712	-200.000	0.075	0.355
-364.698	310.700	-0.109	0.204
-363.683	-118.436	-0.804	0.142
-362.669	525.769	-0.335	-0.785
-361.654	18.412	0.326	-0.260
-360.639	-91.546	-0.291	-0.083
-359.625	800.000	0.154	0.504
-358.610	-200.000	-0.045	0.222
-357.596	-71.158	-0.212	-0.079
-356.581	-176.658	-0.692	0.018
-355.566	339.322	0.354	-0.688
-354.552	78.695	0.482	-0.514
-353.537	-200.000	-0.007	-0.270
-352.523	143.722	0.133	-0.177
-351.508	161.437	0.587	-0.818
-350.493	-26.452	-0.611	-0.357
-349.479	7.215	-0.596	-0.443
-348.464	-160.803	-0.755	0.040
-347.450	-22.694	0.488	0.294
-346.435	-200.000	-0.081	-0.405
-345.420	433.197	-0.187	-0.404
-344.406	-71.876	0.405	-0.150
-343.391	800.000	0.046	-0.142
-342.377	-134.723	-0.542	-0.066
-341.362	-71.741	-0.500	0.186
-340.348	135.323	-0.289	0.375
-339.333	423.393	-0.332	0.711
-338.318	25.568	-0.756	0.627
-337.304	-46.425	0.859	0.420
-336.289	192.464	-0.392	0.589
-335.275	-200.000	-0.025	-0.347
-334.260	108.647	0.550	-0.655
-333.245	-200.000	-0.039	-0.912
-332.231	322.096	0.245	-0.465
-331.216	2.536	0.122	-0.088
-330.202	-200.000	0.076	0.848
-329.187	-200.000	0.113	0.818
-328.172	800.000	0.055	0.223
-327.158	-200.000	-0.036	-0.162
-326.143	-139.803	-0.522	-0.055
-325.129	60.849	0.308	0.304
-324.114	1.074	0.414	-0.296
-323.099	-57.429	0.465	-0.203
-322.085	-171.856	0.577	0.019
-321.070	-200.000	0.054	0.278
-320.056	389.910	0.168	0.346
-319.041	-43.828	0.859	0.431
-318.026	11.567	0.055	-0.042
-317.012	156.486	0.154	0.212
-315.997	800.000	0.139	-0.507
-314.983	33.306	0.700	0.605
-313.968	184.830	-0.379	0.560
-312.953	-86.322	0.167	-0.051
-311.939	-23.492	0.816	-0.488
-310.924	-109.815	0.869	0.182
-309.910	107.754	0.794	0.941
-308.895	128.510	-0.286	-0.362
-307.880	45.170	0.331	0.304
-306.866	40.386	-0.086	0.077
-305.851	-137.222	-0.239	-0.027
-304.837	-157.895	0.520	-0.031
-303.822	-175.213	0.513	0.014
-302.807	-58.419	-0.321	-0.139
-301.793	186.079	0.225	-0.333
-300.778	-3.680	0.425	0.294
-299.764	-87.031	-0.455	-0.138
-298.749	-200.000	-0.112	1.314
-297.735	63.871	-0.706	-0.706
-296.720	-48.481	0.357	0.171
-295.705	-81.637	-0.223	-0.073
-294.691	-200.000	0.114	0.721
-293.676	-138.336	-0.588	0.065
-292.662	-96.091	-0.301	-0.080
-291.647	54.786	0.264	-0.253
-290.632	-82.668	-0.575	-0.185
-289.618	-55.424	-0.598	0.267
-288.603	52.529	0.177	-0.168
-287.589	-200.000	0.030	-0.283
-286.574	45.820	0.361	0.332
-285.559	-200.000	0.018	0.293
-284.545	-2.410	0.285	0.198
-283.530	-52.692	-0.972	-0.446
-282.516	-37.393	0.293	-0.156
-281.501	78.310	-0.070	-0.074
-280.486	422.488	-0.039	0.084
-279.472	64.596	-0.518	-0.519
-278.457	-110.287	1.058	-0.219
-277.443	-91.677	0.643	0.182
-276.428	-48.920	0.608	0.290
-275.413	-161.942	0.804	0.040
-274.399	-39.223	-0.625	-0.326
-273.384	-127.706	0.801	0.115
-272.370	-44.538	-0.233	-0.116
-271.355	496.414	-0.071	-0.163
-270.340	-85.568	-0.377	0.116
-269.326	-115.349	-0.256	-0.048
-268.311	-89.862	0.645	-0.187
-267.297	144.854	-0.129	0.172
-266.282	272.137	-0.198	0.347
-265.267	-147.485	-0.658	0.055
-264.253	81.321	-0.420	0.451
-263.238	-200.000	0.132	-0.891
-262.224	325.659	-0.152	0.289
-261.209	-31.735	-0.193	0.107
-260.195	440.361	-0.408	0.885
-259.180	-43.908	0.451	0.225
-258.165	800.000	-0.251	0.983
-257.151	128.197	0.258	0.327
-256.136	-19.233	1.016	-0.626
-255.122	50.390	-0.129	-0.121
-254.107	-200.000	0.016	-0.127
-253.092	-172.690	0.832	0.026
-252.078	336.919	-0.240	0.462
-251.063	-99.905	0.360	-0.089
-250.049	-20.536	0.116	0.070
-249.034	342.304	0.262	0.509
-248.019	-124.349	-0.634	-0.098
-247.005	201.916	0.048	0.074
-245.990	462.475	-0.508	-1.125
-244.976	-71.259	-0.653	0.243
-243.961	-84.441	0.294	0.092
-242.946	-200.000	-0.015	0.104
-241.932	9.763	0.541	-0.407
-240.917	418.875	0.270	0.574
-239.903	41.352	0.463	0.415
-238.888	-120.542	0.369	0.062
-237.873	-38.615	-0.344	0.180
-236.859	15.297	0.239	-0.186
-235.844	-200.000	-0.011	0.276
-234.830	-73.933	-0.390	-0.140
-233.815	-200.000	-0.024	0.584
-232.800	-159.393	0.242	-0.013
-231.786	-125.987	0.301	-0.045
-230.771	800.000	-0.177	0.625
-229.757	800.000	-0.083	-0.360
-228.742	-42.266	0.218	0.110
-227.727	-9.529	-0.197	-0.130
-226.713	-89.581	0.487	0.142
-225.698	226.180	0.589	0.948
-224.684	800.000	0.230	-0.836
-223.669	800.000	0.149	-0.503
-222.655	-100.670	-0.567	0.139
-221.640	-15.153	-0.188	-0.119
-220.625	-99.449	-0.490	-0.122
-219.611	297.613	-0.324	-0.591
-218.596	-91.936	0.835	0.235
-217.582	-98.346	-0.336	0.085
-216.567	-200.000	0.003	0.151
-215.552	82.915	-0.205	-0.221
-214.538	-133.901	0.613	-0.075
-213.523	-134.435	-0.554	-0.067
-212.509	-42.069	-0.902	0.457
-211.494	622.330	0.045	-0.112
-210.479	364.340	-0.301	-0.601
-209.465	152.980	0.281	-0.381
-208.450	36.741	-0.581	0.509
-207.436	-24.922	-0.524	-0.308
-206.421	537.210	-0.147	0.346
-205.406	-123.637	-0.421	-0.066
-204.392	202.911	-0.337	0.516
-203.377	198.197	-0.158	-0.239
-202.363	-103.096	0.308	-0.072
-201.348	-29.987	-0.329	0.185
-200.333	244.537	0.412	0.685
-199.319	-200.000	0.085	0.406
-198.304	2.909	0.287	-0.206
-197.290	41.235	-0.288	0.258
-196.275	-26.627	-0.030	0.018
-195.260	15.013	0.444	-0.344
-194.246	-28.885	0.531	0.302
-193.231	800.000	0.064	0.202
-192.217	-59.163	0.378	0.161
-191.202	-20.457	-0.125	-0.076
-190.187	49.010	-0.124	0.115
-189.173	31.975	-0.170	-0.145
-188.158	-114.029	0.895	-0.172
-187.144	-50.245	-0.851	-0.398
-186.129	-133.460	-0.947	-0.118
-185.114	-164.653	-0.117	-0.005
-184.100	800.000	0.076	-0.211
-183.085	50.487	0.262	0.245
-182.071	-200.000	-0.025	0.636
-181.056	11.219	-0.718	-0.544
-180.042	80.065	0.326	-0.347
-179.027	71.823	-0.295	-0.303
-178.012	-200.000	-0.043	-0.218
-176.998	287.626	-0.320	0.574
-175.983	96.381	0.312	-0.353
-174.969	193.186	0.335	-0.502
-173.954	65.062	0.182	-0.182
-172.939	29.249	-0.284	0.239
-171.925	-56.619	0.331	-0.145
-170.910	-84.807	0.516	-0.160
-169.896	558.960	0.473	1.129
-168.881	30.045	-0.651	0.549
-167.866	112.042	-0.211	0.252
-166.852	45.793	-0.484	0.443
-165.837	46.323	-0.321	0.295
-164.823	-64.513	0.275	-0.111
-163.808	270.929	-0.331	0.577
-162.793	-162.553	-0.280	-0.014
-161.779	-200.000	0.013	0.916
-160.764	647.109	0.057	0.144
-159.750	-74.455	0.436	0.155
-158.735	655.644	0.155	-0.394
-157.720	-146.864	0.304	0.026
-156.706	-200.000	0.008	-0.625
-155.691	-200.000	-0.224	-1.161
-154.677	384.926	0.412	-0.840
-153.662	-0.523	-0.858	0.602
-152.647	800.000	-0.272	-0.953
-151.633	-55.361	0.979	0.435
-150.618	-7.593	-0.630	-0.422
-149.604	348.709	0.476	-0.929
-148.589	404.299	0.107	0.223
-147.574	-200.000	-0.091	-0.657
-146.560	-200.000	-0.123	-0.640
-145.545	800.000	0.125	-0.373
-144.531	-166.292	0.310	-0.013
-143.516	-97.172	-0.199	0.052
-142.502	-88.078	-0.268	-0.080
-141.487	191.468	0.316	-0.470
-140.472	-200.000	0.003	-0.386
-139.458	265.300	0.370	0.638
-138.443	18.936	-0.119	-0.094
-137.429	142.492	-0.280	-0.367
-136.414	129.591	0.517	0.653
-135.399	211.962	-0.019	0.030
-134.385	368.855	0.057	-0.113
-133.370	-181.424	0.539	0.010
-132.356	-119.103	-0.359	-0.062
-131.341	110.842	-0.382	-0.454
-130.326	46.148	0.337	-0.308
-129.312	-75.902	-0.642	-0.224
-128.297	187.740	-0.319	0.470
-127.283	-200.000	0.024	0.275
-126.268	-79.264	-0.232	-0.078
-125.253	222.312	-0.110	0.175
-124.239	52.834	-0.135	0.128
-123.224	78.785	0.171	0.181
-122.210	262.116	-0.263	0.451
-121.195	800.000	0.381	-1.112
