DTS Sentinel unit serial number:	SN413079Multiplexer serial number:	ORYXHardware model number:	OX4-SRSoftware version number:	ORYX F/W v4.00 Oryx Data Collector v3.7.2.0data status	okinstallation	princeton_trtdifferential loss correction	single-endedforward channel	channel 3reverse channel	N/Adate	2019/09/12time	19:31:04forward acquisition time	15.00reverse acquisition time	0.00gamma	496.2192k internal	0.2322k external	0.2322temperature offset calibration	1.0107default loss term (dB/km)	0.3790temperature slope calibration	1.0000multiplexer offset coefficient	1.0000multiplexer slope coefficient	1.0000fibre end	0.00T internal ref (°C)	32.25T ext. ref 1 (°C)	3.24T ext. ref 2 (°C)	26.74length (m)	temperature (°C)	Stokes	anti-Stokes-747.200	-200.000	-0.011	-0.155
-746.185	687.700	0.282	0.744
-745.171	-110.882	0.793	0.165
-744.156	-43.105	0.512	0.262
-743.142	-38.826	-0.580	-0.309
-742.127	-130.270	-0.290	-0.040
-741.112	-74.441	0.372	0.135
-740.098	12.079	-0.175	0.136
-739.083	-200.000	-0.074	-0.428
-738.069	-49.975	-0.543	0.260
-737.054	214.263	0.679	1.085
-736.039	-183.694	-0.184	0.003
-735.025	166.324	0.136	0.194
-734.010	-200.000	0.005	0.051
-732.996	29.830	0.250	0.215
-731.981	39.342	-0.166	0.150
-730.966	-17.778	0.592	-0.375
-729.952	404.494	0.432	-0.919
-728.937	800.000	-0.169	-0.543
-727.923	800.000	0.041	0.157
-726.908	-67.824	-0.299	-0.118
-725.894	-59.924	-0.214	0.093
-724.879	429.951	-0.422	0.922
-723.864	783.341	-0.244	-0.675
-722.850	800.000	-0.045	-0.164
-721.835	-200.000	0.024	0.152
-720.821	-127.908	0.924	0.134
-719.806	344.727	-0.399	-0.790
-718.791	-64.516	-0.738	-0.303
-717.777	501.355	-0.009	0.021
-716.762	105.719	-0.420	0.501
-715.748	426.912	0.026	-0.056
-714.733	-200.000	0.157	0.916
-713.718	-200.000	0.074	0.401
-712.704	222.361	0.264	0.428
-711.689	39.304	-0.395	-0.357
-710.675	-200.000	-0.012	-0.144
-709.660	415.595	-0.210	0.451
-708.645	-136.188	0.596	0.070
-707.631	-46.688	0.279	-0.138
-706.616	260.351	-0.476	-0.830
-705.602	-61.135	0.527	-0.224
-704.587	22.771	0.032	0.026
-703.572	-200.000	-0.122	0.677
-702.558	-36.626	-0.641	-0.347
-701.543	-56.327	0.483	0.217
-700.529	568.513	-0.292	0.715
-699.514	144.827	0.345	-0.466
-698.499	218.180	-0.148	-0.238
-697.485	-67.282	0.298	0.118
-696.470	-200.000	0.139	-0.672
-695.456	214.742	-0.028	-0.046
-694.441	-101.623	-0.653	0.160
-693.426	155.653	-0.184	-0.256
-692.412	-200.000	0.129	-1.017
-691.397	277.449	0.295	-0.530
-690.383	-73.581	0.546	-0.201
-689.368	-69.132	-0.255	-0.099
-688.354	-83.638	0.885	0.285
-687.339	57.642	-0.154	0.152
-686.324	-44.102	1.277	-0.647
-685.310	-99.066	0.617	-0.158
-684.295	79.084	0.520	-0.561
-683.281	-200.000	-0.042	-0.875
-682.266	-105.748	0.369	0.084
-681.251	281.472	0.127	-0.230
-680.237	161.442	0.488	-0.687
-679.222	-200.000	0.198	-0.895
-678.208	-200.000	-0.017	0.956
-677.193	96.998	0.332	0.384
-676.178	-114.597	-0.705	0.136
-675.164	500.358	0.022	-0.050
-674.149	-153.412	0.606	-0.042
-673.135	368.724	-0.273	-0.556
-672.120	30.795	0.738	-0.637
-671.105	-44.391	-0.754	-0.380
-670.091	-123.496	-0.157	0.025
-669.076	-23.279	0.557	-0.338
-668.062	-59.718	0.331	0.143
-667.047	70.903	0.600	-0.626
-666.032	238.193	0.162	-0.271
-665.018	-200.000	-0.044	0.256
-664.003	-7.950	0.065	-0.044
-662.989	-200.000	-0.222	-1.525
-661.974	-51.089	-0.361	0.170
-660.959	55.458	-0.685	-0.668
-659.945	180.805	0.195	-0.288
-658.930	315.841	0.070	0.132
-657.916	-72.016	0.094	0.035
-656.901	-122.684	-0.359	0.059
-655.886	-17.006	0.365	-0.232
-654.872	-116.781	0.618	-0.114
-653.857	-158.146	-0.700	-0.041
-652.843	660.539	-0.352	-0.913
-651.828	250.477	0.089	0.152
-650.814	-200.000	0.016	0.114
-649.799	48.788	0.458	0.433
-648.784	126.311	0.409	-0.521
-647.770	-127.907	-0.828	-0.120
-646.755	-40.007	0.252	0.132
-645.741	-108.256	-0.965	0.210
-644.726	741.388	-0.194	-0.523
-643.711	178.573	0.473	0.695
-642.697	141.207	0.333	-0.444
-641.682	-52.440	-0.446	-0.207
-640.668	-97.248	-0.475	0.125
-639.653	-45.088	-0.447	0.224
-638.638	-67.448	0.355	-0.140
-637.624	-200.000	0.014	-0.495
-636.609	-125.189	0.321	0.049
-635.595	-100.289	-0.228	0.057
-634.580	0.559	0.642	0.461
-633.565	-200.000	-0.115	-0.660
-632.551	800.000	0.060	-0.241
-631.536	800.000	-0.164	0.518
-630.522	-200.000	-0.044	-0.687
-629.507	-42.480	0.480	0.246
-628.492	102.395	0.317	-0.373
-627.478	262.539	0.188	-0.328
-626.463	-200.000	0.000	0.407
-625.449	52.457	0.226	-0.217
-624.434	-200.000	-0.036	-0.624
-623.419	144.091	0.115	-0.154
-622.405	-200.000	-0.148	1.015
-621.390	800.000	0.107	0.311
-620.376	301.533	-0.053	-0.099
-619.361	-38.053	-0.095	0.051
-618.346	-126.432	0.504	0.075
-617.332	140.710	-0.503	-0.668
-616.317	159.220	0.204	0.286
-615.303	-144.293	-0.286	-0.027
-614.288	-157.334	0.699	-0.042
-613.273	-56.804	-0.769	-0.342
-612.259	-149.093	0.443	-0.036
-611.244	-154.062	0.143	-0.010
-610.230	-116.989	0.633	-0.116
-609.215	-109.700	-0.248	-0.052
-608.201	-79.922	-0.404	-0.136
-607.186	-89.605	-0.698	0.206
-606.171	-17.886	-0.241	-0.152
-605.157	-63.799	0.126	-0.052
-604.142	-143.306	0.409	-0.039
-603.128	79.023	-0.251	0.270
-602.113	-76.230	-0.264	-0.094
-601.098	-85.569	0.602	0.188
-600.084	454.877	-0.071	0.157
-599.069	251.256	-0.434	-0.742
-598.055	292.762	-0.192	-0.352
-597.040	34.508	0.233	-0.204
-596.025	169.954	0.446	0.641
-595.011	-146.841	0.726	0.063
-593.996	-200.000	-0.141	0.720
-592.982	91.877	-0.430	-0.486
-591.967	200.962	-0.514	-0.795
-590.952	-69.416	-0.706	0.272
-589.938	800.000	-0.045	-0.138
-588.923	577.876	0.279	-0.685
-587.909	686.476	0.303	-0.796
-586.894	60.578	-0.463	-0.461
-585.879	-200.000	-0.002	0.181
-584.865	289.352	-0.400	-0.728
-583.850	210.108	-0.337	0.531
-582.836	147.485	-0.288	0.389
-581.821	-3.798	0.662	-0.462
-580.806	135.312	-0.395	0.516
-579.792	-200.000	0.047	0.795
-578.777	160.912	-0.283	-0.397
-577.763	-200.000	0.106	-0.691
-576.748	370.837	0.122	-0.249
-575.733	-61.188	0.284	0.120
-574.719	250.705	0.171	0.291
-573.704	174.116	-0.357	0.518
-572.690	126.072	-0.273	-0.347
-571.675	-141.864	-1.039	-0.104
-570.661	174.385	-0.029	-0.042
-569.646	-13.983	0.367	-0.238
-568.631	675.542	-0.290	0.756
-567.617	-69.541	0.120	0.046
-566.602	-200.000	0.071	-0.408
-565.588	187.023	-0.281	-0.421
-564.573	722.131	0.282	0.753
-563.558	-66.818	0.528	-0.210
-562.544	-200.000	0.017	0.651
-561.529	-124.322	0.097	0.015
-560.515	-200.000	-0.081	1.018
-559.500	-200.000	-0.033	-0.639
-558.485	-127.838	0.393	0.057
-557.471	220.707	0.207	-0.333
-556.456	-153.968	0.216	-0.015
-555.442	458.892	0.115	-0.257
-554.427	800.000	-0.140	-0.465
-553.412	6.533	0.416	0.310
-552.398	-2.551	0.415	-0.291
-551.383	-1.175	-0.227	-0.161
-550.369	-200.000	-0.078	0.699
-549.354	263.887	-0.277	-0.482
-548.339	-18.385	-0.783	-0.490
-547.325	-200.000	-0.029	0.311
-546.310	289.774	-0.266	0.484
-545.296	-200.000	0.049	-0.462
-544.281	800.000	0.085	0.338
-543.266	-75.842	-0.371	0.132
-542.252	-27.065	-0.195	0.114
-541.237	-195.407	-0.155	-0.001
-540.223	-91.969	-0.276	-0.078
-539.208	119.321	-0.671	0.832
-538.193	800.000	0.225	-0.663
-537.179	302.149	0.245	-0.454
-536.164	-31.311	0.491	0.277
-535.150	50.131	0.205	-0.194
-534.135	-121.509	0.251	-0.042
-533.121	-54.964	-0.263	0.119
-532.106	-200.000	-0.016	-0.275
-531.091	800.000	0.067	-0.281
-530.077	-158.803	-0.336	-0.019
-529.062	112.890	-0.322	-0.391
-528.048	-64.084	0.803	-0.328
-527.033	135.109	-0.232	0.302
-526.018	-92.648	-0.749	0.210
-525.004	16.587	-0.361	0.286
-523.989	-17.843	0.802	-0.504
-522.975	-44.622	-1.062	0.531
-521.960	171.655	0.058	-0.084
-520.945	358.893	0.326	-0.653
-519.931	-200.000	-0.048	-0.301
-518.916	-200.000	0.016	0.834
-517.902	513.722	-0.207	-0.483
-516.887	207.148	-0.573	0.894
-515.872	-65.074	-0.210	-0.085
-514.858	-200.000	-0.111	-0.760
-513.843	52.702	-0.641	0.614
-512.829	362.723	0.188	0.377
-511.814	-66.999	0.484	0.191
-510.799	-200.000	0.009	0.048
-509.785	94.988	-0.746	0.851
-508.770	507.067	-0.448	-1.039
-507.756	-200.000	-0.034	0.283
-506.741	-34.680	-0.031	0.017
-505.726	-200.000	0.020	-0.687
-504.712	517.470	-0.251	-0.588
-503.697	-45.895	-0.352	0.174
-502.683	-137.569	-1.171	0.132
-501.668	-200.000	-0.005	0.455
-500.653	-101.113	0.329	0.081
-499.639	-155.119	0.087	-0.006
-498.624	-120.875	0.337	-0.057
-497.610	-22.294	0.530	0.322
-496.595	249.588	0.264	0.448
-495.581	-89.777	-0.315	0.092
-494.566	-64.394	-0.739	0.301
-493.551	-119.131	0.861	0.150
-492.537	-182.419	0.368	-0.007
-491.522	-200.000	-0.122	0.554
-490.508	544.963	0.298	-0.712
-489.493	51.358	-0.411	0.391
-488.478	107.702	-0.207	0.247
-487.464	-32.957	0.122	0.068
-486.449	7.858	-0.186	-0.139
-485.435	296.048	-0.381	-0.698
-484.420	-69.915	-0.571	-0.218
-483.405	-30.280	-0.380	0.216
-482.391	-200.000	0.044	-0.746
-481.376	-70.094	-0.257	-0.098
-480.362	-64.950	-0.238	-0.096
-479.347	-200.000	-0.006	0.602
-478.332	185.844	-0.206	-0.307
-477.318	-200.000	0.074	0.623
-476.303	-200.000	-0.182	1.217
-475.289	-200.000	-0.132	0.713
-474.274	-200.000	-0.001	0.109
-473.259	28.313	0.273	-0.231
-472.245	-38.431	0.359	-0.190
-471.230	86.618	-0.252	0.278
-470.216	-8.747	-0.247	0.166
-469.201	-73.056	-0.341	0.125
-468.186	-71.214	0.149	0.056
-467.172	127.738	-0.180	0.229
-466.157	53.922	0.313	0.300
-465.143	-83.819	-0.547	0.174
-464.128	-47.243	0.439	-0.214
-463.113	-200.000	-0.064	0.825
-462.099	-200.000	0.005	-0.633
-461.084	217.853	0.098	-0.157
-460.070	180.822	-0.623	0.913
-459.055	15.620	0.528	-0.415
-458.040	-30.421	0.838	0.475
-457.026	-200.000	-0.104	0.523
-456.011	17.162	0.458	-0.363
-454.997	510.717	-0.104	0.241
-453.982	-33.155	0.319	-0.177
-452.968	-120.396	0.551	0.094
-451.953	771.455	0.240	-0.654
-450.938	185.150	-0.590	-0.875
-449.924	-100.003	0.378	-0.094
-448.909	135.055	0.069	0.090
-447.895	-91.220	-0.462	-0.132
-446.880	-200.000	-0.074	-0.580
-445.865	-200.000	0.627	0.001
-444.851	128.882	-0.212	-0.269
-443.836	-38.864	-0.974	-0.512
-442.822	-4.421	0.452	0.312
-441.807	234.105	0.153	0.252
-440.792	-145.093	-0.669	0.061
-439.778	-17.981	-0.506	-0.316
-438.763	-200.000	-0.044	-0.475
-437.749	-43.947	-0.574	-0.288
-436.734	-69.360	0.581	-0.222
-435.719	-200.000	-0.053	-0.525
-434.705	-92.198	0.490	0.138
-433.690	-200.000	-0.003	0.468
-432.676	127.381	-0.421	-0.533
-431.661	800.000	0.146	-0.596
-430.646	-200.000	0.090	-0.830
-429.632	1.381	0.460	-0.330
-428.617	-102.453	-0.683	-0.163
-427.603	206.112	-0.244	0.378
-426.588	-74.997	-0.571	0.204
-425.573	-200.000	-0.066	0.703
-424.559	-200.000	0.025	-0.477
-423.544	800.000	-0.199	-0.593
-422.530	1.617	0.649	0.466
-421.515	415.515	0.199	-0.423
-420.500	0.513	-0.071	0.051
-419.486	-200.000	-0.078	-0.526
-418.471	-71.591	0.367	0.137
-417.457	0.966	0.677	-0.484
-416.442	217.042	-0.154	0.244
-415.428	-200.000	-0.206	0.914
-414.413	128.187	-0.409	-0.519
-413.398	-200.000	-0.010	0.519
-412.384	-186.380	0.644	-0.009
-411.369	140.339	-0.352	0.463
-410.355	3.971	0.879	-0.641
-409.340	-177.471	0.715	0.017
-408.325	597.026	0.358	0.884
-407.311	10.208	0.497	0.377
-406.296	-17.492	-0.769	-0.483
-405.282	97.826	0.763	0.875
-404.267	-20.446	-0.194	0.119
-403.252	-200.000	-0.022	-0.192
-402.238	-128.936	0.441	-0.062
-401.223	800.000	0.251	-0.757
-400.209	-0.969	-0.213	-0.150
-399.194	229.199	0.313	-0.509
-398.179	2.391	-0.976	-0.704
-397.165	142.915	0.421	-0.558
-396.150	-200.000	-0.011	-0.237
-395.136	141.233	0.154	-0.203
-394.121	24.658	-0.161	-0.133
-393.106	214.335	0.436	0.688
-392.092	30.365	0.713	-0.607
-391.077	-55.137	0.595	0.267
-390.063	-175.659	-0.263	0.007
-389.048	425.486	-0.116	-0.249
-388.033	211.696	0.293	-0.459
-387.019	188.351	0.391	-0.582
-386.004	-200.000	-0.030	0.754
-384.990	-144.508	0.847	0.078
-383.975	20.972	0.766	-0.619
-382.960	58.222	-0.419	-0.409
-381.946	1.694	0.279	0.200
-380.931	-89.250	0.433	0.127
-379.917	-25.571	0.250	-0.147
-378.902	800.000	0.190	0.769
-377.888	-32.583	0.249	0.138
-376.873	85.869	-0.260	-0.285
-375.858	-200.000	0.038	-0.593
-374.844	800.000	-0.088	-0.295
-373.829	-172.701	-0.084	0.003
-372.815	-75.422	-0.244	0.087
-371.800	-72.689	0.695	-0.255
-370.785	-147.347	-1.515	-0.128
-369.771	-43.864	-0.490	0.246
-368.756	-11.465	0.488	0.320
-367.742	800.000	0.067	0.205
-366.727	-98.596	-0.588	0.149
-365.712	321.177	-0.241	0.457
-364.698	-136.737	-0.729	-0.084
-363.683	318.086	0.046	-0.087
-362.669	-189.455	-0.178	0.002
-361.654	-34.266	0.793	0.433
-360.639	230.062	-0.101	-0.164
-359.625	81.355	-0.103	0.110
-358.610	-200.000	-0.061	0.271
-357.596	30.426	0.239	-0.203
-356.581	-200.000	-0.070	-0.312
-355.566	229.049	0.250	0.405
-354.552	-200.000	-0.069	0.673
-353.537	15.218	0.190	-0.148
-352.523	-200.000	-0.107	-0.617
-351.508	94.429	-0.124	0.141
-350.493	680.984	-0.052	0.136
-349.479	11.762	0.466	0.356
-348.464	-200.000	-0.071	0.403
-347.450	-75.566	-0.439	-0.155
-346.435	-78.636	-0.766	0.261
-345.420	-200.000	-0.013	-0.093
-344.406	-111.361	0.518	-0.105
-343.391	-156.676	-0.150	-0.009
-342.377	276.505	-0.094	-0.166
-341.362	26.044	1.057	-0.877
-340.348	467.523	-0.286	0.638
-339.333	-152.588	0.405	0.029
-338.318	161.526	0.128	-0.178
-337.304	-16.068	1.134	0.717
-336.289	800.000	-0.230	-0.698
-335.275	98.428	-0.252	-0.289
-334.260	-200.000	0.022	-0.465
-333.245	-67.387	-0.622	0.243
-332.231	237.781	-0.574	0.947
-331.216	-200.000	-0.025	0.568
-330.202	549.773	0.182	-0.434
-329.187	-200.000	0.118	-0.562
-328.172	800.000	-0.226	0.909
-327.158	-0.765	0.518	0.365
-326.143	679.044	-0.033	-0.086
-325.129	194.968	0.464	0.701
-324.114	-85.006	0.766	0.238
-323.099	-115.365	1.166	-0.219
-322.085	-200.000	0.060	-0.643
-321.070	-200.000	0.087	-0.656
-320.056	-93.946	-0.294	-0.080
-319.041	615.392	0.129	-0.322
-318.026	-102.785	-0.550	-0.130
-317.012	-57.655	-0.438	0.191
-315.997	-13.703	-0.439	-0.282
-314.983	-116.859	-0.203	0.037
-313.968	691.833	-0.096	-0.249
-312.953	227.924	-0.255	0.412
-311.939	-61.370	-0.867	0.362
-310.924	87.658	0.110	-0.121
-309.910	-157.395	-0.401	-0.024
-308.895	-123.407	0.540	0.085
-307.880	22.234	0.540	-0.438
-306.866	-200.000	-0.044	-0.588
-305.851	293.356	-0.531	-0.962
-304.837	16.954	-0.977	-0.768
-303.822	19.713	0.538	0.430
-302.807	125.782	0.640	0.803
-301.793	-115.392	0.145	0.027
-300.778	98.325	-0.486	0.556
-299.764	-105.976	0.727	-0.162
-298.749	-15.113	0.314	-0.199
-297.735	6.071	-0.397	0.292
-296.720	-200.000	0.070	0.412
-295.705	35.625	0.354	0.309
-294.691	52.169	0.384	-0.363
-293.676	-116.579	-0.498	0.091
-292.662	-200.000	0.050	-0.281
-291.647	680.864	0.292	0.754
-290.632	-200.000	-0.005	0.138
-289.618	800.000	0.012	-0.050
-288.603	204.082	-0.095	0.147
-287.589	-23.461	-0.459	0.274
-286.574	-166.271	0.234	-0.010
-285.559	-200.000	-0.003	-0.818
-284.545	253.987	0.534	0.905
-283.530	461.752	-0.274	0.606
-282.516	8.972	-0.494	0.370
-281.501	-14.001	0.093	0.060
-280.486	103.772	-0.188	-0.219
-279.472	74.183	0.259	-0.269
-278.457	-29.093	0.381	0.217
-277.443	450.435	0.178	-0.390
-276.428	112.529	0.309	0.371
-275.413	184.885	0.433	0.637
-274.399	800.000	0.088	-0.349
-273.384	-18.395	-0.078	-0.048
-272.370	89.296	-0.445	-0.492
-271.355	-93.895	-0.094	-0.026
-270.340	45.935	-0.246	0.226
-269.326	800.000	0.149	-0.512
-268.311	226.160	-0.033	-0.053
-267.297	-200.000	0.075	0.414
-266.282	12.102	-0.275	-0.210
-265.267	682.708	-0.281	0.728
-264.253	62.308	0.355	-0.351
-263.238	213.165	-0.372	0.583
-262.224	-75.150	0.654	-0.232
-261.209	110.240	-0.278	0.331
-260.195	-130.401	0.701	-0.094
-259.180	53.002	-0.354	0.336
-258.165	-106.409	0.818	0.181
-257.151	45.180	0.339	-0.310
-256.136	-200.000	-0.008	0.134
-255.122	-200.000	-0.064	0.464
-254.107	-30.246	0.267	-0.150
-253.092	-55.101	-0.273	-0.122
-252.078	-200.000	-0.009	-0.233
-251.063	-46.625	-0.869	0.422
-250.049	-114.609	-0.505	0.096
-249.034	-116.982	0.706	-0.128
-248.019	800.000	-0.082	-0.255
-247.005	-200.000	0.014	0.109
-245.990	-165.964	0.203	0.009
-244.976	223.277	0.326	0.521
-243.961	-101.701	0.597	0.143
-242.946	49.041	-0.210	-0.195
-241.932	-77.738	-0.226	0.077
-240.917	24.308	-0.326	-0.267
-239.903	800.000	-0.217	-0.714
-238.888	-28.157	-0.635	-0.364
-237.873	-200.000	-0.036	-0.594
-236.859	642.793	0.094	-0.239
-235.844	-200.000	0.023	0.201
-234.830	61.500	0.330	0.325
-233.815	-10.227	0.416	-0.274
-232.800	-200.000	-0.013	0.487
-231.786	-148.922	0.496	0.040
-230.771	800.000	0.155	0.459
-229.757	19.605	-0.319	-0.254
-228.742	40.281	0.496	-0.442
-227.727	42.463	-0.245	0.221
-226.713	-200.000	0.007	0.267
-225.698	745.506	0.374	0.995
-224.684	-12.329	-0.431	-0.279
-223.669	40.532	-0.757	-0.675
-222.655	106.427	0.388	0.455
-221.640	-156.993	-0.803	-0.049
-220.625	-71.254	-0.342	0.127
-219.611	-72.532	0.503	-0.184
-218.596	-31.923	0.180	-0.100
-217.582	-157.992	-0.515	0.030
-216.567	224.277	-0.205	0.328
-215.552	527.210	-0.203	0.474
-214.538	-73.767	-0.284	0.102
-213.523	-200.000	0.148	0.661
-212.509	-152.864	0.260	-0.018
-211.494	107.165	0.322	0.379
-210.479	96.616	0.134	0.152
-209.465	142.456	0.481	0.632
-208.450	-200.000	-0.051	0.356
-207.436	800.000	-0.179	-0.734
-206.421	-90.073	0.494	0.142
-205.406	103.951	0.221	-0.257
-204.392	83.909	-0.273	0.295
-203.377	-200.000	-0.094	-0.949
-202.363	62.144	0.247	-0.243
-201.348	-200.000	-0.011	-0.354
-200.333	-168.288	0.490	0.019
-199.319	459.639	0.108	-0.237
-198.304	-114.730	0.283	-0.053
-197.290	-71.371	-0.336	0.124
-196.275	-168.324	0.564	0.021
-195.260	282.985	0.318	-0.565
-194.246	444.528	0.361	-0.784
-193.231	778.427	0.293	-0.792
-192.217	-24.937	0.671	-0.393
-191.202	-200.000	-0.052	-0.340
-190.187	739.669	0.320	-0.851
-189.173	-52.617	-0.403	-0.184
-188.158	-47.706	0.256	0.123
-187.144	194.006	0.251	0.376
-186.129	707.589	0.222	-0.580
-185.114	-39.772	0.909	-0.470
-184.100	794.996	0.167	0.454
-183.085	-154.065	-0.568	0.038
-182.071	690.690	-0.283	-0.731
-181.056	-169.564	-0.315	-0.011
-180.042	800.000	-0.281	0.812
-179.027	-25.494	-0.057	-0.034
-178.012	-101.754	-0.970	0.232
-176.998	158.547	0.243	0.334
-175.983	102.563	-0.775	0.896
-174.969	-68.538	-0.512	0.196
-173.954	45.768	0.409	0.374
-172.939	800.000	0.027	-0.087
-171.925	-188.063	-0.416	0.005
-170.910	8.982	-0.321	-0.239
-169.896	800.000	-0.017	0.069
-168.881	271.964	-0.284	0.495
-167.866	800.000	0.206	0.639
-166.852	511.999	-0.062	0.142
-165.837	297.996	-0.312	-0.567
-164.823	-200.000	-0.063	0.713
-163.808	-36.076	0.789	-0.421
-162.793	-80.539	-0.250	0.082
-161.779	40.585	-0.516	0.459
-160.764	-112.232	0.246	-0.049
-159.750	47.523	0.121	0.111
-158.735	2.803	-0.537	0.385
-157.720	-32.812	0.277	0.152
-156.706	218.403	0.080	0.125
-155.691	-200.000	-0.153	0.933
-154.677	304.916	-0.251	0.460
-153.662	-147.040	0.242	-0.020
-152.647	-200.000	-0.109	0.689
-151.633	-100.141	-0.086	-0.021
-150.618	-11.848	-0.285	-0.185
-149.604	-24.974	-0.233	0.137
-148.589	158.509	-0.278	-0.381
-147.574	138.247	-0.530	0.686
-146.560	-200.000	0.005	-0.199
-145.545	-4.639	-0.801	-0.546
-144.531	-83.492	1.071	0.339
-143.516	129.059	-0.429	-0.541
-142.502	800.000	-0.125	0.433
-141.487	-200.000	0.052	-0.455
-140.472	1.547	0.204	0.145
-139.458	-29.122	-0.543	0.307
-138.443	392.911	0.237	-0.487
-137.429	-94.922	0.720	-0.192
-136.414	800.000	-0.213	-0.782
-135.399	-186.688	0.643	0.009
-134.385	800.000	0.290	0.935
-133.370	800.000	-0.290	0.804
-132.356	-79.032	-1.048	0.351
-131.341	-187.001	-0.420	0.006
-130.326	800.000	0.262	-0.901
-129.312	-145.560	-0.308	0.027
-128.297	-200.000	0.052	0.425
-127.283	133.037	-0.175	-0.223
-126.268	-20.468	-0.428	0.260
-125.253	70.538	0.348	-0.355
-124.239	-21.748	-0.193	-0.116
-123.224	-77.497	0.160	0.055
-122.210	172.292	0.328	0.465
