DTS Sentinel unit serial number:	SN413079Multiplexer serial number:	ORYXHardware model number:	OX4-SRSoftware version number:	ORYX F/W v4.00 Oryx Data Collector v3.7.2.0data status	okinstallation	princeton_trtdifferential loss correction	single-endedforward channel	channel 3reverse channel	N/Adate	2019/09/16time	19:08:34forward acquisition time	60.00reverse acquisition time	0.00gamma	496.2192k internal	0.2312k external	0.2312temperature offset calibration	0.9933default loss term (dB/km)	0.3790temperature slope calibration	1.0000multiplexer offset coefficient	1.0000multiplexer slope coefficient	1.0000fibre end	0.00T internal ref (°C)	35.30T ext. ref 1 (°C)	0.06T ext. ref 2 (°C)	28.42length (m)	temperature (°C)	Stokes	anti-Stokes-747.200	-183.957	0.259	0.004
-746.185	98.089	0.123	0.144
-745.171	145.239	0.246	0.334
-744.156	450.980	-0.087	0.196
-743.142	-139.955	-0.575	0.062
-742.127	178.539	-0.098	-0.145
-741.112	299.985	-0.129	0.242
-740.098	800.000	-0.113	0.431
-739.083	369.190	0.046	0.094
-738.069	-95.717	-0.210	0.057
-737.054	115.678	0.143	0.177
-736.039	-142.150	-0.440	-0.044
-735.025	800.000	-0.064	0.198
-734.010	800.000	-0.038	0.143
-732.996	-6.394	-0.244	-0.169
-731.981	32.296	-0.122	0.106
-730.966	612.158	-0.124	0.315
-729.952	-200.000	0.030	-0.251
-728.937	-105.935	0.064	-0.015
-727.923	800.000	0.089	-0.320
-726.908	70.958	-0.139	-0.146
-725.894	27.812	0.213	-0.182
-724.879	-200.000	-0.013	0.135
-723.864	101.350	-0.130	0.153
-722.850	49.360	-0.117	-0.112
-721.835	89.036	-0.163	0.185
-720.821	-54.133	-0.156	-0.072
-719.806	40.531	-0.169	-0.154
-718.791	221.248	-0.094	-0.154
-717.777	-89.219	-0.241	0.072
-716.762	-70.715	0.082	0.031
-715.748	56.335	0.269	-0.265
-714.733	-47.726	0.110	0.054
-713.718	-86.082	-0.399	-0.125
-712.704	-15.397	0.166	-0.108
-711.689	113.041	-0.053	0.065
-710.675	199.452	-0.037	-0.058
-709.660	-152.409	-0.355	0.026
-708.645	172.233	-0.224	-0.327
-707.631	68.711	0.077	0.080
-706.616	784.278	0.033	-0.091
-705.602	-98.989	-0.292	-0.075
-704.587	74.707	-0.178	-0.190
-703.572	-146.374	-0.079	0.007
-702.558	3.494	-0.101	-0.075
-701.543	-102.161	-0.129	-0.031
-700.529	-138.222	0.102	-0.011
-699.514	359.742	0.028	0.056
-698.499	314.114	-0.072	-0.138
-697.485	104.546	-0.066	-0.079
-696.470	-55.114	-0.200	-0.091
-695.456	-81.021	0.225	-0.075
-694.441	25.259	-0.185	-0.155
-693.426	800.000	0.160	-0.477
-692.412	-200.000	0.018	0.412
-691.397	263.599	-0.199	0.350
-690.383	593.106	-0.142	-0.354
-689.368	-200.000	0.016	0.110
-688.354	489.000	-0.126	-0.293
-687.339	-30.257	0.415	-0.239
-686.324	78.943	0.206	0.223
-685.310	29.196	0.083	0.071
-684.295	-200.000	-0.005	-0.135
-683.281	-200.000	-0.060	0.308
-682.266	136.538	-0.247	0.327
-681.251	-58.758	-0.097	0.042
-680.237	-110.512	0.196	-0.041
-679.222	118.818	0.133	-0.166
-678.208	-200.000	-0.052	0.378
-677.193	749.349	-0.108	-0.294
-676.178	-200.000	0.000	-0.127
-675.164	-156.477	-0.168	0.011
-674.149	75.065	-0.138	0.147
-673.135	-79.027	0.033	-0.012
-672.120	-169.175	0.187	-0.007
-671.105	-200.000	0.031	-0.189
-670.091	-61.698	0.287	-0.122
-669.076	-200.000	0.102	-0.455
-668.062	94.471	-0.035	-0.040
-667.047	110.578	0.082	0.100
-666.032	63.111	-0.187	0.189
-665.018	-120.390	0.150	-0.026
-664.003	505.538	0.083	-0.194
-662.989	796.547	0.199	0.553
-661.974	-38.058	0.215	-0.116
-660.959	-200.000	-0.019	-0.112
-659.945	9.099	0.155	-0.119
-658.930	28.080	0.214	-0.182
-657.916	72.216	0.207	0.218
-656.901	164.944	0.178	0.254
-655.886	-106.561	0.077	-0.017
-654.872	-76.668	0.227	-0.080
-653.857	-27.331	-0.269	0.158
-652.843	-200.000	0.033	0.267
-651.828	464.349	0.132	-0.299
-650.814	69.225	-0.113	-0.117
-649.799	-77.492	-0.237	0.083
-648.784	800.000	-0.037	0.110
-647.770	64.532	-0.058	-0.059
-646.755	-41.493	0.131	-0.068
-645.741	-85.290	-0.243	-0.077
-644.726	-61.944	0.224	0.095
-643.711	217.532	0.135	-0.218
-642.697	74.666	-0.082	0.087
-641.682	-200.000	-0.011	-0.186
-640.668	2.103	-0.394	0.288
-639.653	246.723	0.059	0.100
-638.638	365.197	-0.112	0.228
-637.624	-75.016	-0.097	-0.035
-636.609	39.808	-0.400	-0.362
-635.595	-14.195	0.212	-0.138
-634.580	-138.285	-0.224	-0.025
-633.565	224.149	-0.176	-0.287
-632.551	-76.449	-0.189	0.067
-631.536	2.382	0.082	-0.060
-630.522	-108.070	0.054	0.012
-629.507	212.958	-0.152	0.242
-628.492	163.488	-0.296	0.420
-627.478	126.693	0.194	0.249
-626.463	-57.490	-0.215	-0.095
-625.449	96.556	-0.152	0.175
-624.434	800.000	0.018	0.069
-623.419	96.816	-0.238	-0.275
-622.405	-200.000	-0.032	0.162
-621.390	-131.136	0.102	-0.014
-620.376	-200.000	0.000	0.304
-619.361	-120.288	-0.260	-0.045
-618.346	-133.908	-0.122	0.015
-617.332	71.913	0.103	-0.108
-616.317	800.000	-0.040	0.118
-615.303	757.560	0.134	0.367
-614.288	70.302	0.198	0.207
-613.273	-200.000	0.018	-0.117
-612.259	-120.940	-0.226	0.038
-611.244	-51.858	0.319	-0.150
-610.230	-188.401	-0.335	-0.004
-609.215	11.195	0.117	-0.090
-608.201	-200.000	0.002	0.107
-607.186	467.351	-0.142	-0.321
-606.171	-73.321	-0.448	-0.165
-605.157	-200.000	0.008	-0.244
-604.142	-70.386	-0.291	-0.111
-603.128	-126.928	0.473	-0.070
-602.113	-161.968	0.142	-0.007
-601.098	90.972	-0.158	-0.179
-600.084	-110.215	0.096	-0.020
-599.069	-138.850	-0.250	-0.027
-598.055	242.264	-0.162	-0.273
-597.040	424.009	-0.086	-0.187
-596.025	-64.741	0.113	0.046
-595.011	223.804	-0.111	-0.181
-593.996	59.017	0.215	-0.214
-592.982	66.237	-0.185	-0.189
-591.967	-200.000	0.012	-0.166
-590.952	800.000	-0.035	0.119
-589.938	147.475	0.075	0.102
-588.923	-171.745	-0.117	-0.004
-587.909	-46.732	0.088	-0.044
-586.894	-38.829	-0.114	0.061
-585.879	-200.000	0.335	-0.001
-584.865	-139.258	0.224	0.024
-583.850	0.985	-0.050	0.036
-582.836	-60.526	0.234	0.100
-581.821	482.749	0.134	0.307
-580.806	-150.818	-0.286	0.022
-579.792	800.000	0.068	-0.197
-578.777	-102.761	0.199	0.048
-577.763	800.000	0.107	-0.446
-576.748	123.312	-0.068	0.086
-575.733	-141.312	-0.056	-0.006
-574.719	120.167	-0.039	0.049
-573.704	-200.000	-0.009	0.148
-572.690	570.920	0.127	-0.311
-571.675	-91.262	0.103	0.030
-570.661	-142.976	-0.182	0.018
-569.646	-200.000	-0.005	-0.157
-568.631	-52.669	-0.094	-0.044
-567.617	7.410	0.155	0.116
-566.602	90.784	0.032	0.036
-565.588	216.155	-0.095	0.153
-564.573	389.400	0.110	0.230
-563.558	6.093	0.136	0.102
-562.544	283.644	-0.116	-0.211
-561.529	-113.394	-0.366	0.072
-560.515	552.541	0.081	0.195
-559.500	9.443	-0.137	0.104
-558.485	800.000	-0.020	0.074
-557.471	800.000	0.069	-0.228
-556.456	-26.268	-0.126	-0.075
-555.442	109.890	-0.129	-0.156
-554.427	-200.000	-0.025	0.120
-553.412	-140.166	0.214	0.023
-552.398	-66.305	-0.173	-0.069
-551.383	3.320	0.110	-0.080
-550.369	113.961	0.139	0.170
-549.354	-109.926	-0.222	-0.047
-548.339	-118.370	-0.219	-0.039
-547.325	-112.039	-0.121	0.025
-546.310	-70.797	0.176	0.067
-545.296	-200.000	-0.006	0.049
-544.281	247.931	-0.154	0.262
-543.266	-55.309	-0.367	0.166
-542.252	524.991	0.071	-0.168
-541.237	-76.626	-0.380	-0.134
-540.223	541.905	-0.067	-0.161
-539.208	-200.000	-0.006	-0.244
-538.193	-19.150	-0.132	0.082
-537.179	89.046	-0.131	0.147
-536.164	-200.000	-0.045	-0.251
-535.150	55.330	0.267	0.260
-534.135	554.509	0.022	-0.054
-533.121	96.449	-0.350	-0.403
-532.106	71.591	0.168	0.176
-531.091	201.840	-0.013	0.020
-530.077	-200.000	-0.039	0.178
-529.062	800.000	-0.043	0.189
-528.048	-200.000	-0.021	-0.134
-527.033	234.778	0.204	0.339
-526.018	-200.000	0.040	0.195
-525.004	-200.000	0.024	-0.124
-523.989	-200.000	0.257	0.000
-522.975	271.538	-0.186	-0.329
-521.960	213.182	-0.098	-0.156
-520.945	-200.000	-0.027	0.273
-519.931	800.000	-0.075	0.229
-518.916	-80.656	-0.277	-0.093
-517.902	173.992	-0.077	0.112
-516.887	800.000	-0.025	0.091
-515.872	-200.000	-0.016	0.160
-514.858	-200.000	0.015	0.263
-513.843	-200.000	0.022	-0.150
-512.829	80.698	0.315	0.342
-511.814	-200.000	0.006	0.211
-510.799	800.000	0.031	0.118
-509.785	14.913	-0.237	0.186
-508.770	250.628	-0.172	-0.294
-507.756	11.714	-0.147	-0.114
-506.741	800.000	-0.044	0.123
-505.726	-74.811	0.131	0.047
-504.712	-3.103	-0.182	-0.127
-503.697	-200.000	-0.025	0.217
-502.683	800.000	0.037	0.154
-501.668	-164.315	-0.229	-0.011
-500.653	-102.539	-0.152	-0.036
-499.639	212.374	0.076	0.120
-498.624	37.667	0.173	0.154
-497.610	464.653	-0.155	-0.349
-496.595	-107.058	0.157	0.035
-495.581	-70.049	-0.158	0.060
-494.566	603.861	-0.084	-0.210
-493.551	41.958	-0.218	-0.198
-492.537	-100.117	-0.010	0.003
-491.522	-65.858	-0.097	0.039
-490.508	423.708	-0.104	0.226
-489.493	-200.000	0.004	-0.060
-488.478	-200.000	0.027	-0.197
-487.464	-87.305	0.238	-0.073
-486.449	127.795	0.112	-0.143
-485.435	93.171	0.215	-0.244
-484.420	-45.621	0.206	0.102
-483.405	571.963	0.150	-0.366
-482.391	482.815	-0.035	0.081
-481.376	-39.706	0.224	0.118
-480.362	-106.241	-0.202	0.046
-479.347	531.043	-0.073	0.173
-478.332	-124.576	-0.280	-0.044
-477.318	-105.575	0.392	-0.089
-476.303	185.662	-0.071	-0.105
-475.289	125.048	-0.134	0.170
-474.274	-16.856	0.298	0.189
-473.259	-69.786	0.394	0.151
-472.245	-200.000	-0.016	0.083
-471.230	-141.719	-0.286	-0.029
-470.216	34.802	-0.139	0.122
-469.201	28.838	0.197	0.168
-468.186	-200.000	-0.023	-0.144
-467.172	-200.000	-0.037	-0.181
-466.157	-200.000	-0.028	0.153
-465.143	493.312	-0.157	0.362
-464.128	-200.000	0.010	-0.119
-463.113	52.489	0.170	-0.163
-462.099	83.757	-0.030	0.033
-461.084	273.141	-0.152	0.269
-460.070	68.344	0.087	0.090
-459.055	-28.848	-0.221	-0.127
-458.040	-111.291	0.236	-0.048
-457.026	-200.000	-0.030	0.175
-456.011	-200.000	0.031	-0.240
-454.997	800.000	0.104	0.318
-453.982	-37.523	0.077	-0.041
-452.968	-69.417	-0.280	0.108
-451.953	-5.372	-0.065	0.045
-450.938	-107.082	0.208	-0.046
-449.924	205.324	-0.134	-0.209
-448.909	-50.079	0.263	-0.125
-447.895	186.869	-0.173	-0.258
-446.880	-83.378	0.071	0.023
-445.865	-141.889	0.097	0.010
-444.851	294.684	-0.111	-0.204
-443.836	25.877	0.232	-0.194
-442.822	-69.614	-0.307	0.118
-441.807	731.399	0.113	0.302
-440.792	-44.653	0.030	0.015
-439.778	257.070	-0.145	-0.250
-438.763	-123.805	0.089	0.014
-437.749	435.304	-0.094	0.205
-436.734	554.452	-0.144	0.347
-435.719	-73.542	0.113	-0.041
-434.705	229.445	0.151	-0.247
-433.690	123.333	-0.105	0.132
-432.676	-200.000	0.033	-0.258
-431.661	-112.196	0.233	0.047
-430.646	-69.755	-0.160	0.061
-429.632	34.836	-0.166	-0.145
-428.617	-60.037	-0.260	0.111
-427.603	-99.049	-0.436	0.111
-426.588	-200.000	-0.036	0.396
-425.573	9.506	-0.169	0.128
-424.559	21.917	-0.186	0.152
-423.544	686.546	-0.066	0.173
-422.530	-200.000	0.007	-0.056
-421.515	198.891	0.114	-0.175
-420.500	-64.057	-0.264	0.108
-419.486	156.538	0.148	-0.205
-418.471	-200.000	-0.006	0.143
-417.457	22.924	0.170	0.139
-416.442	800.000	0.080	-0.263
-415.428	-94.573	0.361	0.098
-414.413	800.000	0.062	0.173
-413.398	-68.349	0.118	-0.046
-412.384	-200.000	0.040	-0.327
-411.369	36.722	-0.019	-0.017
-410.355	347.435	-0.016	0.031
-409.340	543.558	0.063	0.152
-408.325	221.869	0.164	0.265
-407.311	-11.124	0.138	0.091
-406.296	800.000	-0.091	0.297
-405.282	-9.491	0.086	0.057
-404.267	-200.000	0.232	0.000
-403.252	52.724	-0.079	0.076
-402.238	800.000	-0.035	0.147
-401.223	-48.373	-0.121	0.058
-400.209	-200.000	0.026	-0.244
-399.194	-128.200	-0.167	-0.024
-398.179	-115.319	0.211	0.040
-397.165	725.061	0.105	0.279
-396.150	-19.111	-0.161	0.100
-395.136	-200.000	-0.003	0.063
-394.121	62.816	-0.145	-0.145
-393.106	226.558	-0.247	-0.402
-392.092	124.943	-0.040	-0.050
-391.077	130.094	0.143	0.183
-390.063	-113.584	0.376	0.074
-389.048	-161.671	0.106	-0.005
-388.033	800.000	0.027	0.079
-387.019	345.309	-0.159	-0.313
-386.004	-34.704	-0.251	0.137
-384.990	-53.988	-0.215	0.098
-383.975	207.328	0.142	0.222
-382.960	20.579	-0.146	0.118
-381.946	800.000	-0.057	0.239
-380.931	800.000	0.083	-0.307
-379.917	356.149	0.070	0.140
-378.902	-11.211	0.339	-0.223
-377.888	93.307	0.237	-0.268
-376.873	-47.267	-0.261	-0.127
-375.858	27.753	0.147	-0.124
-374.844	2.077	0.084	0.061
-373.829	-200.000	0.038	0.243
-372.815	-200.000	-0.071	0.433
-371.800	-163.268	0.137	-0.007
-370.785	277.454	-0.071	0.126
-369.771	360.724	-0.154	0.309
-368.756	-37.483	0.054	-0.029
-367.742	604.152	-0.010	0.026
-366.727	330.609	-0.213	-0.409
-365.712	134.881	-0.072	-0.093
-364.698	-107.629	0.151	-0.033
-363.683	48.172	0.208	-0.194
-362.669	800.000	0.079	-0.319
-361.654	-6.183	0.230	0.157
-360.639	-174.843	0.125	-0.004
-359.625	-200.000	-0.060	-0.296
-358.610	-200.000	-0.016	-0.337
-357.596	-49.534	0.229	-0.109
-356.581	252.734	0.103	0.176
-355.566	-151.087	-0.185	0.014
-354.552	20.106	-0.135	-0.109
-353.537	-200.000	0.034	0.206
-352.523	22.165	0.117	-0.095
-351.508	800.000	-0.065	-0.189
-350.493	83.691	-0.177	-0.193
-349.479	-200.000	0.047	-0.329
-348.464	800.000	-0.050	0.146
-347.450	-51.537	0.267	0.125
-346.435	-200.000	0.031	-0.342
-345.420	800.000	0.007	-0.027
-344.406	800.000	-0.087	0.323
-343.391	320.350	-0.026	0.049
-342.377	604.149	-0.082	-0.205
-341.362	-153.046	-0.130	0.009
-340.348	53.867	0.097	0.093
-339.333	-100.480	0.108	0.027
-338.318	-200.000	-0.002	0.016
-337.304	-122.413	-0.084	-0.014
-336.289	177.548	-0.151	0.220
-335.275	-118.081	0.121	-0.022
-334.260	654.888	0.045	-0.116
-333.245	-200.000	-0.001	0.109
-332.231	-101.536	0.229	0.056
-331.216	-79.763	-0.196	0.066
-330.202	173.164	0.184	0.264
-329.187	-54.832	0.133	-0.060
-328.172	488.434	0.111	-0.253
-327.158	95.495	0.177	0.202
-326.143	400.911	0.100	-0.210
-325.129	8.624	-0.177	-0.133
-324.114	4.648	-0.084	-0.061
-323.099	-134.065	0.217	-0.027
-322.085	-83.918	-0.203	-0.065
-321.070	-9.524	0.219	-0.146
-320.056	-63.299	0.356	0.146
-319.041	-85.938	-0.307	0.095
-318.026	800.000	-0.096	-0.403
-317.012	-200.000	-0.004	-0.102
-315.997	-200.000	0.021	-0.266
-314.983	-200.000	-0.028	-0.157
-313.968	11.121	-0.056	-0.042
-312.953	-200.000	-0.019	0.267
-311.939	277.976	0.092	-0.164
-310.924	800.000	-0.089	0.328
-309.910	-200.000	-0.003	0.318
-308.895	800.000	-0.038	0.132
-307.880	-30.286	0.207	0.117
-306.866	-200.000	0.001	-0.215
-305.851	-50.363	-0.139	-0.066
-304.837	62.384	-0.228	0.227
-303.822	223.620	0.084	0.135
-302.807	-200.000	-0.046	-0.221
-301.793	105.713	-0.191	0.225
-300.778	432.167	-0.024	0.052
-299.764	147.846	-0.188	-0.253
-298.749	-200.000	0.002	-0.443
-297.735	449.078	0.083	-0.183
-296.720	-138.565	-0.245	0.027
-295.705	800.000	-0.072	0.245
-294.691	-200.000	0.007	0.329
-293.676	-200.000	0.067	-0.319
-292.662	-200.000	0.017	-0.259
-291.647	-200.000	0.004	0.262
-290.632	35.775	-0.130	-0.114
-289.618	-97.877	0.218	-0.056
-288.603	-200.000	-0.060	0.317
-287.589	-123.761	0.114	0.018
-286.574	-200.000	0.021	-0.260
-285.559	-72.730	0.209	0.077
-284.545	-117.348	0.270	0.049
-283.530	-106.766	-0.065	-0.014
-282.516	-29.351	0.113	-0.064
-281.501	-12.158	0.197	-0.129
-280.486	-173.482	-0.226	0.007
-279.472	-200.000	-0.014	-0.110
-278.457	501.387	-0.027	-0.063
-277.443	-162.802	-0.367	0.018
-276.428	-9.054	0.069	-0.046
-275.413	297.845	-0.140	0.256
-274.399	-67.860	0.112	0.044
-273.384	-37.439	0.036	-0.019
-272.370	-98.573	0.274	-0.070
-271.355	-33.912	0.104	0.057
-270.340	377.294	0.048	0.097
-269.326	-139.095	0.067	0.007
-268.311	-68.052	-0.175	0.068
-267.297	-89.622	-0.058	0.017
-266.282	318.832	-0.122	0.231
-265.267	-200.000	0.013	0.235
-264.253	-84.240	-0.087	-0.027
-263.238	-33.803	0.279	0.153
-262.224	332.415	0.104	-0.200
-261.209	148.448	-0.284	-0.381
-260.195	800.000	0.012	0.053
-259.180	-103.821	-0.216	0.050
-258.165	-42.331	-0.248	0.126
-257.151	-164.203	-0.128	-0.006
-256.136	-128.524	0.318	0.045
-255.122	191.767	-0.095	-0.142
-254.107	-30.489	0.119	0.067
-253.092	152.321	0.088	-0.119
-252.078	-200.000	-0.025	-0.439
-251.063	-64.107	-0.161	-0.065
-250.049	800.000	-0.116	0.348
-249.034	-10.027	0.179	-0.118
-248.019	16.279	-0.109	-0.085
-247.005	-200.000	0.045	-0.226
-245.990	-200.000	-0.003	-0.227
-244.976	-92.019	0.231	0.065
-243.961	-34.107	-0.179	-0.098
-242.946	79.339	0.086	0.091
-241.932	116.443	0.143	-0.174
-240.917	-104.293	0.305	-0.070
-239.903	-170.861	0.201	-0.007
-238.888	-88.563	0.160	-0.048
-237.873	-62.969	-0.143	0.059
-236.859	800.000	-0.079	0.317
-235.844	10.309	0.034	0.026
-234.830	758.005	-0.115	-0.311
-233.815	-11.951	-0.237	-0.154
-232.800	800.000	0.079	0.250
-231.786	-200.000	0.030	0.393
-230.771	88.980	0.260	0.288
-229.757	284.695	-0.287	-0.514
-228.742	-200.000	0.032	0.315
-227.727	253.997	0.094	0.160
-226.713	-105.502	0.172	-0.039
-225.698	-0.584	0.314	0.221
-224.684	305.307	0.098	0.182
-223.669	-62.541	0.106	0.044
-222.655	-85.398	-0.056	0.017
-221.640	-188.676	0.276	0.003
-220.625	-200.000	-0.055	0.333
-219.611	-94.915	0.094	-0.025
-218.596	239.900	-0.127	-0.211
-217.582	-78.473	0.139	0.047
-216.567	7.102	0.033	0.025
-215.552	800.000	0.050	0.148
-214.538	-200.000	0.004	-0.247
-213.523	-72.117	0.302	-0.111
-212.509	-106.313	-0.152	-0.034
-211.494	143.163	-0.246	0.325
-210.479	3.814	0.233	-0.169
-209.465	60.822	0.096	0.095
-208.450	-62.747	0.141	-0.058
-207.436	41.344	0.159	0.143
-206.421	-200.000	-0.001	0.182
-205.406	13.037	-0.129	0.099
-204.392	205.967	-0.102	-0.157
-203.377	-175.483	0.177	-0.005
-202.363	502.445	-0.167	0.383
-201.348	75.975	-0.103	-0.109
-200.333	41.189	0.266	-0.239
-199.319	478.959	-0.100	0.226
-198.304	-200.000	-0.011	0.095
-197.290	-118.579	-0.165	-0.029
-196.275	-37.860	0.205	0.108
-195.260	-200.000	0.003	-0.030
-194.246	158.778	0.106	0.146
-193.231	-200.000	-0.048	0.367
-192.217	800.000	0.039	-0.148
-191.202	210.848	0.033	-0.051
-190.187	14.002	0.071	-0.055
-189.173	-142.599	-0.248	0.024
-188.158	535.049	-0.030	-0.070
-187.144	-200.000	0.046	-0.308
-186.129	29.118	-0.217	0.182
-185.114	-17.694	-0.297	-0.185
-184.100	-200.000	0.007	0.070
-183.085	-200.000	-0.017	-0.108
-182.071	-200.000	0.014	0.071
-181.056	12.620	0.145	-0.111
-180.042	-119.279	0.242	-0.042
-179.027	14.783	-0.234	-0.182
-178.012	-132.474	0.173	0.022
-176.998	-105.028	0.139	0.032
-175.983	-84.288	0.152	0.048
-174.969	-200.000	-0.015	0.126
-173.954	-2.209	0.104	-0.072
-172.939	44.390	-0.268	-0.245
-171.925	-84.090	0.216	-0.068
-170.910	224.442	0.078	0.126
-169.896	800.000	0.134	-0.372
-168.881	-114.761	-0.084	-0.016
-167.866	62.950	-0.196	0.194
-166.852	19.972	-0.087	0.069
-165.837	638.463	-0.034	0.085
-164.823	323.588	-0.032	0.060
-163.808	-86.876	0.133	-0.040
-162.793	800.000	-0.049	-0.148
-161.779	-62.839	0.179	-0.073
-160.764	129.822	-0.107	-0.136
-159.750	-99.329	0.179	-0.045
-158.735	-200.000	0.305	-0.001
-157.720	-3.880	-0.118	-0.081
-156.706	26.809	0.268	-0.223
-155.691	-46.897	0.092	0.045
-154.677	90.746	0.256	-0.285
-153.662	-2.699	0.279	-0.194
-152.647	-23.038	0.419	-0.251
-151.633	800.000	-0.044	-0.173
-150.618	-197.995	0.673	0.004
-149.604	524.058	-0.053	-0.123
-148.589	-200.000	-0.063	0.418
-147.574	-200.000	0.031	-0.157
-146.560	-28.048	0.174	-0.100
-145.545	-174.622	0.033	0.001
-144.531	800.000	0.061	-0.212
-143.516	-62.864	0.263	0.108
-142.502	181.508	0.174	0.253
-141.487	-149.808	0.310	-0.024
-140.472	-84.040	-0.237	-0.074
-139.458	-4.401	-0.187	-0.128
-138.443	123.056	0.125	-0.155
-137.429	800.000	0.070	0.300
-136.414	-101.643	0.251	0.060
-135.399	3.326	0.237	-0.171
-134.385	-154.859	0.070	0.005
-133.370	-108.185	-0.515	0.110
-132.356	-73.523	0.277	-0.100
-131.341	-200.000	0.069	-0.314
-130.326	-85.722	-0.259	0.080
-129.312	-74.254	-0.406	-0.145
-128.297	527.598	0.151	-0.354
-127.283	-95.767	-0.123	-0.032
-126.268	288.981	-0.221	0.397
-125.253	4.529	-0.147	-0.107
-124.239	184.351	0.016	0.023
-123.224	-200.000	-0.010	0.214
-122.210	419.401	0.049	0.103
-121.195	43.442	-0.203	-0.184
