DTS Sentinel unit serial number:	SN413079Multiplexer serial number:	ORYXHardware model number:	OX4-SRSoftware version number:	ORYX F/W v4.00 Oryx Data Collector v3.7.2.0data status	okinstallation	princeton_trtdifferential loss correction	single-endedforward channel	channel 3reverse channel	N/Adate	2019/09/19time	07:56:34forward acquisition time	60.00reverse acquisition time	0.00gamma	496.2192k internal	0.2346k external	0.2346temperature offset calibration	0.9979default loss term (dB/km)	0.3790temperature slope calibration	1.0000multiplexer offset coefficient	1.0000multiplexer slope coefficient	1.0000fibre end	0.00T internal ref (°C)	19.75T ext. ref 1 (°C)	0.55T ext. ref 2 (°C)	15.21length (m)	temperature (°C)	Stokes	anti-Stokes-747.200	42.048	-0.199	0.181
-746.185	-36.622	-0.395	0.212
-745.171	-139.882	0.257	0.027
-744.156	-175.426	-0.336	0.009
-743.142	231.529	-0.073	0.119
-742.127	-74.688	-0.171	-0.062
-741.112	-119.986	0.039	0.007
-740.098	800.000	0.089	0.375
-739.083	90.547	-0.289	-0.324
-738.069	269.530	0.025	0.044
-737.054	-173.751	0.201	-0.006
-736.039	-200.000	-0.036	-0.260
-735.025	-42.822	-0.046	0.023
-734.010	768.559	-0.036	-0.098
-732.996	-200.000	0.013	0.290
-731.981	105.794	0.135	0.159
-730.966	-137.962	-0.394	-0.044
-729.952	-78.564	-0.177	-0.061
-728.937	176.792	0.157	-0.228
-727.923	-110.006	0.142	0.030
-726.908	-99.784	-0.447	-0.112
-725.894	-200.000	0.041	0.241
-724.879	-66.726	-0.085	-0.034
-723.864	800.000	-0.037	0.150
-722.850	-42.795	-0.156	-0.079
-721.835	81.392	0.106	-0.114
-720.821	431.909	0.088	0.190
-719.806	274.049	-0.125	0.221
-718.791	-39.715	0.067	0.035
-717.777	-0.628	-0.081	-0.058
-716.762	-18.080	0.179	0.112
-715.748	-200.000	0.037	0.170
-714.733	-5.561	-0.245	-0.168
-713.718	56.117	0.201	-0.195
-712.704	-50.705	0.228	0.107
-711.689	-116.253	0.212	-0.039
-710.675	45.752	-0.050	0.046
-709.660	13.381	0.114	-0.089
-708.645	-76.474	-0.042	-0.015
-707.631	10.577	0.078	0.060
-706.616	0.460	-0.242	-0.172
-705.602	86.683	-0.052	0.058
-704.587	-200.000	0.004	0.249
-703.572	800.000	-0.043	-0.131
-702.558	-13.527	-0.131	-0.085
-701.543	127.198	-0.042	-0.053
-700.529	-105.419	-0.193	-0.044
-699.514	-147.236	-0.141	0.012
-698.499	-37.691	-0.191	-0.102
-697.485	90.248	-0.200	-0.224
-696.470	800.000	0.079	0.262
-695.456	429.691	-0.088	-0.191
-694.441	-98.326	-0.266	-0.068
-693.426	-33.135	-0.310	0.172
-692.412	800.000	0.048	-0.150
-691.397	-200.000	0.106	-0.471
-690.383	-200.000	0.008	-0.355
-689.368	14.233	-0.127	0.099
-688.354	-200.000	-0.001	-0.179
-687.339	-80.725	-0.158	-0.052
-686.324	67.953	0.299	-0.305
-685.310	-138.056	0.285	-0.032
-684.295	-68.954	-0.358	-0.138
-683.281	800.000	-0.039	-0.109
-682.266	-3.969	-0.237	-0.164
-681.251	253.846	0.109	-0.185
-680.237	411.961	-0.222	-0.469
-679.222	-120.620	0.263	-0.044
-678.208	800.000	0.046	0.141
-677.193	-200.000	-0.010	-0.147
-676.178	26.039	-0.201	-0.167
-675.164	-126.303	-0.502	-0.075
-674.149	-113.236	-0.096	-0.019
-673.135	122.029	0.210	-0.261
-672.120	-50.687	-0.196	-0.092
-671.105	-78.029	-0.111	-0.038
-670.091	-94.929	-0.148	-0.040
-669.076	388.760	-0.095	0.196
-668.062	-83.737	-0.192	-0.061
-667.047	41.269	-0.028	-0.025
-666.032	172.204	0.237	-0.340
-665.018	-79.384	0.164	-0.055
-664.003	23.996	-0.067	-0.055
-662.989	275.922	0.131	0.231
-661.974	78.907	0.150	0.160
-660.959	-120.911	0.044	-0.007
-659.945	800.000	-0.049	0.142
-658.930	102.811	0.092	0.107
-657.916	800.000	0.040	0.171
-656.901	35.413	-0.221	0.193
-655.886	-104.509	0.113	-0.026
-654.872	167.385	-0.027	-0.039
-653.857	-200.000	-0.049	-0.368
-652.843	128.507	-0.264	0.335
-651.828	84.860	-0.058	-0.064
-650.814	-38.425	0.162	-0.085
-649.799	-123.172	-0.203	0.032
-648.784	376.475	-0.148	-0.300
-647.770	43.409	-0.175	-0.159
-646.755	20.092	0.203	0.163
-645.741	-44.321	-0.175	0.088
-644.726	508.986	0.083	0.193
-643.711	263.162	-0.125	0.216
-642.697	800.000	-0.054	0.154
-641.682	-96.338	-0.193	0.051
-640.668	-26.804	-0.358	-0.208
-639.653	-110.276	0.247	-0.051
-638.638	-37.272	-0.152	-0.081
-637.624	-121.881	0.246	0.040
-636.609	-200.000	0.029	-0.147
-635.595	148.988	-0.122	-0.165
-634.580	108.017	0.073	0.086
-633.565	-200.000	-0.007	0.067
-632.551	-84.913	-0.258	0.080
-631.536	491.746	0.079	-0.181
-630.522	1.489	0.218	0.156
-629.507	158.444	0.234	0.324
-628.492	800.000	-0.035	-0.125
-627.478	-26.882	0.300	0.174
-626.463	47.794	-0.149	0.138
-625.449	24.307	-0.116	0.095
-624.434	-101.675	0.004	0.001
-623.419	-93.409	-0.209	-0.058
-622.405	36.532	0.355	0.312
-621.390	-106.892	-0.191	0.042
-620.376	-200.000	0.033	-0.196
-619.361	165.358	0.191	0.268
-618.346	-200.000	-0.050	-0.339
-617.332	-158.071	-0.387	0.023
-616.317	-200.000	-0.026	-0.193
-615.303	-95.213	-0.080	0.021
-614.288	37.697	-0.267	-0.236
-613.273	-102.276	-0.130	0.031
-612.259	-109.575	-0.163	0.034
-611.244	190.889	-0.095	-0.141
-610.230	7.787	0.166	0.123
-609.215	470.132	0.059	0.131
-608.201	-200.000	0.017	0.073
-607.186	205.006	-0.083	-0.128
-606.171	-104.348	-0.153	0.035
-605.157	800.000	-0.097	0.295
-604.142	751.762	0.063	-0.170
-603.128	-44.237	-0.361	-0.180
-602.113	-139.392	0.128	-0.014
-601.098	240.718	-0.061	0.101
-600.084	800.000	-0.061	0.254
-599.069	-115.301	0.164	0.031
-598.055	57.918	-0.114	-0.111
-597.040	800.000	-0.028	0.079
-596.025	302.381	0.210	-0.386
-595.011	-97.733	0.255	-0.066
-593.996	712.279	0.092	-0.242
-592.982	-200.000	-0.036	0.202
-591.967	-200.000	0.001	-0.115
-590.952	-133.576	-0.407	-0.051
-589.938	-54.111	0.118	0.054
-588.923	182.555	0.216	-0.317
-587.909	-200.000	0.046	-0.253
-586.894	-73.213	-0.132	-0.048
-585.879	149.205	0.058	0.078
-584.865	-200.000	-0.001	-0.162
-583.850	-200.000	-0.009	-0.153
-582.836	-200.000	0.056	-0.339
-581.821	800.000	0.011	0.033
-580.806	-72.622	0.121	-0.044
-579.792	-200.000	0.082	0.510
-578.777	-129.300	0.363	0.050
-577.763	-200.000	-0.066	-0.441
-576.748	-148.960	-0.073	-0.006
-575.733	223.019	-0.137	0.220
-574.719	-200.000	0.000	0.295
-573.704	26.515	-0.179	-0.148
-572.690	-49.106	-0.299	0.142
-571.675	-73.460	-0.114	-0.041
-570.661	-91.558	-0.491	0.139
-569.646	-41.814	0.229	-0.116
-568.631	-200.000	0.015	0.088
-567.617	-84.510	0.159	-0.050
-566.602	77.841	0.111	-0.117
-565.588	-108.370	-0.310	0.066
-564.573	-149.248	0.119	0.009
-563.558	-200.000	-0.043	-0.202
-562.544	-122.717	-0.371	-0.060
-561.529	-57.227	-0.179	0.078
-560.515	263.388	0.172	-0.297
-559.500	-3.798	0.101	-0.069
-558.485	38.946	-0.212	0.188
-557.471	-161.725	0.377	0.019
-556.456	337.200	0.174	-0.336
-555.442	-6.796	0.359	0.242
-554.427	145.243	0.180	-0.240
-553.412	800.000	-0.078	-0.222
-552.398	-118.424	-0.114	0.020
-551.383	-72.783	0.388	0.142
-550.369	100.709	-0.080	-0.092
-549.354	-200.000	-0.001	-0.123
-548.339	-109.281	-0.359	-0.076
-547.325	264.849	0.037	0.064
-546.310	800.000	0.038	-0.151
-545.296	93.886	-0.161	-0.181
-544.281	-198.536	-0.200	0.001
-543.266	-136.770	0.240	-0.027
-542.252	131.242	-0.178	-0.227
-541.237	-101.329	-0.232	0.056
-540.223	-116.692	-0.306	0.056
-539.208	-74.062	0.384	-0.138
-538.193	-79.938	0.010	0.003
-537.179	-85.298	-0.207	-0.064
-536.164	-151.765	-0.422	-0.031
-535.150	-200.000	-0.010	0.345
-534.135	138.038	-0.100	0.130
-533.121	-200.000	0.023	-0.136
-532.106	-51.985	0.135	-0.062
-531.091	101.835	0.086	0.099
-530.077	-200.000	0.010	0.059
-529.062	196.865	-0.241	0.364
-528.048	-97.119	-0.469	0.122
-527.033	123.002	0.041	-0.050
-526.018	800.000	-0.080	-0.264
-525.004	-93.413	0.164	-0.045
-523.989	228.249	0.060	0.097
-522.975	466.681	-0.083	0.183
-521.960	586.321	-0.087	0.212
-520.945	-105.127	0.159	-0.036
-519.931	60.859	0.063	0.062
-518.916	-200.000	-0.009	0.296
-517.902	-155.161	0.146	0.009
-516.887	138.102	-0.014	-0.018
-515.872	800.000	0.029	0.089
-514.858	-123.460	-0.301	0.047
-513.843	-54.070	0.030	-0.014
-512.829	800.000	-0.073	-0.293
-511.814	800.000	0.061	-0.170
-510.799	-66.386	-0.193	0.076
-509.785	-86.116	0.160	0.049
-508.770	432.051	0.062	-0.133
-507.756	-20.305	-0.096	0.058
-506.741	51.349	0.104	0.098
-505.726	667.349	-0.078	-0.200
-504.712	-87.337	0.275	0.083
-503.697	451.076	0.098	0.214
-502.683	800.000	-0.054	-0.178
-501.668	-23.994	-0.267	0.158
-500.653	319.706	-0.142	0.267
-499.639	202.999	-0.099	-0.152
-498.624	50.538	-0.298	-0.279
-497.610	-200.000	-0.046	-0.435
-496.595	84.903	0.137	0.148
-495.581	-152.142	0.350	0.025
-494.566	99.194	-0.214	-0.245
-493.551	196.778	-0.056	-0.085
-492.537	38.822	0.164	-0.145
-491.522	298.468	-0.248	-0.452
-490.508	-32.671	-0.215	0.118
-489.493	-85.721	0.234	-0.072
-488.478	325.923	-0.125	-0.236
-487.464	-116.923	-0.273	0.049
-486.449	-50.372	-0.205	-0.096
-485.435	-40.309	0.419	-0.216
-484.420	416.254	-0.039	-0.083
-483.405	466.223	-0.148	0.328
-482.391	-72.940	-0.341	-0.124
-481.376	-89.147	0.249	0.073
-480.362	-21.131	0.303	-0.184
-479.347	14.439	-0.122	0.094
-478.332	-70.946	-0.080	0.030
-477.318	25.840	-0.213	0.176
-476.303	-200.000	-0.006	-0.088
-475.289	80.014	0.180	-0.192
-474.274	-30.628	0.150	-0.084
-473.259	-130.756	-0.212	0.028
-472.245	-55.301	0.288	0.128
-471.230	-200.000	0.002	-0.104
-470.216	199.368	-0.222	0.337
-469.201	-95.669	0.261	0.069
-468.186	-125.048	0.228	0.035
-467.172	42.780	0.087	0.079
-466.157	-200.000	-0.008	0.169
-465.143	-123.813	-0.241	-0.038
-464.128	-96.536	-0.188	-0.049
-463.113	-200.000	-0.019	-0.132
-462.099	344.963	-0.011	-0.022
-461.084	-21.893	-0.201	0.121
-460.070	370.693	0.102	0.204
-459.055	800.000	0.040	-0.130
-458.040	-200.000	-0.020	-0.390
-457.026	-67.627	-0.115	0.044
-456.011	9.439	-0.085	-0.064
-454.997	800.000	-0.062	0.185
-453.982	-152.761	-0.103	0.007
-452.968	647.168	-0.067	0.169
-451.953	313.052	-0.053	0.099
-450.938	77.365	0.359	0.377
-449.924	-66.785	-0.177	-0.069
-448.909	-149.305	0.272	-0.021
-447.895	-200.000	-0.018	0.197
-446.880	38.987	-0.052	-0.046
-445.865	-200.000	0.004	0.034
-444.851	539.375	-0.149	-0.350
-443.836	95.459	-0.165	0.186
-442.822	-200.000	-0.012	-0.173
-441.807	-138.682	0.356	0.039
-440.792	-79.810	-0.187	-0.062
-439.778	-79.461	0.149	0.050
-438.763	-200.000	-0.010	0.113
-437.749	800.000	0.078	-0.232
-436.734	-144.840	0.264	-0.024
-435.719	-127.244	0.335	0.048
-434.705	402.073	-0.051	-0.105
-433.690	595.354	-0.053	-0.130
-432.676	800.000	-0.101	-0.329
-431.661	-200.000	-0.023	0.380
-430.646	240.670	-0.143	0.235
-429.632	-200.000	-0.010	0.297
-428.617	196.267	0.172	0.259
-427.603	-29.143	-0.081	0.046
-426.588	-31.448	-0.064	-0.035
-425.573	205.659	0.112	0.172
-424.559	800.000	-0.042	-0.122
-423.544	-117.879	0.116	-0.020
-422.530	651.042	0.139	-0.352
-421.515	193.270	0.057	-0.085
-420.500	800.000	-0.031	0.096
-419.486	-99.847	-0.153	0.038
-418.471	506.735	-0.148	0.340
-417.457	-133.491	0.195	0.024
-416.442	669.845	0.101	-0.258
-415.428	800.000	0.086	-0.347
-414.413	-13.382	0.253	-0.162
-413.398	-20.459	-0.269	-0.163
-412.384	-150.131	-0.338	0.026
-411.369	400.492	0.053	0.111
-410.355	-200.000	-0.035	-0.178
-409.340	-35.843	0.005	0.003
-408.325	12.662	-0.166	0.127
-407.311	-141.992	0.146	0.014
-406.296	-200.000	-0.002	0.177
-405.282	-77.056	-0.116	0.040
-404.267	344.537	0.091	0.176
-403.252	95.652	-0.161	0.182
-402.238	426.366	0.135	-0.288
-401.223	800.000	-0.095	-0.287
-400.209	60.478	0.117	0.114
-399.194	-200.000	0.002	-0.014
-398.179	18.697	-0.113	-0.089
-397.165	-131.990	0.247	0.032
-396.150	26.956	0.160	0.132
-395.136	-68.861	0.091	0.035
-394.121	29.655	0.039	-0.033
-393.106	-61.132	0.100	0.042
-392.092	800.000	-0.023	0.071
-391.077	-200.000	0.046	-0.237
-390.063	54.723	0.168	0.160
-389.048	-58.606	0.200	-0.085
-388.033	19.413	0.142	-0.112
-387.019	-57.010	0.279	0.121
-386.004	-174.219	-0.271	-0.008
-384.990	-68.035	0.140	0.054
-383.975	463.393	-0.050	-0.111
-382.960	218.203	0.227	-0.358
-381.946	-122.032	0.206	-0.033
-380.931	-118.211	0.101	0.018
-379.917	-120.367	-0.172	0.029
-378.902	23.615	-0.251	0.204
-377.888	-98.910	0.251	0.063
-376.873	-91.303	-0.227	-0.064
-375.858	-200.000	0.014	-0.097
-374.844	736.068	0.086	-0.228
-373.829	800.000	0.188	-0.558
-372.815	-29.148	-0.216	0.122
-371.800	-200.000	-0.020	-0.359
-370.785	-200.000	-0.036	0.350
-369.771	-200.000	-0.023	-0.260
-368.756	-200.000	-0.087	0.491
-367.742	129.333	-0.129	0.162
-366.727	-184.233	-0.281	0.005
-365.712	-81.908	0.167	0.054
-364.698	-13.306	-0.160	0.103
-363.683	-200.000	0.004	0.169
-362.669	116.633	-0.242	-0.292
-361.654	83.009	0.181	-0.194
-360.639	-7.504	-0.208	0.138
-359.625	356.608	0.036	-0.072
-358.610	-58.111	0.112	-0.048
-357.596	-200.000	0.061	0.514
-356.581	751.877	-0.182	0.485
-355.566	49.253	-0.198	0.183
-354.552	-49.187	-0.175	0.083
-353.537	-167.468	0.284	-0.011
-352.523	141.898	0.056	0.073
-351.508	43.751	-0.195	-0.176
-350.493	404.369	0.198	0.411
-349.479	200.445	-0.081	0.123
-348.464	19.117	-0.215	-0.170
-347.450	-165.662	0.220	-0.009
-346.435	-58.514	-0.195	0.083
-345.420	141.380	-0.177	0.231
-344.406	-112.825	-0.138	-0.027
-343.391	13.532	0.194	-0.148
-342.377	-68.513	0.099	0.038
-341.362	40.256	0.227	0.201
-340.348	41.241	-0.125	-0.111
-339.333	145.978	0.212	-0.279
-338.318	321.191	0.115	0.215
-337.304	-200.000	0.033	-0.198
-336.289	-120.965	0.047	0.008
-335.275	-78.525	0.106	-0.036
-334.260	9.536	0.212	-0.158
-333.245	-15.465	0.179	-0.113
-332.231	35.380	-0.040	-0.034
-331.216	-131.929	0.210	-0.027
-330.202	-134.622	-0.228	-0.027
-329.187	451.386	0.056	0.123
-328.172	800.000	0.076	-0.259
-327.158	175.019	0.090	-0.128
-326.143	677.312	0.131	-0.335
-325.129	44.604	0.158	0.143
-324.114	99.527	-0.148	-0.169
-323.099	271.921	0.138	-0.240
-322.085	-184.865	0.074	0.001
-321.070	-81.586	0.293	0.095
-320.056	-200.000	0.018	-0.308
-319.041	636.116	0.122	-0.305
-318.026	85.621	0.050	-0.054
-317.012	800.000	0.132	0.361
-315.997	63.728	-0.194	0.192
-314.983	214.997	0.123	0.191
-313.968	1.008	0.302	0.213
-312.953	-85.606	0.283	-0.087
-311.939	-90.665	0.286	0.081
-310.924	265.131	0.177	0.303
-309.910	194.236	0.120	-0.179
-308.895	-200.000	0.024	0.391
-307.880	-196.730	0.118	-0.001
-306.866	-200.000	0.006	0.050
-305.851	126.877	0.169	0.210
-304.837	-200.000	0.011	-0.164
-303.822	-18.151	0.164	0.101
-302.807	128.997	0.119	0.149
-301.793	74.542	-0.204	0.210
-300.778	-101.459	-0.217	-0.052
-299.764	-145.685	0.125	-0.011
-298.749	13.057	-0.317	-0.241
-297.735	41.449	0.126	-0.112
-296.720	11.498	0.231	-0.174
-295.705	-63.663	-0.043	-0.017
-294.691	-2.604	-0.196	-0.135
-293.676	-28.331	0.131	0.074
-292.662	800.000	0.055	0.155
-291.647	-139.666	-0.224	0.023
-290.632	-200.000	0.071	-0.462
-289.618	-124.168	-0.297	0.046
-288.603	-200.000	-0.004	0.039
-287.589	-22.192	-0.384	0.229
-286.574	-200.000	-0.057	0.345
-285.559	-144.172	0.496	-0.046
-284.545	750.126	-0.134	0.354
-283.530	-8.255	0.292	-0.193
-282.516	298.739	0.151	0.274
-281.501	-24.785	-0.217	0.127
-280.486	-200.000	0.017	-0.129
-279.472	-200.000	0.006	0.107
-278.457	-108.342	0.302	0.064
-277.443	36.686	-0.289	0.251
-276.428	14.649	-0.144	0.110
-275.413	-98.482	-0.146	0.037
-274.399	-200.000	-0.002	0.091
-273.384	-200.000	-0.048	-0.334
-272.370	88.478	-0.216	0.236
-271.355	597.874	0.099	0.242
-270.340	-200.000	-0.081	0.432
-269.326	-122.600	0.312	0.050
-268.311	-132.034	0.272	-0.035
-267.297	696.310	0.125	-0.323
-266.282	463.293	0.102	0.223
-265.267	394.208	0.119	-0.244
-264.253	-200.000	-0.114	-0.000
-263.238	-24.226	0.081	-0.047
-262.224	-200.000	-0.013	0.442
-261.209	-85.831	0.275	-0.084
-260.195	18.320	0.054	0.042
-259.180	286.293	0.088	0.157
-258.165	-98.078	0.241	-0.061
-257.151	-64.357	0.091	0.036
-256.136	-55.282	-0.327	-0.144
-255.122	800.000	0.003	0.013
-254.107	214.438	0.206	0.320
-253.092	174.919	0.095	-0.135
-252.078	-55.602	-0.243	-0.107
-251.063	624.563	-0.135	0.334
-250.049	-97.911	0.184	-0.047
-249.034	-200.000	-0.029	0.205
-248.019	73.487	-0.167	-0.171
-247.005	307.440	-0.191	0.350
-245.990	-31.473	0.147	-0.081
-244.976	2.993	0.246	0.175
-243.961	329.329	0.101	-0.191
-242.946	-159.779	-0.258	0.014
-241.932	244.588	0.094	0.155
-240.917	-200.000	-0.011	-0.114
-239.903	549.150	-0.100	0.235
-238.888	8.288	-0.099	0.073
-237.873	-200.000	-0.040	-0.262
-236.859	-200.000	0.007	0.129
-235.844	-11.265	0.114	-0.074
-234.830	-1.439	-0.028	-0.019
-233.815	-52.171	-0.338	-0.154
-232.800	221.974	0.241	-0.380
-231.786	-200.000	0.058	-0.392
-230.771	-63.204	-0.405	-0.163
-229.757	-57.150	-0.097	0.042
-228.742	800.000	0.157	0.538
-227.727	-37.004	-0.209	0.110
-226.713	171.834	0.131	-0.184
-225.698	800.000	0.065	-0.218
-224.684	-200.000	0.106	-0.493
-223.669	142.357	-0.138	0.179
-222.655	800.000	0.049	0.162
-221.640	-200.000	-0.008	0.121
-220.625	-150.545	0.182	0.014
-219.611	207.565	0.107	0.163
-218.596	-150.169	-0.209	0.016
-217.582	314.190	-0.140	0.258
-216.567	-81.351	0.146	0.047
-215.552	668.311	0.168	0.425
-214.538	-11.098	-0.219	0.141
-213.523	-200.000	-0.018	0.228
-212.509	49.261	0.247	-0.228
-211.494	-200.000	-0.033	0.175
-210.479	-200.000	-0.002	-0.010
-209.465	646.918	0.099	-0.247
-208.450	-113.477	-0.173	-0.033
-207.436	-200.000	0.026	0.258
-206.421	113.420	0.112	0.133
-205.406	-118.853	-0.101	-0.017
-204.392	-112.066	0.144	0.028
-203.377	517.295	0.084	-0.193
-202.363	-151.464	0.406	0.029
-201.348	-30.626	-0.193	-0.107
-200.333	-44.651	-0.129	0.063
-199.319	-200.000	-0.028	-0.147
-198.304	-200.000	-0.043	-0.257
-197.290	62.803	-0.206	-0.201
-196.275	334.098	-0.131	-0.248
-195.260	36.911	0.183	0.159
-194.246	670.879	0.075	0.190
-193.231	72.834	0.126	-0.129
-192.217	800.000	0.013	-0.046
-191.202	-200.000	0.087	0.474
-190.187	39.717	0.066	-0.058
-189.173	616.850	-0.025	-0.062
-188.158	800.000	-0.027	0.102
-187.144	-199.302	0.332	0.002
-186.129	-109.254	-0.040	0.008
-185.114	-158.481	-0.342	0.019
-184.100	-52.977	-0.036	-0.016
-183.085	185.491	-0.127	0.184
-182.071	62.524	0.158	-0.154
-181.056	729.582	-0.074	0.193
-180.042	-200.000	-0.024	0.200
-179.027	-200.000	0.005	-0.400
-178.012	101.657	-0.138	-0.157
-176.998	800.000	0.059	-0.220
-175.983	-200.000	0.012	-0.508
-174.969	-200.000	-0.017	-0.499
-173.954	123.569	0.050	-0.061
-172.939	-85.023	0.250	0.077
-171.925	19.912	-0.147	-0.116
-170.910	646.167	-0.096	-0.240
-169.896	-200.000	0.040	0.259
-168.881	173.558	0.096	0.135
-167.866	-200.000	-0.026	0.141
-166.852	800.000	0.133	-0.399
-165.837	-175.296	-0.109	0.003
-164.823	339.364	0.048	0.092
-163.808	-34.768	-0.264	0.141
-162.793	-60.261	-0.175	-0.073
-161.779	224.503	-0.096	0.152
-160.764	-58.992	0.218	0.092
-159.750	-155.722	-0.230	-0.014
-158.735	438.188	-0.051	0.108
-157.720	-92.631	0.213	0.058
-156.706	51.520	0.075	0.070
-155.691	-200.000	-0.045	-0.357
-154.677	-54.755	0.092	0.041
-153.662	-142.455	-0.432	0.041
-152.647	-200.000	0.048	-0.209
-151.633	27.942	-0.136	0.112
-150.618	-105.455	-0.419	0.093
-149.604	-177.403	-0.067	0.002
-148.589	-200.000	-0.042	0.271
-147.574	-54.080	0.232	0.103
-146.560	0.769	-0.117	-0.082
-145.545	800.000	-0.053	-0.216
-144.531	-200.000	-0.004	-0.021
-143.516	-132.556	-0.402	-0.050
-142.502	87.651	-0.298	-0.322
-141.487	800.000	-0.101	0.310
-140.472	-200.000	-0.004	0.051
-139.458	-200.000	-0.023	0.164
-138.443	28.862	-0.105	0.087
-137.429	800.000	0.037	0.103
-136.414	182.361	-0.050	0.072
-135.399	-200.000	-0.012	0.227
-134.385	-140.268	0.083	-0.009
-133.370	-200.000	0.013	-0.082
-132.356	-65.504	-0.228	0.089
-131.341	521.138	0.037	-0.084
-130.326	18.719	-0.264	0.207
-129.312	-45.402	0.115	0.056
-128.297	-91.934	0.099	0.028
-127.283	-64.623	-0.124	-0.049
-126.268	276.736	-0.139	-0.241
-125.253	-116.186	-0.037	0.007
-124.239	-200.000	0.015	-0.196
-123.224	800.000	0.021	-0.082
-122.210	79.270	-0.058	-0.061
