DTS Sentinel unit serial number:	SN413079Multiplexer serial number:	ORYXHardware model number:	OX4-SRSoftware version number:	ORYX F/W v4.00 Oryx Data Collector v3.7.2.0data status	okinstallation	princeton_trtdifferential loss correction	single-endedforward channel	channel 3reverse channel	N/Adate	2019/09/17time	21:04:35forward acquisition time	60.00reverse acquisition time	0.00gamma	496.2192k internal	0.2338k external	0.2338temperature offset calibration	0.9956default loss term (dB/km)	0.3790temperature slope calibration	1.0000multiplexer offset coefficient	1.0000multiplexer slope coefficient	1.0000fibre end	0.00T internal ref (°C)	28.41T ext. ref 1 (°C)	0.19T ext. ref 2 (°C)	20.01length (m)	temperature (°C)	Stokes	anti-Stokes-747.200	-83.149	0.099	-0.032
-746.185	-200.000	0.043	-0.220
-745.171	800.000	0.098	-0.361
-744.156	145.435	0.116	-0.155
-743.142	-123.290	0.069	0.011
-742.127	246.487	-0.018	0.031
-741.112	-81.040	-0.183	-0.061
-740.098	-131.571	-0.112	-0.015
-739.083	-67.718	0.190	0.074
-738.069	800.000	-0.132	0.365
-737.054	38.248	0.088	-0.078
-736.039	800.000	0.028	0.087
-735.025	-55.579	-0.324	-0.145
-734.010	-72.148	-0.058	0.021
-732.996	3.140	0.325	-0.237
-731.981	800.000	-0.075	-0.286
-730.966	-1.154	-0.118	0.083
-729.952	-200.000	-0.032	-0.221
-728.937	-200.000	0.027	-0.228
-727.923	800.000	-0.038	-0.160
-726.908	627.920	0.026	-0.065
-725.894	-14.676	-0.258	0.166
-724.879	-44.554	0.047	-0.024
-723.864	-8.432	-0.216	-0.146
-722.850	-14.899	-0.120	-0.077
-721.835	-122.229	-0.342	-0.056
-720.821	-49.826	-0.173	0.083
-719.806	-112.768	-0.111	0.022
-718.791	-60.467	-0.311	-0.133
-717.777	-67.205	0.134	-0.053
-716.762	221.225	0.080	0.128
-715.748	371.988	-0.103	-0.210
-714.733	-109.040	-0.180	0.038
-713.718	-138.509	0.275	-0.030
-712.704	-40.174	-0.228	0.119
-711.689	205.369	-0.136	0.211
-710.675	19.146	-0.132	0.106
-709.660	-132.358	0.293	0.038
-708.645	-18.098	-0.145	-0.091
-707.631	-29.359	-0.143	-0.082
-706.616	-191.255	0.146	-0.001
-705.602	800.000	-0.049	-0.147
-704.587	-200.000	0.062	0.298
-703.572	179.755	0.111	0.162
-702.558	41.747	-0.087	0.079
-701.543	221.862	-0.159	-0.257
-700.529	143.068	0.005	-0.007
-699.514	800.000	-0.038	-0.161
-698.499	-106.739	0.400	0.089
-697.485	-200.000	0.100	-0.519
-696.470	775.034	-0.152	0.415
-695.456	-179.659	0.030	-0.001
-694.441	-2.322	0.259	0.182
-693.426	20.276	-0.254	0.206
-692.412	-200.000	-0.013	0.190
-691.397	279.656	0.161	0.288
-690.383	-33.976	0.200	-0.110
-689.368	85.324	0.123	0.135
-688.354	35.158	0.236	-0.207
-687.339	800.000	-0.090	0.253
-686.324	264.283	-0.183	-0.319
-685.310	45.719	0.231	-0.213
-684.295	-88.911	0.282	0.084
-683.281	-12.078	-0.201	0.132
-682.266	-81.425	0.216	-0.071
-681.251	240.519	0.166	-0.277
-680.237	-200.000	0.010	0.092
-679.222	16.575	0.153	0.121
-678.208	-114.739	-0.116	-0.022
-677.193	-188.609	0.292	-0.004
-676.178	-18.136	0.213	-0.134
-675.164	-170.039	-0.156	-0.006
-674.149	30.670	-0.088	-0.076
-673.135	135.465	0.166	0.216
-672.120	631.582	0.092	-0.233
-671.105	37.011	0.093	-0.083
-670.091	-85.679	-0.105	0.032
-669.076	-23.558	0.035	-0.021
-668.062	-25.219	-0.103	0.061
-667.047	38.094	-0.167	-0.149
-666.032	800.000	-0.056	-0.201
-665.018	-102.832	-0.227	-0.054
-664.003	-28.272	0.119	0.069
-662.989	-51.704	-0.306	0.142
-661.974	36.840	0.237	0.210
-660.959	-200.000	0.007	0.129
-659.945	-157.916	0.083	0.005
-658.930	-81.082	-0.186	-0.061
-657.916	-113.773	0.147	-0.029
-656.901	-96.581	-0.127	0.033
-655.886	311.629	0.069	0.129
-654.872	-48.962	0.425	0.204
-653.857	800.000	-0.084	-0.294
-652.843	0.015	0.093	-0.066
-651.828	153.520	0.087	-0.119
-650.814	-200.000	0.046	0.251
-649.799	800.000	0.029	0.094
-648.784	315.781	-0.185	0.350
-647.770	310.870	-0.130	-0.243
-646.755	-200.000	-0.012	0.053
-645.741	-200.000	0.013	-0.197
-644.726	-200.000	-0.003	-0.135
-643.711	-64.705	-0.282	0.114
-642.697	175.703	-0.139	-0.202
-641.682	-200.000	-0.013	-0.245
-640.668	-128.370	0.264	0.038
-639.653	61.873	0.110	-0.110
-638.638	-96.690	-0.403	-0.106
-637.624	-200.000	0.031	0.245
-636.609	381.465	0.073	-0.150
-635.595	101.431	0.120	-0.140
-634.580	37.207	-0.182	-0.161
-633.565	488.005	0.168	-0.383
-632.551	80.174	-0.224	-0.241
-631.536	800.000	0.065	0.209
-630.522	13.605	-0.083	-0.064
-629.507	6.286	0.155	-0.115
-628.492	116.781	0.205	-0.252
-627.478	477.512	-0.060	0.135
-626.463	-90.983	-0.234	-0.067
-625.449	788.641	-0.006	-0.016
-624.434	-200.000	0.006	-0.207
-623.419	711.080	0.086	0.226
-622.405	-30.016	0.158	-0.090
-621.390	2.159	-0.377	0.272
-620.376	-35.128	-0.363	-0.197
-619.361	-110.975	0.236	0.048
-618.346	-39.824	0.153	0.080
-617.332	670.523	-0.024	-0.062
-616.317	29.402	0.359	-0.305
-615.303	-115.896	0.138	-0.026
-614.288	13.929	-0.267	0.207
-613.273	-200.000	-0.002	-0.052
-612.259	-139.161	-0.083	-0.009
-611.244	-108.724	0.327	0.070
-610.230	-64.732	-0.107	0.043
-609.215	800.000	-0.050	0.216
-608.201	-81.845	0.169	-0.055
-607.186	-130.993	0.181	0.024
-606.171	800.000	-0.049	0.209
-605.157	34.650	-0.127	0.111
-604.142	448.186	0.064	-0.141
-603.128	-24.029	-0.145	-0.086
-602.113	269.330	0.283	0.495
-601.098	-200.000	0.057	0.436
-600.084	265.608	0.079	0.138
-599.069	428.992	0.096	-0.207
-598.055	-59.363	-0.102	0.044
-597.040	42.649	-0.219	0.199
-596.025	48.512	-0.173	-0.161
-595.011	-109.683	-0.030	0.006
-593.996	493.816	-0.051	-0.117
-592.982	800.000	-0.081	-0.235
-591.967	-27.377	-0.212	0.123
-590.952	-118.732	0.444	0.078
-589.938	-200.000	0.100	0.509
-588.923	-193.074	0.251	-0.002
-587.909	470.465	-0.070	0.157
-586.894	-73.665	0.018	-0.007
-585.879	800.000	-0.064	-0.225
-584.865	-32.888	-0.193	0.107
-583.850	800.000	0.076	0.302
-582.836	68.294	-0.141	-0.144
-581.821	-45.212	0.091	-0.045
-580.806	-20.065	0.218	0.134
-579.792	800.000	-0.079	-0.220
-578.777	-200.000	-0.027	-0.260
-577.763	-50.198	-0.107	-0.050
-576.748	800.000	0.043	-0.129
-575.733	-30.428	0.110	0.062
-574.719	221.446	0.232	-0.372
-573.704	-111.221	-0.280	-0.057
-572.690	-37.758	-0.072	-0.038
-571.675	223.807	-0.090	-0.145
-570.661	130.748	-0.260	-0.332
-569.646	-17.577	0.141	-0.089
-568.631	800.000	0.049	-0.147
-567.617	113.099	0.199	-0.241
-566.602	-78.662	-0.029	0.010
-565.588	-200.000	-0.007	-0.220
-564.573	-200.000	-0.052	-0.226
-563.558	-77.506	0.336	0.116
-562.544	57.942	-0.202	-0.197
-561.529	618.560	0.038	-0.094
-560.515	-200.000	-0.034	0.325
-559.500	-80.771	-0.181	0.060
-558.485	780.281	-0.042	-0.115
-557.471	-200.000	0.052	-0.391
-556.456	-125.772	-0.077	0.012
-555.442	800.000	-0.040	-0.172
-554.427	-181.090	0.351	-0.007
-553.412	-73.482	-0.399	-0.145
-552.398	-86.162	0.010	-0.003
-551.383	85.304	-0.105	-0.115
-550.369	-122.212	0.139	-0.023
-549.354	169.561	-0.123	0.174
-548.339	107.015	-0.184	-0.218
-547.325	800.000	0.134	-0.418
-546.310	147.995	0.162	0.218
-545.296	69.296	-0.123	0.126
-544.281	45.265	-0.094	-0.086
-543.266	-200.000	0.034	0.252
-542.252	218.326	-0.038	0.060
-541.237	-200.000	0.017	0.305
-540.223	-104.476	0.187	-0.043
-539.208	-37.706	-0.317	-0.168
-538.193	-141.698	0.414	-0.041
-537.179	-66.285	0.338	0.134
-536.164	58.725	-0.177	-0.174
-535.150	-63.981	0.115	0.047
-534.135	-6.872	-0.129	0.087
-533.121	289.003	0.112	0.202
-532.106	391.679	-0.105	-0.218
-531.091	-63.330	-0.056	-0.023
-530.077	800.000	-0.130	0.455
-529.062	98.516	0.201	0.230
-528.048	-200.000	-0.043	0.229
-527.033	40.863	-0.294	-0.264
-526.018	-200.000	-0.036	-0.254
-525.004	684.784	-0.093	0.242
-523.989	28.154	0.077	0.065
-522.975	-43.058	-0.175	-0.088
-521.960	-91.692	0.232	-0.066
-520.945	298.888	0.222	-0.407
-519.931	800.000	-0.074	0.266
-518.916	-200.000	0.001	-0.008
-517.902	800.000	-0.079	-0.265
-516.887	187.487	0.136	0.201
-515.872	212.528	-0.113	0.178
-514.858	76.383	0.047	0.050
-513.843	327.002	-0.081	-0.154
-512.829	83.475	0.048	0.052
-511.814	78.320	-0.142	0.151
-510.799	-91.756	0.207	0.059
-509.785	-79.381	0.171	-0.057
-508.770	287.794	-0.157	-0.283
-507.756	1.533	0.092	-0.066
-506.741	54.702	0.184	0.176
-505.726	172.066	-0.093	0.133
-504.712	450.755	-0.073	-0.160
-503.697	-151.987	0.086	0.006
-502.683	-200.000	-0.045	-0.271
-501.668	-60.005	-0.108	0.046
-500.653	153.280	-0.217	0.295
-499.639	171.462	0.230	0.328
-498.624	800.000	-0.160	-0.476
-497.610	-200.000	-0.024	0.285
-496.595	-60.798	0.235	0.099
-495.581	-75.720	0.272	0.096
-494.566	-98.008	0.158	-0.041
-493.551	-42.993	0.123	-0.062
-492.537	2.005	-0.305	0.219
-491.522	25.466	-0.208	-0.172
-490.508	43.321	0.125	0.113
-489.493	-126.001	-0.208	-0.031
-488.478	136.412	-0.148	-0.192
-487.464	800.000	0.078	-0.336
-486.449	13.756	0.089	0.069
-485.435	-37.391	0.214	-0.113
-484.420	-200.000	-0.099	-0.506
-483.405	-93.638	-0.072	0.020
-482.391	122.375	0.218	0.271
-481.376	53.549	-0.077	-0.074
-480.362	164.663	0.076	-0.107
-479.347	193.929	0.035	0.053
-478.332	-17.757	0.270	0.168
-477.318	114.677	0.082	0.099
-476.303	-72.378	-0.317	-0.116
-475.289	-141.517	0.140	0.014
-474.274	272.778	0.085	-0.149
-473.259	74.794	-0.149	-0.156
-472.245	-200.000	0.036	-0.221
-471.230	-59.789	0.147	0.062
-470.216	614.782	0.109	0.272
-469.201	221.041	0.098	-0.157
-468.186	-16.945	-0.208	-0.130
-467.172	67.905	0.221	0.224
-466.157	-80.132	0.179	0.060
-465.143	-126.874	-0.230	0.034
-464.128	800.000	0.065	0.193
-463.113	164.667	-0.068	0.096
-462.099	260.703	0.169	0.290
-461.084	637.398	-0.082	-0.208
-460.070	-182.612	-0.093	-0.002
-459.055	-139.515	-0.266	-0.028
-458.040	-127.045	-0.242	0.035
-457.026	147.328	0.060	-0.079
-456.011	-87.970	-0.182	-0.054
-454.997	-102.891	0.224	-0.053
-453.982	-90.376	0.048	-0.014
-452.968	-52.556	0.265	0.121
-451.953	-97.000	-0.151	-0.039
-450.938	50.471	0.139	-0.131
-449.924	17.829	0.116	0.092
-448.909	-32.248	0.078	0.043
-447.895	278.478	0.125	0.221
-446.880	-158.037	-0.122	0.007
-445.865	5.988	0.125	-0.092
-444.851	-150.493	0.300	0.023
-443.836	-200.000	0.014	-0.396
-442.822	-200.000	0.007	-0.283
-441.807	15.092	0.251	0.195
-440.792	800.000	0.094	-0.400
-439.778	3.221	0.200	-0.144
-438.763	-140.740	-0.288	-0.030
-437.749	84.047	-0.216	-0.234
-436.734	395.085	0.047	0.097
-435.719	-98.694	-0.167	-0.042
-434.705	332.887	0.097	-0.187
-433.690	412.138	-0.180	-0.380
-432.676	-200.000	0.014	0.218
-431.661	48.450	0.116	0.107
-430.646	391.933	-0.129	-0.265
-429.632	-63.444	-0.178	0.073
-428.617	-49.027	-0.145	0.069
-427.603	800.000	0.039	-0.119
-426.588	-31.111	-0.210	0.118
-425.573	12.654	0.224	0.171
-424.559	-44.946	-0.156	-0.077
-423.544	568.316	0.054	0.130
-422.530	-39.074	-0.264	-0.138
-421.515	-200.000	0.032	-0.152
-420.500	455.332	0.055	0.121
-419.486	95.058	0.134	0.152
-418.471	278.488	0.155	-0.275
-417.457	554.339	-0.049	-0.116
-416.442	-54.244	0.095	-0.043
-415.428	800.000	0.043	0.143
-414.413	-13.487	-0.134	0.086
-413.398	-118.006	-0.179	0.032
-412.384	12.624	-0.079	0.060
-411.369	-29.745	-0.077	-0.043
-410.355	80.876	-0.192	-0.205
-409.340	28.408	-0.130	-0.109
-408.325	-84.189	0.218	-0.068
-407.311	-200.000	-0.012	0.162
-406.296	-6.667	-0.137	0.093
-405.282	-200.000	-0.024	0.531
-404.267	-200.000	-0.009	-0.057
-403.252	-54.688	0.140	-0.062
-402.238	107.679	0.082	-0.097
-401.223	-55.015	-0.259	-0.116
-400.209	800.000	-0.046	0.138
-399.194	-119.791	0.294	0.050
-398.179	74.783	0.190	-0.198
-397.165	49.080	-0.209	0.195
-396.150	-84.560	0.272	-0.085
-395.136	-21.060	-0.167	-0.101
-394.121	209.727	0.161	0.250
-393.106	-200.000	-0.006	-0.171
-392.092	-200.000	0.011	0.236
-391.077	196.816	-0.176	-0.266
-390.063	58.543	0.188	-0.183
-389.048	-23.494	0.109	-0.065
-388.033	-44.058	-0.238	-0.118
-387.019	-200.000	0.000	0.434
-386.004	-73.327	0.265	-0.096
-384.990	-200.000	-0.033	-0.284
-383.975	32.051	0.187	-0.159
-382.960	228.126	-0.128	0.207
-381.946	-200.000	-0.025	-0.212
-380.931	165.704	0.103	0.143
-379.917	-16.113	-0.157	-0.099
-378.902	-86.662	0.211	0.064
-377.888	156.487	0.088	0.121
-376.873	-177.531	-0.047	0.001
-375.858	-16.103	0.251	0.158
-374.844	-200.000	-0.012	-0.165
-373.829	448.293	-0.019	0.041
-372.815	68.667	-0.263	0.267
-371.800	54.249	-0.258	0.245
-370.785	-200.000	-0.010	-0.094
-369.771	-18.519	-0.156	0.097
-368.756	2.086	-0.023	0.016
-367.742	-200.000	0.042	-0.420
-366.727	130.408	-0.190	0.241
-365.712	553.899	0.069	0.164
-364.698	206.530	0.148	-0.228
-363.683	97.621	-0.144	0.164
-362.669	800.000	0.101	0.419
-361.654	800.000	0.019	0.063
-360.639	800.000	-0.051	0.197
-359.625	-200.000	-0.013	-0.292
-358.610	467.322	0.072	-0.159
-357.596	-200.000	-0.012	0.089
-356.581	-119.903	0.105	-0.018
-355.566	-43.446	-0.183	0.091
-354.552	-111.760	0.184	0.037
-353.537	-200.000	0.009	-0.429
-352.523	88.625	-0.241	-0.265
-351.508	-89.779	0.193	-0.056
-350.493	-15.120	0.128	-0.081
-349.479	304.685	0.127	-0.232
-348.464	561.455	0.051	-0.122
-347.450	2.155	-0.085	0.061
-346.435	-200.000	0.034	-0.283
-345.420	84.257	-0.190	-0.205
-344.406	72.358	-0.172	0.177
-343.391	-72.655	0.112	-0.041
-342.377	-200.000	0.006	0.209
-341.362	-92.141	-0.191	-0.053
-340.348	36.620	-0.125	0.109
-339.333	-53.474	0.272	0.123
-338.318	-27.253	0.144	-0.083
-337.304	-143.377	-0.278	0.026
-336.289	-200.000	-0.051	0.431
-335.275	-51.136	-0.068	0.031
-334.260	-50.849	0.181	0.084
-333.245	800.000	0.025	-0.084
-332.231	-200.000	-0.007	0.043
-331.216	-81.202	0.193	-0.063
-330.202	74.657	-0.292	0.303
-329.187	-88.056	-0.070	-0.021
-328.172	14.698	0.051	0.040
-327.158	-43.637	-0.265	0.132
-326.143	-22.411	0.168	0.100
-325.129	-74.953	0.583	0.206
-324.114	226.361	0.034	-0.054
-323.099	126.165	-0.054	0.067
-322.085	119.363	-0.143	0.175
-321.070	-200.000	-0.022	-0.227
-320.056	-22.137	-0.150	0.090
-319.041	-125.969	0.336	-0.050
-318.026	74.247	0.134	-0.139
-317.012	35.274	0.326	-0.282
-315.997	691.814	-0.130	-0.336
-314.983	-200.000	0.066	0.410
-313.968	-16.100	0.059	0.037
-312.953	-200.000	0.213	-0.001
-311.939	-2.891	-0.086	-0.059
-310.924	13.695	-0.209	0.160
-309.910	-62.053	-0.166	0.068
-308.895	-200.000	0.003	0.096
-307.880	-49.935	-0.093	0.044
-306.866	-73.624	-0.323	-0.116
-305.851	11.043	0.063	0.048
-304.837	800.000	0.063	-0.178
-303.822	-73.090	-0.126	-0.046
-302.807	-27.078	-0.177	-0.102
-301.793	-178.695	0.444	0.010
-300.778	800.000	0.029	-0.080
-299.764	133.468	-0.130	-0.166
-298.749	208.015	0.216	-0.333
-297.735	-200.000	0.032	-0.194
-296.720	-113.504	-0.121	-0.023
-295.705	-99.541	-0.187	-0.046
-294.691	800.000	0.041	0.168
-293.676	28.819	0.194	-0.162
-292.662	697.848	-0.059	-0.153
-291.647	-99.968	0.253	-0.062
-290.632	343.458	0.082	0.158
-289.618	-119.674	-0.143	0.024
-288.603	151.876	-0.057	0.077
-287.589	-200.000	0.002	-0.210
-286.574	112.622	-0.137	0.163
-285.559	713.771	-0.114	-0.297
-284.545	85.513	0.217	-0.235
-283.530	800.000	0.051	-0.159
-282.516	237.236	0.105	0.171
-281.501	-29.192	0.185	0.104
-280.486	-1.556	0.158	0.109
-279.472	427.090	0.100	0.212
-278.457	-155.819	-0.229	0.014
-277.443	800.000	-0.034	0.097
-276.428	261.121	0.122	0.207
-275.413	610.320	0.098	0.240
-274.399	115.822	-0.213	-0.257
-273.384	390.177	-0.193	0.393
-272.370	431.546	-0.055	-0.117
-271.355	124.084	-0.095	-0.117
-270.340	427.435	0.108	-0.230
-269.326	111.334	-0.179	0.213
-268.311	263.714	-0.088	0.151
-267.297	-21.716	-0.040	0.024
-266.282	599.731	0.163	0.398
-265.267	30.798	0.223	-0.188
-264.253	-69.286	0.226	0.085
-263.238	-18.792	0.128	-0.078
-262.224	-21.136	-0.086	0.052
-261.209	264.803	0.254	0.435
-260.195	194.203	0.045	-0.067
-259.180	379.765	-0.055	-0.110
-258.165	-17.187	0.302	0.188
-257.151	-177.373	0.186	-0.005
-256.136	800.000	0.025	-0.084
-255.122	312.696	0.020	0.037
-254.107	45.791	-0.046	0.042
-253.092	-200.000	-0.008	0.107
-252.078	438.242	-0.074	0.159
-251.063	-200.000	-0.067	-0.382
-250.049	-95.691	-0.370	0.097
-249.034	-200.000	0.062	0.314
-248.019	-50.045	-0.138	-0.064
-247.005	239.350	0.086	0.141
-245.990	773.327	-0.043	-0.116
-244.976	-200.000	0.014	-0.205
-243.961	371.988	-0.020	-0.040
-242.946	800.000	-0.094	-0.303
-241.932	-76.818	0.360	-0.124
-240.917	-78.470	0.248	0.084
-239.903	-200.000	-0.033	0.152
-238.888	173.909	0.169	0.239
-237.873	-77.334	-0.112	-0.038
-236.859	283.469	0.089	0.157
-235.844	55.967	-0.245	-0.234
-234.830	-102.875	-0.231	0.054
-233.815	32.182	0.217	-0.184
-232.800	84.596	-0.290	-0.313
-231.786	270.997	-0.095	0.165
-230.771	800.000	0.035	0.104
-229.757	-89.262	-0.099	0.029
-228.742	800.000	-0.081	0.286
-227.727	277.224	-0.053	-0.093
-226.713	800.000	-0.068	0.199
-225.698	641.067	0.085	0.212
-224.684	-154.094	-0.134	-0.009
-223.669	5.494	-0.104	-0.076
-222.655	-200.000	0.031	-0.357
-221.640	0.782	0.121	0.085
-220.625	-61.053	0.035	0.015
-219.611	-200.000	0.064	0.366
-218.596	-48.751	0.135	0.064
-217.582	800.000	-0.058	-0.185
-216.567	-200.000	-0.028	-0.156
-215.552	155.102	-0.065	-0.089
-214.538	-20.368	0.332	0.201
-213.523	121.271	0.132	0.161
-212.509	-47.126	-0.225	-0.108
-211.494	-87.736	-0.270	0.080
-210.479	-35.081	0.047	0.025
-209.465	89.160	-0.138	0.152
-208.450	-75.481	-0.339	-0.119
-207.436	751.193	-0.088	0.233
-206.421	98.102	0.040	0.045
-205.406	-200.000	0.002	0.071
-204.392	-200.000	0.054	0.293
-203.377	800.000	0.009	0.026
-202.363	-145.243	-0.306	0.027
-201.348	-200.000	0.001	0.129
-200.333	95.673	-0.139	0.156
-199.319	800.000	0.043	-0.158
-198.304	58.708	-0.151	0.146
-197.290	-0.422	-0.159	-0.111
-196.275	112.695	0.081	-0.096
-195.260	674.906	0.106	0.271
-194.246	36.576	0.156	0.135
-193.231	-50.382	-0.254	0.118
-192.217	98.610	0.186	-0.210
-191.202	-55.190	-0.309	-0.136
-190.187	36.200	0.138	0.120
-189.173	-77.226	-0.463	0.158
-188.158	115.929	0.051	-0.061
-187.144	276.537	0.119	0.208
-186.129	299.763	-0.199	-0.361
-185.114	2.072	-0.157	0.112
-184.100	-139.261	0.134	0.014
-183.085	-67.242	-0.064	0.025
-182.071	681.031	0.076	0.195
-181.056	60.379	-0.212	0.206
-180.042	-46.710	0.354	0.170
-179.027	16.211	0.108	-0.084
-178.012	67.237	-0.188	0.188
-176.998	-21.245	0.165	0.099
-175.983	-148.725	-0.079	0.006
-174.969	-37.085	-0.201	0.106
-173.954	-117.819	0.329	-0.058
-172.939	46.987	0.106	0.097
-171.925	5.511	0.285	0.207
-170.910	121.533	-0.252	0.308
-169.896	-40.394	0.264	-0.135
-168.881	95.722	-0.076	-0.085
-167.866	334.958	0.055	-0.104
-166.852	-153.169	0.104	-0.007
-165.837	241.518	-0.025	-0.041
-164.823	-59.551	-0.405	-0.171
-163.808	-46.263	0.205	-0.099
-162.793	452.318	-0.045	-0.099
-161.779	16.845	0.181	-0.141
-160.764	48.240	0.188	0.172
-159.750	82.565	-0.249	0.265
-158.735	-45.418	-0.096	0.047
-157.720	36.921	-0.135	0.117
-156.706	504.464	-0.083	0.189
-155.691	-163.750	-0.095	-0.004
-154.677	-119.320	0.131	0.022
-153.662	37.618	0.285	-0.248
-152.647	800.000	-0.113	0.412
-151.633	-43.637	-0.194	-0.096
-150.618	137.763	0.170	0.218
-149.604	138.578	-0.133	-0.171
-148.589	800.000	-0.056	-0.159
-147.574	-200.000	-0.026	0.251
-146.560	800.000	0.111	0.340
-145.545	68.924	-0.068	0.068
-144.531	-111.250	0.563	-0.113
-143.516	113.140	-0.252	0.299
-142.502	-49.684	0.423	-0.197
-141.487	-200.000	-0.017	0.135
-140.472	-107.957	0.352	-0.075
-139.458	-200.000	0.021	-0.258
-138.443	648.625	0.147	-0.368
-137.429	-73.642	0.181	-0.065
-136.414	-102.029	0.423	0.100
-135.399	-74.029	0.073	0.026
-134.385	104.857	0.113	0.131
-133.370	-89.615	-0.224	0.064
-132.356	-84.749	-0.219	-0.068
-131.341	-59.718	-0.171	0.072
-130.326	-34.137	0.347	0.187
-129.312	86.679	-0.050	0.054
-128.297	25.401	0.054	-0.044
-127.283	-104.231	0.362	0.082
-126.268	800.000	0.083	0.334
-125.253	-200.000	0.007	0.165
-124.239	-32.617	-0.157	0.086
-123.224	-129.647	-0.115	-0.015
-122.210	383.740	-0.126	0.254
-121.195	-200.000	0.026	-0.117
-120.180	-14.504	-0.411	0.259
-119.166	12.376	0.288	-0.218
