DTS Sentinel unit serial number:	SN413079Multiplexer serial number:	ORYXHardware model number:	OX4-SRSoftware version number:	ORYX F/W v4.00 Oryx Data Collector v3.7.2.0data status	okinstallation	princeton_trtdifferential loss correction	single-endedforward channel	channel 3reverse channel	N/Adate	2019/09/18time	20:52:35forward acquisition time	60.00reverse acquisition time	0.00gamma	496.2192k internal	0.2343k external	0.2343temperature offset calibration	1.0013default loss term (dB/km)	0.3790temperature slope calibration	1.0000multiplexer offset coefficient	1.0000multiplexer slope coefficient	1.0000fibre end	0.00T internal ref (°C)	26.95T ext. ref 1 (°C)	1.06T ext. ref 2 (°C)	18.34length (m)	temperature (°C)	Stokes	anti-Stokes-747.200	267.341	-0.158	0.277
-746.185	800.000	-0.021	0.061
-745.171	-200.000	0.059	-0.333
-744.156	116.290	-0.103	-0.127
-743.142	-200.000	0.014	-0.402
-742.127	-88.772	-0.044	0.013
-741.112	-35.598	-0.091	-0.050
-740.098	244.755	-0.021	-0.035
-739.083	-58.546	-0.175	-0.076
-738.069	32.964	0.121	0.105
-737.054	4.454	0.086	-0.063
-736.039	-24.588	-0.152	-0.090
-735.025	246.455	-0.078	-0.131
-734.010	-164.583	0.429	0.019
-732.996	-158.054	0.396	0.023
-731.981	691.795	-0.061	-0.159
-730.966	-155.121	-0.299	-0.020
-729.952	19.700	-0.108	-0.087
-728.937	50.251	-0.300	0.284
-727.923	-200.000	0.025	-0.148
-726.908	-63.451	-0.076	-0.031
-725.894	346.595	0.083	-0.164
-724.879	-29.915	-0.381	0.217
-723.864	555.612	-0.123	-0.296
-722.850	366.175	0.083	-0.167
-721.835	800.000	-0.071	-0.233
-720.821	-200.000	-0.422	-0.001
-719.806	800.000	0.078	-0.294
-718.791	-54.314	0.272	0.124
-717.777	-138.857	0.138	-0.015
-716.762	225.886	0.146	-0.237
-715.748	-7.858	0.169	0.114
-714.733	-200.000	-0.006	0.099
-713.718	289.711	0.089	-0.161
-712.704	-200.000	0.008	0.052
-711.689	274.436	-0.065	0.116
-710.675	322.329	-0.094	0.178
-709.660	348.063	0.161	0.317
-708.645	189.528	0.034	0.050
-707.631	-93.439	0.121	0.033
-706.616	143.330	0.012	0.015
-705.602	800.000	0.094	-0.281
-704.587	46.912	-0.348	-0.324
-703.572	283.608	-0.151	-0.270
-702.558	190.362	0.162	-0.243
-701.543	800.000	0.033	0.103
-700.529	-57.057	-0.325	-0.143
-699.514	309.587	0.060	-0.111
-698.499	800.000	0.119	-0.457
-697.485	-19.989	-0.071	0.044
-696.470	-200.000	0.012	-0.117
-695.456	-200.000	0.064	-0.449
-694.441	74.967	0.313	0.329
-693.426	800.000	0.071	-0.309
-692.412	-9.005	0.113	-0.076
-691.397	-200.000	0.012	-0.084
-690.383	67.688	0.035	0.035
-689.368	-200.000	0.020	-0.184
-688.354	-23.853	0.140	-0.084
-687.339	72.326	0.222	-0.231
-686.324	-13.039	0.130	-0.084
-685.310	182.865	0.042	-0.062
-684.295	-59.523	0.323	0.138
-683.281	406.704	-0.089	-0.188
-682.266	12.836	-0.232	0.179
-681.251	-200.000	0.000	0.088
-680.237	-105.151	-0.325	-0.074
-679.222	800.000	0.067	0.197
-678.208	-200.000	0.006	-0.029
-677.193	-200.000	0.007	0.284
-676.178	49.754	0.119	-0.112
-675.164	-200.000	-0.026	-0.244
-674.149	-118.227	0.290	-0.051
-673.135	194.681	-0.109	0.166
-672.120	157.459	0.238	0.329
-671.105	-86.107	-0.407	-0.126
-670.091	-44.760	0.120	0.060
-669.076	-200.000	0.011	0.191
-668.062	-28.690	-0.228	0.131
-667.047	-108.441	0.100	0.022
-666.032	-98.188	0.025	-0.007
-665.018	-200.000	-0.013	-0.073
-664.003	14.803	0.359	0.280
-662.989	-63.961	-0.255	-0.104
-661.974	-200.000	-0.023	-0.125
-660.959	-200.000	0.017	0.097
-659.945	800.000	0.048	0.166
-658.930	222.864	-0.072	-0.115
-657.916	370.317	-0.138	0.280
-656.901	-24.183	0.083	-0.049
-655.886	477.898	-0.031	-0.069
-654.872	143.112	-0.113	-0.150
-653.857	-115.849	-0.271	0.050
-652.843	293.146	-0.114	-0.208
-651.828	-19.816	0.286	0.176
-650.814	178.739	0.069	0.100
-649.799	-42.481	-0.099	0.050
-648.784	40.541	-0.172	-0.154
-647.770	-19.303	-0.029	-0.018
-646.755	175.024	0.226	-0.326
-645.741	-200.000	-0.040	-0.189
-644.726	800.000	0.132	-0.475
-643.711	143.111	0.137	0.181
-642.697	-39.128	-0.194	-0.102
-641.682	-7.553	0.203	-0.137
-640.668	508.975	0.163	-0.377
-639.653	-200.000	-0.002	-0.125
-638.638	-200.000	0.001	-0.048
-637.624	117.969	0.037	-0.045
-636.609	-88.543	0.328	-0.098
-635.595	-103.436	-0.240	-0.056
-634.580	800.000	0.025	-0.107
-633.565	-88.812	-0.251	0.074
-632.551	-37.011	-0.212	-0.113
-631.536	464.775	-0.115	-0.256
-630.522	-118.104	-0.336	0.060
-629.507	-200.000	-0.113	0.000
-628.492	184.748	0.117	0.172
-627.478	263.947	-0.079	0.138
-626.463	288.051	0.051	0.092
-625.449	149.359	-0.284	0.383
-624.434	800.000	-0.026	-0.083
-623.419	800.000	0.025	0.084
-622.405	-28.499	-0.091	0.052
-621.390	119.248	0.268	-0.330
-620.376	573.249	-0.116	-0.283
-619.361	441.377	-0.042	0.091
-618.346	-200.000	0.012	-0.293
-617.332	-126.196	0.303	0.045
-616.317	552.664	0.037	0.088
-615.303	-55.599	0.360	0.161
-614.288	-91.457	-0.234	-0.066
-613.273	-200.000	0.001	0.024
-612.259	26.500	0.069	-0.058
-611.244	800.000	0.044	0.165
-610.230	-200.000	-0.005	0.055
-609.215	1.108	0.261	0.186
-608.201	800.000	-0.102	0.361
-607.186	226.274	-0.088	-0.143
-606.171	-200.000	0.027	-0.128
-605.157	-124.355	0.114	-0.018
-604.142	158.295	0.087	-0.121
-603.128	-76.805	-0.323	-0.113
-602.113	-101.343	-0.170	-0.041
-601.098	-114.951	-0.397	-0.075
-600.084	-38.985	0.106	0.056
-599.069	-116.362	0.032	0.006
-598.055	800.000	-0.056	0.212
-597.040	8.300	-0.099	0.074
-596.025	-200.000	-0.004	-0.559
-595.011	22.918	-0.246	0.201
-593.996	-200.000	-0.014	0.100
-592.982	-200.000	0.025	0.381
-591.967	800.000	-0.044	-0.143
-590.952	-200.000	0.003	0.069
-589.938	315.366	-0.147	-0.276
-588.923	-150.157	-0.208	-0.016
-587.909	-22.634	-0.189	0.114
-586.894	-200.000	-0.030	-0.335
-585.879	528.753	0.096	0.225
-584.865	-97.266	-0.229	-0.060
-583.850	800.000	-0.034	-0.112
-582.836	-44.597	-0.200	0.100
-581.821	740.447	0.112	-0.299
-580.806	-77.900	0.177	-0.061
-579.792	26.106	-0.249	-0.206
-578.777	-90.628	-0.259	-0.075
-577.763	-116.593	-0.472	0.086
-576.748	-166.192	-0.208	0.009
-575.733	11.188	-0.233	-0.177
-574.719	-200.000	0.020	-0.225
-573.704	79.229	-0.061	0.065
-572.690	-29.895	0.086	-0.049
-571.675	497.819	0.117	0.268
-570.661	-130.090	0.119	-0.016
-569.646	-137.002	-0.211	-0.024
-568.631	-200.000	0.009	0.225
-567.617	800.000	-0.080	0.320
-566.602	-93.614	0.171	-0.047
-565.588	-52.765	-0.111	-0.051
-564.573	251.025	-0.182	0.308
-563.558	-200.000	-0.086	0.379
-562.544	60.361	-0.209	-0.206
-561.529	-163.339	-0.209	-0.010
-560.515	95.245	-0.178	0.202
-559.500	377.904	-0.268	-0.544
-558.485	-200.000	0.033	-0.175
-557.471	28.543	-0.075	-0.063
-556.456	-159.015	-0.113	-0.006
-555.442	-84.428	0.138	0.043
-554.427	800.000	0.074	0.205
-553.412	368.438	-0.091	0.183
-552.398	-134.731	-0.203	0.025
-551.383	-200.000	-0.019	0.218
-550.369	800.000	-0.031	0.119
-549.354	-200.000	-0.031	-0.275
-548.339	-200.000	-0.002	-0.151
-547.325	262.566	0.092	0.158
-546.310	-42.280	-0.151	-0.077
-545.296	-151.595	0.447	0.033
-544.281	239.321	0.060	0.100
-543.266	332.892	-0.107	0.206
-542.252	-200.000	-0.018	-0.178
-541.237	-200.000	-0.012	-0.122
-540.223	-97.025	0.159	0.041
-539.208	5.632	-0.347	0.255
-538.193	209.812	-0.162	0.253
-537.179	2.817	0.174	-0.126
-536.164	-66.462	-0.149	-0.059
-535.150	-200.000	-0.049	-0.327
-534.135	-87.479	-0.094	0.028
-533.121	191.362	-0.086	-0.128
-532.106	122.076	-0.113	0.140
-531.091	748.501	-0.074	-0.199
-530.077	-200.000	0.027	0.311
-529.062	168.364	-0.107	-0.152
-528.048	-55.215	0.021	-0.009
-527.033	-25.093	-0.152	-0.089
-526.018	-200.000	-0.001	0.121
-525.004	349.624	-0.299	0.586
-523.989	56.772	-0.012	0.012
-522.975	800.000	0.068	0.262
-521.960	657.299	-0.080	0.204
-520.945	-67.536	0.271	-0.106
-519.931	-86.434	-0.193	-0.059
-518.916	-93.203	0.037	-0.010
-517.902	35.353	0.145	-0.126
-516.887	-200.000	0.006	-0.240
-515.872	8.565	0.078	0.058
-514.858	-96.611	-0.017	0.004
-513.843	526.772	0.157	0.367
-512.829	8.859	0.043	0.033
-511.814	-200.000	0.021	-0.144
-510.799	-112.569	-0.182	-0.036
-509.785	800.000	-0.071	0.237
-508.770	-32.383	-0.316	0.175
-507.756	140.895	0.120	0.157
-506.741	9.627	0.096	-0.072
-505.726	-16.518	-0.251	-0.157
-504.712	16.298	-0.093	0.073
-503.697	24.000	0.021	0.017
-502.683	-65.457	0.023	0.009
-501.668	-59.992	0.226	-0.096
-500.653	477.706	0.058	-0.130
-499.639	-200.000	0.003	-0.174
-498.624	-135.043	0.274	-0.033
-497.610	800.000	0.078	0.237
-496.595	274.253	0.043	0.076
-495.581	-86.337	0.344	-0.105
-494.566	800.000	0.082	-0.285
-493.551	-5.096	0.173	-0.118
-492.537	303.401	-0.097	0.178
-491.522	-94.672	0.401	-0.108
-490.508	-166.171	-0.067	-0.003
-489.493	-157.899	-0.291	-0.017
-488.478	-73.076	-0.082	0.030
-487.464	591.982	0.082	-0.201
-486.449	-137.558	-0.134	0.015
-485.435	-9.626	0.088	-0.058
-484.420	-200.000	0.019	0.084
-483.405	-200.000	0.003	0.158
-482.391	556.256	0.070	0.166
-481.376	54.338	0.172	0.164
-480.362	-149.777	0.173	-0.013
-479.347	481.232	0.010	-0.022
-478.332	-49.134	0.121	0.057
-477.318	197.217	-0.028	-0.043
-476.303	320.240	-0.107	0.201
-475.289	-124.895	-0.057	0.009
-474.274	-145.524	-0.232	-0.021
-473.259	46.049	0.104	0.095
-472.245	-93.437	0.069	0.019
-471.230	644.856	0.053	0.135
-470.216	-172.401	-0.292	0.009
-469.201	-102.036	-0.405	-0.097
-468.186	-200.000	0.059	0.458
-467.172	-129.054	-0.066	0.009
-466.157	112.693	-0.104	-0.125
-465.143	800.000	0.073	0.200
-464.128	-21.880	-0.011	0.007
-463.113	-92.264	-0.210	0.059
-462.099	-200.000	-0.031	-0.178
-461.084	-200.000	0.009	-0.040
-460.070	80.051	-0.208	-0.222
-459.055	-142.415	-0.341	0.033
-458.040	340.019	-0.141	0.272
-457.026	-200.000	-0.080	-0.419
-456.011	-36.657	-0.150	0.080
-454.997	-101.428	0.216	-0.052
-453.982	-56.468	-0.431	0.189
-452.968	-31.773	0.149	-0.083
-451.953	-24.079	-0.241	-0.143
-450.938	-105.730	-0.184	0.041
-449.924	-130.243	-0.193	-0.026
-448.909	-68.520	-0.188	-0.072
-447.895	-200.000	-0.012	-0.090
-446.880	-89.778	0.216	0.063
-445.865	136.856	-0.041	-0.054
-444.851	800.000	-0.060	-0.253
-443.836	-42.573	0.156	0.079
-442.822	464.464	-0.107	-0.237
-441.807	54.553	-0.189	0.181
-440.792	-200.000	-0.011	0.269
-439.778	21.218	0.280	-0.225
-438.763	-200.000	0.022	-0.163
-437.749	800.000	-0.024	-0.099
-436.734	47.438	-0.253	-0.233
-435.719	124.413	-0.092	0.115
-434.705	233.402	-0.155	-0.252
-433.690	800.000	0.062	-0.214
-432.676	184.117	-0.146	-0.214
-431.661	795.701	0.072	0.197
-430.646	141.374	0.157	-0.205
-429.632	63.539	0.137	-0.136
-428.617	458.995	-0.161	0.353
-427.603	-60.970	-0.136	-0.057
-426.588	310.547	0.052	-0.095
-425.573	233.146	-0.102	0.165
-424.559	-200.000	0.002	-0.367
-423.544	32.883	-0.054	0.046
-422.530	-55.716	-0.103	0.046
-421.515	105.064	-0.133	-0.156
-420.500	389.477	0.090	-0.185
-419.486	5.528	-0.258	-0.188
-418.471	-139.022	0.159	0.017
-417.457	-68.627	0.318	-0.122
-416.442	254.457	-0.130	-0.220
-415.428	-102.489	-0.357	0.084
-414.413	8.191	-0.219	-0.163
-413.398	129.008	0.022	0.027
-412.384	-85.747	-0.252	-0.077
-411.369	-200.000	0.058	0.287
-410.355	443.066	0.083	0.180
-409.340	93.212	-0.131	0.147
-408.325	-29.135	0.011	-0.006
-407.311	31.430	-0.287	-0.244
-406.296	-90.103	0.468	0.135
-405.282	512.771	-0.072	0.167
-404.267	-65.391	0.151	-0.060
-403.252	-200.000	-0.054	0.296
-402.238	144.066	-0.150	-0.198
-401.223	257.996	-0.093	-0.158
-400.209	-200.000	-0.025	0.159
-399.194	-200.000	-0.009	-0.138
-398.179	800.000	-0.038	-0.129
-397.165	-200.000	-0.004	-0.199
-396.150	7.356	-0.250	-0.184
-395.136	-12.276	0.381	0.246
-394.121	413.924	-0.152	-0.320
-393.106	-104.666	-0.367	-0.083
-392.092	-92.048	-0.228	0.064
-391.077	-51.293	0.131	-0.061
-390.063	-95.794	0.209	0.055
-389.048	-10.651	0.295	0.193
-388.033	-163.828	0.164	0.008
-387.019	497.894	-0.098	0.222
-386.004	22.749	0.279	0.226
-384.990	0.848	-0.127	-0.090
-383.975	800.000	0.154	0.461
-382.960	167.973	0.141	0.199
-381.946	-175.382	0.395	-0.011
-380.931	-107.990	0.314	-0.067
-379.917	93.271	0.242	-0.270
-378.902	135.114	0.162	-0.208
-377.888	-95.295	0.072	0.019
-376.873	25.856	0.190	-0.156
-375.858	-127.696	-0.023	0.003
-374.844	-200.000	0.050	0.346
-373.829	-50.382	0.142	0.066
-372.815	800.000	-0.044	0.130
-371.800	125.277	0.189	0.235
-370.785	-93.536	-0.367	-0.100
-369.771	-134.110	-0.060	0.007
-368.756	-24.206	0.123	-0.073
-367.742	245.460	-0.124	0.206
-366.727	582.469	-0.098	0.236
-365.712	-29.088	-0.159	0.090
-364.698	-70.711	-0.135	0.050
-363.683	56.340	0.141	-0.135
-362.669	157.741	-0.178	0.243
-361.654	116.487	0.162	0.195
-360.639	-200.000	-0.018	-0.078
-359.625	800.000	-0.046	0.135
-358.610	546.035	0.256	-0.603
-357.596	-200.000	0.007	0.125
-356.581	281.430	0.067	0.118
-355.566	-200.000	0.075	-0.426
-354.552	-109.995	-0.247	0.051
-353.537	-18.540	0.147	0.090
-352.523	800.000	-0.022	0.064
-351.508	59.124	-0.034	0.033
-350.493	-200.000	0.046	0.376
-349.479	0.019	-0.081	-0.057
-348.464	-75.391	0.243	0.086
-347.450	721.655	0.125	0.328
-346.435	110.595	0.277	-0.328
-345.420	-24.463	-0.300	-0.176
-344.406	18.682	0.144	0.113
-343.391	-148.769	-0.228	-0.018
-342.377	800.000	0.085	0.265
-341.362	-102.262	0.183	-0.043
-340.348	67.192	-0.058	0.058
-339.333	800.000	-0.029	0.096
-338.318	496.235	0.099	0.224
-337.304	-130.884	-0.248	0.033
-336.289	-167.835	0.368	0.014
-335.275	800.000	-0.053	0.175
-334.260	800.000	-0.079	-0.307
-333.245	-60.613	-0.354	0.148
-332.231	701.034	0.071	-0.184
-331.216	-137.509	-0.322	0.036
-330.202	-200.000	-0.011	0.310
-329.187	800.000	0.095	0.316
-328.172	2.972	-0.179	-0.128
-327.158	-200.000	0.087	-0.405
-326.143	800.000	0.059	-0.162
-325.129	-27.493	-0.282	-0.161
-324.114	800.000	0.109	-0.380
-323.099	-200.000	0.009	0.201
-322.085	-200.000	-0.055	0.259
-321.070	62.642	0.079	-0.078
-320.056	-200.000	-0.002	0.165
-319.041	-1.797	-0.191	0.132
-318.026	476.420	-0.008	0.019
-317.012	280.065	0.068	-0.120
-315.997	77.027	0.120	-0.126
-314.983	-200.000	-0.024	0.108
-313.968	220.912	0.049	-0.077
-312.953	-66.041	-0.218	-0.085
-311.939	-200.000	-0.016	-0.301
-310.924	72.667	0.163	0.168
-309.910	-19.347	0.162	-0.099
-308.895	-200.000	0.034	0.260
-307.880	425.443	0.162	0.343
-306.866	84.289	0.136	0.147
-305.851	424.254	0.200	-0.423
-304.837	127.429	0.090	-0.113
-303.822	4.299	-0.103	0.074
-302.807	-200.000	-0.020	-0.098
-301.793	-200.000	0.004	0.205
-300.778	422.125	-0.147	0.310
-299.764	-200.000	0.032	-0.210
-298.749	-200.000	0.056	0.276
-297.735	535.022	-0.030	0.069
-296.720	73.498	0.063	-0.065
-295.705	-200.000	0.051	0.223
-294.691	202.635	0.115	0.175
-293.676	-150.145	-0.261	-0.020
-292.662	134.411	0.177	0.226
-291.647	249.984	-0.100	0.167
-290.632	-110.649	0.312	-0.064
-289.618	-115.500	0.214	0.040
-288.603	755.523	-0.046	0.124
-287.589	-189.138	0.239	-0.003
-286.574	14.450	-0.200	-0.154
-285.559	-89.114	0.241	0.070
-284.545	-200.000	0.010	0.258
-283.530	-86.170	0.344	-0.104
-282.516	-160.265	0.118	0.006
-281.501	-14.959	0.140	0.088
-280.486	158.996	0.032	0.044
-279.472	22.992	0.048	-0.039
-278.457	221.403	0.072	0.114
-277.443	-61.177	-0.233	-0.097
-276.428	-200.000	0.040	-0.268
-275.413	-100.461	0.057	-0.014
-274.399	183.490	0.201	-0.293
-273.384	34.206	0.244	0.209
-272.370	238.726	0.162	-0.264
-271.355	-80.616	0.331	-0.108
-270.340	-19.503	0.350	-0.213
-269.326	-171.312	0.162	-0.005
-268.311	175.501	0.235	0.335
-267.297	-93.689	0.047	0.013
-266.282	90.459	0.344	-0.379
-265.267	-17.789	0.099	0.061
-264.253	-32.571	-0.105	-0.058
-263.238	-86.998	0.250	0.075
-262.224	269.339	0.165	0.284
-261.209	-200.000	-0.030	0.185
-260.195	-200.000	-0.008	0.072
-259.180	209.105	-0.088	0.136
-258.165	58.389	0.131	0.126
-257.151	296.946	0.124	0.223
-256.136	51.458	0.203	0.189
-255.122	-200.000	-0.391	0.002
-254.107	-200.000	0.028	0.143
-253.092	-165.709	0.056	-0.002
-252.078	800.000	-0.040	-0.150
-251.063	-28.491	-0.295	0.167
-250.049	-117.638	-0.102	-0.018
-249.034	-115.754	0.100	0.018
-248.019	-70.959	-0.287	0.106
-247.005	363.767	0.020	0.039
-245.990	26.254	0.223	-0.183
-244.976	-94.149	-0.078	0.021
-243.961	-124.288	0.243	0.037
-242.946	198.305	-0.075	0.112
-241.932	-94.069	-0.053	0.014
-240.917	-160.047	0.200	0.011
-239.903	-80.229	-0.460	-0.151
-238.888	-89.757	-0.394	0.113
-237.873	182.326	0.240	-0.347
-236.859	-151.753	-0.346	0.025
-235.844	-84.437	0.183	0.057
-234.830	-94.129	-0.279	-0.075
-233.815	67.930	0.027	-0.027
-232.800	28.221	0.119	-0.099
-231.786	-4.162	0.062	-0.042
-230.771	75.937	0.111	-0.115
-229.757	800.000	0.036	0.142
-228.742	-34.785	0.192	0.103
-227.727	800.000	0.102	0.299
-226.713	-200.000	0.035	-0.289
-225.698	-40.803	0.102	0.052
-224.684	25.814	0.182	-0.149
-223.669	-200.000	0.007	0.044
-222.655	424.677	0.077	-0.162
-221.640	199.683	-0.220	-0.331
-220.625	800.000	-0.018	0.064
-219.611	60.332	-0.240	0.233
-218.596	156.434	0.187	-0.253
-217.582	-200.000	0.004	-0.079
-216.567	-182.848	0.159	-0.003
-215.552	26.025	0.055	0.045
-214.538	-179.669	0.606	-0.013
-213.523	-128.485	-0.213	-0.030
-212.509	-45.671	0.064	-0.031
-211.494	-113.792	0.221	0.042
-210.479	58.701	-0.170	-0.164
-209.465	321.910	-0.079	-0.148
-208.450	108.188	0.103	0.120
-207.436	216.320	-0.070	-0.109
-206.421	50.132	-0.052	-0.049
-205.406	-200.000	0.055	0.327
-204.392	133.698	0.141	0.179
-203.377	119.594	0.156	-0.190
-202.363	493.726	0.072	-0.161
-201.348	-83.300	-0.191	-0.060
-200.333	171.162	-0.151	0.213
-199.319	-63.727	-0.230	0.092
-198.304	-42.285	0.199	0.099
-197.290	188.238	0.156	-0.228
-196.275	-150.189	0.399	-0.030
-195.260	-95.217	0.215	-0.057
-194.246	111.889	0.050	-0.060
-193.231	-12.030	-0.193	0.124
-192.217	44.639	-0.413	0.372
-191.202	108.122	0.140	0.164
-190.187	358.513	-0.091	-0.179
-189.173	63.398	-0.211	0.207
-188.158	-200.000	-0.043	-0.245
-187.144	-200.000	-0.003	0.031
-186.129	91.726	0.241	0.266
-185.114	23.581	0.349	-0.281
-184.100	-18.458	-0.081	0.050
-183.085	800.000	0.083	-0.349
-182.071	-98.834	0.336	0.084
-181.056	84.279	0.146	-0.157
-180.042	-40.387	-0.129	-0.066
-179.027	151.727	-0.025	-0.033
-178.012	-114.283	-0.161	0.030
-176.998	62.305	0.252	-0.246
-175.983	585.004	0.051	-0.122
-174.969	262.452	-0.183	0.310
-173.954	-43.716	0.231	0.114
-172.939	-200.000	-0.032	0.166
-171.925	13.944	0.055	-0.042
-170.910	-27.967	0.141	-0.080
-169.896	-34.102	-0.122	-0.066
-168.881	-93.251	0.217	0.059
-167.866	664.359	0.091	0.229
-166.852	204.318	-0.128	-0.195
-165.837	-200.000	-0.022	0.185
-164.823	-200.000	0.044	-0.191
-163.808	-25.519	0.289	0.167
-162.793	-200.000	0.088	-0.417
-161.779	-13.009	0.297	-0.189
-160.764	21.776	-0.276	-0.220
-159.750	-120.790	-0.075	0.012
-158.735	-119.607	0.125	0.021
-157.720	305.639	0.046	0.083
-156.706	11.808	0.102	-0.077
-155.691	-27.024	0.230	0.131
-154.677	-63.477	-0.327	-0.131
-153.662	67.655	-0.036	0.036
-152.647	-200.000	0.011	0.148
-151.633	158.514	0.088	-0.119
-150.618	126.264	0.274	0.339
-149.604	322.654	-0.092	0.171
-148.589	-41.030	0.179	0.090
-147.574	800.000	0.032	-0.127
-146.560	800.000	0.074	-0.259
-145.545	211.834	-0.154	0.236
-144.531	26.998	0.090	-0.074
-143.516	800.000	-0.084	0.259
-142.502	-105.001	0.081	-0.018
-141.487	-200.000	0.039	0.270
-140.472	-66.194	0.336	0.131
-139.458	90.167	-0.038	-0.041
-138.443	119.225	-0.135	0.164
-137.429	-166.717	-0.253	-0.010
-136.414	800.000	-0.125	-0.343
-135.399	-51.428	-0.231	0.106
-134.385	76.385	-0.233	-0.241
-133.370	800.000	0.040	-0.158
-132.356	-118.229	0.235	-0.041
-131.341	800.000	0.033	0.132
-130.326	130.073	-0.336	0.420
-129.312	-189.799	-0.159	-0.002
-128.297	-200.000	0.020	-0.159
-127.283	133.227	-0.137	-0.173
-126.268	-200.000	-0.033	0.187
-125.253	-25.546	-0.111	0.064
-124.239	-200.000	-0.017	-0.243
-123.224	119.905	-0.125	-0.151
-122.210	8.796	-0.153	0.112
-121.195	78.245	-0.151	-0.157
