DTS Sentinel unit serial number:	SN413079Multiplexer serial number:	ORYXHardware model number:	OX4-SRSoftware version number:	ORYX F/W v4.00 Oryx Data Collector v3.7.2.0data status	okinstallation	princeton_trtdifferential loss correction	single-endedforward channel	channel 3reverse channel	N/Adate	2019/09/18time	14:52:35forward acquisition time	60.00reverse acquisition time	0.00gamma	496.2192k internal	0.2306k external	0.2306temperature offset calibration	0.9979default loss term (dB/km)	0.3790temperature slope calibration	1.0000multiplexer offset coefficient	1.0000multiplexer slope coefficient	1.0000fibre end	0.00T internal ref (°C)	35.12T ext. ref 1 (°C)	0.72T ext. ref 2 (°C)	30.89length (m)	temperature (°C)	Stokes	anti-Stokes-747.200	12.802	0.302	-0.237
-746.185	146.348	0.260	0.355
-745.171	800.000	0.050	0.158
-744.156	311.430	-0.125	-0.239
-743.142	-184.374	-0.221	0.004
-742.127	662.695	-0.184	0.483
-741.112	-183.577	0.397	0.007
-740.098	63.613	0.214	-0.218
-739.083	458.609	-0.046	-0.105
-738.069	-158.649	-0.058	0.003
-737.054	-78.533	-0.076	0.027
-736.039	-109.484	-0.214	0.046
-735.025	-48.717	-0.104	-0.051
-734.010	28.855	0.210	-0.181
-732.996	494.897	0.118	-0.276
-731.981	175.414	0.132	-0.195
-730.966	0.301	0.245	0.178
-729.952	72.881	-0.143	0.152
-728.937	-38.475	0.128	-0.069
-727.923	86.114	0.150	-0.168
-726.908	127.461	0.078	-0.100
-725.894	-200.000	-0.005	0.093
-724.879	787.204	0.042	0.118
-723.864	-7.951	-0.111	-0.076
-722.850	120.597	-0.253	-0.319
-721.835	197.145	0.074	0.115
-720.821	50.762	0.048	-0.046
-719.806	-26.186	0.170	0.102
-718.791	-23.952	-0.126	-0.076
-717.777	800.000	-0.091	0.378
-716.762	-200.000	-0.027	0.184
-715.748	426.795	0.102	-0.223
-714.733	374.608	-0.093	-0.193
-713.718	-2.194	-0.100	-0.071
-712.704	-122.410	-0.330	0.055
-711.689	-200.000	-0.002	0.218
-710.675	-200.000	0.015	0.160
-709.660	99.316	0.177	-0.208
-708.645	276.488	-0.115	0.207
-707.631	-3.075	-0.163	-0.116
-706.616	-200.000	0.010	0.377
-705.602	-200.000	0.057	0.268
-704.587	-148.602	0.279	0.023
-703.572	568.068	0.160	0.395
-702.558	22.805	-0.146	-0.121
-701.543	-167.111	0.568	-0.023
-700.529	457.213	-0.125	0.282
-699.514	-154.809	0.126	0.008
-698.499	-103.841	0.220	-0.052
-697.485	325.522	0.075	-0.145
-696.470	800.000	0.100	0.281
-695.456	800.000	0.047	-0.143
-694.441	-189.470	0.299	0.004
-693.426	29.944	-0.091	-0.079
-692.412	-106.315	-0.207	-0.047
-691.397	203.548	0.155	-0.243
-690.383	-173.044	-0.142	0.004
-689.368	-200.000	0.021	0.196
-688.354	-68.274	-0.369	-0.145
-687.339	-92.583	0.174	0.050
-686.324	-164.020	-0.378	0.018
-685.310	-200.000	-0.022	0.213
-684.295	238.332	-0.138	-0.233
-683.281	560.721	0.088	0.217
-682.266	-200.000	-0.035	0.235
-681.251	47.814	-0.180	-0.171
-680.237	23.701	-0.335	0.280
-679.222	-77.234	-0.295	0.104
-678.208	-117.180	-0.114	-0.021
-677.193	-6.005	0.168	0.116
-676.178	270.150	-0.150	-0.267
-675.164	-200.000	0.083	-0.395
-674.149	35.701	-0.144	0.128
-673.135	48.506	-0.181	0.172
-672.120	-90.293	-0.180	-0.053
-671.105	67.952	0.179	0.186
-670.091	-18.842	0.082	0.052
-669.076	329.769	-0.096	-0.187
-668.062	44.025	0.277	-0.258
-667.047	79.515	0.139	0.151
-666.032	85.589	0.047	0.053
-665.018	-185.365	0.267	-0.004
-664.003	741.455	0.007	0.019
-662.989	63.435	-0.201	0.204
-661.974	800.000	-0.123	0.347
-660.959	10.665	0.173	0.134
-659.945	-200.000	0.018	0.168
-658.930	2.872	-0.159	-0.117
-657.916	-12.450	0.314	0.208
-656.901	668.940	0.080	0.209
-655.886	17.558	-0.256	0.206
-654.872	-49.239	0.173	0.084
-653.857	-68.838	-0.044	-0.017
-652.843	3.585	0.227	-0.168
-651.828	67.956	-0.032	0.034
-650.814	-28.613	-0.089	0.052
-649.799	-139.980	0.271	0.029
-648.784	-59.770	0.208	-0.090
-647.770	-200.000	0.005	0.045
-646.755	310.750	0.032	0.061
-645.741	-14.417	-0.132	0.086
-644.726	-62.039	0.221	0.094
-643.711	-200.000	-0.015	0.139
-642.697	-200.000	0.032	0.156
-641.682	748.515	0.102	-0.279
-640.668	-132.994	-0.042	-0.005
-639.653	284.909	-0.259	0.472
-638.638	-200.000	-0.056	-0.422
-637.624	703.150	0.139	-0.371
-636.609	-22.876	-0.241	-0.148
-635.595	-105.579	0.148	-0.034
-634.580	-42.227	-0.111	-0.058
-633.565	-116.168	0.213	0.040
-632.551	83.308	0.043	0.047
-631.536	293.757	-0.098	-0.181
-630.522	-89.598	-0.154	-0.046
-629.507	173.988	0.098	0.144
-628.492	112.487	-0.095	0.117
-627.478	-200.000	-0.024	0.115
-626.463	141.282	-0.220	0.295
-625.449	21.849	-0.210	0.173
-624.434	-100.327	-0.133	0.033
-623.419	383.931	-0.020	0.041
-622.405	-56.698	-0.262	-0.117
-621.390	-91.696	-0.157	-0.045
-620.376	-24.500	-0.163	0.098
-619.361	-9.233	-0.133	-0.090
-618.346	-84.713	0.177	-0.056
-617.332	-200.000	-0.061	0.404
-616.317	130.649	-0.066	-0.086
-615.303	-200.000	-0.096	-0.593
-614.288	-200.000	0.015	-0.160
-613.273	62.728	0.213	0.216
-612.259	427.828	-0.073	0.160
-611.244	-200.000	0.009	-0.110
-610.230	0.527	0.234	0.169
-609.215	-200.000	-0.102	0.601
-608.201	-200.000	-0.005	0.130
-607.186	-200.000	0.052	-0.302
-606.171	263.308	0.072	0.127
-605.157	-31.298	0.132	0.075
-604.142	181.061	0.076	0.112
-603.128	800.000	0.088	0.307
-602.113	-56.759	0.342	0.153
-601.098	800.000	0.032	-0.142
-600.084	-73.162	-0.440	-0.163
-599.069	-158.454	-0.373	-0.022
-598.055	-200.000	-0.038	0.234
-597.040	-83.411	0.368	0.119
-596.025	-86.044	0.163	-0.051
-595.011	14.990	0.176	-0.140
-593.996	-46.353	0.159	0.079
-592.982	-105.639	-0.148	0.034
-591.967	-200.000	0.053	-0.253
-590.952	-69.940	0.069	0.026
-589.938	4.567	0.125	-0.093
-588.923	-47.498	-0.090	-0.044
-587.909	-168.245	0.361	-0.014
-586.894	800.000	0.055	0.152
-585.879	118.560	0.284	0.354
-584.865	156.521	0.152	-0.212
-583.850	96.997	0.098	-0.113
-582.836	-141.572	0.222	-0.023
-581.821	104.787	-0.147	-0.175
-580.806	-64.923	-0.094	0.039
-579.792	407.291	0.155	-0.331
-578.777	146.827	0.065	-0.088
-577.763	-200.000	0.022	-0.135
-576.748	-200.000	0.061	-0.431
-575.733	-98.062	0.266	-0.069
-574.719	-144.405	0.184	-0.017
-573.704	117.240	0.068	0.084
-572.690	185.225	0.105	0.158
-571.675	-172.480	0.209	0.007
-570.661	-45.497	-0.219	0.110
-569.646	-23.314	0.299	0.182
-568.631	484.771	-0.097	0.223
-567.617	75.358	0.107	-0.114
-566.602	-17.745	0.253	0.160
-565.588	-42.540	0.149	-0.077
-564.573	63.792	-0.169	0.172
-563.558	-200.000	0.036	0.231
-562.544	-59.412	0.152	0.066
-561.529	-112.718	-0.091	-0.018
-560.515	31.725	-0.224	0.194
-559.500	-81.677	-0.123	-0.041
-558.485	-200.000	-0.032	0.208
-557.471	-171.224	0.397	-0.014
-556.456	196.422	-0.032	0.049
-555.442	-102.291	0.199	0.048
-554.427	262.074	-0.029	-0.050
-553.412	-200.000	0.015	-0.108
-552.398	-32.121	0.143	-0.081
-551.383	-4.263	0.256	-0.179
-550.369	707.884	-0.076	-0.204
-549.354	102.687	0.129	0.152
-548.339	764.436	0.070	0.191
-547.325	5.567	-0.395	0.294
-546.310	-200.000	0.035	0.283
-545.296	172.276	-0.064	-0.093
-544.281	-200.000	0.040	0.267
-543.266	800.000	0.047	0.188
-542.252	-8.234	-0.193	-0.131
-541.237	327.614	-0.170	0.330
-540.223	800.000	-0.054	0.157
-539.208	232.729	-0.010	0.017
-538.193	-33.725	-0.076	0.042
-537.179	62.033	0.135	0.136
-536.164	-200.000	-0.009	-0.131
-535.150	-33.626	-0.212	0.118
-534.135	236.131	0.121	0.201
-533.121	193.425	-0.080	-0.122
-532.106	-85.331	0.243	0.077
-531.091	97.071	0.217	-0.251
-530.077	-200.000	-0.007	-0.189
-529.062	77.257	-0.255	-0.273
-528.048	516.163	-0.040	-0.095
-527.033	29.328	0.206	-0.177
-526.018	640.844	-0.116	-0.299
-525.004	-200.000	0.006	0.028
-523.989	-123.845	0.223	-0.036
-522.975	-68.270	0.312	-0.122
-521.960	75.060	-0.313	-0.333
-520.945	5.368	-0.140	-0.104
-519.931	-7.802	0.183	0.124
-518.916	21.799	-0.393	-0.323
-517.902	-4.279	-0.091	-0.063
-516.887	576.164	-0.048	-0.118
-515.872	-104.373	-0.293	-0.069
-514.858	800.000	0.016	-0.068
-513.843	145.047	-0.018	0.024
-512.829	-103.591	-0.222	0.053
-511.814	331.558	0.049	-0.095
-510.799	339.274	-0.185	0.363
-509.785	-200.000	0.000	0.144
-508.770	800.000	0.126	-0.357
-507.756	327.000	-0.071	-0.136
-506.741	800.000	0.081	0.226
-505.726	489.313	-0.041	-0.094
-504.712	-150.342	-0.082	-0.006
-503.697	-20.317	-0.250	0.155
-502.683	-200.000	0.023	0.109
-501.668	48.610	0.132	-0.124
-500.653	75.457	-0.013	-0.014
-499.639	800.000	-0.065	-0.232
-498.624	-194.736	0.377	0.003
-497.610	133.712	0.082	0.107
-496.595	-93.243	0.337	-0.094
-495.581	-200.000	-0.001	-0.124
-494.566	-200.000	-0.005	0.142
-493.551	-200.000	0.020	0.210
-492.537	215.893	0.206	-0.329
-491.522	-200.000	-0.003	-0.377
-490.508	-25.894	-0.187	0.111
-489.493	-42.460	-0.410	0.210
-488.478	-87.040	0.247	0.076
-487.464	179.671	0.207	0.305
-486.449	-200.000	-0.074	0.385
-485.435	202.638	-0.079	0.122
-484.420	16.205	0.091	-0.072
-483.405	-95.661	0.222	-0.060
-482.391	756.779	-0.089	-0.243
-481.376	-74.721	-0.131	-0.048
-480.362	800.000	0.066	-0.241
-479.347	-200.000	0.018	-0.203
-478.332	-94.568	0.280	-0.077
-477.318	-200.000	0.006	0.171
-476.303	168.710	0.151	0.217
-475.289	-39.344	-0.202	-0.107
-474.274	111.953	0.095	-0.116
-473.259	286.339	-0.069	0.126
-472.245	31.719	-0.302	-0.261
-471.230	696.802	0.043	-0.114
-470.216	-158.737	-0.214	0.012
-469.201	-20.039	0.117	0.073
-468.186	-116.126	0.224	-0.042
-467.172	-114.735	-0.618	0.119
-466.157	228.356	-0.190	0.311
-465.143	-66.148	0.192	-0.077
-464.128	-72.880	0.032	-0.012
-463.113	-61.233	-0.135	-0.057
-462.099	-45.921	-0.139	0.069
-461.084	404.572	0.063	-0.133
-460.070	17.981	0.137	0.110
-459.055	-200.000	-0.006	0.162
-458.040	-53.073	0.068	-0.031
-457.026	102.056	-0.047	-0.055
-456.011	-85.761	0.194	0.060
-454.997	-200.000	0.022	-0.264
-453.982	-54.544	-0.201	0.091
-452.968	203.486	0.176	0.274
-451.953	-137.087	0.273	-0.031
-450.938	463.163	-0.106	-0.238
-449.924	29.628	0.043	-0.037
-448.909	-97.436	0.261	-0.068
-447.895	-74.687	0.255	0.092
-446.880	-200.000	0.007	-0.186
-445.865	800.000	0.038	-0.129
-444.851	-69.331	-0.208	0.080
-443.836	733.582	-0.064	0.172
-442.822	464.177	0.072	-0.163
-441.807	-200.000	0.025	-0.128
-440.792	800.000	0.043	0.121
-439.778	-200.000	0.037	-0.207
-438.763	702.680	-0.096	-0.255
-437.749	-200.000	0.014	-0.195
-436.734	107.737	-0.064	-0.076
-435.719	-107.335	-0.251	0.055
-434.705	-155.360	-0.214	0.014
-433.690	157.494	-0.095	0.132
-432.676	646.465	0.094	0.242
-431.661	800.000	-0.135	0.400
-430.646	-104.007	0.041	-0.010
-429.632	-28.177	-0.128	0.074
-428.617	11.938	0.279	-0.215
-427.603	800.000	-0.047	-0.141
-426.588	38.060	-0.159	0.142
-425.573	142.106	-0.017	-0.023
-424.559	404.207	-0.068	0.145
-423.544	-200.000	-0.028	0.132
-422.530	483.139	0.238	-0.544
-421.515	-179.384	0.470	-0.010
-420.500	31.400	0.072	-0.062
-419.486	-148.212	0.193	0.016
-418.471	171.470	0.111	0.160
-417.457	-189.230	0.062	-0.001
-416.442	380.801	-0.075	-0.155
-415.428	-176.246	-0.243	0.006
-414.413	164.430	0.097	-0.138
-413.398	13.991	0.090	-0.070
-412.384	800.000	0.107	-0.342
-411.369	246.714	0.041	0.070
-410.355	800.000	-0.089	0.339
-409.340	87.119	-0.185	-0.205
-408.325	-200.000	0.010	-0.438
-407.311	54.291	-0.105	0.101
-406.296	-81.220	-0.143	-0.047
-405.282	60.258	-0.012	-0.012
-404.267	88.400	-0.065	-0.073
-403.252	269.684	-0.090	-0.158
-402.238	-143.575	0.593	-0.057
-401.223	-130.937	-0.159	-0.021
-400.209	800.000	-0.038	0.155
-399.194	137.744	0.158	0.207
-398.179	-47.645	0.120	-0.058
-397.165	-33.152	0.158	-0.088
-396.150	204.955	-0.074	0.115
-395.136	37.933	0.149	-0.133
-394.121	167.042	-0.104	-0.148
-393.106	-200.000	-0.031	-0.200
-392.092	666.109	-0.083	-0.216
-391.077	217.836	0.048	0.077
-390.063	27.968	-0.096	-0.081
-389.048	18.829	0.094	-0.076
-388.033	100.920	0.250	-0.292
-387.019	800.000	0.053	-0.184
-386.004	-131.058	-0.120	-0.016
-384.990	94.210	0.173	0.197
-383.975	-170.871	-0.202	0.007
-382.960	36.046	-0.143	-0.126
-381.946	-100.080	-0.373	-0.093
-380.931	175.987	-0.134	-0.195
-379.917	-115.135	-0.280	0.053
-378.902	589.879	-0.035	0.086
-377.888	-58.972	0.315	0.137
-376.873	787.460	0.135	0.370
-375.858	-200.000	-0.214	-0.000
-374.844	328.919	-0.063	-0.122
-373.829	128.504	-0.101	-0.129
-372.815	-200.000	-0.066	-0.345
-371.800	-11.370	0.052	-0.034
-370.785	-198.498	-0.260	-0.001
-369.771	800.000	-0.041	0.169
-368.756	-89.380	0.117	0.035
-367.742	-65.759	0.116	0.046
-366.727	-200.000	0.018	-0.215
-365.712	-125.478	-0.077	0.012
-364.698	800.000	-0.072	-0.242
-363.683	-200.000	0.000	-0.008
-362.669	-126.170	-0.168	0.025
-361.654	-76.306	-0.173	-0.061
-360.639	558.508	-0.148	-0.359
-359.625	800.000	0.017	-0.070
-358.610	224.061	-0.084	0.136
-357.596	761.659	0.072	0.196
-356.581	403.400	-0.029	0.060
-355.566	34.118	0.101	0.089
-354.552	186.713	0.071	0.106
-353.537	-52.728	-0.116	0.054
-352.523	43.383	0.231	0.211
-351.508	-89.356	0.032	0.009
-350.493	246.044	-0.024	-0.040
-349.479	666.898	-0.064	0.166
-348.464	-200.000	-0.036	0.158
-347.450	279.007	-0.021	0.038
-346.435	-45.368	-0.132	0.066
-345.420	181.933	0.137	0.202
-344.406	64.815	-0.144	-0.145
-343.391	-132.595	0.436	-0.056
-342.377	77.640	-0.079	0.085
-341.362	-22.604	0.130	0.079
-340.348	-106.585	-0.176	0.039
-339.333	-200.000	-0.010	-0.138
-338.318	-200.000	0.041	-0.450
-337.304	211.328	-0.077	-0.121
-336.289	-156.592	-0.359	0.022
-335.275	88.781	0.197	-0.220
-334.260	527.889	-0.034	-0.081
-333.245	800.000	0.079	0.253
-332.231	-46.255	0.161	0.079
-331.216	-156.447	-0.285	0.018
-330.202	-79.383	-0.469	-0.159
-329.187	-161.384	0.227	-0.012
-328.172	20.969	0.139	0.113
-327.158	800.000	0.053	0.222
-326.143	-119.626	-0.348	0.060
-325.129	-200.000	-0.015	0.080
-324.114	1.433	0.149	-0.107
-323.099	800.000	0.023	-0.067
-322.085	522.517	0.153	0.359
-321.070	-32.427	0.026	0.015
-320.056	-123.559	0.114	-0.018
-319.041	800.000	0.096	0.372
-318.026	220.080	-0.152	0.244
-317.012	770.115	-0.029	0.078
-315.997	-121.919	0.122	0.020
-314.983	-129.731	-0.052	-0.007
-313.968	49.265	0.119	0.112
-312.953	-102.319	0.287	0.069
-311.939	-12.564	-0.239	-0.156
-310.924	-200.000	0.007	-0.183
-309.910	-82.834	-0.041	0.013
-308.895	82.360	-0.086	0.093
-307.880	12.899	-0.164	-0.126
-306.866	-200.000	-0.049	-0.365
-305.851	55.857	0.189	-0.183
-304.837	-181.922	-0.056	-0.001
-303.822	-200.000	0.011	-0.211
-302.807	-104.077	-0.351	0.082
-301.793	59.472	0.118	0.116
-300.778	39.542	0.301	-0.269
-299.764	800.000	0.030	-0.094
-298.749	-74.944	0.183	-0.066
-297.735	537.681	0.144	0.343
-296.720	-136.595	-0.142	0.016
-295.705	62.696	-0.196	-0.196
-294.691	-176.270	0.166	-0.004
-293.676	233.582	-0.105	0.172
-292.662	800.000	-0.019	0.084
-291.647	282.048	0.129	0.231
-290.632	-129.396	0.205	0.028
-289.618	-200.000	-0.382	0.002
-288.603	-200.000	0.003	0.167
-287.589	-9.742	-0.096	0.064
-286.574	800.000	-0.082	-0.230
-285.559	430.693	-0.115	-0.250
-284.545	-74.071	0.293	-0.106
-283.530	-200.000	-0.002	0.399
-282.516	37.770	-0.083	-0.073
-281.501	-200.000	0.056	-0.337
-280.486	467.617	0.124	0.277
-279.472	-200.000	-0.066	-0.503
-278.457	28.861	-0.174	-0.147
-277.443	164.312	-0.250	0.353
-276.428	-145.722	0.175	-0.016
-275.413	-59.272	0.220	-0.095
-274.399	60.912	0.252	0.250
-273.384	-23.674	-0.263	0.157
-272.370	57.528	-0.120	-0.117
-271.355	-200.000	0.017	0.134
-270.340	454.421	0.062	0.138
-269.326	22.680	0.305	0.249
-268.311	123.271	-0.174	0.217
-267.297	-102.413	-0.315	0.075
-266.282	-200.000	-0.016	-0.075
-265.267	800.000	-0.029	0.113
-264.253	350.253	0.115	-0.226
-263.238	287.151	-0.062	0.112
-262.224	-21.930	-0.350	0.213
-261.209	-17.466	-0.085	0.053
-260.195	75.651	0.193	-0.204
-259.180	65.377	-0.067	0.068
-258.165	-92.223	0.073	0.020
-257.151	796.782	-0.063	-0.173
-256.136	-200.000	-0.003	0.063
-255.122	0.754	0.062	-0.044
-254.107	23.047	0.148	0.121
-253.092	-38.076	0.392	0.208
-252.078	-136.201	-0.388	-0.045
-251.063	134.956	-0.059	0.076
-250.049	800.000	0.011	0.031
-249.034	376.612	0.152	0.310
-248.019	-99.779	-0.220	-0.055
-247.005	-189.124	-0.387	0.005
-245.990	238.112	-0.077	0.128
-244.976	-200.000	-0.043	-0.212
-243.961	-200.000	0.011	-0.104
-242.946	800.000	-0.041	-0.160
-241.932	-178.197	0.185	-0.004
-240.917	49.083	-0.273	-0.256
-239.903	-53.697	-0.208	-0.095
-238.888	-200.000	0.054	-0.255
-237.873	800.000	-0.161	0.449
-236.859	800.000	0.092	0.255
-235.844	110.921	0.189	-0.227
-234.830	800.000	-0.086	-0.328
-233.815	351.053	-0.168	-0.332
-232.800	-139.167	0.326	-0.035
-231.786	-135.577	0.262	0.031
-230.771	320.499	0.238	-0.451
-229.757	72.599	0.202	0.210
-228.742	-26.367	-0.064	0.038
-227.727	-200.000	-0.027	0.169
-226.713	-62.558	-0.197	0.082
-225.698	-200.000	-0.218	-0.000
-224.684	130.535	-0.101	0.129
-223.669	374.446	-0.126	0.255
-222.655	126.015	0.233	-0.294
-221.640	-80.414	-0.189	0.063
-220.625	174.432	-0.144	0.207
-219.611	247.005	-0.155	0.261
-218.596	-87.944	0.259	-0.078
-217.582	-62.624	0.317	-0.131
-216.567	-47.165	0.281	0.137
-215.552	55.578	-0.275	-0.265
-214.538	-180.877	0.125	0.003
-213.523	214.510	-0.106	-0.168
-212.509	95.609	0.114	0.129
-211.494	15.186	0.091	-0.071
-210.479	-200.000	0.036	0.204
-209.465	-99.406	-0.187	-0.047
-208.450	10.504	-0.310	0.235
-207.436	-200.000	-0.020	-0.153
-206.421	-200.000	-0.037	-0.256
-205.406	109.392	0.044	0.053
-204.392	9.361	-0.181	0.137
-203.377	800.000	0.025	0.094
-202.363	800.000	-0.122	-0.485
-201.348	-83.727	-0.250	-0.079
-200.333	-10.572	0.149	0.098
-199.319	262.260	0.039	-0.068
-198.304	3.371	-0.264	0.191
-197.290	267.549	0.143	0.249
-196.275	-68.896	0.218	0.084
-195.260	225.192	-0.098	0.158
-194.246	53.963	-0.179	0.171
-193.231	-98.516	-0.329	-0.084
-192.217	14.698	-0.276	-0.215
-191.202	-140.035	-0.128	-0.013
-190.187	-119.425	0.344	0.059
-189.173	143.212	0.078	0.103
-188.158	-200.000	0.028	-0.248
-187.144	-200.000	0.043	-0.255
-186.129	-134.292	0.327	0.040
-185.114	-56.414	-0.061	0.027
-184.100	-200.000	0.020	0.132
-183.085	-127.622	0.336	-0.048
-182.071	91.329	0.138	0.155
-181.056	-68.508	-0.079	-0.030
-180.042	-76.729	-0.179	-0.063
-179.027	-126.586	-0.236	0.035
-178.012	288.886	0.201	0.362
-176.998	-114.395	0.244	-0.047
-175.983	-2.216	0.071	0.049
-174.969	-25.333	0.143	0.084
-173.954	524.201	-0.119	-0.278
-172.939	-200.000	-0.004	0.021
-171.925	-24.618	-0.194	-0.115
-170.910	-56.728	0.161	0.071
-169.896	-200.000	-0.073	0.349
-168.881	20.082	-0.282	-0.226
-167.866	571.274	-0.130	0.314
-166.852	264.489	0.131	0.227
-165.837	800.000	-0.033	-0.112
-164.823	800.000	0.067	-0.185
-163.808	-51.380	0.020	-0.009
-162.793	-30.737	-0.028	-0.016
-161.779	-140.411	-0.325	0.034
-160.764	-64.579	0.227	0.092
-159.750	519.653	0.062	-0.145
-158.735	-200.000	0.006	0.058
-157.720	389.742	-0.119	0.246
-156.706	-200.000	-0.006	0.113
-155.691	-200.000	-0.224	0.001
-154.677	-95.975	0.097	-0.026
-153.662	-200.000	-0.018	-0.249
-152.647	800.000	-0.022	0.085
-151.633	52.932	-0.180	0.171
-150.618	53.021	0.238	-0.227
-149.604	-17.270	0.206	-0.129
-148.589	53.222	-0.228	-0.217
-147.574	-200.000	0.008	-0.040
-146.560	120.703	0.088	-0.108
-145.545	-14.475	0.406	-0.260
-144.531	800.000	-0.007	-0.019
-143.516	-54.574	-0.050	0.022
-142.502	-84.668	-0.181	0.057
-141.487	96.459	0.225	-0.256
-140.472	800.000	0.061	-0.178
-139.458	183.965	0.056	0.082
-138.443	-10.244	0.135	-0.089
-137.429	-72.636	-0.071	0.026
-136.414	-200.000	0.045	0.238
-135.399	346.232	-0.144	0.282
-134.385	152.470	-0.172	0.234
-133.370	-200.000	-0.027	-0.181
-132.356	-49.586	-0.307	0.145
-131.341	345.517	-0.169	-0.329
-130.326	-131.147	0.299	-0.040
-129.312	-108.421	-0.020	0.004
-128.297	-200.000	-0.018	-0.406
-127.283	1.502	-0.153	0.109
-126.268	-200.000	-0.008	-0.091
-125.253	-41.227	-0.119	-0.061
-124.239	-24.889	0.247	0.145
-123.224	597.500	0.065	0.159
-122.210	61.672	-0.172	-0.170
-121.195	-24.561	-0.145	-0.086
