DTS Sentinel unit serial number:	SN413079Multiplexer serial number:	ORYXHardware model number:	OX4-SRSoftware version number:	ORYX F/W v4.00 Oryx Data Collector v3.7.2.0data status	okinstallation	princeton_trtdifferential loss correction	single-endedforward channel	channel 3reverse channel	N/Adate	2019/09/14time	07:52:35forward acquisition time	60.00reverse acquisition time	0.00gamma	496.2192k internal	0.2337k external	0.2337temperature offset calibration	1.0053default loss term (dB/km)	0.3790temperature slope calibration	1.0000multiplexer offset coefficient	1.0000multiplexer slope coefficient	1.0000fibre end	0.00T internal ref (°C)	26.56T ext. ref 1 (°C)	3.50T ext. ref 2 (°C)	23.32length (m)	temperature (°C)	Stokes	anti-Stokes-747.200	-93.882	-0.108	0.030
-746.185	-200.000	-0.005	0.204
-745.171	32.205	-0.169	-0.146
-744.156	-101.334	-0.194	-0.047
-743.142	83.386	-0.121	0.132
-742.127	800.000	0.038	0.132
-741.112	58.420	-0.078	0.077
-740.098	-200.000	0.009	0.103
-739.083	-136.359	0.167	-0.019
-738.069	121.512	-0.089	0.111
-737.054	142.250	0.098	-0.131
-736.039	36.602	-0.154	-0.137
-735.025	106.675	0.131	0.156
-734.010	-200.000	-0.009	-0.132
-732.996	84.974	0.037	-0.041
-731.981	301.318	0.039	-0.073
-730.966	-15.267	-0.087	-0.056
-729.952	10.796	0.072	-0.055
-728.937	25.154	-0.187	-0.156
-727.923	-85.459	-0.268	0.084
-726.908	-200.000	0.013	-0.222
-725.894	248.689	-0.185	-0.315
-724.879	-146.503	-0.436	0.038
-723.864	800.000	0.061	-0.224
-722.850	232.556	0.182	-0.300
-721.835	-106.590	-0.178	-0.040
-720.821	800.000	-0.010	-0.029
-719.806	-141.449	0.451	0.046
-718.791	-99.891	-0.196	-0.049
-717.777	-200.000	-0.038	0.200
-716.762	2.260	-0.161	0.117
-715.748	-200.000	-0.026	0.148
-714.733	-176.859	-0.110	0.003
-713.718	284.449	0.231	-0.417
-712.704	-122.915	0.124	0.020
-711.689	7.231	-0.113	-0.085
-710.675	800.000	0.101	-0.387
-709.660	261.392	-0.113	0.196
-708.645	-200.000	-0.007	0.369
-707.631	-59.176	0.051	-0.022
-706.616	111.131	-0.124	0.149
-705.602	-200.000	-0.083	-0.377
-704.587	-7.810	0.207	0.140
-703.572	-119.773	0.164	0.028
-702.558	-98.807	-0.301	0.077
-701.543	-200.000	0.014	-0.267
-700.529	-35.058	-0.186	-0.101
-699.514	-8.477	0.187	-0.126
-698.499	-132.349	-0.258	0.033
-697.485	472.341	-0.033	-0.073
-696.470	-42.626	-0.086	-0.044
-695.456	330.482	-0.050	-0.097
-694.441	150.466	0.230	0.312
-693.426	-200.000	-0.012	0.072
-692.412	-135.445	0.250	-0.030
-691.397	96.280	-0.077	0.088
-690.383	388.735	0.090	0.186
-689.368	800.000	0.041	0.166
-688.354	-200.000	0.012	0.061
-687.339	-144.348	-0.223	-0.021
-686.324	615.939	0.172	-0.433
-685.310	-61.759	-0.259	-0.109
-684.295	-154.155	0.026	0.002
-683.281	800.000	0.059	-0.172
-682.266	242.445	0.120	-0.202
-681.251	-200.000	-0.040	-0.211
-680.237	-48.235	0.371	0.179
-679.222	3.461	-0.060	-0.044
-678.208	-200.000	-0.022	0.336
-677.193	800.000	0.103	-0.385
-676.178	800.000	0.053	-0.194
-675.164	-50.322	-0.330	0.156
-674.149	172.575	0.022	-0.032
-673.135	-12.680	-0.087	-0.056
-672.120	-106.078	0.307	-0.069
-671.105	740.493	-0.030	-0.082
-670.091	-83.126	0.216	-0.070
-669.076	-200.000	0.012	-0.079
-668.062	-200.000	0.038	-0.180
-667.047	59.349	-0.142	-0.140
-666.032	-56.989	0.255	-0.112
-665.018	281.582	-0.124	-0.221
-664.003	-200.000	0.032	-0.198
-662.989	1.403	-0.173	0.125
-661.974	396.957	0.052	0.108
-660.959	-113.138	0.104	-0.020
-659.945	312.329	0.067	-0.126
-658.930	84.158	0.066	0.072
-657.916	-24.880	-0.128	0.076
-656.901	-34.633	-0.134	0.073
-655.886	84.700	-0.192	-0.211
-654.872	14.423	-0.258	0.201
-653.857	34.342	-0.204	0.178
-652.843	-169.805	-0.192	-0.007
-651.828	800.000	-0.038	0.161
-650.814	-157.557	-0.271	0.016
-649.799	38.448	-0.140	0.124
-648.784	-10.423	0.160	-0.106
-647.770	-200.000	-0.035	-0.168
-646.755	-164.623	-0.424	0.019
-645.741	-92.141	-0.269	-0.076
-644.726	-71.264	-0.061	0.023
-643.711	-148.417	0.203	-0.017
-642.697	203.125	0.258	-0.399
-641.682	102.187	-0.102	-0.119
-640.668	-24.716	0.284	-0.169
-639.653	-200.000	-0.000	0.403
-638.638	-4.810	0.236	0.163
-637.624	-200.000	0.005	0.060
-636.609	-114.596	-0.077	-0.015
-635.595	800.000	-0.052	-0.170
-634.580	-105.993	-0.127	-0.029
-633.565	-148.244	-0.190	0.016
-632.551	-200.000	-0.033	0.256
-631.536	372.259	-0.077	-0.157
-630.522	800.000	0.055	-0.217
-629.507	800.000	0.060	-0.237
-628.492	-200.000	-0.014	-0.157
-627.478	-119.329	-0.321	0.056
-626.463	-200.000	-0.030	-0.152
-625.449	202.903	0.116	0.179
-624.434	-200.000	-0.017	-0.125
-623.419	94.433	0.055	0.062
-622.405	122.572	0.132	-0.165
-621.390	-140.406	0.362	-0.038
-620.376	137.659	0.204	0.266
-619.361	-84.339	-0.205	0.065
-618.346	112.896	-0.097	0.117
-617.332	800.000	0.043	-0.157
-616.317	114.962	-0.201	-0.245
-615.303	-116.668	-0.160	-0.029
-614.288	-83.016	-0.263	0.085
-613.273	162.764	0.133	-0.187
-612.259	-65.325	0.027	-0.011
-611.244	34.039	0.014	0.012
-610.230	-170.483	0.101	-0.004
-609.215	-74.900	0.098	-0.035
-608.201	6.329	0.073	-0.054
-607.186	87.382	0.237	-0.262
-606.171	-36.659	-0.142	-0.076
-605.157	100.697	-0.113	0.131
-604.142	433.688	-0.081	0.176
-603.128	-36.814	0.287	0.154
-602.113	-87.977	0.212	-0.063
-601.098	-89.127	0.190	-0.056
-600.084	-200.000	0.017	-0.225
-599.069	-51.796	0.168	0.078
-598.055	147.883	-0.142	0.191
-597.040	132.293	-0.184	-0.237
-596.025	-68.205	-0.180	0.070
-595.011	-150.201	-0.331	-0.026
-593.996	21.139	0.139	-0.113
-592.982	-47.286	0.103	-0.050
-591.967	-99.497	0.327	0.082
-590.952	226.209	0.184	0.297
-589.938	800.000	-0.080	0.262
-588.923	0.897	0.311	0.222
-587.909	-200.000	0.100	-0.488
-586.894	-161.757	-0.081	0.004
-585.879	260.149	0.190	0.328
-584.865	-125.194	0.269	-0.041
-583.850	5.082	-0.464	-0.341
-582.836	800.000	0.014	-0.056
-581.821	800.000	0.101	-0.396
-580.806	-150.767	-0.193	0.015
-579.792	373.557	-0.115	-0.233
-578.777	92.749	-0.252	0.284
-577.763	8.602	0.274	0.205
-576.748	-101.865	-0.117	0.028
-575.733	287.546	-0.072	0.131
-574.719	4.437	-0.163	0.119
-573.704	40.122	-0.150	-0.134
-572.690	318.725	-0.103	0.195
-571.675	176.892	0.039	-0.056
-570.661	800.000	-0.045	0.143
-569.646	-200.000	-0.015	-0.202
-568.631	-132.540	0.129	0.017
-567.617	-158.438	0.070	0.004
-566.602	-200.000	0.064	0.311
-565.588	800.000	0.081	-0.330
-564.573	-90.854	-0.144	0.041
-563.558	61.107	-0.098	0.097
-562.544	561.846	-0.165	0.397
-561.529	-173.010	0.109	-0.003
-560.515	-33.700	0.087	0.048
-559.500	159.998	-0.181	-0.251
-558.485	800.000	-0.055	-0.158
-557.471	-26.540	-0.151	0.088
-556.456	99.752	0.216	-0.250
-555.442	-104.048	0.572	0.133
-554.427	376.539	0.147	0.299
-553.412	159.668	-0.145	-0.202
-552.398	-127.314	0.076	-0.011
-551.383	-90.953	-0.343	0.098
-550.369	-41.241	-0.123	-0.063
-549.354	68.456	0.358	-0.365
-548.339	109.315	0.174	0.207
-547.325	88.400	0.170	0.188
-546.310	-200.000	0.008	-0.120
-545.296	390.049	0.149	-0.307
-544.281	-200.000	0.054	0.258
-543.266	-98.931	-0.094	0.024
-542.252	-120.200	0.558	-0.095
-541.237	-200.000	-0.016	-0.242
-540.223	-110.141	-0.363	0.075
-539.208	69.197	-0.108	-0.111
-538.193	-200.000	0.016	0.270
-537.179	-70.252	-0.151	0.057
-536.164	800.000	0.080	0.257
-535.150	588.135	0.091	0.223
-534.135	41.285	0.273	0.245
-533.121	24.064	-0.207	-0.170
-532.106	-145.842	0.312	0.028
-531.091	-191.650	-0.155	0.002
-530.077	-200.000	0.000	0.187
-529.062	-200.000	-0.013	0.164
-528.048	-200.000	-0.013	-0.140
-527.033	463.609	-0.134	-0.298
-526.018	-34.554	0.209	0.114
-525.004	-27.684	0.179	-0.103
-523.989	424.469	-0.101	-0.215
-522.975	-200.000	-0.029	-0.232
-521.960	9.465	-0.165	-0.124
-520.945	-139.299	-0.498	0.053
-519.931	-164.420	0.122	-0.006
-518.916	126.777	-0.121	-0.153
-517.902	371.487	-0.043	-0.087
-516.887	-59.925	-0.131	0.056
-515.872	8.433	0.155	0.116
-514.858	-78.071	0.029	0.010
-513.843	800.000	-0.055	-0.165
-512.829	-200.000	0.040	0.343
-511.814	146.116	0.152	-0.203
-510.799	800.000	0.027	-0.079
-509.785	452.151	0.074	0.162
-508.770	-200.000	0.007	-0.194
-507.756	-16.864	-0.300	-0.189
-506.741	800.000	0.112	-0.396
-505.726	-42.697	0.131	-0.066
-504.712	-104.835	-0.277	0.063
-503.697	-121.974	-0.248	-0.041
-502.683	323.806	-0.099	-0.189
-501.668	-23.542	-0.206	0.123
-500.653	409.641	0.057	0.120
-499.639	-200.000	-0.041	0.310
-498.624	287.544	-0.134	0.240
-497.610	-138.335	-0.403	-0.044
-496.595	207.057	0.075	0.117
-495.581	180.186	0.128	-0.186
-494.566	239.627	-0.121	0.200
-493.551	-200.000	-0.007	0.275
-492.537	368.382	-0.098	-0.198
-491.522	23.399	-0.036	-0.030
-490.508	-200.000	0.105	0.474
-489.493	-50.461	0.267	-0.125
-488.478	-71.681	0.110	0.041
-487.464	549.820	-0.011	-0.025
-486.449	-75.417	-0.115	0.041
-485.435	320.054	-0.096	0.182
-484.420	594.448	0.134	-0.330
-483.405	800.000	-0.087	0.280
-482.391	-74.211	-0.075	-0.027
-481.376	-200.000	-0.010	0.145
-480.362	-55.736	0.164	0.073
-479.347	-200.000	-0.002	-0.089
-478.332	800.000	0.060	-0.259
-477.318	95.483	0.239	0.271
-476.303	-200.000	0.028	-0.136
-475.289	135.035	0.140	-0.181
-474.274	-177.500	-0.137	0.003
-473.259	-28.659	-0.294	-0.168
-472.245	-200.000	-0.003	-0.238
-471.230	50.519	0.171	-0.160
-470.216	497.453	-0.011	0.025
-469.201	-67.073	0.232	-0.091
-468.186	282.485	0.151	0.270
-467.172	8.705	-0.416	-0.311
-466.157	-186.797	-0.228	0.003
-465.143	411.104	0.113	-0.238
-464.128	-59.500	0.261	-0.111
-463.113	101.409	-0.135	0.156
-462.099	336.278	-0.156	0.301
-461.084	-32.229	-0.163	-0.090
-460.070	-200.000	-0.020	-0.126
-459.055	-200.000	0.072	-0.391
-458.040	-54.715	-0.247	0.111
-457.026	-72.121	0.131	0.048
-456.011	54.099	0.187	-0.178
-454.997	114.310	0.122	-0.147
-453.982	800.000	0.104	0.389
-452.968	-200.000	-0.033	-0.220
-451.953	327.488	-0.037	-0.070
-450.938	-99.492	-0.093	0.023
-449.924	800.000	-0.101	0.318
-448.909	285.648	-0.075	0.135
-447.895	-123.353	0.352	0.056
-446.880	-200.000	0.037	0.247
-445.865	-170.051	0.153	0.005
-444.851	73.491	-0.103	0.107
-443.836	596.847	-0.070	0.172
-442.822	-77.781	0.285	-0.098
-441.807	464.366	-0.055	-0.121
-440.792	-139.036	0.056	0.006
-439.778	312.977	0.075	-0.140
-438.763	63.925	0.019	0.019
-437.749	-19.324	-0.131	0.081
-436.734	-32.360	-0.168	-0.093
-435.719	61.108	0.243	-0.239
-434.705	-195.293	-0.145	-0.001
-433.690	-76.295	-0.290	0.101
-432.676	-200.000	-0.068	-0.296
-431.661	-126.760	0.326	0.048
-430.646	362.962	-0.086	0.171
-429.632	-24.336	-0.039	-0.023
-428.617	-99.907	0.213	0.053
-427.603	501.223	-0.064	-0.146
-426.588	189.793	-0.162	0.241
-425.573	152.862	0.002	0.003
-424.559	800.000	-0.034	-0.119
-423.544	-155.747	-0.219	0.014
-422.530	99.362	-0.064	0.073
-421.515	-45.628	0.202	0.099
-420.500	-122.288	0.428	-0.069
-419.486	55.629	-0.317	-0.305
-418.471	-126.170	0.319	-0.047
-417.457	-200.000	-0.006	0.043
-416.442	653.248	-0.144	0.366
-415.428	-200.000	0.015	0.135
-414.413	-17.500	0.275	0.171
-413.398	-200.000	-0.014	0.138
-412.384	-200.000	0.038	0.484
-411.369	523.791	-0.066	-0.154
-410.355	-200.000	-0.056	-0.282
-409.340	-33.310	0.012	-0.006
-408.325	-189.247	-0.269	-0.003
-407.311	-101.731	0.124	0.030
-406.296	-86.881	-0.125	-0.038
-405.282	525.826	-0.067	0.155
-404.267	-200.000	-0.013	-0.075
-403.252	-200.000	0.023	0.101
-402.238	22.416	-0.171	-0.139
-401.223	-142.962	0.126	-0.012
-400.209	-108.969	-0.363	-0.077
-399.194	71.714	-0.272	-0.280
-398.179	-8.874	0.259	0.172
-397.165	21.577	-0.138	-0.111
-396.150	800.000	-0.129	0.411
-395.136	-26.317	0.060	0.035
-394.121	800.000	0.055	-0.234
-393.106	-6.393	0.178	0.120
-392.092	-200.000	0.024	0.157
-391.077	94.955	0.089	0.100
-390.063	-149.834	-0.137	0.011
-389.048	-50.374	0.165	0.077
-388.033	-200.000	-0.022	-0.365
-387.019	-105.114	-0.195	-0.044
-386.004	94.000	0.081	-0.091
-384.990	-8.042	-0.328	-0.219
-383.975	579.895	-0.075	0.182
-382.960	-43.096	0.164	-0.082
-381.946	800.000	0.045	0.158
-380.931	-54.685	0.110	0.049
-379.917	260.819	0.150	0.256
-378.902	424.214	0.123	-0.261
-377.888	268.704	0.136	-0.235
-376.873	800.000	-0.059	0.189
-375.858	100.329	-0.085	-0.097
-374.844	-119.816	-0.143	-0.024
-373.829	-200.000	0.116	0.001
-372.815	-145.115	-0.283	-0.025
-371.800	105.134	-0.007	0.008
-370.785	110.964	-0.359	0.427
-369.771	-200.000	-0.036	-0.187
-368.756	137.752	0.201	-0.260
-367.742	528.009	0.077	-0.180
-366.727	-66.085	-0.069	0.027
-365.712	-149.303	-0.129	0.010
-364.698	-200.000	-0.005	0.204
-363.683	-98.757	-0.024	-0.006
-362.669	14.262	0.145	0.112
-361.654	-117.709	-0.262	-0.047
-360.639	800.000	0.076	0.237
-359.625	-139.232	-0.174	0.019
-358.610	-200.000	0.011	0.433
-357.596	219.608	-0.108	-0.171
-356.581	12.176	0.065	0.049
-355.566	800.000	-0.030	-0.124
-354.552	-85.041	0.203	-0.063
-353.537	-200.000	0.000	-0.134
-352.523	800.000	0.043	0.138
-351.508	648.158	-0.019	-0.049
-350.493	-200.000	0.008	-0.112
-349.479	-149.843	0.057	0.004
-348.464	800.000	-0.014	0.061
-347.450	-100.970	-0.124	-0.030
-346.435	125.042	-0.029	-0.036
-345.420	36.063	0.114	-0.099
-344.406	-83.063	0.264	0.084
-343.391	-200.000	-0.001	-0.040
-342.377	-73.784	-0.249	-0.089
-341.362	1.614	-0.174	0.124
-340.348	634.826	-0.048	-0.121
-339.333	-28.756	-0.286	0.163
-338.318	-119.664	0.269	-0.046
-337.304	-200.000	0.003	0.016
-336.289	-25.256	-0.128	0.075
-335.275	61.142	-0.297	0.291
-334.260	149.467	-0.127	0.170
-333.245	151.039	-0.026	-0.034
-332.231	-200.000	-0.011	-0.073
-331.216	-1.169	0.204	-0.143
-330.202	800.000	-0.038	0.132
-329.187	-48.691	0.048	-0.023
-328.172	-200.000	-0.014	-0.351
-327.158	-122.018	0.166	-0.027
-326.143	37.380	-0.288	-0.252
-325.129	-155.832	0.285	0.018
-324.114	-200.000	-0.015	0.097
-323.099	216.044	0.091	-0.143
-322.085	-200.000	-0.011	0.179
-321.070	676.930	-0.072	-0.185
-320.056	-92.484	-0.198	0.055
-319.041	142.592	0.081	0.106
-318.026	198.544	-0.078	0.117
-317.012	-200.000	0.003	-0.325
-315.997	800.000	-0.027	-0.117
-314.983	168.053	-0.188	-0.264
-313.968	800.000	0.069	-0.238
-312.953	113.114	-0.060	0.072
-311.939	-200.000	-0.002	0.173
-310.924	-23.431	0.060	0.036
-309.910	-32.383	0.460	-0.253
-308.895	-27.925	-0.122	0.070
-307.880	-112.624	0.284	-0.056
-306.866	374.236	0.026	0.051
-305.851	352.440	0.034	0.067
-304.837	-200.000	0.033	-0.175
-303.822	800.000	-0.067	0.193
-302.807	-200.000	-0.028	-0.223
-301.793	75.423	-0.033	0.034
-300.778	62.698	0.189	0.187
-299.764	-177.201	-0.226	0.006
-298.749	-83.166	0.173	-0.055
-297.735	-98.383	0.079	0.020
-296.720	800.000	0.030	0.088
-295.705	800.000	0.112	0.351
-294.691	800.000	-0.022	-0.084
-293.676	379.180	0.207	-0.418
-292.662	-200.000	0.064	-0.306
-291.647	-129.263	0.232	-0.032
-290.632	-40.109	-0.262	-0.135
-289.618	329.160	-0.182	-0.344
-288.603	-200.000	-0.046	0.335
-287.589	800.000	0.042	-0.167
-286.574	51.296	0.124	0.116
-285.559	800.000	-0.127	0.363
-284.545	294.079	-0.071	-0.128
-283.530	-21.043	0.226	-0.137
-282.516	111.763	-0.097	-0.116
-281.501	20.897	0.131	-0.104
-280.486	649.216	0.017	0.042
-279.472	92.670	0.080	-0.089
-278.457	706.494	-0.121	0.316
-277.443	-114.815	-0.105	0.020
-276.428	-122.764	0.255	0.041
-275.413	157.230	-0.184	-0.251
-274.399	-200.000	-0.024	0.111
-273.384	-66.753	-0.291	0.114
-272.370	115.661	0.181	0.218
-271.355	800.000	-0.135	0.453
-270.340	15.804	-0.129	0.100
-269.326	-38.758	0.258	-0.134
-268.311	103.076	-0.046	-0.053
-267.297	-123.115	-0.076	-0.012
-266.282	800.000	-0.060	-0.179
-265.267	800.000	-0.095	0.368
-264.253	140.349	0.143	-0.186
-263.238	14.942	-0.240	0.185
-262.224	-192.050	-0.317	-0.003
-261.209	-42.485	-0.233	0.117
-260.195	-181.944	0.276	0.005
-259.180	186.857	-0.099	-0.145
-258.165	-67.161	0.116	-0.045
-257.151	304.471	0.113	0.206
-256.136	-66.568	-0.067	0.026
-255.122	-23.686	-0.152	0.090
-254.107	800.000	-0.046	-0.146
-253.092	342.063	-0.092	0.178
-252.078	179.414	-0.144	-0.207
-251.063	-79.469	-0.293	0.097
-250.049	-110.618	-0.359	-0.073
-249.034	800.000	0.070	0.267
-248.019	-116.680	0.200	0.036
-247.005	-48.406	-0.133	0.063
-245.990	-106.496	0.106	-0.023
-244.976	-65.405	0.298	0.118
-243.961	105.733	-0.184	0.214
-242.946	-53.675	0.119	0.054
-241.932	-190.011	-0.158	0.002
-240.917	-62.136	0.388	0.159
-239.903	-66.574	0.426	0.166
-238.888	141.475	0.075	-0.098
-237.873	-200.000	-0.035	-0.499
-236.859	313.643	-0.059	0.109
-235.844	-10.248	0.052	-0.034
-234.830	-124.709	-0.318	-0.048
-233.815	362.373	0.099	-0.196
-232.800	41.091	-0.327	0.290
-231.786	-200.000	-0.016	-0.171
-230.771	-3.772	0.166	-0.114
-229.757	-200.000	-0.010	0.261
-228.742	800.000	-0.105	0.290
-227.727	644.034	0.090	0.225
-226.713	-27.430	0.050	-0.029
-225.698	452.928	0.052	-0.112
-224.684	-200.000	-0.038	-0.203
-223.669	451.393	0.008	0.018
-222.655	204.219	0.233	-0.356
-221.640	-47.813	0.222	-0.106
-220.625	-85.657	0.613	0.187
-219.611	-200.000	0.030	-0.149
-218.596	34.819	-0.116	0.099
-217.582	-38.300	0.372	0.194
-216.567	18.079	0.232	0.182
-215.552	-200.000	0.029	0.197
-214.538	-108.341	0.100	0.021
-213.523	149.123	-0.271	-0.360
-212.509	700.847	0.069	0.179
-211.494	257.979	0.088	-0.148
-210.479	14.998	0.165	-0.127
-209.465	707.682	-0.095	-0.247
-208.450	-123.951	-0.441	0.068
-207.436	800.000	0.061	0.196
-206.421	247.233	0.027	-0.045
-205.406	160.825	0.060	-0.082
-204.392	68.427	-0.145	0.146
-203.377	-200.000	0.024	0.217
-202.363	124.327	0.186	0.229
-201.348	-29.091	0.138	-0.078
-200.333	-200.000	-0.002	0.320
-199.319	165.376	0.037	0.051
-198.304	-19.101	-0.243	0.149
-197.290	711.518	0.078	-0.203
-196.275	243.884	0.049	0.080
-195.260	-36.155	-0.417	-0.221
-194.246	25.464	0.224	-0.183
-193.231	-200.000	0.041	-0.188
-192.217	223.778	-0.226	-0.358
-191.202	-200.000	0.000	0.296
-190.187	539.537	0.035	-0.081
-189.173	-92.750	0.187	-0.052
-188.158	63.104	0.132	0.130
-187.144	-10.157	-0.269	-0.175
-186.129	-26.966	0.312	0.179
-185.114	-200.000	-0.015	0.146
-184.100	800.000	0.051	-0.168
-183.085	222.712	-0.063	-0.099
-182.071	-200.000	0.011	-0.144
-181.056	117.273	0.166	0.200
-180.042	-47.513	0.107	0.051
-179.027	-1.712	-0.089	0.062
-178.012	296.841	0.187	0.336
-176.998	800.000	-0.058	0.194
-175.983	-39.102	0.112	-0.058
-174.969	-79.521	-0.116	-0.038
-173.954	121.553	-0.344	-0.421
-172.939	89.438	-0.163	-0.178
-171.925	-48.678	0.117	0.055
-170.910	181.639	0.166	0.240
-169.896	171.409	-0.139	0.195
-168.881	-200.000	-0.010	0.084
-167.866	-93.818	-0.193	-0.052
-166.852	800.000	-0.031	0.123
-165.837	-200.000	0.016	0.206
-164.823	-60.833	-0.094	-0.039
-163.808	616.451	0.032	-0.078
-162.793	-46.288	-0.132	-0.064
-161.779	-86.875	0.213	-0.064
-160.764	800.000	0.083	-0.263
-159.750	79.163	-0.093	0.098
-158.735	-200.000	-0.029	0.158
-157.720	-57.842	0.269	0.116
-156.706	800.000	0.059	-0.194
-155.691	-66.446	0.133	-0.052
-154.677	50.320	0.092	0.085
-153.662	-95.986	-0.125	-0.033
-152.647	377.687	-0.153	0.307
-151.633	800.000	0.056	-0.187
-150.618	800.000	-0.136	-0.475
-149.604	-200.000	-0.027	0.182
-148.589	507.453	0.161	0.366
-147.574	-120.993	-0.103	0.017
-146.560	87.298	-0.204	0.221
-145.545	-200.000	0.002	-0.154
-144.531	262.564	0.100	-0.171
-143.516	-79.061	-0.053	0.018
-142.502	108.472	0.085	0.100
-141.487	295.998	-0.140	-0.252
-140.472	-102.028	0.145	-0.034
-139.458	800.000	-0.070	-0.254
-138.443	-42.035	-0.239	-0.120
-137.429	800.000	0.030	0.117
-136.414	-200.000	0.032	0.165
-135.399	-143.743	-0.069	0.006
-134.385	109.318	-0.112	0.131
-133.370	1.954	0.268	-0.190
-132.356	623.828	0.090	-0.222
-131.341	428.641	0.186	-0.395
-130.326	441.404	0.142	0.304
-129.312	-105.702	0.074	0.016
-128.297	341.861	0.055	-0.105
-127.283	800.000	-0.099	0.293
-126.268	13.799	-0.014	-0.011
-125.253	584.851	-0.076	0.182
-124.239	-162.639	0.429	-0.021
-123.224	-200.000	-0.015	0.256
-122.210	-113.869	-0.115	0.022
