DTS Sentinel unit serial number:	SN413079Multiplexer serial number:	ORYXHardware model number:	OX4-SRSoftware version number:	ORYX F/W v4.00 Oryx Data Collector v3.7.2.0data status	okinstallation	princeton_trtdifferential loss correction	single-endedforward channel	channel 3reverse channel	N/Adate	2019/09/17time	19:44:35forward acquisition time	60.00reverse acquisition time	0.00gamma	496.2192k internal	0.2316k external	0.2316temperature offset calibration	0.9952default loss term (dB/km)	0.3790temperature slope calibration	1.0000multiplexer offset coefficient	1.0000multiplexer slope coefficient	1.0000fibre end	0.00T internal ref (°C)	34.95T ext. ref 1 (°C)	0.23T ext. ref 2 (°C)	24.31length (m)	temperature (°C)	Stokes	anti-Stokes-747.200	67.237	-0.237	-0.245
-746.185	-200.000	-0.033	0.151
-745.171	162.405	0.221	0.314
-744.156	46.411	-0.317	0.298
-743.142	408.362	-0.146	0.313
-742.127	800.000	-0.080	0.235
-741.112	-11.806	-0.177	0.118
-740.098	740.186	-0.081	0.220
-739.083	-86.454	0.248	0.077
-738.069	94.040	-0.238	0.273
-737.054	259.751	-0.165	0.288
-736.039	489.252	0.075	-0.174
-735.025	-200.000	0.006	0.071
-734.010	304.582	-0.046	-0.087
-732.996	-109.046	-0.266	0.057
-731.981	-5.885	-0.099	-0.069
-730.966	800.000	0.022	-0.067
-729.952	-200.000	0.069	-0.528
-728.937	-122.776	-0.279	0.046
-727.923	326.428	-0.103	-0.199
-726.908	800.000	-0.064	-0.189
-725.894	-139.305	-0.174	-0.019
-724.879	127.989	-0.104	0.134
-723.864	645.836	-0.071	-0.185
-722.850	48.719	-0.152	-0.144
-721.835	671.109	0.142	-0.371
-720.821	14.589	-0.190	-0.150
-719.806	135.093	0.025	-0.033
-718.791	-33.253	-0.250	0.140
-717.777	-200.000	-0.075	0.000
-716.762	-37.785	-0.095	-0.051
-715.748	188.088	-0.339	0.512
-714.733	1.847	-0.122	-0.089
-713.718	28.883	-0.210	-0.180
-712.704	-91.509	0.243	-0.070
-711.689	800.000	-0.127	-0.409
-710.675	-53.936	-0.119	-0.055
-709.660	-44.470	-0.199	0.101
-708.645	47.330	0.313	-0.295
-707.631	110.264	0.052	-0.063
-706.616	183.891	0.035	0.052
-705.602	-0.059	-0.282	-0.203
-704.587	-33.185	-0.054	-0.030
-703.572	-129.101	0.197	-0.028
-702.558	124.246	0.181	0.230
-701.543	-76.320	-0.063	-0.023
-700.529	718.764	0.139	-0.375
-699.514	-147.261	0.112	-0.010
-698.499	219.388	-0.097	-0.158
-697.485	368.843	0.090	-0.184
-696.470	601.406	0.074	-0.187
-695.456	-200.000	-0.006	0.225
-694.441	8.415	0.127	0.096
-693.426	117.350	-0.034	0.043
-692.412	157.528	-0.088	-0.123
-691.397	296.041	0.099	-0.183
-690.383	83.311	0.211	-0.232
-689.368	-32.175	0.320	-0.181
-688.354	-200.000	0.018	0.092
-687.339	147.944	-0.141	0.192
-686.324	324.486	0.070	-0.134
-685.310	115.455	-0.068	-0.084
-684.295	800.000	-0.092	0.327
-683.281	-108.444	0.109	0.024
-682.266	448.848	-0.118	-0.263
-681.251	339.900	-0.093	-0.184
-680.237	5.189	0.340	-0.253
-679.222	-4.750	-0.230	0.160
-678.208	590.021	0.053	-0.131
-677.193	77.871	-0.228	-0.246
-676.178	-136.094	-0.110	-0.013
-675.164	232.407	-0.009	0.015
-674.149	-200.000	0.000	-0.186
-673.135	117.353	-0.077	0.095
-672.120	-36.971	-0.215	0.116
-671.105	-58.551	-0.317	0.139
-670.091	-200.000	0.015	0.293
-669.076	-200.000	0.008	-0.145
-668.062	800.000	-0.102	0.323
-667.047	5.602	0.142	-0.106
-666.032	-200.000	0.001	0.231
-665.018	-118.512	0.331	0.059
-664.003	-200.000	-0.043	-0.319
-662.989	-160.413	0.118	-0.006
-661.974	30.525	-0.192	0.166
-660.959	207.460	0.009	-0.014
-659.945	-200.000	-0.006	0.188
-658.930	-58.144	-0.348	-0.153
-657.916	800.000	0.068	-0.206
-656.901	-2.084	0.139	0.099
-655.886	68.475	0.166	0.172
-654.872	206.774	-0.103	0.162
-653.857	-51.217	-0.104	-0.049
-652.843	-55.536	-0.023	-0.010
-651.828	140.046	0.049	0.065
-650.814	-200.000	0.055	0.247
-649.799	268.641	0.094	-0.166
-648.784	800.000	0.022	-0.092
-647.770	800.000	-0.065	0.203
-646.755	-151.639	-0.420	-0.031
-645.741	800.000	0.047	-0.185
-644.726	-200.000	-0.005	-0.162
-643.711	-19.800	0.192	-0.120
-642.697	-200.000	0.012	-0.161
-641.682	-200.000	0.041	0.198
-640.668	-169.099	-0.431	0.016
-639.653	-27.361	-0.230	0.135
-638.638	91.732	0.194	-0.220
-637.624	-135.254	-0.301	-0.036
-636.609	-96.391	-0.124	-0.033
-635.595	800.000	-0.090	-0.358
-634.580	522.008	-0.076	-0.180
-633.565	-200.000	-0.075	-0.436
-632.551	-31.430	-0.162	-0.092
-631.536	48.401	0.119	-0.113
-630.522	800.000	-0.071	0.273
-629.507	-64.952	0.215	-0.088
-628.492	470.763	-0.035	-0.079
-627.478	-90.099	-0.149	-0.044
-626.463	-137.908	-0.209	0.024
-625.449	-200.000	0.034	-0.309
-624.434	480.893	-0.105	-0.240
-623.419	-125.754	0.132	0.020
-622.405	356.583	-0.128	-0.256
-621.390	-200.000	-0.056	0.283
-620.376	-11.627	0.187	0.124
-619.361	159.704	-0.103	-0.145
-618.346	-130.212	0.158	0.022
-617.332	743.007	-0.112	-0.303
-616.317	-17.844	0.254	-0.161
-615.303	-200.000	0.030	-0.223
-614.288	23.211	-0.107	-0.089
-613.273	-71.833	0.270	0.101
-612.259	-200.000	-0.012	-0.136
-611.244	262.546	-0.093	-0.162
-610.230	-63.343	0.236	-0.098
-609.215	-200.000	-0.043	0.250
-608.201	-123.147	-0.339	0.055
-607.186	-200.000	0.028	0.239
-606.171	-200.000	0.003	-0.046
-605.157	-21.247	0.200	-0.123
-604.142	5.231	-0.209	-0.155
-603.128	75.478	0.131	0.140
-602.113	140.999	-0.096	-0.128
-601.098	-5.394	-0.353	-0.244
-600.084	-200.000	0.001	-0.025
-599.069	-137.468	0.308	-0.035
-598.055	800.000	0.032	-0.105
-597.040	-200.000	-0.044	-0.208
-596.025	1.206	-0.104	-0.075
-595.011	45.404	0.384	0.357
-593.996	-36.714	-0.278	0.150
-592.982	122.896	-0.116	-0.146
-591.967	-200.000	0.006	0.221
-590.952	33.819	0.437	-0.383
-589.938	-200.000	0.004	-0.150
-588.923	800.000	-0.138	0.436
-587.909	35.367	-0.138	-0.122
-586.894	-160.877	0.221	-0.012
-585.879	-89.406	0.274	-0.081
-584.865	-51.165	0.147	0.069
-583.850	-65.124	-0.219	-0.089
-582.836	68.661	-0.222	-0.229
-581.821	-200.000	0.089	-0.000
-580.806	-14.904	-0.149	0.096
-579.792	-200.000	-0.003	0.072
-578.777	75.000	0.276	-0.293
-577.763	411.791	-0.100	-0.215
-576.748	-144.733	-0.154	0.014
-575.733	-30.529	0.196	-0.112
-574.719	-200.000	-0.000	-0.280
-573.704	-61.474	-0.262	-0.111
-572.690	-86.460	0.046	-0.014
-571.675	-2.493	-0.049	-0.034
-570.661	253.136	0.039	-0.067
-569.646	-200.000	-0.080	-0.641
-568.631	-137.096	-0.604	-0.069
-567.617	164.098	-0.019	-0.027
-566.602	36.650	-0.218	0.194
-565.588	406.374	-0.017	-0.037
-564.573	-8.200	-0.013	-0.009
-563.558	-127.030	0.103	-0.015
-562.544	-6.667	-0.174	-0.119
-561.529	33.989	0.171	0.150
-560.515	266.766	0.129	0.227
-559.500	14.549	0.060	0.047
-558.485	-200.000	0.058	-0.265
-557.471	-44.550	0.127	-0.064
-556.456	40.187	-0.140	0.126
-555.442	-38.214	0.215	-0.115
-554.427	163.950	0.192	-0.272
-553.412	133.588	-0.087	-0.114
-552.398	-44.498	0.182	0.092
-551.383	692.131	0.094	0.247
-550.369	-63.081	0.295	0.122
-549.354	238.379	-0.125	-0.208
-548.339	-200.000	0.035	-0.178
-547.325	110.645	0.022	0.026
-546.310	21.752	0.151	-0.124
-545.296	406.845	-0.109	0.232
-544.281	645.427	-0.085	0.218
-543.266	-94.423	0.372	-0.102
-542.252	-200.000	0.027	-0.158
-541.237	-200.000	0.008	-0.243
-540.223	298.897	-0.118	0.217
-539.208	21.223	0.154	-0.126
-538.193	250.546	0.123	-0.210
-537.179	-200.000	-0.008	-0.384
-536.164	77.006	0.031	0.033
-535.150	-67.519	-0.254	0.100
-534.135	251.606	0.052	-0.090
-533.121	-91.869	-0.065	0.019
-532.106	-24.357	-0.192	0.115
-531.091	173.140	0.116	0.168
-530.077	277.988	-0.186	0.333
-529.062	-200.000	0.004	-0.111
-528.048	-21.837	0.029	-0.018
-527.033	-200.000	-0.014	-0.098
-526.018	800.000	0.128	-0.419
-525.004	-200.000	0.040	0.178
-523.989	470.241	0.021	0.047
-522.975	44.294	-0.073	-0.068
-521.960	83.095	-0.073	0.080
-520.945	800.000	-0.061	0.173
-519.931	-200.000	-0.015	-0.074
-518.916	102.429	-0.181	0.213
-517.902	1.822	0.154	0.112
-516.887	181.782	-0.054	-0.080
-515.872	800.000	0.081	-0.269
-514.858	-71.603	0.324	0.121
-513.843	-200.000	-0.027	-0.247
-512.829	800.000	-0.017	-0.056
-511.814	25.168	-0.188	-0.157
-510.799	-90.758	0.112	-0.032
-509.785	28.780	-0.115	0.098
-508.770	-200.000	0.041	-0.190
-507.756	-38.271	0.377	0.200
-506.741	800.000	0.028	0.084
-505.726	109.551	-0.173	0.208
-504.712	-200.000	-0.081	0.358
-503.697	-200.000	-0.025	0.159
-502.683	-10.006	-0.228	0.152
-501.668	-48.462	-0.092	-0.044
-500.653	12.495	0.067	-0.052
-499.639	-143.619	-0.177	-0.017
-498.624	-101.765	0.045	-0.011
-497.610	-164.963	-0.239	-0.011
-496.595	3.477	0.125	0.091
-495.581	-175.674	-0.357	-0.010
-494.566	301.449	-0.067	-0.124
-493.551	172.583	-0.092	0.132
-492.537	83.104	-0.190	-0.208
-491.522	198.853	0.129	0.198
-490.508	800.000	-0.054	-0.198
-489.493	-27.878	-0.329	0.191
-488.478	505.623	-0.090	0.209
-487.464	300.831	-0.021	0.039
-486.449	175.807	0.184	-0.267
-485.435	800.000	0.066	0.210
-484.420	11.905	0.166	-0.128
-483.405	259.241	0.011	0.020
-482.391	-141.843	-0.109	0.011
-481.376	800.000	0.073	0.215
-480.362	-126.461	-0.272	0.041
-479.347	251.239	0.096	0.164
-478.332	-200.000	0.066	0.431
-477.318	800.000	-0.042	0.127
-476.303	304.384	-0.133	0.247
-475.289	62.555	0.111	-0.111
-474.274	203.781	0.223	-0.346
-473.259	48.812	0.057	-0.053
-472.245	14.638	-0.106	-0.083
-471.230	94.712	0.072	0.082
-470.216	322.153	0.156	-0.297
-469.201	602.796	-0.096	-0.239
-468.186	-111.537	0.071	0.014
-467.172	22.784	-0.095	0.078
-466.157	565.708	0.089	0.217
-465.143	262.812	-0.108	0.188
-464.128	9.810	0.300	0.228
-463.113	-200.000	-0.006	-0.062
-462.099	612.012	0.019	-0.049
-461.084	-112.918	-0.160	-0.032
-460.070	-80.431	0.286	-0.096
-459.055	-71.902	-0.239	0.089
-458.040	800.000	-0.085	-0.357
-457.026	49.473	0.031	-0.029
-456.011	764.844	-0.073	0.200
-454.997	-200.000	0.023	-0.147
-453.982	-200.000	0.049	0.262
-452.968	800.000	-0.097	-0.275
-451.953	-167.681	0.176	0.007
-450.938	366.955	-0.097	0.196
-449.924	800.000	-0.030	0.130
-448.909	-63.487	-0.343	0.141
-447.895	-61.706	-0.214	-0.090
-446.880	-200.000	0.009	0.069
-445.865	-86.504	0.232	-0.071
-444.851	59.890	0.195	0.193
-443.836	-96.636	-0.127	-0.034
-442.822	46.876	-0.263	0.244
-441.807	-102.122	-0.296	-0.071
-440.792	-200.000	-0.042	0.401
-439.778	-145.291	-0.128	-0.012
-438.763	15.536	-0.447	-0.351
-437.749	-94.465	0.052	0.014
-436.734	573.717	0.147	-0.358
-435.719	-87.900	0.218	0.066
-434.705	297.910	0.070	-0.128
-433.690	29.155	-0.115	-0.098
-432.676	-59.930	-0.106	-0.045
-431.661	-59.592	0.096	0.041
-430.646	-200.000	0.032	0.170
-429.632	363.348	0.007	0.014
-428.617	-161.217	0.191	0.010
-427.603	61.747	0.126	0.125
-426.588	800.000	-0.016	-0.048
-425.573	2.419	0.090	-0.065
-424.559	800.000	0.022	0.072
-423.544	133.976	-0.082	0.106
-422.530	-70.673	0.183	-0.069
-421.515	154.702	0.018	0.025
-420.500	800.000	0.063	0.222
-419.486	145.235	0.173	0.232
-418.471	-9.331	-0.246	-0.164
-417.457	-167.628	0.172	-0.007
-416.442	264.302	-0.141	0.245
-415.428	-122.373	-0.202	0.033
-414.413	-200.000	0.009	0.161
-413.398	683.620	-0.104	0.271
-412.384	133.425	0.110	-0.142
-411.369	-200.000	0.002	0.328
-410.355	-101.122	0.432	-0.106
-409.340	-200.000	0.001	0.085
-408.325	-115.795	-0.026	0.005
-407.311	127.972	0.078	0.099
-406.296	800.000	-0.047	-0.205
-405.282	-151.908	0.260	0.019
-404.267	800.000	0.071	0.238
-403.252	260.840	0.030	-0.053
-402.238	250.242	-0.171	-0.290
-401.223	-200.000	-0.004	-0.133
-400.209	-73.190	0.278	-0.102
-399.194	-103.534	-0.068	-0.016
-398.179	-60.553	0.291	0.123
-397.165	-21.649	-0.088	0.054
-396.150	48.193	0.154	-0.144
-395.136	-122.052	0.115	0.019
-394.121	113.592	0.160	0.194
-393.106	-200.000	-0.023	0.229
-392.092	332.412	0.148	0.286
-391.077	144.948	-0.121	0.161
-390.063	-3.360	0.159	-0.111
-389.048	18.033	-0.118	0.094
-388.033	17.791	0.239	-0.190
-387.019	800.000	-0.035	-0.148
-386.004	31.381	0.032	-0.028
-384.990	227.091	-0.069	-0.111
-383.975	132.773	-0.035	-0.045
-382.960	27.257	0.234	-0.196
-381.946	-192.301	-0.172	0.002
-380.931	153.469	0.224	0.306
-379.917	-48.298	0.204	0.098
-378.902	33.050	-0.203	0.176
-377.888	-52.843	0.215	-0.099
-376.873	-127.972	0.115	0.016
-375.858	-200.000	0.042	-0.474
-374.844	-200.000	-0.001	-0.181
-373.829	204.450	-0.131	0.203
-372.815	-200.000	-0.012	0.128
-371.800	800.000	-0.107	0.297
-370.785	-97.508	-0.208	0.054
-369.771	-92.996	-0.101	-0.028
-368.756	-42.698	-0.116	-0.059
-367.742	-200.000	-0.038	-0.227
-366.727	-200.000	0.040	-0.281
-365.712	18.343	0.156	0.124
-364.698	-118.299	-0.182	0.032
-363.683	-161.685	0.070	-0.004
-362.669	80.962	-0.060	-0.065
-361.654	-200.000	-0.006	-0.047
-360.639	-43.325	0.347	0.175
-359.625	-144.480	-0.181	-0.017
-358.610	390.631	0.054	0.112
-357.596	-115.397	0.161	0.030
-356.581	-23.311	-0.203	0.122
-355.566	-200.000	0.009	0.092
-354.552	101.713	0.153	0.178
-353.537	-48.103	0.233	-0.112
-352.523	-68.297	-0.628	0.244
-351.508	-134.362	0.337	0.041
-350.493	-200.000	0.044	0.276
-349.479	-156.081	-0.153	0.010
-348.464	22.107	0.134	0.109
-347.450	-18.724	0.190	-0.118
-346.435	800.000	0.052	0.190
-345.420	-70.561	-0.170	-0.064
-344.406	-68.327	0.214	0.083
-343.391	153.366	-0.104	-0.142
-342.377	-200.000	0.014	-0.071
-341.362	24.182	0.162	0.133
-340.348	-47.697	0.254	0.123
-339.333	800.000	0.115	0.375
-338.318	30.434	-0.330	0.282
-337.304	141.816	0.157	0.208
-336.289	-200.000	-0.008	-0.463
-335.275	19.301	-0.156	-0.125
-334.260	800.000	0.039	-0.164
-333.245	-200.000	-0.010	-0.114
-332.231	-114.926	0.134	-0.026
-331.216	-110.009	0.267	0.056
-330.202	68.208	0.164	0.167
-329.187	371.067	0.078	0.158
-328.172	-116.831	0.202	0.037
-327.158	800.000	-0.084	-0.343
-326.143	30.538	0.259	-0.221
-325.129	594.985	-0.010	-0.024
-324.114	99.557	-0.152	0.176
-323.099	-81.146	0.306	-0.101
-322.085	-200.000	0.043	0.266
-321.070	328.569	-0.136	0.261
-320.056	800.000	0.048	-0.180
-319.041	-200.000	-0.024	0.218
-318.026	-98.987	-0.360	-0.091
-317.012	332.513	-0.014	0.027
-315.997	213.100	0.175	0.275
-314.983	-19.576	0.255	0.157
-313.968	-34.202	0.066	0.036
-312.953	-200.000	-0.013	-0.180
-311.939	-16.097	-0.216	0.137
-310.924	207.627	-0.138	0.215
-309.910	433.161	0.071	0.154
-308.895	800.000	0.060	0.220
-307.880	391.860	0.040	-0.082
-306.866	-200.000	0.017	-0.140
-305.851	-34.564	-0.124	0.068
-304.837	-200.000	-0.023	0.119
-303.822	-200.000	-0.029	0.230
-302.807	50.750	0.059	-0.056
-301.793	-84.435	0.058	0.018
-300.778	-134.532	-0.151	0.018
-299.764	-110.757	0.098	0.020
-298.749	-10.906	-0.076	-0.050
-297.735	-137.309	-0.138	-0.016
-296.720	431.879	-0.031	-0.067
-295.705	-127.120	0.142	0.021
-294.691	-141.295	-0.277	0.028
-293.676	800.000	-0.071	0.205
-292.662	-34.294	0.204	0.112
-291.647	-41.169	-0.309	-0.159
-290.632	143.403	-0.026	-0.034
-289.618	-101.023	0.096	-0.023
-288.603	-16.188	-0.062	-0.039
-287.589	158.101	-0.102	-0.140
-286.574	-3.770	0.074	-0.051
-285.559	-20.434	-0.114	-0.070
-284.545	6.103	0.167	0.123
-283.530	-169.565	-0.299	-0.011
-282.516	-200.000	-0.005	0.218
-281.501	-200.000	0.020	0.140
-280.486	371.916	0.177	-0.358
-279.472	-120.351	0.140	-0.024
-278.457	-18.294	-0.108	-0.067
-277.443	-200.000	0.010	-0.145
-276.428	79.325	-0.127	-0.136
-275.413	-53.416	0.314	-0.143
-274.399	-114.629	0.267	0.051
-273.384	-100.379	0.186	-0.046
-272.370	-126.626	0.035	-0.005
-271.355	-200.000	-0.003	-0.029
-270.340	91.310	-0.111	0.123
-269.326	125.528	-0.019	0.024
-268.311	-91.545	0.373	0.106
-267.297	800.000	0.150	0.416
-266.282	65.088	-0.027	0.027
-265.267	40.835	0.277	-0.248
-264.253	82.309	-0.357	0.385
-263.238	-113.209	0.426	-0.083
-262.224	-8.929	-0.153	0.102
-261.209	54.451	0.095	0.091
-260.195	-48.498	0.129	-0.062
-259.180	265.741	-0.107	0.185
-258.165	-200.000	0.001	0.232
-257.151	-164.142	-0.029	0.001
-256.136	-200.000	0.021	0.169
-255.122	-108.913	0.124	0.026
-254.107	350.112	-0.104	0.204
-253.092	232.286	-0.086	-0.140
-252.078	-142.982	0.248	-0.024
-251.063	239.756	0.160	-0.265
-250.049	-26.944	0.132	-0.076
-249.034	-144.380	-0.219	0.020
-248.019	138.957	0.222	-0.290
-247.005	428.597	0.081	-0.173
-245.990	-200.000	0.003	0.070
-244.976	-108.429	0.272	-0.058
-243.961	91.115	-0.126	-0.140
-242.946	-147.508	0.179	-0.015
-241.932	800.000	-0.039	0.126
-240.917	-129.282	0.090	-0.012
-239.903	-127.733	-0.301	-0.043
-238.888	345.339	-0.125	-0.243
-237.873	356.728	0.091	0.179
-236.859	707.474	0.072	-0.189
-235.844	-125.292	0.298	0.045
-234.830	-24.560	0.146	-0.086
-233.815	-1.831	0.234	0.163
-232.800	16.738	0.367	0.288
-231.786	178.910	-0.058	-0.085
-230.771	-190.085	-0.294	-0.003
-229.757	715.397	0.047	0.124
-228.742	-82.633	-0.125	-0.040
-227.727	39.339	0.048	0.043
-226.713	-125.733	0.216	-0.032
-225.698	337.567	0.128	-0.248
-224.684	800.000	-0.104	-0.367
-223.669	-200.000	0.298	-0.000
-222.655	800.000	-0.037	-0.110
-221.640	-172.152	0.199	0.006
-220.625	-157.931	0.304	0.018
-219.611	298.096	0.168	-0.307
-218.596	-71.069	0.124	0.046
-217.582	800.000	0.043	-0.168
-216.567	800.000	-0.029	-0.120
-215.552	-152.890	-0.484	0.034
-214.538	-93.592	0.223	-0.061
-213.523	-200.000	-0.012	-0.092
-212.509	526.359	0.169	-0.395
-211.494	-73.882	0.231	0.083
-210.479	-50.752	-0.254	-0.119
-209.465	-200.000	0.007	0.322
-208.450	-64.934	-0.354	-0.142
-207.436	-179.020	0.087	-0.002
-206.421	-10.939	-0.393	0.258
-205.406	-132.015	-0.122	-0.016
-204.392	-3.934	0.204	0.140
-203.377	-177.732	-0.143	-0.003
-202.363	51.535	-0.169	0.160
-201.348	-51.582	-0.205	-0.095
-200.333	407.121	0.090	0.188
-199.319	61.664	-0.081	-0.080
-198.304	90.681	-0.303	0.337
-197.290	88.921	-0.057	0.063
-196.275	-93.309	0.293	-0.081
-195.260	-186.176	-0.461	0.007
-194.246	168.343	0.117	0.166
-193.231	462.353	-0.062	-0.137
-192.217	-144.371	-0.229	0.021
-191.202	-139.702	-0.338	-0.036
-190.187	305.401	-0.127	-0.234
-189.173	-179.143	-0.247	0.005
-188.158	82.847	-0.301	0.325
-187.144	424.812	0.067	-0.144
-186.129	17.054	0.153	0.120
-185.114	235.708	-0.067	-0.110
-184.100	206.617	-0.107	-0.165
-183.085	33.873	0.121	0.104
-182.071	800.000	-0.059	0.234
-181.056	692.501	-0.080	0.207
-180.042	-18.985	0.115	-0.071
-179.027	20.065	-0.363	-0.290
-178.012	800.000	0.027	-0.093
-176.998	-63.933	0.112	0.045
-175.983	-101.217	-0.303	-0.073
-174.969	-200.000	-0.040	-0.406
-173.954	142.410	0.076	-0.100
-172.939	135.944	-0.187	-0.241
-171.925	-200.000	0.027	0.163
-170.910	-114.135	-0.416	-0.080
-169.896	-8.317	0.075	0.050
-168.881	-200.000	-0.016	0.071
-167.866	-83.186	-0.297	-0.095
-166.852	-61.158	-0.182	0.076
-165.837	87.689	-0.034	-0.037
-164.823	-14.312	-0.347	0.221
-163.808	-200.000	0.015	0.098
-162.793	-200.000	0.009	-0.050
-161.779	80.214	-0.062	0.066
-160.764	-89.911	0.182	0.053
-159.750	-134.268	0.167	0.020
-158.735	-2.156	-0.254	0.176
-157.720	-200.000	0.017	0.321
-156.706	125.047	0.182	0.227
-155.691	203.600	0.043	0.065
-154.677	-160.146	0.224	0.012
-153.662	514.375	0.043	0.100
-152.647	-200.000	-0.004	0.169
-151.633	26.205	-0.269	0.222
-150.618	800.000	-0.096	0.413
-149.604	260.433	-0.146	0.250
-148.589	-25.640	-0.341	-0.199
-147.574	564.753	0.019	0.046
-146.560	313.452	-0.082	0.153
-145.545	-105.927	0.164	0.036
-144.531	334.634	-0.078	0.150
-143.516	-89.775	-0.232	-0.067
-142.502	-97.198	-0.183	-0.047
-141.487	-78.296	-0.151	-0.051
-140.472	800.000	-0.068	-0.213
-139.458	-101.666	-0.329	0.079
-138.443	800.000	0.078	-0.222
-137.429	-49.418	0.182	-0.086
-136.414	-79.455	0.381	-0.127
-135.399	120.236	0.075	0.092
-134.385	800.000	-0.060	-0.237
-133.370	-63.052	0.224	0.092
-132.356	40.953	0.037	-0.033
-131.341	28.454	-0.127	-0.106
-130.326	-80.771	-0.250	0.082
-129.312	177.178	0.177	0.255
-128.297	-28.553	0.312	0.178
-127.283	800.000	0.101	0.298
-126.268	-65.402	-0.408	-0.162
-125.253	9.077	0.197	-0.147
-124.239	64.992	0.091	0.090
-123.224	800.000	-0.042	-0.158
-122.210	-98.101	0.210	0.053
-121.195	59.725	0.123	-0.120
