DTS Sentinel unit serial number:	SN413079Multiplexer serial number:	ORYXHardware model number:	OX4-SRSoftware version number:	ORYX F/W v4.00 Oryx Data Collector v3.7.2.0data status	okinstallation	princeton_trtdifferential loss correction	single-endedforward channel	channel 3reverse channel	N/Adate	2019/09/15time	08:36:35forward acquisition time	60.00reverse acquisition time	0.00gamma	496.2192k internal	0.2319k external	0.2319temperature offset calibration	0.9980default loss term (dB/km)	0.3790temperature slope calibration	1.0000multiplexer offset coefficient	1.0000multiplexer slope coefficient	1.0000fibre end	0.00T internal ref (°C)	31.83T ext. ref 1 (°C)	4.99T ext. ref 2 (°C)	29.28length (m)	temperature (°C)	Stokes	anti-Stokes-747.200	-200.000	0.029	0.351
-746.185	-38.262	0.210	0.112
-745.171	800.000	0.093	0.305
-744.156	-59.182	-0.277	0.121
-743.142	-122.847	-0.249	-0.041
-742.127	19.095	0.181	0.147
-741.112	-142.287	-0.206	-0.021
-740.098	800.000	-0.087	0.261
-739.083	30.272	-0.101	0.088
-738.069	292.186	-0.227	0.418
-737.054	-133.688	-0.072	0.009
-736.039	-22.568	-0.217	0.133
-735.025	-42.736	0.212	0.109
-734.010	-158.718	-0.371	-0.022
-732.996	-159.486	-0.264	0.015
-731.981	97.995	-0.208	-0.242
-730.966	-73.108	-0.414	-0.153
-729.952	-83.775	-0.112	0.036
-728.937	-200.000	0.023	-0.306
-727.923	208.087	-0.206	-0.326
-726.908	86.388	-0.264	-0.294
-725.894	-200.000	-0.022	-0.244
-724.879	-152.904	-0.483	-0.035
-723.864	-65.445	0.156	-0.064
-722.850	146.262	-0.068	0.092
-721.835	-200.000	0.027	0.284
-720.821	-124.106	-0.257	0.041
-719.806	-155.013	-0.217	-0.014
-718.791	-98.019	0.068	-0.018
-717.777	-160.375	-0.082	-0.004
-716.762	385.980	-0.018	0.038
-715.748	-133.585	-0.214	-0.027
-714.733	-200.000	0.027	0.229
-713.718	-66.755	-0.164	0.065
-712.704	800.000	0.070	-0.248
-711.689	30.373	-0.258	-0.223
-710.675	252.074	0.090	0.155
-709.660	-70.951	-0.084	-0.032
-708.645	0.990	0.236	-0.171
-707.631	451.643	0.094	0.209
-706.616	-72.711	0.347	0.129
-705.602	-128.446	0.236	-0.034
-704.587	-3.770	-0.156	-0.110
-703.572	-110.242	-0.295	-0.062
-702.558	-18.504	0.177	-0.111
-701.543	-147.228	0.241	0.021
-700.529	-109.201	-0.312	-0.067
-699.514	-200.000	-0.001	-0.045
-698.499	10.601	-0.173	0.133
-697.485	170.405	0.106	-0.154
-696.470	-106.090	0.086	0.019
-695.456	800.000	-0.078	0.288
-694.441	-200.000	0.009	-0.059
-693.426	26.239	0.147	-0.124
-692.412	-79.933	-0.241	-0.082
-691.397	124.831	-0.300	0.382
-690.383	-3.503	-0.241	0.169
-689.368	-200.000	-0.011	0.093
-688.354	-54.144	-0.072	-0.033
-687.339	-127.825	-0.339	0.049
-686.324	-120.644	-0.358	-0.061
-685.310	-113.941	0.199	-0.039
-684.295	-12.750	0.123	-0.081
-683.281	407.301	-0.066	0.141
-682.266	-200.000	0.012	0.148
-681.251	-200.000	-0.094	0.462
-680.237	48.317	0.219	-0.207
-679.222	-200.000	0.003	-0.164
-678.208	24.129	0.169	0.141
-677.193	-40.739	0.116	-0.060
-676.178	-174.225	0.376	0.011
-675.164	352.779	0.080	0.160
-674.149	-200.000	-0.001	0.141
-673.135	-65.590	-0.062	0.025
-672.120	178.347	-0.290	-0.427
-671.105	-200.000	-0.017	-0.089
-670.091	800.000	-0.030	-0.118
-669.076	83.908	-0.263	0.290
-668.062	34.288	-0.171	-0.151
-667.047	137.907	0.151	-0.200
-666.032	-34.700	0.098	-0.054
-665.018	-200.000	-0.049	0.249
-664.003	-127.070	0.402	0.060
-662.989	-12.161	-0.270	0.178
-661.974	552.668	-0.109	-0.263
-660.959	800.000	-0.102	-0.308
-659.945	-112.316	-0.045	-0.009
-658.930	-200.000	0.032	0.205
-657.916	121.911	-0.050	0.063
-656.901	141.618	-0.103	0.137
-655.886	13.760	-0.152	0.119
-654.872	-24.139	0.221	0.133
-653.857	-21.343	-0.067	-0.041
-652.843	25.055	0.116	0.097
-651.828	-134.763	-0.201	-0.025
-650.814	-168.436	0.288	0.011
-649.799	-106.638	-0.093	0.021
-648.784	-6.399	-0.087	-0.060
-647.770	-129.197	-0.222	-0.031
-646.755	245.757	-0.185	0.313
-645.741	-144.632	-0.112	0.010
-644.726	277.324	-0.076	-0.135
-643.711	130.142	-0.129	-0.166
-642.697	-200.000	0.019	-0.180
-641.682	10.099	-0.119	0.091
-640.668	270.273	0.018	0.033
-639.653	-200.000	0.020	-0.128
-638.638	28.002	-0.131	-0.111
-637.624	-144.253	0.415	-0.039
-636.609	-200.000	-0.056	-0.298
-635.595	-138.192	-0.221	-0.025
-634.580	51.006	-0.242	-0.231
-633.565	-119.494	-0.229	0.040
-632.551	109.532	0.053	-0.064
-631.536	115.414	0.102	-0.126
-630.522	800.000	-0.155	0.660
-629.507	-57.634	0.543	-0.240
-628.492	-24.061	-0.188	-0.113
-627.478	674.707	0.035	-0.093
-626.463	800.000	0.056	0.218
-625.449	485.075	-0.150	-0.343
-624.434	-87.054	-0.157	0.048
-623.419	-200.000	-0.085	-0.432
-622.405	-200.000	-0.061	0.280
-621.390	-177.040	-0.096	0.002
-620.376	-143.659	-0.334	-0.032
-619.361	800.000	0.095	0.269
-618.346	-82.180	0.172	0.056
-617.332	800.000	0.087	-0.280
-616.317	-200.000	0.028	-0.355
-615.303	70.728	-0.125	-0.130
-614.288	-200.000	0.003	0.450
-613.273	-27.741	0.096	-0.056
-612.259	33.987	-0.186	0.163
-611.244	-200.000	-0.009	-0.072
-610.230	-84.669	0.222	-0.070
-609.215	-64.466	-0.354	0.145
-608.201	-136.962	0.166	0.019
-607.186	-29.775	-0.153	0.088
-606.171	-95.589	-0.337	-0.091
-605.157	800.000	0.046	0.130
-604.142	562.278	0.091	0.222
-603.128	599.822	-0.068	0.169
-602.113	692.208	0.122	0.321
-601.098	40.170	0.211	-0.191
-600.084	-154.280	-0.297	0.020
-599.069	39.170	0.056	-0.051
-598.055	800.000	-0.060	-0.186
-597.040	-71.030	-0.157	0.060
-596.025	1.323	0.293	-0.212
-595.011	17.752	0.014	-0.011
-593.996	-29.184	0.062	-0.035
-592.982	-47.217	-0.261	0.128
-591.967	-173.885	0.210	-0.006
-590.952	-14.227	-0.069	-0.045
-589.938	25.976	-0.137	0.115
-588.923	-67.655	-0.191	-0.075
-587.909	86.128	0.233	-0.258
-586.894	-200.000	0.027	0.140
-585.879	114.206	-0.195	-0.238
-584.865	-102.627	0.196	-0.047
-583.850	-14.027	0.055	0.036
-582.836	124.099	0.307	0.388
-581.821	-106.972	0.278	0.062
-580.806	375.258	-0.104	0.213
-579.792	-19.198	0.230	0.144
-578.777	-124.636	0.133	0.021
-577.763	211.153	0.047	-0.074
-576.748	-88.124	0.258	0.078
-575.733	-176.998	0.188	-0.005
-574.719	-66.607	0.232	-0.092
-573.704	63.815	-0.114	0.116
-572.690	103.639	-0.112	-0.133
-571.675	-42.517	-0.201	-0.103
-570.661	-200.000	-0.047	0.264
-569.646	-42.565	-0.291	0.149
-568.631	138.258	0.246	0.324
-567.617	-200.000	0.034	-0.267
-566.602	800.000	0.057	0.249
-565.588	33.942	-0.079	0.069
-564.573	-200.000	0.013	-0.086
-563.558	-24.775	-0.273	-0.163
-562.544	800.000	0.057	-0.178
-561.529	-12.549	-0.044	0.029
-560.515	-193.835	-0.118	-0.001
-559.500	16.452	0.262	-0.208
-558.485	280.738	0.132	-0.237
-557.471	584.855	-0.094	-0.232
-556.456	128.535	-0.162	-0.207
-555.442	194.681	0.151	-0.231
-554.427	369.369	-0.144	-0.293
-553.412	25.654	-0.189	0.158
-552.398	-1.700	0.230	-0.163
-551.383	202.600	-0.053	-0.083
-550.369	-80.973	-0.254	-0.084
-549.354	-29.047	-0.225	-0.130
-548.339	-109.379	0.163	0.035
-547.325	-61.205	0.248	0.105
-546.310	26.907	-0.213	0.179
-545.296	-76.388	-0.254	0.090
-544.281	800.000	-0.079	-0.321
-543.266	480.457	0.071	-0.161
-542.252	-90.243	0.101	-0.029
-541.237	-68.832	-0.053	0.021
-540.223	-200.000	0.038	-0.191
-539.208	2.660	0.061	-0.044
-538.193	-145.386	-0.245	0.022
-537.179	800.000	-0.038	-0.148
-536.164	-200.000	0.008	0.141
-535.150	-39.070	0.216	0.114
-534.135	270.283	0.112	0.197
-533.121	-194.752	-0.134	-0.001
-532.106	-200.000	-0.002	-0.203
-531.091	-16.616	0.270	-0.172
-530.077	-66.340	0.270	0.108
-529.062	117.938	-0.153	0.189
-528.048	178.140	-0.043	-0.063
-527.033	-3.725	0.147	-0.103
-526.018	-200.000	-0.012	-0.078
-525.004	-70.201	-0.171	-0.065
-523.989	-95.166	-0.175	0.047
-522.975	-114.419	0.055	0.011
-521.960	-50.097	0.096	-0.045
-520.945	-145.719	0.131	-0.012
-519.931	-105.961	0.203	-0.046
-518.916	135.796	-0.096	0.126
-517.902	-200.000	0.013	0.155
-516.887	-154.246	-0.142	0.010
-515.872	-200.000	-0.007	-0.065
-514.858	171.542	-0.172	-0.248
-513.843	-17.796	0.089	0.056
-512.829	800.000	0.119	0.392
-511.814	-200.000	0.071	0.322
-510.799	147.798	0.223	-0.301
-509.785	-200.000	-0.020	-0.165
-508.770	-200.000	-0.042	0.251
-507.756	25.384	0.058	0.048
-506.741	-37.224	0.076	0.041
-505.726	209.298	-0.106	-0.166
-504.712	148.723	0.339	0.460
-503.697	800.000	0.020	0.074
-502.683	800.000	-0.049	0.150
-501.668	420.949	-0.148	0.319
-500.653	140.821	0.039	0.051
-499.639	800.000	-0.058	-0.178
-498.624	-23.021	-0.066	0.040
-497.610	128.223	0.100	-0.127
-496.595	-7.190	-0.091	-0.062
-495.581	418.592	-0.058	-0.124
-494.566	108.087	0.183	-0.218
-493.551	-200.000	-0.017	0.318
-492.537	-200.000	-0.009	-0.091
-491.522	-200.000	0.017	0.392
-490.508	150.416	0.062	-0.084
-489.493	-119.188	0.214	-0.037
-488.478	-140.325	0.228	-0.024
-487.464	-200.000	-0.248	-0.000
-486.449	155.997	-0.017	-0.023
-485.435	-89.251	-0.338	-0.100
-484.420	-168.944	-0.605	-0.023
-483.405	150.538	0.195	0.266
-482.391	104.131	0.030	-0.036
-481.376	-42.225	-0.248	0.127
-480.362	-62.292	-0.242	-0.101
-479.347	-200.000	0.001	0.017
-478.332	3.411	0.175	0.128
-477.318	557.984	-0.069	-0.166
-476.303	496.979	-0.033	0.077
-475.289	800.000	0.045	-0.186
-474.274	453.823	-0.067	0.148
-473.259	10.226	-0.276	0.210
-472.245	167.227	-0.192	0.273
-471.230	-116.161	0.068	-0.013
-470.216	-124.065	0.113	0.018
-469.201	-200.000	0.062	-0.502
-468.186	-73.342	-0.229	0.084
-467.172	-15.456	0.275	0.176
-466.157	-200.000	0.011	0.147
-465.143	284.735	0.078	0.140
-464.128	-200.000	-0.032	0.305
-463.113	155.222	0.172	0.236
-462.099	520.127	0.036	0.084
-461.084	-200.000	0.031	-0.178
-460.070	-93.175	0.353	0.098
-459.055	800.000	-0.021	-0.073
-458.040	-119.968	0.284	0.049
-457.026	321.595	-0.129	-0.245
-456.011	-147.239	0.191	0.016
-454.997	800.000	0.036	0.145
-453.982	660.616	-0.132	0.339
-452.968	35.924	-0.152	0.134
-451.953	-19.864	-0.162	0.100
-450.938	-200.000	-0.002	-0.406
-449.924	-200.000	-0.033	-0.218
-448.909	-135.206	-0.192	0.023
-447.895	800.000	-0.051	0.217
-446.880	-200.000	0.000	0.045
-445.865	-141.243	-0.194	0.020
-444.851	-156.186	0.091	-0.006
-443.836	-82.297	0.340	-0.111
-442.822	-147.610	-0.018	0.002
-441.807	79.544	0.182	-0.195
-440.792	320.584	-0.088	0.167
-439.778	-200.000	-0.018	-0.258
-438.763	44.295	0.355	0.326
-437.749	336.693	-0.116	0.225
-436.734	163.066	0.115	0.161
-435.719	-49.684	-0.101	0.048
-434.705	199.522	0.207	0.317
-433.690	331.081	0.144	0.278
-432.676	-148.768	0.109	0.009
-431.661	-83.512	-0.337	0.108
-430.646	324.830	-0.095	0.181
-429.632	-200.000	0.002	0.360
-428.617	-200.000	0.028	-0.300
-427.603	-18.761	0.196	-0.122
-426.588	69.711	-0.016	-0.017
-425.573	652.972	-0.119	0.304
-424.559	133.011	-0.125	-0.161
-423.544	87.079	0.117	0.129
-422.530	-56.265	-0.154	0.068
-421.515	-189.788	0.288	-0.003
-420.500	-200.000	-0.005	-0.215
-419.486	-84.615	-0.139	-0.044
-418.471	-23.468	0.044	0.026
-417.457	586.233	0.127	0.312
-416.442	-120.398	-0.161	0.027
-415.428	-180.210	0.057	-0.001
-414.413	161.400	-0.190	0.265
-413.398	-200.000	0.040	0.177
-412.384	605.509	-0.064	0.159
-411.369	-114.553	0.127	-0.024
-410.355	-200.000	0.079	0.352
-409.340	53.295	-0.094	0.090
-408.325	-200.000	0.017	0.151
-407.311	-200.000	0.058	0.334
-406.296	239.005	0.177	-0.293
-405.282	57.454	-0.068	0.066
-404.267	-8.596	0.063	0.042
-403.252	-103.776	0.298	-0.070
-402.238	-175.689	0.261	0.007
-401.223	800.000	0.087	-0.265
-400.209	-200.000	0.009	0.090
-399.194	-28.563	-0.313	-0.180
-398.179	321.451	0.111	0.210
-397.165	450.799	0.057	0.126
-396.150	-37.904	-0.399	0.212
-395.136	80.412	-0.085	-0.091
-394.121	-200.000	0.019	0.111
-393.106	429.071	-0.063	0.135
-392.092	-200.000	0.025	-0.252
-391.077	53.279	0.124	-0.118
-390.063	154.039	0.194	0.265
-389.048	5.834	-0.149	0.110
-388.033	-200.000	-0.064	0.391
-387.019	800.000	-0.037	0.118
-386.004	-200.000	0.017	-0.251
-384.990	95.674	-0.048	0.054
-383.975	52.761	-0.052	0.049
-382.960	-39.443	0.363	0.190
-381.946	414.688	-0.202	0.429
-380.931	-165.170	0.222	0.010
-379.917	26.805	-0.162	0.135
-378.902	-54.133	-0.156	-0.071
-377.888	-176.508	0.108	-0.003
-376.873	183.797	0.119	-0.176
-375.858	-200.000	-0.038	0.263
-374.844	-200.000	0.010	0.194
-373.829	279.487	-0.192	0.342
-372.815	53.284	0.175	-0.168
-371.800	-65.583	-0.264	-0.105
-370.785	267.383	0.098	-0.172
-369.771	165.247	0.335	0.472
-368.756	163.489	0.136	-0.190
-367.742	-172.618	0.277	-0.009
-366.727	-142.523	-0.388	-0.038
-365.712	-200.000	-0.003	0.018
-364.698	-34.215	-0.295	-0.162
-363.683	800.000	0.077	0.238
-362.669	173.940	0.036	0.052
-361.654	-63.460	-0.277	-0.113
-360.639	59.250	0.269	-0.264
-359.625	-54.224	0.110	-0.050
-358.610	-146.858	0.085	-0.007
-357.596	372.787	-0.092	-0.187
-356.581	96.097	0.119	0.135
-355.566	-57.779	-0.221	-0.097
-354.552	-200.000	0.000	-0.049
-353.537	260.547	-0.102	-0.175
-352.523	-58.328	0.236	-0.102
-351.508	-123.851	-0.164	0.026
-350.493	80.861	-0.147	-0.158
-349.479	-200.000	0.030	-0.137
-348.464	620.353	-0.100	-0.251
-347.450	41.570	-0.118	0.107
-346.435	-200.000	0.002	-0.066
-345.420	-200.000	-0.080	0.402
-344.406	434.460	-0.110	-0.237
-343.391	-101.831	-0.241	-0.058
-342.377	-156.657	-0.142	-0.009
-341.362	-174.685	-0.233	0.007
-340.348	-200.000	-0.002	0.238
-339.333	800.000	0.025	-0.098
-338.318	207.590	-0.105	0.163
-337.304	28.473	0.127	-0.107
-336.289	-104.747	0.139	-0.032
-335.275	0.013	0.311	-0.220
-334.260	-18.834	-0.352	-0.218
-333.245	102.522	0.139	0.162
-332.231	420.172	0.102	-0.217
-331.216	-47.599	-0.088	0.043
-330.202	-168.333	-0.434	-0.017
-329.187	-32.910	0.197	0.109
-328.172	271.676	0.056	-0.099
-327.158	-29.654	0.280	-0.159
-326.143	146.636	0.062	0.082
-325.129	-182.142	0.355	-0.007
-324.114	-40.484	0.249	-0.129
-323.099	-100.846	-0.205	-0.050
-322.085	1.149	0.203	-0.145
-321.070	-140.497	0.104	0.011
-320.056	263.945	0.055	-0.096
-319.041	-66.324	-0.466	-0.185
-318.026	263.274	0.109	-0.188
-317.012	-200.000	0.012	-0.081
-315.997	-13.107	0.296	0.192
-314.983	-90.108	0.042	0.012
-313.968	-200.000	-0.052	-0.253
-312.953	385.125	0.125	0.257
-311.939	223.652	-0.106	0.169
-310.924	601.487	0.082	-0.202
-309.910	313.569	0.075	0.141
-308.895	98.672	0.095	-0.109
-307.880	-97.755	0.195	0.050
-306.866	800.000	0.059	-0.183
-305.851	-200.000	-0.012	-0.167
-304.837	800.000	0.075	-0.272
-303.822	486.149	0.062	-0.141
-302.807	-150.611	-0.088	0.007
-301.793	22.194	-0.334	-0.271
-300.778	-90.654	-0.180	0.052
-299.764	-162.126	-0.288	0.014
-298.749	240.185	0.142	-0.235
-297.735	-169.074	0.197	-0.007
-296.720	800.000	0.044	0.157
-295.705	405.825	0.109	-0.229
-294.691	144.424	0.125	-0.166
-293.676	-50.578	0.119	-0.056
-292.662	193.440	-0.066	0.099
-291.647	267.993	0.108	-0.189
-290.632	-142.424	-0.222	0.022
-289.618	133.510	0.122	-0.157
-288.603	25.679	-0.038	-0.032
-287.589	13.452	-0.173	0.134
-286.574	-118.993	0.197	-0.034
-285.559	-111.933	-0.353	0.071
-284.545	-62.271	0.362	0.150
-283.530	-101.546	0.150	0.036
-282.516	800.000	-0.115	-0.394
-281.501	800.000	-0.049	-0.157
-280.486	131.025	0.178	-0.228
-279.472	-125.993	-0.127	-0.019
-278.457	800.000	0.077	0.317
-277.443	116.713	-0.085	-0.104
-276.428	-200.000	-0.049	-0.321
-275.413	-75.523	-0.311	0.110
-274.399	764.897	0.061	0.165
-273.384	-78.233	0.250	0.085
-272.370	-101.563	0.072	-0.017
-271.355	101.738	-0.167	0.194
-270.340	232.139	0.084	-0.137
-269.326	800.000	-0.059	-0.204
-268.311	-158.047	0.331	0.019
-267.297	-200.000	-0.036	0.270
-266.282	-200.000	0.034	-0.372
-265.267	756.318	-0.063	-0.170
-264.253	-104.354	-0.246	0.057
-263.238	14.583	-0.159	-0.124
-262.224	-200.000	-0.006	0.070
-261.209	-200.000	0.019	0.089
-260.195	237.543	-0.189	-0.311
-259.180	147.140	0.311	0.415
-258.165	-156.658	0.294	-0.018
-257.151	-27.316	-0.133	0.077
-256.136	-200.000	-0.355	-0.001
-255.122	282.389	-0.100	-0.177
-254.107	-78.803	0.044	-0.015
-253.092	728.438	-0.041	-0.110
-252.078	-54.104	0.082	0.037
-251.063	-130.853	-0.221	-0.029
-250.049	800.000	-0.054	0.231
-249.034	371.199	-0.063	-0.126
-248.019	-63.412	0.177	-0.072
-247.005	155.814	-0.154	-0.211
-245.990	-97.719	0.228	0.059
-244.976	800.000	0.048	0.150
-243.961	-90.737	-0.150	-0.043
-242.946	63.131	-0.103	-0.102
-241.932	187.926	0.070	0.103
-240.917	-200.000	-0.003	-0.101
-239.903	115.510	0.108	-0.131
-238.888	-200.000	0.024	0.184
-237.873	-200.000	0.011	-0.198
-236.859	-200.000	-0.015	-0.235
-235.844	779.930	0.057	-0.156
-234.830	110.775	0.148	-0.177
-233.815	-78.131	0.046	0.016
-232.800	389.703	0.144	-0.295
-231.786	86.414	0.153	0.167
-230.771	-128.059	-0.605	0.086
-229.757	32.003	-0.245	-0.209
-228.742	101.913	0.435	0.503
-227.727	-79.657	-0.172	0.058
-226.713	587.995	-0.036	0.089
-225.698	151.993	-0.198	0.268
-224.684	298.987	-0.055	-0.100
-223.669	358.376	0.084	-0.166
-222.655	114.007	-0.114	-0.137
-221.640	-200.000	-0.095	-0.465
-220.625	-116.763	0.154	0.028
-219.611	634.589	0.109	0.274
-218.596	309.009	-0.006	-0.010
-217.582	676.403	0.038	-0.098
-216.567	775.739	0.019	0.052
-215.552	-130.008	-0.315	0.043
-214.538	-200.000	-0.025	-0.184
-213.523	-200.000	0.039	0.318
-212.509	56.187	0.058	-0.055
-211.494	145.015	-0.134	0.177
-210.479	-167.037	-0.092	-0.004
-209.465	-153.943	-0.262	0.018
-208.450	800.000	0.029	0.086
-207.436	-47.477	0.141	0.068
-206.421	13.691	0.185	0.142
-205.406	-200.000	0.006	-0.269
-204.392	-98.550	-0.270	0.068
-203.377	-194.430	0.080	0.001
-202.363	407.050	0.073	-0.153
-201.348	-200.000	0.015	-0.099
-200.333	-116.419	-0.312	0.057
-199.319	52.438	-0.030	0.029
-198.304	-164.783	0.243	-0.011
-197.290	-43.857	0.325	-0.162
-196.275	28.730	-0.066	-0.056
-195.260	-200.000	0.005	-0.125
-194.246	800.000	0.022	0.087
-193.231	24.560	0.180	-0.147
-192.217	204.366	0.143	0.219
-191.202	-200.000	-0.024	0.105
-190.187	-199.972	0.088	0.000
-189.173	-200.000	-0.026	-0.125
-188.158	-123.343	0.215	0.034
-187.144	-89.764	-0.057	-0.017
-186.129	183.413	0.186	-0.272
-185.114	-200.000	0.001	0.197
-184.100	163.710	0.068	-0.094
-183.085	800.000	0.035	-0.134
-182.071	147.436	-0.183	-0.243
-181.056	43.271	0.168	-0.152
-180.042	-62.070	-0.052	0.021
-179.027	-200.000	0.097	0.506
-178.012	94.798	0.241	0.271
-176.998	800.000	-0.046	0.189
-175.983	-14.068	0.256	-0.163
-174.969	-200.000	0.032	0.148
-173.954	-200.000	-0.004	0.136
-172.939	-81.447	0.159	-0.052
-171.925	-200.000	0.007	0.117
-170.910	-70.378	-0.468	0.176
-169.896	800.000	0.028	0.119
-168.881	55.554	-0.140	-0.134
-167.866	-75.351	-0.218	0.077
-166.852	168.765	0.146	-0.206
-165.837	117.157	0.128	0.155
-164.823	460.108	0.036	-0.078
-163.808	361.570	-0.031	-0.061
-162.793	-82.957	0.006	0.002
-161.779	-200.000	0.069	-0.426
-160.764	75.991	-0.107	-0.112
-159.750	-112.744	0.387	0.076
-158.735	-193.711	-0.200	0.002
-157.720	-102.162	-0.245	-0.058
-156.706	-64.845	-0.203	-0.081
-155.691	-2.243	0.318	0.221
-154.677	-200.000	-0.006	-0.305
-153.662	-1.213	0.078	0.055
-152.647	-200.000	0.009	0.198
-151.633	-80.526	-0.207	-0.068
-150.618	10.769	0.077	-0.058
-149.604	-200.000	0.017	0.310
-148.589	800.000	-0.097	-0.308
-147.574	-135.574	0.352	-0.041
-146.560	118.066	-0.034	-0.042
-145.545	726.416	-0.031	-0.081
-144.531	69.889	0.206	0.210
-143.516	73.203	-0.091	0.094
-142.502	-200.000	0.010	-0.232
-141.487	-200.000	0.064	-0.330
-140.472	57.759	0.123	-0.119
-139.458	8.736	-0.031	-0.023
-138.443	57.247	0.078	-0.075
-137.429	-200.000	0.010	0.077
-136.414	217.480	0.178	-0.280
-135.399	-200.000	0.010	0.291
-134.385	-95.558	-0.137	-0.036
-133.370	-146.187	-0.246	-0.021
-132.356	287.782	0.193	0.345
-131.341	479.980	-0.117	0.261
-130.326	293.971	-0.111	-0.200
-129.312	-111.861	-0.134	-0.027
-128.297	-90.193	-0.134	-0.038
-127.283	578.125	-0.073	0.176
-126.268	-25.382	0.158	0.092
-125.253	-200.000	-0.019	-0.135
-124.239	-99.799	-0.113	-0.028
-123.224	11.424	0.088	0.066
