DTS Sentinel unit serial number:	SN413079Multiplexer serial number:	ORYXHardware model number:	OX4-SRSoftware version number:	ORYX F/W v4.00 Oryx Data Collector v3.7.2.0data status	okinstallation	princeton_trtdifferential loss correction	single-endedforward channel	channel 3reverse channel	N/Adate	2019/09/14time	13:20:35forward acquisition time	60.00reverse acquisition time	0.00gamma	496.2192k internal	0.2294k external	0.2294temperature offset calibration	1.0067default loss term (dB/km)	0.3790temperature slope calibration	1.0000multiplexer offset coefficient	1.0000multiplexer slope coefficient	1.0000fibre end	0.00T internal ref (°C)	37.95T ext. ref 1 (°C)	4.91T ext. ref 2 (°C)	33.56length (m)	temperature (°C)	Stokes	anti-Stokes-747.200	-200.000	-0.002	0.021
-746.185	-8.614	-0.287	0.197
-745.171	-34.617	0.192	-0.108
-744.156	-200.000	0.060	0.540
-743.142	-26.218	0.055	-0.033
-742.127	159.501	-0.312	0.444
-741.112	18.636	0.213	-0.174
-740.098	135.590	-0.151	0.201
-739.083	49.354	-0.038	-0.037
-738.069	-153.289	0.057	-0.004
-737.054	-51.169	0.118	-0.057
-736.039	-31.992	-0.274	0.157
-735.025	28.988	-0.134	0.116
-734.010	-96.614	-0.241	-0.065
-732.996	800.000	0.040	-0.172
-731.981	35.953	-0.144	0.129
-730.966	-74.567	0.091	-0.033
-729.952	82.369	0.151	0.168
-728.937	-74.902	-0.453	-0.166
-727.923	-200.000	0.050	-0.225
-726.908	338.269	0.103	0.204
-725.894	75.987	0.074	-0.080
-724.879	-200.000	-0.011	-0.263
-723.864	41.508	0.186	-0.172
-722.850	-185.906	-0.225	0.003
-721.835	-55.282	0.227	-0.104
-720.821	239.953	-0.214	-0.364
-719.806	210.318	0.142	-0.228
-718.791	407.836	0.100	0.215
-717.777	-68.924	-0.223	0.088
-716.762	221.743	-0.045	0.074
-715.748	-46.801	0.267	0.134
-714.733	4.715	-0.255	-0.192
-713.718	-148.428	0.244	-0.020
-712.704	800.000	0.028	-0.102
-711.689	100.153	-0.160	-0.189
-710.675	544.309	-0.115	0.280
-709.660	414.630	-0.152	-0.330
-708.645	-129.521	-0.417	0.059
-707.631	-80.111	-0.113	0.039
-706.616	-104.754	-0.145	-0.034
-705.602	524.707	0.060	-0.145
-704.587	40.311	-0.305	0.281
-703.572	-101.387	0.141	-0.035
-702.558	32.313	-0.198	-0.174
-701.543	238.741	-0.039	-0.066
-700.529	-29.126	-0.196	0.115
-699.514	-139.712	-0.199	0.022
-698.499	35.642	0.449	-0.402
-697.485	73.537	-0.100	0.107
-696.470	456.291	0.093	0.210
-695.456	-200.000	0.002	0.252
-694.441	129.024	-0.159	-0.207
-693.426	-72.350	-0.377	-0.142
-692.412	116.382	0.152	0.191
-691.397	800.000	-0.072	-0.237
-690.383	-66.875	0.221	-0.089
-689.368	800.000	-0.090	0.270
-688.354	-156.762	-0.130	0.008
-687.339	800.000	-0.099	0.303
-686.324	-200.000	-0.030	-0.159
-685.310	-54.011	0.072	0.033
-684.295	-165.314	-0.301	0.014
-683.281	-200.000	-0.001	0.150
-682.266	-149.082	0.029	0.002
-681.251	425.921	-0.067	0.146
-680.237	391.520	0.086	0.181
-679.222	160.777	-0.163	-0.232
-678.208	-143.278	-0.279	-0.027
-677.193	221.162	-0.063	0.103
-676.178	228.648	0.241	0.400
-675.164	92.885	0.100	0.115
-674.149	-154.443	-0.130	-0.009
-673.135	372.455	-0.074	0.153
-672.120	-200.000	-0.107	0.499
-671.105	-200.000	-0.046	0.249
-670.091	61.344	-0.035	-0.035
-669.076	-108.533	-0.245	-0.054
-668.062	678.317	0.058	0.155
-667.047	-200.000	-0.014	0.064
-666.032	62.304	-0.168	-0.171
-665.018	145.304	-0.146	-0.199
-664.003	6.898	-0.193	-0.147
-662.989	-162.403	-0.174	0.009
-661.974	20.834	0.143	0.118
-660.959	53.354	-0.125	-0.122
-659.945	-200.000	-0.039	-0.234
-658.930	-200.000	0.020	0.301
-657.916	97.428	0.151	-0.177
-656.901	22.104	0.053	-0.044
-655.886	558.970	-0.069	0.169
-654.872	411.184	0.124	-0.268
-653.857	6.555	0.295	0.223
-652.843	477.243	0.209	0.481
-651.828	-63.033	-0.165	-0.070
-650.814	42.953	0.173	-0.161
-649.799	-117.969	-0.138	0.025
-648.784	-200.000	-0.001	0.166
-647.770	6.953	-0.086	-0.065
-646.755	-92.807	-0.014	-0.004
-645.741	-161.467	0.260	0.014
-644.726	206.894	-0.048	0.076
-643.711	33.658	-0.076	0.068
-642.697	147.163	0.079	0.109
-641.682	69.553	-0.136	-0.143
-640.668	-200.000	-0.032	0.287
-639.653	800.000	-0.071	-0.217
-638.638	-31.203	0.364	-0.209
-637.624	-3.669	-0.069	0.049
-636.609	-11.839	0.217	0.145
-635.595	33.642	-0.120	-0.106
-634.580	103.404	0.172	0.206
-633.565	-200.000	0.018	0.139
-632.551	-118.168	0.022	-0.004
-631.536	19.041	-0.215	-0.176
-630.522	-32.173	0.251	0.143
-629.507	800.000	0.073	0.268
-628.492	391.765	-0.097	-0.205
-627.478	-200.000	-0.036	-0.198
-626.463	-200.000	-0.042	0.412
-625.449	-3.287	0.206	-0.146
-624.434	703.697	0.072	-0.193
-623.419	210.016	0.051	0.081
-622.405	-60.497	0.392	0.170
-621.390	173.698	0.122	0.179
-620.376	800.000	0.011	0.032
-619.361	-48.830	-0.188	0.092
-618.346	61.484	-0.131	-0.133
-617.332	206.985	0.136	-0.216
-616.317	641.349	0.083	0.215
-615.303	323.310	0.081	-0.157
-614.288	63.607	0.119	-0.121
-613.273	-200.000	0.020	0.169
-612.259	-200.000	0.008	-0.134
-611.244	103.154	-0.224	-0.267
-610.230	-200.000	-0.001	-0.358
-609.215	130.270	0.183	-0.238
-608.201	-24.319	-0.377	-0.229
-607.186	-200.000	0.060	-0.410
-606.171	-73.915	-0.199	-0.074
-605.157	84.296	-0.064	-0.071
-604.142	-200.000	0.008	0.054
-603.128	4.843	-0.164	0.123
-602.113	102.609	0.037	0.044
-601.098	-109.041	-0.148	0.032
-600.084	-143.257	-0.317	-0.031
-599.069	-36.492	-0.323	0.177
-598.055	-200.000	-0.493	0.001
-597.040	15.083	-0.090	-0.071
-596.025	288.886	-0.036	0.066
-595.011	-29.518	-0.181	0.105
-593.996	123.269	0.088	-0.113
-592.982	800.000	-0.083	0.277
-591.967	-119.918	-0.121	-0.021
-590.952	140.490	-0.248	0.333
-589.938	-200.000	-0.005	-0.084
-588.923	-91.818	-0.293	0.085
-587.909	-68.251	-0.233	0.092
-586.894	51.906	-0.161	-0.155
-585.879	19.877	0.258	-0.212
-584.865	-119.188	0.124	-0.022
-583.850	-200.000	-0.018	-0.091
-582.836	-200.000	-0.003	-0.065
-581.821	402.854	-0.077	0.164
-580.806	288.014	0.061	0.113
-579.792	-104.290	0.349	-0.082
-578.777	-29.579	-0.245	0.142
-577.763	268.014	-0.036	0.064
-576.748	151.862	-0.062	0.086
-575.733	-94.908	-0.113	-0.031
-574.719	-72.577	-0.141	0.053
-573.704	-73.325	0.095	-0.035
-572.690	792.179	-0.141	-0.394
-571.675	-79.489	-0.087	0.030
-570.661	380.830	0.182	-0.380
-569.646	105.035	-0.188	-0.225
-568.631	326.830	0.007	-0.013
-567.617	88.977	-0.099	0.111
-566.602	-90.920	-0.330	-0.097
-565.588	272.040	0.021	0.038
-564.573	148.874	0.087	-0.120
-563.558	-12.248	0.153	0.102
-562.544	564.064	0.013	-0.032
-561.529	-96.110	-0.181	-0.049
-560.515	-45.621	0.286	0.144
-559.500	44.347	-0.108	-0.100
-558.485	25.077	0.206	0.174
-557.471	403.841	0.067	0.143
-556.456	-4.689	-0.279	-0.195
-555.442	215.052	-0.096	-0.154
-554.427	800.000	0.045	-0.146
-553.412	351.691	-0.087	-0.174
-552.398	-200.000	0.001	0.093
-551.383	282.889	-0.109	0.199
-550.369	-200.000	0.030	-0.406
-549.354	-7.778	0.451	-0.309
-548.339	-87.177	0.298	-0.092
-547.325	215.543	0.123	0.198
-546.310	-150.227	-0.161	-0.013
-545.296	-58.892	-0.174	-0.076
-544.281	62.815	-0.225	0.229
-543.266	-200.000	-0.014	-0.222
-542.252	-0.936	0.313	-0.225
-541.237	297.945	0.117	0.217
-540.223	800.000	-0.143	0.410
-539.208	356.786	0.092	0.186
-538.193	-200.000	-0.031	0.249
-537.179	-200.000	-0.001	-0.366
-536.164	-52.067	0.278	0.131
-535.150	-23.720	0.157	0.096
-534.135	-200.000	-0.017	-0.176
-533.121	74.274	0.028	-0.030
-532.106	126.196	0.127	-0.164
-531.091	-83.816	-0.237	-0.077
-530.077	-119.546	-0.118	-0.021
-529.062	800.000	0.101	-0.288
-528.048	244.706	0.143	-0.245
-527.033	-153.306	0.306	-0.022
-526.018	74.968	0.145	0.155
-525.004	-200.000	-0.003	0.105
-523.989	141.804	-0.112	0.150
-522.975	4.921	-0.153	-0.114
-521.960	10.030	0.063	0.048
-520.945	-87.782	-0.287	0.088
-519.931	-68.964	0.230	0.090
-518.916	-90.890	0.097	-0.028
-517.902	-25.340	-0.270	0.162
-516.887	-31.615	0.253	-0.144
-515.872	-200.000	-0.010	-0.127
-514.858	800.000	0.113	0.371
-513.843	452.828	0.048	0.107
-512.829	76.569	-0.063	0.068
-511.814	53.127	-0.205	-0.199
-510.799	-5.716	-0.313	0.217
-509.785	185.641	0.083	0.125
-508.770	108.849	-0.293	-0.355
-507.756	800.000	0.115	0.326
-506.741	-188.042	-0.187	0.002
-505.726	800.000	-0.052	0.158
-504.712	0.019	-0.076	-0.055
-503.697	71.982	-0.277	-0.292
-502.683	-108.275	0.351	-0.077
-501.668	800.000	-0.031	-0.128
-500.653	83.454	-0.128	-0.142
-499.639	-96.779	0.250	-0.067
-498.624	-200.000	-0.000	-0.093
-497.610	-200.000	-0.039	-0.208
-496.595	-26.123	-0.133	-0.079
-495.581	74.355	0.242	0.258
-494.566	800.000	0.069	-0.251
-493.551	217.240	-0.110	0.178
-492.537	93.732	0.148	0.170
-491.522	-137.847	-0.141	0.016
-490.508	-200.000	0.038	-0.298
-489.493	179.502	-0.036	0.053
-488.478	161.395	0.024	0.034
-487.464	100.244	-0.048	-0.056
-486.449	-200.000	0.030	-0.220
-485.435	98.875	0.129	-0.151
-484.420	-123.048	0.222	-0.036
-483.405	514.259	0.081	-0.192
-482.391	529.799	-0.115	0.275
-481.376	101.090	-0.141	0.166
-480.362	-200.000	-0.009	-0.156
-479.347	-200.000	-0.024	-0.123
-478.332	286.979	0.043	-0.079
-477.318	800.000	-0.075	-0.211
-476.303	38.555	0.319	0.288
-475.289	-38.812	0.207	0.110
-474.274	-56.481	0.145	0.065
-473.259	-113.909	-0.110	-0.022
-472.245	54.169	0.180	0.175
-471.230	349.957	0.175	0.349
-470.216	258.009	-0.085	0.148
-469.201	-164.056	0.294	-0.014
-468.186	760.324	-0.110	-0.301
-467.172	277.385	0.054	-0.097
-466.157	3.567	0.038	-0.028
-465.143	45.042	-0.159	0.148
-464.128	660.541	-0.115	0.300
-463.113	-200.000	-0.024	-0.310
-462.099	800.000	0.073	0.253
-461.084	379.517	0.048	0.100
-460.070	-44.237	-0.251	-0.128
-459.055	800.000	-0.017	0.054
-458.040	243.580	0.060	0.101
-457.026	-71.188	-0.127	0.048
-456.011	-157.933	-0.066	0.004
-454.997	375.820	0.058	0.120
-453.982	-82.834	-0.329	-0.107
-452.968	214.902	-0.166	-0.265
-451.953	-83.523	0.298	-0.096
-450.938	-58.367	0.068	-0.030
-449.924	-155.821	0.077	0.005
-448.909	-69.079	0.189	-0.074
-447.895	52.930	0.193	-0.187
-446.880	96.439	0.257	-0.298
-445.865	18.559	0.071	0.058
-444.851	-129.663	0.307	-0.043
-443.836	18.203	-0.051	0.041
-442.822	449.306	0.121	0.270
-441.807	-3.420	0.089	-0.062
-440.792	127.805	-0.217	0.279
-439.778	-38.830	-0.211	-0.113
-438.763	-51.493	0.091	-0.043
-437.749	-124.939	-0.244	-0.038
-436.734	30.892	-0.253	-0.219
-435.719	36.479	-0.044	-0.039
-434.705	-175.671	0.169	0.005
-433.690	-33.346	-0.193	-0.108
-432.676	-53.817	-0.210	0.097
-431.661	110.609	0.121	-0.147
-430.646	-171.065	0.537	-0.018
-429.632	666.477	-0.098	0.255
-428.617	227.671	-0.094	-0.154
-427.603	-86.910	0.501	-0.154
-426.588	-46.060	-0.128	-0.064
-425.573	765.287	-0.043	0.118
-424.559	166.545	0.117	-0.168
-423.544	6.805	-0.180	0.135
-422.530	-134.036	0.170	-0.021
-421.515	-200.000	-0.009	0.136
-420.500	-200.000	0.019	0.118
-419.486	222.823	0.209	0.340
-418.471	-163.831	-0.255	-0.012
-417.457	23.940	-0.049	-0.041
-416.442	800.000	0.041	-0.150
-415.428	-85.548	-0.241	0.076
-414.413	-200.000	0.032	-0.252
-413.398	29.954	-0.125	-0.107
-412.384	-115.927	0.308	0.058
-411.369	-125.147	-0.398	0.062
-410.355	-73.446	0.164	0.060
-409.340	146.779	-0.138	-0.187
-408.325	-37.768	-0.222	-0.119
-407.311	92.459	0.105	-0.120
-406.296	9.821	-0.173	-0.132
-405.282	-26.427	-0.143	-0.085
-404.267	-119.106	0.325	0.057
-403.252	-25.492	-0.261	-0.156
-402.238	158.029	0.201	0.282
-401.223	-78.763	-0.066	0.023
-400.209	-100.043	-0.216	0.054
-399.194	238.297	0.180	-0.302
-398.179	-124.186	-0.106	0.017
-397.165	153.479	0.156	-0.216
-396.150	-20.914	0.359	-0.222
-395.136	-97.136	-0.246	0.065
-394.121	-138.781	0.416	0.046
-393.106	-134.772	-0.150	-0.018
-392.092	-200.000	-0.031	-0.189
-391.077	759.631	0.156	-0.428
-390.063	137.670	-0.040	0.053
-389.048	-79.217	0.222	-0.076
-388.033	66.584	0.085	0.087
-387.019	418.289	-0.080	0.172
-386.004	-95.919	-0.111	0.030
-384.990	-91.575	0.145	0.042
-383.975	-66.654	0.217	0.087
-382.960	-121.101	-0.083	0.014
-381.946	74.131	-0.099	0.105
-380.931	244.935	-0.101	-0.172
-379.917	-200.000	0.045	0.351
-378.902	45.456	-0.110	-0.102
-377.888	-98.376	-0.246	0.064
-376.873	670.970	-0.158	0.413
-375.858	-159.250	0.136	-0.008
-374.844	-200.000	-0.003	0.106
-373.829	-111.467	0.169	0.035
-372.815	800.000	0.018	0.055
-371.800	-200.000	0.024	-0.233
-370.785	-200.000	0.058	-0.270
-369.771	-79.072	0.096	0.033
-368.756	-14.865	0.134	0.087
-367.742	-111.834	-0.309	0.063
-366.727	-92.486	0.515	-0.146
-365.712	787.754	-0.042	-0.117
-364.698	-28.647	0.009	-0.005
-363.683	14.218	0.314	0.246
-362.669	800.000	0.049	-0.153
-361.654	-137.507	-0.093	0.011
-360.639	663.882	0.081	0.212
-359.625	661.761	0.101	-0.263
-358.610	-148.348	0.551	0.046
-357.596	-200.000	0.019	0.159
-356.581	-200.000	-0.027	0.234
-355.566	-46.072	0.086	0.043
-354.552	-79.480	-0.139	-0.047
-353.537	0.138	0.163	-0.117
-352.523	-200.000	-0.028	0.396
-351.508	50.481	-0.124	-0.119
-350.493	-158.563	-0.321	0.019
-349.479	702.068	-0.129	0.342
-348.464	-170.296	-0.450	0.016
-347.450	-200.000	0.033	0.279
-346.435	202.505	0.119	-0.185
-345.420	-50.562	-0.223	-0.106
-344.406	-83.180	0.438	-0.142
-343.391	-105.730	-0.366	0.083
-342.377	-41.869	0.045	-0.023
-341.362	-114.242	-0.072	0.014
-340.348	800.000	0.072	0.283
-339.333	800.000	-0.072	-0.213
-338.318	-43.569	-0.159	0.081
-337.304	-200.000	0.020	0.093
-336.289	85.900	0.239	0.265
-335.275	-61.921	-0.205	-0.086
-334.260	-166.736	0.113	-0.005
-333.245	43.394	0.128	0.118
-332.231	800.000	0.071	0.298
-331.216	-115.930	0.414	-0.078
-330.202	-98.607	-0.348	-0.089
-329.187	429.815	-0.016	0.035
-328.172	169.021	0.099	0.142
-327.158	-128.912	0.116	0.016
-326.143	78.215	0.177	0.190
-325.129	444.364	-0.167	-0.370
-324.114	-200.000	-0.044	0.221
-323.099	160.208	-0.058	0.081
-322.085	-58.846	0.164	-0.071
-321.070	224.731	-0.204	-0.331
-320.056	163.648	-0.106	-0.150
-319.041	-113.842	0.363	0.071
-318.026	-200.000	-0.030	-0.136
-317.012	491.110	-0.192	0.442
-315.997	-130.608	0.104	-0.014
-314.983	800.000	-0.064	-0.254
-313.968	-200.000	-0.021	-0.143
-312.953	-200.000	-0.017	0.115
-311.939	-44.004	-0.236	0.119
-310.924	-8.857	0.051	-0.034
-309.910	-200.000	-0.011	0.208
-308.895	-177.964	-0.365	-0.009
-307.880	800.000	0.085	-0.312
-306.866	-200.000	-0.024	-0.129
-305.851	192.003	0.065	0.099
-304.837	-79.498	0.424	0.144
-303.822	-80.596	0.150	-0.050
-302.807	-82.795	-0.282	0.092
-301.793	-3.080	-0.208	-0.146
-300.778	-200.000	-0.042	0.212
-299.764	-200.000	0.009	0.147
-298.749	-92.330	-0.230	-0.065
-297.735	800.000	0.087	-0.291
-296.720	800.000	0.013	0.054
-295.705	-102.396	-0.306	-0.074
-294.691	-200.000	-0.018	-0.220
-293.676	483.700	-0.083	-0.189
-292.662	73.875	0.132	-0.139
-291.647	-38.311	-0.398	-0.212
-290.632	-87.233	0.101	0.031
-289.618	8.464	0.131	0.099
-288.603	-51.278	0.323	0.152
-287.589	754.712	0.088	-0.238
-286.574	-200.000	-0.005	-0.394
-285.559	663.953	0.006	0.016
-284.545	-200.000	-0.004	0.072
-283.530	-200.000	0.084	0.614
-282.516	233.402	-0.109	0.180
-281.501	-32.513	0.467	-0.261
-280.486	-200.000	0.023	-0.396
-279.472	32.249	0.195	-0.169
-278.457	-144.487	0.113	0.011
-277.443	-75.461	0.251	0.090
-276.428	-22.958	-0.342	-0.207
-275.413	357.877	-0.104	0.209
-274.399	800.000	-0.051	0.142
-273.384	-62.322	-0.059	0.025
-272.370	275.349	-0.084	-0.149
-271.355	800.000	0.092	-0.376
-270.340	-134.108	0.156	0.019
-269.326	122.868	-0.069	0.086
-268.311	642.572	0.070	-0.178
-267.297	800.000	0.198	0.553
-266.282	52.031	-0.108	0.103
-265.267	800.000	-0.104	-0.334
-264.253	-71.092	-0.203	0.076
-263.238	800.000	0.070	0.195
-262.224	112.776	0.126	0.153
-261.209	-87.575	0.229	-0.069
-260.195	727.578	0.069	-0.185
-259.180	-103.641	0.158	-0.037
-258.165	-33.190	0.245	-0.136
-257.151	-35.675	0.405	-0.221
-256.136	784.852	-0.106	0.292
-255.122	-200.000	0.015	-0.130
-254.107	14.958	0.124	-0.097
-253.092	11.488	0.179	0.137
-252.078	-136.428	0.280	-0.033
-251.063	-200.000	-0.001	-0.110
-250.049	10.584	-0.233	-0.179
-249.034	-131.289	0.373	0.050
-248.019	-200.000	-0.024	-0.169
-247.005	-99.324	-0.256	0.065
-245.990	-200.000	-0.002	0.089
-244.976	-15.644	-0.047	-0.030
-243.961	476.255	0.045	0.102
-242.946	565.487	-0.081	0.198
-241.932	-196.444	-0.218	-0.001
-240.917	800.000	0.071	-0.215
-239.903	-6.441	-0.121	-0.082
-238.888	-200.000	-0.030	0.233
-237.873	166.160	0.124	0.176
-236.859	-77.457	-0.229	-0.080
-235.844	-151.317	-0.290	-0.022
-234.830	401.440	-0.176	-0.371
-233.815	-83.958	0.149	0.047
-232.800	-31.419	-0.400	0.225
-231.786	-135.820	-0.194	-0.023
-230.771	238.536	-0.141	0.234
-229.757	74.429	0.179	0.189
-228.742	41.319	-0.007	0.006
-227.727	-157.624	0.238	0.014
-226.713	-200.000	-0.021	-0.199
-225.698	111.282	-0.165	0.199
-224.684	169.452	0.201	0.287
-223.669	-96.620	0.186	-0.049
-222.655	73.204	-0.108	-0.113
-221.640	-132.880	0.314	0.040
-220.625	-200.000	0.015	0.194
-219.611	126.123	0.135	0.171
-218.596	266.676	-0.133	0.233
-217.582	-111.316	0.161	-0.033
-216.567	109.087	-0.181	-0.217
-215.552	39.895	0.071	0.064
-214.538	-17.949	-0.048	-0.030
-213.523	304.396	0.025	0.046
-212.509	-200.000	-0.050	-0.256
-211.494	-37.107	-0.119	0.064
-210.479	-200.000	0.011	0.067
-209.465	-77.135	0.078	0.027
-208.450	-200.000	0.225	-0.001
-207.436	340.434	-0.054	0.106
-206.421	-159.734	0.284	-0.016
-205.406	-102.860	-0.186	-0.044
-204.392	-39.832	0.025	-0.013
-203.377	-33.650	0.199	0.110
-202.363	325.983	-0.045	0.085
-201.348	-40.710	-0.150	-0.078
-200.333	464.630	-0.054	0.121
-199.319	264.083	0.127	0.222
-198.304	800.000	0.024	-0.086
-197.290	317.829	-0.070	-0.132
-196.275	800.000	-0.115	0.503
-195.260	-166.689	0.279	0.012
-194.246	24.071	-0.302	-0.249
-193.231	-200.000	-0.070	0.433
-192.217	-95.728	-0.264	0.071
-191.202	180.202	0.216	0.318
-190.187	81.712	0.093	0.101
-189.173	800.000	-0.057	-0.158
-188.158	800.000	-0.054	-0.166
-187.144	-121.875	0.162	-0.027
-186.129	-92.082	-0.261	-0.074
-185.114	95.381	-0.081	-0.093
-184.100	504.567	-0.105	0.242
-183.085	380.995	0.116	0.238
-182.071	340.341	0.044	0.086
-181.056	800.000	0.013	0.053
-180.042	478.532	0.027	0.061
-179.027	-54.379	-0.367	0.166
-178.012	-200.000	0.020	0.185
-176.998	-89.443	0.275	-0.081
-175.983	10.878	-0.150	-0.114
-174.969	440.599	-0.024	-0.053
-173.954	31.599	-0.006	0.005
-172.939	11.827	-0.286	0.219
-171.925	-22.495	0.276	-0.167
-170.910	-116.327	-0.156	0.029
-169.896	-200.000	-0.000	-0.036
-168.881	-200.000	-0.038	0.176
-167.866	414.562	0.179	0.381
-166.852	-47.573	-0.252	0.122
-165.837	242.384	0.157	-0.262
-164.823	-200.000	0.011	0.264
-163.808	-13.939	0.239	0.155
-162.793	800.000	-0.102	-0.358
-161.779	-75.551	-0.502	0.179
-160.764	-157.590	-0.301	-0.018
-159.750	639.303	0.095	-0.241
-158.735	-200.000	-0.018	-0.221
-157.720	-122.142	-0.168	-0.028
-156.706	800.000	0.059	-0.218
-155.691	-91.230	-0.269	-0.077
-154.677	800.000	0.022	-0.089
-153.662	33.333	-0.265	0.230
-152.647	-200.000	0.003	0.116
-151.633	-68.037	0.292	0.114
-150.618	-200.000	0.020	-0.202
-149.604	3.442	-0.213	0.155
-148.589	333.896	-0.068	-0.132
-147.574	54.305	-0.318	0.306
-146.560	93.921	-0.099	-0.112
-145.545	101.422	-0.142	-0.165
-144.531	502.852	0.116	0.268
-143.516	-200.000	-0.018	-0.100
-142.502	69.902	0.038	-0.039
-141.487	10.455	-0.123	-0.094
-140.472	198.167	0.080	0.122
-139.458	151.588	0.142	-0.193
-138.443	46.776	0.174	-0.161
-137.429	125.434	-0.099	0.124
-136.414	-6.877	-0.042	-0.029
-135.399	-131.725	-0.169	0.022
-134.385	-200.000	-0.015	-0.171
-133.370	82.263	-0.150	-0.162
-132.356	-60.337	0.075	0.032
-131.341	-36.466	-0.095	-0.051
-130.326	-15.023	-0.066	0.042
-129.312	402.122	0.065	0.136
-128.297	6.075	0.142	0.105
-127.283	-200.000	-0.015	0.079
-126.268	-117.361	-0.104	-0.019
-125.253	-200.000	0.009	-0.088
-124.239	553.104	-0.147	-0.352
-123.224	-200.000	0.008	-0.119
-122.210	-22.157	0.095	0.058
-121.195	-200.000	-0.001	0.052
