DTS Sentinel unit serial number:	SN413079Multiplexer serial number:	ORYXHardware model number:	OX4-SRSoftware version number:	ORYX F/W v4.00 Oryx Data Collector v3.7.2.0data status	okinstallation	princeton_trtdifferential loss correction	single-endedforward channel	channel 3reverse channel	N/Adate	2019/09/18time	03:28:35forward acquisition time	60.00reverse acquisition time	0.00gamma	496.2192k internal	0.2344k external	0.2344temperature offset calibration	0.9947default loss term (dB/km)	0.3790temperature slope calibration	1.0000multiplexer offset coefficient	1.0000multiplexer slope coefficient	1.0000fibre end	0.00T internal ref (°C)	22.81T ext. ref 1 (°C)	0.17T ext. ref 2 (°C)	17.41length (m)	temperature (°C)	Stokes	anti-Stokes-747.200	-65.125	-0.182	-0.073
-746.185	-200.000	0.004	0.135
-745.171	305.774	-0.028	0.053
-744.156	117.373	-0.189	0.233
-743.142	737.130	-0.247	0.664
-742.127	21.190	-0.292	0.237
-741.112	194.092	0.115	0.174
-740.098	-92.191	-0.315	0.089
-739.083	-16.358	0.114	0.073
-738.069	-114.440	-0.262	0.050
-737.054	-59.566	0.285	0.123
-736.039	800.000	-0.097	0.423
-735.025	178.230	0.142	0.207
-734.010	-152.008	0.168	0.012
-732.996	-97.635	-0.370	0.096
-731.981	-146.437	-0.397	-0.035
-730.966	-89.415	-0.403	-0.119
-729.952	556.183	-0.152	-0.366
-728.937	479.043	0.153	0.348
-727.923	-200.000	-0.052	-0.294
-726.908	-61.292	-0.305	0.128
-725.894	-200.000	-0.048	0.230
-724.879	-47.798	-0.060	-0.029
-723.864	-59.039	-0.235	0.101
-722.850	193.888	0.182	-0.276
-721.835	9.585	0.166	0.125
-720.821	-100.122	-0.049	-0.012
-719.806	-200.000	0.030	-0.174
-718.791	-26.350	-0.219	-0.129
-717.777	-62.207	-0.095	-0.039
-716.762	-163.226	-0.283	0.014
-715.748	64.520	-0.203	0.204
-714.733	-7.590	0.205	-0.139
-713.718	168.954	0.100	0.143
-712.704	73.801	0.068	0.072
-711.689	-125.109	0.131	-0.020
-710.675	-115.113	0.140	0.026
-709.660	-153.529	0.411	-0.028
-708.645	-122.047	0.167	-0.027
-707.631	800.000	0.051	-0.194
-706.616	291.922	0.146	-0.265
-705.602	-110.013	0.326	0.068
-704.587	800.000	0.037	-0.121
-703.572	-60.796	-0.138	-0.058
-702.558	-200.000	-0.010	-0.049
-701.543	-200.000	0.006	0.101
-700.529	27.923	-0.131	0.110
-699.514	800.000	0.043	0.136
-698.499	800.000	-0.029	-0.082
-697.485	-118.760	-0.131	-0.023
-696.470	64.866	-0.250	-0.252
-695.456	-86.576	0.121	0.037
-694.441	-59.995	-0.205	0.088
-693.426	-47.331	0.193	0.094
-692.412	246.931	0.246	0.414
-691.397	-200.000	0.083	-0.379
-690.383	-32.872	0.024	0.013
-689.368	-26.655	-0.270	0.158
-688.354	453.335	-0.209	-0.462
-687.339	-200.000	0.002	-0.095
-686.324	191.274	-0.082	0.123
-685.310	130.544	0.010	-0.013
-684.295	-125.138	-0.243	-0.037
-683.281	45.114	0.045	-0.042
-682.266	-110.193	0.087	0.018
-681.251	589.958	-0.108	-0.265
-680.237	78.068	0.167	-0.178
-679.222	136.325	-0.091	-0.119
-678.208	121.962	-0.212	-0.264
-677.193	-81.566	0.237	-0.078
-676.178	800.000	-0.021	-0.058
-675.164	0.545	-0.163	-0.116
-674.149	-117.328	-0.274	0.050
-673.135	-29.758	-0.513	-0.292
-672.120	-200.000	0.053	0.453
-671.105	217.950	0.084	-0.133
-670.091	110.784	-0.120	-0.144
-669.076	3.771	-0.395	-0.288
-668.062	-90.785	0.244	-0.070
-667.047	102.258	0.290	0.338
-666.032	-146.023	0.166	0.015
-665.018	800.000	-0.046	0.173
-664.003	-14.755	0.213	-0.137
-662.989	-28.817	-0.092	-0.053
-661.974	2.344	-0.104	-0.075
-660.959	800.000	-0.062	-0.260
-659.945	83.891	0.085	-0.093
-658.930	-28.332	0.161	0.093
-657.916	14.086	-0.132	-0.102
-656.901	-200.000	-0.071	-0.375
-655.886	-185.398	-0.122	-0.002
-654.872	-65.041	0.170	-0.068
-653.857	800.000	0.138	-0.450
-652.843	206.422	-0.138	-0.214
-651.828	-50.033	0.196	-0.093
-650.814	-122.266	-0.390	0.064
-649.799	-55.681	0.158	0.070
-648.784	-200.000	-0.013	-0.243
-647.770	-23.390	0.243	-0.145
-646.755	27.454	0.220	-0.184
-645.741	-72.633	0.297	-0.109
-644.726	800.000	-0.056	0.167
-643.711	-71.175	0.226	-0.085
-642.697	19.508	-0.168	-0.135
-641.682	208.666	-0.253	-0.395
-640.668	-177.067	0.145	0.004
-639.653	290.177	0.090	-0.163
-638.638	241.001	-0.084	0.140
-637.624	-160.520	-0.066	-0.003
-636.609	139.120	0.159	-0.209
-635.595	130.204	-0.135	-0.172
-634.580	-95.373	0.131	0.035
-633.565	-200.000	0.009	-0.183
-632.551	-200.000	0.048	0.237
-631.536	800.000	-0.171	-0.489
-630.522	-90.714	-0.112	0.032
-629.507	685.362	0.036	0.095
-628.492	211.362	-0.064	-0.101
-627.478	-28.120	-0.321	0.185
-626.463	-28.363	-0.222	-0.128
-625.449	90.889	0.134	0.149
-624.434	32.003	0.184	0.158
-623.419	800.000	0.080	-0.245
-622.405	42.290	0.130	-0.118
-621.390	122.609	0.143	0.178
-620.376	-79.832	0.132	0.044
-619.361	4.455	0.133	-0.097
-618.346	40.510	-0.063	-0.056
-617.332	-148.127	-0.111	-0.009
-616.317	-200.000	-0.010	-0.245
-615.303	119.190	-0.157	-0.193
-614.288	-91.106	0.369	-0.106
-613.273	800.000	-0.023	-0.092
-612.259	48.392	0.084	0.078
-611.244	-57.450	-0.204	-0.089
-610.230	-77.392	-0.395	-0.137
-609.215	-42.051	-0.067	-0.034
-608.201	-200.000	0.063	-0.345
-607.186	775.796	0.150	-0.407
-606.171	-200.000	0.004	-0.497
-605.157	-200.000	-0.025	-0.315
-604.142	-200.000	-0.005	0.177
-603.128	-200.000	0.014	0.076
-602.113	-22.627	-0.077	-0.047
-601.098	-99.109	0.398	-0.100
-600.084	800.000	-0.076	-0.269
-599.069	800.000	0.094	0.315
-598.055	-71.487	-0.082	-0.031
-597.040	-200.000	0.018	-0.168
-596.025	102.001	0.258	-0.300
-595.011	685.902	-0.185	-0.481
-593.996	4.089	0.110	-0.080
-592.982	-200.000	0.025	0.184
-591.967	-200.000	-0.009	-0.051
-590.952	43.699	0.091	-0.083
-589.938	-84.490	-0.179	0.056
-588.923	32.526	0.056	0.048
-587.909	280.646	0.208	0.369
-586.894	800.000	0.031	0.102
-585.879	-11.109	0.152	-0.100
-584.865	-77.445	0.259	-0.089
-583.850	-106.304	-0.272	0.061
-582.836	-200.000	-0.050	-0.242
-581.821	-200.000	-0.068	0.000
-580.806	-200.000	-0.073	0.548
-579.792	-200.000	-0.007	-0.094
-578.777	-99.695	-0.392	-0.098
-577.763	-139.584	-0.108	0.012
-576.748	405.352	-0.005	-0.011
-575.733	-58.758	0.254	-0.109
-574.719	-96.191	-0.348	0.092
-573.704	34.789	0.244	0.212
-572.690	596.995	0.102	0.250
-571.675	-163.495	-0.301	-0.014
-570.661	-69.701	-0.376	-0.143
-569.646	-200.000	0.062	0.406
-568.631	170.528	-0.197	0.280
-567.617	11.972	0.237	-0.181
-566.602	-135.498	0.141	-0.017
-565.588	800.000	-0.115	0.439
-564.573	-50.643	0.201	-0.094
-563.558	32.817	0.173	0.149
-562.544	800.000	-0.042	-0.183
-561.529	-163.084	0.423	-0.020
-560.515	-200.000	-0.024	0.307
-559.500	-200.000	-0.028	0.333
-558.485	322.606	-0.160	-0.303
-557.471	-200.000	0.017	0.168
-556.456	272.240	0.105	0.183
-555.442	800.000	-0.038	-0.138
-554.427	-200.000	0.053	-0.306
-553.412	-145.207	0.103	0.009
-552.398	57.578	-0.380	-0.369
-551.383	-200.000	0.012	-0.075
-550.369	120.154	-0.321	0.396
-549.354	-200.000	0.017	0.312
-548.339	-57.165	-0.094	-0.041
-547.325	-200.000	0.029	0.236
-546.310	646.934	0.037	-0.095
-545.296	-97.763	-0.374	-0.096
-544.281	-200.000	-0.029	0.406
-543.266	260.379	0.177	-0.303
-542.252	91.834	0.228	-0.255
-541.237	-200.000	-0.028	-0.315
-540.223	-25.320	0.130	0.076
-539.208	-147.142	-0.409	0.035
-538.193	800.000	0.060	-0.218
-537.179	184.339	0.230	-0.339
-536.164	6.898	0.483	0.357
-535.150	193.414	0.020	0.031
-534.135	56.994	0.273	-0.264
-533.121	-98.339	0.242	0.062
-532.106	-85.098	0.088	0.027
-531.091	94.116	-0.264	-0.298
-530.077	373.032	-0.072	-0.144
-529.062	-200.000	0.056	0.294
-528.048	-74.693	0.216	-0.077
-527.033	-22.789	-0.123	-0.074
-526.018	-200.000	-0.018	-0.268
-525.004	-154.242	0.108	-0.007
-523.989	-200.000	-0.005	-0.173
-522.975	-95.168	-0.323	0.086
-521.960	-127.592	-0.240	-0.035
-520.945	-4.092	-0.180	-0.124
-519.931	-200.000	0.009	-0.166
-518.916	98.070	-0.112	-0.128
-517.902	44.416	-0.075	-0.068
-516.887	322.901	-0.174	0.330
-515.872	240.750	-0.163	0.270
-514.858	18.527	0.207	-0.164
-513.843	-173.104	-0.261	-0.008
-512.829	325.537	0.071	0.135
-511.814	-76.550	0.282	0.098
-510.799	-195.388	-0.110	0.001
-509.785	-200.000	-0.031	-0.223
-508.770	54.820	0.032	-0.031
-507.756	785.604	0.093	-0.252
-506.741	-70.102	0.074	-0.028
-505.726	800.000	0.056	-0.158
-504.712	-100.816	0.136	0.033
-503.697	800.000	-0.031	-0.090
-502.683	-200.000	-0.046	0.220
-501.668	115.460	-0.113	-0.137
-500.653	-92.388	-0.369	-0.103
-499.639	-143.065	-0.339	0.032
-498.624	-53.558	-0.261	-0.118
-497.610	41.353	-0.073	0.066
-496.595	-200.000	0.008	-0.171
-495.581	-200.000	-0.029	0.312
-494.566	-84.310	-0.339	-0.106
-493.551	559.361	-0.086	-0.206
-492.537	-200.000	0.178	-0.001
-491.522	170.341	0.128	-0.182
-490.508	-53.371	-0.020	0.009
-489.493	297.223	-0.017	-0.031
-488.478	-200.000	-0.003	0.165
-487.464	17.126	-0.113	0.089
-486.449	365.317	-0.025	-0.051
-485.435	800.000	0.040	-0.125
-484.420	311.504	-0.059	0.110
-483.405	262.922	-0.032	0.055
-482.391	159.434	0.286	-0.394
-481.376	-200.000	-0.010	0.210
-480.362	-183.606	-0.196	0.003
-479.347	-117.654	-0.273	0.049
-478.332	-80.323	-0.165	0.055
-477.318	-41.342	-0.228	0.116
-476.303	800.000	0.055	0.194
-475.289	800.000	0.028	-0.085
-474.274	129.370	-0.084	-0.107
-473.259	148.756	-0.091	0.122
-472.245	-200.000	0.021	-0.192
-471.230	-200.000	-0.024	0.172
-470.216	-32.827	0.185	-0.102
-469.201	-33.794	0.402	0.220
-468.186	181.532	-0.151	-0.220
-467.172	-38.948	-0.033	-0.017
-466.157	123.002	0.030	0.037
-465.143	40.087	-0.116	-0.103
-464.128	-59.275	-0.187	0.080
-463.113	61.342	-0.102	0.100
-462.099	-200.000	0.005	-0.057
-461.084	-151.506	-0.343	0.025
-460.070	-200.000	-0.020	0.201
-459.055	-42.173	0.333	-0.168
-458.040	549.837	-0.051	0.120
-457.026	-112.388	0.147	0.029
-456.011	-200.000	0.048	0.432
-454.997	477.900	0.077	0.172
-453.982	506.266	-0.106	0.243
-452.968	-87.007	-0.227	-0.068
-451.953	-200.000	0.013	-0.151
-450.938	558.433	-0.025	-0.059
-449.924	-74.604	-0.370	0.132
-448.909	207.034	0.052	0.080
-447.895	134.226	0.224	0.287
-446.880	18.640	-0.382	0.302
-445.865	-75.741	-0.296	0.104
-444.851	85.171	0.107	-0.116
-443.836	-108.924	-0.132	-0.028
-442.822	65.323	0.041	-0.041
-441.807	-0.637	-0.033	-0.023
-440.792	53.056	-0.128	-0.121
-439.778	-66.949	-0.151	0.059
-438.763	-85.324	-0.110	-0.034
-437.749	-93.084	-0.160	0.044
-436.734	-20.215	-0.416	-0.253
-435.719	-56.803	-0.143	0.063
-434.705	-98.299	-0.262	-0.066
-433.690	800.000	0.014	0.041
-432.676	-144.079	-0.278	0.026
-431.661	-84.424	0.243	0.076
-430.646	-200.000	0.010	0.110
-429.632	-123.790	-0.507	-0.079
-428.617	5.367	0.369	-0.269
-427.603	-9.198	-0.273	0.180
-426.588	38.673	-0.274	0.242
-425.573	324.929	-0.072	-0.136
-424.559	-66.105	0.348	0.137
-423.544	401.667	-0.048	-0.099
-422.530	-177.797	-0.409	0.010
-421.515	104.373	0.191	0.222
-420.500	583.819	-0.095	0.230
-419.486	800.000	0.036	-0.114
-418.471	-116.200	-0.043	0.008
-417.457	-15.603	0.157	-0.099
-416.442	500.777	-0.045	-0.102
-415.428	-137.289	0.106	0.012
-414.413	-43.632	-0.268	-0.133
-413.398	-101.681	0.070	-0.017
-412.384	800.000	0.056	0.159
-411.369	-200.000	0.037	0.192
-410.355	57.526	-0.221	-0.214
-409.340	-27.843	-0.113	0.065
-408.325	421.051	-0.222	-0.470
-407.311	-153.844	0.352	0.024
-406.296	800.000	-0.014	-0.051
-405.282	-200.000	-0.042	0.239
-404.267	20.240	-0.174	-0.138
-403.252	800.000	-0.083	-0.312
-402.238	-200.000	0.005	0.054
-401.223	-63.537	-0.118	0.048
-400.209	563.843	-0.111	0.264
-399.194	36.145	0.187	0.163
-398.179	-148.602	-0.065	0.005
-397.165	92.675	0.041	0.046
-396.150	21.572	-0.152	-0.122
-395.136	-38.399	0.176	-0.092
-394.121	713.037	0.198	0.517
-393.106	-121.757	-0.163	0.027
-392.092	-200.000	0.003	0.410
-391.077	-144.343	0.273	-0.025
-390.063	-200.000	-0.015	-0.108
-389.048	-141.960	0.079	0.008
-388.033	-200.000	-0.014	0.106
-387.019	-144.974	-0.212	-0.019
-386.004	122.715	-0.016	-0.020
-384.990	800.000	0.046	-0.149
-383.975	-99.881	0.195	0.048
-382.960	-89.567	-0.266	0.077
-381.946	800.000	0.061	0.216
-380.931	312.155	0.062	0.115
-379.917	-200.000	0.061	-0.349
-378.902	148.316	-0.134	0.179
-377.888	-200.000	-0.044	0.229
-376.873	21.738	-0.235	0.189
-375.858	-53.177	0.135	-0.061
-374.844	-96.527	-0.334	-0.087
-373.829	478.774	0.099	0.222
-372.815	-200.000	-0.020	-0.120
-371.800	235.419	0.065	-0.106
-370.785	800.000	0.091	0.283
-369.771	800.000	0.134	0.429
-368.756	133.863	-0.286	0.365
-367.742	-200.000	-0.022	-0.117
-366.727	-99.498	0.152	0.038
-365.712	-46.399	0.437	-0.212
-364.698	273.646	-0.028	-0.048
-363.683	-200.000	0.085	0.385
-362.669	-15.338	0.018	-0.011
-361.654	-53.913	-0.336	-0.151
-360.639	42.945	0.201	-0.181
-359.625	-200.000	-0.072	-0.346
-358.610	-164.618	0.408	-0.018
-357.596	314.200	-0.040	0.074
-356.581	-200.000	0.012	0.084
-355.566	-168.824	-0.058	-0.002
-354.552	800.000	0.060	0.244
-353.537	-68.310	-0.173	0.066
-352.523	-200.000	0.030	0.165
-351.508	-106.654	0.082	0.018
-350.493	-185.578	0.055	-0.001
-349.479	757.275	-0.011	-0.029
-348.464	42.027	-0.127	-0.114
-347.450	787.244	0.064	0.172
-346.435	-143.869	-0.065	-0.006
-345.420	-121.398	-0.118	-0.019
-344.406	-200.000	-0.014	-0.062
-343.391	85.933	0.361	0.391
-342.377	620.367	0.130	-0.322
-341.362	88.596	-0.052	-0.057
-340.348	-88.716	0.164	-0.048
-339.333	-34.474	-0.102	-0.055
-338.318	-200.000	0.003	0.097
-337.304	-200.000	-0.007	0.267
-336.289	-200.000	0.011	0.094
-335.275	-110.504	-0.115	-0.023
-334.260	228.939	0.149	0.239
-333.245	210.876	-0.165	0.255
-332.231	-200.000	-0.002	-0.107
-331.216	-200.000	-0.033	-0.209
-330.202	-87.003	-0.231	-0.069
-329.187	-117.060	-0.133	0.024
-328.172	-109.805	-0.267	0.055
-327.158	466.577	-0.087	-0.192
-326.143	133.608	0.093	-0.118
-325.129	-200.000	-0.009	0.144
-324.114	90.235	0.238	0.262
-323.099	194.841	0.114	0.170
-322.085	-17.248	0.228	-0.141
-321.070	-71.856	-0.123	0.045
-320.056	-200.000	0.005	-0.110
-319.041	-200.000	-0.021	-0.439
-318.026	-200.000	-0.018	0.093
-317.012	-94.386	0.136	0.037
-315.997	-30.603	0.294	0.164
-314.983	441.849	0.078	-0.167
-313.968	-38.258	0.112	-0.058
-312.953	305.357	-0.095	0.174
-311.939	40.398	0.295	0.262
-310.924	-108.670	-0.069	0.015
-309.910	800.000	0.059	0.197
-308.895	-39.282	0.267	0.138
-307.880	-176.108	0.175	-0.005
-306.866	-200.000	0.003	0.048
-305.851	45.435	0.218	0.198
-304.837	224.089	0.107	0.171
-303.822	-61.624	-0.328	-0.135
-302.807	-52.487	0.095	0.043
-301.793	-161.300	0.455	0.023
-300.778	-0.615	-0.412	0.287
-299.764	-200.000	-0.048	-0.244
-298.749	210.995	0.138	0.213
-297.735	-77.755	-0.098	0.033
-296.720	-10.053	0.224	0.146
-295.705	-60.397	-0.293	0.123
-294.691	202.146	-0.108	0.163
-293.676	-13.849	0.252	0.160
-292.662	275.271	0.109	0.191
-291.647	-93.775	0.072	-0.019
-290.632	800.000	0.020	-0.083
-289.618	800.000	-0.034	-0.143
-288.603	-144.874	-0.215	-0.019
-287.589	749.234	0.038	-0.101
-286.574	146.036	0.127	-0.168
-285.559	152.957	0.106	0.143
-284.545	-108.177	-0.145	-0.031
-283.530	-118.597	-0.089	-0.015
-282.516	-46.478	-0.095	0.046
-281.501	20.403	0.252	-0.200
-280.486	325.264	0.057	-0.107
-279.472	-200.000	0.048	-0.389
-278.457	800.000	-0.075	-0.209
-277.443	-141.713	-0.229	-0.023
-276.428	238.475	-0.201	0.327
-275.413	156.592	-0.076	-0.103
-274.399	-200.000	-0.089	-0.511
-273.384	800.000	0.080	-0.288
-272.370	707.293	0.033	0.085
-271.355	-131.214	0.216	0.028
-270.340	-20.509	0.125	0.075
-269.326	-200.000	-0.003	-0.173
-268.311	-31.459	-0.235	0.130
-267.297	-150.583	-0.288	-0.022
-266.282	20.548	-0.131	-0.104
-265.267	-200.000	-0.054	-0.303
-264.253	800.000	0.092	-0.290
-263.238	196.437	-0.129	-0.193
-262.224	188.790	-0.073	0.107
-261.209	56.980	0.264	-0.253
-260.195	79.308	-0.172	-0.181
-259.180	85.088	0.090	-0.097
-258.165	-200.000	-0.010	0.354
-257.151	313.507	0.072	-0.132
-256.136	800.000	-0.074	0.235
-255.122	38.899	0.067	-0.059
-254.107	-125.579	-0.195	0.029
-253.092	-200.000	0.000	0.067
-252.078	-101.567	0.105	-0.025
-251.063	-200.000	-0.145	0.001
-250.049	-65.059	0.206	-0.081
-249.034	-141.640	0.456	0.045
-248.019	-111.425	0.175	0.035
-247.005	800.000	-0.026	-0.097
-245.990	98.850	0.202	0.229
-244.976	-42.834	0.159	0.079
-243.961	112.488	-0.076	0.090
-242.946	491.953	0.065	0.146
-241.932	14.039	0.116	0.089
-240.917	602.217	0.017	-0.042
-239.903	127.145	0.199	-0.248
-238.888	-71.788	-0.276	-0.101
-237.873	20.973	-0.397	0.315
-236.859	-200.000	0.049	0.237
-235.844	462.748	0.175	-0.384
-234.830	-4.121	0.236	0.160
-233.815	56.099	0.221	0.210
-232.800	-92.661	0.155	0.043
-231.786	96.555	-0.091	0.102
-230.771	-10.200	-0.018	-0.012
-229.757	-57.619	0.268	-0.115
-228.742	32.615	-0.057	0.049
-227.727	64.193	0.102	-0.101
-226.713	-58.216	-0.350	-0.150
-225.698	73.998	0.160	0.164
-224.684	800.000	-0.053	0.151
-223.669	-68.514	0.086	-0.033
-222.655	241.454	0.155	0.254
-221.640	-197.964	0.217	-0.001
-220.625	800.000	-0.012	0.038
-219.611	48.847	0.235	-0.217
-218.596	-121.843	-0.079	-0.013
-217.582	800.000	-0.070	0.255
-216.567	4.644	-0.167	0.120
-215.552	119.905	0.081	0.098
-214.538	-200.000	-0.006	-0.061
-213.523	2.486	-0.203	0.144
-212.509	175.414	-0.089	0.127
-211.494	-47.756	-0.288	0.137
-210.479	161.535	0.192	-0.264
-209.465	-149.169	-0.041	0.003
-208.450	-200.000	0.013	0.490
-207.436	-200.000	-0.101	-0.438
-206.421	344.529	-0.174	-0.335
-205.406	305.104	0.142	0.258
-204.392	245.187	0.112	0.185
-203.377	-41.355	-0.087	-0.044
-202.363	114.408	-0.124	0.148
-201.348	-136.394	0.301	0.034
-200.333	-22.758	-0.284	0.168
-199.319	800.000	-0.090	-0.258
-198.304	-41.701	-0.271	-0.136
-197.290	-148.499	0.116	-0.009
-196.275	-58.469	0.220	-0.093
-195.260	85.694	-0.157	-0.169
-194.246	-54.719	-0.022	0.010
-193.231	208.526	0.046	0.070
-192.217	-81.973	-0.149	0.048
-191.202	-42.276	0.196	0.098
-190.187	-75.663	0.317	0.110
-189.173	-66.810	0.287	-0.111
-188.158	324.110	-0.200	-0.373
-187.144	-200.000	0.041	0.243
-186.129	-142.290	0.234	0.023
-185.114	-200.000	-0.018	0.211
-184.100	-138.860	-0.258	0.028
-183.085	800.000	0.074	0.305
-182.071	-200.000	0.052	0.000
-181.056	-87.205	0.419	-0.125
-180.042	70.926	0.188	-0.190
-179.027	116.731	0.066	0.080
-178.012	-121.738	0.235	0.038
-176.998	-128.297	-0.112	-0.016
-175.983	-96.555	-0.306	0.079
-174.969	-147.778	0.489	-0.040
-173.954	-33.359	-0.188	0.102
-172.939	-200.000	-0.009	0.071
-171.925	480.241	-0.123	0.274
-170.910	-20.542	0.395	-0.237
-169.896	-51.350	0.158	0.072
-168.881	167.150	-0.189	0.263
-167.866	-42.583	-0.134	-0.067
-166.852	267.647	-0.079	0.136
-165.837	-97.643	0.173	0.044
-164.823	-200.000	0.055	-0.253
-163.808	160.716	-0.229	-0.312
-162.793	-136.684	0.461	-0.052
-161.779	-107.028	0.373	-0.081
-160.764	800.000	0.033	-0.103
-159.750	-127.655	-0.190	0.027
-158.735	-160.307	0.182	-0.010
-157.720	235.626	0.007	0.011
-156.706	299.657	0.065	0.117
-155.691	-149.367	0.289	0.022
-154.677	-200.000	-0.022	0.313
-153.662	94.690	0.096	-0.107
-152.647	6.254	0.233	-0.169
-151.633	-13.600	-0.331	-0.210
-150.618	-39.242	0.284	-0.146
-149.604	-41.676	0.175	0.088
-148.589	-2.617	-0.155	0.106
-147.574	196.682	0.011	-0.016
-146.560	-20.508	0.199	0.120
-145.545	490.140	-0.048	-0.107
-144.531	-126.946	0.276	-0.040
-143.516	243.806	0.147	-0.240
-142.502	365.485	0.094	0.184
-141.487	800.000	-0.071	0.238
-140.472	8.239	-0.208	-0.153
-139.458	-126.853	0.369	0.053
-138.443	-183.328	0.195	0.003
-137.429	717.529	-0.120	0.311
-136.414	-7.191	0.144	0.096
-135.399	15.556	0.060	-0.046
-134.385	-86.891	0.067	-0.020
-133.370	-200.000	-0.035	0.302
-132.356	-89.178	0.265	-0.076
-131.341	800.000	0.035	-0.139
-130.326	298.901	0.142	-0.256
-129.312	-52.773	-0.150	-0.067
-128.297	-8.116	0.136	-0.090
-127.283	800.000	-0.031	-0.085
-126.268	-45.420	0.073	-0.035
-125.253	717.978	0.039	0.102
-124.239	525.056	-0.118	-0.272
-123.224	132.298	-0.242	0.305
-122.210	-167.617	-0.170	-0.007
