DTS Sentinel unit serial number:	SN413079Multiplexer serial number:	ORYXHardware model number:	OX4-SRSoftware version number:	ORYX F/W v4.00 Oryx Data Collector v3.7.2.0data status	okinstallation	princeton_trtdifferential loss correction	single-endedforward channel	channel 3reverse channel	N/Adate	2019/09/14time	20:28:35forward acquisition time	60.00reverse acquisition time	0.00gamma	496.2192k internal	0.2315k external	0.2315temperature offset calibration	1.0011default loss term (dB/km)	0.3790temperature slope calibration	1.0000multiplexer offset coefficient	1.0000multiplexer slope coefficient	1.0000fibre end	0.00T internal ref (°C)	33.56T ext. ref 1 (°C)	4.88T ext. ref 2 (°C)	28.16length (m)	temperature (°C)	Stokes	anti-Stokes-747.200	-9.209	0.108	-0.073
-746.185	-35.638	0.111	0.061
-745.171	11.254	0.267	-0.207
-744.156	-200.000	-0.004	0.066
-743.142	373.103	0.035	0.071
-742.127	800.000	0.025	0.092
-741.112	800.000	0.092	-0.262
-740.098	-147.531	0.201	-0.017
-739.083	-93.565	0.254	-0.071
-738.069	30.055	-0.228	0.197
-737.054	218.721	0.080	-0.129
-736.039	-94.525	-0.404	0.111
-735.025	620.025	-0.096	0.243
-734.010	-100.306	-0.191	0.048
-732.996	800.000	0.082	0.241
-731.981	197.309	-0.226	-0.349
-730.966	210.521	-0.053	-0.085
-729.952	-60.204	-0.135	0.058
-728.937	-200.000	-0.010	0.046
-727.923	-172.399	-0.195	0.006
-726.908	90.797	-0.122	0.139
-725.894	65.896	-0.200	-0.205
-724.879	800.000	-0.095	-0.309
-723.864	-200.000	0.030	-0.242
-722.850	6.943	0.300	0.227
-721.835	-98.076	-0.453	-0.118
-720.821	140.875	0.190	-0.254
-719.806	-1.689	0.090	0.064
-718.791	-58.649	-0.152	-0.067
-717.777	54.861	-0.136	-0.133
-716.762	-92.059	0.316	0.090
-715.748	574.911	-0.084	-0.207
-714.733	800.000	0.008	-0.024
-713.718	-1.719	0.203	-0.144
-712.704	547.361	-0.178	-0.432
-711.689	-186.929	-0.288	0.004
-710.675	-32.897	-0.221	0.124
-709.660	333.172	-0.030	-0.058
-708.645	-180.728	-0.040	0.001
-707.631	187.380	-0.190	0.287
-706.616	202.591	0.159	0.249
-705.602	-67.826	0.120	0.047
-704.587	-38.410	0.162	-0.087
-703.572	220.171	0.036	-0.058
-702.558	-28.949	0.161	-0.094
-701.543	800.000	0.043	0.179
-700.529	33.701	-0.240	0.211
-699.514	43.754	0.207	-0.192
-698.499	-113.725	-0.067	0.013
-697.485	-57.637	-0.169	-0.075
-696.470	-200.000	0.049	-0.274
-695.456	611.213	-0.098	-0.247
-694.441	-77.151	-0.156	-0.055
-693.426	499.919	-0.048	-0.112
-692.412	-200.000	-0.061	-0.608
-691.397	-9.501	-0.162	0.109
-690.383	50.129	-0.143	0.136
-689.368	800.000	0.026	0.100
-688.354	800.000	0.050	-0.155
-687.339	-120.969	-0.187	0.032
-686.324	800.000	0.094	0.390
-685.310	-81.610	-0.022	-0.007
-684.295	-200.000	-0.024	-0.255
-683.281	124.825	-0.175	-0.223
-682.266	35.442	-0.166	0.148
-681.251	-120.657	-0.434	0.074
-680.237	-152.137	0.319	0.023
-679.222	72.333	0.128	0.135
-678.208	9.308	-0.222	-0.170
-677.193	-140.884	-0.390	-0.041
-676.178	-6.150	0.324	-0.224
-675.164	-200.000	-0.108	-0.491
-674.149	-200.000	-0.001	0.278
-673.135	-160.261	0.340	0.019
-672.120	-74.754	-0.016	0.006
-671.105	540.087	-0.049	-0.117
-670.091	-100.611	0.041	0.010
-669.076	-72.512	0.073	-0.027
-668.062	-200.000	-0.008	0.041
-667.047	-38.682	0.353	-0.188
-666.032	-200.000	-0.003	-0.329
-665.018	-200.000	0.048	-0.398
-664.003	800.000	0.126	0.374
-662.989	322.674	0.157	-0.301
-661.974	-96.067	0.207	0.056
-660.959	449.599	0.066	-0.147
-659.945	114.625	-0.201	0.248
-658.930	-190.377	-0.144	-0.002
-657.916	-200.000	-0.010	-0.338
-656.901	-200.000	0.051	0.287
-655.886	-200.000	-0.029	0.164
-654.872	-110.907	0.204	-0.042
-653.857	-69.219	0.297	0.115
-652.843	-24.180	0.183	-0.110
-651.828	27.482	-0.234	-0.198
-650.814	-168.007	0.095	0.004
-649.799	127.951	0.167	-0.214
-648.784	-141.744	-0.198	0.020
-647.770	568.118	-0.137	-0.337
-646.755	84.959	-0.203	-0.225
-645.741	-200.000	0.040	-0.477
-644.726	47.223	-0.325	-0.306
-643.711	-91.849	0.104	-0.030
-642.697	389.642	-0.098	0.205
-641.682	-116.775	-0.278	0.052
-640.668	-103.692	0.144	-0.034
-639.653	800.000	0.012	0.042
-638.638	-58.332	-0.139	-0.061
-637.624	71.855	0.146	0.154
-636.609	188.011	-0.300	0.452
-635.595	126.723	0.201	0.257
-634.580	800.000	-0.071	-0.234
-633.565	296.853	-0.136	-0.253
-632.551	800.000	0.045	0.156
-631.536	188.504	0.040	0.060
-630.522	-72.906	-0.217	0.081
-629.507	69.595	0.204	0.212
-628.492	-46.368	-0.156	0.077
-627.478	-200.000	-0.020	-0.117
-626.463	800.000	0.034	-0.107
-625.449	672.885	-0.054	-0.141
-624.434	93.218	0.160	0.183
-623.419	17.608	-0.292	-0.234
-622.405	-42.717	0.184	-0.094
-621.390	58.374	0.304	0.300
-620.376	196.204	0.076	0.116
-619.361	120.577	0.100	-0.125
-618.346	-200.000	-0.021	-0.242
-617.332	-87.660	-0.240	0.073
-616.317	63.399	-0.138	0.139
-615.303	128.738	-0.160	-0.205
-614.288	8.832	-0.144	-0.110
-613.273	-130.516	-0.269	0.037
-612.259	800.000	-0.122	-0.377
-611.244	-117.773	-0.338	-0.061
-610.230	231.428	-0.282	-0.466
-609.215	800.000	0.033	0.123
-608.201	-200.000	0.018	0.143
-607.186	800.000	-0.046	-0.145
-606.171	800.000	0.062	-0.260
-605.157	12.820	-0.262	0.204
-604.142	-43.101	0.112	-0.057
-603.128	764.588	0.103	0.282
-602.113	-58.623	-0.034	0.015
-601.098	203.124	0.126	0.196
-600.084	2.422	0.147	-0.107
-599.069	740.407	0.035	0.094
-598.055	92.116	0.320	0.363
-597.040	522.626	-0.032	0.075
-596.025	-200.000	0.028	-0.128
-595.011	207.982	-0.159	-0.250
-593.996	66.615	0.060	0.062
-592.982	-200.000	0.022	-0.525
-591.967	284.948	0.115	-0.208
-590.952	-200.000	-0.047	-0.407
-589.938	-149.957	0.077	-0.006
-588.923	-55.656	0.102	-0.046
-587.909	17.137	-0.081	0.064
-586.894	116.270	0.215	0.265
-585.879	-104.331	0.072	-0.017
-584.865	504.646	0.028	-0.066
-583.850	-147.041	-0.410	-0.035
-582.836	55.687	-0.211	0.206
-581.821	-200.000	0.002	0.167
-580.806	-163.048	-0.352	0.017
-579.792	-33.964	-0.139	-0.077
-578.777	-200.000	-0.014	-0.359
-577.763	377.584	0.039	-0.081
-576.748	-175.984	-0.220	0.006
-575.733	-44.114	-0.176	0.089
-574.719	301.149	-0.131	0.244
-573.704	301.746	0.080	0.149
-572.690	-121.832	-0.066	-0.011
-571.675	-56.973	0.344	-0.153
-570.661	60.332	0.048	-0.048
-569.646	30.672	-0.159	-0.137
-568.631	-79.103	0.336	0.115
-567.617	-133.263	0.202	0.026
-566.602	-119.313	-0.293	0.051
-565.588	189.123	0.090	-0.136
-564.573	-56.877	-0.036	0.016
-563.558	265.415	-0.241	0.422
-562.544	-157.606	0.223	-0.013
-561.529	-89.736	-0.577	-0.170
-560.515	-153.057	0.058	-0.004
-559.500	572.421	0.112	-0.275
-558.485	181.390	0.045	-0.067
-557.471	119.147	0.141	-0.176
-556.456	-41.478	-0.177	0.091
-555.442	-32.757	-0.136	0.076
-554.427	-140.949	-0.217	-0.022
-553.412	91.407	-0.090	0.101
-552.398	-73.437	0.229	-0.084
-551.383	263.233	0.194	-0.339
-550.369	107.983	-0.231	-0.277
-549.354	-112.721	-0.358	0.072
-548.339	-65.583	0.287	-0.116
-547.325	117.800	-0.296	-0.367
-546.310	388.430	0.099	-0.205
-545.296	-200.000	0.133	0.000
-544.281	6.462	-0.149	0.111
-543.266	-200.000	0.010	0.466
-542.252	-54.679	-0.085	-0.039
-541.237	49.232	-0.182	0.172
-540.223	-200.000	0.002	-0.022
-539.208	-157.069	0.471	-0.029
-538.193	800.000	0.054	-0.153
-537.179	141.125	0.015	0.020
-536.164	241.083	-0.073	0.122
-535.150	160.611	-0.073	0.103
-534.135	295.895	-0.188	0.345
-533.121	394.573	-0.099	-0.208
-532.106	-148.481	0.075	-0.006
-531.091	-77.764	-0.370	0.128
-530.077	-116.601	-0.509	0.094
-529.062	149.854	-0.144	-0.196
-528.048	134.984	0.163	0.212
-527.033	70.455	0.151	-0.157
-526.018	125.485	-0.142	-0.181
-525.004	130.812	0.178	-0.230
-523.989	-39.814	0.221	-0.116
-522.975	339.072	0.094	0.184
-521.960	-70.402	0.090	-0.034
-520.945	-42.140	-0.101	-0.052
-519.931	577.991	-0.105	0.258
-518.916	-2.221	0.084	-0.059
-517.902	158.475	0.195	0.272
-516.887	146.027	0.078	0.105
-515.872	-108.603	-0.087	-0.019
-514.858	68.385	-0.099	0.102
-513.843	-200.000	-0.038	0.169
-512.829	-200.000	0.010	-0.082
-511.814	-9.837	0.434	-0.290
-510.799	-145.974	-0.367	0.033
-509.785	-41.411	-0.257	0.133
-508.770	-200.000	0.008	-0.051
-507.756	58.401	-0.037	-0.037
-506.741	-134.348	-0.186	0.023
-505.726	-200.000	0.093	0.461
-504.712	30.219	-0.142	-0.122
-503.697	-34.709	0.076	0.042
-502.683	203.519	0.078	0.121
-501.668	384.695	0.074	0.152
-500.653	44.505	0.175	0.162
-499.639	233.337	0.139	0.230
-498.624	800.000	0.055	-0.186
-497.610	-200.000	0.016	0.200
-496.595	434.834	0.061	-0.134
-495.581	-200.000	-0.017	-0.097
-494.566	-200.000	-0.053	0.248
-493.551	-11.504	-0.162	-0.107
-492.537	-18.572	-0.096	0.060
-491.522	-183.540	-0.133	0.002
-490.508	-7.066	-0.201	0.137
-489.493	800.000	-0.087	0.315
-488.478	430.591	0.036	0.078
-487.464	85.022	0.245	0.269
-486.449	243.905	-0.116	-0.195
-485.435	-200.000	0.001	0.009
-484.420	90.242	-0.122	0.137
-483.405	-148.359	-0.426	0.035
-482.391	-147.311	0.239	0.020
-481.376	125.351	0.111	0.141
-480.362	84.228	0.140	0.154
-479.347	-41.797	0.379	-0.195
-478.332	-200.000	0.003	0.191
-477.318	-193.997	-0.206	0.002
-476.303	192.321	0.101	0.153
-475.289	800.000	0.120	0.432
-474.274	418.179	0.116	0.248
-473.259	61.677	0.245	0.245
-472.245	-200.000	-0.007	-0.123
-471.230	-88.538	0.185	0.055
-470.216	626.217	0.097	-0.246
-469.201	254.963	-0.117	-0.201
-468.186	93.974	-0.117	0.132
-467.172	8.751	-0.147	0.111
-466.157	-73.556	0.064	-0.024
-465.143	-61.108	0.452	0.191
-464.128	214.911	-0.132	0.210
-463.113	-85.750	-0.123	-0.038
-462.099	-131.976	0.233	0.030
-461.084	58.193	-0.030	0.030
-460.070	800.000	-0.049	0.167
-459.055	309.116	-0.164	-0.307
-458.040	-67.968	-0.261	-0.102
-457.026	-200.000	-0.003	0.146
-456.011	181.440	0.133	0.197
-454.997	4.541	-0.195	-0.144
-453.982	-39.746	0.216	0.113
-452.968	197.609	-0.142	-0.217
-451.953	-47.581	0.010	-0.005
-450.938	38.428	0.328	-0.293
-449.924	-200.000	-0.038	-0.405
-448.909	-200.000	-0.009	-0.094
-447.895	316.727	0.096	-0.182
-446.880	159.218	0.059	-0.082
-445.865	107.404	-0.148	0.176
-444.851	-66.463	-0.128	0.051
-443.836	119.310	-0.224	0.278
-442.822	136.997	-0.184	-0.240
-441.807	-96.163	0.428	-0.114
-440.792	61.367	-0.151	0.150
-439.778	-59.204	-0.336	0.145
-438.763	108.521	0.070	-0.083
-437.749	323.101	0.044	0.084
-436.734	-113.893	-0.235	0.046
-435.719	70.132	0.108	-0.112
-434.705	24.436	0.129	0.106
-433.690	-16.589	0.238	-0.151
-432.676	312.718	-0.062	-0.117
-431.661	800.000	-0.036	-0.110
-430.646	-102.956	0.275	-0.065
-429.632	-51.373	-0.173	-0.081
-428.617	-122.347	-0.070	-0.011
-427.603	-132.427	0.188	-0.024
-426.588	-200.000	-0.039	-0.286
-425.573	48.656	-0.246	0.231
-424.559	104.928	-0.131	0.155
-423.544	-19.041	0.230	0.143
-422.530	-56.322	-0.323	0.144
-421.515	273.011	0.182	-0.322
-420.500	137.171	-0.099	0.129
-419.486	190.426	-0.147	-0.221
-418.471	261.007	-0.089	-0.155
-417.457	800.000	0.113	-0.355
-416.442	-69.471	-0.069	0.027
-415.428	151.851	0.187	-0.255
-414.413	-32.994	0.080	0.044
-413.398	-9.072	0.210	-0.141
-412.384	-200.000	0.010	0.267
-411.369	-200.000	-0.009	0.283
-410.355	-21.535	-0.121	0.074
-409.340	342.037	0.072	0.140
-408.325	-200.000	-0.054	0.278
-407.311	-200.000	0.011	-0.270
-406.296	-106.253	0.067	0.015
-405.282	-111.418	-0.036	0.007
-404.267	-200.000	0.032	-0.209
-403.252	-169.026	-0.357	-0.013
-402.238	-122.683	0.043	-0.007
-401.223	528.021	-0.127	-0.300
-400.209	-179.771	-0.292	-0.006
-399.194	145.525	0.019	-0.026
-398.179	-200.000	-0.045	0.265
-397.165	105.750	0.140	-0.166
-396.150	734.112	-0.077	0.206
-395.136	-92.951	-0.515	-0.144
-394.121	-173.843	0.208	-0.006
-393.106	-200.000	-0.060	0.274
-392.092	-29.781	-0.332	0.189
-391.077	195.721	-0.110	0.167
-390.063	43.833	0.132	0.120
-389.048	-200.000	-0.023	-0.124
-388.033	42.075	0.285	-0.258
-387.019	-200.000	-0.009	0.198
-386.004	52.546	-0.222	0.212
-384.990	357.838	-0.070	-0.140
-383.975	-21.212	0.184	-0.112
-382.960	-70.376	-0.163	0.062
-381.946	-59.734	-0.244	-0.105
-380.931	162.715	0.079	0.111
-379.917	-200.000	0.003	-0.121
-378.902	-12.484	0.332	0.217
-377.888	-27.810	0.127	-0.073
-376.873	-176.142	-0.295	0.008
-375.858	496.053	0.101	-0.231
-374.844	64.285	0.158	0.158
-373.829	30.348	-0.204	0.174
-372.815	-84.380	-0.306	-0.097
-371.800	-70.384	-0.248	0.094
-370.785	800.000	-0.024	-0.099
-369.771	-200.000	0.058	-0.262
-368.756	453.128	-0.058	-0.127
-367.742	-200.000	-0.026	0.173
-366.727	-17.167	-0.053	0.033
-365.712	-200.000	0.041	-0.237
-364.698	800.000	0.052	0.148
-363.683	301.277	0.084	-0.154
-362.669	242.145	0.132	0.220
-361.654	55.181	0.184	-0.177
-360.639	-8.700	0.090	-0.060
-359.625	135.397	0.091	-0.119
-358.610	-149.695	0.079	-0.006
-357.596	800.000	-0.013	0.051
-356.581	60.119	-0.039	0.038
-355.566	-124.608	0.367	-0.057
-354.552	-200.000	0.071	0.332
-353.537	70.431	0.219	0.226
-352.523	9.621	0.134	0.102
-351.508	-200.000	0.041	0.226
-350.493	800.000	0.083	-0.293
-349.479	-34.726	0.116	0.063
-348.464	25.978	0.228	0.190
-347.450	-57.648	0.224	-0.098
-346.435	64.282	-0.162	-0.163
-345.420	-200.000	0.257	0.000
-344.406	346.429	0.152	-0.299
-343.391	13.776	-0.146	-0.114
-342.377	-17.429	0.072	0.045
-341.362	94.284	0.113	0.128
-340.348	65.488	0.357	0.360
-339.333	-0.641	-0.189	-0.134
-338.318	-92.656	0.289	0.081
-337.304	-200.000	-0.017	0.102
-336.289	42.375	0.137	0.124
-335.275	-200.000	0.336	0.000
-334.260	-58.698	0.179	0.077
-333.245	-76.957	-0.226	0.079
-332.231	143.406	-0.168	-0.224
-331.216	-200.000	0.004	0.064
-330.202	-89.497	0.288	0.084
-329.187	17.206	0.222	-0.175
-328.172	-189.374	0.092	0.001
-327.158	117.998	0.102	0.126
-326.143	447.712	-0.068	-0.149
-325.129	-145.485	0.223	-0.020
-324.114	-42.997	0.094	-0.048
-323.099	800.000	0.120	-0.434
-322.085	800.000	0.062	0.204
-321.070	109.380	-0.124	-0.148
-320.056	-3.268	0.143	-0.100
-319.041	-37.704	0.198	-0.105
-318.026	-128.534	-0.322	-0.045
-317.012	-174.097	-0.339	0.010
-315.997	800.000	-0.087	-0.290
-314.983	-65.626	-0.248	-0.099
-313.968	-2.037	-0.109	-0.076
-312.953	65.673	-0.292	0.295
-311.939	-90.171	-0.109	-0.032
-310.924	-200.000	0.023	0.123
-309.910	-45.419	0.291	0.144
-308.895	-5.568	0.081	0.055
-307.880	-200.000	-0.039	0.199
-306.866	74.038	0.022	0.023
-305.851	-16.898	-0.030	-0.019
-304.837	800.000	-0.122	0.451
-303.822	800.000	0.014	0.055
-302.807	159.556	0.178	-0.246
-301.793	140.973	0.183	-0.241
-300.778	800.000	0.117	-0.357
-299.764	-200.000	0.036	0.199
-298.749	-85.314	0.248	0.077
-297.735	-91.019	-0.186	-0.053
-296.720	800.000	0.107	0.302
-295.705	800.000	0.103	0.308
-294.691	89.836	-0.217	0.241
-293.676	-72.005	-0.141	0.052
-292.662	-78.740	0.242	-0.082
-291.647	-24.249	-0.267	0.159
-290.632	-200.000	0.009	0.134
-289.618	48.586	0.128	0.120
-288.603	539.530	0.114	0.271
-287.589	-104.416	0.121	-0.028
-286.574	-200.000	0.031	0.290
-285.559	-124.785	0.063	0.010
-284.545	173.706	-0.066	-0.095
-283.530	800.000	-0.047	-0.145
-282.516	-37.021	-0.296	-0.158
-281.501	-200.000	-0.015	-0.341
-280.486	139.462	0.081	0.106
-279.472	166.877	0.027	0.038
-278.457	-200.000	-0.008	0.165
-277.443	56.457	-0.162	0.156
-276.428	800.000	0.086	-0.240
-275.413	-61.683	-0.097	-0.040
-274.399	273.761	-0.107	-0.189
-273.384	262.223	0.071	0.123
-272.370	800.000	-0.044	-0.152
-271.355	41.759	0.116	0.105
-270.340	87.728	-0.175	0.193
-269.326	-179.166	-0.262	0.006
-268.311	194.350	0.111	-0.167
-267.297	-59.376	0.099	0.042
-266.282	-200.000	-0.012	-0.097
-265.267	-113.729	-0.253	0.049
-264.253	152.003	-0.017	0.023
-263.238	25.766	0.150	0.124
-262.224	-200.000	0.021	-0.137
-261.209	-94.365	0.241	-0.065
-260.195	192.721	-0.097	-0.146
-259.180	71.676	-0.154	0.159
-258.165	-133.511	-0.280	-0.035
-257.151	-26.572	0.053	0.031
-256.136	-80.933	-0.510	-0.168
-255.122	193.042	-0.097	0.146
-254.107	-200.000	-0.014	0.156
-253.092	-200.000	-0.041	0.192
-252.078	-81.559	0.243	-0.080
-251.063	-123.658	0.221	0.035
-250.049	-115.670	0.361	0.067
-249.034	-129.438	0.292	-0.040
-248.019	120.565	0.188	-0.232
-247.005	-31.914	-0.159	-0.089
-245.990	63.924	-0.256	0.256
-244.976	-19.864	-0.139	0.085
-243.961	-80.401	0.203	-0.067
-242.946	800.000	0.053	0.221
-241.932	-90.392	0.475	0.137
-240.917	-168.872	0.174	-0.006
-239.903	-104.818	0.144	-0.033
-238.888	35.773	-0.369	-0.322
-237.873	100.648	0.163	-0.188
-236.859	-172.891	0.148	-0.005
-235.844	800.000	-0.062	-0.198
-234.830	300.041	0.134	0.245
-233.815	68.751	-0.116	0.119
-232.800	-200.000	0.010	0.293
-231.786	-104.518	0.285	-0.065
-230.771	312.296	0.135	0.251
-229.757	-168.786	0.279	-0.010
-228.742	800.000	-0.063	-0.243
-227.727	-106.995	0.103	0.023
-226.713	-110.402	0.106	-0.022
-225.698	-48.963	-0.073	0.035
-224.684	159.766	0.143	-0.198
-223.669	-110.214	0.043	0.009
-222.655	39.564	-0.159	-0.142
-221.640	-24.977	0.095	-0.056
-220.625	348.691	-0.112	0.219
-219.611	43.086	0.068	-0.062
-218.596	25.519	-0.183	-0.151
-217.582	-61.631	0.076	0.032
-216.567	21.509	-0.143	0.115
-215.552	800.000	-0.056	0.191
-214.538	-200.000	-0.084	-0.421
-213.523	-167.066	-0.222	0.009
-212.509	-82.992	0.286	0.091
-211.494	1.147	-0.215	-0.153
-210.479	-87.521	0.508	0.152
-209.465	629.998	0.088	-0.222
-208.450	-200.000	-0.001	0.089
-207.436	163.731	0.183	0.255
-206.421	32.394	0.142	0.122
-205.406	-8.960	0.121	-0.080
-204.392	-9.364	-0.174	-0.115
-203.377	-200.000	-0.019	0.211
-202.363	72.859	0.050	0.051
-201.348	-197.678	0.234	0.001
-200.333	1.747	0.038	-0.027
-199.319	-24.626	0.218	-0.129
-198.304	-200.000	-0.026	-0.236
-197.290	-141.985	-0.196	-0.019
-196.275	-200.000	-0.022	0.213
-195.260	6.185	-0.111	0.081
-194.246	46.970	0.114	0.105
-193.231	-134.665	0.149	-0.018
-192.217	-116.138	0.141	-0.026
-191.202	-200.000	0.054	0.268
-190.187	358.041	-0.088	0.175
-189.173	210.539	-0.217	-0.338
-188.158	357.896	-0.083	-0.164
-187.144	-167.806	-0.153	-0.006
-186.129	-115.887	0.268	0.050
-185.114	10.743	-0.208	-0.157
-184.100	-23.267	0.183	-0.109
-183.085	-200.000	0.037	0.490
-182.071	-14.358	0.266	-0.170
-181.056	-75.838	-0.694	0.244
-180.042	254.563	0.276	0.468
-179.027	-141.421	-0.333	0.033
-178.012	-200.000	-0.018	-0.153
-176.998	263.727	0.097	-0.166
-175.983	-56.501	-0.278	-0.122
-174.969	56.878	0.130	-0.126
-173.954	-129.214	0.274	0.038
-172.939	800.000	-0.070	-0.287
-171.925	116.897	-0.167	0.204
-170.910	-193.140	-0.109	-0.001
-169.896	-200.000	0.022	-0.214
-168.881	28.171	-0.059	0.049
-167.866	83.879	-0.135	-0.146
-166.852	-200.000	-0.011	0.149
-165.837	-20.383	-0.098	-0.060
-164.823	-35.544	0.350	-0.188
-163.808	345.190	-0.126	0.244
-162.793	201.485	0.137	-0.209
-161.779	800.000	-0.101	-0.312
-160.764	106.954	0.319	-0.376
-159.750	35.146	-0.061	-0.053
-158.735	-200.000	0.041	0.236
-157.720	-24.687	0.276	-0.163
-156.706	-106.180	-0.193	0.043
-155.691	-107.676	0.241	-0.052
-154.677	-62.503	0.134	-0.055
-153.662	-80.426	-0.079	-0.026
-152.647	-35.759	0.134	-0.072
-151.633	-171.400	-0.304	-0.010
-150.618	-166.103	0.425	0.018
-149.604	800.000	0.068	0.265
-148.589	-188.608	0.104	0.001
-147.574	-74.778	0.142	0.050
-146.560	194.485	-0.086	-0.130
-145.545	-200.000	-0.006	-0.080
-144.531	-200.000	0.019	-0.212
-143.516	161.435	-0.110	-0.153
-142.502	-131.351	0.334	-0.044
-141.487	36.494	0.042	-0.036
-140.472	-47.529	0.369	0.178
-139.458	651.123	0.052	0.131
-138.443	26.584	-0.159	-0.132
-137.429	800.000	0.046	0.127
-136.414	500.249	0.075	-0.171
-135.399	-1.440	-0.138	-0.096
-134.385	-200.000	0.073	0.464
-133.370	-15.290	-0.179	0.113
-132.356	110.392	0.102	-0.121
-131.341	11.814	0.114	-0.087
-130.326	715.161	0.065	0.170
-129.312	800.000	-0.040	0.159
-128.297	-108.725	-0.145	0.031
-127.283	-67.800	0.219	-0.085
-126.268	-142.720	-0.302	-0.029
-125.253	132.654	-0.116	0.148
-124.239	193.464	0.024	0.036
-123.224	175.251	0.115	-0.165
-122.210	78.826	-0.097	-0.103
-121.195	-138.845	-0.345	0.037
-120.180	-200.000	-0.050	-0.449
