DTS Sentinel unit serial number:	SN413079Multiplexer serial number:	ORYXHardware model number:	OX4-SRSoftware version number:	ORYX F/W v4.00 Oryx Data Collector v3.7.2.0data status	okinstallation	princeton_trtdifferential loss correction	single-endedforward channel	channel 3reverse channel	N/Adate	2019/09/12time	21:36:35forward acquisition time	60.00reverse acquisition time	0.00gamma	496.2192k internal	0.2326k external	0.2326temperature offset calibration	1.0115default loss term (dB/km)	0.3790temperature slope calibration	1.0000multiplexer offset coefficient	1.0000multiplexer slope coefficient	1.0000fibre end	0.00T internal ref (°C)	30.37T ext. ref 1 (°C)	3.65T ext. ref 2 (°C)	24.99length (m)	temperature (°C)	Stokes	anti-Stokes-747.200	-193.177	0.242	0.002
-746.185	59.332	0.356	0.354
-745.171	-136.654	-0.178	0.021
-744.156	-129.669	-0.351	-0.049
-743.142	50.150	0.320	-0.305
-742.127	-109.659	-0.316	0.067
-741.112	79.839	-0.329	-0.356
-740.098	246.727	0.026	-0.044
-739.083	-72.281	-0.126	-0.047
-738.069	155.836	-0.157	0.218
-737.054	234.267	0.135	-0.225
-736.039	-52.684	-0.220	-0.102
-735.025	-78.712	0.260	0.090
-734.010	41.315	-0.044	0.040
-732.996	-6.456	0.104	-0.072
-731.981	800.000	0.095	-0.288
-730.966	490.921	-0.036	-0.083
-729.952	546.410	0.094	0.227
-728.937	234.345	-0.067	0.111
-727.923	577.141	-0.095	0.235
-726.908	0.593	-0.371	0.268
-725.894	800.000	-0.099	-0.294
-724.879	-100.262	-0.192	0.048
-723.864	395.036	-0.019	0.040
-722.850	-28.879	-0.203	-0.117
-721.835	0.255	0.240	0.173
-720.821	330.596	-0.067	0.130
-719.806	-120.828	0.474	0.081
-718.791	-37.773	-0.117	-0.063
-717.777	-49.172	-0.344	0.166
-716.762	-8.510	0.165	-0.112
-715.748	-80.053	0.152	0.051
-714.733	36.481	0.056	0.050
-713.718	-200.000	-0.009	-0.175
-712.704	800.000	0.049	0.137
-711.689	397.084	0.102	0.215
-710.675	-37.957	-0.312	-0.167
-709.660	159.093	-0.152	0.213
-708.645	397.372	0.136	-0.286
-707.631	-55.100	-0.175	-0.079
-706.616	100.462	-0.118	0.138
-705.602	223.172	0.122	-0.198
-704.587	-149.551	-0.226	-0.018
-703.572	-130.607	-0.021	-0.003
-702.558	77.370	0.030	0.032
-701.543	16.902	-0.169	-0.135
-700.529	800.000	0.039	-0.140
-699.514	0.925	-0.072	-0.052
-698.499	-200.000	-0.012	-0.087
-697.485	351.507	-0.050	-0.099
-696.470	579.860	-0.129	-0.319
-695.456	101.490	-0.157	0.185
-694.441	-137.841	0.098	-0.011
-693.426	-95.512	0.174	-0.047
-692.412	277.549	0.066	-0.119
-691.397	-60.473	-0.451	-0.193
-690.383	-163.480	-0.315	-0.015
-689.368	44.456	-0.082	-0.076
-688.354	3.152	-0.113	-0.083
-687.339	64.569	-0.190	0.193
-686.324	355.754	0.226	0.452
-685.310	-95.856	0.052	-0.014
-684.295	97.586	-0.101	-0.117
-683.281	579.400	-0.114	-0.280
-682.266	-200.000	-0.014	-0.123
-681.251	304.002	-0.138	0.258
-680.237	-200.000	-0.022	0.392
-679.222	53.151	0.169	-0.163
-678.208	-43.210	-0.203	0.103
-677.193	177.690	0.240	0.352
-676.178	-147.031	0.188	-0.016
-675.164	100.190	-0.158	-0.184
-674.149	275.462	-0.054	0.096
-673.135	10.309	0.185	-0.142
-672.120	57.266	-0.066	-0.065
-671.105	-200.000	0.049	0.297
-670.091	84.596	0.214	0.235
-669.076	243.359	-0.020	0.034
-668.062	113.674	0.155	0.190
-667.047	800.000	0.113	0.322
-666.032	-72.907	-0.210	-0.078
-665.018	-135.212	-0.160	-0.019
-664.003	800.000	0.067	-0.251
-662.989	170.911	0.113	0.163
-661.974	-7.051	-0.172	-0.117
-660.959	-72.864	0.167	0.062
-659.945	441.011	-0.058	-0.127
-658.930	-200.000	0.062	-0.427
-657.916	-200.000	0.003	-0.076
-656.901	-89.465	-0.145	-0.043
-655.886	-200.000	0.018	-0.211
-654.872	-200.000	0.020	-0.345
-653.857	481.186	-0.135	-0.308
-652.843	40.797	0.081	0.074
-651.828	-137.090	-0.211	-0.024
-650.814	47.849	-0.154	-0.144
-649.799	-18.435	0.051	-0.032
-648.784	554.845	-0.100	-0.241
-647.770	-34.558	-0.152	0.083
-646.755	384.180	0.118	0.244
-645.741	-40.882	0.140	-0.073
-644.726	-69.877	-0.195	0.075
-643.711	800.000	-0.036	-0.109
-642.697	-200.000	0.013	0.130
-641.682	-92.771	0.201	0.057
-640.668	86.798	-0.138	0.154
-639.653	56.965	-0.381	0.373
-638.638	-144.010	0.185	-0.017
-637.624	800.000	0.027	-0.082
-636.609	-85.302	0.280	-0.088
-635.595	-162.922	0.239	0.012
-634.580	-86.345	-0.095	0.029
-633.565	-110.712	-0.283	-0.059
-632.551	-64.451	0.048	-0.019
-631.536	98.005	0.229	0.265
-630.522	-1.145	-0.177	0.126
-629.507	486.531	-0.098	-0.224
-628.492	162.064	0.139	-0.196
-627.478	-57.557	-0.207	-0.091
-626.463	285.460	0.046	0.083
-625.449	262.558	-0.101	-0.175
-624.434	128.336	-0.060	0.076
-623.419	-200.000	0.027	0.261
-622.405	-164.547	0.344	-0.016
-621.390	27.295	0.108	0.091
-620.376	58.854	-0.252	-0.249
-619.361	800.000	-0.143	-0.467
-618.346	76.775	-0.226	-0.241
-617.332	40.526	-0.243	-0.220
-616.317	800.000	-0.075	0.213
-615.303	15.141	-0.272	0.214
-614.288	111.259	-0.213	-0.257
-613.273	155.588	0.106	-0.147
-612.259	800.000	0.020	0.058
-611.244	269.293	0.088	-0.156
-610.230	782.462	-0.097	-0.268
-609.215	-200.000	-0.009	-0.057
-608.201	-131.229	0.239	-0.032
-607.186	-200.000	-0.022	-0.110
-606.171	-95.188	-0.268	-0.073
-605.157	-200.000	-0.087	-0.413
-604.142	800.000	-0.035	0.153
-603.128	-200.000	-0.002	0.074
-602.113	-200.000	0.045	-0.294
-601.098	-42.917	-0.125	0.064
-600.084	-121.407	0.348	0.058
-599.069	-81.730	0.018	0.006
-598.055	22.136	0.331	-0.271
-597.040	-96.218	0.309	-0.082
-596.025	-126.239	0.030	-0.005
-595.011	-200.000	-0.015	-0.088
-593.996	-200.000	-0.050	-0.589
-592.982	800.000	0.078	0.273
-591.967	68.213	0.102	-0.104
-590.952	800.000	0.042	-0.180
-589.938	-200.000	0.040	-0.330
-588.923	-128.281	-0.146	0.021
-587.909	-200.000	-0.010	0.256
-586.894	68.254	0.233	-0.239
-585.879	-69.280	-0.265	-0.102
-584.865	-135.661	0.277	-0.033
-583.850	-12.711	-0.274	0.179
-582.836	-115.994	-0.042	-0.008
-581.821	736.373	0.055	0.149
-580.806	-125.791	-0.097	-0.015
-579.792	-169.970	0.128	-0.005
-578.777	-2.293	0.239	0.168
-577.763	103.465	-0.091	0.107
-576.748	-128.902	0.209	-0.029
-575.733	-159.389	0.397	-0.022
-574.719	-200.000	0.024	0.176
-573.704	-200.000	0.005	0.066
-572.690	144.267	-0.064	-0.085
-571.675	-179.634	0.155	-0.003
-570.661	-200.000	0.029	0.164
-569.646	800.000	-0.044	0.137
-568.631	163.708	0.100	0.141
-567.617	-200.000	-0.036	-0.181
-566.602	800.000	0.091	0.297
-565.588	-200.000	0.026	0.240
-564.573	-5.638	-0.201	-0.138
-563.558	800.000	0.106	-0.384
-562.544	-164.303	0.034	0.002
-561.529	-54.106	0.196	0.089
-560.515	189.148	0.076	0.114
-559.500	-27.161	-0.300	0.175
-558.485	-200.000	-0.011	-0.080
-557.471	-200.000	0.044	-0.258
-556.456	637.152	0.082	0.209
-555.442	800.000	-0.029	0.093
-554.427	-109.667	0.223	0.047
-553.412	93.749	0.086	0.097
-552.398	228.793	-0.087	-0.142
-551.383	-80.347	-0.178	0.060
-550.369	-99.699	-0.068	0.017
-549.354	-11.318	-0.056	0.037
-548.339	15.320	0.164	0.128
-547.325	800.000	0.037	-0.122
-546.310	140.541	-0.272	-0.360
-545.296	-43.175	0.139	0.071
-544.281	-200.000	0.010	0.106
-543.266	34.332	-0.318	0.278
-542.252	-42.496	0.114	-0.058
-541.237	-122.418	0.413	0.067
-540.223	-111.519	-0.079	0.016
-539.208	-14.354	0.154	0.099
-538.193	-151.503	-0.251	-0.019
-537.179	-200.000	0.068	0.469
-536.164	-30.253	0.231	-0.131
-535.150	-154.677	0.208	0.014
-534.135	-11.416	-0.265	-0.175
-533.121	-17.342	-0.189	0.119
-532.106	256.437	-0.157	-0.269
-531.091	-200.000	0.021	-0.136
-530.077	-2.675	0.063	0.044
-529.062	29.137	0.254	0.216
-528.048	68.638	-0.068	0.070
-527.033	149.789	-0.099	0.134
-526.018	-200.000	-0.026	0.273
-525.004	-43.746	-0.219	-0.110
-523.989	-140.405	0.154	0.016
-522.975	-200.000	0.035	-0.244
-521.960	-38.338	0.204	0.108
-520.945	-200.000	-0.009	0.102
-519.931	559.426	0.043	-0.104
-518.916	156.768	-0.094	0.130
-517.902	800.000	-0.062	0.232
-516.887	430.311	-0.060	0.130
-515.872	237.053	0.083	-0.138
-514.858	-108.592	-0.297	0.064
-513.843	-200.000	-0.025	0.120
-512.829	340.701	-0.175	-0.341
-511.814	-155.993	-0.137	-0.009
-510.799	-138.094	0.332	-0.037
-509.785	-88.277	0.257	-0.077
-508.770	-17.501	-0.173	0.109
-507.756	-200.000	0.048	0.299
-506.741	361.755	0.032	-0.065
-505.726	10.379	0.090	0.069
-504.712	-200.000	-0.014	-0.098
-503.697	152.444	0.149	-0.204
-502.683	-39.082	-0.169	-0.089
-501.668	-200.000	-0.044	0.243
-500.653	-60.228	-0.376	0.160
-499.639	-200.000	-0.013	0.165
-498.624	-200.000	-0.052	-0.251
-497.610	69.621	-0.137	-0.141
-496.595	-168.200	0.154	0.006
-495.581	426.947	0.144	0.310
-494.566	-114.278	-0.282	-0.054
-493.551	-144.597	-0.219	-0.020
-492.537	-98.770	0.090	0.023
-491.522	800.000	-0.080	0.226
-490.508	-36.095	-0.307	-0.165
-489.493	-48.488	-0.250	0.120
-488.478	306.189	0.193	0.358
-487.464	15.852	-0.151	-0.119
-486.449	344.831	-0.146	-0.285
-485.435	-179.726	0.161	-0.003
-484.420	-200.000	0.001	0.136
-483.405	-86.906	0.137	-0.042
-482.391	-43.326	0.210	0.106
-481.376	800.000	-0.112	0.439
-480.362	-59.876	-0.226	-0.097
-479.347	18.565	-0.171	0.137
-478.332	-200.000	0.082	-0.417
-477.318	-200.000	-0.389	0.000
-476.303	649.701	-0.042	-0.108
-475.289	188.940	-0.188	0.281
-474.274	-44.917	-0.190	0.095
-473.259	-200.000	0.054	-0.317
-472.245	-89.804	0.394	0.115
-471.230	-148.019	-0.320	0.026
-470.216	-200.000	-0.010	-0.123
-469.201	90.993	-0.046	0.052
-468.186	309.506	-0.079	0.148
-467.172	-200.000	0.017	0.083
-466.157	43.369	0.078	-0.071
-465.143	97.336	0.176	-0.201
-464.128	456.336	0.087	-0.192
-463.113	800.000	0.032	0.130
-462.099	-200.000	-0.009	-0.107
-461.084	19.092	-0.233	0.186
-460.070	60.606	0.280	0.276
-459.055	-93.091	-0.115	0.032
-458.040	50.333	0.040	-0.038
-457.026	-88.999	0.257	-0.076
-456.011	-47.856	-0.153	0.074
-454.997	447.062	0.071	0.156
-453.982	-200.000	0.008	-0.045
-452.968	-83.114	-0.081	-0.026
-451.953	186.002	0.230	-0.341
-450.938	108.161	0.129	-0.153
-449.924	-200.000	-0.324	0.001
-448.909	-109.779	0.058	0.012
-447.895	-200.000	-0.049	-0.220
-446.880	-79.587	0.265	-0.089
-445.865	44.948	0.255	0.234
-444.851	399.207	-0.241	0.504
-443.836	-53.182	0.145	-0.066
-442.822	48.435	-0.125	-0.117
-441.807	-38.738	0.332	0.175
-440.792	-200.000	-0.048	-0.263
-439.778	193.602	0.063	0.095
-438.763	407.953	-0.100	0.211
-437.749	-83.165	-0.297	-0.095
-436.734	104.680	-0.180	-0.212
-435.719	231.422	0.188	-0.308
-434.705	800.000	0.029	0.100
-433.690	314.327	0.195	-0.366
-432.676	-40.068	-0.288	-0.150
-431.661	101.356	0.190	0.221
-430.646	-161.804	0.089	-0.005
-429.632	53.102	0.165	0.157
-428.617	-200.000	0.007	-0.259
-427.603	-102.867	-0.075	0.018
-426.588	-130.867	0.107	-0.014
-425.573	13.690	0.156	0.121
-424.559	-200.000	-0.009	-0.137
-423.544	800.000	0.104	0.447
-422.530	41.589	-0.211	-0.190
-421.515	-53.587	-0.288	0.131
-420.500	110.949	0.207	0.249
-419.486	-8.632	-0.118	0.079
-418.471	-1.921	0.326	-0.228
-417.457	-16.216	-0.431	-0.272
-416.442	-130.657	0.318	-0.043
-415.428	-56.134	-0.185	0.082
-414.413	-131.932	-0.143	0.019
-413.398	211.316	0.046	0.072
-412.384	-86.204	0.319	0.098
-411.369	-1.958	-0.291	-0.203
-410.355	-6.505	0.267	-0.181
-409.340	-165.337	-0.359	-0.016
-408.325	45.485	-0.082	0.076
-407.311	-145.747	0.165	-0.015
-406.296	800.000	-0.061	0.172
-405.282	49.307	0.242	0.226
-404.267	17.583	0.142	0.112
-403.252	86.439	-0.119	0.130
-402.238	-200.000	-0.061	0.269
-401.223	-58.398	-0.095	0.041
-400.209	-54.622	-0.203	-0.092
-399.194	-200.000	0.055	0.397
-398.179	186.095	-0.010	0.014
-397.165	-113.329	0.121	0.024
-396.150	122.205	0.073	-0.090
-395.136	800.000	-0.051	0.204
-394.121	33.290	0.113	0.097
-393.106	129.657	-0.176	0.224
-392.092	-31.831	-0.133	-0.074
-391.077	279.306	-0.102	-0.181
-390.063	213.151	0.076	0.120
-389.048	113.091	-0.087	-0.105
-388.033	284.329	0.059	0.105
-387.019	-111.791	-0.320	0.064
-386.004	417.584	-0.066	0.140
-384.990	53.283	0.118	0.112
-383.975	-25.930	0.258	0.151
-382.960	-14.955	0.350	-0.223
-381.946	-27.874	-0.290	-0.167
-380.931	-12.025	0.122	-0.079
-379.917	521.003	-0.129	0.300
-378.902	106.238	0.149	0.175
-377.888	-134.595	-0.452	0.055
-376.873	673.087	0.082	-0.210
-375.858	800.000	-0.036	-0.104
-374.844	800.000	-0.063	-0.221
-373.829	-200.000	0.004	0.018
-372.815	11.635	-0.043	-0.033
-371.800	219.096	0.135	0.215
-370.785	-200.000	0.010	-0.255
-369.771	-200.000	-0.028	-0.193
-368.756	73.162	0.372	-0.387
-367.742	800.000	0.036	-0.111
-366.727	349.446	0.091	-0.179
-365.712	-68.349	-0.343	0.133
-364.698	120.704	0.169	0.209
-363.683	-55.563	0.176	-0.079
-362.669	71.418	0.087	-0.089
-361.654	17.272	-0.255	0.201
-360.639	-109.272	-0.103	-0.022
-359.625	121.946	0.266	0.330
-358.610	556.538	-0.152	0.364
-357.596	-200.000	0.050	0.221
-356.581	-188.409	-0.248	-0.003
-355.566	361.792	-0.031	0.061
-354.552	-69.114	0.196	0.075
-353.537	800.000	-0.022	0.096
-352.523	-63.139	0.346	0.142
-351.508	-45.620	0.154	-0.076
-350.493	-102.725	-0.118	-0.028
-349.479	1.485	-0.140	-0.100
-348.464	-25.646	-0.224	-0.131
-347.450	-111.654	0.095	-0.019
-346.435	129.249	0.113	0.144
-345.420	0.071	0.167	-0.118
-344.406	87.052	0.190	0.209
-343.391	-173.231	0.257	0.008
-342.377	800.000	0.031	-0.092
-341.362	74.434	0.093	0.097
-340.348	-200.000	0.018	0.142
-339.333	232.859	0.085	-0.139
-338.318	-51.405	0.039	-0.018
-337.304	800.000	-0.067	0.255
-336.289	-200.000	0.001	0.277
-335.275	-115.202	-0.038	-0.007
-334.260	275.846	-0.259	-0.457
-333.245	-122.882	0.014	0.002
-332.231	-3.033	0.128	-0.089
-331.216	1.369	0.275	0.196
-330.202	-200.000	-0.015	-0.277
-329.187	800.000	0.137	-0.393
-328.172	118.346	-0.168	-0.206
-327.158	-200.000	-0.014	0.087
-326.143	-200.000	-0.001	0.300
-325.129	-46.623	0.165	-0.080
-324.114	-29.040	-0.101	0.058
-323.099	-200.000	-0.006	0.349
-322.085	590.851	0.088	0.215
-321.070	306.818	-0.185	-0.341
-320.056	-146.161	-0.148	0.013
-319.041	-154.206	-0.247	0.017
-318.026	-200.000	0.014	-0.166
-317.012	-200.000	0.017	0.237
-315.997	346.972	0.189	0.369
-314.983	12.655	-0.167	0.128
-313.968	598.109	0.125	-0.308
-312.953	34.422	-0.097	-0.084
-311.939	107.722	-0.081	0.096
-310.924	800.000	-0.048	-0.149
-309.910	215.122	0.040	0.063
-308.895	-17.518	-0.058	0.036
-307.880	109.563	-0.269	0.320
-306.866	9.633	-0.216	-0.162
-305.851	285.206	0.057	0.101
-304.837	-171.803	0.098	-0.003
-303.822	2.299	-0.237	-0.170
-302.807	299.140	-0.036	0.066
-301.793	-68.982	0.247	-0.094
-300.778	-200.000	0.022	-0.238
-299.764	-186.106	-0.206	0.003
-298.749	-200.000	-0.010	-0.076
-297.735	-68.503	-0.298	0.114
-296.720	215.065	0.173	-0.271
-295.705	-25.809	0.138	0.081
-294.691	-99.459	-0.199	-0.050
-293.676	53.844	0.152	0.145
-292.662	-13.411	-0.176	0.113
-291.647	-22.447	0.114	0.069
-290.632	-128.166	0.257	-0.036
-289.618	-200.000	0.021	0.168
-288.603	154.632	-0.239	0.325
-287.589	800.000	-0.035	0.120
-286.574	42.044	-0.080	-0.072
-285.559	-137.725	0.296	0.033
-284.545	301.528	0.042	-0.077
-283.530	-127.147	0.251	0.036
-282.516	800.000	0.095	-0.295
-281.501	-114.740	-0.286	0.054
-280.486	-159.370	0.100	-0.006
-279.472	800.000	-0.044	-0.119
-278.457	757.758	0.198	-0.531
-277.443	-200.000	-0.053	0.250
-276.428	-42.871	-0.138	0.070
-275.413	-92.807	0.320	-0.089
-274.399	-54.650	-0.341	-0.153
-273.384	-73.431	-0.242	-0.088
-272.370	-85.113	0.204	0.063
-271.355	-72.080	0.033	-0.012
-270.340	30.308	0.054	0.045
-269.326	-144.910	-0.087	0.008
-268.311	-157.161	0.193	-0.012
-267.297	-109.423	-0.061	-0.013
-266.282	-48.394	0.254	0.121
-265.267	84.734	0.112	-0.121
-264.253	122.792	0.225	-0.279
-263.238	-80.845	0.390	-0.128
-262.224	100.451	0.242	-0.278
-261.209	-47.142	0.132	-0.064
-260.195	-200.000	0.022	-0.293
-259.180	-16.641	-0.057	0.036
-258.165	186.079	0.076	0.112
-257.151	137.431	-0.077	-0.099
-256.136	-144.712	0.348	0.032
-255.122	800.000	0.053	0.191
-254.107	-200.000	0.008	0.353
-253.092	-148.740	0.185	0.015
-252.078	108.052	-0.231	-0.273
-251.063	-31.196	-0.227	-0.126
-250.049	83.913	-0.176	-0.190
-249.034	-104.055	-0.189	0.043
-248.019	128.137	0.247	0.311
-247.005	-49.406	-0.140	0.066
-245.990	-68.899	-0.153	0.059
-244.976	-62.408	0.320	0.132
-243.961	-2.567	-0.083	0.058
-242.946	-21.814	0.078	0.047
-241.932	296.390	0.147	-0.267
-240.917	-88.533	0.137	-0.040
-239.903	91.219	0.146	-0.162
-238.888	-73.091	-0.103	0.037
-237.873	-98.581	-0.268	-0.068
-236.859	-108.086	-0.365	-0.078
-235.844	-12.853	-0.254	-0.163
-234.830	800.000	0.039	-0.142
-233.815	274.250	0.047	-0.082
-232.800	-166.028	-0.137	-0.006
-231.786	-200.000	-0.013	0.122
-230.771	-59.543	-0.111	-0.047
-229.757	100.718	0.233	0.267
-228.742	666.664	0.089	0.226
-227.727	800.000	-0.057	-0.235
-226.713	-141.174	-0.305	0.031
-225.698	-200.000	0.007	-0.463
-224.684	123.747	-0.111	0.138
-223.669	-200.000	0.069	-0.382
-222.655	110.583	0.208	-0.248
-221.640	800.000	-0.024	-0.075
-220.625	527.913	-0.159	-0.371
-219.611	-200.000	0.015	-0.105
-218.596	67.743	0.111	-0.112
-217.582	193.519	-0.111	0.166
-216.567	-53.191	0.116	-0.053
-215.552	-75.372	-0.175	-0.062
-214.538	-2.720	-0.011	0.008
-213.523	175.770	-0.134	-0.192
-212.509	50.766	-0.126	-0.118
-211.494	-56.516	0.181	0.079
-210.479	-5.456	0.229	0.155
-209.465	486.410	-0.045	-0.101
-208.450	-15.887	0.149	-0.093
-207.436	254.313	-0.104	-0.176
-206.421	59.438	-0.215	-0.210
-205.406	-101.193	-0.539	0.130
-204.392	-68.002	-0.285	-0.110
-203.377	39.827	0.166	-0.147
-202.363	221.752	-0.057	0.091
-201.348	800.000	0.025	-0.078
-200.333	-142.262	-0.255	0.025
-199.319	17.378	0.133	0.104
-198.304	6.419	-0.088	0.065
-197.290	-154.099	0.220	-0.015
-196.275	344.798	-0.144	-0.278
-195.260	-44.213	0.251	-0.125
-194.246	-12.640	0.419	0.270
-193.231	17.829	0.041	0.033
-192.217	663.820	0.085	-0.215
-191.202	-200.000	0.040	-0.211
-190.187	-103.994	-0.088	-0.020
-189.173	-13.158	0.252	-0.162
-188.158	800.000	-0.043	0.127
-187.144	298.718	-0.079	-0.143
-186.129	-116.336	0.081	-0.015
-185.114	-8.736	-0.141	0.093
-184.100	800.000	-0.030	0.085
-183.085	386.848	0.134	0.273
-182.071	800.000	0.046	0.138
-181.056	800.000	-0.126	0.364
-180.042	-92.341	-0.200	0.056
-179.027	116.410	0.147	0.178
-178.012	-200.000	0.029	-0.149
-176.998	-41.754	-0.302	0.153
-175.983	136.643	-0.063	-0.081
-174.969	-45.617	0.395	0.193
-173.954	315.250	0.049	-0.091
-172.939	-28.132	0.014	-0.008
-171.925	71.093	0.042	-0.043
-170.910	492.611	0.038	0.086
-169.896	-13.914	-0.100	0.064
-168.881	800.000	-0.077	-0.297
-167.866	-4.747	0.224	-0.153
-166.852	-99.586	-0.288	-0.071
-165.837	109.106	-0.168	0.198
-164.823	364.965	0.074	-0.147
-163.808	9.949	-0.049	0.037
-162.793	-83.680	0.285	0.090
-161.779	-61.391	-0.169	0.070
-160.764	-200.000	-0.016	0.263
-159.750	630.024	-0.095	0.238
-158.735	-56.771	-0.468	0.204
-157.720	800.000	-0.031	0.099
-156.706	79.662	-0.102	0.108
-155.691	-58.330	0.288	0.124
-154.677	-200.000	-0.013	0.105
-153.662	-65.478	0.181	-0.072
-152.647	-200.000	-0.016	0.285
-151.633	-59.866	0.084	-0.035
-150.618	-200.000	0.015	-0.072
-149.604	-24.589	0.108	-0.063
-148.589	-200.000	0.012	0.372
-147.574	-108.689	-0.107	-0.023
-146.560	-111.683	0.175	-0.035
-145.545	800.000	-0.060	-0.250
-144.531	800.000	0.053	-0.224
-143.516	-71.586	0.229	-0.084
-142.502	-66.889	0.219	0.085
-141.487	-92.537	-0.249	-0.069
-140.472	-42.285	0.107	-0.054
-139.458	-200.000	0.050	-0.326
-138.443	-132.992	-0.192	-0.024
-137.429	-200.000	0.044	-0.223
-136.414	-200.000	0.014	0.145
-135.399	26.041	-0.210	-0.173
-134.385	-58.362	0.138	-0.059
-133.370	-20.134	0.557	-0.338
-132.356	-83.725	0.298	-0.094
-131.341	-139.336	0.393	0.042
-130.326	-154.245	0.380	-0.025
-129.312	-142.663	0.211	0.020
-128.297	183.491	-0.087	0.127
-127.283	685.495	-0.116	0.298
-126.268	-200.000	-0.002	0.092
-125.253	-200.000	-0.007	-0.290
-124.239	-200.000	-0.012	-0.070
-123.224	27.069	0.341	0.282
-122.210	50.536	0.177	-0.164
-121.195	-200.000	0.028	-0.222
