DTS Sentinel unit serial number:	SN413079Multiplexer serial number:	ORYXHardware model number:	OX4-SRSoftware version number:	ORYX F/W v4.00 Oryx Data Collector v3.7.2.0data status	okinstallation	princeton_trtdifferential loss correction	single-endedforward channel	channel 3reverse channel	N/Adate	2019/09/18time	02:52:35forward acquisition time	60.00reverse acquisition time	0.00gamma	496.2192k internal	0.2344k external	0.2344temperature offset calibration	0.9948default loss term (dB/km)	0.3790temperature slope calibration	1.0000multiplexer offset coefficient	1.0000multiplexer slope coefficient	1.0000fibre end	0.00T internal ref (°C)	22.75T ext. ref 1 (°C)	0.17T ext. ref 2 (°C)	16.60length (m)	temperature (°C)	Stokes	anti-Stokes-747.200	-200.000	-0.011	-0.230
-746.185	-87.227	0.208	0.063
-745.171	401.388	-0.139	0.293
-744.156	-200.000	0.014	-0.289
-743.142	-114.303	0.090	-0.017
-742.127	-103.113	0.093	-0.022
-741.112	-200.000	0.016	0.310
-740.098	-85.042	-0.338	-0.106
-739.083	-23.788	-0.155	0.093
-738.069	-200.000	-0.052	0.361
-737.054	-136.602	-0.063	-0.007
-736.039	-44.167	0.152	-0.076
-735.025	-98.334	0.133	0.034
-734.010	-133.077	-0.671	-0.085
-732.996	53.023	-0.127	0.122
-731.981	473.771	-0.013	0.029
-730.966	-47.373	-0.226	-0.110
-729.952	-9.436	-0.187	-0.125
-728.937	-55.124	0.037	-0.016
-727.923	-200.000	0.027	-0.212
-726.908	-200.000	-0.014	-0.167
-725.894	-144.719	-0.105	0.010
-724.879	800.000	-0.080	-0.278
-723.864	94.353	-0.186	-0.211
-722.850	-151.945	-0.309	0.023
-721.835	-48.175	-0.117	0.057
-720.821	148.739	-0.255	-0.345
-719.806	-38.563	0.162	0.086
-718.791	-82.845	-0.298	0.096
-717.777	120.819	-0.062	-0.077
-716.762	207.447	-0.048	-0.075
-715.748	102.601	-0.222	-0.259
-714.733	-200.000	0.006	-0.399
-713.718	110.591	0.230	-0.277
-712.704	548.427	0.098	-0.234
-711.689	186.992	0.085	-0.126
-710.675	-94.911	-0.282	-0.076
-709.660	233.177	-0.059	-0.097
-708.645	82.055	0.181	0.196
-707.631	-200.000	0.043	-0.278
-706.616	-40.903	0.041	-0.021
-705.602	800.000	0.089	-0.383
-704.587	800.000	-0.059	-0.218
-703.572	-116.067	-0.265	0.049
-702.558	-200.000	0.006	0.230
-701.543	344.145	0.132	0.259
-700.529	-200.000	-0.033	-0.164
-699.514	16.948	-0.092	0.073
-698.499	800.000	-0.115	0.369
-697.485	-54.587	0.220	0.099
-696.470	-200.000	0.021	-0.303
-695.456	-16.209	-0.105	-0.067
-694.441	-69.601	0.175	-0.067
-693.426	-170.086	-0.042	-0.001
-692.412	-81.224	0.180	0.059
-691.397	-200.000	-0.008	-0.053
-690.383	-134.819	0.189	-0.023
-689.368	280.147	-0.168	-0.300
-688.354	-167.239	0.073	0.003
-687.339	150.507	-0.104	0.141
-686.324	3.754	0.135	-0.098
-685.310	-96.488	-0.297	0.078
-684.295	-167.663	0.521	0.021
-683.281	-103.455	0.303	-0.071
-682.266	139.840	-0.220	-0.289
-681.251	288.263	0.153	-0.277
-680.237	209.901	-0.115	0.179
-679.222	-105.757	0.313	0.071
-678.208	-161.574	-0.177	-0.009
-677.193	349.366	0.071	-0.139
-676.178	797.063	0.067	-0.185
-675.164	800.000	-0.119	-0.391
-674.149	-65.843	0.050	-0.020
-673.135	-108.497	-0.198	0.043
-672.120	43.607	0.243	-0.222
-671.105	-103.396	0.115	0.027
-670.091	93.662	-0.251	-0.284
-669.076	-10.318	-0.157	-0.104
-668.062	-53.793	-0.099	-0.045
-667.047	-140.617	-0.240	0.025
-666.032	-26.244	0.165	0.097
-665.018	-76.655	0.093	0.032
-664.003	12.246	-0.247	-0.190
-662.989	162.393	0.070	-0.097
-661.974	-200.000	0.042	0.495
-660.959	73.614	-0.168	-0.176
-659.945	-73.165	0.168	0.061
-658.930	-176.295	0.223	-0.006
-657.916	-200.000	0.025	-0.133
-656.901	446.198	-0.146	0.319
-655.886	0.693	-0.243	0.173
-654.872	-200.000	-0.020	0.189
-653.857	99.666	-0.223	0.258
-652.843	148.076	-0.162	0.217
-651.828	-67.521	-0.307	0.120
-650.814	-148.245	0.164	0.014
-649.799	-200.000	0.004	-0.110
-648.784	800.000	0.075	-0.279
-647.770	112.145	0.161	-0.194
-646.755	-143.664	-0.284	0.027
-645.741	-200.000	0.002	0.087
-644.726	-200.000	-0.005	-0.471
-643.711	-56.795	-0.071	0.031
-642.697	33.933	-0.123	-0.106
-641.682	-124.986	0.174	-0.027
-640.668	-41.972	0.323	0.165
-639.653	-22.423	0.149	0.090
-638.638	-192.864	0.131	0.001
-637.624	-86.345	0.234	-0.072
-636.609	-200.000	0.021	-0.306
-635.595	-38.306	0.065	-0.034
-634.580	-200.000	-0.044	0.333
-633.565	-10.582	-0.134	-0.088
-632.551	800.000	0.081	-0.223
-631.536	-200.000	0.006	-0.109
-630.522	94.710	0.182	-0.206
-629.507	-181.055	-0.283	-0.006
-628.492	-200.000	0.001	-0.050
-627.478	630.370	0.064	-0.161
-626.463	319.601	0.212	-0.400
-625.449	129.447	-0.359	0.456
-624.434	-79.519	0.453	-0.152
-623.419	-32.734	0.285	-0.158
-622.405	800.000	0.039	0.123
-621.390	-107.777	-0.038	-0.008
-620.376	-200.000	-0.037	0.307
-619.361	335.991	-0.118	-0.228
-618.346	-139.258	-0.292	-0.031
-617.332	-26.400	0.163	0.095
-616.317	-157.752	0.296	-0.018
-615.303	34.254	0.065	0.057
-614.288	165.254	-0.139	0.196
-613.273	45.666	0.176	-0.162
-612.259	-35.761	0.214	0.116
-611.244	-92.533	0.067	-0.019
-610.230	-169.114	-0.080	0.003
-609.215	203.724	-0.221	-0.340
-608.201	213.985	0.198	0.312
-607.186	14.385	0.152	0.118
-606.171	-178.898	0.073	-0.002
-605.157	-192.956	0.067	-0.001
-604.142	84.367	-0.114	-0.124
-603.128	190.147	-0.120	-0.179
-602.113	-146.707	0.143	0.012
-601.098	-200.000	0.050	-0.312
-600.084	-28.341	0.243	0.140
-599.069	-107.590	-0.375	-0.082
-598.055	800.000	-0.105	0.359
-597.040	129.198	0.118	0.150
-596.025	-200.000	-0.086	0.484
-595.011	86.814	-0.210	0.231
-593.996	-11.727	0.247	-0.161
-592.982	-152.551	-0.144	-0.010
-591.967	195.392	-0.149	0.225
-590.952	311.053	-0.191	0.357
-589.938	150.322	0.105	-0.142
-588.923	800.000	-0.050	0.139
-587.909	-104.857	-0.278	0.064
-586.894	193.957	-0.168	0.253
-585.879	46.730	0.199	0.184
-584.865	88.960	0.056	0.062
-583.850	-94.885	-0.137	0.037
-582.836	32.775	-0.227	-0.196
-581.821	100.205	0.149	0.172
-580.806	67.803	-0.050	0.051
-579.792	-200.000	-0.036	-0.314
-578.777	-107.118	-0.044	-0.010
-577.763	-120.830	-0.270	0.045
-576.748	800.000	-0.045	0.167
-575.733	-85.147	-0.323	0.101
-574.719	800.000	-0.028	-0.098
-573.704	-200.000	0.000	-0.242
-572.690	-200.000	-0.072	-0.385
-571.675	104.629	-0.193	-0.226
-570.661	-200.000	0.068	-0.535
-569.646	99.455	-0.276	-0.318
-568.631	-77.592	0.024	0.008
-567.617	36.508	-0.120	0.105
-566.602	-118.596	-0.291	0.051
-565.588	800.000	0.061	-0.199
-564.573	-94.099	0.472	-0.129
-563.558	90.525	0.139	-0.154
-562.544	199.079	-0.062	0.095
-561.529	786.174	0.165	-0.450
-560.515	-82.487	0.022	0.007
-559.500	782.185	0.018	0.049
-558.485	99.541	-0.071	-0.082
-557.471	156.467	0.112	0.153
-556.456	-45.032	-0.220	0.109
-555.442	280.805	-0.042	0.075
-554.427	148.382	-0.035	-0.046
-553.412	-68.660	-0.096	-0.037
-552.398	800.000	-0.045	0.190
-551.383	-200.000	-0.013	-0.427
-550.369	-15.061	-0.284	-0.181
-549.354	411.346	0.047	-0.099
-548.339	105.114	-0.098	-0.115
-547.325	257.223	0.179	-0.306
-546.310	323.434	-0.139	0.263
-545.296	-154.998	0.037	-0.002
-544.281	-121.778	0.203	-0.033
-543.266	800.000	-0.003	0.011
-542.252	-125.475	-0.198	-0.030
-541.237	-140.847	0.109	-0.011
-540.223	154.726	-0.216	-0.294
-539.208	113.513	-0.419	-0.505
-538.193	-17.630	-0.130	-0.081
-537.179	-67.661	-0.120	-0.046
-536.164	-47.835	-0.261	-0.126
-535.150	120.685	-0.223	0.275
-534.135	-88.226	0.215	0.064
-533.121	-119.248	-0.220	0.038
-532.106	-200.000	0.027	0.159
-531.091	3.722	-0.236	-0.171
-530.077	15.846	-0.183	0.143
-529.062	18.871	-0.133	-0.105
-528.048	-44.924	-0.243	-0.120
-527.033	123.429	0.289	-0.359
-526.018	582.260	-0.114	-0.277
-525.004	-65.566	-0.218	-0.087
-523.989	-27.901	0.150	0.086
-522.975	194.421	-0.112	0.168
-521.960	411.660	-0.105	-0.221
-520.945	-200.000	0.005	-0.111
-519.931	181.455	0.184	-0.269
-518.916	-49.005	0.181	-0.086
-517.902	-195.487	0.285	-0.002
-516.887	-200.000	-0.011	0.398
-515.872	-200.000	-0.062	0.296
-514.858	23.161	-0.101	-0.082
-513.843	-68.927	0.227	-0.087
-512.829	-158.482	0.404	-0.023
-511.814	800.000	0.047	0.179
-510.799	-151.341	0.243	0.018
-509.785	350.575	-0.102	-0.200
-508.770	-2.434	0.129	0.090
-507.756	-166.300	-0.103	-0.004
-506.741	92.823	-0.094	-0.105
-505.726	-36.758	-0.086	0.046
-504.712	-74.099	-0.036	0.013
-503.697	800.000	0.063	-0.250
-502.683	24.868	-0.216	-0.177
-501.668	167.910	0.207	0.292
-500.653	369.286	-0.066	-0.131
-499.639	-86.830	-0.173	-0.052
-498.624	-70.217	0.375	-0.141
-497.610	288.135	0.088	0.157
-496.595	-113.487	0.210	-0.041
-495.581	-200.000	-0.012	0.071
-494.566	-78.161	0.046	0.016
-493.551	800.000	0.056	-0.166
-492.537	-177.827	0.356	-0.008
-491.522	-190.568	-0.028	-0.000
-490.508	14.427	0.354	0.274
-489.493	379.458	0.143	-0.290
-488.478	-19.220	0.034	-0.021
-487.464	635.207	-0.141	0.355
-486.449	13.205	-0.180	0.138
-485.435	706.915	0.012	-0.031
-484.420	-108.043	0.155	-0.033
-483.405	601.725	-0.099	-0.243
-482.391	-153.441	0.106	0.007
-481.376	-68.029	0.233	0.090
-480.362	21.720	-0.026	-0.021
-479.347	34.012	0.056	0.048
-478.332	228.035	0.096	0.154
-477.318	-57.156	-0.039	-0.017
-476.303	-128.285	-0.108	0.015
-475.289	-137.120	-0.033	-0.004
-474.274	-200.000	0.039	-0.319
-473.259	-200.000	-0.025	-0.182
-472.245	-200.000	-0.003	0.479
-471.230	25.738	0.112	0.092
-470.216	800.000	0.061	-0.172
-469.201	248.523	0.165	0.276
-468.186	-71.263	-0.102	0.038
-467.172	-120.577	-0.403	-0.068
-466.157	415.379	0.096	-0.203
-465.143	112.195	-0.114	0.137
-464.128	672.778	-0.026	-0.067
-463.113	532.595	0.099	0.231
-462.099	-79.448	-0.171	0.057
-461.084	800.000	0.080	-0.304
-460.070	269.242	0.173	-0.300
-459.055	164.189	-0.126	-0.176
-458.040	256.550	0.026	0.044
-457.026	-164.675	-0.136	-0.006
-456.011	128.546	-0.044	-0.055
-454.997	-184.735	0.225	-0.004
-453.982	133.214	0.074	0.095
-452.968	-200.000	-0.013	0.190
-451.953	-67.182	0.501	-0.195
-450.938	19.128	-0.170	0.135
-449.924	-43.785	0.120	-0.060
-448.909	-88.173	0.246	-0.073
-447.895	164.452	0.161	-0.225
-446.880	-200.000	-0.047	0.209
-445.865	367.858	-0.135	-0.270
-444.851	-200.000	0.082	0.491
-443.836	-200.000	0.005	-0.155
-442.822	4.019	-0.117	-0.085
-441.807	-106.688	-0.170	-0.037
-440.792	-92.708	0.243	0.067
-439.778	43.129	-0.201	-0.182
-438.763	-200.000	-0.032	-0.168
-437.749	-51.898	0.211	-0.097
-436.734	631.934	0.116	-0.291
-435.719	-162.264	-0.322	-0.016
-434.705	800.000	0.064	-0.226
-433.690	7.026	-0.088	0.065
-432.676	-51.730	-0.040	-0.019
-431.661	55.368	0.325	0.311
-430.646	253.761	-0.132	0.223
-429.632	140.473	-0.145	0.189
-428.617	-69.123	0.114	0.043
-427.603	-24.478	-0.250	0.147
-426.588	-200.000	-0.008	-0.044
-425.573	3.747	-0.087	0.063
-424.559	41.062	0.196	-0.175
-423.544	-158.336	-0.222	0.013
-422.530	481.716	-0.028	0.062
-421.515	492.786	-0.090	0.205
-420.500	-28.559	0.270	-0.154
-419.486	433.201	0.172	-0.370
-418.471	160.828	0.167	0.230
-417.457	-200.000	0.028	-0.132
-416.442	-109.874	0.140	-0.029
-415.428	163.548	-0.115	-0.159
-414.413	327.441	0.084	0.159
-413.398	567.544	-0.049	0.118
-412.384	-50.098	0.199	0.093
-411.369	-38.454	-0.108	0.056
-410.355	3.853	-0.337	0.244
-409.340	-140.001	0.130	-0.014
-408.325	193.523	-0.110	-0.165
-407.311	-146.834	-0.084	0.007
-406.296	114.204	-0.140	0.168
-405.282	167.446	0.149	0.209
-404.267	-143.893	-0.392	-0.037
-403.252	315.041	-0.106	0.198
-402.238	-163.199	0.172	-0.008
-401.223	60.793	-0.094	0.092
-400.209	324.846	0.189	0.356
-399.194	-91.985	0.161	0.045
-398.179	-97.446	-0.135	-0.035
-397.165	-124.537	0.013	0.002
-396.150	55.910	-0.190	-0.182
-395.136	-28.613	-0.196	-0.111
-394.121	-95.743	-0.369	0.097
-393.106	-200.000	-0.013	-0.376
-392.092	6.208	-0.154	0.113
-391.077	-153.617	0.238	0.016
-390.063	94.644	0.137	-0.153
-389.048	10.872	-0.164	0.123
-388.033	113.839	0.224	-0.269
-387.019	212.407	0.207	-0.322
-386.004	-67.925	0.505	-0.195
-384.990	-17.333	0.115	-0.071
-383.975	80.025	0.084	-0.089
-382.960	43.149	0.146	-0.132
-381.946	-42.633	0.297	0.149
-380.931	17.103	0.175	-0.137
-379.917	713.936	0.052	-0.136
-378.902	39.251	0.222	0.196
-377.888	-200.000	-0.002	0.163
-376.873	-38.672	-0.071	-0.037
-375.858	172.490	-0.084	-0.119
-374.844	15.183	0.244	0.189
-373.829	8.640	0.069	0.051
-372.815	569.499	0.025	0.059
-371.800	-85.577	-0.057	0.017
-370.785	-60.656	-0.337	0.141
-369.771	-22.095	0.243	0.146
-368.756	-56.638	-0.201	-0.088
-367.742	-14.683	0.230	-0.146
-366.727	800.000	-0.035	0.120
-365.712	53.575	0.223	-0.211
-364.698	-200.000	0.004	-0.286
-363.683	800.000	-0.011	-0.035
-362.669	280.066	0.085	0.150
-361.654	285.564	0.145	0.258
-360.639	624.112	-0.052	0.130
-359.625	-129.563	0.637	0.087
-358.610	452.471	0.183	-0.399
-357.596	27.379	-0.179	0.148
-356.581	800.000	-0.052	0.216
-355.566	-107.830	0.493	0.106
-354.552	89.010	-0.093	-0.102
-353.537	27.828	0.208	0.173
-352.523	-200.000	0.065	-0.329
-351.508	38.099	-0.306	-0.268
-350.493	-97.654	-0.249	0.064
-349.479	708.422	-0.089	0.233
-348.464	-149.867	0.241	0.019
-347.450	-105.772	-0.205	0.046
-346.435	-152.407	0.268	-0.019
-345.420	44.049	0.291	-0.263
-344.406	292.820	0.004	0.006
-343.391	368.588	0.025	-0.050
-342.377	800.000	0.033	0.122
-341.362	-61.504	-0.369	0.153
-340.348	-200.000	0.005	-0.240
-339.333	-37.127	-0.317	-0.167
-338.318	800.000	-0.062	0.239
-337.304	800.000	0.032	0.089
-336.289	-200.000	-0.004	0.041
-335.275	800.000	-0.055	-0.162
-334.260	-53.814	-0.416	-0.187
-333.245	285.863	-0.208	0.369
-332.231	-32.023	-0.413	0.228
-331.216	800.000	-0.028	0.111
-330.202	16.245	-0.310	-0.241
-329.187	-38.563	-0.046	0.024
-328.172	316.712	-0.229	-0.426
-327.158	285.534	0.140	0.249
-326.143	-147.562	-0.329	-0.027
-325.129	-66.540	0.090	-0.035
-324.114	-5.720	-0.042	0.028
-323.099	427.318	-0.055	0.117
-322.085	-200.000	0.057	0.249
-321.070	-23.149	-0.061	-0.036
-320.056	-130.476	-0.432	0.057
-319.041	120.432	0.004	-0.005
-318.026	142.028	-0.096	-0.125
-317.012	22.934	0.241	0.194
-315.997	54.345	0.165	-0.156
-314.983	139.870	0.103	0.134
-313.968	-77.529	-0.288	-0.098
-312.953	-25.237	0.264	-0.154
-311.939	-146.075	-0.192	-0.017
-310.924	800.000	-0.017	0.049
-309.910	-200.000	-0.026	0.167
-308.895	-200.000	-0.039	-0.261
-307.880	-88.353	0.108	-0.032
-306.866	176.609	-0.197	0.282
-305.851	-200.000	-0.020	0.104
-304.837	-135.250	-0.157	0.019
-303.822	141.162	0.142	-0.184
-302.807	-76.691	-0.258	-0.089
-301.793	78.148	-0.358	0.376
-300.778	-152.819	0.230	-0.016
-299.764	-200.000	0.034	-0.212
-298.749	-90.804	0.218	0.062
-297.735	-200.000	0.014	-0.117
-296.720	716.058	-0.117	-0.305
-295.705	571.034	0.198	0.474
-294.691	-99.610	0.190	0.047
-293.676	800.000	-0.097	0.367
-292.662	95.011	0.202	-0.226
-291.647	-200.000	0.017	-0.128
-290.632	-86.948	-0.271	0.081
-289.618	-200.000	-0.004	-0.141
-288.603	497.776	0.159	0.361
-287.589	-200.000	0.025	0.344
-286.574	150.848	0.100	-0.134
-285.559	-33.561	0.263	0.143
-284.545	-200.000	0.017	0.121
-283.530	587.754	0.093	-0.224
-282.516	191.560	-0.103	-0.153
-281.501	73.025	-0.240	0.247
-280.486	800.000	-0.031	0.111
-279.472	-200.000	0.083	0.421
-278.457	-135.373	0.253	-0.030
-277.443	-19.466	-0.257	0.156
-276.428	16.160	-0.048	0.037
-275.413	496.226	-0.034	-0.076
-274.399	142.843	-0.061	0.080
-273.384	-23.040	-0.148	0.088
-272.370	-200.000	0.001	0.245
-271.355	-135.013	0.197	0.023
-270.340	-61.971	0.136	-0.056
-269.326	265.519	-0.121	0.207
-268.311	800.000	-0.041	0.132
-267.297	359.474	0.222	0.435
-266.282	361.107	0.086	0.170
-265.267	192.816	0.137	0.204
-264.253	0.228	0.065	0.045
-263.238	-187.850	0.220	0.003
-262.224	634.083	0.034	0.083
-261.209	5.229	-0.221	-0.160
-260.195	248.739	-0.193	-0.321
-259.180	-1.261	-0.054	0.038
-258.165	-100.054	-0.172	-0.042
-257.151	-138.203	0.243	-0.026
-256.136	111.624	0.234	-0.277
-255.122	-140.144	-0.096	0.010
-254.107	-16.882	-0.148	-0.092
-253.092	-141.742	-0.223	-0.022
-252.078	-13.803	-0.053	0.033
-251.063	30.743	-0.132	-0.111
-250.049	317.505	0.081	-0.151
-249.034	-152.018	-0.122	0.009
-248.019	-86.428	0.165	0.050
-247.005	-49.934	-0.082	-0.038
-245.990	800.000	0.083	0.229
-244.976	243.843	0.102	-0.168
-243.961	800.000	-0.053	-0.196
-242.946	-125.110	0.270	-0.041
-241.932	157.964	0.069	-0.094
-240.917	-186.895	-0.098	-0.001
-239.903	800.000	-0.045	-0.124
-238.888	90.693	0.124	0.136
-237.873	158.056	0.167	0.228
-236.859	800.000	0.169	0.605
-235.844	273.418	0.114	0.198
-234.830	-38.816	-0.369	0.191
-233.815	234.819	-0.103	-0.167
-232.800	65.404	0.219	-0.217
-231.786	169.972	0.069	0.096
-230.771	-200.000	0.018	-0.105
-229.757	-52.831	0.095	-0.043
-228.742	357.532	-0.197	0.386
-227.727	-42.788	-0.336	0.168
-226.713	-200.000	0.000	-0.356
-225.698	800.000	0.057	0.217
-224.684	8.526	-0.341	0.252
-223.669	-69.949	0.032	0.012
-222.655	-101.734	0.219	-0.052
-221.640	-35.776	-0.311	-0.165
-220.625	-13.295	0.119	-0.076
-219.611	-10.007	-0.210	0.137
-218.596	-200.000	0.052	0.243
-217.582	-98.823	0.164	0.041
-216.567	800.000	0.153	0.541
-215.552	-135.891	-0.167	0.019
-214.538	-64.912	0.363	0.144
-213.523	-118.518	-0.097	-0.017
-212.509	-126.191	-0.220	-0.032
-211.494	800.000	0.038	0.114
-210.479	800.000	-0.131	0.379
-209.465	-200.000	-0.466	-0.000
-208.450	143.810	0.050	-0.066
-207.436	-13.316	-0.244	-0.155
-206.421	-139.008	-0.053	-0.006
-205.406	217.325	0.138	-0.216
-204.392	-92.105	0.059	0.016
-203.377	156.998	-0.094	0.127
-202.363	-60.575	0.121	0.050
-201.348	56.561	-0.109	0.104
-200.333	182.539	-0.073	0.106
-199.319	-122.059	0.139	-0.022
-198.304	59.826	0.113	0.109
-197.290	-200.000	-0.014	-0.144
-196.275	230.857	0.084	0.135
-195.260	-200.000	0.031	0.210
-194.246	-38.655	-0.224	0.116
-193.231	47.883	0.111	-0.102
-192.217	800.000	0.045	-0.184
-191.202	419.507	-0.099	-0.207
-190.187	-200.000	-0.023	-0.127
-189.173	-87.908	0.279	-0.082
-188.158	52.104	-0.194	-0.181
-187.144	-114.557	0.444	-0.083
-186.129	-160.371	-0.293	0.015
-185.114	-170.526	0.209	0.007
-184.100	-200.000	0.002	-0.065
-183.085	-44.201	-0.330	0.162
-182.071	-54.020	0.120	0.054
-181.056	-200.000	-0.006	-0.225
-180.042	106.723	-0.116	0.135
-179.027	-200.000	-0.055	0.311
-178.012	60.033	-0.187	-0.181
-176.998	412.424	0.065	-0.134
-175.983	-138.309	-0.246	-0.027
-174.969	-63.777	-0.270	-0.108
-173.954	800.000	-0.040	0.123
-172.939	555.275	0.075	-0.178
-171.925	-52.414	0.172	-0.078
-170.910	-75.986	-0.432	-0.149
-169.896	172.648	0.094	-0.133
-168.881	-200.000	-0.036	-0.204
-167.866	-70.724	0.244	0.090
-166.852	202.384	-0.211	0.319
-165.837	-33.494	-0.091	-0.049
-164.823	-200.000	0.022	0.133
-163.808	-124.042	0.361	0.056
-162.793	800.000	0.141	0.385
-161.779	12.529	0.246	0.186
-160.764	800.000	-0.047	-0.148
-159.750	-200.000	0.004	-0.134
-158.735	-162.041	0.271	0.013
-157.720	-19.227	-0.240	0.146
-156.706	37.466	-0.227	-0.197
-155.691	-56.429	0.231	-0.100
-154.677	669.914	0.083	0.209
-153.662	800.000	-0.088	0.342
-152.647	-94.370	0.075	-0.020
-151.633	-66.665	0.199	-0.077
-150.618	-25.171	-0.063	0.037
-149.604	90.372	0.188	-0.206
-148.589	283.831	0.044	0.078
-147.574	800.000	-0.095	-0.289
-146.560	323.135	-0.236	-0.439
-145.545	72.952	-0.131	0.134
-144.531	-86.814	-0.215	0.064
-143.516	-200.000	0.004	-0.188
-142.502	800.000	-0.039	-0.140
-141.487	800.000	0.077	-0.222
-140.472	-74.646	0.031	-0.011
-139.458	-31.942	0.063	0.034
-138.443	499.741	-0.117	0.264
-137.429	800.000	0.062	-0.245
-136.414	155.720	0.103	-0.139
-135.399	-18.058	0.268	-0.164
-134.385	242.408	-0.186	0.304
-133.370	-103.177	0.024	0.005
-132.356	-200.000	0.001	-0.031
-131.341	146.892	0.096	0.126
-130.326	593.862	-0.156	-0.376
-129.312	78.525	-0.218	-0.228
-128.297	-134.719	0.390	-0.046
-127.283	28.404	0.135	0.111
-126.268	-50.895	0.094	0.043
-125.253	-48.327	-0.107	-0.050
-124.239	-46.055	0.267	0.128
-123.224	-41.504	0.153	-0.077
-122.210	-86.066	0.283	0.085
