DTS Sentinel unit serial number:	SN413079Multiplexer serial number:	ORYXHardware model number:	OX4-SRSoftware version number:	ORYX F/W v4.00 Oryx Data Collector v3.7.2.0data status	okinstallation	princeton_trtdifferential loss correction	single-endedforward channel	channel 3reverse channel	N/Adate	2019/09/14time	06:16:35forward acquisition time	60.00reverse acquisition time	0.00gamma	496.2192k internal	0.2338k external	0.2338temperature offset calibration	1.0058default loss term (dB/km)	0.3790temperature slope calibration	1.0000multiplexer offset coefficient	1.0000multiplexer slope coefficient	1.0000fibre end	0.00T internal ref (°C)	26.62T ext. ref 1 (°C)	3.40T ext. ref 2 (°C)	20.68length (m)	temperature (°C)	Stokes	anti-Stokes-747.200	-137.229	0.205	0.023
-746.185	4.943	0.047	0.035
-745.171	-73.663	0.172	0.063
-744.156	107.496	0.141	0.169
-743.142	-116.604	0.077	-0.014
-742.127	196.702	0.087	0.133
-741.112	334.752	0.162	0.315
-740.098	-200.000	-0.021	0.161
-739.083	3.966	-0.061	0.045
-738.069	347.079	-0.167	0.330
-737.054	-154.657	-0.217	0.014
-736.039	800.000	-0.127	0.359
-735.025	318.463	-0.040	-0.076
-734.010	-106.144	-0.428	-0.096
-732.996	202.935	0.081	-0.126
-731.981	160.984	-0.046	-0.064
-730.966	-136.009	0.373	-0.044
-729.952	-35.272	0.115	0.063
-728.937	800.000	-0.105	0.327
-727.923	471.430	0.040	-0.091
-726.908	-0.046	0.064	-0.046
-725.894	-176.815	-0.224	0.006
-724.879	-100.798	0.256	-0.063
-723.864	-99.393	0.156	0.039
-722.850	-160.713	0.196	-0.010
-721.835	-200.000	0.001	-0.168
-720.821	377.249	-0.139	-0.285
-719.806	600.485	0.107	-0.266
-718.791	800.000	-0.025	0.077
-717.777	34.294	-0.074	0.064
-716.762	800.000	-0.036	-0.156
-715.748	-200.000	0.050	-0.373
-714.733	-45.472	-0.404	-0.201
-713.718	-15.555	0.104	0.066
-712.704	-33.669	-0.125	0.069
-711.689	800.000	0.095	0.417
-710.675	-16.559	-0.132	-0.084
-709.660	132.996	0.105	-0.135
-708.645	-35.546	-0.118	0.064
-707.631	800.000	-0.047	-0.154
-706.616	166.729	-0.228	0.324
-705.602	-200.000	0.033	-0.307
-704.587	-91.413	-0.326	-0.093
-703.572	-200.000	0.048	0.356
-702.558	-88.111	-0.106	0.032
-701.543	-200.000	-0.067	-0.332
-700.529	16.300	-0.247	-0.195
-699.514	-118.659	0.068	-0.012
-698.499	766.949	0.098	-0.266
-697.485	-109.036	-0.116	-0.025
-696.470	-15.821	-0.217	0.138
-695.456	-159.428	-0.184	0.010
-694.441	-99.400	0.200	0.051
-693.426	-148.353	-0.203	-0.017
-692.412	-111.626	0.247	0.050
-691.397	-89.462	-0.138	0.041
-690.383	13.145	-0.221	0.172
-689.368	10.087	-0.271	0.206
-688.354	50.042	-0.297	0.281
-687.339	-188.666	0.571	-0.007
-686.324	153.520	-0.152	0.209
-685.310	626.086	0.025	-0.064
-684.295	728.700	-0.088	-0.236
-683.281	800.000	0.087	-0.240
-682.266	778.595	0.103	0.281
-681.251	-57.881	-0.408	-0.178
-680.237	-161.809	-0.127	0.006
-679.222	94.285	0.210	0.238
-678.208	99.155	0.065	-0.075
-677.193	17.050	-0.062	-0.049
-676.178	-80.937	-0.107	0.035
-675.164	-43.693	-0.189	-0.095
-674.149	800.000	0.029	-0.088
-673.135	800.000	0.118	-0.388
-672.120	106.023	0.075	-0.089
-671.105	-12.889	-0.208	-0.135
-670.091	800.000	0.028	0.097
-669.076	-100.321	-0.190	-0.047
-668.062	-93.653	-0.190	0.052
-667.047	71.839	-0.249	-0.259
-666.032	800.000	-0.098	-0.303
-665.018	88.794	-0.077	-0.086
-664.003	40.103	-0.283	-0.254
-662.989	-10.638	0.119	-0.079
-661.974	-14.447	0.170	-0.110
-660.959	-200.000	0.022	0.151
-659.945	-85.213	-0.232	0.073
-658.930	92.546	0.181	0.204
-657.916	-200.000	-0.038	-0.297
-656.901	-59.582	0.063	0.027
-655.886	-200.000	0.016	-0.211
-654.872	800.000	0.047	-0.148
-653.857	-142.694	-0.374	-0.037
-652.843	-153.692	-0.176	0.012
-651.828	800.000	-0.066	0.224
-650.814	306.988	-0.109	-0.203
-649.799	292.461	0.086	0.156
-648.784	0.216	0.132	-0.094
-647.770	-17.804	-0.127	-0.080
-646.755	84.979	-0.142	-0.155
-645.741	-33.985	0.156	0.086
-644.726	200.937	0.120	0.185
-643.711	640.840	0.084	0.213
-642.697	-200.000	0.036	-0.435
-641.682	-77.395	-0.156	0.054
-640.668	-70.636	-0.075	-0.028
-639.653	76.359	-0.216	0.229
-638.638	-45.988	-0.346	-0.170
-637.624	320.574	-0.112	-0.212
-636.609	-104.819	0.213	0.049
-635.595	60.750	0.207	-0.205
-634.580	-84.618	0.125	0.039
-633.565	-116.975	0.296	-0.054
-632.551	-113.855	0.074	0.014
-631.536	-99.364	-0.082	0.021
-630.522	-150.034	0.241	0.019
-629.507	-140.939	0.176	0.018
-628.492	-32.961	0.161	0.089
-627.478	203.760	0.151	0.233
-626.463	184.631	-0.157	0.232
-625.449	138.501	-0.051	0.067
-624.434	165.312	0.162	-0.228
-623.419	800.000	0.050	-0.172
-622.405	-200.000	0.059	0.492
-621.390	-110.449	0.219	-0.045
-620.376	112.300	0.128	-0.155
-619.361	141.901	0.070	-0.093
-618.346	800.000	0.089	-0.378
-617.332	83.209	-0.275	-0.299
-616.317	-20.944	0.204	-0.125
-615.303	78.595	-0.146	-0.156
-614.288	298.501	0.060	-0.111
-613.273	-70.073	-0.257	0.098
-612.259	-4.276	-0.104	0.072
-611.244	259.146	-0.157	-0.270
-610.230	-53.796	0.088	-0.040
-609.215	-137.794	0.204	0.023
-608.201	42.764	-0.110	0.100
-607.186	-200.000	0.050	-0.289
-606.171	-41.735	0.097	-0.049
-605.157	-196.949	0.172	0.001
-604.142	156.339	0.213	0.294
-603.128	-66.560	-0.247	0.098
-602.113	552.793	0.033	0.078
-601.098	-81.526	-0.065	-0.021
-600.084	191.739	0.108	0.163
-599.069	64.463	0.074	-0.074
-598.055	13.726	-0.258	-0.200
-597.040	-115.896	-0.126	0.024
-596.025	-31.454	0.068	-0.038
-595.011	61.487	-0.369	-0.367
-593.996	-158.183	-0.098	0.006
-592.982	72.675	-0.208	-0.217
-591.967	-200.000	0.018	-0.093
-590.952	394.220	-0.071	0.148
-589.938	264.267	0.073	0.126
-588.923	31.138	0.165	0.142
-587.909	-200.000	-0.072	0.000
-586.894	54.306	-0.051	0.049
-585.879	800.000	-0.027	0.112
-584.865	-94.638	-0.272	-0.074
-583.850	51.438	-0.108	-0.102
-582.836	-59.295	0.124	0.053
-581.821	372.230	-0.194	-0.393
-580.806	-51.725	0.119	0.055
-579.792	-115.036	-0.224	0.042
-578.777	72.331	0.091	0.095
-577.763	-106.631	0.163	-0.036
-576.748	-158.064	0.282	-0.017
-575.733	-79.173	-0.086	0.029
-574.719	800.000	0.063	-0.190
-573.704	47.403	0.101	-0.094
-572.690	415.296	0.089	0.188
-571.675	373.075	-0.077	0.156
-570.661	339.525	-0.137	-0.266
-569.646	-60.015	-0.394	-0.168
-568.631	800.000	0.057	-0.157
-567.617	-200.000	-0.018	0.161
-566.602	-131.133	-0.368	-0.049
-565.588	41.440	-0.264	-0.238
-564.573	-83.322	0.157	0.050
-563.558	81.246	-0.067	0.072
-562.544	-148.982	0.333	-0.027
-561.529	56.480	0.149	-0.145
-560.515	-200.000	0.029	-0.170
-559.500	-137.353	-0.200	0.023
-558.485	327.322	0.167	-0.318
-557.471	800.000	-0.056	0.183
-556.456	9.215	-0.069	-0.052
-555.442	-104.334	-0.300	0.069
-554.427	40.492	-0.131	-0.117
-553.412	-4.184	0.038	-0.026
-552.398	-152.719	0.139	-0.010
-551.383	159.414	-0.080	-0.111
-550.369	-54.513	-0.178	0.080
-549.354	800.000	0.026	0.085
-548.339	104.985	0.132	0.155
-547.325	688.028	-0.072	0.187
-546.310	168.819	-0.123	0.174
-545.296	800.000	0.112	-0.310
-544.281	-200.000	-0.003	0.188
-543.266	-121.205	-0.262	-0.044
-542.252	54.652	-0.180	-0.173
-541.237	-99.678	-0.104	-0.026
-540.223	-17.449	0.268	0.168
-539.208	-142.520	-0.174	-0.017
-538.193	-124.252	-0.092	0.014
-537.179	79.135	-0.100	-0.106
-536.164	-147.786	0.092	-0.008
-535.150	144.847	0.159	-0.211
-534.135	563.483	-0.103	-0.249
-533.121	-117.473	0.069	0.012
-532.106	-24.712	0.200	0.118
-531.091	-200.000	0.015	0.159
-530.077	16.392	0.291	0.229
-529.062	-92.819	-0.103	0.029
-528.048	-153.150	0.107	0.007
-527.033	-188.695	-0.249	0.003
-526.018	-200.000	-0.005	0.080
-525.004	-115.928	-0.073	0.014
-523.989	34.914	0.196	0.171
-522.975	-91.766	-0.017	-0.005
-521.960	16.249	0.187	0.147
-520.945	400.045	0.015	0.031
-519.931	-87.513	-0.343	0.103
-518.916	-175.819	-0.031	0.001
-517.902	-84.424	-0.149	0.047
-516.887	800.000	-0.054	0.178
-515.872	-200.000	0.440	-0.001
-514.858	24.282	0.246	-0.202
-513.843	-200.000	-0.032	0.169
-512.829	57.551	-0.049	0.048
-511.814	-200.000	0.004	-0.038
-510.799	232.085	0.065	0.107
-509.785	10.035	-0.206	-0.156
-508.770	143.123	-0.174	-0.230
-507.756	25.504	-0.138	0.114
-506.741	-136.339	-0.253	-0.029
-505.726	-52.563	-0.200	0.092
-504.712	13.637	0.257	-0.198
-503.697	-16.819	0.095	-0.060
-502.683	-200.000	-0.001	-0.124
-501.668	-96.457	0.316	0.083
-500.653	800.000	-0.028	0.082
-499.639	-73.234	0.050	0.018
-498.624	-14.287	-0.153	0.098
-497.610	-98.298	0.174	-0.044
-496.595	248.697	-0.170	-0.285
-495.581	-124.504	-0.208	0.032
-494.566	-31.705	-0.097	-0.054
-493.551	-127.899	0.016	0.002
-492.537	131.542	-0.294	0.375
-491.522	-200.000	-0.054	0.281
-490.508	-50.171	0.127	0.060
-489.493	800.000	0.055	0.181
-488.478	93.951	-0.260	0.293
-487.464	118.906	-0.043	-0.053
-486.449	107.957	-0.169	0.200
-485.435	800.000	0.016	-0.053
-484.420	671.813	0.174	0.449
-483.405	626.703	0.096	0.240
-482.391	-12.834	0.265	-0.172
-481.376	340.004	-0.164	0.319
-480.362	-68.858	0.259	0.099
-479.347	-200.000	-0.044	-0.219
-478.332	98.373	-0.106	-0.122
-477.318	-200.000	0.011	0.158
-476.303	-25.154	-0.016	0.009
-475.289	800.000	-0.055	-0.190
-474.274	-114.284	-0.240	0.046
-473.259	-200.000	-0.004	0.107
-472.245	-157.376	0.105	-0.006
-471.230	-79.806	0.105	-0.035
-470.216	43.179	0.234	-0.212
-469.201	-152.380	-0.323	0.023
-468.186	278.446	0.131	-0.232
-467.172	56.477	-0.135	-0.130
-466.157	-200.000	-0.026	0.202
-465.143	455.954	0.076	-0.166
-464.128	164.578	-0.149	0.209
-463.113	-5.378	-0.146	-0.100
-462.099	105.178	0.176	0.206
-461.084	4.191	-0.146	-0.106
-460.070	11.105	-0.317	-0.241
-459.055	438.274	-0.063	0.137
-458.040	800.000	0.044	0.157
-457.026	-46.690	0.058	-0.028
-456.011	-76.087	-0.230	-0.081
-454.997	-68.839	0.119	-0.045
-453.982	-94.283	-0.369	-0.100
-452.968	715.637	0.165	0.434
-451.953	-84.071	0.234	-0.074
-450.938	-200.000	-0.014	-0.380
-449.924	155.890	-0.151	-0.206
-448.909	26.041	-0.138	0.114
-447.895	234.925	0.035	0.058
-446.880	-200.000	0.041	-0.240
-445.865	202.174	0.149	0.228
-444.851	343.888	-0.164	0.319
-443.836	-200.000	-0.016	-0.244
-442.822	-85.325	0.075	-0.023
-441.807	800.000	-0.061	0.181
-440.792	-80.177	0.118	0.039
-439.778	-3.529	0.169	0.116
-438.763	-75.584	-0.291	0.103
-437.749	-74.799	-0.342	0.122
-436.734	-31.622	-0.195	-0.108
-435.719	-133.506	0.114	-0.014
-434.705	48.376	0.169	0.157
-433.690	230.260	-0.124	-0.201
-432.676	-42.499	-0.199	0.101
-431.661	-47.840	-0.238	-0.114
-430.646	115.121	-0.158	-0.191
-429.632	-44.510	-0.255	0.126
-428.617	118.081	-0.065	-0.080
-427.603	-200.000	-0.079	-0.459
-426.588	800.000	-0.060	-0.182
-425.573	342.804	0.038	0.075
-424.559	82.711	0.290	0.312
-423.544	24.468	0.109	0.089
-422.530	-200.000	-0.023	0.114
-421.515	-9.826	-0.113	0.074
-420.500	-200.000	0.073	0.350
-419.486	105.519	0.145	-0.170
-418.471	507.239	-0.107	0.245
-417.457	-200.000	0.074	-0.341
-416.442	-60.652	-0.484	-0.203
-415.428	7.486	-0.157	0.116
-414.413	-69.203	-0.210	0.080
-413.398	722.351	-0.047	-0.125
-412.384	-108.770	0.079	0.017
-411.369	-72.949	0.119	-0.043
-410.355	484.820	0.023	0.052
-409.340	69.047	0.197	-0.200
-408.325	-56.919	0.270	-0.118
-407.311	691.540	0.068	0.176
-406.296	800.000	-0.045	0.142
-405.282	-200.000	0.004	0.123
-404.267	-20.596	-0.398	0.242
-403.252	-73.613	-0.068	0.024
-402.238	350.375	-0.107	-0.210
-401.223	-150.982	0.033	0.002
-400.209	800.000	0.048	0.204
-399.194	-25.131	-0.374	0.219
-398.179	91.111	-0.102	0.114
-397.165	-121.767	-0.276	-0.045
-396.150	160.808	0.071	0.099
-395.136	-200.000	0.004	-0.033
-394.121	-19.516	-0.118	-0.072
-393.106	-163.309	-0.105	0.005
-392.092	800.000	-0.093	0.303
-391.077	11.864	0.050	0.038
-390.063	800.000	-0.033	-0.138
-389.048	800.000	0.027	0.099
-388.033	-91.326	0.099	0.028
-387.019	133.506	-0.300	0.384
-386.004	-34.220	0.111	-0.061
-384.990	-25.505	-0.113	0.066
-383.975	-123.778	-0.219	0.034
-382.960	-200.000	0.009	0.103
-381.946	50.570	-0.150	-0.140
-380.931	22.277	0.068	-0.055
-379.917	-200.000	-0.009	-0.068
-378.902	-200.000	-0.061	0.370
-377.888	-162.076	-0.425	-0.021
-376.873	-123.355	0.190	-0.030
-375.858	183.534	0.311	-0.454
-374.844	-13.563	0.183	-0.118
-373.829	201.145	0.036	0.055
-372.815	140.807	-0.155	0.202
-371.800	423.374	0.051	-0.108
-370.785	-149.271	0.117	-0.009
-369.771	800.000	0.052	-0.154
-368.756	-156.192	0.116	-0.007
-367.742	-200.000	-0.000	-0.138
-366.727	178.406	0.171	-0.246
-365.712	43.495	-0.058	-0.053
-364.698	484.983	0.105	0.237
-363.683	-157.169	-0.066	0.004
-362.669	-0.371	-0.084	0.059
-361.654	-40.052	0.233	-0.120
-360.639	-200.000	0.127	0.562
-359.625	48.230	0.062	0.057
-358.610	8.615	0.135	-0.100
-357.596	124.532	-0.172	0.214
-356.581	319.378	0.127	0.237
-355.566	-128.426	-0.355	-0.050
-354.552	-200.000	0.137	-0.001
-353.537	32.207	-0.187	-0.159
-352.523	-200.000	-0.052	-0.251
-351.508	-200.000	0.005	-0.299
-350.493	98.280	-0.143	0.163
-349.479	-140.811	-0.212	0.022
-348.464	800.000	0.127	-0.380
-347.450	366.466	-0.096	0.191
-346.435	716.898	0.081	-0.212
-345.420	-85.517	-0.129	-0.040
-344.406	359.451	0.129	0.255
-343.391	40.001	0.183	-0.163
-342.377	675.081	-0.102	-0.260
-341.362	-92.013	-0.243	0.068
-340.348	-40.391	0.235	0.120
-339.333	-35.024	0.384	0.207
-338.318	-55.678	-0.233	-0.103
-337.304	264.390	-0.086	-0.149
-336.289	324.474	0.176	0.333
-335.275	800.000	0.068	0.256
-334.260	-13.714	-0.088	-0.056
-333.245	-70.755	-0.192	0.071
-332.231	337.751	0.144	-0.276
-331.216	-17.776	0.152	-0.094
-330.202	-64.397	-0.305	-0.122
-329.187	202.722	0.137	-0.209
-328.172	8.449	0.105	0.078
-327.158	-200.000	-0.050	-0.249
-326.143	-100.305	0.170	0.042
-325.129	-200.000	0.007	-0.231
-324.114	-16.103	-0.055	-0.034
-323.099	-88.195	-0.136	0.040
-322.085	-200.000	-0.010	0.215
-321.070	-200.000	0.014	0.104
-320.056	3.260	0.530	0.380
-319.041	-17.043	0.211	-0.132
-318.026	109.861	-0.261	-0.309
-317.012	-49.698	-0.172	-0.081
-315.997	128.231	-0.300	-0.376
-314.983	-63.472	-0.110	0.045
-313.968	-200.000	0.003	-0.352
-312.953	79.943	0.078	0.083
-311.939	263.277	0.109	-0.187
-310.924	29.569	0.245	0.206
-309.910	-190.473	-0.409	-0.004
-308.895	38.459	0.237	0.209
-307.880	-73.895	-0.204	-0.073
-306.866	530.030	-0.128	-0.298
-305.851	162.254	0.083	-0.114
-304.837	359.157	0.120	0.236
-303.822	800.000	0.087	-0.268
-302.807	324.165	0.085	0.160
-301.793	695.987	-0.159	0.411
-300.778	-85.770	0.368	0.113
-299.764	-137.610	0.144	0.016
-298.749	-72.286	0.139	0.051
-297.735	435.633	0.289	-0.619
-296.720	138.222	0.042	0.055
-295.705	-75.302	0.249	0.087
-294.691	39.268	-0.273	-0.241
-293.676	335.856	0.087	-0.167
-292.662	-19.005	0.266	0.163
-291.647	196.943	-0.201	-0.302
-290.632	-36.096	-0.158	0.084
-289.618	433.997	0.151	0.323
-288.603	58.386	0.135	0.130
-287.589	225.340	-0.110	-0.175
-286.574	-53.576	0.159	-0.072
-285.559	200.121	0.111	-0.168
-284.545	-157.869	-0.207	0.012
-283.530	-200.000	0.005	-0.022
-282.516	-2.782	-0.145	0.100
-281.501	-160.006	0.277	-0.015
-280.486	174.032	-0.130	-0.185
-279.472	-200.000	0.035	0.197
-278.457	-200.000	-0.014	0.068
-277.443	800.000	0.065	0.209
-276.428	332.809	0.121	-0.231
-275.413	-150.435	0.269	0.020
-274.399	-200.000	-0.046	0.377
-273.384	28.846	-0.022	-0.018
-272.370	-76.043	-0.131	-0.046
-271.355	-85.012	-0.085	0.026
-270.340	-68.494	0.107	0.041
-269.326	206.188	-0.125	-0.192
-268.311	727.692	-0.065	0.172
-267.297	135.838	-0.086	0.110
-266.282	-55.486	0.067	-0.030
-265.267	84.255	-0.170	-0.183
-264.253	96.185	0.140	-0.158
-263.238	-48.590	0.162	-0.077
-262.224	120.479	0.050	-0.061
-261.209	181.889	0.086	0.124
-260.195	-200.000	0.012	0.502
-259.180	-95.922	-0.220	0.058
-258.165	224.888	0.201	-0.321
-257.151	151.347	-0.071	0.095
-256.136	-138.525	0.482	0.052
-255.122	-104.237	0.216	0.049
-254.107	-63.458	-0.096	-0.039
-253.092	412.505	0.053	-0.110
-252.078	162.973	-0.243	0.335
-251.063	-4.037	0.157	-0.107
-250.049	315.516	-0.088	0.164
-249.034	298.552	-0.090	-0.163
-248.019	-200.000	0.021	-0.134
-247.005	35.758	-0.059	-0.051
-245.990	381.566	0.107	-0.217
-244.976	800.000	-0.058	-0.197
-243.961	-200.000	-0.005	0.071
-242.946	-200.000	-0.001	0.231
-241.932	0.991	0.126	-0.089
-240.917	246.356	-0.176	-0.292
-239.903	-200.000	-0.043	0.211
-238.888	-153.660	0.067	-0.005
-237.873	14.455	0.448	-0.344
-236.859	-132.478	-0.323	0.041
-235.844	-55.748	-0.267	0.117
-234.830	-144.425	0.254	0.023
-233.815	246.327	-0.176	0.292
-232.800	287.580	0.203	-0.360
-231.786	-79.055	-0.063	-0.021
-230.771	-200.000	-0.007	-0.092
-229.757	800.000	-0.061	-0.166
-228.742	-155.304	-0.289	0.018
-227.727	-70.635	-0.051	0.019
-226.713	155.529	0.165	-0.223
-225.698	800.000	0.074	-0.263
-224.684	-52.484	0.057	-0.026
-223.669	-200.000	0.025	-0.110
-222.655	31.855	0.095	0.081
-221.640	800.000	0.028	-0.109
-220.625	-200.000	0.000	0.107
-219.611	-37.857	0.330	-0.173
-218.596	-125.090	0.374	0.056
-217.582	196.138	-0.012	-0.018
-216.567	-32.395	-0.177	0.097
-215.552	264.046	0.123	-0.211
-214.538	800.000	0.209	0.656
-213.523	-151.046	0.151	-0.011
-212.509	-200.000	-0.001	0.294
-211.494	-65.656	0.241	-0.095
-210.479	-96.491	0.074	-0.019
-209.465	545.471	0.106	0.250
-208.450	-13.613	0.186	0.118
-207.436	7.166	0.172	-0.126
-206.421	800.000	0.029	-0.095
-205.406	-200.000	-0.003	0.153
-204.392	75.121	0.262	0.271
-203.377	71.628	-0.103	-0.105
-202.363	108.565	0.116	-0.136
-201.348	8.805	-0.290	0.215
-200.333	474.454	-0.105	0.234
-199.319	-200.000	0.029	-0.300
-198.304	-8.307	-0.063	0.041
-197.290	-97.080	0.128	-0.033
-196.275	-200.000	-0.023	-0.456
-195.260	-45.644	-0.137	0.066
-194.246	-136.968	0.144	-0.016
-193.231	-149.741	0.203	0.016
-192.217	-4.348	-0.188	0.128
-191.202	-69.910	0.336	0.126
-190.187	-200.000	0.083	0.368
-189.173	46.942	-0.159	-0.146
-188.158	-26.117	0.087	0.050
-187.144	-200.000	0.012	0.250
-186.129	-92.452	0.222	0.061
-185.114	92.712	-0.121	-0.134
-184.100	-10.071	-0.176	0.115
-183.085	-49.849	0.247	-0.115
-182.071	285.105	-0.138	0.245
-181.056	-107.212	-0.007	0.001
-180.042	-200.000	0.063	-0.374
-179.027	-22.718	0.044	0.026
-178.012	-200.000	0.027	0.245
-176.998	287.203	-0.094	0.167
-175.983	-200.000	-0.066	0.443
-174.969	-16.923	0.351	-0.218
-173.954	-200.000	0.059	0.257
-172.939	-101.246	0.313	0.075
-171.925	614.969	0.137	-0.336
-170.910	-138.607	-0.264	0.028
-169.896	-92.942	-0.246	0.067
-168.881	-59.946	-0.150	0.063
-167.866	9.969	0.197	0.147
-166.852	96.886	-0.234	-0.263
-165.837	628.736	0.072	-0.178
-164.823	168.155	-0.239	-0.334
-163.808	-200.000	0.003	-0.057
-162.793	-77.986	0.363	-0.123
-161.779	-14.669	0.140	0.088
-160.764	94.727	-0.125	0.140
-159.750	-76.578	0.220	0.076
-158.735	-35.489	-0.077	0.041
-157.720	229.129	0.086	0.138
-156.706	-56.117	0.136	-0.059
-155.691	564.272	-0.080	-0.189
-154.677	-26.505	-0.158	0.091
-153.662	-90.330	0.125	0.036
-152.647	82.144	-0.154	0.164
-151.633	196.876	0.015	-0.023
-150.618	800.000	0.036	0.104
-149.604	219.584	-0.036	-0.056
-148.589	446.491	0.051	-0.111
-147.574	357.960	0.056	0.110
-146.560	-126.638	-0.024	0.003
-145.545	182.693	0.136	-0.196
-144.531	-70.723	0.018	-0.007
-143.516	-200.000	0.021	-0.177
-142.502	-155.407	-0.352	0.022
-141.487	78.884	0.397	0.416
-140.472	18.202	-0.211	0.165
-139.458	-200.000	0.020	-0.099
-138.443	8.079	-0.181	-0.133
-137.429	-69.527	0.162	-0.061
-136.414	-156.606	0.355	-0.022
-135.399	-131.429	0.133	0.017
-134.385	97.211	-0.205	-0.230
-133.370	-200.000	0.001	0.069
-132.356	247.998	-0.166	-0.275
-131.341	-200.000	-0.004	0.049
-130.326	178.192	0.239	0.341
-129.312	-33.915	0.283	0.153
-128.297	513.929	-0.128	-0.292
-127.283	9.399	-0.366	0.271
-126.268	207.291	0.168	-0.256
-125.253	81.242	-0.183	0.194
-124.239	-106.983	0.419	-0.091
-123.224	-200.000	0.070	-0.336
-122.210	176.063	-0.160	0.228
-121.195	80.915	0.269	0.285
-120.180	-152.800	0.236	-0.016
