DTS Sentinel unit serial number:	SN413079Multiplexer serial number:	ORYXHardware model number:	OX4-SRSoftware version number:	ORYX F/W v4.00 Oryx Data Collector v3.7.2.0data status	okinstallation	princeton_trtdifferential loss correction	single-endedforward channel	channel 3reverse channel	N/Adate	2019/09/15time	19:56:35forward acquisition time	60.00reverse acquisition time	0.00gamma	496.2192k internal	0.2312k external	0.2312temperature offset calibration	0.9935default loss term (dB/km)	0.3790temperature slope calibration	1.0000multiplexer offset coefficient	1.0000multiplexer slope coefficient	1.0000fibre end	0.00T internal ref (°C)	36.05T ext. ref 1 (°C)	7.51T ext. ref 2 (°C)	26.73length (m)	temperature (°C)	Stokes	anti-Stokes-747.200	-19.624	-0.092	-0.058
-746.185	68.732	0.391	0.408
-745.171	-72.930	0.198	0.074
-744.156	472.293	-0.101	0.232
-743.142	54.767	0.100	0.098
-742.127	-200.000	-0.025	0.181
-741.112	800.000	0.045	-0.140
-740.098	-39.837	-0.319	0.169
-739.083	413.137	-0.110	0.237
-738.069	-91.047	-0.349	0.102
-737.054	-131.204	0.129	0.017
-736.039	-104.425	-0.263	-0.062
-735.025	-75.384	0.312	0.113
-734.010	-26.278	-0.550	-0.328
-732.996	-33.651	-0.332	-0.186
-731.981	185.891	-0.198	-0.298
-730.966	-7.540	-0.084	-0.058
-729.952	-77.908	-0.250	-0.087
-728.937	-139.269	0.087	-0.010
-727.923	-200.000	-0.084	-0.393
-726.908	-200.000	0.001	-0.329
-725.894	-115.138	-0.167	0.032
-724.879	-41.947	0.151	0.078
-723.864	-200.000	0.058	0.297
-722.850	43.906	-0.183	0.170
-721.835	-200.000	0.007	0.424
-720.821	-70.825	0.197	-0.075
-719.806	695.814	-0.074	-0.196
-718.791	162.275	-0.207	0.294
-717.777	-200.000	-0.272	0.000
-716.762	-127.777	0.227	-0.033
-715.748	73.490	-0.199	-0.212
-714.733	-135.889	0.301	0.036
-713.718	-65.354	-0.278	0.114
-712.704	12.874	-0.285	-0.223
-711.689	18.680	-0.309	-0.251
-710.675	465.783	0.096	0.218
-709.660	-15.656	-0.116	0.075
-708.645	16.352	0.157	-0.125
-707.631	-150.146	-0.180	-0.014
-706.616	127.571	-0.207	0.267
-705.602	-200.000	-0.009	-0.181
-704.587	107.170	-0.136	-0.163
-703.572	-154.522	-0.099	-0.007
-702.558	474.953	-0.040	-0.091
-701.543	51.075	-0.186	0.178
-700.529	-9.703	0.151	-0.102
-699.514	270.383	0.251	0.447
-698.499	119.745	0.111	-0.140
-697.485	576.318	-0.071	-0.175
-696.470	154.794	0.124	-0.172
-695.456	13.503	0.194	-0.153
-694.441	222.839	-0.071	0.116
-693.426	291.543	-0.150	0.277
-692.412	85.984	0.102	-0.113
-691.397	-200.000	-0.007	-0.182
-690.383	19.898	0.094	-0.077
-689.368	-3.191	0.050	0.036
-688.354	-54.712	-0.156	0.071
-687.339	181.537	0.125	-0.186
-686.324	-155.869	-0.242	-0.016
-685.310	-200.000	0.022	0.190
-684.295	2.577	0.072	0.053
-683.281	-73.256	0.213	0.079
-682.266	-200.000	0.046	0.229
-681.251	-108.324	-0.254	-0.055
-680.237	-142.621	0.435	-0.043
-679.222	584.777	-0.229	0.570
-678.208	-200.000	0.001	0.248
-677.193	-112.843	-0.075	-0.015
-676.178	675.886	-0.117	-0.307
-675.164	90.411	-0.293	0.332
-674.149	800.000	0.048	0.202
-673.135	-127.374	0.054	-0.008
-672.120	162.943	-0.041	-0.059
-671.105	-200.000	-0.045	-0.254
-670.091	113.601	0.176	0.217
-669.076	-40.735	0.157	0.082
-668.062	-137.081	0.264	0.031
-667.047	800.000	-0.100	-0.415
-666.032	335.552	-0.067	-0.132
-665.018	-200.000	-0.015	-0.116
-664.003	154.216	0.036	-0.050
-662.989	48.723	-0.130	0.124
-661.974	-1.610	-0.163	-0.116
-660.959	-84.881	0.415	0.132
-659.945	-32.575	-0.025	0.014
-658.930	-32.536	0.140	-0.079
-657.916	-66.021	-0.379	-0.153
-656.901	-114.527	-0.145	-0.028
-655.886	64.715	-0.103	0.105
-654.872	-147.676	0.152	-0.013
-653.857	59.394	-0.085	0.085
-652.843	-151.587	0.270	-0.020
-651.828	800.000	-0.033	-0.103
-650.814	-157.472	0.267	-0.016
-649.799	-186.061	-0.277	0.004
-648.784	63.947	0.077	-0.078
-647.770	64.485	0.178	-0.181
-646.755	79.053	0.120	-0.129
-645.741	413.368	0.116	-0.250
-644.726	446.546	0.149	0.331
-643.711	-200.000	0.005	0.038
-642.697	406.781	0.081	0.173
-641.682	159.031	-0.039	-0.055
-640.668	-200.000	0.011	-0.312
-639.653	800.000	0.063	-0.194
-638.638	800.000	0.044	-0.143
-637.624	-96.751	0.181	0.048
-636.609	-97.792	-0.257	0.067
-635.595	-200.000	-0.066	0.360
-634.580	-104.001	-0.347	-0.082
-633.565	81.395	0.014	0.015
-632.551	52.675	-0.172	0.166
-631.536	-94.210	-0.167	-0.046
-630.522	21.435	0.337	0.277
-629.507	800.000	0.075	-0.263
-628.492	127.010	0.238	-0.304
-627.478	-145.839	0.262	-0.023
-626.463	36.823	0.186	-0.166
-625.449	-200.000	0.041	-0.196
-624.434	8.358	0.345	-0.262
-623.419	-200.000	-0.035	0.156
-622.405	8.622	-0.158	-0.120
-621.390	-68.351	-0.062	0.024
-620.376	-131.637	0.244	-0.032
-619.361	33.078	0.220	-0.192
-618.346	-200.000	-0.008	0.122
-617.332	-20.791	-0.387	-0.240
-616.317	113.953	0.052	0.064
-615.303	70.945	0.077	0.080
-614.288	18.788	0.238	-0.192
-613.273	800.000	-0.035	0.100
-612.259	9.274	-0.036	0.027
-611.244	3.292	0.158	0.116
-610.230	583.412	-0.114	0.282
-609.215	214.724	-0.176	-0.281
-608.201	278.636	-0.210	-0.378
-607.186	-200.000	0.035	-0.270
-606.171	-200.000	0.017	-0.125
-605.157	-92.541	-0.313	-0.089
-604.142	-7.104	0.337	-0.231
-603.128	-111.456	-0.085	0.017
-602.113	6.385	0.115	-0.086
-601.098	52.857	-0.201	-0.194
-600.084	66.936	-0.092	-0.094
-599.069	-32.189	-0.099	-0.056
-598.055	-43.908	-0.272	-0.138
-597.040	99.212	-0.322	0.375
-596.025	-200.000	-0.030	0.351
-595.011	-10.027	0.181	-0.122
-593.996	-62.203	0.263	-0.110
-592.982	-97.376	-0.045	-0.012
-591.967	-135.692	-0.136	-0.016
-590.952	-142.539	0.124	0.012
-589.938	20.535	0.163	0.133
-588.923	-46.422	-0.190	-0.094
-587.909	-143.941	-0.087	0.008
-586.894	-14.963	-0.269	0.174
-585.879	-37.314	-0.118	0.063
-584.865	87.371	-0.242	-0.270
-583.850	-200.000	-0.006	0.158
-582.836	-90.261	-0.164	0.048
-581.821	135.327	0.054	0.071
-580.806	-146.039	0.600	-0.053
-579.792	79.572	0.130	-0.140
-578.777	-75.241	0.141	-0.051
-577.763	-34.340	0.291	0.161
-576.748	-68.323	0.174	-0.068
-575.733	800.000	0.042	-0.163
-574.719	-13.004	-0.061	0.040
-573.704	-110.377	-0.365	0.076
-572.690	-126.167	0.163	-0.025
-571.675	800.000	0.012	0.044
-570.661	-115.109	-0.363	0.069
-569.646	-26.193	0.038	0.022
-568.631	20.491	-0.052	-0.042
-567.617	-111.916	-0.281	0.057
-566.602	-75.982	0.152	-0.054
-565.588	-53.323	-0.200	-0.092
-564.573	-42.239	-0.108	0.056
-563.558	-200.000	0.014	-0.151
-562.544	800.000	0.118	0.377
-561.529	800.000	0.048	0.160
-560.515	-174.074	-0.129	0.004
-559.500	800.000	-0.017	-0.070
-558.485	235.597	-0.199	-0.332
-557.471	24.929	-0.138	0.115
-556.456	-158.334	-0.181	-0.011
-555.442	-200.000	0.016	-0.202
-554.427	-200.000	-0.063	-0.302
-553.412	-104.891	-0.287	0.066
-552.398	138.190	-0.276	0.364
-551.383	24.801	0.223	0.186
-550.369	-200.000	-0.041	0.273
-549.354	-145.940	-0.201	0.018
-548.339	27.900	0.176	0.149
-547.325	-76.304	0.285	-0.101
-546.310	-200.000	0.061	-0.477
-545.296	-28.511	-0.094	0.054
-544.281	59.165	-0.319	-0.316
-543.266	-115.906	-0.236	0.044
-542.252	18.225	-0.071	0.057
-541.237	-101.724	-0.251	0.061
-540.223	32.219	0.208	-0.181
-539.208	165.773	0.177	0.252
-538.193	-200.000	-0.015	0.120
-537.179	726.971	0.115	-0.309
-536.164	-82.672	0.252	-0.082
-535.150	-200.000	0.037	-0.236
-534.135	8.637	-0.083	-0.063
-533.121	-116.757	-0.364	-0.067
-532.106	31.713	-0.043	-0.037
-531.091	-123.348	-0.041	0.007
-530.077	-200.000	0.016	-0.105
-529.062	548.498	-0.204	0.492
-528.048	-200.000	0.011	0.123
-527.033	129.938	0.049	-0.063
-526.018	109.965	-0.243	-0.293
-525.004	703.210	0.051	-0.136
-523.989	-37.987	0.211	-0.113
-522.975	-46.407	-0.031	0.015
-521.960	412.258	-0.107	0.230
-520.945	-200.000	-0.017	0.073
-519.931	-28.925	-0.079	-0.046
-518.916	161.665	0.109	0.153
-517.902	800.000	0.071	0.301
-516.887	-113.160	-0.169	-0.033
-515.872	-157.184	0.156	-0.010
-514.858	105.408	-0.139	-0.165
-513.843	-200.000	0.014	-0.166
-512.829	410.742	-0.149	-0.317
-511.814	800.000	-0.095	-0.328
-510.799	58.254	0.232	-0.228
-509.785	-68.213	-0.253	-0.099
-508.770	246.625	0.088	-0.150
-507.756	-190.255	0.165	-0.002
-506.741	-68.052	-0.257	-0.101
-505.726	242.017	0.104	0.175
-504.712	800.000	-0.098	-0.337
-503.697	-106.903	0.371	-0.083
-502.683	-200.000	0.016	-0.084
-501.668	-200.000	0.029	-0.190
-500.653	-200.000	-0.014	0.396
-499.639	-181.204	0.147	0.003
-498.624	283.603	0.020	0.037
-497.610	-82.859	0.253	-0.082
-496.595	-200.000	0.010	0.290
-495.581	4.695	0.195	-0.144
-494.566	-94.751	-0.264	-0.072
-493.551	38.215	0.244	-0.218
-492.537	44.616	0.299	0.276
-491.522	3.357	-0.249	0.182
-490.508	-200.000	-0.022	0.169
-489.493	-69.550	-0.096	0.037
-488.478	462.014	-0.147	-0.330
-487.464	-51.676	-0.265	-0.124
-486.449	-200.000	-0.008	0.106
-485.435	-147.466	-0.164	0.014
-484.420	69.305	0.221	-0.228
-483.405	-200.000	-0.041	0.266
-482.391	-159.023	-0.328	0.019
-481.376	-66.264	0.180	0.072
-480.362	800.000	0.022	0.077
-479.347	-200.000	-0.042	0.207
-478.332	-56.252	-0.127	0.057
-477.318	424.576	0.106	0.229
-476.303	-200.000	-0.026	-0.195
-475.289	800.000	-0.027	0.106
-474.274	-200.000	-0.055	-0.266
-473.259	-200.000	0.030	0.144
-472.245	186.891	-0.073	-0.109
-471.230	-87.354	0.184	0.056
-470.216	-34.698	0.041	0.022
-469.201	13.855	-0.140	0.109
-468.186	800.000	-0.110	-0.407
-467.172	800.000	-0.087	-0.241
-466.157	-200.000	-0.116	0.001
-465.143	-68.044	0.168	0.066
-464.128	-38.794	0.035	0.019
-463.113	-200.000	-0.012	-0.103
-462.099	-128.943	-0.021	-0.003
-461.084	-200.000	-0.055	-0.318
-460.070	-200.000	-0.042	-0.323
-459.055	800.000	-0.073	-0.260
-458.040	28.949	-0.259	-0.220
-457.026	-51.994	-0.133	-0.062
-456.011	-166.236	-0.304	0.013
-454.997	-200.000	0.014	-0.322
-453.982	687.182	0.137	0.359
-452.968	123.826	0.208	0.262
-451.953	-200.000	0.004	0.099
-450.938	135.508	-0.151	-0.197
-449.924	22.223	-0.149	0.122
-448.909	87.259	0.113	0.125
-447.895	-200.000	0.017	-0.357
-446.880	-127.976	-0.130	0.019
-445.865	-42.135	0.202	0.103
-444.851	800.000	-0.043	-0.184
-443.836	-200.000	0.020	-0.356
-442.822	201.041	-0.256	0.395
-441.807	-1.829	0.140	0.099
-440.792	-141.446	0.248	0.025
-439.778	-200.000	0.023	-0.152
-438.763	-82.675	0.182	-0.059
-437.749	800.000	0.095	-0.296
-436.734	60.402	0.291	0.289
-435.719	800.000	-0.044	-0.175
-434.705	160.852	0.258	-0.362
-433.690	-12.527	-0.199	-0.130
-432.676	319.260	0.080	0.151
-431.661	87.179	0.184	0.204
-430.646	132.314	-0.110	-0.142
-429.632	-106.654	-0.207	0.046
-428.617	558.119	-0.100	0.241
-427.603	-33.591	0.213	-0.118
-426.588	21.994	0.257	-0.210
-425.573	-100.525	-0.076	-0.019
-424.559	-200.000	0.016	0.238
-423.544	-120.404	0.132	0.023
-422.530	-73.120	0.202	0.074
-421.515	-98.642	0.279	-0.071
-420.500	-21.517	0.186	-0.113
-419.486	-78.065	0.161	-0.056
-418.471	-200.000	0.009	0.066
-417.457	507.627	0.108	0.250
-416.442	800.000	0.048	0.211
-415.428	-72.734	-0.195	0.072
-414.413	-200.000	-0.009	0.526
-413.398	800.000	0.026	0.099
-412.384	84.588	-0.085	0.093
-411.369	4.358	-0.162	-0.119
-410.355	-163.216	-0.344	-0.017
-409.340	378.250	-0.137	0.280
-408.325	-200.000	0.000	0.079
-407.311	-200.000	-0.000	0.060
-406.296	-105.932	0.335	0.076
-405.282	-179.234	-0.121	-0.003
-404.267	-17.712	0.159	-0.100
-403.252	-200.000	0.004	0.095
-402.238	800.000	0.011	0.038
-401.223	-25.785	-0.308	0.182
-400.209	162.272	0.139	0.196
-399.194	58.703	0.023	-0.023
-398.179	-57.452	0.280	-0.123
-397.165	-200.000	0.024	0.124
-396.150	-32.338	-0.097	0.054
-395.136	-200.000	0.043	-0.292
-394.121	-31.189	0.098	-0.055
-393.106	800.000	-0.081	-0.340
-392.092	-76.463	0.054	0.019
-391.077	-117.523	0.088	-0.016
-390.063	800.000	-0.148	-0.414
-389.048	-136.298	0.167	-0.019
-388.033	-164.410	-0.493	0.023
-387.019	-200.000	0.049	-0.393
-386.004	800.000	-0.037	0.120
-384.990	87.085	-0.093	-0.103
-383.975	-170.169	-0.347	0.012
-382.960	800.000	0.063	0.198
-381.946	-41.531	0.219	-0.113
-380.931	47.531	0.150	0.140
-379.917	-138.248	0.280	0.031
-378.902	-200.000	0.025	0.259
-377.888	-143.097	-0.111	-0.011
-376.873	97.215	-0.096	-0.111
-375.858	-154.832	0.066	-0.004
-374.844	-200.000	0.047	0.327
-373.829	800.000	0.085	0.363
-372.815	-60.119	0.133	0.057
-371.800	759.586	0.069	0.186
-370.785	-185.993	0.039	0.001
-369.771	-200.000	0.006	-0.080
-368.756	97.431	-0.194	0.223
-367.742	43.802	0.159	-0.146
-366.727	-76.651	-0.078	-0.027
-365.712	459.035	0.147	0.326
-364.698	800.000	0.060	0.230
-363.683	112.681	0.295	0.357
-362.669	-200.000	-0.013	-0.061
-361.654	-67.408	-0.435	-0.171
-360.639	-200.000	0.040	-0.331
-359.625	-23.981	-0.171	-0.102
-358.610	-200.000	0.028	-0.225
-357.596	-108.596	-0.159	-0.034
-356.581	-67.235	-0.340	-0.134
-355.566	-59.038	0.199	0.086
-354.552	-200.000	-0.009	0.293
-353.537	-200.000	-0.041	0.180
-352.523	12.257	0.048	0.037
-351.508	367.011	0.095	0.192
-350.493	800.000	-0.098	0.287
-349.479	503.996	0.174	-0.401
-348.464	-50.562	-0.058	0.027
-347.450	-200.000	-0.052	-0.606
-346.435	268.667	0.120	0.211
-345.420	-94.533	-0.249	0.068
-344.406	576.605	-0.025	0.062
-343.391	-161.556	-0.141	0.007
-342.377	3.750	-0.119	-0.087
-341.362	18.215	0.055	0.044
-340.348	-200.000	-0.025	0.140
-339.333	-200.000	-0.023	-0.443
-338.318	-49.848	-0.336	-0.159
-337.304	20.075	-0.194	-0.156
-336.289	-67.696	0.200	0.078
-335.275	-133.583	0.408	0.051
-334.260	-122.978	0.373	-0.060
-333.245	-101.457	-0.042	-0.010
-332.231	-108.520	0.251	0.054
-331.216	-91.611	-0.103	-0.029
-330.202	-134.262	0.272	0.033
-329.187	59.147	0.134	-0.131
-328.172	553.277	-0.058	-0.139
-327.158	-70.689	0.305	0.115
-326.143	-58.687	-0.127	0.055
-325.129	-36.958	-0.152	-0.081
-324.114	586.936	0.088	0.216
-323.099	14.795	-0.131	0.102
-322.085	57.276	-0.053	0.052
-321.070	726.727	0.137	0.365
-320.056	487.176	-0.032	-0.073
-319.041	800.000	0.015	-0.050
-318.026	243.779	-0.084	-0.140
-317.012	388.173	-0.064	0.133
-315.997	-192.775	-0.291	0.003
-314.983	-123.795	0.249	0.039
-313.968	-125.531	0.223	0.034
-312.953	-58.250	0.267	0.116
-311.939	458.080	0.094	-0.208
-310.924	193.794	0.097	0.146
-309.910	-65.248	-0.149	0.060
-308.895	14.316	0.024	0.018
-307.880	-200.000	0.007	-0.217
-306.866	-53.235	0.041	0.019
-305.851	-95.940	0.137	-0.036
-304.837	96.434	0.215	0.246
-303.822	800.000	0.074	-0.306
-302.807	-54.567	-0.421	0.190
-301.793	-110.034	-0.086	-0.018
-300.778	-200.000	-0.085	0.373
-299.764	-30.441	0.399	0.225
-298.749	-114.653	-0.639	0.122
-297.735	96.990	-0.210	-0.241
-296.720	10.983	0.242	-0.185
-295.705	142.181	-0.134	0.177
-294.691	180.626	-0.173	0.253
-293.676	-29.100	-0.197	0.113
-292.662	-119.340	-0.332	-0.058
-291.647	800.000	0.037	0.123
-290.632	253.884	-0.095	0.162
-289.618	88.587	-0.051	-0.056
-288.603	-50.881	0.361	0.169
-287.589	-72.067	0.196	0.072
-286.574	158.845	0.053	0.074
-285.559	-200.000	-0.016	-0.268
-284.545	-92.428	0.185	0.052
-283.530	-200.000	-0.045	0.343
-282.516	174.953	0.073	0.106
-281.501	-102.229	0.134	-0.032
-280.486	-156.224	-0.210	0.013
-279.472	-20.700	-0.072	0.044
-278.457	160.201	-0.094	-0.131
-277.443	133.811	-0.064	-0.082
-276.428	698.356	-0.029	-0.075
-275.413	-185.746	-0.426	0.006
-274.399	80.429	-0.083	0.089
-273.384	356.743	0.087	0.173
-272.370	-200.000	-0.196	-0.001
-271.355	102.767	-0.087	0.102
-270.340	-8.845	0.168	0.112
-269.326	-138.576	0.252	-0.027
-268.311	310.944	0.157	0.294
-267.297	63.691	0.132	0.132
-266.282	-200.000	0.071	0.475
-265.267	800.000	0.083	-0.299
-264.253	66.890	0.167	0.170
-263.238	-200.000	0.053	-0.383
-262.224	-101.834	-0.032	-0.008
-261.209	-30.608	-0.122	-0.069
-260.195	31.010	-0.077	0.066
-259.180	-34.512	-0.339	0.185
-258.165	-154.467	-0.238	0.016
-257.151	27.605	-0.034	0.029
-256.136	183.123	-0.186	0.273
-255.122	-22.041	0.368	-0.222
-254.107	-200.000	0.005	0.063
-253.092	244.844	0.312	0.522
-252.078	419.463	0.096	-0.205
-251.063	366.405	0.138	-0.277
-250.049	-177.490	0.148	-0.004
-249.034	-108.051	-0.054	0.012
-248.019	-133.674	-0.260	0.032
-247.005	-200.000	0.074	0.354
-245.990	125.320	0.171	0.215
-244.976	-200.000	0.051	0.271
-243.961	-200.000	-0.002	0.216
-242.946	-165.739	-0.239	-0.010
-241.932	-49.255	-0.291	0.138
-240.917	800.000	0.063	-0.180
-239.903	-117.703	0.128	0.023
-238.888	800.000	0.108	0.321
-237.873	-103.322	-0.338	0.079
-236.859	-121.733	-0.147	0.024
-235.844	105.403	0.034	-0.040
-234.830	-200.000	0.017	-0.128
-233.815	-200.000	-0.044	0.361
-232.800	393.853	-0.138	-0.286
-231.786	-31.992	-0.289	-0.161
-230.771	24.573	0.125	-0.103
-229.757	-21.416	0.179	-0.109
-228.742	178.649	-0.028	0.041
-227.727	152.333	-0.173	-0.234
-226.713	16.701	-0.208	-0.164
-225.698	-29.864	-0.047	0.027
-224.684	-140.139	0.451	-0.047
-223.669	-55.388	-0.067	0.030
-222.655	800.000	0.004	0.013
-221.640	-200.000	0.024	0.174
-220.625	-200.000	0.036	0.246
-219.611	174.589	-0.050	-0.072
-218.596	558.523	0.096	0.229
-217.582	-94.954	-0.306	0.082
-216.567	122.446	0.073	-0.090
-215.552	-9.791	0.328	-0.217
-214.538	-200.000	-0.041	-0.271
-213.523	-200.000	0.045	-0.365
-212.509	556.157	0.158	0.379
-211.494	-20.425	0.097	0.059
-210.479	303.429	0.151	0.278
-209.465	-200.000	0.004	0.347
-208.450	-20.889	0.177	0.108
-207.436	-98.920	0.115	-0.029
-206.421	-28.016	0.160	0.092
-205.406	152.972	-0.072	0.098
-204.392	-200.000	-0.013	0.124
-203.377	7.617	-0.048	-0.036
-202.363	551.337	0.040	0.095
-201.348	-78.776	0.332	-0.113
-200.333	1.010	-0.151	-0.108
-199.319	-200.000	-0.000	-0.204
-198.304	-44.295	-0.060	-0.030
-197.290	276.970	0.320	-0.565
-196.275	-200.000	0.046	0.260
-195.260	800.000	0.021	0.072
-194.246	20.048	0.213	0.171
-193.231	-65.709	-0.357	-0.142
-192.217	800.000	0.052	-0.209
-191.202	-200.000	-0.025	-0.284
-190.187	-87.454	0.236	-0.071
-189.173	800.000	-0.064	0.214
-188.158	-84.478	-0.274	0.086
-187.144	800.000	0.040	-0.161
-186.129	9.597	0.060	-0.045
-185.114	800.000	0.062	0.204
-184.100	-14.310	0.086	0.055
-183.085	300.702	0.070	-0.129
-182.071	800.000	0.033	-0.120
-181.056	-138.829	-0.217	-0.023
-180.042	177.517	0.107	0.154
-179.027	-136.543	0.179	0.021
-178.012	5.237	-0.245	-0.179
-176.998	-200.000	0.016	0.286
-175.983	-200.000	0.014	0.169
-174.969	-1.375	-0.018	-0.012
-173.954	800.000	-0.006	-0.019
-172.939	-120.341	-0.162	0.027
-171.925	79.786	-0.059	-0.063
-170.910	800.000	-0.093	-0.356
-169.896	800.000	0.042	-0.141
-168.881	246.482	-0.168	-0.280
-167.866	64.044	-0.152	0.152
-166.852	-129.909	0.050	0.007
-165.837	-200.000	-0.004	0.237
-164.823	224.918	0.166	-0.267
-163.808	-70.076	-0.146	0.055
-162.793	-30.335	0.342	0.193
-161.779	250.769	0.089	0.150
-160.764	-104.873	-0.180	0.041
-159.750	-200.000	-0.005	0.035
-158.735	146.476	-0.084	-0.112
-157.720	-200.000	-0.015	0.195
-156.706	-200.000	-0.007	-0.404
-155.691	-200.000	0.011	0.166
-154.677	190.749	-0.050	0.074
-153.662	-74.619	0.318	-0.114
-152.647	-104.909	0.244	-0.055
-151.633	-21.559	-0.259	0.156
-150.618	-131.766	0.128	0.017
-149.604	-65.788	-0.158	0.063
-148.589	800.000	-0.058	-0.205
-147.574	716.629	0.070	-0.183
-146.560	-87.308	0.126	0.038
-145.545	593.288	-0.036	-0.088
-144.531	57.101	0.205	0.198
-143.516	97.385	0.019	0.022
-142.502	800.000	-0.039	0.162
-141.487	-112.555	-0.127	-0.025
-140.472	-5.603	-0.201	-0.137
-139.458	-200.000	-0.029	-0.362
-138.443	103.106	-0.164	0.190
-137.429	-78.601	0.125	0.042
-136.414	-42.080	0.337	0.171
-135.399	87.467	-0.125	-0.137
-134.385	294.560	0.222	-0.402
-133.370	800.000	-0.127	-0.451
-132.356	214.359	-0.065	0.101
-131.341	-113.043	-0.105	-0.021
-130.326	-200.000	0.003	-0.094
-129.312	-87.379	0.153	0.046
-128.297	-200.000	0.008	-0.162
-127.283	132.512	-0.116	0.148
-126.268	108.947	-0.176	-0.208
-125.253	-130.678	-0.171	-0.023
-124.239	-9.776	0.250	0.165
-123.224	-200.000	0.012	0.206
-122.210	368.611	-0.091	-0.183
-121.195	-22.215	0.107	0.064
