DTS Sentinel unit serial number:	SN413079Multiplexer serial number:	ORYXHardware model number:	OX4-SRSoftware version number:	ORYX F/W v4.00 Oryx Data Collector v3.7.2.0data status	okinstallation	princeton_trtdifferential loss correction	single-endedforward channel	channel 3reverse channel	N/Adate	2019/09/12time	14:02:10forward acquisition time	60.00reverse acquisition time	0.00gamma	496.2192k internal	0.2292k external	0.2292temperature offset calibration	1.0056default loss term (dB/km)	0.3790temperature slope calibration	1.0000multiplexer offset coefficient	1.0000multiplexer slope coefficient	1.0000fibre end	0.00T internal ref (°C)	40.50T ext. ref 1 (°C)	2.20T ext. ref 2 (°C)	34.46length (m)	temperature (°C)	Stokes	anti-Stokes-747.200	20.820	-0.145	0.120
-746.185	-65.410	0.083	-0.034
-745.171	14.695	0.287	0.230
-744.156	256.958	-0.107	0.188
-743.142	322.571	-0.122	0.237
-742.127	-105.582	-0.366	0.085
-741.112	-100.206	-0.043	-0.011
-740.098	-200.000	-0.040	0.280
-739.083	-200.000	0.036	-0.215
-738.069	84.300	-0.134	0.150
-737.054	-200.000	0.004	-0.069
-736.039	184.921	-0.235	-0.357
-735.025	515.889	-0.041	0.099
-734.010	-200.000	0.037	0.183
-732.996	-104.435	-0.078	-0.018
-731.981	143.266	-0.049	-0.066
-730.966	-120.821	0.272	0.047
-729.952	276.397	-0.096	0.175
-728.937	110.772	-0.016	0.020
-727.923	319.977	0.156	-0.302
-726.908	52.493	-0.277	-0.270
-725.894	-163.329	-0.312	0.015
-724.879	-115.575	0.076	0.015
-723.864	-175.042	0.178	-0.005
-722.850	-166.912	-0.223	-0.009
-721.835	107.299	-0.190	0.231
-720.821	-129.849	-0.258	0.036
-719.806	800.000	0.117	-0.460
-718.791	800.000	-0.008	0.027
-717.777	-200.000	-0.008	-0.094
-716.762	241.425	-0.212	0.362
-715.748	-48.977	0.043	-0.021
-714.733	-200.000	0.043	-0.224
-713.718	-129.043	0.329	0.047
-712.704	-30.057	0.140	-0.082
-711.689	-174.774	-0.191	-0.006
-710.675	-200.000	0.096	0.494
-709.660	221.502	0.121	0.199
-708.645	-200.000	-0.004	0.087
-707.631	-36.379	0.215	0.119
-706.616	82.583	-0.019	-0.021
-705.602	792.758	-0.032	0.090
-704.587	-200.000	0.032	0.234
-703.572	169.483	-0.114	0.167
-702.558	-59.434	0.367	-0.161
-701.543	-200.000	-0.002	-0.215
-700.529	131.431	-0.187	0.246
-699.514	-166.695	0.196	0.008
-698.499	800.000	0.117	-0.462
-697.485	800.000	0.029	-0.086
-696.470	-200.000	-0.011	-0.167
-695.456	104.225	0.145	-0.175
-694.441	800.000	0.081	0.287
-693.426	287.116	0.081	0.149
-692.412	203.192	0.252	0.398
-691.397	7.060	0.096	0.073
-690.383	314.965	0.098	0.188
-689.368	800.000	-0.033	0.109
-688.354	800.000	0.083	-0.271
-687.339	-27.560	-0.269	0.160
-686.324	-133.714	0.152	0.019
-685.310	67.375	-0.097	0.101
-684.295	13.136	0.274	-0.216
-683.281	197.122	0.309	0.482
-682.266	484.159	0.047	0.108
-681.251	-79.038	-0.296	-0.103
-680.237	-10.042	0.204	-0.139
-679.222	-200.000	-0.035	-0.186
-678.208	-90.265	0.253	-0.075
-677.193	69.530	-0.225	-0.237
-676.178	16.815	-0.165	-0.133
-675.164	-137.541	0.164	-0.019
-674.149	-177.601	-0.233	-0.006
-673.135	-119.574	-0.152	-0.027
-672.120	214.956	-0.063	0.102
-671.105	-8.902	0.138	-0.094
-670.091	192.480	-0.132	-0.203
-669.076	27.032	0.100	0.085
-668.062	150.478	-0.212	-0.293
-667.047	-92.355	-0.152	0.044
-666.032	-200.000	-0.053	-0.240
-665.018	711.836	0.056	-0.150
-664.003	-2.995	0.045	0.032
-662.989	800.000	-0.068	-0.272
-661.974	86.169	-0.106	-0.119
-660.959	-200.000	-0.013	-0.209
-659.945	-200.000	0.000	0.067
-658.930	-78.085	-0.184	-0.065
-657.916	155.297	0.134	-0.188
-656.901	-200.000	0.015	-0.157
-655.886	-200.000	-0.001	0.104
-654.872	800.000	0.093	0.304
-653.857	173.063	0.166	-0.244
-652.843	-64.224	0.221	0.092
-651.828	-43.336	0.294	0.152
-650.814	246.129	-0.071	-0.122
-649.799	-85.265	-0.259	-0.083
-648.784	-28.349	-0.197	-0.116
-647.770	-38.324	-0.037	0.020
-646.755	169.248	0.264	-0.384
-645.741	-150.699	0.098	-0.008
-644.726	98.176	0.158	-0.185
-643.711	-18.529	0.137	-0.087
-642.697	289.820	0.060	0.112
-641.682	148.291	-0.150	0.206
-640.668	-83.270	0.040	-0.013
-639.653	-200.000	-0.039	0.292
-638.638	800.000	0.100	0.323
-637.624	-42.601	0.142	-0.074
-636.609	22.967	0.500	-0.417
-635.595	-27.237	0.296	-0.176
-634.580	-27.979	0.131	-0.077
-633.565	-33.772	-0.132	0.074
-632.551	-23.577	-0.182	-0.111
-631.536	-32.841	0.145	0.082
-630.522	635.450	0.097	0.251
-629.507	74.918	0.086	0.092
-628.492	45.247	0.180	0.169
-627.478	242.975	-0.067	-0.114
-626.463	101.250	0.135	0.160
-625.449	424.019	0.234	0.512
-624.434	-200.000	0.023	-0.198
-623.419	130.329	0.195	-0.254
-622.405	208.484	0.164	-0.261
-621.390	-144.608	0.057	-0.005
-620.376	-120.712	0.164	0.028
-619.361	397.307	0.080	0.170
-618.346	72.281	-0.077	-0.082
-617.332	158.942	-0.148	0.210
-616.317	-200.000	0.011	0.223
-615.303	294.399	0.076	-0.142
-614.288	-189.225	0.125	-0.002
-613.273	652.712	0.096	-0.250
-612.259	-90.660	-0.233	0.069
-611.244	362.037	-0.062	-0.126
-610.230	800.000	0.076	0.312
-609.215	-177.908	0.073	0.002
-608.201	238.365	-0.150	-0.254
-607.186	-52.604	0.294	-0.138
-606.171	122.909	0.040	0.051
-605.157	19.324	-0.147	0.120
-604.142	-95.251	0.043	0.012
-603.128	-119.366	-0.157	0.028
-602.113	32.351	-0.259	0.227
-601.098	-140.879	0.157	-0.016
-600.084	-200.000	0.039	0.341
-599.069	207.942	-0.114	-0.181
-598.055	-109.275	0.196	0.042
-597.040	-119.924	-0.079	-0.014
-596.025	-63.392	-0.085	0.035
-595.011	-152.224	-0.052	0.004
-593.996	449.441	0.102	-0.229
-592.982	754.244	0.045	0.123
-591.967	800.000	-0.052	-0.150
-590.952	-5.456	0.239	-0.167
-589.938	-200.000	-0.035	0.166
-588.923	-18.884	0.237	0.150
-587.909	800.000	0.062	0.176
-586.894	-34.552	0.115	0.064
-585.879	119.396	0.132	0.167
-584.865	-20.346	0.301	-0.188
-583.850	-38.575	-0.101	-0.054
-582.836	518.163	-0.100	0.237
-581.821	66.718	0.234	-0.242
-580.806	41.058	-0.320	0.294
-579.792	-200.000	0.049	-0.268
-578.777	-44.090	0.164	-0.084
-577.763	-4.547	-0.163	0.114
-576.748	25.104	-0.166	0.140
-575.733	-200.000	-0.042	0.207
-574.719	8.748	-0.230	0.176
-573.704	-116.799	0.069	-0.013
-572.690	88.534	0.075	-0.084
-571.675	-200.000	0.025	-0.234
-570.661	306.405	-0.180	-0.341
-569.646	50.053	-0.083	0.079
-568.631	162.213	0.071	-0.101
-567.617	-66.613	-0.422	0.170
-566.602	-101.186	-0.232	-0.058
-565.588	800.000	-0.132	0.503
-564.573	51.647	-0.045	0.044
-563.558	-92.661	-0.156	0.044
-562.544	800.000	-0.028	-0.083
-561.529	787.659	0.108	0.301
-560.515	62.064	0.103	0.105
-559.500	-32.343	0.026	-0.015
-558.485	-43.790	-0.068	0.035
-557.471	64.964	-0.127	0.131
-556.456	-200.000	0.009	-0.119
-555.442	-200.000	-0.007	-0.113
-554.427	5.838	-0.185	0.139
-553.412	-200.000	0.016	0.317
-552.398	32.682	-0.246	0.216
-551.383	-26.863	0.025	-0.015
-550.369	-43.930	0.159	0.081
-549.354	-19.371	0.258	-0.162
-548.339	-53.450	0.150	-0.070
-547.325	-128.741	0.231	-0.033
-546.310	-200.000	-0.035	0.251
-545.296	-35.758	0.130	-0.072
-544.281	-200.000	0.041	-0.280
-543.266	-10.932	0.111	-0.075
-542.252	-3.272	-0.089	0.063
-541.237	-200.000	-0.014	-0.190
-540.223	-61.148	0.053	0.023
-539.208	305.900	-0.102	-0.192
-538.193	800.000	0.111	-0.337
-537.179	-200.000	0.009	0.096
-536.164	-143.786	-0.374	0.036
-535.150	575.016	0.099	-0.246
-534.135	148.787	0.148	-0.204
-533.121	488.859	0.030	-0.069
-532.106	463.820	-0.085	-0.193
-531.091	415.636	-0.101	-0.218
-530.077	-200.000	0.056	-0.270
-529.062	-3.018	-0.083	-0.058
-528.048	-137.355	-0.046	0.005
-527.033	-200.000	-0.019	-0.150
-526.018	-200.000	0.019	0.140
-525.004	137.194	0.240	-0.318
-523.989	40.269	-0.218	-0.199
-522.975	298.923	-0.142	-0.265
-521.960	-111.155	-0.139	0.029
-520.945	-131.618	0.238	-0.032
-519.931	-200.000	-0.039	0.328
-518.916	169.170	0.021	0.030
-517.902	-51.572	0.206	0.098
-516.887	-64.435	-0.247	0.102
-515.872	233.170	-0.194	0.323
-514.858	-77.266	0.273	0.096
-513.843	-200.000	-0.016	-0.082
-512.829	-140.004	-0.106	-0.011
-511.814	218.378	0.059	-0.096
-510.799	32.022	-0.116	-0.101
-509.785	411.501	0.031	0.066
-508.770	-125.234	-0.164	-0.025
-507.756	51.696	-0.184	0.178
-506.741	-200.000	-0.014	0.190
-505.726	-98.882	-0.173	0.044
-504.712	-91.967	0.152	0.044
-503.697	224.222	-0.119	-0.194
-502.683	317.326	-0.031	0.059
-501.668	88.684	0.083	0.094
-500.653	190.226	-0.117	-0.178
-499.639	-200.000	-0.006	0.131
-498.624	55.266	0.244	0.240
-497.610	800.000	0.046	-0.130
-496.595	-77.758	-0.307	0.108
-495.581	800.000	-0.023	0.099
-494.566	214.298	-0.113	-0.181
-493.551	-200.000	-0.020	0.197
-492.537	3.413	-0.015	-0.011
-491.522	-32.499	-0.103	-0.058
-490.508	-128.111	0.125	-0.018
-489.493	28.977	0.095	0.081
-488.478	-145.059	-0.135	0.012
-487.464	104.412	-0.150	-0.179
-486.449	-200.000	0.002	0.323
-485.435	33.585	0.068	0.060
-484.420	-151.635	0.340	-0.025
-483.405	-80.296	0.231	0.078
-482.391	-96.018	0.326	0.088
-481.376	91.841	-0.048	-0.054
-480.362	4.710	-0.073	-0.054
-479.347	-200.000	0.020	-0.336
-478.332	141.522	0.054	0.072
-477.318	800.000	-0.055	-0.193
-476.303	-90.905	-0.402	-0.117
-475.289	501.899	0.100	-0.235
-474.274	-17.569	0.144	-0.092
-473.259	227.783	-0.184	-0.303
-472.245	86.616	0.197	-0.221
-471.230	-0.026	-0.346	0.250
-470.216	478.663	0.149	0.341
-469.201	-2.830	0.096	-0.068
-468.186	47.765	0.173	-0.164
-467.172	-102.206	0.040	0.010
-466.157	4.722	-0.186	-0.139
-465.143	-86.735	-0.245	0.076
-464.128	-37.360	0.334	0.180
-463.113	-179.103	-0.307	0.007
-462.099	3.137	0.088	0.065
-461.084	-200.000	0.021	0.125
-460.070	-200.000	0.325	-0.000
-459.055	-27.780	-0.211	-0.124
-458.040	-200.000	-0.019	-0.100
-457.026	-74.628	-0.193	-0.070
-456.011	-132.026	-0.149	-0.020
-454.997	-104.849	-0.182	0.042
-453.982	-200.000	-0.046	0.203
-452.968	-200.000	0.011	-0.231
-451.953	-200.000	0.018	-0.389
-450.938	-27.674	-0.401	-0.236
-449.924	57.561	-0.309	0.306
-448.909	48.895	-0.048	0.045
-447.895	-200.000	0.044	0.244
-446.880	48.685	0.177	-0.168
-445.865	800.000	0.081	-0.342
-444.851	-12.230	0.305	0.202
-443.836	181.550	-0.038	-0.057
-442.822	48.171	-0.234	-0.221
-441.807	-200.000	-0.062	-0.380
-440.792	-200.000	0.032	0.179
-439.778	-39.897	0.130	-0.069
-438.763	7.885	-0.379	-0.288
-437.749	800.000	0.056	-0.186
-436.734	-200.000	0.047	0.217
-435.719	196.745	-0.058	0.089
-434.705	115.060	-0.059	-0.073
-433.690	127.973	-0.212	0.273
-432.676	-88.215	0.254	0.077
-431.661	-200.000	-0.029	-0.173
-430.646	-103.773	0.322	-0.076
-429.632	-131.548	-0.129	0.017
-428.617	350.491	-0.157	-0.313
-427.603	800.000	-0.034	-0.116
-426.588	-88.222	0.041	-0.012
-425.573	62.070	0.071	-0.071
-424.559	800.000	-0.049	0.184
-423.544	-35.693	-0.023	-0.013
-422.530	503.398	0.146	0.341
-421.515	363.216	-0.205	0.416
-420.500	-55.771	0.161	0.073
-419.486	800.000	0.122	-0.441
-418.471	-30.994	-0.197	-0.112
-417.457	-200.000	-0.042	-0.223
-416.442	211.090	-0.064	0.101
-415.428	-153.617	0.149	0.010
-414.413	-50.286	-0.139	-0.067
-413.398	-100.234	0.345	0.087
-412.384	237.057	-0.187	-0.313
-411.369	225.350	0.092	-0.151
-410.355	222.971	0.248	-0.404
-409.340	-200.000	0.026	-0.181
-408.325	-125.116	-0.318	0.049
-407.311	458.904	-0.064	0.143
-406.296	116.940	-0.109	-0.135
-405.282	248.395	0.075	0.128
-404.267	-93.235	0.062	-0.018
-403.252	-117.879	-0.321	-0.058
-402.238	800.000	0.015	-0.054
-401.223	449.093	-0.126	-0.281
-400.209	-61.502	0.097	0.041
-399.194	800.000	0.019	0.081
-398.179	-86.395	-0.328	0.102
-397.165	-18.567	0.148	-0.093
-396.150	-200.000	-0.030	0.187
-395.136	683.177	0.115	-0.303
-394.121	-101.870	-0.143	-0.035
-393.106	-169.001	0.024	-0.001
-392.092	13.713	0.232	0.182
-391.077	411.447	0.106	-0.226
-390.063	-6.234	-0.381	-0.263
-389.048	60.552	0.109	-0.109
-388.033	625.062	0.134	-0.340
-387.019	216.637	0.044	-0.071
-386.004	48.728	0.323	0.306
-384.990	-200.000	0.017	-0.185
-383.975	-200.000	0.010	-0.226
-382.960	-73.118	-0.208	0.077
-381.946	800.000	-0.080	0.235
-380.931	800.000	-0.078	-0.331
-379.917	-45.332	-0.106	-0.053
-378.902	-83.870	0.151	-0.049
-377.888	-29.816	-0.189	-0.109
-376.873	-71.566	-0.340	-0.128
-375.858	36.619	0.188	-0.168
-374.844	700.704	-0.073	0.193
-373.829	-50.104	-0.098	0.047
-372.815	109.213	0.221	0.267
-371.800	118.431	0.265	0.329
-370.785	248.677	-0.148	-0.253
-369.771	-61.074	-0.248	-0.105
-368.756	271.540	0.199	0.353
-367.742	-200.000	0.016	0.120
-366.727	800.000	0.073	0.244
-365.712	-131.525	0.252	0.034
-364.698	-139.116	-0.370	-0.040
-363.683	290.489	0.185	0.338
-362.669	-79.561	0.202	0.069
-361.654	-124.736	0.167	0.026
-360.639	-200.000	-0.010	-0.375
-359.625	-200.000	-0.000	-0.003
-358.610	33.353	0.192	0.168
-357.596	220.621	0.254	-0.411
-356.581	735.551	-0.092	0.250
-355.566	-9.394	0.401	0.270
-354.552	-200.000	0.041	0.437
-353.537	60.320	0.197	-0.196
-352.523	-17.926	-0.092	-0.058
-351.508	-14.692	-0.067	-0.044
-350.493	-138.959	0.315	-0.034
-349.479	289.282	0.115	-0.209
-348.464	-144.612	-0.227	-0.021
-347.450	122.758	0.072	0.091
-346.435	-170.404	0.062	0.002
-345.420	800.000	-0.068	0.277
-344.406	800.000	-0.075	-0.317
-343.391	-20.035	-0.418	0.260
-342.377	-200.000	0.023	0.162
-341.362	-25.332	-0.323	0.192
-340.348	-200.000	-0.002	-0.244
-339.333	-200.000	-0.029	0.452
-338.318	160.062	-0.119	0.167
-337.304	-77.521	0.234	-0.082
-336.289	273.102	0.083	-0.148
-335.275	-200.000	0.045	-0.258
-334.260	-93.528	0.093	0.026
-333.245	-200.000	-0.073	0.391
-332.231	800.000	-0.025	-0.094
-331.216	800.000	0.064	0.251
-330.202	-179.746	0.067	0.001
-329.187	800.000	0.044	0.147
-328.172	-146.419	0.218	-0.019
-327.158	-200.000	0.002	-0.366
-326.143	-176.377	-0.171	-0.004
-325.129	-25.637	0.055	-0.033
-324.114	-9.172	0.071	0.048
-323.099	-200.000	-0.041	-0.260
-322.085	-108.260	0.278	-0.061
-321.070	-59.096	-0.097	-0.042
-320.056	-110.571	0.601	-0.125
-319.041	-39.308	-0.209	0.110
-318.026	-47.115	-0.189	-0.093
-317.012	36.880	0.338	0.300
-315.997	10.535	0.197	0.151
-314.983	562.757	-0.080	-0.195
-313.968	592.713	-0.063	0.156
-312.953	800.000	0.089	-0.357
-311.939	-67.662	-0.200	-0.079
-310.924	-143.617	0.270	0.026
-309.910	77.093	0.102	0.109
-308.895	800.000	-0.073	-0.203
-307.880	223.770	-0.150	0.243
-306.866	-116.688	-0.087	0.016
-305.851	230.098	-0.058	0.095
-304.837	453.692	0.062	0.137
-303.822	-9.863	-0.280	0.188
-302.807	15.150	-0.132	0.104
-301.793	-200.000	-0.005	0.192
-300.778	800.000	-0.036	-0.124
-299.764	-53.199	0.151	-0.070
-298.749	-55.455	0.349	-0.157
-297.735	91.469	-0.170	-0.192
-296.720	579.548	0.079	0.194
-295.705	-179.290	-0.331	0.007
-294.691	-200.000	-0.036	0.246
-293.676	92.640	0.200	0.227
-292.662	-149.719	-0.332	-0.026
-291.647	81.536	-0.151	0.165
-290.632	-33.262	-0.272	-0.151
-289.618	-93.554	0.294	0.082
-288.603	-10.767	0.191	0.127
-287.589	7.307	0.133	0.100
-286.574	11.924	-0.171	0.132
-285.559	206.626	-0.071	-0.111
-284.545	800.000	-0.061	-0.268
-283.530	-200.000	0.041	0.266
-282.516	-147.863	-0.124	-0.010
-281.501	-120.849	0.034	-0.006
-280.486	41.986	-0.068	0.062
-279.472	308.717	-0.165	0.310
-278.457	-82.607	-0.247	0.081
-277.443	42.021	-0.265	-0.242
-276.428	800.000	-0.064	0.228
-275.413	-200.000	-0.020	-0.170
-274.399	-61.400	0.299	-0.126
-273.384	-130.535	-0.213	-0.029
-272.370	-96.230	0.082	-0.022
-271.355	31.214	-0.175	-0.151
-270.340	-46.301	-0.062	-0.030
-269.326	800.000	0.022	-0.071
-268.311	133.137	0.233	0.303
-267.297	-7.640	0.050	-0.034
-266.282	41.130	0.152	-0.138
-265.267	487.572	0.032	-0.074
-264.253	11.276	0.164	0.126
-263.238	-200.000	-0.003	0.083
-262.224	-92.514	-0.065	-0.018
-261.209	-16.272	-0.142	-0.090
-260.195	-200.000	0.010	-0.188
-259.180	-200.000	0.048	0.277
-258.165	-46.429	0.223	0.110
-257.151	-103.638	-0.294	-0.069
-256.136	-42.670	-0.115	-0.059
-255.122	-22.194	-0.153	-0.093
-254.107	12.099	-0.190	0.147
-253.092	-81.091	-0.076	-0.025
-252.078	-142.432	0.428	-0.042
-251.063	-200.000	0.025	-0.118
-250.049	150.186	0.224	0.306
-249.034	120.647	-0.220	0.275
-248.019	-86.608	-0.087	0.027
-247.005	471.526	0.052	0.116
-245.990	159.101	-0.100	-0.140
-244.976	800.000	-0.038	-0.109
-243.961	-200.000	0.028	0.123
-242.946	-197.817	-0.068	0.000
-241.932	581.544	-0.055	0.134
-240.917	800.000	0.078	-0.277
-239.903	-200.000	-0.055	0.445
-238.888	317.470	-0.079	-0.151
-237.873	44.214	0.147	0.135
-236.859	18.716	0.092	-0.074
-235.844	-200.000	-0.012	-0.131
-234.830	-123.781	-0.314	0.050
-233.815	191.240	0.102	0.153
-232.800	183.358	0.154	-0.229
-231.786	149.854	-0.127	-0.173
-230.771	-74.294	-0.422	-0.153
-229.757	-200.000	-0.024	0.121
-228.742	-130.352	0.112	-0.015
-227.727	137.761	0.115	-0.151
-226.713	40.769	-0.339	-0.306
-225.698	168.842	0.129	-0.185
-224.684	54.413	0.099	0.095
-223.669	176.426	-0.193	0.281
-222.655	5.919	-0.286	0.212
-221.640	800.000	-0.042	-0.123
-220.625	78.395	0.209	-0.223
-219.611	96.013	0.114	-0.131
-218.596	-200.000	0.026	0.137
-217.582	-64.005	-0.153	0.063
-216.567	515.398	0.039	0.090
-215.552	800.000	0.096	-0.390
-214.538	-104.103	0.457	0.107
-213.523	285.894	-0.126	-0.228
-212.509	29.447	0.113	0.096
-211.494	-84.162	0.176	0.056
-210.479	-122.759	-0.226	-0.037
-209.465	-65.672	0.352	0.141
-208.450	-63.612	0.211	0.087
-207.436	421.668	-0.050	0.108
-206.421	-38.181	-0.036	0.019
-205.406	106.194	0.028	-0.033
-204.392	-200.000	0.046	-0.230
-203.377	-200.000	-0.024	0.147
-202.363	-110.565	0.062	-0.013
-201.348	51.534	0.070	-0.067
-200.333	189.838	-0.247	0.371
-199.319	276.567	-0.033	-0.059
-198.304	42.281	-0.051	0.046
-197.290	-200.000	0.012	-0.487
-196.275	88.012	-0.134	0.149
-195.260	800.000	-0.030	0.107
-194.246	0.432	-0.262	0.187
-193.231	-162.463	0.269	0.013
-192.217	800.000	-0.024	0.093
-191.202	-85.425	0.111	-0.035
-190.187	14.325	0.135	0.106
-189.173	-200.000	0.013	-0.140
-188.158	-200.000	-0.049	-0.257
-187.144	-74.739	0.152	-0.055
-186.129	-28.122	0.270	-0.156
-185.114	-26.751	-0.172	0.101
-184.100	-92.596	-0.364	0.102
-183.085	800.000	-0.024	-0.073
-182.071	96.182	-0.236	0.270
-181.056	800.000	-0.039	0.135
-180.042	177.482	-0.098	0.143
-179.027	800.000	0.069	-0.204
-178.012	5.806	-0.324	0.240
-176.998	800.000	-0.041	0.120
-175.983	-200.000	0.005	0.216
-174.969	-31.041	-0.167	-0.094
-173.954	-123.463	-0.167	0.027
-172.939	6.258	0.084	-0.062
-171.925	22.187	0.103	0.084
-170.910	-160.731	0.165	-0.009
-169.896	-38.591	-0.112	0.059
-168.881	-200.000	0.005	0.425
-167.866	-71.277	0.266	0.100
-166.852	224.121	0.242	-0.392
-165.837	-200.000	-0.001	0.151
-164.823	-200.000	0.002	-0.289
-163.808	800.000	0.063	-0.181
-162.793	58.760	-0.115	0.113
-161.779	-184.533	-0.080	0.001
-160.764	250.849	0.100	0.170
-159.750	-37.622	0.254	-0.135
-158.735	-200.000	-0.008	0.176
-157.720	131.271	0.131	0.168
-156.706	-200.000	-0.057	0.349
-155.691	451.936	-0.078	-0.173
-154.677	800.000	0.096	-0.411
-153.662	-89.398	-0.286	-0.084
-152.647	-47.450	-0.157	0.077
-151.633	800.000	-0.077	0.219
-150.618	-86.232	0.357	-0.110
-149.604	187.140	0.205	0.305
-148.589	-200.000	-0.047	0.298
-147.574	-64.522	-0.339	-0.138
-146.560	-46.806	-0.143	-0.070
-145.545	0.796	-0.065	-0.046
-144.531	-40.208	-0.356	-0.185
-143.516	-113.825	-0.126	-0.024
-142.502	-46.473	-0.192	0.094
-141.487	65.895	0.301	0.305
-140.472	800.000	0.062	-0.206
-139.458	-92.728	0.223	-0.062
-138.443	201.740	-0.150	0.231
-137.429	-92.122	0.087	-0.025
-136.414	800.000	0.053	-0.158
-135.399	-167.756	-0.255	0.010
-134.385	-126.644	-0.079	0.012
-133.370	-121.136	0.280	-0.047
-132.356	71.745	-0.199	0.207
-131.341	-145.502	0.245	-0.022
-130.326	-122.901	0.239	-0.038
-129.312	-200.000	-0.010	-0.051
-128.297	-87.546	0.337	0.102
-127.283	180.461	0.171	0.251
-126.268	97.201	0.315	0.360
-125.253	-200.000	0.078	0.436
-124.239	197.828	0.115	0.176
-123.224	-200.000	-0.028	0.129
-122.210	259.777	-0.097	-0.168
-121.195	755.513	0.196	-0.530
