DTS Sentinel unit serial number:	SN413079Multiplexer serial number:	ORYXHardware model number:	OX4-SRSoftware version number:	ORYX F/W v4.00 Oryx Data Collector v3.7.2.0data status	okinstallation	princeton_trtdifferential loss correction	single-endedforward channel	channel 3reverse channel	N/Adate	2019/09/13time	12:24:35forward acquisition time	60.00reverse acquisition time	0.00gamma	496.2192k internal	0.2306k external	0.2306temperature offset calibration	1.0154default loss term (dB/km)	0.3790temperature slope calibration	1.0000multiplexer offset coefficient	1.0000multiplexer slope coefficient	1.0000fibre end	0.00T internal ref (°C)	34.22T ext. ref 1 (°C)	4.64T ext. ref 2 (°C)	31.76length (m)	temperature (°C)	Stokes	anti-Stokes-747.200	-200.000	-0.015	0.130
-746.185	164.764	-0.036	-0.051
-745.171	59.860	0.211	-0.212
-744.156	-4.296	-0.168	0.118
-743.142	800.000	-0.067	-0.283
-742.127	-159.837	0.294	-0.016
-741.112	615.097	0.097	0.246
-740.098	-57.526	-0.100	0.044
-739.083	641.950	0.026	0.068
-738.069	244.539	0.085	0.145
-737.054	800.000	-0.101	0.290
-736.039	70.293	0.118	-0.124
-735.025	157.203	-0.027	0.038
-734.010	742.421	0.065	-0.178
-732.996	-116.935	-0.143	-0.027
-731.981	-123.834	-0.259	-0.042
-730.966	-200.000	0.031	-0.403
-729.952	-2.279	0.123	-0.087
-728.937	-116.507	-0.281	-0.053
-727.923	-200.000	-0.409	0.001
-726.908	-139.444	0.103	-0.011
-725.894	173.583	0.098	0.144
-724.879	-164.046	-0.310	0.015
-723.864	43.258	-0.138	-0.128
-722.850	800.000	-0.091	-0.266
-721.835	-43.956	0.337	-0.172
-720.821	67.590	-0.159	-0.165
-719.806	10.701	0.305	0.236
-718.791	118.836	0.128	-0.161
-717.777	-200.000	0.059	-0.305
-716.762	162.453	0.074	0.106
-715.748	-40.042	-0.149	0.079
-714.733	-200.000	0.004	0.077
-713.718	800.000	-0.052	0.199
-712.704	-8.503	-0.265	-0.181
-711.689	-200.000	0.043	-0.369
-710.675	-19.711	-0.439	-0.276
-709.660	-200.000	-0.003	0.154
-708.645	-60.790	0.251	0.108
-707.631	-74.051	0.124	0.046
-706.616	195.244	-0.056	-0.087
-705.602	-150.538	0.277	0.022
-704.587	-127.017	-0.121	0.018
-703.572	105.312	-0.117	0.141
-702.558	-102.717	0.233	-0.056
-701.543	800.000	0.081	0.308
-700.529	-167.989	-0.305	-0.012
-699.514	-59.644	0.267	-0.116
-698.499	-43.251	0.184	0.095
-697.485	-198.631	0.280	-0.002
-696.470	800.000	-0.015	-0.061
-695.456	-26.552	0.342	0.204
-694.441	-69.314	0.199	0.077
-693.426	-200.000	0.000	-0.073
-692.412	800.000	-0.038	0.117
-691.397	134.577	0.365	0.481
-690.383	709.251	-0.053	-0.143
-689.368	800.000	-0.049	-0.202
-688.354	-52.397	-0.066	0.031
-687.339	13.264	0.019	0.015
-686.324	410.065	-0.030	0.065
-685.310	-15.480	-0.243	0.157
-684.295	678.065	0.114	0.302
-683.281	-144.253	-0.122	-0.012
-682.266	-116.360	-0.492	-0.092
-681.251	318.697	-0.080	0.155
-680.237	-31.823	0.293	-0.167
-679.222	321.742	-0.104	-0.200
-678.208	192.934	-0.222	0.340
-677.193	-200.000	0.011	-0.090
-676.178	-112.089	0.107	0.022
-675.164	-200.000	-0.019	0.318
-674.149	-41.029	-0.224	0.117
-673.135	-92.053	0.057	-0.016
-672.120	-105.118	-0.297	-0.069
-671.105	800.000	0.061	0.173
-670.091	692.429	-0.056	-0.149
-669.076	25.995	0.173	-0.147
-668.062	773.275	-0.145	-0.402
-667.047	-67.513	-0.114	0.045
-666.032	38.402	-0.206	-0.186
-665.018	-200.000	0.038	0.281
-664.003	134.363	0.060	0.079
-662.989	33.905	0.157	-0.138
-661.974	-200.000	-0.052	-0.385
-660.959	800.000	0.094	-0.385
-659.945	-88.235	-0.427	-0.130
-658.930	-200.000	-0.013	-0.141
-657.916	-54.322	-0.076	0.035
-656.901	-123.259	0.048	-0.008
-655.886	800.000	-0.063	-0.205
-654.872	-200.000	-0.073	0.442
-653.857	-67.591	0.137	0.054
-652.843	-13.917	-0.300	-0.196
-651.828	4.478	-0.328	-0.244
-650.814	-14.604	0.194	0.127
-649.799	-200.000	0.020	0.180
-648.784	-62.298	0.052	-0.022
-647.770	-68.102	0.100	0.039
-646.755	-143.326	0.244	-0.024
-645.741	38.667	-0.255	0.231
-644.726	200.108	0.167	-0.260
-643.711	77.497	-0.132	-0.142
-642.697	-50.596	0.334	0.160
-641.682	-105.517	-0.475	-0.109
-640.668	-200.000	0.066	-0.414
-639.653	300.863	-0.159	-0.298
-638.638	258.051	-0.160	-0.280
-637.624	-24.280	0.286	0.173
-636.609	-181.665	-0.211	-0.004
-635.595	-200.000	0.031	-0.233
-634.580	-63.963	0.127	-0.053
-633.565	800.000	-0.045	-0.193
-632.551	150.633	-0.170	0.234
-631.536	-39.586	0.048	0.026
-630.522	137.437	-0.201	-0.267
-629.507	24.144	0.267	-0.223
-628.492	800.000	0.020	-0.074
-627.478	463.440	0.040	-0.090
-626.463	123.319	-0.205	-0.261
-625.449	-200.000	0.058	0.376
-624.434	-44.594	0.210	0.106
-623.419	41.437	-0.266	-0.244
-622.405	-200.000	0.067	0.311
-621.390	284.741	0.124	0.226
-620.376	-200.000	-0.055	0.383
-619.361	-12.174	-0.150	0.099
-618.346	258.491	-0.121	-0.211
-617.332	-170.970	-0.260	0.009
-616.317	-40.366	-0.337	-0.177
-615.303	-51.069	-0.191	-0.090
-614.288	187.556	-0.034	-0.052
-613.273	536.340	-0.094	0.226
-612.259	239.107	0.098	-0.166
-611.244	428.586	0.097	-0.213
-610.230	800.000	-0.062	-0.238
-609.215	-200.000	0.043	-0.338
-608.201	314.496	0.075	0.143
-607.186	-124.319	-0.136	-0.021
-606.171	-200.000	0.002	0.299
-605.157	81.404	-0.191	-0.209
-604.142	-102.307	0.209	-0.051
-603.128	-200.000	0.013	0.482
-602.113	113.808	-0.047	0.058
-601.098	800.000	-0.158	-0.500
-600.084	77.096	0.145	-0.156
-599.069	-73.606	-0.239	0.088
-598.055	393.259	-0.038	0.081
-597.040	314.046	-0.051	0.098
-596.025	398.399	0.157	0.332
-595.011	6.718	-0.316	-0.238
-593.996	10.798	-0.175	0.135
-592.982	-61.015	0.175	-0.075
-591.967	-200.000	-0.008	0.251
-590.952	-200.000	-0.011	0.073
-589.938	-155.454	-0.170	-0.011
-588.923	-49.128	-0.284	-0.137
-587.909	529.018	0.058	0.139
-586.894	706.018	-0.139	0.371
-585.879	15.675	-0.120	0.096
-584.865	49.955	-0.175	0.166
-583.850	3.069	0.191	-0.141
-582.836	800.000	-0.030	0.102
-581.821	800.000	0.058	-0.188
-580.806	135.239	-0.177	-0.232
-579.792	41.276	-0.159	0.146
-578.777	-200.000	-0.052	0.295
-577.763	161.970	-0.091	0.129
-576.748	274.177	0.162	-0.290
-575.733	218.865	-0.050	-0.080
-574.719	734.924	-0.099	0.269
-573.704	-200.000	-0.011	0.186
-572.690	-140.000	0.187	0.020
-571.675	341.296	0.175	-0.345
-570.661	-57.940	-0.054	-0.024
-569.646	206.192	0.088	0.139
-568.631	800.000	0.048	-0.212
-567.617	-66.040	-0.129	0.052
-566.602	-84.219	0.184	0.059
-565.588	590.701	-0.022	-0.054
-564.573	224.269	0.248	0.405
-563.558	-200.000	-0.035	0.212
-562.544	117.942	0.127	0.158
-561.529	323.414	-0.178	-0.343
-560.515	-200.000	-0.006	-0.149
-559.500	-18.278	-0.085	0.054
-558.485	-66.715	-0.406	0.162
-557.471	62.136	-0.085	-0.086
-556.456	-200.000	-0.051	-0.277
-555.442	-149.590	-0.321	0.026
-554.427	800.000	-0.070	-0.197
-553.412	-85.750	0.194	0.061
-552.398	-58.982	0.302	0.132
-551.383	-129.597	-0.312	-0.043
-550.369	-56.314	0.042	-0.019
-549.354	30.285	0.114	-0.098
-548.339	800.000	-0.041	-0.179
-547.325	157.790	0.159	0.223
-546.310	798.680	0.087	-0.243
-545.296	-200.000	-0.001	-0.324
-544.281	143.945	-0.096	-0.129
-543.266	-27.719	0.101	0.059
-542.252	65.476	0.119	0.122
-541.237	19.493	0.212	0.172
-540.223	176.652	-0.137	-0.201
-539.208	-100.363	0.090	-0.023
-538.193	157.542	-0.092	0.129
-537.179	231.056	0.137	-0.226
-536.164	800.000	-0.076	-0.311
-535.150	73.549	-0.066	-0.070
-534.135	466.892	-0.150	0.339
-533.121	163.628	0.223	-0.316
-532.106	-17.532	-0.440	0.279
-531.091	-123.388	0.184	0.030
-530.077	800.000	-0.039	0.140
-529.062	317.422	0.218	-0.415
-528.048	-200.000	0.027	0.255
-527.033	800.000	0.022	0.076
-526.018	-200.000	0.007	0.036
-525.004	-74.479	-0.488	-0.178
-523.989	569.153	0.052	-0.127
-522.975	193.178	0.138	-0.211
-521.960	-200.000	0.019	0.090
-520.945	590.604	-0.135	-0.335
-519.931	-169.454	-0.039	-0.001
-518.916	-200.000	0.029	0.155
-517.902	119.060	-0.138	-0.172
-516.887	-8.998	0.067	-0.045
-515.872	109.868	-0.252	-0.305
-514.858	239.954	0.115	-0.194
-513.843	174.597	-0.185	0.270
-512.829	-100.819	-0.441	-0.109
-511.814	-200.000	0.006	-0.252
-510.799	-200.000	0.009	-0.050
-509.785	466.372	-0.116	-0.261
-508.770	-102.096	0.156	-0.038
-507.756	800.000	-0.023	-0.077
-506.741	-61.341	0.517	0.219
-505.726	-104.142	0.216	-0.051
-504.712	57.613	0.107	-0.105
-503.697	-75.670	0.131	0.047
-502.683	33.933	-0.130	0.114
-501.668	-200.000	0.003	-0.019
-500.653	-200.000	0.027	0.291
-499.639	40.847	0.238	0.216
-498.624	-87.488	0.119	-0.036
-497.610	473.522	0.107	0.242
-496.595	-173.757	0.279	0.008
-495.581	-200.000	0.076	0.351
-494.566	-72.783	0.147	-0.055
-493.551	240.774	0.127	-0.213
-492.537	800.000	0.062	0.266
-491.522	-200.000	-0.008	0.054
-490.508	-60.755	-0.210	-0.089
-489.493	-109.257	0.125	0.027
-488.478	-34.560	0.153	0.084
-487.464	800.000	0.050	0.213
-486.449	70.309	0.102	0.106
-485.435	84.759	0.037	-0.040
-484.420	-103.262	-0.105	-0.025
-483.405	-2.270	-0.204	-0.144
-482.391	95.589	-0.138	0.159
-481.376	48.670	0.232	-0.219
-480.362	800.000	0.027	-0.088
-479.347	659.435	0.026	0.068
-478.332	-200.000	-0.011	-0.161
-477.318	-200.000	0.001	-0.044
-476.303	-200.000	-0.034	0.161
-475.289	405.203	-0.061	0.130
-474.274	30.270	-0.295	-0.253
-473.259	725.630	-0.040	-0.108
-472.245	-22.399	-0.310	-0.189
-471.230	-156.357	-0.049	-0.003
-470.216	-48.852	-0.188	-0.091
-469.201	-200.000	-0.009	0.090
-468.186	800.000	-0.074	-0.212
-467.172	56.586	-0.130	-0.127
-466.157	-63.856	0.182	0.075
-465.143	236.929	0.109	-0.182
-464.128	-126.510	0.063	-0.009
-463.113	-60.243	-0.120	-0.052
-462.099	-200.000	0.022	0.112
-461.084	28.514	0.198	0.168
-460.070	-124.221	0.091	-0.014
-459.055	-200.000	0.009	-0.365
-458.040	-200.000	0.068	-0.402
-457.026	-129.036	0.185	0.026
-456.011	-52.350	0.141	-0.066
-454.997	-43.537	-0.096	0.049
-453.982	40.327	0.074	0.067
-452.968	202.861	0.012	0.018
-451.953	-200.000	-0.005	0.135
-450.938	10.852	0.295	-0.226
-449.924	564.204	0.101	-0.246
-448.909	157.368	0.218	0.304
-447.895	-200.000	-0.037	0.221
-446.880	-99.019	0.162	0.041
-445.865	-90.120	0.136	-0.040
-444.851	330.969	-0.037	0.071
-443.836	-200.000	0.049	0.270
-442.822	70.113	-0.281	-0.292
-441.807	-200.000	-0.007	-0.197
-440.792	6.675	-0.238	0.178
-439.778	-121.550	0.257	-0.043
-438.763	-126.387	-0.348	0.052
-437.749	-76.609	0.094	-0.033
-436.734	800.000	0.121	0.379
-435.719	62.314	-0.164	0.165
-434.705	116.592	-0.106	-0.130
-433.690	257.477	0.064	0.111
-432.676	-98.060	-0.318	-0.082
-431.661	-126.926	-0.269	0.040
-430.646	-78.562	-0.061	-0.021
-429.632	88.911	-0.066	-0.073
-428.617	-200.000	-0.213	0.001
-427.603	348.273	-0.133	0.264
-426.588	62.423	-0.160	-0.161
-425.573	19.378	0.157	-0.127
-424.559	-200.000	-0.009	0.121
-423.544	-200.000	-0.030	0.154
-422.530	-48.323	-0.198	0.096
-421.515	800.000	-0.041	0.126
-420.500	-89.407	0.391	0.116
-419.486	-77.638	0.203	0.071
-418.471	32.507	0.251	-0.218
-417.457	113.756	0.027	0.033
-416.442	-53.303	0.144	0.066
-415.428	-111.139	0.157	-0.032
-414.413	177.647	0.118	0.172
-413.398	-186.409	0.126	0.002
-412.384	-55.494	0.346	0.156
-411.369	800.000	-0.021	-0.065
-410.355	-87.732	0.173	0.052
-409.340	173.488	-0.045	0.065
-408.325	-126.596	0.207	-0.031
-407.311	631.509	0.048	0.123
-406.296	345.942	-0.165	0.325
-405.282	-47.702	-0.425	0.207
-404.267	800.000	0.026	-0.093
-403.252	-25.555	0.219	0.130
-402.238	-108.906	-0.246	0.053
-401.223	-69.223	-0.196	0.076
-400.209	800.000	0.025	0.082
-399.194	203.554	0.154	-0.240
-398.179	-200.000	-0.031	0.219
-397.165	-62.331	0.185	-0.077
-396.150	-33.401	-0.396	-0.220
-395.136	-17.155	-0.219	0.139
-394.121	81.217	0.126	0.137
-393.106	800.000	-0.026	-0.097
-392.092	-200.000	-0.067	-0.317
-391.077	-100.514	-0.196	0.049
-390.063	-12.424	-0.136	-0.089
-389.048	-200.000	0.078	0.451
-388.033	800.000	0.079	-0.224
-387.019	-148.458	0.088	-0.007
-386.004	-145.066	-0.298	0.027
-384.990	-124.313	0.437	0.068
-383.975	76.059	0.110	-0.117
-382.960	22.775	-0.147	-0.121
-381.946	-37.989	-0.251	0.134
-380.931	-56.103	-0.216	-0.096
-379.917	-169.192	0.090	-0.003
-378.902	179.944	-0.232	0.340
-377.888	-200.000	-0.037	-0.210
-376.873	800.000	-0.023	-0.091
-375.858	4.153	0.142	-0.104
-374.844	-115.700	0.214	-0.040
-373.829	137.902	0.092	0.121
-372.815	800.000	0.030	-0.098
-371.800	-7.849	0.195	0.132
-370.785	-200.000	-0.019	-0.199
-369.771	800.000	0.084	0.321
-368.756	-145.792	0.137	0.012
-367.742	305.827	0.177	-0.329
-366.727	-23.329	0.096	-0.058
-365.712	31.051	0.166	-0.143
-364.698	-66.508	0.220	0.088
-363.683	800.000	0.075	0.264
-362.669	364.787	-0.116	-0.235
-361.654	103.953	0.115	0.136
-360.639	-200.000	0.257	0.000
-359.625	40.701	0.110	-0.099
-358.610	-134.129	0.237	0.029
-357.596	-135.822	0.225	-0.027
-356.581	800.000	-0.095	0.333
-355.566	375.604	0.039	-0.080
-354.552	-187.567	-0.103	0.001
-353.537	-107.062	0.391	0.086
-352.523	193.293	-0.226	0.343
-351.508	-200.000	0.064	0.413
-350.493	386.383	-0.133	0.274
-349.479	-30.734	-0.084	0.048
-348.464	14.517	-0.319	0.249
-347.450	510.263	-0.069	-0.160
-346.435	-10.431	0.497	-0.330
-345.420	133.478	0.089	-0.116
-344.406	-200.000	-0.053	-0.294
-343.391	422.973	-0.070	-0.152
-342.377	-9.805	-0.292	-0.195
-341.362	800.000	-0.081	-0.226
-340.348	126.989	-0.177	-0.225
-339.333	-95.426	0.099	0.027
-338.318	800.000	-0.063	-0.265
-337.304	-3.528	-0.319	-0.222
-336.289	-58.834	-0.413	-0.179
-335.275	45.717	0.049	0.045
-334.260	449.050	-0.084	-0.185
-333.245	-68.184	-0.155	-0.060
-332.231	-200.000	-0.004	-0.127
-331.216	800.000	0.121	-0.384
-330.202	422.116	-0.136	-0.292
-329.187	-1.187	0.216	-0.153
-328.172	800.000	-0.034	-0.118
-327.158	-22.934	0.279	0.169
-326.143	-80.189	0.177	0.059
-325.129	59.286	-0.149	0.147
-324.114	800.000	0.020	-0.083
-323.099	-127.297	-0.143	-0.021
-322.085	168.846	-0.116	0.165
-321.070	106.467	-0.081	-0.096
-320.056	-200.000	0.031	0.146
-319.041	-100.887	0.245	-0.060
-318.026	0.831	-0.096	-0.069
-317.012	-21.815	0.252	0.153
-315.997	-134.695	0.267	-0.032
-314.983	-100.929	-0.370	-0.091
-313.968	445.727	0.122	0.268
-312.953	-73.817	0.029	-0.010
-311.939	-200.000	0.082	0.367
-310.924	37.794	-0.248	-0.220
-309.910	0.560	0.108	-0.077
-308.895	-69.367	-0.257	0.099
-307.880	147.498	-0.105	-0.142
-306.866	-143.715	0.228	-0.022
-305.851	-54.291	-0.280	0.127
-304.837	407.801	0.043	0.091
-303.822	271.726	-0.243	0.428
-302.807	-51.957	-0.240	-0.112
-301.793	-117.143	0.214	0.039
-300.778	-66.534	-0.117	0.046
-299.764	-114.941	0.242	0.046
-298.749	248.829	0.149	0.253
-297.735	2.597	0.070	0.051
-296.720	557.967	-0.040	0.096
-295.705	-141.527	0.321	0.032
-294.691	107.545	-0.069	-0.082
-293.676	74.506	0.150	-0.157
-292.662	-30.514	0.193	-0.109
-291.647	-139.016	-0.169	0.018
-290.632	436.603	0.035	0.075
-289.618	472.491	-0.082	0.185
-288.603	-107.371	0.166	0.036
-287.589	-200.000	0.033	-0.164
-286.574	800.000	-0.111	-0.404
-285.559	-166.172	-0.292	0.012
-284.545	800.000	0.028	0.109
-283.530	348.108	-0.109	-0.215
-282.516	102.771	0.113	-0.132
-281.501	-118.121	-0.102	-0.018
-280.486	-79.240	0.093	0.031
-279.472	202.456	0.159	0.246
-278.457	800.000	-0.028	-0.117
-277.443	-134.216	-0.212	-0.026
-276.428	-11.421	0.153	0.101
-275.413	-200.000	-0.009	-0.072
-274.399	-39.199	0.231	-0.121
-273.384	-195.277	-0.313	-0.002
-272.370	800.000	0.054	0.191
-271.355	800.000	-0.082	-0.356
-270.340	-106.904	0.283	-0.063
-269.326	-78.266	-0.272	-0.093
-268.311	-11.260	0.135	0.089
-267.297	35.838	-0.134	-0.117
-266.282	-31.767	-0.212	-0.119
-265.267	-122.121	0.132	-0.022
-264.253	800.000	0.059	-0.168
-263.238	-101.429	0.095	0.023
-262.224	138.287	-0.159	0.208
-261.209	800.000	-0.065	0.216
-260.195	280.230	-0.174	-0.311
-259.180	800.000	0.071	0.243
-258.165	764.620	-0.038	-0.102
-257.151	-126.155	-0.127	0.019
-256.136	-138.311	-0.234	-0.026
-255.122	101.245	0.143	-0.167
-254.107	153.074	0.081	0.110
-253.092	-21.854	-0.126	0.076
-252.078	800.000	-0.066	0.234
-251.063	53.937	0.120	0.116
-250.049	800.000	-0.052	0.204
-249.034	142.201	-0.268	0.355
-248.019	-71.514	0.182	0.068
-247.005	-200.000	0.013	-0.083
-245.990	-184.713	0.403	0.006
-244.976	-200.000	0.134	0.000
-243.961	-200.000	0.009	0.212
-242.946	-171.461	0.021	-0.001
-241.932	800.000	0.036	0.112
-240.917	-200.000	-0.023	-0.451
-239.903	-15.685	0.196	-0.125
-238.888	115.058	0.135	0.165
-237.873	-80.545	-0.233	0.077
-236.859	800.000	-0.063	-0.237
-235.844	-55.536	-0.061	-0.027
-234.830	76.369	0.030	-0.031
-233.815	-182.530	0.273	-0.005
-232.800	-157.007	-0.150	-0.009
-231.786	2.800	0.287	-0.208
-230.771	800.000	-0.081	0.227
-229.757	-112.953	0.307	0.061
-228.742	-179.982	-0.344	0.007
-227.727	24.317	0.165	0.136
-226.713	218.056	0.138	0.219
-225.698	800.000	-0.047	-0.196
-224.684	21.973	-0.245	-0.199
-223.669	69.166	-0.069	0.070
-222.655	77.821	-0.145	0.154
-221.640	499.659	-0.036	0.083
-220.625	60.640	-0.117	-0.115
-219.611	275.894	-0.080	-0.141
-218.596	70.192	-0.164	-0.169
-217.582	-172.252	-0.225	0.007
-216.567	351.868	0.078	0.153
-215.552	-131.357	-0.207	-0.027
-214.538	-200.000	0.015	0.118
-213.523	-200.000	0.016	0.275
-212.509	-200.000	0.050	0.231
-211.494	-83.826	-0.412	0.131
-210.479	21.608	0.257	0.209
-209.465	482.430	-0.052	0.117
-208.450	-29.501	0.288	0.164
-207.436	21.852	0.150	0.122
-206.421	361.254	-0.015	-0.029
-205.406	-200.000	0.036	-0.268
-204.392	-35.843	0.144	0.078
-203.377	404.939	-0.055	-0.116
-202.363	220.928	0.073	-0.117
-201.348	-90.588	-0.185	0.053
-200.333	-73.627	-0.085	-0.031
-199.319	800.000	0.135	0.527
-198.304	-127.957	-0.109	0.016
-197.290	-68.374	-0.022	0.008
-196.275	-174.230	0.368	-0.011
-195.260	263.658	0.053	0.093
-194.246	271.691	0.047	-0.082
-193.231	12.700	0.137	0.105
-192.217	192.612	0.050	0.074
-191.202	68.575	-0.286	0.292
-190.187	-69.881	-0.444	-0.169
-189.173	-60.214	-0.183	-0.078
-188.158	800.000	-0.069	-0.240
-187.144	-153.547	0.159	-0.011
-186.129	344.803	0.102	0.199
-185.114	-106.988	0.418	0.092
-184.100	596.329	-0.130	0.321
-183.085	61.330	0.201	0.199
-182.071	176.806	-0.099	0.143
-181.056	66.447	-0.191	-0.194
-180.042	-200.000	-0.045	0.278
-179.027	52.813	0.087	-0.083
-178.012	46.001	-0.015	-0.013
-176.998	-191.504	0.095	0.001
-175.983	-47.877	0.219	0.106
-174.969	323.904	-0.162	0.307
-173.954	-87.678	0.385	-0.115
-172.939	800.000	-0.028	0.120
-171.925	-200.000	0.054	-0.262
-170.910	-65.731	0.159	-0.063
-169.896	-200.000	-0.035	-0.227
-168.881	-200.000	-0.063	-0.350
-167.866	-96.335	-0.132	-0.035
-166.852	800.000	0.079	-0.323
-165.837	-200.000	-0.048	0.473
-164.823	94.884	0.139	-0.158
-163.808	-178.567	0.231	-0.005
-162.793	40.148	-0.121	0.108
-161.779	672.545	-0.061	-0.156
-160.764	-200.000	0.040	-0.187
-159.750	-56.716	0.307	0.135
-158.735	453.841	0.154	0.339
-157.720	-160.355	-0.078	0.004
-156.706	102.883	0.142	-0.165
-155.691	120.112	0.061	0.075
-154.677	0.416	0.161	0.114
-153.662	231.761	0.047	0.076
-152.647	45.743	-0.110	-0.101
-151.633	61.354	-0.084	-0.083
-150.618	41.954	0.175	-0.157
-149.604	800.000	-0.056	0.178
-148.589	6.931	-0.055	0.040
-147.574	-200.000	0.022	0.336
-146.560	-108.421	0.302	-0.065
-145.545	112.378	-0.026	0.032
-144.531	64.333	0.053	0.053
-143.516	249.856	0.171	0.288
-142.502	270.662	0.249	0.436
-141.487	-114.867	-0.060	0.011
-140.472	-31.310	0.212	-0.119
-139.458	-70.351	-0.266	-0.100
-138.443	427.537	0.156	0.334
-137.429	-55.275	-0.130	0.058
-136.414	-200.000	0.193	-0.001
-135.399	-200.000	-0.006	0.058
-134.385	-135.306	-0.285	-0.034
-133.370	800.000	-0.105	-0.313
-132.356	-146.879	-0.388	-0.033
-131.341	-110.181	-0.164	0.034
-130.326	90.937	-0.174	0.194
-129.312	-97.835	-0.142	-0.036
-128.297	-136.947	0.181	-0.021
-127.283	230.004	0.258	-0.419
-126.268	-200.000	-0.041	0.191
-125.253	66.297	-0.237	0.239
-124.239	61.054	-0.077	0.076
-123.224	-200.000	-0.009	0.314
-122.210	98.975	0.039	0.044
-121.195	800.000	-0.112	0.347
