DTS Sentinel unit serial number:	SN413079Multiplexer serial number:	ORYXHardware model number:	OX4-SRSoftware version number:	ORYX F/W v4.00 Oryx Data Collector v3.7.2.0data status	okinstallation	princeton_trtdifferential loss correction	single-endedforward channel	channel 3reverse channel	N/Adate	2019/09/16time	09:40:35forward acquisition time	60.00reverse acquisition time	0.00gamma	496.2192k internal	0.2319k external	0.2319temperature offset calibration	0.9952default loss term (dB/km)	0.3790temperature slope calibration	1.0000multiplexer offset coefficient	1.0000multiplexer slope coefficient	1.0000fibre end	0.00T internal ref (°C)	32.36T ext. ref 1 (°C)	12.27T ext. ref 2 (°C)	30.38length (m)	temperature (°C)	Stokes	anti-Stokes-747.200	-17.924	0.144	0.092
-746.185	-81.794	-0.259	0.086
-745.171	584.527	0.131	-0.325
-744.156	151.737	-0.242	0.333
-743.142	-12.527	-0.203	-0.134
-742.127	800.000	-0.036	0.120
-741.112	-31.082	0.153	0.087
-740.098	-53.577	-0.265	0.123
-739.083	-92.595	-0.161	0.046
-738.069	-9.528	-0.017	-0.011
-737.054	-200.000	0.069	-0.312
-736.039	223.500	0.044	0.071
-735.025	64.401	-0.065	-0.067
-734.010	-200.000	-0.063	-0.336
-732.996	-200.000	-0.005	-0.200
-731.981	-200.000	-0.032	0.233
-730.966	289.098	-0.127	-0.233
-729.952	17.734	0.284	-0.229
-728.937	-200.000	-0.035	-0.370
-727.923	-143.171	-0.139	0.014
-726.908	-131.344	-0.281	0.038
-725.894	-81.686	0.092	0.030
-724.879	347.743	-0.130	0.259
-723.864	-109.566	0.236	0.050
-722.850	-59.947	-0.142	0.062
-721.835	132.531	-0.188	-0.245
-720.821	-71.963	-0.192	-0.072
-719.806	-200.000	0.003	-0.130
-718.791	-200.000	0.016	0.102
-717.777	12.886	-0.087	0.068
-716.762	-200.000	0.010	0.114
-715.748	-95.794	-0.138	-0.037
-714.733	-26.521	0.282	-0.167
-713.718	6.925	0.050	0.038
-712.704	-27.598	-0.070	-0.041
-711.689	625.753	-0.115	-0.294
-710.675	116.969	-0.198	-0.246
-709.660	-126.127	-0.143	-0.022
-708.645	-200.000	-0.045	-0.213
-707.631	250.255	0.140	0.240
-706.616	-49.691	0.146	-0.070
-705.602	25.883	0.099	-0.083
-704.587	-200.000	0.003	0.131
-703.572	-53.222	0.182	0.084
-702.558	-61.664	0.334	-0.141
-701.543	800.000	0.030	0.122
-700.529	-200.000	0.026	-0.210
-699.514	119.160	0.106	0.132
-698.499	375.598	0.075	0.155
-697.485	800.000	-0.076	-0.279
-696.470	478.289	-0.101	-0.230
-695.456	-101.054	0.325	0.080
-694.441	-19.559	0.094	0.059
-693.426	800.000	0.088	-0.288
-692.412	-76.614	0.227	0.080
-691.397	-107.640	0.086	0.019
-690.383	-34.631	0.471	-0.260
-689.368	800.000	-0.029	0.119
-688.354	800.000	0.058	-0.170
-687.339	110.995	-0.069	0.084
-686.324	189.255	0.042	-0.064
-685.310	800.000	-0.094	0.297
-684.295	-112.330	0.239	-0.048
-683.281	-20.872	-0.166	-0.103
-682.266	-200.000	-0.025	-0.195
-681.251	-56.667	0.327	-0.146
-680.237	712.586	-0.108	-0.289
-679.222	69.017	0.344	0.357
-678.208	-117.675	-0.296	0.054
-677.193	30.560	-0.179	-0.155
-676.178	295.394	-0.129	0.239
-675.164	281.471	-0.072	0.131
-674.149	-142.715	0.349	-0.034
-673.135	-119.654	-0.165	0.029
-672.120	331.412	0.092	-0.179
-671.105	-191.289	0.097	-0.001
-670.091	-135.369	0.232	0.028
-669.076	-114.497	-0.136	0.026
-668.062	800.000	-0.036	-0.119
-667.047	-117.260	0.188	0.034
-666.032	156.668	-0.010	-0.013
-665.018	-200.000	0.012	-0.100
-664.003	599.190	0.092	0.231
-662.989	-123.662	0.374	-0.060
-661.974	89.960	-0.136	0.153
-660.959	34.287	-0.081	0.072
-659.945	108.424	0.164	-0.197
-658.930	-86.911	0.109	-0.034
-657.916	-62.999	0.057	0.024
-656.901	-200.000	0.026	0.172
-655.886	215.550	0.058	0.092
-654.872	-41.443	0.054	0.028
-653.857	-77.527	-0.484	-0.169
-652.843	-8.102	0.170	0.116
-651.828	-200.000	-0.004	-0.065
-650.814	800.000	0.021	-0.060
-649.799	-89.710	0.198	0.059
-648.784	-18.545	-0.275	-0.173
-647.770	-136.254	0.291	0.034
-646.755	-200.000	0.027	0.212
-645.741	-174.749	-0.377	0.011
-644.726	-61.133	-0.154	0.066
-643.711	-43.402	0.313	0.160
-642.697	-85.776	0.202	0.063
-641.682	800.000	-0.018	-0.077
-640.668	800.000	0.110	-0.424
-639.653	-200.000	-0.021	-0.097
-638.638	79.830	0.281	0.304
-637.624	68.347	0.119	-0.123
-636.609	178.138	-0.119	0.176
-635.595	-130.276	-0.372	0.051
-634.580	353.196	-0.089	-0.178
-633.565	363.734	0.096	-0.194
-632.551	-200.000	-0.013	0.177
-631.536	-68.982	-0.354	-0.137
-630.522	17.849	-0.219	-0.175
-629.507	-53.277	0.267	0.123
-628.492	-200.000	0.013	-0.248
-627.478	-103.256	0.482	-0.115
-626.463	16.491	0.096	0.076
-625.449	117.102	-0.274	0.339
-624.434	197.664	-0.139	-0.213
-623.419	800.000	0.049	-0.168
-622.405	100.920	0.127	-0.149
-621.390	73.765	-0.124	0.131
-620.376	-3.137	-0.285	-0.200
-619.361	788.217	0.113	0.312
-618.346	-84.155	0.095	0.030
-617.332	-200.000	-0.040	-0.250
-616.317	32.888	-0.185	0.161
-615.303	397.968	0.114	-0.240
-614.288	-71.947	-0.194	-0.073
-613.273	-67.989	0.268	0.105
-612.259	-131.905	0.287	-0.038
-611.244	99.878	-0.197	0.230
-610.230	-68.838	-0.194	-0.075
-609.215	-64.044	-0.070	0.029
-608.201	76.812	-0.192	0.205
-607.186	-131.711	0.182	0.024
-606.171	-200.000	-0.024	-0.190
-605.157	-200.000	-0.018	0.152
-604.142	296.575	0.259	-0.477
-603.128	153.772	-0.105	-0.145
-602.113	-132.475	-0.089	-0.012
-601.098	144.700	0.212	-0.285
-600.084	-55.047	-0.300	0.136
-599.069	-200.000	-0.013	-0.319
-598.055	800.000	0.087	0.301
-597.040	-200.000	-0.054	-0.373
-596.025	-200.000	-0.001	-0.004
-595.011	-200.000	0.047	0.237
-593.996	-62.981	0.143	-0.059
-592.982	-115.710	-0.114	0.021
-591.967	103.571	-0.044	0.052
-590.952	800.000	-0.057	-0.235
-589.938	-200.000	-0.037	0.297
-588.923	800.000	-0.057	0.224
-587.909	-98.612	-0.525	-0.135
-586.894	800.000	-0.013	0.058
-585.879	800.000	0.061	-0.229
-584.865	29.629	-0.163	-0.139
-583.850	6.023	-0.189	-0.141
-582.836	-200.000	0.010	0.066
-581.821	77.827	-0.227	0.243
-580.806	-200.000	-0.041	-0.242
-579.792	-194.624	-0.276	-0.002
-578.777	-54.031	-0.303	0.138
-577.763	-30.052	0.053	-0.031
-576.748	-151.869	0.207	0.015
-575.733	-18.610	0.325	0.204
-574.719	223.121	-0.122	0.198
-573.704	330.903	-0.147	-0.284
-572.690	800.000	0.101	0.308
-571.675	-46.838	0.202	0.099
-570.661	-61.846	-0.432	-0.182
-569.646	-54.498	0.260	-0.118
-568.631	-200.000	-0.016	-0.394
-567.617	149.025	-0.067	0.091
-566.602	50.501	-0.056	0.053
-565.588	628.258	-0.035	-0.089
-564.573	26.643	0.113	-0.095
-563.558	-29.144	-0.111	0.064
-562.544	800.000	-0.042	-0.151
-561.529	17.917	-0.128	-0.103
-560.515	-77.135	0.225	-0.079
-559.500	-114.376	0.427	0.083
-558.485	-200.000	0.052	-0.389
-557.471	-9.665	0.025	0.017
-556.456	-116.791	-0.116	0.021
-555.442	15.907	0.162	0.128
-554.427	66.981	-0.164	-0.167
-553.412	-19.539	-0.308	-0.192
-552.398	-200.000	-0.037	-0.163
-551.383	565.985	0.070	-0.171
-550.369	-76.137	0.061	-0.022
-549.354	439.621	0.132	0.290
-548.339	-18.758	-0.120	0.075
-547.325	64.542	0.062	-0.063
-546.310	-50.285	0.517	0.245
-545.296	-40.845	0.406	0.211
-544.281	-13.783	-0.245	0.159
-543.266	294.516	-0.086	0.157
-542.252	-197.105	-0.402	0.003
-541.237	346.752	0.141	-0.279
-540.223	800.000	0.060	-0.241
-539.208	366.134	0.075	0.151
-538.193	342.030	-0.235	-0.461
-537.179	244.239	0.298	0.502
-536.164	309.334	-0.139	0.260
-535.150	2.176	-0.204	-0.148
-534.135	5.591	0.097	-0.072
-533.121	42.971	-0.242	0.222
-532.106	119.709	0.088	-0.109
-531.091	-79.861	0.447	-0.151
-530.077	-200.000	-0.028	0.322
-529.062	-200.000	-0.073	0.346
-528.048	-165.004	0.324	-0.014
-527.033	-47.304	0.283	-0.138
-526.018	142.718	-0.076	0.102
-525.004	123.912	-0.069	-0.087
-523.989	-38.122	-0.175	0.093
-522.975	324.169	0.065	0.124
-521.960	87.974	-0.260	-0.289
-520.945	-52.716	-0.063	-0.029
-519.931	800.000	-0.062	-0.211
-518.916	-4.321	0.144	-0.100
-517.902	381.013	-0.102	0.211
-516.887	81.643	0.106	0.115
-515.872	67.333	0.044	-0.045
-514.858	53.854	-0.111	-0.107
-513.843	-61.048	0.033	0.014
-512.829	314.428	0.147	0.278
-511.814	668.300	0.087	-0.227
-510.799	800.000	-0.042	-0.167
-509.785	-200.000	-0.010	0.092
-508.770	-200.000	-0.084	-0.481
-507.756	635.122	0.137	-0.348
-506.741	597.597	-0.027	-0.067
-505.726	-45.047	0.278	0.138
-504.712	800.000	-0.091	-0.301
-503.697	-28.086	0.172	0.100
-502.683	-200.000	-0.013	-0.061
-501.668	-7.995	-0.341	0.230
-500.653	-190.047	-0.248	-0.003
-499.639	34.313	0.056	-0.049
-498.624	800.000	0.034	-0.095
-497.610	800.000	0.093	0.279
-496.595	479.256	-0.044	-0.099
-495.581	-35.140	0.262	-0.143
-494.566	800.000	0.033	0.143
-493.551	124.360	-0.058	0.074
-492.537	-200.000	-0.009	-0.214
-491.522	0.403	0.083	0.059
-490.508	44.220	-0.094	-0.087
-489.493	-26.678	-0.068	0.040
-488.478	-200.000	0.007	-0.262
-487.464	-82.154	0.076	0.025
-486.449	-138.725	-0.123	-0.013
-485.435	-200.000	-0.011	0.082
-484.420	-32.739	0.080	-0.045
-483.405	171.531	-0.209	-0.300
-482.391	-99.163	-0.099	0.025
-481.376	177.720	0.018	-0.027
-480.362	-200.000	-0.005	0.190
-479.347	179.461	0.099	-0.146
-478.332	800.000	0.096	0.306
-477.318	-200.000	-0.028	0.231
-476.303	800.000	-0.067	0.229
-475.289	-100.472	0.352	0.087
-474.274	-200.000	-0.011	-0.075
-473.259	226.347	-0.092	0.150
-472.245	-200.000	-0.020	0.090
-471.230	-54.945	0.173	-0.078
-470.216	5.145	-0.420	0.310
-469.201	-62.672	0.399	-0.166
-468.186	107.143	-0.173	0.206
-467.172	-104.516	-0.215	-0.050
-466.157	44.063	-0.050	0.046
-465.143	-125.797	-0.334	0.051
-464.128	252.942	-0.107	-0.183
-463.113	800.000	0.066	0.214
-462.099	-45.970	0.219	0.108
-461.084	-97.274	0.158	-0.041
-460.070	51.000	0.194	0.184
-459.055	-200.000	0.000	0.005
-458.040	40.973	-0.137	-0.124
-457.026	-200.000	-0.045	0.358
-456.011	-200.000	-0.028	0.199
-454.997	258.399	0.080	-0.138
-453.982	447.831	0.195	-0.429
-452.968	-200.000	0.051	0.271
-451.953	-34.417	-0.151	-0.083
-450.938	230.591	-0.161	-0.264
-449.924	-200.000	-0.002	-0.097
-448.909	55.830	0.230	-0.223
-447.895	4.357	0.392	0.287
-446.880	615.319	0.096	0.240
-445.865	-163.338	-0.114	-0.005
-444.851	340.201	0.088	0.171
-443.836	238.860	0.070	-0.117
-442.822	-200.000	-0.002	-0.172
-441.807	71.809	-0.070	-0.072
-440.792	-200.000	-0.030	-0.149
-439.778	800.000	0.029	0.090
-438.763	-158.243	0.187	0.011
-437.749	82.475	-0.261	-0.283
-436.734	-147.374	-0.425	0.036
-435.719	-200.000	0.006	-0.266
-434.705	47.119	0.312	-0.291
-433.690	-63.651	0.093	-0.038
-432.676	-200.000	-0.014	-0.090
-431.661	154.783	0.261	0.359
-430.646	494.119	-0.101	0.232
-429.632	-200.000	0.017	0.101
-428.617	-200.000	0.040	0.262
-427.603	228.670	-0.083	0.135
-426.588	-105.552	0.095	-0.021
-425.573	739.282	0.053	0.141
-424.559	-167.667	-0.392	-0.016
-423.544	800.000	-0.071	0.293
-422.530	359.541	0.144	0.288
-421.515	-49.274	-0.248	0.119
-420.500	6.407	-0.041	0.031
-419.486	-200.000	0.031	0.217
-418.471	-158.395	-0.467	0.027
-417.457	461.833	-0.034	0.076
-416.442	-19.341	-0.245	0.151
-415.428	800.000	-0.110	-0.393
-414.413	-55.110	0.195	-0.088
-413.398	-200.000	0.027	0.154
-412.384	-47.742	0.452	-0.219
-411.369	47.108	-0.260	0.242
-410.355	-200.000	-0.055	0.367
-409.340	-200.000	-0.032	0.201
-408.325	-200.000	-0.062	0.312
-407.311	51.814	-0.168	-0.160
-406.296	502.778	0.086	0.199
-405.282	-8.775	-0.143	0.096
-404.267	78.454	-0.154	0.165
-403.252	177.429	0.224	-0.326
-402.238	124.968	0.064	0.081
-401.223	800.000	-0.021	-0.074
-400.209	-10.833	0.054	-0.036
-399.194	594.802	-0.117	-0.289
-398.179	101.892	-0.294	-0.343
-397.165	281.538	0.035	-0.063
-396.150	-83.979	0.125	0.040
-395.136	-44.506	-0.315	0.157
-394.121	179.312	-0.185	0.270
-393.106	90.046	0.168	-0.187
-392.092	-200.000	-0.007	-0.106
-391.077	-200.000	0.011	0.229
-390.063	69.112	-0.036	-0.037
-389.048	494.815	0.099	-0.227
-388.033	68.358	0.245	-0.251
-387.019	148.031	0.094	-0.126
-386.004	800.000	0.051	-0.142
-384.990	-83.037	0.068	-0.022
-383.975	-5.861	0.047	-0.032
-382.960	681.659	0.076	0.196
-381.946	290.109	0.100	0.181
-380.931	133.256	0.103	-0.133
-379.917	33.062	-0.135	-0.117
-378.902	-181.649	-0.210	0.004
-377.888	-200.000	-0.018	0.211
-376.873	11.119	0.149	0.114
-375.858	-200.000	-0.054	0.244
-374.844	-168.136	-0.028	0.001
-373.829	236.989	-0.072	-0.119
-372.815	416.082	0.122	-0.260
-371.800	395.319	-0.084	0.174
-370.785	-3.369	0.164	0.114
-369.771	589.602	0.066	-0.161
-368.756	-200.000	-0.064	-0.490
-367.742	-16.141	-0.148	0.094
-366.727	31.169	-0.370	0.317
-365.712	215.303	-0.021	0.033
-364.698	-5.762	-0.179	0.122
-363.683	2.258	0.155	-0.112
-362.669	-72.982	0.373	-0.136
-361.654	-121.938	0.126	-0.021
-360.639	52.548	-0.058	0.056
-359.625	-200.000	-0.017	0.183
-358.610	-26.308	-0.375	-0.220
-357.596	-43.593	-0.105	-0.053
-356.581	1.704	0.184	-0.132
-355.566	-200.000	-0.063	-0.325
-354.552	163.796	0.092	0.130
-353.537	-43.203	0.352	0.177
-352.523	-0.949	0.164	-0.116
-351.508	-132.252	0.261	-0.034
-350.493	111.410	-0.230	0.277
-349.479	-115.214	-0.185	0.035
-348.464	-200.000	-0.075	0.520
-347.450	-200.000	0.038	-0.182
-346.435	-102.360	0.086	-0.020
-345.420	-91.314	-0.125	-0.036
-344.406	-78.714	0.141	0.048
-343.391	-187.714	0.345	0.005
-342.377	-147.330	-0.305	-0.026
-341.362	119.827	0.286	0.353
-340.348	61.558	-0.096	0.095
-339.333	-16.293	-0.270	0.170
-338.318	-9.104	-0.139	-0.093
-337.304	791.377	0.036	-0.100
-336.289	-92.922	-0.180	0.050
-335.275	-200.000	0.029	0.135
-334.260	397.708	0.020	0.041
-333.245	219.487	0.109	0.174
-332.231	-200.000	-0.005	-0.123
-331.216	46.677	-0.047	0.043
-330.202	79.329	-0.211	-0.225
-329.187	54.778	0.218	-0.209
-328.172	-88.127	-0.079	-0.024
-327.158	495.524	-0.025	-0.057
-326.143	200.432	-0.131	0.200
-325.129	-200.000	-0.009	-0.138
-324.114	-152.841	0.258	-0.018
-323.099	-154.047	-0.104	-0.007
-322.085	33.574	-0.335	0.290
-321.070	-53.876	-0.434	0.197
-320.056	800.000	0.050	0.169
-319.041	164.828	0.194	-0.273
-318.026	-74.161	0.175	-0.063
-317.012	800.000	-0.053	-0.205
-315.997	-96.892	0.310	-0.081
-314.983	-80.096	0.197	0.066
-313.968	479.644	0.186	0.419
-312.953	139.884	-0.019	-0.025
-311.939	-106.184	-0.215	-0.048
-310.924	800.000	0.032	0.136
-309.910	281.504	-0.113	-0.201
-308.895	-200.000	-0.003	-0.190
-307.880	-41.807	0.071	0.036
-306.866	129.336	-0.110	0.140
-305.851	-164.566	0.114	-0.005
-304.837	6.174	0.218	0.161
-303.822	85.880	0.112	0.122
-302.807	-46.921	0.151	-0.073
-301.793	81.740	-0.184	-0.198
-300.778	-106.255	0.344	0.077
-299.764	-45.794	-0.107	0.053
-298.749	632.315	-0.243	-0.612
-297.735	-155.742	0.284	-0.018
-296.720	800.000	-0.132	-0.418
-295.705	-200.000	-0.016	0.371
-294.691	-57.346	-0.115	0.050
-293.676	-113.312	0.123	0.024
-292.662	224.077	0.074	0.120
-291.647	-25.054	-0.342	-0.201
-290.632	696.509	0.076	-0.198
-289.618	46.250	0.139	-0.128
-288.603	-11.725	0.265	-0.173
-287.589	-106.458	0.306	-0.068
-286.574	-200.000	-0.026	-0.128
-285.559	-110.771	-0.251	0.051
-284.545	-200.000	0.003	0.202
-283.530	-29.211	-0.210	0.120
-282.516	-179.002	0.149	0.003
-281.501	-70.532	-0.589	-0.221
-280.486	-171.571	0.079	-0.003
-279.472	5.613	0.265	0.194
-278.457	-47.631	-0.463	0.223
-277.443	81.270	0.104	0.112
-276.428	-39.130	-0.019	-0.010
-275.413	-112.647	0.091	-0.018
-274.399	130.916	0.196	0.249
-273.384	-58.302	-0.426	-0.184
-272.370	136.930	0.237	0.308
-271.355	-56.336	0.276	0.122
-270.340	-200.000	-0.022	-0.334
-269.326	21.793	-0.293	-0.237
-268.311	-200.000	0.003	-0.127
-267.297	-128.410	0.489	-0.069
-266.282	-52.668	0.216	-0.099
-265.267	228.641	-0.073	0.119
-264.253	123.888	-0.139	0.173
-263.238	219.695	-0.155	-0.246
-262.224	-200.000	0.090	0.424
-261.209	173.364	-0.129	-0.185
-260.195	-39.889	0.180	-0.093
-259.180	72.719	0.330	-0.342
-258.165	-157.491	-0.370	0.022
-257.151	283.987	-0.160	0.286
-256.136	24.072	0.272	0.223
-255.122	-58.822	0.245	0.105
-254.107	-53.559	0.378	-0.171
-253.092	-129.684	-0.026	0.004
-252.078	-200.000	-0.024	0.226
-251.063	-22.120	-0.032	0.019
-250.049	50.212	-0.153	0.144
-249.034	-71.251	-0.107	0.040
-248.019	-85.870	0.123	-0.038
-247.005	390.426	0.113	-0.233
-245.990	417.490	-0.011	0.023
-244.976	8.368	0.074	-0.055
-243.961	800.000	0.051	0.153
-242.946	-123.420	0.162	0.026
-241.932	185.778	0.182	0.268
-240.917	55.221	-0.312	0.299
-239.903	-200.000	0.009	0.115
-238.888	-200.000	-0.008	0.430
-237.873	169.991	0.158	0.224
-236.859	-200.000	0.070	0.496
-235.844	1.664	0.224	0.160
-234.830	745.785	0.028	0.076
-233.815	-200.000	-0.012	0.216
-232.800	35.719	0.153	0.133
-231.786	401.858	-0.111	-0.231
-230.771	99.934	0.187	0.215
-229.757	-118.035	-0.118	0.021
-228.742	-200.000	-0.055	-0.249
-227.727	800.000	0.112	-0.344
-226.713	-163.469	0.114	0.005
-225.698	176.895	-0.113	-0.162
-224.684	684.878	-0.109	-0.283
-223.669	215.583	0.043	0.068
-222.655	800.000	-0.041	0.116
-221.640	-69.142	0.217	-0.083
-220.625	5.864	-0.058	0.042
-219.611	377.947	0.096	-0.194
-218.596	71.054	0.279	-0.286
-217.582	185.534	0.038	0.055
-216.567	119.344	-0.038	-0.047
-215.552	107.289	0.233	0.275
-214.538	-79.484	0.429	-0.144
-213.523	192.160	0.177	-0.264
-212.509	-200.000	-0.052	-0.310
-211.494	-119.173	-0.212	-0.037
-210.479	-131.197	0.051	0.007
-209.465	27.406	-0.142	0.118
-208.450	153.165	0.038	0.051
-207.436	-32.025	-0.284	-0.157
-206.421	67.292	0.121	0.122
-205.406	-19.544	-0.142	0.087
-204.392	-187.747	0.271	-0.004
-203.377	328.740	-0.240	-0.457
-202.363	107.658	0.216	0.255
-201.348	76.844	-0.238	-0.251
-200.333	85.302	-0.111	0.121
-199.319	156.488	-0.117	0.160
-198.304	267.630	-0.176	-0.305
-197.290	-53.952	-0.434	0.196
-196.275	97.010	0.209	0.237
-195.260	-200.000	-0.013	-0.385
-194.246	-100.434	0.115	-0.028
-193.231	-4.248	-0.085	-0.058
-192.217	-76.947	0.184	-0.064
-191.202	22.440	-0.184	-0.149
-190.187	-83.127	0.082	-0.026
-189.173	114.897	-0.180	0.218
-188.158	374.673	0.080	0.161
-187.144	800.000	0.015	0.056
-186.129	-113.738	-0.128	-0.025
-185.114	196.774	-0.060	0.091
-184.100	41.023	-0.184	0.165
-183.085	800.000	0.002	-0.007
-182.071	315.658	-0.080	-0.149
-181.056	-78.638	-0.051	0.017
-180.042	-200.000	0.023	0.142
-179.027	-85.671	0.046	-0.014
-178.012	-8.873	0.199	-0.132
-176.998	-37.707	-0.135	-0.071
-175.983	-200.000	0.045	-0.201
-174.969	283.371	-0.056	-0.100
-173.954	-98.469	0.339	-0.086
-172.939	229.953	-0.167	-0.270
-171.925	32.517	-0.173	-0.148
-170.910	-200.000	0.122	0.541
-169.896	263.753	0.022	0.038
-168.881	529.877	-0.088	0.206
-167.866	553.034	0.176	-0.418
-166.852	206.400	0.055	0.085
-165.837	800.000	-0.125	0.369
-164.823	-200.000	-0.019	0.202
-163.808	65.170	0.170	0.170
-162.793	-122.442	-0.035	-0.006
-161.779	55.342	0.070	0.067
-160.764	206.492	-0.078	0.121
-159.750	-140.747	-0.331	-0.034
-158.735	594.630	-0.097	-0.238
-157.720	-102.372	-0.152	0.036
-156.706	-200.000	0.009	0.112
-155.691	-74.746	0.395	-0.140
-154.677	-110.850	-0.340	-0.069
-153.662	499.880	-0.094	-0.213
-152.647	-200.000	0.050	-0.298
-151.633	-200.000	0.067	-0.304
-150.618	-21.685	-0.134	-0.081
-149.604	-200.000	-0.018	-0.313
-148.589	-80.038	-0.158	-0.052
-147.574	-58.470	-0.110	-0.047
-146.560	-200.000	0.036	0.162
-145.545	-38.703	-0.308	0.160
-144.531	70.090	-0.231	0.235
-143.516	-128.567	-0.141	0.020
-142.502	249.945	0.148	-0.249
-141.487	370.312	-0.048	0.096
-140.472	257.643	-0.131	0.223
-139.458	-200.000	0.011	-0.066
-138.443	800.000	0.040	0.156
-137.429	39.114	-0.129	0.114
-136.414	289.359	0.142	-0.255
-135.399	-111.488	0.073	0.015
-134.385	471.220	-0.063	0.139
-133.370	54.995	0.160	0.152
-132.356	-41.923	-0.068	0.034
-131.341	73.412	-0.200	-0.207
-130.326	34.759	-0.343	-0.296
-129.312	139.728	-0.048	0.062
-128.297	30.664	0.244	0.206
-127.283	-65.008	0.366	0.146
-126.268	-200.000	-0.052	-0.226
-125.253	33.959	0.155	-0.133
-124.239	13.894	-0.265	-0.203
-123.224	325.259	0.168	-0.317
-122.210	105.509	-0.120	-0.141
-121.195	-63.906	0.218	0.088
