DTS Sentinel unit serial number:	SN413079Multiplexer serial number:	ORYXHardware model number:	OX4-SRSoftware version number:	ORYX F/W v4.00 Oryx Data Collector v3.7.2.0data status	okinstallation	princeton_trtdifferential loss correction	single-endedforward channel	channel 3reverse channel	N/Adate	2019/09/11time	12:50:11forward acquisition time	60.00reverse acquisition time	0.00gamma	496.2192k internal	0.2294k external	0.2294temperature offset calibration	0.9935default loss term (dB/km)	0.3790temperature slope calibration	1.0000multiplexer offset coefficient	1.0000multiplexer slope coefficient	1.0000fibre end	0.00T internal ref (°C)	41.22T ext. ref 1 (°C)	0.22T ext. ref 2 (°C)	38.54length (m)	temperature (°C)	Stokes	anti-Stokes-747.200	-76.553	0.200	-0.072
-746.185	183.557	0.040	-0.060
-745.171	-135.523	0.452	0.055
-744.156	70.408	0.033	-0.035
-743.142	184.602	0.159	-0.242
-742.127	-7.039	-0.224	0.156
-741.112	208.677	0.110	0.175
-740.098	-200.000	0.035	-0.424
-739.083	38.186	-0.108	0.098
-738.069	591.430	0.093	-0.236
-737.054	-200.000	0.024	-0.156
-736.039	-119.512	0.409	0.073
-735.025	-200.000	-0.046	-0.438
-734.010	-100.144	-0.400	-0.102
-732.996	15.487	0.267	-0.214
-731.981	398.258	0.183	-0.392
-730.966	291.883	0.130	0.242
-729.952	-65.343	0.142	0.058
-728.937	-151.133	-0.313	0.024
-727.923	-116.833	-0.431	-0.081
-726.908	503.950	0.028	0.066
-725.894	-143.526	0.237	-0.023
-724.879	30.799	0.062	-0.054
-723.864	257.521	0.227	-0.399
-722.850	-200.000	-0.101	-0.000
-721.835	800.000	-0.042	-0.187
-720.821	-126.812	0.116	-0.018
-719.806	800.000	-0.035	-0.130
-718.791	37.004	-0.389	-0.352
-717.777	24.481	0.269	0.228
-716.762	-174.747	-0.425	0.012
-715.748	318.267	0.215	0.415
-714.733	-200.000	0.017	0.326
-713.718	-41.488	0.142	-0.075
-712.704	-85.439	-0.234	-0.074
-711.689	335.027	-0.129	0.256
-710.675	800.000	-0.034	-0.096
-709.660	800.000	-0.048	0.190
-708.645	-28.574	-0.018	-0.011
-707.631	320.659	-0.137	0.266
-706.616	-200.000	0.014	-0.074
-705.602	-125.973	0.294	-0.045
-704.587	-113.128	0.193	-0.039
-703.572	-66.459	0.234	-0.095
-702.558	-79.077	0.227	-0.079
-701.543	348.519	-0.033	0.066
-700.529	189.547	0.055	0.084
-699.514	-35.709	0.121	-0.067
-698.499	199.556	0.206	-0.322
-697.485	-61.655	-0.036	-0.015
-696.470	357.799	-0.098	-0.199
-695.456	128.139	-0.112	0.146
-694.441	-40.694	0.161	0.085
-693.426	299.806	0.071	-0.134
-692.412	-88.619	-0.092	-0.028
-691.397	-77.691	0.462	0.163
-690.383	-200.000	-0.009	-0.154
-689.368	135.141	0.013	-0.017
-688.354	-200.000	-0.027	-0.306
-687.339	11.843	0.306	0.240
-686.324	-159.627	0.090	-0.005
-685.310	619.962	0.113	-0.289
-684.295	181.933	-0.086	-0.129
-683.281	17.933	0.077	0.063
-682.266	584.289	-0.064	-0.161
-681.251	-195.379	-0.300	-0.002
-680.237	-49.283	-0.187	0.091
-679.222	800.000	-0.118	-0.389
-678.208	-200.000	0.003	-0.118
-677.193	156.030	-0.057	-0.080
-676.178	64.249	-0.132	0.135
-675.164	-200.000	-0.005	0.065
-674.149	787.286	-0.121	0.338
-673.135	76.196	-0.158	-0.171
-672.120	800.000	-0.024	0.100
-671.105	800.000	0.072	0.255
-670.091	-42.244	-0.232	-0.121
-669.076	-33.789	-0.049	0.028
-668.062	10.515	0.081	0.063
-667.047	197.680	0.070	-0.110
-666.032	-200.000	0.009	0.043
-665.018	-109.045	-0.206	-0.045
-664.003	151.337	-0.109	0.151
-662.989	233.837	-0.149	0.250
-661.974	-141.140	-0.348	-0.036
-660.959	181.942	-0.151	-0.227
-659.945	86.507	0.145	-0.163
-658.930	-52.684	-0.168	0.079
-657.916	-200.000	0.020	0.300
-656.901	156.703	0.020	0.028
-655.886	-141.849	0.416	-0.042
-654.872	800.000	0.061	-0.219
-653.857	-61.526	-0.453	-0.194
-652.843	-97.302	-0.315	0.084
-651.828	-200.000	0.011	0.109
-650.814	-117.568	-0.220	0.040
-649.799	-200.000	-0.010	-0.089
-648.784	-60.084	0.172	-0.075
-647.770	11.781	0.295	-0.231
-646.755	-200.000	0.012	-0.113
-645.741	-200.000	0.001	-0.117
-644.726	-200.000	0.050	0.268
-643.711	23.355	-0.224	0.187
-642.697	54.632	0.177	0.173
-641.682	98.208	-0.241	-0.283
-640.668	139.310	0.122	-0.164
-639.653	74.272	-0.046	-0.049
-638.638	245.350	0.089	-0.153
-637.624	-84.145	-0.100	0.032
-636.609	-70.606	-0.278	-0.107
-635.595	-40.497	0.081	-0.043
-634.580	207.481	0.078	0.124
-633.565	201.709	-0.093	-0.146
-632.551	-24.699	-0.254	0.154
-631.536	356.479	0.146	0.295
-630.522	342.570	0.079	0.158
-629.507	-38.877	-0.322	-0.173
-628.492	-59.683	0.125	0.055
-627.478	-200.000	0.002	-0.268
-626.463	460.017	0.050	0.114
-625.449	31.094	-0.117	0.102
-624.434	-92.010	-0.257	0.074
-623.419	177.746	-0.046	-0.068
-622.405	-34.825	0.210	-0.117
-621.390	200.586	-0.038	-0.059
-620.376	-94.367	-0.188	0.052
-619.361	-83.410	-0.063	-0.021
-618.346	-200.000	-0.044	0.251
-617.332	423.645	0.052	0.115
-616.317	-152.996	-0.119	-0.009
-615.303	190.434	0.066	0.101
-614.288	-22.130	-0.113	-0.069
-613.273	-200.000	0.015	-0.408
-612.259	150.939	0.128	-0.177
-611.244	-29.457	0.039	0.023
-610.230	800.000	-0.058	-0.222
-609.215	299.683	-0.058	-0.110
-608.201	-64.593	-0.422	-0.174
-607.186	-200.000	-0.031	0.141
-606.171	-200.000	0.016	-0.210
-605.157	391.540	0.033	-0.069
-604.142	138.355	0.083	-0.111
-603.128	-133.895	0.263	0.033
-602.113	-167.070	0.076	-0.003
-601.098	-45.451	0.309	0.156
-600.084	348.856	-0.109	0.219
-599.069	-113.445	-0.200	-0.040
-598.055	10.046	-0.148	-0.114
-597.040	12.153	-0.326	0.255
-596.025	-99.653	-0.175	0.045
-595.011	-96.035	-0.303	0.082
-593.996	-133.994	0.070	0.009
-592.982	-200.000	-0.024	0.202
-591.967	6.397	-0.251	0.189
-590.952	-31.877	-0.109	0.062
-589.938	99.709	0.144	-0.169
-588.923	68.771	-0.068	0.071
-587.909	-22.851	-0.201	0.124
-586.894	30.918	0.469	0.408
-585.879	47.149	-0.212	-0.200
-584.865	-22.507	0.194	-0.119
-583.850	-116.021	0.268	0.051
-582.836	-200.000	-0.049	-0.255
-581.821	-200.000	-0.029	-0.348
-580.806	-2.929	-0.151	0.107
-579.792	-200.000	0.059	0.400
-578.777	800.000	0.088	0.268
-577.763	48.354	0.052	0.049
-576.748	-200.000	0.027	-0.202
-575.733	29.609	0.056	0.048
-574.719	296.578	-0.131	-0.244
-573.704	90.956	0.093	-0.106
-572.690	-133.030	-0.113	-0.015
-571.675	-200.000	-0.001	0.094
-570.661	204.178	0.094	-0.148
-569.646	31.500	0.023	-0.020
-568.631	29.307	-0.397	-0.342
-567.617	203.663	-0.102	-0.160
-566.602	-114.505	-0.190	0.037
-565.588	65.110	0.257	-0.263
-564.573	2.145	0.226	-0.166
-563.558	587.105	0.029	0.073
-562.544	6.497	0.075	0.057
-561.529	27.817	0.207	0.177
-560.515	-2.027	-0.211	0.151
-559.500	25.967	-0.205	0.174
-558.485	-200.000	-0.019	-0.336
-557.471	-99.846	0.296	-0.075
-556.456	72.844	0.213	0.226
-555.442	800.000	0.103	0.342
-554.427	4.800	0.016	-0.012
-553.412	-45.407	-0.181	-0.091
-552.398	54.266	-0.212	-0.207
-551.383	-175.106	0.461	0.013
-550.369	27.646	0.103	0.088
-549.354	-27.854	-0.087	0.051
-548.339	800.000	0.097	-0.296
-547.325	338.029	0.127	0.251
-546.310	-200.000	-0.024	0.229
-545.296	-200.000	-0.015	0.091
-544.281	-62.550	0.067	0.028
-543.266	32.456	-0.133	0.117
-542.252	-181.025	0.162	-0.003
-541.237	-200.000	-0.059	0.437
-540.223	-30.515	0.011	-0.006
-539.208	-200.000	0.003	-0.171
-538.193	-200.000	-0.011	-0.186
-537.179	800.000	0.117	0.345
-536.164	183.289	0.139	0.209
-535.150	-60.637	0.195	-0.084
-534.135	389.331	0.089	-0.187
-533.121	-130.882	0.046	0.006
-532.106	717.842	-0.022	0.058
-531.091	398.544	0.073	-0.156
-530.077	-50.933	0.267	-0.127
-529.062	-63.885	-0.344	0.143
-528.048	-29.901	0.196	0.113
-527.033	478.840	0.140	-0.322
-526.018	-76.451	-0.383	-0.137
-525.004	-113.238	0.225	0.045
-523.989	324.858	0.113	-0.218
-522.975	-68.342	-0.240	-0.095
-521.960	800.000	-0.015	-0.060
-520.945	-200.000	-0.024	0.164
-519.931	-10.411	-0.158	-0.106
-518.916	-200.000	0.072	0.381
-517.902	800.000	0.033	0.117
-516.887	68.350	0.136	-0.142
-515.872	204.262	-0.195	0.306
-514.858	800.000	0.131	-0.509
-513.843	-114.988	0.284	0.055
-512.829	114.803	0.119	0.147
-511.814	-200.000	0.014	-0.100
-510.799	597.402	0.072	-0.181
-509.785	-14.222	0.242	0.158
-508.770	512.401	0.050	-0.118
-507.756	-105.584	-0.148	0.034
-506.741	162.274	-0.153	-0.218
-505.726	36.670	0.148	-0.133
-504.712	-18.696	-0.045	0.028
-503.697	34.152	0.105	0.093
-502.683	-200.000	0.008	0.288
-501.668	394.139	-0.124	0.261
-500.653	76.154	0.121	0.130
-499.639	-73.412	0.337	-0.125
-498.624	47.899	0.194	-0.184
-497.610	-200.000	-0.009	-0.221
-496.595	-23.018	-0.120	0.073
-495.581	293.946	-0.206	0.381
-494.566	-113.090	-0.263	0.052
-493.551	-69.762	-0.138	0.053
-492.537	79.187	-0.380	0.413
-491.522	-200.000	0.007	-0.124
-490.508	-141.948	-0.117	0.012
-489.493	-200.000	0.015	-0.410
-488.478	225.599	-0.109	-0.179
-487.464	-157.246	0.154	0.009
-486.449	800.000	-0.098	0.365
-485.435	227.195	0.076	-0.125
-484.420	-152.992	0.245	0.017
-483.405	-200.000	-0.018	-0.103
-482.391	-200.000	0.029	0.157
-481.376	-88.792	-0.191	0.058
-480.362	-200.000	0.048	0.292
-479.347	116.747	0.207	0.257
-478.332	-200.000	-0.012	0.401
-477.318	38.180	-0.196	-0.176
-476.303	-160.214	-0.164	0.009
-475.289	124.685	-0.063	0.081
-474.274	-88.635	0.208	-0.063
-473.259	-106.608	-0.170	0.038
-472.245	-48.982	-0.192	-0.093
-471.230	-104.587	0.331	-0.077
-470.216	-200.000	0.013	0.168
-469.201	-146.038	0.093	-0.008
-468.186	-200.000	-0.024	0.129
-467.172	90.934	-0.019	-0.022
-466.157	800.000	-0.092	-0.268
-465.143	104.208	0.181	-0.215
-464.128	-34.922	0.134	-0.074
-463.113	475.121	0.129	-0.294
-462.099	-6.809	0.242	0.166
-461.084	-200.000	-0.031	-0.150
-460.070	20.505	0.110	-0.090
-459.055	-98.864	-0.346	0.089
-458.040	348.861	-0.173	0.346
-457.026	-12.296	-0.035	-0.023
-456.011	-43.764	-0.319	-0.162
-454.997	-192.824	-0.246	-0.002
-453.982	231.675	0.067	0.111
-452.968	50.077	-0.174	-0.167
-451.953	-23.182	-0.146	0.089
-450.938	-200.000	-0.018	0.082
-449.924	237.278	-0.051	0.086
-448.909	241.363	-0.274	0.462
-447.895	-128.250	-0.096	0.014
-446.880	-165.210	0.142	0.006
-445.865	310.744	0.060	0.113
-444.851	-200.000	0.007	-0.201
-443.836	-12.440	0.096	0.063
-442.822	800.000	-0.071	-0.279
-441.807	75.279	0.144	0.153
-440.792	-91.503	0.125	-0.036
-439.778	800.000	-0.079	0.273
-438.763	114.650	0.104	0.128
-437.749	-200.000	-0.002	-0.061
-436.734	800.000	-0.047	-0.135
-435.719	-10.807	0.101	0.067
-434.705	339.782	0.016	-0.031
-433.690	-200.000	-0.017	0.313
-432.676	427.432	-0.085	0.185
-431.661	237.818	-0.105	0.175
-430.646	-74.360	-0.197	-0.072
-429.632	-82.492	-0.076	0.025
-428.617	-40.014	-0.074	0.039
-427.603	0.795	-0.084	0.061
-426.588	-200.000	-0.015	0.069
-425.573	1.528	-0.188	-0.137
-424.559	-47.861	0.360	-0.176
-423.544	-73.581	-0.347	-0.128
-422.530	800.000	-0.064	0.238
-421.515	-200.000	-0.006	0.045
-420.500	171.643	-0.232	0.337
-419.486	-45.660	-0.171	0.086
-418.471	30.459	-0.236	-0.204
-417.457	163.903	-0.158	0.224
-416.442	68.754	0.047	0.049
-415.428	-200.000	-0.008	-0.271
-414.413	71.866	0.200	0.210
-413.398	621.973	0.097	0.245
-412.384	369.101	0.188	0.384
-411.369	-19.151	-0.228	0.143
-410.355	-2.419	-0.226	0.160
-409.340	218.666	0.144	0.232
-408.325	180.896	-0.168	-0.249
-407.311	-200.000	0.024	-0.150
-406.296	-131.364	-0.216	0.029
-405.282	30.141	0.161	-0.138
-404.267	517.276	0.153	-0.361
-403.252	439.117	-0.018	0.040
-402.238	152.813	-0.139	-0.192
-401.223	800.000	0.057	-0.181
-400.209	435.506	-0.113	0.249
-399.194	-107.834	-0.119	0.026
-398.179	-200.000	-0.027	0.147
-397.165	209.568	0.190	-0.301
-396.150	-159.001	-0.476	0.027
-395.136	36.573	0.097	-0.086
-394.121	800.000	-0.037	-0.104
-393.106	-66.117	0.205	0.083
-392.092	13.322	0.096	0.075
-391.077	-120.492	0.226	0.039
-390.063	800.000	-0.063	-0.256
-389.048	100.851	0.238	-0.279
-388.033	800.000	0.040	0.118
-387.019	-117.301	-0.128	0.023
-386.004	266.845	-0.112	0.197
-384.990	314.374	-0.036	-0.068
-383.975	-200.000	0.044	-0.214
-382.960	436.625	0.082	0.180
-381.946	-52.085	-0.124	-0.058
-380.931	-200.000	0.055	-0.247
-379.917	216.035	-0.040	-0.064
-378.902	59.897	-0.163	0.162
-377.888	800.000	-0.136	0.444
-376.873	156.029	0.210	0.292
-375.858	436.923	-0.099	-0.217
-374.844	-78.235	-0.268	0.093
-373.829	-91.186	0.156	0.045
-372.815	-127.704	-0.227	0.033
-371.800	-20.691	0.239	-0.148
-370.785	270.701	0.067	-0.119
-369.771	-118.037	0.176	0.032
-368.756	-83.977	0.300	-0.096
-367.742	800.000	-0.081	-0.354
-366.727	545.445	-0.142	-0.342
-365.712	78.621	-0.053	-0.057
-364.698	-42.186	0.348	-0.179
-363.683	-146.474	0.544	-0.048
-362.669	539.762	-0.149	-0.357
-361.654	692.339	-0.193	0.510
-360.639	329.640	-0.142	0.274
-359.625	-200.000	0.005	-0.060
-358.610	76.653	-0.135	0.144
-357.596	98.297	-0.213	0.248
-356.581	-200.000	0.008	0.077
-355.566	18.019	0.184	-0.148
-354.552	-200.000	0.042	0.237
-353.537	26.006	-0.062	0.052
-352.523	800.000	-0.038	-0.126
-351.508	800.000	0.104	0.362
-350.493	118.278	-0.100	-0.125
-349.479	192.451	0.165	-0.252
-348.464	800.000	-0.065	-0.261
-347.450	-149.614	-0.239	-0.019
-346.435	800.000	-0.067	-0.236
-345.420	800.000	-0.056	-0.196
-344.406	-200.000	0.009	-0.228
-343.391	106.529	-0.143	-0.170
-342.377	-200.000	-0.071	-0.336
-341.362	-84.376	-0.206	-0.065
-340.348	-71.990	0.237	-0.089
-339.333	735.606	-0.043	0.117
-338.318	598.283	-0.058	0.146
-337.304	775.534	0.006	0.016
-336.289	5.311	0.142	0.106
-335.275	439.038	-0.049	-0.109
-334.260	353.213	-0.049	0.097
-333.245	-172.143	0.221	-0.007
-332.231	-104.864	0.199	-0.046
-331.216	-200.000	-0.025	0.407
-330.202	-8.443	-0.253	-0.171
-329.187	-91.787	-0.098	0.028
-328.172	-80.324	-0.276	-0.093
-327.158	104.253	0.016	0.019
-326.143	544.586	0.081	0.196
-325.129	-59.591	-0.227	0.098
-324.114	800.000	0.078	-0.244
-323.099	-200.000	0.000	-0.110
-322.085	-200.000	-0.005	0.109
-321.070	-146.070	0.051	0.005
-320.056	-200.000	-0.053	-0.297
-319.041	-5.307	-0.142	0.098
-318.026	107.412	0.101	0.121
-317.012	151.870	0.443	0.608
-315.997	-200.000	0.005	0.278
-314.983	-24.640	0.178	0.107
-313.968	-170.077	-0.048	0.002
-312.953	105.903	-0.061	-0.073
-311.939	57.702	-0.053	-0.052
-310.924	-200.000	-0.067	-0.362
-309.910	800.000	0.034	0.098
-308.895	-97.755	0.206	-0.054
-307.880	103.636	0.036	-0.042
-306.866	-32.771	-0.221	-0.123
-305.851	348.865	0.112	-0.221
-304.837	-90.985	0.417	-0.121
-303.822	77.199	0.212	0.226
-302.807	-200.000	-0.031	0.343
-301.793	114.947	0.143	0.175
-300.778	275.534	-0.166	0.296
-299.764	-139.520	-0.078	-0.008
-298.749	-200.000	-0.005	0.126
-297.735	18.141	-0.244	0.195
-296.720	5.739	0.069	0.051
-295.705	333.337	0.188	-0.365
-294.691	-135.169	-0.271	-0.033
-293.676	14.647	0.129	0.101
-292.662	800.000	0.055	0.202
-291.647	-12.062	-0.184	0.121
-290.632	-153.274	-0.490	0.034
-289.618	-154.966	0.153	-0.010
-288.603	-117.265	-0.314	0.057
-287.589	-176.963	0.279	0.007
-286.574	-86.686	0.255	0.078
-285.559	-105.392	0.118	-0.027
-284.545	103.486	0.352	0.415
-283.530	-190.353	0.153	-0.002
-282.516	800.000	0.142	0.405
-281.501	-10.330	0.150	0.100
-280.486	-10.596	-0.303	-0.202
-279.472	-200.000	0.048	0.282
-278.457	-176.580	0.188	0.005
-277.443	-47.654	-0.064	0.031
-276.428	62.372	0.029	0.029
-275.413	119.056	-0.090	-0.111
-274.399	800.000	-0.062	0.236
-273.384	-35.077	-0.251	0.137
-272.370	169.984	0.087	-0.125
-271.355	-200.000	-0.007	-0.063
-270.340	207.957	-0.136	0.213
-269.326	50.344	0.096	0.091
-268.311	89.615	-0.139	0.156
-267.297	-137.464	-0.265	0.030
-266.282	66.610	-0.109	-0.111
-265.267	-200.000	-0.003	0.049
-264.253	172.922	0.074	0.108
-263.238	-200.000	0.067	-0.313
-262.224	-144.630	0.348	-0.032
-261.209	248.663	0.150	0.255
-260.195	-200.000	-0.040	0.225
-259.180	800.000	0.090	-0.309
-258.165	497.363	0.069	-0.160
-257.151	-8.398	-0.161	-0.108
-256.136	304.621	-0.165	-0.307
-255.122	60.961	-0.170	-0.170
-254.107	-134.156	0.126	0.016
-253.092	160.111	-0.093	-0.130
-252.078	8.742	0.063	-0.048
-251.063	-200.000	0.000	0.336
-250.049	800.000	-0.094	-0.321
-249.034	479.883	-0.054	-0.124
-248.019	92.105	0.094	-0.106
-247.005	-12.074	-0.120	-0.079
-245.990	-200.000	-0.002	0.055
-244.976	244.664	-0.090	-0.151
-243.961	-112.314	-0.062	0.012
-242.946	-97.878	0.176	0.046
-241.932	-200.000	-0.002	0.298
-240.917	-200.000	-0.035	-0.170
-239.903	-124.520	0.098	-0.015
-238.888	-200.000	0.049	-0.535
-237.873	-200.000	-0.005	0.147
-236.859	-83.327	-0.228	0.073
-235.844	-107.182	0.522	0.115
-234.830	-200.000	0.094	0.591
-233.815	261.318	0.110	0.191
-232.800	-14.636	0.078	0.051
-231.786	452.361	0.014	-0.032
-230.771	20.821	0.297	0.241
-229.757	-7.323	0.277	-0.188
-228.742	-131.671	0.280	0.037
-227.727	-96.657	-0.173	-0.046
-226.713	-200.000	-0.024	-0.177
-225.698	-28.583	-0.232	0.134
-224.684	44.705	-0.114	-0.105
-223.669	-38.918	-0.228	-0.120
-222.655	36.091	-0.106	-0.094
-221.640	-200.000	0.000	-0.472
-220.625	-200.000	0.030	0.221
-219.611	162.573	0.271	0.381
-218.596	-80.045	-0.172	0.058
-217.582	-141.781	0.292	0.029
-216.567	111.381	0.169	0.204
-215.552	8.597	-0.313	0.236
-214.538	-88.028	-0.224	-0.067
-213.523	25.731	0.124	0.104
-212.509	800.000	0.019	-0.054
-211.494	-0.176	-0.259	-0.185
-210.479	511.160	0.145	-0.337
-209.465	-162.730	0.081	0.004
-208.450	-200.000	-0.006	0.093
-207.436	97.567	0.190	-0.219
-206.421	800.000	0.042	-0.163
-205.406	8.733	-0.250	0.189
-204.392	800.000	-0.030	0.125
-203.377	300.441	0.023	-0.043
-202.363	53.322	-0.216	0.207
-201.348	452.002	0.183	0.404
-200.333	800.000	-0.063	-0.187
-199.319	-103.516	0.467	-0.110
-198.304	-97.112	0.024	-0.006
-197.290	-200.000	-0.007	-0.252
-196.275	-97.154	-0.352	-0.092
-195.260	16.486	-0.288	0.228
-194.246	-156.076	0.195	-0.012
-193.231	-178.043	0.158	-0.004
-192.217	233.644	-0.143	-0.236
-191.202	61.241	0.265	-0.263
-190.187	800.000	0.132	-0.368
-189.173	-168.566	0.392	0.015
-188.158	-26.350	0.310	-0.182
-187.144	-200.000	-0.030	0.177
-186.129	-200.000	-0.045	-0.255
-185.114	6.232	0.191	-0.141
-184.100	74.576	-0.105	-0.110
-183.085	-92.550	-0.124	-0.035
-182.071	11.266	0.118	0.090
-181.056	-47.231	0.342	-0.167
-180.042	787.106	0.167	0.460
-179.027	7.114	-0.084	0.062
-178.012	-90.695	-0.262	-0.076
-176.998	-200.000	0.004	-0.255
-175.983	-61.391	-0.067	-0.028
-174.969	-18.639	0.332	-0.207
-173.954	-200.000	-0.044	-0.216
-172.939	-65.876	-0.256	-0.102
-171.925	-65.555	0.316	-0.127
-170.910	623.157	0.056	-0.141
-169.896	-6.173	-0.260	-0.178
-168.881	154.143	-0.105	0.144
-167.866	-86.126	-0.118	-0.037
-166.852	-69.422	-0.231	-0.089
-165.837	-39.406	-0.284	-0.149
-164.823	-66.548	-0.094	-0.037
-163.808	800.000	0.072	-0.199
-162.793	20.457	-0.102	0.083
-161.779	492.077	0.135	-0.309
-160.764	277.462	0.110	-0.196
-159.750	258.155	-0.150	-0.259
-158.735	-83.580	-0.101	-0.032
-157.720	126.164	0.168	-0.212
-156.706	115.357	0.098	0.119
-155.691	-78.755	0.417	0.142
-154.677	660.913	-0.071	-0.183
-153.662	-39.583	0.184	0.096
-152.647	-140.632	0.139	-0.014
-151.633	-77.704	-0.234	0.081
-150.618	-121.643	0.417	0.069
-149.604	65.462	-0.149	0.150
-148.589	-200.000	-0.016	-0.133
-147.574	-72.399	0.124	0.046
-146.560	-71.259	0.188	-0.070
-145.545	18.354	-0.143	0.114
-144.531	-114.043	0.227	0.044
-143.516	-42.099	0.185	0.094
-142.502	-200.000	-0.004	0.464
-141.487	22.599	0.211	-0.172
-140.472	-59.650	-0.288	0.123
-139.458	800.000	0.016	0.061
-138.443	773.127	-0.089	-0.242
-137.429	800.000	0.050	-0.208
-136.414	667.313	0.139	0.358
-135.399	-126.303	-0.106	0.016
-134.385	-148.722	0.320	0.026
-133.370	-79.368	-0.302	-0.102
-132.356	-200.000	0.002	-0.070
-131.341	-79.987	-0.122	-0.041
-130.326	261.025	-0.092	-0.160
-129.312	-200.000	0.104	0.466
-128.297	40.104	0.108	0.097
-127.283	24.536	-0.186	0.153
-126.268	-189.357	-0.130	-0.002
-125.253	326.689	-0.131	0.250
-124.239	-121.845	-0.250	-0.041
-123.224	15.751	0.115	0.090
-122.210	800.000	0.050	-0.177
-121.195	-150.983	0.342	-0.026
