DTS Sentinel unit serial number:	SN413079Multiplexer serial number:	ORYXHardware model number:	OX4-SRSoftware version number:	ORYX F/W v4.00 Oryx Data Collector v3.7.2.0data status	okinstallation	princeton_trtdifferential loss correction	single-endedforward channel	channel 3reverse channel	N/Adate	2019/09/15time	21:00:34forward acquisition time	60.00reverse acquisition time	0.00gamma	496.2192k internal	0.2327k external	0.2327temperature offset calibration	0.9939default loss term (dB/km)	0.3790temperature slope calibration	1.0000multiplexer offset coefficient	1.0000multiplexer slope coefficient	1.0000fibre end	0.00T internal ref (°C)	31.80T ext. ref 1 (°C)	8.06T ext. ref 2 (°C)	24.36length (m)	temperature (°C)	Stokes	anti-Stokes-747.200	800.000	0.002	0.005
-746.185	-200.000	-0.035	0.474
-745.171	-200.000	-0.042	0.271
-744.156	6.865	-0.273	-0.205
-743.142	-154.715	0.136	0.009
-742.127	223.917	-0.239	0.390
-741.112	16.643	0.127	0.101
-740.098	329.977	0.056	-0.109
-739.083	673.550	0.007	0.019
-738.069	-200.000	-0.007	0.210
-737.054	-106.335	0.275	-0.062
-736.039	-200.000	0.016	-0.162
-735.025	232.497	-0.019	-0.031
-734.010	-60.562	0.746	0.319
-732.996	-24.344	0.192	0.115
-731.981	106.944	-0.189	0.226
-730.966	113.872	-0.177	0.217
-729.952	800.000	-0.056	0.194
-728.937	-5.592	0.032	0.022
-727.923	121.581	0.128	-0.160
-726.908	-200.000	-0.009	-0.078
-725.894	50.537	-0.102	-0.098
-724.879	408.447	-0.107	0.228
-723.864	-19.549	-0.174	-0.108
-722.850	-200.000	-0.009	-0.130
-721.835	-200.000	0.012	-0.104
-720.821	-3.533	-0.157	-0.110
-719.806	248.578	0.095	-0.163
-718.791	800.000	0.061	-0.197
-717.777	275.100	-0.234	0.417
-716.762	-73.499	0.204	-0.075
-715.748	-169.627	-0.640	0.023
-714.733	-13.085	0.088	-0.057
-713.718	47.594	0.094	-0.089
-712.704	-151.445	0.301	-0.022
-711.689	-30.917	0.183	-0.104
-710.675	4.741	0.221	-0.164
-709.660	529.463	0.151	-0.358
-708.645	53.006	0.086	0.083
-707.631	-71.419	0.109	0.041
-706.616	4.557	-0.132	-0.098
-705.602	-43.856	0.185	0.094
-704.587	800.000	-0.075	-0.312
-703.572	719.269	0.092	-0.246
-702.558	519.569	0.118	0.278
-701.543	473.474	0.168	-0.381
-700.529	169.601	-0.245	-0.353
-699.514	178.847	-0.211	-0.311
-698.499	-200.000	-0.012	-0.238
-697.485	-200.000	-0.043	-0.506
-696.470	-88.825	-0.320	-0.095
-695.456	-195.107	-0.200	-0.002
-694.441	-200.000	0.034	-0.180
-693.426	-75.790	0.325	-0.116
-692.412	166.682	0.065	-0.093
-691.397	-123.756	0.210	-0.033
-690.383	-2.582	-0.044	-0.031
-689.368	800.000	-0.012	0.038
-688.354	188.172	0.097	-0.145
-687.339	-110.005	0.431	-0.091
-686.324	-200.000	0.008	0.037
-685.310	-110.067	-0.065	0.014
-684.295	-90.903	0.056	0.016
-683.281	368.937	0.066	0.135
-682.266	-200.000	0.008	-0.187
-681.251	-65.938	-0.222	0.089
-680.237	-17.374	-0.234	0.148
-679.222	134.710	0.095	-0.124
-678.208	6.563	0.120	-0.090
-677.193	79.238	-0.146	-0.158
-676.178	248.504	0.101	-0.172
-675.164	50.757	-0.158	0.150
-674.149	800.000	-0.027	0.119
-673.135	-148.812	-0.194	-0.016
-672.120	462.612	0.199	0.447
-671.105	266.692	-0.042	0.074
-670.091	112.727	0.069	-0.084
-669.076	125.609	-0.138	0.176
-668.062	-200.000	-0.055	-0.322
-667.047	-113.832	-0.279	-0.054
-666.032	-200.000	-0.054	0.266
-665.018	-200.000	-0.022	0.316
-664.003	-123.735	-0.053	0.008
-662.989	-71.575	0.111	0.042
-661.974	5.748	0.083	-0.061
-660.959	-113.233	-0.083	-0.016
-659.945	209.963	0.153	0.242
-658.930	-68.313	-0.075	-0.029
-657.916	96.889	0.108	-0.124
-656.901	-127.723	0.411	-0.060
-655.886	476.613	-0.092	0.209
-654.872	-1.389	-0.217	0.154
-653.857	-13.189	-0.107	-0.070
-652.843	73.203	0.054	-0.056
-651.828	32.592	0.158	-0.137
-650.814	-34.257	0.333	-0.183
-649.799	43.959	0.212	-0.195
-648.784	88.649	0.088	-0.098
-647.770	800.000	-0.074	0.210
-646.755	508.308	-0.038	0.087
-645.741	738.635	0.061	-0.165
-644.726	611.962	-0.229	0.576
-643.711	30.559	0.211	-0.181
-642.697	154.340	-0.322	-0.443
-641.682	-71.554	-0.329	-0.124
-640.668	-200.000	0.042	-0.329
-639.653	-33.366	0.056	-0.031
-638.638	13.187	-0.320	-0.249
-637.624	198.314	-0.176	0.270
-636.609	333.670	-0.094	0.183
-635.595	-152.370	-0.274	-0.020
-634.580	18.671	-0.228	0.183
-633.565	-200.000	-0.019	-0.133
-632.551	-42.694	-0.213	0.109
-631.536	-152.376	-0.180	-0.013
-630.522	-200.000	-0.037	0.274
-629.507	-123.578	-0.207	-0.033
-628.492	-200.000	-0.005	-0.046
-627.478	800.000	0.054	0.182
-626.463	-200.000	0.218	-0.000
-625.449	-200.000	0.011	0.257
-624.434	-200.000	0.059	-0.263
-623.419	501.496	-0.140	-0.324
-622.405	-200.000	-0.022	-0.261
-621.390	761.046	0.106	-0.288
-620.376	155.377	0.113	0.156
-619.361	15.663	0.058	-0.046
-618.346	337.202	0.157	0.306
-617.332	800.000	-0.057	-0.163
-616.317	225.482	0.103	0.167
-615.303	800.000	0.072	-0.208
-614.288	-163.656	-0.280	-0.013
-613.273	485.755	0.070	-0.160
-612.259	-27.517	0.096	-0.056
-611.244	-64.320	-0.288	-0.117
-610.230	-164.859	0.354	-0.016
-609.215	-107.082	0.244	-0.054
-608.201	-200.000	-0.037	-0.199
-607.186	-91.289	-0.255	0.073
-606.171	-95.274	-0.279	0.075
-605.157	279.323	0.158	-0.283
-604.142	-200.000	0.006	-0.354
-603.128	-200.000	-0.030	-0.134
-602.113	726.755	-0.039	-0.104
-601.098	353.266	-0.058	0.115
-600.084	169.728	0.339	0.486
-599.069	442.146	0.123	0.271
-598.055	55.475	-0.172	-0.167
-597.040	-63.667	0.157	0.064
-596.025	193.318	0.148	-0.224
-595.011	471.706	-0.004	0.010
-593.996	238.147	-0.057	0.095
-592.982	-174.478	-0.122	-0.004
-591.967	-6.878	-0.238	0.162
-590.952	482.454	0.068	0.155
-589.938	800.000	-0.049	0.154
-588.923	64.749	-0.123	0.124
-587.909	-200.000	-0.013	0.115
-586.894	-15.094	0.098	0.063
-585.879	755.893	-0.045	-0.123
-584.865	-82.429	-0.133	0.043
-583.850	-104.284	0.309	-0.072
-582.836	-8.324	0.099	0.067
-581.821	-200.000	0.004	0.189
-580.806	152.695	-0.150	0.205
-579.792	-200.000	0.003	0.069
-578.777	800.000	-0.035	-0.122
-577.763	439.954	-0.132	0.288
-576.748	-125.687	0.115	0.017
-575.733	-53.759	0.193	0.088
-574.719	-71.525	0.197	-0.074
-573.704	-126.207	0.175	0.026
-572.690	321.994	-0.180	0.343
-571.675	103.787	0.404	-0.475
-570.661	167.949	0.152	-0.216
-569.646	-200.000	-0.054	-0.324
-568.631	-5.106	0.433	0.298
-567.617	800.000	-0.035	-0.122
-566.602	104.117	0.100	-0.118
-565.588	-200.000	-0.028	-0.367
-564.573	-36.428	-0.175	0.094
-563.558	-101.411	0.212	-0.052
-562.544	742.348	-0.187	0.502
-561.529	-16.195	0.228	-0.145
-560.515	92.558	0.150	-0.170
-559.500	-143.563	-0.537	0.051
-558.485	-2.759	0.226	0.158
-557.471	190.780	-0.156	0.234
-556.456	-75.123	-0.112	0.040
-555.442	499.082	-0.152	-0.350
-554.427	257.643	-0.106	0.183
-553.412	-200.000	-0.032	0.156
-552.398	172.439	-0.130	0.187
-551.383	-200.000	-0.007	0.138
-550.369	134.018	0.209	0.271
-549.354	800.000	-0.071	-0.254
-548.339	-200.000	-0.003	0.108
-547.325	-57.045	0.105	0.047
-546.310	34.275	-0.301	-0.262
-545.296	-200.000	0.029	-0.266
-544.281	586.473	0.077	-0.190
-543.266	800.000	0.027	0.112
-542.252	-70.747	0.258	-0.097
-541.237	-200.000	-0.003	-0.070
-540.223	45.538	-0.337	-0.311
-539.208	-64.183	-0.326	-0.133
-538.193	548.687	0.067	-0.160
-537.179	-12.481	-0.086	-0.056
-536.164	-172.152	-0.459	-0.015
-535.150	800.000	-0.009	-0.024
-534.135	134.389	0.082	-0.106
-533.121	-110.769	0.401	-0.083
-532.106	-35.920	0.078	0.042
-531.091	800.000	-0.060	0.236
-530.077	-200.000	0.024	-0.190
-529.062	-200.000	-0.013	-0.108
-528.048	27.956	0.264	-0.223
-527.033	18.058	0.369	-0.294
-526.018	213.465	-0.161	0.254
-525.004	-200.000	-0.009	0.078
-523.989	-200.000	-0.018	0.141
-522.975	145.955	-0.119	0.160
-521.960	-142.068	-0.398	-0.040
-520.945	16.496	0.291	-0.229
-519.931	73.924	0.165	0.173
-518.916	47.235	-0.118	-0.110
-517.902	-200.000	0.055	-0.307
-516.887	-66.686	-0.276	-0.109
-515.872	435.081	0.157	-0.340
-514.858	-200.000	0.005	0.249
-513.843	800.000	0.080	-0.324
-512.829	415.633	0.058	0.123
-511.814	8.662	0.039	-0.029
-510.799	165.524	-0.154	0.217
-509.785	105.790	0.078	-0.093
-508.770	140.395	-0.100	0.132
-507.756	-3.496	0.164	0.114
-506.741	-161.530	-0.300	0.015
-505.726	-200.000	-0.015	0.209
-504.712	578.076	-0.062	0.152
-503.697	62.134	-0.111	0.111
-502.683	108.135	-0.130	-0.155
-501.668	553.418	0.071	-0.170
-500.653	19.159	0.330	-0.264
-499.639	208.724	-0.160	-0.250
-498.624	800.000	-0.065	0.186
-497.610	-152.848	0.225	0.016
-496.595	-73.153	-0.243	0.089
-495.581	209.955	0.251	0.393
-494.566	69.500	-0.190	0.196
-493.551	-101.897	0.277	0.067
-492.537	91.736	0.160	-0.179
-491.522	92.412	-0.120	-0.135
-490.508	-113.866	0.410	0.080
-489.493	15.116	0.254	-0.199
-488.478	-170.966	-0.019	-0.001
-487.464	-124.400	-0.280	0.044
-486.449	413.581	-0.084	-0.178
-485.435	-88.884	0.056	-0.017
-484.420	106.284	0.053	0.062
-483.405	38.042	-0.137	-0.121
-482.391	146.133	-0.206	-0.276
-481.376	523.824	0.057	-0.133
-480.362	-200.000	-0.029	0.209
-479.347	67.619	-0.205	-0.209
-478.332	732.218	-0.025	-0.066
-477.318	800.000	-0.082	0.242
-476.303	11.052	0.206	-0.157
-475.289	-200.000	0.008	0.057
-474.274	97.833	-0.097	0.111
-473.259	104.575	0.136	0.160
-472.245	149.946	-0.148	-0.200
-471.230	-140.493	0.317	-0.033
-470.216	114.433	0.109	-0.133
-469.201	6.572	-0.101	0.075
-468.186	-79.033	-0.235	-0.080
-467.172	206.389	-0.085	-0.133
-466.157	22.609	0.068	-0.056
-465.143	153.364	-0.103	-0.141
-464.128	-69.059	0.102	0.039
-463.113	-200.000	0.000	-0.124
-462.099	-5.149	-0.251	-0.172
-461.084	-38.935	0.064	-0.034
-460.070	800.000	-0.032	-0.129
-459.055	279.939	0.195	0.347
-458.040	573.602	-0.083	0.201
-457.026	-108.114	-0.086	0.019
-456.011	800.000	-0.070	0.218
-454.997	-84.254	0.112	-0.035
-453.982	-177.974	0.410	0.010
-452.968	800.000	0.103	0.375
-451.953	-49.608	-0.209	-0.099
-450.938	256.828	0.131	0.225
-449.924	-15.683	-0.361	-0.229
-448.909	-64.797	0.051	-0.021
-447.895	448.151	0.115	-0.251
-446.880	800.000	0.056	0.213
-445.865	-132.627	0.463	0.059
-444.851	64.570	-0.247	-0.248
-443.836	-28.240	-0.243	0.140
-442.822	298.863	0.141	-0.259
-441.807	-141.193	-0.106	-0.011
-440.792	-200.000	-0.039	0.230
-439.778	347.607	0.081	0.159
-438.763	-105.018	0.245	0.056
-437.749	-31.667	0.142	0.079
-436.734	493.619	0.064	0.146
-435.719	-200.000	-0.005	0.182
-434.705	-180.485	0.127	-0.003
-433.690	800.000	0.016	0.048
-432.676	325.860	0.198	-0.377
-431.661	-20.370	-0.323	0.198
-430.646	800.000	-0.104	0.341
-429.632	210.370	-0.120	-0.188
-428.617	387.971	-0.139	-0.287
-427.603	371.828	0.094	0.190
-426.588	62.671	-0.117	-0.117
-425.573	800.000	-0.044	-0.154
-424.559	-67.227	0.328	0.128
-423.544	21.979	-0.130	-0.106
-422.530	-200.000	0.003	-0.136
-421.515	-200.000	-0.004	-0.255
-420.500	94.475	-0.113	-0.127
-419.486	344.275	0.106	-0.206
-418.471	-163.537	-0.203	-0.010
-417.457	-92.356	-0.060	-0.017
-416.442	-21.668	0.036	0.022
-415.428	800.000	0.072	0.309
-414.413	6.782	-0.202	0.150
-413.398	-67.885	0.194	0.075
-412.384	-80.732	0.071	0.023
-411.369	2.864	-0.050	-0.036
-410.355	744.836	-0.021	-0.056
-409.340	-28.804	-0.214	-0.122
-408.325	800.000	0.094	-0.350
-407.311	-55.461	0.156	0.070
-406.296	-200.000	0.016	-0.152
-405.282	-200.000	-0.023	-0.139
-404.267	301.593	0.129	0.238
-403.252	147.702	0.122	0.163
-402.238	-200.000	0.005	0.120
-401.223	56.877	0.133	-0.129
-400.209	9.267	-0.089	-0.067
-399.194	-78.081	0.229	0.079
-398.179	40.794	0.173	0.155
-397.165	20.484	-0.173	0.140
-396.150	53.992	0.143	0.136
-395.136	-145.194	-0.363	0.033
-394.121	-146.564	-0.186	0.016
-393.106	128.741	-0.127	-0.161
-392.092	-15.262	0.009	0.006
-391.077	-101.533	-0.235	0.057
-390.063	-199.845	-0.286	-0.001
-389.048	-19.546	-0.038	0.023
-388.033	38.021	0.016	0.014
-387.019	-156.450	-0.163	-0.010
-386.004	-61.040	-0.152	-0.064
-384.990	-200.000	0.014	-0.207
-383.975	-82.304	0.198	-0.064
-382.960	-119.146	0.156	0.027
-381.946	-124.477	0.300	0.046
-380.931	-122.272	-0.348	-0.057
-379.917	330.516	-0.119	-0.227
-378.902	-104.411	-0.328	-0.075
-377.888	384.213	0.235	0.480
-376.873	20.559	-0.077	0.062
-375.858	-57.954	-0.282	0.123
-374.844	83.893	-0.186	0.201
-373.829	-12.480	-0.046	-0.030
-372.815	396.857	-0.084	0.174
-371.800	-0.293	-0.188	-0.133
-370.785	-65.120	-0.068	0.027
-369.771	-200.000	-0.018	0.388
-368.756	337.870	0.199	-0.384
-367.742	800.000	-0.064	-0.178
-366.727	-86.024	0.174	0.053
-365.712	159.335	0.162	0.224
-364.698	-4.200	-0.210	0.144
-363.683	-56.826	0.036	-0.016
-362.669	-200.000	-0.044	0.201
-361.654	251.334	0.149	0.252
-360.639	-86.866	0.136	0.041
-359.625	187.626	-0.241	0.358
-358.610	800.000	-0.127	0.401
-357.596	757.239	0.010	-0.027
-356.581	60.429	-0.166	0.163
-355.566	800.000	-0.111	-0.321
-354.552	-12.992	0.179	0.115
-353.537	50.947	0.109	0.102
-352.523	-141.468	0.136	-0.014
-351.508	-89.083	-0.233	0.068
-350.493	94.321	-0.239	0.269
-349.479	-5.368	-0.132	0.090
-348.464	34.616	0.027	0.024
-347.450	-200.000	0.156	0.000
-346.435	59.657	0.102	0.100
-345.420	534.803	-0.196	-0.462
-344.406	56.256	0.233	0.224
-343.391	91.799	-0.107	0.120
-342.377	-200.000	0.019	0.089
-341.362	364.978	0.142	0.283
-340.348	-150.307	0.061	-0.005
-339.333	-200.000	0.033	0.162
-338.318	33.031	0.134	-0.115
-337.304	-200.000	-0.004	0.215
-336.289	731.475	-0.046	-0.123
-335.275	-127.209	0.319	-0.046
-334.260	800.000	0.018	-0.055
-333.245	-200.000	0.003	-0.288
-332.231	-95.605	0.211	-0.056
-331.216	770.402	0.077	0.209
-330.202	800.000	-0.040	0.116
-329.187	-78.023	-0.188	0.064
-328.172	342.301	-0.052	0.102
-327.158	-200.000	0.027	0.171
-326.143	287.384	0.110	-0.198
-325.129	71.453	-0.248	-0.255
-324.114	-200.000	0.031	0.315
-323.099	-114.673	-0.328	0.062
-322.085	-53.736	0.121	-0.055
-321.070	800.000	0.100	0.327
-320.056	-9.485	0.060	0.040
-319.041	565.001	0.132	-0.317
-318.026	-200.000	-0.061	-0.341
-317.012	-200.000	0.009	-0.198
-315.997	-69.397	-0.420	0.160
-314.983	590.935	0.066	-0.161
-313.968	-200.000	-0.003	-0.085
-312.953	-76.707	0.449	0.156
-311.939	800.000	-0.116	0.355
-310.924	-158.885	-0.098	0.006
-309.910	144.403	0.124	-0.165
-308.895	-200.000	0.027	-0.210
-307.880	698.769	-0.055	-0.143
-306.866	-200.000	-0.028	0.357
-305.851	64.677	0.114	0.114
-304.837	-200.000	0.017	0.303
-303.822	4.185	0.147	0.107
-302.807	-200.000	-0.040	0.201
-301.793	12.151	0.301	0.229
-300.778	-28.707	0.100	-0.057
-299.764	-200.000	-0.020	-0.116
-298.749	800.000	-0.102	-0.435
-297.735	-18.607	0.143	-0.088
-296.720	-200.000	0.013	-0.098
-295.705	-200.000	-0.024	-0.336
-294.691	106.014	0.081	-0.095
-293.676	-147.201	0.138	0.012
-292.662	-141.177	0.166	0.017
-291.647	-19.942	-0.278	-0.170
-290.632	-200.000	0.047	0.339
-289.618	-0.780	0.094	0.066
-288.603	294.449	0.142	0.257
-287.589	129.406	0.269	0.340
-286.574	-10.072	0.036	0.024
-285.559	-169.444	-0.052	0.002
-284.545	136.065	0.216	-0.278
-283.530	-200.000	-0.012	-0.221
-282.516	385.148	-0.092	0.189
-281.501	-82.735	-0.328	-0.105
-280.486	346.835	0.066	0.129
-279.472	-95.166	0.321	0.086
-278.457	800.000	0.020	0.062
-277.443	-200.000	0.028	-0.222
-276.428	541.669	-0.132	-0.311
-275.413	-74.767	0.337	0.120
-274.399	-48.594	-0.508	0.242
-273.384	86.929	0.206	-0.225
-272.370	91.800	0.475	-0.529
-271.355	342.501	0.077	-0.149
-270.340	-136.377	-0.152	0.018
-269.326	123.768	0.096	0.119
-268.311	-135.606	-0.119	-0.014
-267.297	-134.407	0.247	0.030
-266.282	-3.167	0.123	0.085
-265.267	55.592	0.111	0.107
-264.253	-200.000	0.025	-0.259
-263.238	800.000	0.032	0.094
-262.224	-125.102	0.257	0.039
-261.209	739.257	0.105	-0.278
-260.195	98.890	-0.086	-0.098
-259.180	-200.000	0.033	-0.146
-258.165	208.269	0.114	0.176
-257.151	-140.844	-0.082	-0.008
-256.136	-13.445	-0.133	-0.086
-255.122	104.354	0.043	0.050
-254.107	799.907	0.062	0.168
-253.092	-200.000	-0.016	-0.150
-252.078	-200.000	0.035	-0.264
-251.063	211.724	0.087	0.136
-250.049	272.654	-0.131	-0.229
-249.034	87.978	-0.116	-0.127
-248.019	585.626	0.084	-0.204
-247.005	222.110	-0.152	-0.241
-245.990	-196.943	0.238	0.002
-244.976	-21.289	-0.051	0.031
-243.961	271.853	-0.032	-0.056
-242.946	505.508	0.044	0.101
-241.932	38.204	-0.169	0.149
-240.917	100.047	-0.106	0.121
-239.903	-32.536	0.401	0.221
-238.888	174.090	-0.219	-0.313
-237.873	-200.000	-0.005	-0.297
-236.859	449.343	0.180	-0.392
-235.844	178.321	-0.034	0.049
-234.830	-62.559	0.087	-0.036
-233.815	604.527	-0.048	0.117
-232.800	-76.810	0.194	0.067
-231.786	-200.000	-0.007	-0.170
-230.771	-64.971	-0.089	0.035
-229.757	565.006	0.074	-0.177
-228.742	-26.649	0.211	-0.122
-227.727	48.861	-0.221	0.205
-226.713	323.146	0.062	-0.117
-225.698	-200.000	-0.033	0.157
-224.684	210.281	0.072	0.111
-223.669	-52.848	-0.143	0.065
-222.655	245.548	0.225	-0.375
-221.640	-73.340	-0.108	-0.039
-220.625	-73.275	0.324	0.117
-219.611	6.527	-0.310	0.228
-218.596	-130.451	0.357	-0.048
-217.582	6.982	0.206	0.151
-216.567	150.297	-0.137	0.184
-215.552	14.880	0.224	0.173
-214.538	54.566	-0.194	0.185
-213.523	800.000	-0.074	-0.278
-212.509	-200.000	0.040	0.318
-211.494	543.998	-0.086	0.202
-210.479	-200.000	0.018	0.098
-209.465	19.764	-0.167	-0.133
-208.450	201.738	0.077	0.117
-207.436	-200.000	-0.022	-0.126
-206.421	-56.192	-0.058	0.025
-205.406	-98.929	-0.247	0.062
-204.392	142.199	0.175	-0.229
-203.377	85.974	0.072	-0.079
-202.363	-69.316	-0.170	0.064
-201.348	592.462	-0.128	-0.312
-200.333	102.544	-0.109	-0.126
-199.319	-12.304	0.123	-0.079
-198.304	77.650	0.226	0.238
-197.290	-158.562	-0.207	0.012
-196.275	124.488	0.130	0.161
-195.260	299.282	-0.047	-0.085
-194.246	-85.801	-0.217	-0.066
-193.231	69.101	0.175	0.177
-192.217	-163.521	0.281	0.013
-191.202	800.000	-0.045	-0.182
-190.187	106.611	0.038	0.044
-189.173	-2.316	0.306	-0.212
-188.158	-56.163	-0.016	0.007
-187.144	-200.000	-0.075	-0.386
-186.129	-112.208	0.271	-0.054
-185.114	-101.936	-0.411	0.098
-184.100	800.000	0.055	-0.231
-183.085	-96.402	-0.371	0.097
-182.071	800.000	-0.116	0.344
-181.056	119.460	-0.085	-0.104
-180.042	67.088	-0.174	0.175
-179.027	-83.506	-0.138	-0.043
-178.012	47.199	-0.176	-0.162
-176.998	-38.929	-0.204	-0.106
-175.983	12.145	0.225	-0.171
-174.969	800.000	0.038	0.144
-173.954	-200.000	-0.039	0.327
-172.939	17.384	0.357	0.280
-171.925	-200.000	0.018	0.144
-170.910	800.000	-0.079	0.313
-169.896	-200.000	0.010	0.294
-168.881	443.356	0.139	-0.300
-167.866	87.450	-0.124	0.135
-166.852	-196.964	-0.170	0.001
-165.837	229.289	-0.122	0.197
-164.823	-49.646	0.165	-0.078
-163.808	-101.839	-0.248	-0.059
-162.793	800.000	0.142	0.430
-161.779	-200.000	0.002	-0.117
-160.764	-112.230	-0.162	0.032
-159.750	-71.143	-0.176	-0.065
-158.735	154.599	0.162	0.220
-157.720	-86.257	-0.175	-0.053
-156.706	800.000	0.007	0.028
-155.691	800.000	-0.035	-0.109
-154.677	27.771	-0.128	-0.106
-153.662	689.597	0.049	0.127
-152.647	128.083	-0.149	-0.187
-151.633	234.060	0.101	0.164
-150.618	800.000	0.044	0.119
-149.604	56.721	-0.088	-0.085
-148.589	-46.189	-0.260	0.126
-147.574	114.370	0.214	0.257
-146.560	265.020	0.097	0.166
-145.545	175.429	-0.191	0.273
-144.531	48.301	0.201	0.185
-143.516	-118.486	-0.237	-0.041
-142.502	-200.000	-0.016	0.222
-141.487	-97.696	0.163	-0.042
-140.472	-200.000	0.002	-0.079
-139.458	164.342	-0.133	-0.184
-138.443	800.000	0.059	0.214
-137.429	208.335	0.061	0.094
-136.414	800.000	0.012	-0.035
-135.399	304.493	-0.079	-0.145
-134.385	800.000	-0.111	0.406
-133.370	409.641	0.053	0.111
-132.356	238.890	0.102	0.166
-131.341	7.626	0.150	0.110
-130.326	-200.000	0.029	-0.207
-129.312	167.385	0.216	-0.302
-128.297	36.371	0.224	-0.195
-127.283	7.744	-0.058	-0.043
-126.268	800.000	-0.058	0.166
-125.253	800.000	0.060	0.194
-124.239	167.099	-0.144	0.201
-123.224	-200.000	0.058	-0.261
-122.210	685.489	-0.064	-0.165
-121.195	157.365	0.227	-0.309
-120.180	-119.358	0.152	-0.026
