DTS Sentinel unit serial number:	SN413079Multiplexer serial number:	ORYXHardware model number:	OX4-SRSoftware version number:	ORYX F/W v4.00 Oryx Data Collector v3.7.2.0data status	okinstallation	princeton_trtdifferential loss correction	single-endedforward channel	channel 3reverse channel	N/Adate	2019/09/17time	18:36:35forward acquisition time	60.00reverse acquisition time	0.00gamma	496.2192k internal	0.2289k external	0.2289temperature offset calibration	0.9955default loss term (dB/km)	0.3790temperature slope calibration	1.0000multiplexer offset coefficient	1.0000multiplexer slope coefficient	1.0000fibre end	0.00T internal ref (°C)	42.75T ext. ref 1 (°C)	0.29T ext. ref 2 (°C)	35.37length (m)	temperature (°C)	Stokes	anti-Stokes-747.200	80.804	0.108	-0.120
-746.185	322.422	-0.106	-0.208
-745.171	505.905	-0.060	-0.143
-744.156	-200.000	-0.033	0.412
-743.142	-33.244	0.125	-0.071
-742.127	40.275	-0.057	-0.053
-741.112	-200.000	0.029	-0.187
-740.098	15.557	-0.290	0.233
-739.083	-112.833	-0.135	-0.027
-738.069	-54.051	-0.157	-0.073
-737.054	545.215	0.058	-0.142
-736.039	-200.000	-0.012	-0.110
-735.025	355.942	0.248	0.507
-734.010	800.000	-0.090	-0.283
-732.996	501.307	-0.170	0.402
-731.981	272.810	-0.083	0.150
-730.966	800.000	0.072	0.217
-729.952	-200.000	-0.027	-0.254
-728.937	399.420	-0.088	-0.188
-727.923	32.867	-0.276	0.245
-726.908	-5.005	0.060	0.042
-725.894	-200.000	-0.010	0.240
-724.879	328.871	-0.063	-0.124
-723.864	-200.000	-0.031	-0.418
-722.850	-142.610	0.169	-0.017
-721.835	-68.181	0.281	-0.112
-720.821	208.110	0.140	-0.224
-719.806	-200.000	0.042	-0.388
-718.791	17.465	0.330	0.268
-717.777	17.528	0.039	0.032
-716.762	-96.801	-0.186	0.050
-715.748	234.294	0.082	-0.139
-714.733	102.619	-0.258	0.309
-713.718	-24.151	-0.200	-0.123
-712.704	272.503	0.138	-0.249
-711.689	-90.860	-0.054	-0.016
-710.675	396.019	-0.057	-0.122
-709.660	800.000	0.025	0.084
-708.645	-200.000	0.063	0.352
-707.631	-119.449	-0.174	0.031
-706.616	-136.599	-0.325	0.038
-705.602	800.000	-0.033	-0.129
-704.587	258.914	-0.114	-0.201
-703.572	-124.410	0.179	0.029
-702.558	30.864	-0.063	-0.055
-701.543	103.124	-0.058	-0.070
-700.529	-200.000	-0.032	0.196
-699.514	110.804	0.236	0.291
-698.499	34.948	0.125	0.112
-697.485	32.927	-0.071	-0.063
-696.470	800.000	0.066	0.245
-695.456	-129.607	-0.287	-0.041
-694.441	-111.563	-0.232	0.048
-693.426	800.000	0.066	0.264
-692.412	63.077	-0.275	-0.282
-691.397	-78.369	-0.251	-0.088
-690.383	-200.000	0.027	-0.178
-689.368	56.216	0.117	-0.116
-688.354	-138.650	-0.188	-0.021
-687.339	40.552	0.186	-0.171
-686.324	-200.000	-0.029	-0.159
-685.310	151.338	0.041	-0.057
-684.295	105.071	-0.245	-0.295
-683.281	18.057	-0.146	0.119
-682.266	390.867	0.047	0.099
-681.251	-200.000	-0.011	0.233
-680.237	-200.000	0.026	0.340
-679.222	-63.840	-0.309	0.129
-678.208	-37.528	-0.279	0.152
-677.193	800.000	0.048	-0.210
-676.178	272.759	0.128	0.232
-675.164	800.000	-0.071	-0.203
-674.149	800.000	0.103	-0.397
-673.135	24.657	-0.115	-0.097
-672.120	221.798	-0.072	0.119
-671.105	126.023	-0.235	-0.304
-670.091	182.949	-0.069	-0.105
-669.076	534.182	0.079	-0.192
-668.062	204.067	-0.270	-0.427
-667.047	-109.757	0.093	0.020
-666.032	-0.335	0.185	-0.134
-665.018	-71.467	-0.082	0.031
-664.003	800.000	-0.018	0.059
-662.989	-128.018	0.320	0.047
-661.974	185.427	0.016	0.024
-660.959	247.775	-0.133	-0.229
-659.945	-185.348	-0.140	-0.002
-658.930	800.000	-0.064	0.201
-657.916	-200.000	0.018	0.185
-656.901	-74.554	0.159	0.059
-655.886	-92.144	-0.463	0.134
-654.872	384.214	-0.036	-0.075
-653.857	-105.090	0.452	0.106
-652.843	65.562	-0.199	-0.206
-651.828	-153.172	-0.172	-0.012
-650.814	-42.169	-0.161	0.084
-649.799	800.000	-0.020	-0.088
-648.784	79.279	-0.160	0.175
-647.770	-200.000	0.005	-0.044
-646.755	183.178	-0.285	-0.429
-645.741	-113.131	0.262	-0.053
-644.726	163.422	-0.128	-0.184
-643.711	24.915	0.091	0.077
-642.697	14.906	0.016	-0.012
-641.682	-200.000	-0.024	0.301
-640.668	-74.366	-0.317	-0.117
-639.653	88.037	0.133	0.150
-638.638	2.532	-0.222	-0.164
-637.624	-200.000	-0.026	-0.131
-636.609	-31.276	0.331	-0.190
-635.595	366.283	0.098	0.201
-634.580	800.000	0.083	-0.261
-633.565	-200.000	-0.068	-0.358
-632.551	-200.000	-0.005	-0.169
-631.536	169.536	0.222	0.324
-630.522	159.040	0.141	0.200
-629.507	167.994	0.068	0.099
-628.492	-200.000	-0.005	0.163
-627.478	80.691	-0.025	0.028
-626.463	-200.000	0.008	-0.367
-625.449	-108.579	-0.193	-0.042
-624.434	30.632	0.031	0.027
-623.419	-200.000	0.001	-0.112
-622.405	74.828	-0.147	0.157
-621.390	800.000	-0.079	0.288
-620.376	132.340	-0.199	0.261
-619.361	-119.948	-0.388	0.068
-618.346	-150.212	0.158	-0.012
-617.332	800.000	-0.038	-0.133
-616.317	105.351	0.117	-0.141
-615.303	146.780	-0.137	-0.188
-614.288	-200.000	-0.069	-0.611
-613.273	-63.365	-0.148	0.062
-612.259	-3.641	-0.068	-0.048
-611.244	-200.000	-0.044	-0.297
-610.230	-89.466	0.026	0.008
-609.215	136.153	-0.205	-0.273
-608.201	67.047	-0.167	-0.174
-607.186	-71.678	-0.465	0.177
-606.171	-27.387	0.107	-0.063
-605.157	-102.828	0.217	-0.053
-604.142	456.301	-0.195	-0.442
-603.128	-60.925	-0.163	-0.070
-602.113	-200.000	-0.014	0.274
-601.098	422.650	-0.044	-0.096
-600.084	43.827	0.221	-0.206
-599.069	448.354	-0.032	0.071
-598.055	-11.865	-0.086	0.058
-597.040	202.712	-0.043	-0.068
-596.025	-9.287	-0.304	0.207
-595.011	-152.043	0.246	-0.018
-593.996	-200.000	0.003	0.052
-592.982	29.485	0.171	0.148
-591.967	-156.572	-0.052	0.003
-590.952	69.062	-0.285	-0.298
-589.938	-200.000	-0.006	0.072
-588.923	800.000	-0.070	-0.260
-587.909	152.754	0.073	-0.101
-586.894	88.103	0.297	0.335
-585.879	-157.438	0.286	0.018
-584.865	31.243	0.095	-0.083
-583.850	-200.000	-0.005	0.178
-582.836	-140.910	-0.478	0.050
-581.821	127.415	0.084	0.108
-580.806	-200.000	-0.003	0.026
-579.792	49.895	-0.064	0.061
-578.777	238.168	-0.049	-0.082
-577.763	-108.468	0.130	0.029
-576.748	-200.000	-0.020	0.207
-575.733	430.240	-0.109	-0.241
-574.719	-200.000	-0.014	0.073
-573.704	-149.540	0.031	-0.003
-572.690	-106.315	-0.064	-0.015
-571.675	741.775	0.105	0.287
-570.661	-81.926	-0.080	0.027
-569.646	94.204	-0.081	-0.094
-568.631	-87.137	-0.466	-0.144
-567.617	26.506	0.171	-0.146
-566.602	-200.000	0.073	-0.347
-565.588	-99.962	-0.070	-0.018
-564.573	-37.107	0.252	0.137
-563.558	-55.348	-0.017	0.008
-562.544	800.000	-0.080	-0.314
-561.529	78.064	-0.133	-0.145
-560.515	800.000	-0.057	0.230
-559.500	-112.665	-0.221	-0.045
-558.485	101.427	0.081	0.096
-557.471	-200.000	-0.052	0.235
-556.456	63.314	0.149	0.152
-555.442	-34.049	0.206	0.115
-554.427	325.524	0.184	0.359
-553.412	-91.579	0.426	-0.123
-552.398	29.873	-0.287	-0.249
-551.383	145.279	0.054	0.074
-550.369	800.000	0.064	-0.209
-549.354	-126.596	0.062	-0.009
-548.339	-200.000	0.007	-0.138
-547.325	-200.000	0.004	-0.055
-546.310	27.390	-0.344	-0.294
-545.296	545.052	0.181	-0.440
-544.281	800.000	0.099	-0.349
-543.266	-142.779	-0.261	0.026
-542.252	800.000	-0.119	0.429
-541.237	-77.266	-0.271	0.096
-540.223	-85.432	0.194	0.061
-539.208	276.514	-0.071	0.127
-538.193	-200.000	0.042	-0.318
-537.179	182.700	0.035	0.052
-536.164	-81.109	0.295	-0.099
-535.150	800.000	0.053	0.208
-534.135	-200.000	0.004	0.530
-533.121	10.100	-0.280	-0.216
-532.106	-200.000	0.031	0.209
-531.091	94.474	-0.054	-0.062
-530.077	-69.922	0.212	0.082
-529.062	474.699	-0.093	0.212
-528.048	-200.000	-0.012	0.146
-527.033	-200.000	-0.011	-0.087
-526.018	-45.583	-0.199	-0.100
-525.004	-68.465	-0.148	-0.058
-523.989	800.000	-0.051	0.163
-522.975	-200.000	-0.039	0.281
-521.960	-36.649	0.219	-0.120
-520.945	234.462	-0.089	0.149
-519.931	-200.000	-0.054	0.244
-518.916	-137.835	0.183	-0.021
-517.902	-16.090	-0.078	0.050
-516.887	-200.000	-0.027	-0.434
-515.872	-58.394	-0.114	0.050
-514.858	-97.617	0.164	-0.043
-513.843	-45.966	-0.228	0.114
-512.829	489.011	0.067	-0.157
-511.814	13.809	0.120	-0.095
-510.799	-200.000	-0.023	0.124
-509.785	-57.313	0.377	0.168
-508.770	-108.730	0.267	0.058
-507.756	-200.000	0.002	0.055
-506.741	-55.905	0.239	-0.108
-505.726	-57.961	-0.236	0.105
-504.712	2.675	0.199	0.147
-503.697	46.129	-0.200	-0.188
-502.683	19.785	0.208	0.170
-501.668	37.148	0.203	0.182
-500.653	-160.021	0.298	-0.016
-499.639	-200.000	0.562	-0.002
-498.624	-121.053	-0.205	0.035
-497.610	-132.938	0.064	-0.008
-496.595	-200.000	-0.065	0.296
-495.581	800.000	0.150	0.424
-494.566	-200.000	-0.076	0.415
-493.551	800.000	0.074	-0.311
-492.537	-200.000	0.029	0.144
-491.522	-89.261	0.062	0.018
-490.508	-55.239	0.056	0.025
-489.493	-30.491	0.090	-0.052
-488.478	-19.971	-0.219	0.137
-487.464	800.000	0.050	-0.157
-486.449	-123.379	0.147	0.024
-485.435	-200.000	0.004	-0.038
-484.420	800.000	0.045	0.167
-483.405	219.766	0.133	0.216
-482.391	-9.703	0.081	0.055
-481.376	-136.312	-0.160	0.019
-480.362	-16.851	0.276	-0.177
-479.347	37.011	0.150	0.135
-478.332	-160.207	-0.257	0.014
-477.318	121.018	-0.047	0.059
-476.303	341.726	-0.036	-0.071
-475.289	142.067	-0.045	-0.061
-474.274	785.957	-0.095	-0.265
-473.259	45.835	0.094	-0.088
-472.245	126.889	-0.363	-0.466
-471.230	800.000	0.021	-0.061
-470.216	-156.213	-0.124	0.008
-469.201	-10.931	-0.283	0.190
-468.186	800.000	-0.051	0.185
-467.172	-200.000	-0.003	0.066
-466.157	79.597	0.220	0.240
-465.143	-200.000	0.031	-0.281
-464.128	-46.627	-0.189	0.094
-463.113	800.000	0.058	0.208
-462.099	800.000	-0.113	-0.343
-461.084	-34.114	0.281	-0.157
-460.070	-200.000	-0.039	0.264
-459.055	-200.000	0.025	-0.113
-458.040	-175.541	0.404	-0.011
-457.026	-67.565	0.230	0.091
-456.011	366.334	0.128	0.261
-454.997	-126.882	0.326	0.049
-453.982	191.115	0.230	-0.351
-452.968	32.009	-0.225	-0.196
-451.953	370.215	0.033	-0.068
-450.938	-95.619	-0.132	-0.036
-449.924	682.634	-0.124	0.326
-448.909	-24.067	0.155	0.094
-447.895	-24.978	-0.038	0.023
-446.880	336.385	0.075	0.147
-445.865	800.000	0.082	-0.247
-444.851	800.000	-0.052	0.152
-443.836	190.908	-0.212	-0.324
-442.822	-200.000	0.032	-0.197
-441.807	-60.477	0.083	0.036
-440.792	107.866	0.128	-0.155
-439.778	186.098	-0.124	-0.187
-438.763	-200.000	-0.033	-0.147
-437.749	-200.000	0.022	0.210
-436.734	800.000	-0.038	0.118
-435.719	-200.000	0.054	0.503
-434.705	-200.000	0.032	-0.211
-433.690	800.000	0.120	0.357
-432.676	413.142	0.075	0.161
-431.661	-107.650	-0.188	-0.042
-430.646	758.849	0.015	-0.041
-429.632	-35.012	0.283	0.156
-428.617	-116.082	-0.439	0.083
-427.603	-200.000	-0.057	0.369
-426.588	332.567	-0.183	0.358
-425.573	800.000	0.045	-0.127
-424.559	800.000	-0.087	0.293
-423.544	-20.810	-0.177	0.110
-422.530	-101.761	-0.240	-0.059
-421.515	69.227	-0.271	-0.282
-420.500	800.000	0.076	-0.289
-419.486	-200.000	0.011	0.095
-418.471	-122.094	-0.114	0.019
-417.457	-167.605	0.152	0.006
-416.442	-200.000	-0.023	0.187
-415.428	86.877	-0.171	0.191
-414.413	-71.740	-0.371	0.140
-413.398	-59.598	-0.265	0.115
-412.384	-200.000	0.038	-0.214
-411.369	-135.663	-0.548	-0.066
-410.355	-161.060	0.050	-0.003
-409.340	706.583	-0.076	0.204
-408.325	-200.000	-0.009	0.365
-407.311	167.466	0.046	0.066
-406.296	43.422	-0.300	-0.277
-405.282	334.591	-0.062	-0.121
-404.267	-200.000	-0.015	0.075
-403.252	-91.323	0.284	0.082
-402.238	800.000	-0.050	-0.161
-401.223	17.657	-0.051	-0.041
-400.209	-200.000	0.009	-0.088
-399.194	-173.421	-0.258	0.008
-398.179	800.000	0.034	0.147
-397.165	30.897	0.257	-0.223
-396.150	280.468	-0.088	0.160
-395.136	-200.000	0.036	0.237
-394.121	-154.293	0.163	-0.011
-393.106	800.000	-0.026	0.079
-392.092	119.801	0.228	0.286
-391.077	-17.177	0.114	-0.073
-390.063	-16.212	0.169	-0.108
-389.048	-200.000	-0.052	0.334
-388.033	-32.166	-0.249	0.141
-387.019	-109.968	0.286	0.060
-386.004	-79.303	0.194	0.066
-384.990	13.648	0.251	0.197
-383.975	40.351	0.188	-0.171
-382.960	120.498	-0.215	-0.270
-381.946	-89.820	0.312	0.092
-380.931	-112.017	0.079	-0.016
-379.917	-33.755	-0.054	0.030
-378.902	-26.215	-0.057	-0.034
-377.888	70.148	-0.038	0.040
-376.873	7.693	0.030	0.023
-375.858	130.753	0.202	-0.261
-374.844	-112.603	-0.476	-0.096
-373.829	-125.476	0.344	0.053
-372.815	-200.000	-0.029	-0.190
-371.800	656.717	-0.101	0.263
-370.785	-64.120	0.276	0.114
-369.771	-30.558	0.430	0.246
-368.756	-114.424	-0.054	0.011
-367.742	12.522	-0.207	-0.162
-366.727	-121.767	0.277	0.046
-365.712	-126.727	-0.171	0.026
-364.698	-200.000	-0.007	0.264
-363.683	314.876	0.183	0.349
-362.669	-73.659	-0.270	0.099
-361.654	-200.000	-0.043	0.305
-360.639	800.000	-0.057	-0.232
-359.625	-200.000	0.049	0.263
-358.610	-200.000	0.008	0.059
-357.596	167.514	-0.114	0.163
-356.581	-94.920	0.225	-0.062
-355.566	-34.205	0.162	-0.090
-354.552	-200.000	0.003	-0.213
-353.537	600.875	-0.184	-0.462
-352.523	79.814	0.190	0.206
-351.508	800.000	0.040	0.173
-350.493	-48.815	-0.160	0.077
-349.479	-91.035	-0.480	-0.139
-348.464	-135.452	0.221	-0.027
-347.450	-130.388	0.208	-0.028
-346.435	-66.370	-0.241	0.097
-345.420	-45.999	-0.490	0.244
-344.406	568.545	0.109	0.267
-343.391	95.162	0.311	-0.357
-342.377	261.901	-0.138	0.242
-341.362	-200.000	-0.004	0.048
-340.348	-200.000	-0.012	-0.136
-339.333	645.414	0.054	0.138
-338.318	0.303	-0.136	-0.098
-337.304	-109.735	-0.180	0.038
-336.289	339.079	0.035	-0.069
-335.275	13.769	-0.077	-0.061
-334.260	671.162	0.099	0.258
-333.245	110.519	-0.100	-0.121
-332.231	800.000	-0.074	0.209
-331.216	-183.002	0.122	-0.002
-330.202	421.161	-0.100	-0.215
-329.187	284.632	-0.190	0.345
-328.172	-129.987	0.143	0.020
-327.158	-200.000	-0.001	0.107
-326.143	621.787	0.056	-0.142
-325.129	119.498	-0.128	0.160
-324.114	122.139	-0.269	0.339
-323.099	-200.000	0.049	0.506
-322.085	-8.769	0.115	0.078
-321.070	14.058	0.057	-0.045
-320.056	-144.502	-0.217	0.020
-319.041	-109.214	-0.236	-0.050
-318.026	-119.408	-0.255	-0.045
-317.012	-66.372	-0.284	-0.114
-315.997	-200.000	0.044	0.198
-314.983	385.826	0.111	-0.231
-313.968	449.299	-0.205	-0.456
-312.953	-5.750	-0.379	-0.262
-311.939	408.557	-0.082	0.175
-310.924	-6.159	0.190	-0.131
-309.910	-166.757	-0.396	-0.016
-308.895	32.013	0.058	-0.050
-307.880	-173.638	0.257	0.008
-306.866	-200.000	-0.032	-0.207
-305.851	79.617	0.102	-0.110
-304.837	292.697	-0.070	0.129
-303.822	540.397	0.022	-0.053
-302.807	-200.000	0.036	-0.324
-301.793	284.794	-0.180	-0.326
-300.778	174.582	0.112	0.163
-299.764	-114.637	0.115	-0.022
-298.749	-65.742	0.070	-0.028
-297.735	-115.434	0.309	0.059
-296.720	-2.326	0.394	0.279
-295.705	800.000	0.075	-0.245
-294.691	-5.013	0.090	0.062
-293.676	313.482	-0.109	0.207
-292.662	753.075	0.004	0.011
-291.647	800.000	-0.041	-0.154
-290.632	95.404	0.261	0.300
-289.618	27.144	0.060	0.051
-288.603	-105.171	-0.134	-0.031
-287.589	-15.567	-0.241	0.155
-286.574	-200.000	-0.010	-0.084
-285.559	-79.088	0.055	-0.019
-284.545	-99.225	-0.141	0.036
-283.530	-82.654	0.189	0.062
-282.516	371.426	0.123	0.251
-281.501	348.838	-0.022	-0.044
-280.486	800.000	-0.046	-0.194
-279.472	688.353	-0.078	-0.206
-278.457	-66.450	0.551	-0.220
-277.443	-35.928	0.267	0.145
-276.428	-200.000	-0.017	0.256
-275.413	-126.594	0.283	-0.042
-274.399	378.794	0.110	0.226
-273.384	99.656	0.211	0.245
-272.370	432.456	0.114	0.249
-271.355	-81.434	0.232	-0.077
-270.340	80.401	-0.114	0.124
-269.326	-131.748	0.385	-0.051
-268.311	800.000	-0.076	-0.232
-267.297	135.123	-0.215	-0.282
-266.282	-10.476	0.267	-0.178
-265.267	213.452	0.064	-0.102
-264.253	258.194	-0.181	-0.314
-263.238	258.678	0.080	0.139
-262.224	-0.165	0.397	0.284
-261.209	-168.717	-0.086	0.003
-260.195	-120.879	0.356	0.060
-259.180	299.607	0.164	-0.304
-258.165	-200.000	0.020	-0.316
-257.151	189.042	0.057	-0.087
-256.136	-200.000	0.003	-0.381
-255.122	31.056	-0.137	-0.118
-254.107	245.755	0.085	-0.144
-253.092	-157.229	-0.346	0.021
-252.078	293.321	-0.122	-0.224
-251.063	259.752	-0.083	0.144
-250.049	-200.000	0.008	-0.231
-249.034	111.925	-0.082	0.099
-248.019	-148.207	-0.291	-0.024
-247.005	-57.279	-0.203	0.090
-245.990	39.493	-0.147	0.132
-244.976	-200.000	-0.033	-0.278
-243.961	85.903	0.089	0.098
-242.946	334.515	-0.108	-0.211
-241.932	800.000	-0.131	-0.467
-240.917	190.244	-0.110	-0.166
-239.903	-81.779	-0.236	-0.078
-238.888	-57.332	-0.239	-0.106
-237.873	-83.937	0.381	0.122
-236.859	107.691	-0.149	0.178
-235.844	-39.767	0.170	-0.089
-234.830	-14.799	0.186	-0.120
-233.815	800.000	-0.076	-0.257
-232.800	3.759	0.140	0.103
-231.786	800.000	0.013	0.040
-230.771	-200.000	-0.055	0.285
-229.757	95.922	0.125	-0.143
-228.742	48.067	0.096	-0.090
-227.727	31.995	-0.219	0.190
-226.713	-5.946	-0.179	0.123
-225.698	302.646	-0.188	0.349
-224.684	800.000	-0.056	0.195
-223.669	-118.131	0.286	-0.051
-222.655	-129.587	0.280	0.039
-221.640	-200.000	-0.103	0.528
-220.625	642.329	0.092	-0.236
-219.611	547.622	-0.155	-0.374
-218.596	42.401	0.207	-0.189
-217.582	79.024	0.207	-0.222
-216.567	-13.734	0.239	0.155
-215.552	-145.067	0.138	-0.013
-214.538	800.000	0.072	-0.249
-213.523	-77.128	0.049	-0.017
-212.509	-57.006	-0.267	-0.118
-211.494	-200.000	-0.048	-0.361
-210.479	-200.000	0.033	-0.343
-209.465	-73.629	0.137	0.050
-208.450	130.840	-0.078	0.100
-207.436	446.207	-0.045	0.100
-206.421	-200.000	-0.033	0.174
-205.406	129.947	-0.171	-0.220
-204.392	-200.000	-0.009	-0.261
-203.377	-15.993	-0.317	-0.202
-202.363	-87.397	0.275	-0.084
-201.348	114.696	-0.092	-0.113
-200.333	800.000	0.065	0.213
-199.319	-165.072	-0.284	0.013
-198.304	-116.538	-0.503	-0.093
-197.290	-200.000	-0.006	0.106
-196.275	-165.670	0.485	-0.021
-195.260	-142.642	-0.168	-0.016
-194.246	-200.000	0.019	0.095
-193.231	-200.000	0.033	0.167
-192.217	345.625	0.058	-0.114
-191.202	302.381	-0.048	-0.089
-190.187	-73.060	-0.100	0.037
-189.173	215.960	-0.114	0.182
-188.158	-110.593	0.018	-0.004
-187.144	377.301	0.085	0.175
-186.129	15.301	-0.119	-0.094
-185.114	-2.845	-0.123	-0.086
-184.100	-118.332	0.276	-0.049
-183.085	393.107	0.098	-0.204
-182.071	173.713	0.027	-0.039
-181.056	-39.604	-0.177	-0.093
-180.042	-149.368	-0.100	-0.008
-179.027	-69.817	-0.204	0.078
-178.012	800.000	0.102	0.323
-176.998	240.968	0.038	0.063
-175.983	-94.649	-0.305	0.083
-174.969	-96.400	0.120	0.032
-173.954	-154.661	0.350	0.023
-172.939	24.792	-0.151	-0.125
-171.925	503.158	-0.045	-0.104
-170.910	-121.735	-0.114	-0.019
-169.896	-12.006	0.247	-0.162
-168.881	-200.000	0.020	-0.389
-167.866	155.000	0.223	-0.307
-166.852	-200.000	-0.019	-0.448
-165.837	800.000	0.116	0.367
-164.823	27.253	-0.136	-0.115
-163.808	14.778	-0.171	0.134
-162.793	800.000	0.022	-0.090
-161.779	160.405	-0.059	0.083
-160.764	-10.876	-0.289	0.191
-159.750	-200.000	0.003	0.029
-158.735	-42.280	0.098	0.050
-157.720	2.916	-0.231	-0.168
-156.706	-115.573	0.398	0.075
-155.691	-197.002	0.204	-0.001
-154.677	-165.144	0.339	0.015
-153.662	800.000	-0.095	0.270
-152.647	250.507	0.068	-0.116
-151.633	-64.052	0.200	0.082
-150.618	277.263	0.108	0.192
-149.604	-30.945	0.145	0.082
-148.589	-200.000	-0.024	-0.309
-147.574	755.519	0.146	-0.397
-146.560	-200.000	0.016	0.270
-145.545	-200.000	-0.057	-0.422
-144.531	800.000	0.026	-0.111
-143.516	-154.564	0.178	-0.012
-142.502	185.384	0.162	0.242
-141.487	-109.693	-0.278	-0.059
-140.472	-24.091	0.281	0.168
-139.458	-131.188	0.274	-0.037
-138.443	-200.000	0.013	-0.103
-137.429	6.467	0.225	-0.168
-136.414	-34.872	0.226	0.123
-135.399	8.087	0.214	0.161
-134.385	461.130	0.071	-0.159
-133.370	82.081	0.063	-0.068
-132.356	-162.396	0.304	-0.015
-131.341	80.384	0.150	0.161
-130.326	82.143	0.254	0.276
-129.312	67.613	0.194	0.199
-128.297	-200.000	0.024	0.114
-127.283	75.622	-0.063	-0.066
-126.268	-1.422	-0.082	0.058
-125.253	-113.430	0.151	-0.030
-124.239	-5.795	-0.244	0.167
-123.224	800.000	-0.071	0.246
-122.210	-111.810	0.228	0.046
