DTS Sentinel unit serial number:	SN413079Multiplexer serial number:	ORYXHardware model number:	OX4-SRSoftware version number:	ORYX F/W v4.00 Oryx Data Collector v3.7.2.0data status	okinstallation	princeton_trtdifferential loss correction	single-endedforward channel	channel 3reverse channel	N/Adate	2019/09/18time	12:40:35forward acquisition time	60.00reverse acquisition time	0.00gamma	496.2192k internal	0.2317k external	0.2317temperature offset calibration	0.9964default loss term (dB/km)	0.3790temperature slope calibration	1.0000multiplexer offset coefficient	1.0000multiplexer slope coefficient	1.0000fibre end	0.00T internal ref (°C)	32.69T ext. ref 1 (°C)	0.54T ext. ref 2 (°C)	31.31length (m)	temperature (°C)	Stokes	anti-Stokes-747.200	-126.859	-0.175	0.026
-746.185	24.508	0.092	0.077
-745.171	-61.615	0.188	-0.080
-744.156	-126.223	-0.338	0.051
-743.142	208.695	0.174	0.275
-742.127	251.327	-0.112	-0.193
-741.112	-162.787	-0.154	0.008
-740.098	-200.000	-0.038	0.267
-739.083	-200.000	0.011	0.094
-738.069	114.696	-0.028	0.035
-737.054	-14.161	-0.234	-0.153
-736.039	-200.000	0.026	0.144
-735.025	560.902	0.087	0.213
-734.010	17.326	0.062	0.050
-732.996	-94.845	-0.276	0.076
-731.981	691.553	-0.100	0.265
-730.966	290.419	0.026	0.048
-729.952	-200.000	-0.013	-0.061
-728.937	-200.000	-0.023	-0.127
-727.923	-28.666	-0.129	0.075
-726.908	397.322	0.168	0.355
-725.894	-189.002	-0.121	0.001
-724.879	185.354	-0.060	-0.090
-723.864	-117.762	-0.426	0.077
-722.850	-37.087	0.081	-0.044
-721.835	-119.637	-0.674	-0.118
-720.821	-50.185	-0.074	-0.036
-719.806	-156.651	-0.130	-0.008
-718.791	94.215	-0.078	0.090
-717.777	113.529	-0.228	0.280
-716.762	239.244	-0.085	0.143
-715.748	-115.620	-0.105	0.020
-714.733	-200.000	0.012	-0.175
-713.718	34.473	-0.131	-0.116
-712.704	-6.421	0.112	-0.077
-711.689	800.000	-0.101	-0.435
-710.675	-140.714	-0.171	0.018
-709.660	63.311	0.142	-0.144
-708.645	-185.169	0.088	0.001
-707.631	63.694	0.165	-0.168
-706.616	-137.594	-0.328	-0.037
-705.602	34.317	0.185	-0.163
-704.587	-200.000	-0.021	-0.361
-703.572	800.000	0.074	0.213
-702.558	98.949	-0.082	-0.095
-701.543	-149.916	0.073	0.006
-700.529	150.303	0.158	-0.216
-699.514	-122.121	0.303	-0.050
-698.499	-129.002	-0.159	0.022
-697.485	87.449	-0.099	0.110
-696.470	28.055	0.098	0.083
-695.456	-73.307	-0.060	-0.022
-694.441	-62.069	0.203	-0.086
-693.426	-136.506	0.271	-0.032
-692.412	61.233	0.079	-0.079
-691.397	-79.639	0.370	0.126
-690.383	-200.000	-0.034	0.305
-689.368	58.223	-0.327	-0.324
-688.354	-135.303	0.225	0.027
-687.339	-74.260	-0.135	-0.049
-686.324	-87.326	0.417	-0.128
-685.310	247.810	0.078	-0.134
-684.295	800.000	0.059	0.228
-683.281	-200.000	-0.002	-0.062
-682.266	200.344	0.208	-0.323
-681.251	-200.000	-0.042	0.314
-680.237	231.900	0.095	-0.157
-679.222	-200.000	-0.033	-0.328
-678.208	67.626	0.094	-0.097
-677.193	134.121	-0.230	0.301
-676.178	-200.000	0.042	-0.393
-675.164	197.426	-0.065	0.100
-674.149	800.000	-0.059	-0.167
-673.135	68.574	-0.219	0.227
-672.120	-139.102	-0.042	-0.005
-671.105	96.786	-0.121	0.140
-670.091	-200.000	0.026	0.340
-669.076	87.885	-0.281	0.315
-668.062	-141.221	0.291	0.030
-667.047	-115.724	0.231	0.044
-666.032	186.168	-0.125	-0.188
-665.018	115.228	0.171	-0.211
-664.003	-200.000	-0.062	-0.300
-662.989	419.436	0.028	0.061
-661.974	-200.000	0.029	0.208
-660.959	47.534	0.277	0.261
-659.945	-74.503	0.139	0.051
-658.930	800.000	-0.081	-0.299
-657.916	266.483	-0.069	0.121
-656.901	-141.466	-0.236	-0.024
-655.886	33.339	0.092	0.081
-654.872	800.000	-0.062	-0.248
-653.857	800.000	0.030	-0.095
-652.843	-124.527	-0.259	-0.041
-651.828	-32.323	-0.235	0.132
-650.814	-15.221	-0.117	0.075
-649.799	43.861	0.117	0.109
-648.784	408.903	0.022	-0.048
-647.770	-51.632	0.081	-0.038
-646.755	-23.183	0.062	-0.038
-645.741	800.000	-0.048	-0.163
-644.726	-47.398	-0.223	-0.109
-643.711	-69.906	-0.282	0.109
-642.697	147.971	-0.036	-0.049
-641.682	89.257	-0.333	-0.375
-640.668	-117.003	-0.138	0.025
-639.653	-200.000	-0.034	-0.332
-638.638	9.930	0.064	-0.049
-637.624	100.906	0.134	-0.157
-636.609	-200.000	0.026	0.228
-635.595	-42.374	0.134	0.069
-634.580	179.906	-0.130	-0.193
-633.565	800.000	-0.069	-0.273
-632.551	173.323	-0.085	0.123
-631.536	34.804	-0.089	-0.078
-630.522	45.191	-0.206	-0.192
-629.507	-200.000	0.024	-0.110
-628.492	122.625	-0.092	-0.115
-627.478	-5.458	-0.268	-0.186
-626.463	652.534	0.074	-0.192
-625.449	800.000	0.026	-0.103
-624.434	132.465	-0.117	-0.153
-623.419	-200.000	-0.034	0.271
-622.405	-200.000	0.048	-0.536
-621.390	12.198	-0.320	0.249
-620.376	-57.512	-0.104	0.046
-619.361	-59.405	0.241	0.104
-618.346	-97.545	0.070	0.018
-617.332	-73.313	0.215	-0.079
-616.317	800.000	0.055	-0.155
-615.303	359.974	0.088	-0.178
-614.288	554.285	0.022	-0.054
-613.273	580.838	-0.029	-0.072
-612.259	-200.000	0.059	-0.349
-611.244	85.047	0.100	-0.110
-610.230	-105.810	0.191	-0.043
-609.215	-94.954	-0.247	-0.067
-608.201	-134.401	-0.312	0.039
-607.186	-200.000	0.003	-0.121
-606.171	-20.072	0.288	0.179
-605.157	51.476	-0.289	-0.276
-604.142	-105.271	-0.206	-0.047
-603.128	162.326	0.108	-0.153
-602.113	-147.348	0.208	0.018
-601.098	-75.284	-0.204	-0.073
-600.084	176.481	-0.163	0.239
-599.069	-200.000	-0.054	0.363
-598.055	33.781	0.116	-0.101
-597.040	-55.849	-0.193	0.087
-596.025	-110.017	0.466	0.098
-595.011	-148.228	-0.326	0.027
-593.996	-200.000	0.017	0.157
-592.982	1.644	-0.164	-0.119
-591.967	75.550	0.052	0.055
-590.952	800.000	-0.055	-0.159
-589.938	-165.079	-0.186	-0.008
-588.923	381.139	-0.153	-0.316
-587.909	404.422	0.125	0.265
-586.894	25.124	-0.087	-0.073
-585.879	-64.227	0.215	0.088
-584.865	-22.140	0.188	-0.115
-583.850	-84.401	-0.229	0.073
-582.836	16.081	0.092	-0.073
-581.821	55.986	-0.083	0.081
-580.806	800.000	0.025	0.082
-579.792	111.425	0.065	0.079
-578.777	24.792	0.193	-0.161
-577.763	118.165	0.080	-0.099
-576.748	-200.000	0.024	-0.478
-575.733	800.000	0.054	-0.178
-574.719	-29.274	-0.312	-0.180
-573.704	-200.000	0.046	0.408
-572.690	267.196	0.203	0.357
-571.675	-6.012	0.327	-0.225
-570.661	-0.749	-0.235	0.167
-569.646	-112.993	0.056	0.011
-568.631	-200.000	0.038	-0.293
-567.617	-137.826	-0.413	-0.046
-566.602	-91.122	-0.149	0.043
-565.588	-200.000	-0.014	-0.083
-564.573	-155.646	0.339	0.022
-563.558	212.626	0.190	0.302
-562.544	800.000	-0.119	0.470
-561.529	-67.219	-0.333	-0.132
-560.515	-15.419	-0.104	-0.067
-559.500	-32.142	0.246	-0.138
-558.485	250.619	0.089	0.152
-557.471	800.000	-0.063	-0.196
-556.456	800.000	-0.022	-0.071
-555.442	184.099	-0.211	-0.314
-554.427	108.059	0.155	0.186
-553.412	-105.387	0.101	0.023
-552.398	17.313	0.057	0.045
-551.383	183.256	0.093	-0.139
-550.369	258.288	-0.099	-0.171
-549.354	43.004	0.057	0.052
-548.339	246.843	-0.117	-0.199
-547.325	-93.361	0.397	0.111
-546.310	-173.993	-0.486	-0.014
-545.296	133.027	-0.221	0.287
-544.281	2.435	0.271	0.197
-543.266	-9.828	0.146	0.098
-542.252	-200.000	0.073	-0.325
-541.237	-19.388	-0.021	-0.013
-540.223	-193.841	0.204	-0.002
-539.208	-200.000	0.015	0.317
-538.193	-96.549	0.227	-0.060
-537.179	-113.440	0.081	-0.016
-536.164	268.186	-0.065	0.115
-535.150	-200.000	0.031	-0.178
-534.135	-131.536	0.269	-0.036
-533.121	800.000	-0.068	0.192
-532.106	202.941	-0.036	0.056
-531.091	-175.677	0.318	0.009
-530.077	59.086	-0.310	-0.306
-529.062	-200.000	0.043	-0.386
-528.048	-97.121	0.127	0.033
-527.033	93.822	-0.375	0.427
-526.018	253.323	-0.046	-0.079
-525.004	533.596	0.095	0.226
-523.989	-89.288	-0.094	0.028
-522.975	-101.194	0.207	0.051
-521.960	-200.000	-0.022	-0.114
-520.945	-100.241	-0.287	0.072
-519.931	-41.605	-0.307	-0.159
-518.916	-26.605	-0.206	-0.121
-517.902	-200.000	-0.113	-0.499
-516.887	-200.000	0.048	-0.388
-515.872	18.107	0.085	-0.068
-514.858	702.398	0.024	0.062
-513.843	44.346	0.162	-0.149
-512.829	800.000	0.027	0.090
-511.814	-137.797	-0.429	0.048
-510.799	260.647	-0.025	-0.044
-509.785	171.801	0.075	-0.108
-508.770	230.050	-0.118	0.194
-507.756	-4.559	0.355	-0.246
-506.741	-53.109	-0.241	-0.111
-505.726	-200.000	-0.064	-0.399
-504.712	-200.000	0.065	-0.742
-503.697	201.679	0.184	-0.285
-502.683	57.876	0.119	-0.117
-501.668	800.000	0.033	0.143
-500.653	28.407	-0.206	0.175
-499.639	-200.000	-0.021	0.357
-498.624	800.000	-0.042	0.126
-497.610	733.613	-0.040	0.107
-496.595	-47.949	-0.387	-0.188
-495.581	6.831	-0.303	-0.226
-494.566	24.868	0.099	0.083
-493.551	112.871	0.113	-0.138
-492.537	16.522	-0.215	-0.170
-491.522	-162.090	-0.057	0.003
-490.508	-114.975	-0.027	0.005
-489.493	-31.779	-0.294	0.165
-488.478	-200.000	-0.024	-0.140
-487.464	800.000	0.049	0.166
-486.449	-200.000	0.016	-0.100
-485.435	782.960	0.119	-0.327
-484.420	-200.000	-0.008	-0.164
-483.405	-182.966	0.127	0.002
-482.391	-86.307	-0.164	0.051
-481.376	-200.000	0.262	0.001
-480.362	-28.551	0.106	-0.061
-479.347	459.276	0.068	0.151
-478.332	-35.765	0.073	0.039
-477.318	-36.122	0.206	0.111
-476.303	-84.751	0.090	0.028
-475.289	800.000	-0.090	0.352
-474.274	-61.649	-0.446	0.188
-473.259	-185.697	0.082	0.001
-472.245	208.579	0.027	0.042
-471.230	-42.549	0.105	-0.054
-470.216	-130.064	-0.360	0.049
-469.201	20.664	0.166	0.135
-468.186	800.000	-0.027	0.076
-467.172	-150.061	-0.132	0.010
-466.157	-29.684	0.150	0.086
-465.143	-111.612	0.304	0.062
-464.128	-22.113	0.285	0.173
-463.113	381.560	0.080	-0.165
-462.099	-119.282	-0.267	-0.047
-461.084	-24.699	0.128	-0.076
-460.070	25.112	-0.053	-0.044
-459.055	204.472	0.016	0.025
-458.040	-200.000	-0.095	0.512
-457.026	800.000	-0.079	0.321
-456.011	313.512	-0.116	-0.218
-454.997	-200.000	0.012	0.194
-453.982	-116.319	-0.180	-0.033
-452.968	-76.261	0.161	0.057
-451.953	-200.000	-0.010	0.218
-450.938	135.327	-0.142	0.185
-449.924	800.000	-0.062	0.207
-448.909	-200.000	-0.008	0.038
-447.895	380.321	-0.169	-0.347
-446.880	-200.000	-0.017	-0.100
-445.865	-200.000	-0.000	-0.093
-444.851	-86.772	-0.086	-0.026
-443.836	-200.000	0.043	-0.323
-442.822	40.225	0.269	0.242
-441.807	114.118	0.149	0.181
-440.792	521.925	0.209	-0.492
-439.778	-109.605	-0.244	-0.052
-438.763	800.000	-0.160	0.449
-437.749	800.000	-0.042	-0.134
-436.734	-200.000	0.051	0.252
-435.719	-66.969	0.113	0.045
-434.705	-33.335	-0.116	-0.064
-433.690	-152.294	0.392	0.028
-432.676	800.000	0.026	0.109
-431.661	-28.583	-0.171	0.099
-430.646	-117.161	-0.221	-0.040
-429.632	-63.568	0.117	0.048
-428.617	-32.901	0.233	0.129
-427.603	800.000	0.062	0.266
-426.588	451.335	-0.064	-0.142
-425.573	-8.648	-0.144	0.096
-424.559	-93.294	-0.284	0.079
-423.544	-200.000	0.045	-0.420
-422.530	12.813	0.121	0.093
-421.515	11.465	0.175	-0.134
-420.500	587.013	0.047	0.115
-419.486	-33.828	0.019	-0.011
-418.471	-114.712	0.360	-0.069
-417.457	-200.000	0.039	0.175
-416.442	337.643	-0.109	-0.213
-415.428	145.402	-0.135	0.181
-414.413	800.000	-0.034	-0.132
-413.398	-81.571	0.346	-0.114
-412.384	-18.765	0.240	0.149
-411.369	-28.411	-0.052	-0.030
-410.355	-200.000	-0.038	0.233
-409.340	-45.052	0.135	0.067
-408.325	60.932	-0.090	0.089
-407.311	149.401	-0.065	0.088
-406.296	125.278	-0.178	0.224
-405.282	61.587	0.206	0.204
-404.267	-49.143	0.135	-0.064
-403.252	-103.934	0.223	0.052
-402.238	95.296	0.054	-0.061
-401.223	800.000	0.105	-0.437
-400.209	-49.959	0.086	-0.041
-399.194	18.228	0.050	0.040
-398.179	-200.000	0.001	-0.217
-397.165	-62.541	0.377	0.156
-396.150	-131.711	-0.325	0.043
-395.136	102.738	0.113	0.133
-394.121	419.819	0.133	0.285
-393.106	238.648	0.099	-0.165
-392.092	-41.594	0.221	-0.113
-391.077	-46.720	-0.144	0.070
-390.063	-130.098	-0.120	-0.016
-389.048	-133.785	0.334	0.042
-388.033	255.520	0.022	-0.038
-387.019	-18.111	-0.047	0.030
-386.004	-200.000	0.055	0.410
-384.990	314.874	-0.216	-0.406
-383.975	109.502	0.178	0.213
-382.960	-200.000	-0.253	-0.001
-381.946	-101.269	0.193	0.047
-380.931	800.000	-0.056	-0.156
-379.917	-157.695	-0.173	0.010
-378.902	-200.000	0.007	0.235
-377.888	-86.393	0.356	0.109
-376.873	-99.781	0.506	0.127
-375.858	68.319	-0.065	0.066
-374.844	-147.932	-0.062	0.005
-373.829	-200.000	-0.038	-0.434
-372.815	-24.360	-0.308	-0.183
-371.800	-48.237	0.250	-0.120
-370.785	220.234	0.041	0.066
-369.771	263.151	0.072	0.124
-368.756	-148.636	-0.210	0.017
-367.742	-164.217	-0.406	-0.019
-366.727	316.297	0.048	0.091
-365.712	61.626	0.250	-0.248
-364.698	-86.434	-0.132	0.040
-363.683	-78.627	0.067	-0.023
-362.669	26.068	0.043	0.036
-361.654	-67.054	0.201	0.079
-360.639	-150.834	-0.320	-0.024
-359.625	-52.225	-0.098	0.045
-358.610	-13.733	0.037	0.024
-357.596	183.419	-0.081	-0.119
-356.581	282.132	0.254	0.454
-355.566	280.646	-0.099	-0.177
-354.552	66.276	0.164	-0.167
-353.537	8.323	-0.426	-0.319
-352.523	98.002	0.072	0.082
-351.508	-200.000	0.000	-0.169
-350.493	-73.952	0.250	0.090
-349.479	-200.000	-0.056	-0.363
-348.464	286.348	-0.263	-0.474
-347.450	-10.832	-0.265	0.175
-346.435	-108.185	0.250	0.054
-345.420	194.769	-0.125	0.189
-344.406	-44.105	-0.141	-0.071
-343.391	279.124	0.246	0.437
-342.377	-71.408	-0.120	0.045
-341.362	-24.987	0.023	0.014
-340.348	-200.000	0.004	-0.107
-339.333	61.648	-0.090	-0.089
-338.318	-200.000	0.025	-0.152
-337.304	19.625	0.254	0.204
-336.289	-130.287	0.049	-0.007
-335.275	-200.000	-0.068	0.493
-334.260	90.188	0.100	0.112
-333.245	87.535	0.183	0.201
-332.231	-156.530	0.204	-0.013
-331.216	-154.202	0.206	0.014
-330.202	-139.273	-0.262	-0.028
-329.187	800.000	0.023	0.083
-328.172	-72.572	-0.350	0.129
-327.158	183.727	-0.007	0.011
-326.143	-200.000	-0.042	0.290
-325.129	-122.578	0.300	0.049
-324.114	151.780	0.071	-0.096
-323.099	-156.399	0.269	-0.017
-322.085	-200.000	-0.050	0.232
-321.070	-98.987	0.182	0.046
-320.056	-21.670	-0.075	-0.046
-319.041	126.134	0.028	-0.035
-318.026	-110.463	0.356	-0.074
-317.012	-97.181	0.055	0.014
-315.997	-186.039	0.263	0.004
-314.983	-59.843	-0.211	0.090
-313.968	-28.947	-0.088	0.051
-312.953	-1.987	-0.435	-0.304
-311.939	-28.338	-0.089	0.051
-310.924	-48.894	0.288	-0.137
-309.910	-200.000	0.015	-0.183
-308.895	111.616	0.098	0.118
-307.880	138.153	-0.148	0.193
-306.866	548.355	-0.059	-0.141
-305.851	-64.694	-0.102	-0.041
-304.837	508.851	-0.029	0.066
-303.822	167.856	0.137	-0.193
-302.807	72.889	-0.143	0.148
-301.793	436.260	0.135	-0.292
-300.778	98.500	-0.212	0.244
-299.764	-61.046	0.117	-0.049
-298.749	-105.894	0.123	0.028
-297.735	-127.783	-0.255	0.037
-296.720	35.910	0.070	-0.061
-295.705	-200.000	0.005	0.310
-294.691	396.607	-0.094	-0.196
-293.676	-200.000	0.019	0.111
-292.662	-46.142	-0.126	-0.062
-291.647	800.000	-0.070	-0.203
-290.632	-200.000	0.030	-0.213
-289.618	-200.000	-0.024	0.165
-288.603	291.180	-0.052	-0.093
-287.589	369.485	0.081	-0.163
-286.574	-99.028	-0.070	0.018
-285.559	63.488	-0.082	-0.081
-284.545	800.000	-0.089	0.311
-283.530	-200.000	-0.006	0.071
-282.516	-30.759	-0.142	-0.080
-281.501	258.606	0.213	-0.366
-280.486	-200.000	0.014	0.106
-279.472	800.000	0.064	0.275
-278.457	63.043	0.180	0.179
-277.443	313.587	0.070	-0.132
-276.428	100.012	0.096	-0.110
-275.413	262.317	-0.044	0.077
-274.399	8.564	-0.067	0.050
-273.384	-108.634	-0.134	0.029
-272.370	-200.000	-0.010	0.165
-271.355	-114.631	-0.346	0.066
-270.340	57.417	0.142	-0.137
-269.326	-200.000	-0.023	-0.542
-268.311	738.588	-0.102	0.272
-267.297	-141.664	0.401	-0.040
-266.282	-152.229	-0.051	-0.004
-265.267	-74.129	-0.287	0.103
-264.253	10.968	-0.056	-0.043
-263.238	67.685	0.196	-0.199
-262.224	635.496	0.129	0.327
-261.209	712.525	0.145	-0.381
-260.195	-107.656	-0.291	-0.063
-259.180	189.677	0.102	0.152
-258.165	38.574	-0.180	-0.159
-257.151	-83.369	-0.509	0.162
-256.136	-200.000	0.024	0.144
-255.122	-185.459	0.147	-0.002
-254.107	-12.618	0.098	0.063
-253.092	116.637	0.089	0.108
-252.078	-200.000	0.063	-0.315
-251.063	-117.930	0.208	0.037
-250.049	18.362	0.198	-0.157
-249.034	-127.800	-0.254	0.036
-248.019	23.744	0.309	-0.253
-247.005	81.005	-0.214	0.230
-245.990	-183.229	0.343	0.006
-244.976	230.540	0.142	-0.231
-243.961	-0.415	-0.316	0.223
-242.946	-200.000	0.045	-0.355
-241.932	275.959	0.084	-0.148
-240.917	-102.484	-0.195	0.046
-239.903	800.000	-0.081	0.247
-238.888	257.176	-0.018	0.031
-237.873	313.630	0.144	0.269
-236.859	-172.219	0.215	-0.007
-235.844	-90.145	0.245	0.071
-234.830	-143.035	-0.088	0.008
-233.815	-99.198	-0.162	-0.041
-232.800	-200.000	0.044	-0.224
-231.786	-150.466	0.097	-0.007
-230.771	-86.178	0.173	-0.053
-229.757	-200.000	-0.018	0.232
-228.742	-128.340	0.290	-0.041
-227.727	-200.000	0.015	0.000
-226.713	-166.018	0.143	0.006
-225.698	169.531	-0.110	-0.155
-224.684	341.359	-0.047	0.092
-223.669	-44.515	-0.132	0.065
-222.655	-178.204	0.375	-0.009
-221.640	800.000	-0.070	0.274
-220.625	-100.135	-0.334	0.082
-219.611	128.146	0.048	-0.061
-218.596	800.000	-0.142	0.522
-217.582	90.703	0.156	0.173
-216.567	410.676	-0.161	0.339
-215.552	303.278	0.083	-0.152
-214.538	340.788	-0.064	-0.124
-213.523	-60.261	-0.197	0.083
-212.509	18.211	0.276	-0.218
-211.494	-107.162	0.181	-0.040
-210.479	-200.000	-0.026	0.286
-209.465	180.268	-0.144	-0.209
-208.450	-89.849	0.321	0.093
-207.436	339.759	0.127	0.245
-206.421	800.000	-0.013	-0.042
-205.406	107.956	-0.223	-0.264
-204.392	-200.000	0.008	-0.251
-203.377	800.000	-0.091	-0.286
-202.363	800.000	0.033	0.135
-201.348	59.641	-0.033	-0.032
-200.333	-200.000	0.052	-0.233
-199.319	313.863	0.178	-0.331
-198.304	55.122	0.031	-0.030
-197.290	114.781	0.082	0.100
-196.275	-128.068	0.136	-0.019
-195.260	106.519	0.154	0.181
-194.246	-100.486	0.134	0.033
-193.231	197.783	0.150	0.227
-192.217	536.965	-0.164	0.387
-191.202	-200.000	0.017	0.150
-190.187	-93.706	-0.464	-0.127
-189.173	-68.447	0.130	-0.050
-188.158	-200.000	-0.065	0.298
-187.144	-200.000	0.024	-0.112
-186.129	-164.462	0.102	0.005
-185.114	-200.000	-0.024	0.267
-184.100	-74.901	-0.217	-0.077
-183.085	9.309	-0.133	0.100
-182.071	-200.000	-0.002	-0.039
-181.056	-74.247	0.211	0.075
-180.042	124.444	0.214	-0.266
-179.027	-81.447	-0.352	-0.115
-178.012	-90.919	0.034	0.010
-176.998	262.033	0.120	0.207
-175.983	-84.028	0.104	0.033
-174.969	504.078	0.120	0.276
-173.954	-95.337	0.153	-0.041
-172.939	800.000	0.017	-0.058
-171.925	120.204	-0.240	0.295
-170.910	658.360	0.087	0.223
-169.896	-65.071	-0.205	0.082
-168.881	296.996	-0.149	0.270
-167.866	-200.000	0.001	-0.165
-166.852	259.408	-0.221	-0.377
-165.837	-97.858	0.080	-0.020
-164.823	167.603	-0.040	0.057
-163.808	543.921	0.043	0.103
-162.793	53.722	-0.099	0.094
-161.779	194.846	0.191	0.286
-160.764	-111.490	-0.323	0.065
-159.750	800.000	-0.175	0.584
-158.735	800.000	0.129	0.366
-157.720	13.050	-0.207	0.158
-156.706	-103.892	-0.232	0.054
-155.691	-33.493	-0.231	-0.126
-154.677	161.757	-0.142	-0.196
-153.662	-52.141	0.147	0.068
-152.647	800.000	-0.016	-0.050
-151.633	132.237	-0.070	-0.089
-150.618	800.000	0.071	-0.283
-149.604	211.921	0.073	0.114
-148.589	-107.139	0.300	-0.065
-147.574	39.073	-0.212	0.188
-146.560	-130.612	0.625	-0.083
-145.545	404.703	-0.075	0.156
-144.531	359.478	0.086	0.170
-143.516	800.000	0.093	0.319
-142.502	-106.501	-0.254	-0.056
-141.487	238.007	-0.303	0.497
-140.472	400.457	-0.132	0.275
-139.458	150.826	-0.128	-0.172
-138.443	61.164	-0.065	-0.064
-137.429	-34.517	-0.358	0.194
-136.414	800.000	0.022	-0.089
-135.399	591.344	-0.087	0.213
-134.385	459.104	-0.121	-0.266
-133.370	-190.499	-0.167	-0.002
-132.356	-200.000	0.011	0.093
-131.341	-177.642	0.112	-0.003
-130.326	-71.643	-0.359	0.132
-129.312	-200.000	-0.001	0.458
-128.297	154.393	0.163	-0.221
-127.283	-200.000	0.039	0.176
-126.268	-200.000	0.014	-0.154
-125.253	67.879	-0.149	0.150
-124.239	51.903	-0.231	0.218
-123.224	-24.731	-0.276	-0.162
-122.210	120.547	-0.095	0.117
-121.195	229.509	0.110	-0.177
