DTS Sentinel unit serial number:	SN413079Multiplexer serial number:	ORYXHardware model number:	OX4-SRSoftware version number:	ORYX F/W v4.00 Oryx Data Collector v3.7.2.0data status	okinstallation	princeton_trtdifferential loss correction	single-endedforward channel	channel 3reverse channel	N/Adate	2019/09/15time	00:04:35forward acquisition time	60.00reverse acquisition time	0.00gamma	496.2192k internal	0.2319k external	0.2319temperature offset calibration	0.9976default loss term (dB/km)	0.3790temperature slope calibration	1.0000multiplexer offset coefficient	1.0000multiplexer slope coefficient	1.0000fibre end	0.00T internal ref (°C)	32.19T ext. ref 1 (°C)	4.57T ext. ref 2 (°C)	27.18length (m)	temperature (°C)	Stokes	anti-Stokes-747.200	81.183	-0.110	-0.120
-746.185	9.211	-0.270	-0.206
-745.171	59.152	0.257	-0.256
-744.156	800.000	-0.031	0.105
-743.142	-60.582	0.211	-0.091
-742.127	246.588	0.095	0.163
-741.112	208.986	-0.209	-0.331
-740.098	-1.226	0.213	0.152
-739.083	-200.000	-0.003	0.291
-738.069	-127.711	-0.110	0.016
-737.054	800.000	0.046	-0.135
-736.039	-151.200	-0.387	-0.029
-735.025	362.526	-0.158	0.321
-734.010	-34.283	0.098	-0.054
-732.996	103.724	-0.043	-0.052
-731.981	-90.205	0.041	-0.012
-730.966	-117.163	-0.390	-0.072
-729.952	-12.591	-0.048	-0.032
-728.937	800.000	0.019	-0.072
-727.923	55.581	-0.255	0.250
-726.908	-39.712	-0.124	-0.066
-725.894	373.292	0.059	0.121
-724.879	-100.872	-0.239	0.059
-723.864	80.668	0.129	-0.141
-722.850	119.520	0.116	0.145
-721.835	188.793	0.156	0.236
-720.821	380.078	0.190	-0.394
-719.806	171.588	0.104	-0.151
-718.791	87.437	-0.080	-0.089
-717.777	-143.378	0.010	0.001
-716.762	-200.000	0.013	-0.195
-715.748	-34.526	0.294	0.163
-714.733	239.622	-0.107	-0.180
-713.718	-200.000	-0.039	0.278
-712.704	-109.195	-0.123	-0.026
-711.689	-53.930	-0.155	-0.071
-710.675	800.000	-0.050	-0.164
-709.660	428.536	-0.033	-0.073
-708.645	10.220	-0.113	-0.087
-707.631	663.332	-0.056	-0.145
-706.616	318.992	-0.066	0.127
-705.602	-13.260	0.029	-0.019
-704.587	-200.000	0.035	-0.229
-703.572	160.583	-0.178	-0.251
-702.558	-99.314	0.225	-0.057
-701.543	108.949	-0.067	-0.081
-700.529	-17.301	-0.109	-0.069
-699.514	131.086	0.072	0.093
-698.499	-102.871	0.211	-0.051
-697.485	83.611	-0.222	-0.245
-696.470	-200.000	-0.018	0.201
-695.456	-134.281	0.128	0.016
-694.441	-112.620	0.154	-0.031
-693.426	-31.261	-0.247	0.140
-692.412	228.822	-0.095	-0.156
-691.397	66.180	-0.274	0.281
-690.383	-200.000	-0.028	0.235
-689.368	-200.000	-0.014	0.189
-688.354	-200.000	0.003	0.018
-687.339	224.115	-0.158	-0.258
-686.324	-9.558	-0.180	0.121
-685.310	162.015	-0.054	0.076
-684.295	-133.081	-0.091	-0.012
-683.281	-75.327	-0.269	0.097
-682.266	-44.588	0.357	0.180
-681.251	-19.110	0.144	0.090
-680.237	36.230	-0.154	-0.137
-679.222	-200.000	-0.012	0.256
-678.208	68.728	-0.118	0.123
-677.193	-103.018	0.032	0.008
-676.178	-24.277	0.226	0.136
-675.164	-130.115	0.066	0.009
-674.149	-200.000	-0.012	0.156
-673.135	164.517	-0.210	0.299
-672.120	311.334	0.095	-0.180
-671.105	-103.037	-0.111	-0.027
-670.091	-99.089	0.547	-0.140
-669.076	-24.281	-0.103	-0.062
-668.062	-122.650	0.456	0.075
-667.047	-200.000	-0.006	0.135
-666.032	-200.000	0.015	-0.080
-665.018	-113.717	-0.251	0.049
-664.003	-194.235	-0.068	0.001
-662.989	-32.128	-0.086	0.049
-661.974	-200.000	-0.003	0.107
-660.959	-200.000	-0.294	-0.000
-659.945	532.415	-0.069	0.164
-658.930	800.000	0.016	-0.064
-657.916	102.135	-0.132	-0.155
-656.901	800.000	0.043	0.182
-655.886	-145.396	-0.157	-0.014
-654.872	73.898	0.113	0.120
-653.857	-8.849	0.203	0.137
-652.843	800.000	-0.061	-0.215
-651.828	109.286	-0.294	-0.354
-650.814	-56.152	0.055	-0.025
-649.799	-200.000	0.045	0.233
-648.784	-10.979	-0.430	0.286
-647.770	-0.692	0.170	0.122
-646.755	-187.677	0.328	0.004
-645.741	215.670	-0.070	-0.112
-644.726	1.320	-0.315	0.228
-643.711	-200.000	-0.004	0.281
-642.697	-24.431	-0.113	0.068
-641.682	-98.128	-0.414	-0.107
-640.668	57.035	0.058	-0.057
-639.653	417.424	-0.122	-0.262
-638.638	21.018	-0.149	-0.122
-637.624	-96.463	-0.298	0.079
-636.609	192.857	0.128	0.195
-635.595	327.012	-0.167	0.323
-634.580	5.661	-0.090	-0.067
-633.565	40.225	-0.181	0.164
-632.551	258.884	-0.069	0.121
-631.536	-200.000	0.002	-0.218
-630.522	-108.989	-0.201	-0.043
-629.507	158.943	0.129	0.181
-628.492	-200.000	-0.037	0.200
-627.478	-200.000	0.023	0.146
-626.463	-103.320	-0.163	-0.039
-625.449	105.263	-0.164	0.195
-624.434	800.000	-0.102	-0.320
-623.419	-200.000	-0.003	0.027
-622.405	-33.345	0.346	0.193
-621.390	339.284	-0.107	-0.211
-620.376	-40.053	-0.212	-0.111
-619.361	-88.312	-0.221	0.066
-618.346	-200.000	-0.017	-0.321
-617.332	-200.000	0.008	0.103
-616.317	63.467	-0.150	0.151
-615.303	-200.000	-0.009	-0.042
-614.288	151.392	-0.172	0.235
-613.273	36.789	0.331	0.295
-612.259	33.783	-0.141	0.123
-611.244	800.000	-0.138	-0.400
-610.230	-134.781	0.381	-0.047
-609.215	52.276	-0.091	0.087
-608.201	800.000	-0.039	-0.127
-607.186	33.085	0.197	0.172
-606.171	574.446	-0.070	-0.172
-605.157	553.960	-0.064	-0.155
-604.142	287.454	0.077	-0.140
-603.128	381.967	-0.070	-0.144
-602.113	95.416	0.179	0.206
-601.098	0.650	-0.257	0.185
-600.084	-126.447	0.170	0.025
-599.069	84.997	0.108	-0.119
-598.055	-200.000	0.005	0.083
-597.040	19.139	0.050	-0.041
-596.025	126.948	-0.090	-0.115
-595.011	58.871	-0.257	0.254
-593.996	301.877	0.073	0.135
-592.982	800.000	0.029	0.120
-591.967	-200.000	0.024	-0.222
-590.952	18.407	-0.467	-0.375
-589.938	-126.689	-0.268	0.040
-588.923	-198.310	0.159	-0.001
-587.909	29.102	0.280	-0.239
-586.894	736.351	0.082	0.221
-585.879	-200.000	-0.034	0.251
-584.865	422.286	-0.094	-0.203
-583.850	281.646	-0.050	0.090
-582.836	-200.000	-0.047	0.291
-581.821	-200.000	-0.023	-0.179
-580.806	-158.720	-0.265	0.015
-579.792	-137.623	0.332	0.038
-578.777	611.202	-0.043	-0.109
-577.763	19.751	-0.102	-0.083
-576.748	131.897	0.153	0.198
-575.733	-61.867	0.104	-0.044
-574.719	166.250	0.148	-0.211
-573.704	-143.124	-0.292	-0.028
-572.690	212.694	-0.035	-0.055
-571.675	-131.611	-0.149	0.020
-570.661	800.000	-0.051	-0.161
-569.646	-200.000	-0.061	0.305
-568.631	100.454	-0.021	0.024
-567.617	800.000	0.029	-0.120
-566.602	800.000	-0.015	-0.048
-565.588	8.517	-0.157	0.119
-564.573	34.086	-0.073	0.064
-563.558	-200.000	0.037	-0.274
-562.544	-31.588	-0.126	-0.071
-561.529	800.000	0.096	-0.393
-560.515	-29.385	-0.039	-0.022
-559.500	-200.000	-0.043	-0.304
-558.485	60.442	0.047	0.047
-557.471	92.444	-0.115	-0.130
-556.456	-85.316	-0.464	-0.145
-555.442	-179.959	0.337	-0.007
-554.427	349.781	0.104	0.206
-553.412	29.788	-0.111	-0.095
-552.398	-70.673	-0.178	0.068
-551.383	-81.968	0.161	-0.053
-550.369	-38.129	-0.184	-0.098
-549.354	-2.203	0.195	0.137
-548.339	-26.936	-0.060	-0.035
-547.325	583.967	-0.030	0.074
-546.310	-114.126	0.159	-0.031
-545.296	-51.759	-0.078	-0.036
-544.281	-35.053	0.248	-0.136
-543.266	-3.872	-0.107	0.074
-542.252	-92.734	0.374	0.105
-541.237	-50.877	-0.136	-0.064
-540.223	-82.683	-0.221	-0.072
-539.208	-166.706	-0.105	0.004
-538.193	622.161	-0.067	-0.168
-537.179	-200.000	-0.020	0.353
-536.164	382.631	-0.123	-0.255
-535.150	-144.122	0.091	-0.009
-534.135	54.141	-0.026	-0.025
-533.121	-115.072	0.373	0.071
-532.106	800.000	0.075	0.257
-531.091	-200.000	0.006	0.283
-530.077	347.763	-0.089	0.177
-529.062	-148.171	-0.196	-0.016
-528.048	-76.193	0.052	0.019
-527.033	153.633	0.118	-0.162
-526.018	148.491	0.237	-0.321
-525.004	-200.000	0.405	-0.002
-523.989	800.000	0.023	-0.080
-522.975	-95.689	-0.037	0.010
-521.960	641.094	-0.167	0.426
-520.945	-114.771	0.242	-0.046
-519.931	4.010	0.144	0.106
-518.916	-200.000	0.004	-0.137
-517.902	-200.000	0.035	-0.441
-516.887	-9.386	-0.335	-0.224
-515.872	522.361	-0.122	-0.287
-514.858	67.525	-0.171	-0.175
-513.843	-14.731	-0.240	0.154
-512.829	800.000	-0.058	0.181
-511.814	58.427	0.048	-0.047
-510.799	-163.327	-0.401	-0.019
-509.785	139.290	-0.062	0.082
-508.770	-66.066	-0.207	-0.083
-507.756	403.979	0.105	-0.221
-506.741	-48.954	-0.055	0.026
-505.726	-76.107	0.343	0.121
-504.712	677.759	0.045	-0.117
-503.697	-17.150	0.221	-0.139
-502.683	-83.611	-0.286	-0.092
-501.668	515.773	-0.254	0.594
-500.653	-29.578	0.203	0.116
-499.639	-167.693	-0.199	-0.008
-498.624	-61.407	0.265	0.112
-497.610	-134.167	0.254	-0.031
-496.595	97.643	-0.080	0.092
-495.581	6.359	-0.173	-0.129
-494.566	-130.320	0.264	-0.036
-493.551	149.527	-0.130	-0.177
-492.537	800.000	-0.074	0.313
-491.522	123.463	-0.216	0.271
-490.508	-200.000	0.046	-0.235
-489.493	145.961	0.145	0.195
-488.478	23.096	0.185	0.152
-487.464	800.000	-0.058	0.202
-486.449	186.536	0.248	0.370
-485.435	108.695	-0.145	0.174
-484.420	-200.000	-0.015	-0.266
-483.405	-200.000	-0.006	0.188
-482.391	-200.000	-0.004	0.262
-481.376	216.607	0.168	-0.267
-480.362	74.811	-0.168	-0.178
-479.347	-153.946	-0.283	-0.019
-478.332	32.817	0.096	0.083
-477.318	800.000	-0.005	-0.021
-476.303	-12.347	0.338	-0.221
-475.289	37.131	-0.161	-0.142
-474.274	49.257	-0.226	-0.213
-473.259	-38.188	0.205	0.109
-472.245	800.000	0.062	0.214
-471.230	4.400	0.112	-0.082
-470.216	-86.545	0.033	0.010
-469.201	-19.031	-0.172	0.107
-468.186	800.000	-0.052	0.225
-467.172	-118.959	0.369	0.065
-466.157	800.000	-0.119	-0.403
-465.143	800.000	-0.119	-0.398
-464.128	150.402	0.085	0.116
-463.113	75.231	0.142	-0.150
-462.099	-96.663	0.216	0.057
-461.084	-66.617	0.504	-0.200
-460.070	-200.000	0.043	-0.450
-459.055	-89.623	-0.068	-0.020
-458.040	-200.000	-0.021	-0.299
-457.026	-200.000	0.004	-0.039
-456.011	-200.000	-0.014	-0.085
-454.997	719.307	-0.121	-0.321
-453.982	-91.552	0.340	-0.097
-452.968	-116.768	-0.109	0.020
-451.953	-66.625	-0.046	-0.018
-450.938	-52.192	0.447	0.207
-449.924	-48.605	0.088	0.042
-448.909	800.000	-0.063	-0.227
-447.895	-191.766	0.311	-0.003
-446.880	28.761	-0.243	0.206
-445.865	-200.000	0.068	0.324
-444.851	340.304	-0.056	-0.110
-443.836	-200.000	-0.005	0.288
-442.822	-200.000	-0.039	-0.320
-441.807	736.621	-0.031	0.083
-440.792	243.353	-0.124	0.208
-439.778	800.000	0.049	0.165
-438.763	126.570	-0.182	0.231
-437.749	63.465	-0.156	0.156
-436.734	265.267	-0.033	0.058
-435.719	79.954	-0.074	0.079
-434.705	800.000	-0.026	0.096
-433.690	153.178	0.127	0.174
-432.676	-200.000	0.022	0.243
-431.661	21.603	-0.077	0.063
-430.646	293.786	-0.146	0.267
-429.632	-99.437	-0.420	-0.106
-428.617	-171.772	-0.216	0.007
-427.603	-200.000	0.013	-0.143
-426.588	-90.839	-0.255	-0.073
-425.573	-84.424	-0.350	-0.110
-424.559	176.165	-0.125	0.181
-423.544	-200.000	-0.005	0.164
-422.530	91.202	-0.128	-0.144
-421.515	-200.000	-0.104	0.530
-420.500	-9.735	-0.151	-0.100
-419.486	-26.832	0.079	0.046
-418.471	-126.909	-0.223	-0.033
-417.457	-179.742	-0.266	-0.006
-416.442	244.224	-0.030	0.050
-415.428	-124.518	-0.496	-0.077
-414.413	185.542	0.121	0.179
-413.398	213.247	0.075	-0.118
-412.384	-58.418	0.245	-0.106
-411.369	92.712	0.162	-0.183
-410.355	67.100	0.316	-0.322
-409.340	25.195	-0.129	-0.107
-408.325	117.924	-0.117	-0.143
-407.311	518.901	0.037	-0.086
-406.296	-124.485	-0.039	0.006
-405.282	-37.043	0.203	0.108
-404.267	-200.000	0.003	0.032
-403.252	86.007	0.037	0.041
-402.238	-200.000	0.002	0.063
-401.223	100.393	0.044	0.051
-400.209	-91.372	-0.299	-0.085
-399.194	-163.611	0.163	-0.008
-398.179	93.316	-0.195	0.220
-397.165	418.944	0.030	0.064
-396.150	12.911	-0.154	0.119
-395.136	-54.416	0.095	0.043
-394.121	-68.306	-0.349	0.135
-393.106	645.179	0.038	-0.097
-392.092	727.570	0.143	0.381
-391.077	-200.000	0.004	0.335
-390.063	371.570	-0.051	-0.102
-389.048	-62.062	-0.081	0.034
-388.033	-120.795	0.240	0.040
-387.019	259.267	0.089	0.153
-386.004	-29.409	-0.241	0.138
-384.990	800.000	-0.041	-0.133
-383.975	-134.625	-0.192	-0.023
-382.960	3.251	0.056	-0.040
-381.946	-77.634	0.342	-0.118
-380.931	-32.045	-0.236	0.131
-379.917	-110.046	-0.040	0.008
-378.902	-200.000	0.005	-0.223
-377.888	179.113	0.181	-0.265
-376.873	163.766	-0.192	-0.269
-375.858	200.349	0.069	-0.105
-374.844	-200.000	-0.001	0.240
-373.829	21.739	-0.094	0.077
-372.815	-200.000	-0.017	0.240
-371.800	145.293	0.083	0.110
-370.785	-107.150	-0.371	-0.082
-369.771	-200.000	0.001	-0.017
-368.756	-200.000	-0.055	0.392
-367.742	206.059	0.166	-0.258
-366.727	800.000	-0.071	0.256
-365.712	305.726	0.134	0.248
-364.698	-200.000	-0.068	-0.321
-363.683	721.013	0.121	-0.320
-362.669	186.552	-0.100	-0.148
-361.654	-37.656	-0.048	0.026
-360.639	488.982	-0.115	0.263
-359.625	100.211	0.135	-0.156
-358.610	243.475	0.020	-0.034
-357.596	263.889	-0.091	0.158
-356.581	113.096	-0.190	-0.229
-355.566	-47.733	0.220	0.106
-354.552	133.037	-0.115	-0.148
-353.537	20.226	-0.179	0.144
-352.523	486.957	0.046	0.104
-351.508	-140.507	0.207	0.021
-350.493	-5.791	0.276	-0.188
-349.479	-34.010	-0.351	-0.192
-348.464	-27.294	0.184	-0.107
-347.450	-200.000	0.005	-0.157
-346.435	-76.039	-0.250	0.088
-345.420	800.000	-0.036	0.138
-344.406	-99.941	0.263	0.065
-343.391	14.358	-0.191	0.148
-342.377	-7.253	0.287	-0.194
-341.362	-200.000	-0.008	0.140
-340.348	-200.000	-0.020	0.168
-339.333	253.927	0.035	-0.059
-338.318	-176.434	-0.180	0.005
-337.304	800.000	0.027	0.088
-336.289	89.743	0.157	0.174
-335.275	436.275	0.023	-0.050
-334.260	2.317	0.141	0.101
-333.245	124.374	-0.099	-0.124
-332.231	44.612	-0.055	-0.051
-331.216	-18.999	0.123	0.076
-330.202	34.450	0.246	0.214
-329.187	261.188	-0.127	0.220
-328.172	113.890	-0.027	-0.033
-327.158	84.922	-0.109	0.118
-326.143	800.000	-0.041	0.180
-325.129	-185.534	0.351	0.005
-324.114	-102.804	0.077	0.018
-323.099	29.119	0.332	-0.280
-322.085	-108.280	0.301	-0.065
-321.070	-41.443	0.250	-0.128
-320.056	16.439	-0.223	-0.175
-319.041	-86.055	-0.171	0.053
-318.026	342.081	0.126	0.245
-317.012	24.204	-0.039	0.032
-315.997	-105.990	-0.204	0.046
-314.983	181.281	0.082	-0.120
-313.968	-132.778	0.277	0.035
-312.953	-10.048	0.070	0.046
-311.939	-110.644	-0.130	-0.027
-310.924	-91.146	0.266	0.076
-309.910	-200.000	-0.045	0.340
-308.895	174.298	-0.084	-0.121
-307.880	118.551	-0.040	0.050
-306.866	-22.471	0.207	-0.125
-305.851	102.181	0.239	-0.277
-304.837	-147.472	-0.067	0.006
-303.822	-115.467	-0.107	-0.020
-302.807	43.496	0.248	0.225
-301.793	22.093	0.322	0.261
-300.778	-130.241	0.203	-0.027
-299.764	-200.000	-0.004	-0.044
-298.749	-37.690	-0.260	-0.137
-297.735	-200.000	0.005	-0.247
-296.720	78.894	0.011	-0.011
-295.705	-120.501	0.195	0.033
-294.691	-87.052	0.174	-0.053
-293.676	800.000	0.081	-0.302
-292.662	84.976	0.101	-0.110
-291.647	75.458	-0.167	-0.176
-290.632	-200.000	-0.028	0.310
-289.618	81.770	0.139	-0.149
-288.603	-152.088	0.335	-0.024
-287.589	-200.000	-0.010	0.091
-286.574	166.065	-0.142	-0.200
-285.559	-200.000	0.022	0.159
-284.545	341.864	0.165	0.320
-283.530	-133.238	-0.270	-0.034
-282.516	116.928	-0.076	0.093
-281.501	168.721	-0.168	-0.237
-280.486	496.838	0.038	0.086
-279.472	-45.493	-0.333	-0.164
-278.457	-200.000	0.081	-0.362
-277.443	550.241	-0.116	-0.275
-276.428	-200.000	0.008	0.205
-275.413	-149.143	0.552	0.044
-274.399	74.659	0.321	0.336
-273.384	-173.574	0.342	-0.010
-272.370	-53.153	0.118	-0.054
-271.355	-69.053	0.049	0.019
-270.340	-200.000	-0.004	-0.057
-269.326	25.379	-0.131	-0.109
-268.311	543.722	0.250	0.592
-267.297	-81.561	-0.230	-0.075
-266.282	491.756	0.123	-0.280
-265.267	-68.172	0.249	-0.096
-264.253	-115.936	-0.184	0.034
-263.238	351.233	-0.152	-0.299
-262.224	84.267	-0.050	-0.054
-261.209	-138.460	0.138	0.015
-260.195	273.438	0.014	-0.025
-259.180	313.090	-0.020	-0.037
-258.165	-35.288	-0.271	-0.146
-257.151	-168.111	-0.144	0.006
-256.136	232.058	0.102	0.166
-255.122	-40.668	-0.051	-0.026
-254.107	-46.878	0.116	0.056
-253.092	-159.885	0.272	-0.015
-252.078	-200.000	-0.025	-0.538
-251.063	-52.570	-0.161	-0.074
-250.049	-118.041	-0.144	0.025
-249.034	779.115	-0.115	0.311
-248.019	-50.085	0.287	0.135
-247.005	-114.585	-0.127	-0.024
-245.990	225.595	0.057	0.092
-244.976	800.000	0.052	-0.166
-243.961	-129.947	-0.321	0.044
-242.946	-151.688	0.105	-0.008
-241.932	-90.215	0.259	-0.075
-240.917	-56.305	0.139	0.061
-239.903	14.221	-0.137	0.106
-238.888	317.331	0.221	0.415
-237.873	-200.000	-0.045	-0.287
-236.859	-138.033	0.212	-0.023
-235.844	11.143	0.079	-0.060
-234.830	125.808	-0.093	0.116
-233.815	-85.470	-0.185	-0.057
-232.800	800.000	-0.047	0.151
-231.786	112.554	0.077	0.093
-230.771	508.298	0.025	0.057
-229.757	800.000	-0.055	0.201
-228.742	288.175	0.069	-0.124
-227.727	-200.000	0.026	-0.273
-226.713	-149.524	-0.135	0.011
-225.698	800.000	-0.105	-0.289
-224.684	-200.000	0.040	-0.302
-223.669	56.811	0.211	-0.204
-222.655	800.000	0.045	0.164
-221.640	-59.802	0.224	-0.095
-220.625	-200.000	-0.001	-0.287
-219.611	-49.065	-0.225	0.106
-218.596	-4.308	0.166	-0.114
-217.582	-200.000	0.010	-0.121
-216.567	180.863	0.035	0.052
-215.552	-89.227	0.096	0.028
-214.538	-103.225	0.255	0.060
-213.523	-200.000	0.015	0.124
-212.509	-10.279	-0.339	-0.223
-211.494	301.680	0.129	0.237
-210.479	-137.850	-0.348	0.039
-209.465	-117.092	-0.134	0.024
-208.450	800.000	-0.065	0.193
-207.436	141.604	0.201	-0.264
-206.421	-35.163	-0.111	0.060
-205.406	-200.000	0.047	-0.404
-204.392	198.098	-0.148	-0.224
-203.377	-189.752	0.102	0.001
-202.363	69.908	0.149	0.153
-201.348	-67.729	0.325	0.126
-200.333	-31.010	-0.179	0.100
-199.319	-76.421	0.486	-0.169
-198.304	-87.347	0.194	0.058
-197.290	-42.353	0.205	-0.104
-196.275	325.830	-0.128	-0.243
-195.260	-91.796	-0.367	-0.103
-194.246	800.000	-0.028	0.097
-193.231	2.175	0.306	0.219
-192.217	-82.366	0.063	-0.020
-191.202	-38.220	-0.249	0.131
-190.187	684.433	0.081	0.210
-189.173	-114.213	-0.126	0.024
-188.158	-53.733	0.421	-0.190
-187.144	-200.000	-0.025	-0.339
-186.129	71.888	-0.183	-0.189
-185.114	800.000	-0.040	-0.164
-184.100	-72.725	0.152	-0.055
-183.085	-79.884	0.224	-0.074
-182.071	502.749	-0.058	0.132
-181.056	-38.329	-0.161	0.084
-180.042	-159.148	-0.076	-0.004
-179.027	800.000	-0.025	-0.085
-178.012	-200.000	0.004	-0.188
-176.998	240.215	0.166	-0.274
-175.983	267.765	0.152	-0.263
-174.969	-106.851	-0.182	0.040
-173.954	-200.000	-0.004	0.042
-172.939	-153.610	0.036	0.002
-171.925	45.251	-0.157	0.143
-170.910	-60.066	0.097	-0.041
-169.896	-200.000	-0.280	0.001
-168.881	-200.000	0.010	-0.066
-167.866	-200.000	0.005	0.274
-166.852	800.000	-0.012	0.047
-165.837	-154.934	-0.124	0.008
-164.823	-15.440	-0.025	0.016
-163.808	-57.054	0.121	-0.053
-162.793	-200.000	0.018	0.212
-161.779	222.634	0.073	0.116
-160.764	-53.394	-0.271	-0.123
-159.750	-57.238	0.183	-0.080
-158.735	-200.000	0.098	0.520
-157.720	-89.715	0.088	-0.025
-156.706	205.302	0.150	0.230
-155.691	122.630	-0.094	0.116
-154.677	800.000	0.092	-0.339
-153.662	-153.236	-0.293	0.020
-152.647	-61.881	0.255	0.105
-151.633	-156.915	0.305	-0.018
-150.618	39.085	0.119	-0.105
-149.604	800.000	0.061	0.172
-148.589	-130.425	0.200	-0.027
-147.574	-51.723	-0.018	0.008
-146.560	-118.946	-0.130	0.023
-145.545	317.811	0.137	0.256
-144.531	800.000	0.143	0.458
-143.516	-158.765	-0.128	-0.007
-142.502	800.000	-0.045	0.190
-141.487	99.909	-0.072	-0.082
-140.472	-27.403	0.264	0.152
-139.458	-99.310	-0.361	0.090
-138.443	395.104	-0.117	-0.242
-137.429	-200.000	0.037	-0.189
-136.414	-200.000	0.001	0.014
-135.399	52.014	0.176	0.166
-134.385	-82.299	-0.294	-0.095
-133.370	800.000	-0.025	0.074
-132.356	-200.000	-0.036	0.300
-131.341	-144.021	-0.157	0.015
-130.326	-114.761	0.086	0.016
-129.312	800.000	-0.048	0.172
-128.297	-139.686	0.190	0.020
-127.283	-199.529	0.309	-0.002
-126.268	55.299	-0.263	0.251
-125.253	-200.000	-0.024	0.129
-124.239	-145.882	0.105	0.009
-123.224	-51.621	-0.148	0.068
-122.210	-200.000	-0.057	0.438
