DTS Sentinel unit serial number:	SN413079Multiplexer serial number:	ORYXHardware model number:	OX4-SRSoftware version number:	ORYX F/W v4.00 Oryx Data Collector v3.7.2.0data status	okinstallation	princeton_trtdifferential loss correction	single-endedforward channel	channel 3reverse channel	N/Adate	2019/09/18time	07:52:35forward acquisition time	60.00reverse acquisition time	0.00gamma	496.2192k internal	0.2343k external	0.2343temperature offset calibration	0.9947default loss term (dB/km)	0.3790temperature slope calibration	1.0000multiplexer offset coefficient	1.0000multiplexer slope coefficient	1.0000fibre end	0.00T internal ref (°C)	23.44T ext. ref 1 (°C)	0.19T ext. ref 2 (°C)	19.25length (m)	temperature (°C)	Stokes	anti-Stokes-747.200	27.114	0.168	-0.141
-746.185	-200.000	0.012	0.086
-745.171	-12.670	-0.241	0.158
-744.156	290.739	0.102	0.186
-743.142	-17.639	-0.198	0.124
-742.127	-200.000	-0.062	0.300
-741.112	722.836	0.083	-0.222
-740.098	441.879	0.180	0.394
-739.083	800.000	-0.092	-0.267
-738.069	37.172	0.174	0.155
-737.054	-68.882	0.423	0.163
-736.039	236.433	-0.108	0.179
-735.025	-50.156	0.350	0.166
-734.010	141.120	-0.117	-0.155
-732.996	-134.877	-0.469	-0.057
-731.981	50.058	0.065	0.062
-730.966	-129.274	0.154	-0.022
-729.952	-118.766	-0.132	0.023
-728.937	-101.475	0.350	0.085
-727.923	76.025	0.150	0.159
-726.908	-200.000	-0.001	-0.172
-725.894	69.489	-0.265	-0.273
-724.879	-133.816	-0.066	0.008
-723.864	-32.843	-0.258	0.143
-722.850	-47.098	-0.130	-0.063
-721.835	-111.178	-0.292	0.060
-720.821	626.022	-0.052	0.132
-719.806	338.627	-0.128	-0.249
-718.791	-48.473	0.202	0.097
-717.777	-6.405	-0.032	-0.022
-716.762	800.000	0.038	-0.119
-715.748	-40.287	-0.222	0.115
-714.733	-49.870	0.163	-0.078
-713.718	-30.770	0.211	-0.119
-712.704	-58.043	-0.248	-0.108
-711.689	167.026	-0.129	0.183
-710.675	-51.408	-0.164	-0.077
-709.660	261.706	-0.168	0.291
-708.645	80.615	-0.146	0.157
-707.631	800.000	-0.030	-0.121
-706.616	-200.000	-0.031	-0.185
-705.602	-10.709	-0.158	-0.104
-704.587	-117.939	-0.277	0.050
-703.572	93.020	0.042	0.047
-702.558	-98.171	0.242	0.062
-701.543	-103.761	-0.528	0.123
-700.529	-79.487	0.215	-0.073
-699.514	-22.403	-0.311	-0.189
-698.499	-200.000	0.005	-0.170
-697.485	-200.000	-0.014	-0.073
-696.470	193.000	-0.020	-0.030
-695.456	-72.655	-0.127	-0.047
-694.441	-44.470	-0.251	0.125
-693.426	481.627	-0.036	-0.083
-692.412	-28.736	0.177	-0.102
-691.397	159.012	-0.225	-0.313
-690.383	800.000	0.037	-0.152
-689.368	555.469	0.065	0.156
-688.354	36.453	-0.065	0.057
-687.339	19.672	0.270	0.217
-686.324	42.068	0.241	-0.219
-685.310	-116.724	-0.240	0.044
-684.295	202.049	0.066	0.101
-683.281	-91.004	-0.156	0.045
-682.266	-155.367	0.124	-0.008
-681.251	-17.752	0.162	-0.102
-680.237	800.000	0.027	0.083
-679.222	-112.144	-0.138	0.028
-678.208	16.308	-0.186	-0.147
-677.193	482.172	-0.120	0.272
-676.178	41.055	0.161	0.145
-675.164	637.906	0.128	-0.326
-674.149	161.345	-0.091	-0.127
-673.135	160.080	-0.096	0.134
-672.120	-200.000	-0.004	-0.089
-671.105	96.050	0.176	0.201
-670.091	88.187	0.156	-0.173
-669.076	459.740	-0.074	0.165
-668.062	345.370	0.064	0.125
-667.047	-200.000	0.029	0.188
-666.032	191.194	-0.138	0.207
-665.018	-34.336	0.156	-0.085
-664.003	-200.000	0.039	0.259
-662.989	-93.197	-0.351	0.098
-661.974	164.101	0.204	-0.287
-660.959	-200.000	0.061	-0.361
-659.945	-200.000	-0.018	0.116
-658.930	800.000	0.022	0.082
-657.916	-68.867	-0.504	-0.194
-656.901	242.080	0.055	-0.092
-655.886	-117.637	0.192	0.035
-654.872	7.762	-0.238	0.178
-653.857	-18.699	-0.128	0.079
-652.843	-167.395	0.168	0.007
-651.828	-188.709	0.218	-0.003
-650.814	-200.000	-0.073	0.343
-649.799	33.997	0.040	0.035
-648.784	-86.490	-0.101	0.031
-647.770	-89.831	0.309	-0.090
-646.755	29.689	-0.285	0.242
-645.741	-40.532	0.186	-0.096
-644.726	16.814	-0.306	0.241
-643.711	556.692	-0.043	0.103
-642.697	-107.403	0.063	-0.014
-641.682	715.496	-0.061	-0.162
-640.668	800.000	0.035	-0.098
-639.653	1.651	-0.279	-0.201
-638.638	-74.707	0.270	0.097
-637.624	-122.820	0.321	0.052
-636.609	-200.000	-0.070	-0.333
-635.595	5.456	-0.163	0.120
-634.580	-200.000	0.011	-0.266
-633.565	-189.894	-0.316	-0.004
-632.551	-16.946	0.075	0.048
-631.536	-140.343	0.192	0.020
-630.522	34.692	-0.188	-0.164
-629.507	306.615	0.076	0.141
-628.492	-163.549	0.155	-0.007
-627.478	-84.735	-0.473	-0.148
-626.463	800.000	0.137	0.546
-625.449	113.088	0.077	-0.093
-624.434	522.726	-0.122	-0.285
-623.419	656.514	-0.076	-0.194
-622.405	-96.805	0.258	-0.068
-621.390	-53.488	-0.429	-0.196
-620.376	115.540	0.193	-0.236
-619.361	-46.054	-0.232	0.114
-618.346	12.070	0.103	-0.079
-617.332	-200.000	-0.016	-0.265
-616.317	128.517	0.051	0.065
-615.303	12.717	-0.260	-0.200
-614.288	-181.173	0.154	0.003
-613.273	473.376	-0.067	-0.151
-612.259	-98.108	-0.057	-0.015
-611.244	800.000	0.056	-0.189
-610.230	-200.000	0.005	0.205
-609.215	-47.244	0.360	-0.175
-608.201	800.000	0.086	0.264
-607.186	191.710	0.097	0.145
-606.171	71.124	0.098	0.101
-605.157	-54.124	0.197	0.089
-604.142	537.400	-0.093	-0.221
-603.128	-74.602	-0.199	-0.071
-602.113	566.019	-0.085	-0.205
-601.098	-200.000	-0.059	0.286
-600.084	-157.427	-0.214	-0.013
-599.069	48.216	-0.192	0.179
-598.055	-34.798	0.248	0.135
-597.040	800.000	0.056	0.238
-596.025	55.248	-0.054	-0.052
-595.011	-179.482	-0.143	-0.003
-593.996	513.544	-0.119	-0.277
-592.982	-109.122	0.294	0.062
-591.967	-77.904	-0.265	0.091
-590.952	-122.058	-0.235	0.038
-589.938	252.909	-0.125	-0.213
-588.923	89.592	0.136	0.152
-587.909	157.358	-0.212	-0.293
-586.894	-9.776	0.272	0.180
-585.879	-200.000	0.005	0.413
-584.865	-200.000	0.048	-0.542
-583.850	145.664	-0.059	0.079
-582.836	-73.135	-0.396	-0.144
-581.821	158.672	0.046	-0.063
-580.806	209.465	0.159	0.248
-579.792	565.542	0.024	-0.059
-578.777	-67.706	-0.148	-0.058
-577.763	-22.162	-0.121	-0.073
-576.748	-41.831	0.078	0.040
-575.733	559.765	-0.189	0.454
-574.719	-0.685	-0.207	-0.146
-573.704	117.057	0.183	-0.223
-572.690	-90.306	0.270	-0.078
-571.675	10.848	0.068	0.052
-570.661	-28.066	-0.431	-0.248
-569.646	-133.949	-0.021	0.003
-568.631	-50.680	-0.028	-0.013
-567.617	-25.207	0.081	0.048
-566.602	108.059	0.212	-0.251
-565.588	-116.490	0.105	0.019
-564.573	-127.639	0.132	0.019
-563.558	-139.008	-0.052	0.006
-562.544	-112.196	-0.233	-0.047
-561.529	-44.005	0.199	0.099
-560.515	-154.638	0.314	-0.021
-559.500	-131.457	0.312	-0.041
-558.485	800.000	-0.048	0.161
-557.471	355.108	0.159	0.314
-556.456	-134.216	0.119	-0.015
-555.442	50.092	-0.119	-0.112
-554.427	-200.000	-0.028	-0.142
-553.412	-123.171	0.320	0.051
-552.398	-87.342	-0.082	0.025
-551.383	41.804	-0.047	0.043
-550.369	92.062	0.170	0.190
-549.354	69.244	0.070	-0.072
-548.339	308.961	0.117	-0.218
-547.325	-65.567	0.204	0.081
-546.310	52.958	0.151	-0.144
-545.296	124.656	0.070	-0.088
-544.281	-130.307	-0.053	0.007
-543.266	75.236	-0.141	-0.147
-542.252	-93.652	-0.263	0.072
-541.237	-200.000	-0.055	0.250
-540.223	-74.991	-0.218	0.078
-539.208	800.000	-0.042	0.172
-538.193	-200.000	-0.002	0.303
-537.179	134.243	-0.055	0.071
-536.164	132.607	0.059	-0.075
-535.150	56.090	-0.268	0.258
-534.135	800.000	0.090	0.341
-533.121	-200.000	0.037	0.350
-532.106	-48.729	0.043	-0.020
-531.091	423.491	0.075	-0.159
-530.077	-41.287	-0.282	0.144
-529.062	-200.000	-0.046	0.321
-528.048	21.594	-0.184	0.149
-527.033	-122.886	0.146	0.023
-526.018	-2.176	-0.243	-0.170
-525.004	800.000	0.039	0.163
-523.989	267.923	0.145	-0.252
-522.975	73.106	0.089	0.092
-521.960	-11.934	-0.183	-0.119
-520.945	60.797	0.127	-0.125
-519.931	-56.185	-0.117	-0.052
-518.916	358.589	0.064	-0.127
-517.902	319.411	-0.081	0.153
-516.887	-125.787	-0.215	-0.032
-515.872	196.967	0.018	0.027
-514.858	800.000	-0.122	0.351
-513.843	-200.000	-0.042	0.493
-512.829	-47.598	0.016	-0.008
-511.814	146.276	-0.036	-0.048
-510.799	800.000	0.009	-0.026
-509.785	306.491	-0.188	-0.347
-508.770	26.010	0.104	0.086
-507.756	168.129	0.134	0.189
-506.741	738.720	-0.128	0.341
-505.726	77.525	-0.260	0.275
-504.712	-107.076	-0.289	0.063
-503.697	42.368	-0.226	-0.204
-502.683	-200.000	0.032	-0.233
-501.668	-128.957	-0.148	0.021
-500.653	-94.161	0.333	0.091
-499.639	402.756	-0.117	-0.243
-498.624	517.319	0.091	0.212
-497.610	-5.291	0.197	0.134
-496.595	-133.321	-0.502	-0.063
-495.581	-200.000	0.008	-0.094
-494.566	-200.000	-0.067	0.346
-493.551	-13.460	-0.203	-0.131
-492.537	644.800	0.016	-0.039
-491.522	-45.779	0.106	-0.052
-490.508	-73.700	0.246	0.089
-489.493	-64.020	-0.335	-0.136
-488.478	-127.915	0.366	-0.052
-487.464	96.495	0.139	-0.158
-486.449	60.846	-0.191	-0.188
-485.435	171.581	0.229	0.326
-484.420	103.154	-0.124	-0.144
-483.405	-141.588	0.421	-0.042
-482.391	-138.770	-0.302	-0.033
-481.376	-29.409	0.279	-0.158
-480.362	-200.000	0.002	-0.131
-479.347	-200.000	0.032	-0.159
-478.332	-33.307	0.391	0.215
-477.318	-200.000	0.010	0.093
-476.303	-2.899	0.130	-0.090
-475.289	212.050	0.026	0.040
-474.274	-142.857	0.250	-0.024
-473.259	40.823	-0.220	-0.197
-472.245	-200.000	0.110	-0.514
-471.230	175.043	-0.269	-0.386
-470.216	26.352	-0.020	0.017
-469.201	-200.000	-0.031	-0.139
-468.186	-200.000	0.033	0.144
-467.172	14.371	0.137	0.106
-466.157	-66.335	-0.203	-0.080
-465.143	-72.101	0.152	0.056
-464.128	-97.124	0.252	-0.065
-463.113	-31.179	-0.344	0.192
-462.099	-102.930	-0.133	-0.031
-461.084	-130.028	-0.299	-0.040
-460.070	-200.000	0.080	0.413
-459.055	49.303	0.113	-0.105
-458.040	-200.000	-0.034	0.158
-457.026	800.000	-0.035	0.150
-456.011	-74.798	-0.292	-0.104
-454.997	-132.216	0.268	0.034
-453.982	-38.910	-0.127	0.066
-452.968	341.728	0.179	0.346
-451.953	126.979	-0.251	-0.315
-450.938	-18.996	0.138	-0.085
-449.924	75.190	0.199	0.207
-448.909	-200.000	0.013	0.113
-447.895	-76.546	-0.060	-0.021
-446.880	412.844	0.012	0.025
-445.865	141.562	-0.139	-0.182
-444.851	-66.910	0.162	-0.063
-443.836	-112.008	-0.183	0.036
-442.822	-200.000	-0.024	0.173
-441.807	66.529	-0.342	-0.344
-440.792	-200.000	0.004	0.099
-439.778	45.648	0.044	-0.040
-438.763	532.317	-0.100	-0.233
-437.749	86.180	0.128	0.140
-436.734	277.463	0.137	-0.241
-435.719	321.088	0.049	0.092
-434.705	-200.000	0.007	-0.242
-433.690	800.000	-0.059	0.207
-432.676	-163.133	0.100	-0.005
-431.661	253.669	0.139	-0.236
-430.646	-200.000	-0.062	-0.277
-429.632	-136.742	0.072	0.008
-428.617	448.023	-0.027	0.059
-427.603	-70.035	-0.218	0.082
-426.588	800.000	-0.052	-0.203
-425.573	224.812	-0.282	0.451
-424.559	-78.246	-0.179	-0.061
-423.544	-27.837	-0.163	-0.093
-422.530	800.000	-0.068	-0.248
-421.515	-137.663	0.275	0.031
-420.500	50.773	-0.174	-0.163
-419.486	545.333	-0.090	-0.212
-418.471	-60.504	0.189	-0.079
-417.457	800.000	-0.043	-0.149
-416.442	800.000	-0.140	0.409
-415.428	-82.016	0.040	0.013
-414.413	-148.358	-0.193	-0.016
-413.398	-115.201	-0.050	-0.009
-412.384	-200.000	0.002	-0.176
-411.369	-90.181	0.286	-0.082
-410.355	-87.808	0.085	-0.025
-409.340	-152.868	0.264	-0.018
-408.325	800.000	0.045	0.148
-407.311	18.784	0.141	-0.112
-406.296	70.075	0.263	-0.269
-405.282	-200.000	-0.023	0.299
-404.267	-200.000	0.006	0.179
-403.252	800.000	0.071	0.255
-402.238	-200.000	0.004	-0.420
-401.223	800.000	0.050	-0.210
-400.209	336.626	-0.050	0.096
-399.194	-8.773	0.211	0.140
-398.179	-8.234	0.179	0.119
-397.165	55.048	-0.152	0.145
-396.150	-2.356	-0.107	0.074
-395.136	-54.359	0.243	-0.109
-394.121	136.132	-0.118	0.152
-393.106	287.710	-0.062	-0.110
-392.092	-200.000	0.004	-0.446
-391.077	-200.000	-0.010	-0.408
-390.063	67.153	-0.049	0.049
-389.048	800.000	0.050	-0.216
-388.033	-64.477	0.079	0.032
-387.019	351.571	-0.079	0.154
-386.004	137.907	0.060	-0.078
-384.990	-24.021	0.117	0.069
-383.975	-85.519	-0.180	0.055
-382.960	800.000	0.055	-0.163
-381.946	-200.000	0.027	-0.235
-380.931	-200.000	0.021	-0.142
-379.917	800.000	-0.044	0.179
-378.902	198.337	-0.109	0.164
-377.888	-17.203	0.102	-0.064
-376.873	426.966	-0.152	0.323
-375.858	-79.166	-0.214	0.072
-374.844	-150.341	0.344	-0.026
-373.829	58.315	0.241	0.234
-372.815	292.850	0.059	0.106
-371.800	-113.636	0.197	-0.038
-370.785	-113.794	0.315	-0.060
-369.771	800.000	0.069	-0.242
-368.756	33.788	0.145	-0.125
-367.742	334.352	-0.045	-0.087
-366.727	70.820	-0.283	0.289
-365.712	-44.257	0.101	0.050
-364.698	-18.583	-0.282	-0.174
-363.683	-116.396	0.220	-0.040
-362.669	350.198	0.102	-0.199
-361.654	-0.099	0.078	0.055
-360.639	-29.996	0.160	0.090
-359.625	393.650	0.032	0.065
-358.610	292.593	-0.008	-0.014
-357.596	-200.000	0.004	0.190
-356.581	25.597	0.121	-0.100
-355.566	-59.459	0.182	-0.077
-354.552	-18.300	-0.184	-0.113
-353.537	-200.000	0.005	-0.089
-352.523	-200.000	0.021	0.347
-351.508	209.271	-0.077	-0.120
-350.493	-134.165	-0.219	0.027
-349.479	-200.000	0.007	0.067
-348.464	-150.058	-0.049	-0.004
-347.450	-200.000	-0.039	0.330
-346.435	800.000	0.038	0.114
-345.420	24.464	-0.352	-0.287
-344.406	-15.433	0.120	0.076
-343.391	800.000	0.033	0.090
-342.377	-80.777	-0.199	0.065
-341.362	51.401	-0.186	0.174
-340.348	-200.000	-0.051	0.232
-339.333	155.852	0.094	0.128
-338.318	800.000	0.049	-0.205
-337.304	800.000	0.054	0.167
-336.289	765.251	-0.046	-0.124
-335.275	245.485	0.046	0.077
-334.260	800.000	-0.037	-0.123
-333.245	449.877	-0.077	-0.168
-332.231	-200.000	-0.011	0.249
-331.216	383.128	-0.063	0.128
-330.202	800.000	-0.043	0.121
-329.187	-74.901	0.140	-0.050
-328.172	30.248	0.090	0.076
-327.158	205.313	-0.097	-0.149
-326.143	-200.000	0.017	0.155
-325.129	-13.731	-0.089	0.057
-324.114	-141.487	-0.537	0.053
-323.099	-84.268	0.061	0.019
-322.085	-83.453	0.171	-0.054
-321.070	35.042	-0.311	-0.268
-320.056	-200.000	-0.063	0.404
-319.041	-63.939	0.214	-0.086
-318.026	468.143	0.172	0.379
-317.012	-35.362	-0.342	0.183
-315.997	-59.571	0.587	0.248
-314.983	-200.000	-0.028	0.378
-313.968	-74.251	0.124	0.044
-312.953	800.000	-0.082	0.272
-311.939	-133.369	0.256	0.032
-310.924	-15.078	0.170	0.107
-309.910	-200.000	0.031	0.169
-308.895	800.000	0.068	-0.236
-307.880	800.000	0.094	0.390
-306.866	800.000	-0.043	0.134
-305.851	452.516	-0.078	-0.170
-304.837	157.689	-0.138	0.189
-303.822	-200.000	0.004	0.064
-302.807	-174.702	0.377	0.011
-301.793	-200.000	-0.011	0.090
-300.778	800.000	-0.125	0.381
-299.764	4.785	0.278	-0.201
-298.749	-126.822	-0.347	0.050
-297.735	-200.000	-0.017	-0.294
-296.720	-200.000	-0.032	-0.141
-295.705	-157.874	-0.090	0.005
-294.691	800.000	0.112	-0.316
-293.676	-87.219	0.419	0.125
-292.662	11.651	-0.261	-0.197
-291.647	-121.741	0.517	-0.084
-290.632	167.969	-0.274	0.384
-289.618	461.652	-0.110	-0.242
-288.603	-14.173	0.245	0.155
-287.589	-78.009	-0.327	-0.111
-286.574	85.271	0.154	0.167
-285.559	263.818	0.152	-0.260
-284.545	172.867	-0.103	-0.145
-283.530	126.253	-0.264	-0.329
-282.516	-85.285	-0.218	-0.067
-281.501	232.421	0.143	-0.232
-280.486	279.909	0.168	-0.295
-279.472	195.374	0.098	0.146
-278.457	-122.869	0.271	-0.043
-277.443	-200.000	-0.020	-0.088
-276.428	136.768	0.099	-0.127
-275.413	119.672	0.217	-0.265
-274.399	107.800	-0.179	0.209
-273.384	-200.000	0.040	0.207
-272.370	559.830	-0.160	0.381
-271.355	747.471	0.072	0.191
-270.340	59.667	-0.146	0.142
-269.326	61.555	0.111	-0.108
-268.311	59.686	0.115	-0.111
-267.297	800.000	-0.066	-0.272
-266.282	545.236	0.116	0.273
-265.267	-25.583	0.518	-0.301
-264.253	800.000	0.114	0.327
-263.238	-55.614	-0.331	0.146
-262.224	-98.107	0.368	-0.093
-261.209	534.319	0.241	-0.561
-260.195	-107.865	0.074	0.016
-259.180	445.738	0.152	-0.328
-258.165	-11.672	0.064	-0.041
-257.151	342.215	0.144	-0.276
-256.136	304.380	0.136	0.249
-255.122	261.838	-0.110	-0.187
-254.107	-200.000	-0.006	0.034
-253.092	643.045	-0.091	-0.228
-252.078	800.000	-0.058	-0.238
-251.063	800.000	0.081	-0.269
-250.049	217.112	0.053	-0.083
-249.034	86.121	-0.205	-0.221
-248.019	-162.062	0.129	0.006
-247.005	800.000	-0.030	-0.127
-245.990	186.880	-0.063	-0.092
-244.976	-112.444	-0.051	0.010
-243.961	190.748	-0.086	-0.127
-242.946	-180.213	-0.147	0.003
-241.932	-20.211	0.359	-0.217
-240.917	681.732	0.069	-0.176
-239.903	7.943	-0.128	-0.094
-238.888	-74.598	-0.365	-0.129
-237.873	89.336	0.136	-0.149
-236.859	-102.650	-0.071	0.017
-235.844	30.827	-0.227	0.191
-234.830	681.219	-0.095	-0.242
-233.815	155.473	-0.114	-0.155
-232.800	-115.603	-0.151	0.028
-231.786	489.743	0.029	0.065
-230.771	-159.035	-0.279	0.016
-229.757	-200.000	-0.033	0.145
-228.742	623.309	-0.119	0.295
-227.727	-85.439	-0.143	0.044
-226.713	-109.613	-0.403	-0.083
-225.698	-65.389	-0.080	-0.032
-224.684	146.080	-0.240	-0.316
-223.669	-121.321	0.284	0.047
-222.655	-119.504	-0.335	0.057
-221.640	-200.000	0.026	-0.157
-220.625	-101.822	-0.248	-0.059
-219.611	-114.293	0.080	-0.015
-218.596	440.944	-0.083	-0.178
-217.582	-131.145	-0.125	0.016
-216.567	262.617	-0.071	0.120
-215.552	-147.416	0.445	-0.037
-214.538	-200.000	-0.050	0.344
-213.523	-38.322	-0.169	-0.088
-212.509	543.176	-0.150	-0.351
-211.494	38.804	0.287	0.251
-210.479	51.503	-0.477	0.444
-209.465	800.000	0.018	-0.068
-208.450	80.222	0.034	0.036
-207.436	-200.000	-0.044	0.272
-206.421	58.768	-0.206	-0.198
-205.406	-49.887	0.232	0.108
-204.392	-200.000	0.017	-0.142
-203.377	-15.240	0.164	0.103
-202.363	800.000	-0.003	-0.013
-201.348	-9.155	0.156	0.102
-200.333	33.445	-0.121	0.103
-199.319	211.320	0.238	0.368
-198.304	-111.054	-0.525	-0.106
-197.290	0.288	0.148	-0.103
-196.275	-98.493	0.236	0.059
-195.260	10.458	-0.143	0.106
-194.246	38.547	0.295	0.258
-193.231	1.948	0.240	0.170
-192.217	-200.000	0.032	-0.274
-191.202	43.200	-0.287	0.257
-190.187	577.074	-0.154	0.370
-189.173	800.000	0.087	0.285
-188.158	315.369	0.237	0.438
-187.144	800.000	-0.077	-0.275
-186.129	-65.486	0.278	0.109
-185.114	-200.000	0.016	-0.164
-184.100	800.000	-0.057	-0.234
-183.085	321.873	0.140	-0.260
-182.071	-13.890	-0.231	-0.146
-181.056	374.068	0.088	0.175
-180.042	-200.000	0.001	0.019
-179.027	182.636	-0.049	-0.070
-178.012	-200.000	0.271	-0.001
-176.998	-96.171	-0.183	0.048
-175.983	-59.098	-0.222	0.094
-174.969	46.602	0.129	0.118
-173.954	-97.459	-0.127	0.032
-172.939	-68.777	-0.331	0.125
-171.925	-9.918	0.040	-0.026
-170.910	-200.000	-0.013	0.109
-169.896	36.280	0.204	0.176
-168.881	97.766	0.116	-0.131
-167.866	83.847	0.120	-0.128
-166.852	-55.566	-0.193	-0.085
-165.837	800.000	-0.034	-0.106
-164.823	112.087	0.122	0.144
-163.808	75.118	0.063	-0.065
-162.793	800.000	-0.005	-0.014
-161.779	289.025	0.135	-0.239
-160.764	-200.000	0.040	-0.208
-159.750	-98.457	-0.248	0.062
-158.735	-164.982	-0.017	0.001
-157.720	5.848	0.187	-0.135
-156.706	-63.315	0.224	-0.090
-155.691	-200.000	0.002	0.231
-154.677	-110.627	0.291	0.059
-153.662	800.000	-0.052	0.143
-152.647	48.620	-0.159	0.146
-151.633	-68.230	0.103	0.039
-150.618	84.839	0.055	0.059
-149.604	16.306	0.048	0.037
-148.589	-55.684	0.249	0.109
-147.574	371.955	0.058	0.115
-146.560	-170.443	0.061	-0.002
-145.545	-200.000	-0.014	0.169
-144.531	-200.000	-0.018	-0.174
-143.516	1.651	0.138	-0.097
-142.502	-16.912	-0.172	-0.106
-141.487	800.000	0.095	0.258
-140.472	-70.084	-0.139	0.052
-139.458	-200.000	0.027	-0.249
-138.443	164.381	-0.083	0.115
-137.429	-63.724	0.241	-0.096
-136.414	-200.000	-0.064	-0.425
-135.399	-200.000	0.085	0.530
-134.385	-155.561	0.459	0.029
-133.370	189.740	-0.121	-0.177
-132.356	4.896	0.182	0.131
-131.341	91.081	-0.189	0.207
-130.326	-200.000	-0.049	-0.260
-129.312	599.228	0.086	0.209
-128.297	-71.537	0.115	0.042
-127.283	-200.000	0.050	0.289
-126.268	-14.716	-0.067	0.042
-125.253	-150.603	0.448	0.033
-124.239	129.666	-0.205	-0.256
-123.224	-101.285	0.166	0.040
-122.210	-9.293	-0.154	0.101
-121.195	-126.924	-0.432	-0.062
-120.180	-200.000	-0.009	-0.074
