DTS Sentinel unit serial number:	SN413079Multiplexer serial number:	ORYXHardware model number:	OX4-SRSoftware version number:	ORYX F/W v4.00 Oryx Data Collector v3.7.2.0data status	okinstallation	princeton_trtdifferential loss correction	single-endedforward channel	channel 3reverse channel	N/Adate	2019/09/11time	21:30:11forward acquisition time	60.00reverse acquisition time	0.00gamma	496.2192k internal	0.2309k external	0.2309temperature offset calibration	1.0041default loss term (dB/km)	0.3790temperature slope calibration	1.0000multiplexer offset coefficient	1.0000multiplexer slope coefficient	1.0000fibre end	0.00T internal ref (°C)	36.00T ext. ref 1 (°C)	1.63T ext. ref 2 (°C)	29.97length (m)	temperature (°C)	Stokes	anti-Stokes-747.200	-49.619	-0.264	0.128
-746.185	28.266	0.265	0.228
-745.171	-183.361	0.177	0.003
-744.156	21.133	-0.460	0.379
-743.142	328.768	0.093	0.182
-742.127	-67.315	-0.112	-0.045
-741.112	213.965	0.230	-0.370
-740.098	-200.000	0.067	0.348
-739.083	627.402	-0.032	-0.082
-738.069	-6.763	0.239	0.165
-737.054	-16.765	-0.241	0.155
-736.039	800.000	-0.041	0.165
-735.025	-105.474	-0.273	-0.063
-734.010	31.266	0.219	0.191
-732.996	253.421	-0.234	-0.405
-731.981	-136.518	-0.454	0.053
-730.966	63.823	-0.221	-0.225
-729.952	-86.764	-0.170	-0.053
-728.937	-200.000	-0.031	-0.211
-727.923	800.000	0.077	-0.223
-726.908	800.000	0.025	-0.110
-725.894	-170.936	-0.309	0.011
-724.879	339.062	-0.136	-0.270
-723.864	344.237	-0.029	0.058
-722.850	221.024	-0.062	0.101
-721.835	-48.085	0.267	0.131
-720.821	-94.193	-0.141	-0.039
-719.806	-159.658	-0.331	0.019
-718.791	-0.551	0.365	0.263
-717.777	116.497	-0.171	0.212
-716.762	6.490	-0.228	-0.172
-715.748	-200.000	0.046	-0.255
-714.733	201.169	0.160	-0.250
-713.718	800.000	-0.046	0.175
-712.704	284.169	0.199	-0.364
-711.689	161.710	-0.172	0.245
-710.675	-200.000	0.020	-0.215
-709.660	98.276	-0.158	0.184
-708.645	187.772	0.170	0.257
-707.631	-84.768	-0.378	0.121
-706.616	-54.413	-0.051	0.023
-705.602	134.255	-0.068	-0.090
-704.587	116.615	0.104	-0.130
-703.572	123.267	-0.035	0.045
-702.558	-148.913	0.331	-0.027
-701.543	800.000	-0.018	0.078
-700.529	-68.704	0.161	-0.063
-699.514	62.432	-0.102	-0.103
-698.499	-94.777	0.098	0.027
-697.485	-109.874	-0.135	-0.029
-696.470	554.759	-0.027	0.065
-695.456	-51.774	0.026	0.012
-694.441	284.356	0.094	0.171
-693.426	-159.729	0.160	0.009
-692.412	-21.664	-0.200	-0.124
-691.397	97.685	-0.119	0.138
-690.383	800.000	0.035	0.117
-689.368	-200.000	0.037	-0.199
-688.354	-103.738	-0.203	-0.048
-687.339	20.943	-0.147	-0.121
-686.324	10.101	-0.046	0.035
-685.310	-200.000	-0.003	0.099
-684.295	800.000	-0.160	0.457
-683.281	-200.000	0.005	0.219
-682.266	-200.000	0.010	-0.172
-681.251	673.801	-0.104	-0.273
-680.237	-104.468	-0.051	0.012
-679.222	132.351	0.125	-0.164
-678.208	-122.242	-0.209	0.035
-677.193	-200.000	-0.013	0.416
-676.178	-91.043	0.277	0.081
-675.164	-129.845	0.162	0.023
-674.149	20.324	0.075	0.062
-673.135	-82.016	-0.151	0.050
-672.120	-17.289	-0.245	-0.156
-671.105	800.000	-0.050	-0.153
-670.091	800.000	-0.044	-0.157
-669.076	112.848	0.074	-0.091
-668.062	-200.000	0.026	-0.158
-667.047	21.902	0.240	-0.198
-666.032	-25.452	-0.119	-0.071
-665.018	-200.000	0.011	-0.069
-664.003	73.305	0.142	-0.150
-662.989	800.000	0.094	-0.274
-661.974	-75.818	-0.333	0.120
-660.959	249.467	-0.083	-0.143
-659.945	406.548	0.117	-0.250
-658.930	193.311	0.128	-0.195
-657.916	-51.834	-0.095	-0.045
-656.901	588.883	0.060	-0.149
-655.886	59.765	-0.124	0.124
-654.872	-70.935	-0.122	-0.047
-653.857	-200.000	-0.046	-0.218
-652.843	529.210	0.191	-0.456
-651.828	314.620	0.039	-0.074
-650.814	-41.928	-0.225	0.117
-649.799	-200.000	-0.048	-0.287
-648.784	435.162	0.101	-0.222
-647.770	-150.796	-0.077	0.006
-646.755	264.308	0.115	-0.203
-645.741	-90.946	-0.133	-0.039
-644.726	-80.111	-0.479	-0.162
-643.711	-71.281	0.089	-0.034
-642.697	-58.775	0.102	-0.045
-641.682	-200.000	0.008	-0.186
-640.668	-200.000	0.034	-0.236
-639.653	-93.292	0.079	-0.022
-638.638	8.707	0.312	0.238
-637.624	-92.531	-0.255	-0.073
-636.609	-147.659	0.192	0.016
-635.595	-68.699	0.222	-0.087
-634.580	147.729	-0.145	0.198
-633.565	-46.336	0.333	0.166
-632.551	449.562	-0.087	0.194
-631.536	27.791	-0.318	0.271
-630.522	-89.843	-0.105	-0.031
-629.507	412.039	-0.032	-0.070
-628.492	-141.829	-0.109	0.011
-627.478	-99.634	-0.165	-0.042
-626.463	-110.956	-0.521	0.108
-625.449	203.935	-0.132	0.206
-624.434	285.563	-0.101	-0.183
-623.419	49.499	0.292	0.278
-622.405	-28.089	-0.207	-0.121
-621.390	-200.000	-0.019	-0.151
-620.376	37.394	-0.077	0.069
-619.361	487.751	-0.099	-0.227
-618.346	-26.082	-0.174	0.103
-617.332	24.374	-0.206	0.172
-616.317	-64.200	0.405	0.167
-615.303	-99.203	-0.128	-0.033
-614.288	-200.000	-0.031	0.164
-613.273	388.273	-0.031	-0.066
-612.259	-200.000	0.024	-0.123
-611.244	800.000	-0.050	-0.203
-610.230	-46.855	0.044	-0.022
-609.215	175.733	0.160	-0.235
-608.201	800.000	-0.013	-0.037
-607.186	-14.550	0.150	0.097
-606.171	-120.185	-0.159	-0.027
-605.157	71.462	-0.091	-0.096
-604.142	-103.108	0.089	0.021
-603.128	-200.000	-0.020	0.136
-602.113	31.350	0.254	-0.221
-601.098	78.736	0.123	-0.133
-600.084	482.037	-0.095	0.219
-599.069	59.077	0.394	-0.391
-598.055	-42.706	-0.223	-0.115
-597.040	-200.000	-0.025	0.200
-596.025	-103.159	-0.207	-0.049
-595.011	414.958	-0.073	0.157
-593.996	525.811	-0.080	-0.191
-592.982	48.771	-0.163	-0.154
-591.967	339.202	-0.095	0.187
-590.952	-51.046	-0.393	-0.186
-589.938	-200.000	0.000	0.025
-588.923	256.513	0.064	0.110
-587.909	-10.871	0.229	0.153
-586.894	20.652	-0.165	-0.135
-585.879	-31.936	-0.213	-0.120
-584.865	277.501	-0.207	-0.372
-583.850	-78.990	-0.134	-0.046
-582.836	-92.981	0.077	-0.022
-581.821	-200.000	0.011	-0.458
-580.806	-54.067	0.089	0.041
-579.792	-7.032	0.102	-0.070
-578.777	637.713	-0.105	-0.270
-577.763	-200.000	0.002	0.403
-576.748	-78.182	0.162	-0.056
-575.733	76.393	-0.071	0.076
-574.719	143.278	0.033	0.044
-573.704	478.961	-0.184	-0.420
-572.690	-200.000	0.023	0.161
-571.675	297.219	-0.115	-0.212
-570.661	800.000	-0.111	0.356
-569.646	-200.000	0.038	0.248
-568.631	-25.216	-0.032	-0.019
-567.617	-200.000	-0.004	-0.163
-566.602	-200.000	-0.069	-0.382
-565.588	-75.925	-0.241	0.086
-564.573	-26.405	0.071	0.042
-563.558	-93.829	0.290	-0.081
-562.544	-98.642	-0.130	0.033
-561.529	-75.891	-0.091	0.032
-560.515	-138.192	-0.127	-0.014
-559.500	-22.239	0.301	0.184
-558.485	-111.630	-0.379	-0.078
-557.471	800.000	-0.109	-0.398
-556.456	800.000	-0.025	-0.087
-555.442	-91.387	0.169	-0.049
-554.427	523.419	-0.090	-0.213
-553.412	-59.957	0.169	0.073
-552.398	38.659	-0.165	0.148
-551.383	-114.617	0.263	-0.051
-550.369	-2.906	0.362	0.255
-549.354	35.345	-0.036	0.031
-548.339	-131.265	0.287	0.038
-547.325	-84.840	0.368	-0.117
-546.310	-18.126	0.031	-0.020
-545.296	-200.000	-0.042	0.198
-544.281	388.187	0.074	0.154
-543.266	119.878	-0.149	0.186
-542.252	-52.149	0.121	0.057
-541.237	90.594	-0.306	0.345
-540.223	-53.305	0.180	0.083
-539.208	-31.070	0.260	-0.148
-538.193	-49.720	-0.156	-0.075
-537.179	71.984	-0.100	-0.105
-536.164	-200.000	-0.005	0.149
-535.150	800.000	-0.037	-0.141
-534.135	65.565	0.101	-0.103
-533.121	-26.775	-0.195	0.115
-532.106	460.458	-0.045	0.100
-531.091	-96.136	-0.266	-0.071
-530.077	-20.030	-0.009	-0.005
-529.062	-26.015	0.120	0.071
-528.048	153.699	0.083	-0.115
-527.033	8.131	-0.428	-0.323
-526.018	187.601	0.150	0.225
-525.004	800.000	-0.069	-0.278
-523.989	-109.611	0.179	0.038
-522.975	800.000	-0.066	-0.193
-521.960	510.726	-0.109	-0.256
-520.945	800.000	0.036	0.120
-519.931	-25.632	0.068	0.041
-518.916	-200.000	0.054	-0.252
-517.902	-87.825	-0.353	-0.107
-516.887	276.048	0.194	0.346
-515.872	18.959	-0.195	-0.157
-514.858	800.000	-0.082	-0.239
-513.843	189.295	-0.048	-0.072
-512.829	442.200	0.096	-0.211
-511.814	-118.753	-0.241	0.043
-510.799	23.700	-0.471	0.390
-509.785	48.209	-0.177	0.167
-508.770	378.310	0.009	-0.020
-507.756	-81.653	0.237	0.078
-506.741	343.492	-0.086	-0.171
-505.726	336.759	0.050	0.098
-504.712	-109.737	0.214	-0.045
-503.697	490.227	-0.066	-0.151
-502.683	-132.457	-0.092	0.012
-501.668	425.987	-0.102	-0.221
-500.653	-42.387	0.070	-0.036
-499.639	499.711	-0.078	0.181
-498.624	800.000	0.014	0.044
-497.610	800.000	-0.052	-0.178
-496.595	-32.786	-0.183	0.102
-495.581	-100.450	-0.224	0.056
-494.566	252.765	-0.080	-0.137
-493.551	-200.000	-0.014	-0.105
-492.537	-93.711	0.127	-0.035
-491.522	800.000	-0.081	0.282
-490.508	-85.944	0.204	0.063
-489.493	-4.403	0.203	0.141
-488.478	-128.851	-0.265	0.038
-487.464	60.089	0.053	0.053
-486.449	158.316	0.109	0.151
-485.435	-120.606	0.177	-0.030
-484.420	-79.015	-0.117	-0.040
-483.405	49.360	-0.142	-0.134
-482.391	-52.730	0.372	0.172
-481.376	-135.157	-0.369	-0.045
-480.362	60.445	0.120	0.120
-479.347	800.000	-0.018	-0.062
-478.332	-51.360	-0.218	-0.102
-477.318	-200.000	-0.024	0.235
-476.303	50.632	0.252	0.240
-475.289	-200.000	0.058	-0.278
-474.274	-47.263	-0.117	-0.057
-473.259	-99.465	-0.322	-0.082
-472.245	-99.907	-0.095	0.024
-471.230	-200.000	-0.055	-0.246
-470.216	-200.000	0.008	-0.042
-469.201	-151.491	0.097	-0.007
-468.186	-200.000	-0.027	-0.175
-467.172	646.967	-0.088	0.226
-466.157	-154.339	0.229	0.015
-465.143	112.860	-0.155	-0.189
-464.128	354.382	-0.096	-0.192
-463.113	800.000	-0.085	0.303
-462.099	89.523	-0.092	-0.103
-461.084	-135.970	-0.044	0.005
-460.070	20.339	0.255	-0.207
-459.055	17.909	-0.211	-0.169
-458.040	302.833	-0.186	0.346
-457.026	267.894	0.049	0.086
-456.011	83.521	0.084	-0.092
-454.997	-11.475	0.067	0.045
-453.982	-51.909	-0.130	0.061
-452.968	-102.460	-0.106	0.026
-451.953	-87.711	-0.226	-0.068
-450.938	-110.357	0.082	-0.017
-449.924	-112.820	-0.109	0.022
-448.909	800.000	0.141	0.402
-447.895	15.189	0.140	0.110
-446.880	800.000	-0.099	-0.379
-445.865	34.457	-0.113	0.099
-444.851	-122.562	0.270	0.044
-443.836	39.045	0.078	0.070
-442.822	-159.270	0.353	0.020
-441.807	26.366	0.076	-0.064
-440.792	24.652	-0.104	0.087
-439.778	55.659	-0.114	-0.111
-438.763	-200.000	0.033	-0.255
-437.749	-177.291	0.500	-0.012
-436.734	64.956	-0.310	0.314
-435.719	-154.979	0.306	0.020
-434.705	800.000	0.052	0.181
-433.690	62.945	-0.137	0.138
-432.676	-22.555	0.126	0.077
-431.661	104.019	0.150	0.177
-430.646	-200.000	-0.017	-0.096
-429.632	46.031	-0.203	-0.188
-428.617	59.997	0.125	-0.124
-427.603	-200.000	0.033	0.383
-426.588	139.507	0.179	0.237
-425.573	-72.614	0.191	-0.071
-424.559	-105.999	-0.152	0.034
-423.544	-66.214	0.149	-0.059
-422.530	-66.730	0.168	0.067
-421.515	207.548	0.059	-0.093
-420.500	-200.000	-0.002	0.191
-419.486	180.460	-0.091	0.134
-418.471	-121.131	0.507	-0.085
-417.457	219.078	0.108	0.174
-416.442	-158.244	0.173	0.010
-415.428	394.703	0.067	-0.140
-414.413	53.261	0.088	-0.085
-413.398	491.990	0.112	0.258
-412.384	-41.746	0.246	-0.126
-411.369	-31.869	-0.094	0.053
-410.355	101.880	0.153	0.179
-409.340	800.000	-0.068	-0.200
-408.325	-200.000	0.245	0.000
-407.311	-126.665	0.112	-0.017
-406.296	-200.000	0.012	0.255
-405.282	250.143	0.108	0.184
-404.267	-32.109	0.241	-0.135
-403.252	64.741	0.076	-0.077
-402.238	-146.968	0.231	0.020
-401.223	183.175	-0.262	-0.388
-400.209	31.835	-0.137	0.118
-399.194	56.642	0.109	-0.107
-398.179	-64.690	-0.232	0.094
-397.165	800.000	0.067	0.212
-396.150	-200.000	-0.036	0.309
-395.136	-100.193	-0.177	-0.044
-394.121	-88.286	0.389	-0.117
-393.106	-26.896	-0.233	0.137
-392.092	-200.000	-0.038	0.194
-391.077	21.545	0.169	-0.138
-390.063	31.572	-0.220	-0.190
-389.048	30.119	-0.187	0.159
-388.033	-200.000	-0.033	0.279
-387.019	-75.579	0.210	0.075
-386.004	-59.221	-0.215	-0.093
-384.990	-16.764	-0.129	0.082
-383.975	-42.813	0.022	-0.011
-382.960	-93.723	-0.137	-0.038
-381.946	-94.294	0.209	0.057
-380.931	-54.494	-0.314	-0.142
-379.917	-112.918	0.081	-0.016
-378.902	8.484	-0.096	0.072
-377.888	648.268	-0.015	0.038
-376.873	-40.043	0.294	0.153
-375.858	-113.674	0.370	0.072
-374.844	-38.079	-0.186	-0.099
-373.829	97.738	-0.145	0.166
-372.815	-104.287	-0.179	-0.042
-371.800	238.355	0.085	0.141
-370.785	-60.290	-0.198	0.084
-369.771	20.552	0.222	-0.179
-368.756	-109.697	0.338	-0.071
-367.742	-200.000	0.017	-0.296
-366.727	-200.000	-0.010	-0.057
-365.712	-200.000	-0.002	0.241
-364.698	-128.146	0.323	0.046
-363.683	84.666	-0.090	0.099
-362.669	61.606	0.244	0.243
-361.654	800.000	0.056	-0.209
-360.639	800.000	0.017	0.061
-359.625	-155.342	0.205	-0.013
-358.610	-200.000	0.013	0.294
-357.596	-76.859	0.113	0.040
-356.581	-35.379	-0.048	0.026
-355.566	-93.921	-0.233	0.064
-354.552	-200.000	-0.001	0.102
-353.537	-109.368	0.086	-0.018
-352.523	-26.753	-0.245	0.144
-351.508	69.609	-0.229	-0.236
-350.493	-9.804	0.090	0.060
-349.479	-68.888	0.350	-0.135
-348.464	800.000	0.067	0.229
-347.450	-34.438	-0.094	0.052
-346.435	-200.000	-0.027	-0.253
-345.420	8.556	-0.185	0.139
-344.406	382.312	-0.113	0.233
-343.391	-117.868	-0.137	0.025
-342.377	621.090	0.088	-0.222
-341.362	119.801	-0.050	-0.062
-340.348	41.189	0.041	0.037
-339.333	497.742	-0.035	0.080
-338.318	-81.767	0.350	-0.115
-337.304	-179.270	-0.241	0.005
-336.289	269.540	-0.099	0.173
-335.275	-200.000	-0.028	-0.183
-334.260	-200.000	0.066	0.334
-333.245	477.071	0.160	-0.362
-332.231	64.769	-0.159	0.160
-331.216	141.789	-0.056	0.074
-330.202	-83.337	-0.302	0.097
-329.187	-46.289	-0.161	0.079
-328.172	-200.000	-0.027	-0.221
-327.158	38.063	-0.346	0.307
-326.143	-100.305	0.379	-0.094
-325.129	142.596	0.199	-0.264
-324.114	-51.392	-0.078	0.037
-323.099	366.516	0.054	0.109
-322.085	633.313	-0.099	0.251
-321.070	800.000	-0.049	-0.204
-320.056	-48.935	0.200	-0.096
-319.041	2.667	-0.230	-0.167
-318.026	-98.126	-0.403	-0.104
-317.012	800.000	-0.111	-0.318
-315.997	800.000	-0.038	0.161
-314.983	152.658	-0.109	0.148
-313.968	348.221	-0.173	0.341
-312.953	-36.690	-0.135	-0.073
-311.939	95.025	-0.137	-0.156
-310.924	-200.000	-0.044	-0.211
-309.910	52.605	-0.012	0.012
-308.895	63.338	0.092	0.093
-307.880	-157.397	-0.425	0.026
-306.866	21.677	0.052	0.042
-305.851	42.487	0.189	0.172
-304.837	-8.558	0.152	-0.102
-303.822	-200.000	-0.089	-0.421
-302.807	-82.754	-0.259	0.084
-301.793	69.225	0.131	-0.135
-300.778	85.378	-0.202	-0.222
-299.764	434.496	0.160	-0.347
-298.749	110.744	-0.058	-0.069
-297.735	-111.678	-0.247	0.050
-296.720	17.012	0.251	0.198
-295.705	-25.223	0.162	0.096
-294.691	-103.168	0.134	-0.032
-293.676	-117.906	0.340	-0.061
-292.662	-200.000	-0.021	0.124
-291.647	-33.863	0.241	0.132
-290.632	127.180	-0.114	0.145
-289.618	-60.654	-0.121	-0.051
-288.603	-200.000	0.035	0.250
-287.589	800.000	-0.040	0.173
-286.574	14.404	-0.173	0.135
-285.559	-103.883	-0.217	0.051
-284.545	123.379	-0.020	0.025
-283.530	74.039	-0.151	-0.158
-282.516	-147.542	0.247	-0.021
-281.501	319.321	0.017	0.033
-280.486	49.328	-0.124	0.116
-279.472	800.000	-0.084	-0.299
-278.457	57.971	0.034	-0.033
-277.443	-200.000	0.073	-0.362
-276.428	800.000	0.068	-0.223
-275.413	612.424	0.106	0.265
-274.399	177.321	0.144	-0.210
-273.384	-98.026	-0.235	-0.060
-272.370	79.179	0.255	0.273
-271.355	62.399	0.417	0.415
-270.340	6.912	0.109	-0.081
-269.326	608.145	-0.028	-0.069
-268.311	-200.000	-0.008	0.074
-267.297	44.296	0.164	0.150
-266.282	-49.849	0.098	0.046
-265.267	-200.000	0.018	-0.326
-264.253	262.408	-0.049	0.085
-263.238	-63.074	-0.234	0.096
-262.224	374.046	-0.084	0.171
-261.209	270.145	0.102	-0.179
-260.195	627.011	0.036	0.091
-259.180	111.222	-0.091	0.109
-258.165	-200.000	0.032	0.143
-257.151	-200.000	-0.050	-0.314
-256.136	-69.934	0.345	-0.131
-255.122	-101.736	-0.140	0.034
-254.107	-186.685	0.210	-0.003
-253.092	-24.535	-0.053	0.031
-252.078	-11.794	-0.093	-0.060
-251.063	-112.862	0.311	-0.062
-250.049	-62.003	0.142	0.059
-249.034	78.388	0.070	0.074
-248.019	-86.511	-0.113	-0.035
-247.005	-44.073	0.124	-0.062
-245.990	-200.000	-0.005	-0.077
-244.976	123.834	0.055	0.068
-243.961	800.000	-0.090	0.255
-242.946	-2.560	0.162	0.113
-241.932	97.571	0.155	0.177
-240.917	-200.000	0.010	0.078
-239.903	-35.380	-0.029	0.016
-238.888	-81.171	-0.090	-0.029
-237.873	-35.353	0.175	0.095
-236.859	-19.475	-0.237	-0.146
-235.844	-30.295	-0.196	-0.111
-234.830	240.739	0.217	-0.361
-233.815	153.175	0.055	0.075
-232.800	-200.000	-0.014	0.246
-231.786	-166.692	0.093	-0.004
-230.771	-200.000	0.013	-0.129
-229.757	7.181	0.102	0.075
-228.742	-200.000	-0.008	0.098
-227.727	22.641	-0.384	0.313
-226.713	332.767	0.141	-0.272
-225.698	-144.145	-0.304	-0.028
-224.684	-142.948	0.183	-0.018
-223.669	179.797	-0.115	-0.167
-222.655	129.903	-0.140	0.178
-221.640	167.625	0.109	0.154
-220.625	-14.019	-0.286	0.184
-219.611	-200.000	0.009	-0.079
-218.596	800.000	-0.047	0.194
-217.582	524.562	-0.181	-0.424
-216.567	-200.000	0.040	-0.247
-215.552	99.120	0.157	-0.181
-214.538	129.347	0.036	-0.046
-213.523	-119.226	-0.503	0.087
-212.509	-1.868	-0.167	-0.117
-211.494	-125.885	0.111	-0.017
-210.479	-200.000	0.064	0.299
-209.465	22.989	-0.060	-0.049
-208.450	800.000	0.169	-0.659
-207.436	-144.606	0.195	-0.018
-206.421	-19.727	0.116	-0.071
-205.406	800.000	-0.070	-0.245
-204.392	-161.561	-0.179	-0.009
-203.377	204.891	0.138	0.213
-202.363	193.019	-0.087	-0.132
-201.348	-18.963	-0.080	-0.050
-200.333	-91.979	0.237	0.067
-199.319	56.101	0.035	-0.034
-198.304	-113.313	-0.527	0.103
-197.290	-200.000	-0.038	0.179
-196.275	-99.616	0.207	0.052
-195.260	146.734	0.066	-0.089
-194.246	-65.617	0.240	-0.096
-193.231	42.891	-0.243	-0.220
-192.217	157.150	-0.217	-0.298
-191.202	-200.000	0.034	0.151
-190.187	15.848	-0.276	-0.216
-189.173	-200.000	0.018	0.109
-188.158	-200.000	-0.030	0.239
-187.144	46.995	-0.209	0.193
-186.129	-200.000	-0.047	0.466
-185.114	666.656	0.042	0.109
-184.100	-132.600	0.503	0.064
-183.085	189.701	-0.074	-0.110
-182.071	-200.000	-0.017	0.191
-181.056	46.885	-0.206	-0.190
-180.042	-8.177	-0.246	0.165
-179.027	41.544	0.222	0.199
-178.012	800.000	-0.027	0.107
-176.998	-200.000	0.098	-0.000
-175.983	-6.043	-0.092	-0.063
-174.969	-112.677	-0.103	-0.020
-173.954	800.000	0.083	-0.266
-172.939	-9.464	0.089	-0.059
-171.925	-110.810	0.406	0.083
-170.910	36.481	-0.102	-0.089
-169.896	-17.278	0.172	0.108
-168.881	226.251	-0.117	-0.188
-167.866	-84.862	0.203	-0.063
-166.852	30.366	0.158	-0.134
-165.837	1.058	0.172	0.122
-164.823	-137.110	0.165	0.019
-163.808	-124.772	0.436	0.067
-162.793	183.393	-0.047	-0.069
-161.779	-128.507	0.419	0.059
-160.764	139.206	0.180	0.235
-159.750	113.302	-0.178	0.214
-158.735	97.502	0.208	-0.237
-157.720	172.758	0.118	-0.169
-156.706	662.601	0.113	0.290
-155.691	-34.816	-0.285	0.154
-154.677	9.773	0.176	0.132
-153.662	-200.000	0.071	-0.348
-152.647	529.146	0.057	-0.133
-151.633	-4.506	-0.149	0.102
-150.618	-109.045	0.354	0.075
-149.604	67.725	0.091	-0.093
-148.589	-44.811	-0.380	-0.188
-147.574	41.569	0.109	-0.098
-146.560	289.039	-0.111	0.199
-145.545	-83.554	0.212	0.067
-144.531	237.074	-0.095	0.156
-143.516	800.000	-0.070	-0.207
-142.502	-10.805	0.092	0.060
-141.487	-44.065	-0.282	-0.141
-140.472	-148.309	0.310	-0.025
-139.458	800.000	-0.062	0.218
-138.443	44.120	-0.149	-0.136
-137.429	-111.399	-0.362	0.073
-136.414	41.015	0.134	-0.120
-135.399	-20.459	-0.194	-0.118
-134.385	-161.902	-0.147	-0.007
-133.370	406.217	-0.035	-0.072
-132.356	120.349	-0.150	-0.185
-131.341	800.000	0.073	-0.261
-130.326	-56.981	-0.087	-0.038
-129.312	119.287	0.280	0.343
-128.297	800.000	-0.066	-0.192
-127.283	-200.000	-0.053	-0.426
-126.268	120.486	-0.189	0.233
-125.253	-200.000	0.042	0.338
-124.239	-22.220	0.131	0.079
-123.224	-58.295	0.288	-0.124
-122.210	-137.335	-0.083	0.009
-121.195	800.000	0.064	-0.233
