DTS Sentinel unit serial number:	SN413079Multiplexer serial number:	ORYXHardware model number:	OX4-SRSoftware version number:	ORYX F/W v4.00 Oryx Data Collector v3.7.2.0data status	okinstallation	princeton_trtdifferential loss correction	single-endedforward channel	channel 3reverse channel	N/Adate	2019/09/16time	11:12:34forward acquisition time	60.00reverse acquisition time	0.00gamma	496.2192k internal	0.2299k external	0.2299temperature offset calibration	0.9952default loss term (dB/km)	0.3790temperature slope calibration	1.0000multiplexer offset coefficient	1.0000multiplexer slope coefficient	1.0000fibre end	0.00T internal ref (°C)	37.14T ext. ref 1 (°C)	12.84T ext. ref 2 (°C)	33.18length (m)	temperature (°C)	Stokes	anti-Stokes-747.200	105.246	-0.090	-0.108
-746.185	-138.161	0.326	0.037
-745.171	-44.032	0.245	0.125
-744.156	-19.226	-0.072	0.046
-743.142	-28.218	0.138	0.081
-742.127	686.949	0.160	0.426
-741.112	222.680	0.031	0.051
-740.098	-171.985	-0.314	0.010
-739.083	-71.159	0.153	-0.059
-738.069	-115.469	0.317	0.061
-737.054	-69.107	0.280	-0.110
-736.039	145.053	-0.155	0.212
-735.025	800.000	-0.093	0.270
-734.010	44.836	0.042	-0.039
-732.996	-32.671	-0.154	0.087
-731.981	-200.000	0.006	0.116
-730.966	-200.000	0.001	-0.047
-729.952	-200.000	0.018	-0.253
-728.937	393.639	0.087	-0.184
-727.923	17.443	0.208	-0.168
-726.908	27.864	-0.154	0.133
-725.894	-107.161	0.469	0.105
-724.879	-141.034	0.108	-0.011
-723.864	800.000	0.055	0.242
-722.850	-200.000	0.041	-0.427
-721.835	-25.643	0.157	-0.094
-720.821	-86.815	-0.394	-0.123
-719.806	200.087	-0.131	-0.205
-718.791	213.555	0.046	-0.075
-717.777	-134.582	-0.252	-0.031
-716.762	666.097	-0.051	-0.134
-715.748	27.564	0.210	0.180
-714.733	-200.000	0.017	0.120
-713.718	-120.487	0.092	0.016
-712.704	-153.618	-0.315	-0.022
-711.689	660.174	0.039	-0.103
-710.675	-4.492	0.096	0.067
-709.660	-87.690	0.319	-0.098
-708.645	-10.152	-0.247	0.167
-707.631	113.275	0.137	0.169
-706.616	-61.438	0.104	-0.044
-705.602	214.314	-0.114	0.183
-704.587	-200.000	-0.014	0.283
-703.572	-8.000	-0.275	-0.189
-702.558	717.900	-0.046	-0.126
-701.543	217.403	0.126	-0.205
-700.529	-160.108	0.298	-0.017
-699.514	-200.000	-0.025	-0.428
-698.499	25.638	0.125	0.106
-697.485	-67.110	-0.156	-0.063
-696.470	800.000	-0.132	0.522
-695.456	0.120	-0.099	0.072
-694.441	-160.399	-0.451	-0.025
-693.426	-132.682	-0.234	-0.031
-692.412	-31.229	0.313	-0.180
-691.397	-200.000	0.008	-0.156
-690.383	124.050	-0.097	-0.125
-689.368	800.000	0.077	-0.284
-688.354	-172.367	0.378	0.012
-687.339	800.000	-0.086	-0.272
-686.324	30.074	-0.113	0.098
-685.310	-11.865	-0.275	-0.184
-684.295	-78.940	0.204	0.071
-683.281	-61.942	0.190	0.081
-682.266	567.035	0.074	0.184
-681.251	-126.341	-0.150	0.023
-680.237	4.837	0.293	-0.219
-679.222	92.202	-0.134	-0.154
-678.208	131.011	-0.221	-0.288
-677.193	30.695	-0.108	0.094
-676.178	-185.599	-0.244	-0.004
-675.164	20.141	0.215	-0.177
-674.149	-200.000	-0.018	-0.085
-673.135	800.000	0.089	-0.331
-672.120	-25.674	-0.231	0.139
-671.105	-54.977	-0.271	-0.124
-670.091	156.702	-0.273	-0.384
-669.076	332.572	-0.145	-0.284
-668.062	343.926	0.077	0.153
-667.047	-76.721	0.231	0.082
-666.032	-200.000	0.015	-0.167
-665.018	-76.469	0.243	-0.087
-664.003	-77.789	-0.387	0.136
-662.989	800.000	-0.092	0.365
-661.974	0.133	-0.136	-0.099
-660.959	-157.429	-0.252	0.015
-659.945	-104.753	0.315	0.074
-658.930	-38.260	-0.067	0.036
-657.916	287.256	-0.116	0.213
-656.901	217.654	0.147	0.238
-655.886	51.354	0.204	-0.197
-654.872	102.285	-0.211	-0.251
-653.857	-90.002	-0.360	0.107
-652.843	295.145	0.103	0.191
-651.828	800.000	0.075	0.267
-650.814	-200.000	-0.015	0.107
-649.799	-200.000	0.009	0.127
-648.784	182.221	-0.145	-0.217
-647.770	32.838	0.141	-0.124
-646.755	-200.000	-0.023	0.130
-645.741	237.173	0.150	-0.253
-644.726	-65.813	-0.091	0.037
-643.711	-200.000	0.007	0.039
-642.697	800.000	-0.100	0.324
-641.682	-149.868	0.413	-0.033
-640.668	6.733	0.013	0.010
-639.653	-200.000	0.044	-0.213
-638.638	31.527	0.036	-0.031
-637.624	-116.642	-0.250	-0.047
-636.609	-48.676	-0.377	-0.184
-635.595	-200.000	0.005	0.027
-634.580	-65.332	0.498	-0.204
-633.565	83.811	0.023	0.026
-632.551	41.512	0.072	0.067
-631.536	-200.000	0.058	0.266
-630.522	-200.000	0.051	-0.381
-629.507	800.000	0.027	0.113
-628.492	-42.682	0.025	-0.013
-627.478	28.800	-0.177	0.152
-626.463	255.884	-0.050	0.086
-625.449	800.000	-0.086	-0.381
-624.434	92.143	0.146	0.167
-623.419	-143.059	0.196	0.019
-622.405	-200.000	0.035	0.212
-621.390	-200.000	-0.009	-0.112
-620.376	-95.091	0.224	0.061
-619.361	-48.633	-0.121	-0.059
-618.346	-141.419	-0.229	-0.024
-617.332	-73.338	-0.218	-0.081
-616.317	-173.769	-0.462	0.014
-615.303	144.264	-0.125	0.169
-614.288	41.097	0.074	-0.068
-613.273	-31.442	-0.138	-0.079
-612.259	-200.000	-0.016	-0.303
-611.244	-5.887	-0.252	-0.175
-610.230	-13.931	-0.052	-0.034
-609.215	127.320	0.016	0.021
-608.201	213.957	0.052	0.084
-607.186	109.774	-0.053	0.064
-606.171	102.118	-0.225	0.266
-605.157	63.438	0.156	0.159
-604.142	2.567	0.266	0.196
-603.128	332.498	0.052	-0.102
-602.113	301.388	-0.074	-0.138
-601.098	800.000	-0.090	0.370
-600.084	-200.000	0.004	0.038
-599.069	-3.283	0.257	0.181
-598.055	-135.100	-0.134	-0.016
-597.040	-200.000	0.030	-0.329
-596.025	212.724	0.223	-0.357
-595.011	-67.987	-0.417	-0.165
-593.996	-199.319	-0.111	-0.001
-592.982	524.573	-0.100	-0.239
-591.967	-200.000	-0.018	0.363
-590.952	800.000	0.081	-0.293
-589.938	18.501	-0.070	0.057
-588.923	131.237	-0.204	0.265
-587.909	-21.754	-0.229	-0.141
-586.894	-121.866	0.308	0.051
-585.879	752.906	-0.068	-0.187
-584.865	-200.000	0.004	0.095
-583.850	89.651	-0.135	-0.152
-582.836	-200.000	-0.010	0.104
-581.821	311.562	0.133	-0.253
-580.806	800.000	0.095	0.298
-579.792	-26.797	0.116	0.069
-578.777	725.402	-0.092	0.249
-577.763	-3.237	0.053	-0.037
-576.748	214.114	0.061	-0.098
-575.733	410.198	-0.408	0.877
-574.719	534.038	-0.034	0.081
-573.704	-96.851	-0.337	-0.090
-572.690	-169.508	-0.081	-0.003
-571.675	74.231	-0.178	-0.190
-570.661	-42.294	-0.094	0.049
-569.646	-57.187	0.437	-0.195
-568.631	-200.000	-0.017	0.243
-567.617	-72.706	-0.250	-0.093
-566.602	-200.000	-0.009	-0.045
-565.588	-111.403	-0.152	0.031
-564.573	800.000	-0.040	0.119
-563.558	-200.000	0.031	-0.160
-562.544	-131.699	0.260	-0.035
-561.529	-161.395	-0.292	0.015
-560.515	268.725	-0.088	-0.157
-559.500	682.809	-0.179	-0.473
-558.485	-100.760	-0.073	-0.018
-557.471	800.000	-0.028	-0.084
-556.456	583.572	-0.176	0.438
-555.442	169.843	-0.009	0.013
-554.427	295.134	0.168	-0.311
-553.412	370.054	-0.169	-0.347
-552.398	97.201	-0.155	0.180
-551.383	-150.955	-0.043	-0.003
-550.369	-74.778	0.331	-0.121
-549.354	-156.916	-0.038	-0.002
-548.339	205.431	0.155	0.243
-547.325	140.155	-0.103	-0.138
-546.310	800.000	0.149	-0.451
-545.296	71.480	0.121	-0.127
-544.281	-200.000	0.005	0.319
-543.266	-101.477	-0.233	-0.057
-542.252	3.930	-0.272	-0.201
-541.237	-49.759	0.126	-0.061
-540.223	235.558	-0.173	-0.289
-539.208	696.175	0.052	-0.139
-538.193	522.429	-0.025	0.058
-537.179	373.859	0.056	-0.115
-536.164	-174.950	0.206	-0.006
-535.150	210.877	-0.179	0.285
-534.135	-200.000	0.024	0.401
-533.121	800.000	0.071	0.251
-532.106	-51.286	0.172	-0.081
-531.091	355.389	0.039	0.078
-530.077	130.613	-0.095	-0.124
-529.062	-128.680	-0.185	0.026
-528.048	-200.000	-0.026	0.145
-527.033	35.287	0.057	0.050
-526.018	-5.026	0.124	0.086
-525.004	-154.190	0.158	0.011
-523.989	-200.000	0.062	-0.571
-522.975	52.752	-0.253	0.245
-521.960	132.735	-0.094	0.123
-520.945	-175.848	0.390	0.011
-519.931	120.647	0.062	-0.077
-518.916	228.803	0.207	-0.341
-517.902	-125.420	0.471	0.073
-516.887	800.000	-0.112	0.314
-515.872	-150.444	-0.366	0.028
-514.858	33.930	0.190	0.167
-513.843	292.645	-0.105	-0.194
-512.829	-52.025	-0.136	0.064
-511.814	-115.103	0.232	-0.045
-510.799	-200.000	-0.035	-0.226
-509.785	-107.248	0.032	0.007
-508.770	60.962	0.082	-0.083
-507.756	546.036	-0.070	-0.169
-506.741	-29.030	0.282	-0.164
-505.726	-30.985	0.165	-0.094
-504.712	-91.733	0.202	0.058
-503.697	-200.000	-0.030	0.289
-502.683	-34.883	0.111	-0.061
-501.668	426.400	0.075	-0.163
-500.653	-10.805	0.055	-0.036
-499.639	339.657	0.064	0.127
-498.624	-133.324	-0.090	0.011
-497.610	-38.344	0.183	0.098
-496.595	8.304	-0.158	-0.120
-495.581	-82.787	0.293	0.096
-494.566	-50.146	0.165	0.079
-493.551	166.746	0.027	-0.039
-492.537	-52.906	-0.202	0.094
-491.522	-165.043	-0.173	-0.008
-490.508	-200.000	0.011	-0.211
-489.493	-42.130	0.271	-0.140
-488.478	-200.000	0.032	-0.257
-487.464	-195.090	-0.187	0.001
-486.449	12.613	0.076	-0.059
-485.435	-59.433	-0.056	-0.024
-484.420	-200.000	0.052	0.236
-483.405	-196.721	-0.281	0.002
-482.391	-87.680	0.234	0.071
-481.376	-184.143	-0.245	0.004
-480.362	-38.945	0.252	-0.134
-479.347	-88.334	0.340	0.103
-478.332	190.313	-0.134	0.204
-477.318	-73.988	0.148	0.054
-476.303	-68.395	-0.235	-0.092
-475.289	-126.223	0.184	0.028
-474.274	-80.234	-0.324	0.109
-473.259	680.176	0.012	0.031
-472.245	-124.067	-0.304	-0.048
-471.230	295.600	0.189	-0.350
-470.216	391.285	-0.032	-0.067
-469.201	23.520	-0.091	0.076
-468.186	354.032	0.045	-0.091
-467.172	-34.438	-0.243	-0.135
-466.157	-9.829	-0.054	-0.036
-465.143	-166.438	0.108	0.005
-464.128	800.000	0.109	0.340
-463.113	123.261	0.160	0.203
-462.099	-75.467	0.123	0.044
-461.084	-106.873	-0.041	-0.009
-460.070	38.808	-0.209	-0.189
-459.055	332.745	0.085	-0.166
-458.040	167.233	-0.094	0.134
-457.026	800.000	0.040	0.161
-456.011	-200.000	-0.060	0.270
-454.997	-200.000	-0.021	0.398
-453.982	800.000	0.043	-0.153
-452.968	-200.000	-0.018	-0.160
-451.953	63.227	0.050	-0.051
-450.938	79.631	0.279	-0.302
-449.924	-151.250	0.108	0.008
-448.909	-200.000	0.027	-0.414
-447.895	-96.737	-0.243	0.065
-446.880	-200.000	0.052	0.347
-445.865	-145.332	-0.331	0.030
-444.851	-1.063	-0.156	-0.111
-443.836	-143.401	-0.254	0.024
-442.822	-200.000	0.010	-0.296
-441.807	-78.488	0.086	-0.030
-440.792	153.169	0.122	-0.169
-439.778	194.152	-0.247	-0.377
-438.763	-200.000	-0.068	-0.351
-437.749	240.711	-0.037	-0.063
-436.734	131.736	0.038	0.049
-435.719	-83.578	-0.296	-0.095
-434.705	-144.564	0.138	-0.013
-433.690	-200.000	0.011	0.153
-432.676	-3.387	0.201	-0.141
-431.661	-200.000	-0.039	-0.205
-430.646	-200.000	-0.029	0.207
-429.632	214.836	0.188	-0.301
-428.617	-136.807	-0.135	0.016
-427.603	18.136	-0.190	0.153
-426.588	105.510	0.219	0.261
-425.573	4.361	0.106	-0.078
-424.559	-116.746	0.121	-0.022
-423.544	250.893	0.057	0.097
-422.530	29.131	0.151	-0.129
-421.515	-58.932	-0.109	-0.047
-420.500	336.202	0.189	-0.370
-419.486	69.486	0.374	0.388
-418.471	399.800	-0.211	0.445
-417.457	160.875	0.043	-0.060
-416.442	-180.937	-0.178	-0.004
-415.428	-3.282	-0.033	0.023
-414.413	800.000	0.042	0.186
-413.398	800.000	0.078	-0.244
-412.384	74.205	-0.186	-0.197
-411.369	-113.401	-0.190	0.038
-410.355	800.000	0.039	-0.166
-409.340	-30.370	-0.057	0.033
-408.325	146.206	0.060	-0.081
-407.311	248.081	-0.131	-0.222
-406.296	199.177	-0.124	0.191
-405.282	-140.694	-0.238	-0.025
-404.267	-140.394	0.267	-0.028
-403.252	-200.000	-0.004	0.259
-402.238	-97.713	-0.331	0.086
-401.223	-160.599	0.155	0.008
-400.209	249.488	-0.083	-0.141
-399.194	-179.289	0.293	-0.007
-398.179	-194.125	0.472	-0.004
-397.165	81.701	0.177	0.193
-396.150	92.458	-0.218	0.248
-395.136	-32.742	-0.025	0.014
-394.121	-64.396	0.417	0.171
-393.106	204.337	0.091	-0.142
-392.092	-73.762	-0.071	-0.026
-391.077	-74.001	0.258	-0.094
-390.063	335.610	-0.097	0.189
-389.048	-110.425	-0.144	-0.030
-388.033	-200.000	-0.013	0.272
-387.019	-37.976	-0.222	-0.119
-386.004	-87.042	-0.212	-0.065
-384.990	67.612	-0.034	-0.035
-383.975	-82.941	0.167	0.054
-382.960	-123.515	0.303	-0.049
-381.946	-142.952	-0.316	0.031
-380.931	262.676	0.070	-0.122
-379.917	-200.000	0.039	-0.222
-378.902	148.648	-0.145	-0.197
-377.888	761.794	0.067	-0.183
-376.873	9.669	0.269	-0.205
-375.858	-200.000	-0.024	-0.111
-374.844	800.000	0.097	-0.321
-373.829	250.739	-0.118	-0.202
-372.815	-34.897	0.514	0.282
-371.800	-3.875	0.227	-0.158
-370.785	5.055	0.030	0.022
-369.771	396.865	0.146	-0.306
-368.756	-27.349	-0.120	-0.070
-367.742	-157.671	-0.143	0.009
-366.727	-28.462	-0.398	0.231
-365.712	72.735	0.243	-0.255
-364.698	-200.000	0.051	0.295
-363.683	-73.234	0.071	-0.026
-362.669	-31.204	0.208	0.118
-361.654	340.601	-0.122	-0.239
-360.639	800.000	-0.064	-0.243
-359.625	53.960	-0.064	0.061
-358.610	20.419	0.246	0.200
-357.596	-200.000	0.051	0.241
-356.581	789.341	0.058	0.160
-355.566	-200.000	0.015	0.209
-354.552	45.532	-0.065	0.061
-353.537	111.719	-0.247	0.300
-352.523	294.805	0.040	-0.073
-351.508	-145.650	0.166	0.015
-350.493	95.858	0.052	0.060
-349.479	-113.221	-0.114	-0.023
-348.464	-163.438	0.276	-0.013
-347.450	65.255	0.112	0.114
-346.435	-118.643	0.032	-0.006
-345.420	-130.104	-0.123	0.017
-344.406	384.606	-0.112	0.231
-343.391	-76.922	0.104	-0.037
-342.377	42.158	0.157	-0.144
-341.362	19.504	-0.265	0.214
-340.348	-200.000	-0.060	0.354
-339.333	435.260	-0.141	0.309
-338.318	-36.944	0.142	0.077
-337.304	-144.289	0.121	-0.011
-336.289	-200.000	-0.030	-0.339
-335.275	588.117	-0.004	-0.010
-334.260	-139.833	0.343	0.036
-333.245	-132.972	0.146	-0.019
-332.231	-144.878	0.257	-0.024
-331.216	-98.406	-0.131	-0.034
-330.202	36.904	0.113	0.100
-329.187	-10.829	0.113	0.075
-328.172	240.488	0.114	-0.192
-327.158	161.670	-0.181	0.255
-326.143	-102.718	0.156	0.037
-325.129	33.507	-0.300	-0.261
-324.114	-39.227	-0.137	-0.072
-323.099	-85.194	0.138	0.043
-322.085	-198.004	-0.124	-0.001
-321.070	-171.590	0.088	0.003
-320.056	134.902	0.104	0.135
-319.041	710.799	0.036	-0.095
-318.026	-65.123	-0.104	-0.042
-317.012	-21.645	0.341	-0.208
-315.997	13.104	0.219	0.170
-314.983	-124.384	-0.420	-0.066
-313.968	-64.632	-0.092	0.038
-312.953	40.049	0.094	-0.085
-311.939	-128.840	0.226	0.032
-310.924	-15.079	-0.022	-0.014
-309.910	-136.387	0.342	-0.040
-308.895	-121.496	0.123	-0.021
-307.880	66.853	-0.072	0.074
-306.866	303.348	-0.056	0.105
-305.851	-185.822	-0.228	-0.003
-304.837	367.997	0.038	-0.077
-303.822	38.220	-0.060	-0.054
-302.807	-200.000	0.021	-0.108
-301.793	101.641	-0.135	0.158
-300.778	439.413	-0.048	-0.106
-299.764	-90.353	0.054	0.016
-298.749	96.718	-0.077	-0.088
-297.735	300.619	-0.119	-0.220
-296.720	-34.296	0.080	-0.044
-295.705	60.455	0.085	0.084
-294.691	800.000	-0.076	-0.314
-293.676	71.459	0.130	-0.135
-292.662	-39.338	0.042	0.022
-291.647	565.985	0.094	-0.230
-290.632	-200.000	0.006	0.068
-289.618	800.000	0.049	0.155
-288.603	-130.025	-0.237	-0.033
-287.589	-104.713	-0.105	0.024
-286.574	158.955	-0.254	0.354
-285.559	-200.000	0.019	-0.192
-284.545	363.721	0.182	-0.368
-283.530	178.069	-0.113	0.165
-282.516	-91.007	-0.252	-0.073
-281.501	-9.047	-0.243	0.163
-280.486	182.566	0.189	0.279
-279.472	98.505	-0.174	-0.201
-278.457	58.778	-0.300	0.296
-277.443	-200.000	-0.000	0.011
-276.428	-114.614	0.111	0.021
-275.413	104.477	-0.025	-0.030
-274.399	94.367	-0.046	-0.053
-273.384	-111.347	-0.158	0.032
-272.370	800.000	-0.068	-0.230
-271.355	153.814	-0.160	0.219
-270.340	-21.717	-0.206	-0.125
-269.326	-200.000	0.051	-0.324
-268.311	361.858	-0.021	0.043
-267.297	150.130	-0.073	-0.099
-266.282	-200.000	-0.009	0.255
-265.267	-144.184	-0.168	-0.016
-264.253	-200.000	-0.029	0.330
-263.238	89.368	0.258	0.288
-262.224	800.000	-0.034	-0.145
-261.209	208.319	-0.143	0.224
-260.195	-200.000	-0.003	-0.021
-259.180	77.850	0.057	-0.061
-258.165	-54.441	-0.086	0.039
-257.151	-52.615	0.229	-0.106
-256.136	44.169	-0.048	0.044
-255.122	140.328	-0.063	0.083
-254.107	-56.981	-0.170	0.075
-253.092	28.982	0.184	-0.156
-252.078	778.555	0.144	-0.393
-251.063	-0.335	-0.124	0.088
-250.049	-84.899	-0.259	0.081
-249.034	-62.622	0.219	-0.091
-248.019	258.507	-0.188	0.323
-247.005	-140.803	-0.114	0.012
-245.990	333.019	-0.113	0.219
-244.976	-0.532	-0.080	0.057
-243.961	67.798	0.436	0.446
-242.946	-80.456	-0.032	0.011
-241.932	57.965	-0.054	0.053
-240.917	69.304	0.202	-0.208
-239.903	190.966	0.048	0.073
-238.888	14.817	0.192	-0.150
-237.873	-42.674	-0.208	0.106
-236.859	-200.000	-0.012	0.423
-235.844	427.246	-0.156	0.337
-234.830	-200.000	-0.020	-0.198
-233.815	1.683	-0.287	-0.207
-232.800	384.566	0.126	0.259
-231.786	-84.109	0.254	0.081
-230.771	767.353	0.126	0.342
-229.757	554.527	-0.056	0.136
-228.742	800.000	0.077	0.276
-227.727	101.140	-0.044	0.051
-226.713	-37.865	0.248	-0.132
-225.698	-148.787	0.134	-0.011
-224.684	-70.438	-0.409	0.155
-223.669	-37.508	-0.283	0.151
-222.655	-106.190	0.313	0.070
-221.640	18.507	0.114	0.091
-220.625	-180.811	-0.168	-0.003
-219.611	-174.192	0.248	0.007
-218.596	800.000	0.081	0.323
-217.582	-78.584	0.065	-0.022
-216.567	35.142	0.241	-0.211
-215.552	-200.000	0.037	0.266
-214.538	-110.828	-0.212	-0.044
-213.523	-148.967	0.128	-0.010
-212.509	-200.000	0.041	0.180
-211.494	432.663	0.109	-0.236
-210.479	104.051	-0.324	0.380
-209.465	-200.000	-0.055	-0.283
-208.450	800.000	0.083	-0.283
-207.436	-88.546	-0.148	-0.044
-206.421	-16.517	-0.095	0.060
-205.406	-8.536	-0.096	0.065
-204.392	-43.742	0.108	-0.054
-203.377	-119.461	-0.107	0.018
-202.363	203.273	0.042	0.065
-201.348	-135.898	-0.094	0.011
-200.333	5.917	-0.252	-0.186
-199.319	800.000	0.063	0.245
-198.304	-67.767	0.291	0.114
-197.290	94.305	-0.105	-0.119
-196.275	-200.000	-0.011	-0.236
-195.260	52.332	0.136	-0.130
-194.246	800.000	0.023	-0.087
-193.231	39.614	-0.212	-0.190
-192.217	223.364	0.162	-0.261
-191.202	-159.584	-0.162	-0.009
-190.187	-28.157	-0.396	0.229
-189.173	800.000	0.059	-0.219
-188.158	353.916	0.073	0.145
-187.144	323.895	-0.100	0.190
-186.129	-104.495	-0.030	0.007
-185.114	-133.883	0.283	-0.035
-184.100	-200.000	-0.090	-0.464
-183.085	-200.000	-0.029	-0.282
-182.071	-188.423	0.308	0.004
-181.056	139.375	0.166	-0.218
-180.042	-200.000	0.018	0.143
-179.027	234.708	0.076	0.125
-178.012	800.000	0.051	0.211
-176.998	152.159	-0.241	-0.328
-175.983	177.457	0.160	0.232
-174.969	-200.000	0.020	0.309
-173.954	160.290	0.104	0.144
-172.939	800.000	0.052	0.228
-171.925	-27.653	-0.083	-0.048
-170.910	-131.890	-0.221	0.029
-169.896	-200.000	0.002	0.347
-168.881	66.709	0.203	-0.206
-167.866	-200.000	0.051	-0.330
-166.852	144.488	0.159	0.211
-165.837	-107.049	-0.283	0.062
-164.823	-41.856	-0.081	-0.041
-163.808	240.736	-0.223	0.370
-162.793	217.070	0.141	0.224
-161.779	800.000	0.054	0.234
-160.764	80.117	-0.268	-0.288
-159.750	-73.089	0.384	0.140
-158.735	-72.745	0.067	0.025
-157.720	-98.388	0.252	-0.064
-156.706	96.806	-0.112	0.128
-155.691	800.000	-0.073	-0.232
-154.677	-200.000	0.036	-0.235
-153.662	-31.366	-0.181	0.102
-152.647	5.361	0.037	0.027
-151.633	325.983	-0.214	-0.408
-150.618	-193.735	0.058	-0.000
-149.604	653.557	0.087	0.222
-148.589	76.314	-0.069	-0.073
-147.574	-150.511	-0.309	-0.024
-146.560	-105.709	-0.042	-0.010
-145.545	-137.815	0.149	-0.017
-144.531	-36.196	0.223	0.120
-143.516	78.472	0.272	0.290
-142.502	-88.945	0.173	-0.051
-141.487	-141.976	-0.202	-0.020
-140.472	-76.833	0.311	-0.109
-139.458	800.000	-0.014	0.061
-138.443	138.480	-0.048	0.063
-137.429	-87.505	0.250	0.075
-136.414	485.103	-0.171	0.387
-135.399	724.608	-0.156	-0.413
-134.385	153.293	-0.051	0.070
-133.370	-200.000	0.010	-0.114
-132.356	-200.000	-0.037	-0.531
-131.341	661.482	-0.061	-0.156
-130.326	-127.316	0.241	-0.035
-129.312	800.000	-0.045	0.178
-128.297	-6.784	-0.340	-0.230
-127.283	38.989	-0.191	-0.170
-126.268	-102.895	-0.293	0.069
-125.253	246.934	-0.140	0.235
-124.239	-61.001	0.309	0.130
-123.224	800.000	-0.172	0.692
-122.210	42.974	0.074	0.067
-121.195	800.000	0.074	-0.298
