DTS Sentinel unit serial number:	SN413079Multiplexer serial number:	ORYXHardware model number:	OX4-SRSoftware version number:	ORYX F/W v4.00 Oryx Data Collector v3.7.2.0data status	okinstallation	princeton_trtdifferential loss correction	single-endedforward channel	channel 3reverse channel	N/Adate	2019/09/17time	16:20:35forward acquisition time	60.00reverse acquisition time	0.00gamma	496.2192k internal	0.2291k external	0.2291temperature offset calibration	0.9949default loss term (dB/km)	0.3790temperature slope calibration	1.0000multiplexer offset coefficient	1.0000multiplexer slope coefficient	1.0000fibre end	0.00T internal ref (°C)	41.09T ext. ref 1 (°C)	0.35T ext. ref 2 (°C)	38.85length (m)	temperature (°C)	Stokes	anti-Stokes-747.200	406.015	-0.027	0.058
-746.185	23.415	-0.211	0.178
-745.171	-75.322	0.173	-0.063
-744.156	528.448	0.118	0.284
-743.142	38.147	0.215	0.196
-742.127	20.020	0.148	0.122
-741.112	-75.502	0.261	0.095
-740.098	75.604	-0.180	0.195
-739.083	-181.376	-0.150	0.003
-738.069	-92.877	0.100	0.028
-737.054	203.800	-0.155	-0.246
-736.039	-115.800	-0.258	-0.049
-735.025	-200.000	-0.012	0.096
-734.010	103.984	-0.133	0.161
-732.996	-106.124	-0.212	-0.049
-731.981	800.000	-0.007	0.022
-730.966	-200.000	-0.031	-0.297
-729.952	126.293	-0.184	0.238
-728.937	-200.000	0.042	0.290
-727.923	-0.369	-0.289	-0.210
-726.908	550.904	-0.159	-0.390
-725.894	-130.199	-0.337	-0.047
-724.879	800.000	0.024	0.078
-723.864	-200.000	0.013	-0.387
-722.850	264.334	-0.103	-0.183
-721.835	577.822	0.095	0.238
-720.821	-200.000	0.075	-0.408
-719.806	202.590	-0.170	-0.268
-718.791	-81.701	-0.402	0.135
-717.777	-111.918	0.449	0.093
-716.762	157.450	0.183	-0.259
-715.748	-106.931	-0.226	0.051
-714.733	109.886	-0.080	0.098
-713.718	-200.000	-0.110	0.000
-712.704	-200.000	-0.016	-0.159
-711.689	800.000	-0.110	-0.480
-710.675	214.783	0.116	-0.187
-709.660	-200.000	0.010	0.259
-708.645	162.333	-0.055	0.079
-707.631	-189.811	-0.241	-0.003
-706.616	800.000	0.111	-0.409
-705.602	324.796	0.040	-0.079
-704.587	-200.000	-0.001	-0.021
-703.572	74.258	-0.108	-0.116
-702.558	88.440	-0.300	0.341
-701.543	-9.438	0.329	-0.224
-700.529	800.000	0.067	-0.223
-699.514	-200.000	-0.000	0.036
-698.499	-200.000	0.038	0.179
-697.485	-145.430	0.172	-0.016
-696.470	45.372	-0.256	0.241
-695.456	-50.064	-0.186	-0.090
-694.441	-200.000	0.016	-0.207
-693.426	-200.000	0.011	0.216
-692.412	-183.340	0.261	0.005
-691.397	-41.822	0.106	0.056
-690.383	800.000	-0.048	-0.211
-689.368	212.214	-0.063	0.102
-688.354	56.315	0.220	-0.219
-687.339	-162.913	0.314	0.016
-686.324	182.191	0.134	0.201
-685.310	-183.195	-0.172	-0.003
-684.295	3.236	-0.069	0.051
-683.281	800.000	-0.068	0.202
-682.266	-200.000	0.017	0.267
-681.251	172.564	0.106	0.156
-680.237	800.000	-0.078	0.242
-679.222	33.374	0.079	0.070
-678.208	-200.000	-0.035	-0.397
-677.193	-5.039	-0.141	-0.099
-676.178	-107.365	0.092	0.021
-675.164	800.000	0.005	0.018
-674.149	-57.713	-0.154	0.069
-673.135	86.304	0.138	0.155
-672.120	-86.947	0.226	0.070
-671.105	-77.048	0.177	-0.063
-670.091	-65.941	-0.219	-0.089
-669.076	-25.320	0.148	-0.090
-668.062	114.684	-0.097	-0.121
-667.047	-166.887	0.311	-0.013
-666.032	800.000	0.072	-0.273
-665.018	-52.892	-0.194	-0.091
-664.003	-46.958	-0.295	-0.147
-662.989	10.900	-0.215	-0.168
-661.974	-200.000	0.002	0.052
-660.959	-88.259	-0.219	0.067
-659.945	-152.161	0.067	-0.005
-658.930	444.115	-0.089	0.198
-657.916	130.904	0.116	0.152
-656.901	-200.000	0.052	-0.479
-655.886	-5.792	-0.269	0.188
-654.872	-4.369	-0.047	-0.033
-653.857	-78.794	0.191	-0.066
-652.843	54.793	-0.154	0.152
-651.828	800.000	-0.071	-0.274
-650.814	-38.219	0.140	-0.076
-649.799	14.630	-0.145	0.115
-648.784	112.476	0.164	-0.202
-647.770	57.713	0.239	0.239
-646.755	-104.948	0.056	0.013
-645.741	-110.773	-0.415	-0.087
-644.726	-141.861	-0.128	-0.013
-643.711	13.468	-0.196	0.155
-642.697	-85.016	-0.089	-0.028
-641.682	328.301	0.029	-0.056
-640.668	-53.679	-0.253	-0.118
-639.653	96.628	-0.064	0.075
-638.638	95.458	-0.084	-0.098
-637.624	-47.217	0.323	0.161
-636.609	19.339	-0.138	-0.113
-635.595	-159.254	-0.185	-0.011
-634.580	-88.904	0.085	0.026
-633.565	499.142	-0.063	0.148
-632.551	19.407	0.294	-0.241
-631.536	243.244	-0.206	-0.353
-630.522	103.417	-0.088	-0.105
-629.507	265.152	0.082	0.146
-628.492	800.000	0.028	0.080
-627.478	290.848	-0.116	-0.216
-626.463	63.815	-0.157	-0.161
-625.449	39.600	-0.108	-0.099
-624.434	62.259	0.047	0.047
-623.419	67.621	-0.271	-0.282
-622.405	-98.172	-0.308	-0.081
-621.390	-15.059	-0.342	-0.223
-620.376	-94.140	0.227	0.063
-619.361	49.886	0.200	-0.192
-618.346	95.975	0.082	-0.095
-617.332	800.000	-0.079	-0.227
-616.317	276.204	0.081	-0.147
-615.303	-200.000	0.014	-0.098
-614.288	-159.709	0.430	0.024
-613.273	-52.229	-0.178	-0.084
-612.259	288.009	-0.070	0.130
-611.244	128.655	-0.130	0.168
-610.230	-200.000	0.013	0.268
-609.215	-36.423	-0.205	-0.113
-608.201	35.553	0.006	0.006
-607.186	-200.000	0.004	0.220
-606.171	-36.140	-0.284	-0.156
-605.157	86.173	0.054	0.060
-604.142	5.989	0.196	0.148
-603.128	-58.791	0.105	-0.046
-602.113	59.254	0.118	-0.118
-601.098	93.514	0.177	-0.204
-600.084	-28.833	0.040	-0.023
-599.069	95.440	-0.369	0.429
-598.055	-31.638	-0.195	0.111
-597.040	-75.203	-0.213	0.077
-596.025	-84.380	0.101	0.033
-595.011	800.000	0.059	0.206
-593.996	-166.338	-0.477	-0.020
-592.982	-200.000	-0.015	-0.109
-591.967	4.360	0.138	0.103
-590.952	642.411	0.064	-0.165
-589.938	-47.987	-0.330	-0.162
-588.923	188.673	-0.151	-0.230
-587.909	-72.224	-0.299	0.113
-586.894	800.000	-0.033	0.128
-585.879	-200.000	-0.029	0.421
-584.865	-96.568	-0.233	-0.063
-583.850	800.000	0.099	-0.339
-582.836	360.468	0.086	0.176
-581.821	21.180	0.171	0.141
-580.806	79.351	-0.208	0.227
-579.792	33.766	0.311	-0.275
-578.777	31.348	0.191	0.167
-577.763	-133.194	0.279	-0.036
-576.748	17.033	0.171	0.138
-575.733	-200.000	0.025	0.119
-574.719	-106.177	0.095	0.022
-573.704	74.812	-0.123	0.132
-572.690	257.773	-0.181	-0.316
-571.675	77.082	-0.093	-0.101
-570.661	260.595	0.132	0.232
-569.646	-200.000	-0.063	-0.283
-568.631	-38.133	0.332	-0.179
-567.617	-66.196	-0.277	-0.112
-566.602	800.000	0.046	0.136
-565.588	122.223	-0.254	0.323
-564.573	800.000	-0.096	-0.321
-563.558	-200.000	-0.093	-0.485
-562.544	24.194	0.164	0.138
-561.529	299.551	-0.068	-0.128
-560.515	-88.866	0.183	-0.055
-559.500	-72.040	-0.184	0.069
-558.485	317.245	-0.089	-0.170
-557.471	-200.000	0.012	-0.132
-556.456	800.000	0.060	-0.196
-555.442	800.000	0.037	-0.147
-554.427	-200.000	-0.044	-0.328
-553.412	82.392	-0.025	-0.028
-552.398	-26.158	-0.182	0.108
-551.383	-16.334	-0.173	0.112
-550.369	-200.000	0.051	0.308
-549.354	-47.289	-0.301	0.149
-548.339	-104.410	0.278	0.065
-547.325	-134.238	-0.188	-0.024
-546.310	30.164	-0.155	-0.134
-545.296	-200.000	-0.017	-0.162
-544.281	-200.000	0.016	-0.118
-543.266	-200.000	0.014	-0.101
-542.252	-200.000	0.027	0.375
-541.237	-99.888	-0.393	-0.100
-540.223	-29.630	-0.061	-0.035
-539.208	-88.596	0.229	-0.069
-538.193	15.711	0.166	0.132
-537.179	14.440	0.198	-0.157
-536.164	37.275	0.219	-0.197
-535.150	800.000	-0.065	0.263
-534.135	-200.000	0.023	0.202
-533.121	-200.000	0.120	0.612
-532.106	-23.270	-0.149	0.091
-531.091	65.927	-0.108	-0.111
-530.077	-8.174	0.328	-0.224
-529.062	78.458	-0.131	-0.142
-528.048	800.000	0.066	0.223
-527.033	-21.721	0.476	-0.294
-526.018	62.579	-0.091	-0.092
-525.004	-200.000	0.023	-0.270
-523.989	38.430	-0.066	0.060
-522.975	-147.963	-0.111	0.009
-521.960	-45.439	-0.130	-0.065
-520.945	-200.000	0.016	0.372
-519.931	-17.198	0.226	0.145
-518.916	800.000	-0.043	0.172
-517.902	50.273	-0.205	-0.197
-516.887	800.000	0.038	-0.119
-515.872	-200.000	-0.024	0.180
-514.858	4.199	0.380	-0.282
-513.843	-200.000	-0.039	0.177
-512.829	99.226	-0.155	0.182
-511.814	-72.938	0.141	0.053
-510.799	70.571	-0.110	0.116
-509.785	-59.906	0.224	0.097
-508.770	75.512	-0.133	-0.142
-507.756	22.352	0.134	-0.111
-506.741	135.034	-0.075	-0.099
-505.726	-29.516	-0.294	-0.170
-504.712	800.000	0.062	-0.272
-503.697	-27.793	-0.295	-0.173
-502.683	305.257	0.152	-0.287
-501.668	-119.988	-0.424	-0.074
-500.653	-50.952	-0.172	0.082
-499.639	-102.043	0.060	0.015
-498.624	121.436	-0.110	0.139
-497.610	-84.320	-0.322	0.103
-496.595	-200.000	-0.023	0.138
-495.581	15.451	-0.208	-0.166
-494.566	124.768	0.112	0.143
-493.551	-164.538	-0.066	-0.003
-492.537	512.963	0.082	0.193
-491.522	800.000	0.114	-0.389
-490.508	-200.000	-0.026	0.225
-489.493	288.892	0.060	0.111
-488.478	74.955	-0.067	0.072
-487.464	-169.047	-0.089	-0.003
-486.449	-200.000	-0.057	-0.478
-485.435	-200.000	-0.655	-0.002
-484.420	103.432	0.057	-0.068
-483.405	153.897	0.212	0.295
-482.391	60.009	0.228	-0.228
-481.376	800.000	0.089	-0.365
-480.362	-200.000	-0.012	-0.092
-479.347	-200.000	-0.016	-0.084
-478.332	-165.865	-0.327	-0.014
-477.318	-200.000	-0.052	-0.406
-476.303	-200.000	0.062	0.392
-475.289	-76.644	0.139	0.049
-474.274	-77.752	-0.048	-0.017
-473.259	-146.356	0.103	0.009
-472.245	14.529	0.166	0.131
-471.230	-200.000	0.020	0.268
-470.216	-67.987	0.156	-0.062
-469.201	-82.965	0.181	-0.059
-468.186	66.931	-0.008	-0.008
-467.172	-60.716	-0.139	0.060
-466.157	434.503	-0.118	-0.260
-465.143	-200.000	0.004	0.128
-464.128	-105.383	0.399	-0.092
-463.113	800.000	0.112	-0.319
-462.099	-107.203	0.123	-0.027
-461.084	17.702	0.088	-0.071
-460.070	-34.946	0.097	0.053
-459.055	-43.226	0.108	0.056
-458.040	249.742	-0.089	0.154
-457.026	88.522	-0.071	0.080
-456.011	787.566	-0.028	0.078
-454.997	230.925	0.097	-0.161
-453.982	50.801	-0.267	0.256
-452.968	425.776	0.087	0.189
-451.953	-200.000	0.016	0.265
-450.938	98.949	-0.267	0.312
-449.924	144.248	-0.202	-0.273
-448.909	662.873	-0.045	0.119
-447.895	800.000	0.065	0.263
-446.880	-200.000	-0.001	0.350
-445.865	426.752	-0.169	0.368
-444.851	800.000	-0.052	0.162
-443.836	-138.294	0.196	-0.022
-442.822	56.995	0.258	-0.254
-441.807	-157.737	-0.222	0.013
-440.792	-118.959	0.278	-0.049
-439.778	-200.000	0.050	-0.294
-438.763	-141.364	0.210	-0.022
-437.749	-200.000	-0.158	-0.001
-436.734	-159.926	0.050	-0.003
-435.719	-134.198	0.310	-0.039
-434.705	319.190	-0.135	0.260
-433.690	-200.000	-0.015	0.120
-432.676	83.418	-0.103	0.113
-431.661	800.000	0.047	-0.147
-430.646	-200.000	0.026	0.153
-429.632	282.335	0.175	-0.317
-428.617	18.702	0.161	-0.130
-427.603	-35.302	-0.162	-0.089
-426.588	-55.784	-0.126	-0.057
-425.573	800.000	0.043	-0.185
-424.559	-200.000	-0.066	-0.339
-423.544	-200.000	0.011	0.117
-422.530	550.846	0.099	-0.240
-421.515	800.000	-0.073	0.234
-420.500	800.000	0.083	-0.268
-419.486	408.566	0.029	-0.062
-418.471	264.755	-0.092	0.162
-417.457	-164.114	0.324	0.015
-416.442	-200.000	0.040	0.193
-415.428	-44.254	-0.071	-0.036
-414.413	562.381	0.053	0.130
-413.398	-111.247	-0.157	-0.032
-412.384	200.492	0.162	0.252
-411.369	93.825	0.110	0.126
-410.355	-158.131	-0.079	0.005
-409.340	137.125	0.103	-0.135
-408.325	-85.675	-0.194	-0.061
-407.311	800.000	-0.064	-0.217
-406.296	19.293	0.040	0.033
-405.282	-200.000	-0.020	-0.251
-404.267	130.507	-0.100	-0.130
-403.252	519.123	-0.168	0.397
-402.238	40.118	0.084	-0.076
-401.223	214.736	-0.141	-0.226
-400.209	-112.404	0.476	0.096
-399.194	-200.000	-0.007	-0.032
-398.179	-22.728	0.236	-0.144
-397.165	-200.000	-0.016	-0.200
-396.150	204.992	0.222	-0.349
-395.136	-96.698	-0.230	-0.061
-394.121	-200.000	-0.060	-0.315
-393.106	-200.000	0.002	-0.138
-392.092	-80.606	-0.110	0.037
-391.077	-23.621	-0.076	-0.046
-390.063	800.000	-0.036	0.110
-389.048	12.901	0.088	-0.069
-388.033	-77.790	0.173	-0.060
-387.019	-144.877	0.213	-0.020
-386.004	707.475	-0.177	0.471
-384.990	9.922	-0.265	-0.203
-383.975	266.182	0.075	0.133
-382.960	253.823	-0.102	-0.176
-381.946	-117.868	0.293	0.053
-380.931	518.640	0.112	0.264
-379.917	800.000	0.137	-0.600
-378.902	-200.000	0.003	-0.089
-377.888	128.278	-0.033	-0.043
-376.873	800.000	-0.070	0.240
-375.858	-200.000	-0.021	-0.236
-374.844	-45.891	0.299	0.149
-373.829	-109.668	0.229	-0.049
-372.815	-26.399	-0.114	0.067
-371.800	-53.963	-0.151	-0.069
-370.785	800.000	-0.028	-0.102
-369.771	-200.000	0.029	0.203
-368.756	10.341	0.135	0.103
-367.742	-198.046	-0.115	-0.001
-366.727	629.417	-0.117	0.300
-365.712	15.972	0.159	0.127
-364.698	-200.000	0.045	0.202
-363.683	-200.000	-0.012	0.241
-362.669	-72.448	0.175	0.065
-361.654	178.336	0.041	0.061
-360.639	-67.079	-0.196	0.078
-359.625	800.000	-0.033	-0.116
-358.610	-48.457	0.185	-0.090
-357.596	-87.519	-0.185	-0.056
-356.581	-106.163	-0.266	0.060
-355.566	626.056	-0.060	-0.152
-354.552	-158.837	0.355	-0.020
-353.537	-75.752	0.092	-0.033
-352.523	-108.340	0.397	-0.086
-351.508	201.738	-0.108	0.168
-350.493	-71.434	0.218	-0.082
-349.479	31.517	0.223	0.194
-348.464	-68.279	0.366	0.144
-347.450	-200.000	0.045	-0.267
-346.435	-79.255	0.098	0.033
-345.420	-200.000	-0.029	0.300
-344.406	-98.431	0.091	-0.024
-343.391	800.000	0.108	-0.376
-342.377	800.000	-0.110	0.346
-341.362	237.488	-0.094	-0.157
-340.348	800.000	-0.048	-0.143
-339.333	800.000	0.046	-0.140
-338.318	800.000	0.061	0.176
-337.304	-126.276	-0.113	0.017
-336.289	-200.000	-0.005	-0.223
-335.275	122.545	0.235	0.296
-334.260	800.000	-0.032	0.131
-333.245	47.900	-0.185	0.174
-332.231	-95.206	-0.129	0.035
-331.216	-67.705	0.172	-0.068
-330.202	-200.000	-0.028	0.197
-329.187	-71.139	-0.218	-0.083
-328.172	800.000	0.042	0.144
-327.158	-45.020	-0.060	0.030
-326.143	800.000	-0.070	0.222
-325.129	111.917	-0.179	0.218
-324.114	-12.685	0.153	-0.101
-323.099	25.715	0.130	-0.109
-322.085	57.073	0.236	0.232
-321.070	-77.337	-0.346	-0.121
-320.056	-54.273	-0.158	0.072
-319.041	800.000	0.027	0.088
-318.026	232.638	-0.094	-0.155
-317.012	-60.405	-0.095	-0.041
-315.997	800.000	-0.076	-0.260
-314.983	-200.000	0.041	0.281
-313.968	-177.862	0.085	-0.002
-312.953	-200.000	-0.018	-0.377
-311.939	290.918	0.063	-0.114
-310.924	415.588	0.107	0.230
-309.910	515.655	0.042	-0.100
-308.895	34.389	-0.065	0.057
-307.880	-200.000	-0.042	0.242
-306.866	-3.435	-0.207	0.145
-305.851	57.455	0.148	-0.146
-304.837	26.142	-0.241	0.202
-303.822	29.905	0.235	-0.202
-302.807	-93.272	0.092	0.026
-301.793	88.152	-0.132	0.147
-300.778	12.689	0.264	0.205
-299.764	-44.176	0.046	-0.023
-298.749	-85.431	0.300	0.094
-297.735	53.606	-0.164	0.159
-296.720	-69.703	0.160	0.061
-295.705	-30.359	0.282	0.161
-294.691	800.000	-0.036	0.131
-293.676	-41.949	-0.031	-0.016
-292.662	185.995	0.111	0.166
-291.647	17.179	-0.261	-0.208
-290.632	-27.693	0.150	0.088
-289.618	-34.924	0.194	0.107
-288.603	139.452	0.253	0.335
-287.589	-48.842	0.257	-0.124
-286.574	-200.000	0.036	-0.244
-285.559	-200.000	0.009	-0.168
-284.545	39.162	0.198	-0.178
-283.530	282.250	0.045	0.081
-282.516	-200.000	0.039	-0.241
-281.501	-35.205	-0.328	0.180
-280.486	800.000	0.073	-0.291
-279.472	702.918	0.027	-0.072
-278.457	-136.865	0.406	0.047
-277.443	-200.000	-0.031	-0.239
-276.428	-157.683	-0.308	0.018
-275.413	-200.000	-0.001	-0.226
-274.399	95.807	0.060	0.069
-273.384	249.471	-0.025	-0.043
-272.370	-200.000	0.026	-0.119
-271.355	-200.000	-0.031	-0.372
-270.340	-24.952	-0.082	-0.049
-269.326	-38.220	-0.106	0.057
-268.311	-18.045	-0.193	0.122
-267.297	-200.000	-0.026	-0.219
-266.282	25.705	0.186	-0.156
-265.267	-200.000	-0.000	0.173
-264.253	800.000	0.053	0.152
-263.238	578.499	-0.011	0.027
-262.224	453.470	0.031	0.069
-261.209	-200.000	0.089	0.401
-260.195	-41.528	0.175	0.090
-259.180	-200.000	0.022	0.210
-258.165	-43.692	-0.211	0.107
-257.151	627.732	-0.063	0.160
-256.136	72.515	-0.239	0.251
-255.122	800.000	0.087	-0.307
-254.107	-200.000	0.002	0.174
-253.092	800.000	0.022	0.081
-252.078	-83.583	0.244	0.078
-251.063	199.679	-0.128	0.197
-250.049	800.000	-0.113	0.341
-249.034	-76.047	0.259	-0.092
-248.019	148.038	-0.161	-0.218
-247.005	110.072	0.106	-0.127
-245.990	800.000	-0.075	0.286
-244.976	-33.543	-0.115	-0.064
-243.961	-12.669	0.269	-0.176
-242.946	227.018	-0.153	-0.250
-241.932	-158.085	0.278	0.016
-240.917	198.751	-0.037	0.057
-239.903	-200.000	-0.039	0.293
-238.888	-92.345	-0.188	-0.053
-237.873	-23.370	-0.318	-0.192
-236.859	-200.000	0.057	0.273
-235.844	212.749	-0.043	-0.068
-234.830	-6.944	0.150	-0.102
-233.815	-187.011	-0.240	0.003
-232.800	-79.149	-0.027	0.009
-231.786	800.000	0.081	0.275
-230.771	-37.324	0.126	0.067
-229.757	-49.747	-0.320	-0.153
-228.742	641.865	0.038	-0.098
-227.727	215.208	-0.154	0.244
-226.713	-50.138	-0.116	0.055
-225.698	-96.171	0.109	0.029
-224.684	-85.983	-0.115	-0.036
-223.669	156.159	-0.183	0.253
-222.655	-99.561	0.525	-0.132
-221.640	-200.000	0.038	-0.267
-220.625	-70.021	0.343	0.131
-219.611	-200.000	0.000	0.160
-218.596	-74.466	-0.290	-0.105
-217.582	-200.000	-0.026	0.208
-216.567	-119.247	0.298	-0.052
-215.552	117.649	-0.054	0.067
-214.538	647.663	-0.033	0.083
-213.523	-50.923	0.204	0.096
-212.509	-122.835	0.237	0.038
-211.494	-166.700	0.199	-0.008
-210.479	-57.310	-0.170	-0.075
-209.465	-153.355	-0.322	0.022
-208.450	-200.000	0.047	0.277
-207.436	-77.780	0.159	-0.055
-206.421	-101.502	-0.224	-0.055
-205.406	116.325	0.143	-0.175
-204.392	64.075	-0.189	0.191
-203.377	215.971	0.071	-0.114
-202.363	-103.168	-0.235	0.056
-201.348	-60.187	0.112	-0.048
-200.333	44.893	-0.081	0.075
-199.319	605.912	-0.086	-0.215
-198.304	-5.139	0.257	0.177
-197.290	171.772	0.083	0.119
-196.275	-120.625	-0.212	-0.036
-195.260	800.000	-0.056	-0.202
-194.246	56.060	0.328	0.319
-193.231	-200.000	0.023	0.144
-192.217	-28.990	0.213	0.123
-191.202	681.405	-0.036	-0.093
-190.187	108.627	-0.276	0.330
-189.173	-200.000	-0.008	0.254
-188.158	-163.104	0.178	0.009
-187.144	46.793	-0.176	-0.164
-186.129	451.374	0.108	0.240
-185.114	-98.435	0.076	0.019
-184.100	260.389	-0.094	-0.162
-183.085	179.309	-0.007	0.010
-182.071	-21.162	-0.215	0.132
-181.056	-187.872	-0.300	0.004
-180.042	-61.745	-0.144	-0.061
-179.027	125.614	0.056	0.071
-178.012	-70.387	0.149	-0.057
-176.998	-156.713	0.121	-0.008
-175.983	800.000	-0.170	-0.520
-174.969	19.548	-0.037	-0.029
-173.954	8.440	0.178	0.134
-172.939	800.000	0.012	0.044
-171.925	89.102	0.083	-0.092
-170.910	-53.179	0.100	0.046
-169.896	-109.559	0.100	0.021
-168.881	127.297	0.048	-0.061
-167.866	-200.000	0.010	0.261
-166.852	392.364	0.077	-0.160
-165.837	800.000	-0.074	0.240
-164.823	61.834	0.189	-0.189
-163.808	-199.758	-0.201	-0.001
-162.793	65.819	-0.081	-0.083
-161.779	-168.045	-0.114	0.004
-160.764	239.735	-0.115	-0.192
-159.750	191.195	-0.108	-0.163
-158.735	-200.000	0.005	-0.318
-157.720	-57.230	-0.274	0.121
-156.706	800.000	-0.075	-0.216
-155.691	-153.014	0.246	0.017
-154.677	800.000	0.086	-0.263
-153.662	800.000	0.035	-0.151
-152.647	-65.910	-0.060	-0.024
-151.633	202.427	-0.147	0.227
-150.618	-57.865	0.275	0.120
-149.604	240.744	0.172	-0.287
-148.589	-174.039	0.236	-0.007
-147.574	8.411	-0.258	-0.194
-146.560	153.314	-0.041	0.056
-145.545	-165.604	0.249	-0.011
-144.531	734.827	0.136	-0.365
-143.516	66.571	0.203	0.207
-142.502	249.900	0.054	0.092
-141.487	-25.384	-0.386	0.228
-140.472	-200.000	-0.051	-0.242
-139.458	-200.000	0.066	0.415
-138.443	-77.814	0.133	-0.046
-137.429	-81.522	-0.282	-0.093
-136.414	-200.000	0.022	0.295
-135.399	-200.000	0.007	-0.200
-134.385	55.449	-0.130	0.125
-133.370	-167.103	-0.094	-0.004
-132.356	373.537	0.109	0.221
-131.341	-100.970	-0.312	-0.076
-130.326	114.086	0.214	-0.261
-129.312	578.048	-0.126	-0.308
-128.297	800.000	-0.047	-0.199
-127.283	19.958	-0.044	0.036
-126.268	-55.191	0.205	0.092
-125.253	108.775	0.219	0.262
-124.239	-89.977	0.149	-0.043
-123.224	-108.379	-0.215	-0.046
-122.210	-200.000	-0.047	-0.270
-121.195	-200.000	-0.001	-0.038
