DTS Sentinel unit serial number:	SN413079Multiplexer serial number:	ORYXHardware model number:	OX4-SRSoftware version number:	ORYX F/W v4.00 Oryx Data Collector v3.7.2.0data status	okinstallation	princeton_trtdifferential loss correction	single-endedforward channel	channel 3reverse channel	N/Adate	2019/09/14time	01:32:35forward acquisition time	60.00reverse acquisition time	0.00gamma	496.2192k internal	0.2339k external	0.2339temperature offset calibration	1.0054default loss term (dB/km)	0.3790temperature slope calibration	1.0000multiplexer offset coefficient	1.0000multiplexer slope coefficient	1.0000fibre end	0.00T internal ref (°C)	26.44T ext. ref 1 (°C)	3.18T ext. ref 2 (°C)	21.50length (m)	temperature (°C)	Stokes	anti-Stokes-747.200	96.490	0.059	0.068
-746.185	51.147	0.461	0.439
-745.171	276.350	0.188	0.334
-744.156	292.645	-0.085	0.155
-743.142	-89.569	-0.216	0.063
-742.127	15.078	-0.239	0.187
-741.112	163.766	0.166	0.234
-740.098	800.000	-0.033	0.113
-739.083	800.000	0.008	0.032
-738.069	43.777	-0.153	-0.141
-737.054	-200.000	-0.069	0.363
-736.039	170.628	-0.134	-0.193
-735.025	-158.357	0.277	0.016
-734.010	-128.135	0.293	-0.042
-732.996	-200.000	-0.018	0.208
-731.981	-102.555	-0.266	-0.064
-730.966	-5.341	0.544	-0.375
-729.952	155.788	-0.142	-0.196
-728.937	13.832	-0.094	0.073
-727.923	30.471	0.173	-0.148
-726.908	-74.966	0.528	-0.190
-725.894	-30.127	0.212	0.121
-724.879	-20.471	0.191	0.118
-723.864	602.594	0.031	-0.077
-722.850	800.000	-0.055	0.163
-721.835	-91.908	0.122	0.035
-720.821	-162.951	-0.089	-0.004
-719.806	-95.415	-0.239	0.064
-718.791	-114.567	0.187	-0.036
-717.777	-200.000	-0.027	-0.329
-716.762	67.321	0.203	0.207
-715.748	-43.391	-0.133	0.068
-714.733	800.000	-0.038	-0.161
-713.718	-200.000	-0.014	-0.119
-712.704	-55.527	0.076	0.034
-711.689	-33.643	-0.121	-0.067
-710.675	-200.000	0.025	-0.190
-709.660	-200.000	0.044	-0.230
-708.645	-23.941	0.047	0.028
-707.631	-140.116	0.206	0.022
-706.616	-6.483	-0.301	-0.206
-705.602	40.544	0.067	-0.060
-704.587	-78.274	0.135	0.046
-703.572	-55.068	-0.329	-0.148
-702.558	-68.394	-0.238	0.092
-701.543	-200.000	-0.015	0.242
-700.529	249.389	0.202	0.343
-699.514	-106.953	0.063	0.014
-698.499	-108.378	-0.241	0.052
-697.485	-100.797	0.531	-0.131
-696.470	229.613	-0.097	-0.159
-695.456	201.625	-0.045	0.069
-694.441	133.287	-0.133	0.172
-693.426	56.568	-0.038	-0.037
-692.412	-65.623	-0.191	0.077
-691.397	-58.659	-0.096	0.042
-690.383	69.861	-0.176	-0.182
-689.368	342.630	-0.120	0.235
-688.354	126.692	0.260	-0.330
-687.339	522.341	0.196	0.460
-686.324	7.817	-0.190	-0.142
-685.310	-136.378	-0.373	-0.043
-684.295	-22.807	-0.071	-0.043
-683.281	800.000	-0.015	0.055
-682.266	13.120	-0.137	-0.106
-681.251	78.972	-0.086	-0.092
-680.237	189.772	0.018	0.027
-679.222	-200.000	0.031	-0.302
-678.208	-18.721	-0.092	0.058
-677.193	-46.753	0.112	0.055
-676.178	-200.000	0.045	-0.202
-675.164	112.319	0.207	0.251
-674.149	-200.000	-0.179	0.001
-673.135	518.308	-0.065	-0.153
-672.120	800.000	-0.091	-0.277
-671.105	-63.920	0.023	0.009
-670.091	-91.474	-0.481	-0.137
-669.076	-171.122	-0.226	-0.008
-668.062	19.870	-0.210	0.169
-667.047	-180.921	-0.245	0.005
-666.032	106.279	0.138	0.164
-665.018	393.441	-0.034	0.071
-664.003	682.452	0.114	0.298
-662.989	-72.041	-0.471	-0.175
-661.974	-120.892	-0.148	0.025
-660.959	83.477	0.204	-0.223
-659.945	25.301	-0.113	0.094
-658.930	800.000	-0.038	-0.152
-657.916	161.883	-0.181	-0.253
-656.901	-43.949	-0.113	-0.057
-655.886	16.951	0.111	-0.088
-654.872	103.496	0.018	0.021
-653.857	-200.000	-0.047	0.348
-652.843	-200.000	0.036	0.309
-651.828	-200.000	-0.000	-0.314
-650.814	6.633	-0.052	-0.039
-649.799	-99.240	0.115	0.029
-648.784	-119.000	0.343	0.060
-647.770	-200.000	0.056	0.384
-646.755	153.703	0.129	-0.177
-645.741	-200.000	0.022	-0.107
-644.726	-200.000	-0.003	-0.191
-643.711	-85.424	-0.206	0.064
-642.697	800.000	0.122	-0.339
-641.682	377.071	0.094	-0.192
-640.668	-200.000	0.022	-0.161
-639.653	-64.264	-0.256	0.104
-638.638	168.615	0.207	-0.294
-637.624	132.354	-0.013	-0.017
-636.609	-200.000	0.028	0.311
-635.595	106.362	-0.072	0.085
-634.580	-34.347	0.219	0.120
-633.565	-162.294	-0.209	-0.010
-632.551	116.349	-0.076	0.092
-631.536	31.675	0.274	-0.235
-630.522	537.845	-0.111	-0.263
-629.507	271.200	-0.040	-0.070
-628.492	439.394	0.021	-0.046
-627.478	-200.000	0.015	-0.106
-626.463	-200.000	0.064	0.347
-625.449	693.145	-0.180	-0.472
-624.434	-42.867	0.071	-0.036
-623.419	-200.000	0.007	0.258
-622.405	114.024	-0.103	0.125
-621.390	-12.914	-0.092	0.060
-620.376	-33.307	-0.231	-0.127
-619.361	-131.394	0.167	-0.022
-618.346	-62.423	-0.339	-0.141
-617.332	9.942	0.135	0.102
-616.317	-195.200	-0.521	0.004
-615.303	-200.000	0.018	0.111
-614.288	74.827	0.076	0.080
-613.273	612.534	-0.065	0.163
-612.259	-174.419	-0.204	0.006
-611.244	800.000	0.027	-0.113
-610.230	28.340	-0.143	-0.121
-609.215	594.169	0.113	-0.278
-608.201	-146.831	0.203	-0.017
-607.186	29.831	-0.097	0.082
-606.171	-200.000	0.011	-0.067
-605.157	60.759	0.079	0.079
-604.142	-128.992	-0.245	-0.034
-603.128	132.949	0.141	-0.182
-602.113	-68.389	-0.100	0.039
-601.098	800.000	0.027	0.108
-600.084	439.599	-0.161	0.351
-599.069	-29.485	0.203	0.116
-598.055	76.596	0.148	-0.156
-597.040	29.202	-0.265	-0.224
-596.025	-14.319	-0.233	0.149
-595.011	99.989	0.233	0.269
-593.996	-84.236	-0.226	-0.071
-592.982	696.409	0.039	-0.102
-591.967	133.324	-0.117	-0.150
-590.952	193.434	0.086	0.129
-589.938	-152.766	-0.408	-0.029
-588.923	348.986	0.107	0.211
-587.909	-9.545	0.190	-0.126
-586.894	800.000	0.012	-0.039
-585.879	186.537	0.045	0.067
-584.865	-91.822	-0.198	-0.056
-583.850	-57.548	0.134	0.059
-582.836	207.996	0.138	-0.215
-581.821	-27.333	0.337	-0.196
-580.806	800.000	-0.054	-0.215
-579.792	800.000	0.089	0.317
-578.777	-140.040	0.084	-0.009
-577.763	28.632	-0.187	-0.158
-576.748	-158.256	0.133	-0.008
-575.733	20.239	0.099	0.080
-574.719	-90.275	-0.173	0.050
-573.704	63.090	0.197	-0.197
-572.690	-139.683	-0.270	0.029
-571.675	-173.240	0.164	-0.005
-570.661	-200.000	-0.014	0.104
-569.646	-200.000	0.049	0.219
-568.631	800.000	-0.003	-0.010
-567.617	-46.875	-0.233	-0.114
-566.602	102.373	0.110	-0.128
-565.588	-54.811	0.120	-0.054
-564.573	366.295	0.058	0.115
-563.558	620.720	0.152	0.381
-562.544	160.714	0.114	-0.159
-561.529	453.178	-0.078	-0.172
-560.515	-200.000	0.058	-0.284
-559.500	-160.265	0.324	0.017
-558.485	628.437	-0.046	0.116
-557.471	67.720	0.050	0.051
-556.456	23.105	0.041	0.034
-555.442	-87.211	0.274	0.083
-554.427	-200.000	-0.005	-0.084
-553.412	97.839	-0.053	-0.061
-552.398	43.789	0.066	-0.060
-551.383	-200.000	-0.027	0.179
-550.369	-200.000	-0.037	-0.196
-549.354	-200.000	-0.024	0.158
-548.339	-148.460	0.203	0.017
-547.325	74.962	-0.151	-0.159
-546.310	-133.734	-0.337	0.042
-545.296	301.612	0.100	0.184
-544.281	-100.533	0.277	0.068
-543.266	-49.900	-0.334	-0.158
-542.252	-200.000	0.054	-0.284
-541.237	331.816	-0.180	0.345
-540.223	87.047	-0.155	-0.171
-539.208	-124.664	0.339	0.052
-538.193	230.674	0.037	0.060
-537.179	98.253	0.115	-0.132
-536.164	331.792	-0.210	0.402
-535.150	-53.398	-0.288	-0.131
-534.135	-31.892	0.231	-0.129
-533.121	-158.538	0.407	-0.023
-532.106	461.120	-0.097	0.214
-531.091	-141.042	-0.158	-0.016
-530.077	800.000	-0.115	0.343
-529.062	-66.493	0.275	0.109
-528.048	4.574	0.097	-0.071
-527.033	-143.260	0.131	0.013
-526.018	363.798	-0.074	0.148
-525.004	-200.000	0.035	0.272
-523.989	192.861	0.190	0.286
-522.975	-200.000	-0.027	-0.173
-521.960	-32.369	0.125	-0.070
-520.945	100.217	0.239	-0.276
-519.931	-200.000	0.032	0.165
-518.916	-57.330	0.090	0.040
-517.902	-185.113	-0.285	0.004
-516.887	-170.493	-0.297	0.010
-515.872	-69.949	0.257	-0.097
-514.858	95.516	0.120	-0.136
-513.843	-193.867	-0.139	0.001
-512.829	-4.165	0.093	-0.064
-511.814	-147.365	-0.426	-0.036
-510.799	35.283	0.141	0.123
-509.785	38.487	0.142	0.125
-508.770	214.958	0.153	0.241
-507.756	54.197	0.115	0.110
-506.741	178.136	0.156	0.227
-505.726	49.615	-0.078	-0.073
-504.712	800.000	-0.085	0.238
-503.697	800.000	0.059	0.198
-502.683	107.989	0.047	-0.055
-501.668	-119.693	0.294	0.050
-500.653	-18.060	0.110	-0.069
-499.639	70.513	0.388	0.399
-498.624	-68.191	-0.093	0.036
-497.610	-161.178	0.264	-0.014
-496.595	800.000	0.036	-0.115
-495.581	-64.959	-0.259	-0.104
-494.566	-107.179	-0.540	-0.118
-493.551	-106.617	-0.253	-0.056
-492.537	-180.596	-0.446	0.009
-491.522	-200.000	0.004	-0.221
-490.508	-173.102	0.342	0.010
-489.493	-1.433	-0.091	0.064
-488.478	227.253	-0.093	0.151
-487.464	-11.241	-0.429	-0.281
-486.449	-39.425	0.104	-0.054
-485.435	-38.812	0.237	0.124
-484.420	23.833	0.306	-0.251
-483.405	-42.377	-0.268	0.136
-482.391	800.000	-0.045	-0.177
-481.376	-167.545	-0.085	0.003
-480.362	-200.000	0.039	-0.220
-479.347	800.000	-0.104	-0.355
-478.332	-80.417	0.185	-0.061
-477.318	-29.489	0.126	-0.072
-476.303	-102.791	-0.102	-0.024
-475.289	713.770	-0.069	-0.183
-474.274	-30.289	-0.199	-0.112
-473.259	-91.245	-0.089	0.025
-472.245	-170.776	-0.198	-0.007
-471.230	-45.317	0.161	-0.079
-470.216	-129.589	0.152	-0.021
-469.201	-91.377	-0.244	-0.069
-468.186	-60.646	0.354	-0.149
-467.172	425.941	-0.055	-0.117
-466.157	23.443	0.181	-0.148
-465.143	242.034	-0.040	-0.066
-464.128	800.000	0.147	0.424
-463.113	-200.000	-0.036	-0.282
-462.099	8.359	-0.083	0.062
-461.084	0.960	-0.294	0.209
-460.070	-133.666	-0.075	-0.009
-459.055	9.098	-0.102	-0.076
-458.040	-162.486	-0.122	0.006
-457.026	800.000	0.083	-0.248
-456.011	-72.542	0.161	-0.059
-454.997	325.336	0.019	-0.037
-453.982	47.184	-0.179	0.165
-452.968	-200.000	0.023	-0.222
-451.953	49.020	0.155	-0.144
-450.938	556.926	-0.088	-0.210
-449.924	-54.663	0.140	0.063
-448.909	23.401	0.098	-0.080
-447.895	103.966	0.185	0.215
-446.880	-190.686	-0.269	-0.003
-445.865	-38.326	0.132	0.069
-444.851	196.137	0.181	-0.274
-443.836	-198.180	-0.246	-0.001
-442.822	127.158	0.319	-0.401
-441.807	-123.269	-0.104	-0.017
-440.792	19.147	-0.233	0.185
-439.778	-89.099	-0.161	0.047
-438.763	800.000	-0.059	-0.252
-437.749	-4.128	0.190	-0.130
-436.734	-200.000	-0.019	0.220
-435.719	-200.000	0.011	0.221
-434.705	30.029	0.040	0.034
-433.690	-200.000	-0.006	-0.116
-432.676	48.605	-0.085	-0.079
-431.661	-5.991	0.197	0.133
-430.646	-200.000	0.032	-0.255
-429.632	-175.994	-0.235	-0.006
-428.617	313.764	-0.082	-0.152
-427.603	123.459	0.121	0.151
-426.588	53.249	0.096	0.091
-425.573	800.000	0.012	-0.042
-424.559	-16.229	-0.377	-0.237
-423.544	-1.313	0.261	0.182
-422.530	75.295	-0.077	-0.080
-421.515	800.000	0.042	-0.161
-420.500	-43.807	-0.293	-0.146
-419.486	729.782	0.091	0.240
-418.471	-169.792	-0.149	0.005
-417.457	47.894	0.235	0.217
-416.442	-200.000	0.031	-0.289
-415.428	-15.976	0.305	-0.192
-414.413	-78.692	-0.295	0.100
-413.398	-99.142	0.313	0.079
-412.384	644.285	-0.216	0.546
-411.369	-200.000	0.016	0.085
-410.355	-105.952	-0.268	-0.060
-409.340	-200.000	0.080	-0.369
-408.325	-65.045	0.120	-0.048
-407.311	-200.000	-0.004	0.353
-406.296	757.015	0.057	0.152
-405.282	1.491	0.173	-0.123
-404.267	-69.677	0.120	0.046
-403.252	471.126	-0.048	-0.108
-402.238	399.859	0.138	0.287
-401.223	47.901	-0.295	-0.273
-400.209	13.061	0.266	0.204
-399.194	-94.564	0.203	0.055
-398.179	-40.066	-0.125	0.064
-397.165	183.567	-0.045	0.065
-396.150	-150.744	0.297	0.022
-395.136	-53.568	-0.266	0.120
-394.121	85.880	0.053	-0.057
-393.106	-98.502	-0.474	-0.120
-392.092	-80.275	0.104	0.035
-391.077	-138.092	-0.255	0.028
-390.063	-200.000	-0.029	-0.246
-389.048	338.531	0.065	-0.124
-388.033	-102.837	0.357	0.084
-387.019	-200.000	-0.016	0.184
-386.004	35.041	-0.215	0.186
-384.990	-45.405	0.225	-0.110
-383.975	286.157	0.137	0.245
-382.960	41.267	0.330	-0.295
-381.946	-200.000	0.032	0.308
-380.931	-112.516	0.421	-0.083
-379.917	-80.927	0.286	-0.094
-378.902	-101.884	0.162	-0.039
-377.888	-141.157	-0.256	-0.026
-376.873	573.833	0.077	0.185
-375.858	47.510	0.306	0.282
-374.844	-11.633	-0.125	0.081
-373.829	-124.097	0.096	0.015
-372.815	-94.263	-0.261	0.071
-371.800	-139.595	-0.060	0.006
-370.785	-200.000	-0.002	-0.236
-369.771	-179.725	-0.387	0.008
-368.756	-39.472	0.330	-0.171
-367.742	-82.349	0.253	0.081
-366.727	-200.000	0.002	0.068
-365.712	52.308	-0.137	0.130
-364.698	800.000	-0.039	-0.120
-363.683	-200.000	0.037	-0.216
-362.669	220.857	-0.208	0.330
-361.654	316.837	-0.155	-0.289
-360.639	-47.213	0.478	0.230
-359.625	10.967	0.243	-0.183
-358.610	-33.885	0.282	0.153
-357.596	8.759	0.109	0.081
-356.581	-98.229	-0.415	-0.105
-355.566	-159.552	-0.191	0.011
-354.552	-104.898	-0.229	-0.052
-353.537	21.376	0.076	0.061
-352.523	446.179	0.060	0.131
-351.508	-119.955	-0.250	0.042
-350.493	157.711	-0.104	-0.142
-349.479	150.619	-0.119	0.160
-348.464	-71.321	-0.505	0.187
-347.450	-24.885	-0.190	0.112
-346.435	-10.011	-0.214	0.140
-345.420	-137.669	0.219	-0.024
-344.406	315.447	-0.179	0.333
-343.391	38.839	-0.107	0.094
-342.377	-46.292	-0.424	0.206
-341.362	107.889	0.082	-0.096
-340.348	-200.000	0.014	-0.135
-339.333	92.335	-0.045	-0.050
-338.318	166.885	-0.114	-0.159
-337.304	-102.979	0.198	0.046
-336.289	-21.896	0.143	-0.086
-335.275	-169.431	0.185	-0.007
-334.260	-66.959	0.176	-0.068
-333.245	32.999	-0.256	0.219
-332.231	124.503	0.075	-0.093
-331.216	-95.250	0.092	-0.024
-330.202	-45.181	-0.082	0.040
-329.187	284.482	0.105	0.186
-328.172	-61.142	0.135	0.056
-327.158	-109.102	0.144	0.030
-326.143	-18.242	0.051	0.031
-325.129	624.321	-0.067	0.168
-324.114	-49.824	-0.317	0.149
-323.099	-66.589	-0.102	0.040
-322.085	-75.420	-0.393	0.138
-321.070	-104.909	-0.269	0.061
-320.056	-200.000	-0.027	-0.184
-319.041	-22.765	0.165	-0.098
-318.026	-108.075	-0.194	0.041
-317.012	137.261	0.088	-0.114
-315.997	181.723	-0.117	0.170
-314.983	57.816	0.324	0.313
-313.968	30.269	-0.271	-0.228
-312.953	-106.791	0.196	0.043
-311.939	-45.054	0.152	-0.075
-310.924	-106.919	-0.147	0.032
-309.910	-61.801	0.242	0.100
-308.895	-156.760	0.195	0.012
-307.880	-178.308	0.158	-0.004
-306.866	-16.085	0.311	0.195
-305.851	-98.856	0.056	-0.014
-304.837	733.553	-0.066	-0.173
-303.822	305.272	-0.098	0.180
-302.807	324.970	-0.040	-0.075
-301.793	321.013	-0.121	0.227
-300.778	579.213	-0.146	0.352
-299.764	-200.000	-0.107	-0.000
-298.749	170.660	0.144	-0.203
-297.735	196.170	-0.165	-0.247
-296.720	181.115	-0.184	-0.266
-295.705	1.249	-0.192	0.136
-294.691	-200.000	-0.004	0.117
-293.676	429.267	0.085	-0.181
-292.662	-15.292	-0.234	0.147
-291.647	204.088	-0.088	-0.134
-290.632	67.129	-0.176	-0.177
-289.618	344.428	-0.126	-0.244
-288.603	-93.936	-0.231	-0.063
-287.589	130.327	0.128	-0.162
-286.574	57.377	-0.256	-0.246
-285.559	2.179	-0.083	-0.059
-284.545	-200.000	0.051	0.252
-283.530	-153.340	-0.460	-0.032
-282.516	438.689	0.058	0.124
-281.501	-18.393	0.158	-0.097
-280.486	741.399	0.041	0.108
-279.472	-86.550	-0.304	0.092
-278.457	8.320	-0.072	0.053
-277.443	800.000	-0.030	-0.100
-276.428	42.532	0.085	-0.076
-275.413	-200.000	0.006	-0.176
-274.399	800.000	0.024	-0.076
-273.384	-200.000	0.025	0.346
-272.370	733.542	0.076	-0.202
-271.355	-200.000	0.001	0.111
-270.340	800.000	-0.025	-0.094
-269.326	37.339	-0.318	-0.278
-268.311	800.000	0.072	-0.228
-267.297	204.244	-0.262	-0.399
-266.282	-200.000	0.010	-0.071
-265.267	10.850	0.099	0.074
-264.253	-200.000	-0.010	0.140
-263.238	128.904	0.085	0.107
-262.224	100.022	0.053	-0.061
-261.209	-78.003	0.105	-0.036
-260.195	164.626	-0.189	-0.263
-259.180	-200.000	0.008	0.198
-258.165	205.670	-0.202	0.309
-257.151	-109.075	-0.158	0.033
-256.136	-177.377	-0.130	-0.003
-255.122	766.623	-0.127	0.339
-254.107	14.697	-0.092	0.071
-253.092	24.518	0.233	-0.190
-252.078	-200.000	-0.009	-0.286
-251.063	-153.611	0.137	-0.009
-250.049	-154.069	0.273	0.018
-249.034	-129.171	0.194	0.027
-248.019	127.006	0.049	0.061
-247.005	676.869	-0.128	0.327
-245.990	149.362	0.077	0.102
-244.976	-200.000	0.003	-0.075
-243.961	525.878	0.065	-0.150
-242.946	-110.707	-0.275	-0.056
-241.932	-27.404	0.114	-0.065
-240.917	-90.392	0.192	-0.055
-239.903	-8.482	0.119	0.079
-238.888	800.000	-0.061	0.215
-237.873	153.125	0.111	0.150
-236.859	-16.638	0.251	0.157
-235.844	26.848	0.257	0.212
-234.830	209.247	-0.132	-0.204
-233.815	-200.000	0.030	-0.159
-232.800	740.375	0.070	0.185
-231.786	17.515	0.126	-0.099
-230.771	-19.547	-0.198	-0.121
-229.757	-200.000	-0.003	-0.143
-228.742	800.000	0.023	-0.082
-227.727	78.419	-0.092	-0.097
-226.713	-21.514	-0.355	0.213
-225.698	36.798	0.432	0.375
-224.684	800.000	-0.065	-0.278
-223.669	-200.000	0.026	0.244
-222.655	-121.864	0.497	-0.080
-221.640	-200.000	-0.024	0.298
-220.625	397.250	0.167	0.343
-219.611	-38.060	0.285	-0.148
-218.596	101.622	0.158	-0.181
-217.582	132.632	-0.143	-0.181
-216.567	-200.000	0.007	0.230
-215.552	-200.000	-0.029	0.262
-214.538	-200.000	-0.008	0.171
-213.523	-68.892	0.441	0.167
-212.509	-167.955	0.183	0.007
-211.494	361.347	-0.128	-0.252
-210.479	-200.000	-0.005	0.104
-209.465	304.419	-0.287	0.523
-208.450	100.600	0.308	-0.351
-207.436	493.063	0.043	0.096
-206.421	39.652	-0.133	-0.117
-205.406	95.404	0.256	-0.287
-204.392	156.123	0.039	-0.053
-203.377	-73.356	-0.180	0.065
-202.363	-170.521	-0.181	-0.006
-201.348	0.902	0.106	-0.074
-200.333	-44.395	0.291	-0.143
-199.319	800.000	0.081	0.251
-198.304	-143.776	-0.493	-0.046
-197.290	-73.055	-0.266	-0.096
-196.275	-200.000	-0.007	0.165
-195.260	174.347	-0.209	-0.296
-194.246	-6.520	0.287	0.192
-193.231	-200.000	0.039	0.343
-192.217	-200.000	-0.010	-0.046
-191.202	-84.278	0.312	0.097
-190.187	-27.140	-0.134	0.077
-189.173	195.758	-0.018	0.026
-188.158	-148.285	-0.122	0.010
-187.144	71.272	0.050	0.051
-186.129	800.000	0.042	0.172
-185.114	84.371	-0.189	-0.203
-184.100	273.178	-0.168	0.291
-183.085	-158.444	0.122	0.007
-182.071	46.686	-0.161	-0.147
-181.056	-99.277	-0.197	-0.049
-180.042	-87.641	0.255	-0.076
-179.027	43.610	0.126	0.113
-178.012	218.998	-0.182	-0.285
-176.998	-200.000	0.043	-0.207
-175.983	557.718	-0.061	0.145
-174.969	-200.000	0.031	0.277
-173.954	115.145	-0.069	-0.082
-172.939	-200.000	-0.014	-0.074
-171.925	-200.000	0.017	-0.170
-170.910	-58.209	-0.361	0.154
-169.896	-200.000	-0.010	-0.442
-168.881	-200.000	0.004	-0.132
-167.866	-37.282	0.070	-0.037
-166.852	84.485	-0.095	0.102
-165.837	-5.177	-0.100	0.067
-164.823	-200.000	-0.054	-0.279
-163.808	-35.680	0.119	-0.063
-162.793	-162.479	-0.150	-0.007
-161.779	-61.822	-0.243	0.100
-160.764	236.275	0.154	-0.249
-159.750	-141.416	0.383	0.038
-158.735	124.102	0.185	-0.228
-157.720	-200.000	-0.066	-0.351
-156.706	536.463	0.067	0.157
-155.691	800.000	0.039	-0.143
-154.677	688.206	-0.080	-0.205
-153.662	35.787	0.123	0.106
-152.647	81.436	-0.184	0.195
-151.633	187.340	0.165	0.242
-150.618	615.058	0.119	0.293
-149.604	124.580	-0.099	-0.122
-148.589	93.486	-0.129	0.143
-147.574	-37.245	0.229	-0.120
-146.560	-200.000	-0.026	0.190
-145.545	800.000	0.084	-0.255
-144.531	-110.035	-0.036	0.007
-143.516	-200.000	-0.007	-0.086
-142.502	800.000	0.072	-0.200
-141.487	-150.780	-0.218	0.016
-140.472	-10.903	0.318	-0.206
-139.458	130.443	0.141	0.177
-138.443	65.862	-0.049	0.048
-137.429	89.910	-0.263	-0.287
-136.414	-65.021	0.350	-0.138
-135.399	-45.111	-0.302	-0.147
-134.385	82.148	0.149	0.159
-133.370	33.172	0.096	0.082
-132.356	-193.934	-0.251	0.002
-131.341	142.967	0.152	0.198
-130.326	-57.754	-0.042	-0.018
-129.312	-45.083	-0.169	0.082
-128.297	277.328	-0.101	-0.176
-127.283	-200.000	0.053	0.274
-126.268	800.000	-0.085	-0.354
-125.253	-57.632	-0.024	0.010
-124.239	-71.073	0.199	0.073
-123.224	56.676	0.238	-0.226
-122.210	-54.699	-0.239	0.106
-121.195	199.894	-0.123	0.185
