DTS Sentinel unit serial number:	SN413079Multiplexer serial number:	ORYXHardware model number:	OX4-SRSoftware version number:	ORYX F/W v4.00 Oryx Data Collector v3.7.2.0data status	okinstallation	princeton_trtdifferential loss correction	single-endedforward channel	channel 3reverse channel	N/Adate	2019/09/13time	03:20:35forward acquisition time	60.00reverse acquisition time	0.00gamma	496.2192k internal	0.2334k external	0.2334temperature offset calibration	1.0142default loss term (dB/km)	0.3790temperature slope calibration	1.0000multiplexer offset coefficient	1.0000multiplexer slope coefficient	1.0000fibre end	0.00T internal ref (°C)	27.37T ext. ref 1 (°C)	4.10T ext. ref 2 (°C)	22.00length (m)	temperature (°C)	Stokes	anti-Stokes-747.200	88.143	0.198	-0.221
-746.185	-125.665	-0.107	0.016
-745.171	-200.000	-0.020	-0.117
-744.156	112.719	-0.147	0.179
-743.142	-103.679	-0.152	-0.036
-742.127	-72.517	-0.117	0.043
-741.112	440.890	0.048	0.105
-740.098	61.450	0.213	-0.213
-739.083	334.871	0.157	0.305
-738.069	-200.000	0.001	0.323
-737.054	63.337	-0.246	0.247
-736.039	-200.000	-0.035	0.269
-735.025	-21.512	-0.317	0.194
-734.010	95.582	0.113	0.130
-732.996	110.996	-0.276	-0.334
-731.981	441.110	0.047	-0.103
-730.966	800.000	0.074	0.228
-729.952	-106.450	-0.100	-0.022
-728.937	-200.000	-0.040	0.262
-727.923	-159.936	0.293	-0.016
-726.908	313.604	0.103	-0.194
-725.894	-83.014	0.248	-0.080
-724.879	238.540	0.031	-0.051
-723.864	7.376	0.209	0.156
-722.850	-63.946	0.176	0.072
-721.835	-140.006	0.322	-0.034
-720.821	21.788	0.295	0.241
-719.806	800.000	-0.096	-0.298
-718.791	336.583	0.096	-0.188
-717.777	75.464	0.055	0.059
-716.762	-150.794	-0.140	0.011
-715.748	712.640	-0.079	-0.211
-714.733	-200.000	-0.030	-0.137
-713.718	276.442	-0.031	-0.055
-712.704	177.516	0.113	-0.165
-711.689	75.884	0.072	-0.077
-710.675	-78.103	0.166	0.057
-709.660	-96.092	-0.583	-0.156
-708.645	-200.000	0.045	-0.320
-707.631	-200.000	0.021	0.398
-706.616	-200.000	0.019	0.197
-705.602	45.313	-0.125	0.116
-704.587	-49.353	0.238	-0.114
-703.572	206.203	-0.166	-0.258
-702.558	-200.000	0.042	-0.281
-701.543	800.000	-0.017	0.069
-700.529	-38.662	0.255	0.135
-699.514	168.861	0.324	-0.464
-698.499	-73.454	-0.147	-0.054
-697.485	-77.187	0.029	-0.010
-696.470	-19.459	-0.197	-0.123
-695.456	37.238	-0.156	-0.139
-694.441	-200.000	-0.004	-0.116
-693.426	-50.099	-0.280	-0.133
-692.412	72.229	-0.063	-0.066
-691.397	-147.061	0.276	0.024
-690.383	73.213	0.238	0.249
-689.368	-200.000	-0.001	-0.026
-688.354	-128.926	-0.352	-0.050
-687.339	539.512	-0.159	-0.380
-686.324	-200.000	0.004	-0.146
-685.310	800.000	0.005	0.020
-684.295	-82.118	0.219	-0.071
-683.281	800.000	0.089	-0.316
-682.266	88.888	0.113	-0.126
-681.251	-13.969	-0.106	0.068
-680.237	-101.850	-0.230	0.056
-679.222	217.547	-0.140	0.224
-678.208	-200.000	-0.047	0.209
-677.193	-81.875	-0.248	0.081
-676.178	185.196	-0.181	-0.270
-675.164	800.000	-0.025	-0.105
-674.149	-124.697	0.114	0.018
-673.135	-43.048	-0.335	0.170
-672.120	-93.414	0.244	0.068
-671.105	99.138	-0.085	-0.099
-670.091	375.540	-0.088	-0.179
-669.076	215.182	-0.108	-0.172
-668.062	-200.000	-0.029	-0.135
-667.047	59.067	0.154	0.152
-666.032	286.645	-0.145	-0.263
-665.018	-200.000	-0.032	-0.278
-664.003	-116.812	0.189	-0.035
-662.989	115.893	0.122	0.150
-661.974	3.052	0.144	-0.105
-660.959	219.713	-0.064	-0.103
-659.945	-38.156	-0.181	0.096
-658.930	-200.000	-0.017	-0.219
-657.916	-23.374	0.041	0.024
-656.901	-56.998	0.181	0.080
-655.886	79.566	0.163	0.175
-654.872	-200.000	0.022	0.121
-653.857	213.198	0.134	0.212
-652.843	-200.000	0.001	0.107
-651.828	-126.996	-0.243	-0.036
-650.814	-64.091	-0.159	0.065
-649.799	23.026	0.118	0.097
-648.784	48.301	-0.324	-0.303
-647.770	-18.549	0.478	0.299
-646.755	800.000	0.084	0.293
-645.741	95.906	-0.265	-0.303
-644.726	28.327	-0.294	-0.249
-643.711	-200.000	-0.005	-0.040
-642.697	-200.000	-0.031	-0.222
-641.682	-27.229	0.055	-0.032
-640.668	-200.000	0.012	-0.138
-639.653	335.257	0.222	-0.431
-638.638	-141.953	-0.182	-0.018
-637.624	-200.000	-0.039	-0.366
-636.609	98.027	0.094	0.109
-635.595	-38.917	0.124	-0.065
-634.580	-127.045	-0.230	-0.034
-633.565	558.667	-0.092	-0.221
-632.551	28.038	-0.355	-0.300
-631.536	-48.819	0.246	0.118
-630.522	-200.000	-0.001	0.106
-629.507	-37.264	-0.154	-0.082
-628.492	800.000	-0.025	0.071
-627.478	-102.918	-0.045	-0.011
-626.463	315.914	-0.155	-0.292
-625.449	-145.912	0.191	-0.017
-624.434	230.099	-0.178	-0.291
-623.419	-200.000	0.038	0.315
-622.405	-76.190	0.182	0.064
-621.390	-26.414	-0.110	0.064
-620.376	-200.000	-0.004	-0.269
-619.361	-67.780	-0.222	0.087
-618.346	36.908	-0.108	0.095
-617.332	-101.785	0.058	-0.014
-616.317	-200.000	0.025	0.172
-615.303	-117.530	0.063	-0.011
-614.288	-46.021	0.146	0.072
-613.273	-11.312	-0.263	0.173
-612.259	-35.206	-0.273	-0.149
-611.244	92.676	0.136	-0.154
-610.230	276.325	0.026	0.046
-609.215	-160.692	0.363	0.019
-608.201	124.724	-0.195	-0.246
-607.186	410.809	0.133	0.282
-606.171	5.316	0.200	-0.147
-605.157	-123.709	0.231	-0.037
-604.142	-200.000	-0.068	-0.351
-603.128	-184.241	-0.174	-0.003
-602.113	18.412	0.303	0.242
-601.098	76.114	-0.202	0.213
-600.084	38.523	-0.318	-0.283
-599.069	-88.050	-0.164	0.049
-598.055	570.427	0.034	-0.083
-597.040	316.768	-0.097	-0.184
-596.025	221.977	-0.174	-0.280
-595.011	-59.744	0.037	0.016
-593.996	-48.689	0.351	0.168
-592.982	-200.000	0.079	-0.347
-591.967	11.063	-0.058	-0.044
-590.952	198.681	0.018	-0.027
-589.938	678.935	0.104	-0.272
-588.923	224.262	-0.064	0.103
-587.909	-3.667	-0.110	0.076
-586.894	65.847	-0.062	0.063
-585.879	800.000	-0.050	-0.161
-584.865	36.148	-0.205	0.180
-583.850	-160.688	0.160	-0.009
-582.836	-24.039	0.177	-0.106
-581.821	-0.382	0.228	-0.161
-580.806	-109.725	-0.302	-0.063
-579.792	11.767	0.102	-0.078
-578.777	46.752	-0.129	0.119
-577.763	-61.087	0.265	-0.112
-576.748	800.000	0.107	-0.305
-575.733	-9.282	-0.190	-0.127
-574.719	-120.194	-0.142	-0.024
-573.704	-138.671	0.351	-0.038
-572.690	99.475	0.097	-0.112
-571.675	-62.114	0.403	0.168
-570.661	514.344	-0.183	-0.426
-569.646	800.000	-0.073	-0.202
-568.631	-22.831	-0.250	0.151
-567.617	-41.024	-0.175	-0.090
-566.602	-200.000	0.025	-0.179
-565.588	410.212	-0.093	-0.197
-564.573	-75.068	-0.260	-0.093
-563.558	49.016	0.146	0.137
-562.544	63.118	0.093	-0.093
-561.529	149.611	-0.193	0.260
-560.515	-200.000	0.055	0.419
-559.500	-103.698	-0.285	-0.067
-558.485	800.000	-0.079	-0.270
-557.471	130.656	0.207	0.265
-556.456	-108.406	0.140	0.030
-555.442	70.141	-0.075	0.077
-554.427	9.939	-0.147	-0.111
-553.412	-200.000	-0.002	-0.135
-552.398	-41.760	0.232	-0.119
-551.383	-69.402	-0.270	0.103
-550.369	-67.579	-0.315	0.123
-549.354	617.612	-0.082	-0.205
-548.339	140.628	-0.170	0.224
-547.325	-152.995	-0.321	0.023
-546.310	-42.621	-0.292	-0.148
-545.296	271.815	0.062	-0.110
-544.281	-126.246	-0.375	-0.056
-543.266	-49.169	0.232	-0.111
-542.252	-99.958	0.234	0.058
-541.237	73.601	-0.093	-0.097
-540.223	129.497	-0.212	0.270
-539.208	800.000	0.127	0.372
-538.193	-23.082	0.225	0.135
-537.179	541.779	0.060	-0.143
-536.164	800.000	-0.062	0.262
-535.150	60.013	0.100	-0.098
-534.135	-200.000	0.024	-0.204
-533.121	408.440	-0.089	-0.188
-532.106	-65.901	0.179	-0.071
-531.091	-17.039	-0.170	-0.107
-530.077	-74.814	-0.062	-0.022
-529.062	-141.079	0.067	0.007
-528.048	-38.689	0.126	-0.066
-527.033	800.000	-0.053	-0.146
-526.018	116.247	0.097	0.118
-525.004	184.069	0.123	-0.181
-523.989	18.035	-0.242	-0.192
-522.975	800.000	-0.018	0.068
-521.960	51.234	-0.134	-0.126
-520.945	-200.000	0.006	-0.129
-519.931	145.166	-0.190	0.253
-518.916	800.000	-0.108	0.335
-517.902	-39.861	0.275	0.143
-516.887	-78.502	0.318	-0.109
-515.872	76.100	-0.182	0.192
-514.858	-74.677	0.293	0.105
-513.843	-200.000	0.002	-0.146
-512.829	103.206	0.163	0.190
-511.814	-200.000	-0.050	-0.243
-510.799	-155.204	0.079	0.005
-509.785	345.357	-0.089	-0.175
-508.770	41.109	0.192	0.173
-507.756	-200.000	-0.028	0.148
-506.741	347.872	0.009	0.017
-505.726	-77.282	0.249	0.086
-504.712	-147.436	-0.260	-0.022
-503.697	83.000	0.199	0.215
-502.683	165.741	0.263	-0.370
-501.668	-78.601	-0.208	0.071
-500.653	800.000	-0.086	0.358
-499.639	191.323	0.200	-0.299
-498.624	-200.000	-0.043	0.363
-497.610	468.242	-0.126	-0.282
-496.595	-7.849	0.328	0.220
-495.581	-140.846	-0.202	-0.021
-494.566	389.742	-0.051	0.106
-493.551	29.511	0.123	-0.104
-492.537	-73.985	-0.223	-0.080
-491.522	56.693	0.067	-0.065
-490.508	800.000	-0.110	0.327
-489.493	-65.008	-0.391	0.157
-488.478	12.918	0.270	0.208
-487.464	19.700	0.074	0.059
-486.449	-200.000	0.003	0.190
-485.435	800.000	0.036	-0.107
-484.420	-102.360	-0.278	0.066
-483.405	-200.000	-0.024	-0.117
-482.391	-128.603	-0.136	-0.019
-481.376	-115.761	-0.125	-0.023
-480.362	-200.000	-0.010	-0.052
-479.347	-82.386	0.200	-0.065
-478.332	-71.262	-0.339	0.127
-477.318	-200.000	-0.006	0.092
-476.303	-101.959	-0.179	0.043
-475.289	125.111	0.124	-0.155
-474.274	203.372	0.014	0.021
-473.259	-200.000	0.030	-0.314
-472.245	6.418	0.251	-0.185
-471.230	10.704	-0.272	-0.207
-470.216	-47.342	-0.281	-0.136
-469.201	367.160	0.074	0.149
-468.186	-55.369	-0.087	-0.039
-467.172	800.000	0.092	0.321
-466.157	-200.000	-0.047	0.232
-465.143	443.793	0.151	0.330
-464.128	-133.280	-0.174	-0.022
-463.113	-200.000	-0.016	-0.116
-462.099	-34.525	0.070	0.038
-461.084	-86.575	-0.196	0.060
-460.070	31.531	0.310	0.265
-459.055	-94.050	-0.302	0.082
-458.040	54.383	-0.285	-0.273
-457.026	-77.531	-0.263	-0.091
-456.011	-59.368	0.240	-0.103
-454.997	800.000	0.065	0.264
-453.982	-30.418	0.060	-0.034
-452.968	195.797	0.066	-0.100
-451.953	-200.000	0.031	0.279
-450.938	49.161	0.029	0.027
-449.924	193.342	0.066	-0.099
-448.909	-2.558	-0.086	-0.060
-447.895	-200.000	-0.014	-0.367
-446.880	-34.194	0.301	-0.164
-445.865	800.000	-0.047	-0.144
-444.851	-85.742	0.208	0.064
-443.836	-95.078	-0.023	0.006
-442.822	-200.000	0.104	0.000
-441.807	-38.737	-0.136	0.071
-440.792	800.000	-0.083	-0.347
-439.778	-200.000	0.023	-0.305
-438.763	-200.000	-0.009	0.072
-437.749	-200.000	0.033	0.382
-436.734	-200.000	-0.001	0.153
-435.719	-64.014	0.104	-0.042
-434.705	-19.887	-0.108	0.066
-433.690	137.296	-0.233	0.303
-432.676	570.543	0.014	-0.035
-431.661	77.677	0.212	-0.224
-430.646	279.972	-0.026	-0.046
-429.632	-200.000	0.046	-0.205
-428.617	65.843	-0.093	-0.094
-427.603	-105.803	-0.154	0.034
-426.588	800.000	-0.069	-0.191
-425.573	-200.000	-0.016	0.298
-424.559	403.983	0.115	0.240
-423.544	-200.000	0.036	0.217
-422.530	71.202	0.060	-0.062
-421.515	-17.635	0.240	0.150
-420.500	-200.000	-0.028	-0.185
-419.486	-200.000	-0.001	0.255
-418.471	-115.682	-0.075	0.014
-417.457	18.418	0.164	-0.130
-416.442	20.417	-0.156	-0.125
-415.428	800.000	-0.042	-0.139
-414.413	350.806	-0.060	0.118
-413.398	85.238	0.145	0.158
-412.384	106.175	0.143	-0.168
-411.369	800.000	0.088	0.336
-410.355	75.981	0.132	-0.139
-409.340	-97.697	-0.114	0.029
-408.325	129.356	-0.061	-0.077
-407.311	-200.000	0.035	0.317
-406.296	-23.485	-0.163	0.097
-405.282	47.014	0.111	-0.103
-404.267	-133.929	-0.210	0.026
-403.252	305.599	-0.263	0.485
-402.238	-200.000	-0.025	0.186
-401.223	-77.920	0.362	0.124
-400.209	87.378	-0.072	0.079
-399.194	-50.994	-0.174	-0.081
-398.179	-200.000	-0.022	-0.174
-397.165	-87.262	0.222	0.067
-396.150	-52.247	-0.143	-0.066
-395.136	93.490	-0.107	0.120
-394.121	244.711	0.154	0.257
-393.106	580.574	-0.175	0.426
-392.092	-144.059	0.279	0.026
-391.077	164.225	-0.149	0.208
-390.063	626.740	-0.085	0.212
-389.048	6.118	-0.219	0.161
-388.033	800.000	0.099	0.377
-387.019	800.000	-0.063	-0.183
-386.004	-126.320	0.255	-0.038
-384.990	-200.000	0.038	0.282
-383.975	751.359	0.038	0.102
-382.960	-143.309	0.096	0.009
-381.946	-200.000	-0.022	0.281
-380.931	-108.179	0.126	0.027
-379.917	141.620	-0.107	0.141
-378.902	90.285	-0.186	0.206
-377.888	116.167	0.117	0.142
-376.873	-200.000	0.057	0.264
-375.858	144.256	0.106	0.140
-374.844	371.900	-0.097	-0.195
-373.829	-153.365	0.352	-0.024
-372.815	65.207	-0.019	0.019
-371.800	313.775	-0.052	-0.096
-370.785	-46.212	0.123	0.060
-369.771	575.257	0.047	0.115
-368.756	800.000	-0.154	-0.427
-367.742	-200.000	-0.009	-0.228
-366.727	311.616	-0.073	0.136
-365.712	10.390	0.249	0.187
-364.698	-7.515	-0.222	-0.148
-363.683	402.408	0.183	-0.381
-362.669	-11.045	-0.060	-0.039
-361.654	-200.000	0.061	-0.303
-360.639	466.553	-0.051	-0.112
-359.625	-130.981	-0.118	-0.016
-358.610	611.622	-0.055	0.137
-357.596	380.636	-0.131	0.266
-356.581	-19.617	-0.186	0.114
-355.566	800.000	0.068	0.210
-354.552	460.740	0.062	-0.136
-353.537	9.452	-0.259	-0.194
-352.523	-200.000	0.001	-0.272
-351.508	47.009	0.094	-0.086
-350.493	-200.000	-0.007	-0.257
-349.479	2.464	0.068	0.048
-348.464	77.077	0.115	-0.121
-347.450	7.419	-0.094	0.069
-346.435	100.936	-0.081	-0.093
-345.420	-144.555	-0.106	-0.010
-344.406	-63.477	0.120	0.049
-343.391	-79.604	0.247	0.083
-342.377	13.571	0.347	-0.266
-341.362	-200.000	-0.089	-0.413
-340.348	-95.967	0.345	-0.091
-339.333	-176.844	0.271	0.007
-338.318	-200.000	0.013	0.092
-337.304	31.884	-0.248	0.212
-336.289	145.592	0.118	-0.156
-335.275	-37.134	0.230	0.122
-334.260	-104.130	-0.309	-0.071
-333.245	70.627	0.046	0.047
-332.231	401.754	0.063	0.131
-331.216	-77.381	-0.100	-0.034
-330.202	-132.169	-0.180	-0.023
-329.187	-139.322	0.125	-0.013
-328.172	-22.708	0.177	-0.106
-327.158	10.216	0.153	0.115
-326.143	-133.919	-0.148	-0.018
-325.129	246.192	-0.095	-0.159
-324.114	189.845	-0.120	0.178
-323.099	48.053	-0.138	0.128
-322.085	800.000	-0.101	-0.301
-321.070	-84.941	0.146	0.045
-320.056	-49.590	-0.136	-0.064
-319.041	-77.878	-0.061	0.021
-318.026	-115.821	0.287	0.053
-317.012	800.000	0.077	0.249
-315.997	800.000	0.103	0.381
-314.983	336.920	0.164	0.314
-313.968	-102.645	-0.474	-0.112
-312.953	127.872	-0.195	0.245
-311.939	800.000	0.145	-0.445
-310.924	-22.161	-0.217	-0.130
-309.910	-0.438	-0.363	0.255
-308.895	-74.348	-0.175	-0.062
-307.880	800.000	0.062	-0.219
-306.866	-200.000	-0.013	-0.392
-305.851	35.169	-0.126	0.109
-304.837	24.302	-0.300	0.245
-303.822	-21.311	0.188	0.114
-302.807	-200.000	-0.002	0.436
-301.793	79.169	0.164	0.173
-300.778	-100.762	0.312	-0.076
-299.764	800.000	0.090	0.276
-298.749	381.050	-0.082	0.167
-297.735	-200.000	-0.018	-0.126
-296.720	142.410	-0.090	0.118
-295.705	694.570	0.054	-0.140
-294.691	82.641	0.253	-0.272
-293.676	423.380	-0.148	0.314
-292.662	372.003	0.222	-0.444
-291.647	-22.899	-0.042	-0.025
-290.632	-60.462	-0.097	-0.041
-289.618	97.844	-0.067	0.076
-288.603	102.305	-0.043	-0.050
-287.589	-9.624	-0.340	-0.224
-286.574	-158.952	-0.162	-0.009
-285.559	628.703	-0.019	0.047
-284.545	-78.541	0.184	0.062
-283.530	-200.000	0.183	0.001
-282.516	-37.712	-0.302	0.159
-281.501	-38.158	0.193	0.101
-280.486	191.613	0.067	-0.100
-279.472	141.181	-0.100	-0.131
-278.457	42.674	0.205	-0.184
-277.443	32.621	0.155	0.132
-276.428	-141.685	-0.486	0.048
-275.413	800.000	0.105	-0.288
-274.399	658.581	-0.040	-0.102
-273.384	143.513	0.193	0.253
-272.370	441.720	0.125	0.271
-271.355	617.767	0.081	-0.202
-270.340	192.688	-0.130	0.193
-269.326	380.158	-0.144	0.291
-268.311	-127.540	0.224	-0.032
-267.297	96.989	0.010	-0.011
-266.282	-200.000	-0.006	-0.347
-265.267	540.563	-0.120	-0.282
-264.253	-88.482	-0.145	0.043
-263.238	265.775	0.103	0.178
-262.224	75.223	0.183	0.190
-261.209	-137.773	-0.189	0.021
-260.195	-47.488	0.137	0.066
-259.180	-34.531	-0.291	0.157
-258.165	-157.740	-0.138	-0.008
-257.151	-75.455	-0.250	0.088
-256.136	52.941	-0.196	0.184
-255.122	45.689	-0.063	0.058
-254.107	21.922	0.090	-0.073
-253.092	-68.498	0.254	-0.097
-252.078	-200.000	0.024	-0.137
-251.063	-97.786	0.190	0.048
-250.049	-200.000	0.003	0.143
-249.034	375.130	0.074	-0.148
-248.019	-200.000	-0.014	0.103
-247.005	-17.718	-0.248	0.153
-245.990	770.619	-0.047	-0.125
-244.976	151.761	-0.150	-0.201
-243.961	229.383	0.013	0.020
-242.946	516.990	0.055	-0.126
-241.932	-47.796	-0.182	0.087
-240.917	-113.227	-0.328	0.064
-239.903	410.034	-0.055	0.115
-238.888	-51.253	0.171	0.079
-237.873	-200.000	0.025	0.234
-236.859	-200.000	-0.060	-0.295
-235.844	-166.285	-0.026	-0.001
-234.830	-192.537	0.255	0.002
-233.815	90.886	-0.128	-0.141
-232.800	107.732	-0.234	0.274
-231.786	155.452	-0.136	0.185
-230.771	-162.281	0.303	-0.015
-229.757	-97.812	0.088	0.023
-228.742	-99.191	-0.284	0.071
-227.727	-42.073	0.108	0.054
-226.713	-200.000	0.000	-0.071
-225.698	66.625	-0.023	0.023
-224.684	-200.000	-0.055	0.401
-223.669	800.000	-0.060	0.253
-222.655	149.557	0.140	0.187
-221.640	-129.822	-0.166	-0.022
-220.625	218.874	0.110	0.173
-219.611	28.029	0.329	-0.273
-218.596	800.000	0.074	-0.270
-217.582	8.648	-0.191	-0.141
-216.567	511.469	0.142	-0.325
-215.552	800.000	-0.133	0.383
-214.538	48.110	0.058	-0.054
-213.523	168.283	-0.135	0.189
-212.509	52.537	-0.053	-0.049
-211.494	-103.711	0.069	0.016
-210.479	-119.012	-0.197	0.034
-209.465	-5.364	0.334	-0.226
-208.450	-27.928	0.246	-0.140
-207.436	4.504	0.190	-0.137
-206.421	-10.949	0.117	-0.076
-205.406	-44.622	0.188	0.092
-204.392	-73.170	0.319	-0.115
-203.377	-200.000	-0.051	-0.390
-202.363	-128.344	-0.407	-0.057
-201.348	-64.378	-0.108	-0.043
-200.333	-61.286	0.233	-0.097
-199.319	-138.475	0.198	-0.021
-198.304	435.691	0.057	-0.121
-197.290	-146.960	-0.388	0.033
-196.275	39.597	0.202	0.178
-195.260	-114.549	0.234	0.044
-194.246	-200.000	-0.011	-0.213
-193.231	-1.157	-0.042	-0.029
-192.217	148.174	-0.144	0.191
-191.202	-200.000	0.103	-0.445
-190.187	213.268	0.014	-0.022
-189.173	-200.000	0.050	-0.250
-188.158	-18.777	0.093	0.057
-187.144	61.942	-0.220	0.216
-186.129	-95.227	-0.549	0.146
-185.114	-82.728	0.184	0.058
-184.100	-129.563	-0.140	-0.019
-183.085	51.371	-0.072	-0.067
-182.071	-59.563	0.257	0.108
-181.056	-110.145	-0.137	0.028
-180.042	460.733	-0.140	-0.306
-179.027	441.477	0.046	-0.100
-178.012	-81.121	0.222	0.072
-176.998	-78.583	0.201	-0.067
-175.983	638.927	-0.028	-0.069
-174.969	-92.170	0.327	-0.091
-173.954	-200.000	0.032	0.191
-172.939	-72.034	0.294	0.107
-171.925	77.604	0.264	0.276
-170.910	-18.564	-0.182	-0.112
-169.896	-200.000	0.081	0.371
-168.881	-148.368	0.225	-0.018
-167.866	-162.643	0.261	0.013
-166.852	-111.791	-0.142	-0.028
-165.837	373.070	-0.079	0.159
-164.823	-154.548	-0.124	0.008
-163.808	-139.327	0.241	-0.025
-162.793	-113.603	0.225	-0.043
-161.779	-103.174	0.477	-0.111
-160.764	154.668	0.113	0.153
-159.750	-116.647	-0.118	0.021
-158.735	-94.493	-0.103	-0.028
-157.720	-200.000	0.007	-0.122
-156.706	-200.000	-0.005	-0.070
-155.691	-45.275	-0.132	0.065
-154.677	-200.000	-0.002	0.276
-153.662	-71.336	0.350	-0.129
-152.647	-106.864	0.350	0.076
-151.633	-200.000	0.042	-0.219
-150.618	-12.408	-0.057	0.036
-149.604	177.961	-0.143	-0.205
-148.589	1.229	0.015	-0.011
-147.574	-62.077	-0.185	-0.076
-146.560	126.383	0.211	-0.262
-145.545	-112.048	0.267	-0.053
-144.531	800.000	0.017	0.059
-143.516	-34.355	-0.280	0.151
-142.502	-96.622	0.059	-0.015
-141.487	230.394	0.027	-0.043
-140.472	-88.072	-0.332	0.098
-139.458	87.248	-0.143	0.155
-138.443	-99.292	0.166	-0.041
-137.429	99.376	0.168	0.190
-136.414	-200.000	-0.016	0.134
-135.399	-164.078	-0.303	0.014
-134.385	-200.000	-0.012	0.145
-133.370	105.683	0.117	-0.135
-132.356	231.479	0.131	-0.211
-131.341	-200.000	0.028	-0.124
-130.326	-33.534	0.260	0.141
-129.312	-3.877	-0.225	0.153
-128.297	-31.928	-0.162	0.089
-127.283	110.538	-0.098	-0.115
-126.268	-200.000	0.028	0.232
-125.253	251.028	-0.094	-0.157
-124.239	-200.000	0.021	-0.229
-123.224	-129.184	0.246	0.034
-122.210	-100.436	0.368	-0.089
-121.195	-33.071	0.103	-0.056
