DTS Sentinel unit serial number:	SN413079Multiplexer serial number:	ORYXHardware model number:	OX4-SRSoftware version number:	ORYX F/W v4.00 Oryx Data Collector v3.7.2.0data status	okinstallation	princeton_trtdifferential loss correction	single-endedforward channel	channel 3reverse channel	N/Adate	2019/09/19time	10:20:34forward acquisition time	60.00reverse acquisition time	0.00gamma	496.2192k internal	0.2342k external	0.2342temperature offset calibration	0.9982default loss term (dB/km)	0.3790temperature slope calibration	1.0000multiplexer offset coefficient	1.0000multiplexer slope coefficient	1.0000fibre end	0.00T internal ref (°C)	24.19T ext. ref 1 (°C)	0.70T ext. ref 2 (°C)	19.77length (m)	temperature (°C)	Stokes	anti-Stokes-747.200	659.637	-0.033	0.086
-746.185	61.757	-0.400	0.399
-745.171	-200.000	-0.012	0.078
-744.156	358.713	-0.199	0.398
-743.142	75.073	0.279	-0.295
-742.127	147.182	-0.040	0.053
-741.112	15.719	-0.121	-0.095
-740.098	-150.490	0.136	0.010
-739.083	-92.354	0.216	0.061
-738.069	-200.000	0.032	0.278
-737.054	300.658	-0.260	-0.481
-736.039	-57.423	-0.266	-0.117
-735.025	-200.000	-0.001	-0.244
-734.010	43.567	-0.143	-0.131
-732.996	111.159	-0.135	-0.163
-731.981	15.069	-0.234	-0.183
-730.966	-15.313	-0.147	0.094
-729.952	-200.000	0.011	-0.050
-728.937	-27.401	0.157	-0.091
-727.923	324.265	0.111	-0.212
-726.908	110.639	0.116	0.140
-725.894	345.551	-0.082	0.162
-724.879	-200.000	0.002	-0.167
-723.864	-99.058	-0.167	0.042
-722.850	2.805	-0.087	0.063
-721.835	800.000	0.033	0.106
-720.821	428.432	-0.162	-0.351
-719.806	-78.202	-0.520	-0.179
-718.791	-68.171	-0.413	-0.161
-717.777	-155.871	0.351	0.022
-716.762	-6.803	-0.033	0.023
-715.748	-97.323	-0.135	0.035
-714.733	-13.102	-0.374	0.243
-713.718	-64.378	-0.069	0.028
-712.704	-50.677	-0.338	-0.159
-711.689	-200.000	0.003	-0.392
-710.675	800.000	-0.028	0.080
-709.660	-25.300	-0.254	0.150
-708.645	275.722	0.060	0.107
-707.631	-50.398	-0.123	-0.058
-706.616	800.000	-0.024	0.069
-705.602	34.607	-0.047	0.041
-704.587	800.000	0.095	0.402
-703.572	-63.601	-0.274	0.113
-702.558	169.914	-0.119	0.170
-701.543	-73.484	0.101	-0.037
-700.529	800.000	-0.012	-0.033
-699.514	72.326	-0.391	0.407
-698.499	-128.727	0.168	0.024
-697.485	-151.688	0.190	-0.014
-696.470	40.033	-0.018	0.016
-695.456	-200.000	-0.004	-0.060
-694.441	17.694	0.102	-0.081
-693.426	299.265	-0.239	-0.440
-692.412	-38.491	0.109	0.058
-691.397	207.711	-0.127	-0.198
-690.383	562.777	0.173	-0.418
-689.368	800.000	-0.127	-0.421
-688.354	631.996	0.022	0.057
-687.339	800.000	-0.062	-0.226
-686.324	-126.942	-0.104	-0.015
-685.310	157.663	0.068	-0.094
-684.295	-121.601	-0.390	-0.065
-683.281	566.431	-0.058	-0.142
-682.266	-43.395	0.035	-0.017
-681.251	-41.635	-0.095	-0.049
-680.237	159.596	0.206	-0.286
-679.222	75.617	0.126	-0.133
-678.208	-138.203	0.284	-0.031
-677.193	361.115	0.079	0.158
-676.178	-200.000	0.013	-0.373
-675.164	800.000	0.127	0.349
-674.149	-31.854	0.214	-0.120
-673.135	91.279	-0.337	0.378
-672.120	-200.000	0.012	-0.072
-671.105	66.196	-0.411	-0.417
-670.091	-61.922	0.293	-0.122
-669.076	119.879	0.082	-0.102
-668.062	94.108	-0.166	0.188
-667.047	204.018	0.144	-0.223
-666.032	164.160	0.142	0.200
-665.018	-31.603	-0.177	0.099
-664.003	800.000	-0.033	0.126
-662.989	800.000	0.040	0.172
-661.974	-69.853	-0.144	0.055
-660.959	262.350	-0.148	-0.256
-659.945	470.309	0.111	-0.250
-658.930	321.683	0.093	-0.177
-657.916	-148.964	-0.426	-0.034
-656.901	-185.672	-0.131	-0.002
-655.886	-200.000	-0.081	-0.434
-654.872	-92.018	-0.079	-0.022
-653.857	326.832	-0.160	-0.306
-652.843	-109.902	0.253	0.053
-651.828	-200.000	-0.020	0.098
-650.814	453.658	-0.122	-0.270
-649.799	-45.989	0.038	0.019
-648.784	-200.000	-0.013	-0.193
-647.770	-200.000	-0.075	-0.398
-646.755	-125.304	0.108	-0.017
-645.741	43.953	-0.096	0.088
-644.726	-150.372	-0.175	0.013
-643.711	254.368	-0.087	0.149
-642.697	-84.840	0.309	0.097
-641.682	-31.526	0.293	0.164
-640.668	-114.562	0.316	0.060
-639.653	-29.262	-0.199	-0.113
-638.638	-141.850	-0.231	0.023
-637.624	73.310	0.179	-0.187
-636.609	-200.000	-0.002	0.202
-635.595	587.445	0.110	0.270
-634.580	-67.932	-0.261	-0.101
-633.565	-31.743	0.276	-0.155
-632.551	-105.414	-0.244	0.055
-631.536	-35.092	-0.274	0.149
-630.522	-23.842	0.074	-0.044
-629.507	-200.000	0.044	-0.357
-628.492	258.689	0.067	0.115
-627.478	96.848	0.163	0.186
-626.463	26.010	-0.076	0.063
-625.449	-72.882	-0.343	-0.126
-624.434	-200.000	-0.085	0.389
-623.419	191.795	-0.091	-0.137
-622.405	-20.529	-0.126	-0.077
-621.390	800.000	0.090	-0.387
-620.376	356.855	-0.179	-0.355
-619.361	-70.006	-0.361	-0.137
-618.346	800.000	-0.052	-0.187
-617.332	-65.345	-0.276	-0.111
-616.317	-200.000	0.027	0.336
-615.303	546.374	0.058	0.139
-614.288	-200.000	-0.027	-0.175
-613.273	104.584	0.064	-0.076
-612.259	254.381	-0.080	-0.136
-611.244	753.421	-0.084	-0.226
-610.230	-81.853	-0.337	0.110
-609.215	800.000	0.060	-0.166
-608.201	-0.481	0.111	0.078
-607.186	-21.987	0.216	0.131
-606.171	289.097	0.046	0.083
-605.157	-116.471	-0.212	-0.039
-604.142	-97.334	-0.104	-0.027
-603.128	-200.000	-0.002	0.169
-602.113	-112.798	0.089	0.018
-601.098	-200.000	0.022	0.162
-600.084	-200.000	0.002	0.239
-599.069	-116.595	-0.054	-0.010
-598.055	108.878	-0.123	0.146
-597.040	92.031	0.135	-0.152
-596.025	-200.000	0.004	-0.111
-595.011	289.394	0.107	0.193
-593.996	151.044	0.300	-0.406
-592.982	-59.526	0.122	-0.052
-591.967	126.320	0.147	-0.186
-590.952	247.911	-0.139	-0.234
-589.938	-60.544	0.094	-0.040
-588.923	4.222	-0.253	-0.185
-587.909	-8.444	-0.172	-0.115
-586.894	-200.000	-0.005	0.033
-585.879	22.493	-0.237	0.193
-584.865	163.830	-0.115	-0.161
-583.850	-58.395	0.367	-0.159
-582.836	782.230	-0.081	0.220
-581.821	-106.442	0.072	-0.016
-580.806	-140.818	-0.039	0.004
-579.792	800.000	0.028	0.081
-578.777	-149.524	-0.277	-0.022
-577.763	-200.000	-0.007	-0.125
-576.748	-113.217	-0.067	-0.013
-575.733	406.655	0.099	-0.208
-574.719	-0.477	0.100	0.071
-573.704	-200.000	0.040	0.343
-572.690	282.899	0.122	-0.218
-571.675	-145.112	0.272	0.025
-570.661	-16.159	0.039	-0.025
-569.646	644.323	-0.149	0.379
-568.631	-200.000	-0.007	0.321
-567.617	606.388	-0.062	-0.154
-566.602	-15.120	0.268	-0.171
-565.588	-74.569	-0.236	0.084
-564.573	-124.008	0.095	-0.015
-563.558	-121.149	-0.263	0.044
-562.544	-23.275	-0.150	-0.090
-561.529	-200.000	0.042	0.205
-560.515	34.497	-0.227	0.197
-559.500	-200.000	-0.006	0.184
-558.485	-8.777	0.212	0.141
-557.471	27.450	0.183	-0.153
-556.456	391.927	-0.074	0.153
-555.442	-102.869	-0.234	-0.055
-554.427	-200.000	0.016	-0.124
-553.412	800.000	0.031	-0.088
-552.398	800.000	0.134	0.441
-551.383	-34.650	-0.152	0.083
-550.369	-140.019	0.130	0.014
-549.354	344.918	-0.066	0.128
-548.339	800.000	0.128	0.370
-547.325	-106.334	-0.268	-0.060
-546.310	-69.990	0.266	-0.101
-545.296	290.063	-0.262	-0.473
-544.281	-22.311	0.185	-0.111
-543.266	-143.524	-0.067	0.006
-542.252	-136.546	-0.080	0.009
-541.237	58.753	-0.200	0.195
-540.223	56.004	0.237	0.228
-539.208	800.000	0.071	0.237
-538.193	223.605	-0.154	0.247
-537.179	-76.830	0.124	0.043
-536.164	-26.656	0.340	0.197
-535.150	-15.883	-0.340	-0.215
-534.135	-200.000	0.101	-0.708
-533.121	-5.601	-0.118	-0.081
-532.106	-200.000	0.009	0.094
-531.091	-200.000	-0.004	0.059
-530.077	496.957	0.094	0.215
-529.062	-22.045	-0.052	0.031
-528.048	-163.137	-0.111	-0.005
-527.033	19.025	-0.173	-0.138
-526.018	67.009	0.085	0.086
-525.004	-7.650	0.238	-0.160
-523.989	800.000	-0.083	0.238
-522.975	800.000	-0.049	0.160
-521.960	-32.062	0.226	-0.126
-520.945	-127.574	0.303	0.044
-519.931	-72.534	-0.129	0.047
-518.916	800.000	0.094	-0.260
-517.902	-12.282	-0.183	0.119
-516.887	-89.664	-0.135	-0.039
-515.872	-200.000	-0.003	0.114
-514.858	79.275	-0.095	0.101
-513.843	-35.713	-0.232	0.125
-512.829	28.996	0.179	0.150
-511.814	-200.000	-0.021	-0.207
-510.799	-95.297	-0.204	0.055
-509.785	416.079	0.097	0.205
-508.770	181.315	-0.125	0.182
-507.756	228.967	0.102	0.165
-506.741	-76.965	-0.128	-0.044
-505.726	800.000	0.033	-0.107
-504.712	-115.039	-0.154	-0.029
-503.697	49.388	-0.238	-0.222
-502.683	-83.145	0.423	0.135
-501.668	800.000	-0.085	0.289
-500.653	-70.697	0.180	0.067
-499.639	-60.860	-0.253	0.106
-498.624	133.741	-0.123	0.158
-497.610	-200.000	-0.008	-0.164
-496.595	-23.839	-0.103	-0.061
-495.581	-200.000	0.356	-0.000
-494.566	-113.895	0.170	-0.033
-493.551	-26.214	-0.090	0.053
-492.537	-47.472	-0.132	-0.064
-491.522	610.559	0.101	0.252
-490.508	450.770	-0.113	0.248
-489.493	-200.000	0.063	0.558
-488.478	-77.909	0.189	0.065
-487.464	488.277	0.034	-0.076
-486.449	296.118	0.023	-0.042
-485.435	-109.695	-0.236	0.049
-484.420	313.346	-0.144	-0.268
-483.405	-61.362	0.289	-0.121
-482.391	-169.732	-0.342	0.012
-481.376	-200.000	0.030	0.258
-480.362	-24.502	0.060	-0.035
-479.347	-200.000	0.039	0.396
-478.332	-41.529	0.387	0.197
-477.318	23.800	0.081	-0.066
-476.303	209.938	0.087	0.135
-475.289	-140.499	-0.231	-0.024
-474.274	67.709	-0.140	0.142
-473.259	-148.674	-0.100	0.008
-472.245	14.230	-0.114	-0.088
-471.230	342.922	0.094	-0.183
-470.216	198.567	-0.328	0.497
-469.201	54.499	-0.150	-0.143
-468.186	249.975	-0.120	-0.202
-467.172	-200.000	0.030	-0.193
-466.157	656.994	-0.063	-0.161
-465.143	-124.633	0.229	0.035
-464.128	-168.544	0.358	-0.014
-463.113	-177.371	0.098	0.002
-462.099	800.000	0.099	-0.407
-461.084	86.066	-0.025	-0.027
-460.070	-18.466	0.100	-0.062
-459.055	92.282	-0.204	0.227
-458.040	800.000	0.012	-0.046
-457.026	49.096	0.155	-0.144
-456.011	657.635	0.038	0.096
-454.997	-34.191	-0.118	0.064
-453.982	-29.962	0.101	0.057
-452.968	800.000	-0.060	-0.202
-451.953	-25.936	0.199	0.116
-450.938	-122.577	-0.374	0.060
-449.924	-39.362	-0.136	0.071
-448.909	-43.620	-0.038	0.019
-447.895	800.000	-0.058	0.194
-446.880	280.608	0.092	-0.162
-445.865	-200.000	0.048	-0.306
-444.851	-200.000	-0.004	-0.097
-443.836	588.048	-0.124	-0.303
-442.822	-55.540	0.192	0.085
-441.807	53.744	-0.108	0.102
-440.792	-65.992	0.294	0.116
-439.778	406.273	-0.157	-0.327
-438.763	-135.986	-0.075	-0.009
-437.749	800.000	0.031	-0.117
-436.734	131.501	0.259	0.330
-435.719	193.498	-0.058	-0.087
-434.705	800.000	0.045	-0.141
-433.690	7.037	-0.212	0.156
-432.676	120.795	-0.022	0.027
-431.661	20.545	0.099	0.079
-430.646	800.000	0.051	-0.177
-429.632	-200.000	0.078	0.374
-428.617	-59.968	-0.286	-0.121
-427.603	104.555	-0.216	0.251
-426.588	-93.106	-0.220	0.061
-425.573	-3.246	0.129	-0.089
-424.559	36.254	0.157	-0.137
-423.544	800.000	0.138	-0.380
-422.530	-181.071	-0.066	-0.001
-421.515	15.586	0.063	-0.049
-420.500	663.957	0.076	-0.193
-419.486	-200.000	0.005	0.127
-418.471	-55.483	0.106	0.047
-417.457	-150.219	-0.479	-0.037
-416.442	-44.109	-0.371	-0.184
-415.428	328.340	-0.080	0.152
-414.413	122.427	0.087	-0.108
-413.398	-200.000	-0.025	0.125
-412.384	205.982	0.100	0.154
-411.369	58.502	0.073	0.071
-410.355	-28.027	0.203	-0.116
-409.340	-200.000	0.010	-0.259
-408.325	-200.000	-0.014	-0.131
-407.311	-200.000	0.023	0.277
-406.296	-105.014	-0.556	-0.126
-405.282	-200.000	0.005	-0.101
-404.267	261.319	-0.217	0.372
-403.252	-43.583	0.202	-0.101
-402.238	-200.000	-0.018	-0.116
-401.223	800.000	0.091	0.306
-400.209	0.565	0.183	-0.129
-399.194	119.209	-0.106	-0.129
-398.179	75.624	0.107	-0.112
-397.165	27.291	0.068	-0.057
-396.150	63.343	0.148	0.147
-395.136	112.762	0.111	-0.133
-394.121	286.581	0.235	-0.420
-393.106	-152.748	0.263	-0.018
-392.092	-200.000	0.026	0.180
-391.077	7.619	0.194	0.143
-390.063	-111.529	0.237	-0.048
-389.048	36.092	-0.216	-0.187
-388.033	13.517	0.237	0.182
-387.019	5.997	-0.381	-0.279
-386.004	-53.360	-0.185	0.084
-384.990	25.861	0.138	0.114
-383.975	800.000	-0.070	-0.223
-382.960	-11.460	0.049	-0.032
-381.946	139.361	0.063	0.082
-380.931	-81.248	-0.125	0.041
-379.917	681.795	-0.087	-0.223
-378.902	-83.245	0.212	-0.067
-377.888	-170.187	-0.343	-0.012
-376.873	-0.700	-0.184	-0.128
-375.858	539.794	-0.059	0.137
-374.844	-57.229	0.434	-0.189
-373.829	-63.190	0.467	-0.190
-372.815	28.108	-0.087	0.072
-371.800	800.000	0.016	-0.069
-370.785	405.718	-0.107	0.223
-369.771	303.910	0.186	0.340
-368.756	-200.000	0.021	0.092
-367.742	205.443	-0.114	0.175
-366.727	36.681	0.118	0.102
-365.712	-75.298	-0.231	0.081
-364.698	-16.218	0.070	-0.044
-363.683	8.249	0.251	-0.186
-362.669	297.493	0.179	-0.325
-361.654	-124.351	-0.195	0.030
-360.639	-45.722	0.217	-0.106
-359.625	-61.784	0.118	-0.049
-358.610	800.000	0.171	-0.590
-357.596	159.623	-0.110	0.151
-356.581	800.000	0.049	0.208
-355.566	-68.334	0.075	-0.029
-354.552	-200.000	0.032	-0.332
-353.537	-200.000	0.022	0.206
-352.523	-200.000	-0.012	0.134
-351.508	-43.633	-0.322	0.160
-350.493	637.576	0.095	-0.237
-349.479	-200.000	-0.017	0.191
-348.464	169.497	-0.131	-0.184
-347.450	-178.006	-0.100	-0.002
-346.435	-200.000	-0.045	0.309
-345.420	-200.000	0.000	0.395
-344.406	-194.152	-0.104	0.001
-343.391	85.515	-0.175	-0.190
-342.377	-200.000	-0.029	-0.160
-341.362	579.253	-0.129	-0.311
-340.348	-47.773	0.170	-0.081
-339.333	705.487	-0.109	0.283
-338.318	800.000	-0.154	-0.456
-337.304	-144.234	0.215	0.020
-336.289	-200.000	0.047	0.344
-335.275	-200.000	0.011	0.259
-334.260	-64.059	-0.296	0.119
-333.245	-127.826	-0.171	-0.024
-332.231	-167.249	-0.025	0.001
-331.216	424.411	-0.174	-0.368
-330.202	-129.394	-0.232	0.032
-329.187	24.254	0.068	0.055
-328.172	175.673	0.018	-0.026
-327.158	-95.940	-0.243	0.064
-326.143	23.514	-0.312	-0.253
-325.129	-152.330	-0.344	-0.024
-324.114	-35.663	0.063	-0.034
-323.099	-169.679	-0.246	0.009
-322.085	177.738	-0.071	0.103
-321.070	-200.000	0.005	-0.054
-320.056	-113.530	-0.148	0.029
-319.041	-7.963	0.092	-0.061
-318.026	-42.066	-0.073	-0.037
-317.012	193.022	0.165	-0.246
-315.997	800.000	0.062	-0.206
-314.983	-200.000	0.025	-0.169
-313.968	-79.233	0.213	0.071
-312.953	-9.250	0.423	-0.278
-311.939	-200.000	0.025	-0.150
-310.924	-7.484	0.044	-0.029
-309.910	346.888	0.070	0.135
-308.895	800.000	-0.028	-0.103
-307.880	111.945	-0.156	-0.185
-306.866	785.987	-0.079	0.212
-305.851	-23.104	0.339	0.201
-304.837	-30.186	0.026	0.015
-303.822	-102.342	-0.135	-0.032
-302.807	-200.000	0.017	-0.212
-301.793	115.997	0.211	0.255
-300.778	271.048	-0.071	0.123
-299.764	-163.154	0.280	-0.013
-298.749	126.724	0.147	-0.184
-297.735	-171.023	-0.371	0.012
-296.720	-200.000	-0.002	-0.163
-295.705	-200.000	-0.031	-0.420
-294.691	800.000	-0.083	0.243
-293.676	-184.388	0.098	0.002
-292.662	-30.459	-0.243	-0.136
-291.647	517.671	0.137	0.315
-290.632	-119.086	-0.169	0.029
-289.618	294.991	0.069	0.124
-288.603	100.743	0.076	0.087
-287.589	-151.920	-0.230	-0.017
-286.574	-133.222	-0.098	-0.012
-285.559	800.000	-0.088	-0.261
-284.545	-57.823	0.218	0.094
-283.530	33.460	0.151	-0.129
-282.516	70.704	-0.161	0.164
-281.501	-67.809	-0.178	-0.068
-280.486	-44.360	0.282	0.139
-279.472	-129.449	-0.570	-0.078
-278.457	-111.738	0.151	-0.030
-277.443	359.977	-0.072	0.142
-276.428	800.000	-0.022	0.078
-275.413	153.777	0.230	0.310
-274.399	800.000	-0.103	0.314
-273.384	249.558	0.083	0.138
-272.370	69.928	-0.075	-0.076
-271.355	-83.113	-0.078	-0.025
-270.340	729.431	-0.019	0.050
-269.326	-52.978	0.215	0.097
-268.311	-200.000	0.004	0.167
-267.297	81.651	0.177	-0.188
-266.282	-162.775	0.124	0.006
-265.267	257.012	-0.164	0.277
-264.253	-200.000	0.018	0.250
-263.238	-200.000	-0.058	0.313
-262.224	800.000	-0.087	-0.313
-261.209	-121.956	-0.257	0.042
-260.195	33.587	0.065	0.056
-259.180	-129.046	0.093	-0.013
-258.165	219.564	-0.233	0.366
-257.151	66.917	0.186	-0.186
-256.136	393.209	0.177	0.362
-255.122	-24.680	0.079	0.046
-254.107	-85.253	0.163	0.050
-253.092	243.774	-0.106	0.175
-252.078	-164.213	0.249	0.011
-251.063	729.774	-0.130	0.342
-250.049	35.380	-0.222	0.191
-249.034	-60.238	-0.232	0.097
-248.019	611.574	0.094	-0.231
-247.005	-200.000	0.002	0.177
-245.990	-200.000	-0.021	0.167
-244.976	800.000	-0.078	0.239
-243.961	548.013	-0.135	0.317
-242.946	-99.495	-0.226	0.056
-241.932	-97.805	-0.112	0.028
-240.917	-117.570	0.317	0.056
-239.903	765.941	-0.139	-0.371
-238.888	-140.682	0.212	-0.022
-237.873	82.856	0.218	-0.233
-236.859	67.252	0.101	-0.101
-235.844	598.095	-0.060	-0.146
-234.830	-158.975	0.286	-0.016
-233.815	-125.999	0.337	0.050
-232.800	-52.637	0.087	-0.039
-231.786	393.223	0.028	-0.057
-230.771	572.955	-0.049	-0.117
-229.757	-89.498	-0.029	-0.008
-228.742	-200.000	-0.014	0.151
-227.727	-9.406	0.214	-0.140
-226.713	-19.320	-0.187	-0.114
-225.698	-19.351	-0.215	0.131
-224.684	-80.045	0.185	-0.061
-223.669	7.737	0.056	0.041
-222.655	286.003	0.090	0.159
-221.640	-47.665	0.376	0.179
-220.625	-20.418	0.354	-0.214
-219.611	-83.860	0.380	-0.119
-218.596	95.674	0.041	0.046
-217.582	92.808	-0.165	-0.183
-216.567	800.000	0.072	0.222
-215.552	243.354	0.091	-0.150
-214.538	-200.000	0.022	-0.285
-213.523	-2.017	0.115	-0.079
-212.509	-36.126	-0.435	0.231
-211.494	-100.845	0.422	-0.102
-210.479	-2.742	-0.171	-0.117
-209.465	-177.586	-0.249	0.006
-208.450	81.525	0.054	0.058
-207.436	-152.451	0.447	0.031
-206.421	-25.127	0.155	0.090
-205.406	-96.809	-0.212	-0.055
-204.392	480.010	0.107	-0.239
-203.377	-17.105	-0.376	-0.232
-202.363	-113.568	0.315	0.060
-201.348	218.498	0.162	-0.253
-200.333	-27.234	-0.239	-0.136
-199.319	-10.109	-0.022	0.014
-198.304	-200.000	0.043	0.189
-197.290	-135.907	-0.353	-0.041
-196.275	107.773	0.184	-0.215
-195.260	-35.954	-0.299	0.158
-194.246	-200.000	0.024	-0.157
-193.231	-200.000	-0.039	0.229
-192.217	-133.542	0.237	-0.029
-191.202	575.061	0.068	-0.164
-190.187	-169.811	-0.153	-0.005
-189.173	800.000	0.062	-0.251
-188.158	-15.008	-0.287	0.181
-187.144	-75.954	0.270	-0.094
-186.129	379.967	0.010	-0.020
-185.114	57.274	-0.046	0.044
-184.100	95.425	-0.024	0.027
-183.085	21.429	-0.196	0.156
-182.071	-200.000	0.012	0.257
-181.056	800.000	0.085	0.292
-180.042	-196.839	-0.223	0.001
-179.027	409.483	-0.027	-0.056
-178.012	-67.938	-0.047	-0.018
-176.998	375.718	0.130	-0.259
-175.983	33.102	0.119	-0.101
-174.969	-109.665	-0.131	-0.027
-173.954	800.000	0.011	0.045
-172.939	800.000	0.036	-0.122
-171.925	133.577	0.161	-0.204
-170.910	86.219	-0.142	0.154
-169.896	-85.832	-0.100	-0.030
-168.881	59.113	0.194	-0.187
-167.866	-120.138	0.248	0.041
-166.852	-160.963	-0.047	0.002
-165.837	429.352	0.081	-0.171
-164.823	800.000	0.013	0.055
-163.808	-39.890	0.285	0.146
-162.793	-126.690	-0.140	-0.020
-161.779	-130.156	0.334	-0.045
-160.764	568.936	-0.058	-0.138
-159.750	-123.552	0.185	-0.029
-158.735	-200.000	-0.024	-0.226
-157.720	-200.000	-0.016	-0.287
-156.706	737.999	0.033	-0.087
-155.691	-177.538	0.283	0.007
-154.677	-64.320	-0.374	-0.149
-153.662	-200.000	-0.006	0.057
-152.647	-88.414	0.144	-0.042
-151.633	453.101	0.084	0.183
-150.618	-9.337	0.168	0.110
-149.604	800.000	-0.134	-0.380
-148.589	-3.328	-0.376	-0.256
-147.574	-200.000	-0.016	0.183
-146.560	-142.740	-0.107	-0.010
-145.545	-62.889	-0.394	-0.159
-144.531	-99.946	0.038	0.009
-143.516	-14.423	-0.134	-0.085
-142.502	-200.000	-0.052	-0.264
-141.487	800.000	-0.054	-0.189
-140.472	369.925	0.132	0.261
-139.458	-44.800	0.255	-0.124
-138.443	738.948	-0.079	0.206
-137.429	-200.000	0.071	0.482
-136.414	91.512	-0.066	-0.073
-135.399	232.479	0.062	-0.099
-134.385	15.634	-0.184	-0.142
-133.370	345.960	-0.087	0.168
-132.356	152.072	-0.087	0.116
-131.341	616.288	-0.176	-0.431
-130.326	-200.000	-0.008	-0.085
-129.312	-173.526	-0.175	0.005
-128.297	-76.235	-0.247	0.085
-127.283	-101.957	-0.476	-0.112
-126.268	457.274	-0.079	0.172
-125.253	141.445	-0.157	0.204
-124.239	800.000	-0.036	-0.098
-123.224	-5.514	-0.095	0.063
-122.210	-86.213	-0.279	0.084
