DTS Sentinel unit serial number:	SN413079Multiplexer serial number:	ORYXHardware model number:	OX4-SRSoftware version number:	ORYX F/W v4.00 Oryx Data Collector v3.7.2.0data status	okinstallation	princeton_trtdifferential loss correction	single-endedforward channel	channel 3reverse channel	N/Adate	2019/09/14time	03:36:34forward acquisition time	60.00reverse acquisition time	0.00gamma	496.2192k internal	0.2339k external	0.2339temperature offset calibration	1.0053default loss term (dB/km)	0.3790temperature slope calibration	1.0000multiplexer offset coefficient	1.0000multiplexer slope coefficient	1.0000fibre end	0.00T internal ref (°C)	26.64T ext. ref 1 (°C)	3.29T ext. ref 2 (°C)	21.59length (m)	temperature (°C)	Stokes	anti-Stokes-747.200	666.533	0.088	-0.228
-746.185	-31.921	-0.292	-0.164
-745.171	800.000	0.057	0.164
-744.156	-54.443	0.105	0.048
-743.142	113.991	0.201	0.245
-742.127	166.491	-0.203	0.289
-741.112	-200.000	-0.038	0.307
-740.098	-5.238	0.182	0.125
-739.083	-37.792	0.080	0.043
-738.069	-200.000	0.026	0.150
-737.054	65.918	-0.200	0.203
-736.039	-156.255	-0.397	0.025
-735.025	486.933	-0.076	0.174
-734.010	146.151	0.123	-0.166
-732.996	800.000	0.169	-0.568
-731.981	-5.953	-0.411	-0.282
-730.966	50.734	0.362	-0.344
-729.952	73.178	-0.085	-0.089
-728.937	199.996	0.113	-0.173
-727.923	395.149	-0.065	-0.135
-726.908	40.976	-0.286	-0.259
-725.894	131.147	0.166	-0.214
-724.879	-128.279	-0.190	-0.027
-723.864	-117.784	-0.225	0.040
-722.850	-200.000	0.002	-0.063
-721.835	-200.000	0.005	0.196
-720.821	800.000	0.059	-0.181
-719.806	-172.687	0.159	0.005
-718.791	-200.000	0.066	-0.470
-717.777	78.139	0.055	-0.059
-716.762	470.507	0.154	-0.346
-715.748	49.031	0.148	0.139
-714.733	-36.074	-0.131	0.071
-713.718	-59.472	0.298	-0.128
-712.704	427.707	-0.143	-0.309
-711.689	-200.000	-0.061	0.293
-710.675	-200.000	-0.000	-0.187
-709.660	-150.739	-0.144	0.011
-708.645	800.000	0.076	0.277
-707.631	-135.551	-0.134	0.016
-706.616	208.493	0.151	0.237
-705.602	58.725	0.161	-0.159
-704.587	264.390	-0.150	-0.261
-703.572	-2.695	0.159	-0.112
-702.558	287.920	0.123	0.223
-701.543	135.474	0.057	0.074
-700.529	800.000	0.045	-0.140
-699.514	-144.156	0.219	-0.020
-698.499	146.740	0.097	-0.130
-697.485	-98.449	0.259	0.066
-696.470	-60.278	0.189	0.081
-695.456	1.121	-0.168	-0.120
-694.441	-32.404	-0.087	0.049
-693.426	-106.906	-0.260	0.058
-692.412	-200.000	0.019	0.169
-691.397	-200.000	0.030	0.306
-690.383	39.770	-0.066	-0.059
-689.368	452.906	-0.067	-0.149
-688.354	-173.816	-0.110	0.003
-687.339	430.996	-0.105	-0.227
-686.324	89.777	0.067	0.075
-685.310	800.000	0.042	-0.175
-684.295	-23.517	-0.182	0.110
-683.281	-11.282	0.291	0.192
-682.266	-200.000	-0.020	-0.315
-681.251	-200.000	0.055	-0.382
-680.237	293.619	-0.021	0.038
-679.222	38.243	0.301	-0.268
-678.208	22.339	0.084	0.068
-677.193	-37.850	-0.333	0.177
-676.178	-115.181	-0.430	0.081
-675.164	221.344	-0.236	-0.379
-674.149	-23.688	0.138	0.083
-673.135	644.713	-0.082	0.210
-672.120	-43.457	0.169	-0.085
-671.105	-200.000	0.031	-0.142
-670.091	38.772	0.140	-0.125
-669.076	65.801	-0.138	-0.140
-668.062	30.108	-0.184	0.157
-667.047	222.000	0.117	0.187
-666.032	81.214	0.043	0.046
-665.018	-200.000	0.007	-0.072
-664.003	-200.000	-0.059	-0.264
-662.989	-57.578	0.252	0.110
-661.974	-200.000	0.023	-0.261
-660.959	-107.640	-0.254	0.055
-659.945	-115.240	-0.223	-0.042
-658.930	-200.000	0.406	-0.001
-657.916	-56.618	0.096	0.042
-656.901	-46.531	-0.068	0.033
-655.886	490.327	0.060	-0.136
-654.872	163.014	-0.241	-0.338
-653.857	545.994	-0.092	-0.219
-652.843	-169.307	-0.198	-0.007
-651.828	99.237	0.243	-0.281
-650.814	101.749	0.065	0.076
-649.799	34.494	-0.190	0.166
-648.784	175.545	-0.216	0.314
-647.770	310.485	0.132	-0.247
-646.755	-86.921	0.056	-0.017
-645.741	-115.234	-0.199	-0.038
-644.726	-34.730	0.219	-0.120
-643.711	289.274	-0.044	0.080
-642.697	158.504	0.037	0.051
-641.682	-91.526	-0.280	-0.080
-640.668	-107.989	-0.093	0.020
-639.653	391.615	0.099	0.206
-638.638	134.606	0.092	0.119
-637.624	-37.383	0.160	-0.085
-636.609	641.846	-0.221	-0.562
-635.595	-86.715	-0.045	-0.014
-634.580	39.936	-0.143	-0.128
-633.565	43.335	-0.021	-0.019
-632.551	800.000	0.052	-0.223
-631.536	-40.647	-0.082	-0.043
-630.522	-125.961	-0.191	0.029
-629.507	36.584	-0.131	-0.115
-628.492	800.000	-0.071	-0.241
-627.478	-16.386	0.123	0.078
-626.463	-169.251	0.265	0.010
-625.449	211.905	-0.108	0.171
-624.434	800.000	-0.020	-0.070
-623.419	-101.354	0.280	-0.068
-622.405	-200.000	-0.048	-0.323
-621.390	9.073	-0.136	-0.103
-620.376	-200.000	-0.035	-0.233
-619.361	-129.729	0.214	-0.029
-618.346	57.507	0.308	-0.300
-617.332	-200.000	0.059	-0.286
-616.317	-200.000	0.019	-0.217
-615.303	475.308	0.135	-0.303
-614.288	121.491	0.125	-0.156
-613.273	46.964	0.191	-0.178
-612.259	118.396	-0.206	0.254
-611.244	558.792	-0.158	0.381
-610.230	-121.268	-0.462	-0.077
-609.215	-179.132	0.133	0.003
-608.201	-126.463	0.121	-0.018
-607.186	-96.153	0.209	-0.055
-606.171	-111.786	-0.040	0.008
-605.157	-103.072	0.125	-0.030
-604.142	-69.097	0.145	0.056
-603.128	-2.585	0.108	0.075
-602.113	112.023	0.064	-0.077
-601.098	17.749	-0.109	0.086
-600.084	-147.669	-0.139	0.012
-599.069	709.854	0.057	0.150
-598.055	91.857	-0.256	0.288
-597.040	-84.511	-0.193	-0.061
-596.025	-200.000	0.002	-0.231
-595.011	-200.000	-0.064	-0.280
-593.996	800.000	-0.052	0.153
-592.982	800.000	0.073	0.255
-591.967	-33.057	-0.177	-0.098
-590.952	506.307	-0.135	0.311
-589.938	-161.028	-0.011	0.001
-588.923	-200.000	-0.037	0.185
-587.909	150.098	-0.039	-0.052
-586.894	-200.000	0.116	-0.522
-585.879	41.088	-0.278	-0.250
-584.865	-88.227	-0.027	-0.008
-583.850	52.520	-0.154	-0.147
-582.836	-163.878	0.236	0.011
-581.821	98.303	0.172	-0.197
-580.806	-200.000	0.037	0.238
-579.792	-104.230	0.119	-0.028
-578.777	31.974	-0.179	0.153
-577.763	52.084	0.134	-0.127
-576.748	-115.955	0.228	0.042
-575.733	-200.000	0.176	-0.001
-574.719	39.367	-0.132	0.118
-573.704	231.836	0.091	0.149
-572.690	397.224	-0.139	-0.290
-571.675	-107.634	0.221	-0.048
-570.661	253.387	-0.106	-0.180
-569.646	47.574	-0.150	0.139
-568.631	167.776	0.038	0.054
-567.617	-200.000	0.001	-0.138
-566.602	-77.362	0.109	0.038
-565.588	-200.000	-0.032	-0.361
-564.573	93.012	-0.053	0.060
-563.558	19.250	-0.430	0.344
-562.544	265.568	0.102	0.177
-561.529	395.205	-0.070	-0.146
-560.515	-200.000	0.010	0.058
-559.500	254.224	-0.136	0.232
-558.485	110.251	0.257	0.308
-557.471	-50.952	0.232	-0.109
-556.456	-200.000	-0.003	0.376
-555.442	-73.815	-0.359	-0.130
-554.427	-163.771	0.390	-0.018
-553.412	2.498	0.152	-0.110
-552.398	800.000	-0.061	0.181
-551.383	-65.730	0.081	0.032
-550.369	-50.074	-0.168	-0.079
-549.354	-60.980	0.157	0.066
-548.339	18.397	-0.277	0.221
-547.325	781.592	0.072	-0.196
-546.310	-200.000	-0.021	0.148
-545.296	474.718	0.117	-0.262
-544.281	63.494	-0.140	-0.140
-543.266	-71.779	0.266	-0.099
-542.252	-200.000	0.043	-0.239
-541.237	-1.284	0.129	-0.091
-540.223	-185.930	0.362	-0.005
-539.208	613.290	-0.055	-0.137
-538.193	-64.695	0.163	0.066
-537.179	-182.737	0.130	0.002
-536.164	-84.924	-0.181	-0.057
-535.150	-48.467	-0.172	0.082
-534.135	-129.045	-0.232	0.032
-533.121	291.903	-0.107	-0.195
-532.106	-3.700	0.156	-0.108
-531.091	302.754	-0.110	0.202
-530.077	603.635	-0.142	0.351
-529.062	-125.776	-0.012	0.002
-528.048	-149.175	0.244	-0.019
-527.033	-57.926	0.102	-0.044
-526.018	-200.000	0.021	0.218
-525.004	118.025	0.026	0.032
-523.989	-40.844	-0.150	-0.077
-522.975	168.919	0.009	-0.013
-521.960	-53.482	-0.252	-0.115
-520.945	-91.467	0.109	0.031
-519.931	6.074	-0.239	-0.176
-518.916	347.851	-0.097	-0.191
-517.902	-200.000	-0.027	-0.250
-516.887	-117.166	0.309	-0.056
-515.872	34.547	-0.252	0.218
-514.858	-157.849	-0.167	-0.010
-513.843	83.700	0.301	-0.326
-512.829	-57.466	-0.398	-0.174
-511.814	573.406	0.162	-0.392
-510.799	751.787	-0.035	0.094
-509.785	-200.000	-0.014	-0.206
-508.770	-200.000	0.017	-0.312
-507.756	-123.569	0.411	0.065
-506.741	231.012	-0.094	-0.153
-505.726	58.718	-0.182	0.178
-504.712	-86.323	-0.143	-0.044
-503.697	709.879	0.146	-0.383
-502.683	354.989	-0.028	-0.056
-501.668	-108.515	-0.334	0.071
-500.653	-73.727	-0.107	-0.039
-499.639	-200.000	0.020	-0.182
-498.624	440.161	0.111	0.242
-497.610	-130.145	-0.232	0.031
-496.595	162.722	-0.052	0.072
-495.581	-200.000	0.040	-0.452
-494.566	800.000	-0.054	0.152
-493.551	-75.207	0.347	-0.123
-492.537	122.450	-0.080	-0.099
-491.522	-135.814	0.440	-0.052
-490.508	800.000	-0.081	-0.237
-489.493	350.779	-0.177	0.348
-488.478	155.702	-0.076	0.104
-487.464	800.000	0.012	-0.039
-486.449	-26.904	-0.054	0.031
-485.435	-200.000	-0.014	-0.076
-484.420	22.882	-0.247	0.201
-483.405	149.351	-0.082	-0.110
-482.391	39.163	0.430	-0.382
-481.376	800.000	0.021	0.083
-480.362	28.796	0.062	-0.052
-479.347	163.550	-0.083	0.115
-478.332	800.000	-0.048	0.188
-477.318	295.333	-0.022	0.040
-476.303	-39.200	0.151	-0.079
-475.289	-200.000	0.008	-0.079
-474.274	85.174	-0.171	-0.187
-473.259	-38.970	-0.069	0.036
-472.245	-21.008	0.100	0.061
-471.230	483.216	-0.150	-0.337
-470.216	3.499	-0.227	0.164
-469.201	133.419	0.284	0.364
-468.186	-200.000	-0.017	0.210
-467.172	382.385	0.098	-0.200
-466.157	-114.391	0.257	0.049
-465.143	14.093	-0.256	0.198
-464.128	362.239	0.106	0.212
-463.113	441.403	0.095	0.206
-462.099	-74.741	0.211	-0.075
-461.084	800.000	0.061	-0.195
-460.070	385.315	0.092	0.189
-459.055	-200.000	0.005	0.029
-458.040	-72.884	0.304	0.111
-457.026	-13.048	-0.321	-0.207
-456.011	601.709	-0.138	-0.340
-454.997	264.685	0.046	-0.080
-453.982	58.300	0.209	0.204
-452.968	-70.354	0.201	0.076
-451.953	15.578	-0.074	0.057
-450.938	-92.414	-0.103	-0.029
-449.924	-173.654	-0.169	0.005
-448.909	104.993	0.144	-0.169
-447.895	-97.090	0.417	0.108
-446.880	-88.136	0.075	-0.022
-445.865	-86.031	0.220	-0.067
-444.851	-134.643	-0.382	0.046
-443.836	42.441	0.307	0.277
-442.822	-9.078	0.177	0.118
-441.807	118.500	-0.083	-0.101
-440.792	800.000	0.139	-0.418
-439.778	16.293	-0.273	0.214
-438.763	-27.644	-0.135	0.077
-437.749	-79.169	0.162	-0.055
-436.734	-200.000	-0.038	-0.166
-435.719	7.318	-0.302	-0.224
-434.705	-200.000	-0.009	0.145
-433.690	-121.537	0.426	-0.070
-432.676	96.443	0.016	0.018
-431.661	800.000	0.077	-0.253
-430.646	-79.445	-0.164	-0.055
-429.632	142.482	0.143	0.189
-428.617	-43.094	-0.260	-0.130
-427.603	206.062	0.184	-0.283
-426.588	109.519	-0.225	0.267
-425.573	294.504	-0.169	-0.307
-424.559	91.920	0.061	-0.068
-423.544	800.000	-0.106	0.379
-422.530	-200.000	0.021	0.268
-421.515	11.236	-0.119	0.090
-420.500	-17.479	-0.157	0.098
-419.486	184.320	0.142	-0.209
-418.471	-200.000	-0.068	-0.432
-417.457	50.242	-0.178	-0.166
-416.442	30.624	0.053	0.045
-415.428	-200.000	0.008	-0.085
-414.413	-20.251	0.196	0.120
-413.398	-132.891	-0.271	0.034
-412.384	-30.355	0.469	-0.263
-411.369	800.000	0.060	0.259
-410.355	-38.160	0.130	-0.068
-409.340	800.000	-0.139	0.445
-408.325	181.806	0.041	-0.060
-407.311	-126.566	-0.401	0.059
-406.296	-38.614	0.211	0.110
-405.282	128.488	-0.123	0.155
-404.267	800.000	0.025	0.075
-403.252	17.654	-0.151	-0.119
-402.238	-200.000	0.021	0.245
-401.223	-10.713	-0.183	0.120
-400.209	800.000	-0.048	-0.141
-399.194	-42.320	0.180	-0.091
-398.179	800.000	-0.066	0.260
-397.165	-200.000	0.005	-0.118
-396.150	309.239	0.085	0.158
-395.136	100.979	0.122	0.140
-394.121	-32.409	0.209	0.115
-393.106	134.424	0.117	0.151
-392.092	-102.644	0.367	0.087
-391.077	67.042	-0.062	0.062
-390.063	800.000	0.050	0.152
-389.048	34.020	0.059	0.051
-388.033	-83.584	-0.099	0.031
-387.019	-200.000	-0.045	0.266
-386.004	800.000	0.082	0.261
-384.990	106.130	-0.102	-0.119
-383.975	-23.505	-0.107	0.063
-382.960	800.000	-0.050	0.163
-381.946	-200.000	0.039	0.216
-380.931	289.311	0.038	-0.068
-379.917	-104.532	-0.356	0.081
-378.902	-57.263	-0.239	-0.104
-377.888	-21.019	-0.316	0.192
-376.873	426.940	-0.038	-0.082
-375.858	226.267	0.094	-0.151
-374.844	34.509	0.143	-0.123
-373.829	-109.119	-0.211	-0.044
-372.815	102.037	0.157	-0.182
-371.800	704.406	0.060	0.156
-370.785	800.000	0.026	0.108
-369.771	-6.540	0.284	-0.191
-368.756	-87.406	-0.040	0.012
-367.742	-110.671	-0.187	0.038
-366.727	441.315	-0.086	0.185
-365.712	-16.861	0.036	-0.023
-364.698	-153.978	0.009	-0.001
-363.683	-200.000	0.032	-0.239
-362.669	478.064	-0.058	-0.131
-361.654	-200.000	0.015	0.065
-360.639	350.165	0.106	0.207
-359.625	-45.348	0.449	0.220
-358.610	-200.000	0.006	0.364
-357.596	632.659	-0.051	0.127
-356.581	-154.096	-0.201	0.013
-355.566	544.234	-0.013	-0.031
-354.552	-62.840	-0.041	-0.017
-353.537	-108.445	-0.394	0.084
-352.523	-200.000	0.306	0.000
-351.508	12.388	-0.096	-0.073
-350.493	-200.000	-0.049	0.312
-349.479	-8.855	-0.282	0.187
-348.464	-75.960	-0.378	-0.132
-347.450	150.665	0.048	-0.065
-346.435	-194.797	0.158	-0.001
-345.420	-200.000	0.004	0.051
-344.406	-94.698	0.309	0.083
-343.391	9.796	-0.067	-0.050
-342.377	800.000	0.044	-0.156
-341.362	800.000	-0.051	0.183
-340.348	-200.000	-0.006	0.144
-339.333	675.850	-0.051	-0.130
-338.318	47.294	-0.217	0.199
-337.304	-92.359	0.107	-0.030
-336.289	800.000	0.062	-0.186
-335.275	10.722	-0.230	0.173
-334.260	-200.000	0.009	0.123
-333.245	171.152	-0.123	0.174
-332.231	-19.946	-0.313	-0.190
-331.216	-78.861	-0.622	0.209
-330.202	76.905	-0.168	0.176
-329.187	-130.178	0.190	-0.026
-328.172	-200.000	-0.016	-0.195
-327.158	-82.423	0.357	0.114
-326.143	232.496	-0.099	0.160
-325.129	800.000	-0.038	0.165
-324.114	-110.130	-0.091	0.019
-323.099	197.807	-0.222	-0.334
-322.085	779.899	0.098	-0.264
-321.070	221.122	-0.095	-0.150
-320.056	-152.963	0.372	0.026
-319.041	137.318	-0.152	-0.196
-318.026	105.660	0.063	0.073
-317.012	164.311	-0.095	0.132
-315.997	-200.000	-0.014	0.254
-314.983	-50.612	0.226	-0.105
-313.968	-200.000	0.007	0.244
-312.953	-200.000	-0.013	-0.112
-311.939	124.641	0.177	-0.220
-310.924	-125.394	-0.356	0.054
-309.910	59.421	0.179	0.174
-308.895	800.000	-0.050	-0.182
-307.880	116.199	0.104	-0.126
-306.866	225.573	-0.050	0.080
-305.851	10.444	0.084	0.063
-304.837	34.907	-0.272	0.234
-303.822	-3.229	0.087	-0.060
-302.807	566.595	-0.079	0.190
-301.793	35.134	-0.193	-0.167
-300.778	699.892	0.146	0.380
-299.764	-46.005	-0.154	-0.075
-298.749	-200.000	-0.009	0.355
-297.735	0.235	0.103	-0.073
-296.720	121.095	0.334	0.410
-295.705	-200.000	-0.030	0.312
-294.691	24.377	-0.067	-0.054
-293.676	-200.000	-0.005	0.172
-292.662	-200.000	-0.031	0.234
-291.647	-53.704	-0.212	-0.096
-290.632	-97.500	0.026	0.007
-289.618	800.000	-0.015	-0.049
-288.603	-197.538	0.315	-0.002
-287.589	-7.199	-0.185	-0.124
-286.574	-44.891	0.230	0.113
-285.559	-177.233	0.084	0.002
-284.545	59.445	-0.073	-0.071
-283.530	116.155	-0.130	0.157
-282.516	-94.382	0.074	-0.020
-281.501	85.390	0.178	0.193
-280.486	-26.236	0.478	-0.276
-279.472	-135.768	-0.105	0.012
-278.457	57.065	0.120	-0.115
-277.443	800.000	-0.047	-0.177
-276.428	23.208	0.257	0.208
-275.413	-10.921	0.173	0.113
-274.399	-63.471	-0.096	-0.039
-273.384	-200.000	0.000	0.227
-272.370	10.809	0.179	-0.135
-271.355	-151.809	0.144	-0.010
-270.340	-200.000	-0.038	-0.179
-269.326	223.604	0.112	-0.178
-268.311	123.581	0.133	-0.164
-267.297	800.000	0.094	-0.335
-266.282	205.349	-0.072	0.110
-265.267	71.063	-0.090	0.092
-264.253	-62.428	-0.279	-0.114
-263.238	-54.111	0.130	0.058
-262.224	283.018	0.130	-0.230
-261.209	410.406	-0.106	-0.222
-260.195	155.607	0.083	0.113
-259.180	-58.426	0.152	0.065
-258.165	71.417	-0.081	0.083
-257.151	20.540	-0.110	0.088
-256.136	800.000	0.029	0.086
-255.122	134.041	-0.091	0.117
-254.107	-15.521	-0.061	-0.038
-253.092	14.039	-0.111	0.085
-252.078	671.987	-0.096	0.244
-251.063	-64.635	0.179	0.071
-250.049	-40.237	0.124	0.063
-249.034	111.481	-0.122	-0.145
-248.019	778.668	-0.172	-0.462
-247.005	-200.000	0.029	-0.198
-245.990	-200.000	-0.013	0.268
-244.976	-2.532	0.056	-0.039
-243.961	-200.000	-0.093	0.405
-242.946	-105.839	0.105	0.023
-241.932	-37.825	-0.220	0.115
-240.917	46.697	0.265	0.242
-239.903	-32.690	0.320	-0.175
-238.888	150.760	-0.030	-0.041
-237.873	-188.195	-0.036	0.000
-236.859	0.403	0.263	0.185
-235.844	-200.000	0.056	0.253
-234.830	-200.000	-0.009	0.197
-233.815	-24.670	-0.438	-0.256
-232.800	-131.668	-0.198	-0.026
-231.786	800.000	-0.095	-0.279
-230.771	-82.039	0.567	0.182
-229.757	430.585	0.058	-0.124
-228.742	-21.837	0.256	0.153
-227.727	-40.267	0.226	-0.116
-226.713	565.771	0.049	-0.117
-225.698	-163.838	0.329	-0.015
-224.684	-135.993	-0.113	0.013
-223.669	-125.663	-0.271	-0.040
-222.655	228.790	0.095	0.153
-221.640	42.051	-0.092	0.082
-220.625	277.175	-0.050	-0.088
-219.611	-200.000	-0.074	-0.470
-218.596	81.834	0.058	0.062
-217.582	203.302	0.239	-0.363
-216.567	-200.000	-0.092	0.447
-215.552	494.685	-0.119	-0.267
-214.538	-78.307	0.173	0.058
-213.523	-114.620	0.201	-0.038
-212.509	-170.154	-0.310	0.011
-211.494	-20.274	0.302	0.183
-210.479	15.367	-0.095	-0.073
-209.465	-83.619	0.237	0.074
-208.450	447.170	-0.118	0.254
-207.436	153.707	-0.205	-0.276
-206.421	-71.389	-0.120	0.044
-205.406	680.060	-0.077	0.196
-204.392	-177.534	0.249	-0.006
-203.377	800.000	-0.029	0.082
-202.363	-83.994	-0.351	-0.110
-201.348	70.960	-0.109	-0.111
-200.333	-169.005	-0.331	0.012
-199.319	-200.000	0.013	0.231
-198.304	588.768	-0.079	0.190
-197.290	-10.597	-0.205	0.133
-196.275	644.762	0.018	-0.046
-195.260	-61.267	0.193	0.080
-194.246	7.116	-0.128	0.094
-193.231	-70.611	0.395	-0.147
-192.217	-95.421	-0.224	0.059
-191.202	29.371	-0.243	-0.203
-190.187	-38.807	0.122	-0.063
-189.173	297.028	0.089	-0.160
-188.158	28.697	-0.098	0.081
-187.144	800.000	-0.045	-0.156
-186.129	162.214	-0.091	-0.125
-185.114	800.000	0.092	0.256
-184.100	200.551	0.223	-0.336
-183.085	-200.000	-0.014	-0.284
-182.071	-200.000	-0.034	0.376
-181.056	3.878	0.109	0.078
-180.042	-62.598	0.297	-0.121
-179.027	595.738	0.055	-0.135
-178.012	-88.065	0.144	-0.042
-176.998	-77.994	-0.143	0.048
-175.983	-45.541	-0.199	0.097
-174.969	-85.970	-0.056	0.017
-173.954	-0.443	0.137	-0.096
-172.939	24.600	0.057	0.046
-171.925	354.281	-0.070	0.136
-170.910	-200.000	0.040	-0.195
-169.896	188.566	-0.056	0.082
-168.881	391.836	0.033	0.067
-167.866	-34.794	0.258	0.138
-166.852	800.000	0.085	-0.267
-165.837	-131.801	-0.114	0.015
-164.823	-134.818	-0.267	-0.032
-163.808	459.682	-0.053	-0.116
-162.793	99.579	-0.128	-0.146
-161.779	-200.000	0.024	0.321
-160.764	95.301	0.114	-0.127
-159.750	101.174	0.030	-0.034
-158.735	-59.106	-0.337	0.142
-157.720	800.000	-0.057	-0.199
-156.706	171.092	-0.204	-0.287
-155.691	-123.127	-0.176	-0.028
-154.677	800.000	0.054	0.219
-153.662	12.787	0.082	0.062
-152.647	4.975	-0.213	0.154
-151.633	-174.247	0.366	-0.010
-150.618	800.000	-0.033	0.105
-149.604	74.622	-0.069	0.071
-148.589	-120.236	0.201	0.034
-147.574	147.535	-0.161	0.212
-146.560	-48.110	0.239	0.113
-145.545	-200.000	-0.001	0.317
-144.531	-200.000	0.087	-0.402
-143.516	-183.355	0.019	-0.000
-142.502	800.000	0.052	-0.177
-141.487	-55.925	-0.099	0.043
-140.472	62.757	0.066	-0.064
-139.458	182.317	0.035	0.050
-138.443	-53.774	-0.108	-0.048
-137.429	-102.782	0.200	-0.047
-136.414	15.843	-0.184	-0.142
-135.399	383.455	0.108	0.219
-134.385	202.032	0.131	0.198
-133.370	469.133	0.030	-0.065
-132.356	2.912	0.224	0.159
-131.341	10.780	-0.034	-0.025
-130.326	-12.513	0.242	0.155
-129.312	320.200	-0.033	-0.062
-128.297	231.281	0.157	0.252
-127.283	-36.980	0.253	-0.133
-126.268	-1.791	-0.164	0.113
-125.253	339.918	-0.074	0.141
-124.239	98.336	0.191	-0.216
-123.224	333.258	-0.102	0.193
-122.210	-200.000	-0.026	-0.111
-121.195	68.606	0.056	-0.056
-120.180	-63.235	-0.048	-0.019
