DTS Sentinel unit serial number:	SN413079Multiplexer serial number:	ORYXHardware model number:	OX4-SRSoftware version number:	ORYX F/W v4.00 Oryx Data Collector v3.7.2.0data status	okinstallation	princeton_trtdifferential loss correction	single-endedforward channel	channel 3reverse channel	N/Adate	2019/09/12time	14:42:10forward acquisition time	60.00reverse acquisition time	0.00gamma	496.2192k internal	0.2293k external	0.2293temperature offset calibration	1.0051default loss term (dB/km)	0.3790temperature slope calibration	1.0000multiplexer offset coefficient	1.0000multiplexer slope coefficient	1.0000fibre end	0.00T internal ref (°C)	40.12T ext. ref 1 (°C)	2.29T ext. ref 2 (°C)	36.97length (m)	temperature (°C)	Stokes	anti-Stokes-747.200	175.622	0.240	0.355
-746.185	-200.000	-0.001	0.439
-745.171	54.103	-0.077	-0.076
-744.156	104.077	-0.191	0.230
-743.142	304.147	-0.091	0.173
-742.127	-120.939	-0.398	-0.068
-741.112	-190.692	0.148	0.002
-740.098	-89.126	0.232	0.070
-739.083	-164.193	0.104	-0.005
-738.069	-200.000	0.077	0.387
-737.054	75.285	-0.122	0.131
-736.039	-35.004	-0.161	-0.090
-735.025	588.786	-0.068	0.171
-734.010	-200.000	0.070	0.351
-732.996	800.000	0.033	0.107
-731.981	798.913	0.060	0.168
-730.966	-109.965	-0.252	-0.054
-729.952	-200.000	-0.037	-0.182
-728.937	800.000	-0.096	-0.350
-727.923	-11.395	0.185	-0.124
-726.908	351.953	-0.078	-0.159
-725.894	229.727	-0.116	-0.193
-724.879	-200.000	-0.029	-0.264
-723.864	-200.000	0.034	-0.223
-722.850	363.084	-0.076	0.155
-721.835	215.409	0.197	0.320
-720.821	800.000	-0.144	0.408
-719.806	-122.771	0.259	0.043
-718.791	699.691	0.063	0.170
-717.777	502.758	-0.142	-0.336
-716.762	700.847	0.027	-0.072
-715.748	29.166	-0.130	0.113
-714.733	-117.986	0.195	0.036
-713.718	800.000	-0.025	-0.102
-712.704	78.831	-0.095	-0.104
-711.689	-89.357	-0.180	0.054
-710.675	-200.000	0.001	0.130
-709.660	232.142	-0.071	-0.118
-708.645	-200.000	-0.042	0.264
-707.631	800.000	-0.009	0.039
-706.616	85.080	-0.069	-0.077
-705.602	-149.864	-0.062	0.005
-704.587	161.002	-0.187	0.267
-703.572	-200.000	-0.009	-0.123
-702.558	57.005	0.049	-0.049
-701.543	-200.000	-0.020	0.111
-700.529	-124.708	-0.190	-0.030
-699.514	80.061	0.161	-0.177
-698.499	-49.031	-0.037	0.018
-697.485	-68.124	-0.180	-0.071
-696.470	32.865	0.112	0.099
-695.456	-200.000	0.014	-0.194
-694.441	143.039	-0.135	-0.183
-693.426	-75.778	-0.098	0.035
-692.412	551.658	0.051	-0.125
-691.397	88.993	0.122	-0.139
-690.383	-50.090	-0.115	0.056
-689.368	800.000	-0.082	0.275
-688.354	800.000	0.102	0.440
-687.339	-200.000	-0.030	0.313
-686.324	-200.000	-0.004	0.204
-685.310	474.186	0.015	0.035
-684.295	-200.000	0.014	0.140
-683.281	-30.079	-0.256	0.149
-682.266	800.000	0.044	0.165
-681.251	-101.817	0.162	0.040
-680.237	-60.379	-0.171	-0.074
-679.222	-44.727	-0.187	-0.095
-678.208	-200.000	0.022	-0.190
-677.193	-39.777	-0.137	0.073
-676.178	117.973	0.145	-0.182
-675.164	26.840	-0.304	-0.260
-674.149	-103.543	-0.212	0.051
-673.135	475.741	0.140	0.322
-672.120	800.000	0.133	-0.413
-671.105	-111.861	0.136	0.028
-670.091	-200.000	-0.091	0.480
-669.076	-100.103	-0.094	0.024
-668.062	-200.000	0.024	-0.144
-667.047	-138.912	0.263	0.029
-666.032	265.826	-0.070	0.124
-665.018	253.916	-0.046	-0.080
-664.003	800.000	0.078	-0.267
-662.989	-200.000	-0.024	0.223
-661.974	178.279	0.182	-0.271
-660.959	15.844	-0.086	-0.069
-659.945	36.708	-0.253	-0.228
-658.930	466.243	-0.150	-0.342
-657.916	-88.200	-0.199	0.061
-656.901	478.346	0.101	0.232
-655.886	-44.373	0.291	0.149
-654.872	-70.111	-0.077	-0.030
-653.857	-127.013	-0.331	-0.050
-652.843	-93.094	-0.143	-0.041
-651.828	-200.000	-0.002	-0.272
-650.814	554.109	-0.103	0.252
-649.799	-43.311	0.132	-0.068
-648.784	-19.461	0.152	0.096
-647.770	745.699	0.051	0.139
-646.755	-200.000	0.008	-0.344
-645.741	492.927	-0.085	0.198
-644.726	-111.906	-0.185	0.038
-643.711	-200.000	0.033	-0.409
-642.697	86.755	-0.105	0.118
-641.682	-105.959	-0.128	0.029
-640.668	454.816	0.055	-0.123
-639.653	-125.697	-0.328	-0.051
-638.638	82.023	0.166	0.183
-637.624	-62.485	0.305	0.129
-636.609	-3.194	0.245	-0.174
-635.595	-8.442	0.366	0.250
-634.580	-110.294	-0.356	-0.075
-633.565	259.378	0.315	0.554
-632.551	-82.642	-0.176	0.058
-631.536	66.057	-0.167	0.172
-630.522	556.897	0.049	-0.121
-629.507	800.000	0.108	0.323
-628.492	-30.853	-0.156	0.090
-627.478	-200.000	-0.007	-0.308
-626.463	-200.000	0.088	-0.467
-625.449	-59.985	0.131	0.057
-624.434	33.056	0.223	0.197
-623.419	-105.786	0.074	0.017
-622.405	-200.000	-0.035	-0.229
-621.390	95.285	-0.106	0.123
-620.376	-40.076	-0.367	-0.195
-619.361	-200.000	-0.004	0.206
-618.346	60.525	0.297	0.300
-617.332	324.229	-0.094	-0.182
-616.317	342.080	-0.144	0.287
-615.303	569.529	-0.038	-0.094
-614.288	-138.616	0.155	0.017
-613.273	-63.065	-0.293	0.123
-612.259	149.616	0.069	-0.095
-611.244	23.938	0.139	0.117
-610.230	5.608	0.167	-0.126
-609.215	-64.954	0.300	0.123
-608.201	1.742	-0.190	-0.139
-607.186	-106.084	0.309	0.071
-606.171	151.388	0.174	0.241
-605.157	482.751	0.024	0.056
-604.142	-96.363	0.100	-0.027
-603.128	-54.253	0.016	-0.008
-602.113	-200.000	-0.067	-0.343
-601.098	167.092	0.235	-0.339
-600.084	121.220	0.148	-0.188
-599.069	-172.380	0.068	0.002
-598.055	-200.000	-0.018	0.126
-597.040	-110.073	0.135	0.029
-596.025	-104.620	0.459	-0.108
-595.011	170.216	-0.109	-0.159
-593.996	-0.577	-0.197	-0.142
-592.982	183.909	-0.194	-0.291
-591.967	-153.327	-0.185	0.013
-590.952	459.775	-0.052	-0.119
-589.938	-41.998	0.254	0.132
-588.923	-200.000	-0.038	0.241
-587.909	25.854	0.129	0.109
-586.894	248.977	0.128	0.221
-585.879	-51.646	-0.214	-0.101
-584.865	16.054	0.288	0.231
-583.850	800.000	-0.069	0.217
-582.836	259.862	0.134	-0.236
-581.821	-200.000	0.010	-0.091
-580.806	-32.438	-0.494	-0.280
-579.792	-200.000	-0.002	0.105
-578.777	-3.270	0.207	0.146
-577.763	427.248	-0.037	-0.081
-576.748	800.000	-0.073	0.242
-575.733	752.573	-0.070	-0.192
-574.719	220.011	-0.051	0.084
-573.704	-109.711	-0.165	0.035
-572.690	-200.000	-0.029	0.220
-571.675	-50.282	0.364	0.175
-570.661	-108.670	-0.238	-0.052
-569.646	-23.022	0.181	-0.111
-568.631	19.406	0.171	-0.139
-567.617	800.000	0.158	0.452
-566.602	-200.000	-0.031	0.290
-565.588	-62.552	0.076	-0.032
-564.573	-39.807	-0.078	0.042
-563.558	284.924	0.156	0.286
-562.544	178.727	-0.208	0.309
-561.529	-144.453	-0.409	0.038
-560.515	-200.000	0.052	0.316
-559.500	-148.390	-0.593	-0.049
-558.485	89.616	-0.136	0.155
-557.471	800.000	0.052	-0.203
-556.456	9.089	-0.103	-0.079
-555.442	10.305	0.177	0.137
-554.427	800.000	-0.046	0.145
-553.412	800.000	-0.102	0.352
-552.398	-68.183	-0.280	-0.111
-551.383	-3.470	-0.247	0.175
-550.369	-52.138	0.225	0.106
-549.354	-90.572	0.229	0.067
-548.339	-145.436	-0.224	-0.020
-547.325	-89.289	0.288	-0.086
-546.310	12.628	0.176	-0.138
-545.296	800.000	0.090	-0.261
-544.281	-200.000	0.002	-0.156
-543.266	800.000	0.038	0.107
-542.252	800.000	-0.046	0.181
-541.237	220.270	0.106	0.173
-540.223	-143.764	-0.218	0.021
-539.208	30.361	-0.123	-0.106
-538.193	207.626	-0.124	-0.196
-537.179	-81.214	0.036	-0.012
-536.164	-200.000	0.043	-0.269
-535.150	-165.171	-0.276	0.012
-534.135	105.811	-0.200	0.241
-533.121	-103.374	0.354	0.085
-532.106	-55.008	0.146	0.067
-531.091	-80.860	-0.222	0.075
-530.077	37.568	-0.330	0.297
-529.062	-200.000	-0.010	0.188
-528.048	11.860	-0.009	-0.007
-527.033	-108.025	-0.140	-0.031
-526.018	-200.000	-0.091	0.428
-525.004	-200.000	-0.003	-0.048
-523.989	-13.247	-0.289	-0.190
-522.975	22.068	0.074	0.061
-521.960	33.874	0.115	0.101
-520.945	-78.365	-0.122	0.042
-519.931	-78.447	0.210	-0.073
-518.916	-200.000	-0.022	0.212
-517.902	108.794	0.086	-0.104
-516.887	98.731	-0.189	-0.221
-515.872	800.000	-0.043	-0.125
-514.858	105.020	0.010	0.012
-513.843	-26.920	0.261	0.155
-512.829	-200.000	-0.048	-0.213
-511.814	143.280	-0.184	-0.249
-510.799	-99.952	0.249	0.063
-509.785	426.414	0.099	-0.215
-508.770	23.952	-0.121	0.101
-507.756	-200.000	-0.070	-0.469
-506.741	-94.394	0.373	0.103
-505.726	-45.968	-0.116	-0.058
-504.712	511.390	0.128	0.302
-503.697	40.173	-0.122	-0.112
-502.683	335.307	-0.103	0.203
-501.668	-155.030	-0.361	0.024
-500.653	-141.559	-0.099	0.010
-499.639	226.810	0.118	-0.194
-498.624	325.460	-0.126	0.244
-497.610	178.338	-0.170	-0.251
-496.595	-136.304	-0.198	0.023
-495.581	390.199	0.123	-0.259
-494.566	-87.275	-0.058	-0.018
-493.551	-200.000	0.009	-0.084
-492.537	-81.676	0.039	-0.013
-491.522	-200.000	-0.001	-0.076
-490.508	-127.964	-0.037	0.005
-489.493	-33.438	-0.166	0.093
-488.478	-200.000	-0.002	0.439
-487.464	-37.640	-0.284	0.153
-486.449	25.861	0.029	-0.025
-485.435	111.638	-0.087	-0.106
-484.420	2.749	-0.406	-0.298
-483.405	157.584	-0.114	-0.160
-482.391	-172.695	0.301	-0.010
-481.376	267.339	0.075	-0.133
-480.362	-200.000	0.009	-0.061
-479.347	193.731	0.177	-0.271
-478.332	-200.000	-0.020	-0.100
-477.318	-108.322	0.356	0.078
-476.303	-200.000	0.006	-0.203
-475.289	-127.655	-0.065	0.009
-474.274	-38.218	-0.287	0.154
-473.259	71.695	0.107	-0.113
-472.245	439.834	0.113	0.250
-471.230	102.064	-0.110	0.130
-470.216	388.177	-0.215	0.450
-469.201	163.339	0.260	-0.370
-468.186	800.000	0.069	0.223
-467.172	77.751	-0.148	-0.159
-466.157	137.067	-0.153	-0.202
-465.143	81.346	-0.042	0.046
-464.128	-155.841	-0.362	-0.023
-463.113	-94.402	0.312	-0.086
-462.099	-61.608	-0.262	-0.111
-461.084	-90.086	0.312	0.092
-460.070	-200.000	-0.038	0.262
-459.055	64.029	-0.055	0.056
-458.040	-200.000	0.009	0.056
-457.026	-98.588	-0.300	-0.078
-456.011	-35.373	0.246	0.135
-454.997	-200.000	-0.045	0.344
-453.982	-143.354	0.230	0.022
-452.968	800.000	0.084	0.346
-451.953	-112.687	0.420	0.084
-450.938	246.242	0.214	-0.364
-449.924	176.104	-0.061	0.090
-448.909	61.347	0.044	-0.044
-447.895	459.676	-0.094	0.212
-446.880	138.821	-0.029	0.039
-445.865	-126.537	0.283	-0.042
-444.851	65.175	-0.160	-0.164
-443.836	-67.727	-0.243	-0.096
-442.822	155.279	-0.170	0.237
-441.807	93.499	0.046	-0.053
-440.792	-200.000	-0.009	0.058
-439.778	488.926	-0.061	0.142
-438.763	-36.114	-0.305	-0.166
-437.749	-106.064	-0.211	-0.048
-436.734	-172.230	0.115	-0.004
-435.719	-120.177	0.473	-0.082
-434.705	193.832	0.281	-0.430
-433.690	-200.000	-0.007	-0.092
-432.676	212.042	0.150	0.239
-431.661	-200.000	0.043	-0.253
-430.646	32.320	0.085	-0.074
-429.632	25.729	-0.064	0.054
-428.617	-93.196	-0.085	0.024
-427.603	800.000	-0.022	-0.083
-426.588	154.880	-0.038	0.052
-425.573	193.579	0.031	0.048
-424.559	62.280	-0.045	0.045
-423.544	-36.273	0.235	-0.128
-422.530	-200.000	-0.041	0.198
-421.515	800.000	0.085	-0.248
-420.500	-200.000	0.027	-0.380
-419.486	485.762	0.105	0.241
-418.471	800.000	-0.031	0.115
-417.457	-64.262	-0.094	-0.039
-416.442	90.359	0.083	0.093
-415.428	117.512	-0.187	-0.232
-414.413	254.899	-0.143	-0.248
-413.398	-200.000	0.026	-0.164
-412.384	-124.889	0.104	-0.016
-411.369	449.215	0.054	-0.121
-410.355	-200.000	-0.045	0.274
-409.340	398.922	-0.146	0.308
-408.325	151.267	-0.183	0.252
-407.311	715.784	-0.064	-0.171
-406.296	103.211	0.148	0.175
-405.282	153.478	0.058	0.080
-404.267	-18.884	0.093	0.059
-403.252	-23.799	-0.276	0.167
-402.238	-39.839	0.111	-0.058
-401.223	1.405	0.038	-0.027
-400.209	-200.000	0.003	0.151
-399.194	114.003	-0.209	0.257
-398.179	170.959	0.189	0.273
-397.165	2.317	0.144	0.105
-396.150	-200.000	0.008	0.077
-395.136	538.056	-0.115	-0.277
-394.121	-25.806	-0.247	0.147
-393.106	-85.804	0.149	0.046
-392.092	272.491	-0.070	0.125
-391.077	-164.758	-0.263	0.012
-390.063	-7.576	-0.091	0.062
-389.048	-200.000	0.020	-0.146
-388.033	-200.000	0.031	0.144
-387.019	85.502	-0.226	0.251
-386.004	-40.980	0.307	-0.160
-384.990	-69.073	0.194	0.075
-383.975	-14.254	-0.313	0.203
-382.960	-200.000	0.004	-0.084
-381.946	697.200	0.022	-0.058
-380.931	-200.000	0.023	-0.235
-379.917	-87.421	-0.271	0.083
-378.902	211.870	0.084	0.133
-377.888	2.758	0.092	0.067
-376.873	-34.412	0.201	-0.111
-375.858	-146.153	0.162	-0.014
-374.844	800.000	0.111	0.334
-373.829	334.956	-0.121	0.236
-372.815	-88.472	-0.249	-0.075
-371.800	400.449	0.146	-0.309
-370.785	483.380	0.127	0.292
-369.771	-200.000	0.033	0.292
-368.756	787.445	0.149	-0.413
-367.742	195.875	-0.042	-0.065
-366.727	-164.286	0.018	0.001
-365.712	103.887	0.093	-0.110
-364.698	-13.045	0.228	-0.149
-363.683	-200.000	-0.019	0.143
-362.669	264.353	0.010	-0.017
-361.654	162.180	0.126	-0.178
-360.639	-144.542	-0.268	-0.025
-359.625	-18.776	0.230	0.144
-358.610	-104.847	0.182	-0.042
-357.596	-168.209	-0.197	0.008
-356.581	182.615	0.240	0.356
-355.566	-154.622	-0.400	0.027
-354.552	64.324	0.185	0.188
-353.537	-78.504	0.150	0.052
-352.523	120.850	-0.143	-0.179
-351.508	-200.000	-0.009	-0.042
-350.493	800.000	-0.039	0.166
-349.479	-140.612	0.367	-0.038
-348.464	46.467	0.151	0.141
-347.450	53.061	-0.233	0.225
-346.435	24.309	-0.192	0.160
-345.420	4.274	0.189	-0.139
-344.406	480.604	0.148	-0.338
-343.391	-121.268	-0.475	-0.080
-342.377	147.620	0.052	-0.070
-341.362	4.017	0.254	0.187
-340.348	-200.000	-0.002	0.088
-339.333	127.608	0.140	-0.179
-338.318	-200.000	0.016	0.127
-337.304	194.754	-0.117	0.179
-336.289	-200.000	0.001	0.315
-335.275	51.690	0.190	-0.182
-334.260	293.939	0.266	-0.488
-333.245	586.848	-0.113	0.280
-332.231	-25.633	-0.182	-0.108
-331.216	-71.558	0.302	-0.113
-330.202	65.956	-0.141	0.144
-329.187	54.255	0.202	-0.195
-328.172	75.834	0.084	-0.090
-327.158	-72.228	-0.239	-0.089
-326.143	9.714	0.009	-0.007
-325.129	31.081	-0.185	-0.160
-324.114	21.552	-0.326	-0.267
-323.099	150.687	0.178	0.244
-322.085	-84.069	0.114	0.037
-321.070	509.687	0.028	-0.066
-320.056	30.728	0.326	-0.280
-319.041	-88.826	0.158	-0.047
-318.026	138.159	-0.112	-0.148
-317.012	8.676	0.046	-0.035
-315.997	-200.000	0.006	0.383
-314.983	95.729	-0.062	-0.071
-313.968	-31.549	0.115	0.065
-312.953	168.219	0.142	-0.203
-311.939	78.911	-0.110	-0.119
-310.924	800.000	-0.095	0.340
-309.910	-142.027	0.284	0.028
-308.895	-92.130	0.337	-0.096
-307.880	-99.290	-0.585	-0.149
-306.866	158.149	-0.204	-0.284
-305.851	273.378	0.122	-0.216
-304.837	72.348	0.045	-0.047
-303.822	800.000	0.111	0.347
-302.807	-200.000	0.015	0.287
-301.793	-200.000	0.028	-0.260
-300.778	-80.911	0.296	0.099
-299.764	294.758	-0.127	-0.233
-298.749	-200.000	-0.013	0.213
-297.735	800.000	0.103	0.345
-296.720	-200.000	-0.005	-0.026
-295.705	131.888	-0.146	-0.189
-294.691	-200.000	0.060	0.334
-293.676	-33.217	-0.152	0.085
-292.662	-1.811	-0.382	-0.270
-291.647	29.151	-0.296	0.252
-290.632	-200.000	-0.034	0.187
-289.618	-83.220	-0.058	-0.019
-288.603	67.864	-0.192	-0.198
-287.589	-200.000	-0.008	-0.262
-286.574	154.701	0.056	-0.077
-285.559	691.155	0.166	-0.436
-284.545	-155.072	-0.160	-0.011
-283.530	69.308	0.098	-0.101
-282.516	-200.000	-0.031	-0.192
-281.501	-200.000	-0.012	-0.331
-280.486	-1.957	-0.217	0.153
-279.472	705.907	0.132	0.350
-278.457	-37.240	0.228	0.123
-277.443	-139.625	0.181	-0.019
-276.428	-133.352	-0.280	-0.035
-275.413	-104.238	-0.160	-0.037
-274.399	-200.000	0.024	-0.116
-273.384	-200.000	-0.012	-0.422
-272.370	800.000	-0.040	-0.147
-271.355	800.000	0.083	-0.256
-270.340	-28.344	0.135	0.078
-269.326	-200.000	0.016	0.142
-268.311	-71.402	0.121	0.045
-267.297	204.196	-0.133	-0.207
-266.282	213.250	0.121	-0.192
-265.267	-48.544	0.097	0.047
-264.253	-200.000	-0.163	0.000
-263.238	150.364	-0.061	0.083
-262.224	-200.000	0.021	-0.292
-261.209	800.000	0.070	0.207
-260.195	-200.000	-0.044	0.430
-259.180	-43.124	0.248	-0.126
-258.165	-117.657	-0.040	-0.007
-257.151	78.270	-0.215	0.231
-256.136	341.064	-0.126	-0.247
-255.122	-67.785	0.193	-0.076
-254.107	-60.309	-0.090	0.039
-253.092	78.038	0.009	-0.010
-252.078	-70.235	0.163	-0.062
-251.063	-107.614	0.101	0.022
-250.049	246.335	-0.113	0.192
-249.034	-56.018	-0.213	0.095
-248.019	-200.000	-0.007	-0.304
-247.005	-97.540	-0.248	-0.065
-245.990	370.275	0.049	-0.101
-244.976	323.663	-0.169	0.323
-243.961	-200.000	0.007	-0.135
-242.946	-200.000	0.006	-0.167
-241.932	-154.468	0.391	-0.026
-240.917	130.061	0.030	-0.039
-239.903	-78.061	-0.197	-0.068
-238.888	240.253	-0.040	-0.067
-237.873	-112.616	0.241	-0.048
-236.859	-19.051	-0.099	0.062
-235.844	-200.000	-0.023	0.352
-234.830	212.568	0.253	-0.400
-233.815	800.000	0.108	-0.306
-232.800	800.000	0.069	-0.252
-231.786	-142.220	-0.357	-0.035
-230.771	617.515	-0.056	0.140
-229.757	-200.000	-0.006	0.290
-228.742	800.000	-0.052	0.154
-227.727	-200.000	-0.002	-0.248
-226.713	-200.000	0.034	-0.412
-225.698	9.184	0.315	-0.239
-224.684	40.642	0.152	-0.137
-223.669	-16.918	-0.216	0.137
-222.655	-7.802	-0.167	-0.113
-221.640	-200.000	0.025	-0.354
-220.625	142.994	-0.094	-0.125
-219.611	800.000	0.084	-0.282
-218.596	31.548	0.135	-0.116
-217.582	-23.290	0.167	-0.101
-216.567	32.482	0.237	0.205
-215.552	569.900	0.099	-0.241
-214.538	-118.074	-0.101	0.018
-213.523	1.842	-0.395	-0.285
-212.509	345.455	-0.130	-0.256
-211.494	800.000	0.059	-0.220
-210.479	444.164	0.155	0.341
-209.465	12.211	-0.050	0.038
-208.450	14.188	0.099	0.077
-207.436	22.761	-0.099	-0.082
-206.421	-48.435	-0.263	0.127
-205.406	-118.740	0.169	0.030
-204.392	92.576	0.096	-0.109
-203.377	-89.478	0.161	0.047
-202.363	2.762	0.256	-0.186
-201.348	-30.161	0.221	0.126
-200.333	-106.680	-0.140	0.031
-199.319	-200.000	-0.014	-0.147
-198.304	-29.530	0.038	-0.022
-197.290	16.200	-0.088	0.070
-196.275	-200.000	0.022	0.177
-195.260	-200.000	0.004	0.114
-194.246	-104.945	0.140	0.032
-193.231	152.842	0.110	0.151
-192.217	800.000	0.010	-0.031
-191.202	-200.000	0.047	0.332
-190.187	152.867	0.244	0.334
-189.173	306.049	-0.162	0.302
-188.158	482.095	0.056	0.127
-187.144	-65.562	-0.417	-0.168
-186.129	-171.620	-0.280	-0.009
-185.114	-70.324	0.277	0.105
-184.100	800.000	-0.024	-0.077
-183.085	-56.411	-0.085	-0.038
-182.071	-126.924	0.184	-0.027
-181.056	-16.536	0.104	0.066
-180.042	408.726	0.112	-0.238
-179.027	3.436	0.265	0.193
-178.012	800.000	0.069	0.249
-176.998	133.355	-0.094	-0.122
-175.983	-83.736	0.220	-0.070
-174.969	-200.000	-0.050	0.246
-173.954	-56.080	-0.053	-0.024
-172.939	-169.071	-0.171	-0.006
-171.925	-106.502	-0.364	-0.081
-170.910	23.018	-0.242	-0.199
-169.896	-89.915	-0.123	-0.036
-168.881	-200.000	-0.012	-0.195
-167.866	65.818	-0.095	0.096
-166.852	-56.274	0.318	-0.141
-165.837	-115.224	-0.376	0.071
-164.823	0.769	-0.017	0.012
-163.808	-103.494	0.136	0.032
-162.793	-158.396	0.120	0.007
-161.779	-200.000	0.043	-0.271
-160.764	-200.000	0.001	-0.078
-159.750	80.686	-0.072	-0.078
-158.735	1.239	0.162	0.117
-157.720	-67.233	-0.310	-0.122
-156.706	155.455	-0.137	-0.188
-155.691	-9.815	0.127	0.085
-154.677	75.566	-0.111	-0.117
-153.662	-125.499	-0.259	-0.039
-152.647	-72.365	-0.288	0.107
-151.633	93.633	0.172	0.195
-150.618	-117.046	0.202	-0.037
-149.604	800.000	0.075	0.293
-148.589	87.388	0.292	0.323
-147.574	-200.000	-0.015	0.375
-146.560	800.000	-0.091	-0.276
-145.545	-142.041	-0.093	-0.009
-144.531	-7.745	-0.080	-0.054
-143.516	-200.000	0.024	-0.553
-142.502	49.605	-0.202	0.190
-141.487	-200.000	0.298	-0.001
-140.472	800.000	0.049	-0.195
-139.458	-46.491	-0.447	0.219
-138.443	-200.000	0.019	0.086
-137.429	800.000	-0.027	0.113
-136.414	-157.149	-0.183	-0.011
-135.399	144.256	0.094	-0.125
-134.385	-200.000	-0.003	0.075
-133.370	-34.441	-0.152	0.083
-132.356	-13.326	-0.272	0.176
-131.341	-34.304	-0.295	0.162
-130.326	603.269	0.149	0.370
-129.312	-129.013	0.069	-0.010
-128.297	68.325	-0.081	-0.083
-127.283	117.747	-0.026	0.032
-126.268	381.343	-0.063	0.129
-125.253	800.000	0.139	-0.448
-124.239	106.437	-0.155	0.184
-123.224	800.000	0.112	0.312
-122.210	-109.233	-0.344	0.073
-121.195	-21.124	0.213	0.130
