DTS Sentinel unit serial number:	SN413079Multiplexer serial number:	ORYXHardware model number:	OX4-SRSoftware version number:	ORYX F/W v4.00 Oryx Data Collector v3.7.2.0data status	okinstallation	princeton_trtdifferential loss correction	single-endedforward channel	channel 3reverse channel	N/Adate	2019/09/16time	10:48:35forward acquisition time	60.00reverse acquisition time	0.00gamma	496.2192k internal	0.2301k external	0.2301temperature offset calibration	0.9944default loss term (dB/km)	0.3790temperature slope calibration	1.0000multiplexer offset coefficient	1.0000multiplexer slope coefficient	1.0000fibre end	0.00T internal ref (°C)	36.25T ext. ref 1 (°C)	12.69T ext. ref 2 (°C)	34.50length (m)	temperature (°C)	Stokes	anti-Stokes-747.200	-197.934	-0.111	0.001
-746.185	29.590	0.112	-0.097
-745.171	84.346	0.144	0.160
-744.156	-127.167	0.463	-0.069
-743.142	-65.141	0.068	0.028
-742.127	286.189	0.139	0.255
-741.112	75.441	0.243	-0.261
-740.098	236.433	0.104	-0.175
-739.083	-200.000	-0.015	0.085
-738.069	128.020	-0.221	0.286
-737.054	-53.307	0.407	-0.190
-736.039	125.239	-0.091	-0.116
-735.025	-200.000	0.071	0.413
-734.010	-60.566	-0.184	0.080
-732.996	226.281	0.061	0.100
-731.981	1.010	0.225	0.164
-730.966	-200.000	0.053	-0.338
-729.952	225.822	0.081	-0.134
-728.937	49.843	0.206	0.198
-727.923	226.001	0.074	-0.122
-726.908	-83.577	-0.049	-0.016
-725.894	-80.996	-0.121	0.041
-724.879	-91.469	-0.107	-0.031
-723.864	-183.771	-0.060	0.001
-722.850	800.000	-0.037	-0.140
-721.835	416.867	0.041	0.089
-720.821	-59.794	-0.449	-0.196
-719.806	-200.000	-0.005	0.066
-718.791	-200.000	0.001	-0.179
-717.777	522.813	-0.088	-0.210
-716.762	91.951	0.118	-0.135
-715.748	375.377	0.098	-0.203
-714.733	800.000	-0.023	0.086
-713.718	-79.700	-0.151	0.052
-712.704	-141.121	0.118	-0.012
-711.689	-37.632	-0.068	-0.037
-710.675	541.584	-0.119	0.290
-709.660	-133.487	-0.132	-0.017
-708.645	-82.198	-0.065	0.021
-707.631	-89.871	-0.229	0.068
-706.616	85.740	-0.231	-0.259
-705.602	-76.651	-0.234	-0.084
-704.587	-157.589	0.094	-0.006
-703.572	-187.441	0.163	-0.002
-702.558	-49.287	-0.115	0.056
-701.543	-200.000	0.053	-0.366
-700.529	781.636	0.130	0.361
-699.514	-0.424	0.223	0.161
-698.499	25.954	0.211	0.179
-697.485	418.852	-0.070	-0.151
-696.470	287.591	-0.128	0.236
-695.456	-119.841	0.119	-0.021
-694.441	-102.901	-0.130	-0.032
-693.426	-72.958	0.293	0.110
-692.412	42.260	0.276	0.255
-691.397	39.852	0.026	-0.023
-690.383	186.507	-0.203	-0.307
-689.368	-200.000	-0.001	-0.012
-688.354	-200.000	0.070	-0.364
-687.339	2.278	-0.049	-0.036
-686.324	-90.434	-0.289	0.085
-685.310	-116.498	0.300	-0.056
-684.295	-150.426	0.086	-0.007
-683.281	-108.734	-0.224	0.049
-682.266	-200.000	0.028	-0.237
-681.251	-200.000	-0.002	-0.173
-680.237	-128.433	-0.082	0.012
-679.222	33.800	-0.158	-0.140
-678.208	-9.293	0.136	0.093
-677.193	618.027	-0.074	-0.188
-676.178	800.000	0.040	0.168
-675.164	800.000	-0.012	-0.051
-674.149	458.199	-0.157	0.354
-673.135	35.501	0.044	0.039
-672.120	-200.000	0.015	-0.180
-671.105	-200.000	0.026	0.164
-670.091	177.653	-0.034	-0.050
-669.076	-47.560	0.106	-0.052
-668.062	-92.644	-0.308	0.088
-667.047	-127.464	0.223	0.033
-666.032	14.624	0.232	-0.184
-665.018	-200.000	-0.037	0.262
-664.003	88.442	-0.102	-0.115
-662.989	166.589	-0.043	-0.062
-661.974	67.793	-0.190	-0.197
-660.959	410.821	-0.063	-0.136
-659.945	-74.610	-0.096	-0.035
-658.930	245.657	0.098	0.168
-657.916	-81.125	-0.093	0.031
-656.901	164.135	0.065	-0.093
-655.886	-200.000	0.014	-0.101
-654.872	-163.502	0.077	-0.004
-653.857	-200.000	-0.036	0.173
-652.843	-76.399	-0.265	-0.095
-651.828	498.192	-0.136	-0.317
-650.814	-119.220	0.155	-0.027
-649.799	-189.979	-0.228	0.003
-648.784	-200.000	0.007	-0.130
-647.770	800.000	-0.017	0.064
-646.755	-98.192	-0.200	0.052
-645.741	-79.186	-0.125	-0.043
-644.726	45.298	-0.115	-0.108
-643.711	78.327	0.072	-0.079
-642.697	800.000	-0.022	-0.094
-641.682	-121.071	-0.352	0.060
-640.668	-85.880	0.164	0.052
-639.653	202.649	-0.079	-0.124
-638.638	-37.088	-0.153	-0.083
-637.624	-20.926	0.227	0.141
-636.609	61.148	0.146	0.147
-635.595	-142.234	-0.364	-0.037
-634.580	-200.000	-0.042	0.352
-633.565	-200.000	-0.008	-0.195
-632.551	-3.587	-0.227	-0.161
-631.536	93.651	-0.161	-0.185
-630.522	-42.714	0.114	-0.059
-629.507	-200.000	-0.006	-0.199
-628.492	-19.533	0.152	-0.095
-627.478	-152.158	-0.499	-0.037
-626.463	365.540	0.097	0.198
-625.449	-200.000	0.061	-0.278
-624.434	429.726	0.059	0.129
-623.419	800.000	-0.100	-0.352
-622.405	302.985	0.171	0.322
-621.390	513.644	-0.168	0.398
-620.376	490.877	-0.118	0.274
-619.361	136.936	-0.093	-0.124
-618.346	45.920	-0.225	-0.211
-617.332	11.493	0.056	0.043
-616.317	-161.568	0.239	-0.012
-615.303	52.958	-0.117	0.113
-614.288	-200.000	0.019	0.187
-613.273	800.000	-0.034	0.148
-612.259	30.622	0.069	0.060
-611.244	-177.948	-0.376	-0.009
-610.230	218.325	0.100	0.163
-609.215	66.195	0.051	-0.053
-608.201	-200.000	0.115	-0.515
-607.186	-110.149	0.147	0.031
-606.171	-200.000	-0.018	0.154
-605.157	-66.097	-0.279	-0.113
-604.142	-1.979	0.096	-0.068
-603.128	-200.000	-0.045	0.208
-602.113	-150.510	0.053	-0.004
-601.098	800.000	-0.039	-0.146
-600.084	79.327	-0.225	-0.245
-599.069	251.370	-0.146	-0.251
-598.055	-74.475	-0.212	-0.078
-597.040	3.740	0.144	-0.107
-596.025	128.049	0.146	0.188
-595.011	-200.000	-0.052	-0.365
-593.996	800.000	0.103	-0.334
-592.982	309.498	0.024	-0.046
-591.967	800.000	-0.078	0.247
-590.952	-200.000	0.025	0.134
-589.938	348.872	-0.038	-0.076
-588.923	-92.995	0.064	-0.018
-587.909	-200.000	0.001	0.089
-586.894	-107.200	-0.208	0.047
-585.879	53.642	-0.135	0.131
-584.865	-200.000	-0.071	0.343
-583.850	-9.444	0.316	-0.214
-582.836	-200.000	0.032	0.295
-581.821	-34.399	-0.114	0.063
-580.806	-10.125	-0.250	0.168
-579.792	54.996	-0.151	0.147
-578.777	169.415	-0.097	-0.141
-577.763	785.400	0.080	0.222
-576.748	20.435	-0.306	-0.251
-575.733	-146.817	0.149	-0.013
-574.719	47.874	-0.083	0.078
-573.704	-200.000	0.003	-0.187
-572.690	8.505	-0.052	0.040
-571.675	670.460	0.058	0.151
-570.661	-51.116	0.427	-0.203
-569.646	-111.965	-0.213	0.043
-568.631	-129.937	-0.071	0.010
-567.617	158.670	-0.023	-0.032
-566.602	8.772	0.147	-0.112
-565.588	244.556	-0.200	-0.339
-564.573	-200.000	0.014	0.069
-563.558	107.147	0.197	-0.237
-562.544	119.493	0.105	-0.132
-561.529	-58.175	0.166	0.073
-560.515	227.593	-0.032	0.052
-559.500	138.734	0.177	-0.235
-558.485	-71.519	0.195	-0.074
-557.471	-200.000	-0.001	0.195
-556.456	-200.000	-0.009	0.239
-555.442	-131.291	-0.276	-0.037
-554.427	-133.178	0.313	0.040
-553.412	-58.874	0.252	-0.110
-552.398	800.000	0.091	0.314
-551.383	-200.000	0.043	0.226
-550.369	-6.795	-0.154	-0.106
-549.354	-52.923	0.357	0.166
-548.339	-78.776	0.052	0.018
-547.325	120.609	-0.297	0.374
-546.310	-108.917	0.057	-0.012
-545.296	800.000	0.071	0.234
-544.281	-165.067	0.318	-0.014
-543.266	369.001	-0.086	0.176
-542.252	-200.000	-0.022	-0.099
-541.237	-160.031	-0.482	0.027
-540.223	-200.000	0.045	-0.279
-539.208	800.000	-0.181	-0.532
-538.193	41.499	0.057	0.052
-537.179	-101.287	0.339	-0.084
-536.164	-64.053	-0.413	0.170
-535.150	-20.633	-0.291	0.181
-534.135	-200.000	-0.012	0.382
-533.121	-96.146	0.265	-0.071
-532.106	-11.362	-0.149	-0.099
-531.091	78.737	-0.175	-0.189
-530.077	214.223	0.115	-0.184
-529.062	-69.837	0.346	-0.133
-528.048	86.436	-0.072	-0.080
-527.033	-200.000	0.002	-0.347
-526.018	-95.857	-0.301	0.081
-525.004	-200.000	-0.009	-0.420
-523.989	-200.000	0.073	0.324
-522.975	800.000	0.048	0.142
-521.960	324.016	-0.067	-0.130
-520.945	-49.972	0.122	-0.058
-519.931	-200.000	-0.025	0.383
-518.916	-138.478	0.100	0.011
-517.902	120.245	-0.035	-0.044
-516.887	-67.471	-0.213	-0.085
-515.872	-200.000	-0.015	-0.109
-514.858	481.974	-0.085	-0.195
-513.843	-200.000	-0.054	0.244
-512.829	-39.135	0.210	0.112
-511.814	34.798	0.178	-0.157
-510.799	48.730	0.290	0.275
-509.785	78.224	0.175	-0.188
-508.770	104.950	-0.045	0.054
-507.756	14.063	-0.313	0.247
-506.741	-0.009	0.187	0.134
-505.726	-188.891	0.285	0.003
-504.712	104.297	-0.083	0.098
-503.697	-92.184	0.055	-0.016
-502.683	-77.301	-0.149	-0.052
-501.668	-32.352	-0.159	-0.090
-500.653	-8.218	-0.026	-0.017
-499.639	-70.483	0.370	0.142
-498.624	-50.388	0.160	0.076
-497.610	727.499	-0.124	0.335
-496.595	800.000	0.028	-0.093
-495.581	-18.061	0.219	-0.139
-494.566	30.778	-0.130	-0.113
-493.551	795.890	0.071	0.196
-492.537	-57.691	-0.194	-0.086
-491.522	-65.978	0.193	-0.078
-490.508	11.841	-0.198	-0.154
-489.493	800.000	0.185	-0.665
-488.478	-10.345	-0.203	0.136
-487.464	-73.191	0.132	-0.049
-486.449	58.041	0.115	-0.114
-485.435	-38.135	-0.164	-0.088
-484.420	42.117	-0.172	0.158
-483.405	-200.000	0.004	0.353
-482.391	-167.275	0.102	0.004
-481.376	442.483	-0.037	0.081
-480.362	-95.203	-0.184	0.050
-479.347	357.921	0.085	-0.171
-478.332	-141.977	-0.313	-0.031
-477.318	-49.462	-0.033	0.016
-476.303	215.048	0.085	-0.136
-475.289	-5.181	-0.257	0.179
-474.274	-200.000	0.031	0.237
-473.259	7.442	0.083	-0.063
-472.245	-124.345	0.170	-0.027
-471.230	-200.000	-0.001	-0.286
-470.216	-40.443	0.112	0.059
-469.201	-98.666	0.165	0.043
-468.186	800.000	-0.124	0.373
-467.172	-137.903	-0.324	-0.037
-466.157	160.261	-0.237	0.333
-465.143	-117.474	0.128	-0.023
-464.128	-200.000	-0.042	0.266
-463.113	-18.554	-0.268	-0.169
-462.099	-83.139	-0.337	0.109
-461.084	2.723	-0.092	-0.067
-460.070	390.044	0.113	0.237
-459.055	380.962	0.056	-0.116
-458.040	-148.085	0.185	0.015
-457.026	113.695	0.143	-0.176
-456.011	-110.200	0.324	0.068
-454.997	-200.000	-0.037	-0.312
-453.982	-84.843	-0.226	0.072
-452.968	-2.732	0.114	-0.080
-451.953	17.863	-0.177	-0.142
-450.938	-180.139	0.220	0.005
-449.924	-67.574	-0.133	0.053
-448.909	800.000	-0.015	-0.057
-447.895	-200.000	0.030	-0.272
-446.880	-200.000	0.014	0.245
-445.865	-76.726	0.081	0.028
-444.851	-200.000	-0.004	0.336
-443.836	-200.000	-0.282	-0.001
-442.822	-41.353	-0.375	-0.195
-441.807	800.000	-0.106	-0.396
-440.792	184.375	0.025	0.037
-439.778	-93.329	-0.140	0.039
-438.763	-66.537	0.195	0.078
-437.749	-200.000	0.021	0.125
-436.734	797.506	0.045	-0.124
-435.719	-83.056	0.071	0.023
-434.705	26.371	-0.163	0.138
-433.690	-171.731	-0.193	0.006
-432.676	-200.000	0.029	-0.282
-431.661	800.000	0.032	0.093
-430.646	-59.539	-0.049	-0.021
-429.632	-8.367	0.205	-0.139
-428.617	260.172	-0.103	-0.180
-427.603	270.774	0.135	0.238
-426.588	-15.015	0.112	-0.072
-425.573	-107.786	-0.317	0.070
-424.559	781.224	-0.047	0.130
-423.544	65.766	0.066	0.068
-422.530	-14.311	0.183	0.118
-421.515	578.997	-0.062	-0.154
-420.500	-100.996	0.304	-0.075
-419.486	-200.000	-0.004	0.281
-418.471	120.331	0.107	0.133
-417.457	67.313	0.100	0.103
-416.442	-44.652	-0.285	0.143
-415.428	-8.092	-0.170	-0.115
-414.413	16.880	-0.130	-0.104
-413.398	800.000	0.073	0.233
-412.384	-15.985	0.273	0.175
-411.369	800.000	0.064	0.189
-410.355	-26.511	0.114	0.067
-409.340	-0.162	-0.095	-0.068
-408.325	-159.790	0.194	-0.011
-407.311	104.302	0.237	-0.281
-406.296	-36.212	0.366	-0.199
-405.282	40.998	-0.199	-0.181
-404.267	-108.667	-0.230	-0.050
-403.252	-58.915	0.280	0.122
-402.238	-200.000	-0.043	0.204
-401.223	49.839	-0.101	-0.096
-400.209	-158.767	-0.014	0.001
-399.194	56.512	-0.014	-0.014
-398.179	-2.172	-0.291	0.206
-397.165	-200.000	-0.004	0.095
-396.150	-200.000	-0.006	0.026
-395.136	-11.009	-0.154	-0.103
-394.121	-168.299	0.201	0.008
-393.106	-97.800	0.259	0.067
-392.092	-116.141	-0.171	0.032
-391.077	104.765	0.129	0.153
-390.063	-63.921	-0.195	0.080
-389.048	374.009	0.119	-0.243
-388.033	241.593	-0.108	0.181
-387.019	138.827	-0.056	-0.074
-386.004	18.109	-0.169	0.136
-384.990	-200.000	0.037	0.346
-383.975	-49.325	-0.477	-0.229
-382.960	-200.000	0.063	-0.352
-381.946	146.670	-0.071	0.095
-380.931	99.561	-0.123	-0.143
-379.917	545.433	0.171	-0.411
-378.902	-200.000	0.066	0.455
-377.888	51.925	0.106	0.101
-376.873	187.852	-0.183	-0.274
-375.858	-200.000	-0.050	0.412
-374.844	1.540	0.140	0.101
-373.829	800.000	0.107	0.347
-372.815	-200.000	-0.078	0.366
-371.800	204.235	-0.068	0.105
-370.785	91.224	0.139	-0.157
-369.771	800.000	0.048	0.166
-368.756	800.000	-0.022	0.077
-367.742	-43.292	-0.055	-0.028
-366.727	467.468	-0.073	-0.165
-365.712	59.469	0.010	0.010
-364.698	136.098	-0.182	-0.239
-363.683	800.000	-0.040	0.124
-362.669	-162.963	0.201	-0.010
-361.654	-77.396	0.282	0.098
-360.639	-34.400	-0.144	0.079
-359.625	-141.046	-0.442	-0.045
-358.610	43.830	-0.157	-0.144
-357.596	34.171	0.128	0.112
-356.581	-49.219	-0.184	-0.088
-355.566	724.147	0.176	0.472
-354.552	76.807	-0.066	0.070
-353.537	-122.501	-0.306	-0.050
-352.523	800.000	0.065	0.250
-351.508	24.808	-0.317	0.264
-350.493	-93.789	-0.142	-0.039
-349.479	-200.000	-0.017	-0.131
-348.464	45.191	-0.177	-0.164
-347.450	213.802	-0.058	0.091
-346.435	-160.154	-0.335	-0.018
-345.420	43.122	0.106	-0.097
-344.406	-200.000	-0.029	0.181
-343.391	378.577	-0.113	-0.232
-342.377	-148.393	-0.124	0.010
-341.362	-96.748	-0.190	0.050
-340.348	800.000	0.030	0.085
-339.333	-77.225	0.407	0.142
-338.318	-19.916	-0.280	-0.173
-337.304	-44.874	-0.087	-0.044
-336.289	-25.256	-0.276	-0.164
-335.275	-63.244	0.158	0.065
-334.260	-200.000	0.010	-0.247
-333.245	-78.577	-0.373	0.128
-332.231	-30.325	0.046	-0.026
-331.216	-200.000	-0.001	0.244
-330.202	417.120	-0.067	0.143
-329.187	-173.409	0.120	0.004
-328.172	42.054	-0.151	0.137
-327.158	-7.054	-0.069	-0.047
-326.143	581.848	-0.015	-0.037
-325.129	-134.812	0.396	0.048
-324.114	78.496	-0.182	-0.195
-323.099	36.065	0.124	0.109
-322.085	231.897	0.311	-0.512
-321.070	64.342	-0.177	0.179
-320.056	-44.453	0.384	0.193
-319.041	-100.554	0.379	0.094
-318.026	80.182	0.083	-0.090
-317.012	-200.000	0.028	0.299
-315.997	683.164	0.097	0.254
-314.983	-77.471	-0.329	-0.114
-313.968	86.501	0.032	0.036
-312.953	800.000	0.032	0.099
-311.939	-20.620	0.155	0.095
-310.924	-80.011	0.104	0.035
-309.910	-200.000	-0.013	-0.079
-308.895	-92.494	0.400	0.113
-307.880	-133.809	0.301	-0.038
-306.866	-7.195	-0.127	0.086
-305.851	-200.000	0.055	-0.380
-304.837	-59.822	-0.114	0.049
-303.822	109.481	-0.075	0.090
-302.807	84.464	0.147	-0.161
-301.793	-200.000	0.018	-0.196
-300.778	800.000	-0.049	-0.148
-299.764	36.222	0.128	-0.113
-298.749	800.000	-0.028	0.094
-297.735	-200.000	-0.005	-0.102
-296.720	800.000	-0.089	-0.275
-295.705	-46.006	-0.133	0.066
-294.691	304.260	-0.100	-0.185
-293.676	395.531	-0.101	-0.211
-292.662	104.770	0.094	-0.111
-291.647	56.328	-0.067	-0.065
-290.632	-16.147	-0.123	0.078
-289.618	-200.000	-0.050	0.248
-288.603	-67.265	0.336	-0.132
-287.589	642.706	-0.066	0.169
-286.574	-200.000	0.021	0.228
-285.559	214.290	0.141	-0.223
-284.545	188.263	0.220	0.329
-283.530	92.390	0.154	-0.174
-282.516	-101.176	-0.069	0.017
-281.501	-150.782	0.224	-0.017
-280.486	-120.884	0.221	0.037
-279.472	6.207	0.128	-0.095
-278.457	235.193	0.116	-0.191
-277.443	371.975	0.096	-0.195
-276.428	56.222	0.132	0.128
-275.413	93.074	0.145	0.164
-274.399	120.135	0.134	-0.167
-273.384	4.638	0.201	-0.148
-272.370	440.742	0.065	-0.143
-271.355	222.604	0.064	-0.103
-270.340	-42.942	0.241	0.122
-269.326	484.938	-0.047	-0.108
-268.311	800.000	-0.019	-0.071
-267.297	19.159	-0.181	-0.145
-266.282	-146.530	0.401	0.035
-265.267	-31.932	0.245	0.137
-264.253	-6.182	-0.112	-0.077
-263.238	130.201	0.052	0.066
-262.224	-90.838	0.147	-0.042
-261.209	14.592	0.227	0.178
-260.195	607.862	-0.084	-0.209
-259.180	-166.004	0.160	0.007
-258.165	-200.000	0.000	0.029
-257.151	-200.000	0.020	-0.350
-256.136	-136.369	-0.244	-0.028
-255.122	477.350	-0.192	0.434
-254.107	117.760	0.067	-0.082
-253.092	-115.996	0.577	-0.108
-252.078	32.481	-0.262	0.227
-251.063	-200.000	0.024	0.297
-250.049	203.884	0.076	0.117
-249.034	-200.000	0.049	-0.284
-248.019	-200.000	-0.025	0.139
-247.005	-64.979	-0.088	-0.036
-245.990	-34.682	-0.209	-0.114
-244.976	186.289	-0.042	0.062
-243.961	-200.000	-0.052	-0.348
-242.946	-89.729	0.141	0.041
-241.932	800.000	-0.085	0.256
-240.917	36.347	-0.036	-0.032
-239.903	60.405	0.151	-0.149
-238.888	20.032	0.280	0.226
-237.873	-0.223	0.233	0.166
-236.859	800.000	-0.099	0.304
-235.844	489.635	-0.099	-0.226
-234.830	-22.327	0.143	-0.087
-233.815	-22.668	0.237	-0.143
-232.800	662.376	-0.034	0.088
-231.786	39.031	0.161	-0.144
-230.771	-200.000	0.014	0.126
-229.757	-200.000	0.010	0.141
-228.742	-200.000	-0.030	0.264
-227.727	63.933	-0.027	0.027
-226.713	45.409	0.293	-0.270
-225.698	403.045	-0.123	-0.258
-224.684	-151.851	0.296	-0.022
-223.669	398.585	-0.129	0.270
-222.655	800.000	0.043	0.185
-221.640	133.678	-0.111	0.143
-220.625	133.118	0.087	0.112
-219.611	82.868	-0.131	0.142
-218.596	-200.000	-0.002	0.280
-217.582	172.989	-0.098	-0.140
-216.567	563.916	0.079	-0.192
-215.552	-128.980	0.235	-0.033
-214.538	-200.000	0.073	0.341
-213.523	-170.372	-0.337	0.012
-212.509	-44.579	0.149	0.074
-211.494	-200.000	0.018	0.210
-210.479	-76.656	-0.289	-0.101
-209.465	-200.000	-0.054	-0.326
-208.450	-5.240	-0.163	-0.112
-207.436	667.112	0.168	0.433
-206.421	190.465	-0.078	-0.117
-205.406	92.690	0.204	-0.230
-204.392	233.839	-0.122	-0.201
-203.377	-4.085	-0.004	-0.002
-202.363	243.279	-0.176	-0.294
-201.348	193.647	0.066	0.100
-200.333	800.000	-0.103	0.345
-199.319	-190.185	0.102	0.001
-198.304	-4.378	0.063	-0.044
-197.290	4.735	-0.175	-0.129
-196.275	800.000	-0.094	0.395
-195.260	-28.461	0.359	0.207
-194.246	800.000	0.030	0.097
-193.231	-84.284	0.037	-0.012
-192.217	172.078	-0.172	-0.246
-191.202	-200.000	-0.019	0.163
-190.187	-143.157	-0.247	0.024
-189.173	-200.000	0.044	-0.236
-188.158	-24.543	0.137	-0.081
-187.144	-200.000	0.013	-0.331
-186.129	124.745	-0.211	0.264
-185.114	-19.674	0.195	0.120
-184.100	-42.098	-0.093	-0.048
-183.085	-102.900	-0.228	-0.054
-182.071	800.000	-0.080	0.242
-181.056	-200.000	-0.055	-0.442
-180.042	-200.000	0.044	-0.281
-179.027	105.066	-0.215	0.253
-178.012	-200.000	-0.012	0.514
-176.998	14.381	0.187	0.146
-175.983	-197.510	0.143	-0.001
-174.969	800.000	0.007	-0.032
-173.954	-24.949	-0.320	-0.190
-172.939	-200.000	-0.007	-0.321
-171.925	-46.731	0.174	-0.085
-170.910	401.844	-0.054	0.112
-169.896	-147.582	0.154	-0.013
-168.881	10.770	0.273	0.207
-167.866	-110.501	0.102	-0.021
-166.852	191.797	0.075	-0.112
-165.837	-200.000	0.030	-0.154
-164.823	28.564	0.190	-0.160
-163.808	-200.000	-0.074	-0.325
-162.793	195.405	0.177	-0.269
-161.779	800.000	0.020	-0.078
-160.764	67.352	0.099	-0.101
-159.750	-23.489	-0.261	-0.156
-158.735	312.683	0.175	-0.327
-157.720	-200.000	-0.045	-0.223
-156.706	-132.941	-0.208	0.026
-155.691	192.541	-0.073	0.110
-154.677	433.865	0.153	-0.331
-153.662	1.258	-0.118	0.085
-152.647	-83.139	-0.109	-0.035
-151.633	353.966	0.137	-0.271
-150.618	25.939	0.071	0.059
-149.604	-99.420	0.050	0.012
-148.589	-153.530	-0.501	0.035
-147.574	-168.185	0.303	-0.012
-146.560	344.956	0.139	0.272
-145.545	-115.701	0.096	-0.018
-144.531	-107.390	-0.187	-0.041
-143.516	-200.000	0.023	-0.388
-142.502	800.000	0.055	-0.193
-141.487	20.604	0.091	0.073
-140.472	-95.396	-0.029	0.008
-139.458	800.000	0.062	-0.183
-138.443	258.338	-0.128	-0.219
-137.429	-200.000	0.011	-0.099
-136.414	71.380	-0.089	0.091
-135.399	-65.657	0.229	-0.091
-134.385	-200.000	0.052	0.320
-133.370	-200.000	-0.018	-0.179
-132.356	-21.746	-0.125	-0.076
-131.341	656.269	0.108	-0.277
-130.326	800.000	-0.085	-0.312
-129.312	-128.991	0.183	0.026
-128.297	-36.564	0.260	0.139
-127.283	-23.986	0.328	0.195
-126.268	-200.000	-0.079	0.391
-125.253	-200.000	-0.040	0.284
-124.239	83.355	0.321	0.348
-123.224	800.000	-0.050	0.150
-122.210	-45.843	-0.253	0.124
-121.195	-133.656	0.344	0.043
