DTS Sentinel unit serial number:	SN413079Multiplexer serial number:	ORYXHardware model number:	OX4-SRSoftware version number:	ORYX F/W v4.00 Oryx Data Collector v3.7.2.0data status	okinstallation	princeton_trtdifferential loss correction	single-endedforward channel	channel 3reverse channel	N/Adate	2019/09/15time	04:12:34forward acquisition time	60.00reverse acquisition time	0.00gamma	496.2192k internal	0.2323k external	0.2323temperature offset calibration	0.9971default loss term (dB/km)	0.3790temperature slope calibration	1.0000multiplexer offset coefficient	1.0000multiplexer slope coefficient	1.0000fibre end	0.00T internal ref (°C)	30.92T ext. ref 1 (°C)	4.64T ext. ref 2 (°C)	25.71length (m)	temperature (°C)	Stokes	anti-Stokes-747.200	530.412	0.145	0.346
-746.185	800.000	0.031	-0.117
-745.171	248.608	0.097	0.166
-744.156	266.387	0.148	0.261
-743.142	-136.115	0.304	-0.036
-742.127	-86.020	-0.497	0.155
-741.112	-147.923	0.281	-0.024
-740.098	800.000	0.052	0.166
-739.083	-40.737	-0.306	0.160
-738.069	-70.515	-0.394	-0.151
-737.054	41.818	-0.073	0.067
-736.039	-23.595	0.055	0.033
-735.025	-94.706	-0.089	0.024
-734.010	-200.000	-0.034	-0.208
-732.996	73.692	-0.244	0.258
-731.981	-178.341	-0.237	-0.006
-730.966	-62.745	-0.044	0.018
-729.952	-108.822	0.063	-0.014
-728.937	317.962	-0.166	0.317
-727.923	5.677	0.263	0.197
-726.908	-62.498	-0.130	0.055
-725.894	-200.000	0.013	-0.130
-724.879	76.042	-0.152	-0.162
-723.864	327.709	-0.041	0.080
-722.850	-200.000	0.011	-0.189
-721.835	-73.355	-0.434	-0.160
-720.821	402.456	-0.057	0.122
-719.806	10.499	-0.383	-0.294
-718.791	800.000	-0.035	0.134
-717.777	800.000	0.069	-0.245
-716.762	800.000	-0.044	-0.155
-715.748	-200.000	-0.009	-0.114
-714.733	202.418	0.102	0.158
-713.718	3.717	-0.362	-0.266
-712.704	-39.365	0.464	0.246
-711.689	-16.890	-0.293	0.187
-710.675	-42.722	-0.115	-0.059
-709.660	800.000	0.016	0.049
-708.645	-200.000	0.010	0.109
-707.631	694.262	-0.007	-0.018
-706.616	683.700	0.124	0.326
-705.602	90.399	0.095	0.107
-704.587	148.537	-0.078	-0.106
-703.572	190.876	-0.069	-0.105
-702.558	-45.379	0.250	-0.125
-701.543	467.641	0.079	-0.180
-700.529	-200.000	-0.001	0.100
-699.514	-200.000	0.027	-0.175
-698.499	-72.213	0.064	-0.024
-697.485	288.782	0.144	-0.263
-696.470	-172.669	-0.264	0.008
-695.456	-66.555	0.407	-0.163
-694.441	-114.454	-0.239	-0.046
-693.426	563.245	0.118	0.289
-692.412	-200.000	0.066	-0.407
-691.397	-200.000	-0.008	0.038
-690.383	-55.534	0.181	0.082
-689.368	223.053	-0.142	-0.231
-688.354	116.113	0.202	0.249
-687.339	63.388	0.196	-0.199
-686.324	-61.617	-0.285	-0.121
-685.310	-200.000	-0.048	0.270
-684.295	-149.380	0.160	-0.013
-683.281	-64.313	-0.319	0.131
-682.266	-125.278	0.177	0.027
-681.251	161.870	-0.119	-0.169
-680.237	-36.677	-0.083	-0.045
-679.222	123.947	0.150	-0.190
-678.208	-119.676	-0.144	-0.025
-677.193	800.000	-0.153	0.478
-676.178	-101.692	0.156	-0.038
-675.164	-172.688	0.294	-0.009
-674.149	5.897	0.169	0.126
-673.135	-200.000	0.005	0.075
-672.120	-144.434	0.148	0.014
-671.105	-17.686	-0.292	-0.185
-670.091	-41.605	-0.254	-0.131
-669.076	-22.056	0.135	0.083
-668.062	59.204	-0.257	0.255
-667.047	47.395	0.127	-0.119
-666.032	-200.000	-0.015	0.214
-665.018	-51.064	-0.321	0.152
-664.003	-200.000	-0.093	0.444
-662.989	-200.000	0.034	0.180
-661.974	690.521	-0.101	-0.265
-660.959	-15.779	-0.492	-0.316
-659.945	194.954	0.093	0.142
-658.930	-32.848	-0.156	0.087
-657.916	57.456	0.178	-0.175
-656.901	-200.000	0.011	-0.174
-655.886	55.192	-0.041	-0.040
-654.872	100.980	-0.289	-0.338
-653.857	119.242	-0.120	0.149
-652.843	800.000	-0.017	0.063
-651.828	-156.136	0.170	-0.011
-650.814	-200.000	0.017	-0.331
-649.799	18.139	-0.266	0.213
-648.784	221.045	-0.159	-0.257
-647.770	0.450	-0.061	0.044
-646.755	45.431	-0.258	-0.239
-645.741	-26.012	-0.435	0.257
-644.726	800.000	0.082	-0.260
-643.711	23.895	0.094	-0.078
-642.697	-139.858	0.378	0.040
-641.682	122.612	0.091	-0.114
-640.668	61.727	-0.196	-0.196
-639.653	329.133	-0.089	-0.172
-638.638	38.345	0.041	0.037
-637.624	-200.000	-0.017	-0.130
-636.609	88.902	-0.093	-0.104
-635.595	174.234	0.033	0.048
-634.580	-139.818	0.262	-0.028
-633.565	-196.890	0.196	-0.001
-632.551	441.816	-0.162	0.356
-631.536	35.901	-0.202	0.178
-630.522	-31.405	-0.217	-0.123
-629.507	583.970	-0.141	0.349
-628.492	-119.798	0.148	-0.026
-627.478	118.838	0.021	-0.026
-626.463	-85.582	-0.092	-0.029
-625.449	-1.425	-0.330	-0.234
-624.434	30.423	-0.109	0.093
-623.419	-54.842	0.463	-0.210
-622.405	789.950	-0.082	0.226
-621.390	319.241	0.057	-0.108
-620.376	-155.683	-0.238	0.015
-619.361	-134.554	-0.315	0.039
-618.346	33.024	-0.304	0.264
-617.332	-22.508	-0.364	-0.222
-616.317	24.874	-0.480	-0.400
-615.303	-200.000	-0.024	0.116
-614.288	-34.624	-0.150	0.083
-613.273	800.000	-0.067	0.233
-612.259	91.305	0.165	0.186
-611.244	173.437	-0.172	0.250
-610.230	377.978	-0.211	-0.433
-609.215	800.000	0.100	-0.285
-608.201	-92.596	-0.364	-0.103
-607.186	143.761	-0.181	0.243
-606.171	-19.823	0.380	-0.236
-605.157	524.931	-0.166	-0.393
-604.142	-200.000	0.017	0.119
-603.128	125.772	-0.040	0.051
-602.113	-147.660	0.251	-0.021
-601.098	-1.628	-0.229	-0.162
-600.084	376.643	-0.083	0.170
-599.069	-99.356	-0.041	-0.010
-598.055	542.888	-0.055	0.131
-597.040	144.597	-0.159	0.213
-596.025	148.058	-0.201	0.273
-595.011	2.681	0.182	0.133
-593.996	68.185	-0.100	-0.103
-592.982	-200.000	-0.013	-0.272
-591.967	13.364	0.163	0.127
-590.952	-93.712	0.158	0.044
-589.938	-200.000	0.050	0.403
-588.923	31.773	-0.269	-0.232
-587.909	499.574	0.147	0.341
-586.894	196.618	-0.206	-0.315
-585.879	-107.735	-0.095	-0.021
-584.865	191.779	0.029	-0.044
-583.850	-200.000	0.002	-0.396
-582.836	-59.112	-0.296	-0.128
-581.821	116.621	0.131	0.161
-580.806	800.000	-0.061	-0.178
-579.792	-200.000	-0.003	-0.110
-578.777	-200.000	-0.022	0.258
-577.763	317.455	-0.073	-0.139
-576.748	23.317	-0.180	0.148
-575.733	-139.222	0.090	0.010
-574.719	-200.000	0.032	-0.187
-573.704	13.616	-0.169	0.132
-572.690	281.638	-0.087	0.157
-571.675	-171.352	0.090	0.003
-570.661	800.000	-0.037	-0.124
-569.646	-98.474	-0.263	0.068
-568.631	-40.023	0.191	-0.100
-567.617	-51.309	0.061	-0.029
-566.602	84.464	-0.121	0.132
-565.588	-200.000	0.036	-0.191
-564.573	-87.955	-0.137	0.041
-563.558	-200.000	0.077	0.475
-562.544	800.000	0.072	0.304
-561.529	-162.437	0.262	-0.013
-560.515	-75.652	0.139	0.049
-559.500	27.014	-0.117	-0.098
-558.485	-136.397	-0.237	-0.028
-557.471	-106.334	0.154	-0.035
-556.456	-185.822	-0.122	0.002
-555.442	800.000	0.026	-0.077
-554.427	-200.000	0.028	-0.279
-553.412	-95.032	0.217	-0.059
-552.398	18.115	0.049	-0.039
-551.383	-200.000	0.003	-0.039
-550.369	21.270	-0.322	-0.262
-549.354	17.616	-0.294	-0.235
-548.339	50.051	0.106	0.100
-547.325	-28.196	0.041	0.023
-546.310	800.000	0.061	0.178
-545.296	-150.224	0.326	0.025
-544.281	-125.129	0.360	-0.055
-543.266	138.975	0.164	-0.216
-542.252	-200.000	0.006	-0.072
-541.237	153.880	-0.100	0.138
-540.223	-200.000	-0.032	0.270
-539.208	-113.460	-0.200	0.039
-538.193	800.000	0.067	-0.214
-537.179	-54.835	0.109	-0.049
-536.164	-9.879	-0.232	-0.155
-535.150	-200.000	0.014	0.327
-534.135	-166.213	-0.167	-0.007
-533.121	-200.000	0.002	0.304
-532.106	-102.839	0.288	0.069
-531.091	-0.585	0.305	0.216
-530.077	59.349	-0.061	-0.061
-529.062	-73.204	0.429	0.157
-528.048	510.446	0.074	-0.172
-527.033	-200.000	-0.056	0.250
-526.018	-200.000	0.011	0.231
-525.004	-74.383	0.034	-0.012
-523.989	192.093	-0.096	0.144
-522.975	-200.000	-0.020	-0.269
-521.960	800.000	0.137	0.391
-520.945	131.929	-0.156	0.200
-519.931	-82.656	-0.224	-0.072
-518.916	48.583	0.197	0.185
-517.902	-87.781	0.092	-0.028
-516.887	231.584	0.093	-0.153
-515.872	584.848	0.054	0.134
-514.858	800.000	-0.055	-0.153
-513.843	84.620	0.025	-0.027
-512.829	-78.014	-0.075	0.026
-511.814	177.585	0.139	0.203
-510.799	178.633	0.169	0.248
-509.785	102.698	-0.132	-0.155
-508.770	153.130	0.057	-0.078
-507.756	21.407	-0.074	-0.060
-506.741	95.124	0.031	0.035
-505.726	769.233	0.034	-0.093
-504.712	-170.806	-0.050	-0.002
-503.697	800.000	-0.066	-0.183
-502.683	50.296	0.154	-0.146
-501.668	-200.000	0.005	0.379
-500.653	-114.393	-0.251	0.048
-499.639	-47.885	0.305	-0.148
-498.624	226.757	0.039	-0.063
-497.610	800.000	-0.061	0.228
-496.595	13.728	0.199	0.155
-495.581	15.719	-0.164	-0.129
-494.566	78.324	-0.102	0.109
-493.551	316.913	0.096	0.182
-492.537	45.864	-0.376	-0.348
-491.522	387.365	-0.084	-0.174
-490.508	203.119	-0.132	-0.204
-489.493	26.579	0.318	-0.266
-488.478	-74.643	0.037	0.013
-487.464	-137.670	-0.248	-0.028
-486.449	11.676	-0.276	-0.212
-485.435	-28.364	-0.150	0.086
-484.420	-62.306	-0.324	0.135
-483.405	-8.077	0.107	-0.072
-482.391	213.797	0.187	-0.295
-481.376	-147.214	-0.267	0.023
-480.362	800.000	0.039	-0.109
-479.347	339.949	-0.179	-0.349
-478.332	-116.194	-0.036	-0.007
-477.318	-187.189	0.134	0.002
-476.303	368.032	0.134	-0.270
-475.289	-3.618	0.101	0.070
-474.274	230.192	-0.192	0.313
-473.259	99.776	-0.209	0.242
-472.245	-101.875	-0.213	0.051
-471.230	137.256	-0.311	0.407
-470.216	-26.267	-0.365	0.214
-469.201	150.218	0.237	0.321
-468.186	-34.712	0.040	-0.022
-467.172	9.294	0.196	-0.148
-466.157	60.817	0.033	0.032
-465.143	686.373	-0.191	-0.499
-464.128	403.636	-0.076	-0.159
-463.113	800.000	0.076	-0.215
-462.099	-2.367	-0.180	-0.126
-461.084	800.000	0.086	-0.238
-460.070	255.965	0.144	-0.247
-459.055	-50.858	-0.520	-0.244
-458.040	-128.788	0.068	-0.010
-457.026	-200.000	0.015	-0.186
-456.011	122.190	0.157	0.195
-454.997	298.442	0.156	0.287
-453.982	-107.632	0.185	-0.040
-452.968	-152.320	-0.200	0.014
-451.953	-200.000	-0.028	0.158
-450.938	-172.576	-0.284	0.009
-449.924	83.240	0.021	-0.023
-448.909	-194.980	-0.064	0.000
-447.895	800.000	-0.055	-0.184
-446.880	-45.815	0.185	0.091
-445.865	570.558	0.144	-0.351
-444.851	-97.042	-0.203	0.053
-443.836	-88.955	-0.246	0.073
-442.822	-102.917	0.191	0.045
-441.807	-65.872	-0.293	0.117
-440.792	800.000	0.092	-0.295
-439.778	400.147	-0.141	-0.296
-438.763	135.476	0.175	-0.228
-437.749	380.684	-0.177	0.361
-436.734	372.113	0.115	0.234
-435.719	-90.241	-0.196	0.057
-434.705	-33.431	0.163	-0.090
-433.690	-131.615	-0.272	-0.036
-432.676	114.930	0.035	-0.043
-431.661	-144.886	0.397	-0.036
-430.646	-66.825	0.429	-0.169
-429.632	-174.788	0.198	-0.006
-428.617	-13.739	-0.138	0.089
-427.603	-0.004	0.277	0.197
-426.588	2.530	0.190	-0.137
-425.573	-10.554	0.055	-0.037
-424.559	800.000	0.058	0.177
-423.544	477.150	0.108	0.244
-422.530	351.290	0.214	0.423
-421.515	-200.000	-0.012	-0.131
-420.500	-121.673	0.297	-0.049
-419.486	109.552	-0.103	0.123
-418.471	159.973	0.063	-0.088
-417.457	-67.418	0.139	0.054
-416.442	-200.000	0.046	-0.285
-415.428	-91.729	-0.167	-0.047
-414.413	139.361	-0.057	-0.075
-413.398	-200.000	0.001	-0.073
-412.384	63.076	0.116	-0.116
-411.369	146.621	-0.110	-0.147
-410.355	-126.611	0.289	0.043
-409.340	-112.531	0.146	0.029
-408.325	-0.772	-0.395	0.279
-407.311	-156.310	-0.274	-0.017
-406.296	-200.000	0.044	-0.327
-405.282	-118.478	0.274	0.048
-404.267	355.660	0.154	-0.305
-403.252	341.332	-0.115	0.224
-402.238	16.387	-0.074	0.058
-401.223	800.000	-0.049	-0.165
-400.209	56.870	0.074	0.071
-399.194	26.310	0.102	0.085
-398.179	-200.000	-0.009	0.073
-397.165	73.906	0.301	-0.314
-396.150	-157.689	-0.214	-0.013
-395.136	-51.557	0.218	0.101
-394.121	128.982	-0.237	0.301
-393.106	221.615	0.093	0.148
-392.092	-200.000	-0.007	0.140
-391.077	110.384	0.219	0.262
-390.063	-124.040	-0.452	-0.071
-389.048	800.000	-0.033	-0.101
-388.033	232.735	0.085	-0.140
-387.019	-37.436	0.099	0.053
-386.004	30.079	-0.092	0.078
-384.990	-200.000	0.018	-0.104
-383.975	-200.000	0.004	0.335
-382.960	-58.970	-0.248	0.107
-381.946	-200.000	0.018	-0.138
-380.931	-150.833	-0.050	-0.004
-379.917	-149.605	0.299	-0.024
-378.902	193.164	-0.218	-0.329
-377.888	-106.178	-0.137	-0.031
-376.873	-116.147	0.287	0.053
-375.858	322.374	-0.230	0.435
-374.844	84.731	0.038	0.041
-373.829	-73.708	-0.013	0.005
-372.815	743.068	-0.045	-0.122
-371.800	-77.235	-0.346	-0.120
-370.785	18.032	0.397	0.315
-369.771	800.000	-0.094	0.385
-368.756	-200.000	0.027	-0.187
-367.742	-124.741	-0.127	-0.020
-366.727	-116.549	0.308	-0.056
-365.712	36.444	-0.212	0.186
-364.698	800.000	0.040	0.130
-363.683	405.168	0.057	0.120
-362.669	800.000	-0.048	-0.162
-361.654	-35.113	0.140	0.076
-360.639	-4.073	0.165	-0.114
-359.625	297.851	0.081	0.149
-358.610	-64.135	-0.314	-0.128
-357.596	1.085	0.215	-0.153
-356.581	94.346	-0.165	-0.186
-355.566	-73.441	0.311	-0.113
-354.552	706.626	-0.064	0.167
-353.537	-26.503	0.248	0.144
-352.523	-130.429	0.150	0.020
-351.508	-200.000	-0.057	-0.257
-350.493	-50.920	-0.354	-0.165
-349.479	527.107	-0.119	0.278
-348.464	320.788	-0.082	0.155
-347.450	226.455	0.169	-0.272
-346.435	800.000	0.119	-0.359
-345.420	800.000	0.152	0.427
-344.406	-154.473	0.201	0.013
-343.391	418.075	-0.048	-0.102
-342.377	55.731	-0.241	0.232
-341.362	96.853	0.201	-0.229
-340.348	-22.699	0.132	-0.079
-339.333	54.994	-0.203	-0.195
-338.318	-47.515	0.431	0.208
-337.304	800.000	0.054	-0.203
-336.289	190.817	-0.230	-0.344
-335.275	37.405	-0.141	0.124
-334.260	552.662	-0.095	0.227
-333.245	20.879	0.311	0.251
-332.231	-6.010	-0.075	-0.051
-331.216	58.912	0.247	-0.242
-330.202	-52.043	0.348	-0.161
-329.187	-200.000	0.000	0.108
-328.172	-200.000	0.006	0.165
-327.158	120.023	0.063	0.077
-326.143	-110.311	-0.137	0.028
-325.129	-78.037	0.040	-0.014
-324.114	-84.078	0.151	-0.048
-323.099	-75.084	0.345	-0.123
-322.085	207.435	0.254	0.393
-321.070	-2.065	-0.392	0.273
-320.056	-50.716	-0.217	0.102
-319.041	-10.140	0.189	-0.125
-318.026	-200.000	0.037	-0.461
-317.012	800.000	0.025	0.088
-315.997	143.758	0.014	-0.018
-314.983	800.000	0.067	0.226
-313.968	-200.000	0.030	-0.164
-312.953	-41.307	0.344	0.176
-311.939	113.166	-0.183	0.221
-310.924	-97.353	-0.107	0.028
-309.910	597.783	0.201	0.495
-308.895	-109.908	0.285	-0.059
-307.880	614.142	0.010	-0.025
-306.866	491.665	0.136	-0.309
-305.851	81.737	0.157	-0.169
-304.837	800.000	0.058	0.233
-303.822	800.000	-0.115	-0.477
-302.807	-32.906	-0.145	-0.080
-301.793	-200.000	0.019	0.296
-300.778	565.810	0.194	0.468
-299.764	261.799	-0.157	-0.270
-298.749	-16.346	-0.041	0.026
-297.735	173.829	-0.147	-0.210
-296.720	-123.819	-0.155	-0.024
-295.705	-200.000	-0.039	-0.302
-294.691	391.816	0.127	-0.263
-293.676	618.710	0.064	0.160
-292.662	-106.713	0.405	-0.089
-291.647	542.316	0.126	-0.298
-290.632	-109.153	-0.041	-0.009
-289.618	8.620	-0.044	0.033
-288.603	-70.439	0.259	-0.097
-287.589	6.771	-0.162	0.119
-286.574	264.388	0.120	0.207
-285.559	-76.516	-0.034	0.012
-284.545	-200.000	0.046	-0.243
-283.530	22.489	0.200	0.162
-282.516	-164.642	-0.295	0.013
-281.501	-116.435	-0.153	-0.028
-280.486	349.672	0.091	-0.177
-279.472	201.344	0.085	-0.129
-278.457	48.564	-0.174	0.162
-277.443	-200.000	0.393	-0.000
-276.428	516.359	0.075	0.174
-275.413	-4.836	0.112	0.076
-274.399	-97.208	-0.503	-0.130
-273.384	-180.280	-0.297	-0.006
-272.370	-200.000	-0.003	-0.083
-271.355	-77.802	0.105	0.036
-270.340	-77.414	0.227	-0.078
-269.326	-29.955	0.215	0.121
-268.311	133.193	-0.026	-0.033
-267.297	-200.000	-0.084	-0.412
-266.282	247.176	-0.184	0.307
-265.267	146.846	0.122	-0.163
-264.253	-43.492	0.077	-0.039
-263.238	-30.023	0.126	-0.071
-262.224	-163.844	0.142	0.007
-261.209	-118.198	0.260	-0.046
-260.195	-44.192	-0.145	0.072
-259.180	107.613	0.192	0.226
-258.165	-110.089	-0.186	-0.039
-257.151	-9.731	0.186	-0.123
-256.136	-83.759	-0.106	-0.034
-255.122	800.000	-0.105	0.320
-254.107	77.791	-0.051	0.054
-253.092	24.535	0.054	0.045
-252.078	-162.119	0.452	-0.022
-251.063	35.421	0.209	-0.181
-250.049	14.139	-0.084	-0.065
-249.034	166.162	-0.201	-0.282
-248.019	800.000	-0.101	-0.327
-247.005	-197.010	0.008	0.000
-245.990	-143.679	0.241	-0.023
-244.976	-5.544	-0.316	0.215
-243.961	-200.000	-0.003	0.107
-242.946	-159.554	0.263	-0.014
-241.932	24.782	-0.125	0.103
-240.917	33.114	0.138	-0.119
-239.903	-62.197	-0.097	-0.040
-238.888	531.153	0.227	-0.531
-237.873	-2.987	0.289	0.200
-236.859	144.344	-0.142	0.188
-235.844	-51.277	0.389	-0.180
-234.830	42.888	0.267	-0.241
-233.815	-200.000	-0.027	-0.209
-232.800	-156.193	-0.258	0.016
-231.786	-200.000	-0.023	0.310
-230.771	800.000	-0.098	0.270
-229.757	-37.760	-0.159	0.084
-228.742	657.467	0.058	-0.149
-227.727	68.232	-0.174	0.177
-226.713	-58.870	-0.122	0.052
-225.698	17.768	-0.129	-0.102
-224.684	800.000	0.079	0.283
-223.669	800.000	0.024	0.078
-222.655	-200.000	-0.005	-0.293
-221.640	800.000	0.017	0.070
-220.625	-72.563	0.098	-0.036
-219.611	28.888	0.339	-0.284
-218.596	-141.554	0.302	0.030
-217.582	-50.201	0.155	-0.072
-216.567	-33.748	-0.259	0.141
-215.552	-125.288	0.212	0.032
-214.538	800.000	-0.013	-0.045
-213.523	106.069	-0.133	-0.156
-212.509	-11.946	-0.289	-0.187
-211.494	-34.317	0.047	0.025
-210.479	-149.490	0.054	-0.004
-209.465	-200.000	-0.001	-0.084
-208.450	10.907	0.180	-0.136
-207.436	-162.566	0.258	-0.013
-206.421	81.379	0.185	-0.198
-205.406	-200.000	-0.004	-0.018
-204.392	428.005	0.046	-0.098
-203.377	69.497	-0.191	-0.195
-202.363	148.762	0.193	0.259
-201.348	-200.000	0.014	0.162
-200.333	-200.000	0.009	-0.186
-199.319	-17.309	0.329	-0.205
-198.304	-200.000	0.011	0.064
-197.290	39.032	0.166	-0.147
-196.275	200.664	0.114	0.173
-195.260	-106.971	-0.169	-0.037
-194.246	-33.936	-0.163	0.089
-193.231	-119.948	-0.094	-0.016
-192.217	-200.000	-0.047	0.207
-191.202	-43.696	0.087	0.043
-190.187	-200.000	0.057	0.598
-189.173	95.561	0.201	0.226
-188.158	106.345	0.070	-0.082
-187.144	548.320	-0.187	-0.443
-186.129	65.227	-0.037	0.037
-185.114	-39.580	0.173	-0.090
-184.100	-200.000	-0.001	-0.038
-183.085	167.416	-0.137	-0.193
-182.071	-200.000	0.010	0.192
-181.056	-21.012	-0.206	0.125
-180.042	177.719	-0.128	0.184
-179.027	800.000	0.109	0.304
-178.012	-110.356	0.071	-0.014
-176.998	73.133	0.220	0.227
-175.983	-131.795	0.147	0.019
-174.969	-85.489	-0.129	0.040
-173.954	-28.039	-0.183	-0.105
-172.939	-24.720	0.165	-0.097
-171.925	-16.326	-0.175	0.110
-170.910	-82.422	0.253	-0.081
-169.896	-151.231	-0.268	-0.020
-168.881	-82.488	-0.356	-0.114
-167.866	-21.696	-0.096	-0.058
-166.852	21.037	-0.114	-0.091
-165.837	-13.701	-0.315	0.201
-164.823	-53.492	-0.169	-0.076
-163.808	451.333	-0.049	-0.106
-162.793	-200.000	0.020	0.329
-161.779	-200.000	0.051	0.241
-160.764	25.656	0.177	-0.146
-159.750	15.768	-0.138	0.107
-158.735	-161.722	0.225	0.011
-157.720	-128.695	-0.261	0.036
-156.706	-200.000	-0.049	0.228
-155.691	-0.227	-0.232	0.163
-154.677	-200.000	-0.066	0.304
-153.662	452.663	-0.093	0.202
-152.647	-44.529	-0.109	0.054
-151.633	-122.325	0.029	-0.005
-150.618	-165.076	-0.201	0.009
-149.604	56.442	-0.143	0.138
-148.589	69.164	-0.259	-0.263
-147.574	554.406	-0.141	0.335
-146.560	90.328	-0.243	0.268
-145.545	-44.964	-0.204	0.100
-144.531	-103.523	0.115	-0.027
-143.516	18.105	0.170	0.134
-142.502	262.511	0.224	0.383
-141.487	-20.729	0.224	-0.135
-140.472	-148.495	-0.115	0.009
-139.458	2.507	0.225	0.161
-138.443	138.662	0.096	-0.125
-137.429	11.637	-0.242	-0.183
-136.414	298.175	-0.167	0.302
-135.399	-103.026	-0.351	-0.082
-134.385	800.000	0.081	0.234
-133.370	124.405	0.059	0.073
-132.356	175.231	-0.064	0.092
-131.341	-188.764	0.287	0.003
-130.326	788.158	0.085	-0.231
-129.312	-137.646	-0.085	-0.009
-128.297	-48.560	-0.051	-0.024
-127.283	-200.000	0.002	-0.014
-126.268	382.533	0.034	-0.068
-125.253	3.350	-0.199	0.143
-124.239	-163.504	0.134	0.006
-123.224	800.000	0.051	0.185
-122.210	16.177	-0.043	0.034
-121.195	800.000	-0.062	-0.248
-120.180	-89.217	0.360	0.105
