DTS Sentinel unit serial number:	SN413079Multiplexer serial number:	ORYXHardware model number:	OX4-SRSoftware version number:	ORYX F/W v4.00 Oryx Data Collector v3.7.2.0data status	okinstallation	princeton_trtdifferential loss correction	single-endedforward channel	channel 3reverse channel	N/Adate	2019/09/18time	15:16:35forward acquisition time	60.00reverse acquisition time	0.00gamma	496.2192k internal	0.2302k external	0.2302temperature offset calibration	0.9984default loss term (dB/km)	0.3790temperature slope calibration	1.0000multiplexer offset coefficient	1.0000multiplexer slope coefficient	1.0000fibre end	0.00T internal ref (°C)	35.59T ext. ref 1 (°C)	0.75T ext. ref 2 (°C)	32.63length (m)	temperature (°C)	Stokes	anti-Stokes-747.200	-36.832	0.277	-0.151
-746.185	-155.173	-0.290	-0.019
-745.171	-115.325	0.137	0.026
-744.156	670.564	-0.132	0.347
-743.142	800.000	0.054	-0.192
-742.127	-145.324	-0.048	0.004
-741.112	128.673	-0.077	0.099
-740.098	-95.580	-0.287	-0.078
-739.083	-73.860	-0.058	-0.022
-738.069	-153.548	-0.124	0.009
-737.054	236.718	0.186	-0.314
-736.039	10.225	-0.290	0.224
-735.025	498.510	-0.057	0.135
-734.010	-100.448	-0.192	-0.048
-732.996	85.524	-0.258	-0.289
-731.981	-147.878	-0.379	0.032
-730.966	-150.460	0.201	0.016
-729.952	800.000	-0.046	-0.194
-728.937	142.885	0.383	-0.519
-727.923	43.705	-0.299	-0.279
-726.908	115.064	-0.115	-0.143
-725.894	234.322	-0.155	0.261
-724.879	-135.756	0.033	0.004
-723.864	-164.357	-0.188	0.009
-722.850	-31.982	-0.126	0.072
-721.835	-141.442	0.065	0.007
-720.821	-200.000	0.015	-0.119
-719.806	167.035	-0.220	-0.319
-718.791	135.665	0.090	-0.119
-717.777	-42.949	-0.401	-0.207
-716.762	-200.000	-0.020	0.169
-715.748	-39.124	0.248	0.132
-714.733	-110.975	-0.186	-0.039
-713.718	77.164	0.076	-0.082
-712.704	184.726	-0.047	0.071
-711.689	-200.000	-0.041	0.470
-710.675	511.192	-0.001	0.002
-709.660	-200.000	0.001	-0.089
-708.645	101.868	0.123	0.146
-707.631	164.843	-0.304	-0.437
-706.616	800.000	0.019	-0.063
-705.602	-57.621	-0.285	0.127
-704.587	69.352	0.126	-0.132
-703.572	-5.531	-0.151	0.106
-702.558	-97.457	0.149	-0.039
-701.543	96.159	-0.205	-0.239
-700.529	-200.000	0.042	-0.650
-699.514	-28.864	-0.202	0.118
-698.499	127.087	-0.270	-0.348
-697.485	317.369	-0.034	-0.065
-696.470	-200.000	0.013	0.167
-695.456	-200.000	0.014	0.117
-694.441	59.878	-0.136	-0.137
-693.426	-26.654	-0.169	-0.100
-692.412	502.140	0.070	-0.165
-691.397	-200.000	0.021	-0.171
-690.383	-20.506	0.263	-0.164
-689.368	-200.000	0.037	-0.377
-688.354	-103.344	0.140	0.034
-687.339	800.000	-0.045	0.184
-686.324	224.258	0.122	0.201
-685.310	350.987	-0.056	0.113
-684.295	-200.000	-0.013	-0.224
-683.281	-200.000	-0.009	-0.043
-682.266	800.000	-0.044	-0.135
-681.251	-85.423	0.110	0.035
-680.237	59.739	-0.219	0.220
-679.222	-85.411	0.222	0.070
-678.208	103.738	0.125	0.149
-677.193	-46.248	-0.277	0.138
-676.178	107.444	-0.184	0.223
-675.164	-28.017	-0.177	0.104
-674.149	71.951	-0.117	-0.123
-673.135	39.707	-0.048	-0.044
-672.120	800.000	-0.068	0.216
-671.105	0.635	-0.241	-0.175
-670.091	-130.175	0.112	-0.015
-669.076	138.141	0.159	-0.212
-668.062	9.487	-0.218	0.168
-667.047	-149.171	-0.276	-0.022
-666.032	106.767	-0.138	-0.166
-665.018	6.697	0.205	-0.155
-664.003	27.697	-0.371	-0.317
-662.989	-127.154	0.090	0.013
-661.974	-200.000	0.003	0.089
-660.959	-108.563	-0.243	-0.053
-659.945	79.563	0.140	0.153
-658.930	183.897	0.264	-0.397
-657.916	599.339	0.101	-0.253
-656.901	-112.770	-0.118	0.024
-655.886	-167.424	0.201	-0.008
-654.872	-200.000	0.007	-0.266
-653.857	-91.835	-0.298	-0.086
-652.843	238.623	-0.157	0.265
-651.828	376.005	-0.095	-0.198
-650.814	-200.000	-0.043	-0.310
-649.799	-69.642	0.117	0.046
-648.784	-87.728	-0.134	-0.041
-647.770	-143.188	-0.100	0.010
-646.755	-46.728	-0.243	-0.121
-645.741	412.032	-0.082	-0.176
-644.726	800.000	0.078	-0.244
-643.711	60.116	-0.046	-0.047
-642.697	-39.501	0.029	0.015
-641.682	-78.730	0.529	0.183
-640.668	-57.484	-0.274	0.122
-639.653	-106.532	0.181	0.041
-638.638	-132.033	0.231	0.031
-637.624	-149.685	-0.215	0.017
-636.609	153.284	0.091	0.127
-635.595	-200.000	-0.008	-0.116
-634.580	520.754	-0.087	-0.208
-633.565	-57.818	-0.345	-0.153
-632.551	800.000	-0.100	-0.411
-631.536	-66.549	0.201	-0.081
-630.522	-200.000	0.042	0.244
-629.507	16.354	0.128	-0.103
-628.492	-126.372	0.159	0.024
-627.478	-20.087	0.204	0.128
-626.463	-185.969	0.209	-0.003
-625.449	161.617	-0.144	0.204
-624.434	-200.000	0.010	-0.268
-623.419	-169.175	0.075	0.003
-622.405	800.000	-0.065	-0.231
-621.390	53.514	0.224	-0.218
-620.376	166.488	0.137	-0.198
-619.361	-200.000	0.011	-0.096
-618.346	279.443	-0.141	-0.256
-617.332	-83.185	-0.256	-0.084
-616.317	118.536	-0.063	-0.079
-615.303	-83.325	0.083	0.027
-614.288	-89.232	-0.242	0.072
-613.273	-200.000	-0.008	0.164
-612.259	39.521	-0.109	0.099
-611.244	-176.532	0.279	-0.007
-610.230	800.000	-0.017	-0.053
-609.215	670.972	-0.169	0.443
-608.201	348.234	0.091	0.181
-607.186	-200.000	0.022	-0.207
-606.171	67.293	-0.281	-0.291
-605.157	76.108	-0.226	0.243
-604.142	328.491	0.110	-0.215
-603.128	-200.000	0.017	-0.249
-602.113	-60.615	0.119	0.051
-601.098	84.085	-0.158	-0.175
-600.084	252.325	0.011	0.019
-599.069	-124.556	-0.042	0.007
-598.055	800.000	0.082	0.285
-597.040	-48.289	-0.113	0.055
-596.025	800.000	-0.056	0.228
-595.011	-95.921	-0.212	-0.057
-593.996	-6.142	-0.077	-0.054
-592.982	800.000	0.086	-0.304
-591.967	481.752	0.073	0.169
-590.952	-75.173	-0.046	0.017
-589.938	-200.000	0.019	0.165
-588.923	-5.050	-0.382	-0.266
-587.909	-73.864	-0.144	-0.053
-586.894	-200.000	0.022	0.135
-585.879	800.000	0.056	-0.161
-584.865	-176.036	-0.204	0.005
-583.850	199.215	0.040	-0.063
-582.836	800.000	-0.055	0.173
-581.821	424.890	0.148	0.323
-580.806	-71.378	-0.230	-0.087
-579.792	529.255	-0.077	0.183
-578.777	-79.468	0.019	-0.006
-577.763	800.000	0.039	0.170
-576.748	204.384	0.108	0.169
-575.733	6.146	0.148	-0.111
-574.719	99.374	-0.142	0.166
-573.704	74.709	-0.135	-0.144
-572.690	-164.626	0.156	-0.007
-571.675	177.999	0.133	-0.196
-570.661	-200.000	-0.005	-0.048
-569.646	-24.808	-0.161	-0.097
-568.631	360.991	-0.043	-0.087
-567.617	112.359	-0.050	0.062
-566.602	-118.727	0.198	-0.035
-565.588	278.323	0.077	0.139
-564.573	333.798	-0.162	-0.317
-563.558	-33.047	-0.341	-0.191
-562.544	-92.541	-0.182	-0.052
-561.529	-141.089	0.283	0.029
-560.515	426.858	0.047	-0.103
-559.500	800.000	-0.045	-0.159
-558.485	60.735	-0.255	-0.256
-557.471	39.611	-0.095	-0.086
-556.456	-82.576	-0.183	-0.060
-555.442	-200.000	-0.015	-0.310
-554.427	14.620	0.235	0.185
-553.412	-200.000	0.038	-0.178
-552.398	-200.000	0.006	-0.052
-551.383	-200.000	-0.091	0.538
-550.369	575.024	0.092	0.226
-549.354	24.132	0.103	0.086
-548.339	800.000	0.112	-0.339
-547.325	-59.280	0.165	0.072
-546.310	-61.893	-0.279	-0.118
-545.296	-123.185	-0.360	-0.058
-544.281	-200.000	-0.004	0.063
-543.266	-75.794	-0.198	0.071
-542.252	-69.028	-0.171	-0.067
-541.237	-131.060	0.041	-0.006
-540.223	-200.000	0.079	0.473
-539.208	800.000	0.050	0.215
-538.193	-53.188	-0.024	-0.011
-537.179	-113.209	-0.286	-0.057
-536.164	800.000	0.043	0.164
-535.150	-150.882	-0.204	-0.016
-534.135	800.000	0.093	0.265
-533.121	-36.760	-0.133	-0.072
-532.106	-58.592	0.358	0.157
-531.091	-60.669	0.339	0.145
-530.077	-69.252	-0.258	-0.100
-529.062	737.773	-0.058	0.156
-528.048	-61.765	0.139	-0.059
-527.033	-12.010	0.211	-0.140
-526.018	-172.492	0.191	-0.006
-525.004	-2.928	-0.173	0.122
-523.989	-67.979	0.074	-0.029
-522.975	-200.000	-0.062	0.342
-521.960	156.262	0.071	-0.098
-520.945	-139.286	0.153	0.017
-519.931	-24.525	0.214	0.129
-518.916	174.465	-0.135	0.198
-517.902	26.246	0.345	0.291
-516.887	51.322	-0.246	0.236
-515.872	-103.592	-0.239	0.057
-514.858	-174.726	0.072	0.002
-513.843	800.000	-0.108	-0.399
-512.829	348.743	-0.127	-0.253
-511.814	182.976	-0.114	-0.170
-510.799	-200.000	0.004	-0.172
-509.785	800.000	0.087	0.377
-508.770	-200.000	-0.021	0.123
-507.756	163.818	-0.120	0.171
-506.741	85.784	-0.022	0.024
-505.726	-30.481	0.239	0.137
-504.712	-200.000	0.008	-0.108
-503.697	-200.000	-0.018	-0.083
-502.683	800.000	0.039	-0.135
-501.668	-135.916	-0.431	-0.051
-500.653	-200.000	0.005	-0.045
-499.639	-139.188	0.186	-0.020
-498.624	40.307	-0.011	-0.010
-497.610	-200.000	-0.066	-0.294
-496.595	800.000	0.099	0.288
-495.581	143.593	0.163	0.219
-494.566	-200.000	-0.016	-0.229
-493.551	542.145	-0.026	0.061
-492.537	48.190	-0.111	0.105
-491.522	-51.414	-0.304	-0.144
-490.508	78.104	0.097	-0.104
-489.493	-200.000	-0.014	0.298
-488.478	-200.000	0.047	-0.333
-487.464	214.337	0.080	0.127
-486.449	-200.000	0.054	0.275
-485.435	-54.900	0.424	-0.193
-484.420	40.305	-0.027	-0.024
-483.405	-68.821	-0.309	0.120
-482.391	-114.003	-0.169	-0.033
-481.376	-140.908	0.073	-0.008
-480.362	81.425	0.113	-0.123
-479.347	-80.065	-0.014	-0.005
-478.332	-57.969	-0.159	0.070
-477.318	288.502	-0.135	-0.247
-476.303	229.678	0.215	-0.353
-475.289	38.630	-0.161	-0.145
-474.274	24.855	-0.312	-0.261
-473.259	-88.396	0.041	-0.012
-472.245	-200.000	0.163	-0.001
-471.230	-88.065	-0.168	0.051
-470.216	-200.000	-0.005	-0.204
-469.201	-23.525	0.226	-0.137
-468.186	-102.949	0.153	-0.037
-467.172	-118.069	0.441	-0.079
-466.157	4.817	0.102	0.075
-465.143	302.678	-0.087	0.162
-464.128	-200.000	0.229	-0.000
-463.113	-140.372	0.512	0.054
-462.099	-200.000	-0.091	0.508
-461.084	390.780	0.139	0.291
-460.070	-200.000	0.014	-0.323
-459.055	-131.654	0.100	-0.013
-458.040	64.451	0.264	0.268
-457.026	-91.460	0.302	-0.087
-456.011	800.000	-0.081	-0.332
-454.997	800.000	-0.031	0.095
-453.982	-200.000	-0.021	-0.141
-452.968	-85.651	0.674	0.211
-451.953	-87.933	-0.080	-0.024
-450.938	465.751	0.017	0.039
-449.924	26.517	-0.166	0.140
-448.909	-45.734	0.065	-0.033
-447.895	-11.146	0.102	0.068
-446.880	19.766	0.161	-0.131
-445.865	-200.000	-0.009	0.122
-444.851	570.097	0.122	0.298
-443.836	-57.200	-0.231	0.102
-442.822	281.529	-0.009	0.017
-441.807	-56.732	0.179	-0.080
-440.792	-62.225	0.268	-0.113
-439.778	800.000	0.032	0.115
-438.763	-22.396	-0.142	0.086
-437.749	682.328	0.141	-0.369
-436.734	80.217	0.285	-0.309
-435.719	212.531	-0.026	0.041
-434.705	762.348	-0.167	0.455
-433.690	800.000	0.107	-0.357
-432.676	-7.836	0.131	0.089
-431.661	-99.591	-0.152	-0.038
-430.646	199.706	-0.029	-0.044
-429.632	-82.548	-0.314	-0.103
-428.617	-110.943	0.078	0.016
-427.603	598.805	-0.073	-0.181
-426.588	-200.000	-0.010	0.049
-425.573	-11.211	0.089	0.059
-424.559	261.766	0.104	-0.182
-423.544	45.456	-0.035	-0.032
-422.530	800.000	0.058	0.164
-421.515	-77.227	-0.204	0.071
-420.500	447.144	-0.043	-0.095
-419.486	49.898	0.216	-0.205
-418.471	180.832	-0.132	0.196
-417.457	400.395	0.023	0.049
-416.442	224.084	-0.065	-0.106
-415.428	174.412	0.080	-0.116
-414.413	688.205	-0.141	-0.372
-413.398	-200.000	0.030	0.178
-412.384	680.644	0.014	0.037
-411.369	499.964	0.217	0.504
-410.355	-200.000	-0.068	0.314
-409.340	416.322	-0.116	-0.248
-408.325	-136.527	0.240	-0.028
-407.311	101.480	0.142	-0.167
-406.296	-200.000	0.003	-0.044
-405.282	-173.739	0.268	-0.008
-404.267	-200.000	-0.039	-0.274
-403.252	-200.000	-0.006	-0.178
-402.238	-46.942	-0.196	-0.096
-401.223	96.848	0.089	-0.103
-400.209	800.000	0.103	-0.288
-399.194	800.000	0.009	0.028
-398.179	-47.895	-0.097	0.047
-397.165	-149.752	-0.309	-0.024
-396.150	-66.549	-0.422	-0.168
-395.136	-38.413	0.096	0.051
-394.121	180.953	-0.228	-0.337
-393.106	-200.000	-0.019	-0.285
-392.092	121.808	-0.212	0.266
-391.077	-186.632	0.241	-0.003
-390.063	44.766	-0.231	0.214
-389.048	800.000	-0.068	-0.194
-388.033	13.405	0.308	-0.240
-387.019	-200.000	0.059	-0.399
-386.004	292.640	0.218	-0.400
-384.990	800.000	-0.108	0.385
-383.975	800.000	0.041	0.150
-382.960	-5.532	0.231	0.159
-381.946	224.168	-0.146	0.236
-380.931	281.463	-0.161	-0.290
-379.917	664.107	0.030	-0.077
-378.902	-131.709	0.118	-0.016
-377.888	-4.298	-0.328	0.228
-376.873	140.362	-0.094	0.124
-375.858	-89.922	-0.135	-0.040
-374.844	-200.000	0.071	0.370
-373.829	96.945	0.355	0.408
-372.815	-122.903	0.156	0.025
-371.800	800.000	-0.026	0.112
-370.785	129.137	-0.078	0.100
-369.771	800.000	-0.046	0.153
-368.756	132.629	-0.063	0.082
-367.742	318.554	0.076	0.145
-366.727	88.976	0.167	-0.187
-365.712	215.358	-0.257	-0.410
-364.698	800.000	0.068	-0.239
-363.683	-200.000	-0.001	-0.178
-362.669	-200.000	0.008	-0.138
-361.654	202.112	-0.048	0.075
-360.639	19.518	0.135	0.109
-359.625	-122.617	0.212	0.034
-358.610	97.451	-0.056	0.064
-357.596	-71.266	0.130	-0.049
-356.581	373.563	-0.154	-0.315
-355.566	20.961	-0.161	0.131
-354.552	-200.000	0.005	0.132
-353.537	33.646	-0.078	0.068
-352.523	-177.619	-0.200	0.005
-351.508	-148.979	-0.162	-0.013
-350.493	203.945	0.160	0.249
-349.479	800.000	-0.033	0.126
-348.464	110.861	0.011	-0.013
-347.450	-200.000	-0.031	0.285
-346.435	390.080	-0.106	0.220
-345.420	-86.883	0.457	0.140
-344.406	-92.790	0.467	0.131
-343.391	-200.000	0.058	-0.329
-342.377	-11.985	0.072	-0.047
-341.362	92.741	0.098	0.112
-340.348	280.811	0.098	0.176
-339.333	97.346	0.202	0.232
-338.318	-33.076	-0.116	0.065
-337.304	-200.000	-0.001	0.388
-336.289	167.374	-0.050	0.071
-335.275	-200.000	-0.014	0.119
-334.260	800.000	0.067	0.289
-333.245	-160.021	-0.142	-0.008
-332.231	-200.000	-0.024	0.110
-331.216	-64.202	-0.185	-0.075
-330.202	110.818	0.061	-0.074
-329.187	90.045	-0.216	-0.242
-328.172	-126.850	-0.188	-0.028
-327.158	800.000	0.036	-0.120
-326.143	-200.000	0.001	0.199
-325.129	-18.256	-0.144	0.090
-324.114	13.347	0.212	-0.165
-323.099	-11.936	0.291	0.191
-322.085	-45.899	0.192	0.095
-321.070	-47.166	-0.107	0.052
-320.056	-200.000	0.011	0.068
-319.041	-12.935	0.071	-0.047
-318.026	-192.172	0.203	-0.002
-317.012	79.833	-0.219	-0.236
-315.997	-200.000	-0.008	-0.088
-314.983	94.918	0.214	0.245
-313.968	-200.000	-0.087	0.444
-312.953	-48.375	0.274	0.132
-311.939	-200.000	-0.009	-0.152
-310.924	-4.405	-0.224	-0.155
-309.910	-151.687	-0.153	0.011
-308.895	39.768	-0.193	-0.173
-307.880	43.516	-0.281	-0.257
-306.866	-137.743	0.383	0.043
-305.851	-200.000	0.015	0.210
-304.837	-15.908	-0.107	-0.068
-303.822	136.012	-0.073	-0.096
-302.807	342.587	0.192	-0.376
-301.793	-16.004	-0.165	0.105
-300.778	-179.525	0.170	-0.004
-299.764	308.771	0.102	0.191
-298.749	151.592	-0.160	-0.218
-297.735	-47.152	0.064	-0.031
-296.720	64.097	0.194	0.195
-295.705	136.766	0.335	0.438
-294.691	242.607	0.062	-0.105
-293.676	268.233	0.141	0.247
-292.662	-200.000	0.008	-0.055
-291.647	-15.706	-0.215	0.137
-290.632	-200.000	-0.003	0.054
-289.618	-109.912	0.066	0.014
-288.603	15.890	-0.159	0.125
-287.589	-130.835	0.360	0.048
-286.574	-200.000	-0.014	-0.612
-285.559	-111.832	0.103	-0.021
-284.545	-18.282	0.081	-0.051
-283.530	29.825	0.013	0.011
-282.516	-87.551	0.312	-0.094
-281.501	-64.442	-0.320	0.130
-280.486	-23.143	0.246	0.148
-279.472	-67.298	-0.214	-0.084
-278.457	215.984	0.105	0.168
-277.443	800.000	0.058	0.195
-276.428	-14.245	-0.310	0.200
-275.413	-29.946	0.142	0.081
-274.399	195.042	0.247	0.375
-273.384	-180.911	-0.317	-0.006
-272.370	-80.655	-0.316	-0.105
-271.355	-55.292	0.341	-0.153
-270.340	295.029	-0.050	0.092
-269.326	77.740	0.202	0.216
-268.311	67.275	-0.139	-0.142
-267.297	1.712	0.240	-0.173
-266.282	82.984	-0.216	-0.235
-265.267	-173.491	-0.408	0.012
-264.253	278.196	0.022	-0.039
-263.238	-200.000	0.006	-0.321
-262.224	681.096	-0.046	0.119
-261.209	20.741	-0.210	0.170
-260.195	-110.865	-0.498	0.102
-259.180	5.877	0.065	0.048
-258.165	-15.192	0.285	0.183
-257.151	-200.000	-0.042	-0.187
-256.136	198.705	-0.068	-0.105
-255.122	-49.139	0.241	-0.115
-254.107	534.565	0.097	0.229
-253.092	-72.673	-0.053	-0.019
-252.078	80.152	-0.136	-0.146
-251.063	-9.216	-0.125	0.084
-250.049	-17.924	0.063	0.039
-249.034	761.292	-0.097	-0.262
-248.019	490.996	0.106	-0.243
-247.005	19.595	0.089	0.072
-245.990	50.697	0.036	-0.034
-244.976	-9.300	-0.276	0.184
-243.961	-200.000	-0.024	-0.149
-242.946	-1.208	0.133	-0.094
-241.932	792.966	0.019	0.052
-240.917	-167.605	0.161	-0.006
-239.903	-200.000	0.020	0.353
-238.888	499.426	-0.107	-0.246
-237.873	3.301	0.112	0.082
-236.859	7.405	0.150	-0.112
-235.844	-139.919	-0.169	0.018
-234.830	124.504	0.205	-0.257
-233.815	358.134	0.078	-0.155
-232.800	-200.000	-0.009	0.117
-231.786	4.193	-0.169	0.123
-230.771	-83.077	-0.078	-0.025
-229.757	-200.000	-0.037	0.192
-228.742	-22.155	-0.041	0.025
-227.727	-93.021	0.349	0.097
-226.713	78.489	0.026	0.027
-225.698	-28.734	-0.134	0.077
-224.684	302.109	0.140	0.259
-223.669	-17.978	-0.248	0.155
-222.655	800.000	0.077	-0.253
-221.640	171.857	-0.150	-0.215
-220.625	72.742	-0.089	0.092
-219.611	800.000	-0.048	0.141
-218.596	-0.428	-0.065	-0.046
-217.582	800.000	-0.024	-0.072
-216.567	-29.607	0.167	-0.095
-215.552	-122.479	0.077	-0.012
-214.538	256.261	-0.130	0.222
-213.523	-200.000	-0.052	0.294
-212.509	143.622	-0.280	0.372
-211.494	-157.989	-0.230	0.013
-210.479	-64.197	-0.134	0.054
-209.465	222.073	-0.035	-0.056
-208.450	-200.000	0.245	-0.001
-207.436	70.546	0.038	-0.039
-206.421	381.516	-0.068	0.139
-205.406	-37.184	-0.176	-0.094
-204.392	280.230	0.114	0.204
-203.377	800.000	-0.107	-0.382
-202.363	3.793	0.192	-0.140
-201.348	-200.000	-0.014	0.127
-200.333	-12.746	0.365	0.237
-199.319	-200.000	-0.059	-0.338
-198.304	-54.066	0.162	0.074
-197.290	12.947	0.194	-0.150
-196.275	-129.552	-0.076	0.011
-195.260	-200.000	0.031	0.225
-194.246	67.208	0.135	0.137
-193.231	-1.859	0.090	-0.063
-192.217	-200.000	0.018	0.240
-191.202	339.247	-0.210	-0.409
-190.187	-107.230	0.268	0.059
-189.173	-200.000	-0.008	0.261
-188.158	-200.000	-0.027	-0.273
-187.144	63.190	0.180	-0.180
-186.129	-51.331	-0.283	-0.132
-185.114	220.689	-0.122	0.195
-184.100	30.221	0.151	0.129
-183.085	-148.402	0.249	0.020
-182.071	24.668	0.051	0.042
-181.056	-93.264	0.118	-0.033
-180.042	-53.104	-0.167	-0.077
-179.027	-155.572	-0.303	-0.019
-178.012	50.218	0.204	-0.192
-176.998	58.580	0.110	-0.108
-175.983	277.906	-0.040	-0.071
-174.969	203.908	-0.105	-0.162
-173.954	-13.624	-0.203	-0.131
-172.939	81.502	0.077	-0.083
-171.925	-92.848	0.038	-0.011
-170.910	154.006	0.090	0.123
-169.896	227.515	-0.099	-0.161
-168.881	-170.508	-0.167	-0.006
-167.866	-28.270	-0.038	0.022
-166.852	146.526	-0.160	-0.215
-165.837	-86.996	-0.228	-0.069
-164.823	171.140	-0.070	0.100
-163.808	10.309	-0.166	-0.126
-162.793	316.282	0.050	-0.094
-161.779	63.659	-0.179	-0.179
-160.764	-28.171	-0.202	-0.116
-159.750	6.161	-0.090	0.066
-158.735	800.000	0.059	0.220
-157.720	-200.000	-0.014	-0.100
-156.706	-200.000	0.044	-0.364
-155.691	2.164	-0.062	0.045
-154.677	-200.000	-0.012	0.216
-153.662	-59.447	-0.285	0.122
-152.647	-189.754	-0.286	0.003
-151.633	197.334	-0.130	0.198
-150.618	800.000	-0.075	0.284
-149.604	10.795	0.110	0.083
-148.589	-168.607	0.227	0.009
-147.574	729.354	0.055	-0.147
-146.560	-53.654	0.092	-0.042
-145.545	94.595	-0.313	-0.354
-144.531	-127.613	0.173	-0.025
-143.516	-200.000	-0.013	-0.362
-142.502	-200.000	0.081	0.379
-141.487	498.162	0.099	0.228
-140.472	-200.000	-0.181	0.001
-139.458	58.112	-0.345	0.337
-138.443	800.000	-0.121	0.387
-137.429	489.521	0.072	0.164
-136.414	800.000	-0.041	0.138
-135.399	13.009	0.236	-0.182
-134.385	167.359	0.152	0.215
-133.370	800.000	-0.070	0.214
-132.356	66.286	-0.082	0.083
-131.341	99.649	0.192	-0.221
-130.326	-200.000	-0.006	0.164
-129.312	-29.649	-0.190	-0.108
-128.297	-200.000	-0.008	0.098
-127.283	-42.671	0.100	0.051
-126.268	314.917	-0.070	-0.131
-125.253	-31.904	-0.378	-0.211
-124.239	-200.000	-0.015	-0.240
-123.224	800.000	-0.086	0.313
-122.210	-70.087	0.421	0.159
-121.195	800.000	-0.051	-0.173
