DTS Sentinel unit serial number:	SN413079Multiplexer serial number:	ORYXHardware model number:	OX4-SRSoftware version number:	ORYX F/W v4.00 Oryx Data Collector v3.7.2.0data status	okinstallation	princeton_trtdifferential loss correction	single-endedforward channel	channel 3reverse channel	N/Adate	2019/09/13time	17:36:35forward acquisition time	60.00reverse acquisition time	0.00gamma	496.2192k internal	0.2300k external	0.2300temperature offset calibration	1.0140default loss term (dB/km)	0.3790temperature slope calibration	1.0000multiplexer offset coefficient	1.0000multiplexer slope coefficient	1.0000fibre end	0.00T internal ref (°C)	35.98T ext. ref 1 (°C)	5.39T ext. ref 2 (°C)	29.08length (m)	temperature (°C)	Stokes	anti-Stokes-747.200	-200.000	0.004	0.168
-746.185	-200.000	-0.017	0.223
-745.171	531.082	0.067	0.161
-744.156	20.860	-0.090	0.075
-743.142	-200.000	0.010	-0.224
-742.127	552.841	0.035	0.085
-741.112	570.623	-0.154	0.382
-740.098	40.743	-0.306	-0.281
-739.083	-88.627	0.280	-0.085
-738.069	-31.438	0.092	0.053
-737.054	-197.053	-0.122	0.001
-736.039	-200.000	-0.015	0.166
-735.025	129.044	0.207	0.270
-734.010	-200.000	0.023	-0.404
-732.996	68.328	-0.032	0.034
-731.981	-200.000	-0.047	-0.268
-730.966	-200.000	-0.061	-0.343
-729.952	-87.671	-0.347	0.107
-728.937	-200.000	0.042	-0.410
-727.923	330.648	0.118	-0.233
-726.908	100.192	-0.181	0.214
-725.894	-87.675	-0.350	0.108
-724.879	-74.919	-0.662	0.242
-723.864	-130.299	-0.091	0.013
-722.850	43.888	-0.077	0.071
-721.835	394.131	-0.057	0.121
-720.821	320.691	-0.167	0.324
-719.806	-200.000	-0.017	-0.075
-718.791	-200.000	0.007	-0.305
-717.777	-119.157	0.068	0.012
-716.762	-200.000	-0.003	0.077
-715.748	-115.359	-0.168	-0.032
-714.733	800.000	-0.066	-0.293
-713.718	3.617	-0.218	-0.162
-712.704	-29.333	0.166	-0.097
-711.689	800.000	-0.010	0.028
-710.675	-111.878	0.463	0.095
-709.660	163.066	0.050	-0.071
-708.645	141.734	0.207	-0.279
-707.631	-146.339	-0.119	-0.011
-706.616	-113.603	-0.202	-0.040
-705.602	-200.000	0.022	-0.194
-704.587	108.411	0.073	-0.089
-703.572	-160.503	-0.045	-0.002
-702.558	-7.850	0.398	0.274
-701.543	800.000	-0.083	-0.350
-700.529	-59.385	-0.134	-0.059
-699.514	148.026	0.140	0.192
-698.499	107.145	-0.101	0.122
-697.485	-200.000	0.020	-0.207
-696.470	-200.000	0.004	0.031
-695.456	-16.420	-0.228	0.147
-694.441	-200.000	-0.022	0.132
-693.426	-56.398	0.256	0.116
-692.412	800.000	-0.099	-0.359
-691.397	-97.601	0.127	-0.034
-690.383	-41.234	0.092	-0.048
-689.368	147.104	-0.150	0.205
-688.354	63.201	0.165	0.168
-687.339	306.408	0.062	-0.117
-686.324	-200.000	0.002	0.108
-685.310	-147.956	-0.232	0.020
-684.295	-56.570	-0.254	0.115
-683.281	-179.534	-0.384	0.009
-682.266	-32.611	0.057	0.033
-681.251	666.606	-0.153	0.403
-680.237	73.590	-0.031	0.033
-679.222	227.003	-0.142	0.234
-678.208	109.663	0.037	0.045
-677.193	-200.000	-0.007	0.163
-676.178	-68.850	-0.055	0.022
-675.164	202.349	0.106	-0.166
-674.149	205.540	-0.155	-0.244
-673.135	-15.560	-0.065	-0.042
-672.120	-200.000	-0.052	-0.406
-671.105	36.692	0.439	0.394
-670.091	646.275	-0.052	0.135
-669.076	84.943	-0.079	-0.089
-668.062	-83.098	-0.198	-0.065
-667.047	800.000	0.102	0.296
-666.032	115.109	0.118	-0.147
-665.018	-26.387	-0.225	0.134
-664.003	-46.979	-0.217	0.108
-662.989	-200.000	-0.011	-0.304
-661.974	-200.000	-0.029	-0.346
-660.959	800.000	-0.088	-0.293
-659.945	800.000	-0.017	0.059
-658.930	58.460	0.076	-0.076
-657.916	-56.872	-0.220	0.099
-656.901	281.741	-0.112	-0.204
-655.886	122.286	0.113	0.143
-654.872	-123.275	0.372	0.060
-653.857	-155.310	-0.120	0.008
-652.843	220.197	-0.124	-0.202
-651.828	-132.290	0.467	0.061
-650.814	-163.801	0.217	-0.010
-649.799	86.956	-0.100	-0.113
-648.784	-80.498	-0.481	-0.163
-647.770	-149.064	-0.237	-0.019
-646.755	800.000	0.061	-0.173
-645.741	239.268	0.028	-0.047
-644.726	800.000	-0.049	0.171
-643.711	-34.533	-0.073	-0.041
-642.697	-43.222	-0.092	0.047
-641.682	447.619	0.037	0.083
-640.668	626.627	0.075	0.192
-639.653	263.717	-0.063	0.112
-638.638	-41.488	-0.187	-0.098
-637.624	544.551	-0.125	-0.302
-636.609	-20.755	0.165	-0.103
-635.595	-7.847	0.007	0.005
-634.580	800.000	-0.069	-0.195
-633.565	184.726	-0.068	-0.102
-632.551	800.000	-0.032	-0.099
-631.536	-200.000	0.030	-0.136
-630.522	-56.890	-0.201	0.090
-629.507	-200.000	0.076	0.340
-628.492	-200.000	-0.008	-0.063
-627.478	-123.633	0.025	-0.004
-626.463	-92.189	0.024	-0.007
-625.449	-200.000	-0.004	-0.148
-624.434	73.880	-0.166	0.177
-623.419	168.962	-0.063	-0.091
-622.405	674.266	0.109	0.288
-621.390	25.282	-0.254	-0.214
-620.376	800.000	-0.097	-0.330
-619.361	-200.000	0.026	-0.303
-618.346	148.528	0.045	-0.062
-617.332	-143.202	-0.174	0.017
-616.317	5.220	0.134	-0.101
-615.303	89.534	0.197	-0.223
-614.288	444.825	0.049	-0.109
-613.273	-74.013	0.086	0.032
-612.259	156.345	-0.122	0.170
-611.244	-200.000	-0.073	0.339
-610.230	161.673	-0.219	-0.311
-609.215	-200.000	0.028	-0.346
-608.201	64.291	-0.098	0.101
-607.186	-126.181	-0.193	-0.029
-606.171	-3.566	0.167	-0.118
-605.157	526.089	0.074	-0.178
-604.142	169.373	-0.140	-0.203
-603.128	769.724	0.048	-0.133
-602.113	-139.006	-0.572	-0.063
-601.098	-12.989	0.245	-0.162
-600.084	-91.875	0.231	0.067
-599.069	-89.953	-0.132	0.039
-598.055	-62.788	0.204	0.086
-597.040	18.921	-0.224	-0.182
-596.025	800.000	-0.067	-0.287
-595.011	8.485	-0.141	-0.108
-593.996	-37.374	0.182	0.099
-592.982	-149.565	0.040	-0.003
-591.967	-139.147	0.211	0.023
-590.952	31.801	-0.100	0.087
-589.938	-200.000	-0.003	-0.072
-588.923	176.972	-0.141	0.208
-587.909	-42.060	0.222	-0.115
-586.894	-56.500	-0.227	0.102
-585.879	112.061	-0.090	0.110
-584.865	225.250	0.108	-0.176
-583.850	36.539	-0.147	0.132
-582.836	127.093	-0.097	-0.125
-581.821	800.000	0.024	0.088
-580.806	207.948	-0.120	0.191
-579.792	-47.058	-0.182	0.090
-578.777	31.585	0.220	0.192
-577.763	65.467	-0.083	-0.085
-576.748	230.281	-0.080	-0.133
-575.733	308.364	-0.188	-0.356
-574.719	0.108	0.196	-0.142
-573.704	-9.628	0.243	0.164
-572.690	-148.694	0.118	0.010
-571.675	547.837	0.032	0.078
-570.661	770.856	0.083	0.229
-569.646	-200.000	0.008	0.235
-568.631	20.177	-0.208	0.170
-567.617	-78.577	-0.171	0.059
-566.602	800.000	-0.051	-0.211
-565.588	-200.000	-0.333	0.002
-564.573	32.160	-0.154	0.135
-563.558	-170.251	0.247	-0.009
-562.544	-100.350	0.189	-0.047
-561.529	-134.228	0.280	-0.035
-560.515	-160.373	0.151	-0.008
-559.500	339.326	-0.066	-0.130
-558.485	-200.000	0.005	0.057
-557.471	153.652	-0.032	0.044
-556.456	-159.552	-0.096	0.005
-555.442	-127.481	0.214	-0.032
-554.427	-6.301	0.264	-0.182
-553.412	479.361	0.205	-0.471
-552.398	-12.034	-0.316	0.209
-551.383	-66.310	-0.186	-0.075
-550.369	-200.000	-0.028	0.204
-549.354	-200.000	0.037	0.177
-548.339	-60.253	0.149	-0.064
-547.325	800.000	0.024	0.070
-546.310	-200.000	-0.016	-0.104
-545.296	-12.768	-0.246	-0.162
-544.281	-13.599	0.211	-0.138
-543.266	800.000	-0.058	-0.235
-542.252	-70.017	0.212	-0.082
-541.237	-66.416	0.404	0.162
-540.223	800.000	-0.107	-0.404
-539.208	-97.373	-0.234	0.062
-538.193	54.923	0.108	0.106
-537.179	-112.520	0.377	-0.076
-536.164	-125.264	0.326	0.050
-535.150	-75.849	0.244	0.087
-534.135	-72.551	0.015	-0.006
-533.121	-82.643	-0.085	0.028
-532.106	800.000	0.138	-0.402
-531.091	52.510	0.248	0.240
-530.077	553.129	-0.163	-0.395
-529.062	-125.642	0.148	-0.023
-528.048	-130.233	-0.079	-0.011
-527.033	-97.720	-0.212	0.055
-526.018	135.574	-0.211	-0.278
-525.004	77.942	0.336	-0.362
-523.989	430.729	-0.189	-0.414
-522.975	16.292	-0.028	-0.023
-521.960	-200.000	0.015	0.107
-520.945	34.559	0.244	-0.216
-519.931	-91.101	0.389	-0.113
-518.916	406.702	-0.054	-0.115
-517.902	31.082	-0.059	0.052
-516.887	96.277	-0.270	-0.313
-515.872	615.663	0.146	-0.370
-514.858	130.906	-0.153	-0.199
-513.843	-5.752	-0.108	-0.075
-512.829	-116.423	0.221	0.041
-511.814	173.671	0.052	-0.075
-510.799	219.140	-0.176	0.284
-509.785	-200.000	0.000	0.341
-508.770	648.817	0.104	-0.268
-507.756	48.187	-0.085	0.080
-506.741	196.950	-0.083	-0.127
-505.726	-44.154	0.215	0.109
-504.712	-200.000	0.012	-0.220
-503.697	-200.000	-0.009	-0.221
-502.683	800.000	-0.079	0.225
-501.668	57.036	0.176	0.174
-500.653	91.663	0.049	-0.055
-499.639	-127.194	0.353	0.052
-498.624	117.156	-0.111	-0.138
-497.610	-200.000	0.041	0.258
-496.595	619.100	0.121	-0.307
-495.581	-106.751	0.068	-0.015
-494.566	-200.000	-0.047	0.225
-493.551	800.000	-0.144	0.452
-492.537	-62.578	0.149	0.062
-491.522	-200.000	-0.047	0.000
-490.508	-200.000	0.007	0.046
-489.493	-144.931	-0.107	0.010
-488.478	-200.000	0.003	-0.083
-487.464	-122.537	0.131	0.021
-486.449	-100.160	0.339	-0.085
-485.435	-200.000	0.000	0.029
-484.420	800.000	0.026	-0.112
-483.405	366.269	-0.129	-0.262
-482.391	800.000	0.084	-0.248
-481.376	-0.025	-0.282	-0.203
-480.362	-110.178	0.129	-0.027
-479.347	-137.357	0.056	0.006
-478.332	-146.952	-0.288	0.025
-477.318	182.278	0.070	-0.104
-476.303	-200.000	-0.041	0.292
-475.289	800.000	-0.053	-0.154
-474.274	800.000	-0.020	0.078
-473.259	-22.895	-0.162	0.098
-472.245	-80.776	-0.270	-0.090
-471.230	-87.102	-0.212	0.065
-470.216	61.319	-0.171	0.171
-469.201	-43.291	0.056	-0.028
-468.186	21.374	-0.093	0.076
-467.172	-25.330	-0.204	-0.122
-466.157	-200.000	0.015	0.110
-465.143	-200.000	-0.041	0.237
-464.128	-62.728	0.175	0.073
-463.113	212.999	0.124	0.198
-462.099	-19.581	-0.116	0.073
-461.084	146.314	0.203	0.275
-460.070	-200.000	-0.021	0.183
-459.055	98.204	0.207	-0.240
-458.040	18.032	0.134	0.108
-457.026	-99.450	0.384	0.098
-456.011	-54.586	-0.165	0.075
-454.997	800.000	-0.148	-0.436
-453.982	-18.007	0.251	-0.158
-452.968	67.495	0.077	-0.079
-451.953	800.000	0.087	-0.315
-450.938	-200.000	0.015	0.445
-449.924	-200.000	-0.009	0.359
-448.909	800.000	0.060	0.184
-447.895	0.211	-0.380	0.273
-446.880	43.096	-0.121	-0.111
-445.865	284.238	0.090	0.163
-444.851	47.821	-0.150	0.141
-443.836	-55.734	0.063	0.028
-442.822	8.713	0.034	0.026
-441.807	-121.155	-0.198	0.033
-440.792	295.920	-0.115	0.213
-439.778	25.996	-0.094	0.079
-438.763	800.000	-0.018	0.063
-437.749	-98.184	-0.222	-0.058
-436.734	-124.327	-0.256	-0.040
-435.719	3.254	0.108	0.079
-434.705	-182.209	-0.123	-0.002
-433.690	-200.000	-0.000	0.200
-432.676	-126.057	-0.152	-0.023
-431.661	-51.359	-0.274	0.129
-430.646	-146.425	-0.193	0.017
-429.632	-106.749	0.022	-0.005
-428.617	771.353	-0.075	0.206
-427.603	103.712	-0.099	0.117
-426.588	-116.429	0.195	-0.036
-425.573	38.635	-0.032	0.029
-424.559	58.324	-0.052	0.051
-423.544	800.000	0.109	-0.343
-422.530	800.000	-0.020	0.072
-421.515	-146.924	-0.303	0.026
-420.500	-110.594	0.312	-0.065
-419.486	-90.416	-0.123	-0.036
-418.471	-152.341	0.336	0.024
-417.457	-182.115	-0.412	-0.008
-416.442	551.464	0.018	0.045
-415.428	75.265	0.213	-0.226
-414.413	800.000	0.147	-0.505
-413.398	800.000	0.020	-0.076
-412.384	-162.810	-0.262	-0.013
-411.369	117.944	0.123	-0.152
-410.355	-7.401	-0.351	0.239
-409.340	-188.111	-0.098	-0.001
-408.325	688.936	0.098	0.259
-407.311	-40.563	0.057	-0.030
-406.296	23.663	0.064	0.053
-405.282	274.103	0.016	0.028
-404.267	680.198	-0.093	-0.245
-403.252	212.085	-0.139	-0.221
-402.238	315.330	0.155	0.295
-401.223	800.000	0.025	-0.090
-400.209	-200.000	0.008	-0.220
-399.194	-121.832	-0.281	0.047
-398.179	-16.383	0.170	0.108
-397.165	-200.000	-0.026	-0.240
-396.150	621.504	0.136	0.346
-395.136	-84.411	0.192	-0.061
-394.121	800.000	0.036	-0.113
-393.106	-58.103	0.239	0.105
-392.092	246.312	-0.065	-0.110
-391.077	-22.223	0.250	0.153
-390.063	800.000	-0.043	0.130
-389.048	-85.918	0.050	0.016
-388.033	-27.003	0.258	-0.152
-387.019	292.020	0.120	0.220
-386.004	-58.214	0.139	0.061
-384.990	-103.557	-0.139	0.033
-383.975	438.373	0.113	-0.249
-382.960	63.321	-0.131	-0.132
-381.946	-200.000	-0.025	0.191
-380.931	264.748	0.129	0.226
-379.917	-59.969	-0.329	-0.141
-378.902	26.441	0.219	0.184
-377.888	-107.177	0.061	-0.014
-376.873	142.089	0.092	-0.122
-375.858	-10.941	0.103	-0.068
-374.844	-200.000	0.021	0.262
-373.829	2.453	-0.249	0.181
-372.815	80.694	-0.141	-0.153
-371.800	76.776	-0.394	-0.420
-370.785	-43.944	-0.519	-0.262
-369.771	-159.003	-0.124	-0.007
-368.756	37.834	-0.063	0.057
-367.742	800.000	-0.051	0.158
-366.727	15.475	-0.102	0.080
-365.712	800.000	0.017	-0.061
-364.698	630.381	-0.021	0.054
-363.683	-104.641	-0.144	0.033
-362.669	22.688	-0.108	0.089
-361.654	-113.125	-0.204	0.040
-360.639	-37.489	-0.391	-0.209
-359.625	74.029	-0.104	-0.109
-358.610	-60.226	-0.144	0.062
-357.596	319.855	0.127	0.243
-356.581	31.138	-0.466	0.401
-355.566	77.713	-0.114	0.122
-354.552	-181.513	0.178	0.003
-353.537	-54.706	-0.284	0.129
-352.523	-34.999	0.322	-0.176
-351.508	-200.000	-0.018	-0.151
-350.493	137.954	0.184	0.243
-349.479	279.483	-0.093	0.167
-348.464	107.160	0.199	-0.238
-347.450	114.971	-0.356	-0.436
-346.435	321.451	-0.305	0.582
-345.420	-37.038	0.094	-0.050
-344.406	76.159	0.065	0.069
-343.391	-200.000	-0.028	0.330
-342.377	781.995	0.031	-0.086
-341.362	-102.627	-0.219	0.052
-340.348	-64.628	0.180	-0.073
-339.333	710.420	0.035	-0.093
-338.318	-121.900	-0.103	0.017
-337.304	-200.000	0.029	0.223
-336.289	800.000	-0.062	-0.242
-335.275	417.472	-0.170	0.365
-334.260	38.178	0.156	0.140
-333.245	-127.178	-0.060	-0.009
-332.231	381.035	0.074	-0.153
-331.216	8.024	0.247	-0.186
-330.202	-109.452	0.121	-0.026
-329.187	800.000	0.062	0.230
-328.172	23.436	-0.057	-0.047
-327.158	232.642	0.074	0.121
-326.143	-31.449	0.412	0.233
-325.129	-98.841	-0.171	-0.044
-324.114	-163.417	0.101	-0.005
-323.099	-47.643	-0.099	-0.048
-322.085	15.690	0.102	-0.081
-321.070	800.000	0.082	-0.244
-320.056	12.453	0.246	-0.190
-319.041	-200.000	0.023	-0.388
-318.026	800.000	0.113	-0.338
-317.012	-147.612	0.300	-0.025
-315.997	259.061	0.114	-0.197
-314.983	-7.713	0.034	0.023
-313.968	233.020	-0.078	-0.129
-312.953	-200.000	0.013	0.318
-311.939	-103.098	-0.442	0.105
-310.924	41.382	-0.152	0.138
-309.910	-64.671	0.144	-0.059
-308.895	-38.270	0.182	0.097
-307.880	9.341	0.091	-0.069
-306.866	-110.742	0.162	0.033
-305.851	-176.996	0.380	-0.010
-304.837	800.000	-0.035	0.122
-303.822	-84.604	-0.331	0.105
-302.807	-98.559	0.476	-0.122
-301.793	-34.511	0.094	0.052
-300.778	-167.505	0.105	0.004
-299.764	-200.000	0.006	-0.176
-298.749	2.108	0.229	0.165
-297.735	-121.681	-0.131	-0.022
-296.720	-200.000	-0.038	-0.248
-295.705	604.994	-0.136	0.339
-294.691	712.457	0.075	0.200
-293.676	-47.388	0.285	0.139
-292.662	800.000	-0.065	0.229
-291.647	118.529	-0.220	0.272
-290.632	-200.000	-0.030	0.151
-289.618	411.182	-0.072	-0.153
-288.603	800.000	-0.043	0.154
-287.589	39.138	-0.017	-0.015
-286.574	-78.085	-0.243	0.084
-285.559	-183.648	-0.091	-0.002
-284.545	-158.328	0.067	0.004
-283.530	-37.263	0.128	0.068
-282.516	-44.082	-0.036	-0.018
-281.501	-200.000	0.011	0.055
-280.486	268.868	-0.066	-0.117
-279.472	-107.729	0.222	0.048
-278.457	484.444	0.084	-0.191
-277.443	85.339	0.065	-0.072
-276.428	800.000	-0.075	-0.217
-275.413	-180.442	0.161	-0.003
-274.399	43.446	0.098	-0.089
-273.384	367.168	-0.056	0.114
-272.370	-200.000	-0.106	0.001
-271.355	-200.000	0.017	0.269
-270.340	-82.475	0.084	0.027
-269.326	81.470	0.239	-0.258
-268.311	136.764	-0.094	-0.122
-267.297	-103.958	-0.183	0.043
-266.282	21.707	-0.122	0.100
-265.267	-29.372	0.295	0.169
-264.253	317.695	-0.141	0.267
-263.238	-200.000	0.002	0.064
-262.224	264.671	-0.139	-0.242
-261.209	91.472	0.106	0.119
-260.195	-96.529	0.329	0.087
-259.180	609.355	0.087	-0.217
-258.165	337.412	-0.014	0.026
-257.151	800.000	0.081	0.260
-256.136	-21.640	0.145	-0.088
-255.122	-81.549	0.026	-0.008
-254.107	18.485	-0.099	-0.080
-253.092	89.361	-0.128	0.143
-252.078	-68.243	-0.283	0.110
-251.063	43.070	0.086	0.078
-250.049	-99.927	-0.120	-0.030
-249.034	-200.000	-0.028	-0.191
-248.019	-200.000	0.004	-0.122
-247.005	480.276	-0.097	-0.221
-245.990	-94.834	0.072	-0.020
-244.976	-115.873	0.200	0.037
-243.961	-200.000	0.001	0.107
-242.946	-200.000	-0.007	-0.108
-241.932	268.411	-0.177	0.310
-240.917	-3.474	-0.144	-0.100
-239.903	11.692	0.271	0.208
-238.888	-96.918	0.073	0.019
-237.873	136.719	0.119	-0.155
-236.859	31.449	-0.027	-0.023
-235.844	800.000	0.033	-0.137
-234.830	-200.000	-0.055	0.271
-233.815	800.000	0.040	0.119
-232.800	-200.000	0.018	0.203
-231.786	184.701	0.093	-0.138
-230.771	-200.000	0.057	-0.321
-229.757	-104.047	0.097	0.022
-228.742	55.367	0.146	0.141
-227.727	800.000	-0.100	-0.342
-226.713	-131.628	-0.220	-0.029
-225.698	344.693	0.055	0.107
-224.684	800.000	-0.021	0.076
-223.669	-200.000	-0.023	-0.200
-222.655	-141.980	-0.200	-0.020
-221.640	10.578	-0.246	0.187
-220.625	108.222	0.046	0.055
-219.611	20.402	0.164	-0.133
-218.596	-19.848	0.211	0.130
-217.582	-162.597	-0.206	0.010
-216.567	-98.195	-0.187	-0.048
-215.552	-200.000	-0.001	0.091
-214.538	800.000	-0.067	0.283
-213.523	-133.859	0.082	-0.010
-212.509	53.513	0.079	-0.076
-211.494	418.344	-0.063	0.136
-210.479	-32.275	-0.165	0.092
-209.465	-7.821	0.305	0.206
-208.450	800.000	0.073	-0.248
-207.436	535.051	0.114	-0.270
-206.421	800.000	0.140	-0.449
-205.406	-0.875	0.050	0.035
-204.392	800.000	0.040	0.141
-203.377	-52.327	0.116	0.054
-202.363	-27.057	0.158	-0.092
-201.348	-65.423	-0.209	0.084
-200.333	-200.000	0.034	0.181
-199.319	-119.567	0.370	0.064
-198.304	-51.103	-0.164	0.077
-197.290	4.150	0.149	0.109
-196.275	-200.000	-0.028	0.173
-195.260	-92.736	0.148	-0.042
-194.246	-129.793	-0.192	-0.026
-193.231	57.510	-0.164	0.160
-192.217	-92.581	0.015	-0.004
-191.202	800.000	0.063	0.179
-190.187	-200.000	0.022	-0.239
-189.173	142.259	0.052	-0.069
-188.158	-16.673	-0.174	0.110
-187.144	-24.558	-0.357	0.212
-186.129	-122.333	-0.353	0.058
-185.114	139.491	0.100	0.131
-184.100	440.941	0.129	0.281
-183.085	61.002	-0.233	0.231
-182.071	-36.793	0.292	0.156
-181.056	120.515	0.165	-0.205
-180.042	131.329	0.196	-0.251
-179.027	94.994	-0.037	-0.042
-178.012	337.874	0.098	0.190
-176.998	-32.608	-0.072	-0.040
-175.983	-85.646	-0.259	-0.080
-174.969	239.025	0.082	0.136
-173.954	-110.002	-0.148	-0.031
-172.939	680.305	-0.053	0.138
-171.925	501.717	0.034	0.078
-170.910	-149.853	0.090	-0.007
-169.896	-48.357	-0.211	-0.101
-168.881	94.700	0.348	0.395
-167.866	-101.488	-0.042	0.010
-166.852	313.114	-0.072	-0.135
-165.837	-166.254	0.235	-0.010
-164.823	800.000	-0.060	-0.211
-163.808	-149.338	0.171	-0.014
-162.793	104.358	0.318	-0.373
-161.779	177.212	-0.165	0.239
-160.764	-34.720	-0.272	0.148
-159.750	36.035	0.083	-0.073
-158.735	36.479	0.181	0.159
-157.720	-112.482	0.231	0.046
-156.706	-161.627	-0.179	-0.009
-155.691	491.819	0.038	0.086
-154.677	-153.683	0.215	0.015
-153.662	-200.000	0.006	0.205
-152.647	-23.934	0.109	0.065
-151.633	-35.908	0.180	-0.097
-150.618	-142.854	-0.047	-0.005
-149.604	116.881	0.098	0.120
-148.589	-33.646	-0.212	-0.116
-147.574	-75.530	-0.080	0.028
-146.560	166.254	-0.037	0.052
-145.545	-200.000	-0.000	0.340
-144.531	184.674	-0.167	0.247
-143.516	29.876	-0.327	0.277
-142.502	-24.982	0.198	0.117
-141.487	-78.403	-0.233	-0.080
-140.472	-200.000	-0.188	0.001
-139.458	800.000	0.025	0.104
-138.443	-99.122	0.236	0.059
-137.429	-64.244	0.230	-0.093
-136.414	-128.725	-0.133	-0.019
-135.399	-24.105	-0.275	-0.164
-134.385	340.064	0.032	0.061
-133.370	-200.000	0.032	-0.165
-132.356	-200.000	0.037	0.312
-131.341	-200.000	0.049	-0.284
-130.326	-127.286	0.282	-0.041
-129.312	98.861	-0.081	0.093
-128.297	-142.147	-0.166	0.016
-127.283	-45.094	-0.219	0.109
-126.268	-36.175	0.380	0.204
-125.253	-139.557	0.070	0.007
-124.239	-200.000	-0.017	0.151
-123.224	117.935	-0.137	0.168
-122.210	250.075	0.098	-0.166
-121.195	800.000	-0.071	0.226
