DTS Sentinel unit serial number:	SN413079Multiplexer serial number:	ORYXHardware model number:	OX4-SRSoftware version number:	ORYX F/W v4.00 Oryx Data Collector v3.7.2.0data status	okinstallation	princeton_trtdifferential loss correction	single-endedforward channel	channel 3reverse channel	N/Adate	2019/09/18time	17:28:35forward acquisition time	60.00reverse acquisition time	0.00gamma	496.2192k internal	0.2291k external	0.2291temperature offset calibration	0.9991default loss term (dB/km)	0.3790temperature slope calibration	1.0000multiplexer offset coefficient	1.0000multiplexer slope coefficient	1.0000fibre end	0.00T internal ref (°C)	40.08T ext. ref 1 (°C)	0.92T ext. ref 2 (°C)	36.71length (m)	temperature (°C)	Stokes	anti-Stokes-747.200	-200.000	-0.014	0.354
-746.185	715.576	0.108	0.293
-745.171	696.980	0.167	0.450
-744.156	-200.000	-0.070	0.331
-743.142	59.429	-0.105	-0.106
-742.127	181.017	0.099	0.149
-741.112	-6.763	-0.343	0.239
-740.098	-200.000	-0.044	0.347
-739.083	-186.079	-0.141	-0.002
-738.069	-133.822	-0.208	0.027
-737.054	-21.002	0.180	0.113
-736.039	145.516	-0.343	-0.470
-735.025	-156.601	0.194	-0.012
-734.010	582.389	-0.053	0.134
-732.996	167.549	0.072	-0.105
-731.981	-53.085	-0.145	0.068
-730.966	800.000	-0.030	-0.124
-729.952	-41.397	-0.352	-0.186
-728.937	800.000	-0.034	0.118
-727.923	496.423	0.133	-0.314
-726.908	800.000	-0.030	0.095
-725.894	587.074	0.100	-0.253
-724.879	-187.474	0.241	-0.003
-723.864	-200.000	-0.037	-0.175
-722.850	800.000	-0.074	-0.223
-721.835	-147.385	0.027	-0.002
-720.821	444.271	-0.214	0.480
-719.806	-113.164	-0.194	-0.039
-718.791	-154.327	0.077	0.005
-717.777	-69.804	0.070	-0.027
-716.762	87.543	-0.226	0.256
-715.748	252.577	0.143	0.249
-714.733	-200.000	-0.016	0.254
-713.718	44.942	-0.366	-0.345
-712.704	175.026	-0.117	-0.173
-711.689	39.374	0.300	-0.275
-710.675	-1.469	-0.230	-0.166
-709.660	-200.000	-0.003	0.118
-708.645	-200.000	-0.022	0.203
-707.631	-2.084	-0.147	0.105
-706.616	800.000	0.100	-0.333
-705.602	-200.000	0.036	-0.279
-704.587	-65.172	-0.474	-0.195
-703.572	145.902	0.113	-0.156
-702.558	-200.000	-0.074	-0.395
-701.543	-200.000	-0.012	-0.058
-700.529	800.000	-0.036	-0.131
-699.514	-85.018	0.212	0.068
-698.499	-118.706	-0.198	0.036
-697.485	83.343	-0.376	-0.418
-696.470	-65.627	-0.051	0.021
-695.456	-153.762	0.175	0.012
-694.441	10.573	0.202	0.158
-693.426	223.481	-0.046	-0.075
-692.412	-40.841	-0.071	-0.038
-691.397	78.021	0.203	-0.221
-690.383	-73.686	-0.097	-0.036
-689.368	6.524	-0.154	-0.117
-688.354	-40.567	0.187	0.099
-687.339	-200.000	-0.009	0.151
-686.324	181.469	0.073	-0.110
-685.310	-34.630	-0.329	-0.184
-684.295	-200.000	-0.012	0.157
-683.281	800.000	-0.011	-0.040
-682.266	176.157	-0.102	0.152
-681.251	360.773	0.156	0.319
-680.237	-25.986	-0.183	-0.110
-679.222	99.100	0.179	-0.212
-678.208	-88.790	-0.103	0.031
-677.193	-87.141	-0.152	0.047
-676.178	67.997	0.172	-0.179
-675.164	53.689	0.086	0.084
-674.149	173.632	0.085	0.125
-673.135	36.701	0.161	-0.145
-672.120	-79.357	0.214	-0.074
-671.105	-200.000	0.054	0.246
-670.091	-175.807	-0.251	-0.007
-669.076	800.000	0.106	-0.358
-668.062	227.863	-0.056	0.093
-667.047	-200.000	0.003	0.024
-666.032	-68.609	0.142	-0.056
-665.018	322.493	-0.111	-0.215
-664.003	-143.412	0.116	-0.011
-662.989	-200.000	0.036	-0.245
-661.974	10.365	-0.086	0.067
-660.959	800.000	-0.055	0.156
-659.945	429.233	0.178	-0.393
-658.930	-36.373	0.170	-0.094
-657.916	-44.613	0.151	0.077
-656.901	73.517	0.097	0.103
-655.886	167.868	0.093	-0.135
-654.872	52.836	-0.287	0.280
-653.857	-200.000	-0.052	-0.236
-652.843	-101.927	-0.105	0.026
-651.828	-122.376	0.302	-0.050
-650.814	-158.385	0.080	-0.005
-649.799	-200.000	-0.035	0.202
-648.784	-92.996	-0.161	-0.046
-647.770	-123.537	-0.493	-0.080
-646.755	118.040	-0.057	0.071
-645.741	-200.000	0.007	0.119
-644.726	-200.000	-0.013	-0.065
-643.711	140.938	0.238	0.321
-642.697	19.531	-0.213	-0.175
-641.682	800.000	0.095	0.313
-640.668	345.201	-0.126	-0.253
-639.653	216.723	-0.103	-0.167
-638.638	183.181	0.111	-0.167
-637.624	800.000	-0.025	-0.081
-636.609	136.080	0.172	0.229
-635.595	-60.181	-0.262	0.114
-634.580	-200.000	-0.014	0.211
-633.565	-200.000	-0.022	-0.221
-632.551	-200.000	-0.004	0.177
-631.536	-200.000	-0.000	0.302
-630.522	-16.517	-0.074	0.048
-629.507	-149.597	0.254	0.020
-628.492	-116.595	-0.330	0.062
-627.478	-195.854	0.148	-0.001
-626.463	-138.138	-0.222	-0.025
-625.449	800.000	0.018	0.053
-624.434	56.931	-0.211	-0.210
-623.419	-34.606	-0.281	-0.156
-622.405	-68.180	0.071	0.028
-621.390	149.858	0.196	-0.271
-620.376	170.387	0.140	0.204
-619.361	293.229	0.092	-0.171
-618.346	800.000	-0.030	0.121
-617.332	-13.698	-0.150	-0.099
-616.317	89.794	-0.096	-0.109
-615.303	-117.490	0.241	0.044
-614.288	-46.029	-0.105	0.052
-613.273	800.000	-0.015	0.044
-612.259	-57.990	0.245	0.109
-611.244	-200.000	-0.019	0.228
-610.230	87.249	0.156	0.175
-609.215	-82.848	-0.259	0.085
-608.201	183.655	-0.142	-0.214
-607.186	-199.938	-0.212	-0.001
-606.171	-200.000	0.007	-0.181
-605.157	163.377	-0.103	0.148
-604.142	122.339	-0.151	0.193
-603.128	-145.248	-0.025	0.002
-602.113	538.927	0.041	-0.099
-601.098	-170.833	-0.086	-0.003
-600.084	-200.000	0.013	-0.254
-599.069	89.185	-0.127	-0.145
-598.055	420.830	0.076	0.166
-597.040	-21.964	-0.405	-0.251
-596.025	120.854	-0.153	-0.194
-595.011	-28.710	-0.120	-0.070
-593.996	-21.929	0.261	-0.161
-592.982	800.000	0.030	-0.109
-591.967	800.000	0.038	0.161
-590.952	-129.929	0.337	0.047
-589.938	800.000	-0.029	-0.093
-588.923	155.681	0.111	-0.156
-587.909	-105.160	0.163	-0.038
-586.894	212.705	0.043	-0.070
-585.879	-1.093	0.107	-0.077
-584.865	800.000	0.090	-0.277
-583.850	-200.000	0.025	-0.181
-582.836	195.604	0.052	0.080
-581.821	-46.812	-0.089	-0.044
-580.806	11.109	0.277	-0.216
-579.792	12.142	0.109	0.085
-578.777	-107.049	0.129	-0.029
-577.763	102.012	0.180	0.214
-576.748	-200.000	-0.043	-0.269
-575.733	-8.624	-0.286	0.195
-574.719	25.297	0.227	-0.192
-573.704	-120.285	0.239	-0.042
-572.690	-105.244	-0.381	0.088
-571.675	281.131	0.086	-0.157
-570.661	99.282	-0.241	0.283
-569.646	702.675	0.078	-0.210
-568.631	-148.950	-0.248	-0.020
-567.617	544.033	-0.147	-0.356
-566.602	10.934	0.067	0.052
-565.588	158.689	-0.089	0.126
-564.573	-47.706	-0.112	0.055
-563.558	524.594	0.127	-0.304
-562.544	377.296	0.113	0.236
-561.529	121.068	0.049	-0.061
-560.515	-110.064	0.333	0.071
-559.500	30.804	-0.192	-0.167
-558.485	174.812	0.062	0.092
-557.471	-144.375	0.337	0.032
-556.456	-64.211	0.127	0.053
-555.442	800.000	-0.069	-0.247
-554.427	-194.931	-0.279	0.002
-553.412	-122.615	-0.275	0.045
-552.398	604.472	-0.087	-0.221
-551.383	27.293	0.194	-0.166
-550.369	-17.449	0.389	-0.249
-549.354	421.532	-0.071	-0.154
-548.339	523.121	-0.084	0.201
-547.325	-69.176	0.079	-0.031
-546.310	107.263	-0.143	0.173
-545.296	-141.700	0.135	-0.014
-544.281	749.690	-0.019	-0.052
-543.266	-56.509	0.213	-0.096
-542.252	122.193	-0.197	-0.249
-541.237	800.000	0.049	-0.164
-540.223	198.593	-0.121	-0.188
-539.208	565.250	0.062	-0.153
-538.193	347.470	-0.116	-0.232
-537.179	-127.036	0.042	0.006
-536.164	44.377	-0.189	0.177
-535.150	800.000	-0.039	0.145
-534.135	322.929	0.123	-0.237
-533.121	-72.060	-0.414	0.156
-532.106	-68.441	0.185	0.073
-531.091	-200.000	-0.026	0.118
-530.077	-200.000	0.029	-0.318
-529.062	-200.000	0.029	0.253
-528.048	-200.000	-0.006	-0.094
-527.033	168.785	-0.101	-0.145
-526.018	722.834	-0.117	-0.316
-525.004	203.535	-0.102	0.160
-523.989	676.110	0.040	0.105
-522.975	3.086	0.100	-0.074
-521.960	115.783	0.119	-0.148
-520.945	-195.901	0.145	-0.001
-519.931	330.906	0.017	-0.034
-518.916	-200.000	0.023	-0.189
-517.902	-200.000	-0.039	0.349
-516.887	-58.585	0.108	0.048
-515.872	86.643	0.084	0.094
-514.858	-128.049	0.043	0.006
-513.843	65.212	-0.128	-0.132
-512.829	120.543	0.088	0.111
-511.814	-52.691	0.048	0.023
-510.799	-200.000	-0.011	-0.147
-509.785	-67.353	-0.099	0.040
-508.770	-87.356	-0.045	-0.014
-507.756	95.116	0.031	-0.035
-506.741	147.960	0.058	-0.080
-505.726	-200.000	-0.072	-0.336
-504.712	-133.612	-0.164	0.021
-503.697	400.502	-0.141	-0.300
-502.683	31.799	-0.127	0.111
-501.668	-53.860	0.296	0.137
-500.653	-200.000	-0.008	0.298
-499.639	-25.784	0.212	-0.127
-498.624	82.927	-0.126	0.138
-497.610	269.718	0.090	0.160
-496.595	631.007	-0.111	-0.286
-495.581	-145.920	-0.207	-0.019
-494.566	-81.770	-0.241	-0.080
-493.551	-200.000	0.022	-0.151
-492.537	-200.000	0.010	-0.175
-491.522	351.090	-0.141	0.283
-490.508	-83.206	0.259	-0.085
-489.493	-138.134	0.057	-0.006
-488.478	-8.948	0.129	0.087
-487.464	27.924	0.210	-0.180
-486.449	105.767	-0.037	-0.045
-485.435	248.661	0.176	0.302
-484.420	-200.000	-0.007	0.541
-483.405	-200.000	-0.032	0.212
-482.391	221.679	0.114	0.186
-481.376	-85.377	-0.458	-0.145
-480.362	800.000	0.141	-0.449
-479.347	-32.295	0.053	-0.030
-478.332	-77.269	0.394	0.139
-477.318	800.000	0.118	0.484
-476.303	800.000	-0.095	-0.293
-475.289	65.560	0.337	-0.346
-474.274	386.913	0.091	0.191
-473.259	559.081	0.095	0.232
-472.245	-133.220	-0.202	-0.026
-471.230	800.000	0.087	0.340
-470.216	-200.000	0.001	-0.144
-469.201	-90.166	0.232	0.068
-468.186	-73.633	0.402	-0.148
-467.172	22.991	-0.116	0.096
-466.157	400.047	0.071	0.151
-465.143	-58.599	0.075	-0.033
-464.128	392.534	0.072	0.152
-463.113	-131.416	-0.281	-0.038
-462.099	-200.000	0.071	-0.469
-461.084	41.775	-0.235	0.216
-460.070	-87.802	-0.220	-0.067
-459.055	352.868	0.164	0.329
-458.040	-139.027	0.153	0.017
-457.026	-122.268	-0.091	0.015
-456.011	-35.820	-0.157	-0.086
-454.997	-200.000	0.123	-0.000
-453.982	-25.395	0.300	-0.180
-452.968	-200.000	0.034	-0.260
-451.953	800.000	-0.108	0.468
-450.938	800.000	0.072	0.299
-449.924	-200.000	-0.049	-0.381
-448.909	-95.260	0.037	0.010
-447.895	-15.643	0.107	-0.069
-446.880	-58.906	-0.133	-0.058
-445.865	429.537	-0.086	0.188
-444.851	-120.339	0.199	-0.034
-443.836	-86.463	0.241	-0.075
-442.822	-66.873	-0.111	0.044
-441.807	-52.580	0.254	0.119
-440.792	-141.830	-0.197	0.020
-439.778	-49.652	0.232	-0.112
-438.763	-55.936	0.061	0.027
-437.749	119.901	0.120	0.151
-436.734	-116.383	-0.101	0.019
-435.719	-94.210	-0.145	0.040
-434.705	-144.818	-0.249	0.023
-433.690	-143.966	0.119	-0.011
-432.676	-98.392	0.129	0.033
-431.661	-194.538	0.278	-0.002
-430.646	-57.108	0.135	0.060
-429.632	800.000	-0.068	-0.281
-428.617	-50.800	0.134	0.064
-427.603	800.000	0.006	0.025
-426.588	82.132	0.098	-0.108
-425.573	-89.243	0.156	0.047
-424.559	131.622	-0.090	0.117
-423.544	-71.115	0.484	0.184
-422.530	4.402	-0.062	0.046
-421.515	-139.917	0.065	-0.007
-420.500	800.000	0.044	-0.128
-419.486	23.644	0.121	0.100
-418.471	800.000	-0.029	-0.116
-417.457	99.186	0.137	0.160
-416.442	-114.620	0.207	0.040
-415.428	177.987	0.169	0.249
-414.413	-99.531	0.150	-0.038
-413.398	-200.000	0.012	-0.210
-412.384	-64.883	-0.134	0.055
-411.369	-200.000	-0.480	0.002
-410.355	-70.638	-0.291	0.111
-409.340	506.605	-0.057	-0.134
-408.325	-36.282	-0.399	-0.218
-407.311	-200.000	-0.010	-0.086
-406.296	25.592	-0.075	-0.063
-405.282	-124.333	-0.151	-0.024
-404.267	574.715	-0.093	-0.229
-403.252	-61.118	-0.334	-0.142
-402.238	-99.784	0.072	0.018
-401.223	380.398	-0.087	0.181
-400.209	-26.597	-0.115	0.068
-399.194	-200.000	0.026	0.163
-398.179	-200.000	-0.013	0.141
-397.165	-71.369	0.228	-0.086
-396.150	800.000	-0.162	-0.478
-395.136	-154.731	0.104	-0.007
-394.121	-131.526	-0.094	-0.012
-393.106	-142.570	0.157	-0.016
-392.092	-89.636	-0.134	0.040
-391.077	-95.507	-0.222	0.060
-390.063	-95.181	0.176	-0.048
-389.048	-97.701	0.091	0.024
-388.033	-16.934	-0.120	-0.077
-387.019	-200.000	-0.005	-0.351
-386.004	-184.212	-0.109	-0.002
-384.990	425.348	-0.154	-0.334
-383.975	-42.270	-0.093	0.048
-382.960	105.292	0.008	-0.010
-381.946	168.629	-0.034	0.049
-380.931	29.262	-0.191	-0.164
-379.917	-200.000	0.006	-0.036
-378.902	-132.154	-0.308	0.040
-377.888	236.321	-0.033	0.055
-376.873	-58.204	-0.287	-0.126
-375.858	800.000	0.103	0.353
-374.844	32.046	0.084	0.073
-373.829	27.844	0.398	-0.338
-372.815	190.937	-0.118	0.179
-371.800	-71.183	-0.354	-0.134
-370.785	-115.069	-0.183	0.035
-369.771	23.886	0.303	-0.252
-368.756	-200.000	-0.266	0.000
-367.742	-64.765	0.286	-0.117
-366.727	800.000	-0.101	0.358
-365.712	-37.520	0.276	0.149
-364.698	284.241	0.070	0.127
-363.683	434.507	0.128	-0.280
-362.669	-99.742	-0.296	0.075
-361.654	18.073	0.248	-0.199
-360.639	-33.969	-0.435	-0.241
-359.625	-174.486	0.132	0.004
-358.610	-81.473	-0.201	-0.067
-357.596	800.000	0.031	-0.092
-356.581	257.652	-0.110	0.190
-355.566	254.960	0.115	0.199
-354.552	-200.000	-0.136	0.659
-353.537	-200.000	0.012	0.107
-352.523	-50.755	0.132	0.063
-351.508	-146.308	-0.337	0.030
-350.493	231.370	-0.114	0.189
-349.479	60.483	-0.192	0.192
-348.464	-105.421	-0.193	0.044
-347.450	207.042	-0.111	0.175
-346.435	22.115	-0.293	0.241
-345.420	162.702	-0.118	0.166
-344.406	778.161	-0.059	0.163
-343.391	-200.000	0.004	-0.050
-342.377	446.529	0.080	-0.177
-341.362	159.538	-0.151	0.212
-340.348	-103.075	0.289	0.069
-339.333	333.234	0.092	-0.180
-338.318	-44.676	-0.206	0.103
-337.304	366.028	0.132	0.269
-336.289	800.000	-0.114	0.395
-335.275	-116.155	0.180	0.034
-334.260	-134.483	0.362	0.045
-333.245	-134.732	-0.086	-0.011
-332.231	-83.526	0.059	-0.019
-331.216	785.545	0.025	0.069
-330.202	-124.412	0.162	-0.025
-329.187	-16.059	-0.142	0.091
-328.172	-40.576	0.329	-0.172
-327.158	-47.356	0.112	0.055
-326.143	-138.529	-0.231	-0.026
-325.129	-83.183	-0.204	-0.066
-324.114	255.509	-0.053	0.091
-323.099	189.122	0.067	0.101
-322.085	-92.458	0.094	-0.027
-321.070	310.140	-0.125	0.235
-320.056	-86.664	0.302	0.093
-319.041	-200.000	-0.019	0.194
-318.026	407.445	0.124	0.264
-317.012	-88.170	-0.126	0.038
-315.997	392.169	0.058	-0.122
-314.983	-166.621	0.235	-0.010
-313.968	121.871	-0.109	-0.137
-312.953	-103.912	-0.211	-0.050
-311.939	-200.000	0.037	0.259
-310.924	205.760	-0.099	0.155
-309.910	-128.748	0.138	-0.020
-308.895	95.764	0.156	0.179
-307.880	-128.402	-0.065	0.009
-306.866	-200.000	-0.024	-0.205
-305.851	87.936	0.037	0.041
-304.837	-200.000	-0.025	0.172
-303.822	-54.207	0.030	0.014
-302.807	200.910	0.054	-0.083
-301.793	-88.032	-0.185	-0.056
-300.778	298.191	-0.207	-0.384
-299.764	376.041	-0.082	0.168
-298.749	256.314	0.098	-0.170
-297.735	145.808	0.058	-0.078
-296.720	8.062	0.184	0.139
-295.705	-116.103	0.161	-0.030
-294.691	-90.202	0.134	0.039
-293.676	-136.378	0.124	-0.015
-292.662	-39.268	-0.327	-0.173
-291.647	3.883	0.212	0.156
-290.632	-78.168	0.114	0.039
-289.618	300.710	-0.072	0.133
-288.603	-200.000	0.022	-0.174
-287.589	-200.000	0.017	0.139
-286.574	643.900	0.057	-0.147
-285.559	-19.975	0.299	-0.186
-284.545	-81.863	0.254	0.084
-283.530	-200.000	-0.024	-0.260
-282.516	-200.000	-0.013	-0.246
-281.501	-129.827	-0.105	0.015
-280.486	126.113	-0.235	-0.298
-279.472	-152.365	-0.119	-0.009
-278.457	505.853	-0.085	0.198
-277.443	353.547	0.020	0.041
-276.428	-200.000	0.006	-0.100
-275.413	-1.349	-0.155	0.110
-274.399	45.974	0.081	-0.075
-273.384	-111.699	0.341	0.070
-272.370	294.815	0.066	-0.122
-271.355	-200.000	-0.303	-0.001
-270.340	-200.000	-0.047	-0.225
-269.326	-111.374	0.228	0.047
-268.311	352.158	-0.096	-0.190
-267.297	46.171	-0.109	0.102
-266.282	-135.231	0.252	-0.030
-265.267	17.955	-0.163	-0.130
-264.253	92.971	0.172	-0.195
-263.238	-106.062	0.239	-0.054
-262.224	-151.008	0.038	-0.003
-261.209	336.448	-0.107	0.209
-260.195	36.051	0.175	-0.155
-259.180	-124.917	-0.341	0.053
-258.165	-80.749	0.225	-0.075
-257.151	362.701	-0.185	0.372
-256.136	292.693	-0.137	-0.250
-255.122	-130.419	-0.229	-0.031
-254.107	438.197	0.074	-0.161
-253.092	-159.922	-0.318	-0.018
-252.078	-154.326	-0.067	0.005
-251.063	-119.417	0.298	-0.052
-250.049	41.998	0.155	0.141
-249.034	-164.299	-0.321	0.015
-248.019	-153.473	-0.237	-0.016
-247.005	-161.689	-0.477	0.024
-245.990	-46.658	-0.319	0.157
-244.976	-105.545	-0.029	-0.007
-243.961	-0.666	0.229	-0.163
-242.946	-200.000	-0.026	-0.271
-241.932	-116.061	-0.274	0.051
-240.917	-200.000	-0.003	0.206
-239.903	62.094	-0.110	0.110
-238.888	-27.922	0.236	0.137
-237.873	29.567	-0.064	0.055
-236.859	-130.613	-0.091	-0.012
-235.844	800.000	0.049	-0.195
-234.830	-109.903	0.235	-0.050
-233.815	224.001	-0.082	-0.132
-232.800	800.000	0.076	-0.219
-231.786	-55.563	-0.059	0.027
-230.771	-72.047	-0.265	-0.099
-229.757	27.540	0.305	-0.257
-228.742	69.549	-0.151	0.156
-227.727	98.829	-0.048	0.055
-226.713	-88.581	-0.108	0.032
-225.698	269.315	-0.140	0.247
-224.684	124.563	0.196	0.247
-223.669	-117.522	-0.162	0.029
-222.655	-51.358	0.080	-0.038
-221.640	9.658	0.265	0.201
-220.625	800.000	0.056	0.221
-219.611	-34.733	-0.114	0.063
-218.596	-200.000	0.007	-0.318
-217.582	-126.958	0.086	0.013
-216.567	-125.514	0.444	0.068
-215.552	800.000	-0.025	0.069
-214.538	-200.000	0.031	0.160
-213.523	-58.441	0.108	0.047
-212.509	640.562	-0.084	-0.215
-211.494	-44.634	0.318	0.159
-210.479	-200.000	0.032	0.401
-209.465	-200.000	-0.028	-0.138
-208.450	-24.384	0.229	0.137
-207.436	-200.000	-0.036	0.327
-206.421	-200.000	-0.017	-0.354
-205.406	152.097	0.227	0.311
-204.392	-112.844	0.323	-0.064
-203.377	-120.334	-0.290	0.049
-202.363	800.000	-0.076	-0.226
-201.348	22.550	-0.112	0.092
-200.333	791.770	-0.040	-0.111
-199.319	380.560	-0.085	0.175
-198.304	800.000	-0.134	-0.562
-197.290	271.822	0.069	0.122
-196.275	-200.000	0.010	0.276
-195.260	148.246	-0.122	0.165
-194.246	4.210	0.114	-0.083
-193.231	113.659	-0.073	0.089
-192.217	-65.380	0.139	0.056
-191.202	-63.310	0.113	0.047
-190.187	0.522	0.110	0.079
-189.173	426.215	-0.070	0.151
-188.158	5.553	-0.069	0.051
-187.144	13.592	0.257	-0.200
-186.129	-200.000	0.027	-0.134
-185.114	410.220	0.094	0.199
-184.100	-150.492	0.226	0.017
-183.085	312.199	0.130	0.244
-182.071	181.660	-0.182	0.269
-181.056	34.107	0.123	0.107
-180.042	-60.545	-0.254	-0.108
-179.027	63.128	0.045	-0.045
-178.012	81.090	0.173	-0.187
-176.998	-200.000	-0.061	0.269
-175.983	126.382	-0.065	-0.082
-174.969	-5.610	0.273	0.188
-173.954	63.594	-0.121	-0.121
-172.939	-124.080	0.138	0.022
-171.925	-200.000	-0.021	0.124
-170.910	800.000	0.083	-0.274
-169.896	-119.439	0.249	0.043
-168.881	-200.000	0.007	0.071
-167.866	-82.286	0.186	-0.061
-166.852	-77.317	0.253	-0.088
-165.837	-43.213	-0.371	-0.188
-164.823	-97.096	-0.270	0.071
-163.808	-200.000	-0.009	0.145
-162.793	-200.000	0.002	0.062
-161.779	243.206	-0.060	-0.101
-160.764	285.596	-0.130	0.235
-159.750	-31.468	0.265	0.149
-158.735	-200.000	-0.005	-0.073
-157.720	259.569	-0.053	-0.092
-156.706	-110.259	0.174	0.036
-155.691	-132.675	-0.197	0.025
-154.677	478.345	0.086	-0.196
-153.662	56.540	-0.093	-0.090
-152.647	126.169	-0.393	-0.497
-151.633	151.407	0.066	0.090
-150.618	515.811	0.246	0.576
-149.604	34.456	-0.145	-0.127
-148.589	-87.581	0.049	0.015
-147.574	117.836	-0.134	0.165
-146.560	800.000	0.041	-0.144
-145.545	-55.753	-0.112	-0.050
-144.531	92.997	0.102	-0.116
-143.516	505.909	0.051	0.119
-142.502	250.206	0.037	-0.064
-141.487	333.824	0.074	0.144
-140.472	-184.194	0.248	0.004
-139.458	404.328	0.102	-0.216
-138.443	208.034	-0.084	-0.132
-137.429	405.090	-0.065	-0.137
-136.414	486.281	0.069	0.158
-135.399	-200.000	-0.010	-0.335
-134.385	-41.458	-0.293	-0.151
-133.370	-200.000	0.013	0.217
-132.356	-74.725	0.158	0.057
-131.341	-200.000	-0.009	0.231
-130.326	-104.944	0.311	-0.071
-129.312	-65.340	0.401	0.161
-128.297	127.509	-0.225	0.286
-127.283	-200.000	-0.027	-0.125
-126.268	-1.979	0.175	-0.123
-125.253	-200.000	0.020	-0.190
-124.239	164.207	0.068	-0.096
-123.224	323.187	-0.249	0.474
-122.210	33.044	-0.072	0.062
