DTS Sentinel unit serial number:	SN413079Multiplexer serial number:	ORYXHardware model number:	OX4-SRSoftware version number:	ORYX F/W v4.00 Oryx Data Collector v3.7.2.0data status	okinstallation	princeton_trtdifferential loss correction	single-endedforward channel	channel 3reverse channel	N/Adate	2019/09/16time	20:00:35forward acquisition time	60.00reverse acquisition time	0.00gamma	496.2192k internal	0.2320k external	0.2320temperature offset calibration	0.9941default loss term (dB/km)	0.3790temperature slope calibration	1.0000multiplexer offset coefficient	1.0000multiplexer slope coefficient	1.0000fibre end	0.00T internal ref (°C)	33.39T ext. ref 1 (°C)	0.05T ext. ref 2 (°C)	26.71length (m)	temperature (°C)	Stokes	anti-Stokes-747.200	-125.022	0.239	-0.037
-746.185	800.000	-0.025	0.078
-745.171	239.831	0.124	0.209
-744.156	131.683	-0.200	0.260
-743.142	800.000	0.045	0.170
-742.127	-200.000	0.028	0.233
-741.112	800.000	-0.066	-0.217
-740.098	-129.717	-0.316	0.044
-739.083	-62.206	0.278	-0.117
-738.069	800.000	-0.116	0.429
-737.054	-40.691	-0.239	0.125
-736.039	93.739	-0.273	-0.313
-735.025	-19.953	0.149	0.093
-734.010	-159.401	-0.245	0.014
-732.996	-200.000	0.001	0.217
-731.981	22.477	-0.041	-0.034
-730.966	-45.605	0.313	0.157
-729.952	800.000	-0.079	-0.248
-728.937	-55.261	-0.200	0.091
-727.923	150.302	-0.179	0.245
-726.908	-50.592	-0.066	0.031
-725.894	-74.336	-0.128	-0.047
-724.879	-200.000	0.017	-0.310
-723.864	93.889	-0.202	-0.231
-722.850	-26.120	-0.131	-0.078
-721.835	800.000	0.011	-0.037
-720.821	114.604	-0.026	0.032
-719.806	-48.242	0.223	0.109
-718.791	-67.627	0.266	-0.105
-717.777	800.000	-0.050	-0.193
-716.762	800.000	-0.118	-0.495
-715.748	-200.000	0.017	0.117
-714.733	-125.057	0.121	-0.019
-713.718	-26.202	-0.341	-0.202
-712.704	15.999	0.374	-0.297
-711.689	293.246	0.055	0.101
-710.675	88.248	-0.149	0.167
-709.660	89.641	-0.094	0.106
-708.645	-25.629	0.125	-0.075
-707.631	-138.369	-0.251	0.028
-706.616	318.670	-0.165	0.315
-705.602	-94.400	-0.418	0.115
-704.587	-200.000	0.034	0.243
-703.572	800.000	-0.114	0.325
-702.558	-40.588	0.174	0.091
-701.543	-122.431	-0.300	0.049
-700.529	-8.612	-0.232	0.157
-699.514	113.669	0.090	0.111
-698.499	-67.192	0.131	-0.052
-697.485	187.274	-0.185	0.279
-696.470	-200.000	-0.065	0.389
-695.456	800.000	-0.050	-0.190
-694.441	-200.000	-0.004	0.528
-693.426	-149.931	0.332	0.026
-692.412	142.183	0.078	0.105
-691.397	506.666	0.146	0.342
-690.383	-200.000	0.015	-0.200
-689.368	-200.000	0.042	-0.284
-688.354	356.729	-0.096	0.193
-687.339	-18.777	-0.195	0.123
-686.324	-48.435	0.241	0.117
-685.310	27.278	-0.162	0.137
-684.295	-200.000	-0.054	0.301
-683.281	-200.000	0.025	0.168
-682.266	-200.000	-0.025	0.288
-681.251	-11.534	-0.167	0.111
-680.237	-135.097	0.540	-0.066
-679.222	-111.922	0.234	0.048
-678.208	278.386	0.076	-0.136
-677.193	-88.969	0.217	-0.065
-676.178	-86.514	-0.085	-0.026
-675.164	-177.484	-0.406	-0.010
-674.149	800.000	0.058	0.163
-673.135	65.867	-0.312	-0.319
-672.120	173.395	-0.121	-0.176
-671.105	103.269	-0.236	0.279
-670.091	-107.242	-0.217	-0.048
-669.076	80.401	0.258	-0.280
-668.062	294.773	0.158	0.292
-667.047	-6.973	-0.041	0.028
-666.032	112.298	-0.095	-0.115
-665.018	-77.868	0.064	-0.022
-664.003	419.360	-0.084	0.181
-662.989	2.439	0.453	-0.331
-661.974	-132.010	-0.172	-0.023
-660.959	-200.000	-0.047	-0.354
-659.945	-144.264	-0.135	0.013
-658.930	109.691	0.118	-0.143
-657.916	154.429	-0.054	-0.075
-656.901	19.314	0.056	-0.045
-655.886	800.000	-0.071	-0.231
-654.872	-29.197	-0.146	0.084
-653.857	27.509	-0.150	0.127
-652.843	46.164	0.081	-0.075
-651.828	-80.147	0.179	0.060
-650.814	-185.353	-0.284	-0.004
-649.799	-200.000	0.001	0.096
-648.784	199.879	-0.081	-0.125
-647.770	800.000	0.022	0.069
-646.755	-86.961	-0.398	0.122
-645.741	800.000	-0.042	-0.125
-644.726	213.928	-0.166	-0.265
-643.711	216.742	0.052	0.083
-642.697	264.142	0.256	-0.449
-641.682	18.739	-0.345	-0.278
-640.668	532.181	-0.179	-0.427
-639.653	-120.487	0.191	-0.033
-638.638	-43.504	0.092	-0.047
-637.624	579.952	-0.075	-0.186
-636.609	-200.000	0.015	0.188
-635.595	133.369	-0.152	-0.198
-634.580	326.342	-0.104	-0.200
-633.565	123.460	-0.111	0.140
-632.551	-200.000	-0.060	-0.341
-631.536	68.731	-0.021	0.021
-630.522	-122.422	-0.198	0.033
-629.507	-191.141	0.052	-0.001
-628.492	-146.435	0.215	0.019
-627.478	68.716	0.029	-0.030
-626.463	-55.597	0.099	-0.044
-625.449	-200.000	-0.045	0.332
-624.434	-13.025	-0.175	-0.115
-623.419	800.000	0.078	-0.225
-622.405	-200.000	0.020	-0.138
-621.390	-200.000	-0.006	0.025
-620.376	214.314	-0.249	-0.397
-619.361	397.531	0.070	-0.148
-618.346	58.594	-0.202	0.200
-617.332	160.235	-0.038	-0.054
-616.317	-79.210	0.158	0.054
-615.303	544.178	0.024	0.057
-614.288	259.467	-0.074	-0.129
-613.273	40.444	-0.079	-0.071
-612.259	800.000	-0.025	-0.081
-611.244	-119.647	-0.144	-0.025
-610.230	37.685	0.204	0.183
-609.215	-38.532	-0.223	0.119
-608.201	-99.745	0.488	0.123
-607.186	50.510	0.150	-0.143
-606.171	18.686	0.148	0.119
-605.157	596.250	-0.110	0.274
-604.142	-45.559	-0.360	0.179
-603.128	-108.095	-0.096	-0.021
-602.113	-44.503	-0.031	-0.016
-601.098	95.557	-0.043	-0.050
-600.084	-93.901	-0.243	-0.067
-599.069	-56.253	0.036	0.016
-598.055	146.256	0.073	0.098
-597.040	120.283	-0.108	0.134
-596.025	800.000	-0.102	-0.299
-595.011	45.203	0.078	-0.072
-593.996	-200.000	-0.018	-0.082
-592.982	702.921	0.043	0.113
-591.967	301.939	0.135	-0.251
-590.952	800.000	0.097	-0.383
-589.938	-200.000	0.020	0.172
-588.923	-42.292	-0.022	0.011
-587.909	800.000	-0.119	0.395
-586.894	29.547	-0.180	-0.154
-585.879	-35.803	0.153	-0.083
-584.865	3.546	-0.106	-0.078
-583.850	218.021	0.288	0.462
-582.836	-92.500	-0.018	0.005
-581.821	-7.840	0.386	-0.262
-580.806	-200.000	0.025	-0.334
-579.792	13.454	-0.126	-0.098
-578.777	-103.480	0.234	0.055
-577.763	42.690	-0.176	-0.161
-576.748	37.554	0.080	-0.071
-575.733	139.203	-0.062	-0.082
-574.719	-56.218	0.153	0.068
-573.704	635.344	0.065	-0.166
-572.690	311.586	-0.160	-0.302
-571.675	163.905	0.117	0.165
-570.661	299.163	-0.111	0.205
-569.646	-54.794	-0.288	-0.130
-568.631	-138.121	0.168	-0.019
-567.617	-58.039	0.211	0.092
-566.602	24.404	0.063	-0.053
-565.588	441.375	0.197	0.432
-564.573	4.584	0.139	-0.102
-563.558	800.000	-0.072	-0.289
-562.544	800.000	0.103	0.286
-561.529	-131.182	-0.116	-0.016
-560.515	360.687	0.017	-0.035
-559.500	2.969	0.146	0.106
-558.485	247.071	0.090	0.152
-557.471	-142.791	-0.409	0.040
-556.456	563.646	0.057	-0.139
-555.442	-51.732	0.176	-0.082
-554.427	94.081	0.102	0.116
-553.412	48.270	0.189	0.177
-552.398	-161.584	-0.491	0.025
-551.383	-106.376	-0.144	-0.032
-550.369	304.623	-0.012	-0.022
-549.354	-97.742	0.140	0.036
-548.339	-82.929	0.144	0.047
-547.325	-200.000	0.048	0.364
-546.310	-122.215	-0.074	0.012
-545.296	-58.433	-0.431	-0.188
-544.281	-134.984	0.168	0.020
-543.266	-26.802	-0.357	-0.210
-542.252	-200.000	0.013	-0.296
-541.237	549.419	0.136	-0.328
-540.223	199.355	-0.141	0.217
-539.208	-34.292	0.134	-0.074
-538.193	-200.000	0.022	-0.513
-537.179	222.308	-0.030	0.049
-536.164	-84.535	-0.318	0.101
-535.150	-39.022	0.253	-0.133
-534.135	-200.000	0.025	0.119
-533.121	-73.716	0.239	-0.087
-532.106	-14.630	0.072	-0.047
-531.091	47.795	0.128	-0.120
-530.077	4.320	0.068	-0.050
-529.062	116.364	0.102	-0.125
-528.048	-172.412	0.393	0.013
-527.033	-25.129	0.154	0.091
-526.018	-145.025	-0.228	0.021
-525.004	-35.353	0.146	-0.079
-523.989	-21.760	0.133	0.081
-522.975	27.151	-0.257	0.216
-521.960	800.000	0.066	-0.231
-520.945	305.391	-0.058	0.108
-519.931	-149.085	0.080	0.006
-518.916	284.235	0.081	0.146
-517.902	220.915	0.198	0.319
-516.887	-27.189	0.232	-0.135
-515.872	-200.000	0.023	0.208
-514.858	-200.000	0.033	0.389
-513.843	-1.858	-0.165	0.116
-512.829	14.032	0.070	-0.055
-511.814	-200.000	-0.004	-0.282
-510.799	26.933	-0.111	0.093
-509.785	109.823	-0.132	-0.159
-508.770	-147.272	0.264	-0.022
-507.756	-17.691	-0.173	0.109
-506.741	247.267	-0.022	0.036
-505.726	-126.834	-0.033	-0.005
-504.712	-200.000	0.046	-0.360
-503.697	-93.035	0.047	0.013
-502.683	-0.004	0.164	0.117
-501.668	-200.000	0.029	0.292
-500.653	67.670	0.280	-0.286
-499.639	781.206	-0.083	0.229
-498.624	-3.625	-0.071	0.049
-497.610	36.832	0.161	-0.142
-496.595	-91.917	0.232	-0.066
-495.581	304.920	-0.060	0.112
-494.566	-200.000	0.046	0.209
-493.551	223.824	-0.127	0.206
-492.537	-200.000	-0.034	0.222
-491.522	452.934	0.064	0.142
-490.508	-200.000	-0.016	0.318
-489.493	93.453	-0.218	0.247
-488.478	800.000	-0.030	-0.106
-487.464	496.749	-0.079	-0.181
-486.449	800.000	0.128	0.406
-485.435	79.655	-0.109	0.117
-484.420	-119.930	-0.252	0.043
-483.405	-131.087	0.517	-0.069
-482.391	-88.848	-0.163	-0.048
-481.376	44.742	0.125	0.115
-480.362	-15.502	0.096	0.061
-479.347	-200.000	0.002	-0.154
-478.332	20.516	0.261	-0.211
-477.318	-73.980	-0.311	0.113
-476.303	-200.000	0.008	-0.190
-475.289	115.801	0.292	-0.358
-474.274	800.000	-0.046	-0.150
-473.259	95.097	0.331	-0.377
-472.245	-200.000	0.019	0.177
-471.230	800.000	-0.054	-0.193
-470.216	-200.000	0.001	0.214
-469.201	-156.275	0.188	-0.012
-468.186	507.547	0.118	-0.274
-467.172	-160.847	-0.041	-0.002
-466.157	665.503	0.091	-0.235
-465.143	35.267	-0.149	0.130
-464.128	670.538	-0.049	-0.126
-463.113	-63.065	-0.086	0.036
-462.099	403.363	-0.153	0.322
-461.084	-149.694	-0.187	0.015
-460.070	-200.000	-0.023	0.200
-459.055	223.177	-0.068	0.110
-458.040	-30.219	0.211	0.120
-457.026	-131.652	-0.137	-0.018
-456.011	-200.000	0.013	-0.110
-454.997	-200.000	0.001	0.171
-453.982	-61.157	0.341	0.144
-452.968	46.801	0.112	0.104
-451.953	-109.299	0.332	-0.070
-450.938	-23.844	-0.116	-0.070
-449.924	800.000	0.040	-0.115
-448.909	-200.000	-0.029	-0.168
-447.895	-155.472	-0.116	0.007
-446.880	-24.199	-0.197	0.117
-445.865	-45.915	0.083	-0.041
-444.851	-200.000	0.011	0.389
-443.836	-92.653	0.194	0.054
-442.822	-32.191	-0.203	0.114
-441.807	352.471	0.141	0.280
-440.792	-140.042	0.322	-0.034
-439.778	800.000	0.150	-0.446
-438.763	176.190	-0.073	0.106
-437.749	170.099	-0.067	0.096
-436.734	800.000	-0.078	-0.248
-435.719	-155.347	-0.202	0.013
-434.705	233.648	-0.068	-0.112
-433.690	-200.000	0.004	-0.070
-432.676	800.000	0.085	0.301
-431.661	-98.017	0.124	-0.032
-430.646	501.421	-0.012	0.027
-429.632	-181.712	0.267	-0.005
-428.617	-186.970	-0.178	-0.002
-427.603	-200.000	-0.006	-0.109
-426.588	800.000	0.031	0.127
-425.573	248.051	0.080	0.135
-424.559	-80.900	0.300	-0.099
-423.544	-30.592	-0.050	-0.028
-422.530	-200.000	0.024	-0.247
-421.515	800.000	-0.104	0.351
-420.500	-104.272	-0.287	0.067
-419.486	50.819	0.105	0.099
-418.471	-23.565	0.188	-0.113
-417.457	-125.409	-0.303	-0.046
-416.442	-94.028	0.067	-0.018
-415.428	-21.065	-0.259	0.158
-414.413	-200.000	-0.103	-0.455
-413.398	-178.757	-0.341	0.008
-412.384	-95.699	-0.243	-0.065
-411.369	800.000	0.048	-0.162
-410.355	161.554	0.154	-0.215
-409.340	-58.255	0.123	0.054
-408.325	96.303	-0.127	0.145
-407.311	-122.665	-0.199	-0.032
-406.296	49.167	0.126	0.118
-405.282	-184.420	-0.195	0.003
-404.267	-200.000	-0.017	0.077
-403.252	-200.000	0.003	0.153
-402.238	-45.939	-0.369	0.182
-401.223	-200.000	-0.057	-0.678
-400.209	63.252	-0.159	-0.159
-399.194	-65.403	-0.172	-0.069
-398.179	-11.008	-0.251	0.165
-397.165	-96.907	-0.100	0.026
-396.150	-200.000	0.011	0.126
-395.136	77.142	0.262	-0.278
-394.121	-200.000	0.018	-0.107
-393.106	146.314	-0.222	0.297
-392.092	-144.086	-0.190	-0.018
-391.077	800.000	0.034	0.094
-390.063	-100.483	0.111	0.027
-389.048	-200.000	-0.009	-0.295
-388.033	-116.523	-0.198	0.036
-387.019	-167.010	0.027	0.001
-386.004	-64.385	0.224	-0.091
-384.990	-87.858	-0.095	0.029
-383.975	482.634	-0.105	0.238
-382.960	800.000	0.122	0.415
-381.946	-92.055	0.347	-0.098
-380.931	484.597	0.122	-0.276
-379.917	-51.745	0.303	0.141
-378.902	32.479	0.244	-0.210
-377.888	162.424	0.107	-0.149
-376.873	63.160	0.057	0.057
-375.858	800.000	0.104	-0.312
-374.844	-103.879	-0.383	-0.089
-373.829	-188.994	0.338	0.004
-372.815	-79.365	-0.088	0.030
-371.800	800.000	-0.022	0.080
-370.785	204.758	0.143	0.221
-369.771	800.000	0.074	0.295
-368.756	-144.829	0.097	-0.009
-367.742	12.561	0.231	-0.177
-366.727	800.000	-0.114	0.326
-365.712	800.000	0.051	0.152
-364.698	-104.880	-0.290	-0.066
-363.683	220.831	-0.111	-0.177
-362.669	295.041	0.151	0.275
-361.654	-13.029	-0.073	-0.047
-360.639	800.000	0.077	0.258
-359.625	-105.231	-0.266	0.060
-358.610	-200.000	-0.051	0.257
-357.596	-200.000	-0.001	0.089
-356.581	-200.000	-0.075	0.399
-355.566	-200.000	0.010	-0.104
-354.552	-200.000	-0.035	-0.415
-353.537	77.097	-0.145	-0.154
-352.523	5.057	-0.165	-0.121
-351.508	196.651	0.064	-0.096
-350.493	-200.000	0.050	0.373
-349.479	2.802	-0.217	-0.157
-348.464	-200.000	0.017	0.180
-347.450	-200.000	-0.032	-0.415
-346.435	201.231	-0.087	-0.134
-345.420	-156.738	-0.093	0.006
-344.406	110.800	-0.040	-0.048
-343.391	595.796	-0.108	-0.265
-342.377	800.000	-0.077	-0.257
-341.362	-132.895	0.175	-0.022
-340.348	466.892	-0.114	-0.254
-339.333	70.564	-0.049	0.050
-338.318	800.000	0.061	0.234
-337.304	800.000	0.041	-0.157
-336.289	-1.956	-0.024	0.017
-335.275	-200.000	-0.060	0.337
-334.260	-200.000	0.011	-0.120
-333.245	200.293	0.172	-0.262
-332.231	121.369	-0.096	0.119
-331.216	800.000	0.081	0.226
-330.202	128.270	0.302	-0.382
-329.187	800.000	0.029	-0.112
-328.172	-66.445	0.310	-0.122
-327.158	800.000	-0.057	0.159
-326.143	800.000	0.089	0.274
-325.129	170.771	0.105	-0.150
-324.114	-200.000	0.042	-0.270
-323.099	-44.431	0.296	-0.147
-322.085	-42.716	-0.187	0.094
-321.070	-35.715	0.126	-0.068
-320.056	-200.000	0.016	0.163
-319.041	84.749	-0.175	-0.190
-318.026	90.479	-0.145	0.161
-317.012	-117.553	-0.181	-0.032
-315.997	-5.392	-0.085	-0.058
-314.983	-200.000	0.045	-0.306
-313.968	-200.000	0.016	0.192
-312.953	-200.000	-0.005	0.400
-311.939	-5.706	-0.156	-0.106
-310.924	-200.000	-0.023	-0.115
-309.910	-26.920	-0.173	-0.101
-308.895	201.295	0.062	0.094
-307.880	-36.595	0.034	0.018
-306.866	-200.000	-0.012	0.073
-305.851	33.082	-0.144	-0.124
-304.837	-110.315	0.241	-0.050
-303.822	24.801	0.138	0.114
-302.807	16.701	0.160	-0.126
-301.793	-24.475	-0.228	-0.135
-300.778	-200.000	-0.016	0.238
-299.764	195.826	0.169	-0.255
-298.749	263.935	0.100	0.173
-297.735	126.086	-0.160	-0.201
-296.720	-120.204	-0.101	0.017
-295.705	-200.000	0.289	0.000
-294.691	-76.577	0.306	0.107
-293.676	707.637	-0.114	0.298
-292.662	117.152	-0.104	0.127
-291.647	800.000	0.045	-0.191
-290.632	34.725	-0.060	0.052
-289.618	35.681	0.165	0.144
-288.603	-200.000	0.015	0.160
-287.589	-99.369	-0.261	0.065
-286.574	363.677	-0.196	-0.391
-285.559	-103.289	-0.117	-0.028
-284.545	-128.454	0.147	-0.021
-283.530	202.574	0.182	0.278
-282.516	117.101	-0.136	-0.166
-281.501	800.000	-0.051	-0.142
-280.486	200.726	0.142	0.217
-279.472	11.734	-0.038	-0.029
-278.457	-78.963	-0.254	-0.086
-277.443	-1.353	-0.297	0.208
-276.428	150.770	0.150	0.203
-275.413	29.926	-0.205	0.173
-274.399	-106.547	-0.036	0.008
-273.384	-3.591	0.112	0.077
-272.370	103.056	0.194	-0.226
-271.355	10.826	-0.248	0.188
-270.340	-65.214	-0.179	0.071
-269.326	167.232	0.182	0.257
-268.311	79.406	0.294	-0.313
-267.297	8.731	-0.244	0.182
-266.282	281.250	0.086	0.152
-265.267	17.846	-0.229	0.181
-264.253	559.400	0.074	-0.178
-263.238	800.000	-0.031	0.124
-262.224	-200.000	0.009	-0.153
-261.209	362.656	-0.027	-0.054
-260.195	-58.850	0.043	0.019
-259.180	574.802	0.038	-0.092
-258.165	-124.927	-0.624	-0.095
-257.151	-200.000	0.039	0.261
-256.136	24.921	-0.235	0.193
-255.122	-107.633	-0.163	-0.035
-254.107	800.000	-0.061	0.192
-253.092	-200.000	0.004	-0.052
-252.078	620.199	-0.070	0.174
-251.063	-134.016	0.542	0.067
-250.049	98.343	0.105	-0.121
-249.034	-27.816	-0.150	0.086
-248.019	-148.579	-0.104	-0.008
-247.005	-200.000	-0.048	0.308
-245.990	4.489	0.201	0.146
-244.976	70.096	-0.128	0.131
-243.961	493.180	-0.129	0.293
-242.946	-200.000	0.008	-0.102
-241.932	-59.667	0.189	0.080
-240.917	-51.582	-0.284	0.131
-239.903	-5.243	0.199	-0.136
-238.888	800.000	0.010	-0.032
-237.873	19.539	-0.387	0.308
-236.859	800.000	-0.043	0.139
-235.844	-117.917	0.432	-0.077
-234.830	606.168	0.079	-0.196
-233.815	-163.670	0.078	-0.004
-232.800	1.521	-0.097	0.069
-231.786	434.100	0.066	0.142
-230.771	800.000	-0.031	0.101
-229.757	-73.927	0.231	0.083
-228.742	26.910	0.055	-0.045
-227.727	-143.141	-0.257	0.025
-226.713	-11.906	-0.201	0.130
-225.698	208.921	-0.077	-0.120
-224.684	800.000	0.041	-0.118
-223.669	457.297	0.040	0.088
-222.655	-200.000	0.022	0.163
-221.640	50.532	-0.222	-0.208
-220.625	510.932	-0.076	-0.174
-219.611	-31.955	-0.077	-0.043
-218.596	54.463	-0.163	-0.156
-217.582	800.000	-0.054	-0.202
-216.567	39.959	-0.075	0.067
-215.552	-117.947	-0.089	0.016
-214.538	-200.000	0.011	-0.104
-213.523	318.593	0.137	0.258
-212.509	113.423	0.269	-0.323
-211.494	800.000	-0.051	-0.166
-210.479	485.660	0.095	0.214
-209.465	-200.000	0.062	0.472
-208.450	-200.000	0.001	0.026
-207.436	-12.631	0.091	-0.059
-206.421	-1.044	-0.159	-0.111
-205.406	-15.566	0.136	-0.086
-204.392	-200.000	0.007	-0.206
-203.377	147.098	-0.099	-0.132
-202.363	-182.472	0.184	-0.003
-201.348	-145.054	0.143	-0.013
-200.333	-200.000	-0.004	-0.146
-199.319	-77.467	0.253	-0.087
-198.304	187.708	-0.028	0.041
-197.290	179.744	0.196	-0.285
-196.275	-60.505	0.290	-0.122
-195.260	-82.148	-0.091	0.029
-194.246	-41.319	-0.129	-0.066
-193.231	-95.800	0.105	-0.028
-192.217	800.000	-0.094	0.328
-191.202	205.895	-0.081	0.125
-190.187	-47.696	-0.434	-0.208
-189.173	800.000	-0.037	-0.160
-188.158	221.573	0.057	0.091
-187.144	71.995	-0.095	-0.098
-186.129	800.000	0.042	-0.144
-185.114	106.420	0.117	0.137
-184.100	128.305	0.292	0.368
-183.085	-134.386	-0.144	0.017
-182.071	800.000	0.044	-0.155
-181.056	-176.951	0.414	-0.010
-180.042	48.770	0.148	-0.137
-179.027	496.458	-0.016	0.037
-178.012	-57.674	0.212	0.092
-176.998	-162.131	0.247	-0.012
-175.983	536.069	-0.089	0.208
-174.969	-119.094	-0.366	0.063
-173.954	-122.184	0.161	-0.026
-172.939	168.073	0.131	0.185
-171.925	-141.042	-0.312	-0.032
-170.910	8.221	0.250	-0.186
-169.896	597.409	0.084	-0.207
-168.881	420.411	-0.089	0.189
-167.866	40.385	0.134	0.119
-166.852	-200.000	-0.024	0.414
-165.837	-87.410	0.348	0.104
-164.823	355.899	-0.051	0.101
-163.808	147.109	0.146	-0.194
-162.793	626.824	-0.076	0.189
-161.779	-139.857	-0.103	-0.011
-160.764	-152.490	-0.233	0.017
-159.750	286.376	-0.227	-0.405
-158.735	-200.000	0.041	0.250
-157.720	-116.335	-0.201	-0.037
-156.706	64.578	0.061	-0.060
-155.691	-123.482	-0.117	0.018
-154.677	-129.437	-0.575	0.079
-153.662	-48.120	0.088	0.042
-152.647	280.959	0.090	0.159
-151.633	1.751	0.141	-0.101
-150.618	-200.000	-0.039	0.274
-149.604	409.041	-0.251	0.525
-148.589	27.694	0.128	0.106
-147.574	-139.019	0.175	-0.019
-146.560	-87.538	-0.195	0.058
-145.545	-200.000	-0.015	0.067
-144.531	-8.398	0.234	0.155
-143.516	-10.311	-0.197	-0.129
-142.502	-200.000	0.004	-0.097
-141.487	129.780	0.148	0.187
-140.472	-200.000	0.043	-0.202
-139.458	-140.424	-0.248	0.026
-138.443	-12.337	0.087	-0.056
-137.429	-116.286	-0.233	0.043
-136.414	-200.000	0.022	0.131
-135.399	-44.505	-0.473	-0.234
-134.385	800.000	-0.043	-0.168
-133.370	-101.064	-0.228	-0.055
-132.356	800.000	0.089	-0.289
-131.341	-99.403	-0.606	0.151
-130.326	-200.000	-0.044	0.267
-129.312	-91.825	-0.240	-0.067
-128.297	-200.000	0.015	0.205
-127.283	145.793	-0.071	0.094
-126.268	-86.059	-0.245	0.075
-125.253	53.517	-0.274	0.259
-124.239	9.947	0.055	-0.041
-123.224	34.658	0.120	-0.103
-122.210	-65.568	0.107	0.042
-121.195	800.000	-0.090	-0.284
