DTS Sentinel unit serial number:	SN413079Multiplexer serial number:	ORYXHardware model number:	OX4-SRSoftware version number:	ORYX F/W v4.00 Oryx Data Collector v3.7.2.0data status	okinstallation	princeton_trtdifferential loss correction	single-endedforward channel	channel 3reverse channel	N/Adate	2019/09/14time	10:24:35forward acquisition time	60.00reverse acquisition time	0.00gamma	496.2192k internal	0.2305k external	0.2305temperature offset calibration	1.0054default loss term (dB/km)	0.3790temperature slope calibration	1.0000multiplexer offset coefficient	1.0000multiplexer slope coefficient	1.0000fibre end	0.00T internal ref (°C)	34.47T ext. ref 1 (°C)	4.16T ext. ref 2 (°C)	32.79length (m)	temperature (°C)	Stokes	anti-Stokes-747.200	-80.191	0.380	0.130
-746.185	-140.280	0.055	-0.006
-745.171	97.032	0.130	-0.152
-744.156	-200.000	-0.494	0.002
-743.142	298.593	-0.120	0.225
-742.127	-125.184	0.598	0.093
-741.112	-200.000	-0.019	0.100
-740.098	-85.119	-0.216	-0.069
-739.083	-67.103	0.059	0.024
-738.069	67.770	-0.151	0.157
-737.054	5.809	-0.124	0.094
-736.039	-200.000	-0.023	0.104
-735.025	-97.575	0.314	0.083
-734.010	3.044	-0.269	-0.199
-732.996	-5.611	0.149	0.104
-731.981	-11.112	-0.066	0.044
-730.966	56.533	0.194	-0.192
-729.952	467.827	-0.114	-0.259
-728.937	-200.000	0.030	-0.203
-727.923	-200.000	0.001	0.051
-726.908	77.524	-0.096	-0.104
-725.894	-200.000	-0.022	-0.576
-724.879	-200.000	0.001	0.194
-723.864	-200.000	0.012	-0.120
-722.850	-183.029	-0.236	0.004
-721.835	99.718	0.107	0.126
-720.821	201.693	0.120	-0.188
-719.806	715.470	-0.072	-0.195
-718.791	-52.759	-0.112	-0.053
-717.777	83.853	0.050	-0.055
-716.762	-115.063	0.214	0.041
-715.748	-200.000	0.057	-0.261
-714.733	-95.706	-0.103	0.028
-713.718	-28.945	-0.368	0.215
-712.704	419.784	0.144	0.314
-711.689	-9.471	0.075	-0.051
-710.675	-200.000	0.010	0.096
-709.660	146.823	0.117	-0.160
-708.645	-117.360	-0.059	-0.011
-707.631	200.559	0.214	-0.334
-706.616	-200.000	0.056	-0.279
-705.602	-18.254	0.154	0.098
-704.587	154.404	-0.084	-0.118
-703.572	-200.000	0.016	-0.220
-702.558	0.282	-0.157	0.114
-701.543	-200.000	0.027	-0.262
-700.529	-200.000	0.003	0.286
-699.514	235.290	0.084	-0.141
-698.499	-115.904	-0.210	0.040
-697.485	33.448	0.237	-0.209
-696.470	-200.000	-0.031	-0.337
-695.456	-80.591	-0.151	-0.051
-694.441	800.000	-0.127	-0.421
-693.426	800.000	-0.080	0.336
-692.412	49.658	0.197	0.188
-691.397	131.371	0.066	-0.087
-690.383	-150.020	-0.221	0.017
-689.368	11.294	-0.119	-0.093
-688.354	49.498	0.223	0.213
-687.339	-159.554	-0.188	-0.011
-686.324	231.499	0.207	-0.345
-685.310	82.007	-0.214	0.236
-684.295	-117.054	0.230	-0.043
-683.281	-91.876	0.091	0.026
-682.266	42.922	0.157	-0.146
-681.251	-141.919	0.172	-0.017
-680.237	-134.400	0.277	0.034
-679.222	-116.572	0.250	-0.047
-678.208	85.942	-0.143	-0.160
-677.193	-74.564	-0.280	-0.102
-676.178	15.307	-0.241	-0.192
-675.164	-105.899	-0.240	-0.055
-674.149	37.162	0.224	-0.201
-673.135	-55.299	-0.133	-0.061
-672.120	126.414	0.103	0.132
-671.105	501.444	0.048	-0.112
-670.091	483.450	-0.075	0.172
-669.076	211.764	0.037	-0.060
-668.062	-80.630	-0.413	0.140
-667.047	800.000	-0.158	-0.511
-666.032	800.000	-0.008	0.031
-665.018	-200.000	-0.013	-0.092
-664.003	139.794	0.188	0.252
-662.989	-200.000	0.028	-0.336
-661.974	-200.000	-0.051	-0.379
-660.959	-56.177	-0.101	-0.046
-659.945	-56.053	0.106	0.048
-658.930	78.585	-0.071	-0.077
-657.916	220.257	-0.056	-0.092
-656.901	24.779	0.185	0.156
-655.886	-153.341	0.344	0.024
-654.872	289.969	-0.159	0.293
-653.857	-30.494	-0.235	0.135
-652.843	21.574	-0.174	-0.143
-651.828	71.592	0.089	-0.094
-650.814	-112.705	-0.223	0.045
-649.799	562.246	0.073	-0.180
-648.784	33.819	0.246	-0.217
-647.770	-114.639	-0.208	-0.040
-646.755	175.940	0.083	0.123
-645.741	1.216	-0.340	0.247
-644.726	-200.000	0.001	-0.116
-643.711	-17.157	0.043	-0.027
-642.697	800.000	0.029	0.098
-641.682	-200.000	-0.059	0.337
-640.668	-61.117	-0.210	0.090
-639.653	-200.000	-0.031	-0.213
-638.638	-109.411	0.295	-0.063
-637.624	-9.028	-0.417	0.283
-636.609	331.742	0.010	0.020
-635.595	-143.906	-0.110	0.011
-634.580	8.403	0.267	0.203
-633.565	-200.000	-0.012	-0.091
-632.551	-78.017	-0.220	-0.077
-631.536	229.485	0.128	-0.211
-630.522	-12.932	-0.069	-0.045
-629.507	-200.000	-0.018	-0.109
-628.492	257.578	0.042	-0.073
-627.478	-200.000	0.047	-0.460
-626.463	-10.890	-0.098	-0.066
-625.449	84.624	0.121	0.134
-624.434	-134.069	-0.144	0.018
-623.419	-59.593	0.039	-0.017
-622.405	145.327	-0.103	-0.139
-621.390	38.456	0.140	-0.127
-620.376	652.813	-0.052	-0.134
-619.361	-57.286	-0.181	0.081
-618.346	-56.291	0.248	0.112
-617.332	-83.552	-0.115	-0.037
-616.317	168.500	-0.257	0.371
-615.303	69.765	0.116	-0.121
-614.288	-200.000	-0.013	0.146
-613.273	155.181	0.141	-0.196
-612.259	402.666	0.205	-0.437
-611.244	-200.000	-0.006	-0.221
-610.230	-200.000	0.051	-0.275
-609.215	-68.862	0.136	0.053
-608.201	103.904	-0.099	-0.118
-607.186	-99.196	-0.298	0.076
-606.171	-99.323	0.213	0.054
-605.157	-113.130	0.325	0.065
-604.142	-108.544	0.235	0.051
-603.128	11.905	-0.122	0.095
-602.113	-200.000	-0.000	0.136
-601.098	114.669	0.132	-0.163
-600.084	-200.000	-0.018	-0.156
-599.069	-130.066	0.258	0.036
-598.055	0.237	-0.346	0.250
-597.040	288.024	0.120	-0.219
-596.025	346.198	-0.123	0.245
-595.011	137.325	0.120	-0.159
-593.996	-8.527	0.143	-0.097
-592.982	-200.000	0.022	-0.120
-591.967	-51.470	0.099	0.047
-590.952	317.368	-0.070	-0.134
-589.938	-128.627	0.102	-0.015
-588.923	-200.000	0.029	0.201
-587.909	-200.000	-0.040	-0.213
-586.894	322.756	0.205	0.396
-585.879	-125.849	0.042	0.006
-584.865	62.491	0.050	0.051
-583.850	-78.890	0.166	-0.057
-582.836	-4.018	0.195	0.137
-581.821	800.000	0.025	-0.070
-580.806	118.956	0.201	-0.251
-579.792	374.503	-0.060	-0.124
-578.777	-200.000	0.003	-0.260
-577.763	-200.000	0.084	0.404
-576.748	-146.590	-0.148	-0.013
-575.733	800.000	-0.072	0.207
-574.719	204.267	-0.071	-0.111
-573.704	-200.000	-0.037	0.514
-572.690	53.060	-0.286	-0.277
-571.675	-200.000	-0.037	-0.243
-570.661	-158.566	-0.438	0.026
-569.646	-20.760	-0.229	-0.142
-568.631	270.608	-0.065	-0.116
-567.617	101.673	-0.133	0.156
-566.602	233.219	0.053	0.088
-565.588	-200.000	0.015	-0.454
-564.573	-64.910	0.283	-0.116
-563.558	331.898	-0.129	0.252
-562.544	800.000	-0.057	-0.215
-561.529	476.590	-0.022	-0.050
-560.515	-93.251	-0.291	0.082
-559.500	-111.951	0.267	-0.054
-558.485	-74.825	0.380	0.138
-557.471	-74.712	-0.367	-0.133
-556.456	543.508	-0.040	-0.097
-555.442	-143.743	-0.254	-0.024
-554.427	-107.604	-0.390	-0.086
-553.412	-200.000	0.017	-0.157
-552.398	-126.257	0.115	0.017
-551.383	-200.000	0.023	0.137
-550.369	141.392	0.103	0.138
-549.354	-200.000	-0.010	0.189
-548.339	-52.692	-0.116	0.054
-547.325	800.000	0.070	0.307
-546.310	800.000	-0.066	0.215
-545.296	166.322	-0.134	0.191
-544.281	800.000	0.088	0.268
-543.266	227.428	0.244	-0.400
-542.252	-97.034	0.160	-0.042
-541.237	12.117	-0.269	-0.209
-540.223	432.265	-0.150	0.329
-539.208	-200.000	-0.004	0.039
-538.193	-121.315	-0.292	0.049
-537.179	179.568	-0.090	-0.133
-536.164	760.813	-0.077	-0.210
-535.150	56.197	0.191	-0.187
-534.135	-57.678	0.206	-0.091
-533.121	-81.272	-0.221	0.073
-532.106	-135.936	0.086	0.010
-531.091	113.553	-0.302	-0.370
-530.077	139.381	0.168	-0.222
-529.062	-77.301	-0.131	0.046
-528.048	-70.559	-0.246	0.094
-527.033	-143.977	0.487	-0.046
-526.018	-200.000	0.086	-0.443
-525.004	281.181	-0.071	-0.129
-523.989	203.579	-0.150	0.234
-522.975	78.668	-0.106	-0.114
-521.960	-200.000	0.017	0.111
-520.945	-200.000	0.004	-0.017
-519.931	-130.756	0.202	0.027
-518.916	2.134	-0.333	-0.242
-517.902	-166.143	-0.294	0.013
-516.887	-116.218	0.371	-0.069
-515.872	-71.424	-0.490	0.185
-514.858	29.200	0.209	0.179
-513.843	-30.512	0.180	-0.103
-512.829	-161.958	0.179	-0.009
-511.814	-84.649	0.190	0.060
-510.799	-103.400	-0.085	0.020
-509.785	800.000	-0.059	0.211
-508.770	8.278	0.097	0.073
-507.756	109.342	-0.125	0.151
-506.741	800.000	-0.052	-0.164
-505.726	-86.887	-0.153	-0.047
-504.712	57.069	-0.129	-0.127
-503.697	-131.669	0.155	-0.021
-502.683	-7.362	0.246	0.168
-501.668	415.898	0.125	0.269
-500.653	-200.000	-0.025	0.151
-499.639	800.000	-0.132	-0.370
-498.624	297.422	-0.058	-0.107
-497.610	75.028	0.100	0.106
-496.595	-109.697	0.229	0.048
-495.581	-106.544	-0.294	0.066
-494.566	93.880	-0.183	0.209
-493.551	2.205	-0.054	0.039
-492.537	102.611	0.034	-0.040
-491.522	-163.854	0.177	-0.008
-490.508	-200.000	-0.020	-0.098
-489.493	311.186	0.030	-0.056
-488.478	-200.000	-0.020	-0.257
-487.464	-80.240	-0.085	0.029
-486.449	301.663	-0.033	0.061
-485.435	-82.596	-0.279	0.091
-484.420	39.403	0.124	-0.112
-483.405	800.000	0.044	-0.159
-482.391	6.087	0.272	-0.203
-481.376	-116.520	-0.026	-0.005
-480.362	434.866	0.043	0.094
-479.347	88.876	-0.087	0.098
-478.332	-200.000	0.035	0.415
-477.318	73.430	0.122	0.129
-476.303	-180.357	0.271	-0.006
-475.289	-78.030	-0.082	0.028
-474.274	-4.085	-0.092	0.064
-473.259	32.663	-0.164	-0.143
-472.245	800.000	-0.023	-0.091
-471.230	119.859	0.175	-0.219
-470.216	800.000	-0.075	-0.318
-469.201	-109.088	0.029	-0.006
-468.186	-29.048	0.126	0.073
-467.172	-200.000	0.024	0.269
-466.157	-73.368	0.241	-0.089
-465.143	-115.718	0.388	0.073
-464.128	64.919	-0.141	0.144
-463.113	-16.477	-0.063	-0.040
-462.099	-155.729	0.208	-0.013
-461.084	-94.913	0.147	-0.040
-460.070	57.436	0.160	-0.157
-459.055	-200.000	0.020	-0.226
-458.040	-129.113	-0.366	0.051
-457.026	-200.000	-0.012	-0.156
-456.011	-74.237	0.197	-0.072
-454.997	-84.149	-0.072	0.023
-453.982	-16.859	-0.029	-0.019
-452.968	-18.264	0.377	-0.237
-451.953	284.326	-0.115	0.208
-450.938	70.226	-0.232	0.241
-449.924	800.000	-0.056	0.186
-448.909	-23.054	0.126	-0.076
-447.895	-114.540	-0.211	0.041
-446.880	5.506	0.131	0.097
-445.865	-28.595	-0.157	0.091
-444.851	-117.547	0.167	0.030
-443.836	800.000	0.067	0.212
-442.822	301.156	-0.163	-0.304
-441.807	800.000	-0.106	-0.410
-440.792	-200.000	-0.027	-0.161
-439.778	-81.461	-0.105	-0.035
-438.763	800.000	0.077	0.289
-437.749	-44.335	0.059	-0.030
-436.734	-70.810	0.053	0.020
-435.719	348.385	-0.092	0.182
-434.705	800.000	-0.062	-0.172
-433.690	-130.034	-0.125	0.017
-432.676	55.872	-0.174	-0.170
-431.661	800.000	0.083	-0.304
-430.646	-200.000	-0.012	0.274
-429.632	-87.241	0.143	0.044
-428.617	800.000	-0.062	-0.261
-427.603	-146.227	0.181	0.016
-426.588	468.288	0.114	0.258
-425.573	-81.509	-0.144	-0.048
-424.559	-200.000	0.050	-0.340
-423.544	89.788	0.065	0.073
-422.530	-135.425	-0.179	-0.021
-421.515	-94.258	0.014	0.004
-420.500	-43.163	0.193	-0.098
-419.486	232.787	-0.062	-0.103
-418.471	13.003	0.168	0.130
-417.457	-200.000	-0.014	0.148
-416.442	-12.636	0.353	0.231
-415.428	-89.180	-0.249	-0.074
-414.413	495.849	0.031	0.072
-413.398	-85.910	-0.228	0.071
-412.384	117.168	0.191	-0.235
-411.369	-110.395	-0.342	-0.071
-410.355	-64.929	-0.365	0.148
-409.340	-57.766	-0.281	0.123
-408.325	4.166	-0.186	-0.137
-407.311	-25.891	-0.193	-0.114
-406.296	-185.116	0.480	0.008
-405.282	800.000	-0.062	0.186
-404.267	-62.887	0.182	-0.076
-403.252	395.172	0.075	-0.158
-402.238	747.550	-0.066	0.179
-401.223	-200.000	0.020	-0.246
-400.209	400.672	0.145	0.306
-399.194	-200.000	0.046	-0.266
-398.179	-112.443	0.117	0.023
-397.165	38.131	-0.176	0.157
-396.150	15.157	0.042	-0.033
-395.136	451.014	0.039	0.087
-394.121	-200.000	-0.042	0.285
-393.106	-20.860	-0.281	-0.173
-392.092	800.000	0.040	0.124
-391.077	-66.147	0.151	0.061
-390.063	-47.112	-0.364	-0.178
-389.048	92.923	0.222	-0.251
-388.033	124.122	0.125	-0.157
-387.019	192.431	-0.127	0.192
-386.004	-200.000	-0.023	-0.264
-384.990	-52.808	0.150	-0.070
-383.975	131.263	0.254	0.327
-382.960	-148.007	-0.071	0.006
-381.946	270.897	-0.206	-0.364
-380.931	-14.925	-0.409	-0.263
-379.917	164.220	-0.189	-0.268
-378.902	-68.962	0.230	-0.089
-377.888	428.826	-0.048	-0.103
-376.873	85.684	-0.199	0.219
-375.858	800.000	0.026	0.090
-374.844	-8.719	-0.123	0.083
-373.829	-200.000	0.013	0.171
-372.815	-200.000	0.020	-0.330
-371.800	7.319	-0.203	-0.152
-370.785	800.000	-0.076	-0.287
-369.771	800.000	-0.074	0.211
-368.756	-0.350	-0.160	0.114
-367.742	486.839	0.065	-0.149
-366.727	27.878	-0.170	0.144
-365.712	657.447	0.098	-0.252
-364.698	550.458	0.029	-0.070
-363.683	-56.269	-0.348	0.155
-362.669	-200.000	0.050	0.407
-361.654	105.088	-0.040	-0.048
-360.639	-200.000	0.061	0.340
-359.625	-200.000	0.044	0.258
-358.610	-26.277	0.303	-0.178
-357.596	-143.571	-0.263	0.025
-356.581	800.000	-0.102	0.285
-355.566	-14.441	0.244	0.157
-354.552	-200.000	-0.040	-0.259
-353.537	38.202	-0.100	0.090
-352.523	-112.418	-0.163	0.033
-351.508	-12.075	-0.116	0.076
-350.493	-19.895	-0.187	0.116
-349.479	233.603	0.049	-0.081
-348.464	-200.000	0.037	0.175
-347.450	345.704	-0.190	0.375
-346.435	770.727	-0.094	-0.257
-345.420	-200.000	-0.001	-0.141
-344.406	-22.889	-0.167	0.101
-343.391	-72.612	0.155	0.057
-342.377	-155.527	0.080	0.005
-341.362	-200.000	-0.050	-0.277
-340.348	-110.219	0.170	-0.035
-339.333	50.938	0.189	0.179
-338.318	532.110	0.102	0.242
-337.304	-200.000	0.040	0.265
-336.289	171.260	-0.097	-0.139
-335.275	-5.649	-0.294	0.202
-334.260	800.000	0.078	0.217
-333.245	-131.827	0.105	-0.014
-332.231	184.909	-0.172	-0.256
-331.216	89.686	0.085	-0.095
-330.202	80.884	0.112	-0.121
-329.187	57.227	-0.135	0.132
-328.172	3.486	-0.115	0.084
-327.158	-14.802	0.121	-0.078
-326.143	73.139	-0.045	-0.047
-325.129	-53.105	0.109	0.050
-324.114	-107.329	-0.178	0.039
-323.099	278.067	0.087	0.156
-322.085	800.000	0.045	-0.196
-321.070	-64.138	0.078	-0.032
-320.056	-35.710	0.074	0.040
-319.041	-200.000	0.002	0.053
-318.026	-115.591	-0.132	0.025
-317.012	198.011	0.055	-0.084
-315.997	576.600	0.159	0.388
-314.983	-200.000	-0.015	0.325
-313.968	137.285	0.145	-0.190
-312.953	302.696	-0.190	-0.352
-311.939	-200.000	-0.007	-0.447
-310.924	91.232	-0.163	-0.184
-309.910	47.416	-0.173	-0.161
-308.895	-95.923	0.241	-0.064
-307.880	-200.000	-0.036	0.164
-306.866	-174.806	-0.217	-0.006
-305.851	-97.890	0.164	-0.042
-304.837	-83.976	0.148	-0.047
-303.822	-126.823	-0.384	0.057
-302.807	-53.911	-0.180	0.082
-301.793	129.476	0.102	0.130
-300.778	-200.000	0.019	-0.130
-299.764	800.000	-0.053	0.155
-298.749	70.423	0.172	-0.178
-297.735	17.230	0.186	-0.147
-296.720	108.024	0.139	0.166
-295.705	800.000	-0.158	-0.477
-294.691	-104.174	-0.291	0.068
-293.676	-7.689	-0.266	0.180
-292.662	6.822	-0.174	0.130
-291.647	44.273	0.225	0.207
-290.632	43.377	0.061	0.056
-289.618	-200.000	-0.002	0.088
-288.603	389.468	0.208	-0.430
-287.589	800.000	0.103	0.289
-286.574	10.060	0.028	0.021
-285.559	-200.000	0.012	-0.179
-284.545	-168.791	0.273	-0.010
-283.530	-200.000	0.009	-0.227
-282.516	49.565	-0.152	-0.143
-281.501	585.896	-0.085	0.208
-280.486	-9.547	-0.203	-0.135
-279.472	-100.382	0.329	-0.082
-278.457	800.000	0.129	0.444
-277.443	-125.029	-0.102	-0.016
-276.428	-17.404	0.122	-0.077
-275.413	-161.515	-0.299	-0.015
-274.399	800.000	-0.109	0.318
-273.384	800.000	-0.047	-0.163
-272.370	-200.000	0.011	0.162
-271.355	32.547	-0.136	0.118
-270.340	175.219	0.139	-0.202
-269.326	-200.000	0.408	0.001
-268.311	168.463	0.173	0.247
-267.297	246.158	0.158	0.266
-266.282	-174.633	0.406	0.012
-265.267	204.691	-0.089	0.138
-264.253	53.852	-0.057	-0.054
-263.238	261.088	0.137	0.236
-262.224	134.267	0.114	0.148
-261.209	426.831	0.158	-0.341
-260.195	-96.521	-0.370	-0.098
-259.180	-200.000	0.056	0.341
-258.165	-103.880	-0.287	-0.067
-257.151	-15.497	-0.322	0.205
-256.136	-73.173	0.104	-0.038
-255.122	31.259	0.309	0.264
-254.107	-142.152	-0.329	0.033
-253.092	-42.863	-0.206	-0.105
-252.078	800.000	0.093	-0.312
-251.063	7.425	0.215	0.161
-250.049	-39.834	0.386	0.201
-249.034	800.000	-0.091	0.318
-248.019	-35.466	0.180	0.098
-247.005	-66.228	-0.110	-0.044
-245.990	-22.777	-0.155	0.093
-244.976	-59.284	0.324	0.139
-243.961	-32.784	-0.206	-0.114
-242.946	-44.940	0.250	-0.124
-241.932	-67.294	0.403	-0.158
-240.917	-181.700	0.119	-0.002
-239.903	93.254	0.127	0.143
-238.888	288.956	-0.147	-0.266
-237.873	-123.434	0.191	0.030
-236.859	-182.925	0.477	-0.009
-235.844	-121.708	0.267	-0.044
-234.830	-200.000	0.027	0.345
-233.815	800.000	-0.031	-0.105
-232.800	25.187	0.136	-0.113
-231.786	-140.107	0.155	0.016
-230.771	746.542	-0.166	0.445
-229.757	-16.108	-0.278	-0.176
-228.742	695.245	-0.042	0.110
-227.727	-162.684	0.281	0.014
-226.713	57.450	0.094	-0.092
-225.698	49.250	-0.299	0.281
-224.684	-46.948	0.299	0.145
-223.669	1.420	-0.241	-0.172
-222.655	-72.731	-0.128	0.047
-221.640	338.172	-0.086	0.167
-220.625	-180.081	-0.110	0.002
-219.611	283.184	0.156	0.279
-218.596	-9.144	-0.193	0.129
-217.582	800.000	0.015	0.064
-216.567	-200.000	0.024	0.242
-215.552	693.126	-0.039	-0.102
-214.538	593.930	0.087	0.214
-213.523	-90.421	-0.075	-0.022
-212.509	121.278	0.128	-0.159
-211.494	22.567	-0.188	0.153
-210.479	-70.490	-0.129	0.049
-209.465	-146.508	-0.464	-0.040
-208.450	48.281	0.289	-0.270
-207.436	-116.483	-0.482	-0.089
-206.421	621.667	-0.039	-0.098
-205.406	800.000	-0.071	-0.260
-204.392	77.584	0.173	-0.183
-203.377	74.114	0.024	0.025
-202.363	179.119	-0.194	-0.282
-201.348	26.598	-0.277	0.231
-200.333	800.000	-0.031	0.095
-199.319	2.421	0.103	-0.074
-198.304	-200.000	0.011	-0.127
-197.290	-95.751	-0.171	0.045
-196.275	60.126	0.215	0.212
-195.260	800.000	0.021	-0.088
-194.246	143.634	0.145	-0.193
-193.231	-200.000	0.015	-0.337
-192.217	-123.654	-0.334	-0.053
-191.202	473.220	-0.069	-0.155
-190.187	-115.393	0.368	-0.069
-189.173	-107.672	0.318	0.069
-188.158	-200.000	0.024	0.200
-187.144	55.403	0.223	-0.215
-186.129	115.132	0.052	0.063
-185.114	-200.000	0.010	-0.175
-184.100	-200.000	0.058	0.319
-183.085	354.240	-0.075	-0.149
-182.071	-12.300	0.118	-0.077
-181.056	-200.000	-0.022	0.287
-180.042	800.000	-0.069	-0.277
-179.027	-38.640	0.189	-0.100
-178.012	-81.487	0.040	-0.013
-176.998	-98.170	0.183	-0.047
-175.983	45.441	-0.087	0.080
-174.969	800.000	-0.026	-0.082
-173.954	-67.823	-0.201	-0.078
-172.939	83.036	-0.221	0.239
-171.925	-200.000	-0.055	0.291
-170.910	196.889	0.147	-0.224
-169.896	-200.000	-0.018	-0.200
-168.881	192.488	0.109	0.164
-167.866	-58.319	0.141	-0.061
-166.852	800.000	-0.024	0.069
-165.837	-118.709	0.371	0.065
-164.823	151.824	0.101	0.137
-163.808	-66.783	0.273	0.107
-162.793	157.598	-0.086	0.118
-161.779	-136.301	-0.192	-0.022
-160.764	-99.706	0.067	-0.017
-159.750	-200.000	-0.013	-0.109
-158.735	275.127	0.108	0.190
-157.720	-78.496	-0.241	-0.082
-156.706	-64.547	-0.203	-0.082
-155.691	41.052	-0.091	-0.082
-154.677	287.740	0.210	0.378
-153.662	-44.489	0.161	0.080
-152.647	-200.000	0.033	0.237
-151.633	609.950	0.080	-0.198
-150.618	-200.000	-0.005	-0.170
-149.604	-47.807	-0.117	0.057
-148.589	-96.458	0.104	0.027
-147.574	64.581	-0.146	-0.146
-146.560	-200.000	-0.007	-0.240
-145.545	-200.000	-0.045	-0.428
-144.531	-200.000	-0.005	-0.048
-143.516	25.168	-0.170	0.140
-142.502	-90.604	-0.008	0.002
-141.487	-67.707	0.167	-0.065
-140.472	115.134	0.164	-0.199
-139.458	37.945	-0.214	-0.189
-138.443	153.033	0.182	-0.247
-137.429	-45.699	0.285	-0.140
-136.414	99.684	-0.251	-0.289
-135.399	800.000	0.112	0.383
-134.385	102.027	0.259	-0.300
-133.370	263.956	0.083	0.143
-132.356	800.000	0.090	-0.277
-131.341	800.000	-0.082	0.270
-130.326	-31.141	0.235	0.132
-129.312	-83.194	-0.042	-0.014
-128.297	-156.266	0.217	-0.014
-127.283	-125.676	-0.045	0.007
-126.268	184.321	-0.161	-0.237
-125.253	800.000	-0.056	0.176
-124.239	-82.704	0.088	0.028
-123.224	-200.000	0.049	-0.242
-122.210	-200.000	-0.012	0.054
-121.195	209.102	-0.027	0.041
