DTS Sentinel unit serial number:	SN413079Multiplexer serial number:	ORYXHardware model number:	OX4-SRSoftware version number:	ORYX F/W v4.00 Oryx Data Collector v3.7.2.0data status	okinstallation	princeton_trtdifferential loss correction	single-endedforward channel	channel 3reverse channel	N/Adate	2019/09/19time	09:56:34forward acquisition time	60.00reverse acquisition time	0.00gamma	496.2192k internal	0.2343k external	0.2343temperature offset calibration	0.9970default loss term (dB/km)	0.3790temperature slope calibration	1.0000multiplexer offset coefficient	1.0000multiplexer slope coefficient	1.0000fibre end	0.00T internal ref (°C)	23.62T ext. ref 1 (°C)	0.66T ext. ref 2 (°C)	19.34length (m)	temperature (°C)	Stokes	anti-Stokes-747.200	800.000	-0.032	0.117
-746.185	177.109	0.034	-0.050
-745.171	554.207	0.055	0.132
-744.156	-200.000	0.006	-0.035
-743.142	-67.566	0.207	0.081
-742.127	650.709	-0.126	0.324
-741.112	-104.435	-0.127	-0.029
-740.098	-200.000	-0.080	0.493
-739.083	800.000	0.037	-0.133
-738.069	270.143	-0.034	0.059
-737.054	175.166	-0.130	0.188
-736.039	-102.934	-0.331	0.079
-735.025	-93.051	-0.091	0.025
-734.010	60.122	0.196	-0.194
-732.996	-167.381	0.280	-0.011
-731.981	594.416	0.019	-0.048
-730.966	-200.000	0.041	-0.305
-729.952	-77.410	-0.313	-0.109
-728.937	800.000	-0.053	-0.158
-727.923	51.798	0.217	-0.206
-726.908	-200.000	-0.036	0.204
-725.894	-8.198	-0.079	-0.053
-724.879	-7.127	0.138	-0.094
-723.864	241.713	-0.167	0.279
-722.850	273.865	0.114	-0.202
-721.835	467.784	-0.097	-0.218
-720.821	-22.828	0.242	0.146
-719.806	264.718	-0.118	-0.205
-718.791	-84.275	0.139	-0.044
-717.777	-146.990	-0.238	-0.020
-716.762	-200.000	0.076	-0.392
-715.748	-139.240	0.357	0.038
-714.733	6.570	-0.148	-0.110
-713.718	528.019	0.018	0.044
-712.704	800.000	-0.066	0.201
-711.689	22.317	0.080	0.065
-710.675	-200.000	-0.038	-0.214
-709.660	112.725	0.129	-0.157
-708.645	95.601	0.121	-0.138
-707.631	800.000	-0.106	-0.344
-706.616	-108.761	0.301	-0.064
-705.602	-200.000	0.041	-0.266
-704.587	-200.000	0.011	0.094
-703.572	-1.952	0.063	-0.045
-702.558	453.480	0.061	0.135
-701.543	37.117	0.229	0.203
-700.529	34.684	0.161	0.141
-699.514	-200.000	-0.033	-0.163
-698.499	146.500	0.082	0.110
-697.485	75.649	0.165	-0.174
-696.470	0.225	0.196	-0.139
-695.456	332.301	0.068	0.131
-694.441	-200.000	0.022	0.382
-693.426	-42.490	0.268	0.136
-692.412	-95.060	-0.524	-0.141
-691.397	-119.784	0.192	-0.033
-690.383	-200.000	-0.030	0.163
-689.368	19.042	0.082	0.066
-688.354	15.712	0.217	-0.171
-687.339	-89.071	-0.113	0.033
-686.324	-33.087	-0.247	0.137
-685.310	-200.000	0.020	0.266
-684.295	-28.504	-0.275	0.158
-683.281	189.209	0.186	0.279
-682.266	-197.040	-0.181	-0.001
-681.251	-41.172	-0.137	-0.071
-680.237	-200.000	-0.022	-0.123
-679.222	-200.000	0.021	-0.102
-678.208	69.551	-0.090	-0.092
-677.193	38.567	0.039	-0.035
-676.178	35.195	0.259	0.227
-675.164	-110.916	0.145	0.030
-674.149	90.586	-0.034	-0.038
-673.135	308.026	0.072	-0.134
-672.120	-200.000	0.025	0.136
-671.105	-200.000	0.023	-0.107
-670.091	210.163	0.082	-0.128
-669.076	71.232	-0.192	-0.199
-668.062	6.094	-0.125	0.093
-667.047	-46.062	0.124	-0.061
-666.032	33.242	-0.235	0.203
-665.018	34.498	0.153	-0.133
-664.003	-200.000	0.006	-0.030
-662.989	417.291	-0.028	-0.059
-661.974	105.403	-0.045	0.053
-660.959	258.362	-0.150	-0.257
-659.945	-200.000	0.024	0.155
-658.930	199.401	0.153	0.234
-657.916	286.142	-0.068	0.122
-656.901	17.546	-0.099	-0.079
-655.886	-200.000	0.003	0.038
-654.872	1.669	-0.145	-0.104
-653.857	32.829	0.042	0.036
-652.843	-30.838	0.093	-0.053
-651.828	120.544	0.116	-0.144
-650.814	-34.732	-0.323	-0.176
-649.799	13.748	0.182	-0.141
-648.784	104.199	-0.342	0.402
-647.770	-170.256	0.459	-0.016
-646.755	-163.900	-0.368	-0.017
-645.741	607.614	-0.081	-0.202
-644.726	-9.469	0.117	-0.078
-643.711	-168.504	-0.326	-0.012
-642.697	-2.895	0.142	-0.099
-641.682	-173.545	0.410	-0.012
-640.668	-135.414	0.209	0.025
-639.653	-153.484	0.174	-0.012
-638.638	-200.000	-0.003	0.190
-637.624	-34.868	0.294	-0.160
-636.609	800.000	0.064	0.238
-635.595	-200.000	-0.002	-0.324
-634.580	-66.772	0.286	-0.113
-633.565	73.388	-0.032	-0.033
-632.551	-200.000	-0.003	0.048
-631.536	4.455	-0.142	-0.103
-630.522	-111.195	-0.144	0.029
-629.507	-200.000	0.093	0.418
-628.492	11.814	-0.200	0.153
-627.478	142.010	-0.009	0.012
-626.463	30.546	-0.082	0.070
-625.449	-142.789	-0.313	0.030
-624.434	384.435	-0.026	-0.054
-623.419	328.565	0.061	0.118
-622.405	-132.071	-0.481	-0.062
-621.390	-138.438	-0.089	0.010
-620.376	800.000	0.057	-0.225
-619.361	-200.000	-0.028	-0.180
-618.346	285.678	-0.118	-0.211
-617.332	1.283	-0.030	-0.021
-616.317	327.880	-0.100	-0.192
-615.303	17.385	-0.103	-0.082
-614.288	425.076	-0.028	-0.060
-613.273	323.377	-0.048	-0.091
-612.259	-200.000	0.063	0.481
-611.244	179.646	0.319	0.465
-610.230	-198.120	-0.420	0.002
-609.215	800.000	-0.033	-0.126
-608.201	-73.714	-0.364	-0.132
-607.186	-200.000	-0.079	0.558
-606.171	-126.257	-0.129	-0.019
-605.157	-32.663	0.135	-0.075
-604.142	-40.206	0.112	0.058
-603.128	-200.000	-0.012	-0.064
-602.113	-85.075	0.143	-0.045
-601.098	14.462	-0.246	0.191
-600.084	182.062	-0.145	0.213
-599.069	-200.000	-0.114	-0.513
-598.055	-200.000	-0.039	-0.283
-597.040	29.760	0.159	0.135
-596.025	114.830	0.003	-0.003
-595.011	385.154	-0.257	0.528
-593.996	-155.127	-0.154	-0.010
-592.982	91.489	-0.027	0.030
-591.967	800.000	-0.032	0.118
-590.952	44.703	-0.172	0.158
-589.938	-104.066	-0.306	-0.071
-588.923	114.430	0.048	0.058
-587.909	-21.381	0.354	0.215
-586.894	775.584	-0.142	-0.385
-585.879	-72.152	-0.071	0.026
-584.865	-200.000	-0.023	-0.258
-583.850	-184.386	-0.279	0.005
-582.836	-54.100	-0.012	0.005
-581.821	800.000	-0.085	-0.357
-580.806	-73.105	-0.313	0.114
-579.792	-31.456	0.079	-0.044
-578.777	-19.603	-0.078	-0.048
-577.763	-132.736	-0.528	0.067
-576.748	-59.151	0.151	0.065
-575.733	15.678	0.146	-0.114
-574.719	-122.496	0.056	-0.009
-573.704	-200.000	-0.003	-0.110
-572.690	133.419	-0.253	-0.325
-571.675	256.924	0.079	-0.134
-570.661	22.383	-0.192	-0.156
-569.646	50.858	-0.179	-0.169
-568.631	125.621	0.221	-0.277
-567.617	-37.506	-0.359	-0.190
-566.602	96.347	-0.101	0.115
-565.588	-82.146	0.172	0.056
-564.573	-79.160	0.361	0.122
-563.558	44.413	-0.046	-0.042
-562.544	-91.841	-0.137	-0.039
-561.529	227.663	-0.095	0.153
-560.515	32.416	0.103	-0.089
-559.500	673.735	-0.141	-0.364
-558.485	-36.871	-0.096	-0.051
-557.471	185.233	0.067	-0.099
-556.456	-200.000	0.060	0.291
-555.442	-100.415	0.263	-0.065
-554.427	-63.352	-0.353	-0.144
-553.412	-200.000	-0.032	0.213
-552.398	4.552	-0.092	0.067
-551.383	-32.306	-0.198	-0.110
-550.369	-163.244	0.239	-0.011
-549.354	-200.000	-0.011	-0.292
-548.339	294.276	0.010	-0.017
-547.325	800.000	0.131	-0.514
-546.310	787.345	-0.181	-0.494
-545.296	-200.000	-0.025	0.155
-544.281	125.521	0.455	0.570
-543.266	-200.000	0.023	-0.217
-542.252	800.000	0.038	0.106
-541.237	-74.880	0.343	0.122
-540.223	243.172	0.100	-0.167
-539.208	-112.773	0.336	0.066
-538.193	800.000	-0.039	-0.151
-537.179	22.465	-0.107	-0.087
-536.164	-175.504	-0.109	-0.003
-535.150	534.640	0.071	-0.168
-534.135	800.000	0.087	0.243
-533.121	172.803	-0.087	-0.124
-532.106	-41.066	-0.214	-0.110
-531.091	-50.430	-0.161	-0.075
-530.077	-141.787	0.259	0.026
-529.062	-130.533	-0.236	-0.032
-528.048	703.239	-0.032	-0.084
-527.033	-200.000	0.026	0.469
-526.018	185.475	-0.227	-0.335
-525.004	45.037	0.225	-0.206
-523.989	-154.769	-0.203	-0.013
-522.975	-17.445	0.047	-0.029
-521.960	-200.000	0.084	-0.000
-520.945	-146.830	-0.174	-0.015
-519.931	118.040	-0.239	0.292
-518.916	141.679	-0.144	0.190
-517.902	608.455	-0.197	0.487
-516.887	-29.237	-0.163	-0.092
-515.872	-105.008	0.544	0.124
-514.858	-200.000	-0.053	0.271
-513.843	121.054	0.284	0.351
-512.829	800.000	-0.046	0.180
-511.814	346.969	0.132	-0.258
-510.799	800.000	-0.062	0.217
-509.785	55.831	0.177	-0.170
-508.770	3.974	0.071	0.051
-507.756	129.168	0.114	0.144
-506.741	-161.412	0.280	0.014
-505.726	115.936	-0.103	-0.125
-504.712	-166.905	-0.108	0.004
-503.697	-74.432	0.204	0.073
-502.683	-200.000	-0.040	-0.200
-501.668	91.374	-0.023	0.025
-500.653	74.168	-0.058	0.060
-499.639	-200.000	0.010	0.181
-498.624	-200.000	-0.085	0.398
-497.610	144.450	0.090	-0.119
-496.595	-200.000	-0.014	-0.452
-495.581	29.616	0.241	-0.204
-494.566	800.000	-0.076	0.319
-493.551	31.753	0.106	0.091
-492.537	-178.121	-0.276	0.006
-491.522	-200.000	-0.059	0.288
-490.508	-64.270	0.238	-0.096
-489.493	-65.379	0.119	-0.047
-488.478	228.081	0.099	0.160
-487.464	79.022	0.043	0.046
-486.449	-124.930	-0.154	-0.023
-485.435	-200.000	-0.006	-0.316
-484.420	-200.000	-0.012	0.243
-483.405	-69.086	-0.190	0.073
-482.391	-13.128	0.338	-0.218
-481.376	110.903	-0.169	0.201
-480.362	466.852	-0.026	-0.059
-479.347	-200.000	0.005	-0.035
-478.332	-200.000	0.045	-0.375
-477.318	32.681	-0.083	-0.071
-476.303	405.003	0.025	0.051
-475.289	-200.000	0.031	0.158
-474.274	-200.000	0.010	0.287
-473.259	-180.624	0.518	0.011
-472.245	-77.020	-0.107	-0.037
-471.230	-119.475	-0.134	0.023
-470.216	800.000	0.017	-0.068
-469.201	688.869	0.071	-0.183
-468.186	-200.000	-0.031	0.349
-467.172	328.765	-0.078	0.149
-466.157	-200.000	0.027	0.161
-465.143	-65.426	-0.178	0.071
-464.128	800.000	-0.033	0.124
-463.113	-1.475	0.175	0.122
-462.099	654.836	0.093	-0.237
-461.084	33.359	0.311	0.267
-460.070	170.954	0.118	-0.168
-459.055	800.000	-0.075	-0.280
-458.040	516.313	0.080	0.184
-457.026	-27.768	-0.042	0.024
-456.011	250.321	0.160	0.268
-454.997	-40.323	-0.148	0.076
-453.982	98.557	0.402	-0.458
-452.968	545.425	0.041	-0.098
-451.953	-19.075	-0.304	0.187
-450.938	186.972	-0.130	0.191
-449.924	800.000	0.032	0.127
-448.909	161.562	-0.160	-0.222
-447.895	32.565	-0.204	-0.175
-446.880	800.000	0.138	-0.385
-445.865	800.000	-0.087	-0.344
-444.851	-8.532	-0.153	0.102
-443.836	-137.310	0.116	0.013
-442.822	497.645	0.084	-0.191
-441.807	599.966	-0.047	-0.115
-440.792	800.000	-0.062	0.172
-439.778	-135.542	0.186	0.022
-438.763	16.571	-0.116	0.091
-437.749	-47.476	0.524	0.252
-436.734	544.352	0.049	0.116
-435.719	719.050	0.091	-0.240
-434.705	-87.850	-0.121	-0.036
-433.690	-200.000	0.041	0.203
-432.676	77.874	0.103	0.109
-431.661	437.745	-0.032	0.069
-430.646	-38.180	0.185	0.097
-429.632	800.000	-0.125	0.434
-428.617	-22.067	-0.093	-0.056
-427.603	-200.000	-0.013	0.516
-426.588	567.648	0.134	-0.321
-425.573	362.887	0.068	-0.134
-424.559	-124.002	0.309	-0.048
-423.544	108.439	-0.235	0.278
-422.530	-200.000	-0.018	-0.186
-421.515	67.379	-0.250	-0.252
-420.500	39.647	-0.120	-0.106
-419.486	-113.479	0.211	-0.041
-418.471	271.483	0.202	-0.352
-417.457	407.966	-0.203	-0.424
-416.442	800.000	-0.077	-0.302
-415.428	-94.005	0.102	0.028
-414.413	-118.136	-0.046	0.008
-413.398	706.663	0.067	-0.175
-412.384	15.035	-0.304	-0.235
-411.369	-127.004	0.178	0.026
-410.355	-200.000	0.022	-0.296
-409.340	-159.003	0.104	-0.006
-408.325	800.000	0.128	-0.366
-407.311	155.007	-0.049	-0.067
-406.296	130.181	0.194	0.245
-405.282	4.422	0.158	-0.114
-404.267	-57.410	0.230	0.100
-403.252	-200.000	0.006	0.139
-402.238	-112.298	0.073	-0.014
-401.223	-200.000	0.016	0.150
-400.209	3.133	0.261	-0.188
-399.194	-200.000	0.013	0.145
-398.179	-200.000	-0.012	0.343
-397.165	-125.040	-0.224	-0.034
-396.150	-144.471	0.139	-0.013
-395.136	140.028	0.040	0.052
-394.121	-93.719	0.178	0.048
-393.106	-89.906	-0.282	0.081
-392.092	6.778	0.103	0.076
-391.077	-101.108	0.205	0.050
-390.063	-200.000	-0.016	0.354
-389.048	60.675	0.323	0.316
-388.033	210.914	-0.080	-0.124
-387.019	-137.131	-0.207	-0.023
-386.004	-200.000	-0.034	0.257
-384.990	-24.726	-0.098	-0.058
-383.975	-84.558	-0.171	-0.053
-382.960	-200.000	-0.006	-0.198
-381.946	-104.810	0.508	-0.115
-380.931	-152.756	-0.162	-0.011
-379.917	800.000	0.110	0.377
-378.902	73.077	0.281	-0.290
-377.888	222.651	-0.095	0.151
-376.873	-200.000	0.025	0.382
-375.858	0.391	0.178	0.126
-374.844	741.638	0.115	0.306
-373.829	-200.000	0.002	0.255
-372.815	-200.000	0.019	-0.175
-371.800	-70.402	0.364	0.136
-370.785	-200.000	0.017	-0.115
-369.771	98.061	0.271	0.308
-368.756	341.024	0.060	0.115
-367.742	146.870	0.149	-0.197
-366.727	57.748	-0.190	0.183
-365.712	-200.000	0.007	0.051
-364.698	-200.000	0.001	-0.141
-363.683	303.355	-0.055	-0.100
-362.669	-200.000	0.037	-0.229
-361.654	47.498	-0.041	0.038
-360.639	187.069	-0.138	0.203
-359.625	-24.325	-0.046	0.027
-358.610	-61.983	-0.259	-0.107
-357.596	-12.066	0.322	0.208
-356.581	800.000	0.096	0.376
-355.566	163.689	-0.064	-0.089
-354.552	183.052	0.056	0.082
-353.537	-130.258	0.069	0.009
-352.523	-200.000	-0.000	0.024
-351.508	156.718	-0.008	0.011
-350.493	-6.116	-0.108	-0.073
-349.479	-3.758	-0.209	0.143
-348.464	-146.108	-0.361	-0.031
-347.450	141.079	0.157	0.204
-346.435	-151.412	0.312	-0.023
-345.420	20.492	0.091	-0.072
-344.406	11.497	-0.025	0.019
-343.391	-200.000	-0.017	-0.154
-342.377	-200.000	-0.010	-0.387
-341.362	-168.630	0.187	0.007
-340.348	-175.035	0.289	0.008
-339.333	-200.000	0.068	0.296
-338.318	-132.984	-0.217	-0.027
-337.304	800.000	0.099	-0.319
-336.289	800.000	-0.088	-0.319
-335.275	-100.277	-0.321	0.079
-334.260	-200.000	0.014	0.211
-333.245	800.000	0.081	0.264
-332.231	-200.000	-0.008	0.154
-331.216	-86.284	0.151	-0.046
-330.202	-15.674	0.093	0.058
-329.187	45.472	-0.165	-0.150
-328.172	-200.000	0.006	0.052
-327.158	87.742	-0.154	0.168
-326.143	-200.000	0.004	0.040
-325.129	325.965	0.131	-0.248
-324.114	84.531	0.027	0.029
-323.099	800.000	0.025	-0.083
-322.085	104.477	0.170	-0.197
-321.070	-23.961	-0.258	-0.152
-320.056	98.218	0.113	0.128
-319.041	-16.774	-0.254	-0.158
-318.026	-52.078	-0.230	-0.105
-317.012	-117.417	0.381	-0.068
-315.997	-65.798	0.144	-0.057
-314.983	800.000	-0.016	-0.069
-313.968	800.000	-0.085	-0.330
-312.953	-166.004	-0.144	-0.006
-311.939	127.186	0.221	0.276
-310.924	118.686	0.281	-0.342
-309.910	112.740	0.183	-0.218
-308.895	528.261	-0.161	0.373
-307.880	800.000	-0.052	0.210
-306.866	-200.000	0.030	-0.178
-305.851	800.000	0.051	0.143
-304.837	83.210	-0.215	0.230
-303.822	97.389	0.488	0.552
-302.807	-32.259	0.155	-0.085
-301.793	-139.929	0.122	-0.013
-300.778	114.584	-0.362	-0.434
-299.764	1.065	-0.415	-0.293
-298.749	-5.618	0.068	-0.046
-297.735	163.422	-0.119	0.165
-296.720	-200.000	0.081	-0.436
-295.705	-32.860	0.402	0.220
-294.691	299.468	-0.086	-0.155
-293.676	-109.450	-0.169	-0.035
-292.662	482.958	0.116	-0.259
-291.647	800.000	-0.130	-0.370
-290.632	146.050	0.046	0.061
-289.618	-200.000	0.012	-0.078
-288.603	120.644	-0.130	0.159
-287.589	-138.625	0.276	0.030
-286.574	350.045	-0.163	0.317
-285.559	-20.720	0.254	0.153
-284.545	-120.230	-0.400	0.067
-283.530	800.000	-0.057	-0.174
-282.516	405.364	-0.179	0.372
-281.501	12.166	0.174	0.132
-280.486	-200.000	0.125	-0.000
-279.472	69.163	-0.067	-0.067
-278.457	64.694	-0.133	0.132
-277.443	-14.836	-0.182	-0.115
-276.428	-133.018	0.043	-0.005
-275.413	207.760	-0.178	0.273
-274.399	-200.000	0.042	-0.342
-273.384	362.845	-0.157	-0.309
-272.370	-55.619	-0.136	-0.060
-271.355	40.317	-0.162	-0.143
-270.340	-200.000	0.064	0.424
-269.326	303.727	0.114	0.207
-268.311	-26.397	-0.250	0.144
-267.297	8.891	0.274	-0.203
-266.282	-83.540	-0.235	-0.074
-265.267	247.354	-0.162	-0.269
-264.253	-81.179	0.290	0.094
-263.238	82.244	-0.095	-0.101
-262.224	-200.000	-0.012	0.069
-261.209	-107.496	0.048	-0.010
-260.195	75.369	-0.156	0.162
-259.180	-200.000	-0.011	-0.117
-258.165	66.916	-0.087	-0.087
-257.151	-149.134	-0.119	-0.009
-256.136	800.000	-0.069	-0.191
-255.122	-130.494	0.176	-0.023
-254.107	-111.789	0.111	0.022
-253.092	-109.963	-0.186	-0.038
-252.078	-200.000	-0.003	0.128
-251.063	340.159	0.054	0.103
-250.049	354.147	-0.083	-0.161
-249.034	87.970	-0.217	0.236
-248.019	800.000	0.023	-0.071
-247.005	144.656	0.112	-0.147
-245.990	-17.769	0.146	-0.090
-244.976	168.863	0.174	-0.243
-243.961	3.233	-0.190	0.136
-242.946	413.375	0.131	-0.273
-241.932	-105.940	0.430	0.095
-240.917	-30.731	0.145	0.081
-239.903	-42.783	0.194	-0.097
-238.888	800.000	0.015	-0.058
-237.873	-65.914	-0.274	-0.107
-236.859	99.598	0.154	0.175
-235.844	-200.000	0.008	0.124
-234.830	87.887	0.118	0.129
-233.815	800.000	-0.049	-0.185
-232.800	-200.000	-0.011	0.047
-231.786	-164.080	-0.379	0.017
-230.771	800.000	-0.040	0.158
-229.757	-58.272	0.242	0.103
-228.742	-151.990	-0.488	-0.035
-227.727	144.286	-0.386	-0.506
-226.713	74.679	0.124	-0.128
-225.698	-0.181	0.110	-0.077
-224.684	-21.734	0.135	0.081
-223.669	-58.628	0.178	0.076
-222.655	-21.672	0.217	-0.130
-221.640	-111.526	-0.072	-0.014
-220.625	-200.000	-0.014	-0.106
-219.611	76.166	-0.148	-0.154
-218.596	-109.445	0.107	-0.022
-217.582	182.542	0.085	-0.123
-216.567	13.931	-0.049	-0.037
-215.552	-79.988	0.181	0.059
-214.538	-89.599	0.349	-0.100
-213.523	800.000	-0.060	-0.203
-212.509	-36.273	-0.407	-0.215
-211.494	-34.022	0.188	0.101
-210.479	-36.223	-0.404	-0.214
-209.465	29.686	-0.095	0.079
-208.450	-85.816	0.415	-0.126
-207.436	800.000	0.053	-0.170
-206.421	-200.000	-0.048	-0.247
-205.406	-137.686	-0.330	0.036
-204.392	176.802	0.094	-0.135
-203.377	660.746	-0.065	-0.164
-202.363	800.000	-0.056	-0.228
-201.348	300.838	-0.045	0.082
-200.333	53.496	0.148	0.139
-199.319	269.805	-0.154	-0.265
-198.304	-104.754	0.112	0.025
-197.290	88.747	0.257	-0.280
-196.275	-172.705	0.103	-0.003
-195.260	251.293	-0.109	-0.181
-194.246	-98.258	0.175	-0.044
-193.231	800.000	0.025	0.090
-192.217	-200.000	-0.029	0.263
-191.202	339.118	-0.119	0.227
-190.187	-200.000	-0.019	0.172
-189.173	-8.766	-0.246	0.162
-188.158	800.000	0.032	-0.127
-187.144	-61.184	-0.169	0.070
-186.129	-177.647	-0.453	0.011
-185.114	-85.233	0.120	0.037
-184.100	800.000	-0.069	-0.208
-183.085	10.116	-0.096	0.071
-182.071	-51.221	0.159	-0.073
-181.056	95.058	0.118	0.132
-180.042	-200.000	0.023	-0.334
-179.027	592.526	-0.132	0.320
-178.012	-93.101	0.315	-0.086
-176.998	-45.083	-0.186	0.090
-175.983	366.362	-0.073	0.145
-174.969	-3.690	-0.168	-0.114
-173.954	160.071	0.180	0.245
-172.939	172.444	-0.102	-0.144
-171.925	14.440	0.291	0.223
-170.910	-28.525	-0.163	-0.092
-169.896	-142.547	0.166	0.016
-168.881	32.494	-0.161	0.136
-167.866	35.096	-0.177	0.152
-166.852	-200.000	0.054	0.239
-165.837	200.382	0.279	0.419
-164.823	-53.479	-0.407	0.182
-163.808	-58.042	-0.186	-0.079
-162.793	-200.000	-0.008	0.100
-161.779	-200.000	-0.028	0.342
-160.764	-106.128	-0.244	-0.054
-159.750	-140.420	-0.065	-0.007
-158.735	66.986	0.058	0.058
-157.720	-33.164	-0.340	0.184
-156.706	-200.000	-0.012	0.065
-155.691	-127.206	0.163	0.023
-154.677	-200.000	0.026	0.173
-153.662	366.625	0.109	0.215
-152.647	-112.124	0.051	0.010
-151.633	166.169	0.152	0.211
-150.618	-118.237	-0.203	-0.035
-149.604	203.120	-0.155	-0.235
-148.589	-28.422	-0.283	-0.160
-147.574	-200.000	-0.010	-0.093
-146.560	454.655	-0.193	-0.418
-145.545	-200.000	0.005	0.119
-144.531	-51.227	-0.433	-0.198
-143.516	170.167	-0.055	0.077
-142.502	270.162	0.205	-0.352
-141.487	38.648	-0.459	0.401
-140.472	-200.000	0.004	-0.047
-139.458	69.560	-0.187	-0.188
-138.443	174.189	-0.175	-0.247
-137.429	800.000	-0.009	-0.039
-136.414	121.272	0.093	0.113
-135.399	422.043	0.028	-0.059
-134.385	300.692	0.091	0.163
-133.370	-158.014	0.087	0.005
-132.356	-69.168	0.449	-0.169
-131.341	147.148	0.105	-0.139
-130.326	-80.444	-0.213	-0.070
-129.312	-25.335	0.097	0.056
-128.297	733.286	-0.069	-0.181
-127.283	-116.242	0.173	0.031
-126.268	188.992	-0.067	-0.098
-125.253	-107.687	-0.366	0.078
-124.239	800.000	-0.054	-0.206
-123.224	800.000	-0.098	0.282
-122.210	-61.572	-0.134	-0.055
