DTS Sentinel unit serial number:	SN413079Multiplexer serial number:	ORYXHardware model number:	OX4-SRSoftware version number:	ORYX F/W v4.00 Oryx Data Collector v3.7.2.0data status	okinstallation	princeton_trtdifferential loss correction	single-endedforward channel	channel 3reverse channel	N/Adate	2019/09/14time	20:44:35forward acquisition time	60.00reverse acquisition time	0.00gamma	496.2192k internal	0.2316k external	0.2316temperature offset calibration	1.0003default loss term (dB/km)	0.3790temperature slope calibration	1.0000multiplexer offset coefficient	1.0000multiplexer slope coefficient	1.0000fibre end	0.00T internal ref (°C)	33.33T ext. ref 1 (°C)	4.80T ext. ref 2 (°C)	27.98length (m)	temperature (°C)	Stokes	anti-Stokes-747.200	-69.280	-0.171	0.067
-746.185	225.142	-0.159	0.261
-745.171	800.000	-0.119	0.398
-744.156	39.889	0.052	-0.047
-743.142	-67.604	-0.072	-0.029
-742.127	-41.787	-0.181	0.094
-741.112	50.369	-0.037	-0.036
-740.098	-10.942	0.310	-0.207
-739.083	800.000	0.087	-0.260
-738.069	-200.000	-0.016	-0.117
-737.054	564.423	0.020	0.049
-736.039	-72.598	-0.074	0.028
-735.025	35.220	0.332	0.295
-734.010	-21.950	-0.144	0.089
-732.996	74.651	-0.061	0.065
-731.981	-142.106	-0.453	-0.046
-730.966	45.206	0.040	-0.037
-729.952	209.584	-0.123	-0.196
-728.937	353.394	-0.154	-0.309
-727.923	18.411	-0.198	-0.160
-726.908	-200.000	-0.031	-0.260
-725.894	-60.397	0.197	0.085
-724.879	-200.000	-0.032	-0.546
-723.864	12.361	-0.214	-0.167
-722.850	800.000	-0.047	-0.162
-721.835	-139.893	-0.088	0.009
-720.821	136.266	0.177	-0.234
-719.806	800.000	-0.144	-0.462
-718.791	-10.074	0.347	-0.233
-717.777	-140.663	-0.224	-0.024
-716.762	-42.303	0.212	0.110
-715.748	-200.000	-0.043	0.220
-714.733	-30.390	-0.228	0.131
-713.718	-1.046	-0.260	0.186
-712.704	-95.907	0.097	-0.026
-711.689	-113.869	-0.295	0.058
-710.675	216.687	0.113	0.182
-709.660	800.000	0.062	0.210
-708.645	-132.024	0.246	-0.032
-707.631	-80.073	0.197	0.067
-706.616	51.074	0.219	-0.210
-705.602	49.691	-0.100	-0.095
-704.587	-11.625	-0.140	-0.093
-703.572	-46.844	-0.220	0.109
-702.558	-60.190	-0.040	-0.017
-701.543	-200.000	-0.065	-0.373
-700.529	800.000	-0.025	0.093
-699.514	-41.567	-0.059	-0.031
-698.499	24.349	0.258	0.216
-697.485	28.597	-0.081	-0.069
-696.470	287.468	-0.109	-0.200
-695.456	-162.613	0.345	0.017
-694.441	-24.005	-0.173	0.105
-693.426	-115.106	0.185	-0.036
-692.412	640.930	-0.075	-0.193
-691.397	-200.000	0.003	-0.135
-690.383	-24.988	0.143	-0.086
-689.368	395.840	-0.143	-0.301
-688.354	-68.850	0.181	-0.071
-687.339	467.218	0.050	-0.113
-686.324	-113.300	-0.219	-0.044
-685.310	-30.736	0.062	-0.035
-684.295	550.693	-0.143	-0.347
-683.281	-133.690	-0.108	0.014
-682.266	-121.188	0.224	-0.038
-681.251	-37.605	-0.413	0.222
-680.237	-200.000	0.006	0.296
-679.222	-200.000	0.034	0.163
-678.208	209.605	-0.059	-0.094
-677.193	-200.000	-0.005	-0.108
-676.178	-38.381	-0.335	0.179
-675.164	-45.123	0.145	-0.073
-674.149	60.289	0.109	0.109
-673.135	-200.000	-0.105	-0.545
-672.120	-132.744	-0.322	0.042
-671.105	-200.000	-0.026	-0.156
-670.091	287.522	0.101	-0.185
-669.076	26.973	0.219	-0.186
-668.062	146.248	0.110	-0.149
-667.047	68.423	0.245	-0.253
-666.032	151.246	0.129	-0.178
-665.018	27.509	0.369	-0.313
-664.003	-200.000	-0.067	0.328
-662.989	96.758	-0.104	-0.121
-661.974	-200.000	-0.010	0.072
-660.959	-39.423	0.283	-0.150
-659.945	274.366	-0.066	0.118
-658.930	-200.000	-0.029	0.344
-657.916	-87.694	-0.204	-0.062
-656.901	-200.000	0.009	-0.133
-655.886	139.378	0.238	0.316
-654.872	-200.000	-0.049	0.247
-653.857	-118.882	-0.093	-0.016
-652.843	55.380	-0.169	-0.165
-651.828	-91.885	-0.047	-0.013
-650.814	180.830	-0.067	-0.100
-649.799	-90.089	-0.163	-0.048
-648.784	-200.000	-0.021	0.204
-647.770	-179.696	-0.253	0.006
-646.755	-51.933	-0.237	-0.111
-645.741	-79.600	-0.258	-0.088
-644.726	-54.821	0.221	-0.101
-643.711	-200.000	0.009	0.130
-642.697	800.000	-0.048	-0.172
-641.682	-174.553	0.238	0.007
-640.668	-69.041	-0.309	0.120
-639.653	-109.673	0.087	0.019
-638.638	-200.000	0.029	0.135
-637.624	-96.033	-0.265	0.071
-636.609	63.294	-0.097	-0.099
-635.595	81.315	-0.245	0.267
-634.580	132.727	-0.149	0.194
-633.565	686.296	-0.027	-0.071
-632.551	-67.287	0.254	0.101
-631.536	135.357	-0.141	-0.185
-630.522	-75.285	-0.306	0.110
-629.507	418.115	0.084	-0.182
-628.492	17.619	-0.182	0.146
-627.478	223.160	0.028	-0.045
-626.463	-194.030	-0.167	-0.001
-625.449	-200.000	-0.010	0.167
-624.434	800.000	-0.054	0.208
-623.419	-21.829	-0.087	-0.053
-622.405	-63.329	-0.392	-0.163
-621.390	-200.000	-0.041	-0.266
-620.376	-155.674	0.394	0.025
-619.361	-31.727	0.262	0.148
-618.346	-200.000	0.028	-0.378
-617.332	-77.158	0.343	0.121
-616.317	-200.000	-0.015	-0.117
-615.303	-28.009	-0.170	-0.099
-614.288	800.000	0.042	0.154
-613.273	311.030	0.085	0.161
-612.259	-36.385	0.274	0.149
-611.244	349.818	-0.070	-0.139
-610.230	-63.440	-0.240	0.099
-609.215	-200.000	-0.032	0.231
-608.201	1.801	-0.074	0.054
-607.186	-82.107	-0.247	0.081
-606.171	-71.971	-0.148	0.055
-605.157	-64.331	0.202	0.083
-604.142	-200.000	-0.022	0.254
-603.128	-27.481	0.133	-0.078
-602.113	800.000	0.055	-0.237
-601.098	-33.620	0.022	-0.012
-600.084	-178.518	0.087	0.002
-599.069	-70.690	-0.015	-0.006
-598.055	-24.986	0.267	-0.160
-597.040	-200.000	0.028	-0.197
-596.025	-200.000	0.024	-0.251
-595.011	-153.605	0.237	0.017
-593.996	800.000	-0.138	0.426
-592.982	93.479	0.242	-0.275
-591.967	-164.884	0.080	-0.004
-590.952	-200.000	0.016	-0.105
-589.938	-110.220	0.443	-0.093
-588.923	30.129	-0.271	0.233
-587.909	621.225	0.041	0.105
-586.894	218.599	0.145	-0.233
-585.879	791.468	0.080	-0.221
-584.865	-14.400	0.119	0.077
-583.850	530.520	0.094	0.223
-582.836	-86.196	-0.368	-0.114
-581.821	35.806	0.161	-0.143
-580.806	-51.131	0.175	0.082
-579.792	296.890	0.091	0.168
-578.777	-119.961	0.132	0.023
-577.763	435.279	0.067	-0.146
-576.748	-200.000	-0.045	-0.311
-575.733	411.215	-0.048	0.102
-574.719	-18.979	-0.359	0.225
-573.704	588.998	0.091	0.225
-572.690	-102.444	0.282	0.068
-571.675	96.567	0.053	0.061
-570.661	-200.000	0.030	-0.355
-569.646	10.350	-0.204	0.156
-568.631	-200.000	0.024	-0.224
-567.617	-66.089	0.256	0.103
-566.602	-1.133	-0.292	0.208
-565.588	-200.000	0.002	0.046
-564.573	94.952	0.065	-0.074
-563.558	43.768	-0.096	0.089
-562.544	-134.836	0.477	-0.058
-561.529	-8.146	0.068	-0.046
-560.515	4.832	0.038	0.028
-559.500	-55.284	-0.136	-0.061
-558.485	-200.000	0.066	-0.312
-557.471	307.237	0.201	0.377
-556.456	-115.151	-0.038	0.007
-555.442	-200.000	0.027	-0.241
-554.427	-98.353	0.146	0.038
-553.412	15.192	0.105	-0.083
-552.398	800.000	-0.074	-0.276
-551.383	394.197	0.082	0.172
-550.369	-92.088	0.035	0.010
-549.354	-47.465	0.366	-0.179
-548.339	177.148	-0.111	-0.163
-547.325	299.372	-0.125	-0.232
-546.310	18.704	0.189	0.152
-545.296	-133.535	-0.109	0.014
-544.281	800.000	0.124	0.396
-543.266	-200.000	-0.015	0.178
-542.252	-128.710	0.059	0.008
-541.237	-20.378	0.199	-0.123
-540.223	14.303	0.094	-0.074
-539.208	-111.766	-0.130	0.026
-538.193	153.043	0.051	0.070
-537.179	-83.793	-0.069	0.022
-536.164	361.159	0.103	-0.207
-535.150	7.952	0.044	-0.033
-534.135	90.811	0.132	0.149
-533.121	136.435	-0.134	0.176
-532.106	800.000	0.016	0.051
-531.091	-73.921	-0.230	0.084
-530.077	-147.572	0.318	0.027
-529.062	561.890	0.128	-0.310
-528.048	-200.000	-0.074	-0.480
-527.033	197.350	0.164	-0.252
-526.018	277.308	-0.173	-0.309
-525.004	67.434	-0.115	-0.118
-523.989	200.480	0.074	-0.115
-522.975	-64.362	0.132	0.054
-521.960	297.585	-0.105	-0.194
-520.945	800.000	-0.075	-0.244
-519.931	800.000	-0.036	-0.119
-518.916	7.367	-0.205	0.153
-517.902	-200.000	-0.033	0.373
-516.887	-88.626	0.281	0.084
-515.872	-200.000	-0.005	0.074
-514.858	-92.156	-0.354	-0.100
-513.843	384.370	0.079	-0.164
-512.829	-43.416	-0.261	-0.133
-511.814	-138.437	-0.275	0.030
-510.799	-74.166	0.188	-0.068
-509.785	-91.727	-0.117	-0.033
-508.770	-200.000	-0.004	0.254
-507.756	-2.486	-0.182	-0.128
-506.741	-115.334	0.276	-0.052
-505.726	-64.497	-0.049	-0.020
-504.712	-60.403	0.080	-0.034
-503.697	186.488	0.128	-0.191
-502.683	800.000	0.042	0.161
-501.668	-200.000	-0.273	0.000
-500.653	-88.861	-0.179	0.053
-499.639	-146.113	-0.266	-0.024
-498.624	-142.460	0.124	0.012
-497.610	37.424	-0.145	0.129
-496.595	800.000	0.088	0.370
-495.581	227.100	0.091	-0.148
-494.566	-45.324	-0.166	0.083
-493.551	-173.504	0.121	-0.004
-492.537	-129.440	-0.234	-0.033
-491.522	-4.691	0.212	0.147
-490.508	179.404	-0.060	-0.089
-489.493	-111.883	-0.276	-0.056
-488.478	-82.523	-0.295	0.096
-487.464	194.529	-0.089	0.135
-486.449	-25.515	-0.164	-0.097
-485.435	237.186	-0.132	0.219
-484.420	-200.000	-0.067	-0.342
-483.405	-200.000	0.003	0.202
-482.391	-200.000	-0.012	0.101
-481.376	800.000	-0.069	0.233
-480.362	-52.457	0.176	0.082
-479.347	-117.399	-0.185	-0.034
-478.332	271.383	0.210	0.371
-477.318	-60.377	0.133	0.057
-476.303	-60.766	-0.457	-0.194
-475.289	-67.611	0.270	0.106
-474.274	-200.000	-0.045	-0.233
-473.259	-48.026	-0.295	0.143
-472.245	566.936	0.051	0.125
-471.230	-140.639	0.182	0.019
-470.216	341.187	-0.097	-0.190
-469.201	8.818	-0.017	-0.013
-468.186	-116.147	-0.533	0.099
-467.172	-13.660	-0.135	-0.087
-466.157	778.796	0.105	-0.287
-465.143	800.000	0.017	-0.071
-464.128	81.336	0.127	-0.138
-463.113	-74.767	-0.127	0.046
-462.099	-132.635	0.182	-0.023
-461.084	800.000	-0.039	-0.134
-460.070	-130.474	-0.118	0.016
-459.055	-44.593	-0.438	0.219
-458.040	-56.927	0.330	-0.146
-457.026	-82.390	0.323	-0.105
-456.011	197.535	-0.210	0.321
-454.997	110.249	0.288	-0.346
-453.982	-175.459	-0.323	-0.009
-452.968	800.000	-0.103	0.345
-451.953	800.000	-0.105	-0.352
-450.938	800.000	0.033	-0.117
-449.924	-21.804	-0.389	-0.237
-448.909	-200.000	-0.007	-0.077
-447.895	-42.133	0.061	0.031
-446.880	-157.715	0.198	-0.012
-445.865	-200.000	-0.058	-0.262
-444.851	169.442	0.017	0.025
-443.836	80.525	-0.292	-0.314
-442.822	800.000	-0.025	0.094
-441.807	-78.094	-0.295	-0.102
-440.792	-200.000	0.024	0.127
-439.778	193.843	0.161	-0.244
-438.763	446.902	-0.186	-0.409
-437.749	29.007	0.106	-0.090
-436.734	178.528	0.118	0.172
-435.719	-200.000	0.006	0.047
-434.705	-200.000	-0.038	0.364
-433.690	192.078	0.184	-0.278
-432.676	131.682	0.263	-0.339
-431.661	-35.040	-0.257	0.140
-430.646	800.000	0.030	0.110
-429.632	-200.000	-0.009	-0.056
-428.617	-5.543	0.220	-0.151
-427.603	-108.738	-0.248	-0.053
-426.588	-80.420	-0.249	0.083
-425.573	-37.858	0.304	-0.162
-424.559	800.000	-0.037	-0.114
-423.544	-62.945	0.134	0.055
-422.530	800.000	-0.035	0.136
-421.515	-81.598	-0.241	-0.079
-420.500	800.000	0.155	-0.561
-419.486	65.638	0.104	-0.106
-418.471	41.847	-0.205	-0.186
-417.457	70.747	-0.129	0.133
-416.442	-142.612	-0.150	-0.015
-415.428	-200.000	0.064	0.423
-414.413	-20.984	-0.012	0.007
-413.398	-106.351	-0.143	-0.032
-412.384	-162.423	-0.265	-0.013
-411.369	-0.515	0.220	0.156
-410.355	-153.537	0.155	0.011
-409.340	-200.000	-0.028	0.187
-408.325	-42.995	-0.235	0.119
-407.311	13.637	-0.243	0.189
-406.296	-200.000	-0.009	0.227
-405.282	12.309	0.145	0.112
-404.267	53.448	0.292	0.280
-403.252	23.793	-0.128	-0.106
-402.238	10.862	0.248	0.190
-401.223	800.000	-0.031	0.118
-400.209	-16.078	0.032	-0.020
-399.194	-99.017	0.124	-0.032
-398.179	-200.000	-0.010	-0.098
-397.165	516.201	-0.045	-0.105
-396.150	-43.434	-0.090	-0.046
-395.136	800.000	-0.040	-0.142
-394.121	-200.000	0.030	-0.178
-393.106	-112.658	0.134	-0.027
-392.092	800.000	-0.079	0.237
-391.077	-200.000	-0.007	0.083
-390.063	19.558	-0.136	0.109
-389.048	-112.231	0.119	-0.024
-388.033	-171.250	-0.215	-0.007
-387.019	-200.000	0.002	0.021
-386.004	-22.912	0.103	-0.062
-384.990	331.192	-0.182	0.351
-383.975	-84.621	-0.063	0.020
-382.960	800.000	0.025	-0.105
-381.946	502.198	-0.052	-0.120
-380.931	163.388	-0.081	-0.114
-379.917	61.144	-0.204	0.203
-378.902	-200.000	0.024	0.112
-377.888	-69.843	0.474	-0.181
-376.873	636.565	0.196	0.497
-375.858	-123.970	-0.227	-0.036
-374.844	-92.508	-0.156	-0.044
-373.829	-200.000	0.014	0.302
-372.815	800.000	0.013	0.048
-371.800	-200.000	-0.071	-0.419
-370.785	-200.000	0.026	-0.139
-369.771	707.307	0.100	-0.263
-368.756	148.960	0.284	-0.383
-367.742	-95.581	0.096	-0.026
-366.727	-27.482	-0.251	0.146
-365.712	-111.077	-0.168	0.034
-364.698	-126.170	0.270	-0.040
-363.683	136.399	-0.120	0.157
-362.669	-107.211	-0.239	0.053
-361.654	74.613	-0.191	-0.201
-360.639	764.923	-0.129	0.350
-359.625	-6.970	-0.226	-0.154
-358.610	59.831	-0.237	-0.233
-357.596	-18.279	-0.080	-0.050
-356.581	467.534	-0.088	0.197
-355.566	219.024	-0.203	0.324
-354.552	800.000	-0.034	0.111
-353.537	-56.555	0.249	-0.110
-352.523	-200.000	-0.073	-0.396
-351.508	164.497	-0.209	-0.294
-350.493	-200.000	-0.050	-0.311
-349.479	421.400	0.009	-0.020
-348.464	-160.074	-0.439	0.024
-347.450	-23.437	0.270	0.162
-346.435	-200.000	0.014	0.322
-345.420	-56.907	-0.068	0.030
-344.406	-114.955	-0.101	0.019
-343.391	800.000	-0.062	0.173
-342.377	-14.438	-0.083	-0.053
-341.362	509.097	0.079	-0.184
-340.348	-65.882	0.220	-0.088
-339.333	800.000	0.064	-0.245
-338.318	-158.244	0.154	0.009
-337.304	-44.114	-0.139	0.070
-336.289	165.312	-0.179	0.253
-335.275	-125.969	-0.212	-0.032
-334.260	-25.540	-0.146	0.086
-333.245	-200.000	0.034	0.162
-332.231	-170.458	0.156	0.005
-331.216	-61.453	0.189	-0.079
-330.202	-58.425	0.359	0.156
-329.187	319.283	0.025	-0.047
-328.172	56.529	-0.313	0.303
-327.158	426.550	0.032	0.069
-326.143	-200.000	0.029	0.339
-325.129	2.724	-0.243	0.176
-324.114	-26.476	0.319	0.186
-323.099	-200.000	0.010	-0.260
-322.085	-78.060	0.333	-0.114
-321.070	-200.000	-0.010	0.065
-320.056	800.000	-0.008	-0.030
-319.041	338.845	-0.169	0.328
-318.026	-1.898	0.342	-0.240
-317.012	800.000	0.075	0.263
-315.997	133.491	-0.056	0.072
-314.983	-110.946	-0.318	0.065
-313.968	-118.545	0.681	-0.120
-312.953	-47.532	-0.467	-0.226
-311.939	82.897	-0.190	-0.206
-310.924	381.407	0.176	-0.361
-309.910	-142.293	-0.204	-0.020
-308.895	-88.709	0.159	-0.047
-307.880	378.353	-0.047	0.095
-306.866	77.149	-0.125	-0.132
-305.851	800.000	-0.094	-0.340
-304.837	-46.503	-0.117	-0.057
-303.822	188.179	0.109	0.162
-302.807	51.756	-0.137	-0.130
-301.793	357.631	-0.170	0.338
-300.778	-200.000	-0.024	0.193
-299.764	-51.572	0.195	0.091
-298.749	1.886	0.323	-0.232
-297.735	-32.885	0.187	0.104
-296.720	-200.000	0.003	-0.274
-295.705	-160.942	0.206	0.011
-294.691	-14.533	0.048	0.030
-293.676	-200.000	0.058	-0.292
-292.662	-200.000	0.011	0.183
-291.647	-200.000	-0.025	-0.257
-290.632	242.615	0.106	-0.176
-289.618	-62.872	0.235	-0.097
-288.603	270.399	-0.175	0.306
-287.589	-57.964	0.239	0.104
-286.574	-200.000	0.073	0.414
-285.559	-200.000	0.002	-0.086
-284.545	82.304	0.140	-0.151
-283.530	-34.556	0.260	0.142
-282.516	-150.503	-0.071	0.005
-281.501	-103.169	0.317	-0.075
-280.486	719.848	0.143	0.377
-279.472	24.313	0.179	-0.147
-278.457	-77.691	-0.379	0.130
-277.443	-103.571	-0.393	0.092
-276.428	62.656	-0.032	0.031
-275.413	-200.000	-0.040	-0.290
-274.399	30.952	-0.076	0.064
-273.384	197.150	-0.186	0.283
-272.370	-108.774	0.058	-0.012
-271.355	-52.034	-0.121	-0.056
-270.340	46.527	0.072	0.066
-269.326	-173.699	0.273	0.008
-268.311	125.059	-0.169	-0.212
-267.297	-51.210	-0.266	0.124
-266.282	192.404	0.086	0.129
-265.267	230.705	-0.137	-0.223
-264.253	3.046	-0.217	-0.157
-263.238	-200.000	0.014	-0.096
-262.224	77.710	-0.222	-0.235
-261.209	-200.000	-0.023	-0.185
-260.195	-66.938	0.165	0.065
-259.180	800.000	0.053	0.182
-258.165	-200.000	-0.013	0.270
-257.151	-200.000	-0.015	-0.465
-256.136	-24.615	0.174	-0.103
-255.122	-200.000	-0.034	0.189
-254.107	71.541	0.164	0.170
-253.092	13.124	-0.137	-0.106
-252.078	79.214	-0.107	0.114
-251.063	-89.314	-0.016	0.005
-250.049	-50.271	0.481	0.226
-249.034	-49.767	-0.085	0.040
-248.019	-200.000	0.024	0.301
-247.005	-200.000	0.012	0.110
-245.990	-167.060	0.329	-0.013
-244.976	-30.983	-0.140	0.079
-243.961	-200.000	0.000	0.172
-242.946	800.000	-0.057	-0.198
-241.932	10.155	0.178	-0.135
-240.917	697.208	-0.095	0.247
-239.903	-174.973	-0.119	0.003
-238.888	75.034	0.246	-0.257
-237.873	-81.413	0.147	-0.048
-236.859	-200.000	0.028	-0.140
-235.844	-33.128	0.289	-0.159
-234.830	-200.000	-0.036	-0.234
-233.815	800.000	0.127	0.361
-232.800	41.450	0.149	0.134
-231.786	99.450	0.224	0.257
-230.771	38.051	0.077	-0.068
-229.757	-200.000	-0.006	-0.135
-228.742	-60.319	-0.110	-0.047
-227.727	33.481	0.276	-0.238
-226.713	-145.518	-0.003	0.000
-225.698	-55.273	-0.348	-0.155
-224.684	-42.550	0.164	-0.083
-223.669	-107.711	0.330	0.072
-222.655	-200.000	0.018	-0.152
-221.640	-133.678	-0.345	0.043
-220.625	-170.690	-0.249	0.009
-219.611	-200.000	-0.002	-0.034
-218.596	399.651	-0.029	0.061
-217.582	-50.163	-0.076	-0.036
-216.567	-18.878	0.163	0.101
-215.552	353.665	0.167	-0.328
-214.538	-138.026	-0.099	0.011
-213.523	43.374	0.192	-0.174
-212.509	-121.037	0.115	0.019
-211.494	-83.892	0.457	0.144
-210.479	159.112	0.050	-0.069
-209.465	79.183	0.250	-0.265
-208.450	170.356	0.080	-0.114
-207.436	-70.967	-0.388	0.145
-206.421	-161.615	0.498	0.025
-205.406	-200.000	0.022	0.231
-204.392	-88.929	0.045	-0.013
-203.377	253.704	0.067	0.114
-202.363	800.000	0.101	-0.294
-201.348	-72.329	-0.207	-0.076
-200.333	-41.286	0.170	-0.087
-199.319	-200.000	-0.019	-0.291
-198.304	48.163	0.092	-0.085
-197.290	-76.474	0.170	0.059
-196.275	2.164	0.146	0.105
-195.260	-14.537	0.141	0.090
-194.246	-47.625	-0.309	-0.149
-193.231	-43.632	-0.109	-0.054
-192.217	-200.000	-0.007	0.038
-191.202	426.127	0.056	-0.120
-190.187	-200.000	0.061	0.349
-189.173	-200.000	0.098	0.464
-188.158	252.542	0.206	-0.348
-187.144	-83.155	-0.333	0.106
-186.129	-46.260	0.095	0.046
-185.114	-8.151	0.078	0.052
-184.100	-8.116	-0.380	0.254
-183.085	460.483	0.036	0.080
-182.071	-130.707	0.045	-0.006
-181.056	402.738	-0.023	-0.047
-180.042	-72.574	0.318	-0.116
-179.027	49.612	0.279	0.260
-178.012	-116.951	-0.104	0.019
-176.998	-129.844	-0.143	0.019
-175.983	-200.000	-0.028	-0.146
-174.969	-170.238	0.128	0.004
-173.954	-99.677	0.068	0.017
-172.939	800.000	0.126	0.406
-171.925	800.000	0.051	0.155
-170.910	284.125	-0.060	0.106
-169.896	-137.386	0.094	-0.011
-168.881	-41.905	0.173	-0.088
-167.866	49.405	-0.140	0.131
-166.852	-200.000	-0.011	0.316
-165.837	-81.002	0.279	-0.092
-164.823	-92.092	-0.086	0.024
-163.808	720.763	-0.099	0.261
-162.793	39.578	-0.103	-0.091
-161.779	-2.387	-0.080	-0.055
-160.764	72.514	-0.197	-0.203
-159.750	-200.000	0.020	0.212
-158.735	-200.000	-0.006	-0.381
-157.720	800.000	-0.125	0.435
-156.706	800.000	-0.064	0.185
-155.691	118.295	-0.176	0.215
-154.677	800.000	-0.021	0.090
-153.662	-200.000	0.056	-0.317
-152.647	113.768	0.096	0.116
-151.633	139.227	-0.144	0.187
-150.618	-65.850	0.451	-0.178
-149.604	170.091	-0.217	-0.308
-148.589	-46.184	0.076	-0.037
-147.574	574.864	0.109	0.262
-146.560	198.654	-0.165	0.250
-145.545	144.999	-0.090	0.119
-144.531	271.562	0.065	0.114
-143.516	800.000	-0.040	0.122
-142.502	422.064	0.084	0.179
-141.487	-200.000	-0.034	0.192
-140.472	-64.935	-0.239	-0.096
-139.458	55.960	-0.186	0.179
-138.443	-200.000	-0.051	0.255
-137.429	669.122	0.045	-0.114
-136.414	800.000	0.106	-0.323
-135.399	-118.350	-0.272	0.048
-134.385	-41.028	0.220	0.112
-133.370	-200.000	-0.003	-0.070
-132.356	-200.000	-0.048	-0.507
-131.341	-117.327	0.123	-0.022
-130.326	-200.000	0.007	0.192
-129.312	800.000	0.055	-0.157
-128.297	800.000	0.029	0.114
-127.283	-85.568	-0.241	-0.074
-126.268	-200.000	-0.021	-0.153
-125.253	-13.251	0.152	0.098
-124.239	800.000	0.025	0.088
-123.224	-15.897	0.185	-0.117
-122.210	800.000	-0.096	-0.314
