DTS Sentinel unit serial number:	SN413079Multiplexer serial number:	ORYXHardware model number:	OX4-SRSoftware version number:	ORYX F/W v4.00 Oryx Data Collector v3.7.2.0data status	okinstallation	princeton_trtdifferential loss correction	single-endedforward channel	channel 3reverse channel	N/Adate	2019/09/16time	15:36:35forward acquisition time	60.00reverse acquisition time	0.00gamma	496.2192k internal	0.2292k external	0.2292temperature offset calibration	0.9942default loss term (dB/km)	0.3790temperature slope calibration	1.0000multiplexer offset coefficient	1.0000multiplexer slope coefficient	1.0000fibre end	0.00T internal ref (°C)	41.14T ext. ref 1 (°C)	14.71T ext. ref 2 (°C)	36.72length (m)	temperature (°C)	Stokes	anti-Stokes-747.200	153.232	-0.077	0.108
-746.185	14.974	-0.052	0.041
-745.171	-83.961	-0.327	-0.106
-744.156	800.000	-0.052	0.171
-743.142	-200.000	0.037	0.390
-742.127	800.000	-0.129	0.392
-741.112	252.618	0.108	0.189
-740.098	-123.285	-0.213	-0.035
-739.083	-157.001	0.225	-0.014
-738.069	-60.259	-0.083	-0.036
-737.054	511.272	-0.075	0.178
-736.039	-200.000	0.001	-0.074
-735.025	-111.905	-0.351	-0.073
-734.010	-200.000	-0.011	0.085
-732.996	40.190	-0.238	0.219
-731.981	-185.567	-0.166	-0.003
-730.966	-71.692	-0.367	-0.140
-729.952	147.100	-0.190	-0.261
-728.937	340.880	-0.100	0.199
-727.923	61.616	-0.137	0.139
-726.908	-200.000	0.024	-0.364
-725.894	-200.000	-0.023	-0.185
-724.879	-101.125	0.061	0.015
-723.864	420.803	-0.125	-0.273
-722.850	-30.457	-0.071	-0.041
-721.835	-45.349	-0.336	-0.170
-720.821	31.767	0.152	0.134
-719.806	800.000	-0.090	-0.291
-718.791	64.436	0.166	0.171
-717.777	-77.991	-0.290	-0.102
-716.762	136.450	0.068	0.091
-715.748	-200.000	0.007	0.154
-714.733	-200.000	0.050	0.000
-713.718	-200.000	-0.005	-0.114
-712.704	401.516	0.149	-0.321
-711.689	-117.925	-0.127	0.023
-710.675	349.774	0.078	-0.157
-709.660	800.000	-0.014	0.043
-708.645	-119.565	0.168	-0.030
-707.631	800.000	-0.036	-0.126
-706.616	-14.213	0.224	-0.148
-705.602	109.635	-0.125	-0.153
-704.587	-90.710	-0.101	-0.030
-703.572	42.529	-0.115	-0.107
-702.558	577.819	0.109	0.273
-701.543	-200.000	0.016	0.114
-700.529	800.000	-0.005	-0.016
-699.514	-200.000	-0.004	-0.183
-698.499	-200.000	-0.030	-0.208
-697.485	210.960	-0.046	0.075
-696.470	-34.044	-0.154	-0.087
-695.456	45.825	-0.171	-0.161
-694.441	24.124	0.079	0.066
-693.426	291.973	-0.147	0.273
-692.412	800.000	0.052	0.191
-691.397	-128.022	0.204	-0.030
-690.383	-200.000	-0.008	0.176
-689.368	497.944	-0.101	0.237
-688.354	10.453	0.136	0.106
-687.339	136.322	0.144	-0.192
-686.324	-28.457	-0.283	0.167
-685.310	47.137	-0.124	-0.118
-684.295	-200.000	0.021	-0.350
-683.281	146.712	0.271	-0.372
-682.266	-100.742	0.302	-0.076
-681.251	-200.000	-0.001	0.126
-680.237	725.486	-0.048	-0.131
-679.222	-200.000	-0.054	0.299
-678.208	-140.996	-0.239	0.025
-677.193	-200.000	0.006	-0.221
-676.178	402.072	0.037	-0.079
-675.164	289.247	-0.097	0.179
-674.149	-47.678	0.121	-0.060
-673.135	-120.225	-0.262	-0.046
-672.120	67.808	-0.095	-0.099
-671.105	-46.323	-0.416	-0.209
-670.091	-111.312	-0.226	-0.047
-669.076	-98.628	0.179	0.047
-668.062	800.000	-0.108	-0.313
-667.047	25.032	-0.095	-0.081
-666.032	-47.693	0.115	-0.057
-665.018	-66.646	-0.380	0.154
-664.003	27.373	-0.265	0.227
-662.989	-35.578	-0.165	0.091
-661.974	31.200	0.031	0.027
-660.959	-200.000	-0.004	-0.212
-659.945	31.785	-0.027	-0.024
-658.930	-200.000	0.024	0.366
-657.916	-28.920	0.165	-0.097
-656.901	-200.000	-0.037	-0.267
-655.886	-102.084	-0.191	-0.047
-654.872	-134.753	0.228	0.028
-653.857	-200.000	-0.064	0.549
-652.843	-200.000	0.015	0.267
-651.828	-200.000	0.019	-0.098
-650.814	-8.211	-0.246	0.169
-649.799	422.816	-0.050	-0.110
-648.784	1.256	0.225	0.165
-647.770	79.435	-0.229	0.250
-646.755	359.296	-0.163	0.332
-645.741	800.000	-0.055	-0.242
-644.726	-101.975	0.178	-0.044
-643.711	-162.776	-0.351	-0.018
-642.697	-44.054	0.272	-0.139
-641.682	-78.556	-0.077	-0.027
-640.668	373.353	0.047	0.098
-639.653	-24.405	0.277	-0.168
-638.638	-195.950	0.218	0.002
-637.624	-200.000	0.012	-0.106
-636.609	-182.097	0.327	-0.006
-635.595	36.638	0.338	-0.305
-634.580	800.000	-0.025	-0.089
-633.565	244.190	-0.093	0.159
-632.551	-109.463	0.099	-0.021
-631.536	-140.033	0.475	-0.051
-630.522	-22.632	-0.143	0.088
-629.507	138.669	0.081	0.108
-628.492	800.000	0.089	0.284
-627.478	350.301	0.103	0.208
-626.463	-200.000	-0.003	-0.261
-625.449	-200.000	-0.016	0.089
-624.434	-139.826	-0.176	-0.019
-623.419	132.642	0.179	0.235
-622.405	59.162	-0.027	-0.027
-621.390	54.544	-0.148	-0.146
-620.376	56.460	-0.099	0.098
-619.361	-6.677	-0.114	0.079
-618.346	800.000	0.020	-0.079
-617.332	190.719	0.086	-0.132
-616.317	-200.000	-0.021	-0.239
-615.303	280.690	0.041	-0.075
-614.288	174.238	-0.047	-0.070
-613.273	475.684	-0.172	0.395
-612.259	258.673	0.136	-0.238
-611.244	-177.904	0.371	0.009
-610.230	29.540	-0.130	0.112
-609.215	-68.872	0.187	0.074
-608.201	-160.787	0.274	0.015
-607.186	67.421	-0.317	-0.330
-606.171	203.367	0.080	0.126
-605.157	176.874	0.265	-0.392
-604.142	-25.698	0.143	0.086
-603.128	800.000	0.118	-0.377
-602.113	734.523	0.075	0.203
-601.098	-3.582	0.181	-0.128
-600.084	-200.000	0.045	-0.358
-599.069	21.459	-0.298	-0.246
-598.055	-24.511	0.320	0.194
-597.040	153.143	0.184	-0.257
-596.025	426.942	0.103	-0.227
-595.011	40.713	0.169	0.155
-593.996	191.633	-0.064	0.098
-592.982	263.061	0.145	0.257
-591.967	-62.960	0.156	0.066
-590.952	-59.595	-0.024	0.010
-589.938	-200.000	-0.068	0.346
-588.923	-200.000	-0.008	0.125
-587.909	-200.000	-0.023	0.117
-586.894	800.000	-0.007	-0.030
-585.879	800.000	0.007	-0.024
-584.865	800.000	-0.124	-0.373
-583.850	259.624	-0.102	-0.180
-582.836	-200.000	-0.007	-0.086
-581.821	-200.000	0.014	-0.263
-580.806	-66.890	0.145	0.058
-579.792	-169.414	0.093	-0.003
-578.777	225.334	0.017	0.028
-577.763	-119.970	0.185	0.032
-576.748	800.000	0.043	0.180
-575.733	-31.203	0.114	-0.065
-574.719	-149.740	-0.163	-0.013
-573.704	-200.000	-0.011	0.174
-572.690	800.000	0.013	-0.047
-571.675	-65.419	0.442	-0.181
-570.661	-56.929	-0.331	-0.149
-569.646	800.000	-0.114	-0.355
-568.631	23.530	-0.125	-0.105
-567.617	-72.754	-0.203	0.076
-566.602	-200.000	-0.011	0.194
-565.588	-145.115	-0.272	0.025
-564.573	-65.247	-0.054	0.022
-563.558	156.043	-0.234	0.328
-562.544	-152.442	-0.138	0.010
-561.529	-200.000	0.059	0.281
-560.515	-181.724	-0.272	0.005
-559.500	-67.617	-0.219	-0.087
-558.485	268.889	-0.199	-0.354
-557.471	24.153	-0.190	-0.160
-556.456	-120.847	0.208	-0.036
-555.442	56.550	0.200	0.198
-554.427	-200.000	0.003	0.086
-553.412	63.721	0.369	-0.376
-552.398	-76.649	0.263	-0.094
-551.383	-200.000	-0.021	-0.295
-550.369	-109.589	0.174	-0.037
-549.354	176.063	-0.102	0.150
-548.339	85.580	-0.202	-0.225
-547.325	800.000	-0.078	0.335
-546.310	-24.430	-0.117	-0.071
-545.296	60.750	-0.202	-0.203
-544.281	134.335	-0.148	-0.195
-543.266	-78.935	0.107	-0.037
-542.252	152.067	-0.113	-0.156
-541.237	800.000	-0.050	-0.149
-540.223	-200.000	-0.030	0.179
-539.208	800.000	-0.042	-0.119
-538.193	800.000	0.149	0.460
-537.179	54.030	0.292	0.286
-536.164	-115.756	-0.264	0.050
-535.150	649.258	0.057	-0.148
-534.135	287.473	0.114	-0.209
-533.121	0.677	-0.123	0.090
-532.106	-49.603	0.120	0.058
-531.091	-40.174	-0.244	0.129
-530.077	-192.128	0.319	0.003
-529.062	-45.467	0.159	-0.080
-528.048	-49.576	0.039	-0.019
-527.033	70.124	0.193	-0.202
-526.018	610.317	-0.133	0.339
-525.004	-56.578	0.151	0.068
-523.989	-144.840	-0.147	-0.014
-522.975	-200.000	-0.015	-0.138
-521.960	257.263	-0.111	-0.194
-520.945	249.879	-0.042	0.072
-519.931	81.931	0.193	-0.212
-518.916	800.000	-0.058	0.189
-517.902	-200.000	0.065	0.384
-516.887	-33.281	-0.304	0.171
-515.872	-200.000	0.004	-0.241
-514.858	-32.387	-0.387	-0.219
-513.843	-200.000	0.021	0.176
-512.829	-200.000	0.037	-0.452
-511.814	97.643	0.057	0.067
-510.799	686.642	-0.073	-0.193
-509.785	-70.272	-0.191	-0.074
-508.770	-39.312	0.107	-0.057
-507.756	-136.262	0.108	-0.013
-506.741	-130.450	-0.088	-0.012
-505.726	-1.735	-0.121	-0.086
-504.712	-41.387	-0.316	-0.165
-503.697	-51.956	0.320	0.151
-502.683	-14.132	0.315	0.206
-501.668	800.000	-0.040	0.142
-500.653	80.156	-0.050	0.055
-499.639	-200.000	-0.016	-0.078
-498.624	800.000	0.043	-0.126
-497.610	2.398	-0.369	-0.271
-496.595	87.392	0.143	-0.160
-495.581	605.040	-0.053	-0.133
-494.566	406.211	-0.101	0.215
-493.551	-141.250	-0.313	-0.032
-492.537	-200.000	0.058	-0.286
-491.522	800.000	-0.042	-0.136
-490.508	800.000	0.065	-0.255
-489.493	-45.720	0.264	0.132
-488.478	326.420	0.095	-0.185
-487.464	281.198	-0.196	0.355
-486.449	-0.524	0.154	-0.111
-485.435	-41.621	-0.607	-0.316
-484.420	-175.133	-0.357	0.010
-483.405	-200.000	-0.064	-0.287
-482.391	800.000	-0.020	-0.061
-481.376	-14.386	-0.078	0.051
-480.362	108.211	-0.205	0.248
-479.347	-88.976	0.066	-0.020
-478.332	-192.248	-0.268	-0.003
-477.318	186.382	0.069	0.104
-476.303	-123.722	-0.155	-0.025
-475.289	-161.388	0.235	-0.012
-474.274	-6.262	-0.278	-0.192
-473.259	176.000	0.049	-0.071
-472.245	-7.968	0.101	-0.069
-471.230	-200.000	-0.005	0.055
-470.216	-200.000	0.002	0.231
-469.201	258.809	-0.039	0.068
-468.186	-86.357	-0.149	0.047
-467.172	-52.642	-0.067	0.031
-466.157	800.000	-0.025	-0.108
-465.143	-200.000	-0.006	0.323
-464.128	45.181	0.139	0.130
-463.113	104.740	0.119	0.142
-462.099	-89.182	-0.350	-0.105
-461.084	610.513	-0.016	-0.041
-460.070	45.179	-0.054	-0.051
-459.055	102.651	0.135	0.160
-458.040	130.785	-0.132	0.171
-457.026	800.000	-0.072	-0.261
-456.011	800.000	-0.122	0.352
-454.997	-200.000	0.027	0.190
-453.982	26.266	-0.106	0.090
-452.968	31.944	0.207	-0.181
-451.953	-200.000	0.041	-0.224
-450.938	375.773	-0.152	-0.314
-449.924	59.534	-0.153	0.152
-448.909	-132.035	0.258	0.034
-447.895	124.104	0.065	0.083
-446.880	-15.754	-0.222	0.143
-445.865	-131.826	-0.058	0.008
-444.851	438.746	-0.096	0.212
-443.836	-5.410	0.282	-0.196
-442.822	149.666	-0.048	-0.066
-441.807	800.000	-0.098	-0.275
-440.792	-143.362	0.052	-0.005
-439.778	-158.881	-0.238	-0.014
-438.763	91.751	-0.135	0.154
-437.749	38.674	-0.074	-0.067
-436.734	-81.408	-0.259	-0.086
-435.719	159.390	0.190	-0.267
-434.705	148.507	-0.145	-0.198
-433.690	-37.308	-0.135	-0.073
-432.676	800.000	-0.106	-0.329
-431.661	-14.513	-0.235	-0.153
-430.646	800.000	0.064	0.187
-429.632	169.904	0.103	-0.149
-428.617	-200.000	0.042	0.290
-427.603	800.000	-0.033	-0.132
-426.588	367.655	-0.178	0.363
-425.573	800.000	0.030	-0.114
-424.559	437.652	0.013	-0.029
-423.544	-100.383	0.202	0.051
-422.530	-200.000	-0.011	0.125
-421.515	-49.256	0.196	-0.095
-420.500	-82.326	0.150	-0.049
-419.486	-56.672	0.113	0.051
-418.471	-108.223	-0.299	0.065
-417.457	-200.000	0.003	-0.092
-416.442	-143.851	-0.207	-0.020
-415.428	673.066	-0.067	-0.176
-414.413	-55.624	0.296	0.134
-413.398	303.243	0.120	0.225
-412.384	-80.352	0.132	-0.045
-411.369	-32.094	0.365	0.207
-410.355	3.843	0.135	-0.100
-409.340	-50.259	-0.308	-0.147
-408.325	14.946	-0.152	0.120
-407.311	-200.000	-0.001	-0.305
-406.296	-109.583	0.233	-0.050
-405.282	115.854	-0.144	0.178
-404.267	33.979	-0.065	-0.058
-403.252	800.000	0.082	0.239
-402.238	-85.829	0.257	-0.080
-401.223	-79.745	-0.137	0.047
-400.209	25.050	-0.186	0.156
-399.194	520.006	0.069	-0.163
-398.179	-152.995	-0.189	0.013
-397.165	-123.192	-0.229	-0.037
-396.150	-131.554	0.262	0.035
-395.136	-87.538	-0.200	0.061
-394.121	-85.625	0.227	-0.071
-393.106	-117.544	0.338	0.062
-392.092	800.000	-0.090	0.326
-391.077	-104.296	0.156	-0.037
-390.063	33.481	0.146	-0.128
-389.048	59.414	-0.072	-0.072
-388.033	-117.668	-0.258	-0.047
-387.019	-200.000	0.012	-0.126
-386.004	-200.000	-0.003	0.019
-384.990	-2.059	-0.179	0.127
-383.975	-34.029	-0.334	-0.186
-382.960	487.636	-0.045	0.104
-381.946	-200.000	0.056	0.475
-380.931	466.497	-0.094	0.212
-379.917	800.000	0.078	-0.338
-378.902	-200.000	0.017	0.087
-377.888	-78.245	-0.293	-0.102
-376.873	90.380	-0.134	-0.151
-375.858	619.529	-0.085	0.215
-374.844	-200.000	-0.359	0.001
-373.829	26.968	0.210	-0.178
-372.815	-138.400	-0.093	0.010
-371.800	-200.000	0.022	0.283
-370.785	183.398	0.278	0.415
-369.771	7.412	0.279	-0.210
-368.756	56.244	-0.196	-0.192
-367.742	-139.091	0.067	-0.007
-366.727	-5.818	0.135	0.093
-365.712	493.295	0.012	-0.028
-364.698	300.371	-0.157	-0.291
-363.683	-114.937	0.120	-0.023
-362.669	40.306	0.067	-0.061
-361.654	800.000	0.128	-0.461
-360.639	-200.000	-0.033	-0.245
-359.625	-200.000	0.007	0.063
-358.610	377.808	0.083	0.170
-357.596	800.000	-0.046	0.166
-356.581	-53.561	-0.382	-0.176
-355.566	34.576	0.103	-0.091
-354.552	142.671	0.083	0.111
-353.537	-73.888	0.120	0.044
-352.523	274.601	0.122	0.218
-351.508	-180.954	-0.167	0.003
-350.493	-12.651	-0.137	-0.090
-349.479	-66.552	0.183	-0.073
-348.464	139.874	-0.053	-0.070
-347.450	48.604	0.235	-0.222
-346.435	-138.104	-0.194	0.022
-345.420	-200.000	0.074	0.542
-344.406	-162.371	-0.265	-0.013
-343.391	472.018	-0.137	0.310
-342.377	800.000	0.021	-0.065
-341.362	105.366	-0.098	-0.117
-340.348	501.048	0.081	0.189
-339.333	-186.037	-0.071	-0.001
-338.318	9.069	0.154	0.117
-337.304	-2.356	0.076	0.054
-336.289	237.658	-0.151	0.252
-335.275	254.962	0.047	-0.082
-334.260	42.038	0.209	-0.191
-333.245	-23.611	-0.099	0.060
-332.231	-200.000	0.009	0.457
-331.216	-200.000	0.015	-0.100
-330.202	-147.132	0.385	0.033
-329.187	-28.009	0.075	-0.044
-328.172	-39.297	0.331	0.175
-327.158	150.624	0.188	0.257
-326.143	800.000	0.081	0.343
-325.129	414.294	0.086	-0.184
-324.114	-200.000	0.004	0.033
-323.099	154.020	0.139	0.192
-322.085	-51.539	-0.117	-0.055
-321.070	406.276	0.058	0.124
-320.056	-200.000	0.023	-0.145
-319.041	800.000	0.070	-0.198
-318.026	-65.547	-0.239	0.097
-317.012	-100.820	-0.310	-0.077
-315.997	-200.000	0.041	0.189
-314.983	-142.768	-0.150	-0.015
-313.968	-28.686	0.162	0.094
-312.953	-200.000	-0.035	-0.290
-311.939	-200.000	0.004	0.265
-310.924	37.687	-0.024	-0.021
-309.910	-200.000	-0.043	0.277
-308.895	-98.771	-0.123	0.031
-307.880	207.281	0.093	0.146
-306.866	-154.056	-0.212	0.015
-305.851	403.927	0.051	-0.109
-304.837	-61.948	0.442	-0.186
-303.822	-200.000	-0.332	0.000
-302.807	-93.274	0.333	-0.093
-301.793	324.430	0.172	-0.331
-300.778	-23.107	-0.181	-0.109
-299.764	580.076	-0.096	0.236
-298.749	-10.352	-0.108	-0.072
-297.735	157.822	0.247	0.345
-296.720	-67.809	-0.256	-0.101
-295.705	430.692	-0.180	-0.392
-294.691	-94.033	-0.015	-0.004
-293.676	39.854	-0.243	0.220
-292.662	344.055	-0.071	-0.139
-291.647	-200.000	-0.022	0.278
-290.632	800.000	-0.065	-0.221
-289.618	58.956	0.239	-0.237
-288.603	-200.000	0.036	-0.241
-287.589	136.352	-0.208	-0.272
-286.574	51.553	0.164	0.157
-285.559	800.000	0.082	-0.237
-284.545	15.316	-0.319	0.251
-283.530	-200.000	0.002	0.356
-282.516	-81.527	-0.117	0.039
-281.501	-73.527	0.183	-0.067
-280.486	46.641	-0.310	0.289
-279.472	-200.000	0.015	0.143
-278.457	240.946	0.091	0.153
-277.443	158.326	0.190	-0.265
-276.428	-161.258	-0.130	0.007
-275.413	-200.000	0.055	0.258
-274.399	377.209	0.070	0.143
-273.384	-13.315	0.251	-0.164
-272.370	-18.977	0.071	-0.044
-271.355	-76.968	0.243	0.085
-270.340	-200.000	0.034	0.150
-269.326	-142.059	-0.355	-0.035
-268.311	130.221	0.123	-0.159
-267.297	-170.664	-0.160	-0.006
-266.282	-29.645	0.082	0.047
-265.267	-200.000	0.012	-0.158
-264.253	800.000	0.122	-0.378
-263.238	-42.957	-0.097	-0.049
-262.224	-200.000	-0.053	0.275
-261.209	800.000	0.098	-0.395
-260.195	243.934	-0.189	-0.319
-259.180	240.233	-0.141	0.236
-258.165	-79.520	0.164	0.056
-257.151	800.000	-0.065	-0.264
-256.136	-200.000	0.023	-0.169
-255.122	-146.272	-0.323	0.028
-254.107	-200.000	0.016	0.097
-253.092	-200.000	-0.067	-0.296
-252.078	511.745	-0.129	0.301
-251.063	-19.360	0.168	-0.104
-250.049	-199.134	0.085	-0.000
-249.034	-200.000	0.023	0.174
-248.019	-111.514	-0.150	0.031
-247.005	-200.000	0.019	0.111
-245.990	-4.811	-0.187	0.129
-244.976	376.621	-0.170	0.348
-243.961	-110.718	0.043	-0.009
-242.946	-20.776	-0.361	-0.222
-241.932	800.000	-0.009	0.035
-240.917	-107.767	-0.341	0.075
-239.903	406.771	-0.105	-0.223
-238.888	-182.626	-0.052	-0.001
-237.873	-168.417	0.335	0.013
-236.859	800.000	-0.089	-0.293
-235.844	363.800	0.094	0.189
-234.830	-100.365	0.435	-0.108
-233.815	800.000	0.045	0.157
-232.800	-122.488	-0.259	0.042
-231.786	-107.134	-0.135	-0.030
-230.771	147.325	0.157	0.212
-229.757	-55.867	-0.123	-0.055
-228.742	-4.770	-0.253	-0.175
-227.727	-200.000	0.039	0.232
-226.713	68.246	-0.241	0.248
-225.698	-84.401	0.403	0.128
-224.684	-148.555	0.231	-0.019
-223.669	-115.501	-0.245	0.046
-222.655	42.068	0.089	0.081
-221.640	-200.000	-0.018	0.235
-220.625	800.000	0.061	0.176
-219.611	640.969	0.020	-0.052
-218.596	513.851	0.044	-0.103
-217.582	25.961	-0.196	-0.164
-216.567	426.430	0.061	0.131
-215.552	-53.323	0.192	0.088
-214.538	39.608	0.062	0.056
-213.523	-67.007	-0.283	-0.112
-212.509	585.546	-0.044	-0.107
-211.494	-135.839	0.433	0.051
-210.479	-200.000	-0.031	-0.159
-209.465	54.545	-0.097	-0.094
-208.450	-200.000	0.004	0.030
-207.436	29.564	0.342	0.292
-206.421	45.262	0.028	0.026
-205.406	-36.629	0.151	-0.081
-204.392	31.232	0.276	-0.237
-203.377	-66.884	-0.175	-0.069
-202.363	800.000	0.085	0.280
-201.348	392.896	-0.110	-0.229
-200.333	-100.493	-0.118	0.029
-199.319	190.329	-0.106	0.160
-198.304	-67.527	-0.145	-0.057
-197.290	-145.650	-0.207	-0.019
-196.275	326.900	0.059	0.113
-195.260	-200.000	0.009	0.165
-194.246	-1.103	-0.146	0.103
-193.231	-135.794	0.315	0.037
-192.217	-151.856	0.104	0.008
-191.202	-121.500	0.186	0.031
-190.187	144.107	0.221	-0.296
-189.173	208.797	0.039	-0.061
-188.158	-119.387	0.236	-0.041
-187.144	-200.000	-0.029	-0.180
-186.129	693.961	0.115	0.301
-185.114	-4.980	-0.082	0.057
-184.100	-17.786	0.420	0.264
-183.085	-90.885	0.069	0.020
-182.071	-37.736	0.298	0.159
-181.056	193.819	0.035	-0.052
-180.042	-67.189	0.101	0.040
-179.027	96.380	-0.158	0.181
-178.012	551.029	-0.037	-0.089
-176.998	42.905	0.083	0.076
-175.983	231.089	-0.122	-0.199
-174.969	-200.000	0.015	0.185
-173.954	-200.000	-0.000	0.098
-172.939	40.433	-0.266	-0.240
-171.925	-161.262	-0.118	-0.006
-170.910	800.000	0.032	0.104
-169.896	67.810	0.262	-0.268
-168.881	-200.000	0.038	-0.194
-167.866	-47.832	-0.323	-0.157
-166.852	-200.000	0.039	-0.177
-165.837	800.000	0.047	0.154
-164.823	-200.000	-0.012	0.311
-163.808	-139.216	0.365	-0.039
-162.793	-37.154	-0.302	0.162
-161.779	-155.597	0.298	-0.019
-160.764	-200.000	-0.005	0.082
-159.750	-200.000	0.024	0.233
-158.735	42.952	0.265	0.242
-157.720	800.000	-0.022	0.070
-156.706	149.594	0.165	-0.224
-155.691	-111.589	-0.243	0.049
-154.677	800.000	-0.070	0.208
-153.662	712.565	-0.017	-0.044
-152.647	-140.098	0.225	0.024
-151.633	800.000	-0.072	0.214
-150.618	800.000	-0.018	0.067
-149.604	-200.000	0.015	0.105
-148.589	-5.508	-0.052	0.035
-147.574	237.009	0.253	0.420
-146.560	-20.225	-0.141	-0.087
-145.545	-111.308	-0.395	-0.081
-144.531	243.166	-0.073	-0.123
-143.516	-200.000	0.003	-0.101
-142.502	-162.475	0.072	-0.004
-141.487	-200.000	0.015	0.069
-140.472	-70.636	-0.211	-0.080
-139.458	584.985	0.148	-0.364
-138.443	-64.105	0.174	-0.071
-137.429	800.000	0.014	-0.043
-136.414	537.416	-0.142	-0.338
-135.399	406.022	0.030	0.064
-134.385	-22.041	0.204	-0.124
-133.370	-54.092	0.087	-0.040
-132.356	-122.440	-0.274	-0.045
-131.341	-60.399	0.259	-0.110
-130.326	-144.643	-0.230	-0.021
-129.312	17.955	-0.123	0.098
-128.297	-19.733	0.218	-0.135
-127.283	-175.880	0.063	-0.002
-126.268	63.669	-0.256	-0.257
-125.253	128.439	0.085	0.108
-124.239	169.118	-0.115	0.164
-123.224	422.385	0.144	-0.310
