DTS Sentinel unit serial number:	SN413079Multiplexer serial number:	ORYXHardware model number:	OX4-SRSoftware version number:	ORYX F/W v4.00 Oryx Data Collector v3.7.2.0data status	okinstallation	princeton_trtdifferential loss correction	single-endedforward channel	channel 3reverse channel	N/Adate	2019/09/19time	10:04:35forward acquisition time	60.00reverse acquisition time	0.00gamma	496.2192k internal	0.2342k external	0.2342temperature offset calibration	0.9979default loss term (dB/km)	0.3790temperature slope calibration	1.0000multiplexer offset coefficient	1.0000multiplexer slope coefficient	1.0000fibre end	0.00T internal ref (°C)	23.81T ext. ref 1 (°C)	0.68T ext. ref 2 (°C)	19.63length (m)	temperature (°C)	Stokes	anti-Stokes-747.200	53.886	0.098	-0.095
-746.185	-200.000	-0.034	-0.269
-745.171	-200.000	-0.013	-0.067
-744.156	800.000	-0.139	0.425
-743.142	416.393	0.082	-0.175
-742.127	1.436	-0.272	0.196
-741.112	93.348	0.319	-0.361
-740.098	405.598	0.055	-0.115
-739.083	156.034	0.065	0.090
-738.069	-42.577	0.081	-0.041
-737.054	800.000	-0.033	-0.126
-736.039	129.000	-0.056	0.072
-735.025	-77.439	0.299	0.104
-734.010	318.745	-0.174	-0.329
-732.996	-92.955	0.105	0.029
-731.981	332.336	0.040	0.078
-730.966	1.217	-0.433	-0.311
-729.952	-200.000	0.007	-0.080
-728.937	101.673	-0.418	-0.488
-727.923	711.629	-0.040	-0.107
-726.908	94.725	-0.210	0.239
-725.894	-70.817	-0.191	0.072
-724.879	463.678	0.168	-0.376
-723.864	186.939	0.047	-0.070
-722.850	-196.107	-0.096	-0.001
-721.835	-200.000	-0.010	-0.088
-720.821	535.381	-0.129	-0.306
-719.806	-147.099	-0.094	0.008
-718.791	32.471	-0.334	-0.289
-717.777	-115.753	-0.067	0.012
-716.762	-17.601	0.355	0.223
-715.748	193.079	-0.009	0.014
-714.733	-106.085	0.072	0.016
-713.718	-200.000	-0.052	0.422
-712.704	110.018	0.204	-0.245
-711.689	202.846	0.115	-0.178
-710.675	-160.136	0.427	-0.023
-709.660	-25.329	-0.133	0.078
-708.645	800.000	0.087	0.248
-707.631	140.424	0.088	-0.116
-706.616	-200.000	-0.038	-0.276
-705.602	10.771	-0.135	0.103
-704.587	-182.107	0.161	0.003
-703.572	-3.614	-0.083	0.058
-702.558	800.000	-0.060	0.230
-701.543	-39.704	0.258	0.135
-700.529	170.737	0.061	0.087
-699.514	126.563	-0.234	0.296
-698.499	-160.371	0.120	-0.006
-697.485	231.422	0.114	-0.187
-696.470	245.717	-0.127	-0.213
-695.456	183.613	0.116	-0.172
-694.441	66.453	-0.129	-0.131
-693.426	50.593	-0.071	0.068
-692.412	115.664	0.075	-0.091
-691.397	-149.078	-0.414	0.033
-690.383	-168.314	-0.040	0.002
-689.368	-200.000	-0.156	-0.000
-688.354	-46.970	-0.349	0.170
-687.339	-14.685	0.154	0.099
-686.324	93.248	0.070	-0.079
-685.310	-172.234	-0.223	0.007
-684.295	51.698	-0.183	0.174
-683.281	36.086	-0.168	-0.148
-682.266	-9.354	-0.095	0.063
-681.251	-79.811	0.254	-0.086
-680.237	-11.027	-0.179	0.118
-679.222	106.934	-0.132	-0.156
-678.208	-190.956	-0.163	0.002
-677.193	-68.700	-0.360	-0.139
-676.178	56.869	-0.039	0.038
-675.164	800.000	0.029	0.112
-674.149	800.000	-0.061	0.183
-673.135	144.125	0.189	-0.252
-672.120	-68.892	-0.053	0.020
-671.105	800.000	-0.075	-0.209
-670.091	404.759	0.019	0.041
-669.076	-158.176	0.218	-0.013
-668.062	-47.602	0.265	-0.128
-667.047	-60.269	-0.190	0.081
-666.032	-156.398	0.265	0.017
-665.018	-41.755	0.093	0.048
-664.003	15.259	0.061	0.048
-662.989	-41.610	-0.312	0.160
-661.974	800.000	-0.087	-0.367
-660.959	-62.840	-0.314	0.130
-659.945	-200.000	-0.014	-0.218
-658.930	-65.749	-0.415	-0.166
-657.916	67.301	-0.129	0.131
-656.901	-200.000	-0.055	0.260
-655.886	-94.267	0.221	-0.060
-654.872	800.000	0.060	0.197
-653.857	-200.000	0.029	0.273
-652.843	-178.324	-0.217	0.005
-651.828	196.229	0.219	-0.333
-650.814	800.000	-0.062	-0.192
-649.799	363.767	0.088	0.177
-648.784	-29.328	0.260	-0.149
-647.770	82.304	-0.095	0.103
-646.755	77.624	-0.266	0.283
-645.741	-99.329	-0.295	0.074
-644.726	-109.023	0.118	0.025
-643.711	-106.254	-0.050	0.011
-642.697	800.000	-0.093	-0.275
-641.682	-48.955	-0.320	-0.153
-640.668	343.532	0.153	-0.299
-639.653	-200.000	0.015	0.195
-638.638	-62.885	0.212	-0.088
-637.624	-200.000	0.030	0.287
-636.609	101.805	-0.122	-0.142
-635.595	800.000	-0.019	-0.058
-634.580	-39.714	-0.121	0.063
-633.565	-10.349	-0.337	-0.223
-632.551	-200.000	-0.029	-0.150
-631.536	-200.000	0.001	0.165
-630.522	163.731	-0.179	0.251
-629.507	135.124	0.091	-0.118
-628.492	54.146	-0.318	-0.305
-627.478	-75.220	0.035	-0.013
-626.463	-200.000	-0.026	-0.382
-625.449	-108.363	-0.166	-0.036
-624.434	25.103	-0.056	-0.047
-623.419	-173.562	0.339	0.010
-622.405	-60.412	-0.059	-0.025
-621.390	9.546	-0.068	0.052
-620.376	-14.237	0.143	0.092
-619.361	41.833	0.160	-0.145
-618.346	-200.000	0.005	-0.105
-617.332	-36.239	-0.288	-0.155
-616.317	204.249	-0.181	-0.279
-615.303	-73.587	-0.129	-0.047
-614.288	-186.486	-0.252	0.004
-613.273	-200.000	0.001	-0.315
-612.259	-33.153	-0.184	-0.101
-611.244	-57.472	0.332	0.145
-610.230	7.176	-0.219	-0.163
-609.215	-29.917	-0.247	0.140
-608.201	-1.043	-0.145	-0.102
-607.186	-200.000	-0.067	0.326
-606.171	114.069	0.180	0.218
-605.157	-80.960	-0.049	0.016
-604.142	107.929	0.375	-0.445
-603.128	2.801	-0.035	-0.025
-602.113	-135.685	-0.209	0.025
-601.098	-147.487	0.174	0.015
-600.084	7.524	0.254	0.189
-599.069	136.163	-0.124	0.161
-598.055	-58.382	-0.292	-0.127
-597.040	-86.627	-0.238	0.073
-596.025	405.648	0.067	-0.141
-595.011	325.269	-0.118	0.225
-593.996	-200.000	-0.013	-0.177
-592.982	302.761	0.130	0.239
-591.967	800.000	0.053	0.196
-590.952	436.207	0.103	0.224
-589.938	-200.000	0.000	-0.159
-588.923	149.414	-0.156	0.210
-587.909	210.622	0.055	0.086
-586.894	-100.690	-0.130	0.032
-585.879	-163.373	-0.459	-0.022
-584.865	-98.836	-0.102	-0.026
-583.850	293.221	-0.103	0.188
-582.836	-3.855	-0.329	-0.228
-581.821	-133.936	-0.395	-0.049
-580.806	-35.686	-0.215	0.116
-579.792	387.455	0.098	0.201
-578.777	234.274	0.084	0.138
-577.763	207.398	0.072	0.112
-576.748	340.307	0.263	-0.510
-575.733	248.546	0.224	-0.377
-574.719	-152.602	0.448	-0.032
-573.704	-136.590	-0.083	0.010
-572.690	-175.848	-0.115	-0.003
-571.675	95.167	-0.066	-0.075
-570.661	-200.000	-0.055	0.370
-569.646	-200.000	0.021	0.169
-568.631	-144.577	0.188	-0.017
-567.617	216.036	-0.026	0.042
-566.602	471.580	-0.086	-0.193
-565.588	-200.000	0.004	-0.110
-564.573	-162.818	-0.075	-0.004
-563.558	-9.331	-0.213	-0.141
-562.544	123.953	-0.129	-0.161
-561.529	-161.435	0.271	-0.014
-560.515	-20.614	-0.284	0.174
-559.500	25.448	-0.259	-0.214
-558.485	-200.000	0.007	-0.062
-557.471	100.651	-0.132	-0.153
-556.456	271.233	0.084	0.146
-555.442	747.115	-0.081	-0.216
-554.427	18.186	0.126	-0.100
-553.412	672.398	0.090	-0.233
-552.398	-107.118	-0.136	0.030
-551.383	-123.822	-0.159	0.025
-550.369	-111.900	-0.285	0.057
-549.354	106.498	0.226	-0.266
-548.339	0.112	-0.067	-0.047
-547.325	-200.000	0.017	-0.080
-546.310	208.537	0.083	-0.129
-545.296	47.877	0.078	-0.073
-544.281	231.254	0.208	0.339
-543.266	-200.000	-0.053	-0.278
-542.252	-113.081	-0.194	0.038
-541.237	127.968	0.058	0.073
-540.223	389.444	-0.182	0.376
-539.208	-200.000	-0.014	0.189
-538.193	378.371	0.158	-0.321
-537.179	-103.011	-0.350	-0.082
-536.164	396.205	0.156	-0.323
-535.150	-132.057	-0.080	-0.010
-534.135	88.248	0.062	0.069
-533.121	9.500	-0.191	0.144
-532.106	800.000	-0.046	0.165
-531.091	-200.000	0.081	0.000
-530.077	-18.712	0.169	-0.105
-529.062	16.280	-0.082	0.064
-528.048	14.273	0.142	0.110
-527.033	-200.000	0.020	0.171
-526.018	-94.355	-0.394	0.107
-525.004	-25.884	0.368	-0.215
-523.989	-96.392	-0.116	-0.030
-522.975	130.084	-0.103	-0.130
-521.960	-96.501	0.175	0.046
-520.945	-200.000	-0.034	0.241
-519.931	177.025	0.195	-0.281
-518.916	-49.482	-0.366	-0.173
-517.902	66.620	0.077	0.078
-516.887	-112.843	0.280	0.055
-515.872	-84.874	0.254	-0.079
-514.858	-71.771	0.175	-0.065
-513.843	-200.000	-0.040	-0.231
-512.829	-146.551	0.249	-0.021
-511.814	69.260	-0.127	-0.130
-510.799	-200.000	0.054	0.566
-509.785	-100.817	0.182	-0.044
-508.770	-200.000	-0.038	-0.315
-507.756	-85.248	0.163	0.051
-506.741	-200.000	-0.007	0.050
-505.726	-66.738	0.328	-0.129
-504.712	-200.000	0.009	0.111
-503.697	8.790	0.163	-0.122
-502.683	334.940	-0.191	0.368
-501.668	800.000	0.071	-0.244
-500.653	9.333	0.307	-0.230
-499.639	106.156	0.258	0.303
-498.624	-25.146	-0.222	0.131
-497.610	271.535	0.191	-0.334
-496.595	-142.128	-0.315	0.031
-495.581	800.000	-0.053	0.227
-494.566	262.978	0.188	-0.324
-493.551	-200.000	-0.020	-0.131
-492.537	-137.754	0.304	0.034
-491.522	-68.129	-0.208	-0.080
-490.508	39.920	0.161	0.143
-489.493	-76.291	-0.274	0.096
-488.478	104.239	0.046	-0.054
-487.464	-200.000	0.003	0.358
-486.449	800.000	0.084	-0.279
-485.435	-19.861	-0.219	-0.134
-484.420	-200.000	-0.044	0.425
-483.405	365.388	-0.181	-0.362
-482.391	8.324	-0.294	-0.219
-481.376	100.591	0.311	-0.358
-480.362	298.387	-0.109	0.199
-479.347	371.605	-0.118	-0.238
-478.332	-159.121	0.194	0.011
-477.318	216.341	0.037	0.058
-476.303	-200.000	-0.010	0.127
-475.289	-117.771	0.326	0.058
-474.274	-200.000	-0.023	0.163
-473.259	-110.587	-0.243	-0.050
-472.245	109.261	-0.295	-0.350
-471.230	-136.944	-0.168	0.019
-470.216	-200.000	0.026	0.132
-469.201	-43.620	0.382	-0.191
-468.186	-47.425	-0.117	-0.056
-467.172	-60.042	0.137	0.058
-466.157	81.277	0.148	0.159
-465.143	573.475	-0.098	0.236
-464.128	43.564	-0.155	0.140
-463.113	17.394	0.279	0.220
-462.099	-106.474	0.088	-0.019
-461.084	-46.847	0.339	-0.164
-460.070	282.448	0.046	-0.082
-459.055	-200.000	-0.051	-0.249
-458.040	586.408	0.096	0.233
-457.026	-200.000	0.000	0.102
-456.011	-106.169	0.175	0.039
-454.997	65.942	-0.205	-0.206
-453.982	-200.000	0.006	0.218
-452.968	-190.561	-0.049	-0.001
-451.953	155.776	-0.095	-0.129
-450.938	-200.000	0.020	-0.324
-449.924	125.275	0.113	-0.142
-448.909	-52.339	-0.342	-0.157
-447.895	-33.428	0.263	-0.144
-446.880	21.645	-0.046	0.037
-445.865	-132.700	0.320	0.041
-444.851	281.203	-0.099	-0.176
-443.836	-200.000	0.039	0.267
-442.822	565.219	-0.173	-0.416
-441.807	585.543	0.024	-0.059
-440.792	-64.957	0.191	-0.076
-439.778	22.355	0.087	0.071
-438.763	-85.561	0.374	0.115
-437.749	23.220	-0.093	-0.076
-436.734	-200.000	-0.009	0.076
-435.719	-200.000	-0.006	0.070
-434.705	59.866	0.193	-0.189
-433.690	-46.156	-0.368	0.179
-432.676	-51.137	0.245	0.114
-431.661	-25.014	0.230	-0.135
-430.646	800.000	0.055	0.171
-429.632	-157.874	0.271	0.016
-428.617	114.489	-0.075	0.091
-427.603	182.431	-0.108	0.158
-426.588	800.000	-0.030	-0.089
-425.573	-200.000	0.052	0.447
-424.559	278.429	0.076	0.134
-423.544	-81.918	0.309	-0.100
-422.530	-200.000	0.010	-0.112
-421.515	-149.065	-0.054	0.004
-420.500	-141.484	-0.053	0.005
-419.486	65.301	0.117	-0.117
-418.471	99.793	-0.271	0.311
-417.457	-112.768	-0.124	-0.024
-416.442	10.778	0.152	-0.114
-415.428	135.136	-0.239	0.307
-414.413	0.328	-0.123	-0.087
-413.398	63.310	-0.341	0.338
-412.384	75.623	0.094	-0.099
-411.369	11.683	-0.156	-0.118
-410.355	580.307	-0.069	-0.167
-409.340	-2.203	-0.220	-0.153
-408.325	800.000	-0.034	0.112
-407.311	65.727	-0.351	-0.351
-406.296	44.352	-0.024	-0.022
-405.282	-132.726	0.436	-0.055
-404.267	160.584	-0.240	0.330
-403.252	53.006	0.098	-0.093
-402.238	126.785	-0.033	0.042
-401.223	-200.000	0.029	0.201
-400.209	131.752	-0.164	0.208
-399.194	-200.000	0.009	0.066
-398.179	-37.210	-0.298	-0.157
-397.165	38.821	-0.090	-0.079
-396.150	-91.539	0.374	-0.105
-395.136	-86.556	-0.091	-0.028
-394.121	352.007	0.064	0.125
-393.106	800.000	0.071	0.283
-392.092	-152.112	0.294	0.021
-391.077	800.000	0.121	0.418
-390.063	13.448	0.095	0.073
-389.048	143.827	0.113	-0.149
-388.033	-110.138	0.035	-0.007
-387.019	35.592	0.065	-0.056
-386.004	800.000	0.062	0.190
-384.990	-19.624	0.137	0.084
-383.975	140.952	0.057	0.075
-382.960	800.000	0.107	-0.318
-381.946	403.717	-0.110	-0.229
-380.931	-32.074	-0.118	-0.065
-379.917	601.558	0.046	-0.113
-378.902	-200.000	0.006	-0.286
-377.888	-177.484	0.126	-0.003
-376.873	-177.117	0.115	0.003
-375.858	-131.600	-0.385	-0.050
-374.844	-200.000	0.000	0.076
-373.829	-88.181	0.432	-0.128
-372.815	-29.851	-0.142	0.080
-371.800	678.420	-0.047	-0.122
-370.785	1.731	0.053	-0.038
-369.771	40.890	0.165	0.147
-368.756	-200.000	0.003	-0.222
-367.742	-200.000	-0.030	0.168
-366.727	800.000	0.039	-0.165
-365.712	135.324	0.050	-0.065
-364.698	74.898	-0.231	0.240
-363.683	-81.747	-0.324	0.105
-362.669	-10.124	-0.377	0.247
-361.654	49.261	-0.213	0.198
-360.639	-200.000	0.077	0.351
-359.625	-200.000	0.085	-0.492
-358.610	800.000	0.017	0.058
-357.596	-102.004	-0.365	-0.087
-356.581	555.528	-0.116	0.275
-355.566	83.367	0.271	-0.291
-354.552	-107.076	0.197	-0.043
-353.537	800.000	-0.054	0.156
-352.523	418.860	0.127	-0.269
-351.508	800.000	-0.031	0.134
-350.493	-200.000	0.018	0.217
-349.479	10.605	-0.163	0.122
-348.464	-102.343	0.149	0.035
-347.450	6.400	-0.125	0.092
-346.435	-78.289	0.444	-0.150
-345.420	-9.707	0.200	0.131
-344.406	-80.794	0.204	0.067
-343.391	-12.487	-0.150	-0.097
-342.377	291.987	-0.081	0.145
-341.362	-112.341	-0.196	0.039
-340.348	-135.446	-0.135	0.016
-339.333	-28.513	0.194	0.110
-338.318	-88.366	-0.293	-0.086
-337.304	-102.359	0.085	-0.020
-336.289	104.928	-0.234	0.273
-335.275	7.344	0.081	-0.060
-334.260	800.000	0.024	0.096
-333.245	-143.276	0.212	-0.020
-332.231	-65.434	-0.270	-0.107
-331.216	-81.820	0.032	-0.010
-330.202	-200.000	0.032	0.139
-329.187	800.000	0.079	0.326
-328.172	-200.000	-0.022	0.130
-327.158	13.636	-0.167	-0.128
-326.143	800.000	-0.019	-0.075
-325.129	-132.504	0.279	0.035
-324.114	800.000	0.043	-0.182
-323.099	-26.342	-0.095	0.055
-322.085	-137.593	-0.111	0.012
-321.070	-200.000	0.037	-0.260
-320.056	-100.572	0.352	-0.086
-319.041	-105.718	-0.109	0.024
-318.026	800.000	0.094	-0.261
-317.012	787.055	0.131	-0.354
-315.997	49.113	0.240	-0.222
-314.983	199.620	-0.250	0.378
-313.968	681.028	-0.064	-0.164
-312.953	-200.000	-0.013	0.092
-311.939	323.837	-0.036	0.068
-310.924	126.213	-0.082	0.102
-309.910	-16.841	0.384	-0.239
-308.895	-113.241	0.431	-0.083
-307.880	-80.696	0.153	-0.050
-306.866	434.167	0.095	-0.203
-305.851	155.221	0.170	0.230
-304.837	-25.862	0.277	-0.161
-303.822	800.000	-0.045	-0.125
-302.807	-126.385	-0.323	0.047
-301.793	-85.267	-0.038	0.012
-300.778	800.000	-0.116	0.391
-299.764	-200.000	0.025	0.142
-298.749	89.106	-0.094	0.103
-297.735	464.400	0.062	-0.137
-296.720	52.992	0.109	0.103
-295.705	-96.861	-0.146	-0.038
-294.691	29.053	0.055	-0.046
-293.676	800.000	0.012	-0.043
-292.662	189.221	0.118	-0.174
-291.647	800.000	0.032	0.114
-290.632	800.000	0.027	0.091
-289.618	11.769	0.198	-0.149
-288.603	800.000	0.087	-0.289
-287.589	-74.031	-0.153	0.055
-286.574	-200.000	0.020	-0.163
-285.559	-200.000	-0.025	0.228
-284.545	429.982	-0.069	0.146
-283.530	26.136	0.234	0.192
-282.516	-59.241	0.364	-0.154
-281.501	38.160	-0.219	0.192
-280.486	-44.345	0.216	-0.106
-279.472	349.131	0.130	0.252
-278.457	-40.598	-0.280	0.143
-277.443	198.977	0.169	-0.255
-276.428	329.111	-0.186	0.352
-275.413	536.009	0.107	-0.250
-274.399	-117.224	-0.251	-0.045
-273.384	-200.000	0.024	0.323
-272.370	346.348	-0.114	0.220
-271.355	22.352	0.194	0.156
-270.340	130.594	0.233	-0.294
-269.326	505.827	-0.153	0.348
-268.311	-179.253	-0.316	-0.007
-267.297	1.372	0.123	0.087
-266.282	-116.027	0.261	0.048
-265.267	-200.000	-0.080	0.371
-264.253	800.000	-0.054	0.162
-263.238	163.217	-0.105	0.144
-262.224	16.737	0.069	-0.053
-261.209	37.758	-0.110	0.096
-260.195	-175.096	0.312	0.009
-259.180	287.541	-0.174	-0.309
-258.165	20.293	0.288	0.229
-257.151	-200.000	-0.008	-0.040
-256.136	800.000	0.014	-0.058
-255.122	111.374	-0.105	0.125
-254.107	-200.000	-0.004	-0.453
-253.092	-112.297	0.141	0.028
-252.078	-200.000	0.003	-0.306
-251.063	-39.850	-0.165	0.084
-250.049	-130.416	0.295	0.039
-249.034	800.000	0.023	-0.076
-248.019	-15.844	-0.050	0.032
-247.005	20.292	0.226	-0.179
-245.990	-200.000	-0.039	-0.368
-244.976	-200.000	-0.031	-0.291
-243.961	168.863	0.101	0.141
-242.946	-1.040	-0.107	0.075
-241.932	-200.000	0.044	0.227
-240.917	-200.000	0.015	-0.122
-239.903	-200.000	-0.096	0.000
-238.888	-200.000	-0.024	0.255
-237.873	79.736	0.076	0.081
-236.859	125.418	0.173	-0.214
-235.844	-23.619	0.322	-0.189
-234.830	119.198	-0.160	0.195
-233.815	-197.505	-0.086	-0.001
-232.800	-12.717	0.087	-0.056
-231.786	800.000	0.078	0.332
-230.771	357.467	0.132	0.259
-229.757	-200.000	-0.063	0.323
-228.742	800.000	-0.100	0.321
-227.727	-200.000	-0.014	0.283
-226.713	-176.804	-0.061	0.002
-225.698	-2.382	-0.144	0.099
-224.684	15.413	0.076	0.058
-223.669	-200.000	-0.048	0.238
-222.655	308.487	-0.038	0.070
-221.640	-112.090	0.277	0.055
-220.625	252.732	0.160	0.267
-219.611	-200.000	-0.014	0.252
-218.596	-40.242	-0.387	-0.197
-217.582	800.000	0.091	-0.307
-216.567	284.823	-0.007	-0.013
-215.552	9.376	-0.215	0.159
-214.538	131.542	-0.196	0.247
-213.523	-25.645	-0.068	0.039
-212.509	-64.485	-0.092	-0.037
-211.494	-72.400	-0.433	-0.157
-210.479	-200.000	0.011	-0.243
-209.465	29.665	0.135	0.113
-208.450	-76.760	-0.133	0.046
-207.436	60.783	0.101	-0.099
-206.421	800.000	0.047	-0.146
-205.406	63.004	-0.140	0.138
-204.392	-58.598	-0.179	0.076
-203.377	300.961	0.082	0.149
-202.363	-143.323	-0.243	-0.023
-201.348	800.000	0.082	-0.287
-200.333	-163.997	0.349	0.016
-199.319	-41.562	-0.227	-0.114
-198.304	-200.000	-0.025	-0.191
-197.290	-10.403	-0.276	0.179
-196.275	226.117	0.187	0.297
-195.260	800.000	0.121	-0.350
-194.246	-200.000	0.017	0.233
-193.231	-200.000	0.060	0.325
-192.217	-200.000	0.002	0.020
-191.202	-111.823	0.094	-0.019
-190.187	189.193	0.120	-0.176
-189.173	-200.000	-0.071	0.387
-188.158	-200.000	-0.017	-0.169
-187.144	36.472	-0.310	-0.268
-186.129	800.000	0.038	-0.124
-185.114	144.290	0.070	-0.091
-184.100	800.000	-0.016	-0.056
-183.085	-200.000	-0.042	0.219
-182.071	273.854	-0.194	0.336
-181.056	-45.544	0.122	-0.059
-180.042	533.118	-0.104	-0.240
-179.027	-157.468	-0.145	-0.009
-178.012	-145.636	0.401	0.035
-176.998	113.868	0.064	-0.076
-175.983	133.536	0.142	-0.180
-174.969	800.000	0.074	0.224
-173.954	158.061	0.221	-0.300
-172.939	-58.030	-0.196	-0.084
-171.925	-61.838	0.368	0.151
-170.910	-52.390	0.205	-0.093
-169.896	800.000	0.049	0.209
-168.881	-178.070	-0.169	-0.004
-167.866	-74.901	-0.351	0.123
-166.852	-200.000	0.071	0.000
-165.837	726.152	-0.025	0.064
-164.823	-134.488	-0.439	-0.053
-163.808	97.944	-0.264	0.297
-162.793	-45.932	-0.134	0.065
-161.779	-200.000	-0.064	-0.321
-160.764	-200.000	0.002	-0.072
-159.750	-200.000	-0.010	-0.076
-158.735	-80.811	-0.126	0.041
-157.720	28.371	0.249	0.206
-156.706	-200.000	-0.021	-0.300
-155.691	800.000	0.033	-0.093
-154.677	373.596	0.121	-0.240
-153.662	697.012	0.023	-0.059
-152.647	800.000	0.054	0.149
-151.633	-200.000	0.074	-0.351
-150.618	-30.111	0.296	0.165
-149.604	175.754	-0.102	0.144
-148.589	243.660	-0.104	0.172
-147.574	554.051	-0.074	-0.173
-146.560	-200.000	0.034	0.261
-145.545	-117.873	0.171	-0.030
-144.531	-200.000	0.054	0.247
-143.516	-58.454	0.230	-0.098
-142.502	45.755	0.113	0.102
-141.487	-68.286	0.113	-0.043
-140.472	-200.000	0.010	0.378
-139.458	11.407	-0.092	-0.069
-138.443	-95.914	0.189	0.049
-137.429	800.000	-0.024	0.076
-136.414	-76.179	0.211	0.073
-135.399	-159.944	0.451	-0.024
-134.385	-31.221	0.081	-0.045
-133.370	-21.364	0.134	0.080
-132.356	-140.535	-0.147	-0.015
-131.341	-120.282	-0.352	-0.059
-130.326	800.000	0.016	0.058
-129.312	6.664	-0.264	0.192
-128.297	800.000	0.028	0.100
-127.283	-132.368	-0.422	-0.053
-126.268	-200.000	-0.006	0.073
-125.253	121.655	0.103	0.126
-124.239	453.761	0.027	0.058
-123.224	-200.000	0.025	0.112
-122.210	-94.640	0.072	-0.019
-121.195	-165.597	-0.104	-0.004
