DTS Sentinel unit serial number:	SN413079Multiplexer serial number:	ORYXHardware model number:	OX4-SRSoftware version number:	ORYX F/W v4.00 Oryx Data Collector v3.7.2.0data status	okinstallation	princeton_trtdifferential loss correction	single-endedforward channel	channel 3reverse channel	N/Adate	2019/09/18time	13:56:35forward acquisition time	60.00reverse acquisition time	0.00gamma	496.2192k internal	0.2310k external	0.2310temperature offset calibration	0.9973default loss term (dB/km)	0.3790temperature slope calibration	1.0000multiplexer offset coefficient	1.0000multiplexer slope coefficient	1.0000fibre end	0.00T internal ref (°C)	34.50T ext. ref 1 (°C)	0.65T ext. ref 2 (°C)	29.25length (m)	temperature (°C)	Stokes	anti-Stokes-747.200	800.000	0.006	0.025
-746.185	-134.721	0.260	-0.032
-745.171	-143.326	0.194	0.019
-744.156	489.771	0.087	0.201
-743.142	18.727	-0.215	0.175
-742.127	58.358	0.285	0.284
-741.112	1.098	-0.129	-0.094
-740.098	-182.762	-0.147	-0.003
-739.083	-69.943	0.228	-0.088
-738.069	207.609	-0.235	0.372
-737.054	297.251	-0.180	0.335
-736.039	-70.112	-0.158	-0.061
-735.025	-77.566	0.157	0.055
-734.010	-200.000	0.018	0.217
-732.996	800.000	0.038	-0.156
-731.981	-200.000	-0.002	-0.129
-730.966	17.497	-0.292	0.236
-729.952	-200.000	0.052	-0.266
-728.937	-200.000	-0.011	-0.377
-727.923	413.747	0.051	0.111
-726.908	-134.260	0.344	0.043
-725.894	66.371	0.115	0.119
-724.879	62.373	-0.164	-0.167
-723.864	219.065	-0.081	0.131
-722.850	15.150	-0.245	-0.195
-721.835	363.911	0.130	0.266
-720.821	342.001	0.053	0.106
-719.806	99.836	-0.133	0.156
-718.791	800.000	0.064	0.228
-717.777	42.487	0.243	-0.225
-716.762	-157.726	0.227	0.014
-715.748	-66.109	-0.207	-0.084
-714.733	114.665	0.056	-0.069
-713.718	-114.754	0.318	-0.062
-712.704	-167.465	-0.152	0.006
-711.689	162.040	0.174	0.247
-710.675	171.520	-0.033	-0.048
-709.660	-99.800	0.373	0.095
-708.645	759.205	-0.058	-0.160
-707.631	-162.267	-0.167	0.008
-706.616	-97.400	-0.117	-0.031
-705.602	800.000	0.148	-0.420
-704.587	153.751	0.278	-0.386
-703.572	-6.883	0.064	-0.044
-702.558	-38.814	0.193	-0.103
-701.543	800.000	-0.115	0.429
-700.529	-114.289	-0.290	-0.057
-699.514	-122.350	-0.290	-0.048
-698.499	800.000	-0.055	-0.158
-697.485	-200.000	-0.051	0.227
-696.470	178.990	-0.064	0.095
-695.456	-20.121	-0.155	0.097
-694.441	-200.000	0.074	-0.405
-693.426	-67.394	-0.213	0.085
-692.412	150.476	0.087	0.119
-691.397	-136.416	-0.123	0.015
-690.383	-200.000	-0.036	-0.178
-689.368	-111.467	-0.212	0.044
-688.354	454.106	-0.098	0.219
-687.339	-15.281	-0.087	0.057
-686.324	-169.596	0.256	0.009
-685.310	-200.000	0.009	-0.214
-684.295	-36.209	0.357	0.195
-683.281	-63.038	0.113	-0.047
-682.266	-61.234	-0.207	-0.088
-681.251	-53.217	-0.173	-0.080
-680.237	-6.658	-0.151	-0.104
-679.222	49.516	-0.224	0.214
-678.208	148.272	-0.177	0.242
-677.193	-200.000	0.035	0.162
-676.178	91.954	-0.233	-0.265
-675.164	103.256	0.071	-0.084
-674.149	360.584	-0.105	0.213
-673.135	-47.436	-0.161	0.080
-672.120	344.037	-0.158	-0.314
-671.105	-133.767	0.120	-0.015
-670.091	-200.000	-0.030	0.361
-669.076	135.532	-0.224	-0.295
-668.062	800.000	0.071	-0.303
-667.047	-200.000	-0.026	0.263
-666.032	-22.975	-0.322	0.197
-665.018	800.000	-0.108	0.404
-664.003	25.514	0.126	0.106
-662.989	-156.843	-0.122	-0.008
-661.974	386.618	0.031	-0.066
-660.959	-200.000	-0.032	0.290
-659.945	-43.598	0.140	0.071
-658.930	-200.000	-0.106	-0.723
-657.916	800.000	0.118	-0.455
-656.901	-164.593	-0.182	-0.008
-655.886	-40.135	0.032	-0.017
-654.872	158.933	-0.111	0.155
-653.857	800.000	-0.045	0.196
-652.843	-128.505	-0.120	0.017
-651.828	560.612	0.162	-0.397
-650.814	-19.036	-0.234	-0.147
-649.799	503.428	-0.115	-0.269
-648.784	-84.026	-0.045	0.014
-647.770	-141.878	-0.109	0.011
-646.755	-200.000	0.028	-0.185
-645.741	53.955	0.105	-0.102
-644.726	-65.791	-0.404	-0.164
-643.711	19.539	-0.062	-0.050
-642.697	70.018	-0.159	-0.166
-641.682	-11.910	-0.374	-0.248
-640.668	-61.197	0.070	-0.030
-639.653	23.207	0.139	-0.115
-638.638	-102.415	-0.138	0.034
-637.624	-12.395	0.166	-0.109
-636.609	-89.430	0.240	-0.072
-635.595	800.000	-0.044	-0.130
-634.580	-100.217	0.134	-0.034
-633.565	83.196	-0.108	-0.119
-632.551	345.369	-0.207	0.412
-631.536	-88.621	0.310	-0.093
-630.522	39.785	0.115	0.104
-629.507	231.335	-0.053	-0.088
-628.492	251.917	-0.087	0.150
-627.478	-200.000	-0.003	-0.018
-626.463	-162.565	0.321	0.016
-625.449	-106.365	0.189	0.043
-624.434	-200.000	0.017	-0.317
-623.419	17.185	-0.201	0.161
-622.405	800.000	0.082	-0.325
-621.390	-120.878	-0.122	0.021
-620.376	-44.632	0.121	0.061
-619.361	8.070	0.167	-0.126
-618.346	-200.000	0.027	-0.136
-617.332	-111.599	0.281	-0.058
-616.317	-30.754	0.240	0.137
-615.303	-45.860	0.205	-0.102
-614.288	-122.065	-0.036	-0.006
-613.273	128.853	0.349	0.449
-612.259	-200.000	-0.072	0.397
-611.244	-168.405	0.480	0.019
-610.230	-28.308	-0.171	-0.100
-609.215	137.432	-0.226	-0.298
-608.201	-193.161	-0.196	0.002
-607.186	-92.188	0.208	0.059
-606.171	293.892	0.077	-0.142
-605.157	216.753	-0.122	-0.196
-604.142	-58.944	0.238	-0.104
-603.128	-131.321	0.169	0.023
-602.113	-122.666	-0.188	0.031
-601.098	111.182	0.145	0.176
-600.084	112.503	-0.089	-0.109
-599.069	502.971	0.122	-0.285
-598.055	800.000	-0.102	-0.327
-597.040	756.954	-0.163	-0.445
-596.025	538.878	-0.165	-0.395
-595.011	800.000	-0.066	-0.211
-593.996	-80.618	-0.222	0.075
-592.982	55.410	-0.099	-0.097
-591.967	-36.960	0.254	0.138
-590.952	88.853	-0.071	0.079
-589.938	-200.000	-0.047	0.501
-588.923	50.017	0.363	0.346
-587.909	-148.172	-0.373	0.031
-586.894	236.127	-0.191	0.319
-585.879	-105.093	0.155	-0.036
-584.865	-161.946	-0.374	0.019
-583.850	-200.000	-0.006	0.380
-582.836	29.634	-0.120	0.103
-581.821	-200.000	0.056	0.271
-580.806	23.296	0.157	0.130
-579.792	55.698	-0.062	0.061
-578.777	-45.484	0.202	-0.101
-577.763	-200.000	-0.050	-0.230
-576.748	-55.410	-0.120	-0.055
-575.733	-200.000	-0.002	-0.215
-574.719	-64.410	-0.013	-0.005
-573.704	22.002	0.296	0.244
-572.690	-24.853	-0.214	0.128
-571.675	-160.959	-0.079	-0.004
-570.661	235.421	0.053	0.088
-569.646	-14.623	0.089	0.058
-568.631	170.675	-0.243	-0.352
-567.617	-119.050	0.376	0.066
-566.602	-79.183	-0.238	-0.081
-565.588	-200.000	-0.002	0.081
-564.573	-55.018	0.075	0.034
-563.558	-49.578	0.326	-0.156
-562.544	186.425	0.059	-0.088
-561.529	41.110	-0.187	0.170
-560.515	-200.000	0.036	0.185
-559.500	800.000	0.029	-0.108
-558.485	-73.241	0.157	0.058
-557.471	193.587	-0.198	0.303
-556.456	800.000	0.088	-0.294
-555.442	-200.000	-0.037	-0.214
-554.427	-200.000	0.043	0.411
-553.412	800.000	-0.099	0.302
-552.398	264.302	-0.045	0.079
-551.383	143.357	-0.112	-0.151
-550.369	128.984	0.158	-0.203
-549.354	12.841	-0.080	-0.062
-548.339	-90.856	-0.238	0.069
-547.325	-200.000	0.005	-0.225
-546.310	-200.000	0.038	0.310
-545.296	-9.291	-0.271	0.183
-544.281	153.703	-0.121	-0.168
-543.266	411.202	-0.084	-0.179
-542.252	411.444	0.120	-0.257
-541.237	800.000	0.049	-0.138
-540.223	-132.982	-0.249	-0.032
-539.208	90.206	0.243	0.274
-538.193	-103.920	0.296	-0.070
-537.179	-21.689	0.227	0.139
-536.164	-149.427	-0.244	0.020
-535.150	-159.057	-0.318	-0.018
-534.135	800.000	-0.072	-0.283
-533.121	-200.000	0.013	-0.312
-532.106	800.000	0.042	0.171
-531.091	169.377	0.065	-0.093
-530.077	-200.000	0.126	0.560
-529.062	245.597	-0.055	0.093
-528.048	30.163	-0.140	-0.120
-527.033	309.061	-0.128	-0.240
-526.018	94.400	-0.140	0.160
-525.004	-88.321	-0.131	-0.039
-523.989	369.645	0.128	-0.261
-522.975	-200.000	-0.047	0.242
-521.960	2.140	0.219	0.159
-520.945	-200.000	0.009	0.202
-519.931	-120.601	-0.396	-0.068
-518.916	800.000	0.051	0.204
-517.902	-71.051	-0.228	0.086
-516.887	282.836	-0.099	0.178
-515.872	-39.531	-0.385	0.203
-514.858	160.306	-0.189	-0.265
-513.843	-120.632	-0.203	0.035
-512.829	-200.000	-0.016	-0.267
-511.814	-107.369	0.110	-0.024
-510.799	7.135	0.229	-0.172
-509.785	800.000	0.065	-0.187
-508.770	-161.793	0.250	-0.013
-507.756	-21.935	-0.039	0.024
-506.741	-22.857	-0.086	0.052
-505.726	279.006	0.200	-0.359
-504.712	-200.000	-0.007	0.123
-503.697	166.895	-0.101	-0.144
-502.683	-118.941	-0.161	-0.028
-501.668	-175.362	0.207	-0.006
-500.653	-87.665	-0.385	0.117
-499.639	-5.830	-0.290	0.200
-498.624	-66.486	0.353	-0.141
-497.610	42.750	-0.183	-0.167
-496.595	260.352	0.077	-0.134
-495.581	-56.807	0.292	0.130
-494.566	-113.491	-0.327	0.064
-493.551	124.794	-0.139	-0.175
-492.537	-200.000	0.051	-0.330
-491.522	93.825	0.070	-0.080
-490.508	-110.693	0.090	0.019
-489.493	-32.414	0.115	0.064
-488.478	-69.112	0.333	0.129
-487.464	68.705	0.147	0.152
-486.449	-104.874	-0.160	-0.037
-485.435	-57.328	-0.255	0.113
-484.420	800.000	0.045	-0.179
-483.405	-12.961	0.285	-0.187
-482.391	51.114	0.110	-0.105
-481.376	105.166	-0.195	-0.231
-480.362	155.361	0.175	0.242
-479.347	27.153	-0.086	0.072
-478.332	130.684	-0.174	0.224
-477.318	-200.000	0.079	-0.515
-476.303	10.473	-0.144	-0.110
-475.289	-103.333	-0.050	0.012
-474.274	-101.997	-0.009	0.002
-473.259	-200.000	-0.000	-0.094
-472.245	-179.547	-0.366	-0.008
-471.230	-25.878	0.164	0.097
-470.216	800.000	0.050	-0.162
-469.201	-192.397	-0.119	0.001
-468.186	-51.085	-0.153	0.072
-467.172	51.224	-0.163	0.155
-466.157	272.181	0.069	0.123
-465.143	800.000	0.079	0.322
-464.128	-70.578	-0.302	0.115
-463.113	-186.556	0.276	0.004
-462.099	-61.420	-0.146	0.062
-461.084	228.967	0.212	0.347
-460.070	-200.000	-0.038	0.299
-459.055	33.103	-0.396	0.344
-458.040	-49.958	0.217	-0.104
-457.026	-113.095	0.342	0.068
-456.011	-50.523	-0.434	0.205
-454.997	-111.454	0.170	0.035
-453.982	-168.960	-0.477	0.018
-452.968	-200.000	0.012	0.205
-451.953	-10.409	-0.280	-0.186
-450.938	0.548	0.253	-0.182
-449.924	-176.999	0.199	0.005
-448.909	800.000	-0.030	-0.084
-447.895	-1.945	0.350	0.247
-446.880	52.773	0.164	-0.157
-445.865	-200.000	-0.022	-0.151
-444.851	-150.067	-0.022	0.002
-443.836	-22.256	-0.295	-0.179
-442.822	-13.167	-0.190	-0.124
-441.807	-200.000	-0.030	-0.140
-440.792	360.650	-0.043	0.086
-439.778	-95.475	-0.354	0.095
-438.763	-98.399	0.160	0.041
-437.749	-41.715	0.136	0.070
-436.734	-130.759	-0.215	0.029
-435.719	27.744	0.078	0.066
-434.705	4.712	0.110	-0.081
-433.690	800.000	0.097	-0.306
-432.676	-70.211	-0.212	-0.081
-431.661	45.964	0.229	0.213
-430.646	-173.601	0.180	0.005
-429.632	-65.966	-0.167	0.067
-428.617	284.481	0.039	0.071
-427.603	521.671	0.086	-0.203
-426.588	-200.000	0.001	0.044
-425.573	-200.000	-0.027	-0.155
-424.559	-200.000	-0.006	0.234
-423.544	800.000	0.075	-0.244
-422.530	7.252	-0.186	-0.139
-421.515	-147.662	0.112	0.009
-420.500	762.717	-0.014	-0.038
-419.486	-49.277	-0.115	-0.055
-418.471	596.448	0.133	-0.329
-417.457	121.348	0.081	0.101
-416.442	-27.091	0.127	0.074
-415.428	135.089	0.040	-0.052
-414.413	-133.747	-0.099	-0.012
-413.398	-200.000	-0.015	0.207
-412.384	-51.738	-0.353	-0.165
-411.369	-6.434	-0.374	0.255
-410.355	-97.910	-0.205	0.053
-409.340	158.805	0.213	-0.296
-408.325	800.000	0.090	0.298
-407.311	-200.000	0.056	-0.288
-406.296	-130.846	-0.181	-0.024
-405.282	-200.000	-0.015	0.131
-404.267	-200.000	0.035	0.398
-403.252	359.321	-0.020	0.040
-402.238	-74.337	-0.329	0.119
-401.223	124.872	-0.192	-0.242
-400.209	-67.366	0.088	0.035
-399.194	145.004	-0.104	-0.139
-398.179	-200.000	-0.038	-0.395
-397.165	-87.790	0.161	0.048
-396.150	-118.008	-0.357	-0.064
-395.136	-145.310	-0.229	0.021
-394.121	-59.452	-0.082	0.035
-393.106	-125.781	-0.147	-0.022
-392.092	220.799	-0.020	0.032
-391.077	103.477	0.216	0.254
-390.063	615.373	-0.025	-0.063
-389.048	298.043	-0.064	0.117
-388.033	599.705	0.118	0.292
-387.019	-132.023	-0.157	0.020
-386.004	-38.298	-0.342	0.182
-384.990	43.490	0.238	-0.218
-383.975	-19.696	0.218	-0.135
-382.960	10.414	-0.125	0.095
-381.946	167.276	-0.112	0.160
-380.931	-8.395	-0.281	0.189
-379.917	-200.000	0.024	-0.109
-378.902	-133.933	0.127	-0.016
-377.888	160.944	0.121	-0.169
-376.873	-200.000	0.021	-0.295
-375.858	-5.263	-0.248	0.171
-374.844	-152.087	-0.398	-0.029
-373.829	-102.494	0.131	-0.031
-372.815	180.818	0.169	0.249
-371.800	-13.768	-0.282	-0.183
-370.785	800.000	0.063	-0.184
-369.771	-69.889	-0.122	-0.047
-368.756	-200.000	0.193	-0.001
-367.742	-45.349	-0.208	-0.103
-366.727	286.106	0.042	-0.076
-365.712	-96.042	-0.423	-0.113
-364.698	57.805	0.347	-0.340
-363.683	-53.829	0.329	0.150
-362.669	258.597	0.100	0.173
-361.654	676.842	-0.026	-0.069
-360.639	-200.000	0.036	0.224
-359.625	-22.706	0.198	-0.120
-358.610	86.062	0.062	0.068
-357.596	84.485	-0.061	0.067
-356.581	521.455	-0.081	0.189
-355.566	81.917	0.054	-0.059
-354.552	213.335	0.149	-0.235
-353.537	98.096	0.065	0.075
-352.523	722.192	-0.067	0.179
-351.508	75.837	0.274	-0.289
-350.493	63.359	0.216	0.217
-349.479	-14.870	0.542	0.348
-348.464	-200.000	0.007	0.184
-347.450	-57.965	0.351	-0.153
-346.435	353.713	0.166	0.330
-345.420	303.779	0.080	0.148
-344.406	-103.031	0.150	0.035
-343.391	-200.000	0.020	0.089
-342.377	-0.845	-0.218	0.154
-341.362	-200.000	-0.011	0.231
-340.348	-131.345	-0.099	-0.013
-339.333	-200.000	-0.014	0.155
-338.318	-125.263	-0.257	-0.039
-337.304	17.402	0.136	0.108
-336.289	-200.000	-0.029	-0.201
-335.275	-109.993	0.246	-0.052
-334.260	800.000	-0.068	0.248
-333.245	215.396	0.136	-0.215
-332.231	-200.000	0.016	0.116
-331.216	-200.000	-0.028	-0.136
-330.202	-98.441	0.282	0.072
-329.187	-160.424	0.303	0.016
-328.172	-200.000	-0.008	0.138
-327.158	-108.872	0.144	0.031
-326.143	461.745	0.122	0.273
-325.129	-37.719	-0.035	-0.019
-324.114	510.520	0.088	0.204
-323.099	-113.814	0.178	-0.035
-322.085	164.618	-0.077	0.109
-321.070	386.839	-0.077	-0.158
-320.056	-3.289	-0.104	0.072
-319.041	800.000	0.089	-0.335
-318.026	78.004	-0.116	-0.124
-317.012	-74.730	-0.044	0.016
-315.997	-20.051	0.149	-0.092
-314.983	95.007	-0.059	0.067
-313.968	-82.052	-0.140	-0.046
-312.953	195.004	0.214	-0.324
-311.939	5.554	-0.062	-0.045
-310.924	32.704	-0.135	0.117
-309.910	-200.000	0.006	-0.039
-308.895	800.000	0.063	-0.223
-307.880	164.061	0.105	-0.148
-306.866	227.600	0.117	0.191
-305.851	-95.319	0.118	-0.032
-304.837	-97.944	-0.199	0.051
-303.822	-113.967	0.358	0.069
-302.807	-177.886	-0.326	-0.008
-301.793	69.169	0.093	-0.095
-300.778	661.935	0.029	-0.075
-299.764	-177.882	-0.231	-0.006
-298.749	-58.956	0.231	-0.099
-297.735	-183.516	0.205	0.004
-296.720	-0.822	0.159	-0.112
-295.705	73.638	0.259	0.270
-294.691	120.012	-0.167	-0.207
-293.676	-200.000	-0.009	0.073
-292.662	241.467	0.015	0.024
-291.647	-73.118	-0.313	0.114
-290.632	-152.674	0.053	-0.004
-289.618	85.681	-0.149	-0.164
-288.603	-78.619	0.042	0.014
-287.589	30.983	-0.120	0.103
-286.574	-106.683	0.270	-0.060
-285.559	3.113	-0.260	-0.188
-284.545	-97.118	0.264	-0.069
-283.530	122.012	0.092	0.114
-282.516	-43.311	-0.384	-0.194
-281.501	135.284	-0.095	-0.123
-280.486	-200.000	-0.095	0.552
-279.472	-200.000	-0.000	0.011
-278.457	-98.548	0.117	0.030
-277.443	-132.937	0.331	-0.042
-276.428	-77.872	-0.063	0.022
-275.413	-164.982	0.316	0.014
-274.399	-79.132	-0.246	0.083
-273.384	643.682	0.078	0.198
-272.370	30.099	0.157	0.134
-271.355	-63.894	0.509	-0.208
-270.340	-200.000	-0.001	-0.022
-269.326	-200.000	-0.017	-0.128
-268.311	-200.000	0.031	-0.248
-267.297	-76.612	-0.122	-0.043
-266.282	47.597	0.041	0.038
-265.267	-108.308	-0.260	0.056
-264.253	185.884	-0.154	0.228
-263.238	-112.479	0.078	0.016
-262.224	-200.000	-0.067	0.297
-261.209	17.934	0.140	0.111
-260.195	-200.000	0.031	-0.203
-259.180	175.721	-0.080	0.115
-258.165	113.872	0.023	-0.028
-257.151	359.612	-0.126	-0.252
-256.136	-200.000	0.001	-0.067
-255.122	-101.411	-0.268	-0.065
-254.107	-35.761	-0.282	-0.152
-253.092	-108.490	0.114	-0.024
-252.078	-38.136	-0.312	0.165
-251.063	-52.045	-0.255	0.118
-250.049	-28.870	0.169	-0.097
-249.034	4.499	-0.193	-0.141
-248.019	-200.000	-0.003	0.142
-247.005	-128.156	-0.160	0.023
-245.990	219.930	-0.116	0.185
-244.976	339.539	-0.084	-0.163
-243.961	-38.112	0.217	0.115
-242.946	345.279	-0.128	-0.250
-241.932	-37.827	-0.073	-0.038
-240.917	72.881	0.255	-0.265
-239.903	240.953	0.089	0.148
-238.888	800.000	0.026	-0.113
-237.873	43.160	-0.196	-0.178
-236.859	-160.868	0.288	0.015
-235.844	118.911	-0.087	-0.107
-234.830	392.298	0.104	-0.215
-233.815	21.690	-0.173	-0.140
-232.800	-200.000	-0.001	-0.287
-231.786	-91.323	-0.260	-0.074
-230.771	-200.000	-0.029	-0.255
-229.757	336.533	-0.095	0.183
-228.742	101.345	0.044	-0.051
-227.727	42.466	0.114	0.103
-226.713	800.000	-0.019	0.057
-225.698	35.897	0.257	0.225
-224.684	-58.944	0.151	-0.065
-223.669	132.552	0.154	-0.197
-222.655	251.382	-0.085	-0.143
-221.640	-0.611	-0.042	0.029
-220.625	612.863	-0.077	-0.193
-219.611	6.177	-0.065	0.048
-218.596	-200.000	0.001	0.285
-217.582	-82.332	-0.286	-0.093
-216.567	36.874	0.136	-0.120
-215.552	-43.439	-0.031	-0.015
-214.538	-87.742	-0.171	0.051
-213.523	76.029	-0.166	-0.175
-212.509	-136.786	0.177	0.020
-211.494	800.000	0.077	0.212
-210.479	-2.927	0.113	0.079
-209.465	-200.000	-0.000	0.090
-208.450	-86.544	-0.101	-0.031
-207.436	43.396	-0.329	-0.299
-206.421	-156.383	0.377	0.023
-205.406	-189.896	0.034	0.000
-204.392	85.110	0.081	-0.088
-203.377	88.222	0.313	0.346
-202.363	271.040	-0.075	-0.131
-201.348	411.088	-0.068	0.143
-200.333	735.314	-0.066	0.177
-199.319	187.371	0.144	-0.214
-198.304	-200.000	-0.040	0.228
-197.290	-200.000	-0.007	0.311
-196.275	-53.280	-0.023	0.010
-195.260	800.000	-0.130	0.382
-194.246	-102.505	0.313	0.074
-193.231	302.808	-0.025	0.046
-192.217	800.000	0.048	0.204
-191.202	-53.593	-0.078	-0.035
-190.187	800.000	0.005	-0.021
-189.173	-65.197	-0.232	-0.093
-188.158	-200.000	0.051	-0.242
-187.144	-47.763	-0.101	-0.048
-186.129	800.000	0.078	-0.287
-185.114	-138.512	0.240	-0.026
-184.100	800.000	-0.039	0.114
-183.085	42.049	-0.041	-0.037
-182.071	-200.000	0.045	-0.324
-181.056	-92.866	0.401	-0.111
-180.042	202.213	0.002	-0.003
-179.027	55.220	-0.087	0.084
-178.012	-39.957	-0.294	-0.152
-176.998	49.184	0.039	0.037
-175.983	516.396	-0.064	0.148
-174.969	-123.229	0.225	-0.036
-173.954	-8.374	0.159	0.106
-172.939	341.455	-0.083	0.161
-171.925	-54.571	0.157	0.071
-170.910	503.372	-0.043	0.100
-169.896	-59.300	0.374	-0.160
-168.881	-141.957	0.152	0.015
-167.866	800.000	0.049	0.151
-166.852	-12.549	0.084	-0.055
-165.837	800.000	-0.061	0.170
-164.823	800.000	-0.054	0.179
-163.808	514.392	0.067	-0.156
-162.793	-200.000	-0.049	0.537
-161.779	800.000	0.029	0.091
-160.764	12.400	-0.220	-0.168
-159.750	800.000	-0.072	0.287
-158.735	270.825	0.140	-0.245
-157.720	-67.007	0.301	0.118
-156.706	-200.000	0.066	0.295
-155.691	-154.461	-0.326	-0.022
-154.677	319.981	0.019	0.035
-153.662	231.309	0.143	0.233
-152.647	800.000	0.054	-0.202
-151.633	-49.354	0.218	0.103
-150.618	133.664	-0.055	0.070
-149.604	800.000	0.027	-0.091
-148.589	-200.000	-0.008	0.125
-147.574	271.959	0.043	-0.075
-146.560	377.205	0.119	0.240
-145.545	-200.000	-0.005	0.079
-144.531	800.000	0.061	-0.198
-143.516	679.458	0.048	-0.123
-142.502	-148.554	-0.208	-0.017
-141.487	-51.961	-0.141	-0.065
-140.472	65.319	-0.225	0.225
-139.458	230.856	-0.129	0.209
-138.443	8.556	0.404	-0.301
-137.429	258.907	-0.119	-0.203
-136.414	-200.000	-0.053	0.258
-135.399	-200.000	0.019	-0.085
-134.385	800.000	0.052	0.174
-133.370	-200.000	0.022	-0.169
-132.356	800.000	0.030	0.121
-131.341	-200.000	0.012	-0.225
-130.326	-113.122	0.251	-0.049
-129.312	689.911	-0.057	0.148
-128.297	800.000	-0.135	0.440
-127.283	-149.770	-0.349	0.027
-126.268	-200.000	0.010	-0.410
-125.253	452.866	0.079	0.173
-124.239	-67.689	-0.135	-0.052
-123.224	7.551	-0.356	0.264
-122.210	-200.000	0.034	-0.316
