DTS Sentinel unit serial number:	SN413079Multiplexer serial number:	ORYXHardware model number:	OX4-SRSoftware version number:	ORYX F/W v4.00 Oryx Data Collector v3.7.2.0data status	okinstallation	princeton_trtdifferential loss correction	single-endedforward channel	channel 3reverse channel	N/Adate	2019/09/16time	21:20:35forward acquisition time	60.00reverse acquisition time	0.00gamma	496.2192k internal	0.2325k external	0.2325temperature offset calibration	0.9933default loss term (dB/km)	0.3790temperature slope calibration	1.0000multiplexer offset coefficient	1.0000multiplexer slope coefficient	1.0000fibre end	0.00T internal ref (°C)	31.62T ext. ref 1 (°C)	0.05T ext. ref 2 (°C)	25.48length (m)	temperature (°C)	Stokes	anti-Stokes-747.200	-200.000	0.025	0.158
-746.185	787.678	-0.054	-0.149
-745.171	-156.521	-0.071	-0.004
-744.156	129.275	-0.138	0.178
-743.142	-145.760	0.190	-0.017
-742.127	800.000	-0.086	0.245
-741.112	374.079	-0.047	-0.097
-740.098	-28.227	-0.060	-0.035
-739.083	-200.000	0.025	0.144
-738.069	800.000	-0.115	0.380
-737.054	-40.739	-0.288	-0.150
-736.039	13.002	-0.213	-0.166
-735.025	228.841	-0.075	-0.123
-734.010	-33.013	-0.460	0.257
-732.996	-67.208	-0.308	-0.122
-731.981	-35.359	-0.174	-0.095
-730.966	800.000	0.075	-0.228
-729.952	800.000	-0.051	-0.220
-728.937	-61.059	0.162	-0.069
-727.923	118.357	-0.284	-0.354
-726.908	-47.148	0.183	-0.090
-725.894	800.000	0.039	0.165
-724.879	-200.000	0.007	-0.179
-723.864	-90.478	0.292	-0.085
-722.850	-200.000	0.004	0.034
-721.835	-131.244	0.082	0.011
-720.821	-92.560	0.400	0.113
-719.806	-83.335	-0.199	0.064
-718.791	-142.554	-0.058	-0.006
-717.777	-131.336	0.118	0.016
-716.762	78.404	-0.182	0.196
-715.748	109.080	0.106	0.128
-714.733	-200.000	0.045	-0.382
-713.718	5.831	0.186	0.139
-712.704	800.000	0.066	0.215
-711.689	87.044	0.126	0.140
-710.675	159.150	0.022	-0.031
-709.660	773.774	-0.073	-0.201
-708.645	-146.159	-0.236	0.021
-707.631	800.000	0.074	-0.255
-706.616	172.667	-0.028	0.041
-705.602	161.061	-0.156	-0.220
-704.587	56.135	-0.164	0.160
-703.572	-52.448	-0.279	0.130
-702.558	28.094	-0.209	0.178
-701.543	-200.000	0.036	0.231
-700.529	251.948	0.070	0.120
-699.514	-21.298	-0.516	0.318
-698.499	17.074	0.076	-0.061
-697.485	43.258	-0.251	0.231
-696.470	-37.565	0.050	0.027
-695.456	187.990	0.099	-0.149
-694.441	-67.420	0.087	0.035
-693.426	29.535	-0.203	0.174
-692.412	800.000	0.028	-0.082
-691.397	800.000	0.057	0.202
-690.383	-200.000	0.024	-0.162
-689.368	-178.859	0.311	0.007
-688.354	123.103	0.181	-0.228
-687.339	800.000	-0.111	0.473
-686.324	-61.245	-0.332	-0.141
-685.310	-200.000	0.023	0.201
-684.295	319.896	0.065	0.125
-683.281	-99.847	-0.008	0.002
-682.266	-87.433	0.254	0.077
-681.251	433.844	0.029	-0.063
-680.237	159.797	-0.286	-0.401
-679.222	-200.000	0.023	-0.497
-678.208	-85.939	-0.127	-0.039
-677.193	800.000	-0.071	-0.277
-676.178	-200.000	-0.028	-0.253
-675.164	229.708	0.255	0.420
-674.149	9.573	-0.229	0.174
-673.135	800.000	-0.043	-0.184
-672.120	602.317	-0.057	-0.143
-671.105	45.947	-0.227	-0.212
-670.091	800.000	-0.085	-0.364
-669.076	48.054	-0.254	-0.239
-668.062	-200.000	-0.040	-0.203
-667.047	-184.386	0.388	-0.006
-666.032	-200.000	-0.019	-0.166
-665.018	107.348	0.052	-0.063
-664.003	-200.000	-0.030	0.179
-662.989	800.000	-0.060	0.241
-661.974	-200.000	0.035	0.310
-660.959	104.038	0.095	0.113
-659.945	59.839	0.177	-0.176
-658.930	218.779	0.070	0.113
-657.916	-200.000	0.018	-0.103
-656.901	203.829	-0.206	-0.321
-655.886	800.000	0.066	-0.222
-654.872	800.000	0.066	-0.226
-653.857	198.279	0.019	-0.029
-652.843	-200.000	0.040	0.187
-651.828	-53.113	-0.388	0.179
-650.814	-20.996	-0.331	0.204
-649.799	-24.373	0.227	0.136
-648.784	-200.000	-0.062	0.290
-647.770	-200.000	-0.029	0.147
-646.755	11.140	0.058	-0.044
-645.741	286.264	-0.148	-0.268
-644.726	98.862	0.089	0.103
-643.711	800.000	-0.014	0.047
-642.697	44.575	0.173	-0.160
-641.682	13.816	0.057	-0.045
-640.668	800.000	0.042	-0.126
-639.653	-22.183	-0.134	-0.082
-638.638	-135.148	-0.054	-0.007
-637.624	83.339	0.136	0.149
-636.609	254.552	0.188	0.323
-635.595	52.302	-0.128	0.123
-634.580	-97.760	-0.083	0.022
-633.565	18.894	-0.129	-0.104
-632.551	800.000	-0.029	-0.120
-631.536	-200.000	-0.036	0.159
-630.522	800.000	0.084	0.274
-629.507	-133.703	-0.127	-0.016
-628.492	-200.000	-0.005	-0.124
-627.478	-200.000	-0.014	0.246
-626.463	693.240	0.036	-0.094
-625.449	67.704	-0.096	0.099
-624.434	176.600	0.263	-0.384
-623.419	-200.000	-0.009	0.101
-622.405	-74.120	0.688	-0.250
-621.390	-129.616	0.224	0.031
-620.376	-200.000	0.029	-0.204
-619.361	-128.296	-0.200	-0.029
-618.346	107.505	0.178	-0.212
-617.332	-200.000	-0.026	-0.690
-616.317	-78.826	-0.145	0.050
-615.303	-200.000	0.033	0.235
-614.288	573.181	0.044	0.108
-613.273	-171.334	-0.154	-0.005
-612.259	800.000	-0.066	-0.285
-611.244	-200.000	-0.038	0.223
-610.230	-200.000	-0.029	-0.245
-609.215	11.826	-0.126	0.097
-608.201	159.913	0.080	-0.111
-607.186	-68.469	0.191	0.074
-606.171	-103.357	-0.246	0.058
-605.157	-200.000	0.002	-0.391
-604.142	531.155	-0.103	0.245
-603.128	93.469	0.045	-0.051
-602.113	55.922	-0.215	-0.209
-601.098	800.000	0.014	0.060
-600.084	-200.000	0.001	-0.230
-599.069	-200.000	0.040	-0.228
-598.055	-106.232	-0.156	0.035
-597.040	800.000	0.149	0.426
-596.025	-200.000	0.016	-0.100
-595.011	140.999	-0.202	0.268
-593.996	24.428	0.124	-0.103
-592.982	29.469	-0.161	-0.138
-591.967	22.534	-0.040	0.033
-590.952	93.985	0.274	-0.311
-589.938	37.408	0.370	-0.329
-588.923	-43.760	-0.211	-0.107
-587.909	-53.485	0.070	0.032
-586.894	-68.769	-0.138	-0.054
-585.879	-200.000	-0.049	0.273
-584.865	-154.565	-0.149	0.010
-583.850	205.423	0.120	0.187
-582.836	-131.729	0.370	0.049
-581.821	-133.106	-0.200	0.025
-580.806	331.280	0.087	-0.169
-579.792	116.109	-0.090	-0.110
-578.777	-60.428	-0.133	-0.057
-577.763	123.750	0.084	0.105
-576.748	-62.129	-0.310	0.130
-575.733	-152.875	0.180	-0.013
-574.719	800.000	-0.021	-0.069
-573.704	-200.000	-0.001	0.117
-572.690	36.534	-0.099	0.088
-571.675	210.086	0.146	-0.229
-570.661	-75.967	-0.258	-0.091
-569.646	800.000	0.060	0.179
-568.631	-76.661	0.333	0.117
-567.617	52.207	-0.189	0.180
-566.602	6.815	-0.151	0.113
-565.588	800.000	-0.021	-0.089
-564.573	-87.124	0.156	0.048
-563.558	221.698	-0.126	0.203
-562.544	800.000	0.073	0.243
-561.529	800.000	-0.090	-0.383
-560.515	-101.398	0.345	0.084
-559.500	484.507	-0.047	0.107
-558.485	-10.059	-0.152	0.101
-557.471	283.392	0.062	0.112
-556.456	338.390	0.149	-0.291
-555.442	27.259	0.313	-0.264
-554.427	94.948	-0.300	-0.342
-553.412	800.000	-0.105	-0.375
-552.398	800.000	0.029	0.099
-551.383	21.108	-0.169	0.138
-550.369	800.000	0.046	-0.146
-549.354	800.000	0.101	-0.319
-548.339	-36.241	-0.276	-0.149
-547.325	-200.000	-0.001	-0.076
-546.310	800.000	0.104	0.320
-545.296	-0.679	0.231	-0.164
-544.281	262.183	0.117	0.203
-543.266	-90.776	0.154	-0.044
-542.252	50.449	-0.156	0.147
-541.237	-144.203	-0.408	-0.038
-540.223	126.083	0.058	0.073
-539.208	800.000	-0.048	-0.148
-538.193	-90.439	-0.118	-0.034
-537.179	-95.964	-0.017	-0.005
-536.164	-200.000	0.029	-0.283
-535.150	-23.351	0.108	0.065
-534.135	-38.604	-0.302	-0.160
-533.121	-169.504	0.341	0.012
-532.106	-200.000	-0.006	0.167
-531.091	-200.000	-0.044	0.263
-530.077	800.000	0.016	0.054
-529.062	-200.000	0.042	-0.213
-528.048	-50.692	-0.320	-0.151
-527.033	-101.061	-0.366	0.090
-526.018	513.256	-0.015	0.036
-525.004	619.196	-0.067	-0.169
-523.989	-200.000	0.080	0.397
-522.975	6.969	-0.164	-0.122
-521.960	-80.065	0.173	-0.058
-520.945	-200.000	0.001	-0.317
-519.931	-105.723	0.070	0.016
-518.916	15.130	0.126	0.099
-517.902	-71.156	0.204	-0.077
-516.887	-200.000	0.027	-0.225
-515.872	-89.155	0.205	-0.061
-514.858	-141.171	-0.253	0.026
-513.843	-138.756	-0.287	0.031
-512.829	78.677	0.287	-0.307
-511.814	-200.000	0.018	-0.107
-510.799	-186.051	0.323	0.005
-509.785	9.189	-0.094	0.071
-508.770	-49.184	-0.274	-0.131
-507.756	592.692	0.096	-0.237
-506.741	-7.310	-0.096	0.065
-505.726	671.150	0.088	-0.228
-504.712	-96.801	-0.074	0.019
-503.697	84.403	-0.134	0.146
-502.683	-200.000	0.013	-0.126
-501.668	-200.000	-0.026	-0.209
-500.653	-99.808	-0.284	0.071
-499.639	-30.997	-0.280	-0.158
-498.624	800.000	-0.048	0.145
-497.610	-56.433	-0.373	-0.165
-496.595	-77.324	0.158	0.055
-495.581	800.000	-0.138	0.418
-494.566	619.656	0.175	-0.441
-493.551	-200.000	-0.002	0.327
-492.537	57.849	0.011	0.011
-491.522	-200.000	-0.002	0.091
-490.508	76.664	-0.217	-0.230
-489.493	-131.606	0.205	-0.027
-488.478	364.145	0.059	0.118
-487.464	-26.302	-0.163	0.096
-486.449	800.000	0.050	0.213
-485.435	-0.801	-0.053	0.038
-484.420	800.000	-0.019	0.060
-483.405	-200.000	0.034	-0.280
-482.391	800.000	0.074	-0.298
-481.376	85.008	0.065	0.072
-480.362	102.921	-0.220	0.257
-479.347	-162.503	0.391	-0.019
-478.332	26.389	-0.185	-0.154
-477.318	-200.000	-0.015	0.236
-476.303	800.000	-0.040	-0.147
-475.289	-88.035	-0.217	-0.065
-474.274	800.000	-0.119	-0.414
-473.259	800.000	0.083	-0.306
-472.245	69.776	0.103	-0.106
-471.230	800.000	0.066	-0.257
-470.216	-17.014	-0.114	-0.072
-469.201	111.333	-0.193	0.232
-468.186	119.800	0.047	0.058
-467.172	-200.000	-0.058	-0.567
-466.157	-135.543	-0.170	0.020
-465.143	-200.000	-0.030	-0.373
-464.128	55.936	-0.082	0.079
-463.113	54.031	-0.159	-0.152
-462.099	-200.000	-0.010	0.108
-461.084	95.777	-0.196	0.223
-460.070	-200.000	-0.008	-0.317
-459.055	43.828	0.193	-0.177
-458.040	800.000	0.053	-0.196
-457.026	-19.177	-0.283	-0.175
-456.011	132.277	-0.319	0.410
-454.997	-200.000	-0.004	0.124
-453.982	680.112	0.095	0.246
-452.968	121.044	0.178	0.221
-451.953	387.923	0.276	0.570
-450.938	0.268	0.136	-0.097
-449.924	-37.275	0.132	0.071
-448.909	732.939	0.133	0.356
-447.895	-200.000	-0.046	0.336
-446.880	800.000	-0.099	-0.345
-445.865	573.201	0.104	0.254
-444.851	76.264	-0.232	-0.245
-443.836	-200.000	-0.011	0.142
-442.822	18.495	0.168	-0.134
-441.807	-200.000	0.028	-0.182
-440.792	-200.000	-0.046	0.315
-439.778	-67.452	0.321	0.126
-438.763	800.000	0.043	0.186
-437.749	51.955	0.113	-0.108
-436.734	739.183	-0.086	-0.229
-435.719	-200.000	0.020	0.175
-434.705	-101.003	-0.157	0.038
-433.690	-58.902	0.157	0.068
-432.676	-112.936	0.300	0.059
-431.661	-56.488	0.320	0.141
-430.646	690.722	-0.019	0.048
-429.632	425.132	-0.110	0.236
-428.617	332.042	-0.082	-0.157
-427.603	99.540	0.123	-0.142
-426.588	351.712	0.064	-0.127
-425.573	-200.000	0.019	-0.150
-424.559	-157.017	0.334	-0.020
-423.544	325.329	0.060	0.115
-422.530	84.970	0.090	-0.098
-421.515	-200.000	-0.003	0.248
-420.500	-13.699	0.148	0.095
-419.486	487.262	-0.089	-0.201
-418.471	15.234	-0.179	-0.140
-417.457	35.046	0.358	-0.313
-416.442	25.879	-0.268	-0.223
-415.428	-200.000	0.013	-0.089
-414.413	-125.252	0.112	0.017
-413.398	-133.564	-0.227	0.028
-412.384	162.473	0.099	-0.138
-411.369	800.000	-0.094	0.290
-410.355	161.890	0.110	0.154
-409.340	138.633	-0.171	0.224
-408.325	-74.938	-0.136	0.049
-407.311	-7.534	-0.091	-0.061
-406.296	-200.000	0.036	-0.208
-405.282	12.276	-0.175	0.134
-404.267	-144.053	0.067	0.006
-403.252	-83.275	-0.067	-0.021
-402.238	11.783	0.189	0.145
-401.223	-200.000	-0.072	0.331
-400.209	-200.000	-0.009	0.284
-399.194	91.510	-0.132	0.147
-398.179	257.056	-0.214	-0.366
-397.165	83.671	0.191	-0.207
-396.150	-86.406	0.095	-0.029
-395.136	517.467	0.130	0.304
-394.121	-200.000	-0.000	0.002
-393.106	193.707	-0.194	-0.292
-392.092	-38.585	-0.150	0.079
-391.077	454.684	0.042	-0.092
-390.063	28.111	-0.127	-0.107
-389.048	-200.000	-0.026	-0.123
-388.033	-183.474	0.172	-0.003
-387.019	-37.141	-0.099	-0.053
-386.004	352.519	-0.048	0.095
-384.990	-200.000	0.022	-0.244
-383.975	-195.320	0.321	0.002
-382.960	-54.499	-0.174	0.078
-381.946	-200.000	-0.040	-0.275
-380.931	784.167	0.059	-0.161
-379.917	58.694	0.223	-0.218
-378.902	800.000	-0.049	0.172
-377.888	23.543	0.125	-0.103
-376.873	-33.559	0.119	0.065
-375.858	349.144	-0.077	0.150
-374.844	-87.230	0.336	-0.101
-373.829	123.059	0.162	-0.202
-372.815	368.713	0.086	0.174
-371.800	-1.093	-0.306	-0.215
-370.785	444.790	-0.063	-0.138
-369.771	697.514	-0.060	0.156
-368.756	-1.806	0.244	-0.171
-367.742	426.647	-0.102	0.219
-366.727	-200.000	0.083	-0.490
-365.712	-200.000	0.050	-0.337
-364.698	-121.680	-0.026	-0.004
-363.683	-34.532	-0.030	-0.016
-362.669	-68.350	-0.308	-0.119
-361.654	194.408	-0.196	0.295
-360.639	-200.000	0.047	0.232
-359.625	100.989	0.144	-0.167
-358.610	-33.564	0.091	0.050
-357.596	418.840	-0.058	-0.123
-356.581	23.154	-0.093	-0.076
-355.566	-200.000	0.009	-0.189
-354.552	49.478	0.116	0.109
-353.537	-102.298	-0.091	-0.022
-352.523	198.400	-0.221	-0.336
-351.508	-200.000	0.073	-0.378
-350.493	-200.000	0.018	-0.533
-349.479	-169.986	0.214	0.008
-348.464	633.129	-0.117	-0.294
-347.450	-161.054	-0.239	-0.012
-346.435	-193.336	-0.136	0.001
-345.420	-55.770	0.428	0.190
-344.406	800.000	-0.106	0.304
-343.391	326.946	0.138	0.263
-342.377	-106.461	0.058	0.013
-341.362	-200.000	-0.021	0.162
-340.348	488.516	-0.131	0.297
-339.333	-200.000	-0.048	-0.219
-338.318	800.000	-0.039	0.117
-337.304	-200.000	-0.044	0.259
-336.289	-200.000	-0.040	0.422
-335.275	-21.542	0.245	0.148
-334.260	177.282	0.151	-0.219
-333.245	800.000	0.040	0.132
-332.231	-97.222	-0.136	-0.035
-331.216	205.538	-0.111	0.171
-330.202	-200.000	0.079	0.453
-329.187	711.555	-0.085	-0.224
-328.172	-200.000	0.071	0.415
-327.158	-200.000	0.030	0.319
-326.143	117.205	-0.220	0.269
-325.129	124.967	0.122	0.152
-324.114	46.391	0.158	-0.145
-323.099	-200.000	-0.025	-0.415
-322.085	-178.744	-0.170	0.004
-321.070	-54.872	-0.202	-0.091
-320.056	-18.933	-0.207	0.128
-319.041	-200.000	0.018	0.284
-318.026	8.625	-0.239	0.179
-317.012	-11.043	-0.143	-0.094
-315.997	271.983	0.138	0.241
-314.983	-70.253	-0.383	0.144
-313.968	800.000	-0.009	0.030
-312.953	-67.576	0.127	0.049
-311.939	-49.890	-0.259	-0.122
-310.924	-115.329	0.204	-0.038
-309.910	127.590	0.111	0.140
-308.895	-34.785	-0.044	0.024
-307.880	129.510	0.103	0.130
-306.866	214.001	-0.292	0.459
-305.851	-7.918	0.366	-0.245
-304.837	-200.000	-0.014	0.150
-303.822	186.627	0.155	0.229
-302.807	-200.000	0.013	-0.087
-301.793	-29.726	-0.012	0.007
-300.778	-20.870	0.295	0.179
-299.764	800.000	0.017	-0.064
-298.749	-93.637	-0.488	-0.134
-297.735	-6.387	-0.326	0.220
-296.720	12.021	-0.122	0.093
-295.705	-46.242	-0.173	-0.084
-294.691	-151.027	0.125	0.009
-293.676	-43.293	0.105	0.053
-292.662	800.000	-0.029	0.097
-291.647	-4.492	0.335	-0.229
-290.632	-42.700	-0.172	0.087
-289.618	-121.580	-0.599	-0.099
-288.603	-191.754	0.244	0.002
-287.589	-49.729	0.131	0.062
-286.574	-200.000	0.048	0.298
-285.559	800.000	0.109	0.315
-284.545	-25.995	0.312	-0.182
-283.530	-98.438	-0.074	0.019
-282.516	178.911	-0.017	-0.025
-281.501	6.865	0.103	0.076
-280.486	-100.908	0.482	0.117
-279.472	787.547	-0.079	-0.214
-278.457	-200.000	0.020	0.178
-277.443	-200.000	0.020	0.222
-276.428	280.219	-0.113	-0.201
-275.413	92.633	-0.126	-0.141
-274.399	800.000	0.032	0.099
-273.384	-41.492	0.155	0.079
-272.370	-200.000	-0.009	0.060
-271.355	400.962	-0.126	-0.262
-270.340	-5.656	-0.163	-0.111
-269.326	461.012	0.058	-0.129
-268.311	800.000	-0.073	0.213
-267.297	800.000	0.120	0.360
-266.282	-73.583	0.488	-0.176
-265.267	-154.425	-0.197	-0.013
-264.253	800.000	0.035	-0.100
-263.238	-18.136	0.282	0.175
-262.224	-118.421	0.163	0.029
-261.209	384.950	0.135	0.276
-260.195	-160.605	0.233	-0.012
-259.180	-200.000	0.021	0.170
-258.165	-200.000	-0.002	-0.054
-257.151	98.568	0.202	0.231
-256.136	-38.484	0.040	-0.021
-255.122	-114.549	0.138	0.026
-254.107	54.600	-0.176	-0.168
-253.092	-183.941	0.222	0.004
-252.078	800.000	0.054	-0.234
-251.063	-82.475	0.276	0.089
-250.049	-200.000	0.014	0.215
-249.034	-200.000	0.018	0.297
-248.019	92.134	-0.089	-0.099
-247.005	54.862	-0.128	0.122
-245.990	-94.349	-0.064	-0.017
-244.976	-84.693	0.289	0.090
-243.961	2.167	0.105	-0.075
-242.946	800.000	-0.082	-0.274
-241.932	17.787	-0.145	-0.114
-240.917	800.000	0.084	-0.246
-239.903	360.472	-0.117	0.232
-238.888	-179.388	0.062	-0.001
-237.873	-69.664	0.067	-0.025
-236.859	-104.297	-0.034	0.008
-235.844	-105.395	0.036	-0.008
-234.830	212.362	-0.156	-0.243
-233.815	-97.609	0.194	-0.050
-232.800	29.147	-0.283	-0.237
-231.786	-130.303	0.201	-0.027
-230.771	-200.000	0.055	0.327
-229.757	54.921	0.099	-0.095
-228.742	16.584	-0.308	-0.241
-227.727	-45.052	0.209	-0.103
-226.713	65.169	-0.170	-0.170
-225.698	-22.930	0.146	-0.087
-224.684	-116.215	0.222	0.041
-223.669	800.000	-0.033	0.117
-222.655	478.756	-0.043	0.096
-221.640	15.125	0.244	0.189
-220.625	19.563	0.296	0.236
-219.611	259.158	0.077	0.132
-218.596	456.485	-0.112	-0.245
-217.582	221.638	0.037	0.058
-216.567	48.076	-0.309	0.285
-215.552	800.000	-0.017	0.047
-214.538	632.936	-0.057	0.142
-213.523	-200.000	-0.004	0.074
-212.509	-200.000	-0.007	-0.056
-211.494	22.881	-0.040	0.032
-210.479	-61.805	0.081	-0.034
-209.465	-155.188	-0.623	-0.040
-208.450	-105.269	-0.309	-0.070
-207.436	-67.687	-0.060	0.023
-206.421	-107.843	-0.270	0.058
-205.406	-12.722	0.170	-0.109
-204.392	-200.000	0.022	-0.130
-203.377	800.000	-0.159	0.678
-202.363	11.823	-0.253	-0.192
-201.348	800.000	0.033	-0.119
-200.333	-200.000	0.036	0.338
-199.319	5.220	0.232	-0.169
-198.304	-98.799	0.143	0.036
-197.290	-17.276	0.138	-0.086
-196.275	345.891	0.107	-0.208
-195.260	207.466	-0.060	-0.092
-194.246	-200.000	0.073	-0.478
-193.231	-23.461	-0.135	-0.080
-192.217	-168.955	0.064	0.002
-191.202	121.260	-0.197	0.242
-190.187	800.000	-0.048	0.144
-189.173	498.678	-0.024	0.054
-188.158	-53.314	-0.134	0.061
-187.144	77.324	0.080	0.084
-186.129	-200.000	0.003	0.052
-185.114	430.120	0.160	0.341
-184.100	-200.000	0.001	0.261
-183.085	-200.000	0.044	0.219
-182.071	-114.116	-0.117	0.022
-181.056	-200.000	-0.007	-0.123
-180.042	290.229	-0.087	0.155
-179.027	-108.549	-0.419	0.089
-178.012	638.329	0.018	-0.045
-176.998	800.000	0.049	0.163
-175.983	199.776	-0.035	-0.052
-174.969	-132.867	-0.375	0.047
-173.954	270.511	-0.101	0.176
-172.939	491.801	0.088	-0.199
-171.925	-121.457	-0.159	-0.026
-170.910	23.167	0.091	-0.074
-169.896	-160.693	-0.139	-0.007
-168.881	800.000	-0.089	-0.268
-167.866	11.072	-0.089	0.067
-166.852	-60.858	-0.233	0.097
-165.837	70.756	0.191	-0.195
-164.823	-128.822	0.157	-0.022
-163.808	292.463	0.179	-0.322
-162.793	170.657	-0.055	-0.078
-161.779	-200.000	-0.008	0.081
-160.764	-75.891	0.399	-0.139
-159.750	800.000	-0.031	-0.122
-158.735	-7.683	0.034	0.023
-157.720	141.432	0.093	-0.122
-156.706	12.563	0.083	-0.063
-155.691	-70.231	0.019	-0.007
-154.677	-200.000	0.024	0.107
-153.662	-200.000	-0.101	0.460
-152.647	156.099	0.146	0.199
-151.633	-200.000	0.014	0.183
-150.618	758.911	-0.027	-0.073
-149.604	388.154	-0.127	-0.258
-148.589	69.068	0.121	0.123
-147.574	800.000	0.017	-0.062
-146.560	-27.759	0.215	0.123
-145.545	-138.614	0.050	-0.005
-144.531	-28.532	-0.239	-0.136
-143.516	-200.000	-0.020	0.262
-142.502	-14.867	-0.065	0.041
-141.487	-162.588	0.458	0.022
-140.472	39.039	-0.214	-0.188
-139.458	-116.271	0.150	0.027
-138.443	-200.000	0.001	-0.186
-137.429	-6.436	0.217	-0.145
-136.414	-200.000	-0.031	0.249
-135.399	-49.091	0.194	0.092
-134.385	-108.896	-0.140	0.029
-133.370	-13.923	0.198	-0.126
-132.356	-7.250	-0.304	-0.203
-131.341	167.508	0.064	-0.090
-130.326	-121.906	-0.139	0.023
-129.312	-22.475	0.077	-0.046
-128.297	-28.495	0.072	-0.041
-127.283	216.311	-0.294	0.461
-126.268	800.000	-0.087	-0.237
-125.253	-120.053	-0.112	-0.019
-124.239	-51.037	0.197	-0.091
-123.224	9.276	-0.089	0.066
-122.210	-158.695	-0.249	-0.014
-121.195	195.987	-0.125	0.187
