DTS Sentinel unit serial number:	SN413079Multiplexer serial number:	ORYXHardware model number:	OX4-SRSoftware version number:	ORYX F/W v4.00 Oryx Data Collector v3.7.2.0data status	okinstallation	princeton_trtdifferential loss correction	single-endedforward channel	channel 3reverse channel	N/Adate	2019/09/18time	22:52:35forward acquisition time	60.00reverse acquisition time	0.00gamma	496.2192k internal	0.2344k external	0.2344temperature offset calibration	0.9996default loss term (dB/km)	0.3790temperature slope calibration	1.0000multiplexer offset coefficient	1.0000multiplexer slope coefficient	1.0000fibre end	0.00T internal ref (°C)	24.06T ext. ref 1 (°C)	0.79T ext. ref 2 (°C)	18.00length (m)	temperature (°C)	Stokes	anti-Stokes-747.200	60.006	0.020	0.019
-746.185	-73.820	-0.268	0.097
-745.171	-200.000	-0.026	0.237
-744.156	605.625	0.075	0.187
-743.142	-94.681	0.095	-0.026
-742.127	-49.782	-0.219	-0.104
-741.112	-54.423	-0.110	-0.050
-740.098	26.785	-0.233	0.196
-739.083	-78.677	0.558	0.191
-738.069	-200.000	0.020	0.366
-737.054	51.227	-0.268	-0.255
-736.039	-200.000	0.008	0.223
-735.025	517.561	0.173	0.404
-734.010	-60.896	-0.043	0.018
-732.996	-11.521	-0.088	0.058
-731.981	97.668	-0.078	-0.090
-730.966	-135.863	-0.315	0.037
-729.952	59.506	0.123	-0.121
-728.937	8.000	0.170	-0.128
-727.923	-44.070	-0.086	-0.043
-726.908	-200.000	-0.020	-0.159
-725.894	318.875	-0.134	0.254
-724.879	-45.910	0.059	-0.029
-723.864	315.423	-0.076	-0.144
-722.850	-100.147	0.182	0.045
-721.835	800.000	0.025	0.103
-720.821	-200.000	0.010	-0.241
-719.806	-200.000	-0.042	0.192
-718.791	161.074	0.178	0.249
-717.777	-69.518	0.044	-0.017
-716.762	800.000	-0.066	-0.195
-715.748	-147.385	0.219	-0.019
-714.733	-52.002	-0.125	-0.058
-713.718	800.000	0.012	-0.040
-712.704	-161.791	0.180	-0.009
-711.689	442.856	0.087	0.191
-710.675	-200.000	0.028	-0.458
-709.660	9.532	0.343	-0.259
-708.645	-14.204	-0.152	0.098
-707.631	-41.713	-0.242	-0.124
-706.616	-200.000	0.001	-0.027
-705.602	-200.000	-0.042	-0.465
-704.587	-83.680	-0.081	0.026
-703.572	-200.000	0.000	-0.004
-702.558	-200.000	-0.062	-0.324
-701.543	56.661	-0.184	-0.179
-700.529	27.501	0.068	-0.057
-699.514	433.942	0.134	-0.292
-698.499	-118.263	0.145	0.026
-697.485	-46.778	0.124	-0.061
-696.470	800.000	0.052	-0.161
-695.456	-13.351	-0.334	-0.216
-694.441	191.417	0.064	0.096
-693.426	-122.252	-0.164	-0.027
-692.412	711.100	-0.047	0.125
-691.397	54.105	0.149	0.143
-690.383	201.691	0.016	-0.025
-689.368	-99.168	-0.009	-0.002
-688.354	-71.121	0.156	-0.059
-687.339	-20.429	0.312	-0.191
-686.324	75.828	-0.175	-0.185
-685.310	-72.795	-0.088	-0.032
-684.295	520.430	0.111	0.260
-683.281	-200.000	-0.003	-0.372
-682.266	2.775	-0.448	-0.325
-681.251	-200.000	-0.019	0.304
-680.237	-76.686	-0.348	0.122
-679.222	800.000	0.103	-0.297
-678.208	203.760	-0.103	0.159
-677.193	61.787	-0.354	0.352
-676.178	81.146	-0.283	-0.305
-675.164	-36.719	-0.268	-0.144
-674.149	-200.000	-0.028	-0.192
-673.135	-200.000	-0.026	-0.150
-672.120	-111.976	-0.335	-0.067
-671.105	63.598	-0.142	-0.142
-670.091	800.000	-0.059	0.192
-669.076	509.872	-0.118	0.275
-668.062	800.000	-0.080	-0.336
-667.047	-62.450	-0.131	-0.054
-666.032	241.053	0.107	0.179
-665.018	-137.204	0.227	-0.026
-664.003	-64.335	0.357	-0.145
-662.989	22.574	0.123	0.101
-661.974	-197.368	0.397	-0.002
-660.959	-104.158	-0.333	-0.077
-659.945	358.125	-0.124	0.248
-658.930	-60.887	-0.512	0.216
-657.916	-121.687	-0.166	0.027
-656.901	531.943	-0.138	-0.326
-655.886	-86.411	0.072	0.022
-654.872	-186.347	0.134	0.002
-653.857	-42.975	-0.065	0.033
-652.843	19.364	0.128	0.103
-651.828	-115.036	0.106	-0.020
-650.814	-11.160	0.171	0.112
-649.799	800.000	-0.089	-0.249
-648.784	335.461	-0.066	0.127
-647.770	-96.128	-0.388	0.103
-646.755	-48.628	0.091	0.044
-645.741	-200.000	0.028	-0.125
-644.726	786.039	-0.180	-0.493
-643.711	105.021	0.079	0.093
-642.697	-122.832	0.372	-0.060
-641.682	15.508	0.155	-0.121
-640.668	723.978	-0.037	0.099
-639.653	-62.143	0.076	-0.032
-638.638	258.993	0.125	-0.214
-637.624	-163.377	-0.115	-0.005
-636.609	34.569	-0.321	0.280
-635.595	77.275	-0.112	0.119
-634.580	-51.838	-0.105	-0.049
-633.565	203.677	-0.052	0.081
-632.551	-200.000	0.016	-0.367
-631.536	-200.000	0.038	0.475
-630.522	-155.146	-0.239	0.016
-629.507	-200.000	0.020	0.102
-628.492	-200.000	0.021	0.153
-627.478	-77.128	-0.243	-0.084
-626.463	279.178	-0.097	0.173
-625.449	495.756	0.082	-0.188
-624.434	26.314	-0.279	-0.232
-623.419	-132.343	0.236	0.030
-622.405	65.875	-0.116	-0.117
-621.390	-58.317	0.194	0.084
-620.376	337.421	-0.060	-0.115
-619.361	-194.508	-0.238	-0.002
-618.346	-130.740	-0.205	-0.027
-617.332	11.627	-0.139	-0.106
-616.317	-87.624	0.203	-0.061
-615.303	800.000	-0.033	0.101
-614.288	68.099	-0.122	0.124
-613.273	-45.674	-0.096	0.047
-612.259	113.774	0.154	0.187
-611.244	-200.000	-0.008	0.081
-610.230	159.223	-0.105	-0.146
-609.215	301.857	0.009	0.017
-608.201	-200.000	0.002	-0.192
-607.186	800.000	-0.097	-0.282
-606.171	-200.000	0.070	0.340
-605.157	-200.000	0.017	0.161
-604.142	-167.041	-0.048	0.002
-603.128	150.754	0.088	-0.120
-602.113	-200.000	0.008	-0.118
-601.098	-200.000	0.008	0.079
-600.084	102.504	-0.394	0.459
-599.069	5.083	-0.053	0.039
-598.055	39.587	-0.292	-0.260
-597.040	-118.413	0.030	0.005
-596.025	558.160	0.161	-0.386
-595.011	-200.000	-0.014	-0.169
-593.996	-62.718	0.064	-0.026
-592.982	279.957	-0.071	0.126
-591.967	3.253	0.141	-0.102
-590.952	428.892	0.080	-0.171
-589.938	-168.397	0.183	0.007
-588.923	-14.583	-0.184	0.117
-587.909	800.000	0.064	0.242
-586.894	206.823	0.151	0.234
-585.879	26.845	0.157	0.131
-584.865	-200.000	0.029	-0.279
-583.850	318.963	-0.041	-0.077
-582.836	380.344	0.094	0.192
-581.821	182.030	-0.170	0.249
-580.806	-200.000	-0.017	0.200
-579.792	-92.467	-0.129	0.036
-578.777	111.505	-0.033	-0.040
-577.763	-200.000	-0.007	-0.060
-576.748	800.000	0.045	-0.183
-575.733	32.919	-0.022	0.019
-574.719	-131.906	0.209	0.027
-573.704	80.571	-0.290	-0.310
-572.690	92.375	-0.335	-0.376
-571.675	298.989	-0.020	-0.036
-570.661	-200.000	-0.004	0.031
-569.646	-104.206	-0.113	0.026
-568.631	800.000	0.076	0.281
-567.617	590.240	0.035	-0.086
-566.602	46.762	0.367	-0.339
-565.588	85.802	0.232	-0.254
-564.573	135.535	0.136	0.176
-563.558	8.062	-0.204	0.152
-562.544	-200.000	0.016	0.093
-561.529	800.000	0.091	-0.312
-560.515	-79.774	-0.233	0.078
-559.500	550.195	0.039	0.092
-558.485	2.972	0.165	0.119
-557.471	-200.000	-0.033	0.254
-556.456	109.208	-0.093	-0.111
-555.442	397.224	0.184	0.383
-554.427	-200.000	-0.069	0.408
-553.412	-37.766	0.066	-0.035
-552.398	-200.000	-0.022	0.138
-551.383	800.000	-0.084	0.254
-550.369	800.000	-0.042	-0.137
-549.354	-101.268	0.083	-0.020
-548.339	117.450	0.058	0.071
-547.325	-200.000	0.002	0.306
-546.310	311.440	-0.148	-0.275
-545.296	-124.522	-0.301	-0.046
-544.281	223.784	-0.080	-0.128
-543.266	-200.000	-0.009	0.501
-542.252	114.858	0.228	-0.276
-541.237	-200.000	-0.042	-0.205
-540.223	386.704	0.158	0.324
-539.208	-107.656	-0.092	-0.020
-538.193	-76.267	0.086	-0.030
-537.179	21.916	-0.292	0.236
-536.164	-200.000	0.019	-0.318
-535.150	33.229	-0.159	0.137
-534.135	-56.942	0.129	-0.056
-533.121	-147.648	0.372	-0.031
-532.106	800.000	-0.092	-0.308
-531.091	-200.000	-0.027	0.127
-530.077	800.000	-0.086	0.356
-529.062	-102.482	0.087	0.021
-528.048	481.329	0.057	-0.128
-527.033	-86.417	0.212	-0.065
-526.018	-127.327	0.234	0.034
-525.004	-118.071	-0.020	-0.004
-523.989	107.166	0.104	-0.123
-522.975	17.345	-0.198	-0.156
-521.960	-112.368	-0.252	-0.050
-520.945	-35.534	-0.282	-0.152
-519.931	-151.914	0.160	0.012
-518.916	120.783	0.142	0.175
-517.902	-200.000	-0.015	-0.064
-516.887	-188.807	-0.343	-0.004
-515.872	36.784	-0.152	-0.133
-514.858	222.961	0.089	-0.142
-513.843	59.069	-0.156	-0.152
-512.829	800.000	0.085	-0.265
-511.814	-200.000	0.003	-0.316
-510.799	-14.248	-0.183	0.117
-509.785	-85.274	0.343	0.106
-508.770	-200.000	0.008	-0.120
-507.756	-73.067	-0.145	0.053
-506.741	-59.370	0.216	-0.092
-505.726	-170.200	-0.137	0.005
-504.712	-4.479	-0.194	-0.133
-503.697	366.516	-0.132	0.263
-502.683	43.348	-0.199	0.180
-501.668	45.172	0.088	-0.080
-500.653	800.000	-0.046	0.193
-499.639	-59.003	0.218	-0.093
-498.624	284.591	0.059	0.104
-497.610	373.315	0.165	-0.333
-496.595	49.920	-0.101	0.094
-495.581	-7.605	0.147	0.099
-494.566	-58.003	-0.383	-0.166
-493.551	56.792	0.127	-0.123
-492.537	-80.266	-0.112	0.037
-491.522	-200.000	0.008	-0.055
-490.508	-104.906	-0.318	0.072
-489.493	800.000	-0.057	0.178
-488.478	-42.484	-0.142	0.072
-487.464	800.000	-0.053	0.206
-486.449	-200.000	-0.053	0.287
-485.435	-5.902	0.259	-0.176
-484.420	800.000	-0.080	-0.327
-483.405	-200.000	-0.002	-0.015
-482.391	-170.658	0.160	-0.005
-481.376	33.430	-0.083	-0.072
-480.362	536.823	0.047	0.111
-479.347	-68.980	0.439	0.168
-478.332	-14.622	-0.108	0.069
-477.318	-1.076	0.186	-0.130
-476.303	96.479	-0.146	0.166
-475.289	618.619	0.053	0.131
-474.274	800.000	-0.052	-0.219
-473.259	-117.532	-0.293	-0.052
-472.245	-20.221	0.111	0.068
-471.230	27.437	0.197	0.164
-470.216	-67.322	-0.054	0.021
-469.201	-200.000	0.036	-0.201
-468.186	150.108	-0.125	-0.168
-467.172	-79.950	-0.267	0.089
-466.157	355.654	-0.018	0.036
-465.143	-6.934	-0.214	0.144
-464.128	-174.482	0.110	-0.003
-463.113	23.420	-0.148	-0.120
-462.099	-143.378	0.216	-0.020
-461.084	-17.552	-0.310	-0.193
-460.070	-91.204	-0.096	0.027
-459.055	-66.476	-0.305	0.120
-458.040	800.000	0.115	-0.380
-457.026	800.000	-0.056	0.215
-456.011	-200.000	0.005	-0.054
-454.997	485.068	0.053	-0.119
-453.982	382.880	0.041	-0.084
-452.968	-148.797	-0.313	0.025
-451.953	70.619	0.211	-0.216
-450.938	88.606	0.166	0.183
-449.924	-103.810	-0.090	-0.021
-448.909	-158.872	0.187	0.011
-447.895	-169.252	-0.231	0.008
-446.880	56.064	-0.221	-0.212
-445.865	343.460	-0.107	-0.208
-444.851	-39.268	-0.231	-0.120
-443.836	-200.000	-0.017	-0.207
-442.822	3.848	0.039	0.028
-441.807	-200.000	0.005	-0.086
-440.792	-18.674	-0.092	0.057
-439.778	41.608	0.056	-0.050
-438.763	800.000	-0.051	0.208
-437.749	168.259	-0.167	-0.235
-436.734	-200.000	0.058	0.340
-435.719	63.875	-0.103	0.102
-434.705	-200.000	-0.011	0.000
-433.690	-35.434	-0.145	-0.078
-432.676	28.592	-0.333	0.278
-431.661	-121.278	0.333	-0.055
-430.646	-112.876	0.177	0.035
-429.632	800.000	-0.015	-0.047
-428.617	239.646	0.120	-0.198
-427.603	33.953	-0.302	0.260
-426.588	-200.000	-0.028	0.129
-425.573	-100.610	0.435	0.106
-424.559	26.984	-0.066	0.055
-423.544	800.000	0.076	-0.239
-422.530	-76.624	0.206	-0.071
-421.515	23.517	-0.151	0.123
-420.500	403.770	-0.084	-0.174
-419.486	212.128	0.073	0.113
-418.471	-16.617	-0.413	-0.258
-417.457	-54.525	0.098	-0.044
-416.442	-200.000	-0.004	0.184
-415.428	128.202	0.256	-0.322
-414.413	320.111	-0.040	-0.075
-413.398	220.146	-0.106	0.167
-412.384	-1.503	0.120	0.083
-411.369	-91.986	-0.229	-0.064
-410.355	138.942	0.258	-0.335
-409.340	61.654	-0.292	0.287
-408.325	-40.843	0.211	-0.108
-407.311	212.834	0.114	-0.177
-406.296	13.616	0.189	0.145
-405.282	-69.059	0.182	0.069
-404.267	256.269	0.087	0.147
-403.252	50.687	0.117	0.110
-402.238	-90.683	-0.254	0.072
-401.223	-42.719	-0.056	0.028
-400.209	-56.951	0.391	0.170
-399.194	41.296	-0.111	-0.099
-398.179	305.921	0.068	-0.124
-397.165	-200.000	-0.015	-0.139
-396.150	-155.049	0.305	0.020
-395.136	91.165	0.238	-0.264
-394.121	603.908	-0.153	-0.375
-393.106	-148.554	-0.237	-0.019
-392.092	800.000	0.037	0.141
-391.077	-165.056	0.186	0.008
-390.063	678.002	-0.056	-0.143
-389.048	-14.319	-0.168	0.107
-388.033	-168.084	0.265	-0.010
-387.019	-44.344	-0.252	0.125
-386.004	1.904	0.291	-0.207
-384.990	-200.000	-0.024	-0.255
-383.975	-200.000	0.002	0.094
-382.960	-200.000	0.049	0.386
-381.946	-36.887	0.294	0.156
-380.931	-52.933	0.071	-0.032
-379.917	800.000	0.047	-0.183
-378.902	-35.196	-0.167	-0.090
-377.888	154.877	-0.230	-0.312
-376.873	800.000	-0.056	0.194
-375.858	309.995	0.101	-0.186
-374.844	38.146	0.030	-0.026
-373.829	-200.000	-0.044	-0.262
-372.815	51.682	-0.285	0.268
-371.800	-25.698	-0.230	0.134
-370.785	-43.211	-0.144	0.072
-369.771	-22.804	-0.254	-0.151
-368.756	11.303	-0.148	0.112
-367.742	-20.714	-0.162	-0.098
-366.727	174.509	-0.204	-0.290
-365.712	-28.427	0.114	-0.065
-364.698	-100.486	-0.373	-0.091
-363.683	681.272	-0.075	0.192
-362.669	-42.991	0.145	-0.073
-361.654	-140.853	-0.150	-0.015
-360.639	-27.325	-0.139	0.080
-359.625	737.696	0.253	-0.669
-358.610	-101.970	-0.210	-0.050
-357.596	274.305	0.105	-0.183
-356.581	-99.184	-0.158	0.039
-355.566	84.434	-0.390	-0.421
-354.552	-200.000	0.250	-0.001
-353.537	280.785	0.182	0.321
-352.523	-31.801	0.176	0.097
-351.508	112.059	0.184	-0.220
-350.493	-33.440	0.400	-0.218
-349.479	177.058	-0.243	-0.349
-348.464	800.000	-0.081	0.287
-347.450	4.472	-0.106	-0.076
-346.435	-200.000	0.034	0.185
-345.420	-45.275	-0.245	0.120
-344.406	800.000	0.050	-0.143
-343.391	53.834	-0.123	-0.117
-342.377	-200.000	0.037	0.260
-341.362	-67.613	-0.101	-0.039
-340.348	138.040	0.138	0.178
-339.333	110.373	0.132	-0.156
-338.318	-91.211	0.255	-0.072
-337.304	800.000	0.052	0.167
-336.289	-110.037	0.364	-0.075
-335.275	800.000	0.028	0.100
-334.260	-200.000	-0.075	-0.353
-333.245	280.106	0.080	0.141
-332.231	-139.691	0.600	0.063
-331.216	18.009	-0.251	-0.197
-330.202	800.000	-0.084	0.250
-329.187	800.000	-0.127	0.352
-328.172	-83.701	0.155	0.049
-327.158	-200.000	-0.006	0.054
-326.143	-38.885	0.474	0.246
-325.129	-87.670	-0.352	-0.105
-324.114	60.145	0.247	0.241
-323.099	-200.000	0.039	-0.180
-322.085	276.132	-0.053	0.092
-321.070	-21.580	-0.045	-0.027
-320.056	-71.418	0.280	-0.103
-319.041	182.022	-0.164	0.238
-318.026	-92.716	0.480	0.132
-317.012	318.777	-0.056	0.105
-315.997	-142.501	0.365	-0.035
-314.983	-132.186	-0.397	-0.051
-313.968	-101.825	-0.064	-0.015
-312.953	-200.000	0.017	0.216
-311.939	-181.431	-0.146	-0.003
-310.924	800.000	0.027	-0.088
-309.910	372.213	-0.058	0.115
-308.895	-200.000	0.000	-0.162
-307.880	284.593	-0.173	0.307
-306.866	-200.000	0.010	-0.097
-305.851	-1.509	-0.065	-0.045
-304.837	-200.000	0.006	-0.102
-303.822	-200.000	0.004	0.074
-302.807	-200.000	0.013	0.217
-301.793	256.113	0.104	0.176
-300.778	385.654	-0.241	-0.489
-299.764	-200.000	0.035	-0.247
-298.749	-38.700	0.417	-0.216
-297.735	800.000	-0.129	-0.386
-296.720	5.686	-0.391	0.284
-295.705	236.543	0.128	0.208
-294.691	455.460	0.141	0.308
-293.676	-85.620	0.120	0.037
-292.662	-200.000	-0.005	0.146
-291.647	-200.000	0.013	0.118
-290.632	-82.276	-0.422	0.135
-289.618	-79.272	0.183	0.061
-288.603	-20.152	0.106	0.064
-287.589	360.837	0.126	-0.248
-286.574	-128.348	0.241	-0.034
-285.559	-89.831	-0.124	-0.036
-284.545	800.000	0.132	0.433
-283.530	800.000	-0.077	-0.243
-282.516	-200.000	-0.030	-0.214
-281.501	-142.625	-0.214	-0.021
-280.486	-49.753	0.104	-0.049
-279.472	-200.000	-0.026	0.128
-278.457	800.000	0.032	-0.090
-277.443	-200.000	-0.019	0.090
-276.428	-16.732	0.191	-0.119
-275.413	282.637	-0.125	-0.220
-274.399	-200.000	0.022	0.165
-273.384	149.368	-0.053	-0.071
-272.370	635.039	-0.039	-0.096
-271.355	120.465	0.244	-0.297
-270.340	-36.202	0.295	-0.156
-269.326	-174.618	-0.276	0.008
-268.311	-95.578	0.136	0.036
-267.297	-200.000	-0.006	-0.408
-266.282	-90.683	0.282	0.080
-265.267	104.739	0.117	-0.136
-264.253	-53.363	-0.064	-0.029
-263.238	-92.304	0.368	0.102
-262.224	150.215	0.045	-0.059
-261.209	-66.859	0.089	0.034
-260.195	34.580	0.225	0.193
-259.180	-148.931	0.122	0.010
-258.165	-156.866	-0.073	-0.004
-257.151	148.715	-0.064	0.085
-256.136	-52.510	-0.209	0.095
-255.122	-102.101	-0.127	0.030
-254.107	-94.939	-0.068	-0.018
-253.092	-19.494	0.139	-0.084
-252.078	-39.472	0.163	-0.084
-251.063	3.989	-0.205	-0.147
-250.049	-79.330	0.210	0.070
-249.034	-119.919	-0.153	-0.026
-248.019	25.050	-0.155	0.126
-247.005	2.813	-0.146	0.104
-245.990	132.751	0.167	0.211
-244.976	800.000	0.059	-0.194
-243.961	-62.825	0.238	-0.097
-242.946	166.030	0.199	0.277
-241.932	-32.293	-0.090	0.049
-240.917	-200.000	0.066	-0.322
-239.903	62.781	-0.072	0.071
-238.888	-200.000	-0.017	0.441
-237.873	-88.685	0.160	-0.047
-236.859	80.589	0.136	-0.144
-235.844	-100.555	-0.071	0.017
-234.830	800.000	-0.053	-0.163
-233.815	-78.166	0.206	-0.070
-232.800	127.779	-0.163	-0.203
-231.786	63.362	-0.037	0.036
-230.771	313.236	0.185	0.342
-229.757	358.186	0.095	-0.185
-228.742	-200.000	-0.016	-0.097
-227.727	800.000	-0.108	0.451
-226.713	324.650	-0.102	0.190
-225.698	-94.312	0.184	-0.049
-224.684	-96.198	0.326	-0.085
-223.669	-200.000	-0.011	0.200
-222.655	-3.024	0.153	0.105
-221.640	-89.154	-0.186	0.054
-220.625	-4.821	0.345	0.234
-219.611	14.008	0.341	0.260
-218.596	7.640	0.311	0.228
-217.582	-200.000	-0.020	-0.129
-216.567	22.013	-0.235	-0.188
-215.552	-200.000	0.026	-0.460
-214.538	-27.348	0.367	0.209
-213.523	-55.048	-0.345	0.152
-212.509	300.472	0.122	-0.221
-211.494	93.391	-0.258	0.287
-210.479	-65.127	-0.187	0.074
-209.465	256.523	-0.125	0.210
-208.450	101.009	-0.321	-0.366
-207.436	262.491	0.036	-0.062
-206.421	-200.000	0.052	-0.249
-205.406	-164.359	-0.247	-0.011
-204.392	-110.744	0.326	-0.066
-203.377	-200.000	0.023	0.152
-202.363	276.835	-0.088	0.154
-201.348	461.716	-0.037	0.082
-200.333	800.000	0.063	0.220
-199.319	235.058	-0.019	0.031
-198.304	35.030	0.305	0.262
-197.290	125.023	0.211	0.261
-196.275	-47.357	-0.287	-0.137
-195.260	800.000	0.076	0.246
-194.246	-200.000	-0.002	0.201
-193.231	-99.214	0.219	0.054
-192.217	-29.237	-0.138	0.077
-191.202	-83.770	0.379	0.118
-190.187	-200.000	0.016	-0.207
-189.173	800.000	-0.069	0.257
-188.158	140.327	-0.243	0.313
-187.144	-51.424	0.286	-0.131
-186.129	-200.000	0.027	0.115
-185.114	324.713	0.150	0.281
-184.100	771.532	0.045	0.120
-183.085	-33.999	-0.281	-0.151
-182.071	122.904	0.275	0.338
-181.056	89.444	-0.177	-0.194
-180.042	23.144	-0.138	0.111
-179.027	50.207	0.081	0.075
-178.012	148.233	0.242	-0.320
-176.998	-97.874	-0.632	-0.160
-175.983	-200.000	0.057	-0.288
-174.969	21.651	0.075	0.060
-173.954	167.613	-0.159	-0.221
-172.939	-156.456	-0.328	-0.020
-171.925	566.613	0.047	0.113
-170.910	24.228	0.203	-0.164
-169.896	340.409	-0.142	-0.272
-168.881	-123.722	0.350	-0.054
-167.866	52.608	0.049	-0.046
-166.852	800.000	-0.021	-0.069
-165.837	-164.070	-0.088	-0.004
-164.823	490.697	0.102	-0.227
-163.808	-74.142	0.319	-0.113
-162.793	576.314	-0.056	0.133
-161.779	162.301	-0.126	0.172
-160.764	-200.000	-0.003	0.089
-159.750	-59.530	0.177	-0.074
-158.735	256.111	-0.140	0.235
-157.720	208.648	-0.039	-0.060
-156.706	-200.000	-0.021	0.205
-155.691	-200.000	0.063	0.480
-154.677	129.244	-0.199	0.248
-153.662	248.697	0.116	-0.193
-152.647	-49.350	0.118	-0.055
-151.633	-53.890	-0.118	0.053
-150.618	331.504	0.081	-0.153
-149.604	-145.337	0.400	-0.035
-148.589	373.535	0.108	0.214
-147.574	525.308	0.086	-0.198
-146.560	800.000	-0.055	-0.161
-145.545	800.000	-0.041	-0.145
-144.531	-200.000	0.008	0.260
-143.516	800.000	0.024	0.066
-142.502	29.866	0.297	-0.247
-141.487	262.871	0.260	0.441
-140.472	-81.423	0.045	-0.015
-139.458	-200.000	0.070	-0.338
-138.443	-151.846	0.736	0.053
-137.429	-113.438	0.181	0.035
-136.414	-46.033	-0.019	-0.009
-135.399	-200.000	-0.007	-0.036
-134.385	-19.572	0.186	0.113
-133.370	-111.450	-0.155	0.031
-132.356	-98.698	-0.385	-0.096
-131.341	605.703	-0.063	0.153
-130.326	-76.210	-0.340	-0.117
-129.312	-148.958	0.102	-0.008
-128.297	-18.602	-0.221	0.134
-127.283	-66.571	-0.528	0.204
-126.268	512.817	0.029	0.066
-125.253	-75.764	-0.051	-0.018
-124.239	800.000	-0.041	0.156
-123.224	800.000	-0.067	-0.233
-122.210	232.420	0.078	0.124
-121.195	-185.195	-0.371	-0.006
