DTS Sentinel unit serial number:	SN413079Multiplexer serial number:	ORYXHardware model number:	OX4-SRSoftware version number:	ORYX F/W v4.00 Oryx Data Collector v3.7.2.0data status	okinstallation	princeton_trtdifferential loss correction	single-endedforward channel	channel 3reverse channel	N/Adate	2019/09/15time	01:40:35forward acquisition time	60.00reverse acquisition time	0.00gamma	496.2192k internal	0.2321k external	0.2321temperature offset calibration	0.9965default loss term (dB/km)	0.3790temperature slope calibration	1.0000multiplexer offset coefficient	1.0000multiplexer slope coefficient	1.0000fibre end	0.00T internal ref (°C)	31.81T ext. ref 1 (°C)	4.51T ext. ref 2 (°C)	26.74length (m)	temperature (°C)	Stokes	anti-Stokes-747.200	-37.605	0.037	-0.020
-746.185	-138.031	-0.152	-0.017
-745.171	-53.022	0.051	-0.024
-744.156	-76.558	-0.135	-0.048
-743.142	-161.551	0.081	-0.004
-742.127	800.000	-0.121	0.401
-741.112	-143.643	-0.391	-0.038
-740.098	-185.124	-0.357	0.006
-739.083	-54.543	0.133	-0.061
-738.069	800.000	-0.072	0.242
-737.054	417.788	-0.234	0.506
-736.039	800.000	0.042	-0.165
-735.025	-51.662	0.101	0.048
-734.010	-161.635	-0.332	0.017
-732.996	-115.220	-0.237	-0.045
-731.981	-200.000	0.055	-0.422
-730.966	-92.883	-0.175	-0.049
-729.952	83.714	-0.115	-0.127
-728.937	800.000	-0.218	0.728
-727.923	-53.479	-0.207	-0.096
-726.908	12.820	-0.146	0.114
-725.894	-15.008	0.112	-0.072
-724.879	-145.142	-0.173	0.016
-723.864	84.783	0.183	-0.202
-722.850	-200.000	0.052	0.241
-721.835	800.000	-0.052	-0.181
-720.821	61.488	-0.170	-0.171
-719.806	-33.018	-0.214	-0.120
-718.791	-152.412	-0.249	0.018
-717.777	-153.814	0.064	0.004
-716.762	-200.000	-0.024	-0.172
-715.748	-79.097	-0.198	0.068
-714.733	491.192	0.092	-0.213
-713.718	104.322	-0.273	-0.325
-712.704	9.184	-0.441	-0.336
-711.689	4.036	0.151	-0.112
-710.675	-118.408	-0.142	0.025
-709.660	-29.224	0.125	0.072
-708.645	800.000	-0.024	-0.101
-707.631	126.777	0.196	-0.251
-706.616	-136.250	-0.420	0.049
-705.602	-200.000	-0.053	0.298
-704.587	151.937	0.125	-0.172
-703.572	220.295	0.095	0.154
-702.558	209.360	0.034	-0.053
-701.543	-143.377	-0.229	-0.022
-700.529	-200.000	-0.070	-0.328
-699.514	87.501	0.042	0.047
-698.499	-105.490	-0.111	-0.025
-697.485	-200.000	-0.041	-0.234
-696.470	-200.000	-0.007	-0.064
-695.456	-200.000	-0.043	-0.228
-694.441	800.000	0.070	0.235
-693.426	400.189	0.068	0.145
-692.412	70.088	0.113	-0.117
-691.397	-200.000	0.069	-0.342
-690.383	428.437	0.195	-0.424
-689.368	244.676	0.135	-0.229
-688.354	227.446	-0.123	-0.201
-687.339	-98.047	-0.209	-0.054
-686.324	-200.000	0.001	0.084
-685.310	79.880	0.109	-0.118
-684.295	-150.753	-0.179	0.014
-683.281	-22.730	-0.058	-0.036
-682.266	76.884	0.019	0.020
-681.251	-189.025	-0.527	-0.006
-680.237	27.524	-0.218	-0.185
-679.222	39.928	0.307	0.278
-678.208	-200.000	-0.019	0.122
-677.193	40.151	-0.092	-0.083
-676.178	66.179	0.272	0.278
-675.164	28.321	-0.101	0.086
-674.149	800.000	-0.052	-0.147
-673.135	16.253	-0.023	0.018
-672.120	155.676	0.125	-0.174
-671.105	3.631	-0.335	-0.246
-670.091	125.016	-0.073	0.093
-669.076	-200.000	0.005	0.161
-668.062	238.852	-0.033	-0.056
-667.047	-7.962	0.130	-0.088
-666.032	-119.867	0.039	-0.007
-665.018	-72.142	-0.193	0.072
-664.003	800.000	-0.038	-0.151
-662.989	-88.864	-0.105	0.031
-661.974	-47.188	-0.214	-0.105
-660.959	-39.069	-0.094	-0.050
-659.945	-194.631	-0.265	-0.002
-658.930	113.383	0.303	-0.371
-657.916	-48.233	-0.525	-0.255
-656.901	-48.000	-0.104	-0.051
-655.886	-200.000	-0.039	0.354
-654.872	130.191	0.045	-0.058
-653.857	-125.989	-0.165	0.025
-652.843	-54.510	-0.162	-0.074
-651.828	-42.456	0.130	0.067
-650.814	-110.606	0.277	-0.058
-649.799	-148.324	-0.061	-0.005
-648.784	153.190	-0.073	-0.101
-647.770	800.000	-0.076	-0.261
-646.755	-129.902	0.140	0.019
-645.741	-33.017	0.198	-0.111
-644.726	-87.428	-0.099	-0.030
-643.711	146.643	0.199	-0.269
-642.697	8.959	0.413	-0.314
-641.682	-87.677	-0.049	-0.015
-640.668	-200.000	-0.009	0.143
-639.653	800.000	0.057	-0.253
-638.638	495.093	-0.117	-0.271
-637.624	-142.119	-0.293	-0.029
-636.609	-85.780	0.472	-0.147
-635.595	-135.908	-0.477	0.057
-634.580	-46.033	-0.133	-0.066
-633.565	462.639	-0.094	-0.212
-632.551	-105.090	-0.251	-0.058
-631.536	-200.000	0.028	0.415
-630.522	3.841	0.159	0.117
-629.507	425.905	-0.133	0.288
-628.492	71.911	-0.194	-0.203
-627.478	185.515	0.133	-0.198
-626.463	800.000	-0.029	0.123
-625.449	800.000	0.031	-0.098
-624.434	-130.769	-0.087	-0.012
-623.419	800.000	-0.057	0.217
-622.405	-40.170	-0.087	-0.046
-621.390	-158.229	-0.227	0.013
-620.376	-200.000	-0.026	-0.159
-619.361	-200.000	0.059	0.332
-618.346	91.212	-0.103	-0.117
-617.332	599.889	-0.006	0.014
-616.317	49.785	0.182	-0.172
-615.303	47.011	-0.250	-0.234
-614.288	158.223	0.108	-0.151
-613.273	-124.246	0.208	-0.033
-612.259	-185.507	-0.359	-0.005
-611.244	56.364	0.210	0.205
-610.230	147.089	-0.183	-0.247
-609.215	-121.263	0.243	-0.041
-608.201	-200.000	0.047	0.283
-607.186	142.792	0.076	-0.102
-606.171	-200.000	-0.011	-0.169
-605.157	14.206	-0.167	-0.131
-604.142	305.978	0.089	0.166
-603.128	22.328	-0.117	-0.096
-602.113	-158.801	-0.279	0.016
-601.098	85.036	-0.189	-0.208
-600.084	85.710	-0.222	-0.245
-599.069	-152.034	0.110	-0.008
-598.055	147.017	-0.156	0.211
-597.040	47.924	0.177	0.166
-596.025	-101.316	-0.190	0.047
-595.011	114.921	-0.146	0.178
-593.996	-117.294	0.292	0.053
-592.982	-17.646	-0.447	0.282
-591.967	-200.000	0.065	0.378
-590.952	-177.543	-0.165	-0.004
-589.938	-121.382	0.118	-0.020
-588.923	-160.673	-0.250	-0.013
-587.909	800.000	-0.073	-0.254
-586.894	-81.950	-0.361	-0.119
-585.879	-102.397	-0.259	-0.062
-584.865	491.694	0.086	-0.198
-583.850	-145.918	0.070	0.006
-582.836	173.458	-0.085	0.124
-581.821	-100.288	0.065	0.016
-580.806	-12.667	0.152	-0.099
-579.792	-116.612	-0.051	-0.009
-578.777	-125.350	-0.199	-0.030
-577.763	273.537	-0.068	-0.121
-576.748	-119.082	-0.451	-0.079
-575.733	-200.000	-0.059	-0.341
-574.719	-39.423	0.304	0.160
-573.704	652.703	0.089	0.230
-572.690	102.134	0.073	-0.086
-571.675	-174.328	0.184	0.005
-570.661	-58.622	0.220	-0.096
-569.646	536.363	0.050	0.120
-568.631	-131.428	-0.298	0.040
-567.617	-27.790	0.437	-0.255
-566.602	42.674	0.236	0.216
-565.588	-111.099	0.187	-0.038
-564.573	-51.277	0.067	-0.032
-563.558	-37.091	-0.307	0.165
-562.544	375.792	0.117	0.239
-561.529	800.000	-0.011	0.044
-560.515	72.708	0.094	0.098
-559.500	800.000	-0.120	0.367
-558.485	193.701	-0.086	0.131
-557.471	392.383	-0.113	0.236
-556.456	-28.144	0.137	0.079
-555.442	-2.075	-0.060	0.043
-554.427	800.000	0.084	0.238
-553.412	47.766	-0.133	-0.125
-552.398	61.058	0.058	-0.058
-551.383	-39.954	0.238	-0.124
-550.369	-108.685	-0.188	-0.041
-549.354	-24.281	0.252	0.151
-548.339	-200.000	-0.007	0.213
-547.325	207.705	0.087	-0.136
-546.310	344.074	-0.081	-0.160
-545.296	-17.019	-0.319	-0.202
-544.281	800.000	-0.094	-0.269
-543.266	80.408	0.225	-0.243
-542.252	144.864	-0.139	0.187
-541.237	800.000	-0.030	-0.112
-540.223	-20.440	0.215	-0.132
-539.208	-35.684	0.160	-0.087
-538.193	190.597	0.138	-0.209
-537.179	247.784	-0.135	-0.229
-536.164	484.580	0.137	-0.314
-535.150	800.000	0.005	0.014
-534.135	211.931	0.127	0.201
-533.121	-200.000	0.029	0.169
-532.106	30.221	-0.157	0.134
-531.091	-200.000	-0.006	0.129
-530.077	73.086	0.122	-0.128
-529.062	-200.000	-0.358	0.001
-528.048	18.309	0.095	-0.076
-527.033	-2.259	-0.236	0.166
-526.018	800.000	0.010	-0.042
-525.004	85.098	-0.153	-0.168
-523.989	145.087	0.167	-0.223
-522.975	-9.731	-0.162	0.108
-521.960	-200.000	-0.037	-0.190
-520.945	800.000	0.057	0.230
-519.931	-168.868	0.178	-0.007
-518.916	-34.198	-0.122	-0.067
-517.902	-40.483	0.303	-0.157
-516.887	263.680	0.124	0.216
-515.872	5.611	-0.070	-0.052
-514.858	27.421	-0.182	0.153
-513.843	-200.000	-0.065	0.413
-512.829	-66.579	0.176	0.070
-511.814	-4.486	0.121	0.084
-510.799	84.562	-0.231	-0.253
-509.785	99.408	-0.074	0.085
-508.770	-114.897	-0.387	0.074
-507.756	-101.735	-0.214	0.052
-506.741	-200.000	0.023	0.457
-505.726	-200.000	0.013	-0.124
-504.712	-200.000	0.050	0.257
-503.697	-170.276	-0.199	-0.007
-502.683	205.219	0.168	0.261
-501.668	-98.966	0.504	0.128
-500.653	37.733	-0.121	0.107
-499.639	504.637	-0.104	0.242
-498.624	258.090	0.047	0.081
-497.610	-6.382	-0.075	-0.051
-496.595	197.665	0.155	0.237
-495.581	-97.699	-0.183	-0.047
-494.566	-124.574	0.353	0.055
-493.551	-80.117	-0.448	0.150
-492.537	30.322	0.099	0.085
-491.522	172.791	0.087	-0.126
-490.508	-169.334	-0.383	-0.014
-489.493	-75.257	-0.389	0.139
-488.478	800.000	0.052	-0.176
-487.464	123.769	-0.050	-0.063
-486.449	187.094	-0.100	-0.149
-485.435	424.402	0.146	-0.315
-484.420	-200.000	-0.026	0.474
-483.405	130.855	0.144	0.185
-482.391	410.672	-0.082	0.175
-481.376	140.961	0.215	-0.284
-480.362	800.000	-0.090	-0.257
-479.347	800.000	-0.045	0.175
-478.332	-200.000	0.045	-0.379
-477.318	27.946	0.413	-0.349
-476.303	-117.674	0.198	0.036
-475.289	52.291	0.158	0.151
-474.274	-200.000	-0.045	-0.197
-473.259	800.000	-0.021	-0.081
-472.245	771.182	0.028	0.076
-471.230	-49.012	0.173	-0.083
-470.216	612.754	0.077	-0.193
-469.201	800.000	0.065	-0.285
-468.186	-200.000	-0.003	0.333
-467.172	-200.000	-0.027	0.147
-466.157	227.421	-0.220	-0.358
-465.143	-200.000	-0.015	-0.242
-464.128	-198.544	-0.444	0.003
-463.113	-200.000	0.004	0.222
-462.099	149.338	-0.167	-0.226
-461.084	-54.564	-0.145	-0.065
-460.070	-200.000	-0.063	0.319
-459.055	-200.000	-0.011	0.292
-458.040	-125.509	0.466	0.071
-457.026	800.000	-0.050	0.180
-456.011	349.831	-0.077	-0.152
-454.997	-200.000	-0.022	-0.134
-453.982	-73.380	-0.224	0.082
-452.968	-89.938	0.403	0.118
-451.953	447.889	0.097	-0.212
-450.938	114.314	0.128	-0.155
-449.924	-85.209	0.078	0.024
-448.909	-200.000	0.048	0.415
-447.895	-200.000	-0.015	-0.359
-446.880	188.415	0.136	-0.203
-445.865	800.000	0.062	-0.209
-444.851	-0.615	-0.142	-0.100
-443.836	72.477	0.122	0.127
-442.822	-63.433	0.083	0.034
-441.807	-122.615	-0.045	0.007
-440.792	800.000	0.064	-0.179
-439.778	-200.000	-0.003	-0.081
-438.763	164.947	-0.096	-0.135
-437.749	-154.197	0.132	0.009
-436.734	-41.291	-0.027	0.014
-435.719	229.422	0.120	0.196
-434.705	-15.756	-0.040	-0.026
-433.690	-59.738	0.187	0.080
-432.676	800.000	-0.092	-0.281
-431.661	-153.126	0.125	-0.009
-430.646	-30.346	0.200	0.113
-429.632	800.000	-0.013	0.041
-428.617	293.399	-0.180	0.327
-427.603	-183.220	-0.279	-0.005
-426.588	-45.812	0.381	-0.188
-425.573	-150.697	-0.304	0.023
-424.559	214.292	-0.130	-0.206
-423.544	800.000	-0.053	-0.179
-422.530	-72.460	-0.181	-0.067
-421.515	-143.327	0.098	0.009
-420.500	-76.894	0.167	0.058
-419.486	239.931	-0.064	-0.106
-418.471	-200.000	0.013	-0.066
-417.457	800.000	0.030	-0.127
-416.442	800.000	0.081	0.288
-415.428	4.578	-0.193	0.141
-414.413	-0.193	0.195	0.139
-413.398	399.642	0.197	0.413
-412.384	-144.535	-0.329	0.030
-411.369	-200.000	-0.059	0.279
-410.355	-41.935	-0.221	-0.113
-409.340	-200.000	-0.014	-0.254
-408.325	91.583	0.180	-0.202
-407.311	-94.519	0.167	0.045
-406.296	277.748	-0.044	-0.079
-405.282	-38.520	-0.127	0.067
-404.267	-133.117	-0.339	-0.043
-403.252	-94.321	0.142	-0.039
-402.238	-200.000	0.004	-0.168
-401.223	266.148	0.193	0.336
-400.209	-200.000	0.003	0.121
-399.194	233.035	0.064	-0.105
-398.179	6.290	0.120	0.089
-397.165	-78.760	-0.070	0.024
-396.150	72.481	-0.276	0.286
-395.136	-40.252	0.212	0.110
-394.121	605.428	-0.096	-0.238
-393.106	50.941	-0.113	-0.107
-392.092	-63.044	0.274	-0.113
-391.077	256.039	-0.104	0.177
-390.063	50.344	0.071	-0.067
-389.048	144.020	0.111	0.148
-388.033	800.000	0.111	0.444
-387.019	695.429	0.148	-0.387
-386.004	-200.000	0.063	-0.380
-384.990	-200.000	0.007	0.153
-383.975	334.815	0.143	0.276
-382.960	-36.017	-0.111	0.060
-381.946	-67.928	-0.174	-0.068
-380.931	134.477	-0.042	-0.054
-379.917	-200.000	-0.049	0.383
-378.902	37.748	-0.199	-0.176
-377.888	-200.000	-0.035	0.223
-376.873	49.523	-0.256	0.240
-375.858	-200.000	0.030	0.301
-374.844	791.052	0.003	0.009
-373.829	139.774	0.085	-0.111
-372.815	-200.000	0.023	0.272
-371.800	-200.000	0.034	-0.249
-370.785	167.523	0.092	-0.130
-369.771	800.000	0.104	0.403
-368.756	-164.762	-0.112	0.005
-367.742	61.995	0.075	-0.074
-366.727	46.885	0.173	-0.161
-365.712	99.807	-0.018	0.021
-364.698	-55.580	0.052	-0.023
-363.683	-73.989	-0.235	-0.085
-362.669	-132.724	-0.135	0.017
-361.654	800.000	-0.015	0.044
-360.639	440.763	0.181	-0.394
-359.625	-200.000	-0.009	-0.047
-358.610	-48.043	-0.028	-0.013
-357.596	208.522	-0.252	-0.392
-356.581	800.000	-0.030	0.094
-355.566	-200.000	0.041	-0.273
-354.552	122.119	0.139	-0.172
-353.537	-200.000	0.031	0.377
-352.523	165.132	-0.084	-0.118
-351.508	317.631	0.101	-0.190
-350.493	-58.286	-0.252	0.109
-349.479	-200.000	-0.000	-0.116
-348.464	375.062	-0.152	-0.307
-347.450	-44.899	-0.084	0.041
-346.435	-27.808	0.252	-0.145
-345.420	-200.000	0.006	-0.120
-344.406	-24.955	0.175	0.103
-343.391	-137.638	0.152	0.017
-342.377	-200.000	-0.005	0.111
-341.362	-200.000	0.019	0.138
-340.348	16.717	0.140	-0.110
-339.333	22.828	-0.097	0.079
-338.318	708.357	0.056	0.147
-337.304	44.163	0.159	0.145
-336.289	800.000	0.077	0.312
-335.275	156.766	0.285	0.391
-334.260	-200.000	0.001	-0.308
-333.245	-170.628	-0.109	-0.004
-332.231	-85.269	0.093	-0.029
-331.216	19.983	0.136	0.109
-330.202	19.064	-0.039	-0.031
-329.187	747.905	-0.106	-0.285
-328.172	0.682	0.158	-0.112
-327.158	-136.675	0.058	0.007
-326.143	93.967	-0.101	-0.114
-325.129	-163.645	0.085	0.004
-324.114	142.642	-0.053	-0.070
-323.099	-58.626	-0.302	0.130
-322.085	-84.362	-0.226	0.071
-321.070	-82.224	0.084	-0.027
-320.056	-51.351	0.036	0.017
-319.041	-119.733	-0.183	-0.031
-318.026	-65.122	0.273	0.110
-317.012	-92.005	-0.157	-0.044
-315.997	-4.014	0.278	0.191
-314.983	47.906	0.066	-0.061
-313.968	111.881	0.044	0.052
-312.953	-81.094	-0.081	-0.027
-311.939	-75.120	0.195	0.069
-310.924	-26.313	0.212	-0.123
-309.910	360.829	-0.209	-0.415
-308.895	-144.164	-0.243	-0.023
-307.880	-200.000	-0.014	0.121
-306.866	74.076	0.225	0.234
-305.851	800.000	0.054	-0.152
-304.837	-184.158	-0.304	0.005
-303.822	-111.318	0.369	-0.075
-302.807	37.563	0.164	0.145
-301.793	167.464	0.105	0.148
-300.778	-200.000	0.016	0.277
-299.764	255.516	0.157	0.268
-298.749	3.930	0.219	-0.159
-297.735	79.681	-0.187	-0.200
-296.720	783.962	0.042	0.114
-295.705	-156.092	0.142	-0.009
-294.691	-200.000	0.055	-0.357
-293.676	104.518	-0.316	0.369
-292.662	-200.000	0.005	-0.119
-291.647	458.018	-0.148	0.326
-290.632	54.248	0.267	-0.255
-289.618	11.384	0.134	-0.102
-288.603	-37.745	-0.170	-0.090
-287.589	-125.355	0.165	-0.025
-286.574	-86.736	0.311	-0.094
-285.559	-15.516	-0.220	-0.140
-284.545	354.201	0.061	-0.121
-283.530	-51.342	0.193	-0.090
-282.516	-104.467	0.145	0.033
-281.501	73.527	-0.154	0.160
-280.486	376.788	0.083	0.169
-279.472	-39.147	-0.136	-0.071
-278.457	219.504	-0.200	0.317
-277.443	28.079	-0.198	-0.166
-276.428	-200.000	0.015	-0.072
-275.413	262.592	-0.057	0.099
-274.399	293.400	-0.151	0.274
-273.384	-200.000	0.012	-0.157
-272.370	259.926	-0.184	-0.315
-271.355	800.000	-0.058	-0.226
-270.340	698.508	0.078	-0.203
-269.326	800.000	0.061	0.188
-268.311	800.000	-0.042	-0.152
-267.297	77.601	-0.258	0.272
-266.282	-184.100	0.298	-0.005
-265.267	18.041	-0.130	-0.103
-264.253	135.267	0.048	0.061
-263.238	-41.327	0.148	-0.076
-262.224	-200.000	-0.027	0.176
-261.209	-200.000	-0.086	0.000
-260.195	13.377	0.249	0.191
-259.180	-200.000	-0.007	-0.356
-258.165	-76.192	0.152	-0.053
-257.151	-63.859	-0.168	-0.068
-256.136	800.000	-0.044	-0.154
-255.122	60.571	0.150	0.147
-254.107	-40.950	0.459	-0.235
-253.092	-102.836	0.198	-0.047
-252.078	359.578	0.126	-0.251
-251.063	532.219	-0.090	0.211
-250.049	-200.000	0.016	0.079
-249.034	77.359	-0.228	-0.241
-248.019	-81.019	-0.219	-0.072
-247.005	-200.000	0.042	-0.206
-245.990	-0.605	-0.166	0.117
-244.976	6.328	-0.116	0.085
-243.961	11.733	-0.069	-0.053
-242.946	377.008	-0.041	-0.084
-241.932	387.085	-0.037	-0.075
-240.917	-114.837	0.138	0.026
-239.903	-22.014	0.079	0.048
-238.888	-200.000	0.019	-0.138
-237.873	162.622	0.158	0.220
-236.859	-147.384	0.086	0.007
-235.844	-84.535	-0.255	-0.080
-234.830	125.494	-0.063	-0.078
-233.815	800.000	0.071	-0.234
-232.800	-159.866	0.227	-0.012
-231.786	597.905	-0.146	0.359
-230.771	453.012	0.246	0.539
-229.757	800.000	-0.074	0.209
-228.742	88.066	-0.060	0.066
-227.727	35.226	-0.156	-0.136
-226.713	405.615	0.102	-0.213
-225.698	64.267	0.110	0.110
-224.684	-57.909	-0.103	0.044
-223.669	458.572	-0.218	0.480
-222.655	-166.632	-0.303	-0.012
-221.640	109.694	0.201	-0.238
-220.625	47.753	0.098	-0.090
-219.611	-132.056	-0.037	-0.005
-218.596	-42.328	0.243	0.123
-217.582	-200.000	-0.041	0.195
-216.567	-86.763	0.417	0.126
-215.552	800.000	0.042	-0.127
-214.538	-62.984	0.081	0.033
-213.523	75.413	-0.123	-0.128
-212.509	-135.187	0.132	-0.016
-211.494	-33.013	-0.047	0.026
-210.479	-200.000	0.004	0.204
-209.465	-75.216	0.144	-0.051
-208.450	800.000	0.053	-0.180
-207.436	7.890	0.127	-0.094
-206.421	314.628	-0.180	-0.336
-205.406	530.249	-0.105	-0.245
-204.392	800.000	-0.085	0.288
-203.377	-45.754	-0.086	-0.042
-202.363	55.774	-0.066	0.063
-201.348	44.735	0.014	-0.013
-200.333	50.742	0.127	0.119
-199.319	451.503	-0.105	-0.230
-198.304	-123.185	0.443	-0.070
-197.290	35.153	0.053	-0.046
-196.275	674.516	-0.076	-0.195
-195.260	42.699	0.088	0.080
-194.246	173.662	0.079	0.112
-193.231	109.081	-0.089	-0.105
-192.217	-71.291	-0.109	0.040
-191.202	-57.533	0.348	-0.151
-190.187	119.274	0.017	-0.021
-189.173	-200.000	0.001	-0.181
-188.158	-200.000	0.046	0.323
-187.144	-200.000	0.019	0.252
-186.129	800.000	0.094	0.332
-185.114	-200.000	0.005	0.112
-184.100	23.273	0.057	-0.046
-183.085	51.131	-0.041	-0.038
-182.071	800.000	-0.050	-0.141
-181.056	-200.000	0.032	0.356
-180.042	-1.692	0.129	-0.090
-179.027	-28.256	-0.199	0.113
-178.012	-16.316	0.180	-0.113
-176.998	75.107	0.079	-0.082
-175.983	-200.000	-0.013	0.135
-174.969	-141.565	-0.445	-0.044
-173.954	-79.153	-0.225	-0.076
-172.939	-125.755	0.230	0.034
-171.925	-200.000	-0.003	0.059
-170.910	513.370	-0.128	0.295
-169.896	39.272	-0.094	-0.083
-168.881	-22.760	-0.193	0.115
-167.866	191.093	0.140	-0.207
-166.852	0.066	-0.184	0.130
-165.837	447.265	-0.049	0.107
-164.823	204.707	-0.138	0.212
-163.808	-0.222	-0.051	0.036
-162.793	-103.095	0.231	0.054
-161.779	-70.337	0.110	0.041
-160.764	-68.951	0.307	0.117
-159.750	506.913	0.005	0.012
-158.735	13.233	-0.124	-0.095
-157.720	-124.956	-0.384	0.058
-156.706	-200.000	-0.025	-0.210
-155.691	-48.086	0.209	0.100
-154.677	-79.799	-0.245	-0.081
-153.662	-200.000	-0.018	0.087
-152.647	-37.999	-0.146	0.077
-151.633	-139.999	-0.165	-0.017
-150.618	-39.349	0.444	0.230
-149.604	121.263	0.169	0.208
-148.589	-200.000	-0.001	0.159
-147.574	-49.931	-0.234	0.109
-146.560	18.424	-0.152	0.120
-145.545	800.000	0.108	-0.332
-144.531	-45.173	0.202	0.099
-143.516	68.420	-0.185	-0.187
-142.502	-180.348	0.290	-0.006
-141.487	-200.000	-0.015	-0.336
-140.472	-55.728	-0.058	-0.026
-139.458	110.322	-0.170	0.201
-138.443	340.889	0.077	-0.148
-137.429	-200.000	-0.020	0.135
-136.414	-116.670	0.153	-0.028
-135.399	414.332	0.056	0.117
-134.385	-62.841	0.042	0.017
-133.370	-200.000	0.028	0.134
-132.356	-16.589	0.293	0.183
-131.341	292.745	-0.177	0.319
-130.326	-123.072	-0.415	-0.066
-129.312	117.364	-0.042	0.051
-128.297	-53.560	-0.059	-0.027
-127.283	328.571	-0.139	-0.263
-126.268	-16.900	0.119	0.074
-125.253	432.964	-0.076	-0.162
-124.239	25.738	0.091	0.075
-123.224	-74.481	-0.384	-0.136
-122.210	139.143	0.068	-0.088
