DTS Sentinel unit serial number:	SN413079Multiplexer serial number:	ORYXHardware model number:	OX4-SRSoftware version number:	ORYX F/W v4.00 Oryx Data Collector v3.7.2.0data status	okinstallation	princeton_trtdifferential loss correction	single-endedforward channel	channel 3reverse channel	N/Adate	2019/09/16time	22:36:35forward acquisition time	60.00reverse acquisition time	0.00gamma	496.2192k internal	0.2325k external	0.2325temperature offset calibration	0.9941default loss term (dB/km)	0.3790temperature slope calibration	1.0000multiplexer offset coefficient	1.0000multiplexer slope coefficient	1.0000fibre end	0.00T internal ref (°C)	30.72T ext. ref 1 (°C)	0.08T ext. ref 2 (°C)	24.35length (m)	temperature (°C)	Stokes	anti-Stokes-747.200	800.000	0.092	-0.287
-746.185	-120.241	-0.083	0.014
-745.171	800.000	0.063	0.236
-744.156	345.103	-0.080	0.159
-743.142	800.000	0.078	0.264
-742.127	800.000	-0.115	0.365
-741.112	-108.565	-0.138	0.030
-740.098	766.197	-0.023	0.064
-739.083	169.806	-0.316	0.456
-738.069	112.139	-0.153	0.186
-737.054	-130.181	-0.358	0.049
-736.039	469.914	-0.097	-0.220
-735.025	-200.000	-0.026	0.131
-734.010	-175.591	0.231	-0.006
-732.996	-200.000	-0.079	0.355
-731.981	-200.000	-0.020	0.172
-730.966	-200.000	0.009	-0.109
-729.952	319.483	-0.070	-0.133
-728.937	-200.000	0.011	-0.257
-727.923	-1.733	-0.404	0.287
-726.908	-84.783	0.163	0.052
-725.894	59.173	0.080	0.079
-724.879	9.648	0.162	0.123
-723.864	-66.124	-0.083	0.033
-722.850	20.429	0.011	0.009
-721.835	276.391	0.078	0.140
-720.821	223.677	0.215	0.349
-719.806	131.505	-0.014	-0.019
-718.791	771.350	-0.032	0.087
-717.777	-139.844	0.273	0.029
-716.762	84.316	-0.068	0.075
-715.748	-87.768	-0.261	0.079
-714.733	-148.036	0.324	-0.027
-713.718	-60.095	-0.178	-0.077
-712.704	-83.485	-0.325	-0.105
-711.689	-22.434	0.336	-0.205
-710.675	164.408	0.069	0.097
-709.660	312.465	0.080	-0.152
-708.645	169.647	0.084	0.121
-707.631	117.465	-0.239	-0.296
-706.616	44.216	-0.026	0.024
-705.602	-200.000	0.010	0.121
-704.587	-110.831	0.109	0.023
-703.572	122.037	-0.069	0.087
-702.558	-97.216	0.534	0.141
-701.543	-200.000	0.027	0.125
-700.529	-153.197	-0.346	-0.024
-699.514	-200.000	-0.019	0.386
-698.499	36.864	0.085	-0.076
-697.485	62.068	-0.092	0.092
-696.470	530.718	0.112	0.268
-695.456	310.199	-0.118	0.222
-694.441	800.000	-0.024	0.102
-693.426	-159.187	-0.064	0.004
-692.412	222.265	-0.065	0.105
-691.397	-61.128	0.139	0.059
-690.383	-38.513	-0.362	-0.193
-689.368	507.861	-0.133	-0.310
-688.354	800.000	0.075	-0.224
-687.339	116.955	0.124	0.154
-686.324	-170.127	0.122	-0.004
-685.310	7.613	0.068	-0.051
-684.295	-98.084	-0.177	0.046
-683.281	800.000	0.047	0.156
-682.266	800.000	-0.067	0.208
-681.251	-200.000	-0.021	0.159
-680.237	800.000	-0.058	-0.176
-679.222	-40.320	-0.005	-0.002
-678.208	-104.533	-0.041	-0.010
-677.193	800.000	0.078	0.234
-676.178	179.726	0.109	-0.161
-675.164	687.625	0.145	-0.381
-674.149	-200.000	-0.017	-0.141
-673.135	-200.000	-0.037	0.214
-672.120	68.072	-0.118	0.122
-671.105	395.800	-0.063	-0.132
-670.091	-49.448	-0.302	0.145
-669.076	-200.000	0.004	-0.078
-668.062	-117.487	-0.043	-0.008
-667.047	262.837	0.252	-0.439
-666.032	289.322	-0.067	-0.122
-665.018	-100.004	-0.254	-0.064
-664.003	800.000	0.028	-0.093
-662.989	316.901	0.162	0.309
-661.974	-115.105	0.179	-0.034
-660.959	-117.462	0.185	0.034
-659.945	-200.000	0.010	0.094
-658.930	331.697	-0.156	-0.303
-657.916	800.000	0.055	-0.202
-656.901	800.000	-0.041	-0.123
-655.886	-96.672	-0.134	-0.036
-654.872	-90.621	0.048	-0.014
-653.857	-200.000	-0.073	-0.419
-652.843	310.299	0.054	-0.102
-651.828	50.756	0.064	0.061
-650.814	91.484	-0.179	0.203
-649.799	69.328	-0.248	0.257
-648.784	12.276	0.113	-0.088
-647.770	14.160	0.033	-0.026
-646.755	-194.673	0.346	0.003
-645.741	5.946	-0.040	-0.030
-644.726	258.691	-0.173	0.300
-643.711	-42.520	-0.345	-0.177
-642.697	-38.777	-0.250	-0.133
-641.682	-200.000	-0.017	-0.213
-640.668	48.750	0.243	-0.229
-639.653	-92.932	0.387	0.108
-638.638	41.357	-0.301	-0.273
-637.624	-124.311	0.047	0.007
-636.609	65.792	0.234	-0.239
-635.595	130.345	0.109	-0.141
-634.580	-90.532	-0.081	-0.024
-633.565	427.184	-0.113	0.246
-632.551	-36.559	-0.251	0.136
-631.536	-200.000	0.044	0.371
-630.522	93.385	-0.172	0.196
-629.507	800.000	-0.038	0.151
-628.492	41.670	0.068	0.062
-627.478	-200.000	0.008	-0.101
-626.463	314.267	-0.168	0.317
-625.449	800.000	0.136	0.396
-624.434	800.000	0.096	0.393
-623.419	-98.083	0.166	0.043
-622.405	-106.733	-0.141	-0.032
-621.390	624.168	0.055	0.140
-620.376	-32.579	0.080	-0.045
-619.361	-200.000	-0.030	0.357
-618.346	-122.811	-0.233	-0.038
-617.332	-165.565	-0.243	0.011
-616.317	-200.000	0.010	-0.074
-615.303	77.051	-0.039	-0.042
-614.288	88.571	-0.121	0.135
-613.273	-200.000	0.001	0.029
-612.259	-133.996	0.312	-0.039
-611.244	125.250	-0.145	0.184
-610.230	33.817	-0.141	-0.123
-609.215	554.429	0.024	0.058
-608.201	-108.795	-0.159	-0.034
-607.186	-200.000	0.005	-0.051
-606.171	-87.739	0.177	-0.054
-605.157	-86.927	-0.249	-0.076
-604.142	504.532	0.040	0.094
-603.128	288.471	-0.126	-0.228
-602.113	1.627	-0.269	-0.195
-601.098	162.369	0.097	-0.137
-600.084	77.765	-0.195	0.208
-599.069	27.034	-0.073	-0.061
-598.055	23.601	0.140	0.115
-597.040	-200.000	-0.001	0.006
-596.025	223.220	-0.209	-0.339
-595.011	-158.664	0.275	0.016
-593.996	-200.000	0.028	0.137
-592.982	13.875	0.139	0.108
-591.967	41.118	-0.133	-0.121
-590.952	80.644	0.117	-0.127
-589.938	-105.312	-0.234	-0.054
-588.923	-36.583	-0.227	-0.123
-587.909	458.513	0.131	-0.293
-586.894	800.000	-0.140	-0.504
-585.879	-121.682	0.072	-0.012
-584.865	123.041	-0.090	0.114
-583.850	266.181	-0.058	-0.101
-582.836	-200.000	0.004	-0.058
-581.821	1.919	-0.280	-0.203
-580.806	233.146	0.175	0.288
-579.792	-96.680	0.066	-0.017
-578.777	800.000	0.049	0.151
-577.763	-151.416	0.192	0.014
-576.748	800.000	0.091	-0.329
-575.733	-2.805	0.025	-0.017
-574.719	-127.151	-0.209	0.031
-573.704	-13.176	-0.069	-0.045
-572.690	-164.600	0.070	-0.003
-571.675	33.315	0.168	-0.146
-570.661	800.000	-0.064	-0.194
-569.646	149.317	-0.313	0.424
-568.631	26.710	-0.439	0.369
-567.617	370.929	0.091	-0.185
-566.602	-146.058	0.219	0.019
-565.588	-79.565	0.188	0.063
-564.573	800.000	-0.045	0.174
-563.558	800.000	-0.090	0.373
-562.544	-105.169	0.168	-0.039
-561.529	740.575	-0.023	-0.063
-560.515	113.853	-0.199	0.242
-559.500	198.635	-0.073	0.112
-558.485	-200.000	0.064	0.473
-557.471	-77.954	0.139	0.048
-556.456	565.475	0.025	-0.061
-555.442	-11.419	0.192	-0.127
-554.427	31.198	-0.281	-0.241
-553.412	-95.794	-0.108	0.029
-552.398	-178.621	-0.268	0.006
-551.383	-81.014	0.329	0.109
-550.369	-200.000	-0.019	-0.104
-549.354	-118.694	0.157	-0.028
-548.339	-32.702	0.214	-0.119
-547.325	-200.000	-0.005	-0.193
-546.310	-200.000	-0.032	-0.162
-545.296	566.135	-0.099	0.240
-544.281	-167.287	0.271	0.011
-543.266	168.311	-0.034	0.049
-542.252	776.376	0.162	-0.442
-541.237	42.908	-0.279	-0.255
-540.223	-131.717	0.178	0.023
-539.208	431.557	-0.121	-0.263
-538.193	-200.000	-0.003	0.114
-537.179	31.669	-0.257	0.221
-536.164	-143.921	0.163	0.015
-535.150	800.000	0.076	-0.251
-534.135	-112.982	-0.159	-0.032
-533.121	-200.000	0.013	-0.142
-532.106	-200.000	-0.024	0.297
-531.091	-87.862	0.237	-0.071
-530.077	800.000	0.072	-0.259
-529.062	312.652	-0.086	0.162
-528.048	-64.926	0.343	-0.139
-527.033	-30.244	-0.344	0.195
-526.018	-99.858	-0.463	-0.116
-525.004	-70.292	-0.068	-0.026
-523.989	521.569	-0.099	-0.232
-522.975	-200.000	0.010	0.061
-521.960	-200.000	0.015	-0.162
-520.945	-81.081	0.274	0.091
-519.931	-200.000	0.007	-0.045
-518.916	-114.509	-0.163	-0.031
-517.902	81.920	0.262	0.284
-516.887	704.192	0.096	-0.254
-515.872	-52.896	0.191	-0.088
-514.858	187.936	0.084	-0.125
-513.843	720.575	0.108	-0.288
-512.829	-200.000	-0.087	-0.417
-511.814	-92.751	-0.261	-0.073
-510.799	-169.927	0.044	-0.002
-509.785	18.819	-0.221	0.177
-508.770	-91.445	0.160	-0.046
-507.756	326.001	-0.090	0.172
-506.741	-90.037	-0.105	0.031
-505.726	-66.719	-0.192	0.076
-504.712	509.507	-0.108	-0.251
-503.697	-26.814	0.187	0.109
-502.683	-72.669	0.283	0.104
-501.668	-200.000	0.010	-0.073
-500.653	20.742	0.178	0.144
-499.639	800.000	0.067	0.240
-498.624	-200.000	0.044	0.298
-497.610	-82.333	0.229	-0.075
-496.595	-65.655	0.052	-0.021
-495.581	-168.472	0.259	0.010
-494.566	800.000	0.039	-0.129
-493.551	51.809	-0.310	0.294
-492.537	-13.703	0.276	0.179
-491.522	-81.325	-0.271	0.089
-490.508	-75.965	-0.208	0.073
-489.493	-74.245	-0.116	-0.042
-488.478	-71.585	0.150	-0.056
-487.464	-91.988	0.174	0.049
-486.449	-200.000	-0.008	0.067
-485.435	392.615	0.052	-0.108
-484.420	210.893	-0.189	0.297
-483.405	-27.974	-0.199	0.115
-482.391	-180.560	-0.205	0.004
-481.376	-182.241	0.547	0.010
-480.362	529.171	0.095	-0.225
-479.347	85.877	-0.119	0.130
-478.332	-200.000	-0.007	0.208
-477.318	-86.021	0.257	-0.079
-476.303	-200.000	0.036	0.227
-475.289	-200.000	-0.024	0.303
-474.274	800.000	-0.051	0.172
-473.259	641.272	-0.038	0.097
-472.245	800.000	-0.051	0.148
-471.230	-200.000	-0.011	-0.191
-470.216	800.000	0.035	-0.110
-469.201	387.461	0.135	-0.278
-468.186	-200.000	0.084	-0.432
-467.172	274.743	-0.101	0.178
-466.157	-99.861	0.196	-0.049
-465.143	-200.000	0.082	0.580
-464.128	75.908	-0.128	0.135
-463.113	800.000	0.045	0.186
-462.099	-123.822	-0.384	0.060
-461.084	-184.274	0.277	0.005
-460.070	306.080	0.019	0.035
-459.055	479.679	-0.139	0.314
-458.040	-92.863	-0.144	-0.040
-457.026	-94.108	0.199	-0.054
-456.011	17.702	-0.046	0.037
-454.997	800.000	-0.117	-0.373
-453.982	60.065	0.074	0.073
-452.968	-200.000	0.029	-0.126
-451.953	-119.557	0.355	-0.061
-450.938	-200.000	0.023	-0.367
-449.924	-119.862	0.134	-0.023
-448.909	33.006	-0.146	-0.126
-447.895	-110.593	0.209	-0.043
-446.880	341.026	0.045	0.088
-445.865	-3.779	-0.124	0.086
-444.851	516.184	0.025	0.058
-443.836	165.588	0.161	0.227
-442.822	64.533	-0.274	0.276
-441.807	-200.000	0.014	0.184
-440.792	5.205	-0.202	0.148
-439.778	423.232	-0.179	-0.384
-438.763	-112.750	-0.321	0.064
-437.749	-33.913	-0.137	-0.075
-436.734	-131.746	-0.027	0.004
-435.719	800.000	-0.046	0.190
-434.705	6.334	0.310	0.229
-433.690	70.991	-0.219	0.226
-432.676	318.076	0.188	-0.355
-431.661	27.879	0.078	-0.065
-430.646	800.000	0.077	0.262
-429.632	326.346	-0.117	-0.223
-428.617	-60.590	-0.115	0.049
-427.603	-200.000	-0.021	-0.137
-426.588	9.802	-0.134	-0.101
-425.573	217.606	-0.244	0.388
-424.559	171.926	0.160	0.229
-423.544	-3.055	0.364	0.253
-422.530	-100.685	-0.179	0.044
-421.515	231.072	-0.169	-0.276
-420.500	7.854	0.220	-0.165
-419.486	497.444	-0.084	0.193
-418.471	-200.000	-0.005	0.269
-417.457	593.583	-0.053	0.130
-416.442	375.117	-0.073	0.148
-415.428	-200.000	-0.015	-0.188
-414.413	308.421	-0.088	0.163
-413.398	176.880	-0.256	0.371
-412.384	-40.569	-0.226	0.117
-411.369	691.428	-0.119	0.311
-410.355	33.255	0.022	0.019
-409.340	36.122	0.077	-0.068
-408.325	273.050	-0.138	-0.242
-407.311	40.859	-0.094	0.085
-406.296	800.000	0.054	0.195
-405.282	-86.261	-0.246	0.075
-404.267	800.000	0.127	-0.381
-403.252	800.000	0.145	-0.481
-402.238	-200.000	-0.018	-0.264
-401.223	-134.694	-0.111	-0.013
-400.209	502.500	-0.107	-0.246
-399.194	-200.000	-0.051	-0.249
-398.179	207.507	0.051	0.079
-397.165	111.574	-0.177	0.213
-396.150	-129.008	-0.205	0.029
-395.136	41.582	0.229	-0.206
-394.121	800.000	-0.079	0.295
-393.106	-200.000	-0.034	-0.209
-392.092	-36.115	0.244	-0.131
-391.077	-93.620	0.249	0.069
-390.063	-84.689	-0.094	0.029
-389.048	70.840	0.113	-0.116
-388.033	-47.134	-0.148	-0.072
-387.019	-200.000	-0.021	0.153
-386.004	-99.195	-0.156	-0.039
-384.990	-200.000	-0.080	-0.355
-383.975	800.000	-0.031	0.105
-382.960	-3.482	-0.168	-0.117
-381.946	84.509	-0.140	0.153
-380.931	696.689	-0.086	-0.225
-379.917	-74.069	-0.274	-0.099
-378.902	240.003	-0.041	-0.067
-377.888	40.226	0.234	-0.209
-376.873	-200.000	0.017	0.095
-375.858	282.392	-0.175	0.312
-374.844	-6.897	0.163	0.110
-373.829	-126.933	0.159	0.023
-372.815	800.000	-0.041	-0.168
-371.800	439.344	-0.167	-0.362
-370.785	278.611	0.114	0.202
-369.771	268.355	0.097	0.170
-368.756	800.000	0.082	0.231
-367.742	-145.147	-0.040	-0.004
-366.727	-110.137	0.312	-0.065
-365.712	-78.846	-0.081	0.027
-364.698	-25.344	0.022	0.013
-363.683	10.311	0.162	-0.123
-362.669	249.023	0.311	0.523
-361.654	-80.905	-0.135	0.044
-360.639	25.172	0.038	0.032
-359.625	-99.433	-0.191	0.048
-358.610	-200.000	-0.003	-0.274
-357.596	10.471	0.330	-0.250
-356.581	-200.000	-0.024	-0.197
-355.566	-152.875	-0.263	0.019
-354.552	-15.029	-0.146	0.093
-353.537	37.998	0.038	0.033
-352.523	800.000	-0.009	-0.031
-351.508	8.977	-0.085	0.064
-350.493	25.609	-0.095	-0.079
-349.479	311.831	0.087	-0.163
-348.464	185.330	0.087	0.129
-347.450	-200.000	-0.038	-0.294
-346.435	-24.794	-0.087	-0.051
-345.420	189.365	0.217	0.323
-344.406	-33.890	0.154	-0.084
-343.391	-200.000	-0.062	-0.396
-342.377	-112.303	0.132	0.026
-341.362	-54.153	0.499	0.225
-340.348	-200.000	-0.240	-0.001
-339.333	-200.000	0.019	-0.377
-338.318	-17.657	-0.112	-0.070
-337.304	-200.000	-0.024	0.428
-336.289	91.187	0.171	-0.191
-335.275	-163.645	-0.258	-0.012
-334.260	714.150	-0.086	-0.227
-333.245	508.898	-0.120	0.278
-332.231	-151.972	-0.216	-0.016
-331.216	-45.712	0.238	0.117
-330.202	-18.466	0.150	-0.093
-329.187	155.776	0.094	-0.129
-328.172	-141.838	-0.268	-0.027
-327.158	-200.000	-0.002	0.281
-326.143	-193.382	0.405	-0.003
-325.129	649.144	0.154	-0.391
-324.114	128.575	0.090	0.114
-323.099	127.588	-0.049	-0.061
-322.085	144.463	-0.117	0.155
-321.070	30.498	-0.165	0.140
-320.056	261.781	-0.211	-0.363
-319.041	392.696	-0.143	-0.295
-318.026	3.940	-0.109	0.079
-317.012	367.437	-0.097	-0.194
-315.997	-131.083	-0.411	0.054
-314.983	-85.067	-0.096	-0.030
-313.968	216.209	0.181	0.286
-312.953	150.270	0.162	0.218
-311.939	-165.027	-0.301	0.013
-310.924	-78.229	-0.420	-0.143
-309.910	-200.000	-0.033	0.256
-308.895	14.968	0.245	0.190
-307.880	-12.467	0.126	-0.082
-306.866	-3.705	0.205	0.141
-305.851	107.429	0.177	-0.209
-304.837	-200.000	-0.021	0.142
-303.822	317.484	-0.080	-0.150
-302.807	-131.928	-0.159	-0.021
-301.793	53.152	0.127	-0.120
-300.778	-93.528	0.179	-0.049
-299.764	-140.075	0.415	-0.043
-298.749	-76.120	-0.065	-0.023
-297.735	-48.211	-0.137	-0.066
-296.720	-83.815	0.170	0.054
-295.705	-200.000	0.001	-0.212
-294.691	-200.000	0.033	-0.280
-293.676	800.000	-0.083	0.246
-292.662	-200.000	0.020	0.131
-291.647	-26.345	0.143	0.083
-290.632	-200.000	-0.040	0.195
-289.618	-166.818	-0.173	-0.007
-288.603	7.612	0.122	0.091
-287.589	-112.087	0.065	0.013
-286.574	-14.309	-0.084	0.054
-285.559	64.648	-0.095	0.095
-284.545	421.200	-0.056	0.118
-283.530	347.884	0.138	0.269
-282.516	-89.043	-0.231	0.068
-281.501	-104.340	-0.121	-0.028
-280.486	-134.173	0.106	0.013
-279.472	800.000	0.100	0.320
-278.457	-199.486	-0.076	0.000
-277.443	48.864	-0.195	0.182
-276.428	-6.447	-0.075	-0.051
-275.413	-69.659	-0.204	-0.077
-274.399	89.353	-0.079	-0.087
-273.384	800.000	-0.065	-0.205
-272.370	447.927	0.089	-0.195
-271.355	99.687	-0.137	-0.157
-270.340	172.183	0.027	0.038
-269.326	145.156	-0.215	0.285
-268.311	57.859	-0.112	0.109
-267.297	-93.064	0.232	-0.064
-266.282	-200.000	-0.007	0.109
-265.267	-200.000	-0.002	-0.080
-264.253	149.913	0.104	0.140
-263.238	76.967	0.290	0.305
-262.224	-200.000	-0.043	0.266
-261.209	-200.000	-0.020	0.352
-260.195	800.000	-0.065	-0.224
-259.180	-118.256	0.236	0.042
-258.165	621.858	-0.060	-0.150
-257.151	-200.000	-0.048	0.214
-256.136	18.395	-0.257	-0.203
-255.122	-200.000	0.039	0.237
-254.107	315.399	-0.102	-0.190
-253.092	81.742	-0.083	0.088
-252.078	-200.000	-0.014	-0.184
-251.063	250.968	-0.200	-0.336
-250.049	800.000	0.098	0.308
-249.034	30.370	-0.123	-0.104
-248.019	89.642	0.154	0.170
-247.005	-133.130	-0.435	0.055
-245.990	-5.366	0.158	-0.107
-244.976	644.598	-0.064	-0.162
-243.961	-73.047	-0.070	0.025
-242.946	-200.000	0.045	-0.222
-241.932	607.310	-0.121	-0.298
-240.917	-89.996	-0.141	-0.041
-239.903	-141.041	0.080	0.008
-238.888	-56.913	0.084	-0.037
-237.873	24.624	0.157	0.129
-236.859	6.941	0.048	-0.036
-235.844	249.644	0.196	-0.329
-234.830	800.000	-0.121	-0.433
-233.815	800.000	-0.043	-0.131
-232.800	-23.247	0.432	0.257
-231.786	800.000	-0.070	-0.211
-230.771	-200.000	0.014	0.237
-229.757	-0.273	0.197	0.138
-228.742	157.098	0.174	-0.238
-227.727	-26.219	0.109	0.063
-226.713	-32.669	0.223	0.123
-225.698	133.041	0.099	0.127
-224.684	-94.343	-0.158	-0.043
-223.669	119.441	-0.044	-0.054
-222.655	-200.000	-0.038	0.306
-221.640	-200.000	-0.045	-0.213
-220.625	-59.442	0.284	0.121
-219.611	800.000	-0.004	-0.012
-218.596	-200.000	0.008	0.123
-217.582	456.607	0.088	-0.193
-216.567	22.477	0.408	-0.330
-215.552	-200.000	0.012	-0.189
-214.538	-200.000	-0.178	0.001
-213.523	470.857	0.062	-0.138
-212.509	-61.479	-0.121	-0.050
-211.494	-150.629	0.293	0.022
-210.479	17.728	0.344	0.271
-209.465	-4.176	0.153	-0.105
-208.450	-200.000	0.062	0.288
-207.436	-83.576	0.075	0.024
-206.421	241.171	0.143	0.236
-205.406	-200.000	-0.018	-0.109
-204.392	800.000	-0.089	-0.304
-203.377	166.690	-0.085	-0.119
-202.363	-48.828	0.194	-0.092
-201.348	-200.000	0.055	-0.374
-200.333	37.530	0.239	-0.209
-199.319	800.000	0.104	0.290
-198.304	124.618	-0.273	-0.340
-197.290	-128.079	0.264	0.037
-196.275	-80.328	0.324	0.107
-195.260	-17.295	0.150	-0.093
-194.246	-200.000	0.018	-0.114
-193.231	23.141	0.094	-0.076
-192.217	18.850	0.140	0.111
-191.202	116.330	-0.043	-0.052
-190.187	800.000	-0.072	0.262
-189.173	-5.688	-0.070	0.047
-188.158	10.860	-0.096	-0.072
-187.144	48.640	0.293	0.271
-186.129	219.253	0.103	-0.163
-185.114	-85.948	0.199	0.061
-184.100	62.287	0.172	0.170
-183.085	-21.347	0.417	-0.251
-182.071	-41.719	0.182	-0.092
-181.056	120.051	-0.120	0.147
-180.042	-200.000	-0.009	-0.160
-179.027	800.000	0.103	-0.442
-178.012	-200.000	-0.068	-0.318
-176.998	800.000	0.035	-0.144
-175.983	-141.929	0.144	0.014
-174.969	75.983	-0.232	0.243
-173.954	107.117	0.049	-0.058
-172.939	-46.014	-0.163	0.079
-171.925	-118.163	0.440	0.077
-170.910	158.862	-0.019	-0.027
-169.896	278.042	0.187	0.329
-168.881	-200.000	-0.001	-0.157
-167.866	14.869	-0.126	0.098
-166.852	-33.146	-0.222	-0.121
-165.837	-200.000	-0.045	-0.246
-164.823	-69.482	-0.211	0.080
-163.808	-30.690	-0.162	0.090
-162.793	-68.167	-0.091	-0.035
-161.779	800.000	-0.138	-0.416
-160.764	800.000	-0.047	-0.174
-159.750	-130.113	-0.433	-0.058
-158.735	27.057	0.159	0.131
-157.720	-200.000	0.047	0.378
-156.706	383.519	-0.038	-0.078
-155.691	2.719	0.077	0.055
-154.677	-69.175	-0.287	0.109
-153.662	203.637	0.100	-0.153
-152.647	56.070	-0.125	0.120
-151.633	-58.314	0.052	0.022
-150.618	-143.315	-0.156	-0.015
-149.604	434.702	0.134	-0.286
-148.589	-137.119	0.398	-0.045
-147.574	4.660	-0.130	0.094
-146.560	800.000	0.021	-0.070
-145.545	206.776	-0.153	-0.235
-144.531	-45.065	0.221	-0.108
-143.516	-200.000	0.068	0.376
-142.502	215.461	0.183	0.287
-141.487	-200.000	-0.061	0.313
-140.472	-165.584	-0.026	-0.001
-139.458	313.404	0.051	-0.094
-138.443	-200.000	0.024	0.122
-137.429	800.000	-0.075	-0.206
-136.414	192.400	-0.097	-0.145
-135.399	423.962	0.173	0.367
-134.385	-121.135	-0.238	-0.039
-133.370	800.000	-0.021	-0.070
-132.356	800.000	0.048	-0.146
-131.341	95.079	-0.039	0.043
-130.326	93.791	0.325	0.363
-129.312	-68.660	0.309	0.118
-128.297	187.362	-0.175	-0.257
-127.283	-140.518	0.207	-0.021
-126.268	-200.000	0.007	-0.076
-125.253	212.855	-0.149	-0.232
-124.239	-200.000	-0.030	0.225
-123.224	-200.000	-0.174	0.001
-122.210	800.000	-0.063	0.177
-121.195	-119.178	0.282	-0.048
