DTS Sentinel unit serial number:	SN413079Multiplexer serial number:	ORYXHardware model number:	OX4-SRSoftware version number:	ORYX F/W v4.00 Oryx Data Collector v3.7.2.0data status	okinstallation	princeton_trtdifferential loss correction	single-endedforward channel	channel 3reverse channel	N/Adate	2019/09/17time	16:04:35forward acquisition time	60.00reverse acquisition time	0.00gamma	496.2192k internal	0.2291k external	0.2291temperature offset calibration	0.9951default loss term (dB/km)	0.3790temperature slope calibration	1.0000multiplexer offset coefficient	1.0000multiplexer slope coefficient	1.0000fibre end	0.00T internal ref (°C)	40.17T ext. ref 1 (°C)	0.37T ext. ref 2 (°C)	38.66length (m)	temperature (°C)	Stokes	anti-Stokes-747.200	-8.712	-0.100	-0.069
-746.185	68.773	-0.256	0.270
-745.171	-200.000	0.051	-0.344
-744.156	22.497	0.068	0.057
-743.142	242.160	0.110	0.189
-742.127	26.500	0.193	0.165
-741.112	201.904	0.152	-0.240
-740.098	-25.081	-0.251	0.152
-739.083	287.857	0.123	-0.228
-738.069	-18.055	-0.253	0.162
-737.054	-102.975	-0.150	-0.036
-736.039	-113.578	-0.334	-0.067
-735.025	-200.000	0.008	-0.036
-734.010	-87.542	-0.124	0.038
-732.996	127.060	0.115	-0.149
-731.981	-200.000	0.036	0.368
-730.966	-199.045	0.352	0.002
-729.952	458.389	-0.141	-0.321
-728.937	-94.064	0.248	-0.070
-727.923	264.538	-0.048	0.085
-726.908	62.758	-0.189	-0.193
-725.894	-200.000	-0.023	0.146
-724.879	165.751	0.099	0.143
-723.864	-111.996	-0.206	0.042
-722.850	-142.578	-0.146	-0.015
-721.835	800.000	0.025	-0.109
-720.821	-64.859	0.028	0.012
-719.806	33.951	-0.115	-0.102
-718.791	73.083	0.160	0.171
-717.777	-12.266	0.217	0.145
-716.762	800.000	0.116	-0.341
-715.748	188.766	-0.101	-0.154
-714.733	-60.941	-0.210	0.091
-713.718	-138.325	0.138	-0.016
-712.704	11.413	-0.103	-0.081
-711.689	-200.000	0.043	-0.288
-710.675	-122.671	-0.170	-0.028
-709.660	-13.403	-0.021	0.014
-708.645	-183.325	0.549	0.010
-707.631	-163.605	0.163	-0.008
-706.616	153.343	-0.070	0.098
-705.602	-18.477	0.140	0.089
-704.587	-200.000	-0.026	-0.224
-703.572	-118.765	0.206	-0.037
-702.558	79.805	-0.155	-0.171
-701.543	-132.215	-0.262	-0.035
-700.529	-133.498	-0.172	0.022
-699.514	-182.682	-0.263	0.005
-698.499	350.919	0.123	-0.249
-697.485	-200.000	0.043	-0.247
-696.470	-0.635	-0.195	0.141
-695.456	26.266	-0.096	-0.082
-694.441	-200.000	0.036	-0.261
-693.426	64.665	-0.181	0.187
-692.412	578.054	0.087	0.217
-691.397	800.000	0.063	0.199
-690.383	800.000	0.027	0.107
-689.368	144.423	-0.206	0.281
-688.354	-129.330	-0.219	-0.031
-687.339	-75.439	-0.060	-0.022
-686.324	399.348	0.095	-0.204
-685.310	-200.000	0.001	-0.135
-684.295	-5.632	0.140	-0.098
-683.281	-200.000	-0.056	-0.256
-682.266	-36.910	0.202	-0.110
-681.251	-61.562	0.240	0.103
-680.237	-57.344	0.287	0.129
-679.222	-67.159	-0.285	0.114
-678.208	25.744	-0.085	-0.072
-677.193	531.267	-0.091	0.220
-676.178	-200.000	0.019	-0.195
-675.164	311.100	-0.016	-0.030
-674.149	-123.481	-0.256	0.042
-673.135	178.178	-0.203	-0.302
-672.120	-5.688	-0.177	0.124
-671.105	206.079	0.297	0.471
-670.091	171.802	0.024	-0.035
-669.076	-70.101	0.177	-0.069
-668.062	304.810	0.085	-0.161
-667.047	195.308	0.326	-0.506
-666.032	-200.000	-0.002	0.031
-665.018	-42.168	-0.111	-0.058
-664.003	-65.336	0.122	0.050
-662.989	-66.285	-0.059	0.024
-661.974	-136.196	0.343	-0.041
-660.959	-170.465	0.199	0.007
-659.945	-62.058	-0.031	-0.013
-658.930	800.000	-0.046	0.142
-657.916	-152.273	-0.388	-0.029
-656.901	-200.000	0.018	-0.092
-655.886	800.000	-0.068	0.210
-654.872	-200.000	0.014	-0.080
-653.857	800.000	-0.045	-0.202
-652.843	192.873	-0.125	-0.192
-651.828	525.417	0.019	0.045
-650.814	-200.000	-0.024	-0.188
-649.799	-200.000	0.009	0.190
-648.784	255.807	-0.065	0.113
-647.770	-125.823	0.366	0.056
-646.755	259.972	0.052	0.091
-645.741	-99.947	-0.202	0.051
-644.726	-130.965	0.342	-0.047
-643.711	181.189	-0.018	0.028
-642.697	560.134	-0.103	0.254
-641.682	-61.277	0.034	0.015
-640.668	65.656	0.025	0.025
-639.653	155.600	0.211	-0.296
-638.638	-200.000	-0.043	-0.222
-637.624	800.000	-0.058	-0.173
-636.609	800.000	0.086	0.276
-635.595	-72.158	0.290	-0.110
-634.580	61.754	0.075	-0.076
-633.565	97.466	-0.045	0.053
-632.551	76.817	-0.216	-0.234
-631.536	-110.034	-0.268	-0.057
-630.522	-106.640	-0.214	0.049
-629.507	-81.789	-0.167	0.056
-628.492	-14.111	-0.112	0.073
-627.478	-23.967	0.366	0.223
-626.463	-150.642	0.313	-0.024
-625.449	800.000	-0.069	0.226
-624.434	329.416	-0.093	0.182
-623.419	-200.000	0.004	-0.060
-622.405	353.915	-0.111	0.226
-621.390	72.196	-0.136	0.144
-620.376	-185.400	-0.257	-0.004
-619.361	-191.631	-0.378	-0.004
-618.346	-118.343	0.044	-0.008
-617.332	-57.108	0.144	-0.065
-616.317	-107.002	0.269	0.061
-615.303	-30.364	0.053	0.030
-614.288	-200.000	0.052	0.232
-613.273	-200.000	-0.014	0.090
-612.259	-125.699	0.185	0.028
-611.244	-107.936	0.102	-0.023
-610.230	80.024	0.302	0.331
-609.215	-5.347	-0.297	-0.208
-608.201	16.139	0.209	-0.168
-607.186	-13.496	-0.230	-0.152
-606.171	-161.007	0.297	0.016
-605.157	-200.000	-0.022	0.287
-604.142	-20.593	0.193	-0.120
-603.128	12.659	0.182	0.143
-602.113	-12.177	-0.204	0.136
-601.098	-200.000	-0.019	-0.191
-600.084	-64.788	0.079	0.033
-599.069	30.040	0.192	0.167
-598.055	800.000	-0.002	-0.008
-597.040	800.000	-0.155	0.464
-596.025	24.115	-0.170	0.143
-595.011	20.788	-0.245	0.202
-593.996	-99.217	-0.200	-0.051
-592.982	-95.552	0.356	0.097
-591.967	-116.603	0.227	-0.043
-590.952	58.041	-0.104	-0.104
-589.938	-21.505	0.194	-0.120
-588.923	-68.076	0.319	-0.126
-587.909	-200.000	0.037	-0.266
-586.894	3.102	0.087	-0.064
-585.879	-200.000	0.020	-0.326
-584.865	91.502	0.103	-0.118
-583.850	-200.000	0.014	0.259
-582.836	171.159	-0.167	0.244
-581.821	516.348	0.068	-0.163
-580.806	-148.187	-0.277	-0.023
-579.792	-89.803	-0.223	-0.066
-578.777	-199.234	0.106	-0.001
-577.763	800.000	0.073	-0.263
-576.748	-113.514	-0.094	-0.019
-575.733	-41.095	-0.152	-0.080
-574.719	-94.917	-0.242	-0.067
-573.704	177.683	0.240	-0.356
-572.690	67.620	0.057	-0.060
-571.675	287.852	-0.060	0.111
-570.661	-55.691	0.168	-0.076
-569.646	-18.869	0.255	-0.161
-568.631	326.090	0.193	-0.377
-567.617	327.704	0.014	-0.028
-566.602	-18.243	-0.215	0.137
-565.588	-26.965	-0.213	0.126
-564.573	-57.026	0.329	-0.148
-563.558	-123.086	0.319	-0.052
-562.544	-139.997	-0.161	0.017
-561.529	489.615	-0.182	0.422
-560.515	143.281	-0.111	-0.150
-559.500	-76.569	0.090	-0.032
-558.485	-74.524	0.117	0.043
-557.471	-48.435	-0.269	-0.132
-556.456	-99.036	-0.333	-0.086
-555.442	-56.796	-0.083	0.037
-554.427	-40.475	0.253	-0.134
-553.412	147.443	-0.117	0.160
-552.398	-132.910	-0.037	-0.005
-551.383	-104.287	0.127	-0.030
-550.369	-52.110	0.189	-0.089
-549.354	-70.548	0.209	0.080
-548.339	-200.000	0.034	0.253
-547.325	-76.510	0.033	-0.012
-546.310	181.882	0.184	0.276
-545.296	-93.153	-0.340	-0.096
-544.281	-87.897	0.259	-0.079
-543.266	-107.118	-0.207	-0.046
-542.252	-200.000	0.004	0.034
-541.237	590.537	0.062	0.156
-540.223	-200.000	0.009	-0.101
-539.208	800.000	-0.034	0.116
-538.193	234.892	-0.141	0.236
-537.179	-84.333	-0.108	-0.035
-536.164	45.475	-0.162	-0.152
-535.150	800.000	-0.053	-0.230
-534.135	-200.000	0.008	-0.073
-533.121	188.032	0.113	-0.171
-532.106	85.455	-0.238	0.266
-531.091	266.422	-0.075	0.133
-530.077	-96.199	-0.229	0.062
-529.062	800.000	0.070	0.301
-528.048	-110.211	0.218	-0.046
-527.033	347.745	0.133	-0.266
-526.018	-105.270	0.188	0.044
-525.004	121.570	-0.113	-0.143
-523.989	-200.000	-0.031	-0.363
-522.975	-200.000	0.012	-0.076
-521.960	51.384	-0.071	-0.069
-520.945	365.503	0.150	-0.307
-519.931	-200.000	-0.011	0.398
-518.916	-200.000	-0.036	-0.475
-517.902	94.761	-0.194	-0.224
-516.887	-200.000	0.019	-0.210
-515.872	-99.273	0.226	0.058
-514.858	-126.419	0.039	-0.006
-513.843	568.622	0.040	-0.098
-512.829	620.821	-0.147	0.375
-511.814	39.029	0.043	0.039
-510.799	-200.000	0.014	0.188
-509.785	390.778	0.054	0.114
-508.770	800.000	0.072	0.225
-507.756	92.230	0.066	0.075
-506.741	110.307	0.038	0.047
-505.726	-76.235	-0.027	0.010
-504.712	-114.569	-0.252	0.049
-503.697	89.673	-0.061	0.069
-502.683	70.806	-0.099	0.104
-501.668	223.918	-0.086	0.140
-500.653	203.535	0.165	0.259
-499.639	-124.719	-0.108	0.017
-498.624	341.506	-0.076	0.150
-497.610	249.518	0.155	-0.267
-496.595	101.094	-0.215	0.253
-495.581	-101.116	0.182	-0.045
-494.566	485.090	-0.048	-0.111
-493.551	112.801	0.206	-0.253
-492.537	425.271	0.137	-0.300
-491.522	-151.560	0.066	0.005
-490.508	-200.000	-0.009	-0.085
-489.493	-200.000	0.016	-0.128
-488.478	417.839	-0.128	-0.277
-487.464	264.346	0.067	-0.117
-486.449	-138.797	-0.130	-0.014
-485.435	800.000	0.029	0.117
-484.420	-125.369	-0.176	0.027
-483.405	-91.483	0.277	0.080
-482.391	-81.875	-0.057	0.019
-481.376	-53.915	-0.149	0.069
-480.362	-56.980	-0.108	0.048
-479.347	-54.532	0.157	0.072
-478.332	-200.000	-0.095	-0.714
-477.318	-47.362	-0.239	-0.118
-476.303	-200.000	-0.001	0.212
-475.289	-3.915	-0.163	0.114
-474.274	113.082	0.193	0.237
-473.259	-137.831	-0.101	0.011
-472.245	-200.000	-0.035	-0.288
-471.230	800.000	-0.142	-0.422
-470.216	-200.000	-0.002	-0.053
-469.201	-200.000	0.029	0.155
-468.186	-85.705	0.261	-0.082
-467.172	-200.000	0.006	0.107
-466.157	1.349	-0.451	0.328
-465.143	82.136	-0.235	0.258
-464.128	-200.000	-0.020	0.167
-463.113	-108.441	-0.333	0.073
-462.099	-110.923	0.333	0.069
-461.084	207.412	-0.184	-0.291
-460.070	800.000	-0.042	-0.136
-459.055	-39.498	0.048	-0.026
-458.040	-99.011	0.121	-0.031
-457.026	800.000	0.097	0.300
-456.011	-200.000	0.009	0.165
-454.997	105.911	0.096	-0.115
-453.982	29.557	-0.127	-0.110
-452.968	-200.000	0.020	0.094
-451.953	12.469	0.115	0.089
-450.938	800.000	-0.086	-0.361
-449.924	-158.950	0.271	-0.016
-448.909	44.605	0.176	0.164
-447.895	-32.335	0.090	-0.051
-446.880	511.529	-0.070	0.166
-445.865	-166.332	-0.167	0.007
-444.851	-142.402	-0.248	-0.025
-443.836	743.973	-0.079	-0.216
-442.822	-166.132	-0.155	-0.007
-441.807	71.009	0.298	0.313
-440.792	36.174	-0.192	0.171
-439.778	-0.711	0.340	-0.244
-438.763	309.557	-0.165	-0.312
-437.749	-53.318	-0.362	0.168
-436.734	2.476	0.125	-0.091
-435.719	-113.622	-0.258	0.051
-434.705	149.898	0.108	-0.148
-433.690	-68.814	-0.082	-0.032
-432.676	-42.723	-0.105	-0.054
-431.661	-101.127	-0.233	0.058
-430.646	-57.099	-0.360	-0.160
-429.632	-41.475	0.127	-0.066
-428.617	-92.713	0.322	0.091
-427.603	-27.391	-0.320	-0.188
-426.588	-20.621	0.066	-0.041
-425.573	196.608	0.138	0.212
-424.559	-77.086	0.289	-0.102
-423.544	-78.985	0.102	-0.035
-422.530	-200.000	-0.029	-0.211
-421.515	150.821	0.175	0.240
-420.500	-115.050	-0.072	0.014
-419.486	-7.271	-0.044	0.030
-418.471	697.437	0.049	-0.129
-417.457	-183.332	-0.167	0.003
-416.442	-200.000	-0.038	-0.187
-415.428	-200.000	-0.008	-0.105
-414.413	-200.000	-0.007	-0.182
-413.398	800.000	-0.008	0.024
-412.384	-113.039	0.380	-0.076
-411.369	10.552	-0.091	-0.070
-410.355	99.810	0.170	-0.199
-409.340	59.511	-0.184	0.183
-408.325	196.523	-0.145	0.223
-407.311	140.022	-0.125	-0.167
-406.296	-146.540	0.163	-0.014
-405.282	33.207	-0.236	-0.206
-404.267	-200.000	0.042	-0.274
-403.252	141.302	-0.194	-0.260
-402.238	800.000	0.057	-0.226
-401.223	149.871	0.091	0.125
-400.209	38.359	0.222	-0.200
-399.194	110.631	-0.192	0.233
-398.179	-200.000	-0.003	0.104
-397.165	156.423	0.305	-0.425
-396.150	453.389	-0.164	-0.367
-395.136	-187.381	0.195	0.003
-394.121	-186.275	-0.123	0.002
-393.106	-29.785	0.474	-0.273
-392.092	-30.588	-0.079	-0.045
-391.077	799.353	0.051	-0.141
-390.063	172.913	-0.118	0.171
-389.048	180.411	0.108	-0.160
-388.033	176.245	-0.027	0.040
-387.019	-31.993	0.099	0.056
-386.004	800.000	0.099	-0.313
-384.990	-74.082	-0.340	0.124
-383.975	800.000	-0.106	0.414
-382.960	-73.746	-0.210	0.077
-381.946	-107.815	-0.119	-0.026
-380.931	-93.212	-0.384	-0.108
-379.917	389.060	-0.072	0.150
-378.902	74.092	-0.228	0.242
-377.888	-120.062	0.253	-0.044
-376.873	-6.811	0.376	0.258
-375.858	-200.000	-0.074	0.368
-374.844	-43.685	-0.083	-0.042
-373.829	-200.000	0.010	-0.077
-372.815	12.647	-0.436	-0.340
-371.800	-149.985	-0.168	0.013
-370.785	-85.163	0.270	0.085
-369.771	-200.000	-0.003	-0.168
-368.756	-200.000	-0.033	-0.231
-367.742	-200.000	-0.024	0.267
-366.727	-157.983	0.134	0.008
-365.712	-200.000	-0.006	0.194
-364.698	-4.613	0.328	0.229
-363.683	782.448	-0.091	0.250
-362.669	800.000	-0.098	0.387
-361.654	-200.000	-0.031	0.272
-360.639	136.085	-0.224	0.295
-359.625	-175.678	0.414	-0.011
-358.610	-200.000	0.006	-0.158
-357.596	129.030	-0.172	0.221
-356.581	-21.961	0.054	-0.033
-355.566	-25.260	-0.194	-0.116
-354.552	-66.787	-0.076	-0.030
-353.537	-5.170	0.217	-0.151
-352.523	151.504	-0.103	0.142
-351.508	-49.176	-0.460	0.222
-350.493	6.214	-0.234	0.175
-349.479	-39.767	0.106	0.056
-348.464	800.000	0.073	-0.309
-347.450	-200.000	0.002	-0.200
-346.435	-57.311	0.191	-0.085
-345.420	329.878	-0.023	-0.045
-344.406	61.650	0.124	-0.124
-343.391	-200.000	-0.005	-0.123
-342.377	164.843	0.080	-0.114
-341.362	-200.000	-0.024	0.209
-340.348	21.234	-0.049	0.040
-339.333	-81.519	0.242	-0.080
-338.318	396.821	-0.121	0.254
-337.304	-200.000	-0.014	-0.561
-336.289	15.398	0.288	-0.228
-335.275	-24.299	-0.118	0.071
-334.260	-187.365	0.471	-0.006
-333.245	-124.521	0.099	0.015
-332.231	237.523	-0.137	0.229
-331.216	-8.711	0.335	0.227
-330.202	800.000	0.086	-0.256
-329.187	-166.660	0.082	0.003
-328.172	-200.000	-0.055	0.260
-327.158	229.235	0.154	0.253
-326.143	-20.111	-0.268	0.166
-325.129	-5.249	0.396	0.274
-324.114	40.046	0.205	0.186
-323.099	51.822	0.086	-0.082
-322.085	-200.000	-0.115	-0.000
-321.070	-200.000	-0.018	0.142
-320.056	-69.830	0.120	-0.046
-319.041	-200.000	-0.006	0.096
-318.026	-68.566	0.064	-0.025
-317.012	-200.000	-0.038	-0.277
-315.997	-200.000	0.035	-0.163
-314.983	-75.336	-0.168	-0.060
-313.968	-200.000	0.001	-0.353
-312.953	30.285	0.059	-0.051
-311.939	421.944	0.050	0.108
-310.924	-200.000	0.006	-0.110
-309.910	-7.462	-0.189	-0.129
-308.895	-148.786	-0.381	-0.031
-307.880	-101.836	0.143	-0.035
-306.866	177.984	-0.129	-0.190
-305.851	-131.332	-0.207	0.028
-304.837	-200.000	-0.019	0.146
-303.822	203.792	0.057	0.089
-302.807	-94.186	-0.178	0.049
-301.793	-200.000	-0.059	-0.261
-300.778	800.000	0.064	-0.279
-299.764	-129.179	0.289	0.041
-298.749	-38.091	-0.156	-0.083
-297.735	22.087	0.278	0.228
-296.720	-150.496	0.123	-0.009
-295.705	-82.577	0.136	0.044
-294.691	-17.421	0.132	0.083
-293.676	-41.518	0.108	0.056
-292.662	-73.044	-0.257	-0.095
-291.647	-103.894	0.413	0.097
-290.632	2.018	-0.110	0.080
-289.618	231.036	-0.172	0.283
-288.603	-51.982	-0.186	-0.087
-287.589	-200.000	0.056	-0.319
-286.574	-89.887	-0.119	0.035
-285.559	-200.000	0.003	0.146
-284.545	-79.109	0.257	0.088
-283.530	-117.537	0.407	0.074
-282.516	800.000	-0.029	0.092
-281.501	-200.000	0.011	-0.105
-280.486	800.000	-0.038	-0.109
-279.472	-28.409	0.255	-0.148
-278.457	62.615	0.213	-0.214
-277.443	-138.598	-0.270	0.030
-276.428	-2.979	0.347	0.243
-275.413	800.000	0.079	0.248
-274.399	15.300	-0.517	-0.407
-273.384	108.912	-0.395	-0.475
-272.370	-62.666	0.070	-0.029
-271.355	10.984	-0.238	-0.183
-270.340	587.860	-0.094	-0.233
-269.326	-200.000	-0.046	-0.402
-268.311	-155.657	-0.349	-0.023
-267.297	63.642	-0.174	-0.175
-266.282	-151.193	0.193	-0.015
-265.267	355.473	-0.066	0.133
-264.253	-156.105	-0.208	-0.013
-263.238	-52.270	0.248	-0.116
-262.224	4.398	-0.163	0.120
-261.209	775.043	-0.128	0.351
-260.195	-20.856	0.217	-0.134
-259.180	800.000	-0.112	0.444
-258.165	800.000	-0.123	0.458
-257.151	-200.000	0.011	0.122
-256.136	-88.907	-0.121	0.036
-255.122	80.485	-0.296	-0.321
-254.107	-200.000	0.009	-0.105
-253.092	-97.091	-0.085	0.022
-252.078	-6.628	-0.278	-0.190
-251.063	-200.000	-0.004	-0.178
-250.049	565.590	-0.164	-0.399
-249.034	-187.806	-0.340	-0.004
-248.019	91.255	0.091	-0.102
-247.005	-29.567	0.093	-0.054
-245.990	-118.889	0.301	0.053
-244.976	-200.000	-0.015	0.070
-243.961	-43.416	0.176	0.089
-242.946	249.212	0.152	0.258
-241.932	-75.836	0.372	0.132
-240.917	378.744	-0.073	-0.150
-239.903	800.000	0.086	-0.252
-238.888	-61.673	-0.278	-0.117
-237.873	-133.246	-0.136	-0.017
-236.859	-19.120	-0.128	0.080
-235.844	613.214	0.114	0.287
-234.830	66.145	-0.083	-0.085
-233.815	800.000	-0.049	0.191
-232.800	484.603	-0.114	0.259
-231.786	1.092	-0.300	0.216
-230.771	-81.128	-0.199	-0.066
-229.757	800.000	-0.066	0.187
-228.742	-126.059	0.156	-0.023
-227.727	-64.870	0.278	0.113
-226.713	-39.053	-0.074	-0.039
-225.698	146.350	0.077	-0.104
-224.684	111.740	0.170	0.206
-223.669	135.224	0.130	-0.169
-222.655	8.949	0.225	-0.170
-221.640	800.000	-0.030	-0.131
-220.625	289.845	-0.074	-0.135
-219.611	-6.750	0.167	0.114
-218.596	-200.000	0.001	-0.323
-217.582	34.422	0.089	0.078
-216.567	86.808	-0.232	-0.257
-215.552	-200.000	-0.001	-0.042
-214.538	-94.984	0.072	-0.019
-213.523	-147.406	0.280	0.024
-212.509	456.108	-0.016	0.035
-211.494	-83.824	-0.128	0.041
-210.479	-113.616	-0.194	-0.038
-209.465	396.357	-0.149	0.311
-208.450	800.000	0.099	0.344
-207.436	800.000	-0.088	-0.310
-206.421	800.000	-0.004	-0.015
-205.406	-200.000	0.043	-0.202
-204.392	42.947	0.223	0.204
-203.377	62.457	0.122	-0.122
-202.363	-80.232	0.315	0.106
-201.348	46.081	0.154	0.143
-200.333	12.973	0.221	-0.171
-199.319	-200.000	-0.027	0.313
-198.304	86.713	-0.101	0.112
-197.290	-200.000	-0.013	0.209
-196.275	109.774	0.218	0.262
-195.260	-35.625	-0.230	0.125
-194.246	18.427	0.086	0.069
-193.231	-138.496	-0.120	0.013
-192.217	-68.208	-0.067	0.026
-191.202	-200.000	0.006	0.249
-190.187	-59.548	0.042	0.018
-189.173	-10.798	0.245	-0.163
-188.158	71.330	0.228	-0.237
-187.144	-32.585	-0.122	0.068
-186.129	-1.292	-0.028	-0.020
-185.114	-122.052	-0.319	0.053
-184.100	-200.000	-0.072	-0.330
-183.085	-200.000	0.104	-0.481
-182.071	800.000	-0.025	-0.100
-181.056	-200.000	0.022	0.119
-180.042	64.968	-0.187	0.189
-179.027	429.191	0.080	0.172
-178.012	-180.637	0.188	-0.004
-176.998	-200.000	-0.061	0.318
-175.983	800.000	-0.083	0.337
-174.969	-123.344	-0.145	-0.023
-173.954	-159.008	-0.227	0.013
-172.939	-141.052	-0.162	-0.017
-171.925	1.278	0.181	0.130
-170.910	13.605	-0.172	0.134
-169.896	-200.000	-0.068	0.300
-168.881	800.000	-0.029	-0.117
-167.866	133.873	-0.191	-0.247
-166.852	-200.000	-0.033	-0.266
-165.837	-200.000	-0.027	0.376
-164.823	-114.876	0.264	-0.050
-163.808	98.508	0.125	0.144
-162.793	-156.115	-0.111	0.007
-161.779	-133.686	-0.268	-0.034
-160.764	-78.738	0.401	0.137
-159.750	-47.889	0.149	-0.072
-158.735	227.724	0.162	0.264
-157.720	90.957	0.070	-0.079
-156.706	32.304	0.126	-0.109
-155.691	119.477	0.157	0.194
-154.677	33.481	-0.168	0.146
-153.662	83.423	-0.139	-0.152
-152.647	36.705	0.109	0.097
-151.633	-200.000	-0.011	0.126
-150.618	800.000	-0.091	-0.252
-149.604	290.037	0.076	-0.137
-148.589	-200.000	-0.007	0.185
-147.574	91.453	-0.092	-0.103
-146.560	-200.000	-0.042	-0.409
-145.545	7.443	-0.296	-0.221
-144.531	414.725	-0.174	0.371
-143.516	494.772	0.107	0.246
-142.502	-200.000	0.036	0.178
-141.487	-168.964	0.067	0.003
-140.472	-146.245	-0.348	0.031
-139.458	14.395	0.152	-0.119
-138.443	196.422	0.078	0.118
-137.429	-176.396	-0.578	-0.015
-136.414	-200.000	-0.002	-0.024
-135.399	100.641	-0.161	-0.187
-134.385	-28.479	0.422	-0.243
-133.370	-200.000	0.010	-0.078
-132.356	67.354	0.223	-0.228
-131.341	-19.697	-0.074	-0.046
-130.326	-55.384	0.100	0.045
-129.312	175.298	-0.152	0.220
-128.297	112.348	-0.140	0.169
-127.283	-90.748	-0.272	-0.078
-126.268	206.607	0.060	0.093
-125.253	84.573	-0.157	0.172
-124.239	-108.731	0.256	0.055
-123.224	-120.969	0.215	-0.036
-122.210	55.136	-0.140	-0.135
